DTS Sentinel unit serial number:	SN410029Multiplexer serial number:	ORYXHardware model number:	OX2-SRSoftware version number:	ORYX F/W v4,00 Oryx Data Collector v3.7.2.0data status	okinstallation	B3 Nyhavnadifferential loss correction	single-endedforward channel	channel 1reverse channel	N/Adate	2023/11/28time	20:22:30forward acquisition time	300,00reverse acquisition time	0,00gamma	499,1914k internal	0,3212k external	0,3212temperature offset calibration	1,0000default loss term (dB/km)	0,3820temperature slope calibration	1,0000multiplexer offset coefficient	1,0000multiplexer slope coefficient	1,0000fibre end	0,00T internal ref (°C)	7,93T ext. ref 1 (°C)	-6,63T ext. ref 2 (°C)	-6,77length (m)	temperature (°C)	Stokes	anti-Stokes-744,400	226,876	-0,264	-0,311
-743,385	-200,000	0,023	0,220
-742,371	159,953	-0,198	-0,201
-741,356	-200,000	0,026	0,262
-740,342	276,923	-0,151	-0,195
-739,327	-200,000	0,037	0,324
-738,312	800,000	-0,120	-0,279
-737,298	-200,000	-0,047	0,184
-736,283	108,101	-0,208	-0,180
-735,269	-200,000	-0,063	0,293
-734,254	800,000	-0,058	-0,167
-733,239	-49,415	-0,246	0,084
-732,225	433,095	-0,113	-0,179
-731,210	119,311	0,123	0,110
-730,196	238,473	0,117	-0,141
-729,181	213,686	-0,121	0,139
-728,167	-200,000	0,015	-0,050
-727,152	-200,000	-0,040	-0,132
-726,137	800,000	0,043	0,106
-725,123	179,821	-0,059	0,062
-724,108	58,975	0,030	-0,021
-723,094	188,098	-0,023	-0,025
-722,079	-200,000	0,006	0,114
-721,064	-200,000	-0,006	0,077
-720,050	50,737	-0,122	-0,083
-719,035	21,117	-0,130	-0,076
-718,021	-137,007	-0,023	-0,002
-717,006	800,000	0,022	-0,069
-715,991	-90,080	-0,086	-0,018
-714,977	103,718	0,013	0,011
-713,962	94,428	-0,089	-0,073
-712,948	-52,105	-0,086	0,029
-711,933	-200,000	0,006	-0,103
-710,918	-200,000	0,002	-0,088
-709,904	-200,000	0,002	0,045
-708,889	188,970	0,053	-0,058
-707,875	-200,000	0,022	-0,124
-706,860	277,580	0,045	-0,058
-705,845	684,744	0,055	0,105
-704,831	-25,230	0,060	-0,026
-703,816	45,340	-0,102	-0,068
-702,802	-109,324	-0,079	0,012
-701,787	12,102	-0,050	-0,028
-700,772	800,000	-0,059	0,123
-699,758	800,000	-0,014	-0,041
-698,743	493,133	0,036	-0,060
-697,729	-118,039	0,048	0,006
-696,714	-200,000	-0,011	0,096
-695,699	146,136	-0,051	-0,049
-694,685	246,498	-0,040	-0,049
-693,670	387,889	-0,061	-0,091
-692,656	-56,229	0,175	0,056
-691,641	800,000	-0,026	0,079
-690,627	0,359	-0,067	0,034
-689,612	800,000	0,009	0,026
-688,597	388,111	0,047	-0,070
-687,583	800,000	0,044	-0,118
-686,568	1,683	-0,057	-0,030
-685,554	-200,000	-0,021	0,092
-684,539	-96,630	-0,041	0,008
-683,524	390,428	0,046	0,069
-682,510	-167,670	0,048	-0,001
-681,495	83,001	0,030	0,024
-680,481	-1,979	-0,085	0,043
-679,466	-200,000	-0,009	-0,080
-678,451	80,343	-0,123	-0,096
-677,437	186,182	0,057	-0,061
-676,422	800,000	-0,047	0,139
-675,408	138,064	-0,061	-0,058
-674,393	23,321	0,037	-0,022
-673,378	800,000	0,035	0,088
-672,364	-92,759	-0,167	-0,033
-671,349	-83,602	-0,111	0,026
-670,335	86,413	-0,123	0,098
-669,320	-82,437	0,167	0,039
-668,305	-200,000	-0,002	0,062
-667,291	231,314	-0,126	0,150
-666,276	10,810	-0,175	0,096
-665,262	102,553	0,092	-0,077
-664,247	800,000	-0,022	-0,059
-663,232	-20,517	0,090	0,040
-662,218	800,000	0,009	-0,027
-661,203	-200,000	0,011	-0,065
-660,189	-200,000	-0,044	-0,165
-659,174	-200,000	0,012	-0,082
-658,159	104,255	-0,121	-0,103
-657,145	486,655	-0,058	0,096
-656,130	130,086	0,066	0,061
-655,116	-27,551	0,087	-0,036
-654,101	800,000	-0,041	0,105
-653,086	800,000	-0,076	-0,223
-652,072	-14,172	0,082	0,038
-651,057	-124,308	-0,132	0,015
-650,043	142,067	0,113	-0,109
-649,028	800,000	-0,084	-0,198
-648,014	-200,000	-0,009	0,081
-646,999	86,662	0,043	-0,034
-645,984	22,392	0,126	-0,074
-644,970	19,063	0,029	-0,016
-643,955	91,154	-0,099	-0,081
-642,941	287,989	-0,072	-0,094
-641,926	800,000	0,042	0,096
-640,911	-46,735	-0,092	0,032
-639,897	-120,302	-0,035	0,004
-638,882	109,977	-0,050	-0,043
-637,868	-200,000	-0,002	0,114
-636,853	-200,000	0,054	-0,223
-635,838	-9,811	-0,075	0,036
-634,824	-20,952	0,068	-0,030
-633,809	333,239	0,022	-0,031
-632,795	-99,100	-0,028	0,005
-631,780	34,529	0,017	0,010
-630,765	240,886	-0,032	-0,039
-629,751	-4,719	-0,092	-0,046
-628,736	-35,354	-0,172	-0,067
-627,722	-180,368	0,033	0,000
-626,707	800,000	-0,038	-0,091
-625,692	702,774	0,029	-0,056
-624,678	-200,000	-0,042	0,205
-623,663	-27,635	0,054	0,023
-622,649	0,689	-0,160	-0,082
-621,634	497,192	0,026	0,043
-620,619	132,987	-0,081	-0,076
-619,605	83,066	0,066	0,052
-618,590	234,177	-0,080	-0,096
-617,576	-200,000	-0,039	-0,150
-616,561	-200,000	-0,007	0,051
-615,546	-111,129	-0,087	0,013
-614,532	800,000	0,015	-0,035
-613,517	26,791	-0,176	-0,106
-612,503	45,617	-0,120	-0,080
-611,488	15,410	0,091	0,051
-610,474	-69,814	0,184	0,050
-609,459	-200,000	0,007	0,026
-608,444	-200,000	-0,005	0,141
-607,430	34,045	-0,121	-0,076
-606,415	800,000	-0,022	-0,050
-605,401	-200,000	-0,000	0,070
-604,386	103,130	0,067	0,057
-603,371	-42,640	0,081	-0,030
-602,357	-157,548	0,075	0,003
-601,342	61,621	-0,084	-0,060
-600,328	-148,914	-0,159	-0,009
-599,313	-200,000	0,016	0,122
-598,298	800,000	-0,035	-0,077
-597,284	58,658	-0,024	-0,017
-596,269	-107,281	0,151	0,024
-595,255	-58,224	-0,139	0,043
-594,240	-200,000	0,014	-0,046
-593,225	-200,000	0,040	0,128
-592,211	-60,582	0,122	-0,037
-591,196	84,733	-0,079	-0,062
-590,182	-200,000	0,018	-0,176
-589,167	178,388	-0,010	-0,011
-588,152	389,606	0,047	0,071
-587,138	-7,807	-0,189	-0,092
-586,123	404,127	-0,074	-0,113
-585,109	186,726	0,058	-0,063
-584,094	-200,000	0,016	0,105
-583,079	800,000	0,049	-0,102
-582,065	-200,000	0,010	0,150
-581,050	-167,264	0,074	0,002
-580,036	-200,000	0,008	0,082
-579,021	19,256	0,120	-0,069
-578,006	284,002	-0,025	-0,032
-576,992	-139,932	-0,017	-0,001
-575,977	-66,388	0,071	0,020
-574,963	490,928	-0,105	-0,173
-573,948	-200,000	0,012	-0,065
-572,934	-200,000	0,022	0,091
-571,919	800,000	-0,016	-0,032
-570,904	-200,000	0,015	-0,049
-569,890	-62,607	-0,074	0,022
-568,875	27,523	0,106	-0,064
-567,861	373,568	-0,060	-0,089
-566,846	323,639	0,054	0,075
-565,831	29,661	-0,026	0,016
-564,817	95,802	0,189	-0,155
-563,802	-161,798	-0,089	0,003
-562,788	-123,000	0,015	0,002
-561,773	6,473	-0,052	0,028
-560,758	-200,000	0,027	0,104
-559,744	39,321	-0,062	0,040
-558,729	25,468	-0,031	-0,019
-557,715	-85,668	0,076	-0,017
-556,700	800,000	-0,053	-0,144
-555,685	-30,166	-0,056	-0,023
-554,671	-79,359	0,076	0,018
-553,656	-200,000	-0,004	-0,100
-552,642	-200,000	0,022	0,074
-551,627	-31,863	0,007	-0,003
-550,612	76,832	-0,103	-0,079
-549,598	800,000	-0,040	-0,105
-548,583	538,696	0,053	-0,091
-547,569	-29,457	-0,047	0,019
-546,554	64,456	0,031	0,023
-545,539	-200,000	0,016	0,081
-544,525	74,952	-0,048	-0,037
-543,510	85,065	-0,086	-0,068
-542,496	235,041	-0,061	-0,072
-541,481	218,144	0,050	-0,058
-540,466	-200,000	0,009	0,080
-539,452	297,607	0,052	0,069
-538,437	-200,000	0,030	-0,097
-537,423	66,711	-0,039	0,029
-536,408	551,612	-0,023	-0,039
-535,393	81,409	0,048	-0,037
-534,379	-82,173	-0,076	-0,018
-533,364	-15,167	0,131	0,060
-532,350	-200,000	0,008	0,110
-531,335	294,356	-0,064	0,085
-530,321	81,031	-0,014	0,011
-529,306	800,000	-0,043	0,087
-528,291	607,772	-0,034	0,061
-527,277	279,591	0,055	0,071
-526,262	-112,996	-0,086	-0,012
-525,248	-40,375	-0,084	-0,031
-524,233	69,572	0,079	-0,058
-523,218	102,835	-0,047	0,040
-522,204	-200,000	-0,005	0,033
-521,189	-200,000	-0,009	-0,072
-520,175	800,000	-0,018	0,053
-519,160	180,726	0,076	0,080
-518,145	-127,624	0,071	-0,007
-517,131	-120,792	0,057	-0,007
-516,116	-47,396	0,112	-0,039
-515,102	-200,000	0,002	-0,026
-514,087	519,606	-0,043	-0,073
-513,072	523,898	-0,071	-0,120
-512,058	800,000	-0,038	-0,113
-511,043	-73,897	0,097	-0,025
-510,029	-200,000	-0,004	-0,029
-509,014	-200,000	-0,029	0,193
-507,999	324,492	-0,043	0,059
-506,985	109,270	-0,116	0,100
-505,970	-200,000	-0,005	-0,164
-504,956	-140,601	0,011	-0,001
-503,941	-132,318	0,029	0,003
-502,926	169,386	0,068	0,070
-501,912	95,681	-0,059	0,048
-500,897	-63,034	0,079	-0,023
-499,883	113,377	-0,019	-0,016
-498,868	305,349	-0,085	-0,114
-497,853	-130,729	-0,072	0,007
-496,839	729,697	-0,012	0,024
-495,824	-98,346	-0,044	0,008
-494,810	-119,415	0,055	-0,007
-493,795	-171,424	-0,117	0,003
-492,781	72,012	-0,035	-0,026
-491,766	-10,697	-0,079	-0,037
-490,751	-110,069	-0,018	-0,003
-489,737	65,274	-0,084	0,061
-488,722	-13,421	0,128	0,059
-487,708	800,000	0,031	0,066
-486,693	301,113	-0,039	-0,051
-485,678	-145,200	0,129	0,008
-484,664	36,910	-0,177	-0,112
-483,649	800,000	0,033	-0,076
-482,635	291,807	0,013	0,017
-481,620	696,047	0,063	0,118
-480,605	459,142	-0,097	0,155
-479,591	-77,105	0,143	0,036
-478,576	-61,839	-0,085	-0,025
-477,562	800,000	0,023	0,060
-476,547	800,000	0,027	0,054
-475,532	-108,085	0,088	0,014
-474,518	-200,000	-0,004	-0,058
-473,503	139,199	0,111	-0,105
-472,489	-30,095	0,033	-0,014
-471,474	157,330	-0,033	0,032
-470,459	685,545	-0,014	-0,026
-469,445	38,978	-0,034	-0,022
-468,430	639,154	0,048	-0,089
-467,416	122,675	-0,047	-0,042
-466,401	74,858	0,127	-0,096
-465,386	-112,605	0,095	-0,013
-464,372	-200,000	0,009	-0,125
-463,357	332,480	-0,005	0,007
-462,343	403,597	-0,083	-0,126
-461,328	-129,925	-0,037	-0,004
-460,313	-46,625	0,039	-0,014
-459,299	-200,000	-0,010	0,095
-458,284	-200,000	0,016	-0,065
-457,270	346,210	0,049	0,070
-456,255	-135,832	-0,014	0,001
-455,241	800,000	-0,035	-0,090
-454,226	-75,065	0,119	0,030
-453,211	-6,997	0,066	0,032
-452,197	-200,000	-0,002	0,160
-451,182	70,771	0,073	0,054
-450,168	494,415	-0,042	-0,070
-449,153	-200,000	0,007	-0,038
-448,138	144,885	-0,100	-0,096
-447,124	-200,000	0,012	-0,106
-446,109	-20,501	0,013	0,006
-445,095	-200,000	0,012	0,108
-444,080	800,000	0,045	0,098
-443,065	800,000	0,076	0,178
-442,051	372,872	-0,037	-0,054
-441,036	-200,000	-0,002	-0,036
-440,022	-76,203	-0,072	-0,018
-439,007	-200,000	0,004	0,020
-437,992	800,000	0,030	0,067
-436,978	800,000	0,034	0,083
-435,963	-39,279	-0,102	-0,038
-434,949	-150,883	0,038	-0,002
-433,934	-200,000	0,036	0,000
-432,919	208,614	0,036	0,040
-431,905	800,000	0,024	0,052
-430,890	-85,837	0,088	-0,019
-429,876	-39,139	0,055	-0,020
-428,861	598,717	-0,010	0,018
-427,846	345,032	0,072	-0,102
-426,832	37,172	-0,161	-0,102
-425,817	800,000	-0,048	-0,107
-424,803	315,066	-0,028	-0,038
-423,788	3,957	0,025	0,013
-422,773	344,967	0,020	0,029
-421,759	-200,000	0,037	0,123
-420,744	-16,916	0,151	0,068
-419,730	90,824	-0,056	-0,045
-418,715	-200,000	-0,016	-0,108
-417,701	-43,649	-0,078	-0,028
-416,686	4,348	0,044	-0,023
-415,671	60,011	0,041	0,029
-414,657	-162,257	-0,109	-0,004
-413,642	-200,000	0,008	0,028
-412,628	117,634	-0,091	-0,081
-411,613	800,000	0,044	-0,135
-410,598	164,786	0,022	0,022
-409,584	800,000	-0,053	-0,158
-408,569	-200,000	-0,010	0,057
-407,555	43,954	0,098	0,064
-406,540	-200,000	-0,025	-0,153
-405,525	-200,000	0,035	-0,146
-404,511	-25,709	-0,085	0,036
-403,496	-200,000	0,005	-0,114
-402,482	290,063	-0,073	-0,096
-401,467	581,678	0,093	-0,164
-400,452	-61,163	0,111	0,033
-399,438	50,884	0,097	0,066
-398,423	-15,161	-0,078	-0,036
-397,409	-200,000	0,017	-0,073
-396,394	-200,000	-0,038	-0,155
-395,379	-200,000	-0,027	0,087
-394,365	167,941	0,133	0,135
-393,350	-200,000	0,013	-0,093
-392,336	800,000	0,033	-0,103
-391,321	-168,819	-0,022	-0,001
-390,306	237,255	-0,015	-0,018
-389,292	41,152	0,093	-0,060
-388,277	200,115	-0,081	-0,088
-387,263	38,646	0,106	0,067
-386,248	800,000	0,033	-0,088
-385,233	800,000	0,006	-0,014
-384,219	-54,419	0,019	0,006
-383,204	-200,000	-0,027	0,119
-382,190	762,565	-0,064	-0,126
-381,175	-92,633	0,135	-0,027
-380,160	12,302	0,028	0,015
-379,146	26,773	-0,112	0,067
-378,131	800,000	0,046	-0,104
-377,117	-7,380	0,112	-0,054
-376,102	88,454	-0,070	0,056
-375,088	-200,000	-0,013	-0,116
-374,073	27,985	0,028	-0,017
-373,058	156,382	-0,020	-0,020
-372,044	-40,143	0,020	-0,007
-371,029	800,000	-0,058	0,168
-370,015	315,990	-0,032	0,043
-369,000	110,202	0,121	0,104
-367,985	-200,000	0,033	-0,179
-366,971	39,440	0,111	-0,071
-365,956	-159,240	-0,105	0,004
-364,942	-110,686	0,052	0,008
-363,927	247,522	0,097	-0,117
-362,912	-53,514	-0,145	0,047
-361,898	423,946	-0,022	-0,033
-360,883	217,614	-0,067	-0,077
-359,869	-1,623	0,022	0,011
-358,854	800,000	0,032	0,065
-357,839	130,511	0,162	0,148
-356,825	-141,212	0,084	-0,006
-355,810	-118,827	0,034	-0,004
-354,796	-147,750	-0,074	-0,004
-353,781	-200,000	-0,005	0,023
-352,766	-35,888	0,134	0,051
-351,752	56,777	0,025	-0,017
-350,737	-36,746	-0,004	-0,002
-349,723	510,233	0,040	0,066
-348,708	6,113	0,128	0,068
-347,693	-200,000	-0,002	0,035
-346,679	21,110	0,058	-0,033
-345,664	38,716	-0,082	-0,052
-344,650	-51,532	0,094	0,031
-343,635	-116,022	0,129	0,017
-342,620	-66,959	-0,085	0,024
-341,606	-19,913	0,117	0,051
-340,591	251,294	-0,028	-0,034
-339,577	211,306	-0,079	-0,089
-338,562	457,766	-0,023	-0,036
-337,548	-166,953	0,077	0,002
-336,533	800,000	0,027	0,073
-335,518	-200,000	-0,008	0,127
-334,504	-140,946	0,147	0,011
-333,489	-200,000	0,003	0,131
-332,475	-83,636	0,092	0,021
-331,460	-119,489	-0,142	0,017
-330,445	-65,029	-0,117	0,033
-329,431	-200,000	-0,034	0,112
-328,416	171,259	0,043	0,044
-327,402	-200,000	-0,004	-0,020
-326,387	-72,118	0,040	0,011
-325,372	513,784	-0,109	0,183
-324,358	-100,854	-0,015	-0,003
-323,343	146,544	0,103	0,099
-322,329	427,123	0,105	-0,162
-321,314	800,000	0,047	0,108
-320,299	-71,053	-0,100	0,027
-319,285	-146,007	-0,076	0,005
-318,270	462,283	0,023	-0,037
-317,256	433,066	-0,078	-0,121
-316,241	-200,000	-0,030	0,171
-315,226	219,064	0,047	-0,054
-314,212	10,157	0,178	0,096
-313,197	800,000	-0,038	0,087
-312,183	20,883	-0,101	0,058
-311,168	30,023	0,089	0,054
-310,153	6,583	-0,159	-0,084
-309,139	-200,000	-0,003	0,065
-308,124	284,725	0,145	0,186
-307,110	-96,320	0,122	-0,023
-306,095	37,520	0,056	0,035
-305,080	19,772	0,070	0,040
-304,066	-200,000	0,017	-0,124
-303,051	32,106	-0,074	-0,046
-302,037	-85,926	-0,122	-0,027
-301,022	567,970	0,034	0,059
-300,008	186,613	-0,044	-0,047
-298,993	268,797	0,072	-0,090
-297,978	270,325	0,052	0,066
-296,964	-112,527	-0,123	0,017
-295,949	60,112	-0,011	0,008
-294,935	800,000	0,013	-0,036
-293,920	53,639	-0,131	0,089
-292,905	-200,000	0,018	0,141
-291,891	248,036	0,018	0,022
-290,876	164,043	0,092	-0,092
-289,862	-61,257	-0,152	-0,045
-288,847	-97,478	0,110	0,020
-287,832	-149,004	-0,093	-0,005
-286,818	250,682	0,097	-0,117
-285,803	19,464	-0,133	0,076
-284,789	-96,575	0,151	-0,028
-283,774	102,364	-0,035	-0,029
-282,759	-48,092	-0,053	0,018
-281,745	19,118	-0,104	-0,059
-280,730	800,000	-0,047	-0,139
-279,716	-200,000	0,020	-0,086
-278,701	-200,000	-0,018	-0,070
-277,686	-200,000	0,007	0,115
-276,672	-200,000	0,113	0,000
-275,657	800,000	0,014	-0,036
-274,643	-8,619	0,145	-0,069
-273,628	-200,000	-0,019	-0,099
-272,613	-100,920	-0,076	-0,013
-271,599	-128,102	0,114	0,012
-270,584	-92,936	0,081	-0,016
-269,570	-200,000	0,002	0,034
-268,555	680,498	-0,026	-0,049
-267,540	-200,000	-0,003	-0,063
-266,526	172,098	-0,073	-0,074
-265,511	166,775	0,093	0,094
-264,497	44,551	-0,043	-0,028
-263,482	800,000	-0,017	0,050
-262,467	334,070	0,068	0,094
-261,453	-43,657	0,102	0,037
-260,438	-59,465	-0,071	0,021
-259,424	159,724	0,055	0,054
-258,409	-33,857	-0,048	-0,019
-257,395	122,136	-0,036	-0,032
-256,380	800,000	-0,092	0,195
-255,365	177,500	0,089	0,092
-254,351	139,879	0,034	0,032
-253,336	88,548	-0,084	0,067
-252,322	504,308	-0,031	0,051
-251,307	-200,000	0,013	-0,091
-250,292	-200,000	0,039	0,177
-249,278	-132,853	0,144	-0,013
-248,263	356,215	-0,050	0,071
-247,249	238,738	-0,069	-0,082
-246,234	-38,012	-0,120	-0,045
-245,219	800,000	-0,035	-0,093
-244,205	-6,418	-0,109	-0,053
-243,190	-168,693	0,072	0,002
-242,176	-200,000	-0,003	0,088
-241,161	-200,000	0,027	-0,084
-240,146	-200,000	0,013	-0,055
-239,132	-200,000	-0,010	-0,040
-238,117	-56,178	-0,135	0,042
-237,103	-50,309	-0,144	-0,048
-236,088	800,000	-0,063	0,130
-235,073	-152,913	-0,156	-0,008
-234,059	-200,000	-0,017	0,073
-233,044	-200,000	-0,017	0,098
-232,030	-200,000	-0,005	0,106
-231,015	800,000	-0,055	0,127
-230,000	800,000	0,035	-0,102
-228,986	-2,102	0,059	0,029
-227,971	-115,698	-0,126	0,017
-226,957	281,674	0,094	0,119
-225,942	-104,945	0,081	0,013
-224,927	-189,474	-0,114	-0,001
-223,913	-68,358	-0,129	0,035
-222,898	800,000	-0,006	0,017
-221,884	546,702	-0,032	0,054
-220,869	48,972	0,130	-0,087
-219,855	800,000	0,044	-0,117
-218,840	103,997	0,109	0,091
-217,825	-100,708	-0,076	-0,013
-216,811	-101,464	-0,036	0,006
-215,796	-200,000	0,018	-0,111
-214,782	155,554	-0,017	-0,017
-213,767	52,052	-0,051	-0,035
-212,752	340,815	-0,027	-0,038
-211,738	-200,000	-0,014	0,072
-210,723	-200,000	-0,012	0,110
-209,709	-65,075	-0,021	-0,006
-208,694	-68,253	0,118	-0,032
-207,679	-112,631	0,129	-0,018
-206,665	-104,134	-0,167	-0,027
-205,650	389,346	0,076	0,112
-204,636	154,076	-0,031	0,030
-203,621	-191,877	-0,185	-0,001
-202,606	397,536	-0,018	-0,027
-201,592	-84,053	-0,195	-0,044
-200,577	-200,000	-0,013	0,098
-199,563	-73,396	0,148	0,038
-198,548	185,956	-0,032	0,034
-197,533	109,794	0,017	0,014
-196,519	800,000	0,069	-0,143
-195,504	-200,000	-0,002	0,006
-194,490	-200,000	-0,012	0,055
-193,475	-108,587	-0,079	0,012
-192,460	750,594	-0,015	0,028
-191,446	-3,467	-0,051	-0,025
-190,431	-200,000	-0,018	0,063
-189,417	-200,000	0,017	-0,059
-188,402	-91,716	0,105	0,021
-187,387	-200,000	-0,039	-0,144
-186,373	-200,000	-0,033	-0,120
-185,358	800,000	-0,020	-0,044
-184,344	-100,684	0,167	0,029
-183,329	-200,000	-0,011	-0,154
-182,315	0,255	-0,089	0,045
-181,300	-200,000	0,039	0,211
-180,285	367,651	-0,069	0,099
-179,271	-130,004	0,024	0,002
-178,256	91,595	0,077	0,061
-177,242	-125,162	-0,117	0,013
-176,227	710,684	0,085	0,159
-175,212	361,104	0,103	0,147
-174,198	268,310	-0,030	0,038
-173,183	3,699	0,050	0,026
-172,169	-123,023	-0,144	-0,016
-171,154	-200,000	-0,023	-0,074
-170,139	-200,000	-0,013	0,065
-169,125	-12,543	0,092	0,042
-168,110	-200,000	0,019	0,246
-167,096	252,777	-0,035	0,042
-166,081	16,641	0,072	-0,040
-165,066	800,000	0,012	0,031
-164,052	6,462	0,122	-0,064
-163,037	248,300	-0,080	0,096
-162,023	157,274	-0,048	0,047
-161,008	144,080	0,063	0,060
-159,993	-144,535	0,078	0,005
-158,979	-45,528	-0,046	0,016
-157,964	212,296	-0,063	0,071
-156,950	-135,879	-0,061	-0,005
-155,935	800,000	0,052	0,134
-154,920	24,232	0,088	0,051
-153,906	68,219	-0,094	0,068
-152,891	564,343	0,057	0,098
-151,877	-81,821	0,037	-0,008
-150,862	549,536	-0,090	-0,154
-149,847	356,603	-0,060	-0,086
-148,833	-147,098	0,012	-0,001
-147,818	-200,000	0,003	0,067
-146,804	11,560	-0,136	0,074
-145,789	-174,344	0,078	0,002
-144,775	160,703	-0,101	0,100
-143,760	800,000	-0,067	-0,151
-142,745	650,609	-0,069	-0,125
-141,731	800,000	0,015	-0,045
-140,716	-64,345	0,093	-0,027
-139,702	446,830	-0,010	0,016
-138,687	-137,043	0,129	0,010
-137,672	-124,670	-0,066	0,007
-136,658	386,454	-0,065	-0,095
-135,643	82,324	0,064	-0,049
-134,629	-63,574	-0,076	-0,022
-133,614	97,539	-0,057	-0,046
-132,599	-35,659	0,110	-0,042
-131,585	-200,000	0,001	0,135
-130,570	17,971	0,015	-0,009
-129,556	-200,000	0,029	-0,142
-128,541	-56,220	-0,032	0,010
-127,526	-129,287	0,055	-0,005
-126,512	-200,000	0,021	-0,105
-125,497	142,689	-0,057	0,054
-124,483	-200,000	-0,005	0,115
-123,468	305,897	-0,054	-0,071
-122,453	-143,239	0,070	0,005
-121,439	328,210	0,061	-0,084
-120,424	-138,460	-0,082	-0,006
-119,410	-200,000	0,003	0,023
-118,395	-200,000	-0,000	0,058
-117,380	-144,870	0,087	0,006
-116,366	-200,000	0,018	-0,098
-115,351	-181,283	-0,012	-0,000
-114,337	33,050	-0,123	-0,075
-113,322	-200,000	-0,010	-0,139
-112,307	158,421	0,071	0,070
-111,293	151,404	0,099	0,095
-110,278	275,403	0,029	0,036
-109,264	-200,000	-0,000	-0,006
-108,249	388,823	-0,031	0,045
-107,234	328,694	0,089	-0,121
-106,220	288,183	0,060	-0,077
-105,205	41,796	-0,126	-0,081
-104,191	-200,000	0,008	0,068
-103,176	-140,371	0,056	0,004
-102,162	43,021	-0,020	-0,013
-101,147	-200,000	0,016	-0,065
-100,132	95,777	0,030	0,024
-99,118	-200,000	-0,009	-0,135
-98,103	476,976	-0,019	0,031
-97,089	105,602	0,087	0,073
-96,074	-34,398	-0,040	-0,015
-95,059	-78,091	-0,053	0,013
-94,045	800,000	0,038	0,101
-93,030	800,000	0,033	-0,100
-92,016	800,000	0,042	-0,083
-91,001	248,959	-0,127	-0,152
-89,986	-97,490	0,088	-0,016
-88,972	-130,782	0,100	-0,009
-87,957	-121,912	-0,062	-0,007
-86,943	61,186	-0,113	-0,080
-85,928	47,649	-0,053	0,035
-84,913	-53,950	0,143	-0,046
-83,899	-200,000	0,000	-0,034
-82,884	-25,288	-0,068	0,028
-81,870	-200,000	0,006	0,101
-80,855	321,029	0,035	0,048
-79,840	205,023	-0,065	-0,071
-78,826	-92,878	0,133	0,026
-77,811	-200,000	0,003	-0,009
-76,797	225,081	0,036	0,041
-75,782	412,894	0,025	0,038
-74,767	-200,000	-0,021	0,138
-73,753	-3,363	0,024	0,012
-72,738	-129,774	-0,108	-0,010
-71,724	532,968	-0,080	0,134
-70,709	-200,000	0,014	-0,094
-69,694	-200,000	-0,013	-0,052
-68,680	-118,326	-0,120	0,015
-67,665	-200,000	-0,024	0,091
-66,651	371,129	0,067	0,096
-65,636	154,780	0,058	-0,057
-64,622	346,816	-0,013	0,018
-63,607	-200,000	-0,028	-0,246
-62,592	-200,000	-0,005	-0,033
-61,578	800,000	0,032	-0,101
-60,563	-200,000	0,005	0,051
-59,549	-200,000	-0,008	0,026
-58,534	51,217	-2,277	-1,522
-57,519	662,106	-1,049	-1,917
-56,505	-200,000	-0,332	-4,448
-55,490	800,000	0,978	1,928
-54,476	800,000	5,072	11,106
-53,461	-200,000	22,410	344,478
-52,446	800,000	755,417	2288,090
-51,432	532,545	1639,976	2748,926
-50,417	67,704	1638,286	1179,612
-49,403	15,599	1515,297	837,640
-48,388	9,753	1441,673	768,942
-47,373	19,147	1434,361	809,651
-46,359	13,280	1422,843	775,505
-45,344	8,054	1418,755	748,604
-44,330	8,008	1416,888	747,373
-43,315	8,000	1415,031	746,324
-42,300	7,955	1413,243	745,141
-41,286	8,056	1412,113	744,992
-40,271	7,974	1410,965	743,972
-39,257	8,019	1409,777	743,527
-38,242	8,045	1408,493	742,940
-37,227	8,002	1407,572	742,225
-36,213	8,014	1406,109	741,480
-35,198	8,014	1405,108	740,923
-34,184	8,041	1404,090	740,481
-33,169	7,991	1402,752	739,512
-32,154	8,031	1401,873	739,209
-31,140	7,952	1400,680	738,181
-30,125	8,084	1399,194	737,984
-29,111	8,059	1398,219	737,322
-28,096	7,982	1397,219	736,410
-27,082	7,954	1395,921	735,567
-26,067	7,949	1394,943	734,999
-25,052	8,029	1393,451	734,553
-24,038	8,013	1392,750	734,080
-23,023	7,968	1392,002	733,448
-22,009	7,945	1391,028	732,800
-20,994	7,924	1389,777	732,015
-19,979	7,955	1389,009	731,726
-18,965	7,896	1388,144	730,965
-17,950	7,878	1387,130	730,319
-16,936	7,861	1386,397	729,828
-15,921	7,820	1385,404	729,086
-14,906	7,863	1384,212	728,629
-13,892	7,927	1383,083	728,300
-12,877	7,887	1382,672	727,872
-11,863	7,914	1381,607	727,406
-10,848	7,837	1380,922	726,659
-9,833	7,814	1380,019	726,054
-8,819	7,794	1378,859	725,320
-7,804	7,787	1378,079	724,850
-6,790	7,752	1377,090	724,142
-5,775	7,789	1376,176	723,801
-4,760	7,797	1375,080	723,233
-3,746	7,840	1374,015	722,841
-2,731	7,836	1373,370	722,455
-1,717	7,773	1372,488	721,674
-0,702	7,760	1370,870	720,736
0,313	11,766	1281,432	691,803
1,327	27,461	674,840	399,187
2,342	43,054	115,737	74,297
3,356	-1,915	16,465	8,135
4,371	-0,157	3,864	1,932
5,386	2,886	1,434	0,731
6,400	519,375	0,360	0,597
7,415	191,409	0,029	0,031
8,429	-106,962	-0,387	-0,060
9,444	6,868	-0,227	-0,119
10,459	-13,203	-0,332	-0,152
11,473	124,256	-0,178	-0,157
12,488	-106,941	-0,261	-0,040
13,502	80,109	-0,238	-0,180
14,517	31,066	-0,364	-0,219
15,531	268,538	-0,217	-0,269
16,546	-33,614	-0,310	-0,120
17,561	118,059	-0,375	-0,326
18,575	-181,847	-0,267	-0,004
19,590	77,645	-0,213	-0,159
20,604	719,503	-0,156	-0,293
21,619	107,361	-0,421	-0,352
22,634	216,742	-0,425	-0,477
23,648	61,523	-0,423	-0,295
24,663	-14,703	-0,284	-0,128
25,677	-64,891	-0,274	-0,077
26,692	-42,283	-0,420	-0,150
27,707	74,831	-0,338	-0,250
28,721	66,781	-0,405	-0,290
29,736	69,916	-0,453	-0,328
30,750	28,989	-0,426	-0,253
31,765	169,333	-0,423	-0,425
32,780	474,200	-0,154	-0,246
33,794	64,868	-0,323	-0,229
34,809	135,218	-0,334	-0,306
35,823	-0,610	-0,346	-0,172
36,838	15,044	-0,498	-0,273
37,853	193,621	-0,318	-0,338
38,867	147,925	-0,323	-0,306
39,882	123,191	-0,285	-0,251
40,896	103,290	-0,273	-0,225
41,911	24,576	-0,268	-0,156
42,926	145,606	-0,249	-0,235
43,940	-38,958	-0,435	-0,160
44,955	122,025	-0,406	-0,356
45,969	34,724	-0,318	-0,195
46,984	7,146	-0,343	-0,179
47,999	53,061	-0,253	-0,170
49,013	-31,508	-0,471	-0,185
50,028	164,240	-0,202	-0,200
51,042	221,467	-0,234	-0,264
52,057	16,762	-0,370	-0,205
53,071	168,820	-0,255	-0,255
54,086	105,854	-0,209	-0,173
55,101	6,655	-0,244	-0,127
56,115	-4,285	-0,240	-0,116
57,130	261,356	-0,253	-0,308
58,144	99,541	-0,332	-0,269
59,159	22,574	-0,292	-0,167
60,174	130,487	-0,290	-0,261
61,188	-3,625	-0,330	-0,160
62,203	40,207	-0,346	-0,218
63,217	-57,369	-0,279	-0,085
64,232	102,023	-0,297	-0,243
65,247	16,320	-0,361	-0,199
66,261	-8,696	-0,382	-0,179
67,276	20,404	-0,356	-0,201
68,290	18,087	-0,377	-0,210
69,305	30,619	-0,328	-0,196
70,320	-17,087	-0,346	-0,152
71,334	339,172	-0,128	-0,175
72,349	230,471	-0,210	-0,242
73,363	39,795	-0,372	-0,233
74,378	109,973	-0,330	-0,278
75,393	139,324	-0,268	-0,247
76,407	109,100	-0,262	-0,219
77,422	-111,052	-0,309	0,044
78,436	166,776	-0,144	-0,143
79,451	-47,859	-0,360	-0,122
80,466	330,956	-0,173	-0,234
81,480	75,571	-0,362	-0,267
82,495	173,174	-0,323	-0,326
83,509	199,164	-0,263	-0,283
84,524	-109,182	-0,342	-0,050
85,539	180,789	-0,228	-0,234
86,553	-53,114	-0,324	-0,103
87,568	-4,764	-0,383	-0,184
88,582	-20,097	-0,465	-0,200
89,597	75,885	-0,227	-0,168
90,611	-123,513	-0,279	-0,031
91,626	90,384	-0,235	-0,184
92,641	-6,230	-0,340	-0,162
93,655	174,941	-0,270	-0,273
94,670	-164,203	-0,364	0,011
95,684	-31,225	-0,298	-0,117
96,699	54,621	-0,262	-0,177
97,714	505,381	-0,210	-0,341
98,728	13,637	-0,169	-0,091
99,743	-36,021	-0,281	-0,106
100,757	31,763	-0,262	-0,157
101,772	24,912	-0,210	-0,121
102,787	73,841	-0,410	-0,300
103,801	643,569	-0,220	-0,393
104,816	55,510	-0,283	-0,191
105,830	131,129	-0,275	-0,247
106,845	66,331	-0,288	-0,204
107,860	-3,225	-0,293	-0,142
108,874	203,310	-0,218	-0,236
109,889	169,932	-0,312	-0,311
110,903	112,792	-0,327	-0,277
111,918	2,775	-0,258	-0,130
112,933	-200,000	-0,047	-0,175
113,947	40,688	-0,224	-0,141
114,962	9,009	-0,238	-0,125
115,976	11,071	-0,410	-0,218
116,991	800,000	-0,150	-0,342
118,006	180,422	-0,233	-0,239
119,020	-26,276	-0,337	-0,137
120,035	-2,285	-0,256	-0,125
121,049	563,074	-0,153	-0,259
122,064	-72,809	-0,248	-0,063
123,079	245,215	-0,148	-0,174
124,093	301,371	-0,231	-0,299
125,108	-81,747	-0,263	-0,060
126,122	-11,716	-0,364	-0,166
127,137	-71,243	-0,322	-0,084
128,151	-76,283	-0,295	-0,072
129,166	-65,042	-0,288	-0,081
130,181	121,789	-0,207	-0,180
131,195	-60,642	-0,216	-0,063
132,210	247,353	-0,209	-0,246
133,224	-26,250	-0,383	-0,156
134,239	-102,701	-0,288	-0,047
135,254	86,989	-0,219	-0,168
136,268	66,499	-0,291	-0,206
137,283	37,401	-0,340	-0,210
138,297	-20,740	-0,310	-0,132
139,312	62,088	-0,303	-0,210
140,327	202,210	-0,237	-0,255
141,341	52,680	-0,185	-0,123
142,356	36,585	-0,260	-0,159
143,370	-76,226	-0,236	-0,057
144,385	18,825	-0,216	-0,120
145,400	1,463	-0,200	-0,100
146,414	17,699	-0,187	-0,103
147,429	164,302	-0,179	-0,175
148,443	188,638	-0,144	-0,150
149,458	18,834	-0,250	-0,139
150,473	-82,495	-0,266	-0,060
151,487	393,989	-0,162	-0,236
152,502	22,663	-0,318	-0,181
153,516	137,059	-0,291	-0,265
154,531	401,890	-0,178	-0,261
155,546	219,885	-0,136	-0,151
156,560	-200,000	-0,071	-0,337
157,575	800,000	-0,047	-0,122
158,589	40,289	-0,207	-0,130
159,604	83,151	-0,191	-0,145
160,619	189,002	-0,164	-0,171
161,633	148,293	-0,178	-0,167
162,648	620,570	-0,156	-0,274
163,662	229,561	-0,179	-0,203
164,677	548,347	-0,153	-0,255
165,692	-142,211	-0,251	-0,017
166,706	223,245	-0,278	-0,311
167,721	61,715	-0,250	-0,173
168,735	32,564	-0,320	-0,192
169,750	-200,000	-0,108	-0,345
170,764	-34,680	-0,261	-0,099
171,779	-38,489	-0,079	0,029
172,794	91,043	-0,192	-0,150
173,808	114,163	-0,239	-0,202
174,823	120,391	-0,205	-0,177
175,837	-37,422	-0,286	-0,106
176,852	130,047	-0,219	-0,194
177,867	38,938	-0,149	-0,092
178,881	380,429	-0,113	-0,161
179,896	62,040	-0,205	-0,142
180,910	364,189	-0,157	-0,220
181,925	196,162	-0,261	-0,276
182,940	32,673	-0,269	-0,161
183,954	117,299	-0,224	-0,191
184,969	-18,933	-0,195	-0,084
185,983	-137,711	-0,124	0,010
186,998	-64,780	-0,197	-0,055
188,013	-47,053	-0,242	-0,082
189,027	86,718	-0,265	-0,202
190,042	86,647	-0,201	-0,154
191,056	626,534	-0,128	-0,226
192,071	112,897	-0,203	-0,170
193,086	-42,175	-0,230	-0,081
194,100	450,180	-0,101	-0,154
195,115	-75,001	-0,243	-0,060
196,129	96,736	-0,305	-0,242
197,144	180,812	-0,186	-0,190
198,159	800,000	-0,075	-0,211
199,173	199,239	-0,159	-0,169
200,188	313,597	-0,140	-0,183
201,202	128,856	-0,153	-0,135
202,217	73,451	-0,128	-0,093
203,232	180,615	-0,113	-0,115
204,246	-200,000	-0,027	-0,105
205,261	157,502	-0,197	-0,189
206,275	108,894	-0,162	-0,134
207,290	21,211	-0,165	-0,092
208,304	518,056	-0,096	-0,157
209,319	-26,771	-0,178	-0,072
210,334	13,379	-0,220	-0,118
211,348	273,399	-0,091	-0,111
212,363	285,287	-0,067	-0,083
213,377	126,861	-0,230	-0,202
214,392	12,695	-0,173	0,092
215,407	745,309	-0,099	-0,185
216,421	68,211	-0,249	-0,176
217,436	-80,179	-0,270	0,062
218,450	-21,290	-0,286	-0,120
219,465	492,782	-0,202	-0,322
220,480	-150,515	-0,177	-0,009
221,494	-200,000	-0,018	-0,110
222,509	28,225	-0,073	0,042
223,523	110,697	-0,193	-0,160
224,538	207,211	-0,121	-0,130
225,553	102,909	-0,065	-0,053
226,567	-22,320	-0,236	-0,098
227,582	141,223	-0,227	-0,208
228,596	234,428	-0,100	-0,114
229,611	147,085	-0,207	-0,193
230,626	128,107	-0,220	-0,194
231,640	-27,271	-0,190	-0,076
232,655	296,837	-0,170	-0,216
233,669	0,212	-0,216	-0,106
234,684	17,943	-0,351	-0,193
235,699	86,328	-0,083	-0,063
236,713	93,470	-0,163	-0,128
237,728	-200,000	-0,039	-0,200
238,742	48,928	-0,174	-0,112
239,757	-160,975	-0,196	0,007
240,772	36,353	-0,183	-0,111
241,786	-2,616	-0,131	-0,063
242,801	114,546	-0,168	-0,141
243,815	261,368	-0,110	-0,131
244,830	24,398	-0,121	-0,069
245,844	15,429	-0,119	-0,065
246,859	550,189	-0,109	-0,180
247,874	44,149	-0,295	-0,186
248,888	-66,922	-0,262	-0,071
249,903	44,306	-0,148	-0,094
250,917	-200,000	-0,015	-0,054
251,932	105,496	-0,157	-0,128
252,947	106,749	-0,147	-0,120
253,961	-71,994	-0,237	-0,060
254,976	-66,852	-0,143	-0,039
255,990	91,613	-0,175	-0,136
257,005	499,794	-0,078	-0,124
258,020	82,950	-0,175	-0,131
259,034	31,946	-0,132	-0,078
260,049	-71,138	-0,201	-0,052
261,063	9,492	-0,248	-0,129
262,078	800,000	-0,117	-0,239
263,093	-129,301	-0,238	0,023
264,107	-137,674	-0,204	-0,016
265,122	328,421	-0,047	-0,063
266,136	52,287	-0,203	-0,133
267,151	-53,061	-0,141	-0,044
268,166	379,212	-0,187	-0,264
269,180	78,198	-0,130	-0,095
270,195	-30,846	-0,148	-0,058
271,209	-200,000	-0,059	-0,213
272,224	800,000	-0,129	-0,255
273,239	-16,331	-0,056	0,024
274,253	-200,000	-0,252	0,000
275,268	800,000	-0,126	-0,253
276,282	565,503	-0,098	-0,165
277,297	-8,784	-0,205	-0,094
278,312	-97,745	-0,158	0,028
279,326	80,589	-0,073	-0,054
280,341	-193,036	-0,154	0,001
281,355	-148,660	-0,166	0,009
282,370	9,726	-0,232	-0,121
283,384	113,601	-0,151	-0,126
284,399	198,284	-0,136	-0,143
285,414	277,960	-0,223	-0,274
286,428	93,019	-0,072	-0,056
287,443	74,923	-0,144	-0,104
288,457	462,590	-0,081	-0,125
289,472	303,872	-0,146	-0,187
290,487	-26,854	-0,184	-0,074
291,501	427,477	-0,087	-0,130
292,516	95,927	-0,253	-0,198
293,530	127,030	-0,154	-0,134
294,545	-66,058	-0,159	-0,043
295,560	800,000	-0,094	-0,236
296,574	94,554	-0,215	-0,168
297,589	23,898	-0,175	-0,099
298,603	78,556	-0,134	-0,098
299,618	-48,135	-0,162	-0,053
300,633	-33,461	-0,112	-0,042
301,647	757,486	-0,037	-0,068
302,662	343,005	-0,098	-0,133
303,676	164,687	-0,196	-0,190
304,691	-107,363	-0,175	-0,026
305,706	-98,385	-0,186	-0,032
306,720	-62,933	-0,169	-0,048
307,735	410,479	-0,066	-0,097
308,749	-86,447	-0,209	0,044
309,764	137,104	-0,127	-0,114
310,779	284,964	-0,108	-0,133
311,793	-85,347	-0,183	-0,039
312,808	55,976	-0,199	-0,132
313,822	-124,020	-0,118	-0,013
314,837	532,586	-0,069	-0,113
315,852	668,921	-0,112	-0,199
316,866	800,000	-0,055	-0,123
317,881	8,215	-0,136	-0,070
318,895	68,647	-0,194	-0,136
319,910	278,515	-0,091	-0,111
320,925	312,644	-0,023	-0,030
321,939	-6,928	-0,146	-0,068
322,954	-25,575	-0,223	-0,090
323,968	58,769	-0,126	-0,085
324,983	-90,048	-0,091	0,018
325,997	-14,086	-0,118	-0,052
327,012	32,044	-0,231	-0,136
328,027	143,235	-0,119	-0,108
329,041	220,349	-0,141	-0,155
330,056	-22,700	-0,059	-0,024
331,070	-37,137	-0,172	-0,063
332,085	191,462	-0,093	-0,096
333,100	-127,580	-0,247	-0,024
334,114	-200,000	0,019	-0,223
335,129	392,645	-0,129	-0,185
336,143	56,574	-0,146	-0,097
337,158	173,950	-0,094	-0,093
338,173	34,550	-0,111	-0,066
339,187	501,513	-0,079	-0,125
340,202	-114,909	-0,115	0,015
341,216	779,985	-0,101	-0,191
342,231	13,594	-0,159	-0,084
343,246	190,558	-0,212	-0,218
344,260	800,000	-0,050	-0,134
345,275	-146,056	-0,213	-0,013
346,289	-67,294	-0,182	-0,049
347,304	107,034	-0,210	-0,170
348,319	-47,901	-0,213	-0,070
349,333	-200,000	0,006	-0,251
350,348	27,860	-0,154	-0,088
351,362	523,729	-0,087	-0,140
352,377	326,242	-0,068	-0,090
353,392	34,104	-0,084	-0,050
354,406	330,932	-0,113	-0,149
355,421	205,841	1305,956	1389,800
356,435	158,286	1465,561	1390,272
