DTS Sentinel unit serial number:	SN410029Multiplexer serial number:	ORYXHardware model number:	OX2-SRSoftware version number:	ORYX F/W v4,00 Oryx Data Collector v3.7.2.0data status	okinstallation	B3 Nyhavnadifferential loss correction	single-endedforward channel	channel 1reverse channel	N/Adate	2023/12/01time	20:12:30forward acquisition time	300,00reverse acquisition time	0,00gamma	499,1914k internal	0,3198k external	0,3198temperature offset calibration	1,0000default loss term (dB/km)	0,3820temperature slope calibration	1,0000multiplexer offset coefficient	1,0000multiplexer slope coefficient	1,0000fibre end	0,00T internal ref (°C)	15,77T ext. ref 1 (°C)	1,42T ext. ref 2 (°C)	1,41length (m)	temperature (°C)	Stokes	anti-Stokes-744,400	394,628	-0,151	-0,230
-743,385	-200,000	0,043	0,376
-742,371	3,596	-0,409	-0,216
-741,356	-200,000	0,039	0,278
-740,342	370,355	-0,159	-0,235
-739,327	-200,000	-0,011	0,361
-738,312	165,623	-0,152	-0,157
-737,298	800,000	-0,084	0,222
-736,283	104,004	-0,240	-0,205
-735,269	-200,000	-0,040	0,253
-734,254	162,256	-0,234	-0,239
-733,239	-169,063	-0,220	0,006
-732,225	800,000	-0,068	-0,216
-731,210	-200,000	0,024	-0,098
-730,196	261,677	-0,023	-0,029
-729,181	218,309	-0,131	0,153
-728,167	800,000	0,014	-0,032
-727,152	138,147	-0,032	0,030
-726,137	539,393	-0,090	-0,156
-725,123	367,998	-0,079	-0,117
-724,108	439,192	-0,073	-0,117
-723,094	16,348	-0,101	-0,058
-722,079	333,567	-0,043	-0,060
-721,064	-68,208	-0,104	-0,029
-720,050	91,740	0,015	0,012
-719,035	35,752	-0,068	-0,043
-718,021	-200,000	-0,012	-0,045
-717,006	-200,000	-0,041	-0,136
-715,991	68,813	-0,063	-0,047
-714,977	211,393	0,027	-0,031
-713,962	-200,000	-0,024	-0,163
-712,948	460,907	0,082	-0,133
-711,933	-173,920	0,101	-0,002
-710,918	-200,000	-0,006	-0,094
-709,904	-200,000	-0,004	-0,115
-708,889	-185,362	0,030	0,000
-707,875	182,376	-0,211	-0,226
-706,860	38,258	-0,033	-0,021
-705,845	114,073	-0,071	0,062
-704,831	-90,931	0,056	-0,012
-703,816	16,894	-0,093	-0,054
-702,802	264,111	-0,036	0,046
-701,787	449,196	0,058	-0,093
-700,772	-200,000	-0,018	-0,173
-699,758	-200,000	-0,062	-0,224
-698,743	-200,000	-0,004	0,040
-697,729	-109,527	-0,064	0,010
-696,714	-200,000	-0,020	-0,136
-695,699	329,719	0,053	-0,074
-694,685	-200,000	0,018	-0,215
-693,670	-200,000	-0,017	-0,078
-692,656	-200,000	0,004	-0,070
-691,641	91,363	-0,082	-0,067
-690,627	490,337	-0,045	-0,075
-689,612	34,671	-0,083	0,052
-688,597	342,408	-0,073	-0,104
-687,583	15,523	-0,175	-0,100
-686,568	-98,609	-0,141	-0,026
-685,554	80,033	-0,028	0,022
-684,539	71,677	0,132	-0,100
-683,524	-200,000	0,021	0,000
-682,510	-200,000	0,011	0,114
-681,495	349,978	-0,038	-0,055
-680,481	382,752	0,110	-0,165
-679,466	-184,641	-0,146	0,002
-678,451	493,726	-0,026	-0,043
-677,437	-200,000	0,014	-0,104
-676,422	133,578	-0,054	0,051
-675,408	-49,180	0,026	-0,009
-674,393	24,586	-0,194	-0,117
-673,378	668,835	0,030	-0,057
-672,364	149,091	0,067	-0,066
-671,349	-99,555	0,067	0,012
-670,335	-90,698	0,070	-0,014
-669,320	-110,438	-0,032	0,005
-668,305	-66,980	-0,006	0,002
-667,291	171,112	0,012	-0,012
-666,276	6,413	0,090	-0,048
-665,262	800,000	-0,020	-0,063
-664,247	-134,582	-0,088	-0,008
-663,232	414,928	-0,076	-0,118
-662,218	-71,545	0,193	0,052
-661,203	-54,609	0,131	-0,043
-660,189	6,057	-0,064	-0,034
-659,174	-11,023	-0,158	-0,075
-658,159	-5,417	-0,177	-0,088
-657,145	-200,000	0,009	-0,045
-656,130	-27,532	-0,131	0,055
-655,116	465,525	0,065	-0,106
-654,101	-54,849	0,058	-0,019
-653,086	-200,000	-0,017	-0,091
-652,072	-25,236	-0,074	-0,032
-651,057	-47,523	-0,062	-0,022
-650,043	-26,228	-0,031	0,013
-649,028	800,000	-0,027	-0,058
-648,014	433,018	0,010	0,016
-646,999	-200,000	0,002	0,015
-645,984	-181,112	0,122	-0,002
-644,970	-139,149	-0,047	-0,004
-643,955	185,059	-0,068	-0,073
-642,941	-200,000	0,009	0,052
-641,926	-27,180	-0,019	0,008
-640,911	-200,000	-0,003	0,064
-639,897	-153,679	0,062	0,003
-638,882	-200,000	-0,007	-0,141
-637,868	-99,364	-0,055	-0,010
-636,853	28,953	-0,146	-0,089
-635,838	-200,000	0,011	-0,129
-634,824	71,381	-0,094	0,071
-633,809	-200,000	0,009	0,033
-632,795	800,000	-0,065	0,136
-631,780	-200,000	0,011	0,056
-630,765	-200,000	-0,008	0,126
-629,751	-144,066	-0,165	0,011
-628,736	-200,000	-0,011	0,049
-627,722	-200,000	0,014	-0,071
-626,707	-26,808	-0,027	0,011
-625,692	578,829	0,061	0,108
-624,678	36,539	-0,094	0,060
-623,663	-200,000	-0,037	0,176
-622,649	-101,837	-0,071	-0,012
-621,634	-22,629	-0,048	-0,021
-620,619	-44,461	0,120	-0,043
-619,605	-88,496	0,110	0,024
-618,590	318,696	0,117	0,162
-617,576	800,000	-0,042	0,097
-616,561	800,000	-0,008	0,019
-615,546	176,210	0,037	-0,039
-614,532	800,000	-0,035	-0,089
-613,517	221,536	0,076	0,088
-612,503	-127,899	-0,093	-0,010
-611,488	306,245	0,060	0,081
-610,474	-200,000	0,003	0,048
-609,459	369,486	-0,044	-0,065
-608,444	55,502	-0,090	-0,063
-607,430	800,000	-0,053	-0,123
-606,415	-20,156	0,131	0,058
-605,401	800,000	0,035	0,073
-604,386	-73,646	-0,026	-0,007
-603,371	800,000	-0,010	0,024
-602,357	-200,000	0,008	-0,028
-601,342	261,567	-0,071	-0,090
-600,328	-190,822	-0,064	0,000
-599,313	-109,813	0,060	0,009
-598,298	106,249	-0,094	0,081
-597,284	-200,000	-0,022	-0,109
-596,269	-200,000	-0,000	0,074
-595,255	800,000	-0,022	0,051
-594,240	23,356	-0,023	-0,014
-593,225	800,000	-0,019	0,054
-592,211	194,067	0,034	-0,037
-591,196	-134,861	-0,084	-0,007
-590,182	406,459	-0,058	-0,089
-589,167	-0,357	0,208	0,106
-588,152	-200,000	-0,014	-0,097
-587,138	-62,816	-0,110	-0,033
-586,123	-200,000	-0,034	-0,163
-585,109	-200,000	0,039	-0,177
-584,094	-99,003	0,082	0,015
-583,079	488,646	0,048	-0,079
-582,065	-142,987	0,215	-0,015
-581,050	-109,506	-0,066	0,010
-580,036	4,601	-0,081	-0,043
-579,021	52,958	-0,039	0,027
-578,006	-32,395	-0,092	-0,037
-576,992	139,609	-0,054	-0,051
-575,977	-144,042	-0,027	-0,002
-574,963	-200,000	0,003	0,120
-573,948	-200,000	-0,009	-0,063
-572,934	176,004	-0,039	-0,041
-571,919	798,241	-0,019	-0,038
-570,904	31,827	-0,148	-0,092
-569,890	670,881	0,031	-0,058
-568,875	800,000	0,045	-0,092
-567,861	-10,113	0,027	-0,013
-566,846	-200,000	-0,016	-0,079
-565,831	166,306	0,067	-0,068
-564,817	48,009	0,022	0,015
-563,802	144,234	-0,113	-0,109
-562,788	188,147	0,063	-0,068
-561,773	-200,000	0,014	-0,049
-560,758	88,386	-0,113	-0,090
-559,744	341,081	0,084	0,118
-558,729	78,527	0,081	0,062
-557,715	-200,000	-0,038	-0,225
-556,700	110,956	-0,098	-0,085
-555,685	327,076	0,080	-0,112
-554,671	723,928	-0,024	-0,047
-553,656	-62,043	0,262	0,079
-552,642	-38,733	-0,126	-0,048
-551,627	800,000	0,052	0,128
-550,612	102,095	-0,021	-0,018
-549,598	-200,000	-0,008	-0,085
-548,583	340,530	0,028	-0,039
-547,569	761,111	0,020	0,038
-546,554	25,696	-0,096	0,057
-545,539	151,579	0,118	0,116
-544,525	-87,937	0,087	-0,019
-543,510	-183,417	-0,057	0,001
-542,496	-200,000	-0,002	0,114
-541,481	-95,704	-0,063	-0,012
-540,466	-51,761	-0,054	0,018
-539,452	800,000	-0,048	0,127
-538,437	744,640	0,035	-0,068
-537,423	78,255	0,038	0,029
-536,408	127,095	0,105	-0,096
-535,393	-108,680	-0,034	0,005
-534,379	230,193	0,108	-0,128
-533,364	-200,000	0,007	-0,103
-532,350	-200,000	-0,001	-0,054
-531,335	61,966	0,054	-0,039
-530,321	205,709	0,059	0,066
-529,306	83,197	0,037	-0,029
-528,291	-200,000	-0,010	-0,184
-527,277	-77,023	-0,131	-0,033
-526,262	19,250	-0,072	-0,042
-525,248	-200,000	-0,025	0,159
-524,233	-200,000	-0,000	-0,003
-523,218	-200,000	-0,003	0,118
-522,204	307,261	-0,120	0,162
-521,189	-75,844	-0,188	0,048
-520,175	-200,000	-0,007	-0,033
-519,160	-121,543	-0,113	0,013
-518,145	-200,000	-0,014	-0,071
-517,131	76,593	0,096	0,073
-516,116	491,681	0,042	0,069
-515,102	-200,000	0,017	0,095
-514,087	-159,590	-0,069	-0,003
-513,072	70,575	0,063	0,047
-512,058	654,137	-0,043	0,080
-511,043	73,813	0,086	-0,065
-510,029	800,000	0,011	0,031
-509,014	473,859	0,047	0,076
-507,999	-200,000	-0,015	0,086
-506,985	800,000	-0,044	-0,109
-505,970	-200,000	0,006	-0,047
-504,956	120,525	-0,019	-0,017
-503,941	560,963	-0,039	0,069
-502,926	58,217	-0,052	0,036
-501,912	-15,273	-0,074	-0,034
-500,897	67,682	0,078	0,058
-499,883	52,106	-0,115	0,079
-498,868	81,195	0,058	0,045
-497,853	-130,121	-0,189	-0,018
-496,839	-200,000	-0,023	-0,105
-495,824	77,070	0,023	0,018
-494,810	800,000	0,082	0,171
-493,795	29,691	0,092	-0,057
-492,781	-200,000	-0,007	-0,027
-491,766	149,643	-0,040	0,039
-490,751	-139,108	-0,113	0,009
-489,737	-91,689	0,096	0,020
-488,722	306,004	-0,011	0,015
-487,708	-191,612	0,078	0,001
-486,693	108,805	0,084	0,072
-485,678	-200,000	0,016	-0,100
-484,664	-16,970	0,050	-0,023
-483,649	-83,547	-0,055	-0,013
-482,635	-200,000	-0,031	0,125
-481,620	380,529	-0,096	0,143
-480,605	-119,616	0,110	0,014
-479,591	209,004	-0,063	-0,071
-478,576	0,950	-0,102	-0,053
-477,562	-200,000	-0,014	0,044
-476,547	-96,127	0,092	-0,017
-475,532	63,443	0,058	-0,042
-474,518	85,419	0,044	0,034
-473,503	800,000	-0,041	0,117
-472,489	89,797	0,088	0,071
-471,474	-96,776	0,189	0,036
-470,459	247,933	0,076	0,092
-469,445	47,802	-0,109	0,073
-468,430	741,307	-0,028	-0,054
-467,416	-88,119	-0,099	0,021
-466,401	159,851	0,037	0,037
-465,386	199,650	-0,063	0,069
-464,372	800,000	-0,069	0,147
-463,357	-120,082	0,019	0,002
-462,343	800,000	0,080	-0,167
-461,328	409,864	-0,019	0,029
-460,313	-200,000	-0,004	0,132
-459,299	395,832	0,044	-0,066
-458,284	-92,904	-0,095	-0,019
-457,270	-42,160	-0,088	0,032
-456,255	-61,386	-0,045	-0,013
-455,241	-18,371	-0,114	0,051
-454,226	-200,000	0,007	-0,053
-453,211	-105,484	0,061	0,010
-452,197	-200,000	0,020	-0,092
-451,182	-200,000	0,028	0,155
-450,168	59,891	0,057	0,040
-449,153	109,282	-0,052	-0,045
-448,138	-168,523	0,046	-0,001
-447,124	170,961	-0,111	-0,115
-446,109	-200,000	-0,017	0,063
-445,095	254,078	-0,085	0,105
-444,080	433,877	-0,055	0,087
-443,065	-133,453	0,207	-0,018
-442,051	81,862	-0,092	-0,072
-441,036	800,000	0,024	-0,070
-440,022	168,343	-0,011	-0,011
-439,007	-42,586	0,070	0,025
-437,992	-17,525	-0,058	0,026
-436,978	-127,703	0,166	0,017
-435,963	-72,088	-0,159	0,042
-434,949	509,254	0,040	-0,068
-433,934	144,001	-0,095	-0,091
-432,919	-117,337	-0,042	-0,005
-431,905	103,010	-0,063	-0,053
-430,890	800,000	0,022	0,057
-429,876	-200,000	-0,012	-0,045
-428,861	-196,284	0,023	0,000
-427,846	800,000	0,047	0,106
-426,832	-200,000	-0,012	-0,038
-425,817	800,000	-0,030	0,069
-424,803	800,000	0,073	0,148
-423,788	48,443	0,100	-0,067
-422,773	81,841	-0,062	-0,049
-421,759	-200,000	-0,014	0,057
-420,744	-101,888	0,068	0,012
-419,730	94,278	0,099	-0,081
-418,715	222,421	0,031	0,036
-417,701	40,763	-0,148	0,096
-416,686	-200,000	0,006	0,070
-415,671	194,071	-0,065	-0,071
-414,657	-155,547	0,033	0,002
-413,642	95,775	-0,056	0,046
-412,628	800,000	0,031	-0,073
-411,613	40,921	0,053	-0,034
-410,598	-122,934	-0,100	0,011
-409,584	-151,633	0,098	-0,005
-408,569	800,000	-0,049	0,101
-407,555	-200,000	0,011	-0,113
-406,540	84,614	-0,096	0,075
-405,525	-15,569	-0,116	-0,053
-404,511	800,000	0,065	-0,132
-403,496	800,000	0,029	-0,068
-402,482	-200,000	-0,027	0,159
-401,467	610,076	-0,023	0,041
-400,452	16,314	-0,067	0,038
-399,438	720,801	0,076	-0,145
-398,423	11,835	0,105	-0,058
-397,409	-200,000	-0,019	0,098
-396,394	-81,524	0,117	-0,027
-395,379	-138,863	0,094	0,007
-394,365	50,892	0,098	0,067
-393,350	-200,000	0,007	0,063
-392,336	103,597	-0,078	-0,066
-391,321	-200,000	0,012	0,137
-390,306	-98,262	0,129	-0,024
-389,292	89,884	-0,113	-0,090
-388,277	186,114	-0,068	-0,073
-387,263	507,137	0,041	0,069
-386,248	-200,000	0,005	0,072
-385,233	11,262	-0,056	-0,031
-384,219	-97,529	-0,060	0,011
-383,204	341,837	-0,024	0,034
-382,190	800,000	0,053	-0,130
-381,175	-136,038	-0,049	-0,004
-380,160	335,205	-0,008	-0,011
-379,146	112,749	0,016	0,014
-378,131	-44,229	0,176	0,063
-377,117	750,001	-0,050	-0,097
-376,102	-200,000	0,004	-0,102
-375,088	67,367	0,108	-0,079
-374,073	-200,000	0,013	-0,150
-373,058	-12,314	0,104	-0,049
-372,044	800,000	0,029	-0,088
-371,029	-151,392	0,145	-0,008
-370,015	66,487	-0,119	0,087
-369,000	402,516	-0,058	-0,088
-367,985	800,000	0,012	0,029
-366,971	7,002	-0,060	0,032
-365,956	258,419	0,072	0,089
-364,942	161,991	0,045	0,045
-363,927	-51,602	0,031	0,010
-362,912	-30,789	-0,183	-0,074
-361,898	800,000	-0,049	-0,110
-360,883	-200,000	0,025	-0,089
-359,869	793,204	-0,030	-0,060
-358,854	583,523	-0,073	0,129
-357,839	105,280	0,062	-0,052
-356,825	-73,040	0,063	-0,016
-355,810	9,581	-0,051	-0,028
-354,796	731,353	0,020	-0,038
-353,781	756,161	-0,042	0,082
-352,766	-30,747	-0,097	-0,039
-351,752	-200,000	0,004	0,046
-350,737	30,026	-0,067	0,041
-349,723	96,945	0,057	-0,047
-348,708	800,000	-0,025	0,056
-347,693	-1,656	-0,025	-0,013
-346,679	125,055	-0,127	0,115
-345,664	-22,824	-0,127	-0,055
-344,650	154,803	0,019	-0,018
-343,635	-200,000	0,003	-0,021
-342,620	316,604	0,093	0,126
-341,606	193,784	0,094	0,102
-340,591	502,804	0,015	-0,024
-339,577	-200,000	-0,003	0,052
-338,562	679,954	-0,024	-0,046
-337,548	297,078	0,018	0,023
-336,533	678,910	-0,043	0,080
-335,518	-83,550	-0,053	0,012
-334,504	73,895	0,095	0,071
-333,489	-186,415	0,140	-0,001
-332,475	800,000	0,042	0,101
-331,460	704,119	-0,049	-0,094
-330,445	-200,000	-0,018	-0,078
-329,431	12,100	0,058	0,032
-328,416	0,288	-0,063	-0,032
-327,402	80,205	0,042	-0,032
-326,387	443,301	0,095	-0,150
-325,372	-76,315	-0,057	0,014
-324,358	373,647	-0,116	-0,170
-323,343	613,415	0,061	-0,111
-322,329	-86,258	0,062	-0,014
-321,314	-141,955	0,199	0,014
-320,299	569,450	0,017	-0,030
-319,285	100,990	0,103	0,086
-318,270	111,104	0,079	-0,068
-317,256	467,327	-0,031	-0,050
-316,241	545,692	0,063	-0,108
-315,226	-65,538	-0,103	0,029
-314,212	-17,553	0,208	-0,093
-313,197	303,659	0,124	0,165
-312,183	800,000	-0,036	0,086
-311,168	-147,145	-0,066	-0,004
-310,153	-101,953	-0,090	0,015
-309,139	44,156	0,106	0,069
-308,124	800,000	-0,018	0,057
-307,110	-200,000	0,006	-0,035
-306,095	-16,352	0,102	-0,046
-305,080	376,443	-0,072	0,105
-304,066	-52,099	-0,062	-0,020
-303,051	232,643	0,063	-0,074
-302,037	800,000	0,051	-0,113
-301,022	163,787	-0,076	-0,077
-300,008	30,096	0,076	0,046
-298,993	121,149	-0,037	-0,033
-297,978	405,599	-0,051	-0,077
-296,964	-97,706	0,012	0,002
-295,949	625,442	0,038	0,068
-294,935	222,495	0,069	-0,080
-293,920	-200,000	0,022	-0,126
-292,905	-7,384	0,106	-0,051
-291,891	161,579	-0,091	0,091
-290,876	-66,577	0,085	-0,024
-289,862	283,108	0,154	-0,198
-288,847	-25,877	0,063	0,027
-287,832	10,463	-0,075	0,041
-286,818	-200,000	0,039	0,138
-285,803	315,146	0,067	0,091
-284,789	381,436	-0,040	0,058
-283,774	-200,000	0,013	0,118
-282,759	-115,489	0,116	0,015
-281,745	800,000	0,023	0,055
-280,730	-200,000	0,001	0,126
-279,716	70,881	-0,058	0,043
-278,701	800,000	-0,008	-0,017
-277,686	-200,000	-0,009	0,150
-276,672	-143,769	-0,089	0,006
-275,657	-200,000	0,010	0,089
-274,643	349,326	-0,104	-0,147
-273,628	-65,047	0,048	-0,014
-272,613	800,000	-0,052	0,155
-271,599	24,255	0,093	0,055
-270,584	-8,812	0,035	0,017
-269,570	800,000	0,013	0,030
-268,555	800,000	-0,028	-0,078
-267,540	-5,754	-0,057	-0,028
-266,526	800,000	-0,037	-0,098
-265,511	-50,639	0,084	0,028
-264,497	22,766	-0,060	0,035
-263,482	-14,293	0,073	0,034
-262,467	-142,909	0,158	-0,011
-261,453	612,150	0,062	-0,111
-260,438	-126,050	0,098	-0,010
-259,424	-145,660	0,095	-0,006
-258,409	133,297	-0,081	0,075
-257,395	-104,195	-0,111	-0,018
-256,380	49,436	0,127	-0,085
-255,365	-140,172	0,053	0,004
-254,351	94,546	0,114	0,092
-253,336	800,000	-0,063	-0,171
-252,322	251,719	0,091	-0,111
-251,307	231,612	-0,048	-0,057
-250,292	383,068	-0,069	0,102
-249,278	-128,994	0,080	0,008
-248,263	206,164	0,073	0,081
-247,249	-39,544	-0,058	0,022
-246,234	74,167	0,072	0,054
-245,219	0,250	-0,105	-0,053
-244,205	-100,871	-0,055	0,010
-243,190	-84,273	-0,040	0,009
-242,176	749,457	-0,044	0,085
-241,161	-95,642	-0,085	-0,016
-240,146	-46,377	-0,024	-0,009
-239,132	-55,440	0,032	-0,010
-238,117	5,300	-0,126	-0,066
-237,103	-200,000	-0,021	-0,076
-236,088	-120,332	-0,118	0,014
-235,073	-200,000	0,011	-0,038
-234,059	328,285	0,023	0,031
-233,044	651,693	0,011	0,020
-232,030	-200,000	-0,008	-0,101
-231,015	508,114	-0,051	-0,085
-230,000	800,000	0,048	-0,143
-228,986	-200,000	-0,020	-0,085
-227,971	-200,000	-0,009	-0,047
-226,957	198,953	-0,076	0,083
-225,942	206,656	-0,056	0,062
-224,927	-200,000	0,021	-0,079
-223,913	-200,000	0,013	-0,115
-222,898	800,000	0,015	0,043
-221,884	-200,000	0,018	0,079
-220,869	-200,000	0,004	-0,038
-219,855	-200,000	-0,006	0,031
-218,840	-200,000	0,052	0,178
-217,825	-36,237	0,018	-0,007
-216,811	398,064	-0,017	0,026
-215,796	443,678	-0,084	-0,132
-214,782	33,066	0,146	-0,090
-213,767	33,542	-0,035	-0,022
-212,752	-145,998	-0,046	-0,003
-211,738	705,990	-0,090	0,170
-210,723	138,834	0,061	-0,057
-209,709	87,673	-0,143	0,113
-208,694	59,422	0,173	-0,122
-207,679	-112,292	0,081	-0,011
-206,665	-200,000	0,023	0,143
-205,650	-135,257	0,159	0,013
-204,636	69,706	0,052	-0,038
-203,621	800,000	0,035	-0,100
-202,606	800,000	0,016	-0,045
-201,592	8,793	-0,084	-0,045
-200,577	230,626	-0,054	0,063
-199,563	-92,892	-0,066	0,013
-198,548	-90,595	-0,035	-0,007
-197,533	800,000	-0,051	0,124
-196,519	-200,000	0,003	-0,123
-195,504	218,546	-0,108	-0,124
-194,490	800,000	-0,054	-0,121
-193,475	-200,000	-0,011	0,055
-192,460	-22,977	-0,218	-0,093
-191,446	-27,193	0,023	-0,010
-190,431	344,665	0,056	0,079
-189,417	-154,948	-0,051	-0,002
-188,402	20,212	0,094	0,054
-187,387	169,474	-0,033	-0,034
-186,373	247,850	0,095	0,115
-185,358	-133,692	-0,193	-0,017
-184,344	-200,000	0,005	0,027
-183,329	-0,748	0,072	-0,036
-182,315	2,164	0,158	-0,081
-181,300	-13,471	-0,008	0,004
-180,285	-200,000	-0,001	0,065
-179,271	128,077	0,063	-0,057
-178,256	51,505	0,062	-0,042
-177,242	-104,626	-0,064	-0,010
-176,227	-82,463	-0,104	-0,024
-175,212	-98,225	0,088	-0,016
-174,198	131,838	-0,077	0,071
-173,183	787,734	-0,023	-0,045
-172,169	464,009	-0,071	-0,114
-171,154	87,284	0,088	-0,070
-170,139	-55,770	-0,191	0,061
-169,125	125,372	0,060	-0,054
-168,110	-200,000	-0,006	0,028
-167,096	700,501	0,060	0,113
-166,081	-60,573	0,051	0,015
-165,066	99,224	-0,126	-0,103
-164,052	15,361	0,030	0,017
-163,037	735,006	-0,037	0,070
-162,023	130,961	-0,067	-0,061
-161,008	-17,585	0,136	0,061
-159,993	-200,000	-0,027	0,207
-158,979	134,903	-0,025	0,023
-157,964	145,329	-0,068	0,065
-156,950	-200,000	0,006	0,045
-155,935	-200,000	0,004	0,098
-154,920	800,000	-0,042	0,084
-153,906	-71,324	0,130	-0,034
-152,891	-137,281	0,060	0,005
-151,877	-200,000	0,004	-0,040
-150,862	-200,000	-0,094	-0,000
-149,847	62,755	0,035	0,025
-148,833	263,407	0,039	-0,048
-147,818	800,000	-0,077	-0,174
-146,804	573,054	0,041	-0,071
-145,789	800,000	0,040	-0,086
-144,775	-200,000	0,025	-0,125
-143,760	-124,261	-0,078	0,009
-142,745	-200,000	-0,014	-0,120
-141,731	-184,454	-0,042	0,000
-140,716	20,613	0,127	0,073
-139,702	-59,305	0,055	0,017
-138,687	-200,000	0,008	0,043
-137,672	-200,000	0,005	-0,100
-136,658	81,347	-0,124	-0,095
-135,643	-200,000	0,012	0,038
-134,629	692,712	0,028	0,052
-133,614	-200,000	0,067	-0,211
-132,599	-37,007	0,035	0,013
-131,585	-64,681	0,052	0,015
-130,570	-200,000	0,003	-0,093
-129,556	-51,909	-0,071	-0,023
-128,541	96,719	0,021	-0,017
-127,526	-35,019	-0,105	0,041
-126,512	75,339	-0,008	-0,006
-125,497	397,481	0,011	-0,017
-124,483	1,449	-0,056	0,028
-123,468	-200,000	-0,025	0,090
-122,453	-200,000	0,006	0,053
-121,439	307,055	0,037	-0,049
-120,424	-200,000	0,010	-0,081
-119,410	-200,000	0,013	0,055
-118,395	-26,848	0,091	0,037
-117,380	-53,334	0,082	0,026
-116,366	207,732	-0,087	0,097
-115,351	515,924	-0,066	-0,111
-114,337	263,178	-0,084	-0,104
-113,322	-200,000	0,000	-0,047
-112,307	65,066	-0,040	0,029
-111,293	-200,000	0,000	-0,089
-110,278	-200,000	0,007	0,099
-109,264	-52,381	-0,081	0,027
-108,249	299,609	0,071	-0,093
-107,234	800,000	0,022	0,065
-106,220	108,764	0,041	-0,035
-105,205	324,840	-0,015	0,021
-104,191	686,300	0,073	-0,136
-103,176	265,980	-0,054	0,067
-102,162	544,764	-0,074	0,126
-101,147	-45,619	-0,120	-0,042
-100,132	-200,000	-0,038	0,119
-99,118	22,732	-0,147	-0,085
-98,103	800,000	0,034	-0,083
-97,089	-200,000	-0,004	0,049
-96,074	271,061	0,022	0,028
-95,059	-38,656	-0,016	0,006
-94,045	212,393	-0,086	0,097
-93,030	667,607	-0,028	-0,053
-92,016	294,554	0,037	-0,048
-91,001	-200,000	0,021	-0,089
-89,986	354,613	-0,027	-0,038
-88,972	-200,000	-0,064	-0,206
-87,957	73,453	-0,031	0,023
-86,943	73,339	0,068	-0,051
-85,928	-51,710	-0,097	0,032
-84,913	187,889	-0,061	-0,065
-83,899	-30,250	-0,089	-0,036
-82,884	800,000	-0,042	-0,100
-81,870	20,702	0,090	0,052
-80,855	800,000	0,082	0,197
-79,840	-200,000	0,011	0,120
-78,826	-200,000	0,005	-0,023
-77,811	800,000	-0,032	-0,099
-76,797	349,400	0,040	-0,056
-75,782	-200,000	0,026	-0,125
-74,767	-200,000	0,016	-0,157
-73,753	210,457	-0,011	-0,012
-72,738	-96,244	-0,106	-0,020
-71,724	800,000	0,023	-0,052
-70,709	800,000	-0,059	0,122
-69,694	-117,547	0,167	0,021
-68,680	-66,658	0,070	0,020
-67,665	-200,000	0,003	-0,200
-66,651	220,951	-0,050	0,057
-65,636	-200,000	0,163	0,000
-64,622	-200,000	0,011	0,063
-63,607	-93,726	-0,115	0,022
-62,592	220,627	-0,010	0,012
-61,578	-200,000	-0,018	-0,083
-60,563	5,035	0,077	0,040
-59,549	-200,000	0,037	0,169
-58,534	-43,856	-1,490	-0,529
-57,519	313,500	-1,574	-2,104
-56,505	-200,000	-0,494	-4,444
-55,490	52,841	0,958	0,648
-54,476	800,000	4,790	11,275
-53,461	-200,000	17,749	283,021
-52,446	800,000	721,089	2225,748
-51,432	561,715	1635,052	2813,295
-50,417	80,814	1658,386	1266,336
-49,403	23,639	1532,461	891,751
-48,388	17,629	1456,111	818,341
-47,373	18,148	1445,795	815,001
-46,359	17,735	1436,198	807,592
-45,344	15,920	1431,340	796,199
-44,330	15,798	1429,638	794,646
-43,315	15,812	1427,981	793,760
-42,300	15,810	1426,472	792,876
-41,286	15,894	1425,065	792,461
-40,271	15,846	1423,846	791,524
-39,257	15,834	1422,633	790,765
-38,242	15,912	1421,295	790,357
-37,227	15,938	1419,726	789,573
-36,213	15,867	1418,494	788,526
-35,198	15,870	1417,495	787,951
-34,184	15,882	1416,690	787,527
-33,169	15,850	1415,314	786,584
-32,154	15,865	1414,421	786,126
-31,140	15,905	1412,673	785,312
-30,125	15,910	1411,699	784,761
-29,111	15,884	1410,486	783,936
-28,096	15,855	1409,593	783,269
-27,082	15,807	1408,374	782,337
-26,067	15,861	1407,215	781,917
-25,052	15,815	1406,282	781,152
-24,038	15,852	1405,158	780,670
-23,023	15,794	1404,204	779,839
-22,009	15,789	1403,162	779,205
-20,994	15,754	1402,351	778,558
-19,979	15,735	1401,532	777,984
-18,965	15,752	1400,449	777,435
-17,950	15,714	1399,528	776,712
-16,936	15,750	1398,513	776,286
-15,921	15,684	1397,392	775,328
-14,906	15,703	1396,369	774,816
-13,892	15,698	1395,571	774,323
-12,877	15,737	1394,406	773,825
-11,863	15,709	1393,721	773,285
-10,848	15,687	1392,586	772,522
-9,833	15,695	1391,801	772,095
-8,819	15,619	1390,941	771,232
-7,804	15,609	1389,919	770,591
-6,790	15,615	1388,858	769,999
-5,775	15,543	1388,139	769,239
-4,760	15,620	1386,916	768,884
-3,746	15,597	1386,346	768,431
-2,731	15,592	1385,508	767,916
-1,717	15,597	1384,536	767,368
-0,702	15,621	1382,717	766,438
0,313	19,397	1303,446	739,920
1,327	35,673	706,360	438,667
2,342	54,800	125,065	85,340
3,356	4,443	16,462	8,522
4,371	11,378	3,065	1,658
5,386	7,364	0,412	0,217
6,400	-20,303	0,085	0,037
7,415	273,395	-0,249	-0,313
8,429	-44,571	-0,344	-0,121
9,444	-2,389	-0,322	-0,159
10,459	148,473	-0,213	-0,204
11,473	41,698	-0,363	-0,232
12,488	66,502	-0,297	-0,213
13,502	255,491	-0,312	-0,379
14,517	84,066	-0,290	-0,224
15,531	105,552	-0,349	-0,292
16,546	76,836	-0,380	-0,285
17,561	-34,299	-0,514	-0,198
18,575	18,387	-0,269	-0,152
19,590	39,347	-0,296	-0,187
20,604	-56,122	-0,266	-0,083
21,619	95,732	-0,410	-0,331
22,634	72,673	-0,408	-0,301
23,648	144,225	-0,363	-0,342
24,663	34,593	-0,539	-0,332
25,677	-8,369	-0,419	-0,198
26,692	179,464	-0,274	-0,284
27,707	73,085	-0,403	-0,297
28,721	15,800	-0,402	-0,223
29,736	115,082	-0,459	-0,396
30,750	-33,920	-0,547	-0,212
31,765	64,551	-0,459	-0,326
32,780	159,215	-0,288	-0,283
33,794	59,304	-0,367	-0,255
34,809	223,002	-0,277	-0,316
35,823	-26,599	-0,354	-0,146
36,838	94,892	-0,337	-0,271
37,853	114,606	-0,389	-0,335
38,867	105,533	-0,393	-0,328
39,882	128,861	-0,355	-0,319
40,896	130,832	-0,261	-0,237
41,911	-30,253	-0,390	-0,156
42,926	1,058	-0,355	-0,179
43,940	325,796	-0,251	-0,340
44,955	79,598	-0,358	-0,271
45,969	92,246	-0,382	-0,304
46,984	16,001	-0,403	-0,224
47,999	19,131	-0,282	-0,159
49,013	167,362	-0,237	-0,237
50,028	-41,538	-0,463	-0,167
51,042	-17,665	-0,425	-0,187
52,057	32,474	-0,456	-0,277
53,071	183,517	-0,249	-0,260
54,086	9,853	-0,347	-0,185
55,101	-77,581	-0,329	-0,080
56,115	46,894	-0,372	-0,244
57,130	11,236	-0,360	-0,194
58,144	111,519	-0,375	-0,319
59,159	51,349	-0,413	-0,276
60,174	10,778	-0,404	-0,216
61,188	2,212	-0,501	-0,254
62,203	127,580	-0,246	-0,220
63,217	-146,645	-0,286	0,017
64,232	-35,920	-0,291	-0,110
65,247	111,758	-0,415	-0,353
66,261	28,255	-0,464	-0,275
67,276	9,936	-0,359	-0,191
68,290	-140,106	-0,431	-0,031
69,305	23,195	-0,269	-0,155
70,320	-44,371	-0,340	-0,119
71,334	-34,685	-0,374	-0,143
72,349	50,366	-0,297	-0,198
73,363	20,673	-0,369	-0,210
74,378	80,702	-0,410	-0,310
75,393	56,306	-0,298	-0,203
76,407	-31,490	-0,233	-0,092
77,422	-60,435	-0,302	-0,090
78,436	-119,027	-0,402	-0,049
79,451	-94,990	-0,201	-0,038
80,466	38,512	-0,370	-0,231
81,480	93,663	-0,248	-0,198
82,495	157,519	-0,295	-0,287
83,509	93,276	-0,277	-0,220
84,524	178,129	-0,287	-0,295
85,539	61,810	-0,186	-0,130
86,553	25,278	-0,275	-0,160
87,568	-96,613	-0,312	-0,057
88,582	0,993	-0,484	-0,243
89,597	40,022	-0,244	-0,154
90,611	90,067	-0,320	-0,251
91,626	-13,613	-0,317	-0,144
92,641	-32,913	-0,408	-0,158
93,655	53,553	-0,286	-0,192
94,670	144,640	-0,399	-0,375
95,684	327,062	-0,244	-0,330
96,699	-70,065	-0,448	-0,119
97,714	159,943	-0,233	-0,228
98,728	97,798	-0,245	-0,198
99,743	205,436	-0,203	-0,222
100,757	194,212	-0,196	-0,209
101,772	71,236	-0,331	-0,241
102,787	800,000	-0,100	-0,208
103,801	-29,851	-0,388	-0,154
104,816	-21,182	-0,322	-0,138
105,830	254,246	-0,200	-0,241
106,845	52,014	-0,199	-0,133
107,860	-70,633	-0,281	-0,074
108,874	99,101	-0,273	-0,221
109,889	-3,350	-0,325	-0,158
110,903	208,147	-0,293	-0,322
111,918	174,033	-0,140	-0,142
112,933	57,674	-0,264	-0,181
113,947	-29,163	-0,323	-0,129
114,962	20,494	-0,249	-0,141
115,976	-3,191	-0,285	-0,139
116,991	70,122	-0,322	-0,233
118,006	-10,589	-0,400	-0,185
119,020	102,002	-0,236	-0,193
120,035	20,947	-0,151	-0,086
121,049	128,160	-0,184	-0,165
122,064	245,899	-0,214	-0,253
123,079	106,185	-0,285	-0,237
124,093	67,865	-0,186	-0,133
125,108	-8,126	-0,217	-0,102
126,122	-69,222	-0,245	-0,065
127,137	36,727	-0,215	-0,133
128,151	73,660	-0,262	-0,192
129,166	8,174	-0,246	-0,129
130,181	214,416	-0,240	-0,267
131,195	36,648	-0,261	-0,161
132,210	-47,668	-0,261	-0,088
133,224	-28,631	-0,367	-0,147
134,239	-103,671	-0,243	-0,039
135,254	-200,000	-0,031	-0,291
136,268	164,243	-0,185	-0,183
137,283	294,327	-0,026	-0,034
138,297	-170,019	-0,161	0,004
139,312	-4,516	-0,407	-0,196
140,327	34,031	-0,315	-0,192
141,341	48,383	-0,286	-0,187
142,356	-35,566	-0,163	-0,061
143,370	-148,878	-0,235	-0,013
144,385	15,317	-0,398	-0,218
145,400	-96,869	-0,280	-0,051
146,414	100,972	-0,328	-0,267
147,429	101,981	-0,286	-0,233
148,443	-20,062	-0,280	-0,120
149,458	196,726	-0,197	-0,210
150,473	-100,491	-0,262	-0,045
151,487	17,843	-0,254	-0,141
152,502	-50,466	-0,299	-0,098
153,516	-0,044	-0,253	-0,125
154,531	202,726	-0,196	-0,212
155,546	266,726	-0,132	-0,162
156,560	141,712	-0,256	-0,237
157,575	52,671	-0,155	-0,104
158,589	76,477	-0,241	-0,178
159,604	-38,438	-0,266	-0,098
160,619	55,065	-0,271	-0,183
161,633	345,867	-0,239	-0,329
162,648	800,000	-0,120	-0,338
163,662	-1,150	-0,224	-0,110
164,677	468,272	-0,114	-0,179
165,692	175,606	-0,243	-0,247
166,706	7,576	-0,205	-0,107
167,721	-12,491	-0,169	-0,077
168,735	268,197	-0,256	-0,313
169,750	800,000	-0,132	-0,330
170,764	159,458	-0,242	-0,235
171,779	800,000	-0,046	-0,135
172,794	-68,781	-0,268	-0,072
173,808	221,034	-0,219	-0,245
174,823	309,385	-0,143	-0,186
175,837	176,939	-0,275	-0,280
176,852	127,805	-0,264	-0,234
177,867	-30,014	-0,238	-0,094
178,881	61,155	-0,264	-0,183
179,896	-28,103	-0,213	-0,086
180,910	97,320	-0,162	-0,129
181,925	65,181	-0,273	-0,192
182,940	-43,549	-0,353	-0,123
183,954	71,927	-0,352	-0,255
184,969	-133,768	-0,211	-0,018
185,983	235,350	-0,110	0,127
186,998	52,840	-0,211	-0,140
188,013	800,000	-0,067	-0,138
189,027	-34,435	-0,208	-0,079
190,042	-9,729	-0,334	-0,154
191,056	-15,950	-0,223	-0,098
192,071	6,949	-0,238	-0,123
193,086	800,000	-0,070	-0,185
194,100	-7,971	-0,212	-0,099
195,115	104,721	-0,162	-0,133
196,129	-70,202	-0,293	-0,077
197,144	134,533	-0,237	-0,214
198,159	196,546	-0,137	-0,145
199,173	-126,513	-0,134	-0,014
200,188	154,470	-0,097	-0,093
201,202	13,273	-0,182	-0,098
202,217	-77,000	-0,223	-0,054
203,232	-19,664	-0,130	-0,056
204,246	-90,292	-0,322	-0,064
205,261	-115,557	-0,108	-0,014
206,275	261,723	-0,120	-0,144
207,290	368,238	-0,164	-0,231
208,304	20,863	-0,096	-0,054
209,319	444,908	-0,118	-0,180
210,334	311,972	-0,149	-0,195
211,348	800,000	-0,077	-0,183
212,363	145,337	-0,290	-0,270
213,377	87,943	-0,223	-0,172
214,392	270,763	-0,074	-0,091
215,407	-200,000	-0,023	-0,086
216,421	81,206	-0,270	-0,203
217,436	108,557	-0,193	-0,160
218,450	800,000	-0,118	-0,241
219,465	369,781	-0,199	-0,281
220,480	433,196	-0,216	-0,326
221,494	-80,886	-0,256	0,058
222,509	-90,220	-0,259	-0,052
223,523	-123,369	-0,074	0,008
224,538	37,642	-0,233	-0,143
225,553	131,508	-0,153	-0,137
226,567	79,779	-0,212	-0,158
227,582	-67,213	-0,202	-0,055
228,596	567,249	-0,137	-0,231
229,611	519,502	-0,152	-0,249
230,626	800,000	-0,144	-0,290
231,640	800,000	-0,042	-0,089
232,655	-103,387	-0,227	-0,037
233,669	193,772	-0,209	-0,219
234,684	20,737	-0,238	-0,133
235,699	208,140	-0,098	-0,106
236,713	58,957	-0,112	-0,076
237,728	130,401	-0,155	-0,138
238,742	-119,574	-0,172	0,020
239,757	96,603	-0,168	-0,133
240,772	635,428	-0,114	-0,202
241,786	-53,823	-0,218	-0,069
242,801	96,257	-0,202	-0,160
243,815	-1,241	-0,148	-0,072
244,830	103,260	-0,191	-0,155
245,844	41,353	-0,194	-0,121
246,859	48,204	-0,175	-0,113
247,874	295,078	-0,238	-0,303
248,888	48,696	-0,237	-0,154
249,903	-78,899	-0,229	-0,054
250,917	125,811	-0,113	-0,099
251,932	-101,849	-0,226	-0,037
252,947	99,990	-0,122	-0,098
253,961	114,616	-0,184	-0,156
254,976	216,569	-0,151	-0,166
255,990	132,106	-0,177	-0,158
257,005	-131,813	-0,310	-0,028
258,020	-6,348	-0,131	-0,062
259,034	-55,315	-0,058	-0,018
260,049	-45,499	-0,270	-0,092
261,063	162,739	-0,133	-0,129
262,078	-200,000	-0,064	-0,335
263,093	-8,239	-0,175	-0,081
264,107	22,144	-0,163	0,092
265,122	-101,490	-0,372	-0,062
266,136	-32,749	-0,121	-0,046
267,151	148,241	-0,148	-0,138
268,166	197,257	-0,126	-0,133
269,180	429,598	-0,149	-0,224
270,195	257,441	-0,138	-0,164
271,209	75,703	-0,153	-0,112
272,224	800,000	-0,139	-0,340
273,239	43,025	-0,233	-0,147
274,253	-27,691	-0,138	-0,055
275,268	181,865	-0,121	-0,124
276,282	794,887	-0,139	-0,266
277,297	-68,607	-0,191	-0,051
278,312	-33,034	-0,226	-0,086
279,326	-200,000	-0,003	-0,109
280,341	242,394	-0,182	-0,210
281,355	-200,000	-0,044	-0,178
282,370	291,293	-0,164	-0,206
283,384	-94,696	-0,170	0,032
284,399	102,698	-0,209	-0,169
285,414	48,977	-0,310	-0,201
286,428	-27,569	-0,273	-0,109
287,443	46,672	-0,141	-0,090
288,457	296,164	-0,091	-0,115
289,472	-19,932	-0,096	-0,041
290,487	148,367	-0,220	-0,205
291,501	-120,112	-0,329	-0,038
292,516	-79,014	-0,218	0,051
293,530	58,568	-0,139	-0,094
294,545	-69,855	-0,123	-0,032
295,560	-163,778	-0,065	0,002
296,574	-93,928	-0,088	0,016
297,589	-60,308	-0,254	-0,074
298,603	71,447	-0,206	-0,147
299,618	213,432	-0,209	-0,228
300,633	669,495	-0,084	-0,151
301,647	129,389	-0,167	-0,147
302,662	800,000	-0,117	-0,233
303,676	-96,248	-0,127	0,023
304,691	-151,781	-0,110	-0,005
305,706	176,080	-0,183	-0,184
306,720	170,432	-0,126	-0,125
307,735	187,645	-0,149	-0,153
308,749	99,552	-0,099	-0,079
309,764	-30,343	-0,207	0,081
310,779	-61,448	-0,125	-0,036
311,793	-56,648	-0,301	-0,091
312,808	-51,969	-0,077	-0,025
313,822	-83,597	-0,264	-0,058
314,837	328,836	-0,081	-0,107
315,852	-90,798	-0,112	-0,022
316,866	-121,676	-0,134	0,015
317,881	-200,000	-0,028	-0,124
318,895	111,494	-0,035	-0,029
319,910	81,852	-0,171	-0,127
320,925	15,154	-0,164	-0,088
321,939	17,613	-0,176	-0,096
322,954	-200,000	-0,130	-0,000
323,968	672,312	-0,139	-0,248
324,983	-78,997	-0,090	-0,021
325,997	532,367	-0,127	-0,207
327,012	1,373	-0,139	0,069
328,027	-200,000	-0,004	-0,133
329,041	416,289	-0,155	-0,229
330,056	101,763	-0,164	-0,132
331,070	-15,160	-0,165	-0,073
332,085	800,000	-0,052	-0,115
333,100	-200,000	-0,016	-0,188
334,114	800,000	-0,137	-0,276
335,129	14,252	-0,140	-0,075
336,143	169,160	-0,118	-0,116
337,158	-131,516	0,010	0,001
338,173	410,180	-0,124	-0,182
339,187	206,021	-0,157	-0,168
340,202	26,086	-0,052	-0,030
341,216	-200,000	-0,018	-0,138
342,231	-63,282	-0,130	-0,036
343,246	5,737	-0,209	-0,106
344,260	-32,635	-0,251	-0,095
345,275	-39,537	-0,163	-0,058
346,289	-148,121	-0,116	0,006
347,304	0,060	-0,111	-0,054
348,319	716,631	-0,128	-0,234
349,333	215,773	-0,091	-0,100
350,348	800,000	-0,089	-0,180
351,362	50,924	-0,157	-0,102
352,377	208,289	-0,118	-0,126
353,392	627,304	-0,097	-0,168
354,406	-23,160	-0,139	-0,057
355,421	209,392	1312,764	1414,156
356,435	161,157	1473,281	1414,685
