DTS Sentinel unit serial number:	SN410029Multiplexer serial number:	ORYXHardware model number:	OX2-SRSoftware version number:	ORYX F/W v4,00 Oryx Data Collector v3.7.2.0data status	okinstallation	B3 Nyhavnadifferential loss correction	single-endedforward channel	channel 1reverse channel	N/Adate	2023/11/29time	21:42:31forward acquisition time	300,00reverse acquisition time	0,00gamma	499,1914k internal	0,3210k external	0,3210temperature offset calibration	1,0000default loss term (dB/km)	0,3820temperature slope calibration	1,0000multiplexer offset coefficient	1,0000multiplexer slope coefficient	1,0000fibre end	0,00T internal ref (°C)	10,81T ext. ref 1 (°C)	-4,41T ext. ref 2 (°C)	-4,48length (m)	temperature (°C)	Stokes	anti-Stokes-744,400	-70,968	-0,139	-0,038
-743,385	-200,000	-0,069	0,337
-742,371	164,447	-0,211	-0,216
-741,356	-200,000	0,016	0,345
-740,342	12,034	-0,142	-0,079
-739,327	800,000	-0,104	0,248
-738,312	304,186	-0,182	-0,245
-737,298	800,000	0,083	0,242
-736,283	120,641	-0,198	-0,179
-735,269	-200,000	0,032	0,219
-734,254	800,000	-0,086	-0,190
-733,239	19,805	-0,247	0,144
-732,225	800,000	-0,112	-0,269
-731,210	520,309	0,113	0,193
-730,196	600,872	-0,111	-0,200
-729,181	616,533	-0,042	-0,076
-728,167	-200,000	-0,002	-0,051
-727,152	-107,523	0,127	-0,020
-726,137	-200,000	-0,024	-0,094
-725,123	-200,000	0,004	0,024
-724,108	-54,662	-0,074	-0,024
-723,094	38,721	-0,154	-0,100
-722,079	178,473	-0,043	-0,045
-721,064	193,446	0,039	-0,043
-720,050	-200,000	0,008	-0,044
-719,035	800,000	0,045	-0,091
-718,021	-200,000	-0,009	-0,095
-717,006	148,588	-0,114	0,111
-715,991	-10,795	-0,076	-0,036
-714,977	-200,000	-0,011	-0,115
-713,962	77,457	-0,134	-0,103
-712,948	-83,822	0,089	-0,020
-711,933	443,591	0,104	0,165
-710,918	-87,616	-0,159	-0,034
-709,904	-200,000	-0,026	0,097
-708,889	12,374	-0,097	0,054
-707,875	-148,757	-0,124	0,007
-706,860	71,177	-0,109	-0,082
-705,845	296,735	-0,086	-0,114
-704,831	-152,867	-0,053	0,003
-703,816	-38,157	0,158	-0,061
-702,802	-17,875	-0,095	0,043
-701,787	461,398	-0,031	-0,050
-700,772	-200,000	0,006	-0,037
-699,758	734,520	0,039	0,077
-698,743	800,000	-0,057	-0,127
-697,729	84,214	0,096	0,076
-696,714	-200,000	-0,036	0,121
-695,699	-200,000	0,013	-0,088
-694,685	32,480	0,060	0,038
-693,670	8,228	-0,113	-0,061
-692,656	212,937	-0,107	0,123
-691,641	-200,000	-0,008	-0,048
-690,627	-103,638	0,129	0,022
-689,612	800,000	0,007	0,018
-688,597	135,091	-0,093	-0,087
-687,583	-200,000	-0,039	-0,126
-686,568	-75,028	-0,055	-0,014
-685,554	31,603	0,087	-0,054
-684,539	-200,000	0,008	0,040
-683,524	-200,000	0,015	-0,091
-682,510	13,281	0,099	0,055
-681,495	-11,666	-0,170	0,081
-680,481	300,867	-0,056	-0,075
-679,466	-200,000	-0,024	0,000
-678,451	164,030	-0,078	-0,080
-677,437	-200,000	0,009	-0,066
-676,422	21,412	-0,037	0,022
-675,408	-200,000	0,000	0,096
-674,393	743,054	-0,059	-0,115
-673,378	75,945	0,092	-0,070
-672,364	-169,661	-0,221	-0,006
-671,349	53,407	-0,071	0,049
-670,335	57,563	0,027	-0,019
-669,320	353,105	0,022	0,031
-668,305	-160,078	0,016	0,001
-667,291	800,000	-0,024	0,052
-666,276	-89,549	0,034	-0,007
-665,262	52,979	-0,080	-0,055
-664,247	-200,000	-0,026	-0,139
-663,232	-200,000	0,017	-0,093
-662,218	-9,555	-0,194	-0,093
-661,203	-200,000	-0,008	-0,044
-660,189	358,071	-0,078	0,112
-659,174	-99,031	-0,113	0,020
-658,159	682,592	-0,030	-0,057
-657,145	-200,000	0,011	0,099
-656,130	-6,434	0,145	-0,071
-655,116	-200,000	-0,011	-0,052
-654,101	-110,303	-0,066	0,010
-653,086	-168,940	-0,164	-0,004
-652,072	689,715	0,005	0,010
-651,057	-67,161	0,022	-0,006
-650,043	-65,171	-0,077	0,022
-649,028	647,352	0,076	0,141
-648,014	-200,000	-0,014	-0,099
-646,999	27,740	0,150	-0,091
-645,984	-200,000	-0,010	0,103
-644,970	16,187	-0,045	-0,026
-643,955	-200,000	-0,011	-0,062
-642,941	800,000	-0,058	-0,158
-641,926	195,104	-0,024	-0,027
-640,911	-4,768	-0,125	-0,062
-639,897	-200,000	0,006	0,042
-638,882	800,000	-0,023	-0,053
-637,868	800,000	0,013	0,030
-636,853	560,450	0,030	0,053
-635,838	482,820	-0,045	-0,074
-634,824	434,100	0,023	0,036
-633,809	167,829	0,064	-0,066
-632,795	800,000	0,071	-0,203
-631,780	531,414	0,029	-0,049
-630,765	-81,843	0,010	-0,002
-629,751	-112,466	-0,090	-0,013
-628,736	-5,516	-0,112	-0,055
-627,722	499,526	-0,004	-0,006
-626,707	800,000	-0,030	0,077
-625,692	-200,000	0,024	0,100
-624,678	84,493	0,092	-0,073
-623,663	473,370	-0,017	-0,027
-622,649	320,059	-0,076	-0,104
-621,634	100,517	0,049	-0,041
-620,619	800,000	0,061	-0,174
-619,605	-200,000	0,036	0,139
-618,590	-200,000	0,009	0,107
-617,576	207,064	-0,021	-0,023
-616,561	-200,000	0,004	-0,025
-615,546	-200,000	0,001	-0,060
-614,532	800,000	0,013	0,037
-613,517	390,898	0,081	0,122
-612,503	800,000	-0,034	0,102
-611,488	632,502	0,074	-0,136
-610,474	322,274	-0,075	0,103
-609,459	-200,000	0,001	0,119
-608,444	406,423	-0,064	0,097
-607,430	42,128	0,025	0,017
-606,415	109,155	-0,065	-0,056
-605,401	-200,000	-0,017	-0,073
-604,386	-74,071	-0,076	0,020
-603,371	192,098	-0,049	-0,053
-602,357	-200,000	-0,001	0,006
-601,342	800,000	-0,036	0,077
-600,328	224,042	0,011	-0,013
-599,313	-111,943	-0,126	-0,018
-598,298	800,000	0,016	-0,040
-597,284	213,722	0,093	-0,106
-596,269	-29,005	-0,077	-0,032
-595,255	357,647	-0,063	0,091
-594,240	170,632	0,100	0,104
-593,225	-83,976	-0,059	0,013
-592,211	161,780	-0,017	-0,017
-591,196	53,926	-0,085	-0,059
-590,182	-151,574	-0,058	-0,003
-589,167	-200,000	0,021	0,110
-588,152	203,863	-0,071	0,080
-587,138	-200,000	0,017	0,126
-586,123	-72,687	-0,052	-0,014
-585,109	800,000	-0,012	-0,027
-584,094	-200,000	0,023	-0,096
-583,079	800,000	0,016	0,033
-582,065	-200,000	-0,002	-0,036
-581,050	-200,000	0,012	-0,060
-580,036	-15,463	0,109	-0,050
-579,021	99,039	-0,125	-0,104
-578,006	-22,587	-0,018	0,008
-576,992	-96,355	0,016	0,003
-575,977	95,961	0,077	-0,064
-574,963	431,678	0,128	-0,200
-573,948	103,630	-0,097	0,082
-572,934	-10,575	0,065	-0,031
-571,919	307,259	-0,069	-0,093
-570,904	-151,420	-0,050	0,003
-569,890	-23,687	-0,079	-0,034
-568,875	-57,943	-0,040	-0,012
-567,861	-200,000	-0,030	0,142
-566,846	87,439	-0,019	0,015
-565,831	800,000	0,060	-0,139
-564,817	92,660	-0,039	-0,032
-563,802	-200,000	0,044	-0,173
-562,788	123,989	-0,020	-0,018
-561,773	800,000	0,026	0,055
-560,758	-200,000	-0,019	-0,131
-559,744	144,234	0,038	0,037
-558,729	800,000	0,013	0,035
-557,715	-78,084	-0,076	-0,019
-556,700	234,520	-0,026	-0,031
-555,685	103,833	-0,110	-0,093
-554,671	762,852	-0,029	-0,057
-553,656	318,283	0,061	-0,084
-552,642	648,242	0,085	0,158
-551,627	193,273	0,088	0,096
-550,612	80,505	-0,033	0,026
-549,598	-110,342	0,056	-0,008
-548,583	-200,000	-0,025	-0,143
-547,569	800,000	-0,050	-0,157
-546,554	63,078	0,081	-0,058
-545,539	-118,246	-0,209	0,027
-544,525	800,000	0,016	0,044
-543,510	-75,472	-0,156	0,040
-542,496	-200,000	-0,003	-0,014
-541,481	-200,000	-0,002	0,065
-540,466	-200,000	0,021	0,075
-539,452	-200,000	0,004	0,107
-538,437	-109,108	0,139	0,021
-537,423	-20,556	0,063	-0,028
-536,408	188,809	-0,043	-0,047
-535,393	800,000	0,034	-0,105
-534,379	800,000	-0,015	-0,045
-533,364	800,000	0,023	-0,051
-532,350	72,438	0,021	-0,016
-531,335	284,257	0,030	0,039
-530,321	-96,287	0,059	-0,011
-529,306	43,051	-0,014	0,009
-528,291	95,453	-0,022	0,018
-527,277	-200,000	-0,003	-0,022
-526,262	-44,062	0,105	-0,038
-525,248	-86,256	-0,017	0,004
-524,233	-200,000	-0,009	0,130
-523,218	-200,000	0,000	0,106
-522,204	-65,186	-0,104	-0,030
-521,189	775,401	-0,015	0,029
-520,175	60,946	0,053	0,038
-519,160	-22,418	-0,057	0,025
-518,145	-200,000	0,004	0,052
-517,131	-73,852	-0,040	-0,010
-516,116	89,412	-0,062	0,050
-515,102	-4,097	0,054	-0,027
-514,087	800,000	-0,021	0,061
-513,072	800,000	-0,044	-0,128
-512,058	-88,000	0,029	0,006
-511,043	800,000	0,025	0,069
-510,029	-193,031	0,165	0,001
-509,014	-200,000	-0,007	-0,076
-507,999	425,689	-0,014	0,021
-506,985	-200,000	-0,014	0,114
-505,970	384,483	0,053	-0,079
-504,956	-100,046	-0,032	-0,006
-503,941	-149,830	-0,114	-0,006
-502,926	-64,502	0,170	0,049
-501,912	33,169	0,052	-0,033
-500,897	800,000	0,042	0,093
-499,883	-53,476	-0,149	0,049
-498,868	-49,282	-0,159	-0,054
-497,853	-200,000	-0,024	-0,101
-496,839	800,000	0,043	-0,132
-495,824	77,026	-0,019	0,014
-494,810	-45,344	0,117	0,041
-493,795	472,571	-0,075	0,122
-492,781	-78,349	-0,070	-0,017
-491,766	-150,084	-0,176	-0,010
-490,751	92,451	0,045	-0,036
-489,737	-200,000	-0,007	-0,027
-488,722	-75,575	-0,045	-0,011
-487,708	53,929	-0,077	0,053
-486,693	44,672	-0,040	-0,026
-485,678	800,000	0,022	-0,067
-484,664	-72,265	-0,032	0,008
-483,649	61,579	0,038	-0,027
-482,635	-17,877	-0,063	-0,028
-481,620	-70,553	0,031	-0,008
-480,605	800,000	-0,022	0,067
-479,591	-148,862	0,093	-0,005
-478,576	-12,423	-0,062	-0,029
-477,562	-200,000	-0,016	-0,114
-476,547	48,875	0,064	-0,043
-475,532	-200,000	0,012	-0,063
-474,518	-200,000	-0,092	0,000
-473,503	-74,203	-0,077	0,020
-472,489	-89,707	0,094	0,020
-471,474	-50,553	-0,025	-0,008
-470,459	-43,543	-0,070	-0,025
-469,445	122,561	-0,127	-0,114
-468,430	-200,000	-0,001	-0,100
-467,416	-39,325	0,034	-0,013
-466,401	-200,000	0,032	0,135
-465,386	-82,475	0,036	-0,008
-464,372	299,660	0,097	-0,129
-463,357	-60,156	0,140	-0,043
-462,343	800,000	0,026	-0,053
-461,328	87,851	-0,100	0,079
-460,313	-49,241	0,202	0,069
-459,299	-200,000	-0,024	0,078
-458,284	800,000	-0,034	-0,089
-457,270	-200,000	-0,011	-0,069
-456,255	-200,000	0,003	-0,082
-455,241	-200,000	-0,010	-0,053
-454,226	266,563	-0,086	0,108
-453,211	-75,014	-0,127	0,032
-452,197	580,455	0,115	-0,202
-451,182	-80,659	0,086	-0,020
-450,168	121,423	0,089	0,079
-449,153	-123,901	-0,061	0,007
-448,138	-50,632	0,039	-0,013
-447,124	800,000	0,021	0,053
-446,109	82,001	-0,053	-0,041
-445,095	-200,000	0,043	0,198
-444,080	289,040	-0,054	0,070
-443,065	374,321	0,053	0,078
-442,051	6,896	0,022	-0,012
-441,036	-200,000	0,010	-0,077
-440,022	196,845	-0,035	-0,038
-439,007	-103,428	0,079	-0,013
-437,992	215,045	-0,106	0,121
-436,978	-90,401	-0,088	0,018
-435,963	-92,129	0,145	0,029
-434,949	24,660	0,073	-0,043
-433,934	800,000	-0,028	0,059
-432,919	-76,933	-0,097	-0,024
-431,905	-60,920	0,087	-0,026
-430,890	800,000	0,042	0,085
-429,876	-108,325	0,062	-0,010
-428,861	-164,107	0,062	0,002
-427,846	542,992	0,039	-0,067
-426,832	56,336	0,073	-0,051
-425,817	-68,814	-0,087	-0,024
-424,803	-200,000	0,021	-0,106
-423,788	764,635	0,041	0,079
-422,773	-200,000	-0,006	0,065
-421,759	800,000	-0,056	0,129
-420,744	-115,549	0,143	0,019
-419,730	316,130	-0,088	-0,120
-418,715	-200,000	0,019	-0,079
-417,701	-200,000	-0,008	0,045
-416,686	132,467	-0,049	-0,045
-415,671	735,672	-0,047	0,091
-414,657	-165,860	0,052	0,002
-413,642	-200,000	-0,001	0,100
-412,628	88,982	-0,102	-0,081
-411,613	-200,000	0,010	-0,037
-410,598	-100,247	-0,022	-0,004
-409,584	94,439	-0,019	0,016
-408,569	-200,000	0,027	0,253
-407,555	-13,142	0,065	0,030
-406,540	-200,000	-0,029	-0,139
-405,525	-200,000	0,014	0,053
-404,511	-97,338	-0,149	0,028
-403,496	49,336	0,016	-0,011
-402,482	-80,282	0,114	-0,027
-401,467	111,373	-0,076	0,065
-400,452	181,203	0,140	0,147
-399,438	-75,993	-0,128	-0,032
-398,423	-44,848	0,056	-0,020
-397,409	-200,000	0,006	0,023
-396,394	-200,000	-0,027	0,113
-395,379	9,361	0,068	0,037
-394,365	800,000	-0,035	0,102
-393,350	379,824	0,051	0,075
-392,336	151,308	-0,024	0,023
-391,321	-54,246	-0,086	0,028
-390,306	-3,934	-0,168	0,083
-389,292	-200,000	0,041	0,136
-388,277	583,818	0,038	0,067
-387,263	-200,000	-0,020	-0,071
-386,248	128,110	-0,012	0,011
-385,233	137,093	0,038	-0,036
-384,219	68,367	-0,031	-0,023
-383,204	30,605	0,129	0,079
-382,190	492,810	-0,028	0,046
-381,175	-85,286	0,102	-0,023
-380,160	-200,000	-0,004	0,019
-379,146	-200,000	0,018	0,181
-378,131	298,125	-0,082	0,109
-377,117	724,337	-0,037	0,071
-376,102	664,542	-0,028	-0,052
-375,088	-72,003	-0,126	-0,033
-374,073	-45,981	-0,041	0,014
-373,058	800,000	-0,032	0,078
-372,044	-200,000	0,085	0,000
-371,029	-200,000	0,011	0,052
-370,015	378,863	-0,061	-0,090
-369,000	267,555	0,052	-0,065
-367,985	-18,260	-0,100	-0,044
-366,971	-200,000	0,002	-0,075
-365,956	42,069	0,089	0,057
-364,942	30,899	0,075	-0,046
-363,927	-108,611	0,031	0,005
-362,912	-200,000	-0,051	0,172
-361,898	-165,592	-0,062	-0,002
-360,883	249,566	-0,064	-0,078
-359,869	414,705	0,089	-0,137
-358,854	-143,720	0,056	-0,004
-357,839	-184,575	-0,091	-0,001
-356,825	256,560	-0,032	0,040
-355,810	613,754	0,052	-0,093
-354,796	-122,380	-0,070	0,008
-353,781	270,213	0,010	0,012
-352,766	-102,281	-0,103	0,017
-351,752	-37,717	0,059	-0,023
-350,737	-200,000	0,031	0,160
-349,723	472,929	0,045	-0,073
-348,708	-94,539	0,055	-0,011
-347,693	631,141	0,042	0,077
-346,679	-200,000	0,021	0,100
-345,664	-200,000	0,011	0,106
-344,650	663,477	-0,031	0,057
-343,635	-200,000	0,003	0,071
-342,620	-200,000	0,029	-0,115
-341,606	518,304	0,089	0,150
-340,591	213,498	0,061	-0,069
-339,577	157,364	-0,017	-0,016
-338,562	-200,000	-0,005	-0,091
-337,548	-200,000	0,002	0,024
-336,533	553,701	0,073	0,126
-335,518	-134,737	-0,175	-0,015
-334,504	34,285	0,077	-0,048
-333,489	58,520	-0,052	-0,037
-332,475	94,248	0,116	0,094
-331,460	166,148	-0,143	-0,145
-330,445	607,358	-0,036	-0,064
-329,431	-200,000	-0,007	0,037
-328,416	-79,330	-0,080	-0,019
-327,402	-200,000	-0,012	0,058
-326,387	800,000	0,041	0,115
-325,372	196,807	0,047	0,051
-324,358	-70,690	-0,078	-0,021
-323,343	175,635	-0,071	0,073
-322,329	-142,146	0,083	0,006
-321,314	6,988	0,102	-0,054
-320,299	466,937	-0,048	-0,077
-319,285	800,000	-0,051	0,121
-318,270	-70,589	0,073	0,020
-317,256	565,216	-0,068	-0,119
-316,241	-129,799	0,016	0,002
-315,226	41,896	0,050	-0,033
-314,212	318,839	-0,043	-0,059
-313,197	800,000	0,030	0,069
-312,183	-136,843	-0,161	-0,013
-311,168	-200,000	-0,016	-0,060
-310,153	47,485	0,044	0,029
-309,139	-200,000	-0,012	0,169
-308,124	-200,000	0,043	-0,176
-307,110	165,964	0,062	0,062
-306,095	541,356	-0,084	0,143
-305,080	56,727	0,117	0,081
-304,066	-105,974	-0,141	-0,022
-303,051	-125,158	-0,079	-0,009
-302,037	-200,000	0,001	0,012
-301,022	-47,075	-0,024	0,008
-300,008	83,482	0,101	0,079
-298,993	-200,000	-0,008	0,065
-297,978	465,635	-0,044	0,070
-296,964	142,836	-0,026	-0,025
-295,949	-200,000	0,018	-0,132
-294,935	-200,000	-0,021	-0,111
-293,920	651,522	-0,032	0,058
-292,905	-200,000	-0,006	-0,065
-291,891	-200,000	0,007	0,122
-290,876	306,928	-0,107	0,142
-289,862	-200,000	-0,011	-0,075
-288,847	-200,000	0,028	-0,184
-287,832	-200,000	0,023	-0,147
-286,818	172,385	-0,055	-0,057
-285,803	-81,874	0,134	0,031
-284,789	-32,931	-0,153	0,060
-283,774	-121,856	-0,095	0,011
-282,759	-8,471	-0,059	0,028
-281,745	-200,000	-0,011	-0,067
-280,730	-115,344	-0,160	-0,021
-279,716	-200,000	0,009	0,068
-278,701	-23,046	0,103	-0,044
-277,686	-200,000	0,037	0,118
-276,672	800,000	0,041	0,092
-275,657	-12,849	0,032	-0,015
-274,643	-63,220	0,171	-0,050
-273,628	800,000	-0,062	-0,152
-272,613	-200,000	-0,009	-0,171
-271,599	114,623	0,106	-0,092
-270,584	-200,000	0,001	0,058
-269,570	-200,000	-0,016	0,070
-268,555	427,404	0,082	0,126
-267,540	-200,000	-0,004	0,084
-266,526	-107,994	-0,100	0,015
-265,511	-74,189	0,081	-0,021
-264,497	800,000	0,068	0,135
-263,482	709,403	-0,039	0,074
-262,467	800,000	-0,038	0,083
-261,453	-200,000	0,009	0,030
-260,438	800,000	0,036	0,099
-259,424	675,844	0,026	-0,048
-258,409	-55,739	-0,086	-0,027
-257,395	290,276	0,044	0,057
-256,380	69,616	0,113	0,083
-255,365	349,396	0,057	0,081
-254,351	-87,862	-0,100	0,021
-253,336	-91,967	-0,159	0,032
-252,322	800,000	-0,052	-0,133
-251,307	567,174	-0,073	-0,127
-250,292	119,968	-0,046	0,041
-249,278	-4,400	0,110	0,054
-248,263	800,000	-0,047	0,110
-247,249	-123,873	-0,024	-0,003
-246,234	-200,000	0,004	-0,021
-245,219	145,047	-0,077	-0,073
-244,205	46,784	0,095	-0,063
-243,190	-57,975	-0,110	0,034
-242,176	-148,574	0,093	-0,005
-241,161	255,027	0,060	0,073
-240,146	-200,000	-0,016	0,051
-239,132	800,000	0,015	-0,034
-238,117	-90,884	0,192	-0,039
-237,103	190,570	-0,009	-0,009
-236,088	-115,592	-0,033	-0,004
-235,073	-45,026	0,077	0,027
-234,059	763,934	0,042	-0,081
-233,044	-200,000	0,003	-0,026
-232,030	28,175	-0,052	0,031
-231,015	66,258	-0,049	-0,036
-230,000	-116,766	-0,090	-0,012
-228,986	3,510	0,027	-0,014
-227,971	219,726	-0,023	-0,026
-226,957	126,799	0,154	0,139
-225,942	18,294	0,109	0,062
-224,927	364,375	-0,045	0,065
-223,913	-200,000	-0,002	0,047
-222,898	800,000	0,020	-0,057
-221,884	-200,000	-0,022	-0,096
-220,869	470,282	0,017	-0,027
-219,855	116,795	0,088	0,077
-218,840	-41,694	0,047	0,017
-217,825	-190,145	0,092	0,001
-216,811	-70,517	-0,044	-0,012
-215,796	280,533	-0,064	-0,082
-214,782	64,208	-0,061	0,043
-213,767	800,000	0,007	-0,021
-212,752	-200,000	-0,022	-0,072
-211,738	-200,000	0,022	-0,096
-210,723	64,921	-0,095	-0,068
-209,709	-200,000	0,029	-0,121
-208,694	-200,000	-0,019	-0,074
-207,679	-39,430	-0,132	-0,049
-206,665	-80,622	-0,107	0,025
-205,650	404,034	0,065	-0,098
-204,636	446,027	0,041	0,064
-203,621	102,870	-0,090	-0,075
-202,606	182,176	-0,048	0,050
-201,592	166,986	0,072	0,073
-200,577	-59,738	0,093	0,028
-199,563	-200,000	-0,008	0,065
-198,548	-59,300	0,151	-0,046
-197,533	135,209	0,140	0,129
-196,519	0,225	0,027	-0,014
-195,504	-40,267	-0,054	-0,020
-194,490	-200,000	-0,012	-0,048
-193,475	155,453	0,075	-0,074
-192,460	8,341	-0,108	-0,057
-191,446	-200,000	0,003	0,067
-190,431	730,894	-0,070	-0,134
-189,417	-200,000	0,013	-0,085
-188,402	306,204	-0,019	0,025
-187,387	-74,230	-0,099	-0,025
-186,373	170,617	0,038	-0,038
-185,358	-139,225	0,075	-0,006
-184,344	40,206	0,097	0,062
-183,329	800,000	0,093	0,232
-182,315	-200,000	-0,004	-0,016
-181,300	550,545	-0,023	-0,040
-180,285	-114,854	0,101	0,014
-179,271	211,710	0,092	0,102
-178,256	84,614	0,058	0,045
-177,242	86,436	0,004	0,003
-176,227	-77,878	-0,043	0,010
-175,212	-200,000	-0,017	-0,151
-174,198	57,424	-0,034	0,023
-173,183	-200,000	-0,009	-0,042
-172,169	-200,000	-0,010	0,057
-171,154	800,000	0,030	0,071
-170,139	248,365	0,110	-0,133
-169,125	78,261	0,014	-0,011
-168,110	-46,196	0,073	-0,025
-167,096	-12,416	0,126	-0,058
-166,081	62,044	-0,063	-0,044
-165,066	800,000	-0,052	-0,152
-164,052	132,027	-0,066	-0,061
-163,037	-122,843	0,069	0,008
-162,023	-12,415	-0,076	0,035
-161,008	94,409	-0,068	-0,055
-159,993	231,304	0,130	0,151
-158,979	102,653	0,058	-0,048
-157,964	203,625	0,101	-0,111
-156,950	-38,112	-0,173	-0,065
-155,935	-200,000	-0,003	0,067
-154,920	97,548	0,067	0,054
-153,906	-27,478	0,041	-0,017
-152,891	-90,318	0,126	-0,026
-151,877	120,880	-0,050	-0,044
-150,862	170,809	-0,061	-0,062
-149,847	160,807	0,120	0,119
-148,833	-94,945	-0,154	-0,029
-147,818	-177,103	-0,197	0,003
-146,804	-200,000	-0,027	-0,107
-145,789	39,833	0,031	0,020
-144,775	277,391	-0,102	0,129
-143,760	-4,176	-0,075	0,037
-142,745	-23,198	-0,117	0,050
-141,731	23,999	0,020	-0,012
-140,716	497,421	0,045	-0,073
-139,702	132,318	-0,092	0,084
-138,687	800,000	-0,013	0,028
-137,672	-25,234	-0,109	-0,045
-136,658	192,359	0,021	0,023
-135,643	126,199	0,011	0,010
-134,629	99,566	0,049	0,040
-133,614	478,739	0,046	0,074
-132,599	573,362	0,040	-0,069
-131,585	20,391	-0,090	0,051
-130,570	800,000	0,078	0,208
-129,556	-200,000	-0,024	0,107
-128,541	-155,859	-0,089	-0,004
-127,526	171,007	-0,013	0,013
-126,512	-4,221	0,106	0,052
-125,497	-200,000	-0,001	0,068
-124,483	-92,203	-0,128	0,025
-123,468	-95,539	-0,078	-0,015
-122,453	-200,000	-0,008	0,032
-121,439	-127,571	-0,105	-0,011
-120,424	-48,857	0,064	-0,022
-119,410	800,000	-0,069	0,154
-118,395	230,740	-0,037	0,043
-117,380	-132,799	-0,117	-0,010
-116,366	296,680	0,084	-0,109
-115,351	358,126	0,045	0,063
-114,337	800,000	0,008	-0,023
-113,322	-200,000	0,004	-0,099
-112,307	-24,898	-0,049	0,020
-111,293	-152,022	0,163	-0,008
-110,278	-46,304	0,188	0,065
-109,264	-200,000	-0,014	-0,062
-108,249	789,117	-0,066	-0,128
-107,234	180,043	-0,070	-0,072
-106,220	-200,000	-0,064	-0,235
-105,205	-23,241	0,030	-0,013
-104,191	-200,000	0,026	-0,123
-103,176	666,546	-0,042	-0,076
-102,162	162,392	0,033	0,033
-101,147	231,526	-0,093	0,108
-100,132	-133,859	0,147	-0,013
-99,118	531,324	-0,036	0,061
-98,103	134,766	0,094	-0,087
-97,089	-100,288	0,015	-0,003
-96,074	-116,527	-0,101	0,013
-95,059	20,281	-0,047	0,027
-94,045	-200,000	0,007	-0,162
-93,030	-200,000	-0,006	0,061
-92,016	800,000	-0,055	-0,164
-91,001	-200,000	0,000	-0,040
-89,986	70,213	0,044	0,032
-88,972	-144,392	0,011	-0,001
-87,957	52,706	0,087	0,058
-86,943	-200,000	-0,020	0,134
-85,928	-200,000	-0,009	-0,135
-84,913	-200,000	0,002	0,171
-83,899	-200,000	0,015	-0,110
-82,884	-100,468	0,094	0,016
-81,870	-118,754	0,036	-0,004
-80,855	121,613	0,080	0,070
-79,840	27,078	0,129	0,076
-78,826	110,775	-0,035	-0,030
-77,811	-200,000	-0,004	-0,121
-76,797	-43,555	0,069	-0,024
-75,782	-168,416	-0,023	0,001
-74,767	-200,000	-0,035	0,195
-73,753	-200,000	0,002	-0,023
-72,738	67,882	-0,081	0,058
-71,724	146,166	-0,071	-0,067
-70,709	409,223	-0,100	-0,151
-69,694	-200,000	-0,018	-0,107
-68,680	-200,000	-0,014	0,111
-67,665	-200,000	0,002	0,043
-66,651	89,595	0,064	-0,050
-65,636	141,984	0,043	0,041
-64,622	-93,124	-0,098	0,019
-63,607	139,912	-0,018	0,017
-62,592	800,000	-0,016	-0,043
-61,578	356,623	0,036	0,051
-60,563	206,759	0,054	-0,060
-59,549	-200,000	0,001	0,107
-58,534	9,174	-1,970	-1,048
-57,519	383,386	-1,377	-2,007
-56,505	-200,000	-0,383	-4,344
-55,490	357,233	0,995	1,405
-54,476	800,000	5,066	11,072
-53,461	-200,000	20,794	329,869
-52,446	800,000	757,756	2324,763
-51,432	549,878	1662,335	2825,036
-50,417	73,437	1663,929	1228,342
-49,403	18,652	1537,254	865,911
-48,388	12,669	1460,072	793,472
-47,373	19,096	1450,758	819,250
-46,359	15,848	1440,153	797,765
-45,344	10,889	1436,158	771,893
-44,330	10,815	1434,331	770,524
-43,315	10,892	1432,024	769,620
-42,300	10,868	1430,474	768,643
-41,286	10,883	1429,223	768,013
-40,271	10,849	1427,943	767,135
-39,257	10,844	1426,816	766,473
-38,242	10,897	1425,538	766,007
-37,227	10,888	1424,455	765,350
-36,213	10,870	1423,380	764,661
-35,198	10,884	1422,164	764,041
-34,184	10,900	1421,269	763,605
-33,169	10,851	1420,013	762,670
-32,154	10,967	1418,658	762,459
-31,140	10,921	1417,613	761,651
-30,125	10,977	1416,565	761,320
-29,111	10,953	1415,397	760,548
-28,096	10,889	1414,454	759,709
-27,082	10,816	1413,291	758,715
-26,067	10,856	1411,917	758,136
-25,052	10,840	1411,134	757,610
-24,038	10,854	1410,123	757,103
-23,023	10,864	1409,000	756,517
-22,009	10,905	1407,869	756,068
-20,994	10,819	1406,776	755,052
-19,979	10,842	1405,978	754,698
-18,965	10,793	1405,171	754,008
-17,950	10,778	1404,198	753,387
-16,936	10,767	1403,514	752,940
-15,921	10,721	1402,324	752,057
-14,906	10,721	1401,574	751,623
-13,892	10,767	1400,472	751,214
-12,877	10,746	1399,767	750,711
-11,863	10,721	1398,944	750,123
-10,848	10,730	1397,959	749,605
-9,833	10,720	1397,048	749,044
-8,819	10,672	1396,287	748,380
-7,804	10,642	1395,323	747,696
-6,790	10,659	1394,321	747,210
-5,775	10,682	1393,429	746,807
-4,760	10,681	1392,503	746,277
-3,746	10,665	1391,421	745,595
-2,731	10,651	1390,639	745,082
-1,717	10,666	1389,594	744,561
-0,702	10,635	1387,964	743,515
0,313	14,635	1301,425	715,491
1,327	30,893	692,559	417,720
2,342	47,944	120,149	79,063
3,356	0,665	16,568	8,335
4,371	6,197	3,391	1,768
5,386	-37,574	1,001	0,375
6,400	-200,000	0,160	0,509
7,415	-6,272	-0,216	-0,104
8,429	-131,931	-0,295	-0,027
9,444	65,737	-0,300	-0,214
10,459	-14,119	-0,430	-0,195
11,473	411,257	-0,302	-0,453
12,488	69,023	-0,306	-0,222
13,502	-54,813	-0,378	-0,119
14,517	-38,659	-0,414	-0,153
15,531	124,705	-0,414	-0,367
16,546	-30,464	-0,449	-0,178
17,561	237,157	-0,281	-0,329
18,575	101,230	-0,221	-0,181
19,590	380,921	-0,215	-0,311
20,604	-126,824	-0,252	0,026
21,619	4,629	-0,432	-0,223
22,634	62,159	-0,480	-0,337
23,648	48,481	-0,532	-0,350
24,663	21,574	-0,368	-0,210
25,677	-25,785	-0,289	-0,119
26,692	91,061	-0,339	-0,268
27,707	200,308	-0,332	-0,359
28,721	73,215	-0,354	-0,260
29,736	152,529	-0,323	-0,311
30,750	284,925	-0,245	-0,311
31,765	359,995	-0,257	-0,363
32,780	112,328	-0,405	-0,344
33,794	-13,460	-0,389	-0,177
34,809	230,039	-0,279	-0,322
35,823	47,599	-0,469	-0,307
36,838	137,530	-0,373	-0,344
37,853	173,070	-0,279	-0,283
38,867	44,369	-0,340	-0,219
39,882	64,928	-0,327	-0,232
40,896	-12,836	-0,194	-0,088
41,911	-58,472	-0,362	-0,110
42,926	165,148	-0,280	-0,278
43,940	44,373	-0,333	-0,214
44,955	168,219	-0,325	-0,325
45,969	169,096	-0,331	-0,332
46,984	73,288	-0,388	-0,285
47,999	98,577	-0,236	-0,191
49,013	-5,790	-0,315	-0,151
50,028	8,333	-0,390	-0,205
51,042	59,037	-0,430	-0,297
52,057	45,467	-0,450	-0,291
53,071	-32,814	-0,177	-0,069
54,086	-36,842	-0,263	-0,099
55,101	64,996	-0,359	-0,254
56,115	46,298	-0,342	-0,222
57,130	-71,004	-0,457	-0,120
58,144	100,136	-0,364	-0,296
59,159	102,849	-0,486	-0,399
60,174	148,206	-0,343	-0,325
61,188	44,599	-0,355	-0,228
62,203	112,784	-0,218	-0,185
63,217	116,409	-0,263	-0,226
64,232	47,288	-0,363	-0,237
65,247	-48,199	-0,436	-0,147
66,261	92,806	-0,292	-0,231
67,276	-28,947	-0,471	-0,189
68,290	74,196	-0,339	-0,250
69,305	-28,774	-0,258	-0,103
70,320	-78,784	-0,418	-0,099
71,334	177,186	-0,274	-0,280
72,349	-28,328	-0,382	-0,154
73,363	79,460	-0,307	-0,231
74,378	11,972	-0,363	-0,195
75,393	-121,792	-0,221	0,025
76,407	92,407	-0,240	-0,190
77,422	-27,303	-0,275	-0,112
78,436	150,630	-0,250	-0,238
79,451	128,469	-0,383	-0,342
80,466	132,123	-0,300	-0,271
81,480	-5,884	-0,467	-0,223
82,495	243,669	-0,237	-0,280
83,509	-93,551	-0,366	-0,070
84,524	148,211	-0,138	-0,131
85,539	23,817	-0,244	-0,141
86,553	-168,652	-0,272	0,007
87,568	-16,408	-0,339	-0,150
88,582	-19,334	-0,383	-0,166
89,597	-22,717	-0,299	-0,126
90,611	-34,652	-0,287	-0,109
91,626	-80,177	-0,274	-0,064
92,641	-122,856	-0,334	-0,037
93,655	-123,329	-0,282	-0,031
94,670	-9,887	-0,380	-0,176
95,684	61,445	-0,341	-0,237
96,699	255,564	-0,274	-0,330
97,714	-7,171	-0,268	-0,126
98,728	116,710	-0,280	-0,240
99,743	85,770	-0,318	-0,245
100,757	65,769	-0,283	-0,201
101,772	3,916	-0,271	-0,138
102,787	75,725	-0,269	-0,198
103,801	26,251	-0,338	-0,197
104,816	36,603	-0,201	-0,124
105,830	96,756	-0,136	-0,109
106,845	-25,992	-0,290	-0,119
107,860	101,048	-0,278	-0,226
108,874	-20,746	-0,258	-0,110
109,889	30,126	-0,323	-0,192
110,903	122,057	-0,136	-0,119
111,918	117,661	-0,314	-0,270
112,933	-0,673	-0,240	-0,119
113,947	45,942	-0,147	-0,095
114,962	142,153	-0,189	-0,175
115,976	0,420	-0,291	-0,145
116,991	106,007	-0,216	-0,178
118,006	108,599	-0,253	-0,211
119,020	27,738	-0,355	-0,208
120,035	-28,062	-0,209	-0,084
121,049	-18,513	-0,186	-0,081
122,064	-50,215	-0,174	-0,057
123,079	-43,746	-0,216	-0,076
124,093	-20,893	-0,338	-0,144
125,108	106,355	-0,286	-0,236
126,122	-60,330	-0,237	-0,070
127,137	-165,674	-0,228	-0,007
128,151	110,699	-0,212	-0,178
129,166	-75,597	-0,348	-0,086
130,181	-101,325	-0,212	-0,036
131,195	-32,613	-0,216	-0,084
132,210	-32,529	-0,303	-0,117
133,224	280,216	-0,253	-0,316
134,239	-23,893	-0,222	-0,092
135,254	-82,723	-0,300	-0,067
136,268	238,410	-0,192	-0,222
137,283	231,380	-0,208	-0,238
138,297	75,901	-0,300	-0,221
139,312	-18,768	-0,363	-0,157
140,327	286,683	-0,211	-0,266
141,341	81,850	-0,254	-0,192
142,356	245,518	-0,110	-0,129
143,370	68,181	-0,191	-0,136
144,385	-71,490	-0,251	-0,065
145,400	150,571	-0,251	-0,237
146,414	210,492	-0,184	-0,202
147,429	257,126	-0,240	-0,288
148,443	56,466	-0,243	-0,164
149,458	-36,208	-0,221	-0,083
150,473	-92,957	-0,360	-0,069
151,487	79,145	-0,345	-0,257
152,502	19,826	-0,319	-0,178
153,516	288,401	-0,189	-0,239
154,531	139,761	-0,223	-0,205
155,546	55,632	-0,290	-0,195
156,560	221,737	-0,170	-0,190
157,575	-21,480	-0,249	-0,105
158,589	92,286	-0,203	-0,159
159,604	89,215	-0,243	-0,189
160,619	385,374	-0,206	-0,297
161,633	110,810	-0,321	-0,268
162,648	107,710	-0,233	-0,193
163,662	-30,501	-0,210	-0,083
164,677	167,769	-0,132	-0,130
165,692	74,480	-0,271	-0,198
166,706	47,104	-0,390	-0,252
167,721	51,419	-0,241	-0,159
168,735	76,885	-0,309	-0,228
169,750	-181,018	-0,162	-0,002
170,764	-59,793	-0,177	-0,052
171,779	-1,437	-0,235	-0,115
172,794	-143,007	-0,243	-0,016
173,808	-43,432	-0,248	-0,087
174,823	-43,579	-0,271	-0,095
175,837	133,818	-0,161	-0,145
176,852	395,096	-0,184	-0,267
177,867	470,677	-0,190	-0,297
178,881	304,353	-0,075	-0,097
179,896	167,161	-0,161	-0,159
180,910	26,448	-0,247	-0,143
181,925	601,587	-0,111	-0,193
182,940	-169,827	-0,156	-0,004
183,954	-87,338	-0,258	-0,054
184,969	509,084	-0,054	-0,088
185,983	132,537	-0,062	-0,055
186,998	14,771	-0,272	-0,147
188,013	179,228	-0,106	-0,108
189,027	41,256	-0,271	-0,170
190,042	568,071	-0,114	-0,192
191,056	-55,871	-0,307	-0,095
192,071	-88,728	-0,251	0,051
193,086	175,171	-0,259	-0,260
194,100	108,388	-0,243	-0,202
195,115	-27,084	-0,151	-0,061
196,129	48,403	-0,239	-0,155
197,144	-86,031	-0,297	-0,063
198,159	78,817	-0,154	-0,115
199,173	110,497	-0,303	-0,252
200,188	-52,848	-0,282	-0,089
201,202	191,587	-0,192	-0,201
202,217	202,723	-0,173	-0,185
203,232	286,090	-0,203	-0,255
204,246	-33,364	-0,210	-0,080
205,261	-107,128	-0,262	-0,040
206,275	75,794	-0,239	-0,175
207,290	-125,593	-0,183	-0,019
208,304	82,033	-0,227	-0,170
209,319	-31,706	-0,173	-0,067
210,334	-154,709	-0,185	-0,008
211,348	76,792	-0,339	-0,249
212,363	-200,000	-0,046	-0,142
213,377	-4,190	-0,294	-0,141
214,392	167,498	-0,135	-0,133
215,407	240,991	-0,081	-0,094
216,421	800,000	-0,057	-0,163
217,436	-200,000	-0,050	-0,194
218,450	386,760	-0,126	-0,181
219,465	187,993	-0,146	-0,151
220,480	218,122	-0,198	-0,219
221,494	800,000	-0,080	-0,201
222,509	-13,624	-0,186	-0,083
223,523	347,241	-0,225	-0,308
224,538	49,259	-0,255	-0,165
225,553	-17,767	-0,288	-0,125
226,567	800,000	-0,094	-0,215
227,582	77,128	-0,127	-0,093
228,596	354,837	-0,084	-0,116
229,611	-102,950	-0,222	-0,036
230,626	95,539	-0,183	-0,145
231,640	281,992	-0,087	-0,108
232,655	106,004	-0,229	-0,187
233,669	-8,344	-0,275	-0,127
234,684	418,815	-0,201	-0,298
235,699	-200,000	-0,041	-0,338
236,713	52,059	-0,196	-0,129
237,728	-58,869	-0,206	-0,061
238,742	61,708	-0,154	-0,106
239,757	503,181	-0,077	-0,123
240,772	119,740	-0,229	-0,196
241,786	185,569	-0,305	-0,313
242,801	170,785	-0,197	-0,196
243,815	257,618	-0,116	-0,138
244,830	46,877	-0,135	-0,086
245,844	800,000	-0,074	-0,153
246,859	180,304	-0,131	-0,132
247,874	-5,600	-0,304	-0,144
248,888	214,844	-0,190	-0,208
249,903	411,087	-0,061	-0,090
250,917	-82,939	-0,101	0,022
251,932	-122,858	-0,218	0,024
252,947	11,262	-0,163	-0,086
253,961	100,556	-0,122	-0,098
254,976	-14,286	-0,138	-0,061
255,990	-24,205	-0,304	-0,125
257,005	800,000	-0,089	-0,172
258,020	-69,918	-0,071	-0,019
259,034	716,381	-0,106	-0,195
260,049	-48,941	-0,239	-0,078
261,063	-41,480	-0,209	-0,074
262,078	225,314	-0,115	-0,129
263,093	110,329	-0,154	-0,128
264,107	-71,071	-0,294	-0,076
265,122	432,707	-0,144	-0,215
266,136	86,401	-0,148	-0,112
267,151	49,888	-0,130	-0,084
268,166	115,877	-0,130	-0,110
269,180	104,870	-0,303	-0,246
270,195	-65,461	-0,249	-0,069
271,209	-7,678	-0,144	-0,067
272,224	-200,000	-0,034	-0,138
273,239	139,532	-0,167	-0,152
274,253	-50,472	-0,271	-0,088
275,268	339,706	-0,089	-0,120
276,282	164,411	-0,127	-0,124
277,297	34,359	-0,275	-0,165
278,312	134,402	-0,089	-0,079
279,326	26,710	-0,185	-0,106
280,341	800,000	-0,019	-0,053
281,355	294,926	-0,082	-0,104
282,370	-5,521	-0,222	-0,105
283,384	-7,571	-0,184	-0,086
284,399	-44,185	-0,209	-0,072
285,414	435,149	-0,154	-0,232
286,428	-39,475	-0,143	-0,051
287,443	772,370	-0,056	-0,106
288,457	-113,713	-0,209	-0,028
289,472	-200,000	-0,023	-0,144
290,487	-18,231	-0,272	-0,117
291,501	-46,831	-0,276	-0,092
292,516	-14,654	-0,198	-0,087
293,530	284,401	-0,105	-0,130
294,545	-79,869	-0,080	0,018
295,560	307,981	-0,112	-0,144
296,574	2,591	-0,222	0,110
297,589	-77,747	-0,214	-0,050
298,603	25,472	-0,197	-0,112
299,618	-102,652	-0,260	-0,042
300,633	20,967	-0,209	-0,116
301,647	-68,337	-0,221	-0,059
302,662	-34,723	-0,160	-0,060
303,676	174,229	-0,186	-0,184
304,691	800,000	-0,087	-0,188
305,706	282,331	-0,169	-0,209
306,720	133,753	-0,129	-0,115
307,735	13,889	-0,098	-0,052
308,749	800,000	-0,061	-0,119
309,764	-142,406	-0,197	-0,013
310,779	0,172	-0,245	-0,119
311,793	37,951	-0,256	-0,156
312,808	233,333	-0,099	-0,111
313,822	163,044	-0,186	-0,179
314,837	377,597	-0,056	-0,078
315,852	800,000	-0,041	-0,122
316,866	800,000	-0,084	-0,210
317,881	-159,532	-0,077	0,003
318,895	-75,733	-0,152	-0,037
319,910	-200,000	-0,039	-0,163
320,925	38,772	-0,163	-0,100
321,939	-81,360	-0,148	-0,033
322,954	-116,762	-0,226	-0,028
323,968	42,705	-0,077	-0,048
324,983	-200,000	-0,017	-0,083
325,997	640,544	-0,118	-0,207
327,012	-200,000	-0,065	-0,215
328,027	-2,092	-0,077	-0,037
329,041	800,000	-0,017	-0,042
330,056	-59,907	-0,030	-0,009
331,070	-6,945	-0,118	-0,055
332,085	-166,681	-0,126	-0,004
333,100	-117,278	-0,127	-0,016
334,114	-76,176	-0,183	-0,044
335,129	146,552	-0,097	-0,089
336,143	456,580	-0,073	-0,112
337,158	59,864	-0,185	-0,125
338,173	-8,567	-0,091	-0,042
339,187	800,000	-0,064	-0,123
340,202	2,511	-0,164	-0,081
341,216	-200,000	-0,016	-0,127
342,231	241,027	-0,165	-0,189
343,246	800,000	-0,044	-0,087
344,260	127,801	-0,123	-0,107
345,275	21,897	-0,127	0,071
346,289	468,382	-0,052	-0,080
347,304	-25,477	-0,121	0,049
348,319	-88,080	-0,187	-0,038
349,333	-2,246	-0,244	-0,117
350,348	38,472	-0,169	-0,103
351,362	-77,477	-0,150	-0,035
352,377	339,444	-0,094	-0,125
353,392	-200,000	0,013	-0,147
354,406	79,468	-0,077	-0,056
355,421	206,446	1307,283	1394,046
356,435	158,770	1467,073	1394,519
