DTS Sentinel unit serial number:	SN410029Multiplexer serial number:	ORYXHardware model number:	OX2-SRSoftware version number:	ORYX F/W v4,00 Oryx Data Collector v3.7.2.0data status	okinstallation	B3 Nyhavnadifferential loss correction	single-endedforward channel	channel 1reverse channel	N/Adate	2023/12/02time	14:22:30forward acquisition time	300,00reverse acquisition time	0,00gamma	499,1914k internal	0,3198k external	0,3198temperature offset calibration	1,0000default loss term (dB/km)	0,3820temperature slope calibration	1,0000multiplexer offset coefficient	1,0000multiplexer slope coefficient	1,0000fibre end	0,00T internal ref (°C)	14,90T ext. ref 1 (°C)	0,01T ext. ref 2 (°C)	0,02length (m)	temperature (°C)	Stokes	anti-Stokes-744,400	88,118	-0,240	-0,193
-743,385	-200,000	0,091	0,323
-742,371	800,000	-0,077	-0,215
-741,356	800,000	0,149	0,412
-740,342	800,000	-0,098	-0,219
-739,327	-200,000	-0,071	0,279
-738,312	82,611	-0,299	-0,236
-737,298	-200,000	0,025	0,218
-736,283	102,202	-0,328	-0,279
-735,269	342,033	0,230	0,328
-734,254	151,888	-0,235	-0,233
-733,239	5,784	-0,095	0,051
-732,225	131,063	-0,192	-0,179
-731,210	43,525	0,025	0,016
-730,196	-200,000	0,001	-0,048
-729,181	456,128	0,092	-0,150
-728,167	800,000	0,017	0,040
-727,152	61,579	-0,119	0,086
-726,137	-32,860	0,031	0,013
-725,123	133,336	-0,133	0,125
-724,108	3,413	-0,048	-0,026
-723,094	115,118	-0,064	-0,057
-722,079	578,924	-0,084	-0,150
-721,064	-200,000	-0,015	-0,212
-720,050	-142,953	-0,130	-0,009
-719,035	800,000	0,020	-0,042
-718,021	-106,200	-0,018	0,003
-717,006	-74,628	-0,060	-0,016
-715,991	-71,395	-0,168	-0,045
-714,977	800,000	-0,050	-0,124
-713,962	249,083	-0,029	0,036
-712,948	-200,000	0,015	-0,202
-711,933	-45,183	0,149	0,053
-710,918	-97,664	0,092	0,017
-709,904	-67,559	-0,081	0,023
-708,889	81,669	0,035	-0,028
-707,875	800,000	-0,058	0,121
-706,860	-126,404	0,091	0,010
-705,845	649,591	-0,018	0,034
-704,831	16,016	-0,039	0,022
-703,816	-200,000	-0,004	0,194
-702,802	-149,510	-0,185	-0,010
-701,787	-200,000	-0,019	-0,071
-700,772	-200,000	-0,053	-0,271
-699,758	-200,000	-0,003	0,068
-698,743	123,338	-0,042	-0,038
-697,729	29,297	0,043	-0,027
-696,714	800,000	0,039	-0,106
-695,699	-148,222	-0,123	0,007
-694,685	103,802	-0,114	0,097
-693,670	-102,115	-0,059	0,010
-692,656	-7,054	-0,093	-0,046
-691,641	800,000	0,087	-0,207
-690,627	-200,000	-0,015	0,071
-689,612	-200,000	0,003	0,092
-688,597	-49,126	-0,096	-0,033
-687,583	-39,162	-0,171	-0,065
-686,568	140,952	-0,074	-0,071
-685,554	436,703	-0,066	-0,105
-684,539	800,000	0,015	0,042
-683,524	-200,000	0,009	-0,069
-682,510	-200,000	-0,011	-0,043
-681,495	-14,093	0,044	-0,021
-680,481	113,798	-0,117	-0,103
-679,466	266,251	0,028	-0,036
-678,451	642,846	0,028	-0,053
-677,437	-197,766	-0,097	-0,000
-676,422	5,479	0,076	-0,040
-675,408	90,599	0,057	0,047
-674,393	84,067	-0,131	-0,103
-673,378	-200,000	0,007	-0,188
-672,364	30,897	-0,043	0,027
-671,349	800,000	0,014	0,038
-670,335	65,417	-0,095	-0,070
-669,320	-109,838	0,050	0,007
-668,305	57,900	0,164	0,116
-667,291	800,000	0,011	-0,032
-666,276	800,000	-0,039	-0,107
-665,262	433,443	-0,046	-0,072
-664,247	-200,000	-0,045	-0,192
-663,232	64,049	-0,082	0,060
-662,218	342,720	-0,012	-0,017
-661,203	-49,736	0,136	0,047
-660,189	-188,071	-0,061	-0,001
-659,174	-127,445	-0,093	-0,010
-658,159	-114,261	-0,090	-0,012
-657,145	-125,445	0,079	0,009
-656,130	393,372	-0,029	0,044
-655,116	-64,671	-0,048	-0,014
-654,101	87,163	-0,059	-0,047
-653,086	-200,000	-0,013	0,078
-652,072	550,675	-0,029	-0,051
-651,057	-200,000	0,024	-0,227
-650,043	-15,161	-0,099	-0,046
-649,028	321,892	-0,114	0,158
-648,014	340,087	-0,080	-0,114
-646,999	-26,458	-0,110	0,047
-645,984	-120,650	-0,081	0,010
-644,970	451,725	-0,046	0,074
-643,955	413,556	0,060	0,093
-642,941	78,951	-0,077	-0,060
-641,926	100,964	0,014	-0,012
-640,911	-200,000	0,016	0,068
-639,897	201,269	0,072	0,081
-638,882	497,313	0,066	-0,110
-637,868	-200,000	-0,005	0,035
-636,853	-110,965	0,018	0,003
-635,838	-111,312	-0,211	-0,031
-634,824	143,487	0,094	0,090
-633,809	-135,401	0,074	-0,006
-632,795	580,913	-0,010	0,018
-631,780	-26,216	0,064	0,027
-630,765	130,848	-0,023	0,022
-629,751	88,834	0,009	-0,007
-628,736	-45,392	-0,148	-0,053
-627,722	-9,303	-0,122	-0,059
-626,707	800,000	-0,094	0,227
-625,692	57,945	-0,050	0,035
-624,678	-91,225	0,069	-0,014
-623,663	165,069	-0,018	0,018
-622,649	-121,126	-0,045	0,005
-621,634	-200,000	0,025	-0,089
-620,619	-90,047	-0,068	-0,014
-619,605	-177,933	-0,071	-0,001
-618,590	-200,000	0,009	0,194
-617,576	3,542	0,070	-0,037
-616,561	349,074	0,025	0,036
-615,546	-77,435	0,030	-0,008
-614,532	-92,865	-0,097	-0,020
-613,517	-83,409	0,061	0,014
-612,503	-6,194	0,154	-0,076
-611,488	-191,397	0,134	0,001
-610,474	-28,923	0,110	0,046
-609,459	469,456	-0,071	-0,116
-608,444	315,303	0,044	-0,060
-607,430	-135,481	0,020	0,002
-606,415	-14,466	0,128	-0,060
-605,401	800,000	-0,044	-0,135
-604,386	455,036	-0,030	0,048
-603,371	-98,192	0,189	-0,035
-602,357	-200,000	-0,022	0,242
-601,342	-172,235	0,033	0,001
-600,328	-137,021	0,032	-0,003
-599,313	220,101	0,036	0,042
-598,298	-200,000	-0,001	-0,177
-597,284	177,684	-0,061	0,065
-596,269	-70,853	-0,056	0,015
-595,255	-105,085	-0,078	-0,013
-594,240	85,934	0,041	-0,032
-593,225	272,900	0,062	0,079
-592,211	-200,000	0,020	-0,090
-591,196	6,267	0,042	0,023
-590,182	660,483	0,026	0,048
-589,167	-70,333	-0,099	-0,027
-588,152	87,561	0,093	0,074
-587,138	386,145	-0,014	-0,021
-586,123	60,287	-0,107	-0,077
-585,109	-114,920	-0,086	-0,012
-584,094	-193,925	0,144	-0,001
-583,079	-107,161	0,078	0,012
-582,065	86,614	0,054	0,043
-581,050	-44,622	0,145	0,052
-580,036	413,395	-0,071	0,110
-579,021	-200,000	0,014	-0,047
-578,006	-46,754	-0,067	-0,024
-576,992	42,005	-0,246	-0,161
-575,977	800,000	0,011	-0,023
-574,963	-200,000	0,017	0,136
-573,948	-159,220	0,095	0,004
-572,934	67,227	0,054	-0,040
-571,919	33,441	-0,072	-0,045
-570,904	754,819	-0,085	-0,166
-569,890	73,543	0,074	-0,056
-568,875	-200,000	-0,006	-0,066
-567,861	208,038	-0,047	0,053
-566,846	-38,660	0,034	-0,013
-565,831	800,000	0,024	-0,053
-564,817	-200,000	-0,015	-0,109
-563,802	34,513	0,108	-0,068
-562,788	285,503	0,071	-0,093
-561,773	77,352	-0,024	-0,019
-560,758	-182,102	0,186	0,002
-559,744	-7,946	0,065	-0,032
-558,729	-14,494	-0,027	-0,013
-557,715	-200,000	-0,023	-0,174
-556,700	-200,000	0,035	-0,130
-555,685	78,262	-0,090	-0,069
-554,671	218,438	-0,030	0,035
-553,656	-74,671	0,154	-0,040
-552,642	363,240	0,065	0,094
-551,627	276,585	-0,012	0,015
-550,612	105,432	0,040	-0,034
-549,598	-101,161	-0,125	0,022
-548,583	-0,570	-0,077	0,039
-547,569	-126,232	0,082	0,009
-546,554	3,735	0,051	-0,027
-545,539	47,832	0,079	-0,053
-544,525	-12,031	-0,136	-0,064
-543,510	-135,972	-0,013	-0,001
-542,496	-200,000	0,005	0,052
-541,481	271,728	-0,054	-0,069
-540,466	428,820	-0,061	-0,095
-539,452	-200,000	-0,011	0,079
-538,437	789,595	-0,062	-0,123
-537,423	-200,000	0,007	-0,046
-536,408	-101,176	0,130	-0,023
-535,393	117,102	-0,087	-0,077
-534,379	-12,081	-0,074	-0,035
-533,364	-53,803	0,032	-0,011
-532,350	8,031	0,095	0,051
-531,335	95,082	0,215	0,177
-530,321	172,498	-0,133	-0,138
-529,306	134,250	-0,097	-0,091
-528,291	-200,000	-0,003	-0,019
-527,277	474,576	-0,040	-0,065
-526,262	83,944	0,149	0,117
-525,248	217,568	0,052	0,060
-524,233	154,936	0,050	0,050
-523,218	24,671	-0,073	-0,044
-522,204	-200,000	0,028	0,101
-521,189	-72,576	-0,056	-0,015
-520,175	-30,886	-0,124	-0,050
-519,160	1,826	-0,227	-0,118
-518,145	800,000	0,004	0,009
-517,131	-88,510	-0,028	0,006
-516,116	-200,000	-0,005	0,099
-515,102	-29,702	-0,138	-0,057
-514,087	-99,185	-0,113	0,020
-513,072	-117,212	0,046	-0,006
-512,058	36,169	-0,029	0,019
-511,043	-200,000	0,011	0,081
-510,029	324,857	0,043	0,060
-509,014	-170,923	0,066	-0,002
-507,999	187,387	-0,075	0,081
-506,985	-91,716	0,145	-0,030
-505,970	800,000	-0,092	-0,188
-504,956	193,512	0,084	-0,092
-503,941	51,270	-0,052	-0,036
-502,926	429,928	-0,116	0,181
-501,912	-94,981	0,049	-0,010
-500,897	91,602	0,069	0,056
-499,883	390,882	-0,023	-0,035
-498,868	800,000	0,031	-0,089
-497,853	188,189	0,071	-0,077
-496,839	800,000	0,015	0,041
-495,824	316,293	-0,050	0,068
-494,810	66,013	0,118	0,086
-493,795	318,332	-0,147	0,201
-492,781	-91,793	-0,236	0,048
-491,766	39,578	0,068	-0,044
-490,751	779,776	-0,033	-0,065
-489,737	800,000	-0,037	-0,080
-488,722	787,218	0,046	0,092
-487,708	-200,000	-0,008	-0,062
-486,693	800,000	-0,032	0,091
-485,678	-179,039	0,063	-0,001
-484,664	-157,675	-0,100	0,004
-483,649	-200,000	-0,011	0,053
-482,635	61,013	-0,104	-0,074
-481,620	100,458	0,116	0,097
-480,605	344,671	0,038	0,053
-479,591	236,381	0,075	0,089
-478,576	-135,481	0,028	-0,002
-477,562	147,481	-0,085	-0,082
-476,547	697,659	0,049	-0,094
-475,532	800,000	0,026	-0,066
-474,518	-200,000	-0,007	-0,078
-473,503	760,763	-0,066	-0,129
-472,489	-200,000	0,002	-0,095
-471,474	-200,000	-0,019	0,070
-470,459	-66,901	-0,033	0,009
-469,445	-142,645	-0,052	-0,004
-468,430	119,233	0,127	-0,113
-467,416	722,034	-0,023	0,045
-466,401	-29,882	-0,072	-0,030
-465,386	800,000	-0,021	0,065
-464,372	800,000	-0,026	0,063
-463,357	-74,888	0,090	0,023
-462,343	347,925	-0,121	-0,172
-461,328	-86,156	-0,081	0,018
-460,313	-69,711	0,012	0,003
-459,299	343,167	-0,043	-0,061
-458,284	233,875	-0,010	-0,011
-457,270	800,000	-0,019	0,057
-456,255	124,436	-0,124	-0,112
-455,241	22,904	-0,076	0,045
-454,226	-200,000	-0,011	-0,076
-453,211	313,478	0,049	0,066
-452,197	223,959	0,084	0,098
-451,182	800,000	-0,041	-0,117
-450,168	-98,061	-0,036	-0,007
-449,153	-68,832	0,130	-0,036
-448,138	-200,000	0,017	-0,143
-447,124	353,437	0,008	0,011
-446,109	555,890	-0,017	0,029
-445,095	-56,200	0,147	-0,047
-444,080	-200,000	-0,019	0,101
-443,065	80,747	-0,097	0,075
-442,051	-30,652	-0,053	-0,022
-441,036	383,737	-0,039	-0,059
-440,022	-200,000	0,007	-0,107
-439,007	505,915	-0,087	0,146
-437,992	69,936	0,161	0,119
-436,978	800,000	0,023	0,071
-435,963	185,011	-0,049	0,052
-434,949	507,073	-0,039	0,065
-433,934	-176,753	-0,104	0,002
-432,919	800,000	-0,043	-0,132
-431,905	7,536	-0,120	0,065
-430,890	-126,337	0,097	-0,010
-429,876	800,000	0,078	0,169
-428,861	109,267	0,113	0,098
-427,846	46,688	0,023	-0,015
-426,832	-10,333	0,073	-0,035
-425,817	-200,000	0,037	-0,121
-424,803	97,047	0,025	0,020
-423,788	800,000	-0,016	-0,044
-422,773	800,000	-0,044	0,139
-421,759	-200,000	0,009	0,041
-420,744	141,682	0,071	-0,068
-419,730	416,895	-0,062	-0,096
-418,715	-200,000	-0,008	0,105
-417,701	725,356	0,024	0,045
-416,686	237,278	-0,084	0,101
-415,671	3,238	0,103	-0,054
-414,657	209,895	-0,032	0,036
-413,642	105,452	-0,073	-0,062
-412,628	-8,343	0,082	-0,040
-411,613	-5,287	0,086	0,042
-410,598	-200,000	-0,013	0,081
-409,584	22,574	-0,080	-0,047
-408,569	-32,263	0,150	0,060
-407,555	-43,191	0,152	0,055
-406,540	182,254	0,073	0,078
-405,525	137,073	0,052	-0,048
-404,511	-98,365	-0,033	-0,006
-403,496	409,788	-0,135	-0,206
-402,482	421,301	-0,059	0,091
-401,467	91,512	-0,040	0,033
-400,452	-137,722	0,127	0,010
-399,438	-200,000	0,023	0,127
-398,423	-50,902	0,135	0,045
-397,409	-200,000	0,002	-0,065
-396,394	187,803	-0,109	-0,117
-395,379	-25,007	0,117	-0,050
-394,365	471,594	0,054	0,088
-393,350	10,608	0,193	-0,105
-392,336	67,323	-0,054	0,040
-391,321	-64,256	0,009	0,003
-390,306	-185,826	0,040	0,000
-389,292	-200,000	-0,025	0,089
-388,277	-58,001	-0,034	0,010
-387,263	-86,467	0,060	0,013
-386,248	-200,000	0,012	0,095
-385,233	-200,000	-0,007	0,120
-384,219	-200,000	-0,005	0,110
-383,204	-88,089	-0,044	-0,009
-382,190	35,777	-0,199	-0,125
-381,175	-83,394	0,093	0,021
-380,160	51,946	0,024	0,016
-379,146	-200,000	0,009	-0,033
-378,131	438,842	0,037	-0,058
-377,117	695,393	-0,071	-0,135
-376,102	45,644	0,059	0,039
-375,088	466,089	-0,084	-0,136
-374,073	-28,429	-0,052	-0,021
-373,058	411,233	-0,034	0,052
-372,044	-73,070	0,119	0,031
-371,029	-63,252	0,059	0,017
-370,015	-0,794	0,037	0,019
-369,000	-145,287	-0,253	-0,016
-367,985	741,284	-0,019	0,036
-366,971	-38,131	-0,110	-0,042
-365,956	-200,000	0,020	-0,159
-364,942	-200,000	-0,010	0,158
-363,927	-109,644	0,087	0,013
-362,912	-117,385	-0,191	-0,025
-361,898	800,000	0,021	-0,045
-360,883	215,272	-0,077	-0,088
-359,869	-200,000	0,010	-0,057
-358,854	-200,000	0,009	-0,075
-357,839	-200,000	-0,006	0,130
-356,825	800,000	0,059	0,161
-355,810	192,477	0,082	0,089
-354,796	44,020	-0,079	-0,052
-353,781	-200,000	-0,022	-0,144
-352,766	-150,697	-0,193	-0,010
-351,752	-63,376	0,075	0,022
-350,737	315,517	0,109	-0,147
-349,723	800,000	0,043	0,135
-348,708	332,147	-0,038	0,053
-347,693	-57,166	-0,126	-0,040
-346,679	-200,000	-0,006	-0,071
-345,664	-30,014	-0,138	0,056
-344,650	39,010	0,090	0,058
-343,635	34,692	-0,081	-0,051
-342,620	800,000	0,039	-0,102
-341,606	54,924	0,037	0,026
-340,591	552,197	-0,050	0,086
-339,577	-51,155	0,084	0,028
-338,562	36,650	0,097	0,062
-337,548	110,982	0,113	0,097
-336,533	-80,003	0,055	0,013
-335,518	263,140	-0,040	0,050
-334,504	635,269	-0,067	0,122
-333,489	800,000	0,056	-0,139
-332,475	241,661	0,061	-0,073
-331,460	-4,988	-0,069	-0,034
-330,445	111,866	0,039	0,034
-329,431	741,925	-0,059	0,114
-328,416	143,124	0,035	-0,033
-327,402	-86,994	0,094	-0,020
-326,387	56,176	0,057	0,039
-325,372	-70,496	0,030	-0,008
-324,358	48,106	0,076	0,051
-323,343	240,653	0,087	-0,104
-322,329	114,648	-0,040	0,035
-321,314	-98,453	0,033	0,006
-320,299	-54,865	0,069	-0,022
-319,285	6,043	0,028	-0,015
-318,270	34,320	0,052	-0,033
-317,256	325,724	-0,036	-0,050
-316,241	-181,499	-0,078	-0,001
-315,226	-128,835	0,029	-0,003
-314,212	-161,743	0,142	0,005
-313,197	242,477	0,073	0,088
-312,183	-200,000	-0,007	-0,130
-311,168	800,000	-0,041	0,084
-310,153	-116,714	-0,168	0,022
-309,139	285,262	-0,039	0,051
-308,124	-200,000	-0,018	0,101
-307,110	108,004	0,061	0,052
-306,095	800,000	-0,035	-0,090
-305,080	42,056	-0,117	-0,076
-304,066	-42,732	-0,062	-0,022
-303,051	-55,456	-0,136	0,043
-302,037	800,000	0,059	0,117
-301,022	-112,378	0,115	0,016
-300,008	-10,121	0,093	0,044
-298,993	195,933	0,089	0,097
-297,978	444,352	-0,040	0,063
-296,964	279,262	0,045	-0,057
-295,949	-200,000	-0,010	-0,121
-294,935	-49,708	-0,092	-0,031
-293,920	-142,531	-0,097	-0,007
-292,905	291,039	0,058	-0,076
-291,891	127,334	0,012	-0,011
-290,876	-200,000	-0,019	0,099
-289,862	4,644	-0,035	-0,018
-288,847	-36,480	-0,258	-0,099
-287,832	313,481	-0,023	0,030
-286,818	-200,000	0,002	0,035
-285,803	-200,000	-0,006	0,099
-284,789	-200,000	-0,002	0,040
-283,774	9,347	0,139	0,075
-282,759	17,710	0,145	0,082
-281,745	68,927	0,031	0,022
-280,730	-75,968	-0,164	0,041
-279,716	-49,818	-0,110	0,037
-278,701	31,873	0,101	-0,062
-277,686	57,794	-0,015	0,010
-276,672	736,870	0,057	0,110
-275,657	-68,187	-0,031	-0,009
-274,643	-137,466	-0,105	0,008
-273,628	357,303	0,045	-0,064
-272,613	298,628	-0,069	0,091
-271,599	-200,000	0,002	-0,013
-270,584	76,105	0,081	0,061
-269,570	-7,613	-0,078	-0,037
-268,555	-16,533	0,113	0,051
-267,540	-163,659	0,071	-0,002
-266,526	103,438	0,125	-0,105
-265,511	374,971	-0,018	-0,026
-264,497	800,000	0,011	-0,025
-263,482	-101,077	0,137	-0,024
-262,467	800,000	-0,054	0,116
-261,453	783,263	0,018	-0,036
-260,438	-65,333	-0,072	-0,021
-259,424	-200,000	0,006	0,154
-258,409	13,604	-0,055	-0,031
-257,395	101,881	-0,080	0,066
-256,380	800,000	0,056	0,128
-255,365	416,048	0,048	-0,074
-254,351	-155,084	-0,071	-0,003
-253,336	97,466	-0,050	0,041
-252,322	-74,124	0,070	-0,018
-251,307	-200,000	-0,004	0,017
-250,292	800,000	-0,053	-0,128
-249,278	-41,829	0,072	-0,026
-248,263	17,996	-0,044	0,025
-247,249	-200,000	0,016	-0,056
-246,234	800,000	-0,041	-0,091
-245,219	374,088	-0,087	-0,127
-244,205	-200,000	-0,013	-0,098
-243,190	800,000	0,035	0,086
-242,176	-22,834	-0,077	-0,033
-241,161	-200,000	0,002	0,044
-240,146	-60,055	0,020	0,006
-239,132	-200,000	-0,003	0,078
-238,117	155,632	-0,165	-0,163
-237,103	14,966	-0,050	-0,028
-236,088	-115,545	-0,061	0,008
-235,073	195,777	-0,089	0,097
-234,059	-85,899	0,096	-0,021
-233,044	-34,409	0,084	-0,033
-232,030	800,000	0,013	-0,036
-231,015	320,843	0,054	-0,074
-230,000	-200,000	-0,006	-0,055
-228,986	656,360	0,092	-0,169
-227,971	-8,138	0,038	-0,018
-226,957	292,848	0,110	-0,144
-225,942	-200,000	0,015	-0,077
-224,927	69,945	-0,074	-0,054
-223,913	39,870	0,136	0,087
-222,898	192,126	0,072	0,077
-221,884	-129,924	-0,076	0,007
-220,869	-200,000	-0,008	-0,095
-219,855	-144,031	0,097	-0,006
-218,840	-200,000	-0,126	-0,000
-217,825	72,769	0,081	-0,060
-216,811	-71,758	-0,032	0,008
-215,796	60,652	-0,153	-0,108
-214,782	82,310	0,063	-0,049
-213,767	677,853	0,013	0,024
-212,752	-200,000	0,034	0,194
-211,738	800,000	-0,018	0,041
-210,723	-200,000	-0,012	0,067
-209,709	-120,478	-0,134	-0,016
-208,694	177,860	-0,081	-0,084
-207,679	280,550	0,078	-0,099
-206,665	-200,000	-0,003	0,022
-205,650	-200,000	0,001	0,006
-204,636	-76,558	-0,033	-0,008
-203,621	42,270	-0,056	-0,036
-202,606	-200,000	-0,027	0,096
-201,592	800,000	-0,033	-0,080
-200,577	552,161	-0,019	-0,033
-199,563	-18,370	0,121	0,054
-198,548	-200,000	0,007	0,067
-197,533	-200,000	0,032	-0,115
-196,519	302,300	-0,096	0,127
-195,504	-104,489	-0,135	0,022
-194,490	-61,267	-0,065	-0,020
-193,475	84,590	0,102	-0,080
-192,460	-91,395	0,052	-0,011
-191,446	800,000	0,045	0,119
-190,431	347,527	0,075	0,105
-189,417	76,952	0,087	0,066
-188,402	-96,791	-0,060	-0,011
-187,387	-5,588	-0,030	0,014
-186,373	771,546	-0,028	-0,054
-185,358	-49,666	0,034	-0,011
-184,344	128,801	0,114	0,103
-183,329	-200,000	0,008	-0,059
-182,315	-96,037	0,105	0,020
-181,300	145,145	-0,033	0,031
-180,285	800,000	-0,019	-0,057
-179,271	800,000	-0,060	0,158
-178,256	782,291	-0,034	-0,066
-177,242	800,000	0,035	-0,088
-176,227	713,057	-0,034	0,065
-175,212	-44,447	0,018	-0,006
-174,198	-21,294	0,120	-0,052
-173,183	-151,768	-0,023	-0,001
-172,169	466,967	0,095	0,152
-171,154	431,286	-0,030	-0,047
-170,139	-22,224	0,091	0,039
-169,125	56,248	-0,063	0,043
-168,110	-200,000	0,013	0,057
-167,096	44,924	0,112	-0,073
-166,081	-80,800	0,101	0,024
-165,066	-137,037	-0,182	-0,015
-164,052	569,706	0,031	-0,054
-163,037	-200,000	0,009	0,049
-162,023	-177,896	-0,122	-0,002
-161,008	-99,421	-0,065	-0,011
-159,993	-2,477	0,071	-0,035
-158,979	-200,000	-0,018	-0,085
-157,964	613,266	-0,055	-0,099
-156,950	79,428	-0,066	0,050
-155,935	10,869	0,065	0,035
-154,920	661,424	-0,029	-0,053
-153,906	800,000	0,088	0,217
-152,891	502,616	0,069	0,114
-151,877	675,197	0,092	-0,170
-150,862	-200,000	-0,030	-0,137
-149,847	-200,000	-0,020	-0,136
-148,833	-200,000	0,001	-0,115
-147,818	223,426	0,024	-0,028
-146,804	-200,000	-0,021	0,080
-145,789	769,893	-0,063	0,122
-144,775	-133,758	0,055	-0,005
-143,760	800,000	-0,046	-0,118
-142,745	-147,414	-0,071	-0,004
-141,731	-179,443	-0,055	-0,001
-140,716	763,809	-0,014	0,028
-139,702	-200,000	0,039	0,150
-138,687	175,019	-0,098	0,101
-137,672	-200,000	0,002	-0,129
-136,658	-200,000	0,002	-0,037
-135,643	66,191	-0,156	-0,112
-134,629	503,873	0,071	-0,118
-133,614	800,000	0,027	-0,082
-132,599	-146,550	0,113	0,007
-131,585	304,750	0,061	0,081
-130,570	515,581	-0,040	-0,067
-129,556	-165,941	-0,054	-0,002
-128,541	-143,063	0,152	-0,010
-127,526	-126,576	-0,061	0,006
-126,512	151,666	0,081	0,078
-125,497	-28,572	0,084	0,034
-124,483	94,447	0,049	0,040
-123,468	-15,367	0,059	-0,027
-122,453	-200,000	0,014	-0,123
-121,439	800,000	-0,057	-0,136
-120,424	223,208	-0,043	-0,049
-119,410	800,000	0,064	0,134
-118,395	-34,953	-0,031	0,012
-117,380	-200,000	-0,000	0,087
-116,366	-200,000	0,014	-0,145
-115,351	312,244	-0,075	0,100
-114,337	96,815	-0,128	0,104
-113,322	-200,000	-0,009	-0,109
-112,307	-65,067	0,038	0,011
-111,293	342,991	-0,058	0,081
-110,278	-200,000	-0,005	0,053
-109,264	800,000	-0,014	-0,042
-108,249	507,965	-0,101	-0,168
-107,234	-56,090	-0,045	-0,014
-106,220	-200,000	0,002	0,015
-105,205	-200,000	0,032	-0,240
-104,191	-200,000	0,004	-0,095
-103,176	-140,833	0,082	-0,006
-102,162	143,678	-0,079	0,075
-101,147	-200,000	-0,007	-0,042
-100,132	0,581	-0,129	-0,065
-99,118	17,111	0,063	-0,036
-98,103	253,558	-0,096	-0,117
-97,089	-37,623	-0,065	-0,025
-96,074	63,241	0,103	-0,073
-95,059	217,230	-0,038	0,043
-94,045	-97,750	-0,051	-0,009
-93,030	230,629	0,083	-0,097
-92,016	418,788	0,108	-0,164
-91,001	-48,563	-0,073	0,025
-89,986	-108,403	-0,107	-0,016
-88,972	177,010	0,106	-0,110
-87,957	458,459	-0,022	-0,034
-86,943	60,714	-0,039	0,028
-85,928	-84,994	-0,026	-0,006
-84,913	-200,000	-0,010	0,050
-83,899	-59,090	0,037	0,011
-82,884	-57,366	-0,125	0,039
-81,870	272,721	0,046	0,058
-80,855	-200,000	-0,005	-0,034
-79,840	-200,000	-0,008	-0,128
-78,826	-140,453	-0,081	-0,006
-77,811	-200,000	-0,027	-0,156
-76,797	-89,484	-0,080	-0,017
-75,782	-97,587	-0,054	-0,010
-74,767	-97,476	0,062	0,011
-73,753	-200,000	-0,015	0,073
-72,738	-85,577	-0,093	-0,020
-71,724	-121,156	-0,136	-0,016
-70,709	-141,921	-0,179	-0,013
-69,694	134,233	0,037	0,034
-68,680	64,358	0,048	-0,034
-67,665	126,402	0,062	0,056
-66,651	-200,000	-0,005	0,132
-65,636	800,000	0,038	0,112
-64,622	116,398	-0,003	0,003
-63,607	-36,297	-0,052	0,020
-62,592	-200,000	-0,027	-0,112
-61,578	2,759	-0,049	-0,025
-60,563	20,770	-0,133	-0,076
-59,549	-200,000	0,017	0,182
-58,534	-54,462	-1,561	-0,498
-57,519	495,847	-1,411	-2,307
-56,505	-200,000	-0,400	-4,429
-55,490	140,432	0,860	0,805
-54,476	800,000	4,895	11,200
-53,461	-200,000	18,087	288,055
-52,446	800,000	727,160	2233,741
-51,432	558,419	1643,376	2820,899
-50,417	79,237	1664,933	1263,329
-49,403	22,808	1538,394	890,979
-48,388	16,730	1461,840	817,194
-47,373	17,859	1451,516	816,825
-46,359	17,256	1441,938	808,521
-45,344	15,064	1437,270	795,404
-44,330	14,972	1435,365	793,879
-43,315	14,981	1433,673	792,956
-42,300	15,010	1432,055	792,167
-41,286	15,053	1430,738	791,613
-40,271	14,989	1429,605	790,651
-39,257	14,966	1428,203	789,732
-38,242	15,010	1427,181	789,347
-37,227	15,004	1425,821	788,535
-36,213	15,035	1424,632	787,990
-35,198	15,016	1423,332	787,150
-34,184	15,010	1422,627	786,699
-33,169	14,961	1421,157	785,624
-32,154	14,997	1420,393	785,343
-31,140	15,024	1418,899	784,611
-30,125	15,059	1417,737	784,103
-29,111	15,018	1416,695	783,301
-28,096	14,987	1415,612	782,528
-27,082	14,998	1414,323	781,834
-26,067	14,988	1413,215	781,146
-25,052	14,902	1412,260	780,184
-24,038	14,914	1411,317	779,688
-23,023	14,894	1410,223	778,958
-22,009	14,901	1409,302	778,450
-20,994	14,846	1408,430	777,682
-19,979	14,869	1407,492	777,238
-18,965	14,855	1406,440	776,560
-17,950	14,811	1405,694	775,915
-16,936	14,869	1404,637	775,570
-15,921	14,813	1403,501	774,649
-14,906	14,759	1402,766	773,964
-13,892	14,835	1401,743	773,722
-12,877	14,855	1400,660	773,187
-11,863	14,810	1399,901	772,529
-10,848	14,843	1399,045	772,176
-9,833	14,849	1397,937	771,564
-8,819	14,737	1397,408	770,720
-7,804	14,759	1396,350	770,209
-6,790	14,732	1395,313	769,481
-5,775	14,713	1394,318	768,815
-4,760	14,721	1393,411	768,318
-3,746	14,738	1392,446	767,834
-2,731	14,728	1391,696	767,346
-1,717	14,725	1390,788	766,799
-0,702	14,705	1389,076	765,735
0,313	18,461	1308,179	738,544
1,327	34,763	706,451	436,630
2,342	53,103	124,718	84,431
3,356	3,700	16,604	8,554
4,371	13,856	3,226	1,771
5,386	-88,078	0,691	0,146
6,400	800,000	-0,065	0,130
7,415	169,781	-0,183	-0,185
8,429	67,977	-0,391	-0,283
9,444	142,740	-0,414	-0,389
10,459	-181,291	-0,260	-0,004
11,473	105,579	-0,312	-0,261
12,488	130,743	-0,240	-0,218
13,502	10,030	-0,278	-0,149
14,517	121,413	-0,328	-0,289
15,531	55,917	-0,307	-0,211
16,546	-114,982	-0,320	-0,043
17,561	200,301	-0,354	-0,385
18,575	-134,845	-0,205	-0,017
19,590	75,717	-0,203	-0,152
20,604	37,171	-0,164	-0,103
21,619	6,957	-0,402	-0,211
22,634	104,028	-0,381	-0,316
23,648	17,409	-0,359	-0,201
24,663	47,590	-0,400	-0,263
25,677	273,324	-0,289	-0,362
26,692	119,882	-0,230	-0,201
27,707	101,367	-0,374	-0,307
28,721	6,168	-0,415	-0,217
29,736	174,637	-0,356	-0,364
30,750	-5,434	-0,433	-0,209
31,765	74,124	-0,421	-0,312
32,780	-79,556	-0,312	-0,074
33,794	58,363	-0,366	-0,253
34,809	138,396	-0,230	-0,213
35,823	76,023	-0,392	-0,292
36,838	-35,361	-0,369	-0,141
37,853	113,947	-0,324	-0,278
38,867	168,476	-0,402	-0,404
39,882	291,840	-0,297	-0,382
40,896	408,124	-0,221	-0,331
41,911	28,464	-0,375	-0,223
42,926	63,343	-0,457	-0,323
43,940	16,428	-0,393	-0,218
44,955	55,820	-0,410	-0,280
45,969	22,811	-0,371	-0,214
46,984	163,497	-0,332	-0,329
47,999	-49,291	-0,451	-0,151
49,013	143,074	-0,279	-0,262
50,028	156,441	-0,266	-0,259
51,042	94,427	-0,303	-0,243
52,057	83,512	-0,396	-0,304
53,071	155,996	-0,396	-0,385
54,086	175,720	-0,208	-0,213
55,101	49,346	-0,381	-0,252
56,115	78,974	-0,387	-0,292
57,130	25,378	-0,316	-0,185
58,144	64,362	-0,371	-0,263
59,159	195,107	-0,347	-0,372
60,174	66,487	-0,349	-0,249
61,188	256,850	-0,182	-0,220
62,203	42,558	-0,423	-0,271
63,217	368,264	-0,226	-0,322
64,232	69,837	-0,324	-0,235
65,247	116,594	-0,306	-0,264
66,261	43,525	-0,505	-0,325
67,276	84,291	-0,377	-0,290
68,290	25,453	-0,383	-0,224
69,305	-48,999	-0,317	-0,106
70,320	96,832	-0,292	-0,236
71,334	-76,819	-0,338	-0,083
72,349	51,696	-0,262	-0,175
73,363	1,779	-0,413	-0,209
74,378	22,197	-0,445	-0,255
75,393	82,224	-0,316	-0,241
76,407	243,524	-0,235	-0,278
77,422	7,234	-0,260	-0,136
78,436	-57,086	-0,216	-0,066
79,451	135,526	-0,260	-0,238
80,466	161,693	-0,348	-0,342
81,480	54,108	-0,356	-0,241
82,495	18,481	-0,356	-0,199
83,509	-41,492	-0,297	-0,107
84,524	134,987	-0,272	-0,248
85,539	-82,705	-0,246	-0,056
86,553	-180,314	-0,272	-0,004
87,568	-96,416	-0,362	-0,067
88,582	-69,818	-0,318	-0,085
89,597	127,090	-0,270	-0,241
90,611	63,816	-0,103	-0,073
91,626	3,366	-0,323	-0,165
92,641	153,073	-0,278	-0,267
93,655	-28,662	-0,240	-0,097
94,670	158,188	-0,239	-0,233
95,684	70,023	-0,238	-0,172
96,699	83,439	-0,361	-0,276
97,714	-97,521	-0,383	-0,069
98,728	-47,039	-0,249	-0,085
99,743	373,198	-0,147	-0,210
100,757	746,536	-0,159	-0,302
101,772	40,472	-0,239	-0,151
102,787	14,112	-0,336	-0,183
103,801	18,047	-0,224	-0,125
104,816	186,908	-0,226	-0,237
105,830	85,626	-0,209	-0,161
106,845	89,630	-0,299	-0,234
107,860	-23,893	-0,306	-0,128
108,874	139,111	-0,329	-0,304
109,889	53,819	-0,340	-0,229
110,903	356,992	-0,170	-0,239
111,918	66,351	-0,352	-0,251
112,933	175,613	-0,180	-0,183
113,947	156,287	-0,221	-0,214
114,962	94,206	-0,318	-0,253
115,976	68,340	-0,282	-0,202
116,991	140,568	-0,351	-0,325
118,006	178,281	-0,203	-0,208
119,020	381,057	-0,248	-0,358
120,035	48,612	-0,234	-0,153
121,049	160,179	-0,193	-0,189
122,064	-62,476	-0,373	-0,108
123,079	85,503	-0,242	-0,186
124,093	-10,874	-0,235	-0,108
125,108	-84,008	-0,304	-0,067
126,122	64,556	-0,329	-0,232
127,137	123,793	-0,161	-0,141
128,151	257,511	-0,081	-0,098
129,166	84,250	-0,275	-0,210
130,181	-23,134	-0,207	-0,087
131,195	29,189	-0,343	-0,203
132,210	59,941	-0,280	-0,193
133,224	50,291	-0,220	-0,145
134,239	32,406	-0,176	-0,106
135,254	7,157	-0,165	-0,086
136,268	-146,025	-0,279	0,017
137,283	43,107	-0,192	-0,123
138,297	329,046	-0,187	-0,252
139,312	113,253	-0,335	-0,284
140,327	-160,794	-0,229	0,008
141,341	476,873	-0,080	-0,127
142,356	29,774	-0,227	-0,135
143,370	-61,173	-0,259	-0,076
144,385	11,462	-0,260	-0,139
145,400	125,782	-0,284	-0,251
146,414	68,740	-0,389	-0,279
147,429	-200,000	-0,048	-0,212
148,443	220,667	-0,249	-0,279
149,458	231,979	-0,146	-0,168
150,473	411,322	-0,186	-0,276
151,487	168,242	-0,207	-0,206
152,502	126,648	-0,339	-0,300
153,516	173,124	-0,219	-0,221
154,531	-10,883	-0,427	-0,196
155,546	23,122	-0,339	-0,194
156,560	11,022	-0,186	-0,099
157,575	-12,138	-0,293	-0,133
158,589	-6,058	-0,280	-0,133
159,604	-78,445	-0,331	-0,079
160,619	316,100	-0,251	-0,332
161,633	331,529	-0,152	-0,206
162,648	207,517	-0,131	-0,143
163,662	300,556	-0,172	-0,222
164,677	53,556	-0,250	-0,167
165,692	142,091	-0,226	-0,209
166,706	197,719	-0,151	-0,161
167,721	36,378	-0,216	-0,133
168,735	-87,270	-0,298	-0,063
169,750	186,956	-0,180	-0,187
170,764	34,236	-0,208	-0,126
171,779	2,374	-0,254	-0,128
172,794	642,780	-0,143	-0,256
173,808	-48,385	-0,156	0,052
174,823	79,429	-0,277	-0,207
175,837	-141,405	-0,157	-0,011
176,852	-75,399	-0,302	-0,074
177,867	-106,797	-0,310	-0,047
178,881	-103,848	-0,181	-0,029
179,896	45,810	-0,225	-0,145
180,910	46,425	-0,315	-0,203
181,925	241,590	-0,277	-0,323
182,940	800,000	-0,123	-0,320
183,954	-52,030	-0,318	-0,102
184,969	278,291	-0,229	-0,285
185,983	-115,451	-0,360	-0,047
186,998	232,091	-0,176	-0,202
188,013	149,045	-0,134	-0,126
189,027	15,334	-0,155	-0,085
190,042	312,584	-0,195	-0,255
191,056	189,567	-0,164	-0,171
192,071	188,912	-0,197	-0,205
193,086	93,850	-0,206	-0,163
194,100	165,405	-0,142	-0,140
195,115	-59,251	-0,255	-0,076
196,129	231,797	-0,216	-0,247
197,144	220,402	-0,258	-0,289
198,159	270,030	-0,126	-0,154
199,173	800,000	-0,120	-0,298
200,188	34,892	-0,259	-0,157
201,202	313,299	-0,160	-0,210
202,217	108,765	-0,225	-0,187
203,232	464,137	-0,137	-0,215
204,246	306,920	-0,177	-0,230
205,261	0,224	-0,281	-0,139
206,275	68,047	-0,220	-0,157
207,290	-59,053	-0,187	-0,056
208,304	334,070	-0,132	-0,178
209,319	33,851	-0,213	-0,129
210,334	2,840	-0,207	-0,104
211,348	75,945	-0,187	-0,137
212,363	-3,450	-0,240	-0,116
213,377	209,241	-0,177	-0,193
214,392	305,453	-0,095	-0,123
215,407	-106,597	-0,113	-0,017
216,421	-169,912	-0,265	0,006
217,436	49,690	-0,314	-0,205
218,450	26,362	-0,307	-0,178
219,465	4,874	-0,271	-0,138
220,480	-115,332	-0,208	-0,027
221,494	88,405	-0,152	-0,117
222,509	-31,948	-0,143	-0,056
223,523	-74,565	-0,245	-0,061
224,538	438,934	-0,083	-0,127
225,553	65,668	-0,280	-0,197
226,567	800,000	-0,089	-0,214
227,582	36,876	-0,242	-0,148
228,596	-18,810	-0,202	-0,087
229,611	186,945	-0,159	-0,165
230,626	-133,948	-0,324	-0,028
231,640	-11,977	-0,160	-0,073
232,655	406,566	-0,205	-0,301
233,669	255,746	-0,120	-0,143
234,684	187,934	-0,180	-0,186
235,699	179,596	-0,154	-0,156
236,713	109,433	-0,168	-0,140
237,728	55,464	-0,137	-0,092
238,742	78,749	-0,193	-0,143
239,757	269,380	-0,228	-0,279
240,772	47,404	-0,222	-0,143
241,786	64,436	-0,258	-0,180
242,801	367,322	-0,130	-0,182
243,815	134,921	-0,197	-0,177
244,830	-72,774	-0,214	-0,054
245,844	14,982	-0,186	-0,101
246,859	-147,634	-0,192	-0,011
247,874	208,895	-0,171	-0,185
248,888	-27,621	-0,137	-0,055
249,903	226,007	-0,037	0,041
250,917	-167,874	-0,332	-0,009
251,932	4,969	-0,182	-0,093
252,947	37,791	-0,172	-0,106
253,961	20,331	-0,349	-0,195
254,976	-49,717	-0,257	-0,084
255,990	9,503	-0,191	-0,100
257,005	800,000	-0,079	-0,229
258,020	-200,000	0,001	-0,083
259,034	462,710	-0,099	-0,154
260,049	-176,836	-0,068	-0,001
261,063	-6,940	-0,250	-0,117
262,078	292,159	-0,160	-0,203
263,093	-69,406	-0,236	-0,062
264,107	167,203	-0,160	-0,157
265,122	800,000	-0,051	-0,100
266,136	14,220	-0,063	-0,034
267,151	-112,003	-0,251	-0,035
268,166	315,996	-0,165	-0,216
269,180	-30,605	-0,194	-0,075
270,195	-64,164	-0,325	-0,091
271,209	42,623	-0,193	-0,121
272,224	800,000	-0,078	-0,189
273,239	-134,572	-0,216	0,018
274,253	-91,437	-0,153	-0,030
275,268	-35,079	-0,230	-0,086
276,282	800,000	-0,106	-0,208
277,297	56,302	-0,218	-0,146
278,312	339,649	-0,189	-0,255
279,326	800,000	-0,078	-0,233
280,341	75,954	-0,199	-0,145
281,355	-164,901	-0,211	-0,006
282,370	166,885	-0,131	-0,128
283,384	173,413	-0,229	-0,228
284,399	-138,317	-0,162	-0,012
285,414	506,832	-0,120	-0,193
286,428	256,082	-0,166	-0,197
287,443	10,477	-0,167	-0,088
288,457	800,000	-0,088	0,171
289,472	-101,245	-0,315	-0,053
290,487	30,737	-0,215	-0,127
291,501	-70,377	-0,213	-0,055
292,516	748,585	-0,127	-0,237
293,530	741,841	-0,083	-0,154
294,545	176,207	-0,135	-0,135
295,560	-70,178	-0,182	0,047
296,574	-125,006	-0,185	-0,019
297,589	578,264	-0,059	-0,101
298,603	559,816	-0,116	-0,194
299,618	598,911	-0,041	-0,070
300,633	194,349	-0,122	-0,128
301,647	99,078	-0,169	-0,135
302,662	-200,000	-0,171	-0,000
303,676	227,277	-0,155	-0,174
304,691	418,589	-0,141	-0,209
305,706	120,286	-0,086	-0,074
306,720	277,645	-0,171	-0,210
307,735	800,000	-0,095	-0,209
308,749	44,546	-0,212	-0,134
309,764	-109,049	-0,158	0,023
310,779	236,770	-0,170	-0,194
311,793	3,714	-0,304	-0,152
312,808	-6,270	-0,204	0,096
313,822	778,570	-0,093	-0,176
314,837	111,480	-0,147	-0,122
315,852	168,956	-0,095	-0,094
316,866	-65,411	-0,104	-0,029
317,881	800,000	-0,040	0,083
318,895	-107,573	-0,094	-0,014
319,910	290,621	-0,147	-0,185
320,925	-9,600	-0,181	-0,083
321,939	244,182	-0,077	-0,089
322,954	-26,374	-0,106	-0,043
323,968	-128,363	-0,260	-0,025
324,983	11,830	-0,121	0,064
325,997	35,613	-0,161	-0,097
327,012	62,529	-0,165	-0,113
328,027	343,493	-0,179	-0,242
329,041	-117,719	-0,311	-0,038
330,056	382,191	-0,092	-0,131
331,070	-144,018	-0,122	0,008
332,085	-51,126	-0,111	-0,035
333,100	4,134	-0,271	-0,136
334,114	217,708	-0,191	-0,210
335,129	26,455	-0,234	-0,135
336,143	-104,209	-0,136	0,021
337,158	478,083	-0,089	-0,139
338,173	800,000	-0,063	-0,155
339,187	117,808	-0,050	0,042
340,202	800,000	-0,057	-0,159
341,216	280,527	-0,173	-0,213
342,231	132,809	-0,117	-0,104
343,246	463,274	-0,123	-0,189
344,260	303,590	0,008	0,011
345,275	-48,767	-0,042	-0,014
346,289	7,047	-0,248	-0,127
347,304	135,902	-0,025	-0,022
348,319	800,000	0,050	-0,111
349,333	-62,523	-0,230	-0,065
350,348	63,714	-0,143	-0,099
351,362	247,261	-0,141	-0,164
352,377	-200,000	-0,017	-0,148
353,392	-86,863	-0,125	-0,026
354,406	-34,890	-0,143	-0,053
355,421	208,224	1313,531	1411,426
356,435	160,207	1474,125	1411,922
