DTS Sentinel unit serial number:	SN410029Multiplexer serial number:	ORYXHardware model number:	OX2-SRSoftware version number:	ORYX F/W v4,00 Oryx Data Collector v3.7.2.0data status	okinstallation	B3 Nyhavnadifferential loss correction	single-endedforward channel	channel 1reverse channel	N/Adate	2023/12/03time	08:57:30forward acquisition time	300,00reverse acquisition time	0,00gamma	499,1914k internal	0,3201k external	0,3201temperature offset calibration	1,0000default loss term (dB/km)	0,3820temperature slope calibration	1,0000multiplexer offset coefficient	1,0000multiplexer slope coefficient	1,0000fibre end	0,00T internal ref (°C)	13,35T ext. ref 1 (°C)	-1,63T ext. ref 2 (°C)	-1,63length (m)	temperature (°C)	Stokes	anti-Stokes-744,400	81,148	-0,183	-0,144
-743,385	-200,000	-0,029	0,186
-742,371	646,085	-0,156	-0,291
-741,356	-200,000	0,046	0,315
-740,342	-142,971	-0,210	-0,015
-739,327	-200,000	-0,043	0,234
-738,312	800,000	-0,088	-0,186
-737,298	-200,000	-0,030	0,254
-736,283	311,611	-0,212	-0,290
-735,269	800,000	0,173	0,399
-734,254	800,000	-0,132	-0,278
-733,239	-66,833	-0,301	0,086
-732,225	-200,000	-0,035	-0,129
-731,210	-105,262	0,103	0,017
-730,196	60,331	-0,057	0,041
-729,181	-136,571	0,028	0,002
-728,167	206,472	-0,016	-0,018
-727,152	-154,587	-0,244	0,012
-726,137	-200,000	-0,009	-0,102
-725,123	61,747	0,038	-0,028
-724,108	-169,392	-0,158	-0,004
-723,094	55,709	0,151	-0,106
-722,079	51,967	-0,131	-0,090
-721,064	-26,371	-0,021	0,009
-720,050	457,741	0,034	0,055
-719,035	-200,000	-0,002	-0,122
-718,021	328,979	0,043	-0,061
-717,006	-200,000	-0,024	-0,139
-715,991	800,000	-0,040	-0,085
-714,977	79,276	-0,051	-0,040
-713,962	-1,294	-0,080	-0,041
-712,948	13,821	0,021	0,012
-711,933	202,146	0,083	0,094
-710,918	347,019	-0,042	-0,061
-709,904	63,586	-0,133	0,097
-708,889	785,795	0,012	-0,023
-707,875	263,788	-0,019	-0,025
-706,860	436,093	0,021	0,033
-705,845	-200,000	-0,011	-0,046
-704,831	523,788	0,026	-0,044
-703,816	800,000	-0,037	-0,088
-702,802	-141,680	-0,103	-0,007
-701,787	800,000	-0,043	-0,105
-700,772	484,651	-0,044	-0,073
-699,758	64,886	0,082	0,060
-698,743	171,936	0,091	0,095
-697,729	438,859	-0,039	-0,063
-696,714	171,695	0,082	-0,086
-695,699	-55,324	0,143	-0,046
-694,685	-13,545	-0,107	-0,050
-693,670	166,470	-0,108	-0,111
-692,656	-91,123	-0,218	0,045
-691,641	285,160	-0,033	0,043
-690,627	-200,000	0,009	-0,207
-689,612	-200,000	0,028	0,098
-688,597	-14,364	0,032	-0,015
-687,583	49,185	-0,137	-0,093
-686,568	306,545	0,063	-0,085
-685,554	-101,076	-0,076	-0,013
-684,539	607,583	-0,049	-0,089
-683,524	-200,000	-0,014	0,060
-682,510	-200,000	-0,000	-0,018
-681,495	-200,000	-0,031	-0,157
-680,481	-114,501	0,119	-0,016
-679,466	-200,000	-0,018	-0,135
-678,451	-200,000	0,018	-0,130
-677,437	-200,000	0,023	-0,109
-676,422	480,177	-0,059	0,098
-675,408	-149,680	-0,103	0,006
-674,393	-32,060	-0,057	-0,023
-673,378	297,379	-0,073	-0,098
-672,364	44,117	-0,115	-0,076
-671,349	-23,855	-0,061	-0,026
-670,335	150,241	0,077	-0,076
-669,320	145,907	0,099	0,096
-668,305	-146,007	0,131	0,008
-667,291	260,320	0,050	-0,063
-666,276	-104,299	-0,037	0,006
-665,262	189,247	-0,189	-0,206
-664,247	162,812	0,032	0,032
-663,232	-62,673	-0,039	0,012
-662,218	204,147	0,069	-0,078
-661,203	360,455	-0,037	-0,054
-660,189	192,442	0,044	-0,049
-659,174	-141,560	-0,111	-0,008
-658,159	136,615	-0,149	-0,141
-657,145	160,158	-0,035	-0,036
-656,130	135,205	0,046	-0,044
-655,116	-3,101	-0,039	-0,020
-654,101	-188,051	0,233	0,002
-653,086	-200,000	0,012	0,136
-652,072	19,612	-0,110	-0,064
-651,057	-107,570	-0,060	-0,009
-650,043	-200,000	-0,005	-0,114
-649,028	350,126	0,037	0,053
-648,014	-32,740	0,052	0,021
-646,999	-50,209	-0,142	0,049
-645,984	12,223	-0,136	0,076
-644,970	800,000	0,011	0,025
-643,955	800,000	-0,024	-0,070
-642,941	800,000	0,015	-0,037
-641,926	430,952	0,048	-0,075
-640,911	-135,731	-0,130	0,011
-639,897	-55,998	0,088	-0,028
-638,882	-126,737	0,106	-0,011
-637,868	570,358	-0,075	0,132
-636,853	800,000	-0,025	0,068
-635,838	-13,283	0,017	0,008
-634,824	797,911	-0,080	0,161
-633,809	800,000	0,070	0,156
-632,795	68,775	0,059	0,044
-631,780	-200,000	-0,020	0,074
-630,765	800,000	0,025	0,069
-629,751	-105,788	-0,047	0,008
-628,736	339,157	-0,043	-0,061
-627,722	232,673	-0,021	-0,025
-626,707	-126,433	0,086	-0,009
-625,692	51,620	0,099	0,068
-624,678	800,000	0,057	-0,134
-623,663	-77,499	-0,052	0,013
-622,649	751,461	-0,062	-0,121
-621,634	726,145	-0,008	-0,015
-620,619	58,349	0,075	-0,053
-619,605	-143,986	-0,127	0,008
-618,590	-200,000	-0,018	0,069
-617,576	-200,000	0,000	-0,066
-616,561	-66,187	-0,051	-0,014
-615,546	52,760	-0,104	-0,072
-614,532	-13,799	-0,088	-0,041
-613,517	-200,000	-0,008	-0,041
-612,503	316,435	0,091	-0,124
-611,488	81,658	0,118	0,093
-610,474	304,696	0,118	0,158
-609,459	800,000	0,031	0,069
-608,444	793,750	-0,026	-0,053
-607,430	800,000	-0,047	-0,136
-606,415	140,908	-0,038	-0,037
-605,401	-200,000	0,010	-0,163
-604,386	-90,919	0,097	0,020
-603,371	-200,000	0,014	0,077
-602,357	-200,000	0,002	-0,019
-601,342	373,173	-0,116	0,172
-600,328	181,799	-0,080	-0,085
-599,313	-5,751	0,097	-0,048
-598,298	-25,712	-0,115	-0,049
-597,284	30,470	0,088	-0,054
-596,269	-200,000	0,037	0,133
-595,255	-200,000	0,044	0,000
-594,240	800,000	-0,015	0,036
-593,225	256,969	-0,055	0,068
-592,211	-16,819	-0,068	-0,031
-591,196	-200,000	0,019	0,063
-590,182	800,000	0,029	-0,062
-589,167	418,890	0,066	0,102
-588,152	-200,000	0,009	0,049
-587,138	230,241	-0,049	0,058
-586,123	700,258	-0,064	-0,123
-585,109	-200,000	-0,011	-0,132
-584,094	249,631	-0,064	-0,079
-583,079	-200,000	0,050	0,162
-582,065	149,742	0,042	0,041
-581,050	-27,212	0,027	0,011
-580,036	800,000	-0,061	-0,144
-579,021	800,000	0,061	-0,137
-578,006	16,931	-0,148	-0,084
-576,992	51,341	0,072	-0,049
-575,977	800,000	0,006	0,014
-574,963	363,739	0,078	0,113
-573,948	-77,491	-0,037	-0,009
-572,934	800,000	0,024	0,064
-571,919	98,167	-0,059	0,049
-570,904	-131,786	-0,067	0,006
-569,890	800,000	-0,035	-0,110
-568,875	138,860	-0,046	-0,044
-567,861	31,411	0,179	0,111
-566,846	-64,167	0,087	0,025
-565,831	56,383	0,084	0,059
-564,817	-52,656	-0,128	-0,042
-563,802	398,356	-0,043	0,066
-562,788	-45,220	0,097	-0,034
-561,773	285,684	0,045	0,059
-560,758	349,955	-0,050	-0,072
-559,744	-81,657	-0,109	-0,026
-558,729	800,000	0,038	-0,087
-557,715	-200,000	-0,030	-0,128
-556,700	800,000	-0,042	-0,118
-555,685	-200,000	0,003	-0,220
-554,671	-19,789	-0,127	0,056
-553,656	-85,343	-0,119	-0,026
-552,642	58,362	0,034	-0,024
-551,627	347,334	0,061	0,087
-550,612	-6,708	-0,108	-0,053
-549,598	212,025	-0,068	-0,078
-548,583	800,000	0,055	0,114
-547,569	-200,000	-0,024	0,093
-546,554	120,014	-0,038	0,034
-545,539	0,642	-0,051	-0,026
-544,525	-200,000	0,011	-0,035
-543,510	800,000	-0,023	-0,057
-542,496	597,749	0,095	-0,171
-541,481	535,855	0,054	-0,092
-540,466	-189,713	-0,156	0,001
-539,452	-200,000	-0,013	0,052
-538,437	-97,068	-0,157	0,029
-537,423	-200,000	0,002	0,045
-536,408	-29,986	0,050	0,021
-535,393	800,000	-0,038	-0,115
-534,379	800,000	0,058	-0,169
-533,364	-200,000	-0,053	-0,232
-532,350	56,438	0,037	-0,026
-531,335	120,294	-0,088	0,078
-530,321	-8,039	0,083	0,040
-529,306	-72,897	-0,092	-0,024
-528,291	-46,631	-0,078	-0,027
-527,277	-200,000	0,042	-0,136
-526,262	166,052	-0,107	0,110
-525,248	-37,804	0,088	0,033
-524,233	-200,000	-0,013	0,090
-523,218	3,552	0,054	0,028
-522,204	-200,000	0,015	-0,058
-521,189	800,000	-0,029	-0,059
-520,175	64,248	-0,063	0,046
-519,160	-200,000	0,031	-0,111
-518,145	800,000	-0,018	-0,053
-517,131	-200,000	0,017	0,081
-516,116	-122,883	-0,015	-0,002
-515,102	-200,000	0,001	0,026
-514,087	-61,863	-0,145	0,043
-513,072	-200,000	0,038	-0,129
-512,058	335,452	-0,063	-0,089
-511,043	347,013	0,044	0,063
-510,029	-13,883	0,102	-0,048
-509,014	118,456	-0,051	0,046
-507,999	38,913	0,136	0,087
-506,985	384,311	-0,045	-0,067
-505,970	-72,939	0,055	0,014
-504,956	199,664	-0,019	0,022
-503,941	-200,000	-0,006	-0,083
-502,926	800,000	0,035	-0,071
-501,912	-47,959	-0,135	0,047
-500,897	-129,191	-0,160	-0,016
-499,883	-200,000	0,021	-0,085
-498,868	496,567	-0,048	-0,079
-497,853	74,309	-0,098	-0,074
-496,839	17,526	0,063	-0,036
-495,824	800,000	-0,060	0,121
-494,810	-98,497	0,044	0,008
-493,795	319,991	0,094	-0,129
-492,781	53,515	-0,092	0,064
-491,766	800,000	0,014	-0,031
-490,751	-200,000	-0,021	-0,154
-489,737	300,759	0,063	0,084
-488,722	-36,637	0,094	0,036
-487,708	-86,149	0,118	0,026
-486,693	132,387	0,052	0,049
-485,678	285,247	0,017	-0,022
-484,664	800,000	0,046	-0,121
-483,649	-112,442	0,151	-0,022
-482,635	-1,452	-0,086	-0,044
-481,620	13,512	-0,154	-0,086
-480,605	76,548	0,032	0,024
-479,591	-200,000	0,014	0,077
-478,576	-200,000	-0,033	0,133
-477,562	487,209	-0,037	0,060
-476,547	92,250	-0,038	-0,031
-475,532	-200,000	0,028	-0,149
-474,518	10,195	-0,061	0,034
-473,503	-150,191	-0,070	-0,004
-472,489	800,000	0,042	0,096
-471,474	94,052	-0,055	-0,045
-470,459	-194,450	-0,112	0,001
-469,445	-125,842	0,188	0,020
-468,430	208,969	-0,043	0,049
-467,416	348,188	0,058	-0,082
-466,401	-56,266	0,134	0,043
-465,386	-200,000	0,011	0,059
-464,372	-200,000	0,016	-0,055
-463,357	-200,000	-0,018	-0,105
-462,343	-200,000	0,010	-0,161
-461,328	101,083	-0,117	-0,098
-460,313	593,166	0,067	-0,119
-459,299	-200,000	0,014	-0,095
-458,284	-87,625	0,107	0,023
-457,270	-117,424	0,024	0,003
-456,255	-15,929	0,070	0,032
-455,241	138,679	-0,067	0,063
-454,226	-97,929	0,057	0,010
-453,211	85,422	0,017	-0,013
-452,197	81,642	0,028	-0,022
-451,182	-200,000	0,006	0,136
-450,168	-61,314	0,061	0,018
-449,153	68,667	0,107	-0,079
-448,138	800,000	-0,014	0,030
-447,124	800,000	0,011	-0,032
-446,109	-82,791	-0,039	0,009
-445,095	129,437	-0,026	0,023
-444,080	-200,000	-0,035	0,133
-443,065	-10,657	0,149	0,070
-442,051	-51,334	-0,139	0,046
-441,036	800,000	-0,026	-0,067
-440,022	-42,306	0,035	-0,013
-439,007	-80,932	-0,106	0,025
-437,992	-92,226	-0,053	-0,011
-436,978	-71,889	0,248	-0,066
-435,963	800,000	-0,011	0,025
-434,949	258,970	-0,055	-0,068
-433,934	-120,165	0,129	0,016
-432,919	-29,706	-0,082	-0,034
-431,905	-200,000	0,009	0,065
-430,890	-147,572	0,084	-0,005
-429,876	419,399	0,066	0,101
-428,861	-89,351	-0,128	0,027
-427,846	104,295	0,033	-0,028
-426,832	-200,000	0,007	0,022
-425,817	77,666	-0,118	0,090
-424,803	-125,304	0,060	0,007
-423,788	11,318	0,128	-0,070
-422,773	-200,000	-0,004	0,134
-421,759	-11,725	-0,070	0,033
-420,744	-82,250	-0,063	-0,015
-419,730	18,986	-0,092	0,053
-418,715	-18,862	0,072	0,032
-417,701	7,090	0,119	0,064
-416,686	105,448	0,046	0,039
-415,671	498,113	0,056	-0,093
-414,657	415,911	0,102	0,157
-413,642	-200,000	0,024	0,192
-412,628	800,000	0,015	-0,034
-411,613	-200,000	-0,011	0,102
-410,598	693,029	-0,042	-0,079
-409,584	800,000	-0,070	-0,141
-408,569	96,749	0,029	-0,024
-407,555	-200,000	-0,196	0,000
-406,540	79,744	0,026	-0,020
-405,525	292,073	-0,075	0,098
-404,511	636,038	-0,024	-0,043
-403,496	679,203	0,024	0,044
-402,482	-200,000	0,021	0,104
-401,467	-89,412	-0,082	-0,017
-400,452	-157,994	0,100	-0,004
-399,438	-200,000	0,001	0,031
-398,423	563,519	-0,029	0,051
-397,409	-135,861	-0,100	-0,008
-396,394	457,042	-0,051	-0,081
-395,379	800,000	-0,028	-0,087
-394,365	-169,200	0,118	-0,003
-393,350	-111,156	0,024	-0,003
-392,336	-173,873	-0,092	0,002
-391,321	236,007	-0,083	0,098
-390,306	-200,000	0,003	-0,089
-389,292	-75,734	-0,074	-0,019
-388,277	-108,014	0,174	0,027
-387,263	-200,000	0,008	-0,026
-386,248	17,625	0,106	0,060
-385,233	121,271	0,048	0,043
-384,219	-115,090	-0,054	-0,007
-383,204	241,658	-0,087	-0,104
-382,190	195,173	-0,075	0,082
-381,175	337,893	0,042	0,058
-380,160	-130,036	-0,050	0,005
-379,146	-111,489	0,155	0,022
-378,131	-61,573	0,017	0,005
-377,117	9,985	-0,142	0,077
-376,102	314,652	-0,124	0,168
-375,088	-97,618	-0,176	-0,032
-374,073	89,122	0,069	0,055
-373,058	327,153	0,050	0,068
-372,044	271,075	-0,046	0,058
-371,029	-200,000	-0,015	0,100
-370,015	75,228	0,059	-0,045
-369,000	-200,000	0,018	-0,122
-367,985	800,000	-0,046	-0,103
-366,971	800,000	0,010	0,026
-365,956	-200,000	0,018	-0,107
-364,942	-58,474	0,106	-0,033
-363,927	241,264	0,034	-0,041
-362,912	-136,482	0,049	-0,004
-361,898	-73,594	-0,152	0,039
-360,883	273,921	-0,088	-0,112
-359,869	-93,541	0,132	-0,026
-358,854	23,116	0,092	-0,054
-357,839	800,000	-0,059	-0,129
-356,825	-9,510	0,043	-0,021
-355,810	-33,103	-0,059	-0,023
-354,796	-200,000	-0,006	-0,083
-353,781	234,024	-0,066	-0,078
-352,766	800,000	0,044	-0,137
-351,752	617,121	-0,067	0,121
-350,737	-200,000	0,015	0,051
-349,723	150,296	-0,010	-0,010
-348,708	467,502	0,035	0,057
-347,693	121,702	-0,069	0,062
-346,679	-8,962	0,076	-0,036
-345,664	-200,000	0,002	0,102
-344,650	-200,000	-0,004	0,134
-343,635	505,011	0,048	0,079
-342,620	-200,000	0,019	0,102
-341,606	25,690	0,039	0,023
-340,591	-35,665	0,054	-0,021
-339,577	-200,000	-0,008	-0,035
-338,562	41,154	-0,044	-0,028
-337,548	46,147	-0,083	0,055
-336,533	36,126	0,039	-0,024
-335,518	4,610	0,083	-0,043
-334,504	-200,000	-0,015	-0,084
-333,489	-200,000	0,009	0,134
-332,475	-200,000	-0,003	-0,011
-331,460	-200,000	-0,006	0,043
-330,445	-64,094	0,033	0,010
-329,431	-200,000	0,024	-0,156
-328,416	77,346	0,101	-0,077
-327,402	660,183	0,034	0,064
-326,387	14,303	0,066	0,037
-325,372	1,336	-0,098	-0,050
-324,358	651,829	-0,063	-0,115
-323,343	800,000	-0,050	-0,138
-322,329	284,493	-0,071	0,092
-321,314	-200,000	0,023	-0,104
-320,299	581,367	0,027	-0,048
-319,285	-81,736	-0,079	-0,018
-318,270	800,000	-0,012	-0,026
-317,256	627,606	-0,030	-0,054
-316,241	-130,172	-0,123	0,012
-315,226	-200,000	0,025	-0,155
-314,212	-99,813	0,186	-0,033
-313,197	16,302	0,146	0,082
-312,183	800,000	0,011	0,035
-311,168	-80,771	-0,124	0,029
-310,153	-6,269	-0,028	-0,014
-309,139	-200,000	0,011	-0,094
-308,124	-141,770	0,122	0,009
-307,110	242,633	0,025	0,030
-306,095	-125,723	0,189	0,020
-305,080	161,500	0,133	-0,133
-304,066	-200,000	0,008	-0,049
-303,051	800,000	0,023	-0,060
-302,037	96,009	-0,030	-0,025
-301,022	-142,827	-0,162	0,011
-300,008	800,000	0,009	-0,027
-298,993	163,014	-0,038	0,039
-297,978	-200,000	0,008	-0,076
-296,964	800,000	-0,077	-0,199
-295,949	134,277	-0,098	-0,091
-294,935	-120,219	0,078	0,009
-293,920	-200,000	-0,043	0,135
-292,905	800,000	0,056	0,148
-291,891	-200,000	-0,026	0,145
-290,876	800,000	0,038	-0,112
-289,862	304,825	-0,105	-0,140
-288,847	204,503	-0,031	0,035
-287,832	-200,000	0,000	0,024
-286,818	-31,373	-0,024	0,010
-285,803	-200,000	-0,000	0,064
-284,789	-200,000	-0,020	0,099
-283,774	-135,397	0,111	0,009
-282,759	-151,032	-0,007	0,000
-281,745	345,213	0,081	-0,113
-280,730	-40,720	0,054	-0,020
-279,716	27,896	-0,076	0,046
-278,701	-158,132	0,120	0,005
-277,686	256,715	-0,072	0,088
-276,672	321,551	-0,043	0,058
-275,657	64,880	0,098	-0,071
-274,643	800,000	0,056	-0,146
-273,628	-94,528	-0,126	0,024
-272,613	-200,000	-0,013	-0,062
-271,599	15,662	0,036	0,020
-270,584	-166,976	0,122	-0,003
-269,570	800,000	0,008	0,015
-268,555	-157,210	-0,101	0,004
-267,540	-101,553	-0,036	0,006
-266,526	128,021	-0,079	-0,072
-265,511	-82,748	0,058	0,013
-264,497	380,911	0,046	0,067
-263,482	34,757	0,046	0,028
-262,467	-86,338	0,169	-0,037
-261,453	584,178	-0,028	0,049
-260,438	223,871	-0,033	0,038
-259,424	8,773	-0,116	-0,062
-258,409	302,523	0,050	-0,067
-257,395	-11,738	0,034	-0,016
-256,380	-200,000	-0,023	0,166
-255,365	-200,000	-0,020	0,093
-254,351	-200,000	0,023	0,138
-253,336	-87,721	0,120	-0,026
-252,322	-200,000	-0,012	0,054
-251,307	-200,000	-0,003	0,120
-250,292	-200,000	0,033	0,108
-249,278	205,265	-0,006	0,007
-248,263	-109,441	0,094	0,014
-247,249	-200,000	0,018	0,140
-246,234	88,188	-0,043	-0,034
-245,219	221,620	-0,052	-0,060
-244,205	175,575	-0,057	-0,059
-243,190	-64,384	-0,088	-0,026
-242,176	-149,747	-0,077	-0,004
-241,161	-38,789	0,133	-0,050
-240,146	-200,000	-0,008	-0,061
-239,132	-200,000	0,021	-0,088
-238,117	-200,000	-0,077	-0,000
-237,103	-103,182	0,151	0,025
-236,088	241,721	0,067	-0,080
-235,073	-200,000	-0,011	0,058
-234,059	277,985	0,058	-0,073
-233,044	-13,207	0,131	0,060
-232,030	51,400	-0,113	-0,076
-231,015	-176,783	-0,060	0,001
-230,000	-127,287	-0,025	-0,003
-228,986	800,000	-0,055	-0,142
-227,971	800,000	0,029	0,065
-226,957	-200,000	-0,002	-0,060
-225,942	-200,000	-0,050	0,192
-224,927	110,658	0,079	0,068
-223,913	-65,651	-0,056	-0,016
-222,898	-200,000	-0,015	-0,066
-221,884	-200,000	0,009	0,092
-220,869	-200,000	-0,002	0,091
-219,855	-62,954	0,082	0,024
-218,840	-49,425	0,064	-0,022
-217,825	-133,854	-0,187	-0,016
-216,811	-200,000	-0,012	0,116
-215,796	800,000	-0,027	0,070
-214,782	200,340	-0,045	0,050
-213,767	138,694	0,074	-0,069
-212,752	-200,000	-0,030	0,105
-211,738	86,341	0,073	-0,057
-210,723	580,622	-0,047	0,082
-209,709	86,114	-0,045	0,035
-208,694	29,034	-0,135	-0,081
-207,679	117,374	0,060	0,053
-206,665	299,535	0,073	0,096
-205,650	22,548	-0,053	0,031
-204,636	354,200	0,101	0,143
-203,621	-200,000	-0,002	0,062
-202,606	14,566	-0,054	0,030
-201,592	-111,934	0,006	-0,001
-200,577	-49,638	-0,112	-0,038
-199,563	762,325	0,021	0,042
-198,548	156,295	0,100	0,099
-197,533	-18,942	-0,102	0,045
-196,519	462,998	-0,062	0,099
-195,504	-124,523	-0,169	-0,019
-194,490	-200,000	-0,018	0,056
-193,475	579,032	0,013	-0,023
-192,460	800,000	-0,015	-0,048
-191,446	107,901	0,034	0,029
-190,431	-191,222	-0,119	0,001
-189,417	800,000	-0,023	0,046
-188,402	800,000	0,057	0,141
-187,387	154,950	0,034	0,033
-186,373	800,000	-0,036	0,108
-185,358	-54,819	0,052	0,017
-184,344	-70,589	-0,011	-0,003
-183,329	104,484	0,124	0,104
-182,315	-53,168	0,152	-0,049
-181,300	-125,768	0,057	-0,006
-180,285	226,956	-0,098	-0,113
-179,271	800,000	0,033	0,070
-178,256	-149,882	0,126	0,007
-177,242	267,277	0,058	0,073
-176,227	49,754	0,167	0,112
-175,212	662,554	0,065	0,121
-174,198	-200,000	-0,006	0,062
-173,183	-200,000	-0,022	-0,192
-172,169	242,039	-0,094	-0,112
-171,154	-25,494	-0,082	0,035
-170,139	800,000	0,057	-0,168
-169,125	-152,912	-0,056	0,003
-168,110	800,000	-0,018	0,052
-167,096	-76,959	0,029	0,007
-166,081	-200,000	-0,004	-0,077
-165,066	52,799	0,056	-0,038
-164,052	2,008	0,052	0,026
-163,037	-99,017	-0,025	-0,004
-162,023	-121,349	0,044	-0,005
-161,008	333,348	-0,054	0,074
-159,993	800,000	0,032	0,093
-158,979	-18,168	-0,134	-0,059
-157,964	-83,449	-0,100	-0,023
-156,950	-127,267	-0,109	0,011
-155,935	-24,773	0,081	0,034
-154,920	65,662	0,055	-0,039
-153,906	-33,673	0,151	-0,059
-152,891	-155,849	0,052	0,002
-151,877	-200,000	0,006	-0,042
-150,862	-200,000	-0,001	0,016
-149,847	-200,000	0,019	-0,180
-148,833	800,000	0,029	0,057
-147,818	-200,000	-0,004	0,032
-146,804	280,961	0,071	0,090
-145,789	-129,840	0,128	-0,012
-144,775	-200,000	-0,019	-0,112
-143,760	129,690	-0,070	0,064
-142,745	315,843	-0,070	-0,094
-141,731	4,488	0,111	0,058
-140,716	-147,912	0,034	0,002
-139,702	221,263	0,134	0,153
-138,687	-11,044	0,100	0,046
-137,672	800,000	-0,014	-0,032
-136,658	-200,000	0,010	-0,122
-135,643	-77,253	-0,025	0,006
-134,629	800,000	0,049	-0,103
-133,614	-200,000	0,030	0,100
-132,599	800,000	0,052	0,139
-131,585	800,000	0,045	0,113
-130,570	-16,234	-0,141	0,063
-129,556	60,527	-0,049	0,034
-128,541	800,000	0,039	0,086
-127,526	-200,000	0,031	0,118
-126,512	-63,879	0,140	0,040
-125,497	800,000	0,033	-0,076
-124,483	122,801	-0,093	-0,083
-123,468	43,787	-0,011	0,007
-122,453	-200,000	-0,038	-0,123
-121,439	-111,784	-0,059	0,008
-120,424	-53,625	0,081	0,026
-119,410	-4,629	0,051	-0,025
-118,395	137,374	-0,030	-0,027
-117,380	-59,115	0,058	-0,018
-116,366	177,369	-0,046	0,047
-115,351	235,234	0,076	-0,089
-114,337	-200,000	-0,019	-0,100
-113,322	229,196	0,048	-0,056
-112,307	193,409	0,022	0,024
-111,293	150,462	0,076	-0,074
-110,278	159,613	0,035	-0,034
-109,264	134,249	-0,060	-0,055
-108,249	-91,083	-0,161	-0,032
-107,234	4,607	-0,081	-0,042
-106,220	800,000	-0,035	-0,090
-105,205	800,000	-0,024	-0,067
-104,191	-57,892	-0,024	0,008
-103,176	-200,000	0,008	-0,064
-102,162	-100,060	-0,068	0,012
-101,147	-156,078	-0,090	0,004
-100,132	248,641	-0,127	-0,153
-99,118	-200,000	-0,015	-0,112
-98,103	-59,354	0,054	-0,016
-97,089	-62,907	-0,118	0,034
-96,074	93,239	0,073	0,058
-95,059	-200,000	0,013	0,141
-94,045	800,000	0,026	-0,067
-93,030	137,360	-0,144	-0,134
-92,016	507,166	-0,018	0,029
-91,001	-58,706	0,106	0,032
-89,986	120,259	0,047	-0,041
-88,972	633,918	0,055	0,099
-87,957	31,896	-0,181	0,111
-86,943	-200,000	0,002	0,025
-85,928	-1,644	-0,266	-0,133
-84,913	-71,227	0,146	-0,038
-83,899	-81,565	-0,081	-0,019
-82,884	295,216	-0,062	-0,081
-81,870	800,000	-0,045	-0,105
-80,855	103,940	0,039	-0,032
-79,840	-200,000	0,001	0,035
-78,826	-12,924	-0,047	-0,022
-77,811	800,000	0,011	-0,033
-76,797	-45,954	-0,065	0,023
-75,782	-200,000	-0,041	0,253
-74,767	198,573	-0,048	0,052
-73,753	-64,090	0,117	0,034
-72,738	800,000	0,033	-0,098
-71,724	-36,793	-0,082	0,031
-70,709	-200,000	0,012	-0,088
-69,694	22,363	-0,091	-0,053
-68,680	-115,712	0,122	0,016
-67,665	-73,845	0,095	-0,024
-66,651	-200,000	0,014	0,049
-65,636	-97,387	-0,065	-0,012
-64,622	-59,106	-0,031	-0,010
-63,607	-200,000	-0,034	-0,139
-62,592	-27,861	-0,108	-0,044
-61,578	37,230	0,130	0,081
-60,563	168,186	0,057	-0,057
-59,549	150,029	-0,106	0,102
-58,534	-26,461	-1,730	-0,715
-57,519	403,787	-1,371	-2,051
-56,505	-200,000	-0,500	-4,624
-55,490	285,128	1,001	1,280
-54,476	800,000	4,869	11,053
-53,461	-200,000	19,386	320,411
-52,446	-200,000	740,269	2335,701
-51,432	573,969	1655,214	2869,844
-50,417	78,362	1671,251	1262,399
-49,403	21,349	1544,039	885,924
-48,388	15,233	1466,338	811,605
-47,373	17,987	1456,717	819,558
-46,359	16,692	1446,585	807,614
-45,344	13,467	1442,127	789,638
-44,330	13,353	1440,163	787,989
-43,315	13,393	1438,356	787,158
-42,300	13,420	1436,505	786,243
-41,286	13,372	1435,518	785,442
-40,271	13,365	1434,062	784,580
-39,257	13,403	1432,619	783,944
-38,242	13,429	1431,526	783,436
-37,227	13,465	1430,301	782,906
-36,213	13,454	1428,918	782,066
-35,198	13,473	1427,577	781,391
-34,184	13,484	1426,852	781,015
-33,169	13,378	1425,775	779,893
-32,154	13,464	1424,541	779,594
-31,140	13,491	1423,207	778,961
-30,125	13,510	1422,019	778,371
-29,111	13,438	1420,690	777,272
-28,096	13,473	1419,737	776,884
-27,082	13,359	1418,791	775,796
-26,067	13,387	1417,705	775,304
-25,052	13,381	1416,620	774,652
-24,038	13,343	1415,606	773,887
-23,023	13,354	1414,493	773,303
-22,009	13,351	1413,635	772,789
-20,994	13,354	1412,726	772,273
-19,979	13,309	1411,926	771,593
-18,965	13,366	1410,710	771,165
-17,950	13,331	1409,922	770,544
-16,936	13,347	1408,794	769,971
-15,921	13,281	1407,854	769,114
-14,906	13,268	1407,071	768,599
-13,892	13,284	1405,992	768,053
-12,877	13,291	1405,111	767,572
-11,863	13,294	1404,279	767,104
-10,848	13,276	1403,393	766,505
-9,833	13,238	1402,656	765,895
-8,819	13,200	1401,774	765,204
-7,804	13,191	1400,664	764,528
-6,790	13,193	1399,675	763,965
-5,775	13,184	1398,662	763,341
-4,760	13,204	1397,810	762,939
-3,746	13,203	1396,738	762,317
-2,731	13,220	1395,906	761,911
-1,717	13,169	1394,900	761,095
-0,702	13,149	1393,329	760,116
0,313	17,060	1309,864	732,680
1,327	33,265	703,840	431,153
2,342	51,387	123,429	82,802
3,356	4,717	16,596	8,598
4,371	4,790	3,162	1,639
5,386	-24,281	0,548	0,230
6,400	-200,000	-0,022	0,290
7,415	60,795	-0,217	-0,152
8,429	-80,378	-0,272	-0,064
9,444	49,475	-0,326	-0,216
10,459	29,790	-0,203	-0,122
11,473	72,573	-0,240	-0,177
12,488	21,168	-0,321	-0,184
13,502	99,330	-0,355	-0,290
14,517	26,019	-0,356	-0,210
15,531	219,512	-0,292	-0,331
16,546	98,627	-0,296	-0,241
17,561	37,870	-0,369	-0,231
18,575	23,012	-0,172	-0,100
19,590	46,966	-0,243	-0,159
20,604	54,224	-0,259	-0,176
21,619	210,546	-0,322	-0,358
22,634	65,507	-0,479	-0,342
23,648	89,582	-0,503	-0,396
24,663	198,527	-0,314	-0,339
25,677	-2,293	-0,414	-0,205
26,692	134,354	-0,234	-0,214
27,707	34,048	-0,289	-0,177
28,721	90,057	-0,414	-0,326
29,736	53,224	-0,403	-0,272
30,750	193,283	-0,292	-0,312
31,765	93,627	-0,354	-0,283
32,780	26,403	-0,371	-0,218
33,794	-169,053	-0,229	0,006
34,809	58,370	-0,479	-0,331
35,823	399,189	-0,283	-0,420
36,838	13,335	-0,396	-0,216
37,853	55,843	-0,336	-0,230
38,867	77,958	-0,476	-0,357
39,882	345,022	-0,299	-0,415
40,896	19,479	-0,267	-0,151
41,911	14,302	-0,267	-0,146
42,926	-54,027	-0,376	-0,120
43,940	-51,395	-0,518	-0,170
44,955	-47,008	-0,362	-0,124
45,969	103,715	-0,372	-0,307
46,984	84,089	-0,237	-0,182
47,999	109,345	-0,327	-0,276
49,013	155,674	-0,308	-0,299
50,028	14,039	-0,284	-0,155
51,042	-27,904	-0,402	-0,163
52,057	-0,824	-0,377	-0,187
53,071	65,951	-0,432	-0,308
54,086	151,302	-0,303	-0,291
55,101	38,845	-0,216	-0,135
56,115	-11,436	-0,376	-0,174
57,130	-50,727	-0,288	-0,095
58,144	79,246	-0,327	-0,247
59,159	98,897	-0,427	-0,347
60,174	78,066	-0,433	-0,325
61,188	-17,360	-0,416	-0,184
62,203	89,714	-0,316	-0,248
63,217	262,607	-0,217	-0,265
64,232	18,570	-0,322	-0,181
65,247	35,371	-0,332	-0,204
66,261	14,533	-0,420	-0,230
67,276	139,246	-0,358	-0,331
68,290	-56,464	-0,311	-0,097
69,305	-94,886	-0,307	-0,058
70,320	-29,138	-0,375	-0,151
71,334	8,415	-0,262	-0,138
72,349	204,494	-0,282	-0,308
73,363	84,910	-0,294	-0,226
74,378	-19,933	-0,449	-0,194
75,393	147,010	-0,207	-0,195
76,407	-72,490	-0,327	-0,084
77,422	-49,103	-0,285	-0,095
78,436	-47,360	-0,301	-0,103
79,451	39,003	-0,305	-0,191
80,466	18,786	-0,368	-0,207
81,480	90,615	-0,370	-0,291
82,495	50,137	-0,286	-0,190
83,509	328,160	-0,228	-0,308
84,524	-8,833	-0,210	-0,098
85,539	722,083	-0,113	-0,213
86,553	-15,341	-0,274	-0,122
87,568	346,000	-0,186	-0,257
88,582	313,383	-0,241	-0,319
89,597	97,279	-0,289	-0,233
90,611	7,096	-0,225	-0,118
91,626	261,879	-0,195	-0,238
92,641	-72,188	-0,312	-0,081
93,655	43,702	-0,207	-0,133
94,670	99,602	-0,288	-0,234
95,684	668,325	-0,240	-0,437
96,699	12,381	-0,311	-0,168
97,714	-22,171	-0,372	-0,157
98,728	-14,151	-0,357	-0,161
99,743	35,314	-0,235	-0,144
100,757	-154,879	-0,213	0,010
101,772	122,141	-0,289	-0,253
102,787	119,129	-0,268	-0,233
103,801	41,454	-0,250	-0,158
104,816	246,051	-0,129	-0,152
105,830	115,344	-0,172	-0,147
106,845	442,365	-0,137	-0,211
107,860	177,149	-0,302	-0,309
108,874	27,271	-0,254	-0,149
109,889	285,512	-0,203	-0,258
110,903	-84,060	-0,252	-0,056
111,918	-54,883	-0,332	-0,104
112,933	375,621	-0,172	-0,246
113,947	-48,869	-0,089	-0,030
114,962	516,030	-0,103	-0,169
115,976	64,860	-0,203	-0,144
116,991	289,425	-0,124	-0,157
118,006	800,000	-0,105	-0,207
119,020	23,430	-0,276	-0,158
120,035	264,082	-0,221	-0,270
121,049	-200,000	-0,049	-0,160
122,064	13,405	-0,306	-0,166
123,079	-15,059	-0,251	-0,112
124,093	54,463	-0,303	-0,204
125,108	42,395	-0,393	-0,250
126,122	152,626	-0,208	-0,199
127,137	141,023	-0,246	-0,227
128,151	-46,747	-0,275	-0,094
129,166	-42,495	-0,327	-0,116
130,181	467,981	-0,170	-0,268
131,195	-20,607	-0,371	-0,159
132,210	-15,032	-0,282	-0,126
133,224	-22,249	-0,292	-0,123
134,239	66,803	-0,271	-0,192
135,254	204,322	-0,299	-0,325
136,268	36,458	-0,190	-0,117
137,283	58,702	-0,279	-0,191
138,297	131,524	-0,194	-0,175
139,312	-61,350	-0,184	-0,054
140,327	182,752	-0,269	-0,278
141,341	41,477	-0,336	-0,212
142,356	155,562	-0,162	-0,156
143,370	-132,935	-0,281	0,025
144,385	124,260	-0,222	-0,195
145,400	-95,123	-0,286	-0,053
146,414	-136,745	-0,310	0,025
147,429	511,494	-0,099	-0,161
148,443	-81,262	-0,293	-0,067
149,458	133,112	-0,196	-0,177
150,473	111,531	-0,204	-0,172
151,487	-52,902	-0,219	-0,070
152,502	62,637	-0,271	-0,189
153,516	16,441	-0,224	-0,123
154,531	186,407	-0,276	-0,287
155,546	336,212	-0,194	-0,263
156,560	151,044	-0,212	-0,202
157,575	800,000	-0,081	-0,163
158,589	18,521	-0,245	-0,136
159,604	35,404	-0,335	-0,205
160,619	-19,925	-0,224	-0,096
161,633	496,865	-0,133	-0,214
162,648	-3,033	-0,174	-0,085
163,662	104,126	-0,260	-0,213
164,677	-19,750	-0,250	-0,107
165,692	264,485	-0,232	-0,283
166,706	226,060	-0,186	-0,211
167,721	-17,433	-0,277	-0,121
168,735	109,246	-0,205	-0,171
169,750	66,322	-0,243	-0,172
170,764	282,418	-0,156	-0,196
171,779	140,384	-0,150	-0,138
172,794	71,000	-0,208	-0,150
173,808	72,578	-0,231	-0,168
174,823	129,372	-0,301	-0,268
175,837	97,040	-0,356	-0,284
176,852	69,222	-0,276	-0,198
177,867	205,101	-0,100	-0,109
178,881	-67,395	-0,212	-0,058
179,896	800,000	0,026	-0,062
180,910	427,774	-0,130	-0,196
181,925	286,195	-0,204	-0,257
182,940	-27,643	-0,245	-0,098
183,954	-24,446	-0,180	-0,075
184,969	312,658	-0,142	-0,186
185,983	97,195	-0,088	-0,070
186,998	132,394	-0,164	-0,147
188,013	329,703	-0,179	-0,241
189,027	35,461	-0,230	-0,140
190,042	231,827	-0,124	-0,142
191,056	-114,979	-0,247	-0,032
192,071	52,128	-0,128	-0,085
193,086	-30,459	-0,241	-0,095
194,100	197,496	-0,069	-0,074
195,115	71,313	-0,195	-0,141
196,129	11,196	-0,130	-0,069
197,144	-1,289	-0,248	-0,121
198,159	-10,794	-0,099	-0,045
199,173	81,134	-0,155	-0,116
200,188	270,291	-0,109	-0,134
201,202	-9,747	-0,147	-0,068
202,217	-126,967	-0,158	-0,016
203,232	453,930	-0,114	-0,176
204,246	182,645	-0,215	-0,221
205,261	233,437	-0,195	-0,224
206,275	87,504	-0,248	-0,191
207,290	-101,220	-0,249	-0,042
208,304	-36,921	-0,244	-0,090
209,319	235,076	-0,149	-0,171
210,334	16,788	-0,205	-0,112
211,348	73,285	-0,356	-0,259
212,363	615,493	-0,174	-0,305
213,377	-87,642	-0,172	-0,036
214,392	245,311	-0,092	-0,107
215,407	528,502	-0,093	-0,152
216,421	364,636	-0,124	-0,174
217,436	-21,808	-0,195	-0,082
218,450	198,896	-0,198	-0,211
219,465	-40,008	-0,284	-0,102
220,480	18,219	-0,228	-0,126
221,494	-14,823	-0,267	-0,119
222,509	-200,000	-0,043	-0,195
223,523	-108,452	-0,125	0,018
224,538	-87,450	-0,203	0,042
225,553	80,075	-0,113	-0,084
226,567	131,797	-0,244	-0,218
227,582	649,783	-0,060	-0,108
228,596	142,953	-0,140	-0,129
229,611	124,737	-0,157	-0,137
230,626	-81,690	-0,042	0,010
231,640	185,954	-0,156	-0,161
232,655	209,417	-0,211	-0,229
233,669	58,830	-0,262	-0,179
234,684	37,531	-0,238	-0,146
235,699	431,499	-0,140	-0,212
236,713	800,000	-0,058	-0,114
237,728	-104,445	-0,185	-0,029
238,742	-52,573	-0,149	-0,047
239,757	-95,889	-0,174	-0,032
240,772	-156,839	-0,215	-0,009
241,786	800,000	-0,094	-0,228
242,801	422,682	-0,074	-0,110
243,815	49,524	-0,110	-0,071
244,830	70,890	-0,163	-0,117
245,844	307,961	-0,130	-0,168
246,859	-12,776	-0,260	-0,117
247,874	285,513	-0,226	-0,283
248,888	113,688	-0,176	-0,148
249,903	-79,082	-0,134	-0,031
250,917	111,874	-0,117	-0,098
251,932	-112,991	-0,059	-0,008
252,947	-6,892	-0,186	-0,087
253,961	800,000	-0,057	-0,152
254,976	174,276	-0,229	-0,230
255,990	-4,586	-0,153	-0,073
257,005	-200,000	-0,009	-0,128
258,020	126,387	-0,160	-0,140
259,034	119,242	-0,101	-0,087
260,049	-166,819	-0,193	0,005
261,063	95,163	-0,212	-0,167
262,078	47,434	-0,228	-0,147
263,093	-84,712	-0,193	-0,042
264,107	-137,744	-0,181	-0,014
265,122	356,419	-0,108	-0,149
266,136	113,621	-0,083	-0,070
267,151	800,000	-0,065	-0,146
268,166	-21,485	-0,136	-0,057
269,180	-75,355	-0,291	-0,071
270,195	188,474	-0,153	-0,158
271,209	150,767	-0,216	-0,203
272,224	31,077	-0,142	-0,084
273,239	-137,274	-0,141	-0,011
274,253	272,092	-0,152	-0,185
275,268	153,561	-0,208	-0,197
276,282	77,389	-0,212	-0,156
277,297	-22,744	-0,083	-0,034
278,312	559,128	-0,080	-0,134
279,326	-14,495	-0,103	-0,046
280,341	-15,000	-0,259	-0,114
281,355	3,619	-0,119	-0,060
282,370	800,000	-0,122	-0,353
283,384	67,768	-0,221	-0,156
284,399	242,528	-0,099	-0,115
285,414	445,979	-0,120	-0,183
286,428	800,000	-0,062	-0,179
287,443	160,823	-0,115	0,111
288,457	-16,205	-0,059	-0,026
289,472	-200,000	0,001	-0,137
290,487	800,000	-0,104	-0,218
291,501	359,681	-0,138	-0,191
292,516	188,508	-0,115	-0,119
293,530	11,946	-0,065	-0,034
294,545	800,000	-0,073	-0,196
295,560	486,190	-0,121	-0,191
296,574	-200,000	-0,012	-0,159
297,589	-92,272	-0,215	-0,042
298,603	34,457	-0,150	-0,090
299,618	576,704	-0,144	-0,244
300,633	537,010	-0,069	-0,113
301,647	63,858	-0,145	-0,100
302,662	307,122	-0,070	-0,090
303,676	-79,237	-0,191	0,044
304,691	183,975	-0,126	-0,129
305,706	217,419	-0,137	-0,150
306,720	32,821	-0,121	-0,072
307,735	-60,188	-0,119	-0,035
308,749	134,805	-0,104	0,093
309,764	8,497	-0,145	-0,075
310,779	800,000	-0,078	-0,163
311,793	190,186	-0,207	-0,214
312,808	31,205	-0,146	-0,086
313,822	-75,202	-0,266	-0,065
314,837	259,146	-0,169	-0,201
315,852	263,201	-0,102	-0,123
316,866	800,000	-0,024	-0,072
317,881	288,619	-0,081	-0,101
318,895	800,000	-0,108	-0,229
319,910	63,778	-0,191	-0,132
320,925	212,001	-0,152	-0,165
321,939	-65,611	-0,192	-0,053
322,954	-200,000	-0,009	-0,139
323,968	127,168	-0,047	-0,041
324,983	800,000	-0,091	-0,176
325,997	-89,628	-0,109	0,022
327,012	63,214	-0,103	-0,071
328,027	207,206	-0,132	-0,142
329,041	312,791	-0,094	-0,121
330,056	0,030	-0,192	-0,094
331,070	-70,007	-0,112	-0,029
332,085	-200,000	0,026	-0,080
333,100	456,825	-0,023	-0,036
334,114	401,090	-0,167	-0,241
335,129	188,675	-0,148	-0,152
336,143	112,610	-0,307	-0,255
337,158	381,810	-0,114	-0,161
338,173	134,765	-0,129	-0,115
339,187	637,803	0,020	-0,035
340,202	97,172	-0,089	0,070
341,216	2,776	-0,192	-0,095
342,231	-8,100	-0,229	-0,106
343,246	721,559	-0,092	-0,169
344,260	-22,065	-0,198	-0,082
345,275	776,708	-0,107	-0,202
346,289	-21,489	-0,080	0,033
347,304	-73,865	-0,095	-0,023
348,319	0,264	-0,084	-0,041
349,333	259,964	-0,162	-0,192
350,348	208,507	-0,185	-0,199
351,362	66,801	-0,181	-0,126
352,377	53,173	-0,109	0,071
353,392	437,553	-0,144	-0,216
354,406	63,448	-0,118	-0,081
355,421	208,376	1315,519	1412,617
356,435	160,335	1476,336	1413,115
