DTS Sentinel unit serial number:	SN410029Multiplexer serial number:	ORYXHardware model number:	OX2-SRSoftware version number:	ORYX F/W v4,00 Oryx Data Collector v3.7.2.0data status	okinstallation	B3 Nyhavnadifferential loss correction	single-endedforward channel	channel 1reverse channel	N/Adate	2023/12/03time	17:02:30forward acquisition time	300,00reverse acquisition time	0,00gamma	499,1914k internal	0,3197k external	0,3197temperature offset calibration	1,0000default loss term (dB/km)	0,3820temperature slope calibration	1,0000multiplexer offset coefficient	1,0000multiplexer slope coefficient	1,0000fibre end	0,00T internal ref (°C)	15,12T ext. ref 1 (°C)	-0,35T ext. ref 2 (°C)	-0,37length (m)	temperature (°C)	Stokes	anti-Stokes-744,400	148,690	-0,168	-0,165
-743,385	-200,000	0,072	0,359
-742,371	-52,224	-0,166	-0,056
-741,356	-200,000	-0,086	0,313
-740,342	162,923	-0,289	-0,295
-739,327	800,000	0,126	0,299
-738,312	222,297	-0,253	-0,297
-737,298	-200,000	0,002	0,254
-736,283	800,000	-0,070	-0,220
-735,269	-200,000	-0,040	0,328
-734,254	184,882	-0,262	-0,284
-733,239	60,975	-0,223	0,161
-732,225	585,619	-0,119	-0,213
-731,210	800,000	0,073	0,177
-730,196	-123,512	-0,065	0,007
-729,181	-200,000	-0,010	-0,040
-728,167	800,000	-0,032	-0,078
-727,152	55,736	0,096	-0,068
-726,137	373,122	-0,109	0,161
-725,123	-100,646	0,049	-0,009
-724,108	800,000	-0,044	-0,138
-723,094	-155,170	-0,051	-0,002
-722,079	103,377	-0,049	-0,042
-721,064	-79,126	0,107	0,026
-720,050	87,409	-0,094	-0,076
-719,035	-200,000	0,001	-0,016
-718,021	289,803	-0,068	-0,091
-717,006	205,643	-0,007	-0,008
-715,991	-119,609	-0,111	-0,014
-714,977	-86,203	-0,105	0,023
-713,962	800,000	-0,035	-0,102
-712,948	-38,222	0,006	0,002
-711,933	84,903	-0,056	0,045
-710,918	218,818	-0,087	0,102
-709,904	-200,000	-0,006	-0,111
-708,889	121,605	0,054	-0,049
-707,875	-61,794	0,119	0,036
-706,860	-200,000	0,011	-0,075
-705,845	138,286	0,062	-0,059
-704,831	-200,000	-0,016	0,182
-703,816	82,322	-0,017	0,013
-702,802	-129,450	-0,047	-0,005
-701,787	105,888	-0,056	-0,048
-700,772	800,000	-0,029	-0,089
-699,758	-96,061	-0,131	0,025
-698,743	-200,000	-0,021	0,112
-697,729	31,910	-0,025	0,016
-696,714	-83,036	-0,052	0,012
-695,699	800,000	-0,004	-0,010
-694,685	126,500	-0,134	-0,123
-693,670	-200,000	0,003	-0,113
-692,656	-72,969	-0,109	0,029
-691,641	47,914	0,047	-0,032
-690,627	37,275	-0,156	0,100
-689,612	800,000	-0,052	-0,105
-688,597	-126,572	-0,083	-0,009
-687,583	-76,763	-0,061	0,015
-686,568	-143,351	0,063	-0,004
-685,554	-102,687	-0,152	-0,026
-684,539	-112,156	-0,096	-0,014
-683,524	321,670	-0,044	0,061
-682,510	131,211	-0,036	0,033
-681,495	800,000	-0,050	0,122
-680,481	800,000	0,013	-0,034
-679,466	-2,851	-0,104	-0,053
-678,451	800,000	0,034	-0,104
-677,437	800,000	-0,040	0,105
-676,422	800,000	0,059	0,135
-675,408	-7,238	0,110	-0,054
-674,393	21,697	-0,169	-0,100
-673,378	176,965	-0,106	0,112
-672,364	26,932	-0,134	-0,082
-671,349	-58,917	-0,081	0,025
-670,335	381,308	-0,077	-0,116
-669,320	4,988	0,082	0,044
-668,305	800,000	0,035	-0,096
-667,291	261,655	-0,080	-0,101
-666,276	97,787	-0,115	-0,096
-665,262	-200,000	-0,020	-0,104
-664,247	800,000	0,007	0,024
-663,232	86,181	0,023	0,018
-662,218	319,252	0,037	0,051
-661,203	105,669	-0,124	0,106
-660,189	231,804	0,036	0,044
-659,174	60,208	-0,073	0,052
-658,159	460,597	-0,068	-0,111
-657,145	-200,000	-0,037	-0,203
-656,130	-200,000	-0,011	-0,218
-655,116	-200,000	-0,011	-0,182
-654,101	-200,000	0,016	0,104
-653,086	-170,117	0,050	0,001
-652,072	-2,215	0,057	0,029
-651,057	800,000	0,030	0,066
-650,043	-200,000	-0,025	-0,120
-649,028	-127,345	0,048	0,005
-648,014	244,098	0,085	0,104
-646,999	21,265	0,010	-0,006
-645,984	-123,487	-0,181	-0,021
-644,970	-105,147	-0,089	0,015
-643,955	267,007	-0,125	-0,159
-642,941	662,706	-0,094	-0,177
-641,926	-53,937	-0,058	-0,019
-640,911	-200,000	0,004	0,061
-639,897	800,000	-0,074	0,159
-638,882	39,064	0,031	-0,020
-637,868	500,414	-0,031	-0,052
-636,853	18,342	-0,082	-0,048
-635,838	204,334	-0,034	-0,038
-634,824	800,000	0,016	-0,048
-633,809	357,836	-0,048	-0,069
-632,795	-200,000	0,013	0,187
-631,780	510,425	-0,076	0,129
-630,765	205,048	-0,054	-0,061
-629,751	49,006	-0,050	-0,034
-628,736	367,508	-0,092	-0,136
-627,722	-77,306	-0,095	0,024
-626,707	800,000	-0,024	0,063
-625,692	-200,000	0,007	-0,106
-624,678	-35,574	-0,088	-0,035
-623,663	22,871	0,076	0,045
-622,649	-68,452	-0,147	-0,041
-621,634	297,516	0,076	-0,101
-620,619	-200,000	0,035	-0,121
-619,605	-181,324	-0,109	-0,002
-618,590	-200,000	-0,008	0,141
-617,576	-27,944	0,046	0,019
-616,561	145,671	-0,068	-0,066
-615,546	199,967	0,092	-0,103
-614,532	241,753	-0,126	-0,152
-613,517	517,465	-0,070	-0,119
-612,503	-110,352	-0,077	0,012
-611,488	-10,354	0,101	0,048
-610,474	609,727	0,092	0,167
-609,459	85,176	-0,032	0,025
-608,444	14,388	-0,138	0,078
-607,430	-200,000	-0,008	0,078
-606,415	227,509	0,066	-0,078
-605,401	800,000	0,067	0,140
-604,386	695,621	-0,042	0,080
-603,371	-200,000	0,005	0,081
-602,357	114,645	0,070	0,062
-601,342	171,759	0,082	-0,085
-600,328	169,880	-0,099	-0,102
-599,313	-69,704	-0,295	0,081
-598,298	292,257	0,084	-0,111
-597,284	800,000	-0,013	0,036
-596,269	-59,056	-0,031	-0,010
-595,255	-200,000	-0,034	-0,179
-594,240	800,000	-0,061	-0,154
-593,225	-200,000	-0,008	-0,058
-592,211	-44,786	0,054	-0,020
-591,196	-200,000	-0,031	-0,128
-590,182	-131,932	-0,093	-0,009
-589,167	-108,340	0,139	0,021
-588,152	58,810	-0,028	0,020
-587,138	-129,441	-0,058	0,006
-586,123	-14,119	-0,014	-0,006
-585,109	430,086	-0,053	-0,083
-584,094	800,000	-0,062	0,126
-583,079	169,925	0,076	0,079
-582,065	800,000	0,033	0,075
-581,050	800,000	-0,021	-0,056
-580,036	66,677	0,068	-0,050
-579,021	-200,000	0,003	-0,024
-578,006	168,205	0,035	0,036
-576,992	144,057	-0,075	-0,072
-575,977	-87,537	0,098	-0,021
-574,963	-200,000	0,020	0,107
-573,948	773,282	-0,047	0,093
-572,934	-70,515	-0,108	-0,029
-571,919	309,152	-0,041	-0,056
-570,904	218,540	-0,131	-0,152
-569,890	12,786	-0,073	-0,041
-568,875	-101,603	-0,073	0,013
-567,861	800,000	-0,039	-0,087
-566,846	234,261	0,075	0,090
-565,831	-26,444	-0,066	-0,028
-564,817	-200,000	-0,008	-0,035
-563,802	-200,000	-0,010	-0,107
-562,788	-58,886	-0,116	0,036
-561,773	-76,337	-0,160	-0,040
-560,758	79,238	0,009	-0,007
-559,744	-11,182	-0,051	0,024
-558,729	144,808	0,051	-0,050
-557,715	-200,000	-0,008	0,204
-556,700	-200,000	-0,004	0,223
-555,685	67,937	-0,129	-0,095
-554,671	681,006	0,081	0,154
-553,656	-38,705	0,104	0,039
-552,642	800,000	-0,014	-0,031
-551,627	-200,000	-0,014	-0,080
-550,612	124,672	0,057	-0,052
-549,598	-11,370	-0,184	0,087
-548,583	-129,285	-0,152	0,015
-547,569	218,448	0,140	-0,162
-546,554	-125,871	0,057	0,006
-545,539	-14,986	0,035	0,016
-544,525	386,707	0,083	-0,124
-543,510	-200,000	-0,008	-0,050
-542,496	-44,952	0,072	-0,026
-541,481	-200,000	-0,018	0,061
-540,466	64,222	0,092	0,067
-539,452	98,192	0,061	-0,050
-538,437	-200,000	-0,018	0,110
-537,423	-10,030	0,083	-0,040
-536,408	-200,000	0,010	-0,032
-535,393	800,000	-0,028	-0,077
-534,379	290,986	-0,016	0,021
-533,364	17,797	-0,100	-0,057
-532,350	-142,267	0,223	-0,016
-531,335	-200,000	-0,012	0,187
-530,321	-34,603	0,040	0,016
-529,306	-41,059	-0,085	0,032
-528,291	800,000	0,017	-0,046
-527,277	-12,369	0,136	0,064
-526,262	-26,899	-0,019	-0,008
-525,248	7,919	0,147	-0,079
-524,233	84,493	0,051	0,040
-523,218	-168,825	0,039	0,001
-522,204	237,038	-0,011	0,013
-521,189	-74,229	-0,061	0,016
-520,175	-45,580	-0,137	-0,049
-519,160	-55,954	-0,046	0,015
-518,145	800,000	-0,019	0,044
-517,131	186,875	0,110	0,118
-516,116	188,642	0,069	0,075
-515,102	800,000	0,039	-0,110
-514,087	281,227	-0,052	-0,068
-513,072	752,845	0,025	0,050
-512,058	800,000	0,037	-0,084
-511,043	-187,002	-0,214	-0,002
-510,029	634,142	-0,049	0,090
-509,014	567,330	0,048	0,085
-507,999	-136,701	-0,138	-0,011
-506,985	-54,472	-0,028	-0,009
-505,970	-200,000	-0,008	0,123
-504,956	71,727	0,061	0,046
-503,941	249,767	0,010	0,012
-502,926	-90,098	0,116	-0,024
-501,912	139,040	0,063	0,060
-500,897	184,206	-0,034	-0,037
-499,883	-200,000	0,056	-0,212
-498,868	-84,271	-0,074	-0,017
-497,853	643,076	-0,059	-0,109
-496,839	12,458	0,037	-0,021
-495,824	167,596	0,034	-0,035
-494,810	-200,000	-0,047	0,186
-493,795	-101,436	0,118	-0,021
-492,781	-200,000	-0,025	0,138
-491,766	17,156	0,041	-0,023
-490,751	219,140	-0,059	-0,068
-489,737	800,000	-0,033	-0,089
-488,722	800,000	0,026	0,080
-487,708	-200,000	0,016	0,067
-486,693	236,038	0,048	-0,057
-485,678	-200,000	0,009	-0,033
-484,664	-200,000	0,021	0,096
-483,649	800,000	-0,078	-0,188
-482,635	-14,602	0,019	-0,009
-481,620	89,194	-0,065	0,052
-480,605	-200,000	-0,044	0,232
-479,591	379,721	-0,083	-0,124
-478,576	15,121	-0,019	-0,011
-477,562	-121,554	-0,230	-0,027
-476,547	800,000	-0,056	-0,114
-475,532	-54,797	0,216	-0,070
-474,518	357,113	0,079	0,114
-473,503	800,000	-0,026	-0,058
-472,489	-200,000	0,029	0,100
-471,474	28,545	0,064	-0,039
-470,459	-200,000	0,000	0,040
-469,445	170,339	0,143	-0,147
-468,430	454,815	-0,027	0,043
-467,416	-200,000	-0,023	-0,093
-466,401	337,268	0,044	0,061
-465,386	147,073	0,056	-0,054
-464,372	800,000	0,025	-0,078
-463,357	151,782	-0,025	0,025
-462,343	626,538	0,017	-0,032
-461,328	216,410	0,070	-0,080
-460,313	155,264	-0,115	-0,114
-459,299	22,407	0,061	0,036
-458,284	708,803	0,012	0,023
-457,270	800,000	0,048	0,109
-456,255	391,652	0,055	0,082
-455,241	-70,225	-0,105	-0,029
-454,226	800,000	-0,007	-0,021
-453,211	-200,000	-0,002	0,013
-452,197	-123,522	-0,089	0,010
-451,182	800,000	0,065	-0,142
-450,168	13,424	0,097	-0,054
-449,153	800,000	-0,040	0,082
-448,138	-200,000	0,053	-0,205
-447,124	34,032	0,100	-0,062
-446,109	-87,090	0,132	-0,029
-445,095	-3,718	-0,101	0,050
-444,080	-111,307	-0,133	0,019
-443,065	800,000	-0,045	0,107
-442,051	1,217	-0,216	0,111
-441,036	20,854	-0,082	0,048
-440,022	-36,529	0,196	0,076
-439,007	69,791	0,021	0,016
-437,992	-31,730	0,059	-0,024
-436,978	2,719	-0,115	0,060
-435,963	-111,354	0,042	0,006
-434,949	43,139	0,042	0,027
-433,934	411,213	-0,087	-0,133
-432,919	-41,871	0,159	-0,058
-431,905	779,929	0,008	0,016
-430,890	-200,000	0,015	0,204
-429,876	-55,731	0,095	-0,030
-428,861	394,998	0,026	0,039
-427,846	800,000	0,039	-0,112
-426,832	800,000	0,060	0,141
-425,817	-106,421	-0,167	-0,026
-424,803	-200,000	0,027	0,162
-423,788	-145,982	0,139	0,009
-422,773	-92,073	0,130	-0,026
-421,759	-200,000	0,020	0,089
-420,744	-117,923	0,059	0,008
-419,730	-200,000	0,008	-0,049
-418,715	130,229	-0,082	-0,075
-417,701	277,849	-0,024	-0,031
-416,686	800,000	-0,029	0,069
-415,671	11,600	-0,057	-0,031
-414,657	173,865	-0,047	0,048
-413,642	756,234	0,040	-0,079
-412,628	7,549	0,070	0,038
-411,613	-70,933	-0,112	0,030
-410,598	236,895	-0,121	0,144
-409,584	698,146	0,017	-0,033
-408,569	314,551	-0,024	-0,033
-407,555	89,257	0,109	-0,087
-406,540	-200,000	0,020	0,133
-405,525	213,294	0,067	0,076
-404,511	-80,658	0,086	-0,020
-403,496	800,000	0,024	-0,070
-402,482	-146,540	0,058	0,004
-401,467	799,371	-0,023	0,046
-400,452	419,521	0,033	0,051
-399,438	636,835	-0,035	-0,064
-398,423	-200,000	0,032	-0,103
-397,409	129,965	-0,070	0,065
-396,394	307,583	-0,085	-0,114
-395,379	-147,899	0,164	0,010
-394,365	92,666	0,118	-0,096
-393,350	45,430	0,064	-0,042
-392,336	-200,000	0,000	0,037
-391,321	-134,222	0,077	-0,007
-390,306	-200,000	-0,015	-0,072
-389,292	493,318	0,022	0,037
-388,277	800,000	-0,027	0,072
-387,263	675,826	0,026	-0,048
-386,248	-200,000	-0,028	0,145
-385,233	-27,238	0,104	-0,043
-384,219	-31,159	-0,092	-0,037
-383,204	101,480	0,024	-0,020
-382,190	52,488	0,044	-0,030
-381,175	215,626	0,062	0,071
-380,160	800,000	0,028	0,086
-379,146	60,107	-0,138	-0,098
-378,131	213,464	0,016	0,018
-377,117	-200,000	-0,009	-0,169
-376,102	455,966	-0,035	-0,056
-375,088	-28,516	-0,103	0,042
-374,073	-200,000	-0,025	0,103
-373,058	266,048	0,116	0,145
-372,044	162,119	0,121	-0,122
-371,029	800,000	-0,013	0,041
-370,015	-200,000	-0,007	0,109
-369,000	-87,816	0,054	0,012
-367,985	159,768	-0,031	-0,031
-366,971	800,000	0,076	-0,176
-365,956	-10,485	-0,023	0,011
-364,942	165,021	0,133	0,135
-363,927	53,380	0,072	0,049
-362,912	542,060	0,096	0,164
-361,898	-51,294	0,105	-0,035
-360,883	-87,111	0,151	0,033
-359,869	418,275	-0,023	0,036
-358,854	281,620	0,050	0,064
-357,839	192,952	0,046	0,050
-356,825	58,932	0,049	-0,035
-355,810	-117,660	-0,041	0,005
-354,796	800,000	0,027	-0,083
-353,781	281,775	0,054	-0,070
-352,766	-200,000	0,018	-0,237
-351,752	-92,364	-0,075	0,015
-350,737	280,685	0,020	0,026
-349,723	-121,411	-0,026	0,003
-348,708	529,660	-0,012	0,020
-347,693	-127,875	0,103	-0,010
-346,679	205,659	-0,054	-0,060
-345,664	-200,000	-0,003	-0,018
-344,650	800,000	0,068	0,171
-343,635	800,000	0,053	0,145
-342,620	-73,198	-0,065	0,017
-341,606	-29,740	0,100	0,041
-340,591	603,238	-0,058	0,103
-339,577	81,665	-0,016	-0,013
-338,562	752,863	-0,046	-0,089
-337,548	63,468	-0,079	0,057
-336,533	-200,000	-0,047	0,000
-335,518	800,000	0,054	0,122
-334,504	271,831	-0,067	0,085
-333,489	-26,403	-0,077	-0,032
-332,475	26,484	0,078	0,046
-331,460	-120,308	0,049	0,006
-330,445	-40,595	0,163	0,060
-329,431	-200,000	0,029	0,098
-328,416	-200,000	0,002	-0,026
-327,402	140,946	-0,099	-0,093
-326,387	-40,401	0,070	0,026
-325,372	-156,895	0,092	0,004
-324,358	270,297	0,014	0,018
-323,343	-27,375	-0,159	-0,066
-322,329	-200,000	0,006	-0,026
-321,314	800,000	0,037	0,113
-320,299	800,000	-0,029	-0,079
-319,285	-127,242	0,157	-0,016
-318,270	-98,764	-0,020	0,004
-317,256	-200,000	-0,033	-0,136
-316,241	800,000	0,022	-0,066
-315,226	769,701	0,060	-0,117
-314,212	-4,149	-0,092	0,045
-313,197	-200,000	-0,003	0,035
-312,183	-62,568	0,150	-0,044
-311,168	-15,834	-0,110	0,050
-310,153	496,657	-0,030	-0,049
-309,139	24,770	0,104	-0,062
-308,124	-200,000	-0,041	0,146
-307,110	-200,000	0,015	-0,053
-306,095	649,252	0,090	-0,165
-305,080	208,432	0,105	-0,117
-304,066	22,577	-0,167	0,098
-303,051	-200,000	-0,031	0,146
-302,037	-200,000	0,021	0,093
-301,022	24,348	0,129	-0,076
-300,008	800,000	-0,056	0,160
-298,993	-200,000	0,035	0,154
-297,978	95,018	0,041	0,033
-296,964	133,909	0,054	-0,050
-295,949	-85,044	0,114	0,025
-294,935	800,000	0,026	-0,067
-293,920	-145,430	-0,102	0,006
-292,905	44,967	0,090	-0,059
-291,891	800,000	-0,027	0,070
-290,876	-8,567	-0,114	-0,055
-289,862	502,292	0,045	0,074
-288,847	-28,476	0,073	0,030
-287,832	-200,000	-0,014	-0,079
-286,818	-200,000	-0,021	-0,114
-285,803	800,000	-0,008	-0,023
-284,789	-200,000	0,044	0,152
-283,774	74,703	0,041	0,031
-282,759	-45,920	0,048	-0,017
-281,745	47,623	-0,091	-0,061
-280,730	317,646	0,043	-0,059
-279,716	-200,000	-0,018	-0,076
-278,701	221,763	0,033	0,038
-277,686	222,699	0,083	0,096
-276,672	-146,457	-0,075	0,005
-275,657	-200,000	-0,000	-0,125
-274,643	-200,000	0,023	-0,136
-273,628	464,190	0,145	-0,232
-272,613	252,440	0,110	-0,134
-271,599	-200,000	-0,003	-0,047
-270,584	-89,812	-0,054	-0,011
-269,570	399,216	-0,074	-0,110
-268,555	-200,000	0,002	-0,104
-267,540	351,926	0,064	-0,091
-266,526	-200,000	-0,008	-0,061
-265,511	800,000	-0,004	-0,011
-264,497	800,000	0,020	0,055
-263,482	800,000	0,058	0,118
-262,467	56,511	0,030	-0,021
-261,453	-93,026	0,029	-0,006
-260,438	56,717	-0,073	0,051
-259,424	-200,000	-0,005	-0,067
-258,409	-200,000	0,010	0,033
-257,395	176,475	0,039	0,040
-256,380	46,801	0,109	0,072
-255,365	-185,809	0,080	0,001
-254,351	-110,943	-0,066	-0,010
-253,336	-85,333	0,102	0,023
-252,322	-200,000	0,000	-0,028
-251,307	-21,781	-0,123	-0,053
-250,292	310,086	-0,079	0,106
-249,278	317,708	0,118	0,160
-248,263	39,821	-0,130	-0,083
-247,249	7,309	-0,084	-0,045
-246,234	-85,690	-0,052	0,011
-245,219	-40,199	-0,202	-0,075
-244,205	-143,642	-0,138	-0,009
-243,190	-200,000	-0,017	0,106
-242,176	800,000	0,036	0,086
-241,161	21,867	0,057	0,033
-240,146	-81,843	0,138	-0,032
-239,132	-200,000	-0,014	-0,220
-238,117	85,522	-0,055	-0,043
-237,103	-15,720	0,086	-0,039
-236,088	599,867	0,023	0,042
-235,073	23,573	0,033	0,019
-234,059	83,776	0,039	-0,030
-233,044	-148,908	-0,053	0,003
-232,030	-81,010	0,129	0,030
-231,015	800,000	0,031	0,084
-230,000	-200,000	0,000	0,016
-228,986	732,630	0,026	0,050
-227,971	-200,000	-0,013	0,097
-226,957	195,275	0,087	0,095
-225,942	-84,405	0,042	0,009
-224,927	-200,000	-0,042	-0,182
-223,913	800,000	-0,051	-0,127
-222,898	173,940	-0,148	-0,153
-221,884	-90,535	-0,098	-0,020
-220,869	-200,000	-0,041	0,180
-219,855	191,885	0,074	-0,079
-218,840	67,627	0,053	0,038
-217,825	800,000	-0,045	0,127
-216,811	-200,000	0,005	-0,079
-215,796	94,132	-0,068	-0,055
-214,782	503,463	-0,048	-0,080
-213,767	-57,627	-0,072	0,022
-212,752	239,197	0,056	-0,067
-211,738	-45,638	0,057	0,020
-210,723	201,726	-0,105	0,115
-209,709	-200,000	0,030	0,175
-208,694	158,532	-0,052	0,051
-207,679	40,257	-0,029	0,019
-206,665	-200,000	0,045	-0,144
-205,650	110,267	0,052	0,044
-204,636	5,312	-0,099	-0,052
-203,621	-200,000	-0,009	0,057
-202,606	306,129	0,049	-0,066
-201,592	-126,818	-0,151	-0,016
-200,577	-16,598	0,112	0,050
-199,563	133,523	-0,049	0,045
-198,548	255,438	0,054	0,066
-197,533	-136,937	-0,158	0,013
-196,519	-96,952	-0,085	0,016
-195,504	-200,000	0,009	-0,097
-194,490	-142,954	-0,163	0,011
-193,475	-200,000	0,013	-0,173
-192,460	-123,418	0,086	-0,010
-191,446	56,402	0,089	0,062
-190,431	-200,000	-0,017	0,059
-189,417	-46,186	0,058	0,020
-188,402	205,821	0,090	0,100
-187,387	-134,306	-0,086	-0,007
-186,373	-200,000	0,039	-0,139
-185,358	303,160	-0,065	-0,086
-184,344	31,793	-0,062	-0,038
-183,329	76,968	-0,042	-0,032
-182,315	85,430	0,106	0,083
-181,300	-124,513	-0,115	-0,013
-180,285	631,233	0,067	-0,122
-179,271	529,554	0,028	0,048
-178,256	44,983	-0,043	0,028
-177,242	800,000	-0,031	0,085
-176,227	565,554	0,024	-0,041
-175,212	800,000	-0,056	0,112
-174,198	209,483	-0,090	0,101
-173,183	129,515	-0,042	-0,038
-172,169	138,988	-0,030	0,028
-171,154	-119,644	-0,225	0,027
-170,139	642,530	-0,087	0,158
-169,125	-104,571	-0,021	-0,003
-168,110	327,127	-0,123	0,169
-167,096	209,540	0,084	0,093
-166,081	-200,000	0,001	0,073
-165,066	222,072	0,054	-0,062
-164,052	714,720	0,020	-0,038
-163,037	620,430	0,050	0,089
-162,023	151,239	-0,111	0,107
-161,008	16,165	0,130	-0,073
-159,993	-138,987	-0,049	-0,004
-158,979	-200,000	0,020	0,141
-157,964	-200,000	-0,019	-0,091
-156,950	-200,000	-0,003	0,082
-155,935	-51,561	0,122	0,040
-154,920	791,422	0,018	-0,035
-153,906	353,074	0,073	0,103
-152,891	-200,000	-0,016	-0,152
-151,877	614,114	0,042	-0,076
-150,862	672,549	0,091	-0,168
-149,847	127,487	-0,053	-0,048
-148,833	800,000	-0,010	0,021
-147,818	54,056	0,087	0,060
-146,804	208,431	0,042	-0,047
-145,789	9,277	-0,134	-0,072
-144,775	-26,963	0,078	-0,032
-143,760	-123,840	0,083	-0,009
-142,745	800,000	0,062	-0,173
-141,731	800,000	-0,014	0,032
-140,716	414,857	-0,073	-0,111
-139,702	-26,033	0,087	0,036
-138,687	9,237	0,069	0,037
-137,672	3,202	-0,132	0,068
-136,658	-114,996	-0,136	0,018
-135,643	-200,000	0,007	0,073
-134,629	182,256	-0,068	-0,072
-133,614	-200,000	-0,005	0,091
-132,599	-200,000	-0,015	0,093
-131,585	-145,190	-0,091	-0,006
-130,570	-169,457	0,118	0,003
-129,556	-124,502	-0,012	-0,001
-128,541	703,673	-0,035	0,066
-127,526	94,649	-0,090	-0,073
-126,512	389,675	-0,071	0,105
-125,497	-31,156	0,088	0,035
-124,483	-27,625	0,093	0,038
-123,468	-5,478	0,102	0,049
-122,453	255,714	0,056	-0,068
-121,439	-28,861	-0,095	-0,038
-120,424	-28,382	0,060	0,025
-119,410	274,942	-0,011	0,013
-118,395	-88,764	0,025	0,005
-117,380	-200,000	0,005	-0,068
-116,366	800,000	0,015	-0,044
-115,351	800,000	-0,030	-0,089
-114,337	800,000	-0,013	0,034
-113,322	-85,353	-0,044	0,010
-112,307	-94,112	0,171	0,033
-111,293	170,564	-0,068	0,069
-110,278	-44,371	-0,094	0,033
-109,264	116,543	0,079	-0,069
-108,249	800,000	0,016	0,048
-107,234	-200,000	0,003	-0,020
-106,220	800,000	0,052	0,113
-105,205	129,901	0,056	0,051
-104,191	-81,281	0,122	0,028
-103,176	99,248	0,122	0,100
-102,162	-200,000	0,020	0,084
-101,147	158,111	-0,048	0,047
-100,132	87,258	0,133	-0,104
-99,118	-89,748	0,076	-0,016
-98,103	227,278	-0,037	-0,043
-97,089	-142,848	0,045	-0,003
-96,074	138,595	-0,013	0,012
-95,059	-140,315	0,053	0,004
-94,045	800,000	0,034	-0,092
-93,030	-116,217	-0,268	0,035
-92,016	-80,472	0,137	-0,032
-91,001	-111,985	-0,052	-0,007
-89,986	22,289	0,046	-0,027
-88,972	-59,220	0,074	-0,023
-87,957	-90,167	-0,061	-0,012
-86,943	-200,000	-0,017	0,123
-85,928	800,000	-0,063	-0,159
-84,913	38,178	-0,039	0,025
-83,899	371,860	0,026	-0,038
-82,884	-200,000	0,005	0,187
-81,870	-90,275	0,117	0,024
-80,855	48,592	-0,068	0,045
-79,840	46,692	0,041	0,027
-78,826	264,340	-0,011	-0,014
-77,811	24,689	-0,025	-0,014
-76,797	-51,956	0,085	-0,028
-75,782	800,000	0,035	0,107
-74,767	-164,340	0,140	-0,004
-73,753	728,721	0,019	0,036
-72,738	98,604	-0,091	-0,074
-71,724	468,878	-0,057	-0,091
-70,709	534,334	-0,058	-0,098
-69,694	-200,000	-0,016	-0,050
-68,680	-10,619	-0,098	-0,046
-67,665	-114,272	0,029	0,004
-66,651	56,705	0,044	0,030
-65,636	-200,000	-0,000	0,004
-64,622	-200,000	0,002	-0,074
-63,607	-7,616	-0,041	-0,020
-62,592	-87,894	-0,121	0,026
-61,578	212,022	-0,016	0,018
-60,563	-12,644	-0,027	0,012
-59,549	329,682	0,042	0,058
-58,534	-58,680	-1,537	-0,469
-57,519	338,351	-1,553	-2,149
-56,505	-200,000	-0,457	-4,441
-55,490	168,030	1,137	1,147
-54,476	800,000	4,661	10,957
-53,461	-200,000	18,199	287,664
-52,446	800,000	727,509	2228,293
-51,432	555,399	1643,473	2815,152
-50,417	79,351	1664,968	1264,043
-49,403	22,932	1538,844	891,947
-48,388	16,937	1462,157	818,447
-47,373	17,949	1452,078	817,650
-46,359	17,371	1442,428	809,416
-45,344	15,275	1437,891	796,830
-44,330	15,206	1435,781	795,295
-43,315	15,150	1434,119	794,079
-42,300	15,194	1432,552	793,386
-41,286	15,203	1431,366	792,744
-40,271	15,215	1430,006	792,017
-39,257	15,187	1429,004	791,296
-38,242	15,271	1427,276	790,707
-37,227	15,220	1426,364	789,929
-36,213	15,220	1424,986	789,132
-35,198	15,253	1423,740	788,568
-34,184	15,259	1422,955	788,129
-33,169	15,184	1421,859	787,138
-32,154	15,192	1420,724	786,516
-31,140	15,226	1419,367	785,892
-30,125	15,280	1418,156	785,444
-29,111	15,233	1417,102	784,611
-28,096	15,222	1415,820	783,817
-27,082	15,175	1414,849	783,027
-26,067	15,135	1413,910	782,289
-25,052	15,174	1412,631	781,735
-24,038	15,095	1411,897	780,928
-23,023	15,129	1410,748	780,419
-22,009	15,129	1409,584	779,743
-20,994	15,084	1408,837	779,090
-19,979	15,095	1407,865	778,573
-18,965	15,114	1406,893	778,091
-17,950	15,088	1405,882	777,380
-16,936	15,094	1405,037	776,912
-15,921	15,038	1403,887	775,982
-14,906	15,041	1402,956	775,449
-13,892	15,029	1402,190	774,943
-12,877	15,019	1401,157	774,291
-11,863	15,030	1400,160	773,761
-10,848	15,010	1399,470	773,258
-9,833	15,026	1398,468	772,748
-8,819	14,951	1397,599	771,890
-7,804	14,955	1396,650	771,353
-6,790	14,963	1395,568	770,761
-5,775	14,960	1394,825	770,306
-4,760	14,958	1393,729	769,663
-3,746	14,940	1392,934	769,110
-2,731	14,951	1392,022	768,623
-1,717	14,956	1391,083	768,097
-0,702	14,954	1389,392	767,125
0,313	18,722	1308,671	740,019
1,327	35,049	707,246	437,818
2,342	53,730	124,896	84,807
3,356	1,012	16,702	8,454
4,371	2,980	3,130	1,605
5,386	50,240	0,487	0,325
6,400	-200,000	-0,016	0,141
7,415	800,000	-0,119	-0,342
8,429	134,940	-0,313	-0,288
9,444	120,621	-0,288	-0,253
10,459	149,706	-0,258	-0,248
11,473	55,748	-0,294	-0,201
12,488	-56,764	-0,342	-0,106
13,502	90,791	-0,291	-0,231
14,517	202,222	-0,315	-0,344
15,531	523,581	-0,246	-0,410
16,546	-12,277	-0,426	-0,196
17,561	12,944	-0,459	-0,250
18,575	-104,658	-0,184	-0,030
19,590	271,560	-0,244	-0,305
20,604	24,908	-0,281	-0,164
21,619	78,451	-0,375	-0,283
22,634	74,462	-0,462	-0,343
23,648	5,993	-0,567	-0,296
24,663	66,501	-0,541	-0,389
25,677	154,386	-0,316	-0,307
26,692	-40,196	-0,349	-0,128
27,707	8,749	-0,356	-0,189
28,721	11,209	-0,416	-0,224
29,736	159,204	-0,324	-0,318
30,750	14,870	-0,417	-0,230
31,765	122,840	-0,265	-0,235
32,780	136,392	-0,308	-0,284
33,794	-22,660	-0,405	-0,172
34,809	168,735	-0,297	-0,299
35,823	125,944	-0,316	-0,282
36,838	1,828	-0,524	-0,266
37,853	60,355	-0,336	-0,234
38,867	344,966	-0,309	-0,430
39,882	99,250	-0,313	-0,255
40,896	314,970	-0,233	-0,311
41,911	-64,424	-0,356	-0,101
42,926	-0,585	-0,307	-0,153
43,940	63,701	-0,454	-0,322
44,955	81,539	-0,410	-0,312
45,969	36,356	-0,292	-0,181
46,984	58,795	-0,329	-0,228
47,999	101,200	-0,244	-0,200
49,013	-45,505	-0,376	-0,131
50,028	36,053	-0,353	-0,219
51,042	76,235	-0,396	-0,295
52,057	98,457	-0,227	-0,184
53,071	22,410	-0,323	-0,186
54,086	238,035	-0,238	-0,279
55,101	71,239	-0,350	-0,256
56,115	-84,821	-0,490	-0,108
57,130	-18,096	-0,465	-0,204
58,144	305,758	-0,247	-0,325
59,159	130,718	-0,391	-0,353
60,174	95,108	-0,402	-0,322
61,188	85,742	-0,327	-0,253
62,203	107,947	-0,321	-0,269
63,217	-4,580	-0,363	-0,176
64,232	-61,766	-0,483	-0,142
65,247	61,942	-0,387	-0,271
66,261	18,734	-0,407	-0,229
67,276	163,113	-0,364	-0,361
68,290	-93,911	-0,352	-0,067
69,305	97,553	-0,249	-0,202
70,320	340,910	-0,107	-0,148
71,334	25,887	-0,238	-0,140
72,349	409,885	-0,227	-0,340
73,363	18,456	-0,295	-0,166
74,378	152,458	-0,252	-0,242
75,393	13,212	-0,332	-0,180
76,407	-110,455	-0,247	-0,036
77,422	-171,921	-0,266	-0,006
78,436	-24,513	-0,263	-0,110
79,451	-17,361	-0,309	-0,136
80,466	288,566	-0,177	-0,226
81,480	97,556	-0,258	-0,208
82,495	-34,688	-0,299	-0,114
83,509	0,115	-0,342	-0,171
84,524	406,902	-0,258	-0,385
85,539	-10,878	-0,337	-0,156
86,553	-150,414	-0,384	-0,020
87,568	-22,122	-0,293	-0,125
88,582	542,617	-0,169	-0,284
89,597	62,591	-0,336	-0,236
90,611	119,814	-0,361	-0,314
91,626	209,992	-0,167	-0,185
92,641	14,998	-0,242	-0,133
93,655	-26,541	-0,311	-0,127
94,670	26,315	-0,329	-0,193
95,684	3,856	-0,422	-0,216
96,699	112,110	-0,279	-0,237
97,714	541,697	-0,131	-0,219
98,728	-31,657	-0,351	-0,138
99,743	-102,104	-0,159	-0,027
100,757	137,508	-0,375	-0,345
101,772	26,401	-0,354	-0,207
102,787	279,786	-0,177	-0,222
103,801	174,343	-0,304	-0,309
104,816	26,039	-0,353	-0,206
105,830	308,776	-0,168	-0,220
106,845	4,859	-0,273	-0,141
107,860	72,475	-0,289	-0,211
108,874	21,930	-0,262	-0,150
109,889	-25,441	-0,345	-0,143
110,903	-6,572	-0,389	-0,185
111,918	-35,394	-0,288	-0,109
112,933	33,168	-0,107	-0,065
113,947	-6,836	-0,185	-0,088
114,962	529,703	-0,069	-0,115
115,976	-180,682	-0,334	-0,005
116,991	56,474	-0,239	-0,163
118,006	181,448	-0,310	-0,320
119,020	-108,357	-0,264	-0,040
120,035	-29,870	-0,224	-0,089
121,049	-4,025	-0,240	-0,116
122,064	335,715	-0,202	-0,276
123,079	-35,802	-0,354	-0,134
124,093	29,611	-0,229	-0,136
125,108	20,259	-0,340	-0,192
126,122	-10,705	-0,272	-0,125
127,137	169,998	-0,188	-0,188
128,151	-72,391	-0,314	-0,081
129,166	49,041	-0,245	-0,161
130,181	34,646	-0,203	-0,124
131,195	258,011	-0,213	-0,257
132,210	34,728	-0,252	-0,154
133,224	150,093	-0,188	-0,179
134,239	-55,039	-0,310	-0,097
135,254	-26,262	-0,249	-0,102
136,268	1,707	-0,142	-0,072
137,283	640,669	-0,109	-0,195
138,297	0,422	-0,397	-0,198
139,312	122,029	-0,339	-0,296
140,327	699,699	-0,230	-0,425
141,341	-11,480	-0,296	-0,136
142,356	36,745	-0,366	-0,226
143,370	123,757	-0,198	-0,173
144,385	16,871	-0,364	-0,201
145,400	200,482	-0,205	-0,221
146,414	-2,233	-0,320	-0,156
147,429	800,000	-0,154	-0,342
148,443	7,067	-0,256	-0,133
149,458	248,445	-0,190	-0,225
150,473	1,462	-0,193	-0,097
151,487	145,818	-0,276	-0,259
152,502	169,870	-0,238	-0,238
153,516	339,568	-0,223	-0,305
154,531	-2,943	-0,279	-0,136
155,546	101,116	-0,230	-0,187
156,560	27,279	-0,196	-0,115
157,575	221,312	-0,109	-0,123
158,589	144,764	-0,230	-0,215
159,604	160,276	-0,185	-0,180
160,619	78,309	-0,265	-0,198
161,633	104,243	-0,318	-0,261
162,648	577,317	-0,201	-0,345
163,662	190,928	-0,133	-0,140
164,677	87,637	-0,177	-0,137
165,692	284,633	-0,199	-0,251
166,706	15,122	-0,351	-0,192
167,721	72,828	-0,247	-0,180
168,735	57,550	-0,319	-0,217
169,750	62,019	-0,236	-0,164
170,764	298,463	-0,149	-0,192
171,779	360,338	-0,152	-0,213
172,794	89,038	-0,157	-0,122
173,808	212,754	-0,190	-0,209
174,823	212,833	-0,329	-0,363
175,837	72,682	-0,298	-0,217
176,852	57,501	-0,225	-0,153
177,867	65,463	-0,238	-0,168
178,881	141,463	-0,245	-0,226
179,896	36,302	-0,199	-0,122
180,910	138,447	-0,150	-0,138
181,925	-28,660	-0,308	-0,123
182,940	-2,840	-0,300	-0,146
183,954	104,980	-0,250	-0,205
184,969	163,134	-0,211	-0,207
185,983	-200,000	-0,042	-0,162
186,998	-34,232	-0,234	-0,089
188,013	-128,591	-0,170	0,017
189,027	790,572	-0,186	-0,357
190,042	-110,642	-0,321	-0,046
191,056	-70,685	-0,197	-0,052
192,071	184,987	-0,212	-0,219
193,086	36,626	-0,226	-0,139
194,100	72,281	-0,142	-0,103
195,115	275,390	-0,237	-0,294
196,129	-27,442	-0,313	-0,126
197,144	60,794	-0,198	-0,137
198,159	345,346	-0,228	-0,313
199,173	86,133	-0,190	-0,145
200,188	-200,000	-0,023	-0,122
201,202	-4,745	-0,218	-0,104
202,217	-103,533	-0,167	-0,027
203,232	91,911	-0,231	-0,181
204,246	158,387	-0,266	-0,257
205,261	59,959	-0,224	-0,154
206,275	645,512	-0,142	-0,254
207,290	122,713	-0,025	0,022
208,304	245,063	-0,158	-0,185
209,319	12,059	-0,225	-0,120
210,334	-57,109	-0,217	-0,066
211,348	-4,461	-0,277	-0,133
212,363	198,388	-0,121	-0,128
213,377	18,459	-0,080	-0,044
214,392	-105,778	-0,230	-0,036
215,407	-57,282	-0,229	-0,070
216,421	-142,206	-0,229	0,016
217,436	89,548	-0,146	-0,113
218,450	324,771	-0,193	-0,257
219,465	340,369	-0,130	-0,177
220,480	201,184	-0,111	-0,119
221,494	-16,769	-0,140	-0,061
222,509	-141,163	-0,239	0,017
223,523	-15,972	-0,204	-0,090
224,538	103,029	-0,178	-0,145
225,553	-49,913	-0,215	-0,070
226,567	577,885	-0,207	-0,354
227,582	241,060	-0,225	-0,261
228,596	100,007	-0,142	-0,114
229,611	29,170	-0,200	-0,118
230,626	49,633	-0,094	-0,061
231,640	-36,060	-0,222	-0,083
232,655	126,171	-0,238	-0,209
233,669	35,531	-0,253	-0,154
234,684	80,044	-0,243	-0,181
235,699	160,421	-0,061	0,059
236,713	-21,724	-0,078	-0,033
237,728	771,597	-0,112	-0,213
238,742	247,890	-0,129	-0,151
239,757	-140,672	-0,206	0,015
240,772	218,065	-0,103	-0,114
241,786	159,284	-0,210	-0,203
242,801	80,498	-0,331	-0,247
243,815	448,492	-0,082	-0,126
244,830	14,437	-0,135	-0,073
245,844	97,508	-0,301	-0,240
246,859	22,234	-0,129	-0,073
247,874	0,699	-0,142	-0,070
248,888	5,750	-0,155	-0,079
249,903	-53,574	-0,310	-0,098
250,917	24,521	-0,185	-0,106
251,932	144,906	-0,114	-0,106
252,947	39,389	-0,279	-0,173
253,961	128,658	-0,220	-0,194
254,976	-1,819	-0,177	-0,086
255,990	-86,552	-0,292	-0,062
257,005	58,418	-0,239	-0,162
258,020	27,211	-0,170	-0,099
259,034	94,974	-0,191	-0,150
260,049	235,692	-0,202	-0,232
261,063	800,000	-0,105	-0,245
262,078	457,138	-0,109	-0,169
263,093	-36,199	-0,233	-0,087
264,107	-0,717	-0,253	-0,124
265,122	49,396	-0,079	-0,052
266,136	148,602	-0,096	-0,089
267,151	308,196	-0,121	-0,157
268,166	187,267	-0,194	-0,200
269,180	54,956	-0,201	-0,134
270,195	-17,658	-0,190	-0,082
271,209	295,132	-0,116	-0,148
272,224	61,947	-0,196	-0,135
273,239	800,000	-0,049	-0,115
274,253	-44,778	-0,290	-0,099
275,268	60,272	-0,172	-0,118
276,282	227,227	-0,178	-0,201
277,297	28,035	-0,148	-0,086
278,312	800,000	-0,077	-0,150
279,326	-63,235	-0,183	-0,052
280,341	-55,949	-0,128	-0,039
281,355	800,000	0,022	-0,054
282,370	235,531	-0,143	-0,164
283,384	-200,000	-0,045	-0,148
284,399	-74,846	-0,250	-0,061
285,414	392,473	-0,181	-0,261
286,428	298,145	-0,197	-0,251
287,443	800,000	-0,060	-0,179
288,457	-87,413	-0,092	0,019
289,472	-46,138	-0,116	0,039
290,487	43,527	-0,258	-0,163
291,501	-107,700	-0,248	-0,037
292,516	800,000	-0,100	-0,297
293,530	-67,182	-0,149	-0,040
294,545	-140,369	-0,161	0,011
295,560	1,033	-0,175	-0,086
296,574	-62,793	-0,262	-0,074
297,589	-37,076	-0,120	-0,044
298,603	354,425	-0,110	-0,151
299,618	15,841	-0,256	-0,139
300,633	29,332	-0,199	-0,116
301,647	73,091	-0,152	-0,110
302,662	-200,000	-0,010	-0,068
303,676	-200,000	-0,063	-0,250
304,691	-200,000	-0,025	-0,255
305,706	-200,000	-0,001	-0,155
306,720	55,953	-0,202	-0,135
307,735	-200,000	0,005	-0,144
308,749	52,991	-0,120	-0,079
309,764	-87,190	-0,156	0,032
310,779	216,182	-0,096	-0,106
311,793	-25,113	-0,091	-0,037
312,808	303,044	-0,111	-0,142
313,822	-106,325	-0,036	-0,006
314,837	222,140	-0,067	-0,075
315,852	16,472	-0,133	-0,072
316,866	77,092	-0,201	-0,147
317,881	9,118	-0,189	-0,098
318,895	-29,294	-0,182	-0,072
319,910	-32,050	-0,160	-0,061
320,925	30,356	-0,269	-0,158
321,939	460,134	-0,121	-0,186
322,954	800,000	-0,082	-0,193
323,968	-200,000	-0,021	-0,069
324,983	-95,528	-0,149	0,027
325,997	-60,729	-0,163	-0,047
327,012	-200,000	0,007	-0,152
328,027	93,780	-0,162	-0,126
329,041	-92,117	-0,232	0,045
330,056	63,995	-0,185	-0,128
331,070	37,970	-0,066	-0,040
332,085	15,103	-0,166	-0,089
333,100	180,207	-0,194	-0,196
334,114	-200,000	-0,016	-0,086
335,129	279,491	-0,136	-0,168
336,143	657,109	-0,057	-0,101
337,158	81,145	-0,063	0,047
338,173	-121,306	-0,123	0,014
339,187	-39,031	-0,098	-0,035
340,202	-33,745	-0,191	-0,072
341,216	34,240	-0,177	-0,106
342,231	-11,025	-0,232	-0,105
343,246	-32,740	-0,160	-0,061
344,260	-131,647	-0,082	-0,007
345,275	68,177	-0,066	-0,046
346,289	125,826	-0,075	0,066
347,304	-31,511	-0,076	-0,029
348,319	800,000	-0,094	-0,239
349,333	95,986	-0,187	-0,147
350,348	-200,000	-0,051	-0,185
351,362	-200,000	0,010	-0,120
352,377	334,548	-0,104	0,139
353,392	153,401	-0,125	-0,118
354,406	187,552	-0,100	-0,103
355,421	209,384	1315,194	1416,867
356,435	161,145	1476,004	1417,371
