DTS Sentinel unit serial number:	SN410029Multiplexer serial number:	ORYXHardware model number:	OX2-SRSoftware version number:	ORYX F/W v4,00 Oryx Data Collector v3.7.2.0data status	okinstallation	B3 Nyhavnadifferential loss correction	single-endedforward channel	channel 1reverse channel	N/Adate	2023/12/05time	03:57:30forward acquisition time	300,00reverse acquisition time	0,00gamma	499,1914k internal	0,3201k external	0,3201temperature offset calibration	1,0000default loss term (dB/km)	0,3820temperature slope calibration	1,0000multiplexer offset coefficient	1,0000multiplexer slope coefficient	1,0000fibre end	0,00T internal ref (°C)	14,15T ext. ref 1 (°C)	-0,70T ext. ref 2 (°C)	-0,73length (m)	temperature (°C)	Stokes	anti-Stokes-744,400	160,399	-0,319	-0,324
-743,385	-200,000	-0,010	0,419
-742,371	800,000	-0,081	-0,192
-741,356	-200,000	0,077	0,453
-740,342	18,407	-0,234	-0,136
-739,327	-200,000	0,006	0,210
-738,312	458,200	-0,198	-0,321
-737,298	-200,000	-0,038	0,381
-736,283	768,635	-0,107	-0,212
-735,269	-200,000	0,018	0,402
-734,254	238,505	-0,175	-0,211
-733,239	-165,205	-0,275	0,009
-732,225	800,000	-0,080	-0,173
-731,210	800,000	-0,060	-0,148
-730,196	344,833	0,088	0,126
-729,181	644,778	0,062	0,115
-728,167	-92,175	-0,089	-0,018
-727,152	53,816	0,101	0,070
-726,137	132,173	-0,060	0,057
-725,123	800,000	-0,092	-0,193
-724,108	800,000	-0,056	-0,152
-723,094	203,099	-0,092	0,104
-722,079	-200,000	0,000	-0,073
-721,064	-200,000	-0,022	0,075
-720,050	-200,000	-0,013	-0,125
-719,035	332,354	-0,025	0,035
-718,021	-26,013	-0,099	-0,042
-717,006	800,000	-0,062	-0,148
-715,991	364,919	0,032	-0,047
-714,977	800,000	0,009	0,021
-713,962	-200,000	-0,020	-0,118
-712,948	800,000	0,042	-0,110
-711,933	-57,816	-0,098	-0,031
-710,918	-200,000	-0,009	-0,048
-709,904	800,000	0,034	-0,099
-708,889	-200,000	-0,001	0,025
-707,875	32,682	-0,095	-0,059
-706,860	210,831	0,012	-0,014
-705,845	-200,000	0,006	0,046
-704,831	282,612	-0,040	0,053
-703,816	-200,000	0,010	-0,062
-702,802	482,846	-0,092	-0,153
-701,787	28,878	-0,076	0,047
-700,772	-74,529	0,174	0,045
-699,758	366,553	-0,063	-0,093
-698,743	-200,000	0,026	0,207
-697,729	-200,000	0,029	0,155
-696,714	424,521	-0,025	-0,039
-695,699	290,945	0,020	0,026
-694,685	-200,000	-0,020	-0,140
-693,670	-21,596	-0,050	-0,022
-692,656	800,000	-0,026	-0,067
-691,641	-200,000	-0,011	-0,109
-690,627	-156,535	-0,173	-0,008
-689,612	800,000	0,058	0,183
-688,597	77,389	-0,048	-0,037
-687,583	-200,000	-0,000	-0,032
-686,568	119,212	0,057	-0,051
-685,554	-69,682	-0,094	-0,026
-684,539	-200,000	0,004	0,129
-683,524	-200,000	0,001	-0,036
-682,510	27,656	-0,014	-0,009
-681,495	583,563	0,086	0,154
-680,481	-21,045	-0,177	-0,078
-679,466	483,852	0,010	-0,017
-678,451	-200,000	0,003	0,057
-677,437	-42,572	-0,069	0,025
-676,422	-58,866	0,090	0,028
-675,408	-107,064	0,092	0,015
-674,393	-145,256	0,059	0,004
-673,378	126,583	0,034	0,031
-672,364	-200,000	0,010	-0,069
-671,349	474,676	-0,066	-0,109
-670,335	800,000	0,014	-0,037
-669,320	-200,000	-0,017	0,056
-668,305	-200,000	-0,010	-0,095
-667,291	-200,000	0,000	-0,131
-666,276	392,100	-0,045	-0,068
-665,262	-200,000	0,011	-0,184
-664,247	-200,000	0,024	-0,078
-663,232	-200,000	-0,010	0,250
-662,218	-61,833	0,176	0,053
-661,203	-200,000	-0,012	0,065
-660,189	800,000	-0,038	-0,091
-659,174	-42,311	-0,085	0,031
-658,159	-110,093	0,103	0,015
-657,145	-4,265	-0,047	0,023
-656,130	-6,712	0,076	-0,037
-655,116	-49,297	0,106	-0,036
-654,101	-200,000	-0,001	-0,094
-653,086	800,000	-0,044	0,112
-652,072	-93,054	-0,111	0,022
-651,057	-83,639	-0,041	0,009
-650,043	195,627	-0,102	-0,113
-649,028	-200,000	-0,016	0,054
-648,014	540,976	0,054	-0,094
-646,999	121,167	0,190	-0,171
-645,984	-200,000	-0,001	-0,053
-644,970	1,363	0,091	0,047
-643,955	-99,544	0,065	-0,012
-642,941	-200,000	0,009	-0,066
-641,926	-200,000	0,013	0,145
-640,911	203,922	0,107	-0,120
-639,897	800,000	-0,039	0,102
-638,882	-45,605	0,099	0,035
-637,868	-99,716	-0,105	0,019
-636,853	-80,466	-0,124	-0,030
-635,838	-200,000	-0,025	-0,190
-634,824	-200,000	-0,011	0,061
-633,809	98,224	-0,011	-0,009
-632,795	-200,000	0,008	-0,112
-631,780	800,000	0,042	-0,109
-630,765	-85,403	-0,062	0,014
-629,751	800,000	0,028	0,070
-628,736	11,213	-0,103	-0,057
-627,722	701,640	-0,015	0,028
-626,707	6,096	-0,103	-0,055
-625,692	67,914	0,130	0,096
-624,678	800,000	0,036	0,085
-623,663	123,816	-0,081	-0,074
-622,649	-4,492	-0,108	0,054
-621,634	-200,000	-0,001	-0,054
-620,619	-94,002	0,115	0,023
-619,605	-38,492	-0,039	0,015
-618,590	284,278	0,051	0,066
-617,576	78,295	-0,075	-0,058
-616,561	281,652	0,073	-0,095
-615,546	138,541	-0,086	-0,082
-614,532	143,702	-0,097	-0,093
-613,517	189,338	0,078	-0,085
-612,503	-200,000	0,008	0,125
-611,488	-200,000	0,015	0,111
-610,474	-200,000	-0,044	0,142
-609,459	-30,107	-0,082	0,034
-608,444	-129,154	-0,134	-0,013
-607,430	669,087	-0,072	-0,136
-606,415	6,052	-0,077	-0,041
-605,401	60,435	0,071	0,051
-604,386	57,371	-0,048	0,034
-603,371	1,983	0,063	0,033
-602,357	-200,000	0,006	0,049
-601,342	-200,000	-0,034	-0,145
-600,328	82,966	0,027	0,022
-599,313	-200,000	-0,004	0,114
-598,298	111,337	-0,080	-0,070
-597,284	-86,835	-0,115	-0,025
-596,269	800,000	0,007	0,017
-595,255	-56,643	-0,064	0,020
-594,240	88,986	-0,088	-0,071
-593,225	154,874	-0,068	-0,068
-592,211	-200,000	0,043	-0,144
-591,196	-57,757	-0,127	0,040
-590,182	-200,000	-0,030	0,114
-589,167	800,000	-0,025	0,055
-588,152	110,967	0,059	-0,052
-587,138	-109,161	0,068	0,010
-586,123	17,360	0,092	-0,053
-585,109	800,000	-0,061	-0,159
-584,094	800,000	-0,051	-0,142
-583,079	87,129	0,035	0,028
-582,065	-200,000	0,005	0,020
-581,050	-200,000	-0,008	-0,059
-580,036	29,895	-0,089	0,054
-579,021	800,000	-0,011	-0,035
-578,006	79,260	-0,145	-0,113
-576,992	-200,000	-0,016	-0,092
-575,977	-43,716	-0,128	-0,046
-574,963	-130,906	0,153	-0,015
-573,948	-104,443	-0,164	0,027
-572,934	-200,000	-0,018	0,082
-571,919	193,792	-0,129	-0,141
-570,904	76,192	-0,112	-0,086
-569,890	115,477	0,035	0,031
-568,875	-27,147	0,036	0,015
-567,861	158,647	0,048	-0,048
-566,846	-99,735	0,090	-0,016
-565,831	-200,000	-0,002	-0,050
-564,817	-60,108	-0,274	-0,084
-563,802	-122,529	-0,072	-0,008
-562,788	800,000	-0,051	0,124
-561,773	-144,593	0,132	-0,009
-560,758	-200,000	-0,008	-0,144
-559,744	166,130	-0,085	0,087
-558,729	-34,676	0,125	0,049
-557,715	-73,689	0,060	0,016
-556,700	-192,913	0,099	-0,001
-555,685	118,636	0,053	-0,047
-554,671	20,910	-0,079	0,046
-553,656	800,000	0,029	0,076
-552,642	-93,615	-0,094	-0,019
-551,627	291,254	-0,125	-0,165
-550,612	675,573	-0,074	-0,139
-549,598	-77,027	-0,176	0,044
-548,583	800,000	-0,017	0,047
-547,569	394,372	-0,023	0,035
-546,554	294,413	-0,054	0,072
-545,539	-141,569	0,070	-0,005
-544,525	800,000	0,016	0,031
-543,510	65,718	0,067	-0,049
-542,496	-52,763	-0,027	-0,009
-541,481	800,000	-0,039	0,086
-540,466	12,416	0,146	-0,081
-539,452	800,000	-0,042	0,122
-538,437	-200,000	0,032	0,182
-537,423	800,000	-0,049	0,123
-536,408	-200,000	-0,013	0,150
-535,393	33,065	-0,067	0,042
-534,379	154,598	0,082	0,081
-533,364	-200,000	-0,002	0,098
-532,350	-129,351	-0,054	-0,005
-531,335	-110,428	0,048	-0,007
-530,321	49,599	-0,072	-0,049
-529,306	-37,702	-0,143	0,055
-528,291	199,643	-0,011	-0,012
-527,277	-93,460	-0,067	0,013
-526,262	258,792	-0,015	-0,018
-525,248	-33,440	0,113	0,045
-524,233	691,383	0,057	0,108
-523,218	-107,005	0,115	0,018
-522,204	-200,000	0,007	0,096
-521,189	58,404	0,044	0,031
-520,175	-73,507	0,022	0,006
-519,160	800,000	0,031	-0,076
-518,145	-11,363	-0,119	-0,056
-517,131	-200,000	0,000	0,037
-516,116	-81,625	-0,074	0,017
-515,102	-200,000	-0,002	0,025
-514,087	-200,000	0,003	0,119
-513,072	800,000	0,034	0,105
-512,058	269,323	0,043	0,054
-511,043	690,130	0,053	0,100
-510,029	26,804	0,151	-0,091
-509,014	-74,313	0,075	0,019
-507,999	136,040	0,095	0,089
-506,985	-90,626	-0,055	0,011
-505,970	380,469	0,029	-0,043
-504,956	800,000	0,019	-0,056
-503,941	-57,514	-0,114	0,036
-502,926	-81,598	0,077	-0,018
-501,912	-200,000	-0,006	0,088
-500,897	48,167	0,088	-0,059
-499,883	-22,802	-0,015	0,007
-498,868	84,746	-0,064	-0,050
-497,853	90,645	-0,087	0,070
-496,839	-47,726	-0,081	0,028
-495,824	312,190	0,010	0,013
-494,810	-200,000	0,006	0,092
-493,795	179,421	0,052	0,055
-492,781	-200,000	0,037	-0,129
-491,766	85,336	0,047	-0,037
-490,751	247,909	-0,051	-0,062
-489,737	-4,467	-0,026	0,013
-488,722	-121,670	0,059	0,007
-487,708	212,945	0,038	-0,043
-486,693	-200,000	0,021	0,104
-485,678	376,665	-0,079	0,117
-484,664	446,361	0,077	-0,122
-483,649	-200,000	-0,017	-0,108
-482,635	800,000	0,035	0,085
-481,620	-3,254	0,091	-0,045
-480,605	628,897	0,040	0,073
-479,591	-200,000	-0,011	-0,058
-478,576	-72,909	-0,123	-0,032
-477,562	-72,325	-0,077	-0,020
-476,547	16,076	-0,078	-0,044
-475,532	167,612	-0,070	-0,072
-474,518	800,000	0,039	-0,104
-473,503	321,557	0,102	0,140
-472,489	-46,756	-0,105	0,037
-471,474	-111,503	-0,089	-0,013
-470,459	-34,338	-0,051	-0,020
-469,445	28,478	-0,043	0,026
-468,430	-200,000	0,015	0,087
-467,416	367,050	0,082	0,119
-466,401	-200,000	0,004	0,156
-465,386	-200,000	-0,004	0,064
-464,372	94,092	-0,010	0,008
-463,357	520,104	-0,075	0,126
-462,343	-200,000	-0,017	-0,088
-461,328	94,148	-0,046	-0,038
-460,313	-200,000	-0,004	0,015
-459,299	104,343	0,079	0,067
-458,284	-135,798	0,050	-0,004
-457,270	-10,238	-0,110	0,052
-456,255	227,819	0,085	0,100
-455,241	-200,000	-0,016	-0,119
-454,226	-168,745	0,091	-0,002
-453,211	52,142	-0,010	-0,007
-452,197	10,346	0,075	-0,041
-451,182	-200,000	0,019	0,073
-450,168	-200,000	-0,013	-0,061
-449,153	-23,354	-0,094	0,041
-448,138	390,080	0,031	-0,046
-447,124	-65,156	-0,097	-0,028
-446,109	-90,097	0,059	0,012
-445,095	-200,000	-0,006	-0,058
-444,080	-27,241	-0,043	0,018
-443,065	-200,000	-0,003	0,079
-442,051	-200,000	-0,007	0,076
-441,036	-200,000	-0,003	-0,021
-440,022	32,732	-0,054	-0,033
-439,007	-200,000	-0,011	0,137
-437,992	241,252	-0,024	-0,028
-436,978	49,150	0,111	0,075
-435,963	-200,000	-0,046	0,203
-434,949	-200,000	0,021	-0,125
-433,934	800,000	0,047	-0,148
-432,919	278,058	0,079	-0,101
-431,905	108,345	0,071	-0,061
-430,890	-200,000	-0,009	-0,041
-429,876	257,275	-0,049	0,061
-428,861	594,168	0,052	0,093
-427,846	777,128	0,031	0,062
-426,832	128,352	-0,116	-0,106
-425,817	-164,232	-0,158	-0,005
-424,803	66,318	0,035	-0,026
-423,788	10,277	0,123	0,067
-422,773	-200,000	-0,004	-0,153
-421,759	55,063	0,097	-0,067
-420,744	-23,083	-0,026	-0,011
-419,730	-200,000	-0,016	-0,121
-418,715	800,000	0,033	-0,073
-417,701	-67,913	0,191	-0,053
-416,686	-22,366	-0,070	-0,030
-415,671	-39,921	-0,036	-0,013
-414,657	231,479	0,087	0,102
-413,642	-68,743	-0,124	0,034
-412,628	155,409	0,067	-0,066
-411,613	-200,000	-0,032	-0,114
-410,598	-101,826	-0,168	0,029
-409,584	-50,182	-0,060	0,020
-408,569	-58,223	0,135	0,042
-407,555	-77,892	-0,041	-0,010
-406,540	70,238	0,071	-0,053
-405,525	-63,834	-0,094	0,027
-404,511	-18,162	0,070	0,031
-403,496	58,441	0,028	0,020
-402,482	67,321	0,009	0,007
-401,467	-26,290	0,050	0,021
-400,452	176,142	0,028	-0,029
-399,438	529,992	0,059	0,100
-398,423	-151,114	-0,037	0,002
-397,409	-128,710	-0,199	0,020
-396,394	293,388	0,016	0,021
-395,379	-114,346	-0,117	0,016
-394,365	30,021	0,168	0,103
-393,350	-200,000	0,019	0,234
-392,336	800,000	0,074	0,203
-391,321	800,000	-0,026	-0,066
-390,306	800,000	-0,020	0,055
-389,292	-150,058	0,066	-0,004
-388,277	-81,625	-0,078	-0,018
-387,263	-20,485	0,066	0,029
-386,248	-200,000	-0,007	0,117
-385,233	447,695	-0,051	0,081
-384,219	157,551	0,065	-0,064
-383,204	800,000	0,050	-0,108
-382,190	147,267	-0,080	-0,078
-381,175	-84,763	0,065	0,015
-380,160	-200,000	-0,008	0,067
-379,146	152,185	0,084	0,082
-378,131	-76,379	0,071	0,018
-377,117	64,162	-0,034	0,025
-376,102	-16,000	0,058	-0,026
-375,088	-200,000	-0,038	-0,173
-374,073	11,309	-0,037	-0,020
-373,058	800,000	0,025	-0,074
-372,044	-200,000	0,013	-0,103
-371,029	436,048	-0,094	0,147
-370,015	-131,656	-0,068	0,006
-369,000	-20,680	-0,039	-0,017
-367,985	-31,103	-0,078	-0,031
-366,971	-7,960	-0,089	-0,043
-365,956	-70,389	0,077	-0,021
-364,942	-200,000	-0,008	-0,125
-363,927	-200,000	0,051	0,166
-362,912	-88,206	0,155	0,033
-361,898	55,303	-0,008	0,006
-360,883	-200,000	0,015	0,129
-359,869	800,000	-0,023	0,053
-358,854	800,000	-0,021	-0,052
-357,839	-111,746	0,087	0,012
-356,825	800,000	-0,032	0,084
-355,810	800,000	-0,002	0,004
-354,796	252,058	0,016	0,019
-353,781	-37,619	0,097	-0,037
-352,766	589,227	0,040	-0,072
-351,752	82,355	0,053	-0,041
-350,737	-33,694	0,160	-0,063
-349,723	-127,236	0,095	0,010
-348,708	800,000	0,039	0,103
-347,693	-61,531	-0,112	0,034
-346,679	800,000	-0,044	0,092
-345,664	-200,000	0,004	-0,067
-344,650	165,188	-0,118	-0,119
-343,635	266,622	0,057	-0,071
-342,620	-57,934	0,031	0,010
-341,606	-200,000	-0,037	0,132
-340,591	20,197	-0,019	0,011
-339,577	332,945	0,056	0,078
-338,562	-15,785	-0,030	-0,014
-337,548	-91,961	0,050	-0,010
-336,533	800,000	-0,018	0,041
-335,518	-200,000	0,008	0,072
-334,504	-200,000	0,031	0,125
-333,489	-23,622	0,045	-0,019
-332,475	-57,736	-0,072	-0,022
-331,460	-158,306	-0,150	-0,006
-330,445	-87,795	0,033	0,007
-329,431	225,980	-0,044	0,051
-328,416	-128,531	0,075	-0,008
-327,402	-35,734	-0,086	-0,033
-326,387	252,194	0,072	0,088
-325,372	-200,000	-0,012	-0,038
-324,358	800,000	-0,054	-0,114
-323,343	-200,000	-0,017	-0,081
-322,329	-200,000	0,023	0,149
-321,314	-110,273	0,013	0,002
-320,299	-60,837	-0,067	-0,020
-319,285	-196,052	0,093	0,000
-318,270	800,000	-0,085	-0,194
-317,256	190,619	0,066	0,071
-316,241	-128,295	-0,123	0,012
-315,226	-93,882	0,029	0,006
-314,212	-3,174	0,052	-0,026
-313,197	-30,320	0,087	-0,035
-312,183	800,000	-0,028	0,080
-311,168	-121,606	0,134	-0,016
-310,153	8,427	-0,129	-0,069
-309,139	800,000	-0,037	-0,098
-308,124	-83,156	0,112	0,026
-307,110	800,000	0,069	0,199
-306,095	800,000	-0,030	0,073
-305,080	800,000	0,084	0,182
-304,066	165,213	-0,075	0,076
-303,051	50,048	0,111	0,075
-302,037	69,953	-0,027	0,020
-301,022	-118,123	0,048	0,006
-300,008	-32,646	0,065	0,026
-298,993	-8,489	0,124	-0,059
-297,978	-15,039	0,059	-0,027
-296,964	-29,772	0,025	0,010
-295,949	800,000	-0,021	-0,054
-294,935	220,742	0,051	0,058
-293,920	-200,000	-0,003	-0,113
-292,905	14,868	0,033	0,018
-291,891	74,109	0,067	-0,050
-290,876	-107,762	0,162	-0,025
-289,862	-200,000	0,001	0,072
-288,847	-200,000	-0,007	-0,028
-287,832	20,620	0,030	0,018
-286,818	-144,086	0,095	-0,006
-285,803	-200,000	0,035	-0,152
-284,789	-200,000	0,000	0,059
-283,774	-156,379	-0,119	0,005
-282,759	800,000	-0,044	0,092
-281,745	-131,565	-0,088	-0,008
-280,730	-77,060	-0,110	-0,027
-279,716	116,225	0,062	-0,054
-278,701	-81,568	0,045	-0,010
-277,686	-200,000	-0,017	-0,148
-276,672	58,733	-0,068	-0,047
-275,657	23,034	0,088	-0,051
-274,643	-200,000	-0,018	-0,124
-273,628	800,000	0,072	-0,182
-272,613	125,774	0,138	-0,124
-271,599	-200,000	0,045	0,156
-270,584	-200,000	-0,005	0,105
-269,570	-167,072	0,025	-0,001
-268,555	-105,516	-0,096	0,015
-267,540	-67,267	0,076	-0,021
-266,526	-28,479	-0,112	-0,046
-265,511	736,297	-0,034	-0,066
-264,497	-90,384	0,087	0,018
-263,482	-33,260	-0,045	-0,018
-262,467	-45,691	-0,135	0,047
-261,453	-11,202	0,100	-0,047
-260,438	170,022	-0,098	-0,100
-259,424	-200,000	-0,029	-0,159
-258,409	110,923	0,047	0,040
-257,395	-200,000	-0,042	-0,197
-256,380	-35,265	0,151	0,058
-255,365	-83,873	-0,056	-0,013
-254,351	93,107	0,086	0,069
-253,336	-57,547	0,094	0,029
-252,322	800,000	0,079	-0,169
-251,307	-200,000	0,011	-0,048
-250,292	-200,000	0,007	-0,066
-249,278	25,659	-0,104	-0,062
-248,263	-200,000	0,002	0,017
-247,249	260,911	-0,072	0,089
-246,234	800,000	-0,036	0,079
-245,219	-200,000	0,013	0,129
-244,205	55,793	0,076	-0,052
-243,190	-96,876	-0,082	0,015
-242,176	-98,811	0,128	-0,023
-241,161	800,000	0,040	0,097
-240,146	256,214	-0,079	-0,096
-239,132	57,543	0,110	0,076
-238,117	-102,606	-0,191	-0,032
-237,103	479,107	0,023	-0,037
-236,088	785,800	-0,061	-0,119
-235,073	-125,971	-0,039	-0,004
-234,059	521,738	0,061	-0,102
-233,044	584,810	0,068	-0,120
-232,030	82,838	-0,047	0,037
-231,015	579,104	-0,024	-0,043
-230,000	-52,713	-0,043	0,014
-228,986	29,837	-0,082	0,050
-227,971	-200,000	-0,005	-0,036
-226,957	144,661	0,058	0,055
-225,942	800,000	0,029	0,071
-224,927	-200,000	0,000	-0,048
-223,913	-72,793	-0,064	-0,017
-222,898	-68,487	-0,088	-0,024
-221,884	-28,832	-0,084	0,034
-220,869	800,000	-0,051	-0,125
-219,855	800,000	0,032	-0,080
-218,840	800,000	-0,039	-0,097
-217,825	800,000	-0,054	-0,142
-216,811	25,272	0,116	-0,069
-215,796	121,216	0,063	0,056
-214,782	-173,870	0,133	-0,003
-213,767	-28,660	-0,064	-0,026
-212,752	-88,813	0,181	0,038
-211,738	800,000	-0,011	-0,022
-210,723	-200,000	0,049	0,163
-209,709	49,526	-0,039	0,026
-208,694	662,187	-0,091	-0,168
-207,679	31,140	0,065	-0,040
-206,665	291,912	0,068	0,089
-205,650	282,363	0,005	0,006
-204,636	16,875	-0,029	-0,016
-203,621	-200,000	-0,039	-0,134
-202,606	-91,743	-0,147	-0,029
-201,592	-200,000	0,014	-0,128
-200,577	116,577	-0,036	0,032
-199,563	-44,265	-0,080	-0,028
-198,548	72,355	-0,057	-0,042
-197,533	-195,897	0,158	0,001
-196,519	800,000	0,068	0,201
-195,504	229,759	-0,051	-0,060
-194,490	-200,000	-0,000	0,044
-193,475	248,624	-0,045	-0,054
-192,460	-94,692	0,093	0,018
-191,446	199,196	0,047	0,052
-190,431	-200,000	0,027	0,166
-189,417	252,798	-0,084	0,102
-188,402	-130,317	-0,039	0,004
-187,387	307,488	0,066	-0,088
-186,373	800,000	-0,016	0,050
-185,358	800,000	0,070	-0,191
-184,344	674,298	0,054	-0,100
-183,329	249,351	-0,008	-0,010
-182,315	-200,000	-0,004	0,033
-181,300	-200,000	-0,015	-0,093
-180,285	-23,991	-0,060	-0,025
-179,271	-200,000	-0,004	-0,178
-178,256	10,557	0,097	-0,053
-177,242	-200,000	-0,027	0,090
-176,227	-157,664	0,027	0,001
-175,212	106,676	-0,062	0,052
-174,198	-12,113	0,108	-0,050
-173,183	-82,329	-0,083	-0,019
-172,169	-74,907	-0,041	-0,010
-171,154	800,000	-0,053	0,113
-170,139	298,910	0,106	0,139
-169,125	163,774	-0,060	0,060
-168,110	800,000	0,075	0,174
-167,096	-82,457	-0,129	-0,030
-166,081	-97,378	0,033	-0,006
-165,066	44,171	0,048	-0,031
-164,052	800,000	-0,004	-0,012
-163,037	-81,718	-0,064	-0,015
-162,023	248,495	0,072	-0,087
-161,008	-200,000	0,029	0,149
-159,993	-64,134	0,118	0,034
-158,979	-123,693	-0,111	-0,012
-157,964	222,509	-0,041	-0,047
-156,950	-200,000	0,002	0,059
-155,935	-1,090	0,070	0,035
-154,920	-200,000	0,026	0,093
-153,906	800,000	-0,070	0,169
-152,891	-165,886	0,072	-0,002
-151,877	543,272	0,052	-0,088
-150,862	204,169	-0,046	-0,051
-149,847	36,368	-0,101	0,063
-148,833	-125,238	0,081	-0,009
-147,818	-30,818	-0,135	-0,054
-146,804	701,337	0,032	0,059
-145,789	-104,000	0,071	0,012
-144,775	296,029	0,036	0,046
-143,760	345,066	-0,080	0,112
-142,745	-129,684	0,135	0,013
-141,731	-200,000	-0,013	-0,200
-140,716	-25,114	0,045	-0,019
-139,702	-188,470	0,081	-0,001
-138,687	800,000	0,025	0,055
-137,672	-200,000	0,014	-0,108
-136,658	231,456	-0,107	0,124
-135,643	668,606	-0,029	-0,053
-134,629	124,853	0,081	-0,072
-133,614	148,132	0,084	0,081
-132,599	37,574	-0,024	-0,015
-131,585	-11,973	0,071	0,033
-130,570	646,023	-0,069	-0,126
-129,556	159,883	-0,060	-0,060
-128,541	-20,793	0,106	-0,046
-127,526	-135,020	0,038	-0,003
-126,512	-200,000	0,006	0,085
-125,497	30,641	-0,033	0,020
-124,483	-55,400	0,054	0,017
-123,468	-121,576	-0,135	-0,016
-122,453	161,240	-0,096	0,095
-121,439	-200,000	0,015	-0,059
-120,424	-102,519	0,015	-0,002
-119,410	-30,757	-0,089	0,035
-118,395	-53,598	-0,150	-0,048
-117,380	163,696	0,055	0,054
-116,366	149,988	-0,042	-0,041
-115,351	-130,680	0,065	0,006
-114,337	-20,571	-0,041	-0,018
-113,322	54,940	0,082	0,056
-112,307	595,822	0,045	0,080
-111,293	-200,000	0,007	0,100
-110,278	-94,422	0,078	0,015
-109,264	71,994	-0,039	0,029
-108,249	800,000	0,073	-0,144
-107,234	-21,352	-0,043	-0,019
-106,220	-200,000	0,001	-0,122
-105,205	-62,104	-0,081	-0,024
-104,191	-16,530	0,186	0,083
-103,176	-149,478	0,059	-0,003
-102,162	800,000	0,054	-0,123
-101,147	800,000	0,059	-0,131
-100,132	800,000	0,061	-0,131
-99,118	-200,000	-0,005	-0,058
-98,103	196,125	-0,056	-0,060
-97,089	-105,365	0,037	-0,006
-96,074	800,000	-0,043	0,104
-95,059	-37,190	0,182	0,069
-94,045	231,925	-0,028	-0,032
-93,030	33,980	-0,134	0,082
-92,016	-112,106	-0,066	-0,009
-91,001	92,766	0,077	-0,062
-89,986	19,350	0,033	0,019
-88,972	-200,000	0,034	0,107
-87,957	-200,000	0,012	0,063
-86,943	534,688	-0,060	-0,101
-85,928	444,813	0,023	0,036
-84,913	47,727	-0,120	-0,079
-83,899	800,000	0,035	0,084
-82,884	-17,402	0,074	0,033
-81,870	498,905	0,055	0,089
-80,855	800,000	0,035	0,098
-79,840	326,274	-0,031	-0,042
-78,826	-200,000	0,006	0,069
-77,811	-180,807	-0,017	0,000
-76,797	-200,000	-0,025	-0,153
-75,782	-200,000	-0,016	0,118
-74,767	751,555	0,042	0,080
-73,753	-200,000	-0,019	0,061
-72,738	-200,000	0,000	-0,045
-71,724	626,191	0,066	-0,119
-70,709	294,139	0,018	-0,023
-69,694	268,656	0,011	-0,014
-68,680	-200,000	0,011	0,170
-67,665	17,938	0,077	-0,044
-66,651	800,000	0,017	0,037
-65,636	146,097	0,043	0,041
-64,622	-200,000	0,023	-0,232
-63,607	-37,497	-0,138	-0,052
-62,592	118,123	0,011	0,010
-61,578	-129,015	-0,133	0,013
-60,563	800,000	0,024	-0,055
-59,549	479,707	-0,059	0,095
-58,534	-36,324	-1,528	-0,580
-57,519	419,336	-1,379	-2,096
-56,505	-200,000	-0,703	-4,637
-55,490	128,583	1,014	0,915
-54,476	800,000	4,975	11,442
-53,461	-200,000	18,744	304,638
-52,446	800,000	735,868	2288,753
-51,432	566,375	1652,205	2849,081
-50,417	78,937	1670,195	1264,394
-49,403	22,106	1543,023	889,099
-48,388	16,013	1465,846	815,036
-47,373	17,724	1455,860	817,713
-46,359	16,890	1446,130	808,220
-45,344	14,282	1441,458	793,095
-44,330	14,170	1439,460	791,427
-43,315	14,210	1437,834	790,692
-42,300	14,205	1436,140	789,707
-41,286	14,243	1434,927	789,188
-40,271	14,171	1433,762	788,175
-39,257	14,194	1432,408	787,506
-38,242	14,265	1430,976	787,028
-37,227	14,239	1430,031	786,353
-36,213	14,228	1428,566	785,463
-35,198	14,273	1427,394	785,000
-34,184	14,338	1426,324	784,690
-33,169	14,243	1425,131	783,553
-32,154	14,289	1424,133	783,188
-31,140	14,240	1422,853	782,224
-30,125	14,277	1421,783	781,777
-29,111	14,214	1420,726	780,870
-28,096	14,255	1419,476	780,343
-27,082	14,193	1418,550	779,512
-26,067	14,166	1417,275	778,655
-25,052	14,190	1416,221	778,157
-24,038	14,188	1415,297	777,609
-23,023	14,163	1414,343	776,938
-22,009	14,116	1413,625	776,291
-20,994	14,148	1412,436	775,757
-19,979	14,131	1411,613	775,193
-18,965	14,116	1410,405	774,429
-17,950	14,100	1409,766	773,971
-16,936	14,096	1408,931	773,465
-15,921	14,095	1407,598	772,697
-14,906	14,083	1406,768	772,155
-13,892	14,087	1405,740	771,581
-12,877	14,071	1404,931	771,028
-11,863	14,038	1404,162	770,424
-10,848	14,079	1402,991	769,941
-9,833	13,989	1402,276	769,101
-8,819	13,987	1401,548	768,662
-7,804	14,007	1400,561	768,179
-6,790	14,016	1399,206	767,448
-5,775	14,023	1398,239	766,922
-4,760	13,981	1397,395	766,235
-3,746	13,950	1396,807	765,735
-2,731	13,974	1395,656	765,184
-1,717	13,957	1394,763	764,587
-0,702	13,970	1393,134	763,724
0,313	17,759	1311,213	736,388
1,327	33,959	706,313	434,215
2,342	52,264	124,172	83,637
3,356	0,560	16,626	8,381
4,371	4,070	3,204	1,653
5,386	-8,268	0,582	0,276
6,400	-200,000	0,005	0,333
7,415	-152,955	-0,218	0,011
8,429	-129,754	-0,232	-0,022
9,444	181,888	-0,245	-0,256
10,459	-133,286	-0,346	-0,030
11,473	388,691	-0,219	-0,321
12,488	59,634	-0,264	-0,184
13,502	34,519	-0,411	-0,253
14,517	235,996	-0,237	-0,277
15,531	-3,283	-0,428	-0,210
16,546	123,206	-0,355	-0,314
17,561	217,165	-0,287	-0,323
18,575	-180,813	-0,328	0,005
19,590	462,853	-0,144	-0,227
20,604	9,490	-0,340	-0,181
21,619	72,655	-0,380	-0,280
22,634	10,434	-0,504	-0,270
23,648	39,919	-0,447	-0,283
24,663	13,653	-0,409	-0,224
25,677	84,819	-0,425	-0,329
26,692	-75,653	-0,418	-0,104
27,707	38,102	-0,390	-0,244
28,721	65,660	-0,294	-0,210
29,736	19,562	-0,585	-0,331
30,750	98,666	-0,395	-0,321
31,765	58,620	-0,356	-0,247
32,780	38,942	-0,463	-0,291
33,794	46,197	-0,293	-0,191
34,809	4,868	-0,323	-0,167
35,823	-57,461	-0,425	-0,131
36,838	124,967	-0,369	-0,328
37,853	-33,686	-0,389	-0,150
38,867	78,550	-0,403	-0,304
39,882	311,625	-0,261	-0,347
40,896	-21,689	-0,429	-0,183
41,911	113,427	-0,289	-0,248
42,926	112,348	-0,348	-0,297
43,940	32,117	-0,375	-0,227
44,955	164,883	-0,431	-0,429
45,969	202,860	-0,288	-0,314
46,984	-10,491	-0,412	-0,192
47,999	332,440	-0,195	-0,265
49,013	20,355	-0,267	-0,152
50,028	42,656	-0,355	-0,227
51,042	185,979	-0,309	-0,324
52,057	-20,791	-0,440	-0,189
53,071	304,492	-0,223	-0,293
54,086	148,580	-0,300	-0,286
55,101	-9,182	-0,390	-0,183
56,115	168,430	-0,330	-0,331
57,130	121,113	-0,255	-0,223
58,144	-20,893	-0,468	-0,201
59,159	-8,920	-0,378	-0,178
60,174	245,639	-0,300	-0,356
61,188	72,797	-0,367	-0,270
62,203	103,502	-0,253	-0,209
63,217	126,766	-0,355	-0,317
64,232	283,806	-0,271	-0,344
65,247	19,916	-0,316	-0,179
66,261	233,532	-0,304	-0,353
67,276	210,733	-0,261	-0,289
68,290	99,231	-0,324	-0,263
69,305	23,661	-0,359	-0,207
70,320	63,935	-0,278	-0,196
71,334	42,670	-0,364	-0,233
72,349	71,658	-0,353	-0,258
73,363	67,727	-0,297	-0,213
74,378	28,216	-0,341	-0,202
75,393	137,597	-0,365	-0,336
76,407	200,989	-0,357	-0,386
77,422	33,540	-0,363	-0,221
78,436	19,211	-0,257	-0,145
79,451	96,156	-0,332	-0,266
80,466	4,231	-0,194	-0,099
81,480	151,633	-0,263	-0,252
82,495	124,815	-0,307	-0,271
83,509	170,019	-0,264	-0,265
84,524	235,841	-0,231	-0,269
85,539	-7,607	-0,398	-0,188
86,553	40,972	-0,422	-0,267
87,568	26,542	-0,109	-0,064
88,582	-72,882	-0,314	-0,081
89,597	-71,644	-0,409	-0,107
90,611	23,101	-0,290	-0,167
91,626	14,488	-0,224	-0,122
92,641	-43,004	-0,326	-0,115
93,655	-87,059	-0,236	-0,050
94,670	-61,318	-0,394	-0,116
95,684	127,596	-0,353	-0,314
96,699	119,342	-0,314	-0,272
97,714	183,270	-0,258	-0,268
98,728	276,971	-0,161	-0,201
99,743	114,597	-0,220	-0,188
100,757	13,877	-0,249	-0,136
101,772	150,835	-0,296	-0,282
102,787	171,126	-0,255	-0,256
103,801	98,622	-0,222	-0,179
104,816	170,133	-0,186	-0,187
105,830	89,091	-0,186	-0,145
106,845	158,341	-0,183	-0,179
107,860	56,471	-0,259	-0,176
108,874	63,194	-0,321	-0,225
109,889	178,887	-0,376	-0,385
110,903	3,099	-0,295	-0,150
111,918	77,982	-0,316	-0,236
112,933	73,986	-0,259	-0,190
113,947	193,647	-0,208	-0,221
114,962	86,561	-0,239	-0,185
115,976	119,947	-0,222	-0,193
116,991	-22,660	-0,267	-0,113
118,006	144,752	-0,246	-0,230
119,020	312,007	-0,159	-0,209
120,035	-27,081	-0,294	-0,119
121,049	234,096	-0,083	-0,096
122,064	105,269	-0,169	-0,139
123,079	14,273	-0,178	-0,097
124,093	50,507	-0,301	-0,199
125,108	134,496	-0,238	-0,216
126,122	720,995	-0,132	-0,246
127,137	-83,259	-0,169	-0,038
128,151	108,123	-0,154	-0,128
129,166	800,000	-0,039	-0,110
130,181	-103,395	-0,331	-0,054
131,195	-71,740	-0,354	-0,092
132,210	2,621	-0,367	-0,185
133,224	37,748	-0,196	-0,121
134,239	-200,000	-0,061	-0,234
135,254	204,658	-0,169	-0,184
136,268	-87,513	-0,241	-0,051
137,283	57,556	-0,203	-0,138
138,297	119,988	-0,160	-0,139
139,312	-24,575	-0,239	-0,099
140,327	378,228	-0,176	-0,252
141,341	86,712	-0,228	-0,176
142,356	333,367	-0,195	-0,264
143,370	73,327	-0,311	-0,227
144,385	156,466	-0,225	-0,218
145,400	59,982	-0,201	-0,139
146,414	85,707	-0,308	-0,236
147,429	-25,415	-0,224	-0,092
148,443	-99,130	-0,387	-0,068
149,458	234,987	-0,129	-0,149
150,473	-72,467	-0,189	-0,049
151,487	186,198	-0,241	-0,251
152,502	108,687	-0,235	-0,196
153,516	56,047	-0,160	-0,108
154,531	55,527	-0,347	-0,234
155,546	259,262	-0,252	-0,305
156,560	-112,225	-0,323	-0,045
157,575	-41,484	-0,089	-0,032
158,589	-118,638	-0,114	0,014
159,604	124,866	-0,275	-0,242
160,619	26,559	-0,397	-0,231
161,633	207,817	-0,200	-0,218
162,648	166,935	-0,168	-0,166
163,662	-38,297	-0,208	-0,076
164,677	800,000	-0,092	-0,200
165,692	-16,253	-0,226	-0,100
166,706	679,457	-0,153	-0,280
167,721	16,166	-0,246	-0,135
168,735	60,973	-0,368	-0,254
169,750	-13,796	-0,357	-0,160
170,764	-82,696	-0,193	-0,043
171,779	82,042	-0,333	-0,251
172,794	633,672	-0,114	-0,203
173,808	26,749	-0,200	-0,117
174,823	106,755	-0,232	-0,192
175,837	188,991	-0,184	-0,192
176,852	160,527	-0,237	-0,231
177,867	-97,870	-0,257	-0,046
178,881	149,880	-0,170	-0,160
179,896	288,885	-0,116	-0,146
180,910	-130,812	-0,185	0,017
181,925	94,631	-0,340	-0,269
182,940	63,888	-0,238	-0,166
183,954	772,306	-0,178	-0,340
184,969	127,687	-0,230	-0,204
185,983	800,000	-0,075	-0,214
186,998	-98,211	-0,269	-0,048
188,013	325,777	-0,153	-0,204
189,027	86,288	-0,184	-0,141
190,042	93,826	-0,280	-0,221
191,056	800,000	-0,097	-0,246
192,071	-71,719	-0,155	-0,040
193,086	231,720	-0,118	-0,135
194,100	-120,183	-0,194	-0,023
195,115	366,121	-0,205	-0,289
196,129	-39,166	-0,397	-0,144
197,144	163,418	-0,229	-0,224
198,159	-53,869	-0,344	-0,108
199,173	48,859	-0,213	-0,139
200,188	0,173	-0,236	-0,117
201,202	-135,803	-0,195	-0,016
202,217	350,435	-0,198	-0,272
203,232	158,948	-0,217	-0,209
204,246	148,451	-0,270	-0,254
205,261	70,845	-0,249	-0,179
206,275	-169,904	-0,167	-0,004
207,290	-48,948	-0,151	-0,050
208,304	96,127	-0,188	-0,149
209,319	74,944	-0,236	-0,173
210,334	13,136	-0,259	-0,139
211,348	36,272	-0,123	-0,075
212,363	99,376	-0,185	-0,148
213,377	646,469	-0,109	-0,193
214,392	800,000	-0,097	-0,190
215,407	48,242	-0,259	-0,168
216,421	42,861	-0,151	-0,096
217,436	-64,616	-0,187	-0,052
218,450	-74,811	-0,269	-0,067
219,465	-172,065	-0,199	0,004
220,480	-25,304	-0,131	-0,054
221,494	167,805	-0,174	-0,171
222,509	-24,014	-0,161	-0,066
223,523	33,996	-0,128	-0,077
224,538	-34,883	-0,110	-0,041
225,553	107,412	-0,263	-0,217
226,567	100,802	-0,187	-0,151
227,582	27,802	-0,277	-0,161
228,596	191,454	-0,195	-0,204
229,611	800,000	-0,167	-0,335
230,626	48,690	-0,152	-0,099
231,640	-78,331	-0,079	0,019
232,655	800,000	-0,141	-0,298
233,669	323,150	-0,203	-0,270
234,684	274,333	-0,136	-0,167
235,699	-70,633	-0,190	0,049
236,713	187,792	-0,089	-0,092
237,728	-33,794	-0,149	-0,057
238,742	314,613	-0,138	-0,181
239,757	183,782	-0,213	-0,218
240,772	-127,867	-0,095	-0,009
241,786	75,865	-0,267	-0,195
242,801	-48,462	-0,330	-0,109
243,815	-85,927	-0,239	-0,051
244,830	-43,843	-0,177	-0,061
245,844	90,062	-0,147	-0,114
246,859	23,451	-0,240	-0,136
247,874	192,257	-0,244	-0,255
248,888	124,462	-0,320	-0,278
249,903	-55,114	-0,279	-0,086
250,917	-131,226	-0,186	0,017
251,932	-84,576	-0,137	-0,030
252,947	75,968	-0,160	-0,117
253,961	-200,000	-0,038	-0,194
254,976	350,325	-0,137	-0,188
255,990	191,891	-0,226	-0,236
257,005	9,934	-0,134	-0,070
258,020	-200,000	-0,016	-0,259
259,034	106,239	-0,128	-0,105
260,049	-176,903	-0,174	-0,003
261,063	-41,348	-0,281	-0,100
262,078	-49,666	-0,259	-0,085
263,093	800,000	-0,159	-0,311
264,107	-145,328	-0,236	0,015
265,122	-24,900	-0,211	-0,086
266,136	333,252	-0,074	-0,099
267,151	-55,675	-0,124	-0,038
268,166	208,006	-0,166	-0,180
269,180	77,362	-0,163	-0,120
270,195	-21,376	-0,259	-0,109
271,209	52,533	-0,354	-0,233
272,224	163,706	-0,142	-0,138
273,239	800,000	-0,094	-0,205
274,253	738,015	-0,091	-0,169
275,268	53,488	-0,178	-0,118
276,282	-0,468	-0,290	-0,142
277,297	800,000	-0,102	-0,259
278,312	197,515	-0,139	-0,146
279,326	800,000	-0,046	-0,107
280,341	800,000	-0,076	-0,150
281,355	-135,627	-0,132	-0,011
282,370	32,543	-0,133	-0,079
283,384	54,729	-0,206	-0,137
284,399	393,300	-0,161	-0,232
285,414	86,546	-0,220	-0,167
286,428	447,327	-0,180	-0,274
287,443	112,745	-0,208	-0,174
288,457	-126,454	-0,163	0,016
289,472	56,392	-0,175	-0,117
290,487	-54,454	-0,188	-0,058
291,501	473,367	-0,146	-0,228
292,516	188,836	-0,079	-0,082
293,530	65,957	-0,255	-0,178
294,545	22,314	-0,159	-0,089
295,560	393,099	-0,118	-0,170
296,574	-37,648	-0,217	-0,079
297,589	462,380	-0,150	-0,232
298,603	64,165	-0,160	-0,111
299,618	90,062	-0,256	-0,197
300,633	208,970	-0,213	-0,230
301,647	50,867	-0,048	-0,032
302,662	327,358	-0,099	-0,131
303,676	-200,000	0,012	-0,091
304,691	12,316	-0,107	-0,057
305,706	800,000	-0,055	-0,122
306,720	643,171	-0,155	-0,274
307,735	28,976	-0,261	-0,152
308,749	-200,000	-0,016	-0,231
309,764	-65,360	-0,174	-0,048
310,779	-63,186	-0,075	-0,021
311,793	766,772	-0,090	-0,169
312,808	-105,932	-0,254	-0,039
313,822	162,929	-0,196	-0,190
314,837	-200,000	-0,029	-0,163
315,852	235,075	-0,069	-0,078
316,866	-200,000	-0,046	-0,215
317,881	-68,471	-0,089	0,024
318,895	311,913	-0,142	-0,183
319,910	-31,630	-0,229	-0,088
320,925	48,661	-0,173	-0,111
321,939	374,513	-0,134	-0,189
322,954	-95,292	-0,132	-0,024
323,968	-200,000	-0,017	-0,073
324,983	-150,526	-0,118	-0,006
325,997	800,000	-0,086	-0,218
327,012	-200,000	-0,028	-0,203
328,027	800,000	-0,084	-0,217
329,041	-53,539	-0,153	-0,048
330,056	-185,085	-0,177	0,002
331,070	-99,103	-0,072	0,012
332,085	-141,333	-0,184	0,013
333,100	-112,657	-0,222	-0,030
334,114	-97,443	-0,179	-0,032
335,129	115,935	-0,132	-0,111
336,143	22,998	-0,114	-0,064
337,158	150,006	-0,093	-0,087
338,173	-1,955	-0,127	-0,061
339,187	-102,496	-0,114	-0,019
340,202	334,141	-0,046	-0,061
341,216	62,544	-0,233	-0,160
342,231	163,227	-0,153	-0,148
343,246	-53,391	-0,077	0,024
344,260	88,256	-0,128	-0,098
345,275	-86,842	-0,230	-0,048
346,289	-73,618	-0,175	-0,043
347,304	28,137	-0,173	-0,100
348,319	54,675	-0,189	-0,125
349,333	172,081	-0,139	-0,138
350,348	88,343	-0,084	-0,064
351,362	18,102	-0,280	-0,153
352,377	-99,735	-0,170	-0,029
353,392	800,000	0,060	-0,132
354,406	312,183	-0,088	-0,113
355,421	209,544	1315,107	1415,564
356,435	161,277	1475,882	1416,052
