DTS Sentinel unit serial number:	SN410029Multiplexer serial number:	ORYXHardware model number:	OX2-SRSoftware version number:	ORYX F/W v4,00 Oryx Data Collector v3.7.2.0data status	okinstallation	B3 Nyhavnadifferential loss correction	single-endedforward channel	channel 1reverse channel	N/Adate	2023/11/28time	22:52:30forward acquisition time	300,00reverse acquisition time	0,00gamma	499,1914k internal	0,3211k external	0,3211temperature offset calibration	1,0000default loss term (dB/km)	0,3820temperature slope calibration	1,0000multiplexer offset coefficient	1,0000multiplexer slope coefficient	1,0000fibre end	0,00T internal ref (°C)	8,64T ext. ref 1 (°C)	-6,01T ext. ref 2 (°C)	-6,16length (m)	temperature (°C)	Stokes	anti-Stokes-744,400	800,000	-0,153	-0,366
-743,385	235,989	0,123	0,147
-742,371	242,340	-0,070	-0,085
-741,356	800,000	-0,091	0,288
-740,342	-200,000	-0,032	-0,170
-739,327	-200,000	0,022	0,118
-738,312	269,065	-0,194	-0,248
-737,298	-200,000	-0,012	0,088
-736,283	228,309	-0,121	-0,143
-735,269	-200,000	0,069	0,278
-734,254	-46,269	-0,381	-0,135
-733,239	-54,907	-0,206	0,067
-732,225	682,279	-0,108	-0,205
-731,210	375,632	0,169	0,251
-730,196	-1,385	-0,158	-0,081
-729,181	285,587	-0,039	-0,051
-728,167	-200,000	-0,004	0,048
-727,152	-32,311	0,019	0,008
-726,137	-200,000	0,015	-0,071
-725,123	-200,000	0,003	-0,060
-724,108	-158,126	-0,157	-0,007
-723,094	-200,000	-0,003	-0,042
-722,079	49,266	-0,157	-0,107
-721,064	677,849	0,025	-0,046
-720,050	262,725	-0,035	0,044
-719,035	-42,193	-0,081	-0,030
-718,021	-200,000	0,012	-0,065
-717,006	800,000	-0,089	-0,197
-715,991	-200,000	0,018	-0,083
-714,977	765,765	0,031	-0,062
-713,962	-200,000	-0,003	0,043
-712,948	-34,549	-0,069	0,027
-711,933	-6,332	-0,124	0,061
-710,918	-80,690	0,164	0,039
-709,904	-82,784	-0,162	-0,038
-708,889	27,604	-0,079	-0,048
-707,875	800,000	0,043	-0,119
-706,860	100,367	-0,156	0,131
-705,845	-117,045	-0,050	-0,007
-704,831	224,081	0,053	0,062
-703,816	800,000	0,026	0,058
-702,802	-200,000	-0,011	-0,120
-701,787	61,414	-0,119	-0,086
-700,772	-79,723	-0,084	-0,020
-699,758	288,400	-0,078	-0,103
-698,743	66,836	0,138	-0,101
-697,729	355,919	0,077	0,111
-696,714	252,865	-0,053	-0,065
-695,699	-75,195	0,052	-0,013
-694,685	-200,000	-0,029	-0,105
-693,670	81,425	-0,043	0,033
-692,656	-200,000	-0,020	-0,227
-691,641	78,092	-0,028	-0,022
-690,627	312,500	0,082	0,112
-689,612	13,696	0,133	0,075
-688,597	-51,831	-0,067	0,023
-687,583	22,717	-0,039	-0,023
-686,568	-107,621	-0,053	0,008
-685,554	800,000	-0,053	-0,117
-684,539	305,677	0,017	0,023
-683,524	-130,221	-0,126	-0,012
-682,510	240,177	0,155	-0,188
-681,495	14,014	-0,094	-0,053
-680,481	123,976	-0,069	-0,063
-679,466	-161,223	-0,139	-0,005
-678,451	251,365	-0,035	-0,043
-677,437	-3,733	-0,042	-0,021
-676,422	790,609	0,032	0,064
-675,408	223,863	0,047	0,055
-674,393	327,371	-0,090	-0,126
-673,378	74,508	-0,051	0,039
-672,364	-200,000	0,005	0,022
-671,349	-18,618	-0,123	-0,055
-670,335	-200,000	0,001	0,052
-669,320	17,786	-0,094	-0,054
-668,305	-200,000	0,034	0,192
-667,291	154,608	-0,103	0,102
-666,276	-181,214	-0,094	-0,001
-665,262	-200,000	0,037	-0,164
-664,247	43,445	-0,019	0,013
-663,232	-58,626	-0,048	0,015
-662,218	-187,232	-0,020	0,000
-661,203	261,061	0,042	-0,052
-660,189	-49,247	0,029	0,010
-659,174	-149,667	-0,069	-0,004
-658,159	-200,000	-0,018	-0,079
-657,145	-23,399	-0,041	-0,018
-656,130	313,178	0,115	-0,156
-655,116	-200,000	0,030	-0,128
-654,101	-200,000	0,005	-0,075
-653,086	475,993	-0,116	-0,190
-652,072	-200,000	0,001	0,053
-651,057	-90,811	0,023	0,005
-650,043	-200,000	-0,040	0,159
-649,028	-161,487	0,102	0,004
-648,014	-25,490	0,104	-0,044
-646,999	-200,000	0,012	0,063
-645,984	-200,000	-0,036	-0,116
-644,970	-200,000	0,006	0,131
-643,955	255,876	-0,064	0,079
-642,941	-10,595	0,071	-0,034
-641,926	487,491	-0,062	-0,102
-640,911	-124,385	0,139	-0,016
-639,897	643,897	0,074	0,137
-638,882	-178,863	-0,111	0,002
-637,868	-200,000	0,038	0,000
-636,853	-5,117	-0,040	0,020
-635,838	-78,871	-0,034	0,008
-634,824	-120,258	-0,095	0,012
-633,809	576,762	0,037	-0,065
-632,795	-110,362	0,086	-0,013
-631,780	-112,995	-0,055	0,008
-630,765	-200,000	0,016	0,089
-629,751	14,365	-0,032	0,018
-628,736	57,091	-0,092	0,064
-627,722	-200,000	-0,014	-0,095
-626,707	263,732	0,018	0,022
-625,692	32,902	0,083	0,052
-624,678	41,064	-0,056	0,036
-623,663	800,000	0,052	0,134
-622,649	-38,615	-0,078	-0,030
-621,634	197,587	-0,039	-0,043
-620,619	376,336	0,073	-0,108
-619,605	-94,194	0,094	0,018
-618,590	-45,014	-0,101	-0,036
-617,576	658,203	0,027	-0,051
-616,561	73,896	-0,084	-0,064
-615,546	34,998	-0,097	-0,061
-614,532	-172,011	-0,125	-0,003
-613,517	140,507	0,047	0,045
-612,503	112,301	-0,066	0,058
-611,488	-44,818	0,108	0,039
-610,474	-200,000	0,006	0,050
-609,459	-108,058	0,202	-0,031
-608,444	-61,938	-0,126	-0,038
-607,430	230,840	-0,075	-0,089
-606,415	329,831	-0,134	-0,186
-605,401	-82,352	-0,033	0,008
-604,386	-40,388	-0,091	-0,034
-603,371	103,060	-0,084	0,071
-602,357	-200,000	-0,004	0,156
-601,342	455,175	0,048	-0,078
-600,328	117,145	-0,012	-0,011
-599,313	-165,287	-0,205	-0,006
-598,298	125,086	-0,030	0,027
-597,284	45,721	0,127	0,085
-596,269	-200,000	-0,012	0,126
-595,255	-15,733	-0,031	-0,014
-594,240	-78,211	0,105	-0,026
-593,225	40,709	-0,041	-0,027
-592,211	-126,547	-0,057	-0,006
-591,196	777,569	0,028	-0,055
-590,182	-84,047	0,034	-0,008
-589,167	137,384	0,031	0,030
-588,152	-200,000	-0,008	0,035
-587,138	166,889	0,027	-0,028
-586,123	23,163	-0,141	-0,083
-585,109	-76,602	-0,089	-0,022
-584,094	-157,121	-0,014	-0,001
-583,079	-200,000	-0,002	0,017
-582,065	-200,000	0,024	-0,114
-581,050	-200,000	0,025	-0,089
-580,036	-200,000	-0,016	0,098
-579,021	-200,000	-0,007	-0,129
-578,006	211,516	0,065	-0,074
-576,992	360,836	-0,048	0,070
-575,977	-3,202	-0,180	-0,090
-574,963	800,000	-0,021	0,056
-573,948	800,000	-0,014	0,028
-572,934	800,000	-0,050	-0,101
-571,919	-200,000	-0,004	-0,103
-570,904	-200,000	-0,020	-0,198
-569,890	800,000	0,032	0,097
-568,875	-37,873	0,101	-0,038
-567,861	800,000	-0,043	0,122
-566,846	-61,471	0,093	0,028
-565,831	98,169	-0,056	0,047
-564,817	275,496	0,038	0,048
-563,802	-200,000	-0,007	-0,098
-562,788	-3,504	-0,065	0,033
-561,773	-200,000	-0,013	-0,186
-560,758	-200,000	0,019	-0,082
-559,744	-81,161	0,126	-0,030
-558,729	800,000	-0,028	-0,064
-557,715	-200,000	0,011	-0,127
-556,700	800,000	-0,081	-0,183
-555,685	226,133	-0,049	-0,057
-554,671	-200,000	0,022	0,173
-553,656	271,314	0,037	0,047
-552,642	800,000	-0,054	0,146
-551,627	-200,000	-0,034	-0,165
-550,612	73,176	-0,094	-0,071
-549,598	420,722	-0,057	-0,089
-548,583	-200,000	0,013	0,088
-547,569	227,367	-0,073	0,085
-546,554	46,518	0,049	0,033
-545,539	800,000	-0,028	0,085
-544,525	-104,945	0,109	-0,018
-543,510	58,564	-0,101	-0,071
-542,496	543,421	-0,089	-0,153
-541,481	426,797	0,073	-0,113
-540,466	-200,000	-0,007	-0,145
-539,452	-84,581	0,137	0,031
-538,437	-48,502	0,063	0,022
-537,423	-71,865	0,140	0,037
-536,408	4,178	0,048	0,025
-535,393	-200,000	-0,021	-0,111
-534,379	39,285	0,030	-0,019
-533,364	183,211	-0,047	0,050
-532,350	-65,106	0,081	0,023
-531,335	-52,651	-0,110	0,036
-530,321	123,213	0,074	-0,067
-529,306	-56,027	-0,049	-0,016
-528,291	138,261	0,037	0,035
-527,277	-14,978	-0,026	0,012
-526,262	661,963	0,027	0,051
-525,248	-200,000	0,011	0,111
-524,233	-8,867	-0,052	-0,025
-523,218	310,982	0,080	0,109
-522,204	-200,000	0,006	-0,097
-521,189	800,000	-0,009	0,020
-520,175	-167,679	-0,171	-0,005
-519,160	93,522	-0,067	-0,055
-518,145	-136,767	0,078	0,006
-517,131	-45,389	-0,034	0,012
-516,116	106,337	0,072	0,061
-515,102	800,000	-0,009	-0,022
-514,087	-52,576	0,063	-0,021
-513,072	-69,128	-0,139	0,038
-512,058	180,680	-0,099	0,104
-511,043	313,921	-0,054	0,073
-510,029	-23,969	0,031	0,013
-509,014	-193,948	0,120	0,001
-507,999	-137,175	0,038	-0,003
-506,985	201,276	-0,026	0,029
-505,970	21,740	0,033	-0,019
-504,956	110,060	-0,099	-0,085
-503,941	39,378	-0,019	-0,012
-502,926	98,451	0,150	0,124
-501,912	33,618	0,137	0,085
-500,897	-2,712	-0,109	0,055
-499,883	-107,682	-0,067	0,010
-498,868	134,307	0,085	-0,079
-497,853	800,000	-0,064	-0,141
-496,839	165,399	0,118	-0,120
-495,824	441,751	0,049	0,077
-494,810	79,217	-0,042	0,032
-493,795	800,000	-0,055	-0,113
-492,781	-67,904	-0,137	-0,038
-491,766	365,012	-0,066	-0,096
-490,751	-43,475	-0,094	-0,034
-489,737	-200,000	-0,012	0,044
-488,722	3,777	-0,090	-0,047
-487,708	-53,981	0,063	-0,021
-486,693	419,440	0,023	-0,036
-485,678	574,212	0,060	-0,106
-484,664	39,064	-0,075	-0,048
-483,649	341,744	-0,057	-0,080
-482,635	800,000	0,023	-0,071
-481,620	-3,480	0,132	0,066
-480,605	-200,000	-0,012	0,040
-479,591	40,869	0,092	0,060
-478,576	-115,784	0,048	-0,006
-477,562	277,324	0,063	0,081
-476,547	-122,068	0,182	0,021
-475,532	-60,178	0,046	-0,014
-474,518	800,000	-0,022	0,051
-473,503	-71,949	0,167	0,044
-472,489	-100,943	-0,057	-0,010
-471,474	-200,000	-0,002	-0,036
-470,459	-129,185	-0,054	0,005
-469,445	800,000	0,033	0,102
-468,430	-200,000	0,034	0,129
-467,416	-200,000	-0,026	0,084
-466,401	-200,000	0,023	0,145
-465,386	-35,769	0,061	-0,024
-464,372	800,000	-0,005	0,010
-463,357	-17,262	0,046	0,021
-462,343	800,000	-0,028	-0,071
-461,328	162,385	-0,061	-0,061
-460,313	267,738	-0,023	0,029
-459,299	-200,000	0,001	0,146
-458,284	6,816	0,097	-0,051
-457,270	624,665	-0,038	0,070
-456,255	-74,588	-0,028	-0,007
-455,241	-200,000	-0,029	-0,141
-454,226	-48,022	0,207	-0,071
-453,211	-153,287	-0,114	0,006
-452,197	800,000	-0,027	0,080
-451,182	341,324	0,055	-0,078
-450,168	-200,000	0,011	-0,116
-449,153	132,962	-0,072	0,067
-448,138	751,317	0,043	0,083
-447,124	-64,385	0,034	-0,010
-446,109	-102,254	0,111	0,019
-445,095	-119,839	-0,031	-0,004
-444,080	572,367	0,053	0,094
-443,065	-112,752	0,043	0,006
-442,051	-159,607	-0,059	0,002
-441,036	53,203	-0,045	-0,031
-440,022	291,056	-0,029	0,038
-439,007	-54,151	-0,041	-0,013
-437,992	-193,193	0,096	0,001
-436,978	130,836	0,061	0,056
-435,963	-47,145	-0,136	-0,047
-434,949	27,985	0,039	0,024
-433,934	800,000	0,073	-0,158
-432,919	413,533	-0,044	-0,068
-431,905	-200,000	0,024	0,087
-430,890	-200,000	-0,070	0,230
-429,876	800,000	0,044	0,129
-428,861	-105,311	0,002	0,000
-427,846	-200,000	0,002	-0,175
-426,832	598,424	-0,030	-0,054
-425,817	-200,000	-0,018	-0,136
-424,803	109,833	-0,080	0,069
-423,788	-200,000	0,025	0,091
-422,773	623,224	-0,014	-0,025
-421,759	113,257	-0,008	-0,007
-420,744	-119,416	-0,046	-0,006
-419,730	-115,100	-0,124	-0,017
-418,715	-70,301	0,153	-0,041
-417,701	800,000	0,027	0,060
-416,686	-104,162	0,068	-0,011
-415,671	-54,392	0,147	-0,047
-414,657	800,000	0,051	0,124
-413,642	211,794	-0,055	-0,062
-412,628	335,453	-0,082	0,114
-411,613	-200,000	0,029	-0,108
-410,598	194,174	-0,057	0,062
-409,584	-200,000	0,005	-0,061
-408,569	-71,029	0,165	-0,044
-407,555	49,377	0,132	-0,089
-406,540	-200,000	-0,010	-0,034
-405,525	467,250	-0,017	-0,028
-404,511	-120,014	-0,165	0,020
-403,496	131,508	-0,065	0,060
-402,482	-78,845	-0,132	0,032
-401,467	-141,854	-0,102	-0,007
-400,452	503,714	-0,076	-0,126
-399,438	-75,621	0,052	0,013
-398,423	800,000	0,021	0,046
-397,409	31,358	-0,094	0,057
-396,394	10,477	-0,112	-0,061
-395,379	55,940	-0,042	-0,029
-394,365	262,064	0,061	-0,076
-393,350	-200,000	-0,001	0,095
-392,336	800,000	0,061	0,140
-391,321	126,893	-0,066	-0,060
-390,306	197,397	-0,073	-0,079
-389,292	317,613	-0,070	-0,095
-388,277	-2,878	-0,006	-0,003
-387,263	84,515	0,114	0,089
-386,248	800,000	0,012	0,028
-385,233	184,195	-0,094	0,099
-384,219	166,353	-0,080	0,081
-383,204	-200,000	-0,010	-0,148
-382,190	-200,000	-0,019	-0,161
-381,175	91,021	0,076	0,061
-380,160	-89,809	0,143	-0,030
-379,146	-200,000	0,017	0,076
-378,131	800,000	0,057	0,161
-377,117	156,079	0,109	0,108
-376,102	-200,000	0,018	0,146
-375,088	-200,000	0,003	0,074
-374,073	-200,000	0,003	0,097
-373,058	-5,273	0,078	-0,038
-372,044	-136,708	0,234	-0,019
-371,029	251,995	-0,130	-0,159
-370,015	92,430	0,043	-0,035
-369,000	-74,282	-0,035	0,009
-367,985	-52,068	0,132	-0,043
-366,971	800,000	-0,033	-0,092
-365,956	-200,000	0,004	-0,042
-364,942	-200,000	0,042	0,136
-363,927	112,163	-0,073	-0,063
-362,912	-200,000	0,035	-0,109
-361,898	91,006	0,077	-0,062
-360,883	-64,300	0,034	-0,010
-359,869	208,348	-0,017	0,019
-358,854	-157,239	-0,083	-0,004
-357,839	-21,685	0,065	-0,028
-356,825	-32,955	0,217	0,086
-355,810	-200,000	-0,027	0,167
-354,796	-84,234	0,034	0,008
-353,781	214,789	-0,051	0,058
-352,766	36,404	-0,078	-0,049
-351,752	-193,853	0,078	-0,000
-350,737	800,000	-0,019	0,050
-349,723	-7,300	-0,046	-0,022
-348,708	-15,207	-0,123	0,056
-347,693	800,000	-0,040	0,108
-346,679	-24,993	0,007	0,003
-345,664	800,000	-0,016	-0,040
-344,650	71,699	0,098	0,072
-343,635	-200,000	-0,024	-0,175
-342,620	329,335	0,042	0,058
-341,606	178,084	0,093	0,097
-340,591	37,915	-0,029	-0,018
-339,577	800,000	-0,050	-0,144
-338,562	-35,596	0,122	-0,047
-337,548	-200,000	-0,021	-0,106
-336,533	356,366	-0,088	0,125
-335,518	-200,000	0,001	0,065
-334,504	-72,959	0,184	-0,048
-333,489	66,943	-0,049	-0,036
-332,475	-117,299	-0,030	-0,004
-331,460	-200,000	0,012	-0,060
-330,445	33,923	0,037	0,023
-329,431	800,000	0,051	0,146
-328,416	-200,000	-0,016	0,068
-327,402	16,620	-0,053	-0,030
-326,387	-163,511	-0,103	-0,003
-325,372	-39,180	-0,125	-0,046
-324,358	412,816	0,059	-0,090
-323,343	800,000	-0,019	-0,058
-322,329	-200,000	0,007	0,077
-321,314	-52,526	0,139	-0,046
-320,299	-200,000	0,008	-0,027
-319,285	20,482	0,096	-0,055
-318,270	-200,000	0,014	-0,108
-317,256	555,998	-0,017	0,029
-316,241	694,400	-0,055	-0,104
-315,226	800,000	0,040	0,094
-314,212	2,447	0,036	0,018
-313,197	463,090	-0,011	0,017
-312,183	299,655	-0,015	0,020
-311,168	-163,998	-0,109	0,004
-310,153	800,000	-0,024	-0,059
-309,139	-8,008	-0,118	-0,057
-308,124	800,000	0,013	-0,034
-307,110	-112,111	0,097	0,014
-306,095	639,172	0,040	-0,073
-305,080	-114,795	-0,052	-0,007
-304,066	-200,000	-0,021	-0,074
-303,051	-200,000	0,002	0,087
-302,037	155,179	0,056	-0,055
-301,022	364,809	-0,013	0,018
-300,008	-144,170	0,104	0,007
-298,993	-200,000	0,028	0,199
-297,978	72,738	0,089	0,066
-296,964	-5,237	-0,154	0,075
-295,949	-200,000	-0,005	-0,048
-294,935	-110,440	0,015	0,002
-293,920	-200,000	0,003	0,028
-292,905	16,262	0,110	-0,062
-291,891	-200,000	0,012	0,153
-290,876	-200,000	-0,027	0,092
-289,862	271,236	-0,118	0,148
-288,847	-200,000	-0,006	-0,075
-287,832	162,096	0,080	0,080
-286,818	-200,000	-0,024	0,103
-285,803	61,155	-0,087	0,062
-284,789	158,139	0,011	-0,010
-283,774	-200,000	-0,004	-0,060
-282,759	-128,104	-0,191	0,019
-281,745	-200,000	-0,020	-0,066
-280,730	32,032	-0,103	-0,063
-279,716	187,877	-0,037	-0,039
-278,701	-137,540	0,084	0,007
-277,686	-95,858	0,212	0,040
-276,672	-200,000	0,007	-0,022
-275,657	-43,118	0,066	0,024
-274,643	-21,167	-0,213	0,092
-273,628	3,790	0,023	-0,012
-272,613	-59,954	0,014	-0,004
-271,599	-19,853	-0,151	0,066
-270,584	-200,000	-0,006	0,080
-269,570	-200,000	0,006	0,068
-268,555	287,216	0,087	-0,113
-267,540	99,714	0,049	0,040
-266,526	-2,985	-0,056	0,028
-265,511	-125,093	0,030	0,003
-264,497	-110,405	0,050	-0,007
-263,482	-200,000	0,041	0,176
-262,467	-116,692	-0,114	-0,015
-261,453	5,572	0,040	-0,021
-260,438	800,000	0,043	-0,109
-259,424	-200,000	-0,017	-0,127
-258,409	-200,000	-0,006	0,041
-257,395	178,878	0,043	-0,044
-256,380	378,960	0,044	-0,064
-255,365	-69,175	0,102	-0,028
-254,351	20,358	0,033	-0,019
-253,336	-103,836	-0,128	-0,021
-252,322	-200,000	0,006	-0,197
-251,307	-97,024	-0,021	0,004
-250,292	369,096	-0,054	0,077
-249,278	538,637	0,109	0,184
-248,263	-200,000	0,031	0,140
-247,249	-200,000	-0,071	0,233
-246,234	137,418	-0,096	-0,089
-245,219	52,192	0,060	-0,040
-244,205	636,615	-0,029	0,053
-243,190	-200,000	0,029	-0,114
-242,176	21,515	0,061	0,035
-241,161	800,000	0,050	0,099
-240,146	-171,797	0,129	-0,003
-239,132	-200,000	-0,020	0,075
-238,117	788,895	-0,031	-0,061
-237,103	-200,000	0,023	-0,139
-236,088	-200,000	-0,023	-0,186
-235,073	105,012	0,065	0,055
-234,059	800,000	0,024	0,069
-233,044	-200,000	0,008	0,027
-232,030	10,073	0,045	0,024
-231,015	-80,398	0,030	-0,007
-230,000	476,027	-0,023	-0,036
-228,986	-200,000	0,009	-0,046
-227,971	186,118	0,048	-0,051
-226,957	-200,000	-0,013	0,075
-225,942	800,000	0,039	0,086
-224,927	11,033	0,033	-0,018
-223,913	-141,691	-0,079	-0,006
-222,898	800,000	-0,048	-0,102
-221,884	-122,823	-0,110	-0,012
-220,869	-93,604	0,074	-0,014
-219,855	-43,137	0,018	-0,006
-218,840	-12,404	0,018	0,008
-217,825	-200,000	0,001	0,006
-216,811	-200,000	-0,013	-0,229
-215,796	355,558	-0,111	-0,157
-214,782	130,838	0,049	-0,044
-213,767	767,678	-0,066	-0,128
-212,752	-200,000	-0,007	0,122
-211,738	-200,000	-0,048	0,000
-210,723	-59,844	0,097	-0,029
-209,709	150,695	-0,014	-0,013
-208,694	-200,000	0,034	-0,113
-207,679	-200,000	-0,006	0,097
-206,665	-200,000	-0,013	-0,050
-205,650	147,175	0,043	0,041
-204,636	-200,000	0,008	-0,028
-203,621	41,239	0,043	0,028
-202,606	132,458	-0,073	-0,067
-201,592	-96,391	-0,100	-0,019
-200,577	-96,467	0,069	-0,013
-199,563	41,860	0,009	-0,006
-198,548	-55,254	0,147	-0,047
-197,533	-76,860	0,090	0,022
-196,519	140,652	-0,031	0,030
-195,504	800,000	0,024	-0,048
-194,490	211,177	-0,032	-0,036
-193,475	24,282	-0,130	0,076
-192,460	-200,000	-0,008	0,061
-191,446	55,252	0,079	0,054
-190,431	-200,000	0,022	0,070
-189,417	8,986	-0,135	0,072
-188,402	134,847	0,093	0,086
-187,387	-200,000	0,002	0,140
-186,373	570,618	-0,028	-0,048
-185,358	800,000	0,012	-0,030
-184,344	-200,000	0,020	-0,065
-183,329	-93,856	0,100	0,019
-182,315	126,005	0,048	0,043
-181,300	-14,001	0,067	-0,030
-180,285	38,054	-0,025	0,016
-179,271	-200,000	0,013	-0,159
-178,256	-87,861	-0,166	0,035
-177,242	69,777	0,049	0,036
-176,227	-200,000	0,005	0,068
-175,212	340,026	-0,024	0,033
-174,198	616,387	0,037	-0,066
-173,183	-77,852	-0,107	-0,026
-172,169	-200,000	0,046	-0,176
-171,154	-200,000	0,039	0,130
-170,139	-138,256	-0,068	0,005
-169,125	800,000	0,023	0,059
-168,110	66,936	-0,038	0,028
-167,096	17,376	-0,049	0,028
-166,081	-200,000	-0,050	0,158
-165,066	767,753	-0,030	0,058
-164,052	521,880	-0,055	0,091
-163,037	-200,000	-0,013	0,097
-162,023	467,172	0,041	0,065
-161,008	800,000	0,054	0,154
-159,993	65,035	0,080	-0,057
-158,979	-0,690	-0,118	-0,059
-157,964	-64,603	-0,167	0,048
-156,950	-31,394	0,025	0,010
-155,935	-200,000	0,005	0,035
-154,920	800,000	-0,028	-0,086
-153,906	-80,676	-0,049	-0,012
-152,891	-200,000	-0,007	-0,068
-151,877	90,131	-0,130	-0,103
-150,862	297,361	0,085	-0,111
-149,847	39,750	-0,081	-0,051
-148,833	-200,000	-0,029	0,151
-147,818	-200,000	-0,010	0,065
-146,804	-85,849	0,036	-0,008
-145,789	-183,633	-0,114	0,001
-144,775	181,582	-0,065	0,068
-143,760	-88,266	0,055	0,012
-142,745	-174,979	-0,088	0,002
-141,731	18,222	0,104	0,059
-140,716	52,725	-0,032	0,022
-139,702	-200,000	0,027	0,094
-138,687	800,000	-0,034	-0,079
-137,672	-27,464	-0,119	0,049
-136,658	1,057	0,044	-0,022
-135,643	338,569	-0,038	0,052
-134,629	448,110	-0,074	0,116
-133,614	-33,056	0,142	0,056
-132,599	71,407	0,022	0,016
-131,585	800,000	0,077	-0,171
-130,570	-200,000	-0,034	0,111
-129,556	23,283	-0,022	-0,013
-128,541	129,710	-0,144	-0,130
-127,526	281,900	0,071	-0,091
-126,512	-200,000	0,006	-0,049
-125,497	-58,226	0,125	-0,038
-124,483	533,109	-0,047	0,079
-123,468	-200,000	-0,006	0,119
-122,453	-106,456	-0,053	-0,008
-121,439	76,952	-0,085	-0,063
-120,424	-48,497	-0,082	-0,028
-119,410	-41,568	0,030	0,011
-118,395	-200,000	-0,016	-0,055
-117,380	298,148	-0,007	-0,009
-116,366	199,246	-0,066	0,071
-115,351	800,000	-0,021	-0,043
-114,337	-56,170	-0,135	0,042
-113,322	-200,000	-0,039	-0,168
-112,307	371,280	-0,020	-0,029
-111,293	800,000	-0,102	0,258
-110,278	-49,426	0,054	0,018
-109,264	96,275	-0,090	-0,073
-108,249	800,000	-0,033	0,090
-107,234	800,000	0,026	-0,055
-106,220	-200,000	-0,012	0,152
-105,205	-200,000	0,033	-0,114
-104,191	-200,000	0,007	0,038
-103,176	-10,364	-0,042	0,020
-102,162	411,414	0,024	0,037
-101,147	655,807	-0,035	-0,065
-100,132	-129,378	0,114	-0,011
-99,118	-200,000	-0,016	-0,147
-98,103	-108,033	-0,098	0,015
-97,089	800,000	0,026	0,050
-96,074	-93,814	0,114	-0,022
-95,059	386,903	-0,103	-0,151
-94,045	228,750	0,022	-0,026
-93,030	-200,000	-0,008	-0,147
-92,016	-200,000	-0,002	-0,036
-91,001	-200,000	-0,011	-0,174
-89,986	135,867	0,071	-0,065
-88,972	121,430	0,107	0,095
-87,957	-85,709	-0,040	-0,009
-86,943	800,000	0,011	0,034
-85,928	800,000	0,056	0,145
-84,913	-151,749	-0,060	-0,003
-83,899	11,534	-0,052	0,028
-82,884	-54,799	-0,124	-0,039
-81,870	800,000	0,025	0,076
-80,855	322,491	0,041	0,055
-79,840	52,780	-0,072	-0,049
-78,826	-200,000	0,035	-0,119
-77,811	800,000	-0,059	-0,180
-76,797	118,305	0,027	-0,023
-75,782	708,693	-0,061	0,115
-74,767	-200,000	-0,017	0,063
-73,753	-78,666	-0,023	-0,005
-72,738	298,703	-0,023	-0,030
-71,724	157,416	-0,022	-0,021
-70,709	139,482	-0,031	-0,029
-69,694	-171,573	-0,136	0,003
-68,680	800,000	-0,014	0,042
-67,665	52,724	0,049	0,033
-66,651	-200,000	0,007	-0,041
-65,636	-200,000	0,014	0,125
-64,622	327,305	0,033	0,044
-63,607	-109,560	-0,189	-0,028
-62,592	323,763	-0,006	0,008
-61,578	-200,000	0,011	-0,041
-60,563	81,120	0,155	0,118
-59,549	570,613	-0,076	0,132
-58,534	79,132	-2,120	-1,602
-57,519	662,408	-1,091	-1,994
-56,505	-200,000	-0,467	-4,326
-55,490	543,649	0,978	1,654
-54,476	800,000	5,149	11,267
-53,461	-200,000	22,112	340,587
-52,446	800,000	757,624	2296,820
-51,432	533,068	1649,540	2766,907
-50,417	68,816	1647,644	1192,377
-49,403	16,315	1522,702	845,595
-48,388	10,482	1447,548	775,818
-47,373	19,186	1439,579	813,026
-46,359	13,950	1428,233	781,852
-45,344	8,786	1424,400	755,284
-44,330	8,751	1422,407	754,033
-43,315	8,728	1420,507	752,883
-42,300	8,691	1418,975	751,869
-41,286	8,746	1417,550	751,344
-40,271	8,777	1416,157	750,723
-39,257	8,721	1415,069	749,849
-38,242	8,728	1414,169	749,375
-37,227	8,734	1412,997	748,756
-36,213	8,758	1411,724	748,164
-35,198	8,761	1410,206	747,344
-34,184	8,740	1409,609	746,898
-33,169	8,699	1408,164	745,911
-32,154	8,733	1407,214	745,539
-31,140	8,672	1405,907	744,531
-30,125	8,781	1404,680	744,359
-29,111	8,739	1403,559	743,540
-28,096	8,764	1402,436	743,032
-27,082	8,684	1401,134	741,943
-26,067	8,633	1400,193	741,178
-25,052	8,695	1399,099	740,856
-24,038	8,662	1398,164	740,175
-23,023	8,671	1397,048	739,597
-22,009	8,647	1396,133	738,973
-20,994	8,682	1394,968	738,491
-19,979	8,653	1394,130	737,882
-18,965	8,631	1393,354	737,340
-17,950	8,627	1392,269	736,717
-16,936	8,575	1391,539	736,062
-15,921	8,563	1390,622	735,495
-14,906	8,612	1389,598	735,147
-13,892	8,639	1388,553	734,690
-12,877	8,580	1387,909	734,049
-11,863	8,614	1387,019	733,704
-10,848	8,576	1386,130	733,032
-9,833	8,513	1385,216	732,229
-8,819	8,498	1384,391	731,694
-7,804	8,504	1383,325	731,130
-6,790	8,467	1382,294	730,386
-5,775	8,474	1381,623	730,034
-4,760	8,525	1380,421	729,602
-3,746	8,503	1379,504	728,992
-2,731	8,537	1378,378	728,520
-1,717	8,552	1377,502	728,097
-0,702	8,464	1376,069	726,908
0,313	12,446	1287,579	698,237
1,327	28,281	680,393	404,416
2,342	44,497	116,979	75,658
3,356	-0,485	16,481	8,224
4,371	3,185	3,841	1,964
5,386	13,858	1,305	0,713
6,400	800,000	0,275	0,595
7,415	-200,000	-0,007	-0,077
8,429	183,886	-0,261	-0,272
9,444	146,404	-0,263	-0,249
10,459	186,608	-0,234	-0,245
11,473	123,033	-0,266	-0,234
12,488	250,827	-0,153	-0,183
13,502	86,750	-0,275	-0,214
14,517	43,810	-0,369	-0,238
15,531	-6,594	-0,418	-0,200
16,546	17,384	-0,255	-0,142
17,561	-43,066	-0,569	-0,202
18,575	-82,269	-0,199	0,045
19,590	106,147	-0,203	-0,169
20,604	89,508	-0,243	-0,191
21,619	88,657	-0,393	-0,307
22,634	90,799	-0,465	-0,366
23,648	176,048	-0,413	-0,423
24,663	18,310	-0,469	-0,263
25,677	15,803	-0,384	-0,212
26,692	5,382	-0,352	-0,182
27,707	-1,861	-0,363	-0,179
28,721	90,988	-0,386	-0,304
29,736	165,851	-0,394	-0,393
30,750	77,842	-0,440	-0,330
31,765	30,576	-0,445	-0,267
32,780	32,939	-0,372	-0,226
33,794	52,829	-0,432	-0,290
34,809	64,050	-0,344	-0,243
35,823	65,615	-0,271	-0,193
36,838	48,113	-0,418	-0,275
37,853	198,956	-0,358	-0,386
38,867	258,758	-0,259	-0,315
39,882	-55,101	-0,360	-0,113
40,896	157,311	-0,247	-0,240
41,911	116,053	-0,369	-0,318
42,926	37,120	-0,383	-0,238
43,940	43,050	-0,407	-0,261
44,955	120,121	-0,420	-0,366
45,969	218,769	-0,246	-0,276
46,984	-2,812	-0,423	-0,207
47,999	-35,676	-0,296	-0,112
49,013	-38,567	-0,297	-0,110
50,028	162,627	-0,280	-0,276
51,042	38,731	-0,310	-0,194
52,057	84,945	-0,294	-0,226
53,071	24,352	-0,316	-0,183
54,086	-43,761	-0,356	-0,125
55,101	40,916	-0,294	-0,186
56,115	-43,347	-0,370	-0,131
57,130	-9,431	-0,259	-0,121
58,144	77,081	-0,359	-0,268
59,159	192,313	-0,298	-0,316
60,174	9,024	-0,251	-0,133
61,188	-0,636	-0,376	-0,187
62,203	77,408	-0,314	-0,234
63,217	-99,505	-0,197	-0,035
64,232	-65,882	-0,385	-0,107
65,247	245,566	-0,287	-0,339
66,261	66,194	-0,346	-0,246
67,276	10,903	-0,374	-0,200
68,290	16,807	-0,337	-0,186
69,305	105,850	-0,193	-0,160
70,320	-40,094	-0,164	-0,060
71,334	-200,000	-0,051	-0,212
72,349	25,487	-0,345	-0,201
73,363	800,000	-0,125	-0,346
74,378	62,658	-0,280	-0,196
75,393	301,192	-0,201	-0,260
76,407	11,657	-0,354	-0,190
77,422	11,592	-0,251	-0,135
78,436	14,485	-0,198	-0,108
79,451	75,420	-0,286	-0,211
80,466	244,919	-0,251	-0,296
81,480	30,657	-0,411	-0,246
82,495	52,691	-0,246	-0,164
83,509	31,628	-0,218	-0,131
84,524	81,823	-0,230	-0,174
85,539	55,002	-0,354	-0,239
86,553	204,916	-0,238	-0,259
87,568	68,293	-0,335	-0,240
88,582	126,614	-0,304	-0,269
89,597	129,485	-0,359	-0,321
90,611	-37,952	-0,207	-0,076
91,626	-19,950	-0,275	-0,118
92,641	-121,695	-0,254	-0,029
93,655	47,778	-0,329	-0,214
94,670	184,594	-0,278	-0,288
95,684	800,000	-0,181	-0,361
96,699	-39,912	-0,348	-0,126
97,714	-126,425	-0,296	-0,030
98,728	81,086	-0,193	-0,146
99,743	174,079	-0,208	-0,210
100,757	-94,972	-0,324	-0,061
101,772	-88,132	-0,303	-0,063
102,787	66,454	-0,286	-0,203
103,801	399,294	-0,193	-0,283
104,816	291,661	-0,156	-0,199
105,830	-123,710	-0,320	-0,035
106,845	-56,352	-0,277	-0,085
107,860	-97,202	-0,321	-0,058
108,874	-83,257	-0,297	-0,066
109,889	-10,395	-0,191	-0,088
110,903	126,910	-0,212	-0,188
111,918	-152,938	-0,222	-0,011
112,933	-59,655	-0,203	-0,060
113,947	-88,048	-0,271	-0,056
114,962	124,539	-0,245	-0,216
115,976	22,319	-0,308	-0,175
116,991	25,508	-0,315	-0,183
118,006	316,608	-0,213	-0,282
119,020	76,465	-0,344	-0,254
120,035	475,384	-0,213	-0,337
121,049	444,987	-0,135	-0,208
122,064	65,122	-0,284	-0,200
123,079	-59,647	-0,245	-0,073
124,093	188,998	-0,280	-0,293
125,108	-59,439	-0,154	-0,046
126,122	-104,210	-0,291	-0,047
127,137	37,355	-0,183	-0,113
128,151	57,193	-0,163	-0,111
129,166	-24,490	-0,310	-0,128
130,181	85,812	-0,197	-0,151
131,195	-9,263	-0,221	-0,102
132,210	800,000	-0,096	-0,247
133,224	138,296	-0,242	-0,221
134,239	121,165	-0,180	-0,156
135,254	-40,537	-0,312	-0,112
136,268	31,426	-0,305	-0,182
137,283	69,205	-0,219	-0,157
138,297	-25,813	-0,251	-0,103
139,312	46,992	-0,225	-0,145
140,327	93,334	-0,305	-0,240
141,341	311,416	-0,190	-0,248
142,356	11,692	-0,215	-0,115
143,370	-15,626	-0,271	-0,120
144,385	203,356	-0,123	-0,133
145,400	65,458	-0,135	-0,095
146,414	-12,264	-0,339	-0,154
147,429	124,929	-0,275	-0,241
148,443	24,560	-0,209	-0,120
149,458	232,708	-0,292	-0,335
150,473	104,267	-0,198	-0,162
151,487	-116,773	-0,246	-0,031
152,502	-44,319	-0,288	-0,100
153,516	200,641	-0,243	-0,260
154,531	460,203	-0,154	-0,240
155,546	37,851	-0,217	-0,134
156,560	357,693	-0,181	-0,252
157,575	233,813	-0,090	-0,103
158,589	-93,809	-0,289	-0,055
159,604	211,870	-0,169	-0,185
160,619	551,130	-0,197	-0,330
161,633	134,187	-0,184	-0,166
162,648	800,000	-0,131	-0,261
163,662	-35,878	-0,316	-0,118
164,677	61,853	-0,159	-0,110
165,692	-76,974	-0,300	-0,072
166,706	54,078	-0,317	-0,211
167,721	436,250	-0,104	-0,158
168,735	10,355	-0,351	-0,185
169,750	-83,292	-0,313	-0,069
170,764	659,962	-0,148	-0,265
171,779	31,843	-0,258	-0,154
172,794	-24,032	-0,252	-0,104
173,808	-22,734	-0,308	-0,129
174,823	121,777	-0,209	-0,181
175,837	219,852	-0,276	-0,308
176,852	800,000	-0,125	-0,268
177,867	61,246	-0,148	-0,102
178,881	224,146	-0,183	-0,205
179,896	505,465	-0,095	-0,154
180,910	322,777	-0,137	-0,181
181,925	-61,725	-0,274	-0,079
182,940	-25,912	-0,301	-0,122
183,954	667,782	-0,071	-0,127
184,969	-32,254	-0,217	-0,084
185,983	20,497	-0,135	-0,075
186,998	589,704	-0,157	-0,270
188,013	3,067	-0,307	-0,154
189,027	8,997	-0,251	-0,131
190,042	-70,624	-0,227	-0,059
191,056	3,516	-0,291	-0,147
192,071	167,884	-0,227	-0,224
193,086	-162,524	-0,140	-0,005
194,100	800,000	-0,120	-0,293
195,115	34,911	-0,231	-0,140
196,129	50,890	-0,247	-0,162
197,144	75,178	-0,225	-0,164
198,159	-13,639	-0,370	-0,165
199,173	216,169	-0,102	-0,113
200,188	-22,092	-0,205	-0,086
201,202	-60,921	-0,321	-0,094
202,217	-200,000	0,010	-0,063
203,232	134,330	-0,230	-0,207
204,246	379,324	-0,161	-0,230
205,261	90,926	-0,228	-0,177
206,275	47,345	-0,192	-0,124
207,290	110,082	-0,148	-0,123
208,304	20,294	-0,154	-0,086
209,319	-52,592	-0,167	-0,053
210,334	-65,782	-0,211	-0,058
211,348	264,285	-0,131	-0,159
212,363	51,642	-0,356	-0,234
213,377	800,000	-0,105	-0,263
214,392	414,311	-0,093	-0,137
215,407	-69,506	-0,117	0,031
216,421	-126,700	-0,139	-0,014
217,436	-95,480	-0,284	-0,052
218,450	48,791	-0,192	-0,125
219,465	467,094	-0,131	-0,204
220,480	73,903	-0,245	-0,178
221,494	85,875	-0,138	-0,105
222,509	-119,874	-0,146	-0,017
223,523	-55,049	-0,295	-0,091
224,538	306,568	-0,065	-0,084
225,553	800,000	-0,136	-0,300
226,567	152,039	-0,185	-0,174
227,582	-120,335	-0,178	-0,021
228,596	183,936	-0,133	-0,136
229,611	53,504	-0,140	-0,092
230,626	100,377	-0,047	-0,037
231,640	205,999	-0,131	-0,141
232,655	-139,954	-0,078	-0,006
233,669	61,694	-0,244	-0,168
234,684	48,310	-0,174	-0,113
235,699	800,000	-0,090	-0,182
236,713	-16,278	-0,075	-0,033
237,728	616,784	-0,140	-0,244
238,742	208,224	-0,166	-0,180
239,757	20,877	-0,209	-0,117
240,772	-110,191	-0,204	0,029
241,786	48,201	-0,161	-0,104
242,801	18,729	-0,194	-0,107
243,815	-200,000	-0,012	-0,159
244,830	52,709	-0,126	-0,083
245,844	507,796	-0,096	-0,155
246,859	85,651	-0,182	-0,138
247,874	428,238	-0,179	-0,268
248,888	86,212	-0,182	-0,139
249,903	46,196	-0,120	-0,077
250,917	-200,000	-0,005	0,019
251,932	-133,736	-0,234	-0,020
252,947	9,927	-0,137	-0,072
253,961	400,488	-0,162	-0,235
254,976	800,000	-0,141	-0,282
255,990	-5,456	-0,079	-0,037
257,005	59,970	-0,218	-0,148
258,020	-69,876	-0,208	-0,054
259,034	-61,677	-0,099	-0,028
260,049	-200,000	-0,260	0,000
261,063	-180,179	-0,253	-0,004
262,078	2,406	-0,213	-0,106
263,093	800,000	-0,073	-0,156
264,107	332,201	-0,120	-0,160
265,122	-31,021	-0,157	-0,061
266,136	-93,064	-0,213	-0,040
267,151	140,234	-0,140	-0,128
268,166	800,000	-0,081	-0,181
269,180	43,552	-0,190	-0,119
270,195	145,353	-0,157	-0,145
271,209	-20,873	-0,194	-0,081
272,224	52,973	-0,239	-0,157
273,239	144,671	-0,139	-0,128
274,253	800,000	-0,087	-0,234
275,268	11,195	-0,163	-0,085
276,282	57,814	-0,167	-0,112
277,297	56,989	-0,117	-0,078
278,312	127,817	-0,219	-0,192
279,326	206,993	-0,093	-0,100
280,341	218,060	-0,169	-0,186
281,355	15,265	-0,147	-0,079
282,370	800,000	-0,070	-0,141
283,384	-15,429	-0,189	-0,083
284,399	66,692	-0,098	-0,068
285,414	428,665	-0,159	-0,237
286,428	19,174	-0,054	-0,030
287,443	-200,000	-0,019	-0,071
288,457	-72,602	-0,244	-0,061
289,472	114,469	-0,115	-0,096
290,487	123,887	-0,210	-0,182
291,501	276,821	-0,145	-0,178
292,516	800,000	0,022	-0,068
293,530	-93,775	-0,134	0,025
294,545	269,173	-0,154	-0,186
295,560	39,024	-0,104	-0,064
296,574	29,311	-0,187	-0,109
297,589	-48,941	-0,099	-0,032
298,603	-22,054	-0,158	-0,066
299,618	134,564	-0,206	-0,184
300,633	16,400	-0,201	-0,108
301,647	8,058	-0,182	-0,094
302,662	202,764	-0,127	-0,135
303,676	-81,657	-0,086	0,019
304,691	-53,315	-0,124	-0,039
305,706	-31,661	-0,165	-0,063
306,720	251,604	-0,100	-0,117
307,735	-88,224	-0,157	0,032
308,749	-31,653	-0,168	-0,064
309,764	274,317	-0,077	-0,094
310,779	84,144	-0,142	0,106
311,793	-28,467	-0,119	-0,047
312,808	-3,771	-0,277	-0,131
313,822	82,589	-0,204	-0,152
314,837	-112,713	-0,220	-0,030
315,852	61,700	-0,136	-0,093
316,866	-76,353	-0,177	0,042
317,881	-184,970	-0,176	-0,002
318,895	169,118	-0,055	-0,054
319,910	-8,937	-0,171	-0,078
320,925	-82,249	-0,184	-0,041
321,939	42,732	-0,231	-0,144
322,954	-143,981	-0,169	-0,011
323,968	800,000	-0,068	-0,194
324,983	-28,073	-0,130	0,051
325,997	211,278	-0,128	-0,138
327,012	-151,218	-0,108	0,005
328,027	-100,174	-0,224	-0,038
329,041	800,000	-0,142	-0,296
330,056	-200,000	-0,050	-0,191
331,070	-26,934	-0,077	-0,031
332,085	145,210	-0,138	-0,127
333,100	-102,784	-0,091	-0,015
334,114	800,000	0,027	-0,079
335,129	-19,134	-0,312	-0,132
336,143	100,128	-0,088	-0,070
337,158	-127,224	-0,108	0,011
338,173	-59,859	-0,112	-0,033
339,187	-102,233	-0,090	-0,015
340,202	217,612	-0,139	-0,152
341,216	617,965	-0,176	-0,303
342,231	680,930	-0,099	-0,176
343,246	-75,321	-0,090	-0,022
344,260	79,853	-0,052	-0,038
345,275	-97,958	0,037	0,006
346,289	60,747	-0,053	0,036
347,304	121,929	-0,238	-0,204
348,319	39,181	-0,120	-0,073
349,333	-10,208	-0,206	-0,093
350,348	218,498	-0,226	-0,247
351,362	221,175	-0,138	-0,152
352,377	800,000	-0,067	-0,160
353,392	49,634	-0,131	-0,084
354,406	-175,644	-0,142	0,003
355,421	206,446	1307,486	1393,681
356,435	158,770	1467,302	1394,154
