DTS Sentinel unit serial number:	SN410029Multiplexer serial number:	ORYXHardware model number:	OX2-SRSoftware version number:	ORYX F/W v4,00 Oryx Data Collector v3.7.2.0data status	okinstallation	B3 Nyhavnadifferential loss correction	single-endedforward channel	channel 1reverse channel	N/Adate	2023/12/01time	18:22:30forward acquisition time	300,00reverse acquisition time	0,00gamma	499,1914k internal	0,3203k external	0,3203temperature offset calibration	1,0000default loss term (dB/km)	0,3820temperature slope calibration	1,0000multiplexer offset coefficient	1,0000multiplexer slope coefficient	1,0000fibre end	0,00T internal ref (°C)	14,80T ext. ref 1 (°C)	0,82T ext. ref 2 (°C)	0,80length (m)	temperature (°C)	Stokes	anti-Stokes-744,400	-200,000	-0,039	-0,275
-743,385	-200,000	0,049	0,481
-742,371	417,723	-0,084	-0,131
-741,356	-200,000	-0,064	0,241
-740,342	227,320	-0,210	-0,249
-739,327	800,000	0,175	0,409
-738,312	197,611	-0,272	-0,302
-737,298	-200,000	0,004	0,275
-736,283	477,898	-0,204	-0,338
-735,269	800,000	0,101	0,236
-734,254	-4,954	-0,214	-0,107
-733,239	84,190	-0,152	0,120
-732,225	-176,073	0,052	0,001
-731,210	199,694	0,093	0,104
-730,196	17,249	-0,068	0,039
-729,181	-200,000	-0,012	-0,110
-728,167	-200,000	-0,032	-0,108
-727,152	-62,273	0,088	-0,027
-726,137	-65,497	-0,198	-0,057
-725,123	241,709	-0,073	-0,089
-724,108	422,201	-0,074	-0,117
-723,094	38,622	-0,054	-0,035
-722,079	475,862	0,037	-0,060
-721,064	72,470	0,117	-0,089
-720,050	-86,011	0,083	-0,018
-719,035	-58,642	0,115	-0,036
-718,021	-41,596	-0,018	-0,007
-717,006	-200,000	-0,021	-0,074
-715,991	38,373	-0,143	-0,093
-714,977	207,638	-0,018	-0,021
-713,962	40,171	-0,114	-0,074
-712,948	86,104	0,167	0,133
-711,933	-6,615	-0,086	-0,042
-710,918	-126,426	-0,122	0,013
-709,904	-200,000	0,017	0,094
-708,889	363,143	0,019	0,028
-707,875	689,705	-0,038	-0,073
-706,860	800,000	-0,040	0,084
-705,845	-61,279	-0,146	-0,044
-704,831	-43,552	0,127	-0,046
-703,816	649,655	0,041	-0,077
-702,802	4,536	0,096	-0,051
-701,787	77,740	-0,043	-0,033
-700,772	-108,749	-0,027	0,004
-699,758	482,369	-0,035	-0,059
-698,743	-200,000	-0,036	0,163
-697,729	542,819	-0,031	-0,054
-696,714	26,829	0,055	-0,033
-695,699	55,459	-0,020	0,014
-694,685	-200,000	0,007	0,108
-693,670	499,171	0,014	0,024
-692,656	239,002	-0,021	0,026
-691,641	-66,180	0,105	-0,030
-690,627	-37,699	-0,099	0,038
-689,612	-200,000	-0,007	-0,075
-688,597	-200,000	-0,037	0,230
-687,583	78,419	-0,042	0,032
-686,568	-59,875	0,033	-0,010
-685,554	37,709	-0,118	-0,076
-684,539	169,765	-0,089	-0,092
-683,524	-20,677	0,003	0,001
-682,510	-200,000	-0,020	-0,082
-681,495	-200,000	0,020	0,158
-680,481	-117,542	0,006	0,001
-679,466	-200,000	0,002	-0,135
-678,451	-100,556	-0,090	-0,016
-677,437	127,961	0,073	0,067
-676,422	-200,000	0,001	0,079
-675,408	800,000	0,013	0,030
-674,393	800,000	-0,037	0,077
-673,378	-200,000	0,007	-0,103
-672,364	-94,040	-0,135	0,027
-671,349	-200,000	0,004	-0,106
-670,335	-200,000	0,007	-0,046
-669,320	268,479	0,110	0,140
-668,305	-101,434	0,066	0,011
-667,291	-200,000	0,004	-0,068
-666,276	104,972	-0,058	0,050
-665,262	-36,126	-0,056	-0,022
-664,247	392,129	-0,046	-0,070
-663,232	-28,010	-0,057	-0,024
-662,218	800,000	0,034	0,090
-661,203	-58,955	-0,020	-0,006
-660,189	59,042	0,044	-0,031
-659,174	-200,000	0,012	-0,067
-658,159	47,818	-0,113	-0,076
-657,145	-200,000	-0,008	-0,148
-656,130	97,626	-0,088	0,073
-655,116	800,000	0,037	-0,087
-654,101	-200,000	-0,019	0,097
-653,086	-200,000	0,009	0,046
-652,072	-42,112	0,081	-0,030
-651,057	-97,323	-0,066	0,012
-650,043	589,261	-0,050	-0,089
-649,028	800,000	-0,014	-0,029
-648,014	-200,000	0,007	0,121
-646,999	227,653	-0,008	-0,009
-645,984	-5,563	0,093	0,046
-644,970	-47,793	-0,118	0,041
-643,955	31,910	-0,019	-0,012
-642,941	323,732	-0,025	-0,035
-641,926	308,761	-0,043	0,058
-640,911	37,942	-0,059	-0,038
-639,897	800,000	0,045	0,123
-638,882	-161,366	-0,065	0,002
-637,868	800,000	0,068	0,141
-636,853	800,000	-0,033	0,074
-635,838	800,000	0,046	-0,144
-634,824	-200,000	0,004	-0,018
-633,809	-8,243	0,037	-0,018
-632,795	472,023	-0,041	0,068
-631,780	-61,933	0,146	0,044
-630,765	-200,000	-0,009	-0,058
-629,751	13,000	-0,049	-0,027
-628,736	173,263	0,009	-0,010
-627,722	-93,519	0,004	-0,001
-626,707	-200,000	-0,009	0,044
-625,692	-186,367	0,118	0,001
-624,678	112,814	0,079	-0,069
-623,663	44,993	-0,026	0,018
-622,649	-200,000	-0,015	-0,090
-621,634	768,045	0,057	-0,113
-620,619	-200,000	-0,016	-0,080
-619,605	48,151	0,027	0,018
-618,590	135,271	0,119	-0,112
-617,576	-141,788	-0,138	0,010
-616,561	108,024	0,065	-0,056
-615,546	536,426	-0,043	0,074
-614,532	536,066	-0,129	-0,223
-613,517	800,000	0,022	-0,056
-612,503	213,637	0,133	0,152
-611,488	-200,000	0,052	0,181
-610,474	800,000	0,047	0,135
-609,459	-200,000	-0,027	0,112
-608,444	34,519	0,113	-0,071
-607,430	318,054	-0,053	-0,072
-606,415	800,000	-0,045	-0,142
-605,401	800,000	-0,040	0,093
-604,386	-56,200	0,147	0,047
-603,371	380,799	-0,050	0,075
-602,357	158,009	0,030	-0,030
-601,342	312,943	-0,087	-0,119
-600,328	30,297	0,006	-0,004
-599,313	800,000	-0,014	-0,034
-598,298	-200,000	0,007	-0,044
-597,284	800,000	0,042	0,130
-596,269	-126,091	0,125	-0,013
-595,255	12,496	0,070	0,039
-594,240	800,000	0,003	-0,009
-593,225	-32,410	-0,111	0,044
-592,211	-130,801	0,077	0,007
-591,196	97,563	0,100	-0,083
-590,182	-81,049	-0,097	-0,023
-589,167	-68,142	0,123	0,034
-588,152	-200,000	0,005	0,133
-587,138	800,000	-0,056	0,157
-586,123	800,000	0,036	0,094
-585,109	-200,000	-0,008	-0,046
-584,094	366,051	-0,040	-0,059
-583,079	42,188	0,046	-0,030
-582,065	-51,422	0,059	-0,020
-581,050	-127,601	0,183	-0,019
-580,036	59,070	-0,119	0,084
-579,021	-42,523	-0,073	0,027
-578,006	800,000	-0,030	-0,077
-576,992	46,791	-0,182	-0,122
-575,977	-151,876	0,168	0,009
-574,963	800,000	0,035	0,095
-573,948	-23,491	0,105	-0,045
-572,934	244,285	-0,060	0,073
-571,919	-145,035	0,063	-0,004
-570,904	800,000	0,024	-0,063
-569,890	-80,299	0,083	0,020
-568,875	-52,934	-0,108	0,036
-567,861	364,689	0,019	-0,027
-566,846	62,938	0,142	0,102
-565,831	89,331	0,046	0,037
-564,817	800,000	-0,037	-0,107
-563,802	582,703	-0,032	-0,057
-562,788	-154,389	0,050	-0,002
-561,773	475,342	-0,046	0,076
-560,758	687,699	0,056	0,107
-559,744	-22,931	-0,056	0,024
-558,729	481,913	0,043	0,071
-557,715	-171,001	-0,099	0,002
-556,700	-200,000	-0,031	-0,126
-555,685	102,903	0,094	-0,079
-554,671	394,807	0,071	0,107
-553,656	172,598	0,024	0,025
-552,642	800,000	0,031	0,085
-551,627	800,000	-0,022	0,045
-550,612	618,763	0,017	-0,031
-549,598	800,000	-0,048	-0,100
-548,583	-5,364	-0,148	0,073
-547,569	640,708	-0,054	0,099
-546,554	800,000	0,050	0,105
-545,539	156,524	-0,119	-0,118
-544,525	-182,352	0,115	-0,002
-543,510	-37,696	-0,056	-0,021
-542,496	800,000	-0,105	-0,219
-541,481	-30,739	-0,122	-0,049
-540,466	-200,000	-0,035	0,185
-539,452	-200,000	0,011	0,062
-538,437	-104,477	0,059	0,010
-537,423	-65,785	-0,080	0,023
-536,408	123,633	-0,134	-0,121
-535,393	349,915	-0,098	0,140
-534,379	-170,623	0,089	0,002
-533,364	-148,783	-0,098	0,006
-532,350	-154,146	0,072	-0,003
-531,335	800,000	-0,016	-0,046
-530,321	432,456	-0,049	0,077
-529,306	-29,690	-0,112	-0,046
-528,291	-200,000	-0,002	0,064
-527,277	143,115	0,096	-0,092
-526,262	-163,628	-0,088	0,003
-525,248	-200,000	0,003	-0,105
-524,233	342,098	0,022	-0,031
-523,218	81,652	-0,028	0,022
-522,204	800,000	0,048	-0,112
-521,189	-200,000	0,003	-0,018
-520,175	-6,002	-0,141	-0,069
-519,160	-200,000	0,033	-0,117
-518,145	50,537	-0,118	-0,080
-517,131	-200,000	0,045	0,203
-516,116	122,813	-0,078	-0,071
-515,102	78,238	0,062	-0,048
-514,087	-85,143	0,046	0,010
-513,072	800,000	-0,036	-0,102
-512,058	95,797	-0,109	-0,090
-511,043	800,000	-0,024	-0,071
-510,029	-200,000	-0,003	0,057
-509,014	144,862	0,110	-0,106
-507,999	43,364	0,082	0,054
-506,985	-29,823	-0,103	-0,042
-505,970	-87,324	-0,013	-0,003
-504,956	116,884	0,051	-0,045
-503,941	361,906	-0,075	-0,108
-502,926	38,235	0,068	-0,043
-501,912	59,077	-0,064	-0,045
-500,897	-200,000	-0,016	-0,119
-499,883	800,000	0,056	0,119
-498,868	233,408	0,025	-0,029
-497,853	800,000	-0,032	-0,066
-496,839	291,696	0,034	-0,045
-495,824	101,860	0,075	0,063
-494,810	-62,947	0,033	0,010
-493,795	-89,185	-0,065	-0,014
-492,781	116,876	-0,046	-0,041
-491,766	-200,000	-0,013	-0,058
-490,751	-200,000	-0,007	0,093
-489,737	432,723	0,041	0,064
-488,722	-15,711	0,106	0,048
-487,708	41,393	-0,090	0,059
-486,693	-0,471	0,057	-0,029
-485,678	20,228	0,019	-0,011
-484,664	566,488	-0,007	-0,013
-483,649	800,000	0,064	-0,139
-482,635	-100,677	0,059	-0,010
-481,620	396,882	-0,055	-0,083
-480,605	205,130	-0,051	0,057
-479,591	800,000	0,043	0,089
-478,576	-200,000	0,024	0,152
-477,562	56,262	-0,027	-0,019
-476,547	-125,041	-0,143	0,016
-475,532	-9,523	0,044	-0,021
-474,518	-200,000	0,003	0,019
-473,503	95,538	0,087	0,072
-472,489	-99,599	0,051	-0,009
-471,474	165,458	0,037	-0,038
-470,459	-102,521	-0,198	0,034
-469,445	516,405	-0,009	0,016
-468,430	206,084	-0,055	-0,062
-467,416	408,952	0,110	0,168
-466,401	800,000	0,041	0,090
-465,386	800,000	0,018	0,045
-464,372	-5,956	-0,059	0,029
-463,357	800,000	-0,054	-0,112
-462,343	-200,000	-0,007	-0,113
-461,328	40,271	0,063	-0,041
-460,313	-0,296	-0,012	0,006
-459,299	15,672	-0,053	0,030
-458,284	-200,000	0,006	0,064
-457,270	-200,000	0,013	0,071
-456,255	800,000	0,049	0,099
-455,241	-21,925	-0,087	-0,038
-454,226	-133,031	0,116	0,010
-453,211	283,721	0,085	-0,110
-452,197	-200,000	0,021	-0,112
-451,182	800,000	0,003	0,008
-450,168	-200,000	0,005	0,059
-449,153	-43,107	-0,192	-0,070
-448,138	-117,121	-0,037	0,005
-447,124	87,585	-0,085	0,068
-446,109	120,042	-0,076	-0,068
-445,095	294,155	0,024	-0,032
-444,080	120,040	-0,035	0,031
-443,065	-200,000	0,004	0,062
-442,051	41,115	-0,051	-0,033
-441,036	-56,676	-0,039	-0,012
-440,022	800,000	-0,030	0,071
-439,007	-158,900	0,215	0,009
-437,992	-164,941	0,093	-0,003
-436,978	-200,000	0,017	-0,102
-435,963	307,659	0,035	-0,047
-434,949	404,983	0,011	0,016
-433,934	-200,000	-0,012	-0,083
-432,919	627,765	0,025	-0,045
-431,905	50,313	-0,044	0,030
-430,890	329,936	-0,072	0,100
-429,876	624,290	0,061	0,112
-428,861	800,000	0,036	0,080
-427,846	41,769	-0,104	-0,068
-426,832	-56,280	0,047	-0,015
-425,817	-73,721	-0,133	-0,035
-424,803	-200,000	-0,037	-0,197
-423,788	800,000	-0,025	-0,072
-422,773	-141,897	0,217	-0,015
-421,759	173,227	-0,034	0,035
-420,744	800,000	-0,096	0,199
-419,730	313,515	-0,066	0,090
-418,715	231,486	-0,022	-0,025
-417,701	-161,634	-0,084	-0,003
-416,686	26,099	-0,073	0,044
-415,671	800,000	0,096	0,191
-414,657	37,567	-0,050	-0,032
-413,642	12,161	0,107	0,059
-412,628	-6,501	0,064	-0,031
-411,613	-101,097	-0,090	0,016
-410,598	-142,445	0,130	-0,009
-409,584	-5,111	-0,092	-0,045
-408,569	800,000	0,038	0,101
-407,555	-160,510	-0,109	0,004
-406,540	217,838	0,090	0,103
-405,525	46,313	-0,098	0,065
-404,511	800,000	-0,037	-0,093
-403,496	123,458	-0,029	0,026
-402,482	800,000	0,026	-0,058
-401,467	-126,022	-0,029	-0,003
-400,452	-155,037	-0,053	-0,002
-399,438	-200,000	0,003	0,060
-398,423	-200,000	-0,022	0,075
-397,409	189,871	-0,063	0,068
-396,394	-145,160	-0,027	-0,002
-395,379	-200,000	-0,009	0,059
-394,365	-200,000	0,030	0,142
-393,350	-58,631	0,110	0,034
-392,336	112,170	0,072	-0,062
-391,321	-89,920	-0,054	0,011
-390,306	800,000	-0,051	-0,159
-389,292	571,838	-0,056	-0,098
-388,277	-200,000	0,011	-0,142
-387,263	-58,221	0,089	-0,028
-386,248	42,216	0,042	0,027
-385,233	-58,500	0,039	0,012
-384,219	-200,000	-0,006	-0,084
-383,204	-78,459	-0,174	0,042
-382,190	437,723	-0,032	0,051
-381,175	-9,713	-0,073	-0,035
-380,160	800,000	0,025	0,050
-379,146	116,945	0,067	0,059
-378,131	-200,000	-0,022	0,070
-377,117	-42,489	0,092	-0,033
-376,102	-110,621	-0,082	-0,012
-375,088	-77,335	0,117	-0,029
-374,073	319,868	0,037	0,051
-373,058	287,076	0,050	0,064
-372,044	-200,000	-0,015	-0,063
-371,029	101,239	0,142	0,119
-370,015	-142,242	0,059	-0,004
-369,000	431,435	-0,071	-0,111
-367,985	800,000	-0,003	-0,009
-366,971	-87,755	-0,084	0,018
-365,956	433,774	-0,081	-0,126
-364,942	-76,920	0,058	0,014
-363,927	-40,989	0,118	0,043
-362,912	72,126	0,110	0,082
-361,898	-166,467	-0,056	0,002
-360,883	57,635	-0,044	0,031
-359,869	667,591	-0,048	0,089
-358,854	485,366	0,059	-0,096
-357,839	-103,360	0,030	0,005
-356,825	-71,648	0,050	0,013
-355,810	800,000	0,045	-0,090
-354,796	800,000	-0,017	-0,036
-353,781	-56,340	-0,081	-0,025
-352,766	0,913	0,155	0,079
-351,752	-165,752	-0,143	0,004
-350,737	343,339	-0,046	0,064
-349,723	25,789	-0,065	0,039
-348,708	31,015	-0,086	-0,052
-347,693	-200,000	0,007	-0,103
-346,679	-66,532	-0,235	0,066
-345,664	71,678	0,076	-0,057
-344,650	284,209	0,015	0,020
-343,635	342,178	0,071	0,100
-342,620	104,951	0,094	0,079
-341,606	532,815	-0,046	-0,079
-340,591	-70,249	-0,085	-0,023
-339,577	201,119	0,063	-0,070
-338,562	-200,000	-0,006	-0,021
-337,548	800,000	-0,021	-0,052
-336,533	-200,000	-0,008	0,076
-335,518	53,415	-0,085	-0,059
-334,504	-200,000	-0,001	0,077
-333,489	674,214	0,045	-0,085
-332,475	217,215	-0,090	-0,102
-331,460	-200,000	0,017	-0,068
-330,445	-200,000	-0,030	-0,107
-329,431	-91,345	0,068	0,014
-328,416	-49,541	-0,082	-0,028
-327,402	7,624	0,070	0,037
-326,387	-200,000	0,000	0,004
-325,372	-200,000	0,023	-0,132
-324,358	-54,596	-0,024	0,008
-323,343	170,128	0,032	-0,033
-322,329	800,000	0,053	-0,131
-321,314	800,000	-0,026	0,076
-320,299	-200,000	-0,049	0,177
-319,285	131,971	-0,101	-0,093
-318,270	167,963	-0,110	-0,112
-317,256	800,000	-0,050	0,101
-316,241	-200,000	-0,015	-0,141
-315,226	-200,000	-0,038	-0,273
-314,212	-13,568	0,099	0,046
-313,197	-62,738	0,120	0,035
-312,183	135,965	-0,173	0,161
-311,168	-111,790	0,035	-0,005
-310,153	-99,055	-0,090	-0,016
-309,139	800,000	-0,024	-0,051
-308,124	-200,000	0,002	0,054
-307,110	7,393	0,144	0,077
-306,095	-99,524	0,159	-0,028
-305,080	-200,000	-0,003	0,080
-304,066	-200,000	-0,001	-0,065
-303,051	24,326	-0,079	-0,047
-302,037	-67,798	0,016	0,005
-301,022	125,306	-0,109	-0,098
-300,008	403,321	-0,059	-0,089
-298,993	-17,317	-0,083	0,037
-297,978	-10,027	0,123	0,058
-296,964	-200,000	0,007	0,074
-295,949	800,000	0,018	0,051
-294,935	218,670	-0,056	0,064
-293,920	31,279	-0,073	-0,044
-292,905	70,743	0,038	0,028
-291,891	800,000	0,058	0,130
-290,876	310,003	-0,055	0,073
-289,862	800,000	-0,013	0,032
-288,847	-99,145	0,134	-0,024
-287,832	-200,000	0,008	-0,076
-286,818	800,000	-0,032	-0,074
-285,803	279,048	0,042	-0,054
-284,789	-129,733	0,157	0,015
-283,774	-200,000	0,024	0,105
-282,759	-200,000	0,043	0,147
-281,745	-200,000	-0,002	-0,032
-280,730	608,386	-0,016	-0,029
-279,716	193,030	0,020	-0,021
-278,701	-75,760	0,134	0,034
-277,686	74,495	-0,152	0,114
-276,672	-200,000	-0,004	0,152
-275,657	367,010	0,091	0,131
-274,643	36,555	-0,065	0,041
-273,628	-200,000	-0,011	-0,082
-272,613	800,000	0,005	-0,014
-271,599	-101,078	0,105	-0,018
-270,584	25,922	0,135	-0,080
-269,570	800,000	-0,037	-0,078
-268,555	211,169	-0,049	0,055
-267,540	800,000	-0,046	-0,094
-266,526	-200,000	-0,040	-0,179
-265,511	0,588	-0,223	-0,113
-264,497	12,155	0,084	0,046
-263,482	-200,000	0,019	-0,062
-262,467	-200,000	0,008	0,044
-261,453	-200,000	0,001	-0,080
-260,438	-200,000	0,001	-0,092
-259,424	86,859	0,060	0,048
-258,409	234,035	0,092	-0,109
-257,395	-200,000	0,006	0,158
-256,380	-41,164	-0,068	0,025
-255,365	25,548	0,035	0,021
-254,351	-200,000	-0,005	0,033
-253,336	240,855	-0,045	-0,054
-252,322	-94,963	0,108	-0,021
-251,307	326,539	-0,047	-0,064
-250,292	137,864	-0,089	0,083
-249,278	316,007	0,022	0,030
-248,263	800,000	0,021	0,043
-247,249	-11,656	-0,084	0,039
-246,234	64,213	0,101	-0,072
-245,219	144,144	-0,031	0,029
-244,205	-200,000	-0,026	-0,108
-243,190	-200,000	-0,006	0,100
-242,176	800,000	-0,032	-0,070
-241,161	120,516	-0,035	-0,031
-240,146	390,754	0,082	-0,121
-239,132	153,714	0,015	-0,015
-238,117	215,754	-0,061	-0,069
-237,103	-52,608	0,207	-0,068
-236,088	46,014	0,024	0,016
-235,073	-200,000	0,006	0,025
-234,059	-200,000	0,021	0,089
-233,044	-14,858	0,023	-0,011
-232,030	-3,680	0,017	-0,008
-231,015	270,744	0,066	0,082
-230,000	800,000	-0,012	-0,033
-228,986	92,905	0,035	-0,029
-227,971	89,304	0,063	0,050
-226,957	-200,000	-0,007	0,068
-225,942	800,000	-0,056	0,119
-224,927	-139,965	0,076	0,006
-223,913	106,037	0,085	-0,072
-222,898	-153,123	-0,083	0,004
-221,884	-200,000	-0,006	-0,053
-220,869	800,000	-0,018	-0,051
-219,855	-41,918	-0,062	0,022
-218,840	-200,000	-0,001	0,110
-217,825	800,000	-0,060	0,122
-216,811	-92,696	-0,092	-0,018
-215,796	800,000	-0,029	0,081
-214,782	-200,000	0,008	-0,063
-213,767	-200,000	-0,005	-0,118
-212,752	-200,000	-0,035	0,132
-211,738	-170,349	0,115	0,003
-210,723	-22,831	0,088	0,038
-209,709	-83,377	-0,138	-0,031
-208,694	308,106	-0,082	-0,109
-207,679	-200,000	0,004	0,040
-206,665	-54,284	-0,032	-0,010
-205,650	471,259	-0,042	0,068
-204,636	347,455	0,033	0,047
-203,621	-53,954	-0,099	-0,032
-202,606	800,000	0,019	0,045
-201,592	800,000	0,009	-0,022
-200,577	215,252	0,088	-0,100
-199,563	452,052	0,055	0,088
-198,548	800,000	-0,021	0,056
-197,533	800,000	-0,071	0,154
-196,519	800,000	0,032	0,099
-195,504	-200,000	-0,006	-0,044
-194,490	251,691	-0,054	-0,065
-193,475	-65,297	-0,127	-0,036
-192,460	-200,000	-0,010	0,100
-191,446	-200,000	-0,024	-0,077
-190,431	-25,726	0,127	-0,053
-189,417	-27,967	0,041	0,017
-188,402	-200,000	0,001	0,006
-187,387	-50,040	-0,030	-0,010
-186,373	57,976	-0,071	-0,049
-185,358	-200,000	-0,036	-0,124
-184,344	-76,499	0,087	0,022
-183,329	-200,000	0,004	0,183
-182,315	800,000	0,024	0,061
-181,300	-161,480	0,051	0,002
-180,285	336,322	0,065	-0,089
-179,271	100,160	-0,113	-0,093
-178,256	199,156	0,039	-0,042
-177,242	-59,384	-0,139	0,042
-176,227	-83,746	0,064	-0,014
-175,212	-84,464	0,074	0,016
-174,198	-60,794	0,113	0,034
-173,183	-200,000	0,004	-0,067
-172,169	46,727	0,084	0,056
-171,154	-200,000	-0,017	0,085
-170,139	265,704	0,052	-0,065
-169,125	-200,000	-0,009	0,046
-168,110	-200,000	-0,001	-0,055
-167,096	-46,430	-0,045	0,016
-166,081	-67,946	0,097	-0,027
-165,066	-200,000	-0,009	-0,116
-164,052	155,394	0,200	0,196
-163,037	800,000	-0,029	-0,079
-162,023	-34,499	0,121	0,047
-161,008	-200,000	0,020	-0,085
-159,993	57,303	-0,049	-0,034
-158,979	-15,296	-0,153	0,069
-157,964	-200,000	0,004	-0,053
-156,950	-200,000	-0,007	0,053
-155,935	-22,776	-0,043	-0,019
-154,920	-200,000	0,011	0,050
-153,906	-1,035	-0,020	-0,010
-152,891	800,000	-0,049	-0,126
-151,877	-200,000	0,023	-0,082
-150,862	158,670	-0,069	-0,068
-149,847	32,041	-0,128	-0,078
-148,833	800,000	-0,066	-0,143
-147,818	-200,000	-0,007	-0,087
-146,804	2,557	0,052	0,027
-145,789	98,503	0,100	-0,082
-144,775	-31,716	-0,062	0,025
-143,760	-58,022	-0,078	0,024
-142,745	11,473	-0,067	0,036
-141,731	407,445	-0,016	0,025
-140,716	80,137	0,130	0,099
-139,702	800,000	-0,024	0,049
-138,687	153,736	0,114	-0,111
-137,672	-65,313	-0,177	0,050
-136,658	800,000	-0,010	-0,021
-135,643	-117,053	-0,168	-0,021
-134,629	-200,000	-0,009	0,123
-133,614	-45,054	0,136	0,048
-132,599	-200,000	0,013	0,047
-131,585	92,753	0,123	0,098
-130,570	-151,633	-0,088	0,005
-129,556	-200,000	-0,023	-0,082
-128,541	-149,746	-0,089	0,005
-127,526	-200,000	0,006	-0,058
-126,512	800,000	-0,041	0,099
-125,497	-200,000	-0,009	0,044
-124,483	177,233	-0,035	0,036
-123,468	-54,933	-0,067	-0,021
-122,453	-200,000	0,019	-0,124
-121,439	-101,695	0,101	-0,017
-120,424	-200,000	0,019	0,078
-119,410	-200,000	0,005	-0,030
-118,395	311,388	-0,050	-0,067
-117,380	-116,117	0,095	-0,012
-116,366	-17,194	0,031	0,014
-115,351	-155,600	0,038	0,002
-114,337	-94,342	-0,237	-0,045
-113,322	-200,000	0,013	0,146
-112,307	-200,000	0,000	0,013
-111,293	435,747	0,024	-0,037
-110,278	159,988	0,124	0,123
-109,264	393,699	-0,055	-0,081
-108,249	108,418	-0,047	0,040
-107,234	-60,955	-0,087	0,026
-106,220	-200,000	0,002	0,193
-105,205	-200,000	0,002	0,060
-104,191	410,446	-0,038	0,057
-103,176	-200,000	0,020	0,134
-102,162	-145,914	0,016	-0,001
-101,147	61,760	-0,078	-0,055
-100,132	-118,359	0,062	-0,008
-99,118	788,865	0,062	-0,122
-98,103	800,000	-0,096	0,260
-97,089	800,000	-0,028	0,054
-96,074	126,728	0,030	-0,027
-95,059	197,726	-0,054	0,059
-94,045	-124,303	0,046	-0,005
-93,030	45,294	-0,047	-0,031
-92,016	51,246	-0,066	0,044
-91,001	14,394	-0,128	0,070
-89,986	-200,000	0,043	0,137
-88,972	60,512	0,069	0,048
-87,957	-200,000	0,068	0,243
-86,943	-200,000	-0,026	0,159
-85,928	35,501	-0,071	-0,044
-84,913	-200,000	0,001	-0,025
-83,899	33,901	0,024	-0,015
-82,884	-10,637	0,105	0,049
-81,870	697,156	0,044	-0,082
-80,855	124,040	-0,083	-0,074
-79,840	800,000	0,009	0,028
-78,826	-98,181	-0,086	0,015
-77,811	-53,729	-0,063	0,020
-76,797	-200,000	0,031	0,126
-75,782	84,533	0,017	-0,013
-74,767	383,545	0,085	0,124
-73,753	-3,932	0,008	0,004
-72,738	-200,000	0,030	-0,102
-71,724	-45,409	-0,105	0,037
-70,709	-200,000	-0,010	-0,095
-69,694	-90,317	-0,104	-0,021
-68,680	800,000	-0,020	-0,052
-67,665	-35,157	0,027	0,010
-66,651	800,000	-0,059	0,156
-65,636	-200,000	0,013	0,096
-64,622	-20,274	0,159	0,069
-63,607	-200,000	-0,023	-0,100
-62,592	-17,940	0,108	0,048
-61,578	144,592	-0,079	-0,074
-60,563	-200,000	-0,003	0,142
-59,549	550,242	0,120	0,204
-58,534	-40,090	-1,521	-0,558
-57,519	433,404	-1,416	-2,183
-56,505	-200,000	-0,400	-4,507
-55,490	167,948	0,877	0,884
-54,476	800,000	4,924	11,275
-53,461	-200,000	18,392	289,139
-52,446	800,000	727,358	2228,938
-51,432	555,419	1640,748	2805,929
-50,417	78,987	1662,346	1258,149
-49,403	22,657	1536,541	887,768
-48,388	16,637	1459,667	814,267
-47,373	17,823	1449,788	814,420
-46,359	17,213	1440,072	806,019
-45,344	14,945	1435,311	792,527
-44,330	14,873	1433,551	791,180
-43,315	14,836	1431,802	790,005
-42,300	14,896	1430,189	789,368
-41,286	14,887	1429,129	788,711
-40,271	14,865	1427,966	787,931
-39,257	14,876	1426,334	787,052
-38,242	14,929	1425,151	786,620
-37,227	14,939	1424,096	786,052
-36,213	14,915	1422,757	785,171
-35,198	14,907	1421,565	784,441
-34,184	14,939	1420,748	784,113
-33,169	14,852	1419,350	782,901
-32,154	14,904	1418,362	782,568
-31,140	14,911	1417,131	781,893
-30,125	14,927	1416,064	781,348
-29,111	14,917	1414,730	780,535
-28,096	14,902	1413,682	779,854
-27,082	14,843	1412,670	778,987
-26,067	14,882	1411,293	778,380
-25,052	14,876	1410,341	777,797
-24,038	14,845	1409,487	777,147
-23,023	14,776	1408,568	776,290
-22,009	14,781	1407,487	775,685
-20,994	14,746	1406,706	775,060
-19,979	14,819	1405,695	774,816
-18,965	14,754	1404,573	773,862
-17,950	14,754	1403,720	773,363
-16,936	14,717	1402,871	772,690
-15,921	14,682	1401,674	771,836
-14,906	14,745	1400,906	771,675
-13,892	14,730	1400,062	771,113
-12,877	14,741	1398,893	770,487
-11,863	14,752	1398,048	770,043
-10,848	14,677	1397,288	769,247
-9,833	14,723	1396,305	768,887
-8,819	14,639	1395,301	767,914
-7,804	14,657	1394,428	767,486
-6,790	14,617	1393,461	766,742
-5,775	14,663	1392,106	766,177
-4,760	14,648	1391,532	765,760
-3,746	14,630	1390,669	765,174
-2,731	14,587	1389,935	764,540
-1,717	14,610	1388,969	764,086
-0,702	14,638	1387,117	763,166
0,313	18,456	1306,003	736,155
1,327	34,635	704,683	434,570
2,342	53,340	124,065	83,952
3,356	2,628	16,555	8,456
4,371	-6,006	3,161	1,523
5,386	-3,655	0,573	0,281
6,400	-27,116	-0,120	0,049
7,415	77,038	-0,133	-0,100
8,429	153,572	-0,216	-0,210
9,444	126,351	-0,204	-0,182
10,459	40,924	-0,214	-0,136
11,473	10,585	-0,210	-0,113
12,488	-50,130	-0,267	-0,089
13,502	69,402	-0,346	-0,252
14,517	-41,290	-0,384	-0,139
15,531	83,592	-0,240	-0,185
16,546	82,996	-0,324	-0,248
17,561	123,478	-0,358	-0,317
18,575	75,128	-0,248	-0,185
19,590	100,736	-0,222	-0,182
20,604	12,851	-0,238	-0,129
21,619	206,813	-0,360	-0,397
22,634	271,827	-0,326	-0,407
23,648	66,060	-0,429	-0,307
24,663	249,665	-0,201	-0,241
25,677	16,596	-0,381	-0,212
26,692	175,060	-0,303	-0,310
27,707	7,541	-0,372	-0,196
28,721	41,836	-0,396	-0,253
29,736	151,570	-0,330	-0,317
30,750	165,844	-0,374	-0,373
31,765	12,117	-0,486	-0,263
32,780	146,035	-0,345	-0,327
33,794	87,396	-0,253	-0,197
34,809	43,721	-0,435	-0,280
35,823	23,364	-0,440	-0,254
36,838	27,327	-0,326	-0,193
37,853	480,949	-0,316	-0,507
38,867	132,114	-0,381	-0,346
39,882	113,364	-0,314	-0,269
40,896	34,208	-0,387	-0,238
41,911	312,979	-0,255	-0,338
42,926	10,218	-0,337	-0,180
43,940	23,400	-0,399	-0,230
44,955	80,402	-0,485	-0,368
45,969	169,210	-0,285	-0,287
46,984	248,401	-0,241	-0,288
47,999	191,350	-0,195	-0,207
49,013	93,384	-0,248	-0,198
50,028	101,682	-0,345	-0,283
51,042	28,590	-0,418	-0,248
52,057	183,728	-0,193	-0,201
53,071	19,349	-0,303	-0,171
54,086	-70,970	-0,272	-0,071
55,101	300,924	-0,138	-0,180
56,115	104,739	-0,433	-0,359
57,130	186,134	-0,294	-0,308
58,144	70,045	-0,326	-0,237
59,159	-16,706	-0,564	-0,250
60,174	54,564	-0,385	-0,261
61,188	119,753	-0,242	-0,211
62,203	-40,898	-0,268	-0,097
63,217	-99,601	-0,370	-0,065
64,232	194,218	-0,302	-0,322
65,247	390,755	-0,204	-0,299
66,261	-5,037	-0,364	-0,176
67,276	166,427	-0,251	-0,251
68,290	104,161	-0,234	-0,194
69,305	23,183	-0,299	-0,172
70,320	88,169	-0,191	-0,149
71,334	130,345	-0,276	-0,249
72,349	-3,044	-0,318	-0,155
73,363	25,796	-0,351	-0,205
74,378	118,811	-0,201	-0,174
75,393	38,927	-0,350	-0,219
76,407	95,619	-0,236	-0,189
77,422	11,032	-0,267	-0,143
78,436	231,575	-0,194	-0,224
79,451	-27,449	-0,329	-0,134
80,466	25,747	-0,242	-0,141
81,480	206,364	-0,226	-0,248
82,495	59,549	-0,325	-0,225
83,509	-57,256	-0,311	-0,096
84,524	27,509	-0,316	-0,186
85,539	-98,922	-0,324	-0,057
86,553	-24,036	-0,393	-0,164
87,568	55,987	-0,262	-0,178
88,582	266,434	-0,239	-0,293
89,597	65,334	-0,358	-0,254
90,611	70,485	-0,264	-0,191
91,626	67,971	-0,299	-0,214
92,641	-79,628	-0,309	-0,073
93,655	-23,115	-0,327	-0,137
94,670	38,949	-0,249	-0,155
95,684	76,218	-0,341	-0,253
96,699	100,017	-0,398	-0,323
97,714	-6,557	-0,249	-0,119
98,728	54,610	-0,162	-0,109
99,743	36,218	-0,305	-0,188
100,757	75,326	-0,279	-0,206
101,772	16,313	-0,313	-0,173
102,787	18,570	-0,318	-0,178
103,801	250,742	-0,209	-0,249
104,816	125,082	-0,133	-0,117
105,830	176,768	-0,280	-0,286
106,845	60,848	-0,300	-0,208
107,860	800,000	-0,146	-0,346
108,874	328,258	-0,163	-0,219
109,889	-95,195	-0,338	-0,063
110,903	190,189	-0,322	-0,339
111,918	-200,000	-0,371	0,000
112,933	74,062	-0,204	-0,150
113,947	-13,316	-0,286	-0,130
114,962	189,750	-0,139	-0,147
115,976	84,260	-0,220	-0,169
116,991	75,421	-0,145	-0,107
118,006	43,530	-0,471	-0,301
119,020	449,755	-0,149	-0,231
120,035	237,574	-0,233	-0,271
121,049	55,746	-0,154	-0,104
122,064	-67,825	-0,208	-0,056
123,079	67,701	-0,254	-0,182
124,093	74,431	-0,390	-0,287
125,108	170,826	-0,198	-0,198
126,122	87,038	-0,253	-0,196
127,137	-53,236	-0,208	-0,067
128,151	105,393	-0,225	-0,186
129,166	-59,384	-0,185	-0,055
130,181	-31,606	-0,314	-0,123
131,195	73,488	-0,330	-0,242
132,210	378,475	-0,221	-0,317
133,224	-68,925	-0,262	-0,070
134,239	236,233	-0,179	-0,207
135,254	216,894	-0,189	-0,211
136,268	800,000	-0,121	-0,290
137,283	147,921	-0,269	-0,254
138,297	36,660	-0,254	-0,156
139,312	110,868	-0,208	-0,175
140,327	185,201	-0,238	-0,248
141,341	-85,612	-0,088	-0,019
142,356	-65,237	-0,272	-0,076
143,370	149,701	-0,256	-0,242
144,385	198,606	-0,189	-0,202
145,400	147,514	-0,294	-0,277
146,414	85,211	-0,275	-0,211
147,429	69,074	-0,258	-0,185
148,443	-27,243	-0,298	-0,121
149,458	-12,316	-0,259	-0,118
150,473	-3,976	-0,207	-0,100
151,487	434,228	-0,138	-0,211
152,502	363,774	-0,170	-0,239
153,516	-91,443	-0,236	-0,047
154,531	-3,559	-0,170	-0,082
155,546	235,161	-0,189	-0,218
156,560	141,633	-0,161	-0,149
157,575	110,085	-0,132	-0,111
158,589	-132,363	-0,303	-0,027
159,604	737,442	-0,120	-0,225
160,619	116,866	-0,254	-0,218
161,633	-72,907	-0,299	-0,076
162,648	59,425	-0,244	-0,167
163,662	1,195	-0,209	-0,104
164,677	68,227	-0,225	-0,161
165,692	-4,793	-0,193	-0,093
166,706	-10,646	-0,332	-0,152
167,721	407,718	-0,213	-0,315
168,735	800,000	-0,125	-0,376
169,750	-19,831	-0,254	-0,109
170,764	7,546	-0,212	-0,110
171,779	-200,000	-0,043	-0,318
172,794	-53,907	-0,153	-0,048
173,808	68,159	-0,304	-0,217
174,823	140,453	-0,177	-0,163
175,837	9,751	-0,223	-0,117
176,852	22,527	-0,227	-0,129
177,867	47,784	-0,334	-0,217
178,881	-16,610	-0,207	-0,091
179,896	236,996	-0,190	-0,219
180,910	-149,729	-0,283	-0,015
181,925	92,177	-0,265	-0,207
182,940	26,925	-0,310	-0,180
183,954	517,751	-0,196	-0,320
184,969	172,314	-0,163	-0,163
185,983	-195,381	-0,127	-0,001
186,998	47,094	-0,250	-0,162
188,013	800,000	-0,069	-0,161
189,027	688,953	-0,112	-0,205
190,042	-5,678	-0,315	-0,150
191,056	95,855	-0,335	-0,266
192,071	8,580	-0,339	-0,177
193,086	-57,399	-0,273	-0,083
194,100	455,016	-0,115	-0,177
195,115	143,114	-0,173	-0,160
196,129	-77,284	-0,216	-0,052
197,144	-75,460	-0,289	-0,071
198,159	119,851	-0,158	-0,136
199,173	-6,386	-0,223	-0,105
200,188	-118,730	-0,154	-0,019
201,202	95,573	-0,061	0,048
202,217	85,751	-0,156	-0,119
203,232	800,000	-0,132	-0,260
204,246	732,734	-0,094	-0,175
205,261	270,586	-0,163	-0,199
206,275	-48,621	-0,262	-0,087
207,290	60,830	-0,158	-0,109
208,304	-147,059	-0,315	-0,018
209,319	-130,395	-0,250	0,023
210,334	24,470	-0,326	-0,187
211,348	8,936	-0,217	-0,113
212,363	-123,162	-0,276	-0,030
213,377	29,982	-0,190	-0,112
214,392	800,000	-0,120	-0,325
215,407	109,039	-0,097	-0,080
216,421	78,831	-0,250	-0,186
217,436	-78,642	-0,233	-0,055
218,450	161,011	-0,155	-0,150
219,465	-80,519	-0,278	-0,064
220,480	167,948	-0,173	-0,171
221,494	-54,873	-0,159	-0,049
222,509	106,493	-0,229	-0,188
223,523	51,798	-0,197	-0,129
224,538	-115,924	-0,260	0,033
225,553	105,762	-0,223	-0,182
226,567	65,392	-0,192	-0,135
227,582	127,768	-0,238	-0,210
228,596	86,341	-0,144	-0,110
229,611	652,213	-0,078	-0,140
230,626	173,229	-0,165	-0,165
231,640	119,715	-0,215	-0,185
232,655	19,754	-0,250	-0,139
233,669	17,325	-0,146	-0,080
234,684	-48,176	-0,182	-0,061
235,699	131,764	-0,128	-0,114
236,713	158,570	-0,131	-0,126
237,728	-134,220	-0,212	-0,018
238,742	0,313	-0,181	-0,089
239,757	574,055	-0,088	-0,149
240,772	77,328	-0,209	-0,154
241,786	46,024	-0,249	-0,160
242,801	163,840	-0,122	-0,119
243,815	104,861	-0,152	-0,124
244,830	-57,976	-0,248	-0,075
245,844	397,660	-0,111	-0,162
246,859	-33,938	-0,152	-0,058
247,874	45,028	-0,206	-0,131
248,888	309,462	-0,091	-0,119
249,903	59,737	-0,171	-0,117
250,917	8,903	-0,242	-0,126
251,932	-74,171	-0,152	-0,038
252,947	-108,720	-0,199	-0,029
253,961	800,000	-0,073	-0,202
254,976	259,809	-0,199	-0,238
255,990	185,952	-0,193	-0,199
257,005	87,873	-0,198	-0,152
258,020	167,756	-0,090	-0,089
259,034	0,376	-0,088	0,044
260,049	-41,931	-0,247	-0,087
261,063	55,125	-0,195	-0,130
262,078	65,930	-0,250	-0,175
263,093	127,156	-0,123	-0,108
264,107	157,663	-0,116	-0,111
265,122	-45,810	-0,217	-0,074
266,136	-86,721	-0,116	0,024
267,151	-15,305	-0,147	-0,065
268,166	437,314	-0,117	-0,177
269,180	174,737	-0,276	-0,276
270,195	545,396	-0,072	-0,120
271,209	-27,032	-0,169	-0,068
272,224	-97,290	-0,248	-0,044
273,239	-12,052	-0,309	-0,139
274,253	-77,338	-0,151	-0,036
275,268	129,563	-0,108	-0,095
276,282	458,520	-0,174	-0,267
277,297	800,000	-0,154	-0,296
278,312	118,595	-0,169	-0,144
279,326	-69,677	-0,153	-0,040
280,341	40,975	-0,194	-0,120
281,355	-164,785	-0,230	-0,007
282,370	345,825	-0,215	-0,292
283,384	524,616	-0,124	-0,202
284,399	800,000	-0,095	-0,207
285,414	45,120	-0,246	-0,156
286,428	-48,499	-0,217	-0,072
287,443	282,075	-0,116	-0,143
288,457	-200,000	-0,011	-0,081
289,472	134,518	-0,140	-0,125
290,487	-200,000	-0,241	-0,001
291,501	175,762	-0,152	-0,152
292,516	287,159	-0,085	-0,106
293,530	-80,406	-0,116	0,026
294,545	5,240	-0,169	-0,086
295,560	176,203	-0,102	-0,102
296,574	154,104	-0,149	-0,141
297,589	160,702	-0,177	-0,170
298,603	80,590	-0,105	-0,078
299,618	333,960	-0,129	-0,172
300,633	118,426	-0,150	-0,128
301,647	-200,000	-0,004	-0,140
302,662	800,000	-0,071	-0,146
303,676	628,078	-0,023	-0,041
304,691	59,302	-0,169	-0,114
305,706	30,780	-0,167	0,098
306,720	110,154	-0,214	-0,176
307,735	-68,157	-0,191	-0,051
308,749	-137,177	-0,123	-0,010
309,764	-200,000	-0,061	-0,194
310,779	4,096	-0,139	-0,070
311,793	94,633	-0,081	-0,064
312,808	146,078	-0,126	-0,117
313,822	84,352	-0,211	-0,158
314,837	138,396	-0,181	-0,164
315,852	-20,931	-0,209	-0,088
316,866	800,000	-0,046	-0,104
317,881	341,810	-0,131	-0,177
318,895	159,700	-0,149	-0,143
319,910	204,748	-0,180	-0,192
320,925	112,448	-0,180	-0,150
321,939	-115,978	-0,225	-0,028
322,954	162,103	-0,119	-0,114
323,968	785,369	-0,114	-0,215
324,983	12,349	-0,051	-0,027
325,997	-160,683	-0,177	-0,006
327,012	10,017	-0,129	-0,067
328,027	346,156	-0,167	-0,226
329,041	408,701	-0,118	-0,173
330,056	536,364	-0,122	-0,200
331,070	-78,903	-0,074	-0,017
332,085	-106,517	-0,199	-0,030
333,100	800,000	-0,057	-0,152
334,114	-47,112	-0,181	-0,060
335,129	-200,000	0,033	0,106
336,143	-67,040	-0,054	-0,014
337,158	28,570	-0,097	-0,056
338,173	-35,906	-0,219	-0,081
339,187	-86,483	-0,156	-0,033
340,202	-101,298	-0,062	-0,010
341,216	40,239	-0,121	-0,075
342,231	128,003	-0,114	-0,100
343,246	-200,000	-0,058	-0,185
344,260	394,527	-0,060	-0,086
345,275	-200,000	-0,034	-0,153
346,289	69,184	-0,091	0,064
347,304	23,515	-0,171	-0,097
348,319	247,054	-0,042	-0,049
349,333	800,000	-0,015	-0,045
350,348	-107,336	-0,190	-0,028
351,362	158,950	-0,193	-0,184
352,377	-72,184	-0,162	-0,041
353,392	-109,416	-0,154	0,022
354,406	138,331	-0,137	-0,123
355,421	208,761	1312,807	1410,093
356,435	160,648	1473,321	1410,620
