DTS Sentinel unit serial number:	SN410029Multiplexer serial number:	ORYXHardware model number:	OX2-SRSoftware version number:	ORYX F/W v4,00 Oryx Data Collector v3.7.2.0data status	okinstallation	B3 Nyhavnadifferential loss correction	single-endedforward channel	channel 1reverse channel	N/Adate	2023/12/03time	13:02:30forward acquisition time	300,00reverse acquisition time	0,00gamma	499,1914k internal	0,3201k external	0,3201temperature offset calibration	1,0000default loss term (dB/km)	0,3820temperature slope calibration	1,0000multiplexer offset coefficient	1,0000multiplexer slope coefficient	1,0000fibre end	0,00T internal ref (°C)	14,60T ext. ref 1 (°C)	0,85T ext. ref 2 (°C)	0,84length (m)	temperature (°C)	Stokes	anti-Stokes-744,400	154,766	-0,269	-0,269
-743,385	-200,000	0,088	0,319
-742,371	138,965	-0,155	-0,148
-741,356	-200,000	0,020	0,312
-740,342	92,367	-0,131	-0,108
-739,327	-200,000	-0,065	0,420
-738,312	106,884	-0,349	-0,302
-737,298	-200,000	-0,010	0,057
-736,283	403,698	-0,143	-0,220
-735,269	-200,000	0,004	0,339
-734,254	134,333	-0,257	-0,242
-733,239	-200,000	-0,056	0,289
-732,225	-200,000	-0,058	-0,270
-731,210	800,000	0,081	0,194
-730,196	700,179	-0,046	-0,088
-729,181	-200,000	-0,046	-0,181
-728,167	-200,000	0,005	-0,064
-727,152	-18,914	0,078	0,035
-726,137	-39,983	-0,124	0,047
-725,123	47,293	-0,077	-0,052
-724,108	-200,000	-0,006	-0,128
-723,094	-200,000	-0,008	-0,088
-722,079	-200,000	-0,010	-0,073
-721,064	-50,038	-0,017	-0,006
-720,050	-200,000	-0,008	0,065
-719,035	92,614	-0,078	0,064
-718,021	77,612	0,118	-0,092
-717,006	279,165	-0,030	-0,040
-715,991	732,206	0,041	0,080
-714,977	-3,134	-0,122	-0,061
-713,962	-200,000	0,001	-0,112
-712,948	-200,000	0,019	-0,081
-711,933	-179,588	-0,044	0,001
-710,918	85,163	-0,125	0,100
-709,904	800,000	0,032	0,085
-708,889	40,267	-0,133	-0,087
-707,875	214,365	-0,110	-0,127
-706,860	51,628	0,013	-0,009
-705,845	256,122	0,019	0,024
-704,831	-200,000	0,011	-0,044
-703,816	-37,319	-0,062	0,024
-702,802	-200,000	-0,032	-0,144
-701,787	-200,000	-0,029	-0,141
-700,772	40,284	-0,109	0,071
-699,758	-179,936	-0,126	-0,002
-698,743	168,772	-0,109	-0,113
-697,729	-200,000	-0,001	0,035
-696,714	-125,679	0,048	0,005
-695,699	-100,260	-0,144	-0,026
-694,685	781,326	-0,039	0,078
-693,670	-200,000	0,017	0,161
-692,656	-56,364	0,040	0,013
-691,641	5,421	0,122	0,065
-690,627	-2,252	-0,039	0,020
-689,612	55,774	-0,072	0,050
-688,597	-200,000	-0,011	0,146
-687,583	-161,983	-0,155	-0,006
-686,568	-200,000	-0,028	-0,167
-685,554	-200,000	0,004	-0,145
-684,539	274,650	0,056	0,072
-683,524	20,593	0,149	-0,087
-682,510	800,000	-0,063	-0,178
-681,495	77,663	-0,063	-0,049
-680,481	319,856	-0,027	0,037
-679,466	396,944	-0,045	-0,069
-678,451	60,443	0,029	0,021
-677,437	-87,315	-0,083	-0,018
-676,422	-5,890	0,125	0,062
-675,408	149,039	-0,054	0,053
-674,393	-176,605	-0,077	-0,001
-673,378	-79,590	-0,118	0,029
-672,364	30,976	-0,111	-0,069
-671,349	-11,620	-0,029	0,014
-670,335	800,000	0,055	-0,159
-669,320	201,427	-0,030	0,034
-668,305	-200,000	0,002	0,066
-667,291	-49,343	-0,019	0,006
-666,276	800,000	0,062	-0,137
-665,262	138,842	-0,061	-0,058
-664,247	64,724	-0,113	-0,082
-663,232	181,709	-0,038	-0,041
-662,218	120,347	0,035	-0,032
-661,203	148,762	-0,111	0,109
-660,189	-98,215	-0,093	-0,017
-659,174	800,000	-0,027	-0,082
-658,159	11,307	-0,044	-0,024
-657,145	-200,000	0,024	-0,082
-656,130	-47,015	-0,215	0,076
-655,116	-171,274	-0,076	-0,002
-654,101	68,426	0,051	0,038
-653,086	800,000	0,022	-0,054
-652,072	800,000	0,045	-0,137
-651,057	693,205	-0,035	0,066
-650,043	800,000	-0,036	-0,094
-649,028	-38,886	0,013	-0,005
-648,014	113,570	-0,036	-0,031
-646,999	-200,000	-0,021	-0,083
-645,984	34,070	-0,060	-0,038
-644,970	98,854	-0,049	-0,041
-643,955	-200,000	-0,012	-0,039
-642,941	-115,253	0,137	0,019
-641,926	800,000	-0,056	0,128
-640,911	-48,826	0,045	0,016
-639,897	739,314	-0,061	-0,119
-638,882	127,472	-0,048	-0,044
-637,868	246,384	0,103	0,126
-636,853	-83,564	-0,043	0,010
-635,838	87,670	-0,066	-0,053
-634,824	800,000	0,054	-0,123
-633,809	115,850	0,097	0,086
-632,795	590,061	0,084	0,151
-631,780	-89,665	-0,204	-0,043
-630,765	800,000	0,037	-0,090
-629,751	641,750	-0,057	-0,106
-628,736	192,460	-0,125	-0,137
-627,722	-46,630	0,064	-0,022
-626,707	-108,973	0,149	-0,023
-625,692	130,101	-0,053	-0,049
-624,678	-54,807	0,122	-0,040
-623,663	437,067	-0,044	0,069
-622,649	2,579	0,113	-0,059
-621,634	186,277	-0,025	0,027
-620,619	62,977	0,077	-0,056
-619,605	160,093	0,086	-0,086
-618,590	800,000	0,075	-0,179
-617,576	-6,609	-0,108	-0,053
-616,561	474,868	0,057	0,094
-615,546	798,551	0,026	-0,052
-614,532	-200,000	0,019	-0,063
-613,517	-200,000	-0,004	0,062
-612,503	-200,000	-0,007	0,092
-611,488	-26,427	0,042	0,018
-610,474	-200,000	0,002	0,118
-609,459	18,949	-0,075	0,043
-608,444	65,087	-0,047	-0,034
-607,430	-6,205	-0,068	-0,034
-606,415	-200,000	-0,016	-0,085
-605,401	5,563	-0,055	0,029
-604,386	314,145	-0,055	-0,075
-603,371	800,000	0,011	0,024
-602,357	99,123	-0,046	-0,038
-601,342	800,000	0,036	-0,114
-600,328	-200,000	0,021	-0,073
-599,313	-200,000	-0,038	-0,171
-598,298	-69,391	-0,036	0,010
-597,284	-200,000	0,002	0,050
-596,269	-102,462	0,135	-0,023
-595,255	-82,807	-0,129	-0,030
-594,240	651,549	0,036	-0,067
-593,225	-140,557	0,061	-0,005
-592,211	84,092	-0,073	-0,057
-591,196	-200,000	-0,035	-0,133
-590,182	-137,571	-0,091	-0,007
-589,167	468,978	0,030	0,049
-588,152	-200,000	-0,003	-0,072
-587,138	-87,092	-0,146	0,032
-586,123	-107,961	0,123	-0,019
-585,109	-68,707	-0,117	0,033
-584,094	-200,000	-0,015	-0,052
-583,079	-7,151	-0,083	0,041
-582,065	-72,611	0,038	0,010
-581,050	-200,000	-0,001	0,088
-580,036	-62,859	-0,045	0,013
-579,021	-119,990	-0,119	0,015
-578,006	-200,000	-0,010	-0,088
-576,992	79,028	0,072	0,056
-575,977	233,049	-0,057	0,068
-574,963	299,896	0,059	0,079
-573,948	-200,000	0,005	0,030
-572,934	-126,252	-0,063	0,007
-571,919	-109,954	-0,058	0,009
-570,904	-41,575	0,024	0,009
-569,890	-93,528	-0,109	-0,022
-568,875	-200,000	0,027	-0,107
-567,861	800,000	0,063	0,158
-566,846	25,820	0,159	-0,095
-565,831	166,604	-0,054	-0,055
-564,817	-200,000	-0,025	-0,187
-563,802	-200,000	0,008	-0,046
-562,788	-35,977	0,060	0,023
-561,773	-200,000	0,008	-0,046
-560,758	-200,000	-0,012	0,097
-559,744	-165,455	0,104	-0,003
-558,729	-186,744	0,121	0,001
-557,715	66,919	0,027	0,020
-556,700	39,252	0,046	-0,030
-555,685	344,524	-0,055	0,079
-554,671	-3,368	0,084	-0,042
-553,656	800,000	-0,027	0,057
-552,642	5,193	0,113	-0,060
-551,627	-200,000	0,013	-0,084
-550,612	130,603	-0,079	-0,074
-549,598	-42,480	-0,078	0,028
-548,583	-79,467	0,029	-0,007
-547,569	-9,997	-0,160	-0,077
-546,554	76,503	0,034	-0,026
-545,539	-200,000	-0,001	0,087
-544,525	56,673	-0,081	0,056
-543,510	-200,000	-0,015	-0,092
-542,496	1,604	-0,122	0,063
-541,481	-8,187	-0,126	-0,061
-540,466	196,379	0,087	-0,096
-539,452	-200,000	0,026	0,093
-538,437	247,466	0,071	0,086
-537,423	37,502	-0,021	-0,014
-536,408	-200,000	0,007	-0,086
-535,393	-200,000	0,008	-0,125
-534,379	-155,626	-0,114	0,005
-533,364	37,159	0,044	0,028
-532,350	-200,000	-0,010	0,042
-531,335	625,057	0,062	0,113
-530,321	-195,879	0,086	-0,000
-529,306	66,597	0,028	0,020
-528,291	-24,161	0,042	-0,018
-527,277	-200,000	-0,013	-0,212
-526,262	108,877	0,047	-0,041
-525,248	-19,793	0,145	0,064
-524,233	96,945	0,135	0,112
-523,218	-200,000	-0,006	0,019
-522,204	368,999	0,026	-0,039
-521,189	-28,351	0,126	0,052
-520,175	10,912	-0,017	0,009
-519,160	-106,391	-0,104	0,017
-518,145	657,875	0,088	0,164
-517,131	-121,855	-0,102	-0,012
-516,116	-200,000	0,005	0,059
-515,102	-10,112	-0,075	0,036
-514,087	200,520	-0,111	-0,123
-513,072	206,428	-0,112	-0,126
-512,058	544,986	0,019	0,033
-511,043	27,768	0,089	-0,054
-510,029	-200,000	-0,011	-0,058
-509,014	71,514	-0,100	0,075
-507,999	526,748	-0,041	0,071
-506,985	-38,419	-0,072	-0,028
-505,970	14,774	-0,145	0,082
-504,956	800,000	0,037	0,105
-503,941	-200,000	0,019	0,128
-502,926	524,391	0,064	0,109
-501,912	-200,000	-0,001	0,077
-500,897	-160,631	-0,007	0,000
-499,883	217,527	-0,097	0,111
-498,868	-141,964	-0,068	-0,005
-497,853	800,000	-0,066	-0,145
-496,839	-116,162	-0,048	0,006
-495,824	2,803	0,071	0,037
-494,810	378,857	-0,071	-0,105
-493,795	-200,000	-0,042	0,169
-492,781	232,104	-0,096	0,114
-491,766	-200,000	-0,029	0,124
-490,751	34,571	-0,055	0,035
-489,737	-176,669	0,126	0,002
-488,722	214,282	0,046	-0,053
-487,708	-200,000	0,022	0,266
-486,693	-107,283	0,076	0,012
-485,678	-139,113	-0,121	-0,009
-484,664	237,289	-0,051	0,061
-483,649	68,950	-0,092	-0,068
-482,635	800,000	0,016	-0,044
-481,620	81,017	0,058	-0,045
-480,605	163,169	0,058	0,059
-479,591	-200,000	-0,023	0,089
-478,576	-81,027	0,037	0,009
-477,562	243,284	0,034	-0,041
-476,547	-200,000	-0,027	-0,088
-475,532	-99,959	-0,040	-0,007
-474,518	1,503	-0,101	0,052
-473,503	-148,534	-0,034	0,002
-472,489	-158,588	-0,112	0,005
-471,474	282,341	0,019	-0,025
-470,459	800,000	-0,070	-0,142
-469,445	-172,340	0,082	-0,002
-468,430	219,097	0,031	0,036
-467,416	455,938	-0,063	-0,101
-466,401	-81,072	0,110	0,026
-465,386	62,152	0,050	-0,036
-464,372	800,000	0,005	-0,016
-463,357	83,295	0,118	0,092
-462,343	-200,000	-0,010	-0,165
-461,328	-200,000	0,028	-0,139
-460,313	800,000	-0,019	-0,049
-459,299	-83,558	0,145	0,033
-458,284	9,780	0,135	0,073
-457,270	800,000	-0,039	-0,116
-456,255	800,000	-0,051	-0,157
-455,241	111,886	-0,049	-0,043
-454,226	-200,000	0,020	-0,124
-453,211	-40,674	0,202	-0,075
-452,197	800,000	-0,015	-0,041
-451,182	-200,000	0,007	0,100
-450,168	188,306	-0,077	-0,083
-449,153	9,352	0,058	0,032
-448,138	-189,164	-0,152	-0,001
-447,124	30,402	-0,069	0,042
-446,109	14,254	-0,095	0,053
-445,095	800,000	0,037	0,079
-444,080	224,137	0,048	-0,055
-443,065	177,896	-0,069	0,072
-442,051	62,693	0,050	-0,036
-441,036	-200,000	-0,033	-0,130
-440,022	110,452	-0,136	-0,117
-439,007	25,512	-0,036	0,021
-437,992	193,484	0,075	0,082
-436,978	800,000	-0,024	-0,064
-435,963	48,617	0,079	-0,053
-434,949	397,463	-0,037	-0,056
-433,934	-200,000	0,007	-0,059
-432,919	-57,752	0,146	-0,046
-431,905	-200,000	0,038	0,143
-430,890	-200,000	-0,019	0,105
-429,876	-155,486	0,094	-0,004
-428,861	-46,032	0,131	-0,046
-427,846	-190,973	0,055	-0,000
-426,832	-200,000	0,015	-0,137
-425,817	800,000	0,059	-0,128
-424,803	470,297	0,029	-0,046
-423,788	-200,000	-0,000	0,012
-422,773	800,000	-0,038	-0,076
-421,759	-17,610	-0,026	0,012
-420,744	800,000	0,004	-0,010
-419,730	800,000	-0,103	-0,237
-418,715	-200,000	0,031	-0,103
-417,701	-177,951	-0,095	-0,002
-416,686	-133,321	-0,108	-0,010
-415,671	-32,444	0,097	0,039
-414,657	41,310	-0,179	0,116
-413,642	581,628	0,028	0,050
-412,628	-200,000	0,014	-0,087
-411,613	550,986	-0,040	-0,068
-410,598	193,884	0,062	-0,067
-409,584	-164,069	-0,041	0,001
-408,569	389,816	0,037	-0,056
-407,555	-200,000	0,047	0,150
-406,540	-80,037	0,106	-0,025
-405,525	-200,000	0,005	0,050
-404,511	307,520	-0,046	-0,061
-403,496	-62,553	0,033	-0,010
-402,482	800,000	0,028	0,077
-401,467	397,374	-0,028	0,041
-400,452	-200,000	0,042	0,151
-399,438	-200,000	0,003	0,089
-398,423	800,000	-0,018	0,055
-397,409	548,507	-0,019	-0,032
-396,394	-120,801	-0,075	-0,009
-395,379	-200,000	-0,013	0,133
-394,365	-200,000	0,003	0,087
-393,350	-200,000	-0,008	0,117
-392,336	47,392	0,125	0,084
-391,321	260,639	0,085	-0,106
-390,306	78,967	0,095	0,073
-389,292	137,943	-0,061	-0,057
-388,277	-167,007	0,011	-0,000
-387,263	800,000	0,047	0,136
-386,248	144,067	0,064	0,061
-385,233	512,018	0,042	0,070
-384,219	41,437	-0,081	-0,052
-383,204	-200,000	-0,006	0,110
-382,190	-200,000	-0,008	-0,078
-381,175	-200,000	0,005	-0,060
-380,160	-200,000	-0,023	0,120
-379,146	800,000	0,040	0,126
-378,131	128,746	0,070	0,064
-377,117	-108,985	-0,078	-0,012
-376,102	93,510	-0,077	-0,063
-375,088	800,000	0,079	-0,204
-374,073	-200,000	-0,009	-0,070
-373,058	-53,282	0,031	-0,010
-372,044	-200,000	-0,015	0,066
-371,029	-154,178	-0,023	0,001
-370,015	-29,308	0,011	0,005
-369,000	-105,201	-0,140	0,023
-367,985	17,183	-0,062	-0,035
-366,971	-151,209	-0,103	0,005
-365,956	-85,068	0,060	-0,013
-364,942	99,296	0,026	0,022
-363,927	-21,617	-0,051	-0,022
-362,912	-171,480	-0,082	-0,002
-361,898	567,118	-0,085	-0,148
-360,883	-68,401	-0,093	-0,026
-359,869	190,228	-0,068	-0,073
-358,854	69,502	-0,063	-0,046
-357,839	-115,386	0,183	0,024
-356,825	-200,000	-0,004	0,052
-355,810	-24,669	0,113	0,048
-354,796	-66,702	-0,120	0,034
-353,781	181,746	-0,049	-0,052
-352,766	56,235	0,024	-0,017
-351,752	-200,000	-0,002	-0,097
-350,737	168,206	0,093	0,095
-349,723	319,773	0,049	0,067
-348,708	800,000	0,045	0,098
-347,693	330,199	-0,099	0,136
-346,679	598,068	0,053	-0,094
-345,664	-200,000	-0,009	-0,071
-344,650	254,055	-0,082	-0,100
-343,635	25,426	0,125	0,074
-342,620	-51,945	0,085	-0,028
-341,606	121,785	-0,034	0,030
-340,591	-40,761	-0,077	-0,028
-339,577	368,547	0,087	-0,126
-338,562	422,419	-0,036	-0,056
-337,548	436,180	-0,040	0,062
-336,533	-185,356	0,033	0,000
-335,518	261,761	-0,089	0,110
-334,504	-13,821	-0,101	0,046
-333,489	-200,000	0,004	-0,072
-332,475	-200,000	0,007	0,026
-331,460	-105,082	-0,082	-0,013
-330,445	130,528	0,046	-0,042
-329,431	67,349	-0,025	-0,018
-328,416	381,500	0,027	0,041
-327,402	490,220	-0,041	0,068
-326,387	30,096	-0,087	-0,053
-325,372	101,585	-0,150	-0,125
-324,358	-72,150	0,059	0,015
-323,343	-141,048	-0,039	0,003
-322,329	-99,741	0,158	-0,028
-321,314	226,070	0,086	0,100
-320,299	170,946	-0,090	0,092
-319,285	-200,000	0,037	0,122
-318,270	-200,000	-0,001	0,057
-317,256	-156,187	-0,083	-0,004
-316,241	-33,455	-0,107	0,042
-315,226	-104,763	-0,160	0,026
-314,212	40,125	0,112	0,072
-313,197	114,186	0,068	0,060
-312,183	-200,000	0,007	0,161
-311,168	258,750	0,026	0,033
-310,153	142,988	-0,053	-0,050
-309,139	-5,451	0,196	-0,096
-308,124	-82,250	-0,034	0,008
-307,110	-200,000	0,013	-0,106
-306,095	-0,120	0,073	-0,037
-305,080	-67,523	0,161	-0,045
-304,066	-74,099	-0,240	0,062
-303,051	636,621	0,054	-0,099
-302,037	800,000	0,031	0,077
-301,022	-52,528	-0,108	0,035
-300,008	12,838	0,156	0,086
-298,993	220,197	-0,090	0,103
-297,978	800,000	-0,053	0,143
-296,964	485,639	-0,039	0,064
-295,949	444,525	-0,020	0,032
-294,935	-94,857	-0,057	0,011
-293,920	-200,000	0,019	0,151
-292,905	255,673	0,073	0,090
-291,891	-108,866	0,145	0,022
-290,876	47,749	-0,056	0,037
-289,862	-200,000	0,008	-0,029
-288,847	695,045	-0,067	-0,127
-287,832	258,630	-0,072	-0,089
-286,818	85,433	-0,031	-0,024
-285,803	117,196	-0,004	0,004
-284,789	47,043	0,095	0,063
-283,774	36,317	0,070	0,044
-282,759	-200,000	0,005	-0,034
-281,745	-200,000	-0,028	0,099
-280,730	42,955	-0,057	0,037
-279,716	-0,389	-0,068	0,034
-278,701	800,000	-0,083	0,215
-277,686	108,009	0,071	0,060
-276,672	-88,426	0,092	0,020
-275,657	-41,013	-0,054	-0,020
-274,643	800,000	-0,047	-0,122
-273,628	334,586	-0,081	-0,112
-272,613	-200,000	-0,018	0,057
-271,599	-5,467	0,062	-0,030
-270,584	145,223	-0,073	-0,070
-269,570	-200,000	0,004	0,022
-268,555	-64,791	0,038	0,011
-267,540	179,148	0,129	-0,135
-266,526	800,000	0,019	-0,039
-265,511	-43,019	0,026	0,009
-264,497	233,463	-0,021	0,025
-263,482	-98,913	0,140	0,025
-262,467	7,044	0,142	-0,075
-261,453	352,400	0,036	-0,050
-260,438	-200,000	-0,012	0,108
-259,424	-28,467	-0,105	-0,043
-258,409	-154,777	-0,107	-0,005
-257,395	-200,000	0,001	0,087
-256,380	-200,000	0,001	0,077
-255,365	-55,726	-0,174	0,055
-254,351	-112,368	-0,133	-0,019
-253,336	365,054	-0,053	-0,076
-252,322	800,000	0,053	-0,141
-251,307	-5,346	-0,180	0,088
-250,292	10,834	0,111	0,060
-249,278	-200,000	-0,028	0,189
-248,263	800,000	0,045	0,113
-247,249	143,771	0,085	0,081
-246,234	143,608	-0,087	-0,083
-245,219	800,000	0,005	-0,011
-244,205	441,139	-0,054	-0,085
-243,190	58,885	-0,020	-0,014
-242,176	-200,000	-0,001	0,148
-241,161	-133,386	0,205	0,018
-240,146	-5,257	-0,008	0,004
-239,132	40,571	-0,034	0,022
-238,117	-67,325	-0,044	-0,012
-237,103	-200,000	0,128	0,000
-236,088	800,000	-0,021	0,048
-235,073	-162,817	0,112	0,004
-234,059	-41,881	0,156	0,057
-233,044	-71,052	0,066	0,018
-232,030	70,945	0,064	-0,048
-231,015	-129,775	0,093	0,009
-230,000	355,091	0,026	0,036
-228,986	800,000	-0,016	-0,046
-227,971	-62,890	0,106	-0,031
-226,957	187,190	0,080	0,086
-225,942	111,436	0,051	0,044
-224,927	117,236	0,039	0,034
-223,913	374,886	-0,014	0,020
-222,898	376,249	-0,074	0,108
-221,884	-200,000	0,001	0,107
-220,869	40,818	-0,087	0,056
-219,855	800,000	0,037	0,105
-218,840	800,000	-0,019	0,047
-217,825	-200,000	-0,022	-0,100
-216,811	268,710	-0,065	-0,082
-215,796	220,225	-0,067	-0,077
-214,782	-200,000	0,020	-0,120
-213,767	-177,929	0,065	-0,001
-212,752	172,965	0,058	0,060
-211,738	-62,483	-0,097	0,029
-210,723	7,588	-0,067	-0,036
-209,709	800,000	0,041	-0,121
-208,694	-200,000	-0,012	-0,052
-207,679	403,901	0,013	0,020
-206,665	-27,829	0,063	-0,026
-205,650	377,413	-0,082	0,119
-204,636	278,926	-0,056	0,071
-203,621	-97,383	0,100	-0,018
-202,606	732,782	0,021	0,041
-201,592	-114,807	-0,029	-0,004
-200,577	-200,000	0,007	-0,105
-199,563	375,835	0,029	-0,042
-198,548	-126,702	0,088	0,009
-197,533	-32,925	0,094	0,037
-196,519	21,932	0,087	0,050
-195,504	389,676	-0,027	-0,040
-194,490	-32,737	-0,077	-0,031
-193,475	-200,000	0,019	-0,104
-192,460	-102,075	-0,084	-0,014
-191,446	800,000	0,042	0,083
-190,431	-200,000	0,017	0,175
-189,417	89,292	-0,040	0,032
-188,402	55,237	0,021	-0,014
-187,387	-89,432	-0,066	-0,014
-186,373	800,000	-0,017	-0,045
-185,358	-200,000	0,002	-0,108
-184,344	401,882	0,057	0,086
-183,329	541,656	0,053	-0,089
-182,315	-200,000	-0,014	-0,128
-181,300	800,000	-0,067	-0,152
-180,285	-34,204	0,025	-0,010
-179,271	299,549	0,039	0,051
-178,256	291,216	0,055	-0,071
-177,242	-200,000	0,012	0,191
-176,227	91,618	0,033	-0,027
-175,212	800,000	-0,028	-0,067
-174,198	-31,732	0,128	0,051
-173,183	-200,000	0,022	-0,078
-172,169	-82,591	-0,121	-0,028
-171,154	315,956	-0,030	0,041
-170,139	-101,765	0,129	0,022
-169,125	-186,515	0,065	-0,001
-168,110	4,442	-0,107	0,055
-167,096	126,133	-0,059	0,053
-166,081	800,000	0,020	0,052
-165,066	-200,000	0,010	-0,060
-164,052	-77,384	-0,014	-0,004
-163,037	108,228	0,041	0,035
-162,023	800,000	0,022	0,047
-161,008	-14,381	0,085	0,039
-159,993	800,000	-0,019	0,039
-158,979	-21,434	-0,058	-0,025
-157,964	800,000	-0,048	-0,101
-156,950	274,737	-0,095	-0,119
-155,935	5,397	0,051	-0,027
-154,920	54,218	0,104	-0,071
-153,906	800,000	0,026	0,073
-152,891	-200,000	-0,018	-0,069
-151,877	100,749	0,110	-0,091
-150,862	178,681	-0,067	-0,069
-149,847	-200,000	0,007	-0,084
-148,833	-79,551	-0,117	-0,028
-147,818	-200,000	-0,077	-0,000
-146,804	200,360	-0,036	0,040
-145,789	54,304	-0,086	0,059
-144,775	-200,000	0,127	-0,000
-143,760	-59,903	-0,075	0,023
-142,745	103,341	0,121	0,101
-141,731	-40,887	-0,089	0,032
-140,716	-200,000	0,006	0,104
-139,702	-3,540	0,170	0,084
-138,687	-61,880	-0,132	0,039
-137,672	-200,000	-0,015	-0,048
-136,658	-29,442	0,155	0,063
-135,643	-74,254	-0,110	0,028
-134,629	-61,860	-0,162	-0,048
-133,614	48,382	0,055	0,037
-132,599	-200,000	-0,003	0,268
-131,585	-76,137	-0,138	0,034
-130,570	-7,822	0,081	-0,039
-129,556	61,276	0,031	-0,022
-128,541	-68,241	-0,103	0,028
-127,526	550,691	0,029	0,049
-126,512	-90,700	-0,091	0,018
-125,497	-69,747	0,048	-0,013
-124,483	-134,029	0,062	0,005
-123,468	174,694	-0,069	0,071
-122,453	162,256	0,088	-0,087
-121,439	-80,362	-0,203	-0,048
-120,424	556,651	0,044	0,075
-119,410	102,951	0,019	0,016
-118,395	-200,000	-0,016	0,102
-117,380	-200,000	0,012	-0,111
-116,366	373,692	0,041	0,059
-115,351	561,395	0,017	-0,029
-114,337	-36,228	-0,103	-0,039
-113,322	-20,909	-0,035	0,015
-112,307	-200,000	0,018	0,065
-111,293	-200,000	0,002	0,068
-110,278	421,943	-0,031	0,048
-109,264	148,129	-0,117	-0,112
-108,249	-81,777	-0,061	0,014
-107,234	21,375	-0,106	-0,061
-106,220	129,097	-0,050	0,045
-105,205	78,721	0,014	0,011
-104,191	-200,000	-0,007	-0,043
-103,176	35,493	-0,076	0,047
-102,162	-145,005	0,053	-0,003
-101,147	470,791	-0,016	-0,026
-100,132	800,000	0,048	-0,133
-99,118	-60,790	0,040	0,012
-98,103	-200,000	-0,007	0,088
-97,089	-98,096	0,066	-0,012
-96,074	575,519	0,015	0,026
-95,059	235,300	0,053	0,062
-94,045	800,000	0,014	-0,037
-93,030	-57,589	-0,057	-0,017
-92,016	152,042	-0,046	-0,044
-91,001	-166,036	0,134	-0,004
-89,986	635,721	0,018	0,033
-88,972	-18,692	-0,118	0,052
-87,957	9,753	0,034	0,018
-86,943	42,211	-0,052	-0,034
-85,928	197,561	-0,109	-0,118
-84,913	628,389	-0,054	-0,097
-83,899	-128,120	0,100	-0,010
-82,884	-200,000	0,009	-0,038
-81,870	-53,149	0,064	-0,021
-80,855	800,000	0,022	0,052
-79,840	-200,000	0,000	-0,049
-78,826	-200,000	0,001	-0,028
-77,811	-161,375	-0,165	-0,006
-76,797	-46,308	0,047	0,016
-75,782	-64,587	0,126	0,036
-74,767	146,915	-0,044	0,042
-73,753	22,543	0,041	0,023
-72,738	-131,232	0,066	0,006
-71,724	-52,942	0,088	-0,029
-70,709	800,000	-0,029	-0,057
-69,694	-48,946	-0,064	0,022
-68,680	-43,613	-0,086	0,030
-67,665	-200,000	-0,010	0,076
-66,651	800,000	-0,048	0,131
-65,636	100,844	-0,080	-0,066
-64,622	-115,001	-0,050	-0,007
-63,607	-21,021	-0,069	0,030
-62,592	-200,000	-0,009	0,036
-61,578	-62,274	0,113	-0,033
-60,563	800,000	0,031	0,067
-59,549	800,000	-0,040	0,097
-58,534	-30,021	-1,494	-0,599
-57,519	371,487	-1,518	-2,188
-56,505	-200,000	-0,544	-4,409
-55,490	345,028	0,871	1,215
-54,476	800,000	4,628	11,011
-53,461	-200,000	18,297	292,144
-52,446	800,000	729,052	2244,358
-51,432	559,117	1644,762	2821,790
-50,417	79,014	1665,610	1261,405
-49,403	22,515	1539,015	888,934
-48,388	16,473	1462,262	815,340
-47,373	17,820	1452,157	816,157
-46,359	17,060	1442,482	807,052
-45,344	14,722	1437,745	793,210
-44,330	14,644	1436,018	791,857
-43,315	14,644	1434,441	790,954
-42,300	14,653	1432,826	790,078
-41,286	14,659	1431,506	789,346
-40,271	14,683	1430,080	788,642
-39,257	14,669	1428,828	787,854
-38,242	14,687	1427,669	787,268
-37,227	14,697	1426,509	786,647
-36,213	14,692	1425,106	785,819
-35,198	14,720	1423,759	785,174
-34,184	14,776	1422,897	784,932
-33,169	14,662	1421,694	783,698
-32,154	14,727	1420,809	783,488
-31,140	14,706	1419,293	782,522
-30,125	14,740	1418,397	782,155
-29,111	14,718	1417,119	781,317
-28,096	14,702	1416,044	780,620
-27,082	14,662	1414,962	779,805
-26,067	14,669	1413,898	779,217
-25,052	14,647	1412,839	778,502
-24,038	14,583	1412,139	777,785
-23,023	14,618	1410,782	777,169
-22,009	14,570	1410,040	776,507
-20,994	14,572	1409,137	775,985
-19,979	14,594	1407,963	775,415
-18,965	14,544	1407,182	774,717
-17,950	14,562	1405,873	774,051
-16,936	14,576	1404,925	773,562
-15,921	14,516	1404,034	772,764
-14,906	14,534	1403,176	772,344
-13,892	14,511	1402,359	771,758
-12,877	14,549	1401,207	771,266
-11,863	14,520	1400,401	770,661
-10,848	14,532	1399,490	770,185
-9,833	14,533	1398,551	769,640
-8,819	14,432	1397,939	768,805
-7,804	14,428	1397,116	768,301
-6,790	14,468	1395,639	767,647
-5,775	14,427	1394,599	766,853
-4,760	14,443	1393,625	766,362
-3,746	14,433	1392,826	765,844
-2,731	14,403	1392,223	765,343
-1,717	14,452	1391,268	765,016
-0,702	14,403	1389,614	763,848
0,313	18,313	1308,471	737,304
1,327	34,746	705,931	435,819
2,342	53,513	124,301	84,223
3,356	1,210	16,630	8,420
4,371	5,217	3,158	1,641
5,386	-41,506	0,723	0,262
6,400	-200,000	0,011	0,146
7,415	46,905	-0,216	-0,142
8,429	-32,573	-0,270	-0,106
9,444	194,623	-0,207	-0,222
10,459	22,113	-0,163	-0,094
11,473	-134,860	-0,309	0,026
12,488	132,138	-0,229	-0,208
13,502	-15,677	-0,459	-0,206
14,517	-21,933	-0,346	-0,148
15,531	184,021	-0,302	-0,316
16,546	134,045	-0,295	-0,270
17,561	119,046	-0,259	-0,226
18,575	55,776	-0,239	-0,164
19,590	407,490	-0,198	-0,297
20,604	74,575	-0,286	-0,212
21,619	80,621	-0,389	-0,296
22,634	205,375	-0,366	-0,402
23,648	259,604	-0,333	-0,407
24,663	95,976	-0,387	-0,312
25,677	53,563	-0,266	-0,180
26,692	193,641	-0,316	-0,338
27,707	121,165	-0,281	-0,247
28,721	23,292	-0,352	-0,204
29,736	50,410	-0,370	-0,246
30,750	27,717	-0,409	-0,243
31,765	53,553	-0,316	-0,214
32,780	97,915	-0,434	-0,352
33,794	47,019	-0,427	-0,280
34,809	170,644	-0,430	-0,435
35,823	191,423	-0,306	-0,325
36,838	122,286	-0,342	-0,301
37,853	21,664	-0,387	-0,222
38,867	115,453	-0,361	-0,311
39,882	66,018	-0,350	-0,250
40,896	1,642	-0,336	-0,170
41,911	168,237	-0,318	-0,320
42,926	182,040	-0,336	-0,349
43,940	108,909	-0,351	-0,295
44,955	200,906	-0,322	-0,349
45,969	237,519	-0,269	-0,315
46,984	105,787	-0,283	-0,236
47,999	170,055	-0,359	-0,362
49,013	134,731	-0,298	-0,272
50,028	47,477	-0,300	-0,197
51,042	-26,132	-0,351	-0,145
52,057	86,920	-0,350	-0,272
53,071	9,370	-0,354	-0,188
54,086	14,869	-0,374	-0,205
55,101	147,339	-0,339	-0,321
56,115	253,895	-0,216	-0,261
57,130	-13,170	-0,417	-0,190
58,144	154,529	-0,318	-0,308
59,159	45,337	-0,322	-0,209
60,174	324,731	-0,297	-0,400
61,188	-72,660	-0,392	-0,101
62,203	121,890	-0,287	-0,252
63,217	79,535	-0,355	-0,268
64,232	-141,517	-0,197	-0,014
65,247	-47,476	-0,380	-0,129
66,261	70,372	-0,354	-0,257
67,276	28,566	-0,377	-0,224
68,290	85,429	-0,233	-0,180
69,305	15,665	-0,383	-0,211
70,320	62,094	-0,156	-0,109
71,334	10,608	-0,273	-0,146
72,349	53,024	-0,225	-0,151
73,363	-7,211	-0,363	-0,173
74,378	34,952	-0,309	-0,190
75,393	-69,571	-0,410	-0,110
76,407	-49,223	-0,377	-0,126
77,422	108,231	-0,278	-0,233
78,436	-23,778	-0,277	-0,116
79,451	12,371	-0,366	-0,198
80,466	-24,299	-0,415	-0,173
81,480	84,739	-0,276	-0,213
82,495	118,394	-0,275	-0,238
83,509	106,497	-0,239	-0,199
84,524	-23,134	-0,321	-0,135
85,539	68,812	-0,271	-0,195
86,553	-132,901	-0,394	0,035
87,568	76,647	-0,290	-0,216
88,582	158,196	-0,259	-0,252
89,597	18,130	-0,297	-0,166
90,611	33,994	-0,484	-0,295
91,626	12,966	-0,357	-0,193
92,641	-51,030	-0,229	-0,075
93,655	11,452	-0,300	-0,161
94,670	-4,895	-0,418	-0,201
95,684	110,174	-0,320	-0,270
96,699	74,808	-0,259	-0,191
97,714	-11,053	-0,350	-0,161
98,728	-79,058	-0,400	-0,095
99,743	-34,346	-0,189	-0,072
100,757	-95,485	-0,269	-0,050
101,772	93,859	-0,310	-0,247
102,787	78,736	-0,296	-0,222
103,801	88,039	-0,222	-0,172
104,816	-30,749	-0,326	-0,129
105,830	-21,539	-0,236	-0,100
106,845	111,094	-0,228	-0,193
107,860	257,228	-0,157	-0,189
108,874	235,531	-0,263	-0,305
109,889	-32,098	-0,335	-0,131
110,903	71,689	-0,353	-0,257
111,918	48,981	-0,334	-0,219
112,933	-80,753	-0,281	0,065
113,947	-24,160	-0,169	-0,070
114,962	126,366	-0,221	-0,196
115,976	10,437	-0,371	-0,197
116,991	800,000	-0,051	-0,110
118,006	-89,195	-0,349	-0,071
119,020	108,683	-0,134	-0,112
120,035	148,299	-0,185	-0,175
121,049	35,371	-0,254	-0,156
122,064	-65,045	-0,303	-0,085
123,079	587,199	-0,179	-0,310
124,093	139,076	-0,212	-0,195
125,108	55,016	-0,311	-0,210
126,122	-63,625	-0,288	-0,082
127,137	197,410	-0,232	-0,248
128,151	20,082	-0,235	-0,132
129,166	27,008	-0,149	-0,087
130,181	124,921	-0,251	-0,221
131,195	-58,036	-0,336	-0,102
132,210	94,236	-0,258	-0,205
133,224	352,695	-0,199	-0,277
134,239	181,633	-0,112	-0,115
135,254	-200,000	0,011	-0,089
136,268	316,638	-0,150	-0,198
137,283	12,223	-0,347	-0,186
138,297	236,826	-0,201	-0,234
139,312	-3,324	-0,246	-0,119
140,327	-1,413	-0,230	-0,113
141,341	152,655	-0,168	-0,161
142,356	-190,541	-0,099	-0,001
143,370	-126,442	-0,380	-0,039
144,385	416,922	-0,130	-0,194
145,400	19,438	-0,269	-0,150
146,414	43,991	-0,323	-0,206
147,429	283,756	-0,302	-0,381
148,443	55,075	-0,284	-0,191
149,458	242,474	-0,120	-0,141
150,473	132,490	-0,144	-0,129
151,487	337,528	-0,159	-0,217
152,502	-3,042	-0,483	-0,234
153,516	26,471	-0,320	-0,186
154,531	146,092	-0,286	-0,268
155,546	-94,248	-0,235	-0,044
156,560	108,174	-0,127	-0,105
157,575	38,912	-0,213	-0,133
158,589	116,410	-0,179	-0,153
159,604	154,598	-0,272	-0,261
160,619	233,754	-0,230	-0,265
161,633	168,901	-0,268	-0,267
162,648	150,135	-0,280	-0,265
163,662	0,757	-0,262	-0,130
164,677	800,000	-0,102	-0,229
165,692	125,687	-0,158	-0,139
166,706	-67,029	-0,235	-0,064
167,721	166,195	-0,239	-0,236
168,735	99,147	-0,232	-0,187
169,750	-139,755	-0,228	-0,017
170,764	13,199	-0,285	-0,154
171,779	-143,501	-0,308	-0,020
172,794	288,630	-0,189	-0,239
173,808	-55,643	-0,254	-0,079
174,823	-29,058	-0,279	-0,111
175,837	7,957	-0,300	-0,156
176,852	70,490	-0,313	-0,225
177,867	55,471	-0,247	-0,167
178,881	182,189	-0,109	-0,112
179,896	-119,390	-0,248	-0,030
180,910	89,968	-0,244	-0,189
181,925	135,834	-0,197	-0,178
182,940	93,473	-0,289	-0,227
183,954	15,435	-0,261	-0,143
184,969	-35,289	-0,203	-0,076
185,983	68,463	-0,133	-0,095
186,998	74,199	-0,193	-0,141
188,013	98,743	-0,150	-0,120
189,027	102,725	-0,213	-0,174
190,042	-62,765	-0,280	-0,080
191,056	136,463	-0,196	-0,178
192,071	79,148	-0,265	-0,197
193,086	46,176	-0,177	-0,114
194,100	-200,000	-0,025	-0,108
195,115	200,972	-0,118	-0,127
196,129	55,507	-0,247	-0,166
197,144	57,682	-0,342	-0,232
198,159	385,613	-0,201	-0,290
199,173	100,877	-0,156	-0,126
200,188	-73,412	-0,220	-0,055
201,202	-129,141	-0,136	-0,013
202,217	433,828	-0,210	-0,318
203,232	162,771	-0,264	-0,258
204,246	-104,746	-0,143	-0,023
205,261	157,137	-0,303	-0,292
206,275	-22,570	-0,255	-0,107
207,290	103,224	-0,128	-0,104
208,304	595,466	-0,116	-0,200
209,319	800,000	-0,085	-0,219
210,334	800,000	-0,125	-0,307
211,348	104,015	-0,163	-0,133
212,363	13,438	-0,243	-0,131
213,377	800,000	-0,123	-0,290
214,392	-138,826	-0,038	0,003
215,407	77,409	-0,129	-0,095
216,421	8,951	-0,223	-0,117
217,436	-62,425	-0,220	-0,063
218,450	150,863	-0,233	-0,220
219,465	176,191	-0,238	-0,240
220,480	45,157	-0,205	-0,131
221,494	435,642	-0,118	-0,178
222,509	-49,859	-0,233	-0,076
223,523	-5,282	-0,213	-0,101
224,538	-168,613	-0,343	0,009
225,553	800,000	-0,094	-0,207
226,567	-12,949	-0,193	-0,087
227,582	91,647	-0,136	-0,106
228,596	-11,601	-0,181	-0,082
229,611	-20,142	-0,195	-0,083
230,626	47,859	-0,242	-0,157
231,640	83,364	-0,196	-0,148
232,655	48,006	-0,173	-0,112
233,669	119,016	-0,244	-0,209
234,684	28,441	-0,210	-0,123
235,699	800,000	-0,074	-0,216
236,713	170,562	-0,141	-0,140
237,728	-141,600	-0,123	-0,008
238,742	130,014	-0,106	-0,094
239,757	72,929	-0,169	-0,122
240,772	-79,785	-0,105	-0,024
241,786	201,583	-0,162	-0,173
242,801	50,617	-0,192	-0,126
243,815	-129,200	-0,167	-0,016
244,830	572,313	-0,114	-0,193
245,844	-200,000	-0,103	-0,334
246,859	11,125	-0,276	-0,146
247,874	578,925	-0,179	-0,304
248,888	121,728	-0,159	-0,138
249,903	-118,131	-0,207	-0,025
250,917	228,241	-0,145	-0,164
251,932	22,571	-0,164	-0,092
252,947	-121,678	-0,270	-0,031
253,961	34,724	-0,164	-0,099
254,976	4,544	-0,186	-0,094
255,990	104,537	-0,176	-0,143
257,005	-121,315	-0,275	-0,031
258,020	593,442	-0,094	-0,162
259,034	-70,361	-0,214	-0,056
260,049	90,499	-0,169	-0,131
261,063	3,621	-0,172	-0,086
262,078	-98,193	-0,327	-0,058
263,093	-11,594	-0,137	-0,062
264,107	107,272	-0,200	-0,164
265,122	736,789	-0,111	-0,206
266,136	289,545	-0,126	-0,159
267,151	177,803	-0,192	-0,194
268,166	456,290	-0,121	-0,187
269,180	165,297	-0,127	-0,124
270,195	-200,000	-0,067	-0,262
271,209	-185,225	-0,310	-0,003
272,224	-200,000	-0,018	-0,152
273,239	128,437	-0,258	-0,227
274,253	264,745	-0,079	-0,095
275,268	183,053	-0,132	-0,135
276,282	430,859	-0,134	-0,201
277,297	-29,284	-0,294	-0,116
278,312	64,366	-0,131	-0,091
279,326	396,083	-0,133	-0,192
280,341	341,709	-0,159	-0,216
281,355	22,930	-0,206	-0,116
282,370	728,528	-0,047	-0,088
283,384	280,258	-0,121	-0,150
284,399	800,000	-0,106	-0,297
285,414	621,656	-0,098	-0,171
286,428	81,531	-0,214	-0,159
287,443	106,142	-0,183	-0,149
288,457	231,610	-0,128	-0,145
289,472	800,000	-0,093	-0,213
290,487	-44,712	-0,225	-0,077
291,501	64,498	-0,199	-0,138
292,516	91,133	-0,216	-0,167
293,530	67,835	-0,167	-0,118
294,545	-140,987	-0,121	0,008
295,560	-83,517	-0,156	0,034
296,574	-66,575	-0,292	-0,079
297,589	71,628	-0,254	-0,182
298,603	532,483	-0,180	-0,294
299,618	690,207	-0,134	-0,242
300,633	-69,488	-0,123	-0,032
301,647	-109,946	-0,091	0,013
302,662	-163,889	-0,224	0,007
303,676	269,242	-0,119	-0,144
304,691	77,331	-0,084	-0,062
305,706	-153,380	-0,218	-0,010
306,720	11,574	-0,260	-0,137
307,735	-0,571	-0,159	0,078
308,749	743,323	-0,096	-0,178
309,764	-200,000	0,007	-0,159
310,779	92,477	-0,121	-0,094
311,793	-5,931	-0,124	0,058
312,808	-36,478	-0,108	0,040
313,822	357,548	-0,165	-0,227
314,837	800,000	-0,094	-0,226
315,852	800,000	-0,066	-0,156
316,866	13,563	-0,186	-0,099
317,881	-48,357	-0,156	0,051
318,895	-137,434	-0,111	-0,008
319,910	281,505	-0,140	-0,173
320,925	308,551	-0,201	-0,258
321,939	-66,735	-0,169	-0,046
322,954	-200,000	-0,009	-0,138
323,968	290,475	-0,071	-0,089
324,983	-200,000	-0,017	-0,155
325,997	351,277	0,023	-0,031
327,012	7,952	-0,173	-0,089
328,027	254,853	-0,227	-0,268
329,041	800,000	-0,104	-0,248
330,056	-135,279	-0,118	-0,010
331,070	-91,137	-0,143	-0,028
332,085	48,237	-0,256	-0,165
333,100	-158,847	-0,142	-0,005
334,114	34,699	-0,237	-0,142
335,129	204,877	-0,133	-0,142
336,143	76,395	-0,134	-0,098
337,158	1,830	-0,150	-0,074
338,173	242,421	-0,093	-0,108
339,187	800,000	0,058	-0,144
340,202	-76,875	-0,133	-0,032
341,216	-9,620	-0,167	-0,076
342,231	-70,027	-0,178	-0,046
343,246	673,889	-0,116	-0,207
344,260	146,090	-0,064	-0,059
345,275	347,997	-0,035	-0,048
346,289	-121,552	-0,105	-0,012
347,304	-18,460	-0,212	-0,091
348,319	431,024	-0,138	-0,205
349,333	82,413	-0,242	-0,180
350,348	55,973	-0,133	-0,088
351,362	129,326	-0,161	-0,141
352,377	217,050	-0,120	-0,132
353,392	-33,444	-0,068	-0,026
354,406	106,520	-0,085	0,069
355,421	209,835	1315,224	1416,679
356,435	161,514	1476,026	1417,184
