DTS Sentinel unit serial number:	SN410029Multiplexer serial number:	ORYXHardware model number:	OX2-SRSoftware version number:	ORYX F/W v4,00 Oryx Data Collector v3.7.2.0data status	okinstallation	B3 Nyhavnadifferential loss correction	single-endedforward channel	channel 1reverse channel	N/Adate	2023/11/29time	04:07:30forward acquisition time	300,00reverse acquisition time	0,00gamma	499,1914k internal	0,3211k external	0,3211temperature offset calibration	1,0000default loss term (dB/km)	0,3820temperature slope calibration	1,0000multiplexer offset coefficient	1,0000multiplexer slope coefficient	1,0000fibre end	0,00T internal ref (°C)	9,37T ext. ref 1 (°C)	-5,96T ext. ref 2 (°C)	-6,06length (m)	temperature (°C)	Stokes	anti-Stokes-744,400	800,000	-0,097	-0,252
-743,385	800,000	-0,054	0,159
-742,371	-200,000	-0,023	-0,267
-741,356	-200,000	0,054	0,324
-740,342	256,722	-0,171	-0,213
-739,327	-200,000	-0,033	0,277
-738,312	506,271	-0,208	-0,351
-737,298	-200,000	0,043	0,189
-736,283	-200,000	-0,025	-0,357
-735,269	-200,000	-0,064	0,246
-734,254	100,473	-0,140	-0,118
-733,239	76,329	-0,207	0,159
-732,225	25,974	-0,173	-0,105
-731,210	13,352	0,125	0,070
-730,196	40,301	-0,092	-0,060
-729,181	-2,425	-0,077	0,039
-728,167	280,636	-0,116	-0,150
-727,152	-52,605	-0,099	-0,033
-726,137	-200,000	0,013	-0,067
-725,123	-14,049	0,010	0,005
-724,108	199,391	-0,065	-0,072
-723,094	-200,000	0,015	-0,068
-722,079	-200,000	0,034	-0,117
-721,064	-200,000	0,023	0,097
-720,050	-200,000	0,003	0,051
-719,035	725,167	0,038	0,073
-718,021	800,000	-0,050	-0,149
-717,006	-82,857	-0,072	-0,017
-715,991	129,345	0,155	-0,144
-714,977	12,431	-0,150	-0,084
-713,962	110,030	0,117	-0,101
-712,948	800,000	-0,031	0,080
-711,933	-28,503	-0,078	-0,032
-710,918	-176,468	0,058	0,001
-709,904	-105,265	-0,087	-0,014
-708,889	-6,188	0,023	0,012
-707,875	-200,000	0,033	-0,171
-706,860	-95,928	-0,087	0,017
-705,845	-200,000	0,018	-0,058
-704,831	-200,000	0,015	0,070
-703,816	800,000	0,012	0,030
-702,802	183,741	-0,045	-0,048
-701,787	61,054	0,045	0,032
-700,772	201,805	-0,069	-0,077
-699,758	52,078	0,134	-0,092
-698,743	735,877	-0,032	0,062
-697,729	3,443	0,042	0,022
-696,714	800,000	0,017	0,052
-695,699	400,189	-0,014	0,021
-694,685	81,489	0,051	0,040
-693,670	800,000	0,007	-0,015
-692,656	4,901	0,120	-0,064
-691,641	-157,095	0,068	0,003
-690,627	800,000	-0,029	0,091
-689,612	-97,044	-0,123	-0,023
-688,597	-84,494	0,003	-0,001
-687,583	-200,000	-0,022	-0,099
-686,568	51,363	-0,053	-0,036
-685,554	-200,000	-0,108	-0,000
-684,539	-163,563	-0,074	-0,002
-683,524	-0,105	0,089	0,046
-682,510	69,215	0,111	0,082
-681,495	-200,000	-0,012	0,069
-680,481	-153,609	-0,183	-0,009
-679,466	19,504	-0,037	-0,022
-678,451	112,393	-0,083	0,073
-677,437	-125,837	0,079	-0,009
-676,422	800,000	-0,023	-0,054
-675,408	-90,913	-0,080	0,016
-674,393	434,410	0,028	-0,044
-673,378	50,307	-0,064	-0,043
-672,364	800,000	-0,037	-0,105
-671,349	296,398	-0,076	-0,101
-670,335	186,965	0,165	-0,178
-669,320	84,787	0,027	-0,021
-668,305	-54,714	0,011	-0,004
-667,291	192,675	-0,032	-0,035
-666,276	-145,636	-0,119	0,008
-665,262	800,000	0,006	-0,015
-664,247	-200,000	0,011	-0,049
-663,232	233,672	-0,035	0,042
-662,218	53,479	0,057	-0,040
-661,203	-30,842	-0,033	-0,013
-660,189	-200,000	0,026	-0,102
-659,174	196,095	0,099	-0,108
-658,159	800,000	-0,034	-0,079
-657,145	-200,000	0,004	0,039
-656,130	800,000	-0,076	0,168
-655,116	-109,990	-0,099	0,015
-654,101	520,604	-0,059	-0,100
-653,086	-200,000	-0,006	-0,057
-652,072	7,827	-0,160	-0,087
-651,057	-4,281	-0,067	0,033
-650,043	-60,918	-0,130	-0,040
-649,028	-100,712	0,049	0,009
-648,014	-83,752	0,036	-0,008
-646,999	800,000	0,008	0,020
-645,984	13,134	0,104	0,058
-644,970	194,741	-0,096	-0,105
-643,955	28,350	-0,105	-0,064
-642,941	92,274	-0,060	0,049
-641,926	-6,088	0,060	0,030
-640,911	-86,347	-0,116	0,026
-639,897	80,458	-0,041	0,032
-638,882	44,415	-0,066	0,044
-637,868	-37,746	-0,084	-0,032
-636,853	-141,844	0,072	0,005
-635,838	-59,340	-0,092	-0,028
-634,824	442,286	-0,031	-0,049
-633,809	800,000	0,057	-0,154
-632,795	-200,000	-0,003	0,067
-631,780	6,337	-0,032	-0,017
-630,765	-200,000	-0,008	-0,144
-629,751	-200,000	-0,004	-0,052
-628,736	800,000	0,037	-0,111
-627,722	-200,000	0,003	0,079
-626,707	84,719	-0,045	-0,035
-625,692	-32,203	-0,084	0,034
-624,678	125,563	-0,076	0,069
-623,663	-89,700	0,077	-0,016
-622,649	-115,213	-0,039	-0,005
-621,634	800,000	0,010	-0,031
-620,619	-200,000	-0,015	-0,071
-619,605	228,617	-0,078	0,091
-618,590	-200,000	-0,006	0,141
-617,576	-200,000	-0,012	-0,062
-616,561	-21,356	0,080	-0,035
-615,546	-103,415	-0,142	0,024
-614,532	-200,000	-0,005	-0,081
-613,517	-200,000	0,025	-0,195
-612,503	155,141	0,035	0,035
-611,488	188,129	0,060	-0,065
-610,474	-135,391	-0,052	-0,004
-609,459	187,015	-0,066	0,071
-608,444	243,968	-0,015	0,018
-607,430	800,000	-0,013	0,026
-606,415	375,297	0,079	0,116
-605,401	-35,676	0,070	-0,027
-604,386	-90,097	0,098	0,020
-603,371	-200,000	0,011	-0,079
-602,357	121,584	0,083	0,074
-601,342	800,000	-0,060	0,156
-600,328	-95,278	-0,012	-0,002
-599,313	713,875	-0,062	-0,119
-598,298	79,920	0,151	0,117
-597,284	-101,175	0,199	0,035
-596,269	-200,000	-0,005	0,077
-595,255	-127,294	-0,025	-0,003
-594,240	-47,187	0,094	0,033
-593,225	-48,008	-0,028	-0,010
-592,211	-75,885	0,074	0,019
-591,196	-200,000	0,029	-0,161
-590,182	-200,000	-0,010	-0,113
-589,167	800,000	-0,027	0,060
-588,152	-200,000	0,021	-0,199
-587,138	-16,426	-0,099	0,045
-586,123	-200,000	0,019	-0,073
-585,109	-15,638	-0,091	-0,042
-584,094	247,211	-0,049	-0,060
-583,079	-115,279	-0,113	0,015
-582,065	800,000	-0,031	-0,077
-581,050	-200,000	-0,006	0,042
-580,036	-116,529	0,156	0,020
-579,021	-200,000	-0,010	-0,047
-578,006	-200,000	-0,035	-0,225
-576,992	-200,000	-0,027	0,125
-575,977	17,482	0,100	0,057
-574,963	-74,998	-0,047	0,012
-573,948	-91,600	0,177	-0,036
-572,934	800,000	-0,071	0,197
-571,919	199,907	-0,071	0,079
-570,904	-200,000	0,005	-0,025
-569,890	-138,429	-0,101	-0,008
-568,875	58,251	-0,025	0,018
-567,861	127,009	-0,111	0,102
-566,846	-34,232	0,061	-0,024
-565,831	319,392	0,009	0,012
-564,817	-119,422	-0,173	0,021
-563,802	-200,000	0,002	-0,027
-562,788	-200,000	0,011	0,082
-561,773	46,162	-0,134	-0,089
-560,758	0,349	0,091	0,047
-559,744	-200,000	-0,052	0,166
-558,729	-200,000	0,002	0,021
-557,715	308,785	0,079	0,106
-556,700	-200,000	-0,016	-0,172
-555,685	-135,535	-0,098	-0,008
-554,671	576,914	-0,066	0,117
-553,656	-80,450	0,066	0,016
-552,642	116,159	0,112	0,099
-551,627	-200,000	-0,016	0,110
-550,612	-138,686	0,068	-0,005
-549,598	-200,000	0,016	-0,099
-548,583	393,143	-0,017	0,025
-547,569	-200,000	0,024	-0,098
-546,554	152,893	0,069	0,068
-545,539	159,367	-0,041	0,041
-544,525	-200,000	-0,003	0,013
-543,510	550,602	0,033	-0,057
-542,496	53,258	0,032	-0,022
-541,481	512,015	-0,042	0,071
-540,466	193,119	-0,027	0,029
-539,452	800,000	0,087	0,182
-538,437	305,466	0,021	0,028
-537,423	800,000	-0,005	-0,014
-536,408	465,140	-0,052	0,084
-535,393	734,975	-0,075	-0,146
-534,379	155,447	0,079	-0,079
-533,364	-200,000	0,008	-0,039
-532,350	-200,000	0,007	0,056
-531,335	72,502	-0,027	0,020
-530,321	-8,095	-0,081	-0,039
-529,306	-127,384	0,006	-0,001
-528,291	-200,000	0,006	0,064
-527,277	-69,214	0,084	0,023
-526,262	204,963	0,042	-0,046
-525,248	97,891	-0,080	0,066
-524,233	120,763	0,053	-0,047
-523,218	-54,942	-0,042	0,014
-522,204	-42,849	0,091	-0,033
-521,189	-125,275	0,111	0,012
-520,175	82,928	-0,086	0,067
-519,160	-200,000	0,042	-0,210
-518,145	-130,346	0,089	-0,009
-517,131	64,936	0,104	0,075
-516,116	-200,000	-0,033	0,000
-515,102	-200,000	0,008	-0,134
-514,087	95,918	0,147	-0,121
-513,072	-32,667	-0,079	0,031
-512,058	-200,000	-0,035	-0,120
-511,043	83,341	0,026	-0,020
-510,029	-200,000	-0,024	0,218
-509,014	800,000	-0,059	0,127
-507,999	-200,000	-0,025	-0,088
-506,985	-151,296	0,073	-0,004
-505,970	-30,973	-0,054	-0,022
-504,956	80,394	-0,126	0,097
-503,941	357,911	-0,036	0,052
-502,926	64,778	-0,092	0,067
-501,912	13,532	0,116	-0,065
-500,897	46,662	-0,102	0,068
-499,883	721,410	-0,036	-0,070
-498,868	380,243	-0,108	0,160
-497,853	267,088	-0,042	0,053
-496,839	-88,665	0,010	0,002
-495,824	-105,586	0,087	0,014
-494,810	16,016	0,035	0,020
-493,795	126,149	0,054	0,049
-492,781	103,827	0,081	0,068
-491,766	756,740	-0,032	-0,062
-490,751	-53,124	-0,086	0,028
-489,737	359,372	-0,102	0,147
-488,722	-200,000	0,043	0,168
-487,708	10,069	0,129	0,070
-486,693	136,966	0,038	-0,036
-485,678	800,000	0,005	-0,014
-484,664	-32,962	-0,165	0,065
-483,649	183,320	-0,037	0,039
-482,635	-8,782	-0,138	0,066
-481,620	350,859	0,025	-0,035
-480,605	171,768	0,084	0,087
-479,591	234,610	-0,087	0,103
-478,576	-75,535	-0,041	0,010
-477,562	132,018	0,025	-0,023
-476,547	800,000	0,078	0,179
-475,532	-94,161	-0,064	-0,013
-474,518	-200,000	0,010	0,111
-473,503	-48,832	0,132	-0,045
-472,489	-200,000	0,008	-0,073
-471,474	-200,000	0,018	-0,072
-470,459	-7,996	-0,201	-0,097
-469,445	-200,000	-0,001	-0,031
-468,430	-23,836	-0,045	-0,019
-467,416	-161,074	0,073	0,003
-466,401	66,280	0,087	0,063
-465,386	-9,535	0,051	0,024
-464,372	184,173	0,053	0,056
-463,357	-94,529	0,042	0,008
-462,343	800,000	0,013	0,033
-461,328	-143,115	-0,076	-0,005
-460,313	-71,403	0,066	-0,018
-459,299	-39,339	-0,082	0,031
-458,284	-200,000	0,021	0,066
-457,270	-155,684	-0,057	0,003
-456,255	85,914	-0,088	-0,069
-455,241	800,000	-0,076	-0,160
-454,226	-75,509	0,102	0,026
-453,211	-55,411	-0,151	0,048
-452,197	79,420	0,140	0,107
-451,182	306,417	-0,116	0,156
-450,168	-200,000	0,004	-0,017
-449,153	81,875	-0,081	0,063
-448,138	-141,415	0,116	0,008
-447,124	159,918	-0,142	-0,142
-446,109	467,145	0,031	-0,050
-445,095	177,545	0,067	0,070
-444,080	-200,000	-0,010	0,118
-443,065	37,731	-0,076	0,048
-442,051	800,000	0,047	0,110
-441,036	-138,771	-0,094	0,007
-440,022	100,306	-0,110	-0,091
-439,007	-108,892	-0,099	0,015
-437,992	-200,000	-0,023	-0,116
-436,978	-52,150	0,179	0,059
-435,963	0,611	-0,145	0,074
-434,949	-153,301	-0,061	0,003
-433,934	-158,125	0,110	0,005
-432,919	800,000	-0,034	0,077
-431,905	544,683	-0,044	0,076
-430,890	-200,000	-0,005	0,142
-429,876	-93,814	0,065	0,013
-428,861	-200,000	0,038	0,125
-427,846	-76,616	-0,212	0,053
-426,832	124,658	0,084	-0,076
-425,817	316,497	0,063	0,085
-424,803	-36,739	0,135	0,052
-423,788	4,414	-0,126	0,066
-422,773	148,069	0,122	0,118
-421,759	800,000	-0,046	-0,098
-420,744	-166,688	-0,071	-0,002
-419,730	800,000	0,034	-0,095
-418,715	-111,013	-0,123	-0,018
-417,701	-82,549	0,100	0,023
-416,686	84,161	-0,044	-0,035
-415,671	-138,087	0,047	0,004
-414,657	4,476	-0,050	0,026
-413,642	-63,452	-0,023	-0,007
-412,628	-19,800	0,067	-0,029
-411,613	16,301	-0,115	-0,065
-410,598	610,453	0,026	0,047
-409,584	-3,923	0,152	-0,075
-408,569	88,166	-0,097	0,077
-407,555	-112,957	-0,068	0,010
-406,540	-200,000	0,009	-0,126
-405,525	800,000	-0,009	-0,029
-404,511	-200,000	0,007	0,027
-403,496	427,914	-0,017	0,026
-402,482	-200,000	-0,025	0,101
-401,467	-29,550	-0,074	0,030
-400,452	-200,000	0,001	-0,067
-399,438	-152,866	0,119	-0,006
-398,423	570,149	-0,039	0,069
-397,409	-200,000	-0,029	-0,182
-396,394	-10,240	-0,145	-0,069
-395,379	-62,549	0,201	0,059
-394,365	800,000	0,032	0,096
-393,350	386,983	-0,046	-0,068
-392,336	-200,000	0,026	-0,100
-391,321	-42,161	0,098	0,036
-390,306	-115,010	0,139	-0,019
-389,292	-200,000	0,002	0,064
-388,277	-200,000	0,028	0,128
-387,263	129,088	0,118	-0,108
-386,248	152,495	0,070	-0,068
-385,233	51,173	-0,086	0,058
-384,219	-23,718	0,184	-0,078
-383,204	-76,822	-0,202	0,050
-382,190	800,000	-0,071	-0,142
-381,175	-200,000	0,036	-0,192
-380,160	495,399	0,046	-0,076
-379,146	-200,000	0,018	-0,065
-378,131	-88,492	0,128	0,027
-377,117	-200,000	-0,029	0,114
-376,102	129,755	-0,062	-0,056
-375,088	149,983	-0,103	-0,100
-374,073	1,329	-0,071	0,036
-373,058	-53,489	0,048	0,016
-372,044	699,152	0,047	-0,089
-371,029	-106,556	-0,037	-0,006
-370,015	800,000	-0,027	-0,061
-369,000	334,906	-0,077	-0,107
-367,985	-200,000	0,012	-0,098
-366,971	74,752	-0,111	0,084
-365,956	800,000	0,027	0,066
-364,942	275,385	0,058	0,074
-363,927	25,423	-0,052	0,031
-362,912	67,816	-0,044	-0,032
-361,898	-97,860	-0,075	0,014
-360,883	177,958	-0,044	-0,045
-359,869	800,000	0,039	-0,113
-358,854	-35,461	-0,046	-0,018
-357,839	31,921	0,035	-0,022
-356,825	800,000	0,029	-0,077
-355,810	-200,000	0,025	-0,126
-354,796	-200,000	0,008	0,121
-353,781	245,881	-0,043	-0,052
-352,766	800,000	-0,059	-0,120
-351,752	65,534	-0,082	0,059
-350,737	635,688	0,040	-0,072
-349,723	-200,000	-0,014	0,062
-348,708	0,901	-0,048	0,024
-347,693	-200,000	-0,020	-0,104
-346,679	46,230	-0,026	-0,017
-345,664	178,533	-0,032	-0,034
-344,650	45,248	0,058	-0,038
-343,635	351,772	0,089	0,126
-342,620	-200,000	0,004	0,109
-341,606	47,018	-0,078	0,052
-340,591	198,613	-0,063	0,069
-339,577	421,961	0,033	-0,051
-338,562	800,000	0,033	-0,080
-337,548	800,000	0,020	0,044
-336,533	-52,764	0,029	0,009
-335,518	800,000	0,024	0,062
-334,504	-200,000	0,005	0,102
-333,489	-200,000	0,001	-0,053
-332,475	-97,777	-0,100	0,018
-331,460	-165,290	0,052	0,002
-330,445	-109,296	0,134	-0,020
-329,431	-200,000	0,014	0,063
-328,416	-4,467	0,107	0,052
-327,402	614,581	-0,051	0,092
-326,387	60,706	0,066	0,047
-325,372	297,622	-0,046	0,061
-324,358	800,000	-0,070	-0,182
-323,343	-73,959	0,178	0,046
-322,329	-43,181	-0,054	-0,019
-321,314	-200,000	0,000	0,023
-320,299	-36,016	-0,089	-0,034
-319,285	50,416	0,060	0,041
-318,270	19,018	0,088	0,050
-317,256	309,114	-0,044	-0,059
-316,241	800,000	-0,035	-0,102
-315,226	277,089	-0,049	0,062
-314,212	800,000	0,075	0,231
-313,197	-200,000	0,008	-0,047
-312,183	800,000	0,026	0,077
-311,168	266,938	0,056	0,070
-310,153	-23,880	-0,098	-0,042
-309,139	289,530	0,089	-0,116
-308,124	-42,832	0,061	0,022
-307,110	-142,172	0,036	0,002
-306,095	20,791	-0,037	-0,021
-305,080	-89,279	-0,022	-0,005
-304,066	-94,992	-0,054	0,010
-303,051	27,131	-0,073	-0,044
-302,037	800,000	-0,027	-0,063
-301,022	4,722	-0,103	0,054
-300,008	-47,298	0,145	-0,050
-298,993	-68,825	0,036	-0,010
-297,978	-161,854	0,079	-0,003
-296,964	155,454	-0,140	-0,138
-295,949	-34,618	-0,113	-0,044
-294,935	-77,328	0,021	0,005
-293,920	187,721	0,078	0,083
-292,905	-121,202	0,143	-0,017
-291,891	-200,000	-0,039	0,140
-290,876	9,399	0,189	0,101
-289,862	-138,578	0,120	-0,009
-288,847	411,258	0,047	-0,072
-287,832	-200,000	0,028	-0,154
-286,818	-52,511	-0,052	-0,017
-285,803	800,000	-0,047	0,095
-284,789	595,628	0,105	0,186
-283,774	744,028	-0,049	0,094
-282,759	-52,917	0,074	0,024
-281,745	143,705	-0,158	0,150
-280,730	-174,642	0,098	0,002
-279,716	800,000	0,019	-0,047
-278,701	461,532	0,039	0,063
-277,686	-200,000	0,015	0,048
-276,672	-62,401	-0,105	0,031
-275,657	800,000	-0,023	0,048
-274,643	273,545	-0,043	-0,055
-273,628	-93,877	-0,069	0,013
-272,613	313,423	-0,051	-0,068
-271,599	-37,791	0,104	-0,039
-270,584	210,740	0,061	0,068
-269,570	50,984	-0,033	0,022
-268,555	800,000	0,070	-0,161
-267,540	29,569	-0,024	-0,015
-266,526	68,955	-0,148	-0,108
-265,511	-55,603	-0,054	-0,017
-264,497	2,810	0,132	0,068
-263,482	-200,000	-0,022	0,112
-262,467	37,832	-0,055	-0,035
-261,453	20,844	0,127	-0,073
-260,438	-200,000	0,008	0,040
-259,424	-200,000	-0,015	-0,115
-258,409	800,000	-0,056	-0,138
-257,395	253,733	0,144	0,175
-256,380	-200,000	0,023	-0,112
-255,365	553,185	0,062	-0,107
-254,351	800,000	0,023	-0,046
-253,336	-200,000	0,009	0,096
-252,322	-60,546	-0,095	-0,029
-251,307	392,585	0,107	-0,159
-250,292	800,000	-0,032	0,074
-249,278	52,817	0,008	0,005
-248,263	375,470	0,090	0,131
-247,249	-200,000	0,029	-0,152
-246,234	-95,164	-0,166	0,032
-245,219	800,000	0,044	0,099
-244,205	245,882	0,015	-0,018
-243,190	-200,000	-0,007	-0,136
-242,176	235,454	0,054	-0,063
-241,161	-200,000	-0,023	-0,109
-240,146	800,000	0,036	-0,097
-239,132	800,000	-0,035	-0,083
-238,117	-200,000	0,012	-0,124
-237,103	-200,000	-0,007	-0,118
-236,088	-200,000	-0,010	-0,041
-235,073	17,214	-0,028	-0,016
-234,059	-106,233	0,055	-0,009
-233,044	-26,464	-0,098	-0,041
-232,030	-200,000	-0,028	0,102
-231,015	23,883	0,096	-0,056
-230,000	316,329	0,077	-0,104
-228,986	-130,773	-0,070	0,007
-227,971	89,968	0,050	0,040
-226,957	27,903	0,083	-0,050
-225,942	-153,708	-0,128	-0,006
-224,927	800,000	0,023	-0,059
-223,913	-73,580	-0,118	-0,030
-222,898	-134,746	-0,057	0,005
-221,884	263,138	0,112	0,139
-220,869	103,341	0,059	0,049
-219,855	188,177	0,046	0,049
-218,840	55,546	0,212	0,145
-217,825	-200,000	-0,020	0,105
-216,811	-200,000	-0,035	-0,121
-215,796	-200,000	0,005	-0,018
-214,782	-117,711	0,078	0,010
-213,767	-95,990	0,130	0,024
-212,752	-102,535	0,068	0,011
-211,738	236,636	-0,059	0,069
-210,723	-200,000	-0,001	-0,125
-209,709	-22,240	0,078	-0,033
-208,694	-48,386	-0,111	0,038
-207,679	-189,404	-0,065	0,001
-206,665	74,832	0,051	-0,038
-205,650	800,000	-0,046	-0,142
-204,636	800,000	-0,031	-0,071
-203,621	368,916	-0,050	0,072
-202,606	-47,407	-0,068	0,023
-201,592	-200,000	-0,007	-0,046
-200,577	-200,000	0,045	-0,145
-199,563	-200,000	-0,003	-0,020
-198,548	22,679	0,035	-0,020
-197,533	-200,000	-0,031	0,100
-196,519	473,801	-0,044	0,071
-195,504	800,000	-0,060	-0,131
-194,490	-114,385	-0,023	-0,003
-193,475	-200,000	-0,008	-0,055
-192,460	68,417	0,116	0,084
-191,446	29,732	-0,018	0,011
-190,431	41,547	0,107	-0,068
-189,417	-23,699	0,056	0,024
-188,402	-61,979	0,114	-0,034
-187,387	83,570	-0,060	-0,047
-186,373	800,000	-0,029	-0,067
-185,358	-200,000	0,003	-0,143
-184,344	2,054	0,027	-0,014
-183,329	-200,000	-0,020	-0,086
-182,315	-52,736	-0,076	0,025
-181,300	-56,103	0,093	0,029
-180,285	785,972	0,053	-0,103
-179,271	-118,029	0,086	0,011
-178,256	568,097	-0,046	-0,080
-177,242	800,000	0,045	-0,106
-176,227	5,480	0,138	0,072
-175,212	237,826	0,022	0,026
-174,198	70,493	0,045	-0,033
-173,183	-83,442	-0,050	0,011
-172,169	82,591	-0,090	-0,069
-171,154	28,749	0,030	-0,018
-170,139	63,159	0,039	0,028
-169,125	-200,000	-0,005	-0,072
-168,110	-108,996	-0,119	0,018
-167,096	-200,000	-0,006	0,028
-166,081	269,908	-0,061	0,076
-165,066	17,641	0,083	-0,046
-164,052	241,965	-0,044	0,052
-163,037	443,062	-0,070	0,108
-162,023	800,000	-0,032	0,070
-161,008	-84,972	0,128	0,028
-159,993	-200,000	-0,001	-0,047
-158,979	-79,820	0,122	-0,029
-157,964	691,905	-0,046	-0,085
-156,950	-36,297	-0,136	-0,052
-155,935	368,214	-0,061	-0,088
-154,920	46,951	0,069	0,045
-153,906	-97,740	-0,192	0,035
-152,891	-200,000	-0,011	0,092
-151,877	-12,966	0,146	0,067
-150,862	800,000	-0,050	-0,099
-149,847	177,188	0,049	0,051
-148,833	-200,000	0,000	0,063
-147,818	-107,336	0,079	0,012
-146,804	199,570	0,039	0,043
-145,789	-14,227	0,114	0,052
-144,775	-69,263	-0,074	0,020
-143,760	-125,889	-0,072	0,008
-142,745	-200,000	0,025	-0,132
-141,731	-59,982	0,081	-0,024
-140,716	-200,000	0,002	0,032
-139,702	-200,000	0,001	0,051
-138,687	-200,000	0,013	0,143
-137,672	-173,662	-0,110	0,002
-136,658	128,291	-0,024	0,022
-135,643	-200,000	-0,024	-0,112
-134,629	748,006	-0,027	-0,053
-133,614	-200,000	0,020	0,106
-132,599	284,598	0,115	0,147
-131,585	112,454	0,080	0,068
-130,570	800,000	-0,030	0,080
-129,556	800,000	0,010	-0,025
-128,541	-131,104	-0,037	-0,003
-127,526	-200,000	-0,009	0,048
-126,512	-200,000	-0,010	-0,049
-125,497	-29,823	0,077	0,031
-124,483	318,778	-0,056	0,076
-123,468	-167,041	0,096	0,003
-122,453	175,806	-0,066	0,067
-121,439	118,242	0,078	-0,068
-120,424	329,977	0,066	-0,090
-119,410	-200,000	-0,004	0,027
-118,395	399,817	0,075	0,112
-117,380	30,675	0,062	-0,037
-116,366	236,030	-0,031	0,036
-115,351	800,000	0,023	-0,057
-114,337	291,810	-0,062	0,079
-113,322	-200,000	-0,031	0,122
-112,307	-12,095	0,026	-0,012
-111,293	334,494	-0,055	0,076
-110,278	127,485	0,169	0,152
-109,264	-26,806	-0,081	0,033
-108,249	385,669	-0,059	0,086
-107,234	532,408	0,008	0,014
-106,220	216,792	-0,038	-0,043
-105,205	261,389	0,045	-0,055
-104,191	-64,642	0,069	0,020
-103,176	-200,000	-0,017	0,215
-102,162	150,867	0,094	0,090
-101,147	-69,647	-0,148	-0,040
-100,132	800,000	0,047	0,107
-99,118	-200,000	0,011	0,079
-98,103	-200,000	-0,010	-0,052
-97,089	800,000	0,039	-0,101
-96,074	-200,000	-0,014	0,146
-95,059	49,155	0,077	-0,051
-94,045	-200,000	0,004	-0,035
-93,030	187,097	-0,077	-0,082
-92,016	800,000	-0,079	-0,228
-91,001	800,000	0,051	0,116
-89,986	650,884	0,027	-0,048
-88,972	-151,233	-0,013	0,001
-87,957	-200,000	0,031	-0,107
-86,943	-80,027	-0,134	0,031
-85,928	10,520	-0,079	0,042
-84,913	800,000	0,018	0,048
-83,899	-200,000	0,034	0,186
-82,884	-72,010	0,141	0,037
-81,870	726,700	0,093	-0,176
-80,855	192,453	0,080	-0,086
-79,840	-101,200	0,092	-0,016
-78,826	800,000	-0,034	-0,105
-77,811	-200,000	0,041	-0,134
-76,797	-37,404	-0,096	-0,036
-75,782	-48,139	0,057	-0,019
-74,767	282,013	-0,095	0,121
-73,753	-169,928	-0,013	0,000
-72,738	226,332	-0,040	0,046
-71,724	183,215	-0,051	-0,053
-70,709	-150,189	0,135	0,007
-69,694	46,750	-0,056	0,037
-68,680	26,414	0,154	-0,091
-67,665	-200,000	-0,002	-0,017
-66,651	-200,000	0,023	-0,218
-65,636	800,000	-0,080	0,206
-64,622	-101,947	-0,120	0,020
-63,607	-200,000	0,009	-0,112
-62,592	-200,000	0,002	0,129
-61,578	-26,848	0,019	0,008
-60,563	800,000	0,087	0,238
-59,549	341,339	-0,116	0,160
-58,534	34,634	-2,156	-1,327
-57,519	678,790	-1,131	-2,086
-56,505	-200,000	-0,218	-4,303
-55,490	691,041	0,861	1,598
-54,476	800,000	5,265	11,074
-53,461	-200,000	21,642	340,851
-52,446	800,000	762,070	2331,016
-51,432	544,005	1658,955	2805,992
-50,417	70,898	1655,522	1208,767
-49,403	17,111	1529,188	853,263
-48,388	11,207	1453,071	782,319
-47,373	19,208	1444,927	816,188
-46,359	14,681	1433,909	788,474
-45,344	9,494	1429,787	761,546
-44,330	9,427	1427,789	760,136
-43,315	9,422	1426,215	759,241
-42,300	9,454	1424,167	758,273
-41,286	9,471	1422,949	757,677
-40,271	9,385	1421,827	756,643
-39,257	9,436	1420,713	756,262
-38,242	9,445	1419,701	755,734
-37,227	9,440	1418,480	755,032
-36,213	9,449	1417,305	754,417
-35,198	9,508	1415,854	753,895
-34,184	9,499	1415,036	753,386
-33,169	9,388	1413,824	752,188
-32,154	9,437	1412,731	751,806
-31,140	9,482	1411,276	751,214
-30,125	9,481	1410,209	750,610
-29,111	9,481	1409,051	749,966
-28,096	9,452	1407,753	749,110
-27,082	9,422	1406,701	748,379
-26,067	9,365	1405,881	747,648
-25,052	9,428	1404,496	747,173
-24,038	9,428	1403,610	746,675
-23,023	9,419	1402,625	746,076
-22,009	9,426	1401,755	745,619
-20,994	9,417	1400,677	744,972
-19,979	9,396	1399,697	744,324
-18,965	9,325	1399,071	743,631
-17,950	9,360	1397,966	743,176
-16,936	9,307	1397,166	742,476
-15,921	9,303	1396,235	741,932
-14,906	9,334	1395,228	741,512
-13,892	9,344	1394,348	741,061
-12,877	9,376	1393,457	740,707
-11,863	9,335	1392,690	740,082
-10,848	9,270	1391,809	739,281
-9,833	9,259	1390,738	738,632
-8,819	9,221	1390,038	738,054
-7,804	9,202	1389,064	737,423
-6,790	9,228	1387,973	736,934
-5,775	9,235	1386,844	736,337
-4,760	9,218	1386,039	735,800
-3,746	9,228	1384,995	735,263
-2,731	9,248	1384,218	734,916
-1,717	9,245	1383,148	734,306
-0,702	9,209	1381,537	733,254
0,313	13,342	1293,837	705,511
1,327	29,578	685,285	410,244
2,342	46,525	118,110	77,159
3,356	1,277	16,503	8,333
4,371	26,197	3,507	2,060
5,386	8,480	1,268	0,671
6,400	-200,000	0,183	0,603
7,415	-72,637	-0,247	0,064
8,429	37,203	-0,226	-0,141
9,444	106,311	-0,375	-0,313
10,459	-1,330	-0,318	-0,158
11,473	-59,644	-0,263	-0,079
12,488	-200,000	-0,073	-0,240
13,502	-37,038	-0,418	-0,157
14,517	113,037	-0,294	-0,251
15,531	137,693	-0,315	-0,290
16,546	11,406	-0,234	-0,126
17,561	135,561	-0,298	-0,273
18,575	799,255	-0,100	-0,195
19,590	32,815	-0,231	-0,141
20,604	-102,234	-0,338	-0,057
21,619	65,907	-0,385	-0,274
22,634	111,897	-0,360	-0,306
23,648	38,576	-0,523	-0,328
24,663	-9,898	-0,435	-0,203
25,677	754,124	-0,149	-0,284
26,692	112,097	-0,249	-0,211
27,707	174,500	-0,258	-0,262
28,721	283,835	-0,260	-0,330
29,736	95,387	-0,415	-0,333
30,750	90,722	-0,437	-0,345
31,765	91,323	-0,273	-0,215
32,780	48,595	-0,473	-0,311
33,794	149,684	-0,195	-0,186
34,809	49,080	-0,321	-0,212
35,823	-60,365	-0,393	-0,117
36,838	103,144	-0,392	-0,323
37,853	159,067	-0,383	-0,374
38,867	363,626	-0,211	-0,298
39,882	43,899	-0,378	-0,243
40,896	-90,930	-0,353	-0,071
41,911	-56,985	-0,349	-0,108
42,926	186,677	-0,239	-0,251
43,940	45,633	-0,223	-0,145
44,955	107,734	-0,372	-0,311
45,969	35,775	-0,420	-0,259
46,984	107,421	-0,290	-0,242
47,999	541,775	-0,077	-0,129
49,013	141,608	-0,320	-0,298
50,028	62,054	-0,371	-0,260
51,042	251,604	-0,297	-0,356
52,057	31,093	-0,274	-0,164
53,071	68,908	-0,310	-0,223
54,086	68,259	-0,262	-0,188
55,101	118,804	-0,308	-0,267
56,115	318,048	-0,232	-0,309
57,130	70,238	-0,263	-0,190
58,144	-57,270	-0,411	-0,126
59,159	92,906	-0,338	-0,268
60,174	-56,148	-0,376	-0,117
61,188	25,172	-0,263	-0,153
62,203	-13,106	-0,439	-0,199
63,217	-1,676	-0,273	-0,135
64,232	800,000	-0,127	-0,308
65,247	223,125	-0,278	-0,315
66,261	131,339	-0,280	-0,252
67,276	94,087	-0,379	-0,301
68,290	-46,721	-0,426	-0,145
69,305	-191,308	-0,246	-0,002
70,320	-33,746	-0,365	-0,140
71,334	-71,394	-0,344	-0,090
72,349	47,571	-0,177	-0,116
73,363	52,350	-0,337	-0,225
74,378	194,006	-0,260	-0,276
75,393	167,241	-0,235	-0,234
76,407	-15,244	-0,315	-0,141
77,422	78,254	-0,220	-0,165
78,436	21,039	-0,317	-0,180
79,451	160,353	-0,316	-0,309
80,466	178,145	-0,250	-0,255
81,480	37,342	-0,397	-0,246
82,495	-110,650	-0,220	-0,032
83,509	63,191	-0,253	-0,177
84,524	-11,960	-0,276	-0,126
85,539	126,165	-0,176	-0,156
86,553	106,021	-0,252	-0,209
87,568	153,136	-0,267	-0,256
88,582	54,848	-0,312	-0,210
89,597	51,466	-0,272	-0,180
90,611	24,212	-0,283	-0,163
91,626	-138,533	-0,243	-0,018
92,641	-86,879	-0,289	-0,061
93,655	84,086	-0,301	-0,230
94,670	46,519	-0,342	-0,221
95,684	304,954	-0,184	-0,240
96,699	204,642	-0,192	-0,209
97,714	9,521	-0,297	-0,157
98,728	-33,051	-0,230	-0,089
99,743	-8,622	-0,286	-0,134
100,757	-9,431	-0,159	-0,074
101,772	-59,713	-0,259	-0,077
102,787	37,627	-0,362	-0,224
103,801	-12,498	-0,330	-0,150
104,816	197,835	-0,229	-0,244
105,830	128,226	-0,112	-0,100
106,845	80,147	-0,213	-0,160
107,860	-12,978	-0,207	-0,094
108,874	-31,042	-0,290	-0,114
109,889	105,024	-0,342	-0,282
110,903	342,906	-0,300	-0,411
111,918	20,093	-0,315	-0,177
112,933	57,520	-0,241	-0,164
113,947	-153,271	-0,133	-0,006
114,962	114,570	-0,257	-0,219
115,976	66,472	-0,147	-0,104
116,991	37,407	-0,284	-0,176
118,006	107,622	-0,217	-0,180
119,020	-11,950	-0,241	-0,110
120,035	-47,476	-0,144	-0,049
121,049	40,425	-0,169	-0,106
122,064	182,714	-0,124	-0,128
123,079	166,647	-0,104	-0,103
124,093	-62,290	-0,339	-0,098
125,108	-100,350	-0,192	0,033
126,122	104,042	-0,304	-0,249
127,137	800,000	-0,061	-0,133
128,151	275,282	-0,180	-0,223
129,166	-109,895	-0,328	-0,047
130,181	86,845	-0,234	-0,180
131,195	-67,264	-0,272	-0,074
132,210	97,902	-0,232	-0,186
133,224	111,704	-0,315	-0,265
134,239	-200,000	-0,056	-0,198
135,254	374,853	-0,193	-0,275
136,268	275,507	-0,201	-0,250
137,283	239,592	-0,180	-0,209
138,297	123,137	-0,246	-0,215
139,312	9,071	-0,384	-0,201
140,327	-3,732	-0,262	-0,126
141,341	585,524	-0,082	-0,140
142,356	117,181	-0,273	-0,234
143,370	86,971	-0,196	-0,151
144,385	56,308	-0,240	-0,162
145,400	164,624	-0,275	-0,271
146,414	800,000	-0,159	-0,341
147,429	168,190	-0,162	-0,161
148,443	-55,702	-0,241	-0,074
149,458	268,588	-0,181	-0,222
150,473	118,051	-0,237	-0,203
151,487	-104,958	-0,263	-0,042
152,502	47,844	-0,259	-0,168
153,516	178,288	-0,233	-0,237
154,531	191,479	-0,221	-0,232
155,546	77,971	-0,087	-0,065
156,560	-67,846	-0,182	-0,049
157,575	-37,468	-0,192	-0,071
158,589	112,950	-0,161	-0,136
159,604	133,943	-0,203	-0,183
160,619	-42,986	-0,268	-0,094
161,633	-137,164	-0,263	-0,021
162,648	259,956	-0,104	-0,125
163,662	96,429	-0,228	-0,181
164,677	-36,415	-0,229	-0,085
165,692	85,046	-0,285	-0,217
166,706	61,522	-0,268	-0,185
167,721	-121,447	-0,276	-0,032
168,735	83,204	-0,316	-0,239
169,750	88,045	-0,313	-0,241
170,764	219,772	-0,106	-0,118
171,779	49,580	-0,100	-0,066
172,794	229,192	-0,183	-0,208
173,808	14,457	-0,201	-0,109
174,823	-20,222	-0,241	-0,103
175,837	78,342	-0,245	-0,182
176,852	84,052	-0,220	-0,167
177,867	-77,844	-0,220	-0,052
178,881	384,256	-0,071	-0,102
179,896	-43,647	-0,193	-0,067
180,910	11,847	-0,336	-0,179
181,925	62,135	-0,211	-0,146
182,940	26,432	-0,265	-0,154
183,954	18,393	-0,167	-0,093
184,969	606,664	-0,106	-0,184
185,983	-200,000	-0,057	-0,175
186,998	-33,871	-0,305	-0,116
188,013	23,411	-0,216	-0,123
189,027	752,535	-0,149	-0,281
190,042	26,054	-0,176	-0,102
191,056	202,406	-0,192	-0,206
192,071	-126,256	-0,377	-0,039
193,086	800,000	-0,047	-0,121
194,100	144,540	-0,208	-0,193
195,115	-119,060	-0,090	0,011
196,129	24,342	-0,288	-0,165
197,144	-29,851	-0,184	-0,072
198,159	348,320	-0,168	-0,231
199,173	80,047	-0,246	-0,183
200,188	-112,598	-0,235	-0,032
201,202	-58,077	-0,130	-0,039
202,217	91,355	-0,215	-0,167
203,232	-83,115	-0,245	-0,054
204,246	45,004	-0,172	-0,110
205,261	185,888	-0,176	-0,181
206,275	86,656	-0,174	-0,133
207,290	71,700	-0,153	-0,110
208,304	317,777	-0,128	-0,168
209,319	207,099	-0,081	-0,088
210,334	-28,914	-0,325	-0,129
211,348	196,919	-0,114	-0,120
212,363	193,312	-0,260	-0,273
213,377	-154,074	-0,149	-0,007
214,392	-65,174	-0,196	-0,054
215,407	-165,155	-0,150	-0,005
216,421	-123,623	-0,076	-0,008
217,436	20,007	-0,187	-0,104
218,450	-18,025	-0,159	-0,069
219,465	449,992	-0,194	-0,297
220,480	9,110	-0,161	-0,084
221,494	271,394	-0,199	-0,243
222,509	-162,378	-0,102	0,003
223,523	70,038	-0,176	-0,125
224,538	-92,686	-0,193	-0,037
225,553	-65,326	-0,330	-0,091
226,567	115,950	-0,278	-0,236
227,582	153,037	-0,192	-0,182
228,596	322,073	-0,135	-0,179
229,611	25,667	-0,098	-0,057
230,626	-65,579	-0,228	-0,063
231,640	-16,731	-0,213	-0,093
232,655	-83,077	-0,184	-0,041
233,669	33,747	-0,209	-0,125
234,684	599,656	-0,160	-0,275
235,699	25,658	-0,243	-0,139
236,713	214,192	-0,153	-0,168
237,728	21,957	-0,161	-0,090
238,742	-26,035	-0,188	-0,076
239,757	-160,816	-0,172	0,006
240,772	238,146	-0,178	-0,204
241,786	75,731	-0,137	-0,100
242,801	98,824	-0,179	-0,143
243,815	-200,000	-0,035	-0,151
244,830	56,358	-0,224	-0,150
245,844	763,502	-0,073	-0,137
246,859	177,210	-0,205	-0,206
247,874	361,083	-0,161	-0,223
248,888	-75,293	-0,242	-0,059
249,903	-76,986	-0,247	-0,059
250,917	59,269	-0,152	-0,103
251,932	800,000	0,006	-0,012
252,947	202,377	-0,204	-0,218
253,961	375,661	-0,159	-0,225
254,976	367,611	-0,145	-0,203
255,990	325,250	-0,157	-0,208
257,005	486,806	-0,096	-0,152
258,020	-104,389	-0,111	0,018
259,034	-99,940	-0,194	-0,033
260,049	244,441	-0,095	-0,110
261,063	-47,528	-0,300	-0,100
262,078	227,895	-0,109	-0,123
263,093	73,503	-0,186	-0,134
264,107	-66,986	-0,154	0,041
265,122	32,990	-0,143	0,085
266,136	-171,174	-0,080	-0,002
267,151	172,949	-0,173	-0,172
268,166	251,413	-0,113	-0,132
269,180	194,213	-0,187	-0,195
270,195	800,000	-0,117	-0,268
271,209	800,000	-0,084	-0,228
272,224	226,992	-0,095	-0,106
273,239	-37,060	-0,143	-0,053
274,253	220,140	-0,051	-0,057
275,268	182,409	-0,110	-0,112
276,282	16,203	-0,228	-0,123
277,297	-145,904	-0,235	-0,014
278,312	147,779	-0,200	-0,186
279,326	-38,074	-0,190	-0,069
280,341	800,000	-0,070	-0,146
281,355	443,115	-0,084	-0,128
282,370	800,000	-0,055	-0,106
283,384	-110,071	-0,222	-0,032
284,399	441,598	-0,136	-0,206
285,414	-189,803	-0,211	0,002
286,428	118,935	-0,136	-0,115
287,443	594,810	-0,089	-0,153
288,457	120,677	-0,177	-0,151
289,472	289,563	-0,128	-0,160
290,487	77,172	-0,156	-0,114
291,501	77,670	-0,159	-0,116
292,516	313,273	-0,109	-0,141
293,530	-200,000	-0,058	-0,200
294,545	105,938	-0,132	-0,108
295,560	102,793	-0,147	-0,118
296,574	4,451	-0,120	0,060
297,589	-26,948	-0,141	-0,056
298,603	397,669	-0,170	-0,245
299,618	-40,492	-0,083	0,030
300,633	-200,000	-0,008	-0,094
301,647	441,352	-0,053	0,080
302,662	-34,723	-0,151	0,056
303,676	-121,011	-0,145	0,017
304,691	-64,878	-0,191	-0,053
305,706	50,465	-0,094	-0,061
306,720	336,736	-0,180	-0,241
307,735	-5,083	-0,241	-0,114
308,749	-200,000	-0,074	-0,273
309,764	22,868	-0,152	-0,085
310,779	-14,751	-0,160	-0,070
311,793	-200,000	0,031	-0,205
312,808	174,356	-0,081	-0,080
313,822	208,743	-0,258	-0,278
314,837	98,930	-0,091	-0,072
315,852	-21,373	-0,040	-0,017
316,866	210,714	-0,070	-0,076
317,881	396,736	-0,083	-0,119
318,895	-62,667	-0,215	-0,061
319,910	-200,000	0,027	-0,152
320,925	680,383	-0,092	-0,165
321,939	95,093	-0,052	0,041
322,954	38,317	-0,061	-0,037
323,968	95,092	-0,162	-0,126
324,983	37,375	-0,147	-0,089
325,997	-35,867	-0,184	-0,068
327,012	800,000	-0,093	-0,195
328,027	4,836	-0,184	-0,092
329,041	-33,547	-0,279	-0,105
330,056	-95,617	-0,107	-0,019
331,070	-75,421	-0,161	0,039
332,085	-103,940	-0,185	-0,029
333,100	211,950	-0,127	-0,138
334,114	237,534	-0,117	-0,133
335,129	800,000	-0,052	-0,104
336,143	-200,000	-0,004	-0,144
337,158	-88,788	-0,096	-0,019
338,173	800,000	-0,018	-0,040
339,187	-200,000	-0,017	-0,154
340,202	-6,843	-0,167	-0,078
341,216	-200,000	-0,012	-0,123
342,231	196,807	-0,156	-0,163
343,246	125,945	-0,100	-0,087
344,260	-44,614	-0,084	-0,029
345,275	161,174	-0,085	0,081
346,289	-1,841	0,004	0,002
347,304	800,000	-0,010	-0,020
348,319	31,708	-0,239	-0,140
349,333	-200,000	-0,064	-0,197
350,348	48,696	-0,230	-0,147
351,362	-109,281	-0,122	-0,018
352,377	-82,311	-0,070	-0,015
353,392	-200,000	-0,189	0,000
354,406	-31,102	-0,170	-0,065
355,421	207,966	1307,576	1398,436
356,435	160,007	1467,392	1398,914
