DTS Sentinel unit serial number:	SN410029Multiplexer serial number:	ORYXHardware model number:	OX2-SRSoftware version number:	ORYX F/W v4,00 Oryx Data Collector v3.7.2.0data status	okinstallation	B3 Nyhavnadifferential loss correction	single-endedforward channel	channel 1reverse channel	N/Adate	2023/11/29time	17:32:30forward acquisition time	300,00reverse acquisition time	0,00gamma	499,1914k internal	0,3209k external	0,3209temperature offset calibration	1,0000default loss term (dB/km)	0,3820temperature slope calibration	1,0000multiplexer offset coefficient	1,0000multiplexer slope coefficient	1,0000fibre end	0,00T internal ref (°C)	11,31T ext. ref 1 (°C)	-3,95T ext. ref 2 (°C)	-4,05length (m)	temperature (°C)	Stokes	anti-Stokes-744,400	482,629	-0,150	-0,248
-743,385	-200,000	0,067	0,335
-742,371	1,879	-0,231	-0,120
-741,356	-200,000	0,003	0,453
-740,342	376,529	-0,159	-0,236
-739,327	-200,000	-0,057	0,240
-738,312	165,882	-0,163	-0,168
-737,298	-200,000	-0,027	0,267
-736,283	74,694	-0,192	-0,147
-735,269	-200,000	0,012	0,322
-734,254	166,445	-0,205	-0,211
-733,239	146,185	-0,178	0,173
-732,225	157,009	-0,108	-0,109
-731,210	108,603	0,080	0,070
-730,196	57,031	-0,078	0,055
-729,181	-200,000	-0,008	-0,061
-728,167	-72,764	0,114	-0,030
-727,152	229,342	0,046	0,055
-726,137	398,592	0,003	-0,005
-725,123	-200,000	-0,008	0,108
-724,108	190,622	-0,093	-0,101
-723,094	113,144	-0,023	-0,021
-722,079	3,133	-0,072	0,038
-721,064	-59,791	-0,051	-0,016
-720,050	-74,321	0,088	0,023
-719,035	-34,234	-0,103	0,041
-718,021	-200,000	-0,003	0,054
-717,006	800,000	0,048	0,098
-715,991	-200,000	-0,015	-0,118
-714,977	800,000	-0,077	-0,159
-713,962	117,323	-0,024	0,022
-712,948	-93,185	-0,084	-0,017
-711,933	-17,297	-0,077	-0,035
-710,918	-159,906	-0,122	0,005
-709,904	-200,000	0,015	-0,063
-708,889	-191,411	-0,121	0,001
-707,875	-200,000	0,011	0,078
-706,860	-200,000	0,020	-0,127
-705,845	258,360	-0,061	0,076
-704,831	200,838	-0,109	0,121
-703,816	23,563	-0,099	-0,059
-702,802	137,176	-0,048	0,045
-701,787	295,193	-0,123	-0,163
-700,772	-200,000	-0,006	-0,085
-699,758	277,580	-0,044	0,057
-698,743	-92,078	0,051	0,010
-697,729	-200,000	0,019	0,164
-696,714	-25,461	0,055	-0,023
-695,699	-107,794	0,161	-0,025
-694,685	-39,613	-0,115	0,043
-693,670	100,269	-0,036	-0,030
-692,656	-165,436	-0,233	-0,007
-691,641	800,000	0,038	-0,081
-690,627	800,000	0,022	0,053
-689,612	-73,124	0,063	-0,017
-688,597	-200,000	0,010	0,060
-687,583	145,092	-0,102	0,099
-686,568	693,008	0,047	0,089
-685,554	-200,000	0,015	0,095
-684,539	800,000	-0,031	-0,064
-683,524	-200,000	0,005	0,069
-682,510	23,352	0,063	0,037
-681,495	800,000	-0,023	-0,065
-680,481	269,206	-0,067	-0,085
-679,466	800,000	-0,025	-0,080
-678,451	119,973	-0,073	0,066
-677,437	639,030	0,020	0,036
-676,422	281,804	-0,042	-0,054
-675,408	-110,427	-0,082	0,012
-674,393	-12,566	-0,117	-0,055
-673,378	242,761	-0,099	-0,120
-672,364	-200,000	-0,002	-0,033
-671,349	-108,307	-0,038	0,006
-670,335	800,000	-0,019	0,048
-669,320	771,489	-0,016	0,032
-668,305	-200,000	-0,010	0,049
-667,291	19,867	-0,150	0,087
-666,276	-200,000	-0,007	0,060
-665,262	183,222	-0,099	0,106
-664,247	-57,928	-0,021	0,007
-663,232	-37,416	0,053	-0,020
-662,218	37,573	0,060	0,038
-661,203	76,127	-0,030	0,023
-660,189	-200,000	0,022	-0,086
-659,174	20,039	-0,009	0,005
-658,159	-200,000	0,035	-0,144
-657,145	127,694	-0,122	0,112
-656,130	800,000	0,028	0,065
-655,116	188,124	-0,064	0,070
-654,101	-108,176	0,075	-0,012
-653,086	766,744	-0,073	0,145
-652,072	-13,878	0,059	-0,027
-651,057	43,431	-0,063	0,041
-650,043	-200,000	-0,028	-0,097
-649,028	-22,367	-0,072	0,031
-648,014	111,086	0,080	0,069
-646,999	40,357	-0,040	0,026
-645,984	-70,301	-0,099	-0,027
-644,970	52,183	-0,133	0,091
-643,955	800,000	0,032	-0,099
-642,941	124,240	-0,075	0,068
-641,926	-200,000	-0,017	-0,076
-640,911	-61,136	0,063	-0,019
-639,897	-200,000	0,024	0,115
-638,882	-42,344	-0,067	0,024
-637,868	-200,000	-0,049	-0,189
-636,853	487,018	-0,033	-0,054
-635,838	62,927	-0,183	0,132
-634,824	52,428	0,016	-0,011
-633,809	-200,000	-0,021	0,096
-632,795	41,329	0,063	-0,041
-631,780	593,671	0,038	0,068
-630,765	-200,000	0,002	-0,087
-629,751	78,098	-0,053	0,041
-628,736	128,717	0,089	-0,082
-627,722	190,217	-0,097	-0,105
-626,707	459,268	0,035	-0,056
-625,692	-200,000	-0,032	-0,133
-624,678	800,000	0,032	-0,102
-623,663	-48,952	-0,050	-0,017
-622,649	355,857	-0,035	-0,051
-621,634	-136,620	0,110	0,009
-620,619	382,084	-0,051	0,076
-619,605	46,657	0,151	-0,101
-618,590	429,684	-0,098	0,154
-617,576	22,477	0,065	0,038
-616,561	445,161	0,085	-0,136
-615,546	-66,048	0,103	-0,030
-614,532	-62,198	-0,095	-0,028
-613,517	-200,000	-0,001	-0,014
-612,503	30,641	0,154	-0,095
-611,488	-200,000	0,007	0,167
-610,474	278,458	-0,069	0,089
-609,459	-200,000	0,007	0,022
-608,444	-101,358	-0,038	-0,007
-607,430	-51,173	-0,022	-0,008
-606,415	334,524	-0,038	-0,053
-605,401	-200,000	0,014	0,055
-604,386	-200,000	-0,005	-0,102
-603,371	-0,904	-0,056	0,029
-602,357	800,000	-0,033	0,067
-601,342	800,000	-0,016	-0,051
-600,328	800,000	-0,007	0,020
-599,313	200,397	-0,073	-0,081
-598,298	734,401	-0,048	-0,093
-597,284	-148,407	0,111	0,006
-596,269	43,355	-0,071	0,047
-595,255	-142,959	-0,074	-0,005
-594,240	193,317	-0,050	0,055
-593,225	773,958	-0,017	-0,033
-592,211	166,816	-0,105	-0,108
-591,196	-68,983	0,085	0,023
-590,182	-55,755	0,055	0,018
-589,167	-4,103	-0,063	0,031
-588,152	-200,000	-0,008	-0,026
-587,138	-200,000	-0,006	0,087
-586,123	-200,000	-0,023	-0,088
-585,109	470,146	-0,014	0,023
-584,094	-124,935	-0,062	-0,007
-583,079	24,653	0,104	-0,062
-582,065	82,609	0,006	-0,005
-581,050	-44,937	0,099	0,035
-580,036	116,828	0,048	-0,043
-579,021	800,000	-0,026	-0,070
-578,006	-200,000	0,001	-0,198
-576,992	288,638	0,041	0,053
-575,977	-54,078	-0,083	0,027
-574,963	-32,918	0,099	0,040
-573,948	788,794	-0,028	0,056
-572,934	-200,000	-0,033	-0,112
-571,919	-200,000	-0,022	-0,078
-570,904	-200,000	0,017	-0,111
-569,890	1,828	0,149	-0,077
-568,875	-89,800	0,089	0,019
-567,861	800,000	-0,064	0,129
-566,846	-200,000	-0,052	0,169
-565,831	640,339	-0,012	-0,022
-564,817	31,494	0,044	-0,027
-563,802	102,920	-0,018	-0,015
-562,788	-81,086	0,069	0,016
-561,773	-98,976	0,139	-0,025
-560,758	192,314	0,057	-0,062
-559,744	-134,725	-0,146	-0,013
-558,729	-200,000	-0,015	-0,087
-557,715	-127,467	0,070	-0,007
-556,700	-28,935	-0,096	-0,040
-555,685	-77,022	0,033	0,008
-554,671	94,612	0,133	0,109
-553,656	-76,672	0,177	-0,044
-552,642	-200,000	-0,025	0,134
-551,627	-40,951	0,248	0,092
-550,612	-83,279	-0,056	0,013
-549,598	-200,000	0,037	-0,152
-548,583	-200,000	-0,004	-0,027
-547,569	-52,390	-0,053	0,017
-546,554	-200,000	-0,003	-0,027
-545,539	-75,461	0,088	0,022
-544,525	800,000	0,018	0,049
-543,510	800,000	0,017	-0,038
-542,496	-127,518	-0,164	-0,017
-541,481	-38,618	-0,016	0,006
-540,466	208,397	-0,046	0,051
-539,452	268,030	0,121	0,153
-538,437	81,324	-0,017	-0,013
-537,423	-119,131	0,058	-0,007
-536,408	-200,000	-0,016	0,088
-535,393	-153,825	0,029	0,001
-534,379	-200,000	-0,032	-0,117
-533,364	783,051	0,042	0,084
-532,350	-200,000	-0,010	0,101
-531,335	-24,184	0,036	0,015
-530,321	-77,419	0,098	-0,024
-529,306	-40,939	-0,067	0,025
-528,291	-169,923	-0,090	-0,002
-527,277	135,042	0,102	-0,096
-526,262	-200,000	0,010	-0,118
-525,248	-31,854	0,038	-0,015
-524,233	174,817	0,157	0,164
-523,218	800,000	0,063	0,199
-522,204	-47,738	0,006	0,002
-521,189	800,000	-0,065	-0,140
-520,175	-79,361	-0,178	0,043
-519,160	-28,205	-0,140	-0,058
-518,145	-74,849	0,125	-0,032
-517,131	800,000	0,018	-0,041
-516,116	0,896	0,025	0,013
-515,102	-200,000	0,007	-0,124
-514,087	-32,579	-0,149	0,060
-513,072	-78,199	0,121	-0,030
-512,058	257,919	-0,115	-0,142
-511,043	526,687	0,078	0,133
-510,029	-200,000	0,042	0,141
-509,014	-0,524	-0,062	0,031
-507,999	118,656	0,047	0,042
-506,985	103,760	-0,192	0,162
-505,970	465,906	-0,039	-0,064
-504,956	800,000	0,066	-0,140
-503,941	132,207	-0,085	0,079
-502,926	78,683	0,085	0,065
-501,912	-200,000	0,032	-0,162
-500,897	-66,476	0,152	-0,043
-499,883	239,535	-0,061	-0,074
-498,868	126,602	-0,091	0,082
-497,853	-200,000	-0,001	0,040
-496,839	-200,000	-0,030	0,103
-495,824	80,089	0,136	0,105
-494,810	-63,140	-0,159	-0,047
-493,795	800,000	0,020	-0,055
-492,781	-106,968	0,131	0,021
-491,766	-200,000	0,021	-0,104
-490,751	-200,000	-0,002	-0,014
-489,737	-88,025	-0,085	-0,018
-488,722	45,816	-0,006	0,004
-487,708	156,373	0,131	0,129
-486,693	-143,311	0,120	0,008
-485,678	-64,949	-0,103	-0,030
-484,664	66,273	-0,071	-0,052
-483,649	800,000	0,028	-0,083
-482,635	21,030	0,104	0,060
-481,620	617,233	0,020	-0,036
-480,605	103,998	0,056	-0,047
-479,591	-200,000	0,048	-0,155
-478,576	-200,000	-0,008	-0,069
-477,562	167,451	0,048	-0,049
-476,547	21,632	-0,160	0,093
-475,532	800,000	0,017	0,040
-474,518	800,000	0,032	-0,064
-473,503	-200,000	-0,002	-0,062
-472,489	800,000	-0,006	0,014
-471,474	-200,000	0,012	-0,066
-470,459	127,928	-0,091	-0,083
-469,445	800,000	-0,042	-0,096
-468,430	-98,001	-0,094	0,017
-467,416	62,021	-0,081	-0,058
-466,401	-129,164	0,044	0,004
-465,386	41,061	-0,020	0,013
-464,372	163,062	-0,105	0,106
-463,357	178,418	0,021	-0,022
-462,343	-200,000	0,011	-0,137
-461,328	-200,000	-0,045	-0,217
-460,313	381,908	0,022	-0,032
-459,299	749,105	-0,019	-0,036
-458,284	-51,006	0,028	0,009
-457,270	-25,870	0,122	0,052
-456,255	-200,000	-0,002	0,061
-455,241	800,000	0,038	-0,085
-454,226	103,605	-0,085	-0,071
-453,211	-200,000	-0,012	-0,046
-452,197	-73,698	0,177	0,046
-451,182	-200,000	-0,034	0,135
-450,168	-200,000	-0,003	0,058
-449,153	-200,000	0,003	-0,032
-448,138	-200,000	0,036	-0,121
-447,124	229,050	-0,017	-0,020
-446,109	800,000	0,038	0,096
-445,095	31,284	0,098	-0,060
-444,080	-200,000	0,015	-0,053
-443,065	800,000	0,046	0,108
-442,051	-200,000	0,013	0,076
-441,036	-200,000	0,013	-0,125
-440,022	-41,452	-0,152	0,056
-439,007	-162,806	0,094	0,003
-437,992	410,494	-0,012	0,019
-436,978	408,452	0,052	0,079
-435,963	221,930	-0,082	0,095
-434,949	424,235	0,082	0,126
-433,934	-126,141	-0,156	-0,017
-432,919	-200,000	-0,014	0,049
-431,905	-149,694	0,084	0,005
-430,890	-200,000	0,010	0,117
-429,876	-36,452	0,036	-0,014
-428,861	349,596	0,103	0,146
-427,846	-154,790	-0,106	-0,005
-426,832	-200,000	0,011	0,037
-425,817	87,163	-0,075	-0,059
-424,803	-96,100	0,050	-0,010
-423,788	800,000	0,030	-0,070
-422,773	13,936	0,039	-0,022
-421,759	237,091	-0,068	0,081
-420,744	-99,960	-0,032	0,006
-419,730	-112,171	-0,097	0,014
-418,715	103,662	-0,011	-0,009
-417,701	-89,698	0,036	-0,008
-416,686	84,169	-0,050	0,039
-415,671	-200,000	0,012	0,236
-414,657	-26,690	0,069	-0,029
-413,642	-200,000	0,004	-0,014
-412,628	-170,011	-0,073	0,002
-411,613	148,909	-0,072	-0,070
-410,598	472,226	-0,050	0,080
-409,584	79,746	0,104	0,080
-408,569	-70,561	0,123	-0,033
-407,555	-200,000	-0,027	0,100
-406,540	340,329	-0,070	0,098
-405,525	-131,320	0,090	0,008
-404,511	48,759	-0,108	0,072
-403,496	800,000	0,026	-0,078
-402,482	800,000	0,024	0,064
-401,467	-60,800	-0,112	0,034
-400,452	297,134	0,057	0,075
-399,438	343,329	-0,017	-0,024
-398,423	-137,160	0,016	-0,001
-397,409	220,447	-0,104	-0,119
-396,394	800,000	-0,040	-0,084
-395,379	-200,000	-0,020	0,092
-394,365	27,980	-0,099	0,059
-393,350	-200,000	0,020	0,130
-392,336	-200,000	0,021	0,101
-391,321	-10,699	0,070	0,033
-390,306	-124,345	-0,075	-0,008
-389,292	371,248	-0,049	-0,071
-388,277	266,269	0,036	-0,045
-387,263	-113,802	0,036	0,005
-386,248	-200,000	0,012	0,160
-385,233	-35,141	-0,108	-0,042
-384,219	800,000	-0,034	-0,083
-383,204	85,010	0,059	-0,046
-382,190	539,171	-0,025	-0,042
-381,175	760,728	-0,064	-0,124
-380,160	-51,221	0,108	0,036
-379,146	-200,000	0,004	0,100
-378,131	200,733	0,133	0,146
-377,117	-40,877	-0,061	0,022
-376,102	-48,314	-0,066	0,023
-375,088	-9,668	-0,105	0,050
-374,073	-200,000	-0,034	0,110
-373,058	42,403	0,090	0,059
-372,044	-200,000	-0,010	-0,063
-371,029	-50,672	0,049	-0,016
-370,015	283,071	0,027	0,035
-369,000	800,000	0,032	-0,065
-367,985	485,657	-0,076	-0,125
-366,971	267,513	-0,010	-0,012
-365,956	-99,573	0,168	-0,030
-364,942	800,000	0,078	0,176
-363,927	-87,437	0,052	-0,011
-362,912	-143,591	-0,110	0,007
-361,898	800,000	-0,075	-0,152
-360,883	-200,000	0,000	0,015
-359,869	59,485	-0,061	-0,043
-358,854	276,563	-0,052	-0,066
-357,839	158,955	0,082	0,082
-356,825	118,750	0,095	-0,084
-355,810	296,100	0,059	0,077
-354,796	-81,646	-0,137	-0,032
-353,781	23,253	-0,108	-0,064
-352,766	608,023	-0,044	-0,080
-351,752	-96,172	-0,056	0,011
-350,737	53,420	0,007	-0,005
-349,723	48,825	-0,117	0,078
-348,708	800,000	0,052	0,136
-347,693	-200,000	0,005	-0,037
-346,679	-159,603	-0,109	0,004
-345,664	800,000	0,065	-0,162
-344,650	183,087	-0,029	-0,031
-343,635	205,727	-0,097	0,108
-342,620	-33,441	0,064	0,025
-341,606	110,372	-0,107	0,092
-340,591	-68,720	-0,032	-0,009
-339,577	25,435	-0,076	-0,045
-338,562	-69,762	0,043	0,012
-337,548	141,798	0,088	-0,084
-336,533	70,477	0,085	0,063
-335,518	59,079	0,133	0,094
-334,504	32,196	0,112	0,069
-333,489	256,565	0,047	-0,057
-332,475	576,274	-0,057	0,100
-331,460	272,642	-0,083	-0,105
-330,445	177,058	-0,063	-0,065
-329,431	38,289	-0,099	-0,063
-328,416	432,895	0,106	0,165
-327,402	-63,059	0,072	-0,021
-326,387	138,737	-0,060	-0,057
-325,372	-200,000	0,001	-0,027
-324,358	800,000	-0,032	0,081
-323,343	-200,000	-0,029	-0,101
-322,329	-200,000	0,010	0,149
-321,314	-111,691	0,063	0,009
-320,299	-200,000	-0,008	0,035
-319,285	325,015	-0,040	0,054
-318,270	-200,000	0,019	-0,134
-317,256	-90,676	0,078	-0,016
-316,241	33,577	-0,057	0,035
-315,226	-200,000	-0,034	-0,109
-314,212	-51,310	0,127	-0,042
-313,197	133,345	0,098	0,091
-312,183	800,000	0,025	-0,069
-311,168	191,217	-0,037	-0,040
-310,153	-147,369	-0,148	-0,009
-309,139	207,439	0,065	-0,073
-308,124	-78,764	-0,150	-0,036
-307,110	271,230	-0,022	0,028
-306,095	103,026	0,071	-0,059
-305,080	-200,000	0,020	0,121
-304,066	105,901	-0,099	-0,084
-303,051	-122,712	-0,046	-0,005
-302,037	-200,000	0,007	-0,027
-301,022	115,929	-0,038	0,034
-300,008	-131,260	-0,102	-0,009
-298,993	163,873	0,081	-0,081
-297,978	295,993	0,029	-0,038
-296,964	-106,433	-0,057	0,009
-295,949	-200,000	0,005	-0,049
-294,935	-200,000	-0,002	-0,067
-293,920	800,000	-0,032	-0,075
-292,905	45,146	0,055	0,036
-291,891	139,542	-0,058	-0,054
-290,876	63,910	0,061	0,044
-289,862	546,762	0,023	0,040
-288,847	209,185	0,096	-0,107
-287,832	305,046	-0,045	-0,060
-286,818	-0,649	-0,080	0,040
-285,803	20,317	0,087	0,050
-284,789	-200,000	-0,008	0,094
-283,774	-200,000	-0,000	-0,058
-282,759	-200,000	0,029	0,147
-281,745	-21,310	0,077	0,033
-280,730	-156,780	0,063	-0,003
-279,716	-28,251	-0,051	0,021
-278,701	4,992	-0,016	0,008
-277,686	-200,000	0,000	-0,130
-276,672	-200,000	-0,011	0,054
-275,657	121,767	-0,120	0,106
-274,643	-200,000	0,003	-0,122
-273,628	-152,834	0,063	-0,003
-272,613	-200,000	0,012	0,091
-271,599	-47,506	-0,130	0,045
-270,584	-200,000	0,025	0,212
-269,570	-21,434	-0,010	0,004
-268,555	137,159	-0,056	-0,052
-267,540	800,000	0,063	-0,142
-266,526	-110,826	-0,073	-0,011
-265,511	51,492	-0,123	-0,083
-264,497	-6,585	0,063	-0,030
-263,482	-61,158	0,102	0,030
-262,467	730,328	-0,091	0,174
-261,453	163,659	-0,071	0,071
-260,438	293,713	0,050	-0,066
-259,424	262,830	0,096	0,119
-258,409	-200,000	0,021	-0,076
-257,395	137,548	0,091	0,085
-256,380	800,000	-0,056	0,143
-255,365	-19,825	0,095	0,042
-254,351	-93,929	-0,089	-0,017
-253,336	-200,000	0,000	0,026
-252,322	145,651	0,110	0,105
-251,307	-200,000	-0,032	0,114
-250,292	123,114	-0,094	0,084
-249,278	-0,824	0,110	0,055
-248,263	206,839	0,055	0,061
-247,249	800,000	-0,057	-0,143
-246,234	800,000	0,057	0,134
-245,219	-200,000	0,030	-0,142
-244,205	800,000	-0,020	-0,060
-243,190	-200,000	0,001	-0,098
-242,176	391,306	0,095	0,141
-241,161	51,208	0,170	-0,114
-240,146	181,233	-0,050	0,052
-239,132	-200,000	-0,006	-0,040
-238,117	-118,582	-0,037	-0,005
-237,103	-107,166	0,091	0,014
-236,088	41,060	-0,131	-0,084
-235,073	164,112	0,073	0,073
-234,059	-200,000	0,008	0,040
-233,044	-200,000	0,001	0,005
-232,030	195,010	-0,056	-0,060
-231,015	800,000	-0,075	-0,154
-230,000	279,553	0,051	-0,064
-228,986	-48,771	0,072	-0,024
-227,971	78,009	0,057	-0,043
-226,957	-160,719	-0,149	0,006
-225,942	800,000	-0,021	0,048
-224,927	222,730	-0,047	0,054
-223,913	103,074	-0,102	-0,085
-222,898	-33,721	-0,044	-0,017
-221,884	2,909	-0,036	-0,019
-220,869	-72,875	-0,067	-0,017
-219,855	-200,000	0,003	-0,049
-218,840	-117,912	0,073	-0,009
-217,825	199,613	0,102	-0,111
-216,811	130,708	-0,097	-0,089
-215,796	61,950	-0,097	-0,068
-214,782	269,822	0,048	-0,060
-213,767	-67,581	0,036	-0,010
-212,752	-200,000	0,038	0,178
-211,738	115,525	0,062	0,054
-210,723	734,731	0,072	0,137
-209,709	-32,385	-0,208	0,082
-208,694	-95,191	0,014	-0,003
-207,679	800,000	-0,065	-0,133
-206,665	227,968	0,084	0,097
-205,650	-200,000	0,008	0,057
-204,636	800,000	0,012	-0,036
-203,621	-61,572	0,186	0,055
-202,606	-178,256	-0,107	0,002
-201,592	-118,894	-0,021	0,003
-200,577	406,503	0,053	-0,079
-199,563	-69,886	0,049	-0,013
-198,548	216,804	-0,036	0,040
-197,533	-200,000	0,019	0,077
-196,519	800,000	0,041	0,096
-195,504	-58,701	-0,054	0,017
-194,490	-87,137	0,036	0,008
-193,475	-57,392	0,060	-0,018
-192,460	125,812	0,073	0,065
-191,446	-105,249	0,031	0,005
-190,431	-121,369	0,142	0,017
-189,417	-39,592	-0,154	-0,057
-188,402	-200,000	-0,007	0,124
-187,387	800,000	-0,078	-0,169
-186,373	82,353	-0,123	0,094
-185,358	254,606	0,050	0,061
-184,344	545,708	-0,036	-0,061
-183,329	-200,000	0,007	-0,032
-182,315	190,952	0,073	0,078
-181,300	-90,137	-0,040	-0,008
-180,285	43,290	-0,148	-0,096
-179,271	800,000	0,023	-0,063
-178,256	-103,805	0,106	-0,017
-177,242	56,888	-0,078	-0,054
-176,227	-200,000	-0,002	0,066
-175,212	-33,481	-0,017	0,007
-174,198	603,181	0,046	-0,082
-173,183	-67,861	-0,112	-0,031
-172,169	182,204	-0,047	-0,049
-171,154	13,548	0,108	-0,059
-170,139	-200,000	-0,030	-0,095
-169,125	800,000	0,006	-0,019
-168,110	-108,682	0,089	-0,013
-167,096	-81,984	-0,165	0,038
-166,081	-75,889	0,125	-0,031
-165,066	800,000	-0,084	-0,171
-164,052	-134,279	0,127	0,011
-163,037	735,004	0,037	0,071
-162,023	-200,000	-0,010	0,056
-161,008	800,000	0,041	0,128
-159,993	435,147	0,057	0,088
-158,979	-200,000	0,031	-0,103
-157,964	-67,887	-0,103	0,028
-156,950	-39,747	-0,121	-0,044
-155,935	-200,000	-0,007	-0,038
-154,920	21,431	0,095	-0,054
-153,906	258,162	0,070	0,086
-152,891	640,965	0,019	-0,034
-151,877	-200,000	0,008	0,097
-150,862	-155,999	-0,159	0,007
-149,847	-167,376	-0,115	-0,003
-148,833	734,025	-0,034	0,065
-147,818	677,901	-0,038	0,070
-146,804	-64,297	0,126	-0,036
-145,789	-148,761	-0,119	0,007
-144,775	62,919	-0,058	0,041
-143,760	-83,237	-0,078	0,018
-142,745	-17,993	-0,087	0,039
-141,731	-33,101	-0,046	0,018
-140,716	-20,925	0,007	0,003
-139,702	91,057	-0,071	0,057
-138,687	51,999	0,088	0,060
-137,672	-108,902	-0,076	-0,011
-136,658	-200,000	-0,008	0,073
-135,643	87,741	0,066	-0,052
-134,629	51,367	0,013	-0,009
-133,614	-85,496	0,061	-0,013
-132,599	143,958	0,056	-0,053
-131,585	299,494	0,074	0,097
-130,570	800,000	-0,023	0,070
-129,556	215,010	-0,031	-0,035
-128,541	-80,617	-0,106	-0,025
-127,526	-5,531	-0,113	-0,055
-126,512	15,488	0,064	-0,035
-125,497	179,210	0,048	-0,049
-124,483	-103,570	-0,041	0,007
-123,468	281,796	-0,017	0,022
-122,453	415,006	0,068	-0,103
-121,439	391,385	0,070	-0,104
-120,424	-176,368	0,120	0,002
-119,410	471,512	-0,054	0,086
-118,395	17,622	0,115	0,065
-117,380	-28,022	0,066	0,027
-116,366	19,780	-0,190	0,108
-115,351	800,000	0,025	0,067
-114,337	-200,000	-0,018	-0,071
-113,322	-200,000	0,004	0,122
-112,307	-52,687	-0,089	0,029
-111,293	-200,000	-0,012	0,121
-110,278	329,529	0,082	-0,111
-109,264	-152,778	-0,059	-0,003
-108,249	-200,000	-0,009	0,048
-107,234	36,686	-0,118	-0,074
-106,220	156,592	-0,031	0,030
-105,205	6,181	0,042	0,022
-104,191	690,560	0,091	0,170
-103,176	-200,000	0,034	0,122
-102,162	50,370	-0,152	0,101
-101,147	49,764	-0,059	0,039
-100,132	-136,979	-0,118	0,009
-99,118	279,912	-0,069	-0,087
-98,103	-61,776	0,158	-0,046
-97,089	-109,466	0,101	-0,015
-96,074	23,337	0,106	0,061
-95,059	800,000	-0,036	0,101
-94,045	72,352	0,071	-0,052
-93,030	113,739	0,057	-0,049
-92,016	800,000	-0,051	-0,146
-91,001	-156,357	-0,149	-0,006
-89,986	-65,565	0,089	-0,025
-88,972	518,823	0,047	-0,079
-87,957	-200,000	0,015	0,101
-86,943	91,112	0,014	-0,011
-85,928	85,586	-0,204	-0,158
-84,913	-200,000	-0,002	-0,131
-83,899	143,151	0,060	0,056
-82,884	104,634	0,094	-0,078
-81,870	116,769	-0,061	0,053
-80,855	-25,359	-0,085	0,035
-79,840	-200,000	-0,019	-0,097
-78,826	-30,821	0,028	0,011
-77,811	-200,000	-0,011	-0,049
-76,797	-200,000	0,010	0,048
-75,782	-200,000	0,032	-0,165
-74,767	-23,138	-0,071	0,030
-73,753	-46,046	-0,035	-0,012
-72,738	-200,000	0,008	-0,151
-71,724	-74,848	0,008	-0,002
-70,709	164,844	-0,100	-0,100
-69,694	331,631	-0,100	0,137
-68,680	-200,000	0,014	0,052
-67,665	-45,003	0,105	0,037
-66,651	36,389	-0,144	-0,089
-65,636	-151,788	-0,116	0,006
-64,622	-39,301	0,073	0,027
-63,607	762,447	-0,073	-0,140
-62,592	29,647	-0,087	-0,052
-61,578	-200,000	-0,001	0,013
-60,563	361,887	-0,096	0,136
-59,549	175,998	0,096	0,098
-58,534	11,737	-1,934	-1,046
-57,519	360,636	-1,462	-2,074
-56,505	-200,000	-0,409	-4,492
-55,490	356,665	0,976	1,378
-54,476	800,000	4,996	11,305
-53,461	-200,000	20,501	327,104
-52,446	800,000	753,400	2314,598
-51,432	551,379	1658,877	2822,906
-50,417	73,894	1663,864	1230,902
-49,403	19,135	1537,188	868,521
-48,388	13,170	1459,824	795,946
-47,373	18,835	1450,472	818,023
-46,359	16,087	1439,900	798,943
-45,344	11,409	1435,496	774,187
-44,330	11,355	1433,617	772,890
-43,315	11,363	1431,734	771,881
-42,300	11,371	1430,068	770,991
-41,286	11,381	1428,799	770,321
-40,271	11,331	1427,603	769,408
-39,257	11,331	1426,334	768,694
-38,242	11,389	1424,935	768,183
-37,227	11,389	1424,027	767,666
-36,213	11,379	1422,695	766,868
-35,198	11,369	1421,778	766,296
-34,184	11,441	1420,620	765,982
-33,169	11,390	1419,176	764,933
-32,154	11,430	1418,133	764,529
-31,140	11,420	1417,045	763,866
-30,125	11,484	1415,883	763,512
-29,111	11,487	1414,693	762,853
-28,096	11,435	1413,565	761,968
-27,082	11,363	1412,512	761,035
-26,067	11,348	1411,554	760,417
-25,052	11,319	1410,620	759,748
-24,038	11,351	1409,540	759,285
-23,023	11,381	1408,342	758,749
-22,009	11,298	1407,482	757,868
-20,994	11,288	1406,546	757,289
-19,979	11,304	1405,807	756,934
-18,965	11,336	1404,618	756,413
-17,950	11,291	1403,653	755,656
-16,936	11,283	1403,101	755,292
-15,921	11,250	1401,753	754,381
-14,906	11,228	1400,952	753,816
-13,892	11,276	1399,937	753,464
-12,877	11,246	1399,214	752,904
-11,863	11,213	1398,369	752,269
-10,848	11,233	1397,424	751,824
-9,833	11,194	1396,535	751,132
-8,819	11,143	1395,706	750,421
-7,804	11,157	1394,724	749,930
-6,790	11,143	1393,834	749,355
-5,775	11,167	1392,677	748,814
-4,760	11,143	1391,933	748,275
-3,746	11,125	1390,961	747,639
-2,731	11,139	1390,117	747,221
-1,717	11,161	1389,069	746,729
-0,702	11,150	1387,368	745,734
0,313	15,154	1301,796	718,096
1,327	31,564	694,081	420,249
2,342	48,611	120,517	79,579
3,356	2,774	16,428	8,382
4,371	2,113	3,401	1,727
5,386	-24,527	0,859	0,359
6,400	800,000	0,192	0,414
7,415	7,865	-0,320	-0,168
8,429	-148,981	-0,320	-0,018
9,444	-19,874	-0,299	-0,130
10,459	466,763	-0,112	-0,177
11,473	21,760	-0,307	-0,176
12,488	135,254	-0,285	-0,261
13,502	-0,892	-0,337	-0,168
14,517	-1,120	-0,322	-0,160
15,531	26,757	-0,429	-0,253
16,546	87,564	-0,221	-0,173
17,561	-24,066	-0,499	-0,209
18,575	20,414	-0,125	-0,071
19,590	8,738	-0,313	-0,165
20,604	-114,139	-0,300	0,040
21,619	147,410	-0,363	-0,345
22,634	92,804	-0,431	-0,343
23,648	10,024	-0,378	-0,201
24,663	53,676	-0,373	-0,252
25,677	25,193	-0,340	-0,198
26,692	43,753	-0,401	-0,258
27,707	18,449	-0,287	-0,161
28,721	58,838	-0,384	-0,265
29,736	-6,022	-0,438	-0,210
30,750	225,472	-0,369	-0,422
31,765	57,149	-0,343	-0,235
32,780	-6,776	-0,425	-0,203
33,794	5,842	-0,410	-0,213
34,809	210,482	-0,267	-0,295
35,823	52,745	-0,326	-0,219
36,838	68,062	-0,408	-0,294
37,853	117,634	-0,311	-0,269
38,867	201,452	-0,264	-0,286
39,882	71,986	-0,343	-0,251
40,896	151,532	-0,294	-0,282
41,911	257,733	-0,154	-0,187
42,926	272,623	-0,216	-0,268
43,940	255,615	-0,283	-0,341
44,955	63,943	-0,373	-0,263
45,969	90,058	-0,327	-0,256
46,984	105,189	-0,415	-0,344
47,999	-102,089	-0,383	-0,064
49,013	212,991	-0,203	-0,226
50,028	-129,457	-0,473	-0,045
51,042	131,220	-0,289	-0,261
52,057	20,185	-0,366	-0,207
53,071	94,459	-0,221	-0,176
54,086	-22,527	-0,311	-0,132
55,101	128,162	-0,247	-0,220
56,115	-24,990	-0,369	-0,153
57,130	-59,584	-0,344	-0,103
58,144	106,531	-0,408	-0,339
59,159	121,051	-0,370	-0,324
60,174	138,148	-0,303	-0,279
61,188	50,965	-0,470	-0,312
62,203	-0,876	-0,346	-0,171
63,217	50,231	-0,322	-0,213
64,232	-34,091	-0,316	-0,121
65,247	154,351	-0,328	-0,317
66,261	118,345	-0,314	-0,272
67,276	184,435	-0,334	-0,348
68,290	192,667	-0,301	-0,319
69,305	19,035	-0,296	-0,166
70,320	43,434	-0,290	-0,186
71,334	29,177	-0,223	-0,133
72,349	79,575	-0,391	-0,294
73,363	37,500	-0,403	-0,250
74,378	53,369	-0,414	-0,278
75,393	51,541	-0,331	-0,220
76,407	-130,533	-0,253	-0,024
77,422	-76,178	-0,293	-0,072
78,436	219,762	-0,237	-0,266
79,451	-7,974	-0,323	-0,152
80,466	41,236	-0,317	-0,201
81,480	3,286	-0,294	-0,149
82,495	105,049	-0,299	-0,247
83,509	61,847	-0,277	-0,193
84,524	-120,397	-0,287	-0,034
85,539	7,511	-0,193	-0,101
86,553	-53,257	-0,304	-0,097
87,568	54,406	-0,374	-0,252
88,582	146,930	-0,224	-0,211
89,597	133,092	-0,184	-0,166
90,611	75,412	-0,237	-0,175
91,626	-168,569	-0,276	-0,007
92,641	152,175	-0,204	-0,195
93,655	-32,421	-0,198	-0,077
94,670	248,284	-0,220	-0,260
95,684	-9,790	-0,335	-0,155
96,699	169,099	-0,268	-0,268
97,714	77,257	-0,238	-0,177
98,728	60,249	-0,309	-0,213
99,743	-49,558	-0,288	-0,095
100,757	69,914	-0,212	-0,153
101,772	-26,096	-0,385	-0,158
102,787	181,445	-0,254	-0,261
103,801	167,968	-0,298	-0,297
104,816	134,514	-0,231	-0,210
105,830	-37,583	-0,262	-0,097
106,845	672,777	-0,145	-0,265
107,860	44,901	-0,295	-0,190
108,874	364,508	-0,218	-0,308
109,889	152,149	-0,218	-0,208
110,903	-55,903	-0,305	-0,095
111,918	-5,228	-0,281	-0,134
112,933	598,268	-0,095	-0,164
113,947	144,410	-0,189	-0,176
114,962	44,923	-0,298	-0,191
115,976	157,818	-0,179	-0,173
116,991	-135,664	-0,408	-0,033
118,006	20,110	-0,411	-0,231
119,020	-9,822	-0,234	-0,109
120,035	-137,051	-0,269	0,021
121,049	100,128	-0,157	-0,127
122,064	-64,521	-0,228	-0,064
123,079	127,901	-0,185	-0,164
124,093	144,003	-0,263	-0,245
125,108	108,812	-0,296	-0,247
126,122	88,404	-0,257	-0,199
127,137	185,532	-0,242	-0,251
128,151	-26,655	-0,395	-0,161
129,166	205,910	-0,201	-0,218
130,181	112,742	-0,259	-0,219
131,195	209,174	-0,247	-0,270
132,210	246,679	-0,143	-0,168
133,224	18,598	-0,278	-0,155
134,239	116,697	-0,190	-0,163
135,254	17,842	-0,187	-0,104
136,268	800,000	-0,028	-0,058
137,283	346,626	-0,238	-0,327
138,297	150,113	-0,260	-0,246
139,312	-21,182	-0,290	-0,123
140,327	27,431	-0,240	-0,140
141,341	197,150	-0,167	-0,178
142,356	423,132	-0,154	-0,232
143,370	117,360	-0,147	-0,126
144,385	-21,313	-0,276	-0,117
145,400	121,591	-0,303	-0,263
146,414	-57,545	-0,257	-0,078
147,429	335,417	-0,229	-0,310
148,443	222,727	-0,210	-0,236
149,458	-5,252	-0,274	-0,131
150,473	245,385	-0,114	-0,134
151,487	-159,787	-0,166	0,006
152,502	127,167	-0,249	-0,220
153,516	-53,408	-0,326	-0,103
154,531	206,314	-0,215	-0,234
155,546	3,715	-0,281	-0,142
156,560	-8,987	-0,329	-0,153
157,575	334,554	-0,172	-0,233
158,589	515,197	-0,139	-0,227
159,604	-83,071	-0,171	0,038
160,619	65,782	-0,274	-0,193
161,633	47,606	-0,281	-0,182
162,648	-1,496	-0,202	-0,099
163,662	37,979	-0,231	-0,143
164,677	-21,025	-0,204	-0,087
165,692	160,636	-0,102	-0,099
166,706	63,119	-0,260	-0,181
167,721	19,449	-0,286	-0,159
168,735	-96,962	-0,289	-0,052
169,750	-5,864	-0,330	-0,157
170,764	257,445	-0,099	-0,119
171,779	311,633	-0,045	-0,059
172,794	-136,949	-0,220	-0,017
173,808	87,032	-0,157	-0,121
174,823	-66,407	-0,438	-0,120
175,837	161,808	-0,146	-0,143
176,852	800,000	-0,128	-0,253
177,867	136,376	-0,222	-0,202
178,881	-15,853	-0,174	-0,077
179,896	346,162	-0,142	-0,194
180,910	257,704	-0,205	-0,246
181,925	355,002	-0,178	-0,247
182,940	-12,536	-0,192	-0,087
183,954	83,125	-0,251	-0,190
184,969	800,000	-0,070	-0,153
185,983	-137,307	-0,177	-0,014
186,998	-99,086	-0,221	-0,038
188,013	210,203	-0,167	-0,183
189,027	84,573	-0,228	-0,173
190,042	-67,031	-0,222	-0,060
191,056	-27,238	-0,248	-0,100
192,071	268,055	-0,157	-0,192
193,086	99,734	-0,305	-0,245
194,100	171,029	-0,158	-0,158
195,115	43,713	-0,208	-0,132
196,129	-80,304	-0,260	-0,060
197,144	-138,651	-0,318	0,024
198,159	-14,131	-0,324	-0,144
199,173	382,055	-0,153	-0,219
200,188	-44,131	-0,149	-0,052
201,202	-200,000	-0,007	-0,189
202,217	-64,163	-0,249	-0,070
203,232	-108,586	-0,264	-0,039
204,246	258,547	-0,177	-0,212
205,261	64,344	-0,298	-0,208
206,275	-64,626	-0,305	-0,085
207,290	-141,207	-0,101	0,007
208,304	174,290	-0,114	-0,114
209,319	29,156	-0,239	-0,140
210,334	-52,515	-0,230	-0,073
211,348	77,095	-0,271	-0,200
212,363	99,920	-0,164	-0,131
213,377	370,311	-0,121	-0,170
214,392	151,725	-0,152	-0,144
215,407	17,611	-0,214	-0,118
216,421	-122,696	-0,155	-0,017
217,436	206,801	-0,126	-0,136
218,450	169,989	-0,113	-0,112
219,465	120,752	-0,195	-0,167
220,480	-83,646	-0,216	-0,047
221,494	800,000	-0,082	-0,248
222,509	49,684	-0,188	-0,122
223,523	448,244	-0,121	-0,185
224,538	133,055	-0,198	-0,177
225,553	184,384	-0,259	-0,266
226,567	43,323	-0,316	-0,199
227,582	70,103	-0,191	-0,136
228,596	645,913	-0,066	0,118
229,611	459,993	-0,152	-0,234
230,626	-12,481	-0,145	-0,065
231,640	289,187	-0,126	-0,159
232,655	186,265	-0,269	-0,277
233,669	800,000	-0,146	-0,300
234,684	237,581	-0,211	-0,243
235,699	204,018	-0,125	-0,134
236,713	170,402	-0,182	-0,180
237,728	420,924	-0,145	-0,216
238,742	21,336	-0,279	-0,156
239,757	-35,951	-0,268	-0,100
240,772	33,252	-0,322	-0,192
241,786	23,329	-0,207	-0,117
242,801	73,436	-0,118	-0,085
243,815	134,524	-0,092	-0,082
244,830	483,380	-0,115	-0,181
245,844	-108,695	-0,307	-0,045
246,859	364,022	-0,140	-0,195
247,874	7,914	-0,222	-0,114
248,888	-200,000	-0,023	-0,214
249,903	309,519	-0,111	-0,144
250,917	-58,966	-0,064	0,019
251,932	-22,079	-0,140	-0,058
252,947	65,550	-0,152	-0,106
253,961	-115,184	-0,095	0,012
254,976	-129,694	-0,137	-0,013
255,990	71,389	-0,184	-0,132
257,005	-103,214	-0,119	-0,019
258,020	-145,376	-0,139	-0,009
259,034	295,230	-0,064	-0,081
260,049	-73,075	-0,164	-0,041
261,063	-200,000	-0,042	-0,233
262,078	166,619	-0,128	-0,125
263,093	76,034	-0,280	-0,204
264,107	67,879	-0,203	-0,143
265,122	397,997	-0,058	-0,084
266,136	-119,164	-0,176	0,021
267,151	133,698	-0,105	-0,094
268,166	244,770	-0,149	-0,174
269,180	-34,270	-0,307	-0,116
270,195	-200,000	-0,047	-0,193
271,209	800,000	0,056	-0,124
272,224	-102,124	-0,286	-0,047
273,239	230,309	-0,115	-0,130
274,253	181,889	-0,110	-0,111
275,268	-34,042	-0,175	-0,066
276,282	-79,218	-0,240	-0,056
277,297	485,631	-0,148	-0,233
278,312	75,678	-0,266	-0,193
279,326	-59,070	-0,144	0,043
280,341	63,664	-0,090	-0,062
281,355	28,756	-0,164	-0,096
282,370	166,473	-0,079	-0,077
283,384	-42,522	-0,186	-0,065
284,399	0,410	-0,197	-0,097
285,414	23,598	-0,183	-0,103
286,428	-117,936	-0,128	-0,016
287,443	-70,064	-0,056	-0,015
288,457	68,457	-0,136	-0,096
289,472	53,578	-0,212	-0,140
290,487	203,544	-0,134	-0,143
291,501	-63,645	-0,258	-0,072
292,516	-127,041	-0,162	-0,016
293,530	-74,419	-0,262	-0,065
294,545	800,000	-0,068	-0,131
295,560	-49,136	-0,167	-0,055
296,574	-50,698	-0,163	-0,052
297,589	-77,156	-0,350	-0,083
298,603	90,596	-0,134	-0,103
299,618	21,730	-0,213	-0,119
300,633	-77,099	-0,149	-0,036
301,647	345,244	-0,063	-0,085
302,662	59,956	-0,126	-0,085
303,676	67,024	-0,105	0,074
304,691	185,376	-0,126	-0,128
305,706	-25,166	-0,135	-0,055
306,720	-35,932	-0,210	-0,078
307,735	79,300	-0,218	-0,160
308,749	-12,348	-0,185	-0,083
309,764	109,967	-0,146	-0,120
310,779	-14,932	-0,181	-0,079
311,793	306,558	-0,159	-0,203
312,808	34,499	-0,070	-0,042
313,822	800,000	-0,071	-0,158
314,837	-200,000	0,010	-0,138
315,852	87,528	-0,111	-0,084
316,866	38,615	-0,141	-0,086
317,881	-200,000	-0,042	-0,186
318,895	117,442	-0,213	-0,180
319,910	9,670	-0,175	-0,091
320,925	292,825	-0,019	-0,024
321,939	-146,425	-0,240	-0,014
322,954	-200,000	0,015	-0,091
323,968	-74,808	-0,140	-0,034
324,983	304,488	-0,044	0,057
325,997	344,253	-0,123	-0,166
327,012	800,000	-0,078	-0,154
328,027	245,900	-0,140	-0,162
329,041	-200,000	0,004	-0,110
330,056	549,818	-0,029	-0,048
331,070	108,002	-0,093	0,076
332,085	-30,378	0,088	-0,034
333,100	-64,150	-0,274	-0,076
334,114	279,610	-0,074	-0,091
335,129	89,288	-0,238	-0,181
336,143	-45,273	-0,169	-0,057
337,158	-40,122	-0,053	-0,019
338,173	108,618	-0,039	-0,032
339,187	-70,240	-0,108	0,028
340,202	-64,503	-0,211	0,058
341,216	-47,876	-0,170	-0,056
342,231	800,000	-0,077	-0,182
343,246	-62,420	-0,240	-0,068
344,260	37,528	-0,092	-0,056
345,275	800,000	-0,089	-0,222
346,289	-20,804	-0,126	-0,053
347,304	166,532	-0,132	-0,129
348,319	212,338	-0,104	-0,112
349,333	280,428	-0,168	-0,206
350,348	155,155	-0,219	-0,206
351,362	430,383	-0,112	-0,167
352,377	800,000	-0,073	-0,159
353,392	51,900	-0,124	-0,080
354,406	-200,000	-0,024	-0,153
355,421	207,677	1309,186	1400,115
356,435	159,772	1469,211	1400,604
