DTS Sentinel unit serial number:	SN410029Multiplexer serial number:	ORYXHardware model number:	OX2-SRSoftware version number:	ORYX F/W v4,00 Oryx Data Collector v3.7.2.0data status	okinstallation	B3 Nyhavnadifferential loss correction	single-endedforward channel	channel 1reverse channel	N/Adate	2023/11/30time	00:32:30forward acquisition time	300,00reverse acquisition time	0,00gamma	499,1914k internal	0,3210k external	0,3210temperature offset calibration	1,0000default loss term (dB/km)	0,3820temperature slope calibration	1,0000multiplexer offset coefficient	1,0000multiplexer slope coefficient	1,0000fibre end	0,00T internal ref (°C)	10,81T ext. ref 1 (°C)	-4,59T ext. ref 2 (°C)	-4,71length (m)	temperature (°C)	Stokes	anti-Stokes-744,400	800,000	-0,151	-0,330
-743,385	-200,000	-0,002	0,349
-742,371	781,108	-0,132	-0,264
-741,356	-200,000	0,050	0,364
-740,342	82,684	-0,135	-0,106
-739,327	-200,000	-0,048	0,305
-738,312	387,061	-0,205	-0,308
-737,298	494,446	-0,103	0,173
-736,283	-200,000	0,026	-0,292
-735,269	-200,000	0,064	0,209
-734,254	63,786	-0,268	-0,195
-733,239	-40,807	-0,276	0,103
-732,225	-200,000	-0,023	-0,270
-731,210	800,000	-0,069	0,168
-730,196	28,618	-0,178	-0,109
-729,181	444,144	0,024	-0,038
-728,167	800,000	0,026	0,068
-727,152	-200,000	0,021	0,107
-726,137	-45,921	-0,147	0,052
-725,123	-34,954	0,023	0,009
-724,108	440,366	-0,046	-0,073
-723,094	-64,360	-0,087	-0,025
-722,079	800,000	-0,033	0,077
-721,064	-111,434	-0,047	-0,007
-720,050	-200,000	-0,035	0,113
-719,035	4,282	-0,061	-0,032
-718,021	800,000	0,049	-0,099
-717,006	-200,000	0,003	0,060
-715,991	800,000	-0,030	-0,080
-714,977	256,769	-0,094	-0,118
-713,962	-200,000	0,002	0,072
-712,948	182,714	0,071	0,076
-711,933	-47,493	-0,119	0,042
-710,918	-55,781	0,087	0,028
-709,904	-122,190	-0,132	-0,015
-708,889	-200,000	0,036	-0,127
-707,875	-200,000	0,002	-0,083
-706,860	78,729	-0,069	0,053
-705,845	-145,044	-0,153	0,010
-704,831	800,000	0,023	0,065
-703,816	114,749	-0,090	0,080
-702,802	155,617	-0,059	-0,059
-701,787	-58,649	0,139	-0,043
-700,772	98,148	-0,108	-0,090
-699,758	595,599	0,012	-0,022
-698,743	33,279	0,132	0,083
-697,729	-200,000	-0,004	0,028
-696,714	-168,942	-0,069	-0,002
-695,699	-200,000	-0,001	0,061
-694,685	-200,000	-0,015	-0,129
-693,670	800,000	-0,008	-0,018
-692,656	34,241	-0,120	-0,076
-691,641	-154,510	0,052	0,002
-690,627	21,157	-0,038	0,022
-689,612	-127,806	0,137	0,014
-688,597	-79,297	-0,064	0,016
-687,583	800,000	-0,068	-0,183
-686,568	800,000	0,050	-0,142
-685,554	-99,083	0,139	0,025
-684,539	-20,468	-0,067	0,030
-683,524	327,941	0,043	0,060
-682,510	515,054	-0,040	-0,069
-681,495	-200,000	-0,032	0,112
-680,481	-200,000	0,030	-0,107
-679,466	18,220	-0,070	0,040
-678,451	-102,417	0,046	-0,008
-677,437	-200,000	-0,005	-0,047
-676,422	10,758	0,165	0,091
-675,408	800,000	-0,020	0,050
-674,393	800,000	-0,045	-0,118
-673,378	-200,000	-0,011	-0,043
-672,364	173,628	0,058	0,060
-671,349	-200,000	0,010	0,062
-670,335	800,000	-0,087	0,211
-669,320	-200,000	0,019	-0,063
-668,305	800,000	-0,007	0,018
-667,291	-200,000	0,004	-0,089
-666,276	198,333	-0,055	0,061
-665,262	-200,000	-0,016	-0,154
-664,247	-200,000	0,031	-0,109
-663,232	800,000	0,032	0,080
-662,218	327,001	0,047	0,066
-661,203	-161,767	0,096	0,003
-660,189	800,000	0,047	0,126
-659,174	322,855	0,043	-0,059
-658,159	17,141	-0,076	-0,043
-657,145	103,535	-0,058	-0,049
-656,130	800,000	-0,046	0,094
-655,116	17,705	-0,016	0,009
-654,101	800,000	0,048	-0,114
-653,086	694,053	0,071	-0,135
-652,072	399,889	-0,057	-0,086
-651,057	227,110	0,030	-0,035
-650,043	336,727	0,057	-0,080
-649,028	-200,000	-0,001	-0,006
-648,014	-69,235	0,117	0,032
-646,999	-100,155	0,059	-0,010
-645,984	27,620	0,053	-0,032
-644,970	-200,000	0,004	-0,059
-643,955	119,492	-0,053	0,048
-642,941	800,000	-0,045	0,120
-641,926	469,943	0,056	-0,092
-640,911	303,018	-0,018	0,025
-639,897	160,475	0,112	0,113
-638,882	29,373	-0,107	0,066
-637,868	-200,000	0,010	-0,045
-636,853	-200,000	0,035	-0,138
-635,838	-200,000	0,000	-0,004
-634,824	-200,000	0,019	-0,086
-633,809	-200,000	-0,043	0,151
-632,795	-200,000	0,026	0,163
-631,780	52,048	0,069	0,048
-630,765	-28,689	-0,050	0,021
-629,751	25,170	-0,146	-0,087
-628,736	716,056	-0,129	-0,248
-627,722	-9,211	0,105	-0,051
-626,707	328,234	0,035	0,048
-625,692	89,775	-0,061	-0,049
-624,678	131,214	0,096	-0,089
-623,663	-200,000	-0,019	-0,107
-622,649	219,211	-0,115	-0,133
-621,634	-8,554	-0,160	0,077
-620,619	-156,490	0,110	-0,005
-619,605	222,412	-0,095	0,110
-618,590	-93,717	0,165	-0,033
-617,576	800,000	-0,045	0,103
-616,561	93,719	-0,095	-0,078
-615,546	-200,000	0,011	-0,103
-614,532	128,376	-0,052	-0,048
-613,517	-33,016	0,094	-0,037
-612,503	800,000	0,015	-0,032
-611,488	52,126	0,075	-0,052
-610,474	357,694	0,084	0,122
-609,459	-200,000	0,021	0,095
-608,444	-200,000	-0,018	-0,105
-607,430	516,521	-0,060	-0,102
-606,415	-33,577	-0,105	-0,042
-605,401	-113,190	0,083	-0,012
-604,386	-200,000	0,017	0,053
-603,371	-200,000	0,003	0,050
-602,357	64,452	-0,072	-0,052
-601,342	-200,000	-0,010	-0,055
-600,328	125,587	-0,100	-0,091
-599,313	-22,614	-0,124	0,054
-598,298	92,507	0,140	-0,114
-597,284	-200,000	-0,007	0,087
-596,269	-200,000	0,006	0,085
-595,255	-1,119	0,099	0,051
-594,240	-174,398	-0,043	0,001
-593,225	-130,562	-0,146	0,014
-592,211	680,791	-0,066	0,125
-591,196	-142,067	-0,070	0,005
-590,182	30,798	0,042	-0,026
-589,167	-108,672	-0,037	-0,006
-588,152	-200,000	-0,014	0,073
-587,138	-200,000	0,027	0,089
-586,123	-140,092	-0,113	0,008
-585,109	-74,369	-0,023	0,006
-584,094	329,985	0,074	-0,103
-583,079	-140,606	-0,125	0,009
-582,065	-200,000	-0,015	0,154
-581,050	179,862	0,077	-0,082
-580,036	268,155	-0,073	0,092
-579,021	129,510	-0,093	-0,086
-578,006	-88,828	-0,096	0,020
-576,992	-200,000	0,018	-0,086
-575,977	-200,000	-0,012	-0,129
-574,963	-50,940	0,009	-0,003
-573,948	-200,000	-0,028	-0,112
-572,934	-200,000	-0,014	-0,195
-571,919	-200,000	-0,022	-0,092
-570,904	123,993	-0,142	-0,129
-569,890	-200,000	0,001	0,009
-568,875	169,013	-0,015	-0,015
-567,861	-149,025	0,038	0,002
-566,846	800,000	0,010	0,033
-565,831	-200,000	0,009	0,165
-564,817	60,121	-0,124	-0,088
-563,802	-53,615	-0,060	-0,020
-562,788	31,732	-0,094	-0,058
-561,773	-33,913	0,096	-0,038
-560,758	-200,000	0,015	0,081
-559,744	562,321	0,003	0,005
-558,729	-109,043	-0,054	0,008
-557,715	94,596	-0,057	0,047
-556,700	-26,333	-0,106	-0,045
-555,685	-57,038	-0,103	0,032
-554,671	408,043	0,060	-0,092
-553,656	-200,000	-0,009	0,050
-552,642	-200,000	0,026	0,153
-551,627	-200,000	-0,011	0,089
-550,612	-200,000	0,016	-0,069
-549,598	9,514	-0,097	0,053
-548,583	455,882	-0,067	-0,107
-547,569	-200,000	0,008	-0,109
-546,554	182,015	0,032	0,034
-545,539	-186,962	0,023	0,000
-544,525	800,000	0,040	0,102
-543,510	-27,037	0,045	0,019
-542,496	-51,221	0,097	-0,032
-541,481	115,382	0,065	-0,057
-540,466	289,606	0,018	-0,023
-539,452	766,219	0,026	0,051
-538,437	-36,924	-0,064	0,025
-537,423	76,437	0,084	0,064
-536,408	60,454	-0,137	0,097
-535,393	335,011	-0,063	-0,088
-534,379	-161,343	-0,053	-0,002
-533,364	800,000	-0,047	-0,123
-532,350	419,875	-0,072	-0,112
-531,335	-95,141	0,061	-0,012
-530,321	102,377	0,049	-0,041
-529,306	50,341	0,088	-0,060
-528,291	-23,248	-0,023	0,010
-527,277	195,780	-0,053	-0,059
-526,262	96,050	-0,061	-0,050
-525,248	107,689	0,086	-0,073
-524,233	285,663	0,077	0,100
-523,218	278,082	0,056	-0,072
-522,204	-23,476	0,059	0,025
-521,189	192,971	-0,098	-0,107
-520,175	800,000	0,032	-0,070
-519,160	-200,000	-0,041	0,148
-518,145	-200,000	0,012	0,146
-517,131	422,080	-0,016	-0,025
-516,116	-114,819	0,040	0,005
-515,102	30,165	0,140	-0,086
-514,087	-117,318	-0,197	0,025
-513,072	-200,000	-0,020	-0,096
-512,058	24,508	-0,068	-0,040
-511,043	800,000	-0,018	0,046
-510,029	18,257	0,044	0,025
-509,014	-200,000	0,052	0,169
-507,999	-70,140	0,099	0,027
-506,985	-200,000	0,021	-0,084
-505,970	-200,000	-0,019	-0,079
-504,956	-82,405	0,013	0,003
-503,941	-135,878	-0,050	-0,004
-502,926	607,507	0,053	0,095
-501,912	-4,361	-0,035	-0,017
-500,897	-17,210	-0,133	-0,060
-499,883	43,630	-0,102	0,067
-498,868	-200,000	0,013	-0,102
-497,853	-200,000	-0,011	-0,099
-496,839	-100,721	0,129	-0,023
-495,824	237,347	-0,020	0,024
-494,810	652,461	0,050	0,093
-493,795	-200,000	0,024	0,149
-492,781	266,937	0,047	-0,059
-491,766	-200,000	-0,030	-0,224
-490,751	-173,324	-0,197	-0,004
-489,737	-65,286	0,139	-0,040
-488,722	-194,630	-0,018	0,000
-487,708	186,478	0,068	0,072
-486,693	203,288	0,060	-0,066
-485,678	95,567	-0,085	0,069
-484,664	-200,000	0,016	-0,051
-483,649	212,058	-0,079	-0,090
-482,635	-166,819	-0,078	-0,002
-481,620	449,529	0,088	0,140
-480,605	58,908	-0,029	0,020
-479,591	800,000	0,049	-0,098
-478,576	310,333	0,078	-0,105
-477,562	201,951	-0,053	0,059
-476,547	-189,000	-0,104	0,001
-475,532	-200,000	-0,016	-0,125
-474,518	24,778	0,029	0,018
-473,503	109,178	-0,072	0,062
-472,489	800,000	-0,069	0,141
-471,474	764,068	-0,028	0,055
-470,459	-26,204	0,077	0,032
-469,445	543,000	-0,044	0,075
-468,430	-200,000	0,021	0,189
-467,416	-200,000	0,025	0,082
-466,401	-5,861	-0,087	-0,042
-465,386	444,470	0,054	0,085
-464,372	-122,127	-0,235	0,027
-463,357	-18,876	-0,285	-0,127
-462,343	-200,000	-0,006	-0,080
-461,328	-200,000	0,003	0,136
-460,313	-200,000	0,003	-0,015
-459,299	152,768	0,012	-0,012
-458,284	127,757	-0,121	-0,110
-457,270	-200,000	-0,016	0,122
-456,255	800,000	0,034	-0,078
-455,241	800,000	-0,045	-0,112
-454,226	800,000	-0,029	-0,072
-453,211	86,691	0,028	0,022
-452,197	800,000	-0,028	0,068
-451,182	-200,000	-0,002	0,036
-450,168	-82,662	0,133	0,031
-449,153	800,000	-0,027	-0,059
-448,138	-42,040	-0,200	-0,073
-447,124	-6,152	0,191	-0,093
-446,109	-200,000	-0,005	0,027
-445,095	-94,231	0,102	-0,020
-444,080	81,189	-0,035	0,027
-443,065	459,212	0,049	0,079
-442,051	800,000	0,026	0,063
-441,036	16,283	-0,093	-0,052
-440,022	92,905	0,139	-0,113
-439,007	464,978	0,036	-0,059
-437,992	504,336	-0,055	-0,092
-436,978	160,213	0,059	0,059
-435,963	800,000	0,056	0,146
-434,949	-94,235	-0,174	0,034
-433,934	-200,000	0,020	-0,096
-432,919	800,000	0,046	-0,119
-431,905	177,061	-0,032	-0,034
-430,890	382,220	-0,059	-0,087
-429,876	316,293	-0,089	0,121
-428,861	-146,318	-0,011	0,001
-427,846	19,615	0,073	-0,042
-426,832	-200,000	-0,004	-0,132
-425,817	-37,316	-0,108	0,041
-424,803	-44,716	0,103	-0,037
-423,788	-155,820	-0,139	-0,006
-422,773	-121,023	-0,038	-0,005
-421,759	-74,170	0,138	-0,036
-420,744	-123,312	-0,022	0,002
-419,730	-200,000	-0,040	-0,147
-418,715	82,905	-0,101	0,078
-417,701	-70,580	-0,062	0,017
-416,686	270,291	0,055	0,069
-415,671	-200,000	-0,001	0,117
-414,657	-152,377	0,032	0,002
-413,642	-39,216	0,053	0,020
-412,628	47,467	0,022	-0,014
-411,613	292,345	0,045	-0,059
-410,598	800,000	0,038	-0,097
-409,584	125,163	0,104	0,094
-408,569	84,569	0,109	0,085
-407,555	486,027	0,048	0,079
-406,540	-24,824	0,121	0,051
-405,525	7,273	-0,038	0,020
-404,511	800,000	0,042	-0,088
-403,496	-72,698	-0,150	0,039
-402,482	47,804	-0,064	-0,043
-401,467	-118,036	0,138	-0,017
-400,452	-164,308	0,138	0,004
-399,438	800,000	-0,030	0,084
-398,423	800,000	0,014	-0,036
-397,409	3,434	-0,120	-0,063
-396,394	800,000	0,016	0,050
-395,379	103,544	-0,050	0,042
-394,365	-99,942	0,026	-0,005
-393,350	-200,000	-0,023	0,141
-392,336	572,529	0,053	0,092
-391,321	41,743	0,070	-0,045
-390,306	203,648	-0,051	-0,056
-389,292	-85,688	-0,149	0,033
-388,277	-64,929	-0,064	0,018
-387,263	-8,196	-0,077	0,037
-386,248	-22,526	-0,096	-0,041
-385,233	-200,000	0,004	0,049
-384,219	-42,849	0,033	0,012
-383,204	-12,766	-0,104	0,048
-382,190	515,077	0,041	-0,068
-381,175	-200,000	0,005	0,074
-380,160	800,000	0,036	0,081
-379,146	-82,781	0,108	0,025
-378,131	-200,000	0,005	-0,076
-377,117	-27,951	0,028	0,012
-376,102	-200,000	0,007	0,036
-375,088	346,012	-0,043	-0,060
-374,073	-200,000	0,010	-0,047
-373,058	-200,000	0,018	0,077
-372,044	-59,270	0,210	-0,064
-371,029	143,555	-0,032	-0,030
-370,015	21,877	0,111	0,065
-369,000	-61,382	-0,205	0,061
-367,985	564,381	0,071	-0,124
-366,971	110,574	0,025	0,021
-365,956	-200,000	0,009	-0,084
-364,942	7,735	0,040	0,021
-363,927	-200,000	-0,000	0,030
-362,912	-200,000	-0,015	-0,085
-361,898	-115,990	-0,130	-0,017
-360,883	-200,000	-0,004	-0,044
-359,869	-200,000	0,029	0,104
-358,854	202,981	0,071	0,079
-357,839	800,000	-0,057	0,150
-356,825	256,359	0,070	0,086
-355,810	-95,482	-0,031	-0,006
-354,796	-66,342	0,093	-0,026
-353,781	274,125	0,027	-0,034
-352,766	268,625	0,028	0,035
-351,752	-70,891	0,185	0,049
-350,737	-123,389	0,235	0,026
-349,723	380,408	0,012	0,018
-348,708	-200,000	0,021	0,090
-347,693	800,000	0,033	0,067
-346,679	-66,357	-0,175	0,049
-345,664	343,835	0,063	-0,089
-344,650	369,668	0,084	0,122
-343,635	201,231	-0,025	0,027
-342,620	800,000	0,035	0,088
-341,606	157,093	0,055	-0,054
-340,591	136,857	0,112	-0,104
-339,577	800,000	0,039	-0,083
-338,562	-156,987	-0,056	0,002
-337,548	201,493	-0,045	0,049
-336,533	-20,889	0,095	-0,041
-335,518	438,129	-0,012	-0,019
-334,504	-147,150	-0,042	0,002
-333,489	-99,195	-0,184	0,033
-332,475	-200,000	0,004	0,022
-331,460	-200,000	0,026	0,103
-330,445	218,942	0,082	0,093
-329,431	148,662	-0,089	-0,086
-328,416	-200,000	0,012	-0,072
-327,402	-60,150	0,082	0,025
-326,387	106,566	-0,040	0,034
-325,372	-65,083	-0,065	0,019
-324,358	69,517	-0,120	0,088
-323,343	92,487	-0,082	0,066
-322,329	-121,307	0,203	0,024
-321,314	-5,304	-0,089	0,044
-320,299	-51,212	0,032	0,011
-319,285	711,965	-0,033	0,062
-318,270	800,000	-0,042	-0,095
-317,256	125,301	-0,082	-0,074
-316,241	800,000	-0,044	-0,090
-315,226	48,738	0,112	-0,074
-314,212	800,000	0,042	0,088
-313,197	-16,503	0,061	0,027
-312,183	800,000	0,018	0,042
-311,168	-200,000	0,016	0,052
-310,153	351,143	0,078	-0,110
-309,139	170,392	0,054	-0,055
-308,124	-200,000	-0,002	0,053
-307,110	-16,224	0,039	0,017
-306,095	15,934	0,093	0,052
-305,080	800,000	-0,065	0,174
-304,066	81,106	-0,110	-0,085
-303,051	-162,579	-0,072	0,002
-302,037	-179,796	-0,116	0,002
-301,022	199,277	-0,075	-0,082
-300,008	-9,744	0,102	0,048
-298,993	155,689	0,112	0,110
-297,978	304,251	0,024	-0,032
-296,964	-134,125	0,126	-0,011
-295,949	-67,492	-0,090	0,025
-294,935	-200,000	-0,035	0,133
-293,920	-200,000	0,022	-0,073
-292,905	93,116	0,064	-0,052
-291,891	-200,000	-0,012	0,126
-290,876	-56,260	-0,067	-0,021
-289,862	-85,249	0,086	-0,019
-288,847	-200,000	-0,018	-0,087
-287,832	-200,000	0,034	-0,161
-286,818	800,000	-0,019	-0,048
-285,803	-132,138	0,054	-0,005
-284,789	-65,235	0,066	0,019
-283,774	-63,518	-0,085	-0,025
-282,759	71,820	-0,089	-0,066
-281,745	140,449	0,084	-0,079
-280,730	-200,000	0,025	-0,113
-279,716	800,000	0,022	0,069
-278,701	256,950	0,035	0,043
-277,686	-200,000	0,023	0,146
-276,672	-200,000	0,020	0,066
-275,657	234,054	0,103	0,122
-274,643	60,309	-0,048	-0,034
-273,628	-59,665	0,050	-0,015
-272,613	-200,000	-0,000	-0,021
-271,599	-121,027	-0,102	0,012
-270,584	-200,000	-0,017	0,072
-269,570	-20,835	-0,106	0,046
-268,555	800,000	0,043	-0,090
-267,540	212,080	-0,026	0,029
-266,526	-200,000	-0,022	-0,080
-265,511	54,914	0,037	-0,026
-264,497	274,025	-0,079	-0,100
-263,482	42,272	0,071	-0,046
-262,467	145,483	0,028	0,027
-261,453	440,378	0,033	-0,051
-260,438	71,275	-0,023	0,017
-259,424	415,087	-0,045	0,068
-258,409	536,320	0,018	0,031
-257,395	45,182	0,086	0,057
-256,380	-100,444	0,103	0,018
-255,365	112,926	-0,070	-0,061
-254,351	-65,998	-0,130	-0,037
-253,336	-99,213	0,106	0,019
-252,322	82,141	0,091	0,070
-251,307	460,021	0,074	-0,118
-250,292	549,913	-0,023	-0,039
-249,278	732,879	0,086	0,164
-248,263	-29,185	-0,109	-0,044
-247,249	21,308	0,030	0,017
-246,234	31,719	0,098	0,060
-245,219	800,000	-0,108	-0,300
-244,205	-63,997	0,110	0,032
-243,190	-9,003	-0,036	-0,017
-242,176	-109,414	0,055	-0,008
-241,161	264,977	0,079	0,098
-240,146	18,065	0,072	-0,041
-239,132	-147,246	-0,161	-0,010
-238,117	76,064	-0,103	-0,078
-237,103	73,885	-0,140	-0,104
-236,088	92,722	0,115	0,092
-235,073	352,050	0,109	0,154
-234,059	-200,000	0,001	-0,023
-233,044	-99,382	0,140	0,025
-232,030	800,000	0,021	-0,045
-231,015	-200,000	-0,040	-0,167
-230,000	-153,032	0,094	-0,005
-228,986	-87,688	-0,032	-0,007
-227,971	-33,153	0,123	0,048
-226,957	27,120	-0,049	-0,029
-225,942	362,848	0,097	0,139
-224,927	43,277	-0,098	-0,063
-223,913	-200,000	0,016	-0,055
-222,898	-168,153	-0,048	0,001
-221,884	10,835	-0,014	-0,008
-220,869	800,000	0,027	-0,077
-219,855	26,990	0,052	0,031
-218,840	115,312	0,099	0,086
-217,825	82,967	0,082	0,064
-216,811	163,775	0,094	-0,094
-215,796	18,354	-0,114	-0,065
-214,782	-116,137	0,008	0,001
-213,767	155,292	-0,149	0,146
-212,752	-113,351	0,084	-0,012
-211,738	273,607	0,043	0,055
-210,723	-89,879	0,049	0,010
-209,709	594,057	-0,021	-0,038
-208,694	351,952	-0,034	0,048
-207,679	800,000	0,026	0,060
-206,665	284,817	-0,027	0,034
-205,650	800,000	0,049	0,116
-204,636	150,294	-0,051	0,049
-203,621	540,886	0,005	-0,009
-202,606	800,000	-0,038	0,079
-201,592	-200,000	0,010	0,061
-200,577	0,999	-0,143	-0,073
-199,563	-147,773	0,041	0,002
-198,548	335,526	0,069	0,095
-197,533	-200,000	-0,005	-0,103
-196,519	-70,818	-0,107	-0,028
-195,504	-200,000	-0,010	0,062
-194,490	-145,748	-0,121	0,008
-193,475	800,000	-0,058	-0,166
-192,460	-200,000	0,005	-0,036
-191,446	-200,000	-0,006	0,091
-190,431	-11,995	0,093	0,043
-189,417	-200,000	-0,009	-0,035
-188,402	-183,317	0,035	-0,000
-187,387	-200,000	-0,022	0,088
-186,373	-85,058	-0,174	0,038
-185,358	-11,233	-0,136	-0,063
-184,344	-78,316	0,104	0,025
-183,329	800,000	0,026	0,081
-182,315	-200,000	-0,017	-0,059
-181,300	489,550	0,039	0,064
-180,285	121,887	0,058	0,051
-179,271	-78,613	-0,107	0,026
-178,256	-35,908	0,150	-0,057
-177,242	800,000	0,036	0,073
-176,227	123,505	0,145	0,129
-175,212	800,000	-0,038	-0,075
-174,198	-200,000	-0,036	0,135
-173,183	78,838	0,015	-0,012
-172,169	-200,000	0,004	-0,155
-171,154	-156,307	0,109	-0,005
-170,139	108,412	0,097	-0,082
-169,125	269,191	0,034	-0,042
-168,110	-39,998	-0,073	0,027
-167,096	-197,863	-0,106	0,000
-166,081	-140,080	0,076	0,006
-165,066	800,000	0,009	-0,024
-164,052	-62,591	0,097	0,028
-163,037	-101,605	0,071	0,012
-162,023	800,000	-0,020	0,044
-161,008	-200,000	-0,009	-0,061
-159,993	-131,326	-0,119	-0,011
-158,979	157,138	-0,045	0,044
-157,964	198,862	0,018	-0,020
-156,950	41,864	-0,082	-0,053
-155,935	302,486	0,022	-0,028
-154,920	66,865	0,084	0,061
-153,906	-69,376	0,058	-0,016
-152,891	-71,324	0,113	-0,030
-151,877	-200,000	-0,008	-0,109
-150,862	-121,056	-0,044	0,005
-149,847	-17,032	-0,057	0,025
-148,833	-40,625	0,116	0,042
-147,818	-200,000	-0,005	0,087
-146,804	33,065	0,088	0,054
-145,789	800,000	0,044	-0,131
-144,775	225,504	-0,038	-0,044
-143,760	-37,483	0,128	0,048
-142,745	63,112	-0,073	0,052
-141,731	737,254	0,079	0,152
-140,716	-47,755	-0,084	0,029
-139,702	-200,000	-0,002	0,086
-138,687	-106,370	-0,046	-0,007
-137,672	-200,000	0,026	0,133
-136,658	-200,000	0,033	-0,134
-135,643	604,976	-0,084	-0,149
-134,629	800,000	-0,046	-0,128
-133,614	8,126	0,104	0,055
-132,599	93,129	0,016	0,013
-131,585	-200,000	0,005	-0,104
-130,570	269,709	0,058	-0,072
-129,556	800,000	0,021	-0,041
-128,541	-200,000	0,033	-0,125
-127,526	800,000	-0,042	0,089
-126,512	-200,000	0,014	0,073
-125,497	-15,542	-0,107	0,048
-124,483	-11,822	0,030	0,014
-123,468	800,000	0,037	0,073
-122,453	71,345	0,047	0,034
-121,439	-200,000	-0,077	0,000
-120,424	421,379	-0,079	0,121
-119,410	109,251	0,007	0,006
-118,395	751,993	0,024	0,047
-117,380	-200,000	-0,001	0,088
-116,366	-200,000	0,006	0,027
-115,351	460,314	-0,122	-0,193
-114,337	664,760	0,066	-0,121
-113,322	-200,000	0,014	0,093
-112,307	-144,461	-0,124	-0,008
-111,293	287,457	0,123	0,158
-110,278	-125,491	0,094	0,010
-109,264	-90,986	-0,099	0,020
-108,249	471,102	0,024	0,038
-107,234	34,032	-0,145	-0,089
-106,220	-200,000	-0,034	-0,119
-105,205	217,278	0,054	0,060
-104,191	279,906	0,056	0,070
-103,176	800,000	-0,022	0,066
-102,162	-62,451	0,096	0,028
-101,147	15,269	0,014	-0,008
-100,132	65,131	-0,116	-0,082
-99,118	124,268	-0,090	-0,080
-98,103	-22,608	0,114	-0,049
-97,089	-200,000	0,004	0,041
-96,074	110,139	0,012	-0,010
-95,059	-71,706	-0,133	-0,035
-94,045	-29,954	0,164	-0,066
-93,030	-200,000	0,013	-0,044
-92,016	114,283	-0,047	-0,040
-91,001	29,449	0,080	-0,048
-89,986	130,062	-0,071	-0,064
-88,972	52,505	0,147	0,099
-87,957	800,000	0,034	0,104
-86,943	-200,000	0,010	0,038
-85,928	-200,000	-0,021	0,173
-84,913	280,191	-0,050	0,064
-83,899	219,073	-0,040	-0,045
-82,884	800,000	0,047	0,097
-81,870	-77,165	0,105	0,026
-80,855	800,000	0,047	0,120
-79,840	-200,000	0,009	-0,053
-78,826	-200,000	-0,012	0,101
-77,811	-9,674	0,102	0,048
-76,797	-48,880	-0,014	0,005
-75,782	-60,038	0,093	0,028
-74,767	-42,762	0,031	-0,011
-73,753	800,000	-0,052	0,113
-72,738	-61,571	-0,027	-0,008
-71,724	204,980	-0,019	0,021
-70,709	-200,000	-0,004	-0,066
-69,694	-200,000	-0,014	0,056
-68,680	-200,000	0,008	0,055
-67,665	-14,871	0,069	-0,031
-66,651	800,000	0,030	0,075
-65,636	144,364	0,038	-0,036
-64,622	122,351	-0,070	-0,062
-63,607	-200,000	0,013	-0,056
-62,592	-91,861	0,089	-0,018
-61,578	-92,634	-0,028	0,005
-60,563	198,594	-0,045	-0,048
-59,549	800,000	-0,036	0,101
-58,534	13,349	-1,832	-1,000
-57,519	427,014	-1,248	-1,908
-56,505	-200,000	-0,394	-4,412
-55,490	344,704	1,010	1,403
-54,476	800,000	5,104	11,068
-53,461	-200,000	20,836	329,338
-52,446	800,000	757,690	2324,477
-51,432	550,301	1662,563	2826,417
-50,417	73,406	1663,979	1228,269
-49,403	18,657	1537,148	865,911
-48,388	12,637	1460,290	793,471
-47,373	18,993	1450,733	818,775
-46,359	15,811	1440,091	797,587
-45,344	10,943	1435,817	771,994
-44,330	10,904	1433,918	770,759
-43,315	10,820	1432,467	769,547
-42,300	10,885	1430,448	768,742
-41,286	10,864	1429,150	767,914
-40,271	10,846	1427,903	767,128
-39,257	10,848	1426,745	766,484
-38,242	10,884	1425,467	765,936
-37,227	10,852	1424,585	765,281
-36,213	10,890	1423,363	764,774
-35,198	10,872	1422,266	764,070
-34,184	10,949	1421,330	763,902
-33,169	10,873	1419,869	762,724
-32,154	10,952	1418,872	762,533
-31,140	10,922	1417,638	761,698
-30,125	10,951	1416,519	761,204
-29,111	10,952	1415,357	760,553
-28,096	10,918	1414,313	759,802
-27,082	10,869	1413,034	758,857
-26,067	10,803	1412,234	758,085
-25,052	10,873	1410,863	757,649
-24,038	10,857	1410,007	757,083
-23,023	10,841	1409,136	756,510
-22,009	10,827	1407,931	755,768
-20,994	10,790	1407,140	755,143
-19,979	10,892	1405,944	754,943
-18,965	10,822	1405,196	754,185
-17,950	10,840	1404,265	753,741
-16,936	10,779	1403,484	753,009
-15,921	10,686	1402,468	751,998
-14,906	10,736	1401,531	751,701
-13,892	10,748	1400,445	751,143
-12,877	10,766	1399,742	750,819
-11,863	10,710	1398,886	750,072
-10,848	10,717	1397,871	749,531
-9,833	10,714	1397,026	749,031
-8,819	10,633	1396,329	748,256
-7,804	10,665	1395,271	747,807
-6,790	10,654	1394,298	747,204
-5,775	10,672	1393,258	746,700
-4,760	10,660	1392,392	746,150
-3,746	10,647	1391,600	745,635
-2,731	10,611	1390,678	744,946
-1,717	10,621	1389,812	744,501
-0,702	10,692	1387,696	743,662
0,313	14,619	1301,547	715,518
1,327	30,926	692,598	417,835
2,342	47,954	120,065	79,015
3,356	1,055	16,505	8,325
4,371	-0,304	3,420	1,709
5,386	25,692	0,852	0,499
6,400	800,000	0,189	0,508
7,415	59,282	-0,337	-0,234
8,429	-17,433	-0,371	-0,164
9,444	-48,574	-0,259	-0,087
10,459	-118,694	-0,258	-0,032
11,473	234,778	-0,203	-0,237
12,488	80,928	-0,269	-0,205
13,502	4,618	-0,243	-0,125
14,517	193,434	-0,295	-0,314
15,531	142,410	-0,316	-0,296
16,546	60,988	-0,357	-0,249
17,561	379,165	-0,234	-0,338
18,575	74,270	-0,126	-0,093
19,590	91,038	-0,293	-0,231
20,604	-38,439	-0,365	-0,135
21,619	80,495	-0,489	-0,370
22,634	-27,477	-0,439	-0,179
23,648	29,929	-0,449	-0,269
24,663	144,735	-0,360	-0,339
25,677	35,833	-0,375	-0,231
26,692	800,000	-0,142	-0,308
27,707	-52,017	-0,356	-0,116
28,721	68,875	-0,464	-0,335
29,736	52,689	-0,442	-0,296
30,750	57,065	-0,438	-0,300
31,765	56,979	-0,338	-0,232
32,780	415,515	-0,267	-0,402
33,794	-131,157	-0,386	-0,036
34,809	209,517	-0,277	-0,306
35,823	224,424	-0,274	-0,312
36,838	19,761	-0,383	-0,216
37,853	105,774	-0,306	-0,254
38,867	-88,854	-0,523	-0,108
39,882	91,586	-0,289	-0,228
40,896	4,493	-0,386	-0,198
41,911	79,393	-0,294	-0,222
42,926	132,432	-0,277	-0,251
43,940	86,657	-0,299	-0,232
44,955	75,009	-0,335	-0,248
45,969	90,264	-0,337	-0,265
46,984	245,889	-0,240	-0,285
47,999	-60,898	-0,306	-0,090
49,013	385,184	-0,285	-0,414
50,028	73,273	-0,291	-0,214
51,042	-2,408	-0,317	-0,155
52,057	28,219	-0,481	-0,285
53,071	31,575	-0,330	-0,199
54,086	-7,815	-0,296	-0,140
55,101	25,194	-0,370	-0,215
56,115	106,257	-0,257	-0,213
57,130	172,114	-0,303	-0,306
58,144	26,886	-0,368	-0,216
59,159	21,167	-0,460	-0,261
60,174	62,071	-0,415	-0,290
61,188	105,779	-0,364	-0,302
62,203	35,404	-0,364	-0,223
63,217	24,685	-0,258	-0,150
64,232	13,171	-0,324	-0,176
65,247	-22,307	-0,423	-0,179
66,261	21,562	-0,365	-0,208
67,276	100,071	-0,290	-0,236
68,290	24,756	-0,285	-0,165
69,305	-8,349	-0,264	-0,124
70,320	-42,023	-0,176	-0,063
71,334	-108,135	-0,299	-0,045
72,349	-24,157	-0,288	-0,120
73,363	107,577	-0,256	-0,213
74,378	367,772	-0,251	-0,356
75,393	392,501	-0,165	-0,242
76,407	212,821	-0,207	-0,229
77,422	17,427	-0,306	-0,170
78,436	102,503	-0,227	-0,186
79,451	127,824	-0,344	-0,306
80,466	-47,892	-0,399	-0,135
81,480	-80,716	-0,376	-0,087
82,495	30,324	-0,254	-0,151
83,509	150,726	-0,147	-0,140
84,524	86,238	-0,207	-0,160
85,539	61,932	-0,268	-0,187
86,553	72,929	-0,235	-0,172
87,568	204,553	-0,221	-0,240
88,582	119,464	-0,186	-0,161
89,597	186,256	-0,305	-0,318
90,611	-172,295	-0,320	-0,007
91,626	-28,178	-0,273	-0,110
92,641	24,941	-0,247	-0,143
93,655	75,537	-0,318	-0,235
94,670	52,270	-0,307	-0,205
95,684	107,191	-0,274	-0,228
96,699	-85,794	-0,192	-0,041
97,714	282,984	-0,081	-0,101
98,728	-15,202	-0,255	-0,114
99,743	-47,859	-0,224	-0,076
100,757	-134,318	-0,310	-0,026
101,772	-51,295	-0,234	-0,076
102,787	-78,246	-0,310	-0,074
103,801	4,750	-0,410	-0,210
104,816	-52,442	-0,278	-0,090
105,830	42,743	-0,180	-0,114
106,845	-87,628	-0,289	-0,060
107,860	174,884	-0,185	-0,187
108,874	137,359	-0,278	-0,255
109,889	5,960	-0,279	-0,144
110,903	56,210	-0,159	-0,108
111,918	14,070	-0,272	-0,148
112,933	-5,187	-0,141	-0,068
113,947	-48,218	-0,257	-0,086
114,962	-2,731	-0,250	-0,122
115,976	12,109	-0,297	-0,159
116,991	29,392	-0,361	-0,214
118,006	-176,098	-0,258	-0,005
119,020	28,527	-0,263	-0,155
120,035	-109,959	-0,351	0,051
121,049	340,318	-0,201	-0,274
122,064	6,307	-0,263	-0,136
123,079	188,640	-0,185	-0,194
124,093	32,240	-0,263	-0,158
125,108	177,447	-0,328	-0,333
126,122	130,597	-0,286	-0,256
127,137	155,263	-0,067	-0,064
128,151	39,905	-0,260	-0,162
129,166	-28,570	-0,212	-0,085
130,181	58,615	-0,229	-0,156
131,195	-45,914	-0,321	-0,110
132,210	61,210	-0,262	-0,182
133,224	-14,424	-0,244	-0,109
134,239	257,913	-0,149	-0,179
135,254	-77,433	-0,230	-0,055
136,268	259,348	-0,167	-0,201
137,283	52,093	-0,203	-0,135
138,297	137,690	-0,241	-0,220
139,312	85,387	-0,211	-0,162
140,327	54,843	-0,271	-0,182
141,341	207,656	-0,118	-0,129
142,356	71,192	-0,159	-0,115
143,370	-117,340	-0,284	0,035
144,385	-62,095	-0,273	-0,079
145,400	800,000	-0,129	-0,281
146,414	107,562	-0,249	-0,206
147,429	404,700	-0,108	-0,159
148,443	10,490	-0,400	-0,212
149,458	323,535	-0,142	-0,189
150,473	155,534	-0,225	-0,216
151,487	221,423	-0,279	-0,313
152,502	128,058	-0,283	-0,251
153,516	-24,010	-0,330	-0,137
154,531	18,323	-0,287	-0,159
155,546	72,064	-0,226	-0,164
156,560	271,056	-0,182	-0,224
157,575	657,944	-0,120	-0,215
158,589	141,713	-0,213	-0,197
159,604	45,039	-0,138	-0,088
160,619	29,582	-0,385	-0,227
161,633	-25,741	-0,247	-0,101
162,648	414,719	-0,104	-0,154
163,662	800,000	-0,133	-0,304
164,677	259,813	-0,123	-0,147
165,692	91,538	-0,217	-0,170
166,706	138,500	-0,251	-0,229
167,721	386,793	-0,223	-0,321
168,735	77,398	-0,249	-0,184
169,750	-77,688	-0,234	-0,056
170,764	-82,509	-0,208	-0,047
171,779	390,315	-0,144	-0,208
172,794	-11,107	-0,158	-0,072
173,808	-121,563	-0,205	-0,023
174,823	800,000	-0,095	-0,227
175,837	664,469	-0,117	-0,210
176,852	-151,493	-0,309	-0,016
177,867	800,000	-0,120	-0,240
178,881	-87,481	-0,407	-0,085
179,896	39,314	-0,211	-0,131
180,910	217,873	-0,163	-0,181
181,925	74,973	-0,322	-0,235
182,940	800,000	-0,119	-0,334
183,954	134,089	-0,208	-0,187
184,969	476,110	-0,132	-0,208
185,983	4,979	-0,218	-0,111
186,998	-29,242	-0,210	-0,083
188,013	-20,662	-0,187	-0,079
189,027	-67,043	-0,353	-0,096
190,042	192,926	-0,259	-0,272
191,056	34,704	-0,233	-0,141
192,071	148,414	-0,093	-0,087
193,086	-95,342	-0,239	-0,044
194,100	-55,534	-0,302	-0,093
195,115	-65,714	-0,300	-0,083
196,129	100,504	-0,140	-0,112
197,144	27,954	-0,184	-0,108
198,159	-92,751	-0,268	-0,052
199,173	-35,923	-0,204	-0,076
200,188	800,000	-0,089	-0,197
201,202	148,083	-0,139	-0,130
202,217	-60,027	-0,248	-0,073
203,232	56,474	-0,285	-0,192
204,246	-135,190	-0,287	0,024
205,261	229,668	-0,218	-0,247
206,275	54,329	-0,244	-0,163
207,290	38,629	-0,035	0,021
208,304	56,732	-0,265	-0,179
209,319	-33,749	-0,201	-0,076
210,334	287,532	-0,216	-0,271
211,348	109,156	-0,147	-0,122
212,363	90,151	-0,157	-0,121
213,377	336,991	-0,117	-0,158
214,392	103,712	-0,169	-0,138
215,407	254,704	-0,119	-0,141
216,421	311,100	-0,188	-0,244
217,436	71,663	-0,244	-0,175
218,450	800,000	-0,104	-0,235
219,465	164,571	-0,216	-0,211
220,480	348,390	-0,121	-0,165
221,494	127,200	-0,127	0,112
222,509	157,245	-0,120	-0,115
223,523	-112,955	-0,290	-0,039
224,538	-0,061	-0,207	-0,102
225,553	-33,250	-0,254	-0,097
226,567	-86,396	-0,244	-0,051
227,582	361,449	-0,169	-0,235
228,596	-200,000	0,003	-0,261
229,611	69,161	-0,114	-0,081
230,626	89,111	-0,178	-0,137
231,640	303,417	-0,177	-0,227
232,655	138,110	-0,226	-0,205
233,669	800,000	-0,077	-0,196
234,684	69,779	-0,133	-0,095
235,699	-36,342	-0,145	-0,054
236,713	76,555	-0,201	-0,147
237,728	-63,474	-0,297	-0,084
238,742	281,382	-0,079	-0,098
239,757	506,973	-0,159	-0,256
240,772	725,755	-0,113	-0,210
241,786	800,000	-0,114	-0,338
242,801	61,815	-0,145	-0,100
243,815	-140,412	-0,268	-0,019
244,830	425,455	-0,029	0,043
245,844	-57,864	-0,183	-0,055
246,859	55,023	-0,123	-0,082
247,874	53,407	-0,198	-0,131
248,888	-45,837	-0,078	-0,026
249,903	222,635	-0,251	-0,280
250,917	-11,853	-0,135	-0,061
251,932	-115,462	-0,037	0,005
252,947	158,804	-0,078	0,075
253,961	267,633	-0,160	-0,193
254,976	53,415	-0,239	-0,158
255,990	62,250	-0,147	-0,101
257,005	-11,741	-0,232	-0,105
258,020	-33,440	-0,143	-0,054
259,034	-152,955	-0,185	0,009
260,049	-65,225	-0,140	-0,039
261,063	-7,224	-0,201	-0,094
262,078	148,799	-0,174	-0,162
263,093	86,315	-0,140	-0,106
264,107	800,000	-0,083	-0,183
265,122	176,607	-0,117	-0,117
266,136	237,249	-0,141	-0,162
267,151	52,936	-0,251	-0,165
268,166	-26,409	-0,232	-0,093
269,180	189,709	-0,212	-0,219
270,195	115,447	-0,217	-0,183
271,209	41,054	-0,168	-0,105
272,224	286,603	-0,066	-0,082
273,239	-200,000	-0,032	-0,107
274,253	18,672	-0,167	-0,092
275,268	111,766	-0,139	-0,116
276,282	194,065	-0,183	-0,191
277,297	800,000	-0,096	-0,235
278,312	16,871	-0,174	-0,094
279,326	39,840	-0,180	-0,111
280,341	173,722	-0,156	-0,155
281,355	-13,151	-0,142	-0,063
282,370	-145,212	-0,207	-0,013
283,384	-99,524	-0,234	0,040
284,399	85,825	-0,203	-0,154
285,414	156,499	-0,160	-0,152
286,428	-200,000	-0,042	-0,153
287,443	-49,901	-0,165	-0,054
288,457	205,703	-0,128	-0,137
289,472	362,172	-0,138	-0,191
290,487	39,473	-0,179	-0,110
291,501	47,749	-0,227	-0,145
292,516	65,309	-0,161	-0,112
293,530	-200,000	0,010	-0,143
294,545	-34,932	-0,159	-0,059
295,560	-4,230	-0,137	-0,065
296,574	800,000	-0,080	-0,186
297,589	233,982	-0,150	-0,170
298,603	3,551	-0,215	-0,107
299,618	-82,417	-0,211	-0,047
300,633	-87,907	-0,196	-0,040
301,647	37,219	-0,124	-0,075
302,662	-85,330	-0,166	0,035
303,676	800,000	-0,080	-0,162
304,691	-121,530	-0,124	-0,014
305,706	50,205	-0,209	-0,135
306,720	531,056	-0,148	-0,242
307,735	-27,053	-0,145	-0,058
308,749	132,122	-0,148	-0,131
309,764	-145,889	-0,148	0,009
310,779	-121,386	-0,126	-0,014
311,793	-9,581	-0,122	-0,056
312,808	200,111	-0,128	-0,135
313,822	-71,304	-0,076	-0,019
314,837	-24,840	-0,166	-0,067
315,852	-200,000	-0,022	-0,159
316,866	-116,615	-0,132	-0,017
317,881	800,000	-0,023	0,058
318,895	800,000	-0,053	-0,125
319,910	800,000	-0,070	-0,208
320,925	157,830	-0,134	-0,128
321,939	332,303	-0,114	-0,151
322,954	500,916	-0,029	-0,046
323,968	-58,014	-0,131	-0,039
324,983	-2,226	-0,070	-0,033
325,997	5,195	-0,098	-0,049
327,012	-79,429	-0,092	0,021
328,027	-29,243	-0,088	0,034
329,041	-6,174	-0,204	-0,095
330,056	128,994	-0,104	-0,091
331,070	-58,522	-0,072	0,021
332,085	64,061	0,053	-0,037
333,100	37,916	-0,167	-0,101
334,114	-143,904	-0,134	0,009
335,129	14,044	-0,170	-0,090
336,143	9,716	-0,167	-0,087
337,158	137,116	-0,112	-0,100
338,173	181,705	-0,116	-0,117
339,187	-200,000	-0,086	0,000
340,202	121,716	-0,071	-0,060
341,216	218,476	-0,070	-0,076
342,231	-41,832	-0,206	-0,072
343,246	-13,834	-0,182	-0,080
344,260	-36,525	-0,157	-0,057
345,275	-158,101	-0,109	-0,004
346,289	800,000	-0,059	-0,135
347,304	741,939	-0,027	-0,049
348,319	-159,649	-0,102	0,004
349,333	42,718	-0,137	-0,085
350,348	-29,125	-0,207	-0,081
351,362	-103,394	-0,127	-0,020
352,377	800,000	-0,086	-0,181
353,392	-200,000	0,005	-0,054
354,406	-15,487	-0,179	-0,078
355,421	207,550	1311,758	1402,222
356,435	159,661	1472,118	1402,703
