DTS Sentinel unit serial number:	SN410029Multiplexer serial number:	ORYXHardware model number:	OX2-SRSoftware version number:	ORYX F/W v4,00 Oryx Data Collector v3.7.2.0data status	okinstallation	B3 Nyhavnadifferential loss correction	single-endedforward channel	channel 1reverse channel	N/Adate	2023/11/30time	09:12:30forward acquisition time	300,00reverse acquisition time	0,00gamma	499,1914k internal	0,3211k external	0,3211temperature offset calibration	1,0000default loss term (dB/km)	0,3820temperature slope calibration	1,0000multiplexer offset coefficient	1,0000multiplexer slope coefficient	1,0000fibre end	0,00T internal ref (°C)	9,50T ext. ref 1 (°C)	-5,58T ext. ref 2 (°C)	-5,68length (m)	temperature (°C)	Stokes	anti-Stokes-744,400	-17,845	-0,373	-0,169
-743,385	-200,000	-0,056	0,286
-742,371	-200,000	-0,003	-0,142
-741,356	-200,000	0,006	0,177
-740,342	800,000	-0,090	-0,190
-739,327	800,000	-0,101	0,291
-738,312	800,000	-0,108	-0,268
-737,298	-200,000	-0,015	0,141
-736,283	16,759	-0,191	-0,109
-735,269	800,000	0,091	0,254
-734,254	206,257	-0,263	-0,298
-733,239	28,787	-0,230	0,141
-732,225	544,501	-0,154	-0,267
-731,210	137,987	0,084	0,080
-730,196	-167,681	-0,279	-0,008
-729,181	-200,000	0,016	-0,087
-728,167	55,808	-0,065	0,045
-727,152	38,892	0,010	-0,007
-726,137	208,807	0,067	-0,076
-725,123	-25,398	-0,077	0,033
-724,108	-10,406	-0,088	0,042
-723,094	107,283	-0,087	-0,075
-722,079	-96,016	0,082	0,016
-721,064	-200,000	0,025	0,123
-720,050	-200,000	0,001	0,108
-719,035	800,000	0,030	0,064
-718,021	11,254	-0,129	-0,071
-717,006	82,551	-0,062	-0,049
-715,991	800,000	-0,046	-0,135
-714,977	-200,000	-0,025	-0,099
-713,962	350,995	-0,062	-0,089
-712,948	537,352	-0,093	0,161
-711,933	-88,353	0,102	0,022
-710,918	-1,855	-0,024	-0,012
-709,904	-93,891	0,176	0,035
-708,889	135,138	-0,067	-0,063
-707,875	-185,722	-0,176	0,002
-706,860	193,754	0,097	0,106
-705,845	800,000	0,074	0,162
-704,831	-200,000	-0,032	0,179
-703,816	-15,098	0,084	0,039
-702,802	-200,000	0,023	-0,148
-701,787	-200,000	-0,046	-0,151
-700,772	-200,000	-0,005	-0,153
-699,758	96,557	-0,022	-0,018
-698,743	49,999	0,106	0,073
-697,729	-200,000	0,046	0,182
-696,714	800,000	-0,007	0,018
-695,699	144,617	0,075	-0,073
-694,685	615,250	-0,061	0,111
-693,670	-89,023	-0,143	0,030
-692,656	283,365	-0,071	-0,092
-691,641	-200,000	0,027	0,170
-690,627	800,000	0,004	0,012
-689,612	-185,835	0,080	-0,001
-688,597	-49,298	0,128	-0,044
-687,583	800,000	-0,018	0,054
-686,568	16,758	0,025	-0,015
-685,554	-46,114	0,047	-0,017
-684,539	34,704	0,091	0,058
-683,524	74,490	-0,081	0,062
-682,510	-200,000	-0,006	0,126
-681,495	783,298	-0,027	-0,054
-680,481	-200,000	0,002	-0,126
-679,466	-17,519	0,070	0,032
-678,451	800,000	-0,074	-0,205
-677,437	-200,000	0,009	-0,046
-676,422	-70,560	-0,122	0,033
-675,408	800,000	0,054	0,133
-674,393	178,237	-0,093	-0,098
-673,378	761,266	-0,052	-0,103
-672,364	197,695	-0,103	0,114
-671,349	614,891	0,030	-0,055
-670,335	75,812	-0,081	-0,062
-669,320	441,521	0,060	0,095
-668,305	84,842	-0,050	0,040
-667,291	-39,533	0,182	-0,069
-666,276	-49,084	-0,054	0,018
-665,262	321,538	0,028	-0,039
-664,247	-200,000	-0,008	-0,035
-663,232	155,896	-0,044	0,044
-662,218	692,723	-0,029	-0,056
-661,203	-91,487	-0,103	-0,021
-660,189	800,000	-0,006	-0,020
-659,174	480,227	-0,023	0,037
-658,159	403,190	-0,052	-0,080
-657,145	-200,000	-0,033	0,165
-656,130	800,000	-0,028	0,056
-655,116	84,584	0,065	-0,052
-654,101	122,907	-0,078	0,070
-653,086	-148,971	-0,115	-0,007
-652,072	-200,000	0,020	-0,077
-651,057	41,775	-0,042	0,028
-650,043	-200,000	-0,018	-0,062
-649,028	5,326	0,055	-0,029
-648,014	-41,625	0,065	0,024
-646,999	217,747	-0,070	-0,081
-645,984	800,000	-0,032	0,066
-644,970	800,000	-0,024	0,065
-643,955	800,000	-0,049	-0,133
-642,941	-200,000	-0,003	-0,187
-641,926	122,107	0,048	0,043
-640,911	-111,219	0,074	-0,011
-639,897	800,000	0,057	-0,124
-638,882	248,151	0,043	-0,052
-637,868	172,045	-0,091	-0,094
-636,853	-25,816	-0,132	-0,056
-635,838	153,703	-0,062	0,061
-634,824	132,726	-0,083	0,077
-633,809	99,273	-0,064	0,054
-632,795	800,000	0,021	-0,048
-631,780	-147,820	-0,060	-0,004
-630,765	280,986	0,029	-0,037
-629,751	118,642	-0,050	0,045
-628,736	-200,000	0,015	0,093
-627,722	297,189	-0,027	-0,036
-626,707	-155,918	-0,010	0,000
-625,692	36,358	0,145	-0,092
-624,678	151,036	-0,081	0,079
-623,663	-15,894	-0,094	0,043
-622,649	12,594	-0,170	-0,094
-621,634	292,448	-0,059	-0,078
-620,619	291,517	-0,051	0,067
-619,605	389,448	0,100	0,150
-618,590	-200,000	0,000	-0,001
-617,576	88,355	0,103	0,083
-616,561	800,000	0,012	0,032
-615,546	-200,000	0,033	-0,141
-614,532	40,458	-0,080	-0,052
-613,517	-200,000	0,001	-0,107
-612,503	528,251	0,083	-0,141
-611,488	167,916	0,041	0,042
-610,474	-154,177	-0,106	0,005
-609,459	-96,604	-0,079	-0,015
-608,444	-200,000	0,005	-0,138
-607,430	290,380	-0,087	-0,114
-606,415	800,000	0,028	-0,070
-605,401	-95,608	0,052	0,010
-604,386	606,075	-0,080	-0,144
-603,371	800,000	-0,025	-0,070
-602,357	-85,779	0,042	0,009
-601,342	-95,171	-0,129	0,025
-600,328	-146,796	-0,058	-0,004
-599,313	-200,000	-0,001	0,052
-598,298	-200,000	0,009	-0,155
-597,284	800,000	-0,065	0,136
-596,269	-55,913	0,206	0,066
-595,255	-200,000	0,029	-0,141
-594,240	-86,841	-0,095	0,021
-593,225	257,669	-0,038	-0,047
-592,211	-22,771	0,027	0,012
-591,196	132,476	-0,053	0,049
-590,182	800,000	0,038	0,102
-589,167	-30,244	-0,056	-0,023
-588,152	23,851	-0,034	-0,020
-587,138	-200,000	0,007	-0,072
-586,123	1,831	-0,072	0,038
-585,109	-178,176	-0,028	0,000
-584,094	-200,000	0,000	-0,055
-583,079	34,905	-0,089	0,056
-582,065	285,157	0,100	0,131
-581,050	-124,426	0,131	-0,015
-580,036	-79,101	-0,160	0,039
-579,021	57,764	-0,076	-0,053
-578,006	-36,397	-0,078	0,030
-576,992	-49,011	0,056	0,019
-575,977	-188,072	0,057	-0,001
-574,963	-200,000	-0,002	0,154
-573,948	800,000	0,036	-0,095
-572,934	60,277	-0,075	-0,053
-571,919	800,000	0,025	-0,069
-570,904	261,504	0,086	-0,108
-569,890	-200,000	0,002	-0,063
-568,875	245,266	-0,135	-0,163
-567,861	800,000	-0,061	0,146
-566,846	-200,000	-0,007	-0,124
-565,831	75,592	0,076	-0,058
-564,817	800,000	0,020	-0,059
-563,802	52,344	-0,040	-0,027
-562,788	-99,144	-0,130	-0,023
-561,773	7,943	0,109	-0,059
-560,758	187,646	-0,027	0,030
-559,744	-58,484	0,144	0,045
-558,729	-3,375	-0,185	-0,093
-557,715	-140,578	0,243	0,018
-556,700	303,961	0,062	-0,083
-555,685	-82,285	0,085	0,020
-554,671	-200,000	0,032	0,133
-553,656	800,000	0,033	0,100
-552,642	125,205	0,092	0,083
-551,627	-133,932	-0,160	-0,014
-550,612	-200,000	0,005	0,017
-549,598	670,133	0,064	0,119
-548,583	275,169	0,085	-0,109
-547,569	322,724	-0,113	0,156
-546,554	61,996	0,091	0,065
-545,539	80,610	0,051	0,039
-544,525	391,560	0,073	0,109
-543,510	-200,000	-0,011	-0,075
-542,496	800,000	-0,040	-0,103
-541,481	-172,531	0,072	-0,002
-540,466	319,103	-0,047	0,064
-539,452	684,442	0,071	0,133
-538,437	505,335	0,051	-0,086
-537,423	8,017	-0,142	0,076
-536,408	-200,000	-0,023	-0,282
-535,393	800,000	0,054	-0,165
-534,379	-59,495	0,097	-0,030
-533,364	311,234	-0,021	0,029
-532,350	-90,479	0,111	0,023
-531,335	-57,323	0,058	0,018
-530,321	-1,032	-0,026	-0,013
-529,306	58,815	-0,159	-0,112
-528,291	215,945	-0,039	0,045
-527,277	229,638	-0,036	0,042
-526,262	67,156	0,021	0,015
-525,248	92,085	0,084	-0,068
-524,233	-60,429	0,032	0,010
-523,218	390,258	0,023	0,035
-522,204	-146,331	-0,081	0,005
-521,189	-59,436	-0,100	-0,031
-520,175	-61,058	-0,026	0,008
-519,160	-200,000	0,000	-0,022
-518,145	81,192	-0,088	0,069
-517,131	800,000	0,020	0,041
-516,116	-200,000	0,030	0,112
-515,102	19,066	-0,103	0,059
-514,087	138,525	0,066	-0,062
-513,072	-200,000	-0,001	0,081
-512,058	443,057	0,039	-0,062
-511,043	173,327	0,043	0,045
-510,029	31,762	-0,006	-0,004
-509,014	84,314	-0,045	-0,035
-507,999	-36,088	0,156	0,060
-506,985	-104,060	-0,160	-0,026
-505,970	-60,683	0,141	-0,043
-504,956	25,282	-0,103	-0,061
-503,941	280,973	0,025	0,032
-502,926	-68,106	-0,048	0,013
-501,912	-200,000	0,030	0,109
-500,897	800,000	0,027	0,085
-499,883	187,225	-0,036	0,039
-498,868	28,119	-0,078	-0,047
-497,853	-200,000	-0,003	-0,132
-496,839	-145,368	0,023	-0,001
-495,824	-155,523	0,022	0,001
-494,810	186,761	0,059	0,063
-493,795	182,023	-0,012	-0,013
-492,781	305,066	-0,047	0,062
-491,766	800,000	0,010	-0,029
-490,751	113,923	-0,048	-0,042
-489,737	-200,000	0,000	0,031
-488,722	418,035	-0,085	0,131
-487,708	-200,000	0,055	0,180
-486,693	800,000	0,028	0,075
-485,678	-200,000	-0,001	-0,057
-484,664	-200,000	-0,054	-0,180
-483,649	-95,255	-0,058	0,011
-482,635	103,237	0,011	-0,010
-481,620	-135,628	0,086	-0,007
-480,605	-200,000	-0,005	0,041
-479,591	90,682	0,028	0,022
-478,576	502,727	-0,059	0,098
-477,562	69,616	0,035	-0,026
-476,547	-122,952	0,100	-0,011
-475,532	-200,000	-0,024	0,220
-474,518	800,000	-0,058	0,123
-473,503	467,032	-0,051	0,082
-472,489	326,426	-0,027	-0,037
-471,474	-57,774	-0,046	0,014
-470,459	-11,863	-0,093	0,044
-469,445	-200,000	0,005	-0,116
-468,430	170,265	-0,086	0,088
-467,416	-200,000	0,004	0,017
-466,401	-200,000	-0,003	-0,040
-465,386	-14,957	0,087	0,040
-464,372	-200,000	-0,005	0,022
-463,357	-200,000	-0,013	0,184
-462,343	-200,000	-0,012	0,116
-461,328	-200,000	-0,007	0,035
-460,313	370,527	-0,068	0,099
-459,299	766,671	0,099	0,194
-458,284	249,381	0,046	0,057
-457,270	118,538	0,139	0,123
-456,255	-31,682	-0,012	0,005
-455,241	-3,759	0,107	-0,053
-454,226	356,300	-0,082	-0,117
-453,211	16,337	-0,145	0,082
-452,197	800,000	0,042	-0,108
-451,182	298,639	0,130	0,171
-450,168	-136,466	-0,119	-0,010
-449,153	-200,000	-0,009	-0,063
-448,138	-200,000	-0,014	-0,048
-447,124	-51,392	-0,191	-0,064
-446,109	-63,241	0,080	0,023
-445,095	103,338	0,102	-0,086
-444,080	631,120	0,100	-0,181
-443,065	800,000	-0,024	0,063
-442,051	-200,000	0,008	0,060
-441,036	800,000	-0,039	0,079
-440,022	20,228	0,031	-0,018
-439,007	-200,000	0,003	-0,046
-437,992	95,695	-0,115	0,094
-436,978	-200,000	0,005	0,022
-435,963	105,509	-0,073	-0,062
-434,949	-66,526	-0,047	0,013
-433,934	-200,000	-0,008	0,026
-432,919	-200,000	-0,004	-0,123
-431,905	-20,284	0,109	0,048
-430,890	-200,000	-0,010	0,128
-429,876	16,123	0,079	-0,044
-428,861	-27,609	0,050	0,021
-427,846	-78,165	0,036	0,009
-426,832	-57,187	-0,207	-0,065
-425,817	364,157	-0,069	-0,100
-424,803	-200,000	-0,025	0,114
-423,788	-200,000	0,003	0,066
-422,773	800,000	-0,013	0,040
-421,759	381,696	-0,067	0,099
-420,744	64,445	0,128	0,092
-419,730	-87,979	0,057	-0,012
-418,715	-48,362	-0,108	-0,037
-417,701	-200,000	-0,014	-0,066
-416,686	-24,874	0,083	-0,035
-415,671	-200,000	0,030	0,113
-414,657	-200,000	0,012	-0,083
-413,642	-45,360	-0,125	-0,044
-412,628	-29,333	0,065	-0,026
-411,613	20,068	-0,121	0,070
-410,598	-69,843	0,039	-0,011
-409,584	618,909	0,030	0,055
-408,569	-200,000	0,001	0,070
-407,555	-200,000	0,025	0,169
-406,540	221,295	-0,061	0,070
-405,525	-108,889	-0,137	-0,021
-404,511	130,004	-0,061	-0,056
-403,496	679,005	0,018	-0,033
-402,482	800,000	-0,105	-0,210
-401,467	81,965	0,084	0,065
-400,452	-200,000	0,012	0,091
-399,438	210,824	-0,046	-0,051
-398,423	453,837	-0,063	0,100
-397,409	800,000	0,034	-0,069
-396,394	800,000	0,015	0,031
-395,379	-200,000	0,009	0,058
-394,365	-139,455	0,044	-0,003
-393,350	109,261	0,115	-0,099
-392,336	-46,495	-0,021	-0,007
-391,321	-186,942	0,187	-0,002
-390,306	-133,445	-0,103	-0,009
-389,292	-44,181	0,172	0,061
-388,277	-200,000	0,025	-0,132
-387,263	-200,000	0,001	-0,013
-386,248	47,005	0,040	0,027
-385,233	-81,901	0,144	0,033
-384,219	-9,584	-0,014	0,007
-383,204	-200,000	0,003	0,076
-382,190	-15,878	0,106	-0,048
-381,175	-150,200	-0,181	0,010
-380,160	-113,332	-0,074	-0,010
-379,146	-200,000	0,011	-0,106
-378,131	162,094	-0,032	-0,032
-377,117	800,000	0,006	0,014
-376,102	195,890	-0,048	-0,053
-375,088	20,830	0,131	-0,076
-374,073	-200,000	0,003	0,033
-373,058	-200,000	0,001	0,039
-372,044	580,513	0,077	0,136
-371,029	11,593	-0,062	0,034
-370,015	-103,199	-0,041	-0,007
-369,000	800,000	0,019	0,048
-367,985	-200,000	0,024	-0,125
-366,971	41,713	-0,100	-0,065
-365,956	-200,000	0,006	0,081
-364,942	449,811	0,077	0,122
-363,927	-200,000	-0,014	-0,049
-362,912	800,000	-0,096	0,220
-361,898	-125,586	-0,117	0,013
-360,883	-24,730	0,046	-0,020
-359,869	-200,000	-0,048	0,164
-358,854	116,614	-0,090	0,079
-357,839	800,000	0,060	0,147
-356,825	0,347	0,098	0,050
-355,810	-112,298	0,130	-0,018
-354,796	800,000	-0,035	-0,092
-353,781	272,238	-0,021	-0,027
-352,766	-200,000	-0,000	0,025
-351,752	800,000	-0,070	0,172
-350,737	160,067	-0,086	0,085
-349,723	395,657	0,013	0,020
-348,708	-67,941	0,110	-0,031
-347,693	-200,000	0,016	-0,064
-346,679	-200,000	-0,017	-0,175
-345,664	-200,000	-0,013	0,043
-344,650	-41,219	0,096	0,035
-343,635	-82,431	0,185	0,043
-342,620	800,000	0,043	-0,104
-341,606	800,000	-0,055	0,169
-340,591	77,484	0,132	0,100
-339,577	-51,668	0,026	-0,009
-338,562	800,000	0,061	-0,148
-337,548	-200,000	0,043	0,186
-336,533	336,966	0,011	0,016
-335,518	700,645	-0,092	0,174
-334,504	-200,000	-0,003	0,037
-333,489	800,000	-0,013	0,034
-332,475	41,927	-0,007	0,005
-331,460	235,695	-0,172	-0,203
-330,445	647,333	-0,019	0,035
-329,431	800,000	-0,021	0,045
-328,416	576,950	-0,044	-0,077
-327,402	-200,000	0,025	-0,099
-326,387	-200,000	0,017	0,060
-325,372	-47,543	-0,020	-0,007
-324,358	-33,159	0,050	-0,020
-323,343	-84,827	-0,056	0,013
-322,329	-200,000	-0,012	0,084
-321,314	-67,783	0,179	0,050
-320,299	28,195	0,136	0,082
-319,285	107,804	-0,033	0,028
-318,270	177,040	0,012	-0,012
-317,256	44,679	-0,033	0,022
-316,241	800,000	-0,018	-0,049
-315,226	-113,854	0,110	-0,015
-314,212	223,985	0,057	-0,065
-313,197	80,523	0,120	0,092
-312,183	-171,591	-0,055	-0,001
-311,168	-14,739	0,084	-0,038
-310,153	-140,065	0,134	-0,010
-309,139	800,000	-0,030	-0,077
-308,124	-200,000	0,023	0,154
-307,110	-200,000	0,032	0,104
-306,095	-200,000	0,010	-0,060
-305,080	800,000	-0,052	-0,118
-304,066	36,439	0,108	0,068
-303,051	-200,000	-0,003	-0,116
-302,037	149,228	0,041	0,039
-301,022	789,001	0,080	0,157
-300,008	-10,087	-0,031	0,014
-298,993	-98,747	0,072	-0,013
-297,978	-57,438	0,047	-0,015
-296,964	50,634	0,039	-0,027
-295,949	129,853	0,044	0,040
-294,935	12,155	-0,130	-0,071
-293,920	-62,600	-0,040	0,012
-292,905	800,000	-0,079	0,169
-291,891	21,947	0,067	0,039
-290,876	-200,000	0,010	-0,086
-289,862	210,032	-0,117	-0,131
-288,847	309,922	0,059	-0,078
-287,832	-200,000	-0,025	-0,136
-286,818	-200,000	0,007	-0,069
-285,803	376,533	-0,057	-0,083
-284,789	17,443	-0,043	-0,024
-283,774	800,000	-0,016	-0,040
-282,759	-200,000	0,021	-0,111
-281,745	-31,610	-0,140	0,056
-280,730	286,782	-0,027	-0,035
-279,716	-142,823	-0,103	0,007
-278,701	-87,887	0,124	-0,026
-277,686	150,452	0,042	-0,041
-276,672	-200,000	-0,002	0,138
-275,657	21,977	-0,093	0,054
-274,643	-128,004	0,078	-0,008
-273,628	-200,000	-0,012	-0,076
-272,613	190,871	0,026	0,028
-271,599	280,080	0,067	0,086
-270,584	158,175	0,029	-0,028
-269,570	120,141	-0,085	0,075
-268,555	-85,617	0,091	0,020
-267,540	314,039	-0,091	-0,123
-266,526	-200,000	0,060	-0,199
-265,511	-9,342	-0,100	-0,047
-264,497	-200,000	0,025	-0,136
-263,482	-60,181	0,067	-0,020
-262,467	-200,000	-0,010	0,181
-261,453	-200,000	-0,003	-0,052
-260,438	249,008	-0,027	-0,032
-259,424	704,252	0,044	-0,084
-258,409	120,682	-0,256	-0,226
-257,395	152,121	0,051	-0,050
-256,380	73,889	-0,052	0,038
-255,365	800,000	0,041	0,112
-254,351	177,982	0,051	0,053
-253,336	-200,000	0,006	0,116
-252,322	122,911	-0,096	0,086
-251,307	304,204	0,023	-0,030
-250,292	-56,914	0,122	-0,038
-249,278	197,567	-0,028	0,031
-248,263	-68,378	-0,146	0,040
-247,249	-35,783	0,058	0,022
-246,234	-86,326	-0,054	-0,012
-245,219	800,000	-0,051	-0,140
-244,205	233,036	-0,080	-0,094
-243,190	-200,000	-0,011	0,110
-242,176	6,195	0,108	-0,057
-241,161	4,140	0,075	0,039
-240,146	800,000	-0,029	-0,081
-239,132	-162,363	0,040	-0,001
-238,117	452,083	-0,036	-0,057
-237,103	-39,102	0,120	-0,045
-236,088	-105,315	0,095	-0,015
-235,073	-34,077	-0,021	0,008
-234,059	132,647	0,058	-0,053
-233,044	34,062	0,066	0,041
-232,030	95,586	0,074	-0,060
-231,015	-200,000	-0,033	-0,122
-230,000	521,867	0,009	0,015
-228,986	0,331	0,105	0,053
-227,971	18,593	-0,067	-0,038
-226,957	-113,107	0,039	0,005
-225,942	-133,764	-0,069	-0,006
-224,927	-26,880	0,070	-0,029
-223,913	800,000	0,025	-0,049
-222,898	196,654	0,049	-0,053
-221,884	263,992	-0,025	0,032
-220,869	215,386	-0,093	-0,105
-219,855	-131,344	0,093	0,009
-218,840	8,592	0,067	-0,036
-217,825	-200,000	0,010	0,077
-216,811	800,000	-0,075	-0,151
-215,796	-13,168	-0,152	-0,070
-214,782	-144,772	0,104	-0,007
-213,767	278,876	-0,042	0,053
-212,752	305,176	-0,067	-0,088
-211,738	104,791	-0,044	0,036
-210,723	-59,641	-0,050	0,015
-209,709	-80,954	-0,198	0,046
-208,694	164,733	-0,051	-0,051
-207,679	-41,015	0,029	-0,010
-206,665	-52,578	0,093	0,030
-205,650	-48,402	0,106	0,036
-204,636	-200,000	0,006	0,041
-203,621	214,165	-0,111	-0,125
-202,606	220,270	-0,052	-0,059
-201,592	-155,569	-0,038	-0,002
-200,577	-152,354	0,045	-0,002
-199,563	76,250	0,121	0,091
-198,548	-101,298	0,124	0,021
-197,533	-48,700	0,249	0,084
-196,519	-74,903	0,139	-0,035
-195,504	-2,726	-0,045	0,022
-194,490	-161,273	-0,080	-0,003
-193,475	800,000	-0,055	-0,143
-192,460	800,000	0,040	0,113
-191,446	-200,000	-0,003	0,048
-190,431	-200,000	-0,014	0,072
-189,417	800,000	0,008	0,024
-188,402	-200,000	-0,002	-0,084
-187,387	535,709	0,035	-0,058
-186,373	-76,628	0,032	-0,008
-185,358	278,351	-0,044	-0,056
-184,344	157,859	-0,041	0,041
-183,329	167,786	0,094	0,095
-182,315	224,124	0,189	0,216
-181,300	-200,000	-0,019	0,065
-180,285	-126,316	-0,023	-0,002
-179,271	-200,000	-0,030	-0,171
-178,256	91,286	0,038	-0,030
-177,242	2,388	0,058	-0,030
-176,227	605,993	-0,040	0,071
-175,212	800,000	-0,026	0,067
-174,198	168,062	-0,035	-0,036
-173,183	116,144	-0,100	-0,086
-172,169	-200,000	-0,013	-0,055
-171,154	-200,000	0,005	-0,213
-170,139	-200,000	-0,015	0,097
-169,125	-200,000	-0,007	0,160
-168,110	-200,000	0,012	0,065
-167,096	474,374	-0,035	0,056
-166,081	-44,772	-0,067	0,024
-165,066	-56,044	-0,097	-0,030
-164,052	332,453	-0,104	-0,143
-163,037	-114,879	0,040	0,005
-162,023	-107,150	-0,026	-0,004
-161,008	247,224	0,031	0,037
-159,993	-0,657	0,111	-0,056
-158,979	-26,183	-0,023	-0,010
-157,964	47,634	-0,166	-0,110
-156,950	-200,000	0,009	-0,040
-155,935	800,000	-0,055	-0,161
-154,920	-79,240	0,140	-0,033
-153,906	-33,163	-0,005	-0,002
-152,891	-51,459	-0,061	0,020
-151,877	-145,968	-0,124	-0,008
-150,862	57,612	-0,091	0,063
-149,847	-200,000	-0,001	-0,042
-148,833	788,504	0,032	0,063
-147,818	12,378	0,045	-0,024
-146,804	770,843	-0,037	0,071
-145,789	-185,242	-0,023	0,000
-144,775	763,422	0,019	-0,038
-143,760	-94,931	-0,025	-0,005
-142,745	404,775	-0,071	0,107
-141,731	-200,000	0,014	0,075
-140,716	800,000	0,048	0,105
-139,702	800,000	-0,022	0,053
-138,687	7,004	-0,165	-0,087
-137,672	800,000	0,028	-0,068
-136,658	-22,702	-0,060	-0,025
-135,643	-200,000	-0,010	-0,071
-134,629	21,114	0,111	-0,064
-133,614	-200,000	-0,017	0,089
-132,599	182,880	-0,057	0,060
-131,585	-32,977	0,069	0,027
-130,570	-33,074	-0,038	-0,015
-129,556	656,226	0,071	-0,130
-128,541	198,457	0,085	-0,093
-127,526	351,083	-0,019	-0,027
-126,512	-200,000	-0,009	0,038
-125,497	625,047	-0,043	-0,077
-124,483	405,148	-0,115	-0,172
-123,468	-200,000	-0,031	0,111
-122,453	-60,360	0,103	-0,031
-121,439	-200,000	-0,027	-0,097
-120,424	-94,005	0,062	-0,012
-119,410	-200,000	0,004	-0,028
-118,395	189,760	0,057	0,061
-117,380	-17,381	0,098	-0,043
-116,366	-200,000	-0,005	-0,036
-115,351	-200,000	-0,012	-0,088
-114,337	92,719	-0,087	-0,070
-113,322	425,924	-0,048	-0,073
-112,307	-200,000	0,032	0,101
-111,293	-200,000	-0,002	0,030
-110,278	543,799	-0,036	-0,060
-109,264	373,245	-0,008	0,012
-108,249	182,130	-0,058	0,061
-107,234	-64,098	-0,073	0,021
-106,220	800,000	0,025	0,060
-105,205	565,049	0,059	-0,101
-104,191	43,607	-0,075	-0,049
-103,176	-56,517	0,172	0,054
-102,162	90,937	-0,036	0,029
-101,147	-200,000	-0,029	0,100
-100,132	800,000	0,031	-0,072
-99,118	301,012	-0,058	-0,076
-98,103	654,293	0,059	-0,108
-97,089	103,286	0,086	0,071
-96,074	-200,000	0,003	0,130
-95,059	30,158	0,055	0,033
-94,045	800,000	0,038	-0,083
-93,030	538,861	-0,059	0,099
-92,016	-98,866	-0,084	0,015
-91,001	-50,716	0,110	0,036
-89,986	800,000	0,015	0,035
-88,972	800,000	0,064	0,144
-87,957	169,914	-0,074	-0,074
-86,943	47,329	-0,068	-0,044
-85,928	45,092	-0,043	-0,028
-84,913	-200,000	-0,008	-0,025
-83,899	-200,000	0,009	-0,203
-82,884	-42,403	0,114	-0,041
-81,870	-200,000	-0,024	-0,121
-80,855	17,896	0,117	0,066
-79,840	800,000	-0,049	-0,122
-78,826	287,602	-0,045	0,057
-77,811	-200,000	0,009	0,082
-76,797	-200,000	0,011	-0,106
-75,782	-81,439	0,088	0,020
-74,767	-200,000	0,012	-0,064
-73,753	-151,880	-0,151	0,008
-72,738	800,000	0,016	0,032
-71,724	438,557	0,086	0,133
-70,709	-26,474	-0,162	-0,067
-69,694	547,113	-0,029	-0,049
-68,680	-12,363	0,050	0,023
-67,665	-145,652	-0,068	0,004
-66,651	176,326	0,073	-0,075
-65,636	-135,910	-0,130	-0,011
-64,622	-60,439	-0,055	0,016
-63,607	38,949	-0,015	0,009
-62,592	-40,086	-0,064	0,023
-61,578	7,436	0,119	-0,063
-60,563	-200,000	-0,029	-0,131
-59,549	-200,000	0,033	0,148
-58,534	58,167	-1,923	-1,329
-57,519	445,292	-1,290	-2,007
-56,505	-200,000	-0,367	-4,483
-55,490	468,613	0,967	1,538
-54,476	800,000	5,105	11,329
-53,461	-200,000	21,703	344,648
-52,446	800,000	763,333	2345,051
-51,432	547,255	1662,554	2818,938
-50,417	71,550	1659,150	1214,761
-49,403	17,267	1532,686	856,019
-48,388	11,316	1456,420	784,665
-47,373	19,362	1448,049	818,704
-46,359	14,867	1436,985	791,065
-45,344	9,632	1432,784	763,813
-44,330	9,528	1431,221	762,456
-43,315	9,553	1429,041	761,380
-42,300	9,558	1427,339	760,471
-41,286	9,602	1426,067	759,968
-40,271	9,576	1424,877	759,180
-39,257	9,553	1423,782	758,462
-38,242	9,604	1422,572	758,028
-37,227	9,557	1421,562	757,236
-36,213	9,581	1420,333	756,662
-35,198	9,571	1418,966	755,859
-34,184	9,626	1418,354	755,764
-33,169	9,545	1416,562	754,396
-32,154	9,577	1415,736	754,079
-31,140	9,603	1414,436	753,475
-30,125	9,656	1413,079	752,975
-29,111	9,550	1412,243	752,000
-28,096	9,554	1411,067	751,362
-27,082	9,546	1409,602	750,514
-26,067	9,491	1409,026	749,921
-25,052	9,545	1407,774	749,479
-24,038	9,498	1406,976	748,805
-23,023	9,530	1405,945	748,372
-22,009	9,544	1404,924	747,865
-20,994	9,550	1403,784	747,257
-19,979	9,544	1402,802	746,678
-18,965	9,523	1401,710	745,970
-17,950	9,506	1400,948	745,454
-16,936	9,480	1400,162	744,886
-15,921	9,432	1399,389	744,223
-14,906	9,441	1398,449	743,735
-13,892	9,450	1397,383	743,181
-12,877	9,501	1396,441	742,885
-11,863	9,417	1395,941	742,201
-10,848	9,378	1395,120	741,554
-9,833	9,361	1393,885	740,789
-8,819	9,369	1393,091	740,376
-7,804	9,368	1392,061	739,792
-6,790	9,332	1391,177	739,127
-5,775	9,364	1390,031	738,638
-4,760	9,347	1389,073	738,022
-3,746	9,334	1388,147	737,439
-2,731	9,340	1387,346	737,013
-1,717	9,351	1386,315	736,486
-0,702	9,356	1384,583	735,561
0,313	13,369	1297,065	707,399
1,327	29,409	687,634	411,278
2,342	45,739	118,897	77,375
3,356	1,743	16,578	8,397
4,371	7,803	3,541	1,865
5,386	18,171	1,196	0,671
6,400	-200,000	0,170	0,549
7,415	-58,331	-0,167	-0,051
8,429	-4,996	-0,471	-0,228
9,444	-96,095	-0,312	-0,058
10,459	-21,684	-0,305	-0,131
11,473	-14,891	-0,216	-0,097
12,488	69,363	-0,227	-0,164
13,502	47,118	-0,334	-0,218
14,517	325,585	-0,119	-0,160
15,531	-5,981	-0,436	-0,209
16,546	165,172	-0,246	-0,245
17,561	162,260	-0,335	-0,331
18,575	48,706	-0,244	-0,161
19,590	158,648	-0,195	-0,191
20,604	399,974	-0,087	-0,129
21,619	137,918	-0,367	-0,338
22,634	76,645	-0,487	-0,363
23,648	115,204	-0,372	-0,320
24,663	145,743	-0,356	-0,336
25,677	62,751	-0,389	-0,274
26,692	171,658	-0,286	-0,289
27,707	-9,051	-0,314	-0,147
28,721	41,037	-0,334	-0,212
29,736	138,162	-0,396	-0,365
30,750	115,221	-0,352	-0,303
31,765	12,608	-0,489	-0,265
32,780	12,482	-0,365	-0,198
33,794	63,123	-0,379	-0,266
34,809	80,890	-0,391	-0,296
35,823	104,172	-0,316	-0,262
36,838	1,788	-0,385	-0,194
37,853	72,611	-0,295	-0,216
38,867	60,578	-0,424	-0,295
39,882	90,097	-0,225	-0,176
40,896	42,403	-0,348	-0,222
41,911	24,149	-0,393	-0,227
42,926	-87,443	-0,425	-0,090
43,940	129,120	-0,351	-0,315
44,955	151,370	-0,303	-0,290
45,969	79,438	-0,332	-0,250
46,984	86,004	-0,228	-0,176
47,999	-19,114	-0,348	-0,151
49,013	61,306	-0,176	-0,123
50,028	340,066	-0,227	-0,313
51,042	-29,446	-0,377	-0,151
52,057	218,041	-0,305	-0,342
53,071	340,268	-0,246	-0,337
54,086	152,134	-0,295	-0,282
55,101	122,388	-0,300	-0,263
56,115	75,749	-0,399	-0,296
57,130	275,622	-0,325	-0,406
58,144	34,447	-0,349	-0,213
59,159	310,484	-0,249	-0,328
60,174	175,214	-0,263	-0,268
61,188	73,635	-0,391	-0,287
62,203	146,044	-0,234	-0,220
63,217	-49,983	-0,272	-0,090
64,232	31,325	-0,412	-0,248
65,247	31,886	-0,394	-0,237
66,261	1,013	-0,385	-0,193
67,276	31,310	-0,270	-0,163
68,290	348,799	-0,184	-0,255
69,305	112,362	-0,258	-0,219
70,320	129,312	-0,311	-0,279
71,334	-32,788	-0,299	-0,116
72,349	32,823	-0,331	-0,200
73,363	145,144	-0,248	-0,232
74,378	101,978	-0,331	-0,271
75,393	223,174	-0,320	-0,362
76,407	260,513	-0,174	-0,211
77,422	50,764	-0,206	-0,136
78,436	192,672	-0,279	-0,295
79,451	132,985	-0,177	-0,160
80,466	31,589	-0,358	-0,215
81,480	165,403	-0,224	-0,221
82,495	418,986	-0,164	-0,247
83,509	-30,135	-0,296	-0,117
84,524	62,613	-0,249	-0,174
85,539	-33,027	-0,182	-0,070
86,553	-13,090	-0,225	-0,102
87,568	128,833	-0,289	-0,258
88,582	-115,246	-0,378	-0,050
89,597	166,953	-0,171	-0,170
90,611	-49,897	-0,387	-0,128
91,626	-21,992	-0,295	-0,125
92,641	146,323	-0,183	-0,172
93,655	154,272	-0,187	-0,179
94,670	61,408	-0,338	-0,235
95,684	162,622	-0,244	-0,239
96,699	-12,612	-0,254	-0,116
97,714	-5,696	-0,346	-0,165
98,728	-87,385	-0,224	0,047
99,743	33,995	-0,278	-0,169
100,757	264,059	-0,195	-0,238
101,772	-60,839	-0,199	-0,059
102,787	201,549	-0,277	-0,298
103,801	116,712	-0,337	-0,289
104,816	527,789	-0,090	-0,149
105,830	-76,271	-0,218	-0,053
106,845	13,887	-0,173	-0,094
107,860	84,304	-0,141	-0,108
108,874	-17,346	-0,321	-0,141
109,889	162,535	-0,274	-0,269
110,903	295,450	-0,207	-0,266
111,918	-26,641	-0,266	-0,108
112,933	-149,557	-0,176	-0,010
113,947	-39,641	-0,131	-0,048
114,962	-65,819	-0,274	-0,076
115,976	232,635	-0,189	-0,218
116,991	338,309	-0,205	-0,280
118,006	313,058	-0,155	-0,204
119,020	800,000	-0,150	-0,315
120,035	70,524	-0,274	-0,198
121,049	800,000	-0,108	-0,263
122,064	-96,372	-0,309	-0,057
123,079	71,194	-0,283	-0,205
124,093	489,835	-0,198	-0,318
125,108	207,470	-0,251	-0,274
126,122	12,721	-0,363	-0,195
127,137	372,353	-0,232	-0,330
128,151	216,349	-0,263	-0,293
129,166	194,257	-0,154	-0,163
130,181	21,940	-0,285	-0,162
131,195	779,806	-0,198	-0,379
132,210	95,988	-0,224	-0,178
133,224	226,014	-0,218	-0,247
134,239	193,123	-0,229	-0,242
135,254	-46,546	-0,304	-0,103
136,268	353,962	-0,203	-0,282
137,283	308,161	-0,124	-0,162
138,297	31,617	-0,256	-0,153
139,312	349,015	-0,205	-0,282
140,327	208,379	-0,233	-0,254
141,341	-39,560	-0,219	-0,079
142,356	51,910	-0,206	-0,137
143,370	140,562	-0,192	-0,177
144,385	800,000	-0,053	-0,155
145,400	96,763	-0,295	-0,235
146,414	476,262	-0,168	-0,265
147,429	324,204	-0,168	-0,223
148,443	298,933	-0,219	-0,281
149,458	25,881	-0,115	-0,066
150,473	-63,977	-0,240	-0,068
151,487	800,000	-0,078	-0,151
152,502	-29,859	-0,348	-0,137
153,516	392,567	-0,155	-0,225
154,531	200,474	-0,157	-0,169
155,546	764,519	-0,128	-0,243
156,560	8,322	-0,318	-0,166
157,575	-98,200	-0,290	-0,051
158,589	214,639	-0,190	-0,210
159,604	169,719	-0,233	-0,232
160,619	126,920	-0,345	-0,304
161,633	137,669	-0,204	-0,186
162,648	205,493	-0,166	-0,180
163,662	13,677	-0,197	-0,106
164,677	-79,789	-0,261	-0,061
165,692	-62,246	-0,145	-0,042
166,706	163,230	-0,179	-0,175
167,721	-39,646	-0,141	-0,051
168,735	29,369	-0,302	-0,178
169,750	103,207	-0,212	-0,172
170,764	800,000	-0,117	-0,234
171,779	237,019	-0,104	-0,120
172,794	800,000	-0,041	-0,096
173,808	49,896	-0,344	-0,225
174,823	129,598	-0,194	-0,172
175,837	800,000	-0,121	-0,347
176,852	527,704	-0,136	-0,224
177,867	4,380	-0,216	-0,109
178,881	107,788	-0,136	-0,112
179,896	-200,000	0,027	-0,089
180,910	-110,286	-0,269	-0,039
181,925	137,196	-0,294	-0,267
182,940	123,029	-0,117	-0,101
183,954	155,779	-0,199	-0,191
184,969	75,391	-0,189	-0,139
185,983	430,669	-0,122	-0,185
186,998	39,449	-0,297	-0,185
188,013	0,324	-0,152	0,075
189,027	141,359	-0,198	-0,182
190,042	165,521	-0,256	-0,251
191,056	-44,539	-0,120	-0,041
192,071	199,776	-0,163	-0,174
193,086	552,378	-0,059	-0,099
194,100	497,733	-0,056	-0,089
195,115	435,448	-0,149	-0,226
196,129	377,472	-0,152	-0,216
197,144	-16,699	-0,271	-0,118
198,159	77,662	-0,227	-0,168
199,173	152,842	-0,247	-0,234
200,188	800,000	-0,068	-0,206
201,202	800,000	-0,083	-0,187
202,217	-17,727	-0,268	-0,116
203,232	12,352	-0,238	-0,127
204,246	291,354	-0,133	-0,168
205,261	262,688	-0,094	-0,113
206,275	-24,693	-0,166	-0,068
207,290	104,467	-0,187	-0,152
208,304	-86,400	-0,239	-0,050
209,319	174,950	-0,147	-0,148
210,334	143,863	-0,203	-0,188
211,348	17,553	-0,248	-0,136
212,363	108,918	-0,230	-0,190
213,377	232,799	-0,123	-0,140
214,392	324,492	-0,062	-0,082
215,407	144,904	-0,069	-0,064
216,421	0,393	-0,233	-0,115
217,436	-33,433	-0,318	-0,121
218,450	-17,506	-0,259	-0,112
219,465	203,699	-0,220	-0,236
220,480	55,933	-0,186	-0,125
221,494	201,247	-0,188	-0,201
222,509	-119,221	-0,162	0,019
223,523	-14,279	-0,133	-0,059
224,538	110,019	-0,232	-0,193
225,553	175,665	-0,182	-0,182
226,567	-200,000	-0,102	-0,359
227,582	237,476	-0,174	-0,200
228,596	310,287	-0,160	-0,208
229,611	-29,590	-0,298	-0,117
230,626	158,830	-0,124	-0,119
231,640	800,000	-0,045	-0,108
232,655	65,067	-0,266	-0,185
233,669	219,902	-0,262	-0,290
234,684	55,458	-0,227	-0,151
235,699	733,150	-0,115	-0,213
236,713	-14,134	-0,134	-0,060
237,728	7,231	-0,140	-0,072
238,742	-200,000	0,015	-0,086
239,757	800,000	-0,024	-0,056
240,772	4,766	-0,155	-0,078
241,786	237,905	-0,159	-0,182
242,801	119,964	-0,134	-0,114
243,815	-63,495	-0,192	-0,054
244,830	47,062	-0,218	-0,140
245,844	800,000	-0,101	-0,201
246,859	48,159	-0,197	-0,127
247,874	176,385	-0,177	-0,178
248,888	-5,607	-0,258	-0,122
249,903	800,000	-0,041	-0,097
250,917	82,505	-0,135	-0,101
251,932	-25,845	-0,179	-0,072
252,947	4,878	-0,162	-0,082
253,961	2,261	-0,298	-0,148
254,976	220,943	-0,171	-0,190
255,990	610,717	-0,180	-0,312
257,005	428,853	-0,129	-0,194
258,020	43,694	-0,193	-0,121
259,034	270,321	-0,077	-0,094
260,049	171,798	-0,079	0,078
261,063	-51,072	-0,222	-0,071
262,078	56,577	-0,184	-0,123
263,093	274,499	-0,207	-0,253
264,107	800,000	-0,042	-0,087
265,122	-200,000	-0,012	-0,108
266,136	800,000	-0,059	-0,121
267,151	-99,041	-0,276	-0,048
268,166	34,233	-0,212	-0,127
269,180	-150,198	-0,090	-0,005
270,195	194,826	-0,175	-0,183
271,209	-187,699	-0,143	-0,001
272,224	-200,000	-0,027	-0,213
273,239	-0,181	-0,204	-0,100
274,253	-74,235	-0,184	-0,045
275,268	646,814	-0,106	-0,187
276,282	33,920	-0,231	-0,138
277,297	-76,372	-0,178	-0,043
278,312	114,699	-0,285	-0,240
279,326	-38,395	-0,158	-0,057
280,341	565,976	-0,118	-0,198
281,355	67,337	-0,144	-0,101
282,370	-111,631	-0,167	0,023
283,384	68,403	-0,200	-0,141
284,399	382,810	-0,201	-0,285
285,414	31,876	-0,326	-0,193
286,428	-69,230	-0,150	-0,039
287,443	-132,702	-0,124	-0,011
288,457	17,100	-0,192	-0,104
289,472	-17,629	-0,185	-0,080
290,487	-9,812	-0,243	-0,111
291,501	96,681	-0,135	-0,106
292,516	-45,907	-0,113	-0,038
293,530	223,419	-0,089	-0,099
294,545	-32,139	-0,182	-0,070
295,560	84,724	-0,127	-0,095
296,574	21,724	-0,186	-0,104
297,589	34,735	-0,167	-0,100
298,603	800,000	-0,131	-0,287
299,618	141,365	-0,142	-0,129
300,633	-187,042	-0,138	-0,001
301,647	575,872	-0,096	-0,162
302,662	800,000	-0,058	-0,132
303,676	24,548	-0,158	-0,090
304,691	-170,253	-0,063	-0,001
305,706	113,493	-0,148	-0,123
306,720	340,976	-0,109	-0,147
307,735	54,021	-0,163	-0,108
308,749	36,652	-0,146	-0,088
309,764	-200,000	0,035	-0,220
310,779	-200,000	-0,023	-0,115
311,793	416,096	-0,061	-0,090
312,808	95,662	-0,129	-0,101
313,822	183,646	-0,085	-0,086
314,837	665,718	-0,127	-0,226
315,852	-200,000	0,006	-0,200
316,866	-128,806	-0,149	0,014
317,881	286,288	-0,062	-0,077
318,895	-45,922	-0,171	-0,057
319,910	-33,858	-0,174	-0,065
320,925	201,913	-0,136	-0,144
321,939	-200,000	-0,020	-0,183
322,954	458,251	0,046	-0,071
323,968	389,673	-0,107	-0,153
324,983	-200,000	-0,006	-0,029
325,997	-42,868	-0,126	-0,044
327,012	-200,000	-0,062	-0,217
328,027	-19,561	-0,237	-0,100
329,041	116,880	-0,135	-0,114
330,056	-200,000	-0,006	-0,121
331,070	31,007	-0,109	-0,064
332,085	8,944	-0,177	-0,091
333,100	510,509	-0,086	-0,138
334,114	800,000	-0,092	-0,199
335,129	800,000	-0,083	-0,210
336,143	226,471	-0,093	-0,103
337,158	-62,460	-0,140	-0,039
338,173	54,597	-0,180	-0,119
339,187	507,146	-0,032	-0,051
340,202	118,331	-0,106	-0,089
341,216	-37,988	-0,161	-0,058
342,231	-163,682	-0,088	-0,003
343,246	200,476	-0,063	-0,066
344,260	417,961	-0,053	-0,078
345,275	-81,429	-0,032	-0,007
346,289	46,620	-0,089	-0,056
347,304	-118,810	-0,137	-0,016
348,319	-30,171	-0,099	-0,038
349,333	-15,726	-0,177	-0,077
350,348	183,422	-0,143	-0,144
351,362	180,625	-0,040	-0,041
352,377	800,000	-0,045	0,108
353,392	71,100	-0,164	0,116
354,406	102,880	-0,080	0,064
355,421	206,493	1309,680	1396,250
356,435	158,809	1469,741	1396,707
