DTS Sentinel unit serial number:	SN410029Multiplexer serial number:	ORYXHardware model number:	OX2-SRSoftware version number:	ORYX F/W v4,00 Oryx Data Collector v3.7.2.0data status	okinstallation	B3 Nyhavnadifferential loss correction	single-endedforward channel	channel 1reverse channel	N/Adate	2023/11/30time	07:02:30forward acquisition time	300,00reverse acquisition time	0,00gamma	499,1914k internal	0,3210k external	0,3210temperature offset calibration	1,0000default loss term (dB/km)	0,3820temperature slope calibration	1,0000multiplexer offset coefficient	1,0000multiplexer slope coefficient	1,0000fibre end	0,00T internal ref (°C)	10,12T ext. ref 1 (°C)	-5,72T ext. ref 2 (°C)	-5,84length (m)	temperature (°C)	Stokes	anti-Stokes-744,400	381,227	-0,206	-0,307
-743,385	-200,000	-0,018	0,301
-742,371	800,000	-0,101	-0,231
-741,356	-200,000	0,012	0,236
-740,342	129,541	-0,187	-0,174
-739,327	-200,000	-0,085	0,284
-738,312	721,069	-0,145	-0,281
-737,298	800,000	-0,088	0,181
-736,283	600,518	-0,174	-0,315
-735,269	800,000	-0,065	0,199
-734,254	333,272	-0,154	-0,216
-733,239	-125,222	-0,179	0,020
-732,225	347,145	-0,170	-0,244
-731,210	800,000	0,038	0,107
-730,196	800,000	-0,044	0,115
-729,181	-1,625	0,150	-0,076
-728,167	-200,000	-0,120	0,000
-727,152	220,116	-0,121	-0,141
-726,137	-26,059	0,070	-0,030
-725,123	800,000	-0,017	-0,039
-724,108	-55,134	0,058	0,019
-723,094	-83,567	-0,107	-0,025
-722,079	97,292	0,115	-0,096
-721,064	182,329	-0,109	-0,116
-720,050	-200,000	-0,001	-0,019
-719,035	-8,406	-0,082	0,040
-718,021	480,735	-0,050	-0,083
-717,006	138,149	-0,084	0,079
-715,991	98,762	-0,042	0,035
-714,977	657,817	-0,019	-0,036
-713,962	2,530	-0,108	-0,056
-712,948	195,636	0,013	0,014
-711,933	-200,000	0,021	0,107
-710,918	-19,700	0,068	-0,030
-709,904	-15,961	0,028	-0,013
-708,889	-2,088	-0,200	0,101
-707,875	177,522	-0,194	-0,205
-706,860	-200,000	0,000	-0,022
-705,845	800,000	-0,043	0,105
-704,831	56,147	0,080	0,056
-703,816	303,750	0,034	0,046
-702,802	78,646	-0,096	-0,074
-701,787	94,613	-0,141	-0,116
-700,772	109,202	-0,107	-0,093
-699,758	-200,000	-0,011	-0,149
-698,743	-200,000	0,009	0,146
-697,729	179,622	0,159	0,168
-696,714	-40,250	-0,067	-0,025
-695,699	800,000	0,055	-0,116
-694,685	-200,000	0,022	-0,110
-693,670	-1,665	-0,108	0,055
-692,656	466,565	0,054	-0,088
-691,641	-25,125	-0,053	-0,023
-690,627	381,921	0,038	-0,057
-689,612	-99,100	-0,190	-0,034
-688,597	-168,152	-0,124	-0,003
-687,583	16,079	-0,121	-0,069
-686,568	186,235	-0,072	0,077
-685,554	220,185	0,087	-0,102
-684,539	-200,000	-0,003	0,028
-683,524	109,438	-0,028	-0,025
-682,510	-136,780	-0,069	-0,006
-681,495	21,628	-0,091	-0,053
-680,481	22,667	-0,080	-0,047
-679,466	-53,374	-0,043	0,014
-678,451	96,395	-0,024	-0,020
-677,437	-200,000	0,018	0,065
-676,422	-93,894	0,114	0,023
-675,408	-134,313	-0,047	0,004
-674,393	3,405	-0,105	0,055
-673,378	-147,262	-0,082	-0,005
-672,364	40,354	-0,157	-0,102
-671,349	666,600	-0,039	-0,074
-670,335	-200,000	-0,021	-0,131
-669,320	158,348	0,026	0,027
-668,305	800,000	0,014	-0,036
-667,291	73,574	-0,090	0,068
-666,276	800,000	-0,095	0,268
-665,262	800,000	-0,036	-0,081
-664,247	-144,600	-0,228	0,015
-663,232	-23,262	-0,039	0,017
-662,218	-200,000	0,000	0,176
-661,203	778,196	-0,026	0,052
-660,189	-200,000	0,002	0,063
-659,174	-200,000	0,005	0,109
-658,159	148,684	-0,063	-0,062
-657,145	-42,566	0,105	0,039
-656,130	-91,748	-0,103	0,021
-655,116	325,459	0,032	-0,044
-654,101	195,671	0,090	-0,099
-653,086	-200,000	-0,018	-0,136
-652,072	331,566	0,042	-0,059
-651,057	800,000	0,071	-0,142
-650,043	262,710	-0,019	-0,024
-649,028	800,000	0,058	-0,141
-648,014	-120,742	0,106	0,013
-646,999	-34,798	0,056	0,022
-645,984	-200,000	-0,020	-0,114
-644,970	-200,000	0,007	-0,116
-643,955	-200,000	0,007	-0,106
-642,941	56,408	-0,095	-0,066
-641,926	351,771	-0,035	-0,050
-640,911	105,412	-0,053	-0,045
-639,897	-54,251	0,061	-0,020
-638,882	-112,292	0,079	0,011
-637,868	721,320	-0,022	-0,043
-636,853	-200,000	0,037	-0,124
-635,838	-161,098	-0,127	-0,005
-634,824	-200,000	-0,005	0,035
-633,809	-128,722	0,061	0,006
-632,795	-200,000	0,009	0,035
-631,780	44,161	-0,094	0,062
-630,765	118,969	0,036	0,032
-629,751	-200,000	0,004	-0,111
-628,736	391,458	-0,049	0,073
-627,722	-200,000	0,015	-0,087
-626,707	800,000	-0,010	0,026
-625,692	800,000	-0,033	0,078
-624,678	-45,104	-0,073	-0,026
-623,663	-37,560	-0,141	-0,054
-622,649	800,000	0,042	0,095
-621,634	302,279	0,009	-0,012
-620,619	507,676	0,044	-0,074
-619,605	-200,000	0,009	0,084
-618,590	-200,000	0,019	0,110
-617,576	-200,000	-0,001	0,065
-616,561	-200,000	0,011	-0,074
-615,546	262,408	-0,088	0,110
-614,532	-200,000	-0,016	-0,155
-613,517	222,717	-0,070	-0,081
-612,503	166,865	-0,032	0,033
-611,488	593,078	-0,015	0,027
-610,474	268,105	0,086	0,109
-609,459	-83,820	0,037	-0,008
-608,444	-157,397	-0,142	0,006
-607,430	131,544	0,038	-0,035
-606,415	800,000	-0,026	-0,079
-605,401	-73,797	0,097	-0,025
-604,386	800,000	-0,028	0,069
-603,371	207,806	0,151	0,171
-602,357	-141,807	-0,047	-0,003
-601,342	-82,363	-0,083	-0,019
-600,328	54,430	-0,118	-0,082
-599,313	-73,711	-0,037	-0,010
-598,298	-99,503	-0,150	-0,027
-597,284	-200,000	0,010	0,081
-596,269	-200,000	0,010	-0,106
-595,255	-87,751	0,047	0,010
-594,240	297,022	-0,107	-0,141
-593,225	3,534	-0,034	-0,018
-592,211	7,509	-0,109	-0,059
-591,196	800,000	-0,035	0,072
-590,182	620,540	-0,032	0,059
-589,167	-112,242	0,157	-0,023
-588,152	19,107	0,024	0,014
-587,138	37,598	0,118	-0,075
-586,123	800,000	0,055	0,157
-585,109	800,000	-0,026	-0,051
-584,094	15,516	-0,119	-0,067
-583,079	-74,318	0,065	-0,017
-582,065	41,753	0,036	-0,023
-581,050	73,892	-0,119	0,090
-580,036	-66,884	0,041	0,011
-579,021	-13,314	-0,097	0,045
-578,006	-200,000	0,027	-0,087
-576,992	-29,800	-0,155	0,063
-575,977	-19,264	-0,036	0,016
-574,963	-200,000	-0,007	-0,059
-573,948	51,647	0,051	-0,035
-572,934	106,099	0,056	-0,048
-571,919	615,066	-0,026	-0,047
-570,904	158,763	-0,047	0,047
-569,890	338,660	-0,110	0,154
-568,875	157,180	0,054	-0,054
-567,861	626,675	0,051	0,093
-566,846	-140,604	0,121	-0,009
-565,831	-200,000	-0,004	0,057
-564,817	-156,758	-0,065	0,003
-563,802	269,524	-0,024	-0,030
-562,788	418,007	-0,017	0,027
-561,773	800,000	0,029	-0,061
-560,758	-118,579	0,121	0,015
-559,744	-62,496	0,021	0,006
-558,729	800,000	0,023	0,071
-557,715	-81,133	-0,122	-0,029
-556,700	-1,109	-0,097	-0,049
-555,685	-158,884	-0,037	-0,001
-554,671	-200,000	0,014	0,097
-553,656	800,000	0,030	0,078
-552,642	226,721	0,096	0,113
-551,627	800,000	-0,063	-0,159
-550,612	289,320	0,037	-0,048
-549,598	82,568	0,030	-0,023
-548,583	-29,648	-0,058	0,024
-547,569	64,100	-0,161	-0,117
-546,554	-36,402	0,079	0,030
-545,539	-200,000	-0,005	0,023
-544,525	-200,000	-0,027	-0,118
-543,510	182,290	0,096	0,102
-542,496	32,722	0,042	-0,026
-541,481	-67,964	-0,064	-0,018
-540,466	-200,000	0,011	-0,066
-539,452	-79,611	0,096	-0,023
-538,437	-38,196	-0,074	0,028
-537,423	-148,064	0,176	-0,010
-536,408	-37,725	0,009	0,004
-535,393	423,564	-0,077	-0,119
-534,379	800,000	0,033	-0,070
-533,364	599,398	0,057	-0,103
-532,350	59,780	-0,144	-0,102
-531,335	-40,009	0,113	-0,042
-530,321	-200,000	0,007	-0,023
-529,306	800,000	0,026	0,057
-528,291	182,416	-0,019	-0,020
-527,277	34,592	0,057	-0,036
-526,262	-200,000	-0,010	0,035
-525,248	-200,000	-0,023	0,098
-524,233	30,433	0,123	0,075
-523,218	11,054	-0,107	-0,058
-522,204	800,000	-0,043	0,109
-521,189	-200,000	-0,003	-0,028
-520,175	-200,000	0,008	-0,062
-519,160	-117,711	0,111	0,014
-518,145	-186,186	-0,101	-0,001
-517,131	4,601	0,012	-0,006
-516,116	-200,000	-0,016	0,080
-515,102	201,650	-0,077	0,085
-514,087	-52,352	-0,032	-0,011
-513,072	551,701	-0,042	-0,073
-512,058	-200,000	0,010	-0,171
-511,043	-173,820	0,135	0,003
-510,029	-144,929	-0,091	-0,006
-509,014	363,847	-0,007	-0,010
-507,999	-200,000	0,010	0,049
-506,985	-200,000	-0,027	0,108
-505,970	13,403	-0,073	-0,041
-504,956	-200,000	0,006	-0,069
-503,941	149,509	0,052	0,051
-502,926	160,219	0,043	0,043
-501,912	-200,000	-0,027	-0,117
-500,897	-200,000	-0,001	-0,006
-499,883	244,620	-0,033	-0,040
-498,868	590,238	-0,044	-0,079
-497,853	446,204	-0,059	-0,093
-496,839	20,497	0,053	0,031
-495,824	-200,000	0,004	0,031
-494,810	-107,482	-0,050	0,008
-493,795	109,699	0,073	-0,063
-492,781	-200,000	-0,005	0,027
-491,766	581,139	0,015	-0,026
-490,751	38,715	0,079	-0,051
-489,737	-130,168	0,064	-0,006
-488,722	162,905	0,033	-0,033
-487,708	66,739	0,063	-0,046
-486,693	254,953	-0,031	0,038
-485,678	-26,338	0,061	0,026
-484,664	77,011	-0,025	-0,019
-483,649	33,212	0,074	-0,046
-482,635	800,000	-0,025	-0,070
-481,620	-200,000	0,005	0,026
-480,605	800,000	-0,022	0,049
-479,591	-53,784	0,161	0,053
-478,576	8,284	0,076	0,041
-477,562	-34,703	-0,140	-0,054
-476,547	396,483	-0,086	0,129
-475,532	-159,356	-0,169	-0,007
-474,518	-81,120	-0,117	-0,028
-473,503	-67,437	0,061	0,017
-472,489	-200,000	0,005	-0,091
-471,474	-1,906	0,051	0,025
-470,459	28,973	-0,099	0,060
-469,445	-48,140	0,008	-0,003
-468,430	140,257	-0,044	0,042
-467,416	-5,427	0,060	0,030
-466,401	-61,603	0,105	0,031
-465,386	461,813	0,090	0,144
-464,372	-15,805	0,065	0,030
-463,357	-48,478	-0,172	-0,059
-462,343	-200,000	-0,014	0,096
-461,328	-156,444	0,028	0,001
-460,313	205,353	-0,049	-0,054
-459,299	88,921	0,048	0,039
-458,284	-200,000	0,002	0,092
-457,270	800,000	-0,044	-0,134
-456,255	22,399	0,052	0,031
-455,241	-53,422	-0,022	-0,007
-454,226	-200,000	0,001	-0,006
-453,211	-40,515	0,089	0,033
-452,197	-13,312	-0,059	0,027
-451,182	800,000	0,045	-0,092
-450,168	-153,510	0,084	0,004
-449,153	25,434	0,033	0,020
-448,138	67,814	-0,053	-0,039
-447,124	85,469	0,079	-0,062
-446,109	800,000	0,042	-0,129
-445,095	97,577	-0,084	0,069
-444,080	800,000	0,032	0,081
-443,065	-54,656	-0,078	-0,025
-442,051	22,503	-0,033	0,019
-441,036	-141,009	-0,204	0,015
-440,022	-64,629	-0,177	0,051
-439,007	144,369	0,012	0,011
-437,992	537,476	0,031	-0,054
-436,978	237,790	0,092	0,109
-435,963	507,198	-0,037	0,062
-434,949	-125,429	-0,123	0,013
-433,934	-96,167	-0,130	0,024
-432,919	-141,469	0,020	0,001
-431,905	207,899	0,090	0,100
-430,890	144,856	0,027	-0,026
-429,876	360,064	0,061	-0,088
-428,861	-200,000	-0,033	0,152
-427,846	52,037	-0,066	-0,045
-426,832	-118,600	-0,074	0,009
-425,817	-157,013	0,007	-0,000
-424,803	-200,000	-0,026	-0,144
-423,788	-55,275	0,141	0,045
-422,773	263,648	0,021	0,026
-421,759	800,000	0,011	-0,028
-420,744	-200,000	-0,023	0,091
-419,730	800,000	-0,034	0,094
-418,715	-200,000	0,028	0,106
-417,701	-111,426	-0,046	-0,007
-416,686	-200,000	0,003	-0,073
-415,671	24,698	0,071	0,042
-414,657	224,691	-0,061	0,071
-413,642	800,000	-0,051	0,138
-412,628	61,521	-0,067	0,048
-411,613	-200,000	0,014	0,049
-410,598	-44,517	-0,039	0,014
-409,584	-200,000	0,071	0,000
-408,569	800,000	-0,014	0,042
-407,555	800,000	0,048	-0,106
-406,540	-200,000	0,006	-0,031
-405,525	800,000	-0,039	-0,102
-404,511	48,752	-0,124	-0,083
-403,496	15,475	0,077	-0,043
-402,482	767,609	0,016	-0,032
-401,467	-162,798	0,142	0,005
-400,452	77,977	0,061	-0,047
-399,438	-200,000	-0,002	0,013
-398,423	-75,593	-0,098	0,025
-397,409	-200,000	-0,023	0,089
-396,394	-200,000	-0,006	-0,166
-395,379	177,887	0,007	0,008
-394,365	-200,000	-0,016	0,127
-393,350	34,550	0,025	-0,015
-392,336	-10,552	0,060	0,028
-391,321	800,000	0,021	-0,056
-390,306	260,240	-0,103	-0,128
-389,292	-200,000	0,008	-0,107
-388,277	-61,125	-0,022	0,007
-387,263	314,709	-0,048	-0,065
-386,248	-158,537	0,046	0,002
-385,233	-196,024	0,130	-0,001
-384,219	353,110	-0,042	-0,060
-383,204	69,152	0,052	-0,038
-382,190	800,000	0,025	-0,061
-381,175	-200,000	0,004	-0,027
-380,160	441,689	0,077	0,121
-379,146	-200,000	-0,007	-0,039
-378,131	-200,000	-0,002	0,020
-377,117	-71,515	-0,123	0,033
-376,102	359,266	-0,048	-0,069
-375,088	504,156	-0,062	-0,103
-374,073	578,503	-0,037	0,065
-373,058	-5,438	0,137	0,067
-372,044	766,872	-0,032	-0,063
-371,029	-200,000	-0,010	0,033
-370,015	800,000	0,020	0,057
-369,000	22,222	-0,124	0,072
-367,985	-31,603	-0,068	0,027
-366,971	-200,000	0,014	0,097
-365,956	-149,113	0,095	-0,005
-364,942	-158,661	0,081	0,003
-363,927	268,727	0,020	0,025
-362,912	349,562	0,047	0,066
-361,898	-121,072	-0,013	0,002
-360,883	800,000	0,010	-0,029
-359,869	15,848	-0,045	0,025
-358,854	-200,000	0,001	0,039
-357,839	-200,000	0,031	0,163
-356,825	276,356	0,108	0,137
-355,810	-99,865	-0,084	0,015
-354,796	-11,369	-0,091	-0,043
-353,781	300,726	-0,048	-0,063
-352,766	588,740	-0,053	0,094
-351,752	-104,788	-0,143	-0,023
-350,737	-200,000	0,012	0,069
-349,723	23,262	0,050	0,029
-348,708	138,008	-0,091	0,085
-347,693	-93,479	-0,138	-0,027
-346,679	-10,772	0,072	-0,034
-345,664	138,610	-0,084	0,079
-344,650	101,505	0,056	0,046
-343,635	-68,081	-0,138	-0,038
-342,620	18,220	0,057	0,032
-341,606	189,523	-0,046	0,049
-340,591	599,290	-0,034	0,061
-339,577	-13,420	-0,065	-0,030
-338,562	-162,886	-0,032	0,001
-337,548	800,000	-0,055	0,157
-336,533	-152,938	0,089	-0,004
-335,518	-52,825	0,038	0,013
-334,504	-53,083	-0,051	-0,017
-333,489	54,186	0,163	0,112
-332,475	186,363	-0,057	0,060
-331,460	78,631	0,068	-0,052
-330,445	593,882	-0,053	-0,094
-329,431	-200,000	0,045	0,164
-328,416	800,000	0,045	0,123
-327,402	-200,000	-0,003	0,032
-326,387	-67,158	-0,137	0,038
-325,372	237,770	0,075	-0,089
-324,358	800,000	0,040	-0,123
-323,343	800,000	-0,037	0,106
-322,329	-200,000	0,000	-0,191
-321,314	-95,855	0,068	0,013
-320,299	125,025	0,077	-0,069
-319,285	75,343	-0,054	-0,040
-318,270	800,000	-0,013	0,032
-317,256	-78,637	0,094	0,023
-316,241	-126,362	0,099	-0,010
-315,226	28,376	0,135	-0,081
-314,212	6,729	0,115	0,061
-313,197	228,805	0,037	0,043
-312,183	86,952	0,094	0,074
-311,168	-200,000	0,008	0,064
-310,153	273,379	-0,105	-0,133
-309,139	800,000	-0,027	-0,074
-308,124	800,000	-0,023	0,046
-307,110	-101,620	0,141	-0,024
-306,095	452,423	0,013	-0,020
-305,080	346,165	0,095	-0,133
-304,066	-200,000	-0,001	-0,007
-303,051	192,526	-0,033	-0,036
-302,037	800,000	-0,028	0,067
-301,022	569,741	-0,047	0,082
-300,008	-200,000	0,005	0,110
-298,993	-38,919	-0,038	0,014
-297,978	-109,835	0,053	0,008
-296,964	98,286	-0,051	0,042
-295,949	-200,000	0,025	0,083
-294,935	46,212	0,080	0,053
-293,920	800,000	-0,039	0,087
-292,905	580,462	0,063	0,111
-291,891	-200,000	-0,019	-0,080
-290,876	-54,455	0,075	0,024
-289,862	229,829	0,032	0,037
-288,847	-198,551	-0,126	-0,000
-287,832	-32,891	-0,015	0,006
-286,818	147,202	0,123	-0,118
-285,803	-200,000	0,006	0,043
-284,789	-66,726	0,067	0,019
-283,774	739,787	-0,031	0,060
-282,759	-97,245	0,045	0,008
-281,745	800,000	-0,028	-0,077
-280,730	792,510	0,067	-0,132
-279,716	-23,410	0,129	-0,055
-278,701	800,000	0,040	0,090
-277,686	-200,000	-0,007	0,094
-276,672	-160,301	0,076	0,003
-275,657	321,480	0,028	-0,038
-274,643	222,959	-0,040	0,046
-273,628	2,124	0,049	-0,025
-272,613	-200,000	-0,008	-0,091
-271,599	-200,000	0,014	0,165
-270,584	125,615	0,161	0,145
-269,570	-146,601	-0,117	-0,007
-268,555	573,070	0,075	0,130
-267,540	290,516	-0,055	0,072
-266,526	-200,000	-0,019	-0,119
-265,511	130,893	-0,035	0,032
-264,497	187,753	0,078	0,083
-263,482	-33,158	-0,047	-0,019
-262,467	-200,000	-0,004	-0,075
-261,453	73,563	0,039	-0,029
-260,438	800,000	0,028	-0,067
-259,424	234,742	-0,048	-0,056
-258,409	800,000	0,014	-0,028
-257,395	-200,000	0,035	0,141
-256,380	-142,923	0,112	0,008
-255,365	613,473	-0,026	-0,047
-254,351	-200,000	0,001	-0,108
-253,336	498,127	-0,061	0,101
-252,322	234,959	0,009	0,011
-251,307	-1,330	0,059	-0,029
-250,292	160,070	0,091	-0,090
-249,278	-200,000	0,044	0,000
-248,263	800,000	0,010	-0,023
-247,249	-200,000	-0,001	0,049
-246,234	800,000	0,042	-0,099
-245,219	-196,412	-0,204	-0,001
-244,205	800,000	0,059	-0,154
-243,190	-19,644	-0,134	0,059
-242,176	800,000	0,009	-0,021
-241,161	-122,156	0,036	0,004
-240,146	-178,378	-0,090	-0,001
-239,132	78,322	0,076	-0,057
-238,117	189,762	-0,097	-0,103
-237,103	104,305	-0,037	0,031
-236,088	-23,341	0,063	0,027
-235,073	-54,971	0,148	0,047
-234,059	42,928	-0,074	0,048
-233,044	-60,825	-0,037	0,011
-232,030	800,000	-0,059	0,117
-231,015	-200,000	0,020	-0,121
-230,000	-44,997	-0,107	0,038
-228,986	24,367	-0,115	-0,068
-227,971	-200,000	0,042	0,195
-226,957	-59,831	0,094	-0,028
-225,942	-200,000	-0,006	-0,044
-224,927	212,825	-0,068	-0,077
-223,913	-200,000	0,016	0,054
-222,898	217,519	-0,005	-0,005
-221,884	120,796	-0,049	-0,044
-220,869	79,380	0,082	-0,062
-219,855	411,777	-0,081	0,122
-218,840	-200,000	0,019	0,120
-217,825	-200,000	-0,016	0,060
-216,811	-172,539	-0,083	-0,002
-215,796	-77,237	0,093	-0,023
-214,782	205,711	0,078	-0,087
-213,767	210,346	0,046	-0,051
-212,752	-200,000	-0,000	0,081
-211,738	139,999	0,069	-0,065
-210,723	-35,390	-0,034	0,013
-209,709	356,255	-0,047	-0,066
-208,694	-200,000	0,051	-0,179
-207,679	386,043	-0,019	-0,028
-206,665	-200,000	0,034	0,148
-205,650	800,000	0,047	0,112
-204,636	800,000	0,005	-0,012
-203,621	-200,000	0,014	-0,094
-202,606	11,610	0,126	-0,068
-201,592	-23,184	-0,149	-0,063
-200,577	201,331	0,041	0,045
-199,563	-200,000	0,005	0,059
-198,548	-170,539	-0,063	0,002
-197,533	-123,812	0,077	0,009
-196,519	112,258	0,014	0,012
-195,504	-200,000	0,010	-0,105
-194,490	-200,000	-0,046	-0,147
-193,475	255,631	0,029	0,035
-192,460	185,851	-0,058	0,061
-191,446	288,346	0,041	0,052
-190,431	800,000	0,073	0,219
-189,417	800,000	0,059	-0,152
-188,402	800,000	-0,032	0,072
-187,387	-200,000	-0,007	0,055
-186,373	-200,000	0,014	-0,125
-185,358	-200,000	0,009	-0,085
-184,344	-62,554	-0,079	0,023
-183,329	-200,000	-0,009	-0,061
-182,315	800,000	0,052	-0,106
-181,300	112,007	-0,040	-0,035
-180,285	800,000	0,083	-0,184
-179,271	-73,257	-0,135	0,035
-178,256	268,579	0,081	-0,100
-177,242	4,956	0,159	0,083
-176,227	-13,196	-0,093	0,043
-175,212	-200,000	0,019	0,093
-174,198	-94,114	-0,098	0,019
-173,183	49,957	0,042	-0,028
-172,169	309,683	-0,017	-0,023
-171,154	800,000	-0,021	0,047
-170,139	-4,098	-0,108	0,053
-169,125	-200,000	-0,025	0,138
-168,110	-55,857	0,090	-0,028
-167,096	209,224	-0,078	0,086
-166,081	224,475	0,029	0,033
-165,066	-200,000	-0,011	-0,037
-164,052	-200,000	0,001	0,036
-163,037	516,977	-0,093	-0,154
-162,023	152,096	0,024	-0,023
-161,008	800,000	-0,021	-0,065
-159,993	64,512	-0,046	-0,033
-158,979	-200,000	0,006	-0,029
-157,964	800,000	0,061	-0,168
-156,950	-200,000	0,004	-0,102
-155,935	248,224	0,048	-0,057
-154,920	800,000	-0,030	0,062
-153,906	84,635	0,095	0,074
-152,891	-200,000	-0,011	0,042
-151,877	800,000	0,034	-0,078
-150,862	308,619	-0,057	-0,075
-149,847	37,995	0,075	-0,047
-148,833	-200,000	0,001	0,083
-147,818	-200,000	-0,004	0,046
-146,804	-200,000	-0,001	0,092
-145,789	29,098	0,074	0,045
-144,775	99,998	-0,059	0,048
-143,760	-200,000	0,006	0,133
-142,745	800,000	0,036	0,112
-141,731	-120,538	0,132	-0,016
-140,716	-200,000	0,007	0,067
-139,702	-54,109	0,072	-0,023
-138,687	-161,350	-0,089	-0,003
-137,672	-200,000	-0,030	-0,104
-136,658	-96,910	-0,057	0,010
-135,643	-78,478	0,091	-0,022
-134,629	43,605	0,066	0,043
-133,614	-69,570	-0,019	-0,005
-132,599	-200,000	-0,014	0,049
-131,585	-7,096	0,053	0,025
-130,570	64,973	-0,077	0,055
-129,556	-123,926	0,068	-0,007
-128,541	-200,000	-0,043	-0,140
-127,526	227,634	0,068	0,078
-126,512	-200,000	0,011	-0,121
-125,497	209,701	0,047	-0,052
-124,483	-200,000	0,005	0,064
-123,468	216,531	0,068	-0,076
-122,453	-19,065	-0,102	0,045
-121,439	-48,007	-0,064	0,022
-120,424	800,000	-0,070	-0,183
-119,410	-9,955	0,087	-0,041
-118,395	100,385	-0,055	-0,045
-117,380	95,632	0,076	-0,062
-116,366	-77,566	0,163	-0,040
-115,351	800,000	-0,010	-0,026
-114,337	-200,000	-0,007	-0,041
-113,322	16,385	-0,076	0,042
-112,307	-83,497	0,078	-0,017
-111,293	-183,107	0,134	0,002
-110,278	114,951	0,090	-0,077
-109,264	800,000	-0,012	0,036
-108,249	-41,489	0,057	-0,021
-107,234	32,947	-0,051	0,031
-106,220	104,579	-0,104	-0,087
-105,205	-200,000	0,001	0,074
-104,191	-153,777	0,071	0,003
-103,176	800,000	0,079	0,161
-102,162	49,606	-0,053	0,035
-101,147	800,000	-0,033	0,103
-100,132	800,000	-0,038	-0,116
-99,118	6,940	0,094	0,049
-98,103	-200,000	0,008	-0,060
-97,089	-23,112	0,078	-0,033
-96,074	591,171	-0,050	-0,087
-95,059	317,450	0,029	0,038
-94,045	-200,000	-0,018	0,143
-93,030	4,892	0,075	-0,039
-92,016	757,933	0,040	-0,078
-91,001	800,000	-0,020	-0,059
-89,986	110,009	0,051	0,043
-88,972	71,818	0,050	0,036
-87,957	-116,700	-0,094	0,012
-86,943	-47,097	-0,074	-0,025
-85,928	49,453	-0,076	0,050
-84,913	187,098	-0,116	-0,123
-83,899	410,390	0,030	-0,045
-82,884	-200,000	0,021	0,075
-81,870	-71,833	0,031	-0,008
-80,855	300,112	0,066	-0,086
-79,840	-48,878	-0,055	0,019
-78,826	511,154	-0,070	-0,115
-77,811	184,361	-0,083	-0,087
-76,797	38,926	-0,085	-0,053
-75,782	77,535	-0,060	0,045
-74,767	800,000	0,016	0,037
-73,753	99,674	-0,054	0,044
-72,738	277,542	0,027	-0,034
-71,724	239,893	0,029	-0,035
-70,709	-94,135	-0,160	-0,031
-69,694	204,688	0,069	-0,076
-68,680	-200,000	-0,015	0,077
-67,665	-200,000	-0,026	0,083
-66,651	452,212	-0,039	0,062
-65,636	-48,531	0,089	0,030
-64,622	-75,177	0,072	0,018
-63,607	326,504	-0,080	0,108
-62,592	89,086	0,048	-0,037
-61,578	14,567	0,046	0,025
-60,563	-43,091	0,090	-0,032
-59,549	-106,548	-0,111	0,017
-58,534	35,160	-2,014	-1,243
-57,519	552,825	-1,199	-2,042
-56,505	-200,000	-0,473	-4,406
-55,490	733,262	0,784	1,489
-54,476	800,000	5,004	11,211
-53,461	-200,000	21,334	340,567
-52,446	800,000	759,900	2360,279
-51,432	559,986	1662,644	2845,965
-50,417	73,612	1661,394	1227,158
-49,403	18,004	1534,876	861,143
-48,388	11,967	1458,604	789,143
-47,373	19,377	1449,605	819,811
-46,359	15,419	1438,862	794,878
-45,344	10,232	1434,685	767,836
-44,330	10,174	1432,760	766,499
-43,315	10,208	1430,862	765,617
-42,300	10,164	1429,293	764,537
-41,286	10,163	1428,102	763,866
-40,271	10,150	1426,835	763,095
-39,257	10,185	1425,462	762,495
-38,242	10,214	1424,364	762,014
-37,227	10,152	1423,622	761,293
-36,213	10,181	1422,109	760,595
-35,198	10,186	1420,879	759,926
-34,184	10,255	1419,920	759,711
-33,169	10,200	1418,703	758,771
-32,154	10,192	1417,606	758,115
-31,140	10,253	1416,238	757,642
-30,125	10,286	1415,370	757,301
-29,111	10,251	1414,095	756,426
-28,096	10,170	1412,880	755,364
-27,082	10,139	1411,665	754,538
-26,067	10,138	1410,675	753,974
-25,052	10,169	1409,635	753,535
-24,038	10,204	1408,530	753,077
-23,023	10,179	1407,573	752,420
-22,009	10,198	1406,604	751,962
-20,994	10,159	1405,535	751,177
-19,979	10,129	1404,681	750,552
-18,965	10,101	1403,800	749,919
-17,950	10,122	1402,733	749,420
-16,936	10,082	1402,265	748,951
-15,921	10,051	1401,256	748,240
-14,906	10,051	1400,301	747,699
-13,892	10,136	1399,006	747,375
-12,877	10,117	1398,214	746,832
-11,863	10,073	1397,631	746,288
-10,848	10,049	1396,737	745,669
-9,833	9,978	1395,775	744,798
-8,819	9,917	1395,215	744,185
-7,804	9,966	1394,285	743,888
-6,790	9,961	1393,113	743,208
-5,775	9,959	1391,994	742,574
-4,760	9,987	1391,042	742,165
-3,746	9,977	1390,024	741,548
-2,731	9,989	1389,163	741,114
-1,717	9,987	1388,351	740,642
-0,702	9,986	1386,538	739,639
0,313	14,033	1299,420	711,681
1,327	30,389	689,993	414,972
2,342	47,090	119,403	78,235
3,356	-0,742	16,569	8,256
4,371	0,961	3,525	1,776
5,386	13,129	0,972	0,529
6,400	800,000	0,215	0,470
7,415	5,987	-0,267	-0,139
8,429	25,252	-0,226	-0,132
9,444	576,037	-0,160	-0,276
10,459	8,084	-0,317	-0,167
11,473	94,785	-0,242	-0,194
12,488	-95,312	-0,248	-0,047
13,502	41,529	-0,253	-0,161
14,517	107,723	-0,255	-0,214
15,531	183,918	-0,327	-0,341
16,546	96,977	-0,388	-0,313
17,561	39,514	-0,393	-0,247
18,575	-5,807	-0,168	-0,081
19,590	252,277	-0,247	-0,297
20,604	-42,273	-0,321	-0,115
21,619	38,624	-0,469	-0,294
22,634	62,531	-0,391	-0,275
23,648	32,601	-0,457	-0,278
24,663	137,231	-0,338	-0,311
25,677	85,590	-0,353	-0,273
26,692	38,305	-0,290	-0,181
27,707	126,680	-0,279	-0,249
28,721	101,880	-0,356	-0,293
29,736	59,021	-0,381	-0,263
30,750	99,473	-0,401	-0,326
31,765	160,143	-0,314	-0,308
32,780	96,445	-0,395	-0,318
33,794	382,503	-0,225	-0,326
34,809	200,872	-0,284	-0,307
35,823	79,722	-0,417	-0,314
36,838	187,036	-0,316	-0,332
37,853	-14,065	-0,420	-0,190
38,867	16,998	-0,405	-0,225
39,882	-91,517	-0,246	-0,049
40,896	-140,549	-0,272	0,020
41,911	-49,231	-0,321	-0,107
42,926	70,579	-0,358	-0,260
43,940	228,664	-0,308	-0,353
44,955	-10,146	-0,387	-0,180
45,969	16,001	-0,412	-0,228
46,984	235,592	-0,279	-0,325
47,999	113,542	-0,260	-0,222
49,013	62,257	-0,341	-0,239
50,028	228,297	-0,196	-0,225
51,042	-35,981	-0,383	-0,145
52,057	66,201	-0,323	-0,230
53,071	125,860	-0,290	-0,257
54,086	102,065	-0,231	-0,189
55,101	-12,215	-0,306	-0,140
56,115	-126,880	-0,420	-0,043
57,130	81,929	-0,318	-0,242
58,144	104,590	-0,275	-0,227
59,159	59,621	-0,368	-0,254
60,174	81,494	-0,430	-0,326
61,188	221,933	-0,275	-0,311
62,203	100,938	-0,261	-0,213
63,217	44,752	-0,352	-0,227
64,232	102,707	-0,375	-0,308
65,247	79,752	-0,292	-0,220
66,261	139,326	-0,277	-0,256
67,276	64,313	-0,373	-0,263
68,290	45,463	-0,273	-0,176
69,305	95,844	-0,272	-0,218
70,320	-0,471	-0,282	-0,140
71,334	118,538	-0,281	-0,243
72,349	147,793	-0,384	-0,363
73,363	-114,349	-0,445	-0,059
74,378	215,006	-0,281	-0,312
75,393	-38,032	-0,210	-0,078
76,407	-35,839	-0,276	-0,104
77,422	13,785	-0,354	-0,192
78,436	37,169	-0,330	-0,204
79,451	32,169	-0,324	-0,195
80,466	-82,298	-0,378	-0,086
81,480	88,077	-0,321	-0,250
82,495	20,269	-0,314	-0,177
83,509	45,053	-0,296	-0,191
84,524	-17,044	-0,310	-0,137
85,539	-84,361	-0,307	-0,067
86,553	43,071	-0,299	-0,190
87,568	26,153	-0,326	-0,190
88,582	50,314	-0,340	-0,224
89,597	86,444	-0,301	-0,232
90,611	47,166	-0,306	-0,199
91,626	-130,975	-0,329	0,030
92,641	56,149	-0,267	-0,181
93,655	63,253	-0,225	-0,157
94,670	-124,196	-0,466	-0,050
95,684	23,525	-0,399	-0,229
96,699	34,062	-0,328	-0,200
97,714	68,813	-0,221	-0,158
98,728	-15,405	-0,281	-0,125
99,743	1,733	-0,293	-0,147
100,757	112,584	-0,299	-0,253
101,772	58,549	-0,311	-0,213
102,787	50,693	-0,274	-0,181
103,801	116,210	-0,204	-0,174
104,816	22,672	-0,263	-0,150
105,830	-30,061	-0,136	-0,054
106,845	-83,150	-0,226	-0,050
107,860	70,051	-0,305	-0,220
108,874	-15,815	-0,407	-0,180
109,889	-53,177	-0,328	-0,105
110,903	5,065	-0,333	-0,171
111,918	-42,060	-0,297	-0,105
112,933	-53,021	-0,309	-0,099
113,947	-103,630	-0,302	-0,049
114,962	190,297	-0,127	-0,133
115,976	-17,940	-0,391	-0,171
116,991	705,486	-0,167	-0,310
118,006	94,231	-0,343	-0,272
119,020	152,758	-0,223	-0,213
120,035	19,259	-0,295	-0,165
121,049	-67,206	-0,234	-0,064
122,064	181,905	-0,192	-0,197
123,079	114,087	-0,304	-0,258
124,093	655,298	-0,123	-0,221
125,108	-75,696	-0,306	-0,075
126,122	173,736	-0,222	-0,224
127,137	184,648	-0,242	-0,250
128,151	-61,001	-0,100	-0,029
129,166	65,731	-0,314	-0,221
130,181	86,752	-0,157	-0,121
131,195	-2,957	-0,322	-0,156
132,210	207,527	-0,302	-0,329
133,224	-200,000	-0,081	-0,250
134,239	5,131	-0,132	-0,067
135,254	67,807	-0,200	-0,142
136,268	32,261	-0,276	-0,166
137,283	92,727	-0,225	-0,177
138,297	365,403	-0,245	-0,345
139,312	49,025	-0,272	-0,178
140,327	-3,849	-0,334	-0,161
141,341	-58,551	-0,322	-0,097
142,356	77,409	-0,165	-0,122
143,370	74,113	-0,234	-0,171
144,385	131,715	-0,253	-0,226
145,400	-31,518	-0,306	-0,119
146,414	-117,120	-0,259	-0,032
147,429	-99,244	-0,302	-0,053
148,443	100,608	-0,195	-0,158
149,458	-6,781	-0,243	-0,115
150,473	-111,949	-0,187	0,026
151,487	-31,301	-0,207	-0,081
152,502	-13,454	-0,313	-0,141
153,516	60,444	-0,192	-0,132
154,531	46,092	-0,319	-0,205
155,546	46,291	-0,185	-0,119
156,560	132,207	-0,218	-0,195
157,575	-117,536	-0,220	0,027
158,589	-50,780	-0,293	-0,095
159,604	90,453	-0,231	-0,180
160,619	134,131	-0,107	-0,096
161,633	229,003	-0,205	-0,233
162,648	348,997	-0,184	-0,253
163,662	-6,487	-0,226	-0,107
164,677	300,133	-0,212	-0,273
165,692	179,910	-0,218	-0,222
166,706	120,066	-0,234	-0,202
167,721	-39,642	-0,310	-0,112
168,735	132,424	-0,202	-0,181
169,750	-34,224	-0,360	-0,137
170,764	572,045	-0,139	-0,236
171,779	-106,836	-0,182	-0,028
172,794	0,386	-0,264	-0,131
173,808	108,837	-0,275	-0,228
174,823	68,137	-0,317	-0,225
175,837	412,312	-0,173	-0,256
176,852	58,594	-0,197	-0,134
177,867	56,045	-0,325	-0,219
178,881	52,665	-0,169	-0,112
179,896	-91,523	-0,292	-0,057
180,910	122,375	-0,184	-0,160
181,925	-30,838	-0,278	-0,109
182,940	113,597	-0,247	-0,209
183,954	264,958	-0,175	-0,212
184,969	19,323	-0,304	-0,169
185,983	-134,966	-0,172	-0,014
186,998	22,151	-0,208	-0,117
188,013	225,186	-0,223	-0,250
189,027	67,841	-0,267	-0,189
190,042	134,815	-0,274	-0,247
191,056	-58,030	-0,279	-0,084
192,071	-93,488	-0,240	-0,046
193,086	-156,826	-0,177	-0,007
194,100	65,219	-0,166	-0,116
195,115	-103,162	-0,267	-0,043
196,129	-118,803	-0,231	-0,028
197,144	99,776	-0,287	-0,230
198,159	247,022	-0,220	-0,258
199,173	168,617	-0,226	-0,224
200,188	41,898	-0,249	-0,156
201,202	11,611	-0,216	-0,114
202,217	-6,771	-0,220	-0,103
203,232	186,792	-0,243	-0,252
204,246	342,455	-0,156	-0,212
205,261	104,064	-0,157	-0,128
206,275	2,561	-0,184	-0,092
207,290	-125,420	-0,098	-0,010
208,304	-124,813	-0,095	-0,010
209,319	343,970	-0,215	-0,292
210,334	169,894	-0,131	-0,130
211,348	-96,037	-0,119	-0,022
212,363	186,933	-0,120	-0,124
213,377	230,815	-0,224	-0,254
214,392	10,666	-0,215	-0,113
215,407	-49,384	-0,168	-0,055
216,421	125,870	-0,192	-0,168
217,436	19,922	-0,265	-0,148
218,450	213,004	-0,206	-0,226
219,465	717,427	-0,080	-0,148
220,480	-17,056	-0,159	-0,069
221,494	127,670	-0,150	-0,132
222,509	-125,651	-0,076	0,008
223,523	-75,319	-0,127	0,031
224,538	-12,063	-0,165	-0,075
225,553	424,158	-0,187	-0,279
226,567	157,632	-0,200	-0,191
227,582	272,471	-0,150	-0,183
228,596	-200,000	-0,017	-0,084
229,611	6,606	-0,127	-0,065
230,626	177,448	-0,177	-0,179
231,640	-52,200	-0,197	-0,063
232,655	182,368	-0,218	-0,222
233,669	12,435	-0,227	-0,120
234,684	165,449	-0,121	-0,118
235,699	-32,441	-0,124	-0,048
236,713	-77,305	-0,275	-0,066
237,728	389,332	-0,096	-0,139
238,742	-130,861	-0,204	0,019
239,757	-106,894	-0,242	-0,037
240,772	47,437	-0,242	-0,155
241,786	-12,201	-0,363	-0,163
242,801	469,445	-0,126	-0,196
243,815	-63,907	-0,330	-0,093
244,830	800,000	-0,033	-0,083
245,844	-115,822	-0,115	-0,015
246,859	-124,744	-0,190	-0,020
247,874	284,567	-0,106	-0,132
248,888	41,108	-0,099	-0,061
249,903	115,611	-0,089	-0,075
250,917	-49,246	-0,163	0,053
251,932	144,998	-0,193	-0,178
252,947	83,842	-0,183	-0,138
253,961	47,347	-0,148	-0,095
254,976	183,091	-0,176	-0,180
255,990	800,000	-0,096	-0,192
257,005	-122,921	-0,177	-0,019
258,020	-21,196	-0,208	-0,087
259,034	611,626	-0,079	-0,136
260,049	60,918	-0,205	-0,140
261,063	51,572	-0,249	-0,163
262,078	680,891	-0,088	-0,158
263,093	-8,696	-0,268	-0,124
264,107	-200,000	-0,183	-0,001
265,122	-47,576	-0,026	-0,009
266,136	143,965	-0,223	-0,205
267,151	-49,552	-0,207	-0,068
268,166	-200,000	-0,040	-0,141
269,180	141,071	-0,168	-0,153
270,195	449,990	-0,168	-0,256
271,209	48,567	-0,137	-0,089
272,224	28,684	-0,246	-0,143
273,239	-80,162	-0,237	-0,054
274,253	-159,309	-0,211	0,008
275,268	134,141	-0,185	-0,165
276,282	271,339	-0,126	-0,153
277,297	-48,542	-0,173	-0,057
278,312	-142,449	-0,261	0,017
279,326	-191,204	-0,245	-0,002
280,341	-85,803	-0,181	-0,038
281,355	503,281	-0,074	-0,118
282,370	-104,146	-0,182	0,029
283,384	259,871	-0,137	-0,163
284,399	55,761	-0,193	-0,128
285,414	537,832	-0,048	-0,079
286,428	633,122	-0,049	-0,085
287,443	800,000	-0,040	-0,111
288,457	217,371	-0,187	-0,206
289,472	-20,376	-0,063	-0,027
290,487	-99,317	-0,184	0,032
291,501	297,506	-0,186	-0,236
292,516	24,556	-0,080	-0,046
293,530	3,591	-0,217	-0,109
294,545	690,829	-0,104	-0,189
295,560	-158,596	-0,104	-0,004
296,574	412,221	-0,174	-0,254
297,589	66,789	-0,126	-0,088
298,603	171,575	-0,188	-0,186
299,618	239,445	-0,124	-0,142
300,633	297,768	-0,134	-0,170
301,647	-200,000	-0,002	-0,119
302,662	314,805	-0,080	-0,104
303,676	-173,072	-0,102	-0,002
304,691	70,067	-0,066	-0,047
305,706	210,602	-0,165	-0,178
306,720	-200,000	-0,029	-0,269
307,735	-66,420	-0,132	-0,036
308,749	-72,867	-0,096	-0,024
309,764	237,310	-0,056	-0,064
310,779	112,863	-0,201	-0,167
311,793	-101,738	-0,141	0,023
312,808	60,889	-0,172	-0,117
313,822	-52,724	-0,326	-0,103
314,837	237,819	-0,144	-0,164
315,852	-78,998	-0,114	-0,026
316,866	-106,898	-0,203	0,030
317,881	-171,308	-0,099	-0,002
318,895	-200,000	0,004	-0,055
319,910	-90,744	-0,172	0,034
320,925	415,575	-0,061	-0,089
321,939	-200,000	-0,020	-0,131
322,954	66,927	-0,185	-0,129
323,968	137,822	-0,063	-0,056
324,983	-124,946	-0,130	-0,014
325,997	34,843	-0,195	-0,117
327,012	172,266	-0,217	-0,214
328,027	131,413	-0,155	-0,137
329,041	133,263	-0,112	-0,099
330,056	-4,406	-0,114	0,054
331,070	-200,000	-0,047	-0,146
332,085	-29,525	-0,179	-0,070
333,100	-71,739	-0,209	-0,053
334,114	119,534	-0,108	-0,091
335,129	485,362	-0,104	-0,163
336,143	722,735	-0,075	-0,138
337,158	-108,685	-0,199	-0,029
338,173	-98,724	-0,228	-0,039
339,187	298,695	-0,129	-0,163
340,202	139,582	-0,068	-0,062
341,216	638,197	-0,107	-0,188
342,231	-44,205	-0,180	-0,061
343,246	201,295	-0,135	-0,142
344,260	-20,879	-0,165	-0,069
345,275	68,037	-0,188	-0,132
346,289	368,064	-0,159	-0,220
347,304	800,000	-0,099	-0,187
348,319	-43,483	-0,133	-0,046
349,333	153,685	-0,116	-0,109
350,348	-200,000	0,009	-0,208
351,362	289,656	-0,045	0,056
352,377	-94,635	-0,173	-0,032
353,392	-89,639	-0,113	-0,023
354,406	-43,707	-0,141	-0,048
355,421	207,459	1309,734	1399,501
356,435	159,592	1469,822	1399,974
