DTS Sentinel unit serial number:	SN410029Multiplexer serial number:	ORYXHardware model number:	OX2-SRSoftware version number:	ORYX F/W v4,00 Oryx Data Collector v3.7.2.0data status	okinstallation	B3 Nyhavnadifferential loss correction	single-endedforward channel	channel 1reverse channel	N/Adate	2023/12/03time	14:02:30forward acquisition time	300,00reverse acquisition time	0,00gamma	499,1914k internal	0,3198k external	0,3198temperature offset calibration	1,0000default loss term (dB/km)	0,3820temperature slope calibration	1,0000multiplexer offset coefficient	1,0000multiplexer slope coefficient	1,0000fibre end	0,00T internal ref (°C)	15,55T ext. ref 1 (°C)	1,57T ext. ref 2 (°C)	1,55length (m)	temperature (°C)	Stokes	anti-Stokes-744,400	578,878	-0,159	-0,284
-743,385	-200,000	-0,031	0,141
-742,371	143,852	-0,184	-0,178
-741,356	-200,000	0,034	0,373
-740,342	800,000	-0,068	-0,176
-739,327	800,000	0,114	0,335
-738,312	-200,000	-0,058	-0,291
-737,298	175,223	0,137	0,145
-736,283	13,278	-0,209	-0,118
-735,269	-200,000	0,012	0,347
-734,254	322,987	-0,121	-0,169
-733,239	-103,710	-0,144	0,024
-732,225	-200,000	-0,055	-0,229
-731,210	250,814	0,103	0,127
-730,196	-2,660	-0,046	-0,024
-729,181	800,000	-0,016	0,048
-728,167	14,887	-0,085	0,048
-727,152	-8,257	-0,116	0,057
-726,137	-84,222	0,080	-0,018
-725,123	-200,000	0,039	0,155
-724,108	-95,559	-0,062	0,012
-723,094	67,752	-0,054	0,040
-722,079	22,144	-0,078	-0,046
-721,064	-38,085	0,133	0,051
-720,050	81,954	0,040	-0,031
-719,035	561,892	-0,028	-0,050
-718,021	800,000	-0,052	-0,124
-717,006	-75,022	-0,089	-0,023
-715,991	-69,340	-0,139	-0,039
-714,977	-136,628	-0,110	-0,009
-713,962	-200,000	0,003	-0,081
-712,948	46,351	-0,015	0,010
-711,933	110,244	-0,080	0,070
-710,918	302,019	-0,024	-0,032
-709,904	23,173	-0,166	0,099
-708,889	349,845	0,068	0,098
-707,875	125,334	-0,043	-0,039
-706,860	97,638	-0,094	0,078
-705,845	-19,636	0,050	0,022
-704,831	-200,000	0,006	0,253
-703,816	371,634	-0,050	0,074
-702,802	29,472	-0,102	-0,063
-701,787	1,080	-0,072	-0,037
-700,772	-35,495	0,017	-0,007
-699,758	-200,000	-0,005	0,060
-698,743	70,469	0,162	0,121
-697,729	-200,000	-0,024	0,109
-696,714	290,537	-0,130	0,172
-695,699	-200,000	0,024	-0,124
-694,685	-200,000	-0,032	-0,111
-693,670	-200,000	-0,002	0,009
-692,656	228,540	0,119	-0,141
-691,641	-23,991	0,085	0,037
-690,627	15,706	0,020	0,012
-689,612	227,049	0,056	-0,066
-688,597	120,507	-0,028	0,025
-687,583	800,000	-0,017	0,042
-686,568	-200,000	0,047	-0,211
-685,554	153,064	-0,066	-0,066
-684,539	292,917	0,077	0,103
-683,524	-22,218	0,040	-0,017
-682,510	14,824	-0,120	-0,068
-681,495	-97,792	-0,043	-0,008
-680,481	-96,958	-0,016	-0,003
-679,466	-15,122	-0,086	-0,040
-678,451	-200,000	0,006	-0,113
-677,437	-200,000	0,050	-0,250
-676,422	-164,645	0,012	-0,000
-675,408	-5,448	0,086	0,043
-674,393	759,496	0,044	-0,087
-673,378	18,381	0,026	0,015
-672,364	-200,000	0,015	0,057
-671,349	49,336	-0,132	-0,090
-670,335	-126,518	0,102	0,011
-669,320	285,030	-0,018	-0,024
-668,305	65,774	0,079	0,058
-667,291	-200,000	-0,010	-0,069
-666,276	800,000	-0,035	-0,087
-665,262	-200,000	0,046	-0,177
-664,247	-200,000	0,015	-0,054
-663,232	-140,660	-0,039	-0,003
-662,218	463,929	-0,033	0,053
-661,203	260,624	-0,032	-0,040
-660,189	-35,617	0,064	-0,025
-659,174	-200,000	-0,059	0,000
-658,159	-36,390	-0,108	0,042
-657,145	800,000	0,012	0,026
-656,130	74,737	-0,068	-0,052
-655,116	-200,000	-0,008	0,095
-654,101	-200,000	-0,026	0,093
-653,086	-200,000	0,010	0,084
-652,072	78,574	0,129	-0,100
-651,057	113,138	-0,058	-0,051
-650,043	215,531	-0,055	-0,064
-649,028	-200,000	-0,010	-0,059
-648,014	-200,000	-0,002	0,097
-646,999	97,838	-0,172	0,143
-645,984	293,039	0,031	-0,042
-644,970	153,252	-0,056	-0,056
-643,955	530,371	-0,065	-0,112
-642,941	800,000	-0,034	0,086
-641,926	56,170	0,043	0,030
-640,911	206,209	0,041	0,047
-639,897	454,958	-0,062	-0,100
-638,882	-200,000	-0,009	-0,186
-637,868	-200,000	0,030	-0,115
-636,853	-15,037	-0,030	0,014
-635,838	-45,743	-0,065	0,023
-634,824	533,261	-0,072	-0,125
-633,809	800,000	0,047	-0,128
-632,795	77,622	0,033	-0,026
-631,780	-200,000	-0,045	0,178
-630,765	800,000	0,027	-0,077
-629,751	25,681	0,068	-0,041
-628,736	-200,000	-0,022	0,083
-627,722	-96,950	-0,078	0,015
-626,707	551,671	-0,054	-0,094
-625,692	-59,107	0,093	-0,029
-624,678	-142,501	0,083	-0,006
-623,663	116,270	0,055	0,049
-622,649	35,070	-0,060	-0,038
-621,634	800,000	-0,050	-0,148
-620,619	159,915	-0,025	-0,025
-619,605	60,555	-0,091	0,065
-618,590	-94,603	-0,062	0,012
-617,576	43,782	0,088	0,058
-616,561	417,442	-0,051	0,079
-615,546	235,812	-0,076	-0,091
-614,532	800,000	0,039	-0,096
-613,517	5,256	-0,127	-0,068
-612,503	-149,002	0,015	-0,001
-611,488	-166,785	0,042	-0,001
-610,474	313,959	0,080	0,109
-609,459	327,176	0,071	0,099
-608,444	-150,041	0,023	-0,001
-607,430	-200,000	-0,010	-0,142
-606,415	89,818	0,037	0,030
-605,401	534,102	0,018	0,032
-604,386	547,026	-0,081	0,141
-603,371	728,791	0,085	0,165
-602,357	319,883	-0,049	0,068
-601,342	-200,000	-0,003	0,021
-600,328	-200,000	-0,035	-0,116
-599,313	131,442	0,049	-0,046
-598,298	-142,203	-0,046	-0,003
-597,284	252,397	-0,023	0,029
-596,269	-34,509	-0,124	-0,049
-595,255	347,633	-0,032	0,045
-594,240	73,059	-0,044	0,033
-593,225	155,940	-0,094	-0,094
-592,211	171,742	0,077	-0,080
-591,196	-19,598	0,159	0,071
-590,182	-55,384	0,080	-0,026
-589,167	-38,890	-0,133	0,050
-588,152	-200,000	-0,002	0,026
-587,138	81,778	-0,112	-0,087
-586,123	117,512	-0,131	0,117
-585,109	63,777	-0,006	-0,004
-584,094	275,268	0,049	-0,063
-583,079	141,511	0,094	0,090
-582,065	-200,000	0,002	0,130
-581,050	294,580	-0,119	0,157
-580,036	-168,189	0,016	-0,000
-579,021	96,226	0,043	0,035
-578,006	41,538	0,043	0,028
-576,992	-47,148	0,080	0,028
-575,977	409,932	0,007	0,011
-574,963	-200,000	0,005	0,018
-573,948	-200,000	-0,004	0,101
-572,934	297,777	-0,055	0,073
-571,919	-68,683	-0,117	-0,032
-570,904	800,000	-0,046	-0,103
-569,890	523,120	0,116	0,199
-568,875	800,000	0,013	0,036
-567,861	669,736	0,036	0,067
-566,846	-200,000	-0,009	-0,034
-565,831	-130,878	0,025	0,002
-564,817	-109,960	-0,097	0,015
-563,802	800,000	-0,075	-0,151
-562,788	-139,535	-0,114	0,009
-561,773	800,000	-0,007	-0,016
-560,758	-50,732	0,078	0,026
-559,744	143,587	-0,081	-0,078
-558,729	-200,000	0,001	-0,121
-557,715	69,829	-0,148	0,110
-556,700	-200,000	0,024	0,095
-555,685	405,883	0,029	-0,044
-554,671	64,324	0,079	-0,058
-553,656	172,367	0,090	0,094
-552,642	-164,966	0,049	-0,002
-551,627	-200,000	0,032	-0,171
-550,612	-113,519	-0,156	0,022
-549,598	102,787	0,154	-0,130
-548,583	-40,830	-0,073	-0,027
-547,569	345,835	-0,067	-0,096
-546,554	-119,674	0,050	-0,006
-545,539	-42,521	0,076	-0,028
-544,525	51,013	0,033	-0,022
-543,510	65,043	-0,038	0,028
-542,496	123,250	-0,069	-0,062
-541,481	60,533	0,070	-0,050
-540,466	-200,000	0,008	0,109
-539,452	-10,167	-0,137	0,066
-538,437	592,623	0,043	0,076
-537,423	-69,366	0,079	0,022
-536,408	-22,311	-0,175	-0,076
-535,393	-59,727	0,125	-0,039
-534,379	800,000	0,083	-0,176
-533,364	4,199	0,037	-0,020
-532,350	-69,391	0,061	0,017
-531,335	44,718	0,082	-0,054
-530,321	-129,365	0,127	0,013
-529,306	-200,000	0,033	0,177
-528,291	398,579	-0,041	0,062
-527,277	-200,000	-0,024	0,082
-526,262	27,291	-0,024	0,015
-525,248	-200,000	-0,011	0,083
-524,233	149,940	0,112	-0,110
-523,218	-200,000	0,025	0,088
-522,204	800,000	-0,055	-0,119
-521,189	800,000	0,047	-0,111
-520,175	-34,925	-0,167	-0,066
-519,160	-17,893	-0,188	-0,085
-518,145	-45,318	0,128	-0,046
-517,131	343,587	0,056	0,079
-516,116	-58,107	0,128	0,040
-515,102	-74,489	0,221	0,057
-514,087	152,564	-0,050	-0,050
-513,072	-200,000	0,045	-0,251
-512,058	270,804	-0,051	-0,065
-511,043	-26,720	0,027	0,011
-510,029	13,447	0,071	-0,039
-509,014	-43,275	0,054	0,020
-507,999	188,051	-0,084	0,091
-506,985	315,702	0,035	-0,047
-505,970	-106,567	-0,093	-0,015
-504,956	-55,497	-0,101	-0,032
-503,941	-4,677	-0,053	0,026
-502,926	754,046	0,059	-0,115
-501,912	-200,000	0,038	0,133
-500,897	150,791	0,063	0,062
-499,883	800,000	0,012	-0,030
-498,868	38,571	-0,064	0,041
-497,853	-200,000	-0,029	0,099
-496,839	-200,000	0,039	-0,180
-495,824	493,981	0,021	-0,034
-494,810	-200,000	0,041	0,193
-493,795	696,302	0,043	0,083
-492,781	289,006	-0,043	-0,057
-491,766	800,000	-0,021	0,049
-490,751	800,000	-0,032	-0,080
-489,737	450,842	-0,040	-0,063
-488,722	800,000	0,018	0,041
-487,708	-2,762	-0,096	-0,048
-486,693	120,197	-0,030	0,027
-485,678	674,103	-0,039	-0,073
-484,664	128,120	-0,053	0,048
-483,649	-4,038	-0,050	-0,025
-482,635	347,805	-0,081	-0,115
-481,620	139,143	0,119	0,113
-480,605	-120,694	0,077	-0,009
-479,591	58,890	-0,130	-0,092
-478,576	490,080	-0,037	-0,062
-477,562	126,322	0,036	-0,033
-476,547	137,963	-0,052	-0,049
-475,532	138,303	-0,106	-0,100
-474,518	94,045	0,041	-0,033
-473,503	-200,000	0,008	0,075
-472,489	285,160	-0,031	0,041
-471,474	-9,870	-0,075	-0,036
-470,459	800,000	-0,009	0,021
-469,445	165,447	-0,026	-0,026
-468,430	296,217	-0,013	-0,017
-467,416	-200,000	0,017	-0,134
-466,401	422,635	-0,033	0,051
-465,386	-200,000	-0,004	0,059
-464,372	-77,696	0,159	0,039
-463,357	2,739	-0,124	0,064
-462,343	180,335	-0,053	-0,056
-461,328	155,716	-0,122	0,121
-460,313	800,000	0,013	-0,030
-459,299	53,245	0,073	0,050
-458,284	800,000	0,050	0,114
-457,270	-105,024	-0,041	0,007
-456,255	82,669	-0,068	0,053
-455,241	-200,000	-0,003	-0,072
-454,226	-53,254	0,052	0,017
-453,211	614,078	-0,070	0,127
-452,197	-200,000	-0,011	0,076
-451,182	225,646	0,054	-0,063
-450,168	-119,110	-0,116	0,014
-449,153	677,422	0,046	0,086
-448,138	-200,000	0,033	-0,130
-447,124	-200,000	-0,017	-0,115
-446,109	46,681	-0,068	-0,045
-445,095	-120,010	0,139	-0,017
-444,080	-30,351	-0,096	0,039
-443,065	800,000	-0,033	0,096
-442,051	-200,000	0,011	-0,123
-441,036	-200,000	0,014	-0,095
-440,022	369,376	-0,055	-0,080
-439,007	-78,049	0,124	-0,031
-437,992	-86,899	0,063	-0,014
-436,978	-200,000	-0,005	-0,031
-435,963	-200,000	0,000	-0,037
-434,949	-200,000	-0,025	-0,132
-433,934	800,000	0,037	0,084
-432,919	90,166	0,022	0,017
-431,905	23,578	0,097	-0,057
-430,890	-83,155	0,076	0,017
-429,876	-79,906	0,101	0,024
-428,861	-66,690	-0,040	0,011
-427,846	724,306	0,053	-0,101
-426,832	-200,000	0,002	0,119
-425,817	-17,081	0,095	-0,043
-424,803	-200,000	-0,004	0,092
-423,788	637,679	-0,048	0,088
-422,773	333,724	0,036	-0,051
-421,759	512,671	0,064	0,108
-420,744	425,650	0,042	0,066
-419,730	-200,000	0,036	-0,131
-418,715	33,709	-0,111	-0,069
-417,701	-84,608	-0,109	-0,024
-416,686	-92,313	0,047	0,009
-415,671	47,664	0,057	0,038
-414,657	-200,000	-0,009	0,039
-413,642	217,119	0,071	-0,082
-412,628	800,000	-0,036	-0,072
-411,613	-49,634	0,057	-0,020
-410,598	106,920	-0,067	-0,057
-409,584	-110,532	0,086	0,013
-408,569	-80,836	0,010	-0,002
-407,555	-59,219	0,098	-0,030
-406,540	45,651	-0,093	0,062
-405,525	104,961	0,029	0,025
-404,511	7,645	0,056	0,030
-403,496	-200,000	0,000	-0,098
-402,482	111,797	0,091	-0,079
-401,467	-16,732	0,092	-0,041
-400,452	69,548	0,063	0,047
-399,438	463,858	-0,068	0,109
-398,423	244,049	-0,076	-0,091
-397,409	800,000	0,048	-0,137
-396,394	-15,614	-0,071	-0,032
-395,379	-200,000	-0,034	-0,113
-394,365	-62,021	-0,133	-0,040
-393,350	-48,558	-0,076	0,026
-392,336	800,000	0,062	0,135
-391,321	692,958	-0,086	0,163
-390,306	-149,727	-0,131	0,007
-389,292	-6,964	0,101	-0,049
-388,277	800,000	0,022	0,059
-387,263	749,756	0,047	-0,091
-386,248	-59,393	0,079	0,024
-385,233	-200,000	0,023	0,079
-384,219	25,243	0,061	-0,036
-383,204	-200,000	0,011	0,048
-382,190	800,000	-0,047	-0,127
-381,175	92,574	-0,101	0,082
-380,160	-200,000	0,023	-0,081
-379,146	-4,561	0,119	0,059
-378,131	585,902	0,090	0,159
-377,117	52,078	-0,091	-0,062
-376,102	661,112	-0,050	0,093
-375,088	320,914	-0,096	-0,131
-374,073	-200,000	-0,006	-0,163
-373,058	494,679	-0,074	0,123
-372,044	-200,000	0,017	0,104
-371,029	-192,024	-0,064	-0,000
-370,015	163,840	-0,015	-0,015
-369,000	57,501	0,026	0,018
-367,985	313,519	0,039	0,052
-366,971	-200,000	-0,023	0,077
-365,956	-13,705	0,037	0,017
-364,942	-103,843	-0,046	-0,008
-363,927	-130,911	-0,088	-0,008
-362,912	235,736	0,014	0,016
-361,898	280,682	-0,095	-0,123
-360,883	800,000	-0,036	-0,080
-359,869	-72,324	0,107	0,028
-358,854	605,580	0,071	0,127
-357,839	-105,010	0,097	0,016
-356,825	-200,000	-0,029	0,152
-355,810	-200,000	-0,004	-0,032
-354,796	800,000	-0,017	0,037
-353,781	-200,000	-0,003	-0,119
-352,766	-200,000	0,013	-0,120
-351,752	800,000	-0,052	-0,164
-350,737	177,302	0,052	0,054
-349,723	-22,283	0,127	0,055
-348,708	274,267	-0,055	-0,070
-347,693	468,097	0,006	0,009
-346,679	-200,000	0,003	-0,087
-345,664	-106,418	-0,086	-0,014
-344,650	800,000	0,028	0,077
-343,635	-53,955	0,083	0,027
-342,620	396,974	-0,026	-0,039
-341,606	101,319	0,087	0,073
-340,591	-58,821	0,077	0,024
-339,577	-200,000	-0,032	-0,156
-338,562	-200,000	0,004	0,093
-337,548	460,872	-0,023	0,036
-336,533	38,812	0,052	-0,033
-335,518	437,175	0,053	0,083
-334,504	-200,000	0,029	0,102
-333,489	800,000	-0,019	-0,046
-332,475	-116,257	0,104	0,014
-331,460	-200,000	-0,020	-0,184
-330,445	553,663	0,073	-0,126
-329,431	3,494	0,119	-0,062
-328,416	-34,463	0,127	0,050
-327,402	-200,000	0,043	0,150
-326,387	-200,000	-0,010	0,061
-325,372	-200,000	-0,004	0,046
-324,358	-200,000	0,013	-0,047
-323,343	612,589	0,051	0,093
-322,329	-200,000	0,024	-0,093
-321,314	379,481	0,051	0,074
-320,299	-90,891	0,068	0,014
-319,285	800,000	-0,039	0,118
-318,270	800,000	0,028	0,059
-317,256	800,000	-0,030	-0,066
-316,241	279,386	0,051	0,066
-315,226	-200,000	0,023	0,075
-314,212	-84,536	-0,097	0,022
-313,197	-200,000	0,007	0,108
-312,183	50,407	0,090	0,061
-311,168	-200,000	0,003	0,122
-310,153	31,285	-0,115	-0,071
-309,139	-66,234	-0,074	-0,021
-308,124	1,159	0,205	0,105
-307,110	-129,957	0,226	-0,022
-306,095	-118,063	-0,062	0,008
-305,080	-200,000	0,003	-0,029
-304,066	-92,506	-0,048	0,010
-303,051	800,000	-0,043	0,105
-302,037	57,977	-0,086	-0,060
-301,022	-200,000	0,013	0,052
-300,008	-14,107	0,068	0,031
-298,993	139,753	-0,080	0,076
-297,978	28,478	0,006	0,004
-296,964	-190,873	-0,169	-0,001
-295,949	800,000	-0,048	0,117
-294,935	800,000	-0,027	0,059
-293,920	-200,000	0,131	-0,000
-292,905	-117,869	0,068	0,009
-291,891	371,480	-0,123	0,179
-290,876	800,000	0,036	0,086
-289,862	-8,094	-0,193	-0,092
-288,847	-172,457	-0,134	0,003
-287,832	-78,455	0,036	0,009
-286,818	-181,375	0,020	0,000
-285,803	82,393	-0,087	-0,068
-284,789	-1,565	0,141	0,071
-283,774	800,000	0,024	0,065
-282,759	201,034	-0,091	0,100
-281,745	-138,712	-0,129	0,010
-280,730	-8,360	0,067	-0,032
-279,716	11,391	-0,003	0,002
-278,701	-200,000	0,006	0,169
-277,686	-67,802	-0,061	0,017
-276,672	-200,000	0,006	0,047
-275,657	215,584	0,056	0,064
-274,643	-200,000	-0,023	-0,098
-273,628	-48,707	-0,133	0,045
-272,613	2,392	-0,097	-0,050
-271,599	-1,648	-0,101	-0,051
-270,584	368,284	0,043	0,063
-269,570	800,000	-0,007	0,019
-268,555	-135,726	-0,021	0,002
-267,540	-200,000	0,001	0,033
-266,526	-200,000	0,015	-0,090
-265,511	-200,000	0,037	-0,132
-264,497	403,088	-0,028	-0,042
-263,482	-159,258	0,011	-0,000
-262,467	317,388	0,040	-0,054
-261,453	137,172	-0,087	-0,081
-260,438	58,758	-0,107	-0,075
-259,424	319,871	0,054	-0,073
-258,409	-200,000	0,033	0,148
-257,395	47,772	0,093	0,062
-256,380	86,425	0,035	-0,028
-255,365	-164,824	0,062	-0,002
-254,351	313,178	-0,039	0,053
-253,336	126,557	-0,061	0,055
-252,322	800,000	-0,075	-0,171
-251,307	81,922	-0,038	0,029
-250,292	302,844	0,086	-0,114
-249,278	-200,000	-0,002	0,105
-248,263	800,000	-0,027	0,075
-247,249	68,445	0,068	0,050
-246,234	456,258	-0,027	-0,043
-245,219	-171,294	0,069	-0,002
-244,205	-200,000	0,031	-0,151
-243,190	-200,000	-0,016	0,150
-242,176	60,627	-0,090	-0,064
-241,161	76,731	0,069	0,052
-240,146	800,000	0,029	0,070
-239,132	-129,555	-0,145	0,014
-238,117	-200,000	-0,011	-0,126
-237,103	464,244	-0,052	-0,083
-236,088	800,000	0,012	-0,033
-235,073	-200,000	-0,001	-0,012
-234,059	-151,133	-0,136	-0,007
-233,044	-200,000	0,043	0,157
-232,030	-200,000	0,002	0,008
-231,015	-200,000	0,016	-0,189
-230,000	-200,000	0,012	0,102
-228,986	-88,011	-0,072	0,015
-227,971	100,047	0,052	-0,043
-226,957	-200,000	-0,019	0,067
-225,942	39,730	0,073	0,046
-224,927	-10,907	-0,133	-0,063
-223,913	-200,000	-0,011	-0,040
-222,898	-200,000	-0,031	-0,127
-221,884	-11,845	0,145	-0,068
-220,869	-113,830	0,053	0,007
-219,855	13,303	-0,016	-0,009
-218,840	261,940	-0,068	-0,084
-217,825	108,338	-0,045	-0,039
-216,811	109,991	0,029	0,025
-215,796	142,479	-0,089	-0,084
-214,782	800,000	-0,053	-0,121
-213,767	476,615	0,073	0,118
-212,752	485,026	0,075	0,123
-211,738	91,064	-0,057	-0,046
-210,723	60,022	0,054	0,038
-209,709	22,133	0,076	-0,044
-208,694	75,938	-0,017	-0,013
-207,679	187,620	-0,082	-0,087
-206,665	800,000	-0,047	-0,095
-205,650	-110,076	0,152	0,022
-204,636	-99,763	0,038	0,007
-203,621	-181,193	0,067	0,001
-202,606	-149,233	-0,071	0,004
-201,592	-200,000	0,016	-0,076
-200,577	-200,000	-0,011	-0,090
-199,563	230,061	-0,032	0,037
-198,548	-0,974	0,116	0,059
-197,533	119,597	-0,028	-0,025
-196,519	135,706	0,096	-0,089
-195,504	-74,006	-0,104	0,027
-194,490	184,634	0,047	-0,049
-193,475	800,000	-0,064	0,156
-192,460	-182,492	-0,068	-0,001
-191,446	506,787	0,045	0,075
-190,431	-200,000	0,018	0,086
-189,417	-175,583	0,106	0,002
-188,402	-200,000	-0,011	-0,060
-187,387	174,223	0,080	0,083
-186,373	800,000	-0,046	-0,116
-185,358	479,792	0,012	-0,020
-184,344	800,000	-0,014	-0,032
-183,329	800,000	0,040	0,098
-182,315	9,424	-0,073	0,039
-181,300	-24,953	-0,089	0,038
-180,285	-200,000	-0,019	-0,074
-179,271	-82,496	0,142	-0,033
-178,256	115,378	0,056	0,049
-177,242	71,576	0,137	0,101
-176,227	6,313	0,092	0,048
-175,212	-200,000	-0,003	-0,061
-174,198	40,083	-0,129	0,082
-173,183	800,000	0,044	-0,127
-172,169	-41,714	-0,075	0,027
-171,154	-22,656	0,028	0,012
-170,139	114,674	0,071	0,062
-169,125	-111,451	0,153	-0,022
-168,110	132,100	-0,093	-0,085
-167,096	-200,000	0,015	0,087
-166,081	-200,000	-0,013	0,104
-165,066	-200,000	-0,021	-0,113
-164,052	-200,000	-0,004	-0,053
-163,037	800,000	0,036	-0,074
-162,023	19,705	0,043	0,025
-161,008	-200,000	-0,024	0,087
-159,993	-195,303	0,105	-0,001
-158,979	629,561	-0,076	-0,137
-157,964	-118,304	-0,127	-0,016
-156,950	90,099	-0,073	-0,058
-155,935	800,000	0,035	-0,101
-154,920	-200,000	-0,030	0,143
-153,906	-200,000	-0,023	0,131
-152,891	120,202	0,105	0,092
-151,877	499,509	-0,046	-0,075
-150,862	-52,081	0,076	-0,025
-149,847	800,000	0,029	0,083
-148,833	38,471	-0,161	0,102
-147,818	-198,971	0,144	-0,001
-146,804	-46,953	-0,120	-0,041
-145,789	153,621	0,040	-0,039
-144,775	-200,000	0,027	0,112
-143,760	-112,112	-0,095	-0,013
-142,745	44,761	-0,083	-0,054
-141,731	-200,000	0,013	-0,050
-140,716	800,000	0,069	0,137
-139,702	696,575	0,013	0,024
-138,687	-200,000	-0,001	-0,014
-137,672	800,000	0,014	-0,041
-136,658	-159,596	-0,029	0,001
-135,643	-117,612	-0,136	0,017
-134,629	229,810	0,118	0,137
-133,614	-200,000	-0,009	-0,068
-132,599	-200,000	0,012	0,041
-131,585	191,785	0,038	-0,041
-130,570	-63,294	0,108	-0,031
-129,556	-48,187	0,109	-0,037
-128,541	349,087	-0,076	-0,107
-127,526	-73,462	0,099	-0,025
-126,512	800,000	-0,023	-0,054
-125,497	129,796	-0,029	-0,027
-124,483	276,220	0,045	0,057
-123,468	-157,817	-0,029	-0,001
-122,453	-10,418	-0,133	-0,062
-121,439	30,692	0,171	-0,104
-120,424	204,677	0,067	0,074
-119,410	800,000	0,020	-0,044
-118,395	-96,785	-0,169	0,031
-117,380	-133,001	0,148	-0,013
-116,366	216,013	-0,087	0,099
-115,351	800,000	0,035	-0,073
-114,337	-44,072	-0,051	0,018
-113,322	297,383	-0,037	-0,048
-112,307	301,501	0,077	-0,102
-111,293	-18,415	0,170	-0,075
-110,278	54,460	-0,016	-0,011
-109,264	800,000	0,002	0,004
-108,249	419,310	0,033	-0,050
-107,234	721,902	-0,070	-0,134
-106,220	264,826	-0,076	0,095
-105,205	133,148	0,110	-0,101
-104,191	58,214	-0,031	0,022
-103,176	102,212	0,041	-0,034
-102,162	-200,000	-0,029	-0,124
-101,147	-57,725	0,053	-0,017
-100,132	-55,353	-0,090	-0,029
-99,118	-200,000	-0,030	-0,137
-98,103	-200,000	-0,010	-0,073
-97,089	-200,000	0,009	0,045
-96,074	-200,000	-0,020	0,141
-95,059	-13,059	-0,055	-0,025
-94,045	-200,000	0,041	-0,141
-93,030	-200,000	-0,024	0,076
-92,016	-200,000	0,043	0,137
-91,001	-78,201	-0,080	-0,019
-89,986	13,196	0,145	-0,079
-88,972	748,056	-0,021	0,040
-87,957	-183,268	0,085	0,001
-86,943	321,032	0,032	-0,043
-85,928	800,000	0,042	-0,088
-84,913	129,412	-0,095	0,086
-83,899	649,903	0,065	0,119
-82,884	100,301	0,164	-0,135
-81,870	-200,000	0,009	0,100
-80,855	-200,000	-0,004	0,124
-79,840	800,000	0,019	0,056
-78,826	-59,819	-0,177	-0,053
-77,811	6,338	-0,143	-0,075
-76,797	-200,000	0,002	-0,017
-75,782	221,750	-0,038	0,044
-74,767	224,298	0,070	0,080
-73,753	-200,000	-0,012	-0,040
-72,738	9,592	-0,031	0,017
-71,724	414,520	-0,149	-0,226
-70,709	-200,000	-0,012	-0,094
-69,694	4,604	0,083	0,043
-68,680	9,662	-0,148	-0,079
-67,665	-102,872	0,171	-0,029
-66,651	191,116	-0,040	-0,043
-65,636	-131,747	-0,247	0,023
-64,622	-200,000	0,018	-0,122
-63,607	208,536	-0,071	0,079
-62,592	800,000	-0,049	-0,109
-61,578	14,321	0,102	0,056
-60,563	276,956	-0,075	-0,095
-59,549	-95,617	0,129	0,024
-58,534	-88,712	-1,390	-0,290
-57,519	333,609	-1,558	-2,141
-56,505	-200,000	-0,626	-4,457
-55,490	370,288	0,864	1,244
-54,476	800,000	4,653	10,828
-53,461	-200,000	17,769	285,035
-52,446	800,000	722,657	2232,622
-51,432	562,868	1637,628	2819,494
-50,417	80,625	1660,847	1267,012
-49,403	23,441	1534,832	891,956
-48,388	17,370	1458,137	818,067
-47,373	18,050	1447,765	815,481
-46,359	17,550	1438,459	807,818
-45,344	15,662	1433,957	796,269
-44,330	15,597	1431,901	794,789
-43,315	15,618	1430,126	793,871
-42,300	15,606	1428,403	792,827
-41,286	15,620	1427,208	792,199
-40,271	15,617	1426,032	791,499
-39,257	15,583	1424,767	790,605
-38,242	15,639	1423,439	790,101
-37,227	15,675	1422,068	789,480
-36,213	15,633	1420,996	788,655
-35,198	15,667	1419,674	788,053
-34,184	15,682	1418,930	787,674
-33,169	15,607	1417,657	786,586
-32,154	15,686	1416,398	786,229
-31,140	15,661	1415,245	785,439
-30,125	15,698	1413,949	784,863
-29,111	15,656	1413,008	784,111
-28,096	15,628	1411,845	783,304
-27,082	15,593	1410,727	782,488
-26,067	15,582	1409,571	781,762
-25,052	15,633	1408,425	781,337
-24,038	15,544	1407,547	780,404
-23,023	15,599	1406,358	779,968
-22,009	15,569	1405,525	779,334
-20,994	15,517	1404,737	778,624
-19,979	15,499	1403,783	777,982
-18,965	15,518	1402,590	777,377
-17,950	15,492	1401,820	776,801
-16,936	15,508	1400,761	776,258
-15,921	15,465	1399,616	775,393
-14,906	15,470	1398,651	774,852
-13,892	15,500	1397,572	774,358
-12,877	15,499	1396,836	773,918
-11,863	15,530	1395,751	773,429
-10,848	15,455	1395,010	772,638
-9,833	15,431	1394,163	772,030
-8,819	15,402	1393,224	771,343
-7,804	15,382	1392,201	770,655
-6,790	15,365	1391,233	770,009
-5,775	15,366	1390,282	769,455
-4,760	15,416	1389,352	769,145
-3,746	15,374	1388,586	768,496
-2,731	15,351	1387,856	767,953
-1,717	15,391	1386,638	767,435
-0,702	15,400	1384,894	766,482
0,313	19,212	1305,577	740,184
1,327	35,529	707,032	438,668
2,342	54,486	125,067	85,200
3,356	1,606	16,651	8,459
4,371	7,101	3,041	1,601
5,386	-9,906	0,513	0,241
6,400	-200,000	0,018	0,097
7,415	-100,820	-0,291	-0,050
8,429	67,084	-0,287	-0,207
9,444	150,295	-0,240	-0,231
10,459	83,720	-0,277	-0,213
11,473	6,953	-0,317	-0,167
12,488	-18,589	-0,299	-0,131
13,502	-56,506	-0,329	-0,102
14,517	-81,311	-0,222	-0,051
15,531	-11,629	-0,510	-0,236
16,546	144,014	-0,336	-0,317
17,561	114,418	-0,350	-0,301
18,575	26,388	-0,116	-0,068
19,590	80,696	-0,315	-0,240
20,604	167,471	-0,187	-0,188
21,619	87,450	-0,377	-0,295
22,634	101,349	-0,399	-0,329
23,648	105,163	-0,385	-0,321
24,663	88,916	-0,344	-0,271
25,677	247,155	-0,270	-0,323
26,692	7,916	-0,460	-0,243
27,707	-23,982	-0,337	-0,142
28,721	18,353	-0,423	-0,238
29,736	189,350	-0,339	-0,359
30,750	83,239	-0,378	-0,290
31,765	43,993	-0,413	-0,267
32,780	52,191	-0,461	-0,310
33,794	759,263	-0,156	-0,299
34,809	46,032	-0,375	-0,245
35,823	129,400	-0,336	-0,303
36,838	86,487	-0,379	-0,294
37,853	17,053	-0,493	-0,275
38,867	72,014	-0,394	-0,289
39,882	55,294	-0,434	-0,296
40,896	8,212	-0,356	-0,188
41,911	-2,451	-0,347	-0,171
42,926	184,000	-0,336	-0,351
43,940	134,099	-0,436	-0,398
44,955	65,880	-0,411	-0,293
45,969	81,902	-0,437	-0,333
46,984	305,331	-0,233	-0,306
47,999	235,423	-0,243	-0,283
49,013	130,315	-0,314	-0,284
50,028	203,650	-0,350	-0,382
51,042	62,089	-0,378	-0,266
52,057	-6,760	-0,363	-0,174
53,071	37,845	-0,302	-0,189
54,086	120,129	-0,268	-0,234
55,101	188,655	-0,270	-0,285
56,115	105,261	-0,331	-0,275
57,130	36,603	-0,336	-0,208
58,144	100,914	-0,275	-0,225
59,159	154,292	-0,403	-0,390
60,174	295,910	-0,333	-0,431
61,188	-69,173	-0,332	-0,089
62,203	290,261	-0,235	-0,301
63,217	-78,609	-0,389	-0,093
64,232	-54,044	-0,358	-0,114
65,247	237,301	-0,262	-0,307
66,261	-68,654	-0,369	-0,100
67,276	67,077	-0,395	-0,283
68,290	70,305	-0,444	-0,322
69,305	16,568	-0,310	-0,172
70,320	376,375	-0,201	-0,289
71,334	-8,157	-0,369	-0,174
72,349	160,784	-0,298	-0,293
73,363	-12,757	-0,260	-0,119
74,378	-52,857	-0,291	-0,094
75,393	44,065	-0,408	-0,263
76,407	92,763	-0,283	-0,224
77,422	58,065	-0,224	-0,154
78,436	30,276	-0,236	-0,141
79,451	-20,652	-0,375	-0,161
80,466	-52,917	-0,404	-0,130
81,480	106,707	-0,256	-0,214
82,495	95,574	-0,442	-0,355
83,509	15,493	-0,319	-0,176
84,524	72,271	-0,230	-0,168
85,539	3,130	-0,374	-0,191
86,553	83,967	-0,302	-0,231
87,568	201,112	-0,325	-0,352
88,582	-21,840	-0,353	-0,150
89,597	-70,211	-0,255	-0,068
90,611	800,000	-0,090	-0,270
91,626	-2,311	-0,296	-0,145
92,641	61,693	-0,294	-0,205
93,655	12,482	-0,292	-0,157
94,670	126,235	-0,243	-0,216
95,684	153,135	-0,301	-0,289
96,699	75,079	-0,281	-0,208
97,714	146,722	-0,217	-0,205
98,728	86,026	-0,318	-0,246
99,743	23,927	-0,252	-0,146
100,757	37,954	-0,172	-0,107
101,772	37,980	-0,181	-0,113
102,787	392,657	-0,193	-0,283
103,801	359,231	-0,234	-0,330
104,816	141,156	-0,312	-0,290
105,830	217,170	-0,235	-0,263
106,845	-128,389	-0,202	-0,020
107,860	71,951	-0,255	-0,186
108,874	-78,787	-0,320	-0,076
109,889	169,227	-0,248	-0,249
110,903	356,938	-0,121	-0,170
111,918	1,900	-0,319	-0,161
112,933	-7,943	-0,270	-0,127
113,947	-123,251	-0,283	-0,031
114,962	-97,954	-0,234	-0,042
115,976	127,485	-0,306	-0,273
116,991	7,844	-0,297	-0,155
118,006	-67,460	-0,340	-0,093
119,020	122,709	-0,378	-0,331
120,035	49,415	-0,190	-0,125
121,049	310,155	-0,122	-0,160
122,064	-28,847	-0,302	-0,121
123,079	79,312	-0,249	-0,187
124,093	34,699	-0,264	-0,161
125,108	211,664	-0,223	-0,246
126,122	53,072	-0,306	-0,205
127,137	-102,242	-0,306	-0,051
128,151	2,038	-0,139	-0,070
129,166	21,491	-0,295	-0,167
130,181	313,585	-0,221	-0,291
131,195	67,947	-0,234	-0,167
132,210	196,526	-0,201	-0,215
133,224	138,963	-0,239	-0,220
134,239	275,637	-0,239	-0,297
135,254	247,340	-0,144	-0,170
136,268	97,639	-0,246	-0,198
137,283	24,721	-0,305	-0,176
138,297	197,384	-0,351	-0,375
139,312	478,206	-0,195	-0,309
140,327	96,987	-0,331	-0,265
141,341	67,442	-0,138	-0,098
142,356	295,198	-0,177	-0,226
143,370	137,835	-0,241	-0,221
144,385	-95,297	-0,086	-0,016
145,400	239,467	-0,252	-0,293
146,414	291,410	-0,220	-0,280
147,429	-3,458	-0,403	-0,195
148,443	68,983	-0,275	-0,197
149,458	800,000	-0,111	-0,228
150,473	800,000	-0,097	-0,223
151,487	-121,884	-0,227	-0,026
152,502	209,064	-0,147	-0,161
153,516	164,380	-0,152	-0,150
154,531	5,089	-0,235	-0,121
155,546	551,693	-0,137	-0,231
156,560	591,681	-0,177	-0,306
157,575	364,030	-0,120	-0,169
158,589	17,450	-0,285	-0,157
159,604	-66,941	-0,206	-0,057
160,619	216,727	-0,214	-0,238
161,633	210,755	-0,183	-0,202
162,648	-0,424	-0,270	-0,133
163,662	148,331	-0,165	-0,155
164,677	131,584	-0,240	-0,216
165,692	1,066	-0,206	-0,103
166,706	479,799	-0,114	-0,180
167,721	135,749	-0,207	-0,189
168,735	52,452	-0,303	-0,202
169,750	-113,188	-0,189	-0,026
170,764	58,522	-0,309	-0,211
171,779	800,000	-0,127	-0,265
172,794	8,604	-0,359	-0,188
173,808	222,934	-0,168	-0,189
174,823	299,855	-0,137	-0,177
175,837	55,674	-0,288	-0,194
176,852	-153,724	-0,248	-0,012
177,867	341,061	-0,151	-0,206
178,881	433,177	-0,127	-0,192
179,896	-35,673	-0,204	-0,077
180,910	60,810	-0,191	-0,132
181,925	284,594	-0,246	-0,309
182,940	326,810	-0,185	-0,248
183,954	392,913	-0,170	-0,248
184,969	-171,724	-0,270	-0,006
185,983	-119,386	-0,160	0,019
186,998	800,000	-0,107	-0,264
188,013	42,337	-0,166	-0,105
189,027	374,823	-0,151	-0,215
190,042	383,926	-0,170	-0,244
191,056	-13,690	-0,177	-0,080
192,071	28,769	-0,193	-0,113
193,086	-115,953	-0,099	0,013
194,100	482,446	-0,106	-0,168
195,115	395,041	-0,119	-0,174
196,129	28,100	-0,218	-0,128
197,144	-5,825	-0,240	-0,114
198,159	357,100	-0,151	-0,210
199,173	244,177	-0,149	-0,174
200,188	656,801	-0,138	-0,248
201,202	293,424	-0,184	-0,235
202,217	89,450	-0,272	-0,211
203,232	71,439	-0,257	-0,185
204,246	82,012	-0,269	-0,203
205,261	401,059	-0,172	-0,251
206,275	53,171	-0,152	-0,101
207,290	303,005	-0,182	-0,235
208,304	226,054	-0,157	-0,178
209,319	515,993	-0,123	-0,201
210,334	262,715	-0,130	-0,157
211,348	152,121	-0,215	-0,204
212,363	239,510	-0,184	-0,214
213,377	245,562	-0,182	-0,213
214,392	179,247	-0,184	-0,188
215,407	45,284	-0,147	-0,094
216,421	-115,787	-0,154	0,020
217,436	-54,583	-0,130	-0,041
218,450	-118,748	-0,204	-0,025
219,465	-49,570	-0,303	-0,100
220,480	107,262	-0,218	-0,180
221,494	315,311	-0,149	-0,196
222,509	106,331	-0,095	-0,078
223,523	375,357	-0,126	-0,180
224,538	48,534	-0,171	-0,111
225,553	507,244	-0,264	-0,427
226,567	-20,802	-0,297	-0,126
227,582	275,068	-0,154	-0,190
228,596	113,802	-0,222	-0,187
229,611	38,097	-0,298	-0,184
230,626	155,791	-0,112	-0,107
231,640	2,068	-0,217	-0,108
232,655	215,897	-0,179	-0,198
233,669	101,140	-0,295	-0,238
234,684	39,112	-0,147	-0,091
235,699	191,972	-0,200	-0,210
236,713	403,810	-0,106	-0,156
237,728	798,986	-0,116	-0,223
238,742	4,262	-0,209	-0,106
239,757	90,145	-0,154	-0,119
240,772	24,780	-0,286	-0,164
241,786	196,920	-0,132	-0,140
242,801	284,758	-0,206	-0,258
243,815	216,890	-0,058	-0,064
244,830	800,000	-0,047	0,093
245,844	-6,348	-0,148	-0,070
246,859	160,231	-0,223	-0,215
247,874	136,900	-0,136	-0,123
248,888	240,802	-0,191	-0,221
249,903	368,976	-0,151	-0,212
250,917	-34,293	-0,167	-0,063
251,932	29,464	-0,204	-0,120
252,947	63,124	-0,210	-0,146
253,961	-7,075	-0,236	-0,111
254,976	262,976	-0,159	-0,191
255,990	441,053	-0,238	-0,362
257,005	367,725	-0,138	-0,193
258,020	-145,053	-0,207	-0,013
259,034	83,926	-0,117	0,088
260,049	361,835	-0,098	-0,137
261,063	-39,472	-0,258	-0,093
262,078	80,779	-0,329	-0,245
263,093	33,278	-0,233	-0,140
264,107	32,743	-0,239	-0,143
265,122	-100,049	-0,134	-0,023
266,136	108,764	-0,109	-0,090
267,151	-18,748	-0,121	-0,052
268,166	-58,657	-0,179	-0,053
269,180	161,716	-0,206	-0,199
270,195	-36,565	-0,213	-0,079
271,209	194,477	-0,211	-0,222
272,224	-97,040	-0,239	0,043
273,239	151,120	-0,038	-0,036
274,253	-200,000	0,004	-0,050
275,268	109,650	-0,196	-0,162
276,282	273,078	-0,066	-0,081
277,297	280,263	-0,195	-0,241
278,312	214,342	-0,150	-0,165
279,326	236,844	-0,102	-0,116
280,341	-159,010	-0,132	0,005
281,355	800,000	-0,100	-0,268
282,370	708,501	-0,136	-0,249
283,384	83,726	-0,235	-0,177
284,399	-15,164	-0,258	-0,114
285,414	-143,719	-0,115	-0,007
286,428	-159,201	-0,116	-0,004
287,443	56,444	-0,169	-0,113
288,457	91,367	-0,114	-0,088
289,472	-200,000	-0,001	-0,188
290,487	552,738	-0,086	-0,144
291,501	352,407	-0,109	-0,150
292,516	121,699	-0,218	-0,188
293,530	89,718	-0,134	-0,103
294,545	-1,042	-0,162	-0,079
295,560	1,339	-0,205	-0,101
296,574	625,974	-0,081	-0,142
297,589	-200,000	-0,039	-0,171
298,603	-35,929	-0,278	-0,103
299,618	-7,901	-0,256	-0,119
300,633	364,426	-0,053	-0,074
301,647	-139,500	-0,241	0,018
302,662	-58,916	-0,159	-0,047
303,676	-85,848	-0,255	-0,054
304,691	204,186	-0,209	-0,223
305,706	267,248	-0,141	-0,170
306,720	-88,856	-0,256	-0,052
307,735	97,536	-0,091	-0,072
308,749	800,000	-0,044	-0,098
309,764	-47,237	-0,146	-0,049
310,779	513,646	-0,085	-0,138
311,793	1,743	-0,175	-0,086
312,808	25,381	-0,144	-0,082
313,822	-136,220	-0,101	-0,008
314,837	99,319	-0,097	-0,077
315,852	-62,056	-0,109	-0,031
316,866	8,597	-0,038	0,020
317,881	120,608	-0,092	-0,078
318,895	83,408	-0,127	-0,095
319,910	800,000	-0,094	-0,193
320,925	7,117	-0,138	-0,071
321,939	159,340	-0,097	-0,093
322,954	0,564	-0,105	-0,051
323,968	-106,968	-0,124	-0,019
324,983	-127,609	-0,160	0,016
325,997	119,520	-0,116	-0,099
327,012	160,671	-0,112	-0,107
328,027	546,526	-0,101	-0,167
329,041	245,900	-0,137	-0,159
330,056	183,297	-0,119	-0,121
331,070	37,606	-0,131	0,080
332,085	-13,240	-0,047	0,021
333,100	-100,851	-0,110	-0,018
334,114	67,815	-0,173	-0,121
335,129	-35,611	-0,104	-0,039
336,143	-38,045	-0,238	-0,086
337,158	-116,081	-0,211	-0,027
338,173	-95,428	-0,039	0,007
339,187	-88,111	-0,058	-0,012
340,202	800,000	-0,121	-0,231
341,216	239,073	-0,089	-0,102
342,231	209,388	-0,148	-0,159
343,246	143,072	-0,060	-0,055
344,260	80,577	-0,078	-0,057
345,275	99,867	-0,113	0,090
346,289	-53,981	-0,170	-0,053
347,304	-50,808	-0,133	-0,043
348,319	284,045	-0,131	-0,162
349,333	548,491	-0,106	-0,175
350,348	10,670	-0,179	-0,093
351,362	45,065	-0,114	-0,072
352,377	-49,955	-0,097	-0,031
353,392	-200,000	-0,038	-0,128
354,406	36,943	-0,112	-0,068
355,421	210,010	1314,563	1417,692
356,435	161,656	1475,293	1418,207
