DTS Sentinel unit serial number:	SN410029Multiplexer serial number:	ORYXHardware model number:	OX2-SRSoftware version number:	ORYX F/W v4,00 Oryx Data Collector v3.7.2.0data status	okinstallation	B3 Nyhavnadifferential loss correction	single-endedforward channel	channel 1reverse channel	N/Adate	2023/12/04time	17:22:30forward acquisition time	300,00reverse acquisition time	0,00gamma	499,1914k internal	0,3200k external	0,3200temperature offset calibration	1,0000default loss term (dB/km)	0,3820temperature slope calibration	1,0000multiplexer offset coefficient	1,0000multiplexer slope coefficient	1,0000fibre end	0,00T internal ref (°C)	15,12T ext. ref 1 (°C)	0,01T ext. ref 2 (°C)	-0,00length (m)	temperature (°C)	Stokes	anti-Stokes-744,400	800,000	-0,092	-0,191
-743,385	-200,000	0,083	0,346
-742,371	91,162	-0,214	-0,175
-741,356	-200,000	0,023	0,419
-740,342	258,373	-0,173	-0,217
-739,327	-200,000	0,112	0,394
-738,312	800,000	-0,122	-0,279
-737,298	164,417	0,102	0,105
-736,283	800,000	-0,179	-0,396
-735,269	-200,000	0,011	0,417
-734,254	1,081	-0,320	-0,166
-733,239	82,530	-0,235	0,185
-732,225	800,000	-0,060	-0,145
-731,210	15,087	0,100	0,057
-730,196	39,404	0,009	0,006
-729,181	-200,000	0,020	0,096
-728,167	-200,000	-0,010	-0,066
-727,152	-200,000	-0,001	-0,056
-726,137	-25,108	-0,067	-0,029
-725,123	291,447	-0,048	-0,064
-724,108	-105,875	-0,102	-0,017
-723,094	800,000	-0,049	-0,154
-722,079	-144,872	-0,050	-0,003
-721,064	800,000	0,025	-0,056
-720,050	-40,089	-0,079	0,030
-719,035	115,895	0,024	-0,021
-718,021	-200,000	0,009	-0,078
-717,006	-102,200	-0,166	-0,029
-715,991	215,080	-0,035	-0,041
-714,977	212,183	0,067	-0,076
-713,962	78,255	0,068	-0,052
-712,948	-51,962	0,083	0,028
-711,933	-154,484	-0,112	0,005
-710,918	-200,000	-0,024	0,095
-709,904	800,000	-0,049	0,133
-708,889	-160,610	-0,075	-0,003
-707,875	-7,169	-0,109	-0,054
-706,860	232,948	-0,041	-0,050
-705,845	-66,401	-0,144	-0,041
-704,831	-51,549	0,083	0,028
-703,816	399,488	0,076	-0,116
-702,802	48,248	-0,157	0,106
-701,787	-200,000	0,012	-0,123
-700,772	-151,574	-0,038	0,002
-699,758	52,400	-0,078	0,054
-698,743	-55,826	0,157	-0,051
-697,729	71,080	0,033	0,025
-696,714	63,750	-0,091	-0,067
-695,699	294,505	-0,102	-0,135
-694,685	-145,685	-0,064	0,004
-693,670	800,000	0,040	-0,115
-692,656	89,810	-0,063	-0,051
-691,641	800,000	-0,046	0,103
-690,627	-200,000	-0,038	-0,139
-689,612	431,559	0,024	-0,038
-688,597	-120,373	-0,091	-0,011
-687,583	63,915	-0,059	-0,043
-686,568	-87,287	-0,132	0,029
-685,554	-36,725	-0,196	-0,076
-684,539	-107,205	0,064	-0,010
-683,524	578,616	0,040	0,071
-682,510	800,000	0,025	-0,063
-681,495	14,723	-0,151	0,086
-680,481	-18,897	-0,053	-0,024
-679,466	139,149	-0,068	-0,065
-678,451	223,119	-0,025	-0,029
-677,437	46,020	0,026	0,018
-676,422	-200,000	0,007	-0,028
-675,408	-9,267	0,130	0,063
-674,393	-24,892	0,166	0,071
-673,378	-200,000	-0,029	-0,100
-672,364	800,000	-0,031	-0,082
-671,349	-37,239	0,023	0,009
-670,335	113,283	0,092	-0,081
-669,320	800,000	-0,030	-0,073
-668,305	35,960	0,060	-0,038
-667,291	-9,421	-0,071	-0,034
-666,276	109,395	0,050	-0,044
-665,262	-33,498	-0,150	-0,060
-664,247	-200,000	-0,000	-0,065
-663,232	-200,000	0,000	-0,084
-662,218	-200,000	-0,009	0,168
-661,203	800,000	0,023	0,067
-660,189	-200,000	-0,002	-0,032
-659,174	-157,982	0,081	0,003
-658,159	68,293	-0,082	-0,061
-657,145	-200,000	-0,009	-0,045
-656,130	194,184	0,064	-0,071
-655,116	-200,000	0,004	-0,043
-654,101	-106,816	-0,121	-0,019
-653,086	523,646	-0,087	0,148
-652,072	204,063	0,051	-0,057
-651,057	17,303	-0,121	-0,069
-650,043	-70,937	0,033	-0,009
-649,028	15,155	-0,041	-0,023
-648,014	664,644	-0,116	-0,218
-646,999	800,000	0,053	0,129
-645,984	-42,283	-0,098	-0,036
-644,970	773,128	-0,042	-0,083
-643,955	-200,000	-0,028	0,090
-642,941	591,600	-0,051	0,092
-641,926	800,000	0,063	0,146
-640,911	800,000	-0,031	-0,068
-639,897	-200,000	-0,016	0,098
-638,882	448,035	0,046	0,073
-637,868	-115,863	-0,069	0,009
-636,853	55,049	-0,076	0,053
-635,838	-200,000	-0,002	-0,112
-634,824	-93,070	-0,068	0,014
-633,809	-108,432	0,115	-0,018
-632,795	-37,014	0,047	0,018
-631,780	237,253	-0,059	0,071
-630,765	362,285	0,054	-0,079
-629,751	-79,822	-0,129	-0,031
-628,736	-87,722	-0,125	0,027
-627,722	165,993	-0,073	0,074
-626,707	-153,817	0,187	-0,009
-625,692	-102,658	0,087	0,015
-624,678	800,000	-0,039	0,086
-623,663	91,984	-0,039	-0,032
-622,649	214,963	-0,089	0,103
-621,634	-0,203	-0,189	-0,097
-620,619	1,703	-0,037	-0,019
-619,605	3,290	-0,072	0,038
-618,590	-82,388	0,069	-0,016
-617,576	800,000	0,024	-0,073
-616,561	-47,303	0,065	-0,023
-615,546	-200,000	0,009	-0,148
-614,532	18,670	0,129	-0,074
-613,517	194,647	-0,059	0,065
-612,503	572,774	-0,079	-0,139
-611,488	-200,000	0,024	-0,109
-610,474	-55,503	-0,013	-0,004
-609,459	-200,000	0,005	0,046
-608,444	4,489	-0,209	-0,110
-607,430	-176,819	-0,033	0,001
-606,415	58,477	-0,010	-0,007
-605,401	-166,051	-0,148	-0,004
-604,386	71,831	0,110	0,082
-603,371	91,935	-0,023	-0,019
-602,357	-200,000	-0,030	-0,129
-601,342	800,000	-0,040	-0,111
-600,328	-29,712	-0,047	-0,019
-599,313	349,498	-0,008	-0,011
-598,298	-170,945	0,097	0,002
-597,284	151,301	-0,107	-0,105
-596,269	-200,000	-0,010	-0,066
-595,255	738,315	0,022	-0,043
-594,240	145,278	-0,091	-0,088
-593,225	-200,000	0,006	0,029
-592,211	800,000	0,022	-0,070
-591,196	800,000	0,031	0,098
-590,182	800,000	0,042	0,121
-589,167	242,523	0,068	-0,083
-588,152	185,508	-0,051	0,055
-587,138	-0,912	0,122	-0,062
-586,123	800,000	-0,043	-0,103
-585,109	625,975	-0,038	-0,070
-584,094	-200,000	0,011	0,054
-583,079	-200,000	-0,001	-0,038
-582,065	800,000	-0,010	0,029
-581,050	-24,960	-0,026	0,011
-580,036	-200,000	0,015	-0,110
-579,021	-69,090	-0,028	-0,008
-578,006	103,716	-0,095	0,081
-576,992	52,226	0,098	-0,068
-575,977	-13,403	0,025	-0,012
-574,963	-200,000	-0,006	0,020
-573,948	800,000	0,057	0,146
-572,934	-10,706	-0,078	-0,037
-571,919	-175,526	0,043	0,001
-570,904	-200,000	0,029	-0,122
-569,890	-65,202	-0,183	-0,053
-568,875	113,193	0,044	0,039
-567,861	327,509	0,049	0,068
-566,846	436,004	-0,021	0,033
-565,831	-180,402	-0,069	-0,001
-564,817	800,000	0,010	0,031
-563,802	19,261	0,170	-0,098
-562,788	143,383	-0,024	0,023
-561,773	-200,000	0,004	0,083
-560,758	21,277	0,054	0,032
-559,744	257,144	-0,011	-0,013
-558,729	677,787	-0,034	-0,064
-557,715	142,661	-0,134	-0,128
-556,700	-87,168	-0,209	-0,045
-555,685	497,340	0,032	-0,054
-554,671	534,491	-0,039	0,067
-553,656	2,909	-0,047	-0,025
-552,642	-49,116	0,012	-0,004
-551,627	148,727	-0,029	0,029
-550,612	-174,110	-0,159	-0,003
-549,598	109,805	0,044	0,038
-548,583	63,586	-0,077	-0,056
-547,569	5,412	0,080	0,043
-546,554	213,260	-0,044	0,051
-545,539	42,194	0,086	0,057
-544,525	359,683	-0,073	0,106
-543,510	-90,586	0,115	-0,024
-542,496	73,935	-0,019	-0,014
-541,481	558,976	-0,067	-0,118
-540,466	644,128	-0,065	0,120
-539,452	741,296	-0,005	-0,011
-538,437	-200,000	0,019	-0,067
-537,423	128,953	0,032	0,029
-536,408	456,232	0,086	0,137
-535,393	-87,152	0,144	-0,031
-534,379	18,760	-0,091	-0,052
-533,364	-167,780	0,130	0,004
-532,350	-200,000	-0,006	0,084
-531,335	-118,663	0,029	0,004
-530,321	-66,720	0,179	0,051
-529,306	385,813	-0,046	0,069
-528,291	-200,000	0,011	-0,095
-527,277	-200,000	0,001	-0,131
-526,262	800,000	-0,036	-0,097
-525,248	-110,405	-0,040	-0,006
-524,233	-11,227	0,116	0,055
-523,218	158,497	-0,037	0,037
-522,204	676,060	0,040	-0,075
-521,189	-43,846	-0,089	-0,032
-520,175	-114,762	-0,044	-0,006
-519,160	48,280	-0,101	0,068
-518,145	663,462	0,069	0,129
-517,131	113,952	0,072	-0,063
-516,116	-200,000	0,019	0,070
-515,102	-95,198	-0,087	0,017
-514,087	601,458	0,049	-0,088
-513,072	-200,000	0,012	-0,122
-512,058	-200,000	0,017	0,067
-511,043	-93,331	0,122	-0,024
-510,029	-35,117	-0,089	0,035
-509,014	-78,870	-0,020	0,005
-507,999	731,168	0,022	-0,043
-506,985	-144,728	-0,107	0,007
-505,970	157,434	-0,102	-0,102
-504,956	74,699	-0,059	-0,044
-503,941	207,967	0,099	-0,111
-502,926	-49,469	0,109	0,037
-501,912	-200,000	-0,012	0,039
-500,897	-200,000	-0,009	0,047
-499,883	-155,563	-0,032	0,001
-498,868	-2,173	-0,037	-0,018
-497,853	-126,387	-0,262	0,028
-496,839	109,332	0,022	-0,019
-495,824	-187,812	-0,076	-0,001
-494,810	-100,564	0,094	0,017
-493,795	101,393	-0,064	0,054
-492,781	-200,000	0,007	-0,095
-491,766	-200,000	-0,026	-0,192
-490,751	6,393	-0,087	-0,047
-489,737	-200,000	-0,025	0,085
-488,722	-200,000	0,024	-0,088
-487,708	-80,386	-0,065	-0,015
-486,693	-200,000	-0,019	0,060
-485,678	-85,813	0,054	0,012
-484,664	116,425	0,025	-0,022
-483,649	-200,000	0,008	0,084
-482,635	32,202	-0,031	-0,019
-481,620	800,000	-0,061	-0,124
-480,605	101,846	0,121	-0,102
-479,591	800,000	-0,047	0,113
-478,576	-150,020	0,136	0,008
-477,562	800,000	0,034	0,094
-476,547	89,042	0,041	-0,033
-475,532	-31,100	0,055	-0,022
-474,518	-73,487	0,038	0,010
-473,503	800,000	0,037	0,110
-472,489	-57,314	0,077	0,024
-471,474	-100,661	0,071	0,012
-470,459	213,914	-0,140	-0,159
-469,445	800,000	0,035	-0,102
-468,430	547,517	-0,015	-0,026
-467,416	-112,847	0,082	0,012
-466,401	-200,000	0,012	0,093
-465,386	36,829	0,280	0,178
-464,372	800,000	-0,052	0,139
-463,357	79,608	0,004	0,003
-462,343	13,687	-0,218	-0,122
-461,328	-200,000	-0,013	0,046
-460,313	-200,000	0,015	0,053
-459,299	-83,762	0,190	-0,043
-458,284	-200,000	0,010	0,055
-457,270	-200,000	0,003	-0,026
-456,255	90,595	-0,164	-0,132
-455,241	800,000	-0,038	0,097
-454,226	-200,000	0,008	0,101
-453,211	-4,846	0,025	0,013
-452,197	800,000	0,043	-0,098
-451,182	-22,245	0,118	-0,051
-450,168	-109,663	-0,160	-0,024
-449,153	223,323	-0,067	0,078
-448,138	-56,556	-0,035	0,011
-447,124	-200,000	-0,021	-0,103
-446,109	-200,000	-0,015	0,075
-445,095	9,086	-0,070	0,038
-444,080	3,613	-0,038	0,020
-443,065	-200,000	-0,010	-0,077
-442,051	69,876	-0,118	0,087
-441,036	182,285	-0,051	0,054
-440,022	266,536	0,027	-0,034
-439,007	0,061	-0,066	0,034
-437,992	-12,777	0,094	-0,044
-436,978	800,000	0,022	0,053
-435,963	1,025	0,148	-0,076
-434,949	-31,021	-0,134	0,054
-433,934	28,742	-0,131	-0,079
-432,919	-14,170	-0,105	-0,048
-431,905	610,347	-0,064	-0,116
-430,890	-20,074	0,038	0,017
-429,876	-125,980	0,114	-0,012
-428,861	800,000	0,059	0,118
-427,846	-101,253	-0,107	0,019
-426,832	-120,188	-0,102	-0,012
-425,817	-129,626	0,109	0,011
-424,803	429,757	-0,072	-0,113
-423,788	-200,000	0,009	0,147
-422,773	800,000	0,054	0,155
-421,759	370,711	0,042	-0,061
-420,744	109,128	0,067	0,058
-419,730	58,365	-0,154	-0,109
-418,715	-154,828	0,045	0,002
-417,701	800,000	-0,043	-0,118
-416,686	-104,402	0,084	0,014
-415,671	-129,591	0,037	0,004
-414,657	177,998	-0,099	0,103
-413,642	67,600	-0,023	0,017
-412,628	103,287	0,036	0,030
-411,613	-131,970	-0,083	-0,008
-410,598	532,516	0,050	-0,085
-409,584	122,661	-0,053	0,048
-408,569	800,000	-0,010	0,029
-407,555	-158,664	0,078	-0,003
-406,540	137,112	0,077	0,072
-405,525	800,000	0,035	0,082
-404,511	509,655	-0,037	-0,062
-403,496	-158,086	0,103	-0,004
-402,482	-200,000	0,005	-0,100
-401,467	203,647	-0,013	0,015
-400,452	185,567	0,041	0,044
-399,438	623,684	-0,028	0,051
-398,423	20,990	0,035	-0,020
-397,409	-114,480	-0,084	0,012
-396,394	747,013	0,030	0,059
-395,379	16,601	0,068	0,038
-394,365	800,000	-0,025	0,076
-393,350	-78,391	0,215	0,053
-392,336	4,394	-0,121	-0,064
-391,321	110,429	-0,059	0,051
-390,306	169,514	-0,052	0,054
-389,292	-18,547	-0,079	-0,035
-388,277	147,662	0,090	0,087
-387,263	-168,195	0,125	-0,003
-386,248	347,452	0,047	0,066
-385,233	396,197	-0,072	0,108
-384,219	394,141	0,075	0,113
-383,204	800,000	0,018	-0,055
-382,190	97,855	-0,104	0,086
-381,175	152,360	-0,066	0,065
-380,160	243,285	0,055	0,067
-379,146	-200,000	0,005	0,096
-378,131	377,053	-0,050	0,073
-377,117	404,371	-0,084	0,128
-376,102	-200,000	0,000	-0,001
-375,088	800,000	-0,062	0,141
-374,073	23,055	0,036	0,021
-373,058	61,255	0,071	0,050
-372,044	800,000	0,073	0,193
-371,029	41,832	-0,038	-0,025
-370,015	109,375	0,024	-0,021
-369,000	413,512	-0,038	0,058
-367,985	-7,804	0,055	-0,027
-366,971	150,717	0,033	-0,032
-365,956	-21,026	0,151	0,066
-364,942	-200,000	-0,005	0,139
-363,927	216,172	0,031	-0,035
-362,912	635,485	-0,057	-0,104
-361,898	800,000	0,035	0,087
-360,883	412,722	0,020	0,030
-359,869	172,600	0,075	-0,077
-358,854	211,209	0,063	0,071
-357,839	-69,188	0,054	0,015
-356,825	-200,000	-0,019	0,075
-355,810	320,283	0,057	0,078
-354,796	-129,972	-0,041	0,004
-353,781	155,426	0,052	0,052
-352,766	184,653	0,088	0,094
-351,752	163,172	0,067	0,068
-350,737	-200,000	0,022	-0,078
-349,723	-200,000	0,007	-0,094
-348,708	142,376	-0,054	0,051
-347,693	800,000	0,047	0,145
-346,679	-200,000	-0,007	-0,092
-345,664	6,228	-0,138	-0,073
-344,650	-200,000	-0,010	0,092
-343,635	800,000	0,087	0,190
-342,620	48,964	0,056	-0,038
-341,606	30,944	0,044	0,027
-340,591	-200,000	0,008	0,026
-339,577	800,000	-0,013	0,030
-338,562	-200,000	-0,002	0,008
-337,548	186,539	-0,057	0,061
-336,533	-95,634	0,189	0,036
-335,518	628,191	0,040	0,072
-334,504	180,928	0,040	-0,042
-333,489	366,067	-0,048	0,069
-332,475	207,412	0,059	0,066
-331,460	-55,947	-0,076	-0,024
-330,445	-200,000	0,020	-0,149
-329,431	-200,000	0,005	-0,084
-328,416	-112,813	0,156	-0,022
-327,402	-101,730	-0,099	0,017
-326,387	35,695	0,091	0,057
-325,372	18,300	0,078	0,045
-324,358	-24,926	-0,066	-0,028
-323,343	-151,538	0,082	0,004
-322,329	225,216	0,036	-0,042
-321,314	-200,000	0,013	0,054
-320,299	81,319	0,080	0,062
-319,285	-200,000	0,000	-0,003
-318,270	-200,000	0,011	-0,087
-317,256	567,479	0,049	-0,086
-316,241	-71,112	-0,144	0,038
-315,226	-139,445	-0,072	-0,005
-314,212	164,671	-0,061	0,061
-313,197	-200,000	0,010	0,132
-312,183	15,459	0,096	0,054
-311,168	774,871	-0,027	-0,054
-310,153	-161,534	-0,131	0,005
-309,139	-200,000	0,023	-0,170
-308,124	-50,674	0,019	0,006
-307,110	7,599	0,071	-0,038
-306,095	261,154	0,098	0,121
-305,080	-200,000	0,018	0,106
-304,066	-200,000	-0,004	-0,067
-303,051	-121,143	0,005	0,001
-302,037	-15,276	-0,080	-0,037
-301,022	-70,611	-0,111	-0,030
-300,008	-200,000	-0,000	0,036
-298,993	784,639	0,022	0,043
-297,978	200,411	-0,111	0,122
-296,964	262,581	-0,060	0,075
-295,949	17,493	0,063	0,035
-294,935	40,275	-0,145	-0,093
-293,920	604,570	0,022	-0,039
-292,905	-105,922	0,172	0,027
-291,891	128,561	0,125	-0,114
-290,876	-200,000	0,012	-0,129
-289,862	44,499	0,070	-0,046
-288,847	-200,000	0,055	-0,211
-287,832	55,237	-0,051	0,035
-286,818	-200,000	-0,021	0,142
-285,803	-200,000	-0,022	0,071
-284,789	209,699	0,028	-0,031
-283,774	94,192	0,064	0,051
-282,759	-200,000	-0,001	-0,020
-281,745	650,934	0,046	0,085
-280,730	-48,333	-0,092	-0,031
-279,716	-12,792	0,048	-0,022
-278,701	-200,000	-0,030	0,133
-277,686	227,171	0,111	0,129
-276,672	-81,819	-0,211	-0,049
-275,657	-200,000	-0,006	-0,060
-274,643	800,000	0,015	0,036
-273,628	-31,730	-0,201	-0,080
-272,613	800,000	0,031	-0,069
-271,599	800,000	-0,043	-0,129
-270,584	-55,648	-0,017	0,005
-269,570	800,000	0,048	0,145
-268,555	73,957	0,030	-0,023
-267,540	456,166	-0,063	0,100
-266,526	259,085	-0,140	-0,173
-265,511	-200,000	0,024	-0,132
-264,497	51,072	0,006	-0,004
-263,482	62,661	0,145	-0,103
-262,467	163,497	0,058	-0,058
-261,453	135,526	0,034	-0,032
-260,438	-183,114	0,145	0,002
-259,424	800,000	-0,043	0,126
-258,409	130,265	0,067	-0,062
-257,395	345,904	0,052	-0,074
-256,380	38,297	-0,101	0,064
-255,365	290,429	0,024	0,031
-254,351	117,451	0,173	-0,152
-253,336	-200,000	-0,015	0,167
-252,322	-200,000	-0,000	0,057
-251,307	-69,606	0,048	0,013
-250,292	-200,000	-0,023	-0,141
-249,278	163,287	0,046	0,046
-248,263	-102,343	0,054	0,009
-247,249	-146,985	0,094	0,006
-246,234	170,770	0,063	-0,065
-245,219	252,220	-0,160	-0,195
-244,205	271,089	0,024	0,030
-243,190	-200,000	-0,005	0,032
-242,176	72,701	-0,084	-0,062
-241,161	436,749	-0,075	0,117
-240,146	-134,346	0,088	0,008
-239,132	96,682	-0,089	-0,072
-238,117	-200,000	-0,005	-0,090
-237,103	-200,000	-0,043	-0,140
-236,088	36,623	-0,046	0,029
-235,073	-79,221	0,004	0,001
-234,059	-115,134	0,029	0,004
-233,044	-145,304	-0,053	-0,003
-232,030	-200,000	0,012	-0,053
-231,015	-141,554	-0,124	0,009
-230,000	-200,000	-0,055	-0,232
-228,986	-200,000	-0,029	-0,127
-227,971	193,710	-0,093	-0,100
-226,957	-80,918	0,273	0,064
-225,942	-200,000	-0,033	0,105
-224,927	145,011	-0,036	0,034
-223,913	176,580	-0,123	-0,127
-222,898	74,496	-0,095	0,071
-221,884	-10,136	-0,088	-0,042
-220,869	-100,785	-0,115	0,020
-219,855	73,098	-0,073	-0,055
-218,840	380,150	0,013	-0,019
-217,825	-45,049	0,050	0,018
-216,811	239,185	0,038	-0,045
-215,796	203,061	0,022	-0,024
-214,782	98,945	0,132	-0,109
-213,767	-200,000	0,012	-0,108
-212,752	112,347	0,057	-0,049
-211,738	149,189	0,078	-0,075
-210,723	800,000	-0,027	0,074
-209,709	800,000	-0,034	-0,085
-208,694	-119,086	-0,075	0,009
-207,679	-103,803	0,120	-0,020
-206,665	-200,000	-0,031	-0,165
-205,650	135,299	0,071	-0,066
-204,636	-155,184	-0,025	0,001
-203,621	153,461	0,109	0,106
-202,606	53,843	-0,149	0,102
-201,592	139,579	-0,066	-0,062
-200,577	528,333	-0,040	-0,067
-199,563	297,184	0,061	-0,081
-198,548	800,000	-0,046	-0,134
-197,533	392,393	0,078	0,116
-196,519	-0,317	0,135	0,068
-195,504	800,000	0,045	-0,123
-194,490	97,829	0,144	-0,118
-193,475	291,224	-0,033	-0,042
-192,460	-200,000	-0,003	0,107
-191,446	715,009	0,014	0,026
-190,431	458,659	0,027	0,044
-189,417	355,583	0,032	0,045
-188,402	7,282	-0,071	0,037
-187,387	800,000	0,032	-0,074
-186,373	340,030	-0,022	0,031
-185,358	73,320	0,031	-0,023
-184,344	-200,000	0,014	-0,082
-183,329	-15,486	0,051	0,023
-182,315	-66,077	0,045	0,013
-181,300	680,146	0,045	-0,083
-180,285	63,056	-0,080	0,057
-179,271	-200,000	-0,035	0,124
-178,256	364,888	-0,055	0,079
-177,242	570,170	-0,053	0,093
-176,227	-200,000	0,012	0,077
-175,212	-200,000	0,031	-0,155
-174,198	-200,000	0,054	-0,259
-173,183	227,032	-0,065	-0,076
-172,169	-200,000	0,010	0,072
-171,154	800,000	0,027	0,069
-170,139	-169,971	-0,068	0,002
-169,125	169,203	0,045	0,046
-168,110	-200,000	0,038	0,182
-167,096	-200,000	0,018	0,107
-166,081	-180,077	-0,069	-0,001
-165,066	717,932	0,036	0,068
-164,052	-98,312	0,047	0,008
-163,037	-69,566	0,138	-0,037
-162,023	-2,332	-0,040	-0,020
-161,008	435,675	0,059	0,092
-159,993	-106,851	0,072	0,011
-158,979	-47,675	0,061	-0,021
-157,964	36,581	-0,017	0,011
-156,950	0,178	-0,040	0,020
-155,935	800,000	0,020	-0,062
-154,920	800,000	-0,026	0,060
-153,906	61,182	0,065	-0,046
-152,891	-99,438	-0,122	0,022
-151,877	125,539	-0,048	-0,043
-150,862	-90,791	-0,185	-0,038
-149,847	-16,600	0,069	-0,031
-148,833	247,597	-0,081	0,097
-147,818	438,182	0,099	0,153
-146,804	115,087	0,179	0,155
-145,789	656,587	-0,130	0,238
-144,775	-200,000	0,010	-0,131
-143,760	-42,061	-0,123	0,044
-142,745	-2,297	-0,070	-0,035
-141,731	129,229	-0,030	0,027
-140,716	-13,666	-0,061	0,028
-139,702	444,404	-0,056	-0,088
-138,687	40,800	0,104	0,067
-137,672	800,000	-0,039	0,106
-136,658	50,677	0,089	-0,059
-135,643	-200,000	-0,004	-0,085
-134,629	64,125	-0,093	-0,066
-133,614	193,881	0,051	-0,055
-132,599	-200,000	-0,014	-0,054
-131,585	242,689	-0,033	-0,039
-130,570	160,944	-0,071	-0,071
-129,556	-200,000	-0,045	0,162
-128,541	-200,000	0,012	0,079
-127,526	44,696	0,047	0,031
-126,512	-200,000	0,017	0,117
-125,497	-200,000	0,016	-0,121
-124,483	-200,000	-0,011	0,088
-123,468	-45,093	-0,057	-0,020
-122,453	-64,015	0,035	-0,010
-121,439	800,000	-0,050	-0,110
-120,424	-200,000	0,003	-0,061
-119,410	798,916	-0,055	0,108
-118,395	-200,000	-0,005	-0,036
-117,380	138,560	0,014	-0,013
-116,366	-102,142	-0,094	0,016
-115,351	-200,000	-0,014	0,094
-114,337	105,154	-0,129	-0,108
-113,322	192,023	0,036	0,038
-112,307	-200,000	-0,011	-0,077
-111,293	800,000	0,022	0,064
-110,278	36,137	0,031	-0,020
-109,264	76,196	-0,108	0,081
-108,249	-200,000	0,003	0,119
-107,234	69,385	-0,138	-0,100
-106,220	800,000	-0,040	0,081
-105,205	-200,000	-0,011	0,064
-104,191	-200,000	0,020	0,115
-103,176	40,204	-0,113	-0,072
-102,162	-55,928	0,078	-0,025
-101,147	51,458	-0,028	0,019
-100,132	567,118	-0,020	0,035
-99,118	-106,373	-0,086	0,014
-98,103	-171,347	0,058	0,001
-97,089	59,592	-0,116	-0,081
-96,074	57,077	-0,070	0,048
-95,059	-71,833	-0,065	-0,017
-94,045	-200,000	0,006	0,055
-93,030	47,467	-0,076	0,050
-92,016	-200,000	0,013	0,092
-91,001	14,249	-0,079	-0,043
-89,986	-5,777	0,060	0,029
-88,972	-200,000	-0,020	0,086
-87,957	-200,000	-0,011	0,037
-86,943	-200,000	-0,001	-0,025
-85,928	158,836	-0,057	0,056
-84,913	-200,000	-0,001	0,028
-83,899	-123,907	-0,136	0,015
-82,884	-113,638	0,093	0,013
-81,870	65,009	-0,039	0,028
-80,855	-6,363	0,038	0,018
-79,840	362,337	0,025	0,035
-78,826	-48,207	-0,106	-0,036
-77,811	-200,000	-0,005	-0,037
-76,797	293,633	-0,025	0,032
-75,782	106,440	0,089	0,074
-74,767	74,594	0,037	-0,028
-73,753	-200,000	0,033	0,125
-72,738	338,551	-0,026	-0,036
-71,724	235,057	-0,085	-0,099
-70,709	5,568	-0,111	-0,058
-69,694	-200,000	-0,012	0,158
-68,680	2,145	-0,096	0,049
-67,665	-200,000	0,028	0,110
-66,651	-200,000	-0,006	0,051
-65,636	-0,424	-0,069	0,034
-64,622	117,934	-0,023	-0,020
-63,607	800,000	-0,079	-0,174
-62,592	800,000	-0,040	-0,122
-61,578	624,407	-0,063	-0,113
-60,563	-200,000	0,014	0,124
-59,549	-200,000	0,017	0,068
-58,534	-32,611	-1,456	-0,571
-57,519	413,133	-1,533	-2,316
-56,505	-200,000	-0,647	-4,583
-55,490	47,736	1,080	0,713
-54,476	800,000	4,684	11,348
-53,461	-200,000	18,281	287,093
-52,446	800,000	727,212	2224,576
-51,432	553,662	1642,730	2807,762
-50,417	79,307	1665,088	1262,762
-49,403	22,973	1538,806	891,322
-48,388	16,949	1462,292	817,835
-47,373	17,924	1451,808	816,635
-46,359	17,290	1442,615	808,398
-45,344	15,279	1437,981	796,171
-44,330	15,116	1436,056	794,297
-43,315	15,175	1434,380	793,617
-42,300	15,172	1432,753	792,674
-41,286	15,239	1431,404	792,212
-40,271	15,173	1430,382	791,302
-39,257	15,178	1428,985	790,521
-38,242	15,187	1427,809	789,884
-37,227	15,244	1426,481	789,387
-36,213	15,238	1424,945	788,475
-35,198	15,190	1424,005	787,698
-34,184	15,273	1423,049	787,530
-33,169	15,178	1421,678	786,293
-32,154	15,224	1420,606	785,887
-31,140	15,241	1419,453	785,297
-30,125	15,271	1418,237	784,733
-29,111	15,257	1417,142	784,032
-28,096	15,274	1415,990	783,444
-27,082	15,175	1414,959	782,377
-26,067	15,186	1413,927	781,825
-25,052	15,141	1412,840	780,982
-24,038	15,110	1411,937	780,309
-23,023	15,151	1410,716	779,796
-22,009	15,127	1409,902	779,200
-20,994	15,101	1408,930	778,512
-19,979	15,095	1408,065	777,975
-18,965	15,089	1406,999	777,326
-17,950	15,093	1406,023	776,774
-16,936	15,039	1405,188	776,031
-15,921	15,025	1403,940	775,248
-14,906	15,031	1403,256	774,863
-13,892	15,101	1402,273	774,618
-12,877	15,051	1401,484	773,919
-11,863	15,052	1400,305	773,240
-10,848	15,036	1399,565	772,728
-9,833	15,033	1398,556	772,126
-8,819	15,008	1397,472	771,383
-7,804	14,979	1396,653	770,763
-6,790	14,974	1395,791	770,233
-5,775	14,943	1394,808	769,518
-4,760	14,946	1393,758	768,920
-3,746	14,944	1392,900	768,410
-2,731	14,954	1392,264	768,074
-1,717	14,965	1391,239	767,528
-0,702	14,932	1389,317	766,284
0,313	18,813	1308,346	739,558
1,327	35,069	706,998	437,312
2,342	53,628	124,887	84,684
3,356	5,021	16,581	8,609
4,371	-2,961	3,155	1,553
5,386	-9,896	0,509	0,239
6,400	-200,000	-0,043	0,231
7,415	162,116	-0,139	-0,138
8,429	-35,363	-0,357	-0,137
9,444	144,976	-0,282	-0,267
10,459	-84,614	-0,364	-0,081
11,473	-55,215	-0,339	-0,107
12,488	113,104	-0,324	-0,277
13,502	164,097	-0,259	-0,258
14,517	33,988	-0,362	-0,222
15,531	114,475	-0,439	-0,378
16,546	83,772	-0,282	-0,217
17,561	160,021	-0,408	-0,402
18,575	-101,038	-0,169	-0,029
19,590	132,272	-0,322	-0,294
20,604	41,071	-0,139	-0,088
21,619	108,430	-0,411	-0,346
22,634	-12,991	-0,471	-0,216
23,648	19,958	-0,403	-0,229
24,663	342,736	-0,308	-0,428
25,677	-58,135	-0,402	-0,123
26,692	-53,820	-0,349	-0,112
27,707	49,838	-0,353	-0,235
28,721	173,893	-0,304	-0,310
29,736	73,437	-0,511	-0,377
30,750	249,433	-0,273	-0,327
31,765	104,684	-0,281	-0,234
32,780	68,054	-0,336	-0,242
33,794	307,387	-0,255	-0,336
34,809	83,984	-0,417	-0,321
35,823	43,306	-0,405	-0,261
36,838	90,704	-0,364	-0,288
37,853	22,614	-0,461	-0,266
38,867	29,703	-0,459	-0,275
39,882	-33,686	-0,405	-0,157
40,896	386,056	-0,246	-0,359
41,911	77,958	-0,281	-0,211
42,926	468,401	-0,230	-0,366
43,940	48,516	-0,421	-0,278
44,955	107,734	-0,327	-0,274
45,969	110,531	-0,310	-0,263
46,984	71,282	-0,240	-0,175
47,999	176,792	-0,306	-0,314
49,013	178,701	-0,341	-0,351
50,028	-17,927	-0,431	-0,190
51,042	27,881	-0,370	-0,219
52,057	24,191	-0,383	-0,222
53,071	153,932	-0,241	-0,233
54,086	180,161	-0,307	-0,317
55,101	38,636	-0,346	-0,217
56,115	-92,419	-0,380	-0,075
57,130	266,655	-0,214	-0,264
58,144	152,330	-0,353	-0,340
59,159	48,017	-0,449	-0,295
60,174	-30,887	-0,538	-0,213
61,188	34,878	-0,345	-0,212
62,203	241,884	-0,290	-0,342
63,217	68,914	-0,465	-0,336
64,232	96,710	-0,236	-0,190
65,247	101,511	-0,354	-0,290
66,261	141,340	-0,277	-0,258
67,276	193,000	-0,235	-0,250
68,290	172,112	-0,215	-0,217
69,305	290,580	-0,271	-0,347
70,320	140,475	-0,282	-0,262
71,334	108,474	-0,220	-0,185
72,349	71,950	-0,277	-0,202
73,363	-50,183	-0,353	-0,117
74,378	44,647	-0,359	-0,232
75,393	41,237	-0,314	-0,199
76,407	-34,403	-0,346	-0,133
77,422	-76,597	-0,489	-0,120
78,436	129,795	-0,124	-0,111
79,451	590,827	-0,191	-0,333
80,466	-19,489	-0,407	-0,177
81,480	-13,502	-0,298	-0,135
82,495	-53,707	-0,361	-0,115
83,509	30,250	-0,344	-0,206
84,524	-158,992	-0,322	0,013
85,539	-163,462	-0,302	-0,010
86,553	70,859	-0,245	-0,178
87,568	44,315	-0,429	-0,276
88,582	-28,801	-0,423	-0,170
89,597	-31,304	-0,438	-0,172
90,611	-8,970	-0,236	-0,111
91,626	45,708	-0,278	-0,180
92,641	298,431	-0,219	-0,284
93,655	-11,104	-0,320	-0,147
94,670	156,971	-0,216	-0,210
95,684	4,815	-0,378	-0,194
96,699	4,210	-0,349	-0,179
97,714	-22,076	-0,345	-0,146
98,728	-23,424	-0,201	-0,084
99,743	260,578	-0,252	-0,307
100,757	31,519	-0,288	-0,174
101,772	336,108	-0,159	-0,217
102,787	197,267	-0,225	-0,241
103,801	53,579	-0,314	-0,211
104,816	141,437	-0,191	-0,178
105,830	29,245	-0,206	-0,123
106,845	-12,263	-0,148	-0,068
107,860	20,264	-0,275	-0,155
108,874	168,416	-0,179	-0,178
109,889	25,336	-0,273	-0,159
110,903	-36,661	-0,311	-0,116
111,918	187,255	-0,205	-0,214
112,933	88,316	-0,234	-0,182
113,947	-82,045	-0,289	-0,065
114,962	620,415	-0,103	-0,183
115,976	98,679	-0,274	-0,221
116,991	12,375	-0,262	-0,141
118,006	192,617	-0,236	-0,250
119,020	22,786	-0,264	-0,151
120,035	122,073	-0,234	-0,205
121,049	161,190	-0,104	-0,102
122,064	-119,031	-0,246	-0,030
123,079	45,674	-0,319	-0,206
124,093	107,867	-0,230	-0,191
125,108	28,410	-0,290	-0,171
126,122	262,019	-0,183	-0,222
127,137	-31,583	-0,241	-0,094
128,151	67,157	-0,204	-0,146
129,166	-9,080	-0,308	-0,144
130,181	100,353	-0,208	-0,169
131,195	16,514	-0,225	-0,124
132,210	144,829	-0,242	-0,226
133,224	241,010	-0,151	-0,177
134,239	-92,342	-0,192	-0,037
135,254	53,499	-0,140	-0,094
136,268	534,195	-0,139	-0,232
137,283	89,333	-0,326	-0,254
138,297	120,261	-0,216	-0,188
139,312	45,713	-0,295	-0,190
140,327	99,281	-0,331	-0,268
141,341	-200,000	-0,081	-0,283
142,356	29,191	-0,189	-0,112
143,370	-87,236	-0,318	-0,067
144,385	-72,519	-0,329	-0,084
145,400	101,789	-0,279	-0,227
146,414	224,237	-0,252	-0,285
147,429	-83,808	-0,279	-0,062
148,443	800,000	-0,088	-0,207
149,458	43,671	-0,198	-0,127
150,473	-7,207	-0,210	-0,099
151,487	105,794	-0,185	-0,152
152,502	46,280	-0,319	-0,206
153,516	11,067	-0,283	-0,150
154,531	58,278	-0,259	-0,177
155,546	88,877	-0,295	-0,229
156,560	121,714	-0,224	-0,195
157,575	-4,235	-0,250	-0,120
158,589	91,221	-0,229	-0,179
159,604	34,223	-0,283	-0,172
160,619	186,073	-0,263	-0,274
161,633	-123,813	-0,278	-0,030
162,648	458,810	-0,193	-0,301
163,662	278,909	-0,180	-0,224
164,677	48,739	-0,188	-0,123
165,692	415,699	-0,173	-0,258
166,706	95,354	-0,259	-0,206
167,721	-6,120	-0,299	-0,142
168,735	33,973	-0,365	-0,221
169,750	102,379	-0,269	-0,219
170,764	657,829	-0,102	-0,184
171,779	370,053	-0,152	-0,216
172,794	53,286	-0,210	-0,140
173,808	-160,631	-0,221	-0,008
174,823	80,981	-0,221	-0,166
175,837	-51,253	-0,306	-0,099
176,852	16,290	-0,192	-0,105
177,867	231,009	-0,174	-0,199
178,881	125,167	-0,122	-0,107
179,896	15,825	-0,224	-0,122
180,910	663,905	-0,071	-0,129
181,925	49,326	-0,260	-0,170
182,940	83,194	-0,275	-0,209
183,954	89,946	-0,221	-0,172
184,969	800,000	-0,119	-0,250
185,983	-200,000	-0,016	-0,144
186,998	261,482	-0,145	-0,175
188,013	210,283	-0,165	-0,180
189,027	110,620	-0,252	-0,211
190,042	251,282	-0,208	-0,246
191,056	800,000	-0,153	-0,356
192,071	58,971	-0,235	-0,161
193,086	800,000	-0,141	-0,376
194,100	53,774	-0,108	-0,072
195,115	224,211	-0,186	-0,209
196,129	-76,499	-0,178	-0,043
197,144	184,577	-0,262	-0,271
198,159	-78,381	-0,156	-0,037
199,173	-31,877	-0,222	-0,086
200,188	79,665	-0,195	-0,146
201,202	50,608	-0,174	-0,114
202,217	-183,625	-0,247	0,003
203,232	800,000	-0,090	-0,236
204,246	151,833	-0,199	-0,188
205,261	-113,861	-0,292	-0,039
206,275	-127,896	-0,203	-0,020
207,290	200,459	-0,077	-0,082
208,304	293,087	-0,152	-0,194
209,319	688,980	-0,097	-0,178
210,334	216,812	-0,238	-0,264
211,348	43,341	-0,154	-0,098
212,363	-57,849	-0,220	-0,066
213,377	64,458	-0,189	-0,132
214,392	218,714	-0,102	-0,113
215,407	-163,027	-0,120	0,004
216,421	800,000	-0,045	-0,094
217,436	19,238	-0,266	-0,148
218,450	28,809	-0,200	-0,117
219,465	33,208	-0,169	-0,101
220,480	509,117	-0,125	-0,203
221,494	75,198	-0,125	-0,091
222,509	-49,520	-0,194	-0,064
223,523	48,410	-0,134	-0,087
224,538	202,280	-0,143	-0,153
225,553	532,564	-0,126	-0,207
226,567	1,673	-0,372	-0,185
227,582	-39,409	-0,169	-0,061
228,596	-43,536	-0,172	0,060
229,611	91,538	-0,173	-0,135
230,626	211,956	-0,116	-0,127
231,640	45,318	-0,275	-0,176
232,655	92,592	-0,198	-0,154
233,669	51,446	-0,187	-0,123
234,684	282,570	-0,237	-0,295
235,699	-105,677	-0,258	-0,040
236,713	46,736	-0,117	-0,075
237,728	171,766	-0,083	-0,082
238,742	800,000	-0,084	-0,170
239,757	74,704	-0,237	-0,173
240,772	77,059	-0,319	-0,234
241,786	64,704	-0,226	-0,158
242,801	-132,104	-0,056	-0,005
243,815	24,248	-0,110	-0,063
244,830	72,572	-0,191	-0,138
245,844	139,758	-0,262	-0,239
246,859	527,547	-0,118	-0,194
247,874	310,457	-0,148	-0,192
248,888	800,000	-0,077	-0,233
249,903	54,431	-0,267	-0,178
250,917	394,054	-0,135	-0,195
251,932	-126,726	-0,152	-0,015
252,947	-114,633	-0,223	0,029
253,961	-88,788	-0,215	-0,044
254,976	424,917	-0,108	-0,161
255,990	-16,015	-0,298	-0,131
257,005	93,498	-0,182	-0,142
258,020	-56,418	-0,140	-0,043
259,034	62,676	-0,143	-0,099
260,049	-138,423	-0,201	0,015
261,063	767,078	-0,089	-0,168
262,078	2,754	-0,126	-0,063
263,093	-127,911	-0,191	-0,019
264,107	25,849	-0,191	-0,110
265,122	324,376	-0,051	-0,067
266,136	800,000	0,045	-0,126
267,151	-121,065	-0,252	0,029
268,166	-79,232	-0,215	-0,050
269,180	430,798	-0,118	-0,177
270,195	117,878	-0,311	-0,264
271,209	74,355	-0,074	-0,054
272,224	143,691	-0,121	-0,112
273,239	125,005	-0,153	-0,133
274,253	98,095	-0,118	-0,093
275,268	-7,400	-0,170	0,079
276,282	-16,032	-0,228	-0,100
277,297	-70,485	-0,156	-0,040
278,312	-131,544	-0,257	-0,023
279,326	-31,734	-0,181	-0,070
280,341	-104,701	-0,236	-0,037
281,355	-200,000	0,026	-0,109
282,370	762,115	-0,097	-0,182
283,384	1,098	-0,218	-0,107
284,399	59,588	-0,364	-0,247
285,414	-12,289	-0,127	-0,057
286,428	89,100	-0,165	-0,127
287,443	-200,000	-0,006	-0,077
288,457	267,665	-0,214	-0,259
289,472	-62,128	-0,210	-0,060
290,487	483,857	-0,176	-0,278
291,501	127,848	-0,262	-0,229
292,516	-200,000	-0,035	-0,114
293,530	-3,158	-0,155	-0,074
294,545	152,336	-0,143	-0,135
295,560	105,282	-0,135	-0,110
296,574	-3,413	-0,211	-0,101
297,589	220,451	-0,125	-0,138
298,603	52,123	-0,248	-0,163
299,618	-200,000	-0,051	-0,167
300,633	-40,636	-0,171	-0,061
301,647	683,321	-0,083	-0,150
302,662	271,274	-0,111	-0,135
303,676	-95,058	-0,315	-0,058
304,691	97,069	-0,155	-0,123
305,706	-54,035	-0,180	-0,056
306,720	-26,031	-0,254	-0,103
307,735	-72,812	-0,080	0,020
308,749	-58,968	-0,088	-0,026
309,764	-200,000	-0,035	-0,142
310,779	-44,299	-0,089	0,031
311,793	201,648	-0,136	-0,145
312,808	-151,926	-0,160	-0,008
313,822	-68,335	-0,194	-0,052
314,837	226,537	-0,068	-0,076
315,852	-4,736	-0,174	0,082
316,866	130,178	-0,116	-0,103
317,881	603,476	-0,158	-0,271
318,895	-84,721	-0,151	0,032
319,910	274,316	-0,120	-0,146
320,925	800,000	-0,069	-0,175
321,939	-200,000	-0,059	-0,273
322,954	-73,018	-0,193	-0,048
323,968	90,042	-0,177	-0,136
324,983	-200,000	-0,021	-0,085
325,997	14,076	-0,234	-0,125
327,012	146,823	-0,200	-0,185
328,027	-200,000	-0,011	-0,277
329,041	800,000	-0,019	-0,042
330,056	800,000	-0,051	-0,136
331,070	81,397	-0,194	-0,144
332,085	800,000	-0,066	-0,126
333,100	-104,662	-0,175	-0,027
334,114	71,567	-0,145	-0,104
335,129	487,530	-0,161	-0,253
336,143	347,234	-0,144	-0,195
337,158	121,915	-0,147	-0,126
338,173	-200,000	-0,007	-0,215
339,187	-43,254	-0,113	-0,039
340,202	80,005	-0,158	-0,117
341,216	800,000	-0,057	-0,128
342,231	-200,000	0,004	-0,044
343,246	662,548	-0,162	-0,287
344,260	57,263	-0,105	-0,070
345,275	-37,063	-0,089	0,033
346,289	-200,000	-0,019	-0,065
347,304	-181,680	-0,221	-0,003
348,319	288,543	-0,171	-0,213
349,333	150,707	-0,118	-0,110
350,348	325,158	-0,096	-0,127
351,362	-17,233	-0,105	-0,045
352,377	77,907	-0,091	-0,066
353,392	578,304	-0,122	-0,205
354,406	-86,098	-0,186	-0,039
355,421	207,959	1316,959	1413,138
356,435	159,991	1477,984	1413,645
