DTS Sentinel unit serial number:	SN410029Multiplexer serial number:	ORYXHardware model number:	OX2-SRSoftware version number:	ORYX F/W v4,00 Oryx Data Collector v3.7.2.0data status	okinstallation	B3 Nyhavnadifferential loss correction	single-endedforward channel	channel 1reverse channel	N/Adate	2023/11/29time	00:52:30forward acquisition time	300,00reverse acquisition time	0,00gamma	499,1914k internal	0,3212k external	0,3212temperature offset calibration	1,0000default loss term (dB/km)	0,3820temperature slope calibration	1,0000multiplexer offset coefficient	1,0000multiplexer slope coefficient	1,0000fibre end	0,00T internal ref (°C)	9,27T ext. ref 1 (°C)	-5,03T ext. ref 2 (°C)	-5,17length (m)	temperature (°C)	Stokes	anti-Stokes-744,400	115,533	-0,220	-0,195
-743,385	800,000	0,064	0,168
-742,371	-49,443	-0,166	-0,057
-741,356	-200,000	-0,036	0,318
-740,342	-200,000	-0,078	-0,277
-739,327	-200,000	0,031	0,298
-738,312	575,723	-0,098	-0,175
-737,298	-200,000	0,001	0,229
-736,283	800,000	-0,116	-0,242
-735,269	-200,000	-0,010	0,184
-734,254	-25,990	-0,162	-0,069
-733,239	217,824	-0,136	0,158
-732,225	-200,000	-0,018	-0,277
-731,210	39,182	0,133	0,086
-730,196	-200,000	-0,010	0,077
-729,181	-147,155	-0,142	0,009
-728,167	571,724	0,022	-0,038
-727,152	20,828	-0,084	-0,049
-726,137	-66,946	-0,068	-0,019
-725,123	60,005	-0,160	0,114
-724,108	-146,196	-0,140	-0,009
-723,094	-57,643	0,153	-0,048
-722,079	196,525	-0,082	-0,091
-721,064	800,000	-0,029	-0,075
-720,050	800,000	-0,096	0,217
-719,035	-200,000	-0,028	-0,107
-718,021	-17,990	-0,044	-0,020
-717,006	-44,227	-0,194	-0,070
-715,991	246,622	-0,037	0,045
-714,977	-12,414	-0,106	-0,050
-713,962	-200,000	-0,004	-0,054
-712,948	-200,000	0,005	0,022
-711,933	435,942	-0,021	0,034
-710,918	167,123	-0,092	0,095
-709,904	-78,569	-0,073	-0,018
-708,889	-200,000	-0,024	-0,127
-707,875	242,269	0,069	-0,084
-706,860	-98,930	-0,031	-0,006
-705,845	-200,000	-0,018	0,060
-704,831	-200,000	-0,012	0,086
-703,816	423,477	0,011	-0,016
-702,802	0,281	0,050	-0,026
-701,787	800,000	-0,077	-0,206
-700,772	100,962	0,130	-0,110
-699,758	-35,134	-0,163	-0,064
-698,743	-200,000	-0,002	-0,014
-697,729	800,000	0,043	-0,094
-696,714	-62,145	-0,089	-0,027
-695,699	-200,000	-0,028	-0,122
-694,685	-115,168	-0,084	0,011
-693,670	-200,000	-0,015	0,057
-692,656	-15,372	0,020	-0,009
-691,641	89,338	0,013	-0,010
-690,627	21,573	-0,080	-0,047
-689,612	800,000	0,030	-0,077
-688,597	-40,400	-0,140	0,052
-687,583	-19,008	-0,081	0,036
-686,568	800,000	0,028	-0,083
-685,554	23,996	-0,096	-0,057
-684,539	800,000	-0,044	-0,111
-683,524	-125,563	-0,189	0,021
-682,510	202,998	0,062	-0,070
-681,495	494,830	0,036	-0,060
-680,481	133,018	-0,111	-0,103
-679,466	-25,635	-0,130	-0,055
-678,451	524,879	0,061	-0,103
-677,437	-200,000	0,009	-0,102
-676,422	653,711	0,093	-0,174
-675,408	-47,096	-0,183	-0,064
-674,393	191,119	-0,036	-0,039
-673,378	158,273	-0,045	-0,045
-672,364	38,289	-0,129	-0,083
-671,349	13,720	-0,052	0,029
-670,335	8,490	0,102	0,055
-669,320	-75,112	-0,023	-0,006
-668,305	-200,000	0,000	-0,091
-667,291	-98,659	-0,121	0,022
-666,276	62,202	-0,139	-0,100
-665,262	-200,000	-0,014	-0,080
-664,247	800,000	-0,040	0,090
-663,232	-200,000	-0,025	-0,108
-662,218	-37,815	0,135	0,052
-661,203	173,994	-0,078	0,082
-660,189	0,474	0,032	-0,016
-659,174	-37,390	-0,098	-0,038
-658,159	55,568	-0,089	-0,062
-657,145	800,000	-0,070	-0,144
-656,130	103,145	-0,157	-0,133
-655,116	-25,282	0,042	-0,018
-654,101	208,073	0,043	0,048
-653,086	800,000	-0,056	-0,138
-652,072	-200,000	0,003	0,026
-651,057	322,204	-0,037	0,051
-650,043	-200,000	-0,002	-0,065
-649,028	800,000	-0,060	-0,136
-648,014	-113,970	0,152	-0,021
-646,999	-131,096	0,137	-0,013
-645,984	13,578	-0,116	0,065
-644,970	-141,826	0,077	-0,006
-643,955	158,365	0,027	0,027
-642,941	800,000	-0,051	0,135
-641,926	-29,679	-0,010	0,004
-640,911	142,463	-0,015	-0,014
-639,897	-115,119	0,036	0,005
-638,882	143,965	-0,125	-0,120
-637,868	-56,884	-0,076	-0,024
-636,853	-42,567	-0,029	0,011
-635,838	-200,000	-0,016	-0,082
-634,824	191,980	-0,064	-0,070
-633,809	370,014	-0,058	-0,085
-632,795	-168,734	-0,093	-0,002
-631,780	-200,000	0,006	-0,040
-630,765	128,505	-0,091	0,083
-629,751	320,208	0,065	-0,089
-628,736	53,986	-0,175	0,121
-627,722	800,000	0,052	-0,164
-626,707	-163,751	-0,123	0,004
-625,692	20,015	0,120	0,070
-624,678	194,368	-0,062	0,068
-623,663	-64,420	-0,007	0,002
-622,649	-110,673	0,048	0,007
-621,634	-200,000	0,007	-0,029
-620,619	800,000	-0,043	-0,123
-619,605	-200,000	-0,010	-0,061
-618,590	-200,000	0,015	0,056
-617,576	-48,667	0,044	-0,015
-616,561	477,908	-0,097	0,158
-615,546	-26,739	-0,079	-0,033
-614,532	-151,069	-0,071	-0,004
-613,517	80,740	0,023	0,018
-612,503	-131,114	-0,074	0,007
-611,488	333,106	-0,047	0,066
-610,474	87,082	0,106	0,085
-609,459	39,164	0,061	-0,039
-608,444	298,208	-0,060	0,079
-607,430	4,045	-0,085	0,044
-606,415	-4,568	-0,182	0,090
-605,401	37,290	0,070	-0,045
-604,386	33,528	0,042	-0,026
-603,371	234,316	0,005	-0,006
-602,357	-103,540	-0,061	-0,010
-601,342	28,765	-0,128	-0,078
-600,328	800,000	-0,043	-0,120
-599,313	389,407	-0,082	0,124
-598,298	-26,701	-0,056	-0,023
-597,284	-42,584	0,089	0,033
-596,269	133,944	0,048	-0,045
-595,255	-200,000	-0,011	-0,045
-594,240	333,820	-0,077	0,107
-593,225	-61,327	-0,176	-0,053
-592,211	389,949	0,051	0,076
-591,196	536,500	-0,023	0,039
-590,182	-160,454	0,071	0,003
-589,167	-200,000	0,004	0,024
-588,152	-75,371	0,090	0,023
-587,138	-200,000	-0,012	-0,098
-586,123	800,000	0,041	-0,125
-585,109	800,000	-0,025	0,067
-584,094	-99,991	-0,056	0,010
-583,079	-47,255	0,172	-0,060
-582,065	-125,483	-0,087	0,009
-581,050	-76,973	0,029	-0,007
-580,036	-200,000	0,013	0,063
-579,021	-33,736	-0,074	-0,029
-578,006	-28,742	-0,069	-0,029
-576,992	-200,000	-0,008	-0,053
-575,977	-67,334	0,048	0,013
-574,963	439,490	-0,044	-0,070
-573,948	-87,913	-0,078	0,017
-572,934	-200,000	-0,002	-0,041
-571,919	-40,227	-0,047	-0,018
-570,904	800,000	-0,025	-0,079
-569,890	-72,512	0,103	-0,027
-568,875	-63,133	0,053	0,016
-567,861	-200,000	0,009	-0,067
-566,846	-43,507	-0,077	-0,028
-565,831	217,492	-0,023	0,026
-564,817	19,650	-0,038	-0,022
-563,802	534,928	0,085	-0,145
-562,788	-120,011	0,074	0,009
-561,773	-200,000	-0,028	-0,106
-560,758	800,000	-0,056	0,144
-559,744	-61,679	0,065	-0,019
-558,729	156,579	0,065	-0,065
-557,715	24,036	-0,062	0,037
-556,700	800,000	0,046	-0,133
-555,685	625,913	0,053	-0,097
-554,671	-12,072	0,040	0,019
-553,656	800,000	0,022	0,047
-552,642	800,000	0,015	-0,039
-551,627	-200,000	-0,006	0,033
-550,612	-87,576	-0,088	-0,019
-549,598	276,721	0,007	0,009
-548,583	-200,000	-0,043	-0,183
-547,569	171,913	0,067	0,070
-546,554	800,000	0,038	0,099
-545,539	375,247	-0,036	-0,053
-544,525	69,395	0,036	-0,027
-543,510	800,000	0,073	0,181
-542,496	-200,000	-0,017	-0,083
-541,481	-125,194	-0,148	0,016
-540,466	303,803	-0,016	0,022
-539,452	26,055	-0,126	0,075
-538,437	-200,000	-0,010	0,115
-537,423	24,988	0,093	0,055
-536,408	89,370	0,113	-0,091
-535,393	-75,268	-0,037	-0,010
-534,379	137,204	-0,088	0,083
-533,364	-200,000	-0,008	-0,114
-532,350	-200,000	0,007	0,091
-531,335	-167,063	0,083	-0,002
-530,321	-47,495	-0,034	0,012
-529,306	800,000	-0,037	0,077
-528,291	800,000	-0,037	0,095
-527,277	155,885	-0,094	-0,093
-526,262	-37,992	-0,078	-0,030
-525,248	-39,398	0,101	-0,038
-524,233	284,875	0,115	0,149
-523,218	240,957	-0,044	0,053
-522,204	-200,000	-0,001	0,036
-521,189	37,182	-0,067	-0,043
-520,175	800,000	-0,044	-0,107
-519,160	338,824	-0,060	-0,084
-518,145	18,353	0,009	-0,005
-517,131	-200,000	0,012	0,073
-516,116	-44,340	-0,129	0,046
-515,102	53,078	0,128	0,088
-514,087	-200,000	-0,054	-0,202
-513,072	42,228	-0,109	-0,071
-512,058	318,380	-0,068	-0,092
-511,043	-200,000	-0,009	-0,057
-510,029	2,372	0,107	-0,055
-509,014	181,549	0,020	0,021
-507,999	164,946	0,100	0,102
-506,985	50,989	0,083	0,056
-505,970	274,113	-0,108	-0,137
-504,956	159,933	-0,037	-0,037
-503,941	564,219	0,022	0,038
-502,926	800,000	0,008	0,017
-501,912	45,628	0,128	0,085
-500,897	800,000	0,025	0,061
-499,883	-200,000	-0,005	-0,019
-498,868	526,956	0,018	0,030
-497,853	800,000	-0,033	-0,091
-496,839	122,671	0,056	0,050
-495,824	800,000	0,021	0,046
-494,810	-186,243	-0,107	-0,001
-493,795	-130,123	-0,025	-0,002
-492,781	190,227	0,032	-0,035
-491,766	704,594	-0,084	-0,160
-490,751	-6,606	0,064	-0,031
-489,737	800,000	0,041	0,100
-488,722	337,119	0,063	-0,089
-487,708	800,000	0,024	-0,063
-486,693	800,000	0,016	-0,031
-485,678	-108,530	-0,068	-0,010
-484,664	-200,000	-0,011	-0,061
-483,649	800,000	0,006	-0,015
-482,635	159,974	-0,090	-0,090
-481,620	-200,000	-0,028	0,150
-480,605	-200,000	0,020	-0,097
-479,591	286,436	0,016	-0,021
-478,576	287,336	0,060	0,078
-477,562	80,779	-0,078	-0,060
-476,547	53,511	-0,138	-0,095
-475,532	497,950	-0,021	0,034
-474,518	156,651	-0,058	0,057
-473,503	-43,421	0,074	0,027
-472,489	21,514	0,122	0,071
-471,474	-200,000	0,007	-0,041
-470,459	223,357	-0,073	-0,085
-469,445	-200,000	0,034	0,197
-468,430	-200,000	-0,003	0,067
-467,416	-54,990	0,022	-0,007
-466,401	123,346	0,080	0,071
-465,386	-5,998	0,063	-0,031
-464,372	-125,411	-0,093	0,010
-463,357	-200,000	-0,007	-0,030
-462,343	-120,094	0,174	-0,021
-461,328	8,977	-0,054	-0,029
-460,313	-139,214	-0,122	-0,009
-459,299	393,077	0,099	0,148
-458,284	325,287	-0,094	0,129
-457,270	800,000	0,062	0,127
-456,255	73,597	-0,170	-0,128
-455,241	800,000	-0,060	-0,184
-454,226	-200,000	-0,003	-0,033
-453,211	519,859	0,039	0,066
-452,197	-11,357	0,068	0,032
-451,182	-200,000	0,038	0,175
-450,168	-80,425	0,088	-0,021
-449,153	102,961	0,167	-0,140
-448,138	-200,000	0,006	0,023
-447,124	262,786	-0,120	-0,150
-446,109	616,274	0,071	-0,129
-445,095	-104,547	0,046	0,008
-444,080	800,000	-0,037	-0,106
-443,065	383,313	0,033	0,049
-442,051	-200,000	-0,022	-0,137
-441,036	-200,000	-0,004	-0,089
-440,022	800,000	-0,051	-0,112
-439,007	657,407	-0,025	0,045
-437,992	45,324	-0,031	-0,020
-436,978	307,343	0,070	0,094
-435,963	110,009	0,037	0,032
-434,949	800,000	-0,039	0,097
-433,934	180,617	-0,077	0,081
-432,919	-200,000	0,005	-0,041
-431,905	-200,000	0,041	-0,182
-430,890	-200,000	-0,024	0,085
-429,876	800,000	0,008	0,025
-428,861	800,000	-0,087	0,203
-427,846	-58,468	-0,094	-0,029
-426,832	353,801	-0,066	-0,094
-425,817	376,642	-0,019	-0,027
-424,803	185,384	0,045	-0,048
-423,788	171,809	0,039	-0,040
-422,773	-200,000	-0,003	0,070
-421,759	800,000	-0,028	-0,063
-420,744	-200,000	-0,013	-0,122
-419,730	117,825	0,082	-0,073
-418,715	800,000	-0,032	-0,084
-417,701	-200,000	-0,009	-0,128
-416,686	-200,000	-0,019	-0,072
-415,671	-79,184	0,112	0,027
-414,657	538,672	0,048	0,081
-413,642	800,000	-0,015	-0,039
-412,628	-200,000	-0,011	-0,045
-411,613	-93,741	0,088	-0,017
-410,598	17,811	0,054	-0,030
-409,584	800,000	-0,042	0,084
-408,569	-10,010	0,098	-0,046
-407,555	-70,114	-0,134	0,036
-406,540	96,866	0,099	0,081
-405,525	-200,000	0,005	0,101
-404,511	123,950	0,016	0,015
-403,496	243,187	0,099	-0,118
-402,482	-33,322	0,038	-0,015
-401,467	-48,651	0,036	0,012
-400,452	800,000	0,042	0,127
-399,438	-46,586	0,074	0,026
-398,423	-101,059	-0,131	-0,023
-397,409	-39,852	0,010	0,004
-396,394	279,302	0,026	0,033
-395,379	-200,000	0,001	-0,087
-394,365	-200,000	-0,011	0,070
-393,350	26,320	0,122	-0,073
-392,336	-60,770	-0,084	0,025
-391,321	-200,000	-0,015	-0,052
-390,306	-98,233	0,042	-0,008
-389,292	127,040	-0,087	-0,079
-388,277	-128,809	-0,061	-0,006
-387,263	800,000	0,059	0,145
-386,248	-200,000	-0,011	0,053
-385,233	92,749	0,091	-0,074
-384,219	-200,000	-0,010	-0,053
-383,204	-200,000	-0,028	-0,094
-382,190	-11,352	0,080	0,038
-381,175	-86,606	0,085	-0,018
-380,160	442,987	-0,077	-0,121
-379,146	-181,185	0,124	0,002
-378,131	-50,940	-0,134	0,045
-377,117	-200,000	-0,013	0,115
-376,102	-200,000	-0,028	-0,093
-375,088	250,819	0,040	-0,048
-374,073	-42,532	0,140	-0,051
-373,058	-200,000	0,010	-0,052
-372,044	230,375	-0,017	0,020
-371,029	-200,000	0,017	0,097
-370,015	394,176	0,031	0,046
-369,000	800,000	0,031	0,072
-367,985	352,926	0,027	0,039
-366,971	-107,655	-0,100	0,015
-365,956	145,190	0,065	-0,062
-364,942	408,944	0,105	0,159
-363,927	10,973	-0,089	-0,048
-362,912	800,000	0,015	0,041
-361,898	-200,000	0,002	-0,117
-360,883	181,997	-0,042	-0,044
-359,869	247,676	0,055	-0,066
-358,854	39,731	0,080	0,051
-357,839	101,045	0,066	0,055
-356,825	-62,153	-0,059	-0,018
-355,810	553,307	-0,018	0,032
-354,796	304,906	-0,080	0,107
-353,781	-11,091	-0,083	0,039
-352,766	-200,000	-0,002	-0,031
-351,752	800,000	-0,013	-0,027
-350,737	743,760	-0,096	0,186
-349,723	-42,832	0,231	-0,083
-348,708	77,721	0,083	0,063
-347,693	681,412	0,043	0,081
-346,679	-200,000	-0,008	0,075
-345,664	-187,915	-0,072	0,001
-344,650	12,924	-0,053	0,029
-343,635	-148,114	0,145	0,008
-342,620	-1,447	0,051	-0,026
-341,606	31,038	-0,056	-0,034
-340,591	-19,160	0,046	0,021
-339,577	38,285	0,021	-0,013
-338,562	136,168	-0,058	-0,054
-337,548	-40,817	-0,094	0,035
-336,533	389,046	0,043	-0,064
-335,518	-200,000	-0,006	-0,040
-334,504	-200,000	-0,015	0,074
-333,489	73,909	-0,104	0,078
-332,475	800,000	0,063	0,172
-331,460	-39,203	0,082	0,030
-330,445	-200,000	0,006	0,038
-329,431	-91,755	0,133	0,027
-328,416	104,044	0,079	0,066
-327,402	-88,582	-0,027	-0,006
-326,387	11,743	0,044	0,024
-325,372	-99,172	-0,047	-0,008
-324,358	112,223	-0,144	-0,125
-323,343	378,592	-0,061	-0,089
-322,329	57,453	0,107	-0,074
-321,314	-200,000	-0,004	-0,015
-320,299	728,834	0,065	0,125
-319,285	-38,577	-0,055	-0,021
-318,270	-200,000	0,007	0,051
-317,256	430,680	0,071	0,110
-316,241	297,636	-0,113	-0,149
-315,226	84,270	-0,034	0,026
-314,212	-200,000	-0,005	0,069
-313,197	-200,000	0,031	0,141
-312,183	-200,000	-0,008	0,033
-311,168	-200,000	-0,037	0,126
-310,153	-66,270	-0,062	-0,018
-309,139	-153,956	0,025	-0,001
-308,124	186,692	0,070	0,074
-307,110	800,000	0,013	0,028
-306,095	112,545	0,051	0,044
-305,080	-46,855	0,075	-0,026
-304,066	-43,718	-0,120	0,043
-303,051	-118,551	-0,145	-0,018
-302,037	800,000	0,088	-0,175
-301,022	-200,000	-0,008	-0,041
-300,008	-77,420	-0,069	-0,017
-298,993	-88,419	0,130	-0,027
-297,978	800,000	0,030	-0,095
-296,964	-66,042	0,050	0,014
-295,949	-200,000	0,011	0,104
-294,935	-200,000	0,000	0,049
-293,920	216,786	-0,072	0,082
-292,905	-102,878	-0,121	0,020
-291,891	58,028	0,069	-0,048
-290,876	318,286	-0,084	0,114
-289,862	-132,525	0,115	0,010
-288,847	70,818	-0,072	-0,053
-287,832	52,134	0,044	-0,030
-286,818	800,000	0,031	0,062
-285,803	99,490	0,107	-0,088
-284,789	204,166	0,042	-0,046
-283,774	430,589	0,078	0,120
-282,759	-18,996	-0,118	0,052
-281,745	-113,965	-0,104	-0,014
-280,730	373,643	-0,102	-0,149
-279,716	-156,855	0,043	-0,002
-278,701	-200,000	-0,038	0,213
-277,686	122,517	0,073	0,065
-276,672	800,000	-0,053	0,123
-275,657	154,424	-0,061	-0,060
-274,643	-200,000	0,030	-0,224
-273,628	-157,641	-0,184	-0,008
-272,613	-200,000	0,001	0,008
-271,599	-200,000	-0,004	-0,060
-270,584	124,669	0,047	0,042
-269,570	17,246	0,107	0,060
-268,555	-200,000	-0,004	-0,033
-267,540	-21,877	0,071	0,031
-266,526	-0,396	0,066	-0,033
-265,511	239,239	-0,074	0,087
-264,497	93,612	0,055	0,044
-263,482	-200,000	0,024	0,105
-262,467	-200,000	-0,010	-0,040
-261,453	85,162	-0,122	-0,095
-260,438	-200,000	0,031	-0,102
-259,424	119,670	-0,019	0,017
-258,409	-200,000	0,003	-0,083
-257,395	-200,000	0,004	0,027
-256,380	209,583	0,041	-0,046
-255,365	288,769	-0,081	0,105
-254,351	-200,000	0,009	0,127
-253,336	34,100	0,069	-0,043
-252,322	-17,502	-0,075	-0,033
-251,307	37,969	0,024	0,015
-250,292	126,058	-0,039	-0,035
-249,278	41,477	0,102	0,065
-248,263	-200,000	0,001	0,016
-247,249	-131,062	-0,122	-0,011
-246,234	152,755	0,036	0,035
-245,219	-184,034	0,019	-0,000
-244,205	-25,317	-0,030	-0,012
-243,190	287,517	-0,041	-0,053
-242,176	800,000	0,012	0,029
-241,161	-177,311	0,107	-0,002
-240,146	-200,000	-0,000	-0,131
-239,132	423,643	0,029	-0,045
-238,117	800,000	-0,016	-0,041
-237,103	-35,599	0,023	-0,009
-236,088	60,982	-0,042	-0,029
-235,073	141,681	0,042	-0,039
-234,059	395,012	-0,027	-0,040
-233,044	-15,466	-0,029	0,013
-232,030	56,673	-0,055	-0,038
-231,015	-55,743	0,072	-0,023
-230,000	132,379	0,052	-0,048
-228,986	247,569	0,031	-0,037
-227,971	-123,964	0,119	0,013
-226,957	587,518	-0,066	0,116
-225,942	800,000	0,019	0,041
-224,927	-200,000	0,009	-0,038
-223,913	335,089	-0,029	0,040
-222,898	149,289	-0,061	-0,059
-221,884	41,012	-0,070	-0,044
-220,869	-200,000	-0,009	-0,071
-219,855	-200,000	-0,008	-0,092
-218,840	-14,098	0,085	0,039
-217,825	3,068	-0,091	0,047
-216,811	800,000	0,011	0,025
-215,796	-109,225	0,099	-0,015
-214,782	-200,000	-0,050	-0,162
-213,767	67,871	0,062	-0,045
-212,752	-200,000	0,078	-0,000
-211,738	-61,249	-0,031	-0,009
-210,723	-200,000	-0,048	-0,173
-209,709	-112,545	-0,130	-0,018
-208,694	96,273	0,070	0,057
-207,679	620,938	0,042	0,076
-206,665	451,901	0,020	-0,032
-205,650	311,465	0,021	-0,028
-204,636	385,133	0,115	0,169
-203,621	-35,001	0,115	0,044
-202,606	36,160	-0,039	0,024
-201,592	-92,563	-0,099	-0,020
-200,577	-102,924	0,118	0,020
-199,563	317,120	-0,061	0,082
-198,548	800,000	-0,025	0,071
-197,533	-64,180	0,195	-0,056
-196,519	437,146	0,062	0,096
-195,504	800,000	-0,060	0,124
-194,490	251,159	-0,018	0,021
-193,475	-200,000	0,020	0,138
-192,460	800,000	-0,034	0,100
-191,446	-0,425	0,088	0,044
-190,431	221,465	0,053	0,061
-189,417	-200,000	-0,012	0,123
-188,402	-183,627	-0,082	-0,001
-187,387	-200,000	-0,003	-0,031
-186,373	-200,000	-0,014	-0,062
-185,358	653,481	-0,031	-0,057
-184,344	508,414	0,053	-0,088
-183,329	-60,202	0,092	0,028
-182,315	800,000	-0,029	0,080
-181,300	411,456	0,026	-0,040
-180,285	107,286	0,020	0,017
-179,271	-200,000	-0,044	-0,165
-178,256	554,379	-0,074	-0,127
-177,242	-200,000	0,019	0,137
-176,227	114,942	0,111	0,096
-175,212	-200,000	-0,019	0,062
-174,198	-138,573	0,090	0,007
-173,183	125,050	-0,060	-0,054
-172,169	259,861	0,116	-0,142
-171,154	-200,000	0,015	0,090
-170,139	-50,214	-0,122	0,041
-169,125	-200,000	-0,001	0,076
-168,110	181,920	0,074	0,077
-167,096	-200,000	-0,008	0,158
-166,081	24,161	-0,054	-0,031
-165,066	800,000	-0,009	0,018
-164,052	91,274	-0,068	-0,054
-163,037	-17,562	0,092	0,041
-162,023	-200,000	-0,006	-0,079
-161,008	327,112	0,031	0,042
-159,993	-33,972	0,079	-0,031
-158,979	191,224	-0,114	-0,122
-157,964	305,036	0,039	-0,052
-156,950	-15,902	-0,126	0,057
-155,935	40,139	-0,034	0,022
-154,920	267,472	-0,025	0,031
-153,906	-94,360	-0,114	0,022
-152,891	117,527	0,109	0,095
-151,877	-111,013	0,035	0,005
-150,862	-200,000	-0,017	0,057
-149,847	631,280	0,017	-0,031
-148,833	617,703	0,033	-0,059
-147,818	-82,897	0,176	-0,040
-146,804	-200,000	0,057	0,200
-145,789	800,000	0,041	0,126
-144,775	-28,761	-0,114	-0,046
-143,760	-200,000	-0,047	-0,164
-142,745	206,226	-0,032	-0,035
-141,731	-98,044	-0,065	0,012
-140,716	408,410	-0,062	-0,094
-139,702	-93,995	0,042	-0,008
-138,687	800,000	0,043	0,134
-137,672	171,806	-0,057	-0,058
-136,658	720,115	-0,062	-0,116
-135,643	2,724	0,049	0,025
-134,629	-87,002	-0,038	-0,008
-133,614	-200,000	0,030	0,097
-132,599	194,060	-0,036	-0,038
-131,585	-200,000	0,014	-0,128
-130,570	-200,000	-0,031	-0,144
-129,556	800,000	-0,062	-0,148
-128,541	800,000	0,051	-0,107
-127,526	224,243	-0,054	0,062
-126,512	-166,931	-0,034	-0,001
-125,497	800,000	0,077	0,168
-124,483	800,000	0,017	0,037
-123,468	453,974	0,064	0,101
-122,453	-200,000	0,007	0,064
-121,439	282,514	-0,059	0,075
-120,424	20,274	-0,103	-0,059
-119,410	37,236	0,026	0,016
-118,395	-83,828	-0,059	-0,013
-117,380	161,022	-0,055	-0,054
-116,366	-200,000	0,006	-0,024
-115,351	-166,483	-0,093	0,003
-114,337	-200,000	-0,011	-0,058
-113,322	137,426	0,091	-0,084
-112,307	-200,000	-0,018	-0,060
-111,293	234,113	0,048	0,056
-110,278	-200,000	-0,030	0,111
-109,264	283,144	-0,076	0,097
-108,249	51,192	0,104	-0,070
-107,234	-93,678	-0,140	0,027
-106,220	133,213	0,013	0,012
-105,205	-200,000	-0,010	0,077
-104,191	509,901	0,054	0,088
-103,176	-200,000	0,010	0,046
-102,162	-177,426	-0,051	0,001
-101,147	-148,620	0,044	-0,002
-100,132	-200,000	0,004	-0,083
-99,118	202,613	-0,106	-0,116
-98,103	-11,406	0,012	0,006
-97,089	-85,665	0,032	0,007
-96,074	-93,577	0,174	0,034
-95,059	122,883	-0,077	-0,068
-94,045	555,834	0,012	0,021
-93,030	-125,866	-0,223	0,023
-92,016	800,000	-0,044	0,089
-91,001	462,221	-0,062	-0,098
-89,986	-200,000	0,006	0,083
-88,972	-106,578	0,164	-0,026
-87,957	58,334	0,027	-0,019
-86,943	-200,000	0,006	0,066
-85,928	-200,000	0,012	-0,079
-84,913	-29,066	-0,060	0,024
-83,899	-81,532	0,164	0,038
-82,884	-200,000	0,011	-0,119
-81,870	-200,000	0,010	0,087
-80,855	87,166	0,061	0,048
-79,840	800,000	-0,041	0,122
-78,826	-24,633	-0,114	-0,048
-77,811	-200,000	0,003	0,046
-76,797	352,456	-0,034	-0,047
-75,782	105,490	0,043	-0,036
-74,767	-200,000	-0,014	0,127
-73,753	-200,000	0,002	0,170
-72,738	800,000	-0,051	0,101
-71,724	-89,248	0,059	-0,012
-70,709	-28,894	0,087	-0,035
-69,694	-200,000	0,011	-0,067
-68,680	280,936	-0,033	0,042
-67,665	-200,000	-0,001	-0,071
-66,651	156,029	-0,082	0,079
-65,636	46,149	-0,096	-0,063
-64,622	-200,000	0,017	0,114
-63,607	315,029	-0,047	-0,063
-62,592	6,421	0,078	0,041
-61,578	-27,446	0,041	0,017
-60,563	-200,000	0,012	-0,062
-59,549	-200,000	0,011	0,057
-58,534	34,823	-2,095	-1,290
-57,519	576,950	-1,129	-1,956
-56,505	-200,000	-0,372	-4,291
-55,490	694,600	0,913	1,699
-54,476	800,000	4,932	11,166
-53,461	-200,000	21,646	340,137
-52,446	800,000	761,650	2324,562
-51,432	542,201	1658,184	2800,146
-50,417	70,696	1654,574	1206,718
-49,403	17,025	1528,226	852,064
-48,388	11,106	1452,152	781,131
-47,373	19,131	1444,069	815,121
-46,359	14,524	1432,951	786,991
-45,344	9,370	1429,009	760,341
-44,330	9,345	1427,034	759,139
-43,315	9,309	1425,187	757,955
-42,300	9,340	1423,352	757,098
-41,286	9,384	1422,058	756,584
-40,271	9,315	1420,818	755,568
-39,257	9,348	1419,743	755,125
-38,242	9,378	1418,414	754,528
-37,227	9,357	1417,602	753,970
-36,213	9,351	1416,319	753,227
-35,198	9,377	1415,006	752,622
-34,184	9,370	1414,222	752,141
-33,169	9,303	1412,876	751,080
-32,154	9,364	1411,860	750,798
-31,140	9,345	1410,448	749,927
-30,125	9,413	1409,419	749,670
-29,111	9,335	1408,288	748,672
-28,096	9,359	1407,166	748,159
-27,082	9,344	1405,806	747,339
-26,067	9,266	1404,882	746,453
-25,052	9,281	1404,008	746,026
-24,038	9,344	1402,748	745,623
-23,023	9,325	1401,797	744,997
-22,009	9,301	1400,876	744,368
-20,994	9,287	1399,846	743,724
-19,979	9,305	1398,799	743,223
-18,965	9,282	1397,912	742,615
-17,950	9,265	1397,045	742,049
-16,936	9,233	1396,239	741,439
-15,921	9,175	1395,330	740,660
-14,906	9,211	1394,473	740,343
-13,892	9,272	1393,356	740,004
-12,877	9,259	1392,506	739,461
-11,863	9,233	1391,574	738,817
-10,848	9,138	1390,944	738,016
-9,833	9,122	1390,020	737,423
-8,819	9,064	1389,198	736,689
-7,804	9,115	1388,056	736,288
-6,790	9,126	1386,927	735,713
-5,775	9,138	1385,944	735,214
-4,760	9,132	1385,012	734,663
-3,746	9,116	1384,091	734,074
-2,731	9,154	1383,199	733,746
-1,717	9,116	1382,485	733,163
-0,702	9,127	1380,570	732,166
0,313	13,208	1293,373	704,493
1,327	29,390	685,167	409,643
2,342	45,884	118,096	76,887
3,356	1,405	16,526	8,349
4,371	-3,013	3,674	1,802
5,386	-4,195	1,402	0,682
6,400	-200,000	0,149	0,626
7,415	-200,000	-0,013	-0,178
8,429	204,538	-0,294	-0,321
9,444	-51,928	-0,486	-0,158
10,459	73,267	-0,269	-0,198
11,473	-153,203	-0,274	-0,013
12,488	50,422	-0,225	-0,150
13,502	16,947	-0,324	-0,180
14,517	122,898	-0,258	-0,228
15,531	214,766	-0,228	-0,255
16,546	92,450	-0,371	-0,295
17,561	72,718	-0,400	-0,293
18,575	405,960	-0,136	-0,203
19,590	63,832	-0,252	-0,178
20,604	-93,669	-0,229	-0,044
21,619	87,169	-0,336	-0,261
22,634	183,978	-0,333	-0,348
23,648	33,830	-0,373	-0,228
24,663	105,751	-0,337	-0,280
25,677	12,263	-0,324	-0,175
26,692	-1,524	-0,347	-0,171
27,707	-87,538	-0,424	-0,089
28,721	-26,566	-0,389	-0,160
29,736	38,092	-0,337	-0,211
30,750	233,816	-0,217	-0,252
31,765	-61,739	-0,407	-0,119
32,780	0,203	-0,350	-0,175
33,794	185,020	-0,326	-0,340
34,809	-18,324	-0,376	-0,164
35,823	139,304	-0,361	-0,334
36,838	-30,283	-0,410	-0,163
37,853	299,249	-0,227	-0,294
38,867	-38,977	-0,403	-0,148
39,882	100,783	-0,400	-0,327
40,896	86,105	-0,271	-0,210
41,911	-14,541	-0,382	-0,172
42,926	-12,378	-0,326	-0,149
43,940	156,992	-0,407	-0,396
44,955	73,373	-0,459	-0,337
45,969	20,264	-0,396	-0,224
46,984	16,099	-0,253	-0,140
47,999	-15,336	-0,414	-0,185
49,013	65,125	-0,218	-0,154
50,028	114,107	-0,185	-0,158
51,042	288,432	-0,343	-0,437
52,057	77,119	-0,411	-0,306
53,071	100,753	-0,390	-0,318
54,086	-53,262	-0,266	-0,085
55,101	53,378	-0,427	-0,287
56,115	32,572	-0,290	-0,175
57,130	75,859	-0,244	-0,181
58,144	37,607	-0,408	-0,253
59,159	16,738	-0,358	-0,198
60,174	74,495	-0,405	-0,298
61,188	4,048	-0,326	-0,167
62,203	299,199	-0,236	-0,306
63,217	40,458	-0,334	-0,211
64,232	-39,917	-0,310	-0,113
65,247	175,091	-0,199	-0,202
66,261	16,653	-0,484	-0,268
67,276	42,287	-0,277	-0,176
68,290	128,506	-0,338	-0,302
69,305	59,262	-0,349	-0,241
70,320	131,321	-0,306	-0,275
71,334	44,428	-0,224	-0,144
72,349	2,752	-0,358	-0,181
73,363	-39,039	-0,347	-0,127
74,378	84,734	-0,280	-0,215
75,393	-13,787	-0,409	-0,185
76,407	93,421	-0,301	-0,238
77,422	-116,250	-0,196	-0,025
78,436	34,588	-0,250	-0,153
79,451	-31,657	-0,288	-0,113
80,466	33,207	-0,357	-0,216
81,480	-0,545	-0,223	-0,110
82,495	-23,035	-0,418	-0,176
83,509	-154,422	-0,290	0,013
84,524	-53,772	-0,254	-0,081
85,539	146,315	-0,128	-0,120
86,553	622,188	-0,072	-0,127
87,568	29,861	-0,415	-0,247
88,582	-59,758	-0,313	-0,093
89,597	75,009	-0,111	-0,081
90,611	58,441	-0,196	-0,134
91,626	86,487	-0,336	-0,259
92,641	219,309	-0,149	-0,167
93,655	28,965	-0,213	-0,126
94,670	10,219	-0,363	-0,193
95,684	184,755	-0,272	-0,282
96,699	29,224	-0,253	-0,150
97,714	162,042	-0,215	-0,210
98,728	247,052	-0,289	-0,342
99,743	196,934	-0,186	-0,199
100,757	-58,961	-0,251	-0,075
101,772	0,118	-0,355	-0,176
102,787	-39,804	-0,328	-0,119
103,801	360,588	-0,152	-0,213
104,816	3,981	-0,215	-0,109
105,830	46,236	-0,319	-0,206
106,845	25,055	-0,281	-0,162
107,860	4,902	-0,265	-0,136
108,874	528,508	-0,158	-0,262
109,889	530,184	-0,234	-0,388
110,903	190,685	-0,217	-0,228
111,918	336,887	-0,218	-0,297
112,933	-110,134	-0,198	-0,029
113,947	25,053	-0,168	-0,097
114,962	104,176	-0,219	-0,180
115,976	34,453	-0,293	-0,178
116,991	183,107	-0,200	-0,207
118,006	24,067	-0,236	-0,135
119,020	0,021	-0,167	-0,083
120,035	475,370	-0,155	-0,245
121,049	9,125	-0,168	-0,088
122,064	63,503	-0,334	-0,233
123,079	355,051	-0,181	-0,252
124,093	44,629	-0,164	-0,105
125,108	319,378	-0,137	-0,181
126,122	158,217	-0,227	-0,219
127,137	65,969	-0,151	-0,106
128,151	-36,007	-0,311	-0,117
129,166	-200,000	-0,235	0,000
130,181	-107,678	-0,328	-0,049
131,195	51,833	-0,246	-0,163
132,210	-20,601	-0,279	-0,119
133,224	136,138	-0,191	-0,174
134,239	51,176	-0,275	-0,181
135,254	800,000	-0,097	-0,227
136,268	79,555	-0,357	-0,267
137,283	61,470	-0,200	-0,138
138,297	-1,418	-0,334	-0,164
139,312	-29,949	-0,173	-0,068
140,327	85,784	-0,307	-0,235
141,341	149,415	-0,215	-0,203
142,356	-16,686	-0,296	-0,130
143,370	6,441	-0,183	-0,094
144,385	29,492	-0,231	-0,137
145,400	32,702	-0,234	-0,140
146,414	246,628	-0,227	-0,267
147,429	8,494	-0,309	-0,161
148,443	-82,922	-0,285	-0,063
149,458	-156,088	-0,340	-0,015
150,473	102,190	-0,193	-0,157
151,487	52,229	-0,271	-0,180
152,502	80,732	-0,237	-0,178
153,516	373,230	-0,178	-0,253
154,531	162,288	-0,218	-0,212
155,546	56,835	-0,213	-0,144
156,560	398,970	-0,080	-0,116
157,575	62,230	-0,214	-0,149
158,589	13,711	-0,273	-0,147
159,604	800,000	-0,070	-0,141
160,619	127,158	-0,298	-0,263
161,633	100,512	-0,180	-0,145
162,648	452,052	-0,149	-0,230
163,662	168,180	-0,162	-0,160
164,677	62,061	-0,203	-0,141
165,692	226,800	-0,187	-0,211
166,706	207,832	-0,227	-0,246
167,721	-30,169	-0,306	-0,120
168,735	-13,816	-0,308	-0,138
169,750	12,734	-0,329	-0,176
170,764	-150,196	-0,182	0,010
171,779	248,085	-0,197	-0,232
172,794	20,066	-0,219	-0,122
173,808	106,978	-0,319	-0,263
174,823	800,000	-0,102	-0,247
175,837	-71,677	-0,328	-0,084
176,852	108,766	-0,300	-0,249
177,867	79,133	-0,215	-0,160
178,881	-58,576	-0,282	-0,084
179,896	315,322	-0,187	-0,245
180,910	316,656	-0,182	-0,239
181,925	225,289	-0,268	-0,302
182,940	-65,180	-0,257	-0,071
183,954	62,424	-0,260	-0,180
184,969	353,814	-0,064	-0,088
185,983	71,922	-0,149	-0,107
186,998	310,361	-0,186	-0,242
188,013	167,456	-0,100	-0,099
189,027	769,820	-0,130	-0,246
190,042	141,956	-0,144	-0,133
191,056	-27,710	-0,327	-0,131
192,071	-5,366	-0,174	-0,083
193,086	109,114	-0,110	-0,091
194,100	-34,489	-0,267	-0,101
195,115	50,653	-0,261	-0,171
196,129	216,835	-0,089	-0,098
197,144	234,357	-0,159	-0,182
198,159	80,767	-0,234	-0,175
199,173	-47,947	-0,173	-0,058
200,188	42,708	-0,187	-0,118
201,202	267,167	-0,163	-0,198
202,217	-22,719	-0,243	-0,101
203,232	95,945	-0,321	-0,254
204,246	675,807	-0,154	-0,278
205,261	282,283	-0,142	-0,176
206,275	201,662	-0,187	-0,200
207,290	-200,000	-0,069	-0,236
208,304	125,735	-0,118	-0,103
209,319	94,236	-0,138	-0,108
210,334	44,244	-0,196	-0,125
211,348	-50,594	-0,359	-0,117
212,363	402,359	-0,151	-0,221
213,377	-82,922	-0,132	0,029
214,392	-18,318	-0,149	-0,064
215,407	-90,699	-0,174	-0,034
216,421	-119,821	-0,308	0,036
217,436	31,130	-0,148	-0,088
218,450	149,421	-0,129	-0,121
219,465	375,012	-0,227	-0,320
220,480	-1,114	-0,294	-0,143
221,494	34,380	-0,043	-0,026
222,509	14,680	-0,262	-0,141
223,523	-6,331	-0,222	-0,104
224,538	-3,242	-0,128	-0,061
225,553	127,863	-0,209	-0,184
226,567	-80,610	-0,204	-0,047
227,582	6,584	-0,307	-0,157
228,596	611,724	-0,127	-0,221
229,611	-41,376	-0,237	-0,084
230,626	76,939	-0,168	-0,123
231,640	-39,982	-0,170	-0,061
232,655	153,146	-0,175	-0,166
233,669	88,867	-0,113	-0,087
234,684	155,174	-0,168	-0,160
235,699	-200,000	-0,075	-0,251
236,713	215,995	-0,174	-0,191
237,728	36,832	-0,078	0,048
238,742	200,875	-0,124	-0,132
239,757	116,863	-0,206	-0,175
240,772	-200,000	-0,086	-0,292
241,786	166,747	-0,124	-0,122
242,801	18,813	-0,226	-0,124
243,815	-200,000	-0,211	0,001
244,830	-37,979	-0,163	0,060
245,844	165,505	-0,173	-0,169
246,859	25,260	-0,178	-0,102
247,874	-54,574	-0,139	-0,043
248,888	-23,713	-0,176	-0,072
249,903	323,423	-0,098	-0,129
250,917	-19,856	-0,202	-0,086
251,932	235,686	-0,158	-0,180
252,947	68,635	-0,244	-0,173
253,961	-52,588	-0,179	-0,057
254,976	-67,023	-0,275	-0,074
255,990	-200,000	-0,306	0,000
257,005	201,881	-0,121	-0,129
258,020	569,745	-0,086	-0,144
259,034	-123,055	-0,196	0,021
260,049	-16,165	-0,168	-0,073
261,063	235,380	-0,199	-0,227
262,078	97,421	-0,188	-0,149
263,093	12,058	-0,212	-0,112
264,107	362,248	-0,142	-0,197
265,122	-200,000	-0,045	-0,161
266,136	800,000	-0,070	-0,174
267,151	73,971	-0,143	0,103
268,166	-18,536	-0,202	-0,086
269,180	521,110	-0,117	-0,190
270,195	-114,813	-0,180	-0,023
271,209	-43,346	-0,219	0,076
272,224	69,631	-0,111	0,078
273,239	406,286	-0,122	-0,177
274,253	-31,448	-0,161	-0,062
275,268	519,010	-0,079	-0,129
276,282	270,648	-0,122	-0,149
277,297	800,000	-0,046	-0,133
278,312	558,826	-0,069	-0,115
279,326	-49,022	-0,095	-0,031
280,341	-128,288	-0,192	-0,019
281,355	246,582	-0,126	-0,146
282,370	112,920	-0,035	-0,029
283,384	800,000	-0,114	-0,235
284,399	23,609	-0,170	-0,096
285,414	800,000	-0,090	-0,180
286,428	549,299	-0,103	-0,170
287,443	-200,000	-0,068	-0,242
288,457	-81,915	-0,151	0,034
289,472	-97,039	-0,182	-0,033
290,487	42,693	-0,192	-0,120
291,501	-56,038	-0,178	-0,054
292,516	299,291	-0,110	-0,140
293,530	25,883	-0,106	-0,061
294,545	681,817	-0,055	-0,098
295,560	-47,829	-0,269	-0,089
296,574	268,329	-0,194	-0,234
297,589	90,742	-0,233	-0,179
298,603	128,404	-0,076	-0,067
299,618	-7,418	-0,198	-0,092
300,633	257,361	-0,032	0,038
301,647	-126,182	-0,238	-0,024
302,662	54,331	-0,130	-0,086
303,676	800,000	0,027	-0,071
304,691	-200,000	-0,281	-0,000
305,706	527,209	-0,150	-0,243
306,720	-50,265	-0,160	-0,052
307,735	335,712	-0,083	-0,111
308,749	-200,000	-0,015	-0,091
309,764	-108,442	-0,095	-0,014
310,779	800,000	-0,036	-0,096
311,793	-35,942	-0,265	-0,098
312,808	-8,825	-0,291	-0,133
313,822	-72,605	-0,088	-0,022
314,837	665,639	-0,134	-0,239
315,852	-115,535	-0,120	-0,015
316,866	-200,000	-0,030	0,101
317,881	-108,856	-0,138	0,020
318,895	441,135	-0,068	-0,102
319,910	73,635	-0,129	-0,093
320,925	-36,972	-0,289	-0,106
321,939	124,698	-0,188	-0,162
322,954	-66,349	-0,100	0,027
323,968	-4,133	-0,101	-0,048
324,983	251,682	-0,138	-0,162
325,997	112,219	-0,105	-0,087
327,012	84,149	-0,164	-0,123
328,027	571,500	-0,160	-0,267
329,041	800,000	-0,071	-0,153
330,056	-10,212	-0,213	-0,097
331,070	70,060	-0,130	-0,092
332,085	38,392	-0,033	-0,020
333,100	-200,000	-0,068	-0,269
334,114	205,126	-0,056	-0,059
335,129	-20,339	-0,127	-0,053
336,143	80,564	-0,175	-0,129
337,158	367,408	-0,092	-0,128
338,173	-56,375	-0,132	-0,040
339,187	-63,255	-0,166	0,046
340,202	800,000	-0,022	-0,058
341,216	188,010	-0,179	-0,183
342,231	800,000	-0,084	-0,162
343,246	400,389	-0,099	-0,142
344,260	144,492	-0,054	-0,050
345,275	-200,000	-0,038	-0,118
346,289	-36,622	-0,222	-0,081
347,304	376,671	-0,146	-0,205
348,319	-82,302	-0,140	0,031
349,333	1,680	-0,293	-0,144
350,348	127,662	-0,178	-0,155
351,362	-178,739	-0,134	0,002
352,377	97,342	-0,129	-0,101
353,392	544,730	-0,078	-0,127
354,406	162,935	-0,127	-0,122
355,421	207,053	1307,632	1395,365
356,435	159,268	1467,454	1395,846
