DTS Sentinel unit serial number:	SN410029Multiplexer serial number:	ORYXHardware model number:	OX2-SRSoftware version number:	ORYX F/W v4,00 Oryx Data Collector v3.7.2.0data status	okinstallation	B3 Nyhavnadifferential loss correction	single-endedforward channel	channel 1reverse channel	N/Adate	2023/12/03time	05:07:30forward acquisition time	300,00reverse acquisition time	0,00gamma	499,1914k internal	0,3201k external	0,3201temperature offset calibration	1,0000default loss term (dB/km)	0,3820temperature slope calibration	1,0000multiplexer offset coefficient	1,0000multiplexer slope coefficient	1,0000fibre end	0,00T internal ref (°C)	13,29T ext. ref 1 (°C)	-1,79T ext. ref 2 (°C)	-1,80length (m)	temperature (°C)	Stokes	anti-Stokes-744,400	800,000	-0,116	-0,281
-743,385	-200,000	0,041	0,249
-742,371	270,832	-0,237	-0,304
-741,356	-200,000	0,043	0,277
-740,342	59,564	-0,198	-0,142
-739,327	-200,000	-0,083	0,277
-738,312	199,633	-0,216	-0,241
-737,298	-200,000	0,032	0,303
-736,283	138,364	-0,151	-0,144
-735,269	-200,000	0,022	0,269
-734,254	175,668	-0,236	-0,249
-733,239	-69,057	-0,231	0,064
-732,225	800,000	-0,118	-0,326
-731,210	-30,999	0,178	0,073
-730,196	-71,787	-0,118	0,032
-729,181	47,923	0,183	-0,124
-728,167	-36,133	-0,068	0,027
-727,152	-195,512	-0,068	-0,000
-726,137	176,776	-0,060	-0,063
-725,123	-200,000	-0,059	0,230
-724,108	-118,400	-0,113	0,014
-723,094	-43,768	-0,090	0,033
-722,079	800,000	-0,019	-0,038
-721,064	79,565	-0,065	-0,051
-720,050	225,230	0,050	-0,059
-719,035	-200,000	-0,028	-0,090
-718,021	800,000	0,027	-0,055
-717,006	-102,991	-0,116	-0,020
-715,991	-200,000	-0,020	-0,136
-714,977	-200,000	-0,013	-0,204
-713,962	800,000	-0,052	-0,142
-712,948	-200,000	0,007	0,048
-711,933	-98,686	-0,134	-0,025
-710,918	59,181	-0,080	-0,057
-709,904	612,576	0,051	-0,092
-708,889	625,326	-0,046	-0,084
-707,875	164,458	-0,025	0,026
-706,860	38,155	0,118	0,076
-705,845	15,730	-0,055	-0,031
-704,831	800,000	-0,019	0,061
-703,816	277,049	-0,110	0,143
-702,802	-29,652	0,068	0,028
-701,787	-200,000	-0,004	-0,032
-700,772	-135,191	-0,236	0,020
-699,758	297,481	0,040	-0,053
-698,743	-200,000	-0,009	0,121
-697,729	438,499	0,069	0,109
-696,714	-200,000	-0,010	0,109
-695,699	-98,357	-0,048	0,009
-694,685	49,222	-0,113	-0,077
-693,670	800,000	-0,041	-0,085
-692,656	-103,136	-0,062	-0,011
-691,641	800,000	0,046	0,142
-690,627	-200,000	-0,011	0,093
-689,612	0,969	-0,075	0,039
-688,597	67,594	-0,048	-0,035
-687,583	-200,000	-0,020	-0,127
-686,568	-200,000	-0,003	-0,086
-685,554	-200,000	0,018	-0,098
-684,539	71,778	0,031	0,023
-683,524	-200,000	0,003	0,164
-682,510	236,346	0,032	-0,039
-681,495	58,774	-0,076	-0,054
-680,481	-128,425	-0,097	-0,010
-679,466	-200,000	0,016	-0,141
-678,451	-15,348	-0,070	-0,032
-677,437	361,748	0,057	-0,084
-676,422	83,358	-0,049	-0,039
-675,408	-200,000	0,039	0,140
-674,393	-30,636	-0,092	0,038
-673,378	183,598	-0,025	-0,027
-672,364	-200,000	0,020	-0,080
-671,349	-200,000	-0,018	0,087
-670,335	800,000	0,018	0,037
-669,320	-28,423	0,168	0,070
-668,305	-56,038	-0,080	0,026
-667,291	224,239	0,064	-0,075
-666,276	182,121	-0,044	-0,047
-665,262	-140,854	-0,089	0,007
-664,247	-131,071	-0,079	0,008
-663,232	-200,000	-0,008	-0,051
-662,218	800,000	0,018	0,046
-661,203	211,224	0,023	0,026
-660,189	132,557	-0,031	-0,029
-659,174	-200,000	-0,034	-0,152
-658,159	-19,327	-0,091	-0,041
-657,145	99,618	0,037	0,031
-656,130	-200,000	0,001	0,010
-655,116	61,293	0,039	0,028
-654,101	800,000	-0,035	0,073
-653,086	147,967	0,016	0,015
-652,072	-73,257	-0,077	0,020
-651,057	-88,402	-0,172	-0,037
-650,043	-29,121	-0,205	0,085
-649,028	-90,446	0,064	0,013
-648,014	-110,692	-0,130	0,019
-646,999	198,243	0,059	-0,066
-645,984	-39,377	0,059	-0,022
-644,970	389,121	0,037	0,056
-643,955	196,461	-0,070	-0,078
-642,941	-30,805	-0,087	0,036
-641,926	315,208	-0,047	0,065
-640,911	-102,444	0,173	0,030
-639,897	800,000	0,027	0,060
-638,882	31,255	-0,197	-0,122
-637,868	309,395	-0,052	0,071
-636,853	800,000	-0,024	-0,065
-635,838	409,042	-0,066	-0,101
-634,824	-21,481	-0,019	-0,009
-633,809	800,000	0,020	0,058
-632,795	-52,931	0,063	-0,021
-631,780	143,269	0,050	-0,048
-630,765	-200,000	0,021	0,077
-629,751	800,000	-0,029	-0,083
-628,736	-200,000	-0,037	-0,153
-627,722	-58,435	-0,021	-0,007
-626,707	215,675	-0,129	-0,148
-625,692	-200,000	0,006	-0,083
-624,678	304,859	0,021	0,029
-623,663	23,778	-0,110	-0,065
-622,649	222,417	0,128	-0,149
-621,634	188,758	-0,160	-0,174
-620,619	46,417	0,058	-0,039
-619,605	-136,447	-0,144	-0,012
-618,590	-200,000	0,010	0,131
-617,576	-200,000	0,003	0,023
-616,561	58,027	0,010	0,007
-615,546	800,000	0,013	0,032
-614,532	61,463	-0,145	-0,104
-613,517	-200,000	-0,000	-0,058
-612,503	-200,000	0,007	-0,073
-611,488	800,000	0,038	-0,092
-610,474	-116,172	0,168	0,022
-609,459	405,349	0,024	-0,037
-608,444	108,811	0,035	0,030
-607,430	800,000	0,012	0,030
-606,415	-112,349	-0,090	-0,013
-605,401	90,814	-0,070	-0,057
-604,386	-29,415	0,140	0,058
-603,371	26,447	-0,066	0,040
-602,357	258,012	0,094	-0,117
-601,342	-200,000	-0,003	0,069
-600,328	-172,224	-0,144	-0,003
-599,313	800,000	-0,044	-0,097
-598,298	-103,750	0,091	0,015
-597,284	553,708	-0,034	0,059
-596,269	222,813	0,102	0,118
-595,255	110,067	0,057	0,050
-594,240	92,593	-0,124	-0,101
-593,225	211,616	-0,111	-0,126
-592,211	-113,579	-0,026	0,004
-591,196	800,000	-0,025	-0,074
-590,182	129,034	0,110	0,102
-589,167	81,082	0,112	-0,087
-588,152	29,847	-0,081	0,050
-587,138	-200,000	0,016	0,106
-586,123	586,484	0,029	-0,051
-585,109	-200,000	0,011	-0,100
-584,094	56,359	0,043	-0,030
-583,079	-200,000	-0,003	-0,034
-582,065	-112,379	0,070	0,010
-581,050	-100,372	0,047	0,008
-580,036	-60,770	0,024	0,007
-579,021	800,000	0,025	-0,069
-578,006	-200,000	-0,014	-0,129
-576,992	23,706	-0,106	0,063
-575,977	-200,000	0,010	0,098
-574,963	431,302	0,083	-0,130
-573,948	41,070	-0,093	-0,060
-572,934	83,716	-0,117	-0,092
-571,919	-114,215	-0,060	0,008
-570,904	279,354	0,052	-0,067
-569,890	-18,116	-0,100	-0,045
-568,875	-200,000	0,008	0,176
-567,861	194,885	0,151	0,166
-566,846	-14,327	0,103	0,048
-565,831	-200,000	-0,005	-0,079
-564,817	800,000	-0,045	-0,101
-563,802	32,928	-0,070	-0,044
-562,788	-114,801	-0,190	-0,026
-561,773	4,810	-0,022	0,011
-560,758	196,358	0,087	0,096
-559,744	800,000	-0,022	0,057
-558,729	800,000	0,009	0,022
-557,715	-200,000	0,001	-0,026
-556,700	469,565	0,076	-0,124
-555,685	264,094	-0,073	0,092
-554,671	626,800	0,034	-0,062
-553,656	800,000	-0,003	-0,007
-552,642	353,767	-0,034	0,049
-551,627	-100,572	0,131	0,023
-550,612	60,455	-0,031	-0,022
-549,598	-120,780	0,051	-0,006
-548,583	-83,012	0,045	-0,010
-547,569	-200,000	0,002	-0,029
-546,554	-200,000	0,036	0,118
-545,539	-0,441	0,083	0,042
-544,525	88,193	0,039	-0,031
-543,510	-62,028	0,077	0,023
-542,496	377,511	0,047	-0,070
-541,481	-200,000	0,017	-0,058
-540,466	74,314	0,101	0,076
-539,452	73,384	-0,033	0,025
-538,437	800,000	0,056	0,123
-537,423	-200,000	-0,001	0,039
-536,408	22,219	-0,167	0,098
-535,393	-41,449	0,053	0,020
-534,379	-200,000	-0,009	-0,134
-533,364	-36,384	-0,013	-0,005
-532,350	-200,000	0,019	-0,114
-531,335	800,000	-0,018	0,054
-530,321	-200,000	-0,001	-0,021
-529,306	117,698	0,049	-0,043
-528,291	-156,903	-0,100	-0,004
-527,277	-200,000	-0,001	-0,066
-526,262	22,420	-0,104	0,061
-525,248	-200,000	0,000	-0,072
-524,233	800,000	0,055	0,134
-523,218	-200,000	-0,005	-0,147
-522,204	-64,695	-0,030	0,009
-521,189	-27,520	-0,172	-0,072
-520,175	-119,846	0,056	-0,007
-519,160	-109,049	-0,062	0,009
-518,145	742,390	-0,021	0,041
-517,131	123,914	-0,105	0,095
-516,116	-101,120	-0,102	0,018
-515,102	-121,061	0,045	0,005
-514,087	176,996	-0,072	-0,076
-513,072	800,000	-0,019	-0,044
-512,058	106,371	-0,060	-0,052
-511,043	-74,638	0,246	0,063
-510,029	173,254	-0,017	-0,018
-509,014	99,258	-0,116	0,096
-507,999	-200,000	-0,010	0,098
-506,985	-88,867	0,047	0,010
-505,970	-200,000	-0,021	-0,116
-504,956	58,235	0,043	0,031
-503,941	-200,000	0,007	0,127
-502,926	-200,000	0,013	0,102
-501,912	144,690	0,055	-0,053
-500,897	-200,000	0,023	0,119
-499,883	41,368	-0,062	0,040
-498,868	800,000	-0,048	0,130
-497,853	119,219	0,065	0,058
-496,839	800,000	-0,030	-0,081
-495,824	-134,884	0,056	-0,005
-494,810	-62,578	0,032	0,010
-493,795	-111,447	-0,089	0,013
-492,781	-166,681	-0,196	-0,006
-491,766	543,835	0,026	-0,045
-490,751	-176,015	0,092	0,002
-489,737	52,327	-0,086	-0,059
-488,722	621,353	0,062	0,113
-487,708	360,021	0,143	-0,206
-486,693	-178,927	0,060	0,001
-485,678	294,911	0,033	-0,043
-484,664	-200,000	0,023	-0,075
-483,649	-34,070	0,020	-0,008
-482,635	-200,000	-0,013	-0,140
-481,620	135,611	0,107	0,100
-480,605	-200,000	-0,016	-0,075
-479,591	-15,792	0,078	0,036
-478,576	221,181	-0,085	-0,099
-477,562	-70,596	-0,116	-0,031
-476,547	399,173	0,033	0,051
-475,532	-200,000	0,005	0,049
-474,518	-194,759	-0,083	-0,000
-473,503	-131,023	0,110	-0,010
-472,489	6,791	0,135	-0,072
-471,474	100,313	0,027	-0,022
-470,459	-142,965	-0,074	0,005
-469,445	56,768	0,049	-0,034
-468,430	-7,227	-0,092	-0,045
-467,416	-139,423	0,139	0,011
-466,401	800,000	0,035	0,085
-465,386	-100,788	-0,116	0,020
-464,372	87,427	0,020	-0,016
-463,357	-7,874	-0,085	-0,041
-462,343	800,000	-0,040	-0,108
-461,328	223,696	-0,081	-0,094
-460,313	247,319	-0,028	-0,034
-459,299	-200,000	0,035	-0,119
-458,284	433,798	0,052	0,081
-457,270	-200,000	-0,010	-0,141
-456,255	-158,126	-0,113	-0,005
-455,241	90,072	-0,069	0,055
-454,226	148,588	0,038	-0,037
-453,211	1,287	0,165	0,085
-452,197	800,000	-0,057	0,117
-451,182	-200,000	-0,004	0,127
-450,168	800,000	-0,033	-0,080
-449,153	800,000	-0,043	-0,092
-448,138	331,156	-0,025	-0,034
-447,124	305,968	0,056	-0,075
-446,109	181,929	-0,060	-0,064
-445,095	270,292	-0,073	0,092
-444,080	44,862	-0,100	-0,066
-443,065	800,000	0,010	-0,027
-442,051	-114,155	0,152	-0,021
-441,036	-133,062	-0,042	0,004
-440,022	24,415	-0,131	0,078
-439,007	-168,914	0,128	-0,003
-437,992	800,000	0,047	0,134
-436,978	-18,042	0,104	0,047
-435,963	-200,000	0,009	-0,083
-434,949	800,000	0,048	-0,102
-433,934	800,000	-0,035	-0,095
-432,919	800,000	-0,053	-0,137
-431,905	-62,469	-0,079	-0,023
-430,890	349,227	0,033	0,047
-429,876	541,892	-0,077	0,132
-428,861	174,555	0,067	0,070
-427,846	-165,671	-0,074	0,002
-426,832	-9,329	-0,100	-0,048
-425,817	-83,941	-0,074	0,017
-424,803	-200,000	0,003	0,031
-423,788	-138,472	-0,093	0,007
-422,773	116,012	0,076	-0,067
-421,759	-200,000	-0,025	0,085
-420,744	290,183	-0,107	-0,140
-419,730	299,101	-0,024	0,032
-418,715	800,000	-0,096	-0,210
-417,701	144,006	-0,047	0,045
-416,686	69,863	0,020	-0,015
-415,671	63,827	-0,056	0,040
-414,657	-50,251	-0,099	-0,034
-413,642	-200,000	-0,006	0,121
-412,628	800,000	-0,028	-0,066
-411,613	117,599	-0,025	0,022
-410,598	292,579	0,100	0,131
-409,584	-200,000	-0,011	-0,079
-408,569	184,390	0,033	0,035
-407,555	800,000	-0,027	-0,060
-406,540	11,832	0,023	0,013
-405,525	-200,000	-0,020	-0,095
-404,511	-114,453	0,086	-0,012
-403,496	279,086	-0,048	0,062
-402,482	-26,347	-0,073	0,030
-401,467	24,166	-0,072	0,043
-400,452	-200,000	-0,021	0,112
-399,438	800,000	-0,013	0,038
-398,423	-110,193	-0,137	0,020
-397,409	248,699	0,085	-0,103
-396,394	440,295	0,057	-0,090
-395,379	676,973	-0,023	-0,043
-394,365	385,457	-0,033	0,050
-393,350	5,331	-0,068	-0,036
-392,336	510,923	-0,015	-0,024
-391,321	-13,357	-0,118	-0,055
-390,306	-200,000	-0,024	-0,140
-389,292	-200,000	-0,004	0,053
-388,277	-107,904	0,052	0,008
-387,263	-82,220	0,160	0,037
-386,248	99,158	0,009	0,007
-385,233	800,000	-0,023	0,056
-384,219	100,694	0,109	0,091
-383,204	548,985	-0,039	0,067
-382,190	-20,767	-0,186	-0,081
-381,175	347,607	0,020	0,028
-380,160	483,353	0,009	-0,015
-379,146	248,198	-0,048	0,058
-378,131	-85,647	-0,187	0,041
-377,117	800,000	-0,046	0,102
-376,102	73,550	0,043	0,032
-375,088	-30,208	-0,055	-0,022
-374,073	189,306	0,021	0,023
-373,058	102,380	0,076	0,064
-372,044	800,000	-0,049	0,109
-371,029	-200,000	-0,001	0,071
-370,015	292,363	-0,111	0,145
-369,000	71,235	0,092	-0,068
-367,985	-200,000	0,004	-0,090
-366,971	-200,000	0,005	-0,041
-365,956	547,321	0,059	-0,101
-364,942	-200,000	0,019	0,077
-363,927	-200,000	-0,023	0,133
-362,912	-10,364	0,153	0,072
-361,898	-111,545	-0,100	0,014
-360,883	-200,000	-0,010	0,106
-359,869	-38,549	-0,056	-0,021
-358,854	80,316	-0,078	-0,060
-357,839	800,000	0,048	0,124
-356,825	-200,000	-0,024	-0,139
-355,810	-122,385	0,098	-0,011
-354,796	288,920	0,011	0,014
-353,781	139,605	-0,091	-0,086
-352,766	291,668	-0,071	0,092
-351,752	62,061	0,025	0,018
-350,737	118,329	0,089	-0,078
-349,723	496,624	0,079	0,130
-348,708	-200,000	0,017	0,230
-347,693	252,562	0,071	0,086
-346,679	420,303	-0,037	-0,056
-345,664	78,605	-0,049	0,037
-344,650	6,608	0,074	-0,039
-343,635	70,720	0,116	0,086
-342,620	8,808	0,096	0,052
-341,606	-200,000	0,010	0,048
-340,591	249,269	0,048	-0,059
-339,577	-200,000	0,018	-0,154
-338,562	-200,000	0,010	-0,063
-337,548	-1,092	-0,102	-0,052
-336,533	-200,000	-0,002	0,034
-335,518	-105,277	0,136	0,022
-334,504	191,556	0,115	-0,124
-333,489	-123,042	-0,065	-0,007
-332,475	59,615	-0,079	-0,055
-331,460	107,011	-0,126	-0,107
-330,445	-33,587	0,073	0,029
-329,431	-63,479	0,029	-0,008
-328,416	-200,000	-0,004	0,109
-327,402	-150,540	0,054	0,003
-326,387	198,057	0,021	-0,023
-325,372	17,468	0,071	0,040
-324,358	-53,573	-0,179	-0,058
-323,343	-47,975	-0,033	-0,011
-322,329	23,107	-0,141	-0,082
-321,314	-29,733	0,113	0,046
-320,299	211,093	0,085	0,096
-319,285	-73,618	-0,022	-0,006
-318,270	-174,734	-0,170	-0,003
-317,256	481,195	-0,039	0,063
-316,241	100,431	-0,079	0,066
-315,226	-135,872	0,087	0,007
-314,212	356,773	-0,077	-0,110
-313,197	5,382	0,047	0,025
-312,183	-200,000	-0,000	0,163
-311,168	253,712	-0,073	-0,089
-310,153	800,000	-0,029	-0,082
-309,139	-31,266	0,091	-0,037
-308,124	234,297	0,021	-0,025
-307,110	800,000	-0,047	0,113
-306,095	-98,459	-0,110	0,020
-305,080	-33,176	-0,088	0,035
-304,066	-200,000	0,001	0,241
-303,051	-170,645	0,008	0,000
-302,037	194,432	0,107	-0,116
-301,022	-95,797	0,003	0,001
-300,008	11,381	0,141	0,077
-298,993	197,233	0,035	0,038
-297,978	-200,000	-0,022	0,077
-296,964	-200,000	0,040	-0,287
-295,949	-14,421	-0,125	-0,057
-294,935	148,390	0,015	-0,014
-293,920	316,094	0,003	-0,004
-292,905	241,175	0,047	-0,056
-291,891	-200,000	0,024	-0,082
-290,876	201,603	0,035	-0,039
-289,862	-200,000	-0,018	0,061
-288,847	-200,000	-0,019	-0,072
-287,832	240,117	-0,041	-0,049
-286,818	19,441	0,101	0,058
-285,803	512,032	0,047	-0,079
-284,789	800,000	-0,063	0,132
-283,774	-138,366	-0,139	0,011
-282,759	32,686	0,065	0,040
-281,745	197,506	0,042	0,046
-280,730	-200,000	-0,020	-0,069
-279,716	800,000	-0,100	-0,205
-278,701	143,998	0,081	0,077
-277,686	84,007	0,067	-0,052
-276,672	175,563	0,066	-0,069
-275,657	-200,000	0,001	-0,007
-274,643	2,042	-0,110	0,057
-273,628	-200,000	0,008	-0,028
-272,613	144,749	-0,052	-0,049
-271,599	-3,765	0,107	-0,053
-270,584	86,514	0,129	0,101
-269,570	-74,684	0,069	0,018
-268,555	-67,899	0,038	-0,011
-267,540	-200,000	0,025	-0,108
-266,526	-200,000	-0,049	-0,206
-265,511	-113,268	0,049	-0,007
-264,497	-200,000	0,048	-0,208
-263,482	-5,484	0,189	-0,092
-262,467	800,000	-0,062	0,155
-261,453	613,926	0,038	0,068
-260,438	144,343	-0,050	-0,048
-259,424	-101,814	0,095	0,016
-258,409	148,354	0,083	-0,080
-257,395	80,946	-0,072	0,055
-256,380	800,000	0,034	0,072
-255,365	-200,000	0,003	0,014
-254,351	256,216	0,102	0,125
-253,336	77,350	-0,031	0,023
-252,322	-156,800	-0,064	0,003
-251,307	800,000	-0,053	0,108
-250,292	-103,956	-0,112	0,018
-249,278	-200,000	-0,010	0,156
-248,263	-5,250	0,093	0,045
-247,249	48,444	-0,085	-0,056
-246,234	-46,098	-0,062	-0,022
-245,219	78,254	-0,079	0,060
-244,205	-135,356	-0,054	0,005
-243,190	163,028	-0,094	-0,095
-242,176	196,597	-0,041	0,045
-241,161	-169,106	0,087	0,002
-240,146	-117,271	0,071	0,009
-239,132	794,246	0,012	0,024
-238,117	24,118	-0,100	0,059
-237,103	126,617	0,036	0,032
-236,088	194,724	0,050	0,055
-235,073	800,000	0,035	0,075
-234,059	419,064	-0,093	0,143
-233,044	-200,000	-0,038	0,287
-232,030	-200,000	0,016	-0,093
-231,015	-200,000	-0,039	-0,287
-230,000	-83,190	-0,112	-0,025
-228,986	38,545	0,222	-0,141
-227,971	-200,000	-0,025	0,150
-226,957	88,406	0,071	-0,056
-225,942	-12,299	0,136	-0,063
-224,927	-92,360	-0,141	-0,028
-223,913	602,296	0,120	-0,213
-222,898	-200,000	-0,017	-0,116
-221,884	534,640	0,011	-0,019
-220,869	-109,233	-0,024	0,004
-219,855	-70,572	0,171	0,046
-218,840	800,000	0,010	-0,029
-217,825	800,000	-0,055	0,123
-216,811	-32,894	0,078	-0,031
-215,796	76,474	-0,060	0,046
-214,782	800,000	-0,053	0,143
-213,767	25,229	-0,112	0,066
-212,752	138,676	0,092	-0,086
-211,738	647,533	0,076	0,140
-210,723	374,753	0,111	-0,161
-209,709	-200,000	-0,032	-0,104
-208,694	82,652	-0,116	-0,089
-207,679	-75,775	0,037	0,009
-206,665	86,057	0,130	0,102
-205,650	-200,000	0,040	0,156
-204,636	140,177	0,127	0,120
-203,621	-200,000	0,001	0,022
-202,606	-7,999	-0,161	0,077
-201,592	277,264	0,026	-0,033
-200,577	-192,641	-0,054	-0,000
-199,563	-99,764	0,200	0,035
-198,548	-79,270	0,078	0,019
-197,533	-200,000	0,008	0,123
-196,519	-166,392	-0,121	0,004
-195,504	-69,486	0,114	0,031
-194,490	800,000	-0,044	-0,097
-193,475	-200,000	-0,001	-0,174
-192,460	68,365	0,186	0,135
-191,446	-87,303	0,051	-0,011
-190,431	-111,940	0,042	0,006
-189,417	-187,158	-0,129	-0,001
-188,402	-200,000	-0,031	-0,106
-187,387	150,054	0,078	-0,075
-186,373	649,039	-0,101	-0,185
-185,358	89,726	0,029	-0,023
-184,344	544,998	0,014	-0,024
-183,329	-200,000	0,025	0,107
-182,315	-172,938	0,134	0,003
-181,300	-118,221	-0,011	-0,001
-180,285	-200,000	-0,011	0,050
-179,271	208,459	-0,033	-0,037
-178,256	327,740	0,090	0,123
-177,242	-200,000	0,013	0,279
-176,227	296,179	-0,001	0,001
-175,212	-200,000	0,034	0,127
-174,198	-200,000	-0,003	0,075
-173,183	7,977	-0,096	-0,051
-172,169	115,522	-0,092	0,080
-171,154	-163,438	-0,245	-0,008
-170,139	-200,000	0,003	0,065
-169,125	800,000	0,087	0,193
-168,110	362,993	0,039	0,056
-167,096	15,604	0,049	-0,027
-166,081	-166,366	0,122	-0,004
-165,066	-32,518	-0,112	0,044
-164,052	-200,000	0,014	-0,053
-163,037	800,000	0,007	0,021
-162,023	78,803	-0,018	-0,014
-161,008	175,406	0,089	0,092
-159,993	-33,856	0,147	0,057
-158,979	199,129	0,092	-0,101
-157,964	35,143	0,084	-0,052
-156,950	-200,000	0,007	0,069
-155,935	-29,218	-0,128	-0,052
-154,920	-200,000	0,043	0,167
-153,906	471,948	0,069	0,111
-152,891	800,000	0,020	0,049
-151,877	-61,550	-0,038	-0,011
-150,862	-176,034	-0,087	0,002
-149,847	331,521	0,053	-0,072
-148,833	65,066	0,098	0,070
-147,818	800,000	-0,013	0,029
-146,804	23,051	0,065	0,038
-145,789	401,981	0,078	-0,116
-144,775	-48,285	-0,156	-0,053
-143,760	26,743	-0,034	-0,020
-142,745	-96,213	-0,064	-0,012
-141,731	155,575	-0,088	0,086
-140,716	-89,337	0,106	0,022
-139,702	800,000	0,047	0,102
-138,687	95,520	0,030	-0,025
-137,672	-200,000	0,029	0,162
-136,658	-200,000	-0,009	0,039
-135,643	-200,000	0,002	-0,121
-134,629	72,648	0,024	-0,018
-133,614	174,201	0,067	0,069
-132,599	-66,266	-0,106	0,030
-131,585	-50,674	0,188	-0,062
-130,570	800,000	0,024	0,057
-129,556	-69,986	0,024	0,006
-128,541	-79,488	-0,088	-0,021
-127,526	800,000	0,063	-0,125
-126,512	-200,000	0,012	-0,088
-125,497	-200,000	-0,003	0,068
-124,483	139,195	-0,133	0,124
-123,468	-20,075	0,032	-0,014
-122,453	-128,248	0,071	-0,007
-121,439	-148,546	0,086	-0,005
-120,424	200,812	-0,062	0,068
-119,410	658,732	-0,035	0,063
-118,395	-62,228	0,065	0,019
-117,380	-105,930	-0,147	0,023
-116,366	314,388	0,042	0,057
-115,351	107,130	-0,132	0,111
-114,337	-200,000	-0,021	-0,109
-113,322	-85,235	-0,122	0,027
-112,307	80,395	0,088	-0,067
-111,293	198,843	-0,067	-0,072
-110,278	-97,014	-0,047	0,009
-109,264	-200,000	0,012	0,151
-108,249	161,239	-0,106	0,105
-107,234	800,000	-0,037	-0,075
-106,220	800,000	0,018	-0,047
-105,205	105,135	0,105	0,088
-104,191	-24,019	-0,132	0,056
-103,176	149,073	0,024	-0,023
-102,162	108,588	-0,081	0,069
-101,147	-4,852	0,041	-0,020
-100,132	-116,015	-0,161	-0,021
-99,118	-200,000	0,008	-0,118
-98,103	-35,099	0,010	-0,004
-97,089	800,000	0,077	0,188
-96,074	-76,128	-0,069	-0,017
-95,059	-161,540	-0,160	0,006
-94,045	-200,000	-0,016	0,065
-93,030	-90,716	0,069	0,014
-92,016	-57,639	-0,091	-0,028
-91,001	21,735	-0,070	-0,040
-89,986	83,145	0,080	0,062
-88,972	-200,000	0,001	0,030
-87,957	-200,000	-0,047	0,197
-86,943	748,993	0,027	-0,052
-85,928	800,000	0,040	-0,107
-84,913	-88,163	-0,161	-0,034
-83,899	-200,000	0,023	0,136
-82,884	-200,000	-0,013	0,084
-81,870	508,021	-0,057	0,094
-80,855	43,921	0,113	0,073
-79,840	800,000	0,028	0,059
-78,826	10,923	0,048	-0,026
-77,811	67,568	-0,034	0,025
-76,797	70,209	0,114	-0,083
-75,782	-200,000	0,016	-0,060
-74,767	209,668	0,092	-0,103
-73,753	-119,709	0,079	0,010
-72,738	-22,810	0,066	-0,028
-71,724	800,000	-0,038	-0,093
-70,709	-200,000	0,021	0,066
-69,694	800,000	0,012	-0,028
-68,680	5,939	0,112	-0,059
-67,665	-200,000	-0,018	-0,097
-66,651	-111,473	0,052	-0,007
-65,636	-61,537	0,032	-0,009
-64,622	98,822	0,044	0,036
-63,607	-200,000	-0,007	-0,101
-62,592	800,000	0,046	-0,103
-61,578	-139,140	0,063	0,005
-60,563	-51,247	0,112	0,037
-59,549	-200,000	-0,017	0,136
-58,534	-23,496	-1,510	-0,639
-57,519	477,686	-1,288	-2,071
-56,505	-200,000	-0,636	-4,594
-55,490	197,561	0,931	1,008
-54,476	800,000	4,985	11,599
-53,461	-200,000	19,163	320,180
-52,446	-200,000	741,066	2333,741
-51,432	572,830	1655,895	2868,331
-50,417	78,218	1671,300	1261,520
-49,403	21,289	1544,269	885,622
-48,388	15,151	1466,736	811,303
-47,373	17,906	1457,262	819,354
-46,359	16,651	1446,868	807,456
-45,344	13,404	1441,995	789,151
-44,330	13,313	1440,155	787,679
-43,315	13,340	1438,329	786,775
-42,300	13,365	1436,613	785,925
-41,286	13,382	1435,495	785,363
-40,271	13,302	1434,205	784,247
-39,257	13,297	1432,909	783,480
-38,242	13,387	1431,498	783,109
-37,227	13,388	1430,329	782,440
-36,213	13,398	1429,006	781,733
-35,198	13,385	1427,995	781,087
-34,184	13,441	1427,074	780,818
-33,169	13,304	1425,689	779,383
-32,154	13,428	1424,375	779,217
-31,140	13,414	1423,366	778,568
-30,125	13,454	1422,234	778,111
-29,111	13,377	1421,065	777,076
-28,096	13,386	1419,867	776,434
-27,082	13,324	1418,933	775,597
-26,067	13,356	1417,826	775,114
-25,052	13,331	1416,602	774,293
-24,038	13,270	1415,888	773,589
-23,023	13,260	1414,716	772,868
-22,009	13,310	1413,650	772,492
-20,994	13,258	1412,950	771,834
-19,979	13,295	1411,975	771,444
-18,965	13,304	1410,688	770,752
-17,950	13,266	1409,778	770,045
-16,936	13,293	1408,976	769,702
-15,921	13,217	1408,075	768,825
-14,906	13,218	1407,220	768,333
-13,892	13,234	1406,051	767,737
-12,877	13,253	1405,240	767,356
-11,863	13,236	1404,300	766,731
-10,848	13,232	1403,378	766,177
-9,833	13,197	1402,601	765,560
-8,819	13,145	1401,776	764,839
-7,804	13,107	1400,854	764,128
-6,790	13,136	1399,755	763,631
-5,775	13,123	1398,766	763,000
-4,760	13,112	1397,855	762,422
-3,746	13,101	1396,899	761,821
-2,731	13,123	1396,153	761,488
-1,717	13,076	1395,365	760,808
-0,702	13,116	1393,290	759,833
0,313	16,922	1310,223	732,175
1,327	33,132	703,931	430,841
2,342	51,328	123,110	82,553
3,356	0,448	16,669	8,396
4,371	-2,364	3,148	1,556
5,386	-11,718	0,593	0,274
6,400	-200,000	0,053	0,274
7,415	46,601	-0,216	-0,142
8,429	-48,175	-0,381	-0,129
9,444	14,973	-0,336	-0,186
10,459	-17,557	-0,327	-0,145
11,473	-25,248	-0,328	-0,137
12,488	-6,883	-0,281	-0,134
13,502	22,771	-0,318	-0,183
14,517	25,597	-0,312	-0,183
15,531	17,544	-0,451	-0,253
16,546	261,274	-0,233	-0,286
17,561	43,419	-0,374	-0,241
18,575	60,501	-0,121	-0,084
19,590	287,433	-0,122	-0,157
20,604	-60,223	-0,378	-0,113
21,619	3,098	-0,388	-0,198
22,634	223,643	-0,358	-0,409
23,648	39,819	-0,420	-0,266
24,663	27,875	-0,452	-0,268
25,677	54,027	-0,317	-0,215
26,692	108,690	-0,268	-0,226
27,707	93,939	-0,369	-0,295
28,721	109,800	-0,200	-0,169
29,736	97,889	-0,380	-0,308
30,750	38,280	-0,422	-0,265
31,765	25,474	-0,390	-0,229
32,780	25,143	-0,408	-0,238
33,794	80,154	-0,292	-0,221
34,809	183,263	-0,382	-0,399
35,823	48,431	-0,310	-0,204
36,838	89,438	-0,376	-0,296
37,853	147,628	-0,328	-0,312
38,867	60,990	-0,414	-0,289
39,882	14,870	-0,375	-0,206
40,896	35,605	-0,410	-0,253
41,911	30,660	-0,246	-0,148
42,926	152,291	-0,376	-0,362
43,940	161,122	-0,267	-0,263
44,955	116,318	-0,397	-0,343
45,969	52,912	-0,384	-0,258
46,984	22,508	-0,260	-0,150
47,999	17,912	-0,369	-0,206
49,013	-15,652	-0,279	-0,125
50,028	141,964	-0,347	-0,325
51,042	-58,064	-0,504	-0,154
52,057	96,908	-0,304	-0,246
53,071	119,548	-0,344	-0,300
54,086	260,686	-0,298	-0,364
55,101	116,911	-0,328	-0,283
56,115	25,455	-0,479	-0,280
57,130	9,720	-0,279	-0,149
58,144	104,268	-0,405	-0,336
59,159	112,930	-0,272	-0,232
60,174	45,665	-0,403	-0,262
61,188	150,477	-0,316	-0,302
62,203	-8,372	-0,316	-0,149
63,217	145,777	-0,313	-0,295
64,232	57,482	-0,392	-0,269
65,247	-16,039	-0,364	-0,162
66,261	204,988	-0,266	-0,291
67,276	158,588	-0,302	-0,295
68,290	170,716	-0,244	-0,246
69,305	151,036	-0,340	-0,326
70,320	29,919	-0,188	-0,112
71,334	194,788	-0,246	-0,263
72,349	41,559	-0,394	-0,250
73,363	77,474	-0,350	-0,261
74,378	-7,460	-0,363	-0,172
75,393	-61,736	-0,384	-0,112
76,407	56,822	-0,296	-0,202
77,422	60,827	-0,261	-0,182
78,436	-25,548	-0,269	-0,111
79,451	-2,671	-0,327	-0,160
80,466	36,336	-0,337	-0,208
81,480	44,762	-0,435	-0,280
82,495	181,086	-0,278	-0,287
83,509	-98,282	-0,442	-0,079
84,524	-151,052	-0,316	-0,016
85,539	-88,755	-0,395	-0,082
86,553	-66,727	-0,218	-0,060
87,568	52,743	-0,323	-0,216
88,582	175,978	-0,204	-0,208
89,597	38,412	-0,258	-0,161
90,611	96,946	-0,292	-0,235
91,626	152,661	-0,197	-0,189
92,641	-59,918	-0,244	-0,073
93,655	-31,505	-0,373	-0,147
94,670	-20,268	-0,282	-0,121
95,684	379,066	-0,319	-0,459
96,699	25,197	-0,339	-0,197
97,714	14,756	-0,253	-0,138
98,728	252,117	-0,172	-0,206
99,743	-18,951	-0,280	-0,122
100,757	42,742	-0,329	-0,210
101,772	174,499	-0,268	-0,273
102,787	509,267	-0,171	-0,280
103,801	24,073	-0,226	-0,130
104,816	-56,763	-0,192	-0,059
105,830	-54,348	-0,329	-0,104
106,845	53,775	-0,195	-0,131
107,860	97,200	-0,282	-0,227
108,874	-26,497	-0,291	-0,119
109,889	179,471	-0,250	-0,257
110,903	800,000	-0,166	-0,324
111,918	167,434	-0,234	-0,233
112,933	38,915	-0,216	-0,135
113,947	160,395	-0,249	-0,243
114,962	-34,645	-0,299	-0,114
115,976	4,673	-0,260	-0,133
116,991	-46,411	-0,276	-0,094
118,006	21,411	-0,352	-0,200
119,020	800,000	-0,111	-0,283
120,035	-8,836	-0,294	-0,138
121,049	-147,232	-0,291	-0,017
122,064	-56,464	-0,348	-0,107
123,079	140,868	-0,188	-0,174
124,093	227,430	-0,211	-0,241
125,108	-64,041	-0,289	-0,082
126,122	-48,783	-0,332	-0,111
127,137	-82,324	-0,355	-0,080
128,151	-85,590	-0,231	-0,050
129,166	-14,267	-0,249	-0,112
130,181	-20,015	-0,228	-0,098
131,195	106,088	-0,211	-0,174
132,210	-3,258	-0,309	-0,150
133,224	18,857	-0,397	-0,222
134,239	3,718	-0,194	-0,099
135,254	53,971	-0,148	-0,100
136,268	130,957	-0,187	-0,168
137,283	-45,733	-0,269	-0,092
138,297	-26,752	-0,254	-0,103
139,312	15,051	-0,318	-0,173
140,327	87,161	-0,259	-0,200
141,341	121,877	-0,204	-0,178
142,356	111,279	-0,195	-0,164
143,370	100,863	-0,218	-0,177
144,385	101,683	-0,203	-0,165
145,400	109,828	-0,265	-0,222
146,414	220,172	-0,199	-0,223
147,429	387,888	-0,176	-0,254
148,443	110,321	-0,209	-0,175
149,458	800,000	-0,102	-0,238
150,473	151,300	-0,317	-0,302
151,487	-115,807	-0,307	-0,040
152,502	33,784	-0,294	-0,178
153,516	-29,864	-0,302	-0,120
154,531	398,807	-0,214	-0,314
155,546	341,059	-0,175	-0,239
156,560	21,257	-0,126	-0,071
157,575	-71,347	-0,196	-0,051
158,589	-69,556	-0,204	-0,054
159,604	-16,363	-0,214	-0,094
160,619	165,084	-0,223	-0,220
161,633	145,917	-0,299	-0,279
162,648	5,161	-0,340	-0,174
163,662	166,113	-0,087	-0,086
164,677	-97,826	-0,298	-0,053
165,692	-12,899	-0,226	-0,102
166,706	395,152	-0,236	-0,345
167,721	79,020	-0,314	-0,234
168,735	9,152	-0,281	-0,148
169,750	52,283	-0,217	-0,144
170,764	201,430	-0,152	-0,164
171,779	-56,206	-0,181	-0,056
172,794	-23,518	-0,172	-0,072
173,808	-22,183	-0,241	-0,101
174,823	-24,268	-0,297	-0,123
175,837	121,568	-0,267	-0,231
176,852	76,923	-0,240	-0,177
177,867	146,091	-0,117	-0,109
178,881	18,671	-0,252	-0,140
179,896	800,000	-0,124	-0,295
180,910	71,840	-0,167	-0,121
181,925	201,798	-0,091	-0,098
182,940	31,408	-0,281	-0,167
183,954	34,999	-0,210	-0,128
184,969	68,647	-0,182	-0,130
185,983	294,264	-0,083	-0,105
186,998	74,198	-0,204	-0,149
188,013	243,705	-0,097	-0,113
189,027	596,017	-0,151	-0,261
190,042	69,247	-0,256	-0,183
191,056	222,719	-0,184	-0,206
192,071	23,935	-0,255	-0,146
193,086	530,253	-0,164	-0,271
194,100	90,544	-0,209	-0,163
195,115	22,900	-0,164	-0,093
196,129	-1,123	-0,146	0,071
197,144	597,368	-0,164	-0,283
198,159	-13,660	-0,268	-0,120
199,173	-82,064	-0,251	-0,057
200,188	104,567	-0,137	-0,112
201,202	214,399	-0,137	-0,152
202,217	174,846	-0,210	-0,211
203,232	76,727	-0,247	-0,182
204,246	-82,170	-0,256	-0,057
205,261	191,948	-0,199	-0,208
206,275	-26,317	-0,157	-0,064
207,290	161,597	-0,126	-0,122
208,304	-200,000	-0,051	-0,205
209,319	11,827	-0,239	-0,127
210,334	252,030	-0,131	-0,155
211,348	96,803	-0,193	-0,153
212,363	113,111	-0,217	-0,183
213,377	469,488	-0,148	-0,231
214,392	648,576	-0,140	-0,250
215,407	-29,426	-0,168	-0,067
216,421	-57,932	-0,185	-0,056
217,436	90,403	-0,187	-0,145
218,450	266,412	-0,190	-0,231
219,465	-76,580	-0,169	-0,041
220,480	262,238	-0,085	-0,103
221,494	334,272	-0,209	-0,282
222,509	421,678	-0,127	-0,190
223,523	-134,852	-0,142	0,012
224,538	-108,943	-0,106	-0,015
225,553	800,000	-0,104	-0,270
226,567	220,052	-0,170	-0,189
227,582	726,331	-0,163	-0,302
228,596	800,000	-0,076	-0,189
229,611	64,204	-0,258	-0,180
230,626	194,900	-0,156	-0,164
231,640	404,428	-0,075	-0,110
232,655	85,592	-0,272	-0,207
233,669	-24,517	-0,169	-0,070
234,684	314,130	-0,142	-0,186
235,699	11,182	-0,125	-0,066
236,713	39,783	-0,213	-0,132
237,728	191,366	-0,231	-0,241
238,742	133,443	-0,063	-0,056
239,757	92,835	-0,259	-0,203
240,772	253,838	-0,095	-0,112
241,786	32,578	-0,217	-0,130
242,801	-35,310	-0,142	-0,053
243,815	-131,707	-0,264	0,024
244,830	-25,021	-0,188	-0,077
245,844	200,718	-0,182	-0,194
246,859	82,160	-0,190	-0,142
247,874	251,337	-0,213	-0,252
248,888	-143,365	-0,206	-0,013
249,903	-7,044	-0,246	-0,115
250,917	-71,685	-0,252	-0,065
251,932	-80,746	-0,229	-0,052
252,947	-154,471	-0,264	-0,012
253,961	141,045	-0,205	-0,188
254,976	102,314	-0,155	-0,125
255,990	-105,605	-0,283	-0,044
257,005	137,092	-0,207	-0,187
258,020	58,253	-0,209	-0,141
259,034	-126,929	-0,125	0,013
260,049	214,692	-0,118	-0,129
261,063	97,698	-0,185	-0,147
262,078	594,813	-0,111	-0,190
263,093	-31,453	-0,211	-0,082
264,107	356,640	-0,133	-0,184
265,122	193,678	-0,090	-0,095
266,136	-85,368	-0,162	0,035
267,151	-60,954	-0,247	-0,072
268,166	-78,295	-0,202	-0,048
269,180	800,000	-0,061	-0,173
270,195	-200,000	-0,041	-0,229
271,209	55,554	-0,169	-0,113
272,224	131,161	-0,104	-0,092
273,239	632,712	-0,131	-0,230
274,253	19,351	-0,222	-0,123
275,268	-24,315	-0,148	-0,061
276,282	-43,092	-0,190	-0,066
277,297	405,257	-0,124	-0,181
278,312	527,118	-0,118	-0,193
279,326	-194,265	-0,164	-0,001
280,341	46,434	-0,198	-0,126
281,355	-31,606	-0,201	-0,078
282,370	-27,984	-0,174	-0,069
283,384	149,761	-0,233	-0,218
284,399	587,752	-0,070	-0,119
285,414	202,649	-0,168	-0,180
286,428	-6,054	-0,171	-0,080
287,443	-180,945	-0,130	-0,002
288,457	-93,073	-0,146	0,028
289,472	-122,918	-0,087	-0,010
290,487	-34,038	-0,161	0,061
291,501	239,516	-0,155	-0,179
292,516	75,209	-0,049	0,036
293,530	-200,000	-0,019	-0,150
294,545	260,897	-0,124	-0,148
295,560	92,497	-0,155	-0,121
296,574	55,691	-0,112	-0,075
297,589	-118,770	-0,138	0,016
298,603	31,208	-0,125	-0,074
299,618	150,640	-0,111	-0,104
300,633	219,591	-0,169	-0,187
301,647	-6,712	-0,078	-0,036
302,662	126,453	-0,110	-0,096
303,676	122,549	-0,125	-0,108
304,691	800,000	-0,099	-0,230
305,706	374,813	-0,080	-0,113
306,720	-23,503	-0,096	0,039
307,735	87,309	-0,207	-0,158
308,749	106,665	-0,108	-0,088
309,764	-177,987	-0,079	0,001
310,779	-70,218	-0,162	-0,042
311,793	48,760	-0,134	-0,087
312,808	-200,000	-0,033	-0,180
313,822	-200,000	0,011	-0,078
314,837	79,353	-0,046	-0,034
315,852	-77,540	-0,195	-0,046
316,866	-200,000	-0,044	-0,164
317,881	-104,286	-0,108	-0,017
318,895	-50,984	-0,200	-0,064
319,910	-60,873	-0,224	-0,065
320,925	755,672	-0,134	-0,250
321,939	176,608	-0,211	-0,212
322,954	136,058	-0,182	-0,163
323,968	41,619	-0,112	-0,070
324,983	118,371	-0,048	-0,041
325,997	14,822	-0,098	0,053
327,012	-110,900	-0,191	-0,027
328,027	800,000	-0,077	-0,170
329,041	800,000	-0,055	-0,108
330,056	-117,050	-0,052	-0,006
331,070	-33,308	-0,191	-0,072
332,085	126,365	-0,148	-0,129
333,100	-17,852	-0,182	-0,078
334,114	53,297	-0,207	-0,136
335,129	546,763	-0,077	-0,127
336,143	682,795	-0,084	-0,152
337,158	-200,000	0,033	-0,241
338,173	201,115	0,010	-0,010
339,187	-123,332	-0,156	-0,017
340,202	-28,388	-0,095	0,037
341,216	-113,338	-0,247	-0,033
342,231	445,275	-0,125	-0,189
343,246	50,602	-0,115	-0,075
344,260	-131,644	-0,058	0,005
345,275	101,763	-0,174	-0,139
346,289	800,000	-0,050	-0,140
347,304	221,741	-0,125	-0,138
348,319	169,325	-0,178	-0,174
349,333	143,348	-0,210	-0,192
350,348	44,518	-0,168	-0,106
351,362	28,685	-0,117	-0,068
352,377	0,015	-0,120	-0,058
353,392	-162,536	-0,114	-0,004
354,406	12,929	-0,174	-0,092
355,421	208,688	1313,706	1411,410
356,435	160,579	1474,321	1411,896
