DTS Sentinel unit serial number:	SN410029Multiplexer serial number:	ORYXHardware model number:	OX2-SRSoftware version number:	ORYX F/W v4,00 Oryx Data Collector v3.7.2.0data status	okinstallation	B3 Nyhavnadifferential loss correction	single-endedforward channel	channel 1reverse channel	N/Adate	2023/11/29time	06:27:30forward acquisition time	300,00reverse acquisition time	0,00gamma	499,1914k internal	0,3211k external	0,3211temperature offset calibration	1,0000default loss term (dB/km)	0,3820temperature slope calibration	1,0000multiplexer offset coefficient	1,0000multiplexer slope coefficient	1,0000fibre end	0,00T internal ref (°C)	8,94T ext. ref 1 (°C)	-6,48T ext. ref 2 (°C)	-6,58length (m)	temperature (°C)	Stokes	anti-Stokes-744,400	531,699	-0,141	-0,243
-743,385	596,475	0,051	0,092
-742,371	175,643	-0,204	-0,215
-741,356	-200,000	0,053	0,391
-740,342	238,005	-0,159	-0,192
-739,327	-200,000	0,004	0,208
-738,312	424,932	-0,166	-0,259
-737,298	123,743	-0,122	0,111
-736,283	-200,000	0,028	-0,248
-735,269	-200,000	0,007	0,169
-734,254	800,000	-0,126	-0,282
-733,239	-148,283	-0,340	-0,020
-732,225	-200,000	-0,022	-0,231
-731,210	422,903	0,155	0,242
-730,196	-176,237	-0,057	-0,001
-729,181	-200,000	-0,001	-0,024
-728,167	89,576	-0,072	0,058
-727,152	-21,244	-0,080	-0,035
-726,137	115,529	-0,059	-0,053
-725,123	7,884	-0,198	-0,107
-724,108	-200,000	-0,039	-0,207
-723,094	-200,000	0,005	0,066
-722,079	686,080	0,091	-0,173
-721,064	53,440	-0,069	0,048
-720,050	29,940	0,071	-0,044
-719,035	279,420	-0,053	-0,069
-718,021	-200,000	0,006	0,021
-717,006	0,442	0,027	0,014
-715,991	-72,917	-0,157	-0,042
-714,977	-157,496	-0,059	0,003
-713,962	17,807	0,081	0,046
-712,948	-200,000	0,000	0,006
-711,933	-177,762	-0,017	-0,000
-710,918	130,146	-0,045	-0,042
-709,904	-173,258	-0,069	-0,001
-708,889	347,397	-0,073	-0,104
-707,875	-7,372	0,061	-0,030
-706,860	-200,000	0,012	0,058
-705,845	-107,728	0,060	0,009
-704,831	-25,205	-0,078	0,033
-703,816	-85,850	0,066	0,015
-702,802	185,872	-0,029	0,032
-701,787	372,646	-0,051	-0,075
-700,772	-90,484	-0,078	0,016
-699,758	-121,033	0,128	0,015
-698,743	-200,000	-0,006	0,032
-697,729	96,322	0,046	0,038
-696,714	-200,000	-0,020	0,079
-695,699	167,713	-0,072	0,074
-694,685	800,000	-0,062	-0,152
-693,670	-200,000	-0,034	-0,159
-692,656	173,403	-0,074	-0,077
-691,641	54,115	0,078	0,054
-690,627	-200,000	-0,011	0,079
-689,612	109,975	-0,076	-0,066
-688,597	86,920	-0,103	-0,082
-687,583	-16,557	0,053	0,024
-686,568	447,380	-0,087	-0,140
-685,554	368,998	0,035	-0,051
-684,539	800,000	0,019	-0,051
-683,524	61,163	0,080	0,058
-682,510	158,388	0,039	0,039
-681,495	800,000	0,004	-0,012
-680,481	-200,000	0,015	-0,054
-679,466	-74,431	-0,043	-0,011
-678,451	201,308	-0,089	-0,099
-677,437	-81,958	-0,064	0,015
-676,422	-200,000	0,009	0,135
-675,408	800,000	-0,035	0,092
-674,393	730,652	0,015	0,029
-673,378	-8,173	-0,055	0,027
-672,364	186,223	-0,116	-0,125
-671,349	-200,000	-0,003	-0,138
-670,335	800,000	0,008	-0,018
-669,320	100,236	0,098	0,082
-668,305	-200,000	0,026	-0,094
-667,291	-200,000	-0,020	0,077
-666,276	-104,277	-0,074	0,012
-665,262	-65,767	-0,113	-0,033
-664,247	-200,000	-0,023	-0,147
-663,232	-200,000	0,009	-0,107
-662,218	-200,000	-0,008	-0,049
-661,203	800,000	0,054	0,169
-660,189	-200,000	0,020	-0,093
-659,174	304,623	-0,081	-0,110
-658,159	15,051	-0,046	0,026
-657,145	-94,074	-0,145	-0,028
-656,130	-24,620	0,176	0,076
-655,116	-200,000	0,014	0,074
-654,101	389,194	0,063	0,094
-653,086	22,010	0,125	-0,073
-652,072	-25,630	-0,138	-0,058
-651,057	80,527	-0,038	0,029
-650,043	-200,000	0,020	0,096
-649,028	38,563	-0,021	-0,014
-648,014	-200,000	0,006	0,152
-646,999	-10,683	0,047	0,022
-645,984	23,885	-0,155	0,092
-644,970	-92,882	-0,068	-0,014
-643,955	458,079	0,053	-0,085
-642,941	34,005	-0,194	-0,122
-641,926	800,000	0,044	0,092
-640,911	-127,337	0,175	-0,018
-639,897	-70,341	0,068	0,018
-638,882	209,169	0,091	0,103
-637,868	-200,000	-0,006	-0,039
-636,853	-200,000	-0,013	0,058
-635,838	-59,644	0,062	-0,019
-634,824	-62,758	0,103	0,031
-633,809	800,000	0,018	0,046
-632,795	800,000	0,053	0,136
-631,780	215,101	0,070	0,080
-630,765	131,755	-0,029	0,027
-629,751	-119,109	0,026	0,003
-628,736	57,132	-0,021	-0,015
-627,722	-22,873	0,120	-0,052
-626,707	-149,770	-0,022	0,001
-625,692	-62,376	0,161	-0,048
-624,678	-200,000	0,010	0,148
-623,663	-126,800	0,097	-0,010
-622,649	-109,769	-0,082	0,012
-621,634	-87,234	0,125	-0,027
-620,619	92,306	-0,095	0,077
-619,605	20,256	0,054	-0,032
-618,590	-106,317	-0,048	-0,008
-617,576	-191,676	0,073	-0,001
-616,561	-86,620	0,037	-0,008
-615,546	-66,043	-0,159	-0,045
-614,532	800,000	0,074	-0,177
-613,517	-200,000	0,015	-0,074
-612,503	-200,000	0,000	0,029
-611,488	555,076	0,023	0,040
-610,474	-43,832	-0,088	-0,032
-609,459	-200,000	-0,004	-0,113
-608,444	-200,000	0,023	-0,179
-607,430	713,405	-0,050	0,096
-606,415	-200,000	-0,005	-0,244
-605,401	800,000	-0,037	0,083
-604,386	736,411	0,075	0,145
-603,371	-200,000	0,015	-0,060
-602,357	-91,527	0,120	0,024
-601,342	-68,955	-0,130	-0,036
-600,328	783,094	0,021	-0,041
-599,313	-200,000	0,002	-0,077
-598,298	-200,000	-0,014	-0,084
-597,284	-81,996	0,092	0,022
-596,269	-116,430	0,091	0,012
-595,255	6,875	-0,083	0,045
-594,240	-200,000	0,002	0,043
-593,225	246,390	-0,098	0,119
-592,211	-21,441	-0,094	-0,041
-591,196	-0,437	0,046	-0,024
-590,182	-200,000	0,001	-0,071
-589,167	800,000	-0,037	0,108
-588,152	141,683	-0,022	0,021
-587,138	197,352	-0,159	-0,175
-586,123	16,201	-0,093	-0,053
-585,109	-200,000	0,026	-0,122
-584,094	216,376	0,056	0,064
-583,079	676,753	0,036	0,068
-582,065	-116,524	-0,068	0,009
-581,050	102,157	-0,060	-0,051
-580,036	-200,000	-0,005	-0,062
-579,021	-50,123	-0,059	0,020
-578,006	-200,000	-0,044	-0,185
-576,992	800,000	0,045	0,112
-575,977	24,747	0,187	0,111
-574,963	439,881	-0,027	-0,043
-573,948	257,540	0,092	0,114
-572,934	-29,630	0,026	-0,011
-571,919	142,746	-0,058	-0,056
-570,904	-12,393	0,031	0,015
-569,890	-200,000	-0,018	-0,157
-568,875	-64,208	0,062	-0,018
-567,861	-87,490	0,034	-0,007
-566,846	623,031	0,024	0,044
-565,831	-200,000	-0,015	0,049
-564,817	-200,000	-0,004	0,038
-563,802	-185,094	-0,145	-0,002
-562,788	-4,596	-0,103	-0,051
-561,773	-9,228	-0,118	0,057
-560,758	-200,000	0,014	0,095
-559,744	800,000	-0,013	0,032
-558,729	-102,994	-0,167	-0,028
-557,715	202,835	0,073	-0,081
-556,700	-200,000	0,024	-0,098
-555,685	-200,000	-0,012	-0,081
-554,671	374,420	-0,097	-0,143
-553,656	-200,000	-0,007	-0,096
-552,642	-200,000	-0,003	0,130
-551,627	34,741	0,021	0,013
-550,612	238,689	0,039	-0,046
-549,598	-200,000	0,011	-0,133
-548,583	-200,000	-0,001	-0,081
-547,569	385,635	0,022	0,033
-546,554	40,873	0,084	0,054
-545,539	-157,144	0,096	0,004
-544,525	-200,000	-0,018	-0,184
-543,510	351,776	-0,070	0,100
-542,496	-3,778	-0,141	-0,070
-541,481	159,883	-0,161	-0,161
-540,466	-38,284	-0,086	-0,032
-539,452	800,000	0,065	0,160
-538,437	22,166	-0,047	0,028
-537,423	-151,917	0,005	0,000
-536,408	-200,000	0,005	0,053
-535,393	-200,000	0,004	0,034
-534,379	-200,000	0,001	-0,083
-533,364	-20,559	-0,027	-0,012
-532,350	-25,014	-0,058	0,025
-531,335	606,391	-0,008	-0,015
-530,321	15,948	-0,081	-0,046
-529,306	-200,000	0,001	-0,070
-528,291	800,000	-0,019	0,043
-527,277	-200,000	0,009	-0,098
-526,262	800,000	0,048	-0,140
-525,248	-200,000	0,026	0,111
-524,233	26,915	-0,027	0,016
-523,218	-58,577	0,090	0,028
-522,204	146,436	-0,044	0,042
-521,189	144,803	0,038	-0,036
-520,175	368,836	-0,016	-0,023
-519,160	18,578	-0,057	0,033
-518,145	140,423	-0,058	-0,055
-517,131	95,719	0,074	0,061
-516,116	-200,000	0,038	0,122
-515,102	268,012	-0,039	0,049
-514,087	317,903	-0,049	0,067
-513,072	800,000	-0,041	-0,090
-512,058	567,055	-0,076	-0,134
-511,043	-200,000	0,002	0,132
-510,029	321,020	0,063	0,087
-509,014	-113,955	-0,058	-0,008
-507,999	83,347	-0,099	0,077
-506,985	-200,000	0,013	-0,140
-505,970	160,621	-0,113	-0,113
-504,956	265,890	-0,013	0,017
-503,941	800,000	-0,016	0,042
-502,926	-6,643	0,092	0,045
-501,912	800,000	0,030	0,087
-500,897	800,000	0,025	-0,054
-499,883	57,999	0,189	-0,133
-498,868	-7,969	-0,153	-0,074
-497,853	546,350	0,015	-0,025
-496,839	-200,000	0,003	-0,070
-495,824	5,033	0,064	-0,034
-494,810	-200,000	0,001	0,069
-493,795	9,143	0,037	-0,020
-492,781	-200,000	-0,008	-0,062
-491,766	-130,987	0,006	0,001
-490,751	800,000	0,032	-0,069
-489,737	-200,000	0,047	-0,168
-488,722	153,518	0,099	0,098
-487,708	-86,562	-0,015	0,003
-486,693	125,743	0,049	0,044
-485,678	82,530	0,151	0,118
-484,664	159,717	-0,126	-0,126
-483,649	-200,000	0,002	-0,016
-482,635	-78,575	0,085	0,021
-481,620	-200,000	-0,007	-0,086
-480,605	800,000	0,018	-0,046
-479,591	330,863	0,017	0,023
-478,576	120,833	-0,072	-0,064
-477,562	28,519	-0,073	0,044
-476,547	6,713	-0,035	-0,019
-475,532	-200,000	0,020	-0,156
-474,518	-200,000	-0,007	-0,087
-473,503	44,078	-0,108	-0,071
-472,489	119,877	-0,037	-0,033
-471,474	16,261	-0,087	0,049
-470,459	-200,000	-0,015	0,154
-469,445	-86,614	-0,101	-0,022
-468,430	800,000	-0,051	-0,118
-467,416	-95,607	-0,011	0,002
-466,401	-200,000	-0,004	0,026
-465,386	6,731	0,032	0,017
-464,372	247,223	-0,037	0,045
-463,357	68,889	-0,050	0,037
-462,343	800,000	0,035	0,097
-461,328	-121,753	-0,033	0,004
-460,313	-179,797	-0,041	-0,001
-459,299	-77,898	0,161	0,039
-458,284	316,658	-0,010	-0,013
-457,270	-83,161	0,137	-0,031
-456,255	197,949	-0,107	0,117
-455,241	-168,894	0,181	0,005
-454,226	-200,000	-0,001	0,016
-453,211	-142,037	-0,061	-0,004
-452,197	-200,000	0,025	0,155
-451,182	-7,540	0,055	0,027
-450,168	-14,033	0,044	0,020
-449,153	30,591	0,021	0,013
-448,138	556,990	0,007	0,013
-447,124	-9,456	-0,025	-0,012
-446,109	-69,323	0,021	0,006
-445,095	455,693	0,053	0,085
-444,080	268,409	0,082	-0,104
-443,065	-200,000	-0,012	0,054
-442,051	255,738	0,069	-0,085
-441,036	-80,945	0,076	0,018
-440,022	-135,193	-0,077	0,007
-439,007	95,220	0,023	0,018
-437,992	174,772	0,028	0,030
-436,978	800,000	0,047	0,133
-435,963	8,218	0,040	0,022
-434,949	-35,040	-0,064	-0,025
-433,934	597,473	-0,030	-0,053
-432,919	800,000	-0,037	-0,077
-431,905	-6,531	-0,048	-0,023
-430,890	-200,000	-0,030	0,120
-429,876	187,400	0,141	0,151
-428,861	-200,000	0,011	0,134
-427,846	515,784	0,055	0,092
-426,832	205,765	-0,077	0,086
-425,817	-6,327	0,093	0,045
-424,803	-36,117	-0,105	0,041
-423,788	-11,423	-0,011	0,005
-422,773	-200,000	0,015	0,080
-421,759	-200,000	0,061	0,217
-420,744	441,440	0,038	0,060
-419,730	-200,000	0,033	-0,141
-418,715	-65,578	-0,166	-0,047
-417,701	196,995	-0,049	-0,053
-416,686	-200,000	-0,025	0,154
-415,671	158,344	0,122	0,121
-414,657	-200,000	-0,027	-0,104
-413,642	-200,000	-0,011	-0,064
-412,628	-14,309	0,121	-0,056
-411,613	65,320	-0,137	-0,099
-410,598	-77,368	0,024	-0,006
-409,584	86,981	-0,050	0,039
-408,569	-20,125	0,118	0,052
-407,555	800,000	-0,055	0,134
-406,540	182,383	0,093	-0,098
-405,525	-12,274	0,013	-0,006
-404,511	425,264	-0,034	0,053
-403,496	51,219	0,111	-0,075
-402,482	-182,822	0,084	-0,001
-401,467	-101,462	0,045	0,008
-400,452	-200,000	0,024	0,075
-399,438	504,235	-0,059	0,099
-398,423	-28,344	-0,236	0,097
-397,409	16,922	-0,066	-0,037
-396,394	-200,000	-0,016	-0,084
-395,379	-95,237	0,078	-0,015
-394,365	-71,620	0,024	0,006
-393,350	708,111	0,046	0,088
-392,336	-200,000	-0,001	0,154
-391,321	-200,000	-0,007	0,040
-390,306	-22,608	-0,033	0,014
-389,292	800,000	0,063	-0,149
-388,277	148,761	-0,015	-0,014
-387,263	-9,632	-0,024	-0,011
-386,248	-200,000	0,028	0,167
-385,233	32,524	0,046	-0,029
-384,219	-58,764	0,081	0,025
-383,204	70,366	-0,110	-0,081
-382,190	105,604	0,069	-0,058
-381,175	-200,000	-0,035	-0,124
-380,160	-34,385	-0,126	0,049
-379,146	-200,000	-0,018	0,128
-378,131	-14,951	0,038	-0,017
-377,117	-70,126	-0,080	-0,022
-376,102	-188,285	0,016	0,000
-375,088	-17,643	0,060	-0,027
-374,073	-200,000	0,000	0,055
-373,058	-200,000	0,023	0,158
-372,044	241,881	0,032	-0,038
-371,029	-93,337	-0,123	0,024
-370,015	-200,000	0,001	0,039
-369,000	-69,788	-0,101	0,027
-367,985	-64,983	-0,071	-0,020
-366,971	-34,793	-0,076	-0,030
-365,956	167,292	0,046	0,047
-364,942	-200,000	-0,021	0,086
-363,927	-87,949	0,053	0,011
-362,912	-200,000	-0,001	0,045
-361,898	60,257	-0,115	-0,081
-360,883	578,246	-0,070	-0,123
-359,869	-4,400	-0,053	-0,026
-358,854	719,935	-0,066	0,127
-357,839	146,080	-0,044	0,042
-356,825	111,443	-0,113	-0,098
-355,810	-200,000	-0,001	0,066
-354,796	-200,000	0,013	-0,143
-353,781	590,810	-0,073	-0,129
-352,766	91,431	-0,052	0,042
-351,752	800,000	-0,021	-0,042
-350,737	102,229	0,057	-0,047
-349,723	800,000	0,026	0,062
-348,708	534,333	-0,013	0,022
-347,693	-142,339	-0,132	-0,009
-346,679	-200,000	0,009	-0,083
-345,664	99,135	-0,068	0,056
-344,650	-133,254	-0,065	0,006
-343,635	171,591	0,078	0,080
-342,620	-200,000	-0,020	0,084
-341,606	223,261	-0,053	0,061
-340,591	-140,198	0,008	-0,001
-339,577	-147,530	0,106	0,006
-338,562	-200,000	-0,003	-0,011
-337,548	339,850	-0,115	0,161
-336,533	540,053	0,063	0,107
-335,518	-86,658	0,093	-0,020
-334,504	-42,968	-0,149	0,054
-333,489	-78,232	0,111	-0,027
-332,475	800,000	-0,056	-0,118
-331,460	-51,191	0,019	-0,006
-330,445	800,000	0,112	0,239
-329,431	-135,003	0,101	0,009
-328,416	-147,665	0,172	-0,010
-327,402	-52,785	-0,108	0,035
-326,387	663,649	0,062	-0,114
-325,372	-19,550	0,123	-0,054
-324,358	-200,000	0,019	0,085
-323,343	-200,000	-0,003	-0,011
-322,329	800,000	0,057	-0,176
-321,314	542,195	0,016	0,028
-320,299	-56,078	0,107	-0,034
-319,285	-131,560	-0,099	0,009
-318,270	800,000	-0,069	-0,157
-317,256	181,968	0,029	0,030
-316,241	800,000	-0,035	0,094
-315,226	-200,000	0,003	0,081
-314,212	-77,247	0,137	0,034
-313,197	800,000	-0,013	-0,035
-312,183	-200,000	-0,015	0,087
-311,168	77,245	0,067	0,051
-310,153	-200,000	-0,011	0,098
-309,139	-9,623	0,108	-0,051
-308,124	2,059	-0,061	-0,031
-307,110	83,589	0,061	-0,047
-306,095	401,876	0,095	0,143
-305,080	-200,000	-0,007	0,099
-304,066	-100,945	0,093	0,016
-303,051	-69,013	-0,080	-0,022
-302,037	-200,000	-0,014	-0,055
-301,022	-85,754	-0,080	0,018
-300,008	178,206	0,111	0,115
-298,993	21,422	-0,141	0,082
-297,978	84,743	0,098	-0,076
-296,964	75,450	-0,068	-0,051
-295,949	258,455	-0,087	-0,108
-294,935	-200,000	-0,010	-0,079
-293,920	12,752	0,074	-0,041
-292,905	-108,297	0,165	0,025
-291,891	14,051	0,054	-0,030
-290,876	-200,000	-0,021	-0,158
-289,862	-200,000	0,005	0,089
-288,847	-26,339	0,137	0,057
-287,832	-200,000	-0,001	-0,065
-286,818	321,790	0,027	-0,037
-285,803	-200,000	-0,014	0,125
-284,789	-200,000	0,006	0,067
-283,774	-41,173	0,093	0,034
-282,759	16,726	-0,027	0,015
-281,745	-200,000	0,013	-0,128
-280,730	46,162	-0,088	-0,058
-279,716	349,966	0,044	0,062
-278,701	-122,676	-0,074	-0,008
-277,686	-200,000	-0,019	0,081
-276,672	121,862	-0,077	-0,068
-275,657	-200,000	0,002	0,048
-274,643	240,578	-0,028	-0,034
-273,628	-200,000	-0,056	-0,203
-272,613	-28,870	0,073	-0,030
-271,599	612,410	-0,043	-0,076
-270,584	-45,755	0,105	0,037
-269,570	-200,000	0,004	0,039
-268,555	-78,955	0,111	0,027
-267,540	-108,528	-0,236	0,036
-266,526	796,456	-0,046	-0,091
-265,511	800,000	0,010	-0,023
-264,497	800,000	-0,035	-0,083
-263,482	431,611	0,076	0,118
-262,467	-200,000	0,017	0,096
-261,453	-151,757	0,132	-0,007
-260,438	-200,000	-0,009	0,038
-259,424	24,751	-0,024	-0,014
-258,409	8,243	-0,155	0,083
-257,395	-140,195	0,158	0,012
-256,380	192,338	0,170	0,183
-255,365	-151,262	0,141	0,007
-254,351	800,000	0,010	-0,031
-253,336	-200,000	0,005	-0,066
-252,322	440,831	-0,035	0,055
-251,307	-5,863	-0,138	-0,067
-250,292	800,000	-0,054	-0,119
-249,278	13,638	-0,024	-0,013
-248,263	-87,738	0,080	0,017
-247,249	-11,507	-0,139	0,065
-246,234	-200,000	0,004	-0,075
-245,219	-133,395	-0,127	-0,011
-244,205	110,478	0,069	-0,059
-243,190	800,000	0,034	0,071
-242,176	-9,401	-0,059	0,028
-241,161	-200,000	-0,026	0,096
-240,146	-200,000	-0,003	-0,098
-239,132	203,391	0,081	0,089
-238,117	-143,873	-0,058	0,004
-237,103	127,124	-0,048	-0,043
-236,088	-76,516	-0,162	0,040
-235,073	105,311	0,086	-0,072
-234,059	93,479	-0,083	-0,067
-233,044	49,153	0,107	0,071
-232,030	-200,000	-0,014	-0,049
-231,015	-200,000	0,050	-0,197
-230,000	-200,000	-0,003	-0,112
-228,986	83,796	-0,056	-0,043
-227,971	800,000	-0,021	0,057
-226,957	-200,000	-0,004	0,100
-225,942	21,660	0,102	0,059
-224,927	53,842	0,127	-0,087
-223,913	-200,000	0,008	0,100
-222,898	22,760	-0,081	0,047
-221,884	-59,020	-0,033	-0,010
-220,869	44,312	-0,126	0,082
-219,855	277,198	0,097	0,123
-218,840	-167,687	0,108	-0,003
-217,825	-200,000	0,001	0,065
-216,811	-200,000	-0,025	-0,095
-215,796	-200,000	-0,010	-0,322
-214,782	443,565	-0,034	-0,053
-213,767	30,738	0,024	0,014
-212,752	197,904	0,054	-0,059
-211,738	-7,520	-0,088	0,042
-210,723	-36,140	0,018	-0,007
-209,709	-56,290	-0,063	0,020
-208,694	-200,000	0,032	-0,175
-207,679	800,000	0,032	-0,071
-206,665	142,647	-0,076	-0,072
-205,650	800,000	0,034	-0,074
-204,636	-200,000	-0,006	0,148
-203,621	53,925	-0,069	-0,047
-202,606	-200,000	0,006	-0,142
-201,592	224,637	-0,083	-0,095
-200,577	-10,954	-0,080	-0,037
-199,563	-200,000	-0,017	0,092
-198,548	-200,000	0,016	0,283
-197,533	800,000	0,035	0,072
-196,519	4,940	-0,098	0,051
-195,504	131,706	-0,069	-0,063
-194,490	37,484	0,081	0,051
-193,475	205,409	-0,086	-0,095
-192,460	467,022	-0,013	-0,021
-191,446	99,046	0,108	-0,088
-190,431	-1,256	-0,022	-0,011
-189,417	-200,000	0,009	-0,097
-188,402	-116,055	0,102	0,013
-187,387	662,578	0,026	-0,047
-186,373	485,248	-0,042	-0,067
-185,358	-200,000	0,022	-0,118
-184,344	122,820	0,104	-0,093
-183,329	-115,690	0,069	-0,009
-182,315	-14,445	0,061	-0,028
-181,300	-5,359	-0,081	-0,039
-180,285	161,145	0,009	-0,009
-179,271	379,110	0,053	-0,077
-178,256	571,764	0,020	-0,035
-177,242	-67,468	0,155	-0,043
-176,227	106,232	-0,107	0,090
-175,212	800,000	-0,041	-0,122
-174,198	-52,553	-0,145	0,047
-173,183	-200,000	-0,003	-0,074
-172,169	406,151	-0,025	-0,038
-171,154	40,493	0,075	0,048
-170,139	800,000	-0,056	0,116
-169,125	-200,000	0,044	0,176
-168,110	-200,000	0,032	0,138
-167,096	502,405	-0,047	0,077
-166,081	800,000	-0,055	-0,111
-165,066	-60,069	-0,151	-0,045
-164,052	86,124	-0,082	-0,064
-163,037	-21,821	0,095	0,041
-162,023	526,372	0,047	0,080
-161,008	800,000	0,021	-0,043
-159,993	58,577	0,136	0,095
-158,979	185,920	0,043	0,045
-157,964	96,406	-0,100	-0,081
-156,950	11,732	0,097	-0,052
-155,935	-109,430	-0,132	0,020
-154,920	-200,000	0,023	0,160
-153,906	-200,000	0,018	0,096
-152,891	-160,994	0,113	0,004
-151,877	800,000	0,060	-0,176
-150,862	800,000	-0,067	-0,144
-149,847	800,000	0,038	-0,089
-148,833	311,912	-0,066	-0,089
-147,818	40,372	0,042	0,027
-146,804	405,456	-0,045	0,067
-145,789	-25,188	0,118	0,049
-144,775	607,910	-0,099	-0,176
-143,760	-200,000	0,018	-0,150
-142,745	46,881	-0,112	0,073
-141,731	-200,000	0,018	-0,085
-140,716	-200,000	0,008	-0,083
-139,702	-200,000	0,005	-0,053
-138,687	-200,000	-0,024	0,082
-137,672	618,437	0,042	0,075
-136,658	181,297	-0,076	-0,079
-135,643	506,144	0,044	-0,072
-134,629	214,345	-0,020	-0,022
-133,614	-200,000	0,012	0,064
-132,599	-200,000	-0,004	0,097
-131,585	422,576	0,070	0,107
-130,570	199,212	0,057	0,062
-129,556	800,000	0,023	-0,065
-128,541	-70,452	-0,036	-0,010
-127,526	-27,127	-0,117	0,048
-126,512	-97,797	0,126	-0,023
-125,497	-96,540	0,043	-0,008
-124,483	-121,675	-0,104	-0,012
-123,468	-120,633	0,159	0,019
-122,453	457,017	-0,068	0,107
-121,439	-74,364	-0,050	0,013
-120,424	800,000	0,024	-0,071
-119,410	37,698	0,122	0,077
-118,395	-200,000	-0,025	0,148
-117,380	800,000	0,045	-0,096
-116,366	114,600	0,050	0,043
-115,351	-52,396	-0,034	-0,011
-114,337	-200,000	-0,000	-0,122
-113,322	-200,000	-0,041	-0,131
-112,307	-200,000	-0,018	-0,065
-111,293	-111,245	0,127	-0,018
-110,278	-41,793	0,047	0,017
-109,264	-200,000	0,006	-0,038
-108,249	-110,525	0,081	0,012
-107,234	-26,086	-0,042	-0,017
-106,220	555,129	-0,015	0,026
-105,205	-100,099	0,106	-0,019
-104,191	442,602	0,050	-0,078
-103,176	-69,427	-0,074	-0,020
-102,162	-170,460	0,100	0,002
-101,147	-122,460	-0,052	0,006
-100,132	-31,703	-0,096	-0,038
-99,118	74,968	0,068	-0,051
-98,103	-200,000	0,004	-0,017
-97,089	-30,993	0,117	-0,047
-96,074	-29,029	-0,039	0,016
-95,059	602,551	-0,037	-0,066
-94,045	-200,000	0,105	0,000
-93,030	-23,798	-0,047	0,020
-92,016	413,559	-0,050	0,076
-91,001	800,000	-0,033	0,086
-89,986	800,000	0,057	0,128
-88,972	-200,000	0,009	0,072
-87,957	732,002	-0,065	0,124
-86,943	-88,242	0,036	-0,008
-85,928	-106,972	0,010	-0,001
-84,913	270,047	-0,058	0,072
-83,899	-200,000	-0,057	-0,203
-82,884	800,000	-0,042	0,090
-81,870	-3,914	-0,032	-0,016
-80,855	-200,000	0,010	-0,048
-79,840	-200,000	-0,022	0,077
-78,826	-4,075	-0,072	-0,035
-77,811	598,554	-0,055	-0,096
-76,797	-2,240	-0,100	-0,049
-75,782	-135,336	0,081	-0,007
-74,767	-200,000	0,010	0,145
-73,753	-16,933	-0,090	0,040
-72,738	-77,898	0,121	-0,029
-71,724	-200,000	-0,021	-0,082
-70,709	800,000	-0,027	-0,054
-69,694	-200,000	-0,003	-0,105
-68,680	800,000	-0,035	0,087
-67,665	800,000	-0,027	-0,069
-66,651	211,925	0,057	0,063
-65,636	269,352	0,114	-0,141
-64,622	-96,357	-0,067	-0,012
-63,607	194,688	-0,083	-0,089
-62,592	-200,000	0,175	-0,000
-61,578	-200,000	-0,002	0,098
-60,563	-42,975	0,070	-0,025
-59,549	-200,000	-0,034	0,119
-58,534	36,530	-2,078	-1,292
-57,519	535,225	-1,133	-1,904
-56,505	-200,000	-0,270	-4,370
-55,490	592,455	0,889	1,556
-54,476	800,000	5,195	11,177
-53,461	-200,000	22,010	337,190
-52,446	800,000	758,649	2296,091
-51,432	533,433	1652,610	2772,601
-50,417	69,253	1650,622	1196,659
-49,403	16,576	1525,294	848,279
-48,388	10,801	1449,725	778,461
-47,373	19,016	1441,657	813,322
-46,359	14,182	1430,662	784,217
-45,344	9,095	1426,807	757,965
-44,330	9,010	1424,679	756,403
-43,315	8,998	1422,990	755,420
-42,300	9,008	1421,165	754,464
-41,286	9,071	1419,920	754,071
-40,271	9,009	1418,531	753,011
-39,257	9,013	1417,478	752,441
-38,242	8,989	1416,466	751,765
-37,227	9,029	1415,272	751,286
-36,213	9,066	1414,170	750,846
-35,198	9,033	1412,871	749,974
-34,184	9,055	1411,856	749,505
-33,169	8,961	1410,645	748,395
-32,154	9,024	1409,504	748,055
-31,140	9,019	1408,458	747,444
-30,125	9,049	1407,169	746,873
-29,111	9,061	1406,001	746,280
-28,096	9,036	1404,755	745,472
-27,082	9,001	1403,513	744,620
-26,067	8,951	1402,682	743,915
-25,052	8,982	1401,564	743,437
-24,038	8,991	1400,502	742,885
-23,023	8,937	1399,725	742,193
-22,009	8,939	1398,592	741,572
-20,994	8,966	1397,546	741,113
-19,979	8,958	1396,833	740,671
-18,965	8,882	1395,790	739,733
-17,950	8,916	1394,711	739,289
-16,936	8,929	1393,916	738,902
-15,921	8,885	1392,974	738,168
-14,906	8,912	1391,863	737,674
-13,892	8,944	1390,899	737,281
-12,877	8,901	1390,267	736,717
-11,863	8,870	1389,437	736,109
-10,848	8,879	1388,485	735,616
-9,833	8,842	1387,802	735,051
-8,819	8,817	1386,810	734,382
-7,804	8,797	1386,005	733,835
-6,790	8,800	1384,706	733,134
-5,775	8,783	1383,873	732,586
-4,760	8,803	1382,844	732,103
-3,746	8,827	1381,913	731,692
-2,731	8,839	1380,860	731,160
-1,717	8,848	1380,059	730,745
-0,702	8,789	1378,449	729,594
0,313	12,777	1290,034	700,927
1,327	28,652	682,494	406,457
2,342	44,505	117,474	75,975
3,356	2,080	16,486	8,368
4,371	0,089	3,599	1,802
5,386	1,483	1,367	0,691
6,400	800,000	0,280	0,581
7,415	-142,045	-0,162	-0,011
8,429	67,939	-0,300	-0,216
9,444	273,579	-0,266	-0,332
10,459	-40,645	-0,358	-0,130
11,473	-44,400	-0,341	-0,120
12,488	26,868	-0,255	-0,150
13,502	174,320	-0,190	-0,194
14,517	313,667	-0,219	-0,291
15,531	109,359	-0,384	-0,324
16,546	74,537	-0,346	-0,256
17,561	14,524	-0,316	-0,173
18,575	-105,958	-0,174	-0,027
19,590	71,314	-0,186	-0,136
20,604	-109,761	-0,315	-0,046
21,619	156,041	-0,340	-0,330
22,634	159,811	-0,388	-0,381
23,648	117,103	-0,447	-0,387
24,663	77,827	-0,366	-0,274
25,677	28,768	-0,401	-0,239
26,692	-12,111	-0,401	-0,184
27,707	127,891	-0,280	-0,250
28,721	121,173	-0,358	-0,314
29,736	66,643	-0,330	-0,236
30,750	31,215	-0,403	-0,242
31,765	185,667	-0,198	-0,207
32,780	60,306	-0,467	-0,324
33,794	1,063	-0,391	-0,197
34,809	117,787	-0,236	-0,204
35,823	48,551	-0,336	-0,221
36,838	222,352	-0,301	-0,341
37,853	-13,070	-0,348	-0,158
38,867	177,759	-0,354	-0,363
39,882	138,678	-0,220	-0,203
40,896	27,140	-0,407	-0,240
41,911	-8,767	-0,215	-0,101
42,926	-75,627	-0,434	-0,108
43,940	128,420	-0,273	-0,244
44,955	-12,735	-0,502	-0,229
45,969	489,520	-0,184	-0,297
46,984	107,808	-0,239	-0,200
47,999	176,894	-0,177	-0,181
49,013	4,121	-0,452	-0,232
50,028	34,898	-0,435	-0,267
51,042	35,124	-0,350	-0,215
52,057	32,950	-0,345	-0,209
53,071	147,010	-0,302	-0,285
54,086	283,545	-0,240	-0,304
55,101	5,848	-0,493	-0,255
56,115	76,438	-0,259	-0,192
57,130	-91,213	-0,361	-0,072
58,144	32,402	-0,323	-0,195
59,159	558,736	-0,176	-0,299
60,174	38,838	-0,420	-0,262
61,188	85,702	-0,250	-0,193
62,203	19,586	-0,372	-0,209
63,217	234,658	-0,243	-0,281
64,232	31,403	-0,252	-0,151
65,247	32,414	-0,380	-0,229
66,261	247,097	-0,233	-0,277
67,276	40,967	-0,347	-0,219
68,290	53,723	-0,279	-0,187
69,305	78,252	-0,311	-0,232
70,320	120,642	-0,259	-0,226
71,334	11,630	-0,366	-0,196
72,349	129,536	-0,420	-0,376
73,363	99,495	-0,298	-0,242
74,378	67,289	-0,471	-0,336
75,393	90,844	-0,268	-0,210
76,407	-4,925	-0,303	-0,146
77,422	280,170	-0,194	-0,243
78,436	79,282	-0,234	-0,176
79,451	120,942	-0,272	-0,237
80,466	56,051	-0,413	-0,280
81,480	800,000	-0,111	-0,226
82,495	148,740	-0,297	-0,281
83,509	-49,388	-0,333	-0,111
84,524	-188,921	-0,337	-0,003
85,539	-57,431	-0,207	-0,063
86,553	3,383	-0,301	-0,153
87,568	-164,153	-0,222	0,007
88,582	67,498	-0,302	-0,216
89,597	40,715	-0,242	-0,152
90,611	-22,441	-0,291	-0,123
91,626	-104,954	-0,301	-0,048
92,641	468,892	-0,132	-0,208
93,655	42,780	-0,211	-0,134
94,670	-8,944	-0,299	-0,140
95,684	163,690	-0,298	-0,293
96,699	223,619	-0,281	-0,318
97,714	1,889	-0,302	-0,152
98,728	250,005	-0,209	-0,249
99,743	68,855	-0,210	-0,151
100,757	3,276	-0,191	-0,097
101,772	-1,671	-0,305	-0,150
102,787	51,625	-0,259	-0,172
103,801	252,568	-0,263	-0,314
104,816	79,576	-0,185	-0,139
105,830	-85,927	-0,118	-0,025
106,845	-49,568	-0,304	-0,101
107,860	-17,011	-0,214	-0,094
108,874	30,787	-0,355	-0,212
109,889	-120,497	-0,160	-0,019
110,903	29,420	-0,284	-0,168
111,918	73,494	-0,269	-0,197
112,933	123,231	-0,256	-0,224
113,947	-63,457	-0,304	-0,087
114,962	226,479	-0,213	-0,241
115,976	-14,063	-0,263	-0,118
116,991	110,342	-0,284	-0,238
118,006	178,557	-0,219	-0,223
119,020	-43,185	-0,273	-0,096
120,035	45,306	-0,214	-0,137
121,049	114,559	-0,200	-0,170
122,064	156,431	-0,126	-0,121
123,079	233,999	-0,186	-0,214
124,093	134,560	-0,272	-0,246
125,108	71,099	-0,328	-0,237
126,122	17,446	-0,286	-0,158
127,137	-69,111	-0,307	-0,082
128,151	89,840	-0,265	-0,207
129,166	-186,287	-0,173	-0,002
130,181	166,704	-0,182	-0,180
131,195	146,830	-0,225	-0,211
132,210	16,510	-0,192	-0,105
133,224	146,162	-0,232	-0,217
134,239	39,361	-0,371	-0,231
135,254	-9,031	-0,298	-0,138
136,268	742,107	-0,176	-0,330
137,283	9,867	-0,308	-0,162
138,297	-13,463	-0,329	-0,148
139,312	800,000	-0,112	-0,250
140,327	-185,145	-0,160	-0,002
141,341	53,533	-0,282	-0,188
142,356	800,000	-0,137	-0,270
143,370	222,434	-0,128	-0,144
144,385	7,902	-0,248	-0,129
145,400	-25,595	-0,283	-0,116
146,414	99,734	-0,311	-0,250
147,429	103,696	-0,292	-0,238
148,443	159,162	-0,243	-0,236
149,458	107,895	-0,229	-0,190
150,473	-58,626	-0,075	-0,023
151,487	585,939	-0,154	-0,264
152,502	-56,025	-0,299	-0,092
153,516	-8,569	-0,184	-0,086
154,531	132,136	-0,280	-0,251
155,546	-200,000	-0,002	-0,195
156,560	396,486	-0,159	-0,232
157,575	-66,623	-0,273	-0,075
158,589	0,514	-0,279	-0,138
159,604	-34,954	-0,209	-0,079
160,619	142,125	-0,340	-0,313
161,633	138,828	-0,112	-0,103
162,648	19,075	-0,190	-0,106
163,662	204,485	-0,230	-0,249
164,677	-25,216	-0,260	-0,106
165,692	-2,572	-0,169	-0,082
166,706	168,920	-0,288	-0,285
167,721	3,260	-0,253	-0,127
168,735	-156,398	-0,290	-0,012
169,750	30,900	-0,259	-0,154
170,764	604,546	-0,150	-0,261
171,779	381,546	-0,119	-0,170
172,794	109,961	-0,175	-0,146
173,808	247,961	-0,107	-0,125
174,823	800,000	-0,095	-0,204
175,837	14,687	-0,253	-0,137
176,852	252,560	-0,163	-0,194
177,867	133,797	-0,212	-0,191
178,881	63,317	-0,131	-0,091
179,896	119,318	-0,271	-0,233
180,910	800,000	-0,090	-0,225
181,925	329,794	-0,189	-0,253
182,940	70,722	-0,246	-0,177
183,954	167,608	-0,186	-0,184
184,969	-44,260	-0,253	-0,088
185,983	-200,000	-0,042	-0,210
186,998	-25,897	-0,133	-0,054
188,013	54,235	-0,143	-0,095
189,027	158,876	-0,250	-0,241
190,042	218,367	-0,243	-0,270
191,056	191,709	-0,287	-0,301
192,071	-145,486	-0,107	-0,007
193,086	-138,809	-0,198	0,015
194,100	46,809	-0,218	-0,140
195,115	-95,412	-0,118	-0,022
196,129	-92,908	-0,197	-0,038
197,144	110,435	-0,149	-0,124
198,159	371,020	-0,213	-0,301
199,173	-43,253	-0,255	-0,089
200,188	66,971	-0,150	-0,106
201,202	215,643	-0,139	-0,153
202,217	541,552	-0,128	-0,212
203,232	102,114	-0,294	-0,238
204,246	252,051	-0,169	-0,200
205,261	-17,559	-0,283	-0,123
206,275	800,000	-0,078	-0,229
207,290	404,470	-0,101	-0,148
208,304	27,569	-0,165	-0,096
209,319	-7,073	-0,079	-0,037
210,334	-77,100	-0,168	-0,040
211,348	280,572	-0,178	-0,221
212,363	-55,242	-0,179	-0,055
213,377	524,567	-0,132	-0,215
214,392	40,058	-0,163	-0,101
215,407	-62,055	-0,137	0,039
216,421	-200,000	0,008	-0,315
217,436	-124,962	-0,176	-0,019
218,450	5,900	-0,152	-0,078
219,465	470,397	-0,197	-0,307
220,480	-25,300	-0,279	-0,114
221,494	-60,803	-0,246	-0,071
222,509	149,996	-0,097	-0,091
223,523	-109,246	-0,212	0,031
224,538	-155,369	-0,270	0,012
225,553	10,804	-0,155	-0,081
226,567	-17,211	-0,209	-0,091
227,582	-10,099	-0,196	-0,090
228,596	645,866	-0,043	-0,076
229,611	-8,083	-0,256	-0,119
230,626	-200,000	-0,006	-0,047
231,640	120,497	-0,252	-0,216
232,655	15,045	-0,180	-0,097
233,669	234,541	-0,250	-0,285
234,684	-163,477	-0,300	0,010
235,699	27,293	-0,162	-0,094
236,713	-133,755	-0,213	-0,018
237,728	-64,361	-0,097	-0,027
238,742	-117,043	-0,117	-0,015
239,757	249,592	-0,289	-0,339
240,772	108,524	-0,298	-0,246
241,786	-49,253	-0,141	-0,046
242,801	-1,302	-0,312	-0,152
243,815	-136,722	-0,145	0,011
244,830	93,419	-0,083	-0,065
245,844	177,125	-0,163	-0,164
246,859	81,090	-0,248	-0,185
247,874	669,524	-0,091	-0,163
248,888	9,653	-0,136	-0,071
249,903	185,375	-0,054	-0,056
250,917	-185,300	-0,128	0,001
251,932	139,303	-0,047	0,043
252,947	35,169	-0,154	-0,093
253,961	-78,914	-0,094	-0,022
254,976	102,523	-0,170	-0,137
255,990	800,000	-0,090	-0,209
257,005	19,898	-0,219	-0,121
258,020	-26,230	-0,114	-0,046
259,034	17,456	-0,148	-0,081
260,049	-200,000	-0,032	-0,111
261,063	144,603	-0,209	-0,192
262,078	-13,449	-0,285	-0,127
263,093	132,777	-0,132	-0,117
264,107	6,935	-0,127	-0,065
265,122	405,110	-0,108	-0,158
266,136	-86,620	-0,250	-0,052
267,151	-125,559	-0,123	-0,013
268,166	655,583	-0,049	-0,087
269,180	88,942	-0,084	-0,065
270,195	308,655	-0,106	-0,136
271,209	62,744	-0,182	-0,125
272,224	97,093	-0,147	-0,116
273,239	-134,504	-0,142	0,012
274,253	115,669	-0,147	-0,123
275,268	207,122	-0,083	-0,090
276,282	181,627	-0,081	-0,082
277,297	286,912	-0,101	-0,125
278,312	116,006	-0,200	-0,168
279,326	-200,000	-0,030	-0,116
280,341	-47,362	-0,253	-0,084
281,355	-83,659	-0,134	0,029
282,370	160,622	-0,188	-0,180
283,384	-200,000	-0,043	-0,154
284,399	-1,278	-0,181	-0,088
285,414	242,245	-0,134	-0,154
286,428	-47,570	-0,157	-0,052
287,443	229,441	-0,147	-0,165
288,457	-126,717	-0,095	-0,010
289,472	-200,000	-0,006	0,044
290,487	-62,400	-0,124	-0,035
291,501	-111,541	-0,161	-0,022
292,516	46,761	-0,154	-0,098
293,530	-200,000	0,004	0,026
294,545	92,172	-0,134	-0,104
295,560	160,743	-0,105	-0,101
296,574	-127,713	-0,186	0,018
297,589	229,123	-0,175	-0,197
298,603	94,626	-0,162	-0,127
299,618	-127,068	-0,352	-0,035
300,633	-35,601	-0,164	-0,061
301,647	-79,940	-0,170	-0,039
302,662	-200,000	-0,041	-0,129
303,676	289,481	-0,100	-0,124
304,691	63,906	-0,178	-0,123
305,706	152,238	-0,189	-0,177
306,720	467,621	-0,144	-0,223
307,735	147,407	-0,183	-0,169
308,749	161,611	-0,169	-0,162
309,764	363,204	-0,121	-0,168
310,779	299,155	-0,076	-0,097
311,793	378,065	-0,065	-0,091
312,808	6,326	-0,122	-0,062
313,822	31,048	-0,261	-0,153
314,837	307,577	-0,102	-0,131
315,852	53,240	-0,099	0,065
316,866	195,855	-0,127	-0,133
317,881	-77,553	-0,245	0,058
318,895	-38,576	-0,176	-0,063
319,910	442,640	-0,040	-0,060
320,925	-200,000	-0,036	0,119
321,939	246,076	-0,056	-0,064
322,954	89,138	-0,102	-0,078
323,968	-161,798	-0,088	-0,003
324,983	691,251	-0,083	-0,150
325,997	800,000	-0,032	-0,086
327,012	152,285	-0,181	-0,169
328,027	628,964	-0,124	-0,215
329,041	-200,000	-0,027	-0,119
330,056	-143,496	-0,098	0,006
331,070	45,324	-0,162	-0,102
332,085	-156,426	-0,125	-0,005
333,100	800,000	-0,080	-0,153
334,114	66,931	-0,258	-0,180
335,129	-0,004	-0,132	-0,064
336,143	800,000	-0,116	-0,221
337,158	137,812	-0,142	-0,127
338,173	90,776	-0,097	-0,074
339,187	-142,029	-0,188	-0,013
340,202	589,427	-0,092	-0,155
341,216	214,723	-0,138	-0,150
342,231	-200,000	-0,040	-0,153
343,246	800,000	-0,050	-0,099
344,260	28,620	-0,192	-0,111
345,275	-143,511	-0,187	0,012
346,289	40,701	-0,071	-0,044
347,304	-175,523	-0,150	0,003
348,319	50,444	-0,164	-0,106
349,333	-103,989	-0,197	-0,031
350,348	800,000	-0,130	-0,260
351,362	549,387	-0,116	-0,192
352,377	452,597	-0,069	-0,105
353,392	-104,046	-0,146	0,023
354,406	146,782	-0,101	-0,093
355,421	206,995	1306,110	1393,755
356,435	159,220	1465,737	1394,227
