DTS Sentinel unit serial number:	SN410029Multiplexer serial number:	ORYXHardware model number:	OX2-SRSoftware version number:	ORYX F/W v4,00 Oryx Data Collector v3.7.2.0data status	okinstallation	B3 Nyhavnadifferential loss correction	single-endedforward channel	channel 1reverse channel	N/Adate	2023/11/30time	18:42:30forward acquisition time	300,00reverse acquisition time	0,00gamma	499,1914k internal	0,3205k external	0,3205temperature offset calibration	1,0000default loss term (dB/km)	0,3820temperature slope calibration	1,0000multiplexer offset coefficient	1,0000multiplexer slope coefficient	1,0000fibre end	0,00T internal ref (°C)	12,52T ext. ref 1 (°C)	-2,73T ext. ref 2 (°C)	-2,83length (m)	temperature (°C)	Stokes	anti-Stokes-744,400	338,412	-0,198	-0,281
-743,385	-200,000	0,054	0,322
-742,371	143,506	-0,163	-0,158
-741,356	800,000	0,082	0,233
-740,342	118,989	-0,211	-0,190
-739,327	-200,000	-0,045	0,289
-738,312	-200,000	-0,071	-0,410
-737,298	-200,000	-0,076	0,396
-736,283	800,000	-0,169	-0,353
-735,269	-200,000	0,030	0,248
-734,254	800,000	-0,080	-0,255
-733,239	-185,553	-0,195	-0,002
-732,225	-200,000	-0,065	-0,301
-731,210	94,633	0,225	0,186
-730,196	-147,601	0,134	0,008
-729,181	-33,782	0,060	-0,024
-728,167	-35,542	-0,049	0,019
-727,152	-200,000	0,008	-0,111
-726,137	800,000	0,040	-0,120
-725,123	180,984	-0,045	0,048
-724,108	-200,000	-0,015	-0,084
-723,094	-16,572	-0,105	0,048
-722,079	-40,444	0,039	0,015
-721,064	185,450	0,067	-0,072
-720,050	-81,381	-0,121	0,029
-719,035	-143,149	-0,052	-0,004
-718,021	-200,000	0,007	0,130
-717,006	207,063	-0,037	-0,042
-715,991	-200,000	-0,034	-0,219
-714,977	-0,076	-0,092	0,047
-713,962	60,159	0,097	-0,069
-712,948	-200,000	-0,008	0,035
-711,933	320,845	0,094	0,130
-710,918	388,680	-0,025	-0,038
-709,904	-8,570	-0,131	0,063
-708,889	50,074	0,035	-0,024
-707,875	-200,000	0,015	-0,050
-706,860	-49,900	-0,028	0,010
-705,845	800,000	-0,007	-0,015
-704,831	-21,593	0,057	-0,025
-703,816	414,683	0,044	-0,068
-702,802	-171,010	-0,199	0,005
-701,787	394,618	-0,077	-0,116
-700,772	406,947	-0,099	-0,153
-699,758	-200,000	-0,025	-0,216
-698,743	-102,624	0,099	-0,017
-697,729	-33,353	-0,049	0,019
-696,714	-200,000	-0,000	-0,098
-695,699	-73,420	-0,077	-0,020
-694,685	-65,933	-0,085	0,025
-693,670	-200,000	0,007	0,082
-692,656	800,000	-0,033	-0,066
-691,641	-200,000	-0,013	-0,144
-690,627	99,860	0,038	0,032
-689,612	150,062	-0,030	-0,029
-688,597	143,230	-0,050	0,048
-687,583	-154,945	0,017	0,001
-686,568	80,973	-0,050	-0,039
-685,554	480,477	0,048	-0,079
-684,539	-200,000	-0,022	0,089
-683,524	-72,624	0,106	0,028
-682,510	-149,471	-0,133	-0,007
-681,495	99,674	-0,121	-0,102
-680,481	-7,523	-0,036	-0,018
-679,466	-200,000	0,015	-0,104
-678,451	106,093	0,026	0,023
-677,437	-79,470	0,125	0,030
-676,422	138,622	0,065	0,062
-675,408	127,464	-0,037	0,034
-674,393	-88,234	-0,178	-0,038
-673,378	-127,820	0,081	-0,008
-672,364	-42,506	-0,216	-0,079
-671,349	128,175	-0,057	-0,053
-670,335	-200,000	-0,004	-0,077
-669,320	786,024	0,049	-0,098
-668,305	-15,348	-0,143	0,066
-667,291	-200,000	-0,026	-0,091
-666,276	800,000	-0,042	-0,108
-665,262	551,615	-0,047	-0,082
-664,247	536,353	-0,029	-0,051
-663,232	-200,000	0,010	-0,071
-662,218	-129,938	-0,069	-0,007
-661,203	313,078	-0,049	0,067
-660,189	-200,000	-0,002	-0,013
-659,174	215,345	-0,070	-0,080
-658,159	111,355	-0,161	-0,141
-657,145	-200,000	-0,026	-0,087
-656,130	-41,728	-0,113	-0,042
-655,116	800,000	0,033	-0,084
-654,101	39,614	0,014	-0,009
-653,086	120,588	-0,068	0,061
-652,072	268,804	-0,029	-0,037
-651,057	-101,996	-0,094	0,016
-650,043	31,267	-0,126	-0,078
-649,028	556,296	0,020	-0,035
-648,014	337,407	0,026	-0,037
-646,999	-72,536	0,110	0,029
-645,984	-123,718	0,044	-0,005
-644,970	41,746	-0,094	-0,061
-643,955	111,832	-0,038	0,033
-642,941	-78,096	-0,161	-0,040
-641,926	-43,930	-0,019	0,007
-640,911	800,000	-0,022	0,069
-639,897	268,681	-0,111	0,141
-638,882	28,681	0,056	0,034
-637,868	497,980	-0,030	-0,050
-636,853	800,000	0,025	-0,050
-635,838	-200,000	-0,001	-0,067
-634,824	800,000	-0,058	0,129
-633,809	800,000	-0,052	0,112
-632,795	80,531	0,017	-0,013
-631,780	-76,025	0,102	-0,026
-630,765	584,371	-0,060	-0,107
-629,751	-178,680	0,124	0,002
-628,736	-200,000	-0,001	-0,069
-627,722	463,304	0,033	0,053
-626,707	124,056	0,158	0,144
-625,692	220,909	-0,063	0,073
-624,678	-78,302	0,112	0,028
-623,663	800,000	0,036	0,110
-622,649	-140,282	-0,122	-0,009
-621,634	80,871	-0,121	-0,095
-620,619	237,129	-0,028	-0,033
-619,605	-200,000	0,005	0,055
-618,590	261,296	0,052	0,065
-617,576	-200,000	0,006	0,059
-616,561	-129,165	-0,066	0,007
-615,546	14,274	-0,110	-0,062
-614,532	104,114	-0,027	-0,023
-613,517	646,184	-0,023	-0,042
-612,503	-200,000	0,017	-0,080
-611,488	448,509	0,122	-0,195
-610,474	-180,291	0,113	0,002
-609,459	165,335	-0,049	0,050
-608,444	23,045	-0,074	-0,044
-607,430	46,747	-0,181	0,121
-606,415	800,000	-0,029	-0,070
-605,401	78,584	0,072	0,055
-604,386	800,000	0,076	0,176
-603,371	-200,000	0,013	0,094
-602,357	-200,000	-0,039	0,141
-601,342	-200,000	0,019	-0,115
-600,328	-71,503	-0,168	0,045
-599,313	789,342	-0,010	0,021
-598,298	-89,809	-0,051	0,011
-597,284	123,245	0,071	-0,064
-596,269	358,242	0,073	-0,105
-595,255	-200,000	-0,007	-0,147
-594,240	448,294	0,055	-0,087
-593,225	4,530	-0,079	-0,042
-592,211	-68,363	-0,111	-0,031
-591,196	-121,661	0,083	-0,010
-590,182	-108,585	-0,048	0,007
-589,167	188,472	-0,025	0,027
-588,152	-200,000	-0,017	-0,102
-587,138	800,000	-0,040	-0,122
-586,123	-77,500	-0,058	0,014
-585,109	-200,000	-0,054	-0,180
-584,094	105,197	-0,046	0,039
-583,079	63,401	-0,009	0,006
-582,065	519,829	-0,022	-0,037
-581,050	195,773	0,062	0,068
-580,036	-67,115	0,124	0,035
-579,021	-200,000	-0,037	-0,182
-578,006	-200,000	0,001	-0,097
-576,992	800,000	0,074	-0,188
-575,977	-62,038	-0,047	0,014
-574,963	-199,406	0,134	0,000
-573,948	139,504	-0,045	0,042
-572,934	800,000	0,047	0,132
-571,919	800,000	-0,045	-0,106
-570,904	-63,623	-0,163	-0,048
-569,890	-123,897	0,054	-0,006
-568,875	-38,506	-0,097	-0,037
-567,861	-37,350	-0,134	0,052
-566,846	612,006	-0,100	0,181
-565,831	-118,667	-0,109	0,014
-564,817	-200,000	0,002	0,137
-563,802	581,877	-0,077	-0,137
-562,788	-200,000	0,010	-0,101
-561,773	380,085	-0,045	0,066
-560,758	-200,000	0,011	-0,114
-559,744	-83,993	0,109	0,025
-558,729	-200,000	-0,006	0,162
-557,715	180,151	0,076	-0,081
-556,700	-124,408	0,067	-0,007
-555,685	-87,797	-0,097	-0,021
-554,671	153,699	0,048	-0,047
-553,656	36,173	-0,051	0,032
-552,642	-78,817	0,140	0,034
-551,627	106,760	-0,104	0,089
-550,612	-56,434	0,044	0,014
-549,598	-200,000	-0,022	-0,124
-548,583	157,005	-0,047	-0,047
-547,569	-126,145	0,062	0,007
-546,554	-66,698	-0,088	-0,025
-545,539	-187,070	-0,072	0,001
-544,525	144,277	0,014	0,014
-543,510	14,033	-0,058	0,032
-542,496	-200,000	-0,002	-0,046
-541,481	124,459	-0,073	-0,067
-540,466	772,068	0,039	-0,077
-539,452	-200,000	0,010	0,101
-538,437	-90,253	0,147	0,031
-537,423	-113,682	0,070	-0,010
-536,408	-151,042	-0,124	-0,007
-535,393	-200,000	-0,007	-0,029
-534,379	-31,800	-0,092	-0,037
-533,364	-200,000	-0,007	-0,181
-532,350	-200,000	0,006	0,022
-531,335	-49,383	0,023	0,008
-530,321	426,447	0,046	0,072
-529,306	615,700	0,025	0,046
-528,291	-200,000	-0,030	0,131
-527,277	-29,016	-0,023	0,010
-526,262	-200,000	0,001	-0,034
-525,248	47,093	-0,099	-0,066
-524,233	-48,074	0,059	-0,020
-523,218	-128,073	0,095	0,010
-522,204	-200,000	-0,044	-0,198
-521,189	800,000	-0,032	-0,072
-520,175	441,459	-0,051	-0,081
-519,160	103,759	-0,032	0,027
-518,145	39,228	-0,049	-0,031
-517,131	640,083	0,057	0,104
-516,116	-200,000	-0,018	0,084
-515,102	385,249	0,104	-0,154
-514,087	235,449	-0,116	0,138
-513,072	672,780	-0,038	0,070
-512,058	35,406	-0,046	-0,029
-511,043	13,767	0,043	0,024
-510,029	-130,742	-0,076	0,007
-509,014	-200,000	0,003	0,022
-507,999	-200,000	0,012	0,063
-506,985	-200,000	0,015	-0,055
-505,970	-200,000	-0,011	-0,148
-504,956	-200,000	0,013	0,093
-503,941	800,000	-0,032	0,086
-502,926	14,777	0,168	0,094
-501,912	56,252	0,043	0,030
-500,897	776,591	-0,040	0,080
-499,883	634,347	0,071	0,131
-498,868	-42,188	-0,127	-0,046
-497,853	135,241	-0,056	-0,052
-496,839	-200,000	-0,030	-0,140
-495,824	-21,649	0,099	-0,043
-494,810	-200,000	0,038	0,162
-493,795	386,863	-0,034	0,050
-492,781	205,924	-0,193	-0,217
-491,766	167,615	-0,082	-0,084
-490,751	-87,831	-0,100	0,021
-489,737	-200,000	-0,000	-0,020
-488,722	-200,000	-0,015	-0,176
-487,708	138,990	-0,040	-0,038
-486,693	153,289	-0,024	-0,024
-485,678	201,051	0,026	-0,029
-484,664	-98,702	-0,113	-0,020
-483,649	288,058	0,009	-0,012
-482,635	-200,000	0,009	0,050
-481,620	603,700	0,011	-0,019
-480,605	669,914	-0,036	-0,067
-479,591	642,228	0,101	0,186
-478,576	73,416	0,023	0,017
-477,562	-18,977	0,055	0,024
-476,547	-200,000	-0,019	-0,091
-475,532	-200,000	-0,008	-0,072
-474,518	-200,000	-0,009	-0,098
-473,503	-88,621	0,050	0,011
-472,489	24,001	0,082	0,048
-471,474	195,036	0,101	-0,111
-470,459	-52,622	0,037	-0,012
-469,445	169,745	-0,111	-0,114
-468,430	-200,000	-0,014	-0,154
-467,416	-148,416	0,170	0,010
-466,401	183,695	0,082	0,087
-465,386	139,677	0,106	0,100
-464,372	-200,000	-0,038	-0,147
-463,357	192,318	-0,055	-0,060
-462,343	357,259	-0,051	-0,074
-461,328	-3,316	0,061	0,031
-460,313	68,081	0,034	0,025
-459,299	-31,646	0,086	0,034
-458,284	-33,527	0,128	-0,050
-457,270	-64,203	-0,153	0,045
-456,255	-200,000	0,033	0,110
-455,241	-111,518	-0,149	0,022
-454,226	-56,150	0,041	-0,013
-453,211	800,000	0,079	0,194
-452,197	-65,376	0,107	-0,031
-451,182	800,000	-0,029	0,084
-450,168	-200,000	-0,006	0,080
-449,153	359,348	-0,024	0,035
-448,138	800,000	0,014	0,042
-447,124	31,134	-0,071	-0,044
-446,109	88,764	-0,064	0,051
-445,095	-200,000	-0,050	-0,202
-444,080	175,360	-0,072	-0,075
-443,065	-200,000	0,023	0,086
-442,051	-200,000	0,036	0,119
-441,036	70,648	0,048	0,036
-440,022	800,000	-0,044	-0,105
-439,007	56,291	-0,045	0,031
-437,992	204,794	0,037	-0,041
-436,978	-200,000	-0,029	-0,160
-435,963	-200,000	-0,002	-0,058
-434,949	175,666	-0,156	0,163
-433,934	71,615	0,128	-0,095
-432,919	-200,000	0,013	-0,050
-431,905	447,806	-0,009	0,014
-430,890	685,808	0,052	0,098
-429,876	340,870	-0,021	-0,030
-428,861	54,211	0,031	-0,021
-427,846	-68,879	0,085	-0,023
-426,832	-200,000	-0,026	-0,109
-425,817	113,486	-0,159	-0,139
-424,803	-134,573	-0,133	-0,011
-423,788	-128,871	0,189	0,019
-422,773	-99,803	0,037	0,007
-421,759	-200,000	0,042	0,149
-420,744	222,056	0,042	-0,049
-419,730	340,031	-0,056	-0,078
-418,715	-200,000	0,003	-0,100
-417,701	-200,000	-0,006	-0,030
-416,686	-71,933	-0,071	-0,019
-415,671	-200,000	0,022	0,103
-414,657	-130,099	0,051	0,005
-413,642	-21,799	-0,105	-0,046
-412,628	800,000	0,046	0,142
-411,613	-106,120	0,061	0,010
-410,598	-22,240	-0,099	-0,043
-409,584	-40,012	0,117	0,044
-408,569	-28,860	0,089	-0,037
-407,555	-200,000	0,004	0,061
-406,540	-185,691	-0,066	-0,001
-405,525	-200,000	-0,009	0,030
-404,511	-200,000	-0,023	-0,229
-403,496	87,737	0,152	0,121
-402,482	272,353	0,029	-0,036
-401,467	800,000	0,020	-0,054
-400,452	800,000	0,041	-0,123
-399,438	41,236	-0,142	0,092
-398,423	-200,000	0,007	-0,067
-397,409	-180,262	0,019	-0,000
-396,394	-200,000	-0,002	0,008
-395,379	185,657	-0,135	0,144
-394,365	329,278	0,110	0,151
-393,350	104,770	0,030	0,025
-392,336	467,944	-0,041	0,066
-391,321	19,636	0,065	-0,037
-390,306	-167,966	-0,096	-0,003
-389,292	100,168	0,094	0,078
-388,277	-200,000	-0,001	-0,019
-387,263	423,957	0,049	0,076
-386,248	113,330	0,051	0,044
-385,233	-200,000	0,035	0,171
-384,219	44,126	0,103	0,068
-383,204	800,000	0,052	-0,126
-382,190	51,991	-0,043	0,030
-381,175	-68,574	0,046	-0,013
-380,160	-123,172	0,109	0,012
-379,146	-128,039	0,152	0,015
-378,131	-200,000	-0,024	0,110
-377,117	-12,622	0,128	-0,060
-376,102	339,911	-0,062	0,086
-375,088	-79,638	-0,091	-0,022
-374,073	490,772	-0,044	-0,072
-373,058	24,253	0,068	0,040
-372,044	-171,299	0,081	0,002
-371,029	-104,645	-0,048	-0,008
-370,015	48,642	-0,037	0,025
-369,000	-17,006	-0,058	-0,026
-367,985	160,275	-0,138	-0,137
-366,971	-100,396	-0,185	-0,033
-365,956	95,957	0,058	0,048
-364,942	-26,161	0,140	-0,058
-363,927	-200,000	-0,028	0,168
-362,912	113,906	-0,132	-0,115
-361,898	-200,000	0,059	-0,344
-360,883	-200,000	-0,018	-0,067
-359,869	-200,000	-0,004	-0,065
-358,854	347,914	-0,048	-0,068
-357,839	-200,000	0,023	-0,073
-356,825	216,480	-0,013	-0,015
-355,810	-52,516	-0,064	0,021
-354,796	-13,424	-0,112	0,052
-353,781	-200,000	0,034	-0,122
-352,766	15,037	-0,097	-0,054
-351,752	-200,000	-0,009	-0,039
-350,737	-136,244	0,298	-0,025
-349,723	-200,000	-0,027	-0,141
-348,708	-70,078	-0,044	0,012
-347,693	139,128	-0,079	-0,074
-346,679	-200,000	0,002	0,022
-345,664	-16,483	-0,070	0,031
-344,650	-200,000	-0,010	-0,168
-343,635	666,369	0,066	0,123
-342,620	-200,000	0,018	0,110
-341,606	-200,000	0,014	-0,056
-340,591	-49,384	-0,071	-0,024
-339,577	-200,000	0,014	-0,079
-338,562	-37,589	-0,110	0,042
-337,548	46,952	0,093	-0,062
-336,533	-150,647	0,188	0,010
-335,518	-58,000	-0,113	0,035
-334,504	-105,887	0,113	0,018
-333,489	-85,603	0,059	-0,013
-332,475	-9,258	0,068	-0,032
-331,460	16,706	0,131	-0,074
-330,445	800,000	-0,037	0,102
-329,431	-200,000	0,014	0,069
-328,416	335,559	0,060	0,084
-327,402	-67,647	-0,102	0,028
-326,387	800,000	0,067	-0,178
-325,372	50,574	-0,031	-0,021
-324,358	-200,000	0,034	0,116
-323,343	713,538	-0,033	0,062
-322,329	-200,000	0,011	0,049
-321,314	367,644	-0,035	-0,051
-320,299	-100,602	0,185	0,032
-319,285	-24,871	-0,060	0,025
-318,270	-200,000	-0,022	-0,135
-317,256	-78,659	0,030	-0,007
-316,241	152,006	-0,015	-0,014
-315,226	-128,184	0,083	0,008
-314,212	800,000	0,031	-0,084
-313,197	-200,000	-0,038	0,153
-312,183	655,181	0,063	0,116
-311,168	-200,000	-0,022	0,112
-310,153	800,000	-0,019	0,050
-309,139	-183,785	0,077	-0,001
-308,124	124,344	0,080	0,072
-307,110	-11,924	-0,033	0,015
-306,095	-164,078	0,098	0,003
-305,080	-109,607	-0,104	0,015
-304,066	-200,000	0,025	0,155
-303,051	87,699	-0,043	-0,034
-302,037	-20,864	-0,190	-0,083
-301,022	-200,000	0,005	0,112
-300,008	-94,844	0,120	0,023
-298,993	-74,422	0,111	-0,028
-297,978	-107,409	-0,162	0,025
-296,964	19,810	0,124	0,071
-295,949	800,000	-0,018	0,040
-294,935	540,357	-0,093	-0,159
-293,920	71,145	-0,073	-0,054
-292,905	30,542	0,046	0,028
-291,891	-200,000	-0,003	0,068
-290,876	-9,892	0,159	0,075
-289,862	-200,000	-0,009	0,068
-288,847	-27,362	-0,084	0,035
-287,832	-108,941	0,078	-0,012
-286,818	-131,109	0,104	-0,010
-285,803	-89,928	0,082	0,017
-284,789	-110,095	0,111	0,016
-283,774	750,955	-0,032	0,062
-282,759	456,535	0,011	-0,017
-281,745	800,000	0,050	-0,099
-280,730	62,976	-0,083	-0,059
-279,716	-52,431	0,081	0,027
-278,701	-9,185	-0,102	-0,049
-277,686	-143,926	-0,097	-0,006
-276,672	170,346	-0,034	-0,035
-275,657	306,518	-0,051	-0,068
-274,643	-74,160	-0,052	-0,013
-273,628	93,272	-0,090	0,073
-272,613	175,168	0,082	0,085
-271,599	371,655	0,059	-0,085
-270,584	118,421	0,052	0,046
-269,570	-73,443	-0,028	0,007
-268,555	560,856	-0,086	0,148
-267,540	-104,745	-0,101	-0,016
-266,526	526,440	0,050	-0,084
-265,511	-70,373	0,054	-0,015
-264,497	2,368	0,115	-0,059
-263,482	800,000	-0,007	0,015
-262,467	800,000	-0,019	0,055
-261,453	-18,715	0,088	0,039
-260,438	233,602	-0,055	-0,065
-259,424	-95,688	-0,098	-0,019
-258,409	609,826	-0,031	-0,055
-257,395	305,233	0,032	0,042
-256,380	442,257	0,045	0,070
-255,365	-200,000	-0,017	0,081
-254,351	-200,000	0,056	0,204
-253,336	52,767	-0,137	0,093
-252,322	95,712	0,112	-0,091
-251,307	300,550	-0,061	-0,081
-250,292	-200,000	-0,008	0,041
-249,278	27,286	0,183	0,109
-248,263	-85,597	0,047	-0,010
-247,249	428,595	-0,051	0,079
-246,234	304,805	0,107	0,142
-245,219	800,000	-0,040	-0,106
-244,205	-114,378	0,028	-0,004
-243,190	800,000	0,032	0,063
-242,176	-151,885	0,100	0,005
-241,161	-200,000	-0,008	-0,080
-240,146	750,065	-0,027	0,053
-239,132	621,271	-0,064	-0,115
-238,117	127,406	-0,035	-0,032
-237,103	-84,436	-0,118	-0,026
-236,088	18,653	-0,066	-0,037
-235,073	132,113	-0,061	0,056
-234,059	390,110	-0,083	0,123
-233,044	125,825	0,057	0,051
-232,030	219,967	0,024	0,028
-231,015	173,574	0,032	-0,033
-230,000	-200,000	0,003	-0,027
-228,986	-200,000	0,141	0,000
-227,971	606,581	0,129	0,229
-226,957	-200,000	0,041	0,164
-225,942	-6,088	-0,016	0,008
-224,927	180,914	-0,070	0,074
-223,913	-200,000	0,011	-0,147
-222,898	-200,000	-0,008	-0,160
-221,884	57,127	-0,093	0,064
-220,869	227,998	0,166	-0,193
-219,855	22,401	-0,024	-0,014
-218,840	-76,537	-0,058	0,014
-217,825	-200,000	-0,006	0,150
-216,811	-53,493	0,093	0,030
-215,796	-64,031	-0,102	-0,029
-214,782	-120,593	-0,165	-0,020
-213,767	122,968	-0,042	0,037
-212,752	22,658	0,062	0,036
-211,738	170,111	0,104	0,106
-210,723	74,107	-0,062	0,046
-209,709	-92,332	-0,079	0,016
-208,694	-147,650	0,034	-0,002
-207,679	625,454	0,032	-0,057
-206,665	-71,975	-0,045	0,012
-205,650	-200,000	-0,011	0,071
-204,636	-135,300	0,071	-0,006
-203,621	-90,484	0,149	0,030
-202,606	-17,251	-0,150	0,067
-201,592	585,376	0,084	-0,147
-200,577	-38,053	-0,012	-0,004
-199,563	38,205	-0,154	0,097
-198,548	92,753	0,095	0,077
-197,533	-69,490	0,087	-0,023
-196,519	273,393	-0,105	0,132
-195,504	-88,033	-0,111	0,023
-194,490	51,629	0,048	0,032
-193,475	800,000	0,034	0,096
-192,460	-200,000	0,013	0,105
-191,446	-200,000	-0,008	0,054
-190,431	800,000	-0,012	-0,033
-189,417	-200,000	0,051	0,165
-188,402	-134,922	0,089	-0,008
-187,387	716,802	-0,067	-0,127
-186,373	216,125	-0,141	-0,160
-185,358	519,035	0,036	0,059
-184,344	-30,084	0,105	0,042
-183,329	-46,544	0,059	-0,020
-182,315	14,736	-0,053	0,029
-181,300	800,000	0,047	-0,117
-180,285	-200,000	-0,009	-0,044
-179,271	800,000	-0,046	-0,098
-178,256	-67,625	0,066	-0,018
-177,242	203,446	-0,062	0,068
-176,227	-200,000	0,030	0,127
-175,212	-200,000	0,008	-0,098
-174,198	-83,289	0,008	-0,002
-173,183	20,729	-0,108	-0,062
-172,169	800,000	-0,051	0,113
-171,154	800,000	-0,027	-0,063
-170,139	-27,091	0,030	0,012
-169,125	-78,706	-0,033	0,008
-168,110	-63,091	-0,089	0,026
-167,096	360,358	-0,058	0,082
-166,081	800,000	0,048	-0,152
-165,066	-69,321	-0,099	-0,027
-164,052	800,000	0,055	-0,108
-163,037	-61,742	0,075	-0,022
-162,023	-200,000	0,014	0,109
-161,008	-11,804	0,114	-0,053
-159,993	39,752	0,060	0,038
-158,979	253,191	-0,037	-0,045
-157,964	-72,886	-0,124	-0,032
-156,950	-182,622	0,098	-0,001
-155,935	-200,000	0,016	0,051
-154,920	-200,000	0,011	0,056
-153,906	331,012	0,054	0,074
-152,891	51,578	0,053	-0,036
-151,877	10,505	-0,055	0,030
-150,862	800,000	-0,021	-0,048
-149,847	-200,000	0,000	0,002
-148,833	800,000	0,018	-0,054
-147,818	-175,395	0,117	-0,002
-146,804	-200,000	0,016	0,059
-145,789	23,639	0,077	0,045
-144,775	-165,218	-0,139	0,004
-143,760	-85,454	0,041	0,009
-142,745	-200,000	0,009	0,054
-141,731	-200,000	-0,023	0,106
-140,716	-22,125	0,144	0,062
-139,702	134,065	0,021	0,019
-138,687	-101,733	0,139	0,024
-137,672	-96,076	-0,059	0,011
-136,658	671,109	-0,016	-0,029
-135,643	621,299	-0,077	-0,138
-134,629	339,256	-0,039	-0,054
-133,614	71,355	0,097	0,071
-132,599	674,556	0,040	0,073
-131,585	-200,000	-0,028	-0,116
-130,570	150,784	0,089	-0,085
-129,556	-200,000	-0,028	-0,160
-128,541	368,344	-0,093	-0,134
-127,526	403,287	-0,084	-0,126
-126,512	-200,000	0,008	-0,125
-125,497	394,931	0,123	0,182
-124,483	-200,000	0,008	0,131
-123,468	-200,000	0,000	-0,113
-122,453	800,000	-0,033	-0,069
-121,439	-46,611	0,104	-0,036
-120,424	-200,000	0,011	-0,070
-119,410	239,834	-0,053	-0,063
-118,395	525,107	-0,046	-0,077
-117,380	800,000	0,075	0,188
-116,366	395,883	-0,040	-0,060
-115,351	92,308	0,084	-0,067
-114,337	42,536	-0,070	0,045
-113,322	-200,000	0,000	-0,048
-112,307	-200,000	0,026	-0,113
-111,293	-72,321	0,112	0,029
-110,278	159,312	0,031	0,031
-109,264	60,501	-0,052	0,037
-108,249	-200,000	-0,011	0,099
-107,234	291,259	-0,036	-0,046
-106,220	-10,351	0,063	0,030
-105,205	-200,000	0,025	-0,079
-104,191	661,888	-0,019	0,035
-103,176	-133,466	0,103	0,009
-102,162	656,859	-0,035	-0,063
-101,147	-105,639	-0,035	0,006
-100,132	-200,000	-0,026	-0,196
-99,118	800,000	0,043	-0,130
-98,103	-42,529	-0,048	0,017
-97,089	365,249	0,082	0,117
-96,074	231,304	-0,063	-0,073
-95,059	-200,000	-0,034	-0,119
-94,045	-200,000	-0,024	-0,085
-93,030	-99,738	-0,105	-0,019
-92,016	-200,000	-0,003	-0,167
-91,001	122,922	-0,027	0,024
-89,986	-169,562	-0,092	-0,002
-88,972	600,311	-0,062	0,109
-87,957	-200,000	-0,041	0,212
-86,943	23,135	-0,049	0,028
-85,928	372,686	-0,033	-0,048
-84,913	-96,833	-0,138	0,025
-83,899	-200,000	0,024	0,093
-82,884	-200,000	0,028	-0,137
-81,870	-77,727	0,014	-0,003
-80,855	-20,266	0,083	0,036
-79,840	-49,264	0,150	-0,051
-78,826	54,814	-0,202	-0,138
-77,811	-200,000	0,016	-0,147
-76,797	-200,000	-0,017	0,066
-75,782	-3,200	0,115	-0,056
-74,767	-20,065	0,039	-0,017
-73,753	-200,000	-0,030	-0,132
-72,738	-200,000	-0,002	-0,106
-71,724	94,877	0,074	-0,060
-70,709	800,000	-0,018	-0,036
-69,694	-111,164	0,055	-0,008
-68,680	800,000	-0,071	0,156
-67,665	-84,866	0,099	-0,022
-66,651	634,411	0,057	-0,103
-65,636	800,000	-0,050	-0,104
-64,622	21,812	-0,089	0,051
-63,607	502,116	-0,067	-0,110
-62,592	-200,000	0,033	-0,170
-61,578	800,000	-0,013	-0,040
-60,563	-200,000	0,007	0,072
-59,549	-86,731	0,036	0,008
-58,534	27,420	-1,792	-1,063
-57,519	470,604	-1,347	-2,150
-56,505	-200,000	-0,345	-4,442
-55,490	349,349	0,906	1,269
-54,476	800,000	4,997	11,167
-53,461	-200,000	19,873	330,862
-52,446	-200,000	746,085	2335,123
-51,432	563,701	1655,327	2846,101
-50,417	76,481	1667,284	1248,388
-49,403	20,448	1540,471	878,288
-48,388	14,384	1463,215	804,825
-47,373	18,628	1453,512	819,900
-46,359	16,723	1443,138	804,914
-45,344	12,652	1438,403	782,800
-44,330	12,567	1436,690	781,432
-43,315	12,563	1435,060	780,493
-42,300	12,576	1433,167	779,497
-41,286	12,591	1432,031	778,921
-40,271	12,559	1430,738	778,031
-39,257	12,577	1429,358	777,335
-38,242	12,594	1428,213	776,765
-37,227	12,597	1426,970	776,074
-36,213	12,577	1425,657	775,232
-35,198	12,561	1424,602	774,550
-34,184	12,623	1423,415	774,170
-33,169	12,644	1421,949	773,442
-32,154	12,626	1421,064	772,841
-31,140	12,651	1419,703	772,189
-30,125	12,652	1418,492	771,505
-29,111	12,670	1417,592	771,070
-28,096	12,627	1416,376	770,176
-27,082	12,581	1415,206	769,293
-26,067	12,585	1414,233	768,750
-25,052	12,568	1413,321	768,148
-24,038	12,549	1412,487	767,573
-23,023	12,551	1411,179	766,843
-22,009	12,518	1410,347	766,204
-20,994	12,538	1409,342	765,721
-19,979	12,525	1408,566	765,211
-18,965	12,502	1407,465	764,474
-17,950	12,508	1406,597	764,000
-16,936	12,475	1405,901	763,438
-15,921	12,446	1404,754	762,648
-14,906	12,485	1403,680	762,216
-13,892	12,467	1403,008	761,737
-12,877	12,453	1402,208	761,205
-11,863	12,471	1401,114	760,668
-10,848	12,432	1400,077	759,892
-9,833	12,396	1399,365	759,307
-8,819	12,389	1398,442	758,747
-7,804	12,342	1397,632	758,058
-6,790	12,402	1396,608	757,752
-5,775	12,413	1395,533	757,187
-4,760	12,435	1394,387	756,636
-3,746	12,331	1393,663	755,735
-2,731	12,370	1392,740	755,383
-1,717	12,358	1391,776	754,776
-0,702	12,315	1390,220	753,703
0,313	16,237	1305,929	726,079
1,327	32,563	699,280	426,270
2,342	50,475	122,115	81,473
3,356	2,107	16,698	8,495
4,371	9,397	3,362	1,792
5,386	-31,267	0,515	0,204
6,400	337,564	0,142	0,196
7,415	-74,926	-0,419	-0,105
8,429	131,505	-0,259	-0,235
9,444	-38,809	-0,237	-0,088
10,459	175,051	-0,283	-0,290
11,473	107,908	-0,320	-0,269
12,488	174,322	-0,171	-0,174
13,502	-14,826	-0,360	-0,163
14,517	68,133	-0,261	-0,188
15,531	196,569	-0,351	-0,378
16,546	133,988	-0,299	-0,273
17,561	-74,941	-0,447	-0,112
18,575	150,944	-0,155	-0,149
19,590	84,228	-0,244	-0,188
20,604	21,600	-0,350	-0,200
21,619	-11,778	-0,578	-0,267
22,634	282,101	-0,321	-0,407
23,648	81,982	-0,454	-0,347
24,663	139,681	-0,264	-0,245
25,677	112,031	-0,283	-0,241
26,692	87,301	-0,292	-0,227
27,707	-43,080	-0,352	-0,125
28,721	68,474	-0,452	-0,327
29,736	147,276	-0,329	-0,312
30,750	90,143	-0,341	-0,268
31,765	125,792	-0,407	-0,362
32,780	61,979	-0,383	-0,269
33,794	7,003	-0,384	-0,201
34,809	41,264	-0,369	-0,235
35,823	-85,624	-0,415	-0,090
36,838	60,221	-0,370	-0,257
37,853	100,681	-0,305	-0,250
38,867	183,332	-0,265	-0,276
39,882	36,011	-0,291	-0,180
40,896	-54,781	-0,374	-0,118
41,911	40,140	-0,445	-0,281
42,926	224,459	-0,322	-0,367
43,940	1,293	-0,405	-0,204
44,955	111,775	-0,354	-0,301
45,969	12,571	-0,394	-0,213
46,984	49,779	-0,302	-0,200
47,999	-72,483	-0,316	-0,082
49,013	177,752	-0,251	-0,258
50,028	236,390	-0,257	-0,300
51,042	-77,312	-0,428	-0,104
52,057	21,833	-0,401	-0,229
53,071	-7,418	-0,388	-0,184
54,086	-70,348	-0,432	-0,114
55,101	-27,734	-0,255	-0,104
56,115	-43,712	-0,376	-0,133
57,130	130,464	-0,322	-0,291
58,144	145,987	-0,314	-0,296
59,159	90,184	-0,453	-0,356
60,174	13,395	-0,339	-0,184
61,188	-7,119	-0,470	-0,223
62,203	167,951	-0,382	-0,382
63,217	32,970	-0,215	-0,130
64,232	40,420	-0,338	-0,213
65,247	78,166	-0,338	-0,253
66,261	214,594	-0,312	-0,348
67,276	150,394	-0,357	-0,341
68,290	53,885	-0,395	-0,266
69,305	382,458	-0,235	-0,340
70,320	-54,224	-0,287	-0,091
71,334	146,583	-0,339	-0,320
72,349	-29,328	-0,426	-0,171
73,363	21,993	-0,295	-0,169
74,378	69,107	-0,319	-0,230
75,393	59,681	-0,400	-0,277
76,407	14,785	-0,310	-0,170
77,422	-64,844	-0,356	-0,101
78,436	62,422	-0,116	-0,081
79,451	21,791	-0,295	-0,168
80,466	78,940	-0,239	-0,179
81,480	185,216	-0,278	-0,290
82,495	23,249	-0,367	-0,211
83,509	-122,840	-0,284	-0,032
84,524	46,262	-0,288	-0,187
85,539	-33,953	-0,240	-0,092
86,553	107,500	-0,263	-0,219
87,568	141,709	-0,230	-0,214
88,582	41,861	-0,279	-0,177
89,597	59,882	-0,324	-0,224
90,611	-54,521	-0,293	-0,092
91,626	120,447	-0,245	-0,213
92,641	148,203	-0,190	-0,180
93,655	240,623	-0,177	-0,207
94,670	9,233	-0,354	-0,187
95,684	257,766	-0,250	-0,302
96,699	206,140	-0,265	-0,289
97,714	-109,557	-0,214	-0,031
98,728	1,777	-0,279	-0,140
99,743	146,583	-0,281	-0,264
100,757	122,726	-0,258	-0,226
101,772	27,454	-0,342	-0,201
102,787	40,550	-0,306	-0,193
103,801	27,135	-0,315	-0,185
104,816	141,244	-0,258	-0,239
105,830	78,979	-0,361	-0,271
106,845	-28,354	-0,257	-0,103
107,860	0,558	-0,284	-0,142
108,874	-106,980	-0,279	-0,043
109,889	199,412	-0,356	-0,383
110,903	171,087	-0,187	-0,188
111,918	524,263	-0,162	-0,268
112,933	64,695	-0,265	-0,187
113,947	-70,396	-0,321	-0,085
114,962	271,157	-0,090	-0,111
115,976	-24,665	-0,444	-0,184
116,991	165,000	-0,169	-0,167
118,006	-61,979	-0,272	-0,079
119,020	314,321	-0,193	-0,255
120,035	61,422	-0,261	-0,181
121,049	-53,614	-0,222	-0,071
122,064	105,267	-0,204	-0,168
123,079	63,681	-0,200	-0,140
124,093	6,290	-0,347	-0,179
125,108	54,205	-0,233	-0,157
126,122	123,348	-0,267	-0,234
127,137	118,222	-0,178	-0,154
128,151	273,743	-0,150	-0,186
129,166	253,870	-0,219	-0,262
130,181	42,554	-0,350	-0,222
131,195	50,540	-0,182	-0,120
132,210	747,823	-0,179	-0,339
133,224	-59,056	-0,325	-0,097
134,239	53,880	-0,311	-0,208
135,254	76,866	-0,229	-0,170
136,268	542,395	-0,107	-0,178
137,283	186,825	-0,263	-0,274
138,297	108,751	-0,333	-0,278
139,312	506,276	-0,172	-0,280
140,327	3,315	-0,126	-0,064
141,341	86,511	-0,254	-0,195
142,356	335,523	-0,163	-0,221
143,370	-3,631	-0,397	-0,192
144,385	89,051	-0,230	-0,179
145,400	800,000	-0,118	-0,260
146,414	800,000	-0,161	-0,360
147,429	180,488	-0,198	-0,203
148,443	718,239	-0,121	-0,224
149,458	-187,719	-0,296	-0,003
150,473	16,988	-0,343	-0,189
151,487	299,245	-0,223	-0,287
152,502	32,039	-0,264	-0,158
153,516	146,088	-0,215	-0,201
154,531	43,822	-0,336	-0,214
155,546	302,004	-0,206	-0,266
156,560	35,563	-0,157	-0,096
157,575	356,337	-0,194	-0,270
158,589	-18,276	-0,211	-0,092
159,604	209,873	-0,165	-0,181
160,619	49,051	-0,236	-0,154
161,633	25,668	-0,335	-0,194
162,648	53,988	-0,212	-0,142
163,662	525,729	-0,107	-0,176
164,677	315,526	-0,173	-0,228
165,692	159,611	-0,234	-0,227
166,706	-150,721	-0,243	0,013
167,721	-67,054	-0,344	-0,094
168,735	355,445	-0,209	-0,291
169,750	800,000	-0,138	-0,274
170,764	800,000	-0,106	-0,304
171,779	146,686	-0,285	-0,267
172,794	44,098	-0,177	-0,113
173,808	209,794	-0,217	-0,237
174,823	-7,336	-0,362	-0,170
175,837	-3,951	-0,357	-0,172
176,852	86,953	-0,247	-0,190
177,867	-44,774	-0,228	-0,079
178,881	330,680	-0,197	-0,264
179,896	-94,839	-0,309	-0,058
180,910	289,102	-0,176	-0,223
181,925	-97,613	-0,242	-0,043
182,940	196,452	-0,283	-0,300
183,954	-42,562	-0,248	-0,087
184,969	559,469	-0,110	-0,186
185,983	-114,476	-0,215	-0,028
186,998	583,360	-0,158	-0,271
188,013	80,278	-0,220	-0,165
189,027	118,612	-0,174	-0,149
190,042	81,975	-0,258	-0,194
191,056	800,000	-0,048	-0,133
192,071	589,323	-0,146	-0,252
193,086	-4,249	-0,207	-0,099
194,100	239,081	-0,191	-0,221
195,115	94,393	-0,220	-0,174
196,129	800,000	-0,121	-0,244
197,144	189,209	-0,227	-0,236
198,159	800,000	-0,107	-0,222
199,173	800,000	-0,160	-0,325
200,188	24,032	-0,127	-0,073
201,202	132,941	-0,032	0,029
202,217	299,006	-0,148	-0,190
203,232	7,403	-0,208	-0,107
204,246	107,839	-0,247	-0,204
205,261	99,546	-0,161	-0,129
206,275	800,000	-0,069	-0,165
207,290	286,625	-0,128	-0,161
208,304	-1,053	-0,242	-0,118
209,319	38,515	-0,117	-0,072
210,334	73,099	-0,145	-0,105
211,348	515,570	-0,125	-0,203
212,363	-61,759	-0,221	-0,064
213,377	239,747	-0,213	-0,246
214,392	-200,000	-0,022	-0,205
215,407	13,373	-0,108	-0,058
216,421	800,000	-0,069	-0,179
217,436	-82,040	-0,170	-0,038
218,450	-32,513	-0,224	-0,086
219,465	-10,575	-0,310	-0,142
220,480	47,524	-0,222	-0,144
221,494	-66,690	-0,155	-0,042
222,509	152,292	-0,061	-0,058
223,523	52,213	-0,211	-0,139
224,538	115,296	-0,224	-0,190
225,553	214,509	-0,216	-0,238
226,567	400,581	-0,165	-0,241
227,582	163,104	-0,168	-0,164
228,596	359,421	-0,085	-0,118
229,611	365,687	-0,220	-0,308
230,626	209,900	-0,146	-0,159
231,640	199,424	-0,137	-0,146
232,655	91,695	-0,268	-0,209
233,669	108,782	-0,194	-0,161
234,684	45,637	-0,159	-0,102
235,699	174,476	-0,142	-0,142
236,713	-18,483	-0,238	-0,103
237,728	457,911	-0,124	-0,191
238,742	540,428	-0,132	-0,218
239,757	42,502	-0,099	-0,062
240,772	800,000	-0,161	-0,317
241,786	51,835	-0,179	-0,118
242,801	213,894	-0,157	-0,172
243,815	800,000	-0,046	-0,102
244,830	-7,625	-0,129	-0,060
245,844	37,201	-0,177	-0,108
246,859	-71,893	-0,237	0,061
247,874	-116,964	-0,283	-0,035
248,888	97,722	-0,243	-0,193
249,903	-35,339	-0,132	-0,050
250,917	-7,472	-0,159	-0,074
251,932	-32,862	-0,118	-0,045
252,947	207,960	-0,132	-0,143
253,961	140,394	-0,192	-0,175
254,976	37,895	-0,134	-0,082
255,990	245,121	-0,186	-0,216
257,005	-19,914	-0,146	-0,062
258,020	97,540	-0,175	-0,139
259,034	151,240	-0,108	-0,101
260,049	25,716	-0,132	-0,076
261,063	54,565	-0,259	-0,172
262,078	120,261	-0,249	-0,214
263,093	365,708	-0,175	-0,245
264,107	433,164	-0,146	-0,219
265,122	259,588	-0,057	-0,068
266,136	218,301	-0,113	-0,124
267,151	-87,366	-0,071	0,015
268,166	142,385	-0,189	-0,173
269,180	418,006	-0,119	-0,176
270,195	85,565	-0,272	-0,206
271,209	64,027	-0,145	-0,100
272,224	-23,858	-0,109	-0,045
273,239	184,865	-0,102	-0,105
274,253	15,642	-0,125	-0,068
275,268	-56,709	-0,168	-0,051
276,282	-135,993	-0,272	-0,022
277,297	800,000	-0,140	-0,295
278,312	800,000	-0,043	-0,110
279,326	800,000	-0,071	-0,181
280,341	208,785	-0,099	-0,107
281,355	800,000	-0,055	-0,157
282,370	510,000	-0,091	-0,147
283,384	-18,838	-0,234	-0,100
284,399	-1,442	-0,091	0,044
285,414	117,355	-0,212	-0,180
286,428	167,344	-0,194	-0,190
287,443	800,000	-0,059	-0,147
288,457	281,900	-0,155	-0,192
289,472	191,712	-0,125	-0,130
290,487	151,605	-0,286	-0,268
291,501	76,614	-0,169	-0,124
292,516	-70,745	-0,147	-0,038
293,530	100,659	-0,159	-0,127
294,545	113,857	-0,175	-0,146
295,560	800,000	-0,083	-0,184
296,574	800,000	-0,097	-0,243
297,589	316,748	-0,123	-0,160
298,603	182,514	-0,168	-0,170
299,618	-50,472	-0,255	-0,082
300,633	150,832	-0,079	-0,074
301,647	112,302	-0,144	-0,120
302,662	-37,000	-0,202	-0,074
303,676	67,702	-0,210	-0,147
304,691	-200,000	-0,046	-0,182
305,706	280,417	-0,147	-0,181
306,720	-143,964	-0,223	0,014
307,735	401,237	-0,050	-0,073
308,749	67,043	-0,195	-0,137
309,764	800,000	-0,044	-0,088
310,779	5,696	-0,174	-0,088
311,793	-33,956	-0,219	-0,082
312,808	111,191	-0,179	-0,148
313,822	142,092	-0,168	-0,153
314,837	-10,091	-0,144	0,065
315,852	-10,197	-0,156	-0,071
316,866	-200,000	-0,028	-0,241
317,881	-200,000	-0,041	-0,254
318,895	634,751	-0,088	-0,155
319,910	56,676	-0,138	-0,092
320,925	800,000	-0,064	-0,132
321,939	800,000	-0,060	-0,114
322,954	-65,614	-0,117	-0,032
323,968	429,658	-0,084	-0,126
324,983	559,432	-0,064	-0,106
325,997	-33,587	-0,164	-0,062
327,012	159,098	-0,168	-0,161
328,027	-8,903	-0,248	-0,114
329,041	-6,606	-0,146	0,068
330,056	-35,098	-0,172	0,064
331,070	-200,000	-0,039	-0,131
332,085	-130,313	-0,221	0,020
333,100	165,597	-0,135	-0,131
334,114	565,588	-0,152	-0,253
335,129	160,604	-0,126	-0,121
336,143	199,637	-0,069	-0,073
337,158	-200,000	0,018	-0,194
338,173	141,873	-0,083	-0,076
339,187	800,000	-0,051	-0,119
340,202	182,054	-0,167	-0,169
341,216	-14,608	-0,200	-0,088
342,231	230,661	-0,129	-0,145
343,246	135,786	-0,168	-0,150
344,260	-154,347	-0,146	-0,007
345,275	-117,628	-0,168	-0,021
346,289	800,000	-0,071	-0,152
347,304	106,468	-0,152	-0,123
348,319	319,898	-0,089	-0,116
349,333	67,383	-0,198	-0,138
350,348	314,302	-0,144	-0,186
351,362	-53,913	-0,124	-0,039
352,377	-110,746	-0,114	-0,016
353,392	-27,970	-0,136	0,054
354,406	-87,428	-0,102	0,021
355,421	208,011	1311,646	1405,740
356,435	160,044	1471,982	1406,245
