DTS Sentinel unit serial number:	SN410029Multiplexer serial number:	ORYXHardware model number:	OX2-SRSoftware version number:	ORYX F/W v4,00 Oryx Data Collector v3.7.2.0data status	okinstallation	B3 Nyhavnadifferential loss correction	single-endedforward channel	channel 1reverse channel	N/Adate	2023/12/01time	22:12:30forward acquisition time	300,00reverse acquisition time	0,00gamma	499,1914k internal	0,3196k external	0,3196temperature offset calibration	1,0000default loss term (dB/km)	0,3820temperature slope calibration	1,0000multiplexer offset coefficient	1,0000multiplexer slope coefficient	1,0000fibre end	0,00T internal ref (°C)	15,91T ext. ref 1 (°C)	0,85T ext. ref 2 (°C)	0,84length (m)	temperature (°C)	Stokes	anti-Stokes-744,400	-19,571	-0,336	-0,151
-743,385	-200,000	0,059	0,412
-742,371	340,912	-0,138	-0,197
-741,356	-200,000	0,056	0,352
-740,342	84,032	-0,247	-0,197
-739,327	-200,000	-0,059	0,374
-738,312	135,515	-0,225	-0,214
-737,298	-200,000	-0,022	0,299
-736,283	100,466	-0,210	-0,177
-735,269	-200,000	-0,039	0,305
-734,254	165,122	-0,222	-0,229
-733,239	298,892	-0,094	0,127
-732,225	336,679	-0,103	-0,146
-731,210	-200,000	-0,005	0,097
-730,196	264,232	0,021	-0,026
-729,181	-77,270	-0,115	-0,029
-728,167	800,000	0,048	0,133
-727,152	9,478	0,071	-0,039
-726,137	-99,836	-0,104	-0,019
-725,123	68,359	-0,055	-0,041
-724,108	63,286	-0,226	-0,165
-723,094	-41,529	-0,053	-0,020
-722,079	79,778	-0,212	-0,166
-721,064	34,243	-0,066	-0,042
-720,050	800,000	-0,039	-0,091
-719,035	-200,000	-0,086	0,000
-718,021	-39,894	-0,070	-0,027
-717,006	-150,676	-0,205	-0,011
-715,991	-200,000	-0,010	-0,038
-714,977	70,444	-0,057	-0,043
-713,962	-200,000	0,009	0,102
-712,948	-200,000	-0,004	-0,081
-711,933	-200,000	0,001	0,065
-710,918	-22,763	-0,170	0,075
-709,904	800,000	0,023	-0,048
-708,889	122,253	0,072	-0,065
-707,875	-200,000	-0,000	0,007
-706,860	-59,565	-0,073	-0,023
-705,845	800,000	0,020	-0,048
-704,831	52,023	0,074	0,051
-703,816	54,833	-0,185	0,130
-702,802	-200,000	-0,038	-0,128
-701,787	800,000	-0,006	-0,013
-700,772	420,129	-0,088	-0,138
-699,758	800,000	-0,050	-0,106
-698,743	-121,948	0,163	-0,019
-697,729	-58,568	0,038	-0,012
-696,714	63,733	-0,085	0,062
-695,699	143,830	0,116	-0,113
-694,685	64,439	0,118	-0,086
-693,670	800,000	0,048	-0,154
-692,656	800,000	-0,017	0,045
-691,641	-200,000	-0,008	-0,060
-690,627	-22,633	-0,126	0,055
-689,612	454,634	-0,083	0,135
-688,597	735,944	0,082	-0,160
-687,583	-200,000	0,017	-0,113
-686,568	632,540	-0,044	0,081
-685,554	-7,152	-0,091	-0,045
-684,539	-200,000	0,011	-0,052
-683,524	-8,695	0,016	0,008
-682,510	208,172	0,082	0,093
-681,495	21,194	0,077	0,045
-680,481	362,226	-0,101	-0,148
-679,466	-200,000	-0,020	-0,139
-678,451	69,109	-0,108	0,081
-677,437	516,192	-0,078	-0,133
-676,422	-90,921	0,111	-0,023
-675,408	18,480	-0,036	-0,021
-674,393	436,284	-0,054	-0,086
-673,378	-138,059	-0,091	-0,007
-672,364	-200,000	-0,031	-0,174
-671,349	119,039	-0,062	-0,056
-670,335	306,129	0,029	-0,040
-669,320	533,956	-0,101	0,175
-668,305	339,416	-0,115	0,163
-667,291	-200,000	0,004	0,083
-666,276	221,806	-0,092	-0,107
-665,262	-200,000	-0,004	0,056
-664,247	-200,000	-0,024	-0,100
-663,232	-105,877	-0,043	0,007
-662,218	24,433	0,088	0,053
-661,203	-146,849	0,038	-0,002
-660,189	-146,673	-0,080	-0,005
-659,174	430,860	-0,062	-0,098
-658,159	18,993	-0,066	0,038
-657,145	110,942	-0,090	-0,079
-656,130	-120,770	-0,081	-0,010
-655,116	-200,000	0,011	0,044
-654,101	800,000	0,032	-0,071
-653,086	-200,000	-0,001	0,111
-652,072	125,500	0,101	-0,093
-651,057	193,917	0,024	-0,026
-650,043	305,284	0,033	0,045
-649,028	28,314	0,064	-0,039
-648,014	-200,000	0,023	0,093
-646,999	-102,365	0,093	0,016
-645,984	622,306	-0,007	-0,013
-644,970	-155,592	-0,037	-0,002
-643,955	-95,770	-0,148	-0,028
-642,941	41,958	-0,081	-0,053
-641,926	-115,687	-0,101	0,014
-640,911	-144,124	-0,061	-0,004
-639,897	-42,702	-0,126	-0,046
-638,882	293,849	0,067	0,089
-637,868	-95,544	-0,149	0,029
-636,853	380,427	0,016	0,024
-635,838	91,716	-0,039	-0,032
-634,824	-59,926	-0,079	0,024
-633,809	81,272	0,045	0,035
-632,795	89,177	-0,036	0,029
-631,780	-135,583	0,059	-0,005
-630,765	-200,000	-0,007	0,098
-629,751	-100,215	-0,133	-0,024
-628,736	-200,000	-0,007	-0,043
-627,722	-136,320	0,168	0,014
-626,707	-126,272	0,141	-0,015
-625,692	125,484	0,069	-0,063
-624,678	75,273	-0,046	0,035
-623,663	90,670	0,046	0,037
-622,649	-159,801	-0,071	-0,003
-621,634	-53,296	-0,074	-0,025
-620,619	-200,000	0,000	0,017
-619,605	146,837	-0,053	-0,052
-618,590	26,798	-0,069	0,042
-617,576	4,195	0,180	-0,095
-616,561	-37,871	-0,066	-0,025
-615,546	-200,000	-0,011	-0,131
-614,532	-200,000	-0,027	-0,088
-613,517	-200,000	-0,013	-0,075
-612,503	-200,000	-0,004	-0,141
-611,488	800,000	-0,035	0,102
-610,474	-200,000	0,011	-0,087
-609,459	-67,013	-0,162	0,046
-608,444	-137,629	-0,107	-0,009
-607,430	592,381	-0,047	0,085
-606,415	-171,942	-0,118	0,003
-605,401	167,275	-0,050	-0,051
-604,386	-57,881	-0,053	0,017
-603,371	-102,773	0,039	-0,007
-602,357	-200,000	-0,005	0,042
-601,342	-13,782	0,054	0,025
-600,328	-200,000	-0,006	-0,110
-599,313	-79,888	-0,044	0,011
-598,298	17,927	0,124	-0,071
-597,284	-200,000	0,031	0,168
-596,269	109,007	-0,104	-0,090
-595,255	159,047	-0,136	0,137
-594,240	-161,544	0,125	0,005
-593,225	101,865	-0,085	0,071
-592,211	59,176	-0,064	0,045
-591,196	-29,188	-0,014	0,006
-590,182	165,432	0,096	0,098
-589,167	77,250	0,083	0,064
-588,152	799,145	0,078	0,157
-587,138	175,549	-0,097	-0,102
-586,123	19,836	0,068	-0,039
-585,109	172,350	-0,071	-0,074
-584,094	-200,000	0,032	-0,182
-583,079	-200,000	0,030	0,161
-582,065	217,561	0,046	-0,053
-581,050	-72,423	-0,043	-0,011
-580,036	200,407	-0,064	-0,071
-579,021	-200,000	-0,007	-0,208
-578,006	138,796	-0,099	-0,094
-576,992	800,000	-0,009	-0,023
-575,977	84,429	0,161	0,128
-574,963	-153,180	0,101	-0,005
-573,948	-200,000	-0,025	0,112
-572,934	800,000	0,014	0,042
-571,919	-77,369	-0,061	0,015
-570,904	325,957	-0,103	-0,143
-569,890	-78,445	-0,033	-0,008
-568,875	-24,976	0,148	0,063
-567,861	-200,000	-0,040	0,132
-566,846	70,413	0,056	0,042
-565,831	188,142	0,096	0,104
-564,817	-117,326	-0,110	0,014
-563,802	800,000	-0,042	0,098
-562,788	29,906	-0,107	0,066
-561,773	346,529	0,028	-0,040
-560,758	-60,206	0,136	0,042
-559,744	203,978	0,026	-0,029
-558,729	193,175	0,063	0,069
-557,715	49,349	-0,166	-0,113
-556,700	-10,156	-0,097	-0,046
-555,685	147,480	-0,121	-0,118
-554,671	-60,935	-0,067	0,020
-553,656	-200,000	0,024	0,161
-552,642	-200,000	-0,041	-0,150
-551,627	-7,957	-0,084	-0,041
-550,612	800,000	-0,117	-0,243
-549,598	774,269	-0,019	-0,037
-548,583	-200,000	-0,007	0,124
-547,569	800,000	0,024	-0,049
-546,554	-200,000	0,170	-0,001
-545,539	303,040	-0,101	0,136
-544,525	800,000	-0,042	0,100
-543,510	-200,000	0,019	0,100
-542,496	195,906	-0,121	-0,133
-541,481	800,000	-0,033	-0,097
-540,466	800,000	-0,026	-0,059
-539,452	-200,000	0,006	0,121
-538,437	96,659	0,181	0,149
-537,423	-200,000	0,005	0,027
-536,408	-200,000	0,001	-0,104
-535,393	175,378	-0,128	-0,135
-534,379	-200,000	0,016	-0,070
-533,364	-11,237	0,114	0,054
-532,350	800,000	-0,061	-0,139
-531,335	343,655	0,030	-0,043
-530,321	463,761	0,009	-0,015
-529,306	169,150	-0,083	-0,086
-528,291	800,000	0,070	-0,172
-527,277	800,000	-0,021	-0,059
-526,262	-200,000	-0,028	-0,154
-525,248	800,000	-0,048	-0,123
-524,233	-63,669	-0,018	-0,005
-523,218	-15,702	0,060	-0,027
-522,204	-200,000	-0,015	-0,075
-521,189	363,605	-0,014	-0,021
-520,175	599,109	0,016	-0,030
-519,160	-200,000	-0,008	-0,173
-518,145	-200,000	0,001	0,030
-517,131	172,282	0,037	0,039
-516,116	-200,000	0,031	0,104
-515,102	80,327	-0,112	0,087
-514,087	51,037	0,102	0,070
-513,072	800,000	-0,030	-0,075
-512,058	-117,697	-0,107	-0,014
-511,043	-200,000	0,009	0,167
-510,029	88,813	0,034	0,028
-509,014	800,000	0,013	-0,035
-507,999	-200,000	-0,001	0,028
-506,985	-117,736	-0,070	0,009
-505,970	-200,000	0,009	0,032
-504,956	-200,000	-0,001	-0,044
-503,941	263,026	0,048	0,061
-502,926	114,662	0,081	0,071
-501,912	-107,791	0,044	-0,007
-500,897	-146,448	0,104	-0,006
-499,883	-74,253	-0,033	-0,008
-498,868	-200,000	0,036	-0,142
-497,853	61,187	-0,090	-0,064
-496,839	-200,000	0,012	0,141
-495,824	296,554	-0,008	0,010
-494,810	-200,000	0,004	0,049
-493,795	451,281	-0,034	-0,054
-492,781	-140,959	-0,035	-0,003
-491,766	800,000	-0,024	-0,048
-490,751	100,067	-0,068	-0,056
-489,737	210,757	0,146	0,165
-488,722	-129,520	-0,063	-0,006
-487,708	800,000	-0,058	0,165
-486,693	253,680	-0,070	0,086
-485,678	-146,701	-0,172	-0,011
-484,664	-163,309	-0,032	-0,001
-483,649	-200,000	-0,018	-0,076
-482,635	85,582	0,083	-0,066
-481,620	698,601	-0,008	-0,015
-480,605	-40,114	-0,061	0,023
-479,591	4,611	0,139	0,074
-478,576	-22,505	-0,097	-0,042
-477,562	42,869	-0,133	0,087
-476,547	-102,153	-0,092	0,016
-475,532	-35,723	-0,027	0,011
-474,518	-15,598	0,031	0,014
-473,503	-200,000	0,026	0,117
-472,489	-200,000	0,024	0,104
-471,474	57,662	-0,037	-0,026
-470,459	160,906	0,009	0,009
-469,445	-200,000	-0,014	-0,063
-468,430	216,071	-0,065	-0,075
-467,416	61,557	0,065	0,046
-466,401	-153,769	0,080	-0,004
-465,386	-49,481	-0,075	0,026
-464,372	243,943	-0,035	0,042
-463,357	800,000	0,040	0,114
-462,343	-200,000	-0,023	-0,130
-461,328	-200,000	0,031	-0,105
-460,313	-36,599	0,010	-0,004
-459,299	34,069	0,083	0,052
-458,284	-200,000	0,038	0,131
-457,270	5,256	0,045	0,024
-456,255	310,504	0,047	-0,064
-455,241	-116,452	0,113	0,015
-454,226	-145,661	-0,155	0,010
-453,211	-200,000	-0,013	-0,067
-452,197	-200,000	0,003	-0,042
-451,182	-16,880	-0,023	-0,010
-450,168	-200,000	-0,012	0,198
-449,153	483,038	0,044	-0,072
-448,138	-200,000	-0,021	-0,108
-447,124	-200,000	0,018	-0,108
-446,109	-199,167	-0,026	0,000
-445,095	208,109	0,049	0,055
-444,080	413,986	0,026	-0,041
-443,065	800,000	0,063	-0,158
-442,051	128,095	-0,011	-0,010
-441,036	83,509	0,121	0,095
-440,022	-66,261	0,084	-0,024
-439,007	-25,896	0,055	0,023
-437,992	-78,347	0,104	-0,025
-436,978	-82,606	0,072	-0,017
-435,963	479,618	-0,022	0,037
-434,949	800,000	-0,033	0,095
-433,934	334,272	-0,050	0,070
-432,919	-11,545	-0,217	0,103
-431,905	-80,819	0,057	0,013
-430,890	-22,239	-0,052	-0,023
-429,876	-15,676	0,048	0,022
-428,861	800,000	0,005	-0,011
-427,846	-200,000	-0,004	-0,027
-426,832	-15,499	-0,054	-0,025
-425,817	193,683	-0,075	-0,081
-424,803	-200,000	0,020	-0,178
-423,788	630,071	-0,019	-0,036
-422,773	316,137	0,026	0,035
-421,759	209,511	0,027	0,031
-420,744	51,736	0,028	-0,019
-419,730	-200,000	0,017	0,120
-418,715	150,957	-0,099	0,097
-417,701	-200,000	-0,045	-0,183
-416,686	307,159	0,094	-0,127
-415,671	-59,044	-0,143	-0,044
-414,657	-89,325	-0,087	0,018
-413,642	-64,904	-0,031	-0,009
-412,628	251,637	0,095	0,117
-411,613	165,428	-0,103	-0,105
-410,598	107,640	-0,039	-0,033
-409,584	675,938	0,065	-0,121
-408,569	-200,000	0,023	-0,105
-407,555	-4,702	0,036	-0,018
-406,540	120,184	0,100	0,089
-405,525	721,411	-0,036	-0,069
-404,511	-120,448	-0,093	0,011
-403,496	451,188	-0,046	-0,074
-402,482	-35,303	-0,167	-0,065
-401,467	800,000	0,067	0,155
-400,452	800,000	0,062	0,178
-399,438	204,081	-0,063	-0,071
-398,423	-39,232	-0,160	0,060
-397,409	-69,373	-0,114	0,031
-396,394	58,335	0,102	0,072
-395,379	-105,155	-0,070	-0,011
-394,365	13,565	0,100	0,056
-393,350	-200,000	-0,018	-0,074
-392,336	-32,000	0,090	0,036
-391,321	207,439	-0,020	-0,022
-390,306	291,513	0,053	0,069
-389,292	224,617	-0,095	-0,111
-388,277	-200,000	0,014	-0,092
-387,263	499,924	-0,040	0,067
-386,248	-200,000	0,003	0,025
-385,233	-66,364	0,094	0,027
-384,219	-200,000	0,026	-0,106
-383,204	134,991	0,035	-0,033
-382,190	800,000	-0,009	-0,019
-381,175	214,273	-0,057	0,065
-380,160	59,074	-0,068	-0,048
-379,146	130,165	0,112	0,103
-378,131	800,000	-0,058	0,128
-377,117	97,096	0,036	-0,030
-376,102	-200,000	-0,036	-0,123
-375,088	129,377	-0,053	0,048
-374,073	-200,000	-0,010	-0,099
-373,058	37,353	-0,093	-0,059
-372,044	233,749	0,038	0,045
-371,029	-2,499	0,101	-0,051
-370,015	-200,000	-0,009	0,054
-369,000	-117,836	-0,156	-0,020
-367,985	-200,000	-0,001	0,034
-366,971	800,000	0,011	-0,032
-365,956	9,033	0,018	-0,010
-364,942	-90,577	0,059	-0,012
-363,927	-200,000	-0,002	-0,010
-362,912	-200,000	0,015	-0,157
-361,898	-200,000	-0,001	-0,076
-360,883	397,003	-0,163	-0,245
-359,869	-39,297	0,122	-0,046
-358,854	-178,008	0,019	-0,000
-357,839	800,000	-0,061	-0,148
-356,825	-200,000	-0,019	0,140
-355,810	153,301	0,036	0,036
-354,796	317,559	-0,048	-0,066
-353,781	49,731	-0,070	0,047
-352,766	-194,449	-0,021	0,000
-351,752	-200,000	-0,001	-0,092
-350,737	-149,550	0,081	0,005
-349,723	-39,490	0,065	0,024
-348,708	35,849	-0,045	0,029
-347,693	-34,917	0,072	0,028
-346,679	39,521	-0,097	0,062
-345,664	479,726	-0,079	-0,128
-344,650	-200,000	0,004	0,053
-343,635	-77,394	0,164	0,041
-342,620	-200,000	0,001	0,061
-341,606	88,850	0,090	0,072
-340,591	-67,018	0,102	-0,029
-339,577	-53,189	0,060	0,020
-338,562	399,778	0,019	0,028
-337,548	-42,826	0,017	0,006
-336,533	-109,610	0,105	-0,016
-335,518	169,240	-0,100	0,103
-334,504	800,000	0,030	0,087
-333,489	-200,000	0,005	0,088
-332,475	31,030	-0,076	-0,047
-331,460	382,861	-0,044	-0,065
-330,445	146,434	-0,087	-0,083
-329,431	800,000	-0,052	0,108
-328,416	-122,871	0,029	-0,003
-327,402	-200,000	0,007	-0,076
-326,387	-20,354	-0,071	0,031
-325,372	387,327	-0,019	0,029
-324,358	-200,000	-0,006	-0,070
-323,343	800,000	0,003	-0,007
-322,329	389,623	0,059	0,089
-321,314	-98,494	0,126	0,023
-320,299	-145,651	0,062	0,004
-319,285	215,804	0,057	0,065
-318,270	-146,890	-0,103	0,006
-317,256	-108,741	-0,050	-0,008
-316,241	-200,000	0,009	-0,102
-315,226	-73,926	-0,089	-0,023
-314,212	248,933	0,060	0,073
-313,197	128,455	0,041	0,037
-312,183	127,061	0,090	-0,082
-311,168	-200,000	0,029	-0,136
-310,153	256,972	-0,019	-0,024
-309,139	377,558	-0,029	0,042
-308,124	-200,000	0,020	-0,082
-307,110	-93,715	-0,134	0,026
-306,095	-200,000	0,023	0,116
-305,080	17,409	-0,054	-0,031
-304,066	-65,808	-0,126	-0,036
-303,051	381,233	0,040	-0,059
-302,037	-59,944	-0,059	0,018
-301,022	-133,386	0,118	0,011
-300,008	110,503	0,141	0,121
-298,993	243,954	0,094	0,114
-297,978	800,000	0,053	0,132
-296,964	-10,851	-0,098	0,046
-295,949	-15,876	0,046	0,021
-294,935	-200,000	0,020	0,073
-293,920	-38,680	0,092	0,035
-292,905	132,451	0,071	0,066
-291,891	-200,000	-0,017	0,117
-290,876	226,251	0,101	-0,118
-289,862	-200,000	0,012	0,149
-288,847	493,004	0,054	-0,089
-287,832	242,273	0,026	-0,031
-286,818	800,000	0,048	0,115
-285,803	-67,527	0,098	0,027
-284,789	800,000	0,022	0,061
-283,774	-200,000	-0,012	0,138
-282,759	295,974	-0,021	-0,028
-281,745	444,622	-0,023	0,036
-280,730	-200,000	-0,074	-0,237
-279,716	-168,219	0,163	-0,004
-278,701	44,315	0,107	-0,070
-277,686	-66,545	0,121	-0,034
-276,672	-200,000	0,002	-0,090
-275,657	-121,756	0,058	-0,007
-274,643	189,352	-0,029	0,031
-273,628	271,482	0,047	-0,059
-272,613	-200,000	-0,040	-0,126
-271,599	-108,888	0,142	-0,021
-270,584	800,000	0,052	0,148
-269,570	-68,067	0,065	-0,018
-268,555	1,490	-0,112	-0,058
-267,540	-86,476	0,056	-0,012
-266,526	104,168	-0,103	-0,087
-265,511	-176,460	0,031	0,001
-264,497	-200,000	-0,027	0,130
-263,482	262,680	0,029	0,036
-262,467	800,000	-0,028	0,057
-261,453	728,325	-0,045	-0,085
-260,438	-4,375	-0,090	0,044
-259,424	-114,253	0,036	-0,005
-258,409	-43,815	-0,150	-0,054
-257,395	174,795	0,068	-0,071
-256,380	504,251	0,027	0,045
-255,365	-200,000	0,001	0,014
-254,351	800,000	-0,016	0,033
-253,336	-200,000	-0,014	0,144
-252,322	161,026	0,068	-0,068
-251,307	-200,000	0,013	-0,049
-250,292	61,064	-0,101	0,072
-249,278	-200,000	0,026	-0,123
-248,263	-80,707	0,135	-0,032
-247,249	101,525	-0,039	-0,032
-246,234	351,374	0,005	-0,008
-245,219	-200,000	-0,004	-0,068
-244,205	-200,000	-0,004	-0,022
-243,190	-9,094	0,054	-0,026
-242,176	-200,000	0,003	0,020
-241,161	-72,462	0,129	0,034
-240,146	70,752	0,049	-0,036
-239,132	800,000	0,041	-0,113
-238,117	-200,000	0,023	-0,218
-237,103	308,220	0,042	0,056
-236,088	-200,000	-0,003	0,053
-235,073	-171,381	0,172	0,004
-234,059	136,222	0,067	0,063
-233,044	524,765	0,044	-0,074
-232,030	-13,502	0,109	-0,050
-231,015	-120,198	0,059	-0,007
-230,000	-200,000	0,022	-0,119
-228,986	14,069	-0,046	0,026
-227,971	-200,000	0,020	0,090
-226,957	800,000	0,039	0,079
-225,942	616,638	-0,063	0,114
-224,927	-28,411	0,090	0,037
-223,913	153,184	0,054	-0,053
-222,898	558,403	0,023	-0,040
-221,884	-21,892	-0,027	-0,012
-220,869	-90,886	0,029	0,006
-219,855	-135,780	0,075	-0,006
-218,840	-200,000	0,003	-0,054
-217,825	225,684	0,052	0,060
-216,811	-200,000	-0,000	0,176
-215,796	-69,936	-0,125	-0,034
-214,782	-58,572	0,108	0,033
-213,767	-200,000	0,012	0,159
-212,752	-152,507	-0,047	-0,002
-211,738	-0,407	0,065	-0,033
-210,723	-200,000	0,070	-0,248
-209,709	17,837	0,025	-0,014
-208,694	422,963	-0,024	0,037
-207,679	21,240	0,082	-0,047
-206,665	800,000	0,108	0,242
-205,650	-171,735	0,100	0,002
-204,636	-200,000	0,061	0,220
-203,621	800,000	0,024	0,059
-202,606	-19,408	-0,038	-0,017
-201,592	-200,000	-0,021	-0,110
-200,577	-200,000	0,004	-0,143
-199,563	-59,246	0,032	-0,010
-198,548	321,496	0,071	0,096
-197,533	-200,000	0,046	0,198
-196,519	-200,000	-0,019	0,112
-195,504	489,267	-0,032	0,052
-194,490	-200,000	-0,053	-0,213
-193,475	-200,000	0,035	0,121
-192,460	145,770	0,092	0,088
-191,446	800,000	-0,047	-0,141
-190,431	41,303	-0,076	0,049
-189,417	800,000	-0,009	0,022
-188,402	-200,000	0,036	0,119
-187,387	22,530	-0,160	-0,093
-186,373	-40,705	-0,087	-0,032
-185,358	-91,605	-0,082	0,016
-184,344	800,000	0,036	0,095
-183,329	182,920	0,067	0,071
-182,315	-109,196	-0,038	0,006
-181,300	-72,319	-0,011	-0,003
-180,285	-92,516	-0,054	0,011
-179,271	105,563	-0,067	0,057
-178,256	-200,000	-0,025	-0,136
-177,242	336,907	0,051	-0,071
-176,227	-189,556	0,069	0,001
-175,212	-200,000	0,002	0,083
-174,198	-200,000	-0,014	0,094
-173,183	81,594	-0,052	0,040
-172,169	-102,934	-0,046	0,008
-171,154	29,870	-0,065	0,040
-170,139	414,026	-0,012	0,018
-169,125	-32,512	0,043	-0,017
-168,110	-200,000	-0,001	0,087
-167,096	-104,017	0,173	0,028
-166,081	-200,000	0,008	-0,048
-165,066	96,518	-0,039	0,032
-164,052	78,987	-0,167	-0,127
-163,037	373,280	0,028	0,041
-162,023	8,258	-0,042	0,022
-161,008	-117,737	0,078	-0,010
-159,993	259,272	-0,117	0,144
-158,979	296,747	-0,081	-0,106
-157,964	308,427	-0,052	-0,069
-156,950	-113,130	-0,066	-0,009
-155,935	-116,817	0,049	-0,006
-154,920	749,006	0,052	-0,101
-153,906	658,932	0,076	0,140
-152,891	800,000	-0,026	0,051
-151,877	-200,000	-0,011	-0,109
-150,862	-200,000	-0,032	0,104
-149,847	177,112	0,022	-0,022
-148,833	154,157	0,035	-0,034
-147,818	110,955	0,045	0,038
-146,804	162,133	0,025	-0,025
-145,789	3,239	0,071	-0,037
-144,775	-2,775	-0,042	0,021
-143,760	595,115	-0,060	-0,106
-142,745	60,957	-0,053	0,037
-141,731	-17,046	-0,029	-0,013
-140,716	-200,000	0,002	0,202
-139,702	-196,337	0,089	-0,000
-138,687	731,488	0,022	0,042
-137,672	156,759	-0,102	-0,101
-136,658	-200,000	-0,037	-0,130
-135,643	62,092	-0,098	0,070
-134,629	-200,000	0,011	-0,070
-133,614	-35,714	0,010	0,004
-132,599	-21,501	-0,084	0,036
-131,585	-62,228	-0,074	-0,022
-130,570	-175,569	-0,042	0,001
-129,556	246,581	-0,045	0,054
-128,541	-200,000	-0,013	-0,090
-127,526	-200,000	-0,016	-0,198
-126,512	-200,000	0,031	0,117
-125,497	800,000	-0,010	-0,030
-124,483	800,000	-0,069	0,205
-123,468	-19,323	0,118	-0,052
-122,453	-104,790	0,135	-0,022
-121,439	722,854	-0,030	-0,057
-120,424	-11,379	0,155	-0,072
-119,410	800,000	-0,025	0,074
-118,395	-200,000	0,036	0,116
-117,380	-12,608	-0,081	0,038
-116,366	-95,994	-0,177	-0,033
-115,351	606,967	0,024	-0,042
-114,337	800,000	0,045	-0,110
-113,322	19,777	0,080	-0,046
-112,307	-84,993	0,011	-0,002
-111,293	-200,000	0,018	0,090
-110,278	559,801	-0,028	-0,049
-109,264	800,000	-0,056	-0,114
-108,249	335,495	-0,092	-0,127
-107,234	45,107	0,043	0,028
-106,220	-132,412	-0,156	-0,014
-105,205	-200,000	0,001	-0,017
-104,191	97,277	0,097	0,079
-103,176	-107,412	-0,077	0,012
-102,162	-30,068	-0,063	0,025
-101,147	156,589	-0,021	-0,021
-100,132	686,893	-0,026	-0,048
-99,118	-1,505	-0,125	-0,063
-98,103	-200,000	0,002	0,034
-97,089	249,872	0,074	0,089
-96,074	-139,791	0,159	0,012
-95,059	-97,965	0,120	-0,022
-94,045	460,870	-0,053	0,084
-93,030	21,289	-0,085	-0,049
-92,016	-107,145	-0,030	-0,005
-91,001	-178,385	-0,054	0,001
-89,986	27,248	-0,145	0,086
-88,972	80,544	0,062	-0,048
-87,957	-200,000	0,002	-0,064
-86,943	-154,443	0,094	-0,004
-85,928	704,969	0,015	-0,028
-84,913	-117,146	-0,144	-0,018
-83,899	29,763	0,034	-0,021
-82,884	-18,842	0,133	0,059
-81,870	168,315	0,103	0,105
-80,855	-200,000	-0,030	0,202
-79,840	800,000	-0,037	0,085
-78,826	100,825	0,015	-0,013
-77,811	-97,339	-0,111	0,020
-76,797	-200,000	0,005	-0,081
-75,782	755,102	-0,023	-0,044
-74,767	239,042	0,091	0,108
-73,753	800,000	-0,047	0,109
-72,738	29,607	-0,027	0,016
-71,724	301,085	0,037	-0,049
-70,709	-200,000	-0,026	-0,118
-69,694	0,718	-0,068	0,034
-68,680	-129,600	0,118	-0,011
-67,665	-200,000	-0,012	0,071
-66,651	241,162	-0,048	0,057
-65,636	-105,487	-0,131	0,021
-64,622	51,572	-0,013	0,009
-63,607	-200,000	0,031	-0,119
-62,592	284,918	-0,086	-0,111
-61,578	-126,440	0,040	-0,004
-60,563	-185,530	0,153	-0,002
-59,549	800,000	-0,054	0,163
-58,534	-82,021	-1,410	-0,324
-57,519	327,417	-1,614	-2,201
-56,505	-200,000	-0,512	-4,433
-55,490	131,994	0,883	0,806
-54,476	800,000	4,836	11,442
-53,461	-200,000	17,851	282,537
-52,446	800,000	720,466	2224,814
-51,432	562,269	1634,775	2815,525
-50,417	80,935	1658,313	1267,610
-49,403	23,750	1532,577	892,887
-48,388	17,714	1456,121	819,220
-47,373	18,214	1445,597	815,666
-46,359	17,847	1436,197	808,579
-45,344	16,072	1431,360	797,385
-44,330	15,980	1429,679	795,983
-43,315	15,978	1427,934	794,971
-42,300	15,969	1426,323	793,999
-41,286	16,034	1425,019	793,549
-40,271	16,005	1423,539	792,556
-39,257	15,973	1422,537	791,812
-38,242	16,038	1421,183	791,334
-37,227	16,049	1419,761	790,566
-36,213	16,014	1418,521	789,677
-35,198	16,007	1417,410	788,995
-34,184	16,054	1416,596	788,734
-33,169	15,954	1415,177	787,442
-32,154	15,963	1414,492	787,069
-31,140	16,020	1412,825	786,380
-30,125	16,069	1411,498	785,842
-29,111	16,047	1410,550	785,176
-28,096	15,992	1409,698	784,416
-27,082	15,957	1408,520	783,566
-26,067	15,942	1407,222	782,740
-25,052	15,980	1406,255	782,350
-24,038	15,967	1405,380	781,771
-23,023	15,940	1404,114	780,909
-22,009	15,904	1403,302	780,260
-20,994	15,899	1402,226	779,609
-19,979	15,895	1401,373	779,082
-18,965	15,877	1400,366	778,406
-17,950	15,850	1399,471	777,754
-16,936	15,866	1398,637	777,334
-15,921	15,874	1397,196	776,538
-14,906	15,847	1396,215	775,837
-13,892	15,854	1395,438	775,408
-12,877	15,870	1394,315	774,826
-11,863	15,907	1393,459	774,492
-10,848	15,828	1392,746	773,701
-9,833	15,793	1391,669	772,910
-8,819	15,723	1390,956	772,159
-7,804	15,704	1389,973	771,497
-6,790	15,735	1388,741	770,925
-5,775	15,775	1387,675	770,484
-4,760	15,783	1386,943	770,083
-3,746	15,778	1386,053	769,539
-2,731	15,741	1385,452	769,005
-1,717	15,731	1384,145	768,200
-0,702	15,742	1382,349	767,223
0,313	19,535	1303,052	740,708
1,327	35,804	706,138	439,078
2,342	54,573	125,160	85,363
3,356	3,237	16,676	8,570
4,371	28,451	2,980	1,781
5,386	-38,367	0,494	0,184
6,400	-45,590	-0,062	0,022
7,415	2,693	-0,326	-0,167
8,429	-7,444	-0,324	-0,155
9,444	25,871	-0,408	-0,240
10,459	13,626	-0,350	-0,192
11,473	64,975	-0,234	-0,167
12,488	607,126	-0,136	-0,241
13,502	26,580	-0,311	-0,184
14,517	118,865	-0,284	-0,248
15,531	79,385	-0,241	-0,182
16,546	69,749	-0,411	-0,300
17,561	15,762	-0,268	-0,149
18,575	-51,662	-0,175	-0,058
19,590	12,271	-0,344	-0,187
20,604	36,417	-0,276	-0,172
21,619	110,671	-0,406	-0,345
22,634	63,403	-0,429	-0,304
23,648	-31,344	-0,360	-0,143
24,663	38,555	-0,329	-0,207
25,677	-43,320	-0,466	-0,166
26,692	127,554	-0,279	-0,251
27,707	292,029	-0,259	-0,335
28,721	161,338	-0,305	-0,302
29,736	91,339	-0,424	-0,337
30,750	227,104	-0,276	-0,318
31,765	256,115	-0,327	-0,397
32,780	108,520	-0,334	-0,282
33,794	379,452	-0,235	-0,342
34,809	74,880	-0,379	-0,282
35,823	105,115	-0,300	-0,250
36,838	29,078	-0,396	-0,237
37,853	214,137	-0,319	-0,358
38,867	14,056	-0,475	-0,261
39,882	84,429	-0,392	-0,303
40,896	84,969	-0,353	-0,273
41,911	38,541	-0,262	-0,165
42,926	73,491	-0,366	-0,270
43,940	134,908	-0,288	-0,264
44,955	35,181	-0,312	-0,192
45,969	73,394	-0,302	-0,223
46,984	108,556	-0,384	-0,323
47,999	-14,393	-0,355	-0,161
49,013	-27,800	-0,407	-0,166
50,028	87,958	-0,364	-0,284
51,042	131,813	-0,369	-0,335
52,057	-4,210	-0,392	-0,191
53,071	271,444	-0,266	-0,332
54,086	147,499	-0,327	-0,311
55,101	251,036	-0,261	-0,313
56,115	-21,016	-0,412	-0,177
57,130	244,092	-0,189	-0,224
58,144	48,303	-0,429	-0,283
59,159	52,584	-0,445	-0,299
60,174	122,033	-0,371	-0,327
61,188	14,480	-0,345	-0,189
62,203	61,965	-0,272	-0,191
63,217	163,243	-0,221	-0,219
64,232	27,701	-0,274	-0,162
65,247	-40,521	-0,279	-0,102
66,261	77,626	-0,434	-0,325
67,276	77,874	-0,417	-0,313
68,290	81,591	-0,332	-0,252
69,305	58,439	-0,331	-0,228
70,320	531,124	-0,205	-0,343
71,334	-36,351	-0,433	-0,163
72,349	7,055	-0,325	-0,170
73,363	-13,234	-0,406	-0,185
74,378	221,362	-0,296	-0,335
75,393	-30,888	-0,206	-0,082
76,407	-85,288	-0,302	-0,066
77,422	9,504	-0,270	-0,144
78,436	334,153	-0,109	-0,148
79,451	75,707	-0,296	-0,220
80,466	-70,476	-0,483	-0,128
81,480	174,777	-0,297	-0,302
82,495	112,505	-0,278	-0,237
83,509	109,871	-0,248	-0,209
84,524	-116,763	-0,260	-0,033
85,539	3,094	-0,212	-0,108
86,553	169,081	-0,253	-0,254
87,568	129,967	-0,293	-0,263
88,582	157,443	-0,338	-0,329
89,597	78,478	-0,275	-0,206
90,611	55,924	-0,217	-0,147
91,626	-80,919	-0,387	-0,089
92,641	43,956	-0,360	-0,231
93,655	0,831	-0,212	-0,106
94,670	9,150	-0,369	-0,195
95,684	103,358	-0,325	-0,268
96,699	-70,719	-0,371	-0,098
97,714	131,197	-0,257	-0,232
98,728	98,549	-0,404	-0,327
99,743	-14,103	-0,263	-0,119
100,757	-40,116	-0,349	-0,127
101,772	294,411	-0,228	-0,293
102,787	20,874	-0,457	-0,260
103,801	54,427	-0,396	-0,268
104,816	105,046	-0,327	-0,271
105,830	274,025	-0,187	-0,233
106,845	120,184	-0,131	-0,114
107,860	-15,083	-0,321	-0,144
108,874	-1,615	-0,267	-0,131
109,889	54,809	-0,264	-0,179
110,903	-93,619	-0,361	-0,069
111,918	34,794	-0,274	-0,168
112,933	-120,289	-0,268	-0,032
113,947	69,371	-0,246	-0,178
114,962	-113,811	-0,301	-0,041
115,976	-50,365	-0,281	-0,093
116,991	42,279	-0,302	-0,192
118,006	-99,269	-0,354	-0,062
119,020	142,188	-0,213	-0,199
120,035	104,025	-0,261	-0,215
121,049	-1,043	-0,235	-0,116
122,064	120,100	-0,274	-0,238
123,079	86,960	-0,241	-0,186
124,093	157,325	-0,210	-0,204
125,108	-58,261	-0,287	-0,087
126,122	0,142	-0,145	-0,072
127,137	-54,695	-0,216	-0,068
128,151	-119,999	-0,255	0,030
129,166	-69,245	-0,337	-0,090
130,181	270,350	-0,123	-0,152
131,195	-24,615	-0,380	-0,158
132,210	167,026	-0,338	-0,336
133,224	86,525	-0,231	-0,178
134,239	-17,696	-0,313	-0,137
135,254	-112,535	-0,214	0,030
136,268	-85,979	-0,395	-0,085
137,283	92,725	-0,158	-0,125
138,297	31,242	-0,302	-0,181
139,312	82,388	-0,309	-0,235
140,327	766,828	-0,138	-0,264
141,341	319,759	-0,164	-0,218
142,356	-10,451	-0,260	-0,120
143,370	800,000	-0,101	-0,244
144,385	41,739	-0,207	-0,131
145,400	-69,883	-0,239	-0,063
146,414	61,543	-0,354	-0,246
147,429	133,738	-0,303	-0,274
148,443	142,606	-0,218	-0,203
149,458	63,432	-0,356	-0,249
150,473	75,788	-0,182	-0,135
151,487	-11,887	-0,244	-0,112
152,502	232,855	-0,118	-0,136
153,516	133,469	-0,209	-0,189
154,531	-45,214	-0,211	-0,073
155,546	243,884	-0,172	-0,202
156,560	-140,051	-0,272	-0,020
157,575	114,621	-0,152	-0,129
158,589	140,786	-0,235	-0,217
159,604	85,464	-0,281	-0,215
160,619	21,543	-0,325	-0,184
161,633	62,703	-0,258	-0,180
162,648	85,010	-0,156	-0,119
163,662	86,616	-0,128	-0,098
164,677	51,820	-0,178	-0,118
165,692	-101,852	-0,244	-0,041
166,706	54,948	-0,343	-0,231
167,721	128,516	-0,261	-0,232
168,735	-200,000	-0,240	0,000
169,750	142,357	-0,182	-0,169
170,764	183,244	-0,175	-0,181
171,779	-142,788	-0,291	0,019
172,794	24,034	-0,266	-0,153
173,808	79,679	-0,233	-0,175
174,823	116,957	-0,219	-0,188
175,837	-52,757	-0,223	-0,071
176,852	31,148	-0,262	-0,157
177,867	142,314	-0,182	-0,169
178,881	37,109	-0,274	-0,169
179,896	-102,823	-0,186	0,030
180,910	-26,674	-0,217	-0,088
181,925	127,031	-0,187	-0,165
182,940	35,556	-0,231	-0,141
183,954	2,111	-0,153	-0,077
184,969	139,316	-0,197	-0,181
185,983	-11,861	-0,146	-0,067
186,998	370,471	-0,172	-0,244
188,013	160,620	-0,172	-0,167
189,027	55,782	-0,305	-0,206
190,042	90,778	-0,192	-0,150
191,056	130,419	-0,142	-0,127
192,071	58,422	-0,077	-0,052
193,086	-15,257	-0,178	-0,079
194,100	196,948	-0,127	-0,135
195,115	-94,353	-0,168	-0,032
196,129	167,087	-0,168	-0,166
197,144	14,395	-0,299	-0,162
198,159	42,141	-0,250	-0,158
199,173	193,759	-0,247	-0,260
200,188	227,792	-0,234	-0,265
201,202	677,229	-0,097	-0,177
202,217	208,025	-0,202	-0,220
203,232	-88,998	-0,212	-0,043
204,246	129,185	-0,146	-0,130
205,261	221,958	-0,162	-0,182
206,275	-23,634	-0,262	-0,109
207,290	382,444	-0,074	-0,106
208,304	33,682	-0,112	-0,067
209,319	-102,457	-0,251	-0,041
210,334	-34,074	-0,183	-0,070
211,348	296,899	-0,181	-0,231
212,363	677,247	-0,175	-0,318
213,377	61,767	-0,174	-0,121
214,392	202,085	-0,207	-0,222
215,407	10,497	-0,185	-0,098
216,421	18,778	-0,269	-0,149
217,436	-144,574	-0,133	-0,008
218,450	-110,901	-0,245	-0,035
219,465	27,185	-0,287	-0,167
220,480	86,376	-0,157	-0,120
221,494	544,227	-0,137	-0,228
222,509	-77,420	-0,031	0,007
223,523	9,559	-0,265	-0,139
224,538	128,113	-0,185	-0,163
225,553	502,508	-0,191	-0,309
226,567	113,265	-0,226	-0,191
227,582	-46,853	-0,360	-0,121
228,596	54,572	-0,134	-0,089
229,611	-9,491	-0,141	-0,065
230,626	-128,747	-0,209	0,020
231,640	130,748	-0,092	-0,082
232,655	116,464	-0,274	-0,233
233,669	191,090	-0,200	-0,210
234,684	131,055	-0,197	-0,176
235,699	411,214	-0,046	-0,068
236,713	30,783	-0,081	-0,048
237,728	359,541	-0,113	-0,157
238,742	55,006	-0,185	-0,124
239,757	361,800	-0,126	-0,175
240,772	423,175	-0,156	-0,234
241,786	-77,441	-0,181	-0,043
242,801	232,186	-0,121	-0,139
243,815	38,132	-0,137	-0,085
244,830	684,882	-0,149	-0,272
245,844	156,467	-0,155	-0,148
246,859	147,649	-0,227	-0,213
247,874	800,000	-0,101	-0,268
248,888	-21,711	-0,268	-0,113
249,903	318,442	-0,135	-0,178
250,917	10,871	-0,201	-0,106
251,932	396,070	-0,076	-0,110
252,947	-20,831	-0,151	-0,064
253,961	151,739	-0,154	-0,146
254,976	-42,126	-0,107	-0,038
255,990	-26,299	-0,179	-0,072
257,005	125,017	-0,212	-0,185
258,020	87,292	-0,099	-0,076
259,034	418,292	-0,134	-0,200
260,049	-15,375	-0,127	-0,056
261,063	-58,179	-0,247	-0,074
262,078	147,959	-0,179	-0,168
263,093	-108,276	-0,237	-0,035
264,107	79,149	-0,196	-0,145
265,122	78,117	-0,176	-0,130
266,136	206,997	-0,112	-0,121
267,151	89,031	-0,153	-0,118
268,166	143,454	-0,200	-0,184
269,180	137,633	-0,182	-0,165
270,195	165,048	-0,078	-0,077
271,209	141,437	-0,149	-0,137
272,224	60,451	-0,125	-0,086
273,239	229,131	-0,143	-0,162
274,253	97,284	-0,100	-0,079
275,268	77,151	-0,246	-0,181
276,282	-107,149	-0,074	-0,011
277,297	174,365	-0,269	-0,270
278,312	170,319	-0,140	-0,139
279,326	465,105	-0,058	-0,090
280,341	-109,749	-0,140	-0,020
281,355	-39,973	-0,161	-0,058
282,370	24,185	-0,163	-0,093
283,384	-118,107	-0,244	-0,030
284,399	122,127	-0,195	-0,169
285,414	111,048	-0,110	-0,091
286,428	-80,181	-0,240	-0,055
287,443	110,648	-0,081	-0,067
288,457	102,147	-0,078	0,063
289,472	268,025	-0,160	-0,194
290,487	-77,941	-0,355	-0,084
291,501	-27,353	-0,213	-0,085
292,516	81,916	-0,234	-0,175
293,530	-95,116	-0,280	0,052
294,545	136,398	-0,192	-0,173
295,560	335,183	-0,100	-0,134
296,574	131,791	-0,101	-0,090
297,589	800,000	-0,101	-0,209
298,603	220,014	-0,195	-0,216
299,618	508,341	-0,135	-0,217
300,633	104,578	-0,064	-0,052
301,647	158,889	-0,054	-0,052
302,662	180,682	-0,140	-0,142
303,676	18,870	-0,071	-0,039
304,691	231,231	-0,129	-0,146
305,706	-139,219	-0,225	-0,016
306,720	20,331	-0,209	-0,116
307,735	144,625	-0,080	-0,074
308,749	339,756	-0,127	-0,172
309,764	216,235	-0,092	-0,101
310,779	36,090	-0,149	-0,090
311,793	196,853	-0,140	-0,147
312,808	219,119	-0,142	-0,156
313,822	-53,946	-0,257	-0,080
314,837	-57,704	-0,091	-0,027
315,852	800,000	-0,039	-0,103
316,866	71,273	-0,186	-0,133
317,881	74,339	-0,084	-0,061
318,895	368,983	-0,099	-0,139
319,910	-18,321	-0,197	-0,084
320,925	517,796	-0,032	-0,052
321,939	-73,824	-0,166	-0,041
322,954	800,000	-0,087	-0,168
323,968	105,667	-0,062	-0,051
324,983	-200,000	-0,011	-0,048
325,997	337,611	-0,038	-0,051
327,012	56,193	-0,190	-0,127
328,027	84,517	-0,213	-0,160
329,041	-31,504	-0,120	-0,046
330,056	347,614	-0,124	-0,168
331,070	668,481	-0,072	-0,128
332,085	-137,441	-0,182	-0,014
333,100	-15,927	-0,198	-0,087
334,114	46,466	-0,165	-0,105
335,129	74,019	-0,184	-0,133
336,143	-112,405	-0,185	-0,025
337,158	8,167	-0,230	-0,118
338,173	90,346	-0,155	-0,119
339,187	-77,202	-0,193	-0,046
340,202	191,081	-0,204	-0,212
341,216	33,042	-0,194	-0,116
342,231	-83,924	-0,187	-0,041
343,246	226,135	-0,123	-0,138
344,260	-166,266	-0,173	-0,005
345,275	777,998	-0,059	-0,111
346,289	75,244	-0,073	-0,053
347,304	12,813	-0,194	-0,103
348,319	9,085	-0,239	-0,124
349,333	-200,000	0,013	-0,092
350,348	-168,426	-0,219	0,006
351,362	-31,958	-0,258	-0,099
352,377	31,914	-0,015	0,009
353,392	83,590	-0,110	-0,082
354,406	-140,033	-0,087	0,006
355,421	209,305	1313,086	1415,039
356,435	161,088	1473,648	1415,581
