DTS Sentinel unit serial number:	SN410029Multiplexer serial number:	ORYXHardware model number:	OX2-SRSoftware version number:	ORYX F/W v4,00 Oryx Data Collector v3.7.2.0data status	okinstallation	B3 Nyhavnadifferential loss correction	single-endedforward channel	channel 1reverse channel	N/Adate	2023/12/05time	07:17:30forward acquisition time	300,00reverse acquisition time	0,00gamma	499,1914k internal	0,3200k external	0,3200temperature offset calibration	1,0000default loss term (dB/km)	0,3820temperature slope calibration	1,0000multiplexer offset coefficient	1,0000multiplexer slope coefficient	1,0000fibre end	0,00T internal ref (°C)	13,88T ext. ref 1 (°C)	-1,01T ext. ref 2 (°C)	-1,07length (m)	temperature (°C)	Stokes	anti-Stokes-744,400	-200,000	-0,086	-0,430
-743,385	-200,000	-0,018	0,270
-742,371	83,230	-0,190	-0,150
-741,356	-200,000	-0,026	0,250
-740,342	222,247	-0,203	-0,238
-739,327	-200,000	-0,066	0,220
-738,312	348,682	-0,130	-0,187
-737,298	-200,000	0,014	0,274
-736,283	97,185	-0,087	-0,072
-735,269	800,000	0,118	0,376
-734,254	296,213	-0,242	-0,323
-733,239	-16,535	-0,067	0,031
-732,225	299,188	-0,099	-0,133
-731,210	-97,433	0,115	0,022
-730,196	800,000	-0,029	-0,088
-729,181	125,064	0,062	-0,056
-728,167	273,349	0,050	-0,064
-727,152	-174,453	-0,145	0,003
-726,137	553,401	-0,070	-0,123
-725,123	-200,000	0,001	0,037
-724,108	800,000	-0,065	-0,183
-723,094	-86,323	-0,257	-0,057
-722,079	62,409	-0,097	-0,070
-721,064	-130,793	-0,080	-0,008
-720,050	-200,000	-0,009	-0,063
-719,035	257,719	-0,038	-0,048
-718,021	-200,000	0,000	0,017
-717,006	344,460	-0,075	0,108
-715,991	-200,000	-0,021	-0,091
-714,977	-86,278	-0,198	0,044
-713,962	22,100	0,039	-0,023
-712,948	85,179	0,095	-0,076
-711,933	-200,000	0,029	-0,102
-710,918	406,075	0,020	0,031
-709,904	-200,000	-0,013	-0,106
-708,889	92,717	0,108	-0,088
-707,875	54,283	-0,166	0,116
-706,860	-170,125	-0,054	-0,001
-705,845	-159,505	-0,042	-0,002
-704,831	398,908	0,034	0,051
-703,816	800,000	0,023	-0,052
-702,802	-116,477	-0,077	-0,010
-701,787	130,192	-0,133	-0,124
-700,772	243,335	-0,125	-0,153
-699,758	800,000	0,056	-0,176
-698,743	-70,542	-0,126	-0,034
-697,729	-200,000	-0,015	0,064
-696,714	-200,000	-0,032	-0,177
-695,699	800,000	0,037	-0,084
-694,685	134,948	-0,123	-0,116
-693,670	-94,252	-0,084	-0,016
-692,656	198,057	-0,078	-0,087
-691,641	-91,893	0,080	0,016
-690,627	376,274	-0,059	-0,088
-689,612	406,534	-0,084	0,128
-688,597	-200,000	-0,007	-0,033
-687,583	-200,000	-0,026	-0,100
-686,568	-50,248	-0,032	-0,011
-685,554	19,453	-0,027	-0,015
-684,539	-114,086	0,095	-0,013
-683,524	42,985	0,069	0,045
-682,510	218,905	-0,110	0,128
-681,495	199,499	0,060	0,067
-680,481	66,328	-0,071	-0,053
-679,466	-40,297	-0,119	0,045
-678,451	-134,417	-0,066	0,006
-677,437	-115,823	0,053	0,007
-676,422	372,473	0,055	0,082
-675,408	3,917	-0,159	-0,084
-674,393	-95,700	-0,173	0,033
-673,378	-53,946	-0,219	-0,072
-672,364	-200,000	0,005	-0,060
-671,349	800,000	-0,022	0,066
-670,335	-200,000	-0,010	0,057
-669,320	800,000	0,068	0,154
-668,305	29,871	0,077	-0,047
-667,291	-165,432	-0,120	-0,004
-666,276	283,150	-0,078	-0,102
-665,262	219,904	-0,085	-0,098
-664,247	178,786	0,086	-0,091
-663,232	-99,209	-0,163	0,030
-662,218	-200,000	0,004	-0,033
-661,203	671,211	0,049	0,093
-660,189	-97,221	0,016	-0,003
-659,174	-200,000	0,001	-0,122
-658,159	17,808	0,026	-0,015
-657,145	-200,000	0,002	-0,046
-656,130	-76,116	0,015	0,004
-655,116	72,007	-0,020	0,015
-654,101	-200,000	0,010	-0,046
-653,086	-50,922	-0,049	0,016
-652,072	370,785	-0,063	-0,093
-651,057	-146,199	-0,151	0,009
-650,043	23,219	-0,012	-0,007
-649,028	300,886	0,051	-0,069
-648,014	-76,692	-0,110	0,028
-646,999	-200,000	0,020	-0,070
-645,984	-179,976	0,053	0,001
-644,970	-158,814	-0,169	0,007
-643,955	296,499	0,049	0,065
-642,941	86,151	-0,062	0,049
-641,926	115,681	-0,013	-0,011
-640,911	-94,696	0,144	0,028
-639,897	-200,000	-0,001	0,085
-638,882	-200,000	0,031	-0,103
-637,868	-3,365	-0,057	0,029
-636,853	0,909	-0,124	-0,064
-635,838	-94,925	0,039	0,008
-634,824	-173,989	-0,117	0,002
-633,809	95,811	0,113	-0,093
-632,795	-200,000	-0,001	-0,018
-631,780	-200,000	-0,003	-0,119
-630,765	800,000	-0,042	-0,120
-629,751	-200,000	0,022	0,102
-628,736	-119,813	-0,167	-0,021
-627,722	49,907	-0,131	0,089
-626,707	800,000	-0,002	0,004
-625,692	49,839	-0,053	-0,036
-624,678	-200,000	0,048	0,223
-623,663	-10,884	-0,103	-0,049
-622,649	-48,951	-0,081	0,028
-621,634	103,174	-0,093	-0,079
-620,619	356,720	-0,064	-0,093
-619,605	-26,900	0,055	0,023
-618,590	221,289	-0,093	0,108
-617,576	800,000	0,074	-0,150
-616,561	-6,553	-0,161	-0,079
-615,546	800,000	0,026	0,066
-614,532	44,814	-0,097	-0,065
-613,517	271,905	-0,020	-0,026
-612,503	800,000	-0,057	-0,147
-611,488	238,636	0,078	-0,094
-610,474	-200,000	-0,011	0,116
-609,459	800,000	-0,055	0,111
-608,444	39,082	0,023	0,015
-607,430	11,881	-0,228	-0,127
-606,415	231,321	0,006	0,007
-605,401	503,719	-0,055	-0,093
-604,386	-200,000	-0,005	0,074
-603,371	95,010	0,046	-0,038
-602,357	-200,000	-0,029	0,144
-601,342	665,243	0,050	-0,093
-600,328	800,000	-0,007	-0,018
-599,313	-134,011	-0,079	0,007
-598,298	52,277	0,120	-0,083
-597,284	162,609	0,063	0,064
-596,269	-11,848	-0,019	0,009
-595,255	800,000	0,053	0,157
-594,240	-200,000	0,004	0,098
-593,225	-200,000	-0,011	-0,070
-592,211	-44,808	-0,066	-0,024
-591,196	-115,361	0,047	-0,006
-590,182	-32,097	-0,053	-0,021
-589,167	800,000	0,075	0,168
-588,152	-200,000	0,010	0,123
-587,138	-33,266	0,090	-0,036
-586,123	9,370	-0,048	0,026
-585,109	-200,000	-0,015	-0,060
-584,094	800,000	-0,045	-0,114
-583,079	-108,326	-0,061	-0,009
-582,065	10,502	0,068	0,037
-581,050	800,000	-0,069	0,185
-580,036	307,374	0,038	0,052
-579,021	96,936	0,052	-0,043
-578,006	91,221	-0,221	-0,179
-576,992	158,618	-0,046	-0,046
-575,977	-14,656	-0,080	-0,037
-574,963	-61,871	0,076	-0,023
-573,948	800,000	-0,027	-0,056
-572,934	-200,000	0,001	0,103
-571,919	-161,217	-0,051	0,002
-570,904	312,043	0,100	-0,136
-569,890	-13,194	-0,097	0,046
-568,875	800,000	0,020	-0,056
-567,861	-11,596	0,075	-0,036
-566,846	5,741	0,103	-0,055
-565,831	378,034	0,023	-0,034
-564,817	11,365	-0,036	0,020
-563,802	117,092	0,019	0,017
-562,788	359,342	-0,015	-0,022
-561,773	-155,056	-0,101	0,005
-560,758	27,143	-0,042	-0,025
-559,744	-200,000	0,002	0,007
-558,729	800,000	0,018	0,052
-557,715	-200,000	0,034	-0,176
-556,700	-200,000	0,013	-0,049
-555,685	-103,699	-0,103	-0,017
-554,671	542,879	-0,025	-0,043
-553,656	164,359	0,069	0,071
-552,642	800,000	0,010	0,022
-551,627	-173,276	0,068	0,001
-550,612	91,206	-0,101	-0,082
-549,598	90,234	-0,044	-0,035
-548,583	-177,689	-0,086	-0,001
-547,569	649,480	-0,055	-0,102
-546,554	-200,000	0,039	0,150
-545,539	31,602	-0,120	-0,075
-544,525	-200,000	0,006	-0,020
-543,510	727,913	-0,035	-0,067
-542,496	-60,691	-0,026	-0,008
-541,481	800,000	-0,038	-0,094
-540,466	-200,000	-0,022	0,099
-539,452	-13,068	0,091	-0,042
-538,437	-200,000	-0,024	0,091
-537,423	11,422	-0,198	0,109
-536,408	204,972	0,047	0,053
-535,393	-15,008	-0,082	-0,038
-534,379	48,273	-0,121	-0,082
-533,364	-73,111	0,111	-0,029
-532,350	510,954	0,038	0,065
-531,335	87,881	0,131	0,104
-530,321	-200,000	0,025	0,206
-529,306	-167,805	0,056	-0,002
-528,291	-200,000	-0,004	-0,019
-527,277	-38,156	-0,048	-0,018
-526,262	800,000	0,042	0,128
-525,248	47,129	0,099	0,066
-524,233	-200,000	-0,006	0,067
-523,218	-200,000	-0,024	0,128
-522,204	21,048	-0,127	0,074
-521,189	-200,000	0,009	-0,103
-520,175	-34,578	-0,032	-0,013
-519,160	800,000	-0,023	-0,056
-518,145	-138,898	-0,093	-0,007
-517,131	-0,437	0,039	0,020
-516,116	-15,039	0,047	0,022
-515,102	800,000	0,017	0,050
-514,087	-99,606	0,060	0,011
-513,072	-0,617	-0,135	0,069
-512,058	-166,763	-0,020	0,001
-511,043	-37,647	0,023	-0,009
-510,029	-173,818	0,060	-0,001
-509,014	201,924	-0,091	0,101
-507,999	400,312	-0,051	-0,078
-506,985	-200,000	-0,013	-0,256
-505,970	-20,195	0,097	0,043
-504,956	527,439	-0,095	-0,163
-503,941	-200,000	0,019	-0,094
-502,926	-106,327	0,211	0,034
-501,912	35,074	0,057	0,036
-500,897	-38,514	0,086	0,033
-499,883	54,003	0,101	-0,070
-498,868	-20,138	-0,138	-0,061
-497,853	126,423	0,018	-0,016
-496,839	-200,000	-0,017	-0,106
-495,824	-31,977	0,111	-0,044
-494,810	-72,728	-0,055	0,015
-493,795	-35,225	-0,150	0,059
-492,781	-200,000	0,023	-0,082
-491,766	-200,000	0,027	-0,121
-490,751	800,000	0,031	0,072
-489,737	-173,536	-0,063	0,001
-488,722	150,717	0,042	-0,042
-487,708	32,673	0,094	-0,058
-486,693	-8,367	-0,061	0,029
-485,678	284,892	-0,071	0,092
-484,664	25,643	0,050	-0,030
-483,649	480,067	-0,046	0,076
-482,635	800,000	0,012	-0,027
-481,620	230,766	0,035	-0,041
-480,605	123,883	0,114	0,103
-479,591	157,938	-0,094	-0,094
-478,576	-200,000	-0,013	0,044
-477,562	-200,000	0,036	-0,123
-476,547	-200,000	-0,031	-0,115
-475,532	-200,000	0,013	-0,091
-474,518	-200,000	-0,050	0,178
-473,503	524,124	0,080	-0,136
-472,489	-152,531	-0,052	-0,003
-471,474	398,023	0,026	0,039
-470,459	-17,836	0,069	-0,031
-469,445	800,000	-0,059	-0,133
-468,430	156,130	-0,082	-0,081
-467,416	328,674	0,120	0,166
-466,401	-200,000	-0,024	0,093
-465,386	-114,079	-0,111	-0,015
-464,372	-106,625	0,103	0,016
-463,357	-60,696	-0,048	-0,014
-462,343	-46,375	0,053	-0,019
-461,328	183,049	0,034	0,036
-460,313	800,000	-0,033	-0,071
-459,299	394,322	0,045	0,068
-458,284	-200,000	0,004	-0,035
-457,270	-200,000	0,007	-0,023
-456,255	171,163	0,089	-0,092
-455,241	-97,321	-0,119	0,022
-454,226	-200,000	0,032	-0,109
-453,211	270,048	-0,055	-0,070
-452,197	107,607	0,043	0,037
-451,182	-200,000	0,003	-0,078
-450,168	-200,000	-0,001	0,120
-449,153	-118,128	-0,075	0,010
-448,138	100,687	-0,034	0,028
-447,124	-200,000	-0,014	-0,050
-446,109	52,094	-0,053	0,036
-445,095	800,000	-0,012	-0,027
-444,080	-187,345	0,177	-0,002
-443,065	800,000	0,050	-0,114
-442,051	-107,385	-0,028	0,004
-441,036	64,175	-0,044	-0,032
-440,022	800,000	-0,058	-0,149
-439,007	33,068	0,127	-0,079
-437,992	-113,602	0,160	0,022
-436,978	432,630	-0,045	0,071
-435,963	4,210	-0,073	-0,038
-434,949	-83,583	-0,046	0,010
-433,934	-68,353	-0,108	0,030
-432,919	-84,155	0,113	0,026
-431,905	800,000	0,052	-0,106
-430,890	187,991	-0,057	-0,062
-429,876	-36,889	0,132	0,051
-428,861	24,683	-0,059	0,035
-427,846	-59,455	0,050	-0,015
-426,832	-200,000	-0,005	-0,044
-425,817	622,500	-0,073	0,132
-424,803	-200,000	0,010	-0,127
-423,788	59,207	-0,027	0,019
-422,773	345,261	0,034	0,048
-421,759	98,893	-0,042	-0,035
-420,744	800,000	-0,049	-0,151
-419,730	-200,000	-0,006	0,059
-418,715	-96,216	-0,111	-0,021
-417,701	-36,868	-0,048	-0,018
-416,686	-200,000	-0,024	0,088
-415,671	27,241	-0,066	-0,040
-414,657	90,165	0,068	-0,055
-413,642	-200,000	0,049	-0,166
-412,628	-200,000	-0,017	-0,116
-411,613	-200,000	-0,030	-0,101
-410,598	800,000	0,041	-0,103
-409,584	69,376	-0,010	0,007
-408,569	-78,501	0,079	0,019
-407,555	56,759	0,065	0,045
-406,540	-119,859	-0,017	0,002
-405,525	68,161	0,035	0,026
-404,511	154,637	-0,053	0,052
-403,496	-200,000	-0,011	0,042
-402,482	-49,168	0,080	-0,027
-401,467	445,215	0,067	-0,106
-400,452	-66,588	0,093	0,026
-399,438	129,980	-0,023	0,021
-398,423	54,807	-0,025	0,018
-397,409	30,652	-0,076	0,047
-396,394	-144,440	-0,062	-0,004
-395,379	-113,444	-0,028	0,004
-394,365	784,140	0,077	0,152
-393,350	-200,000	0,040	0,215
-392,336	800,000	0,035	0,072
-391,321	-152,313	-0,046	-0,002
-390,306	-120,160	-0,119	-0,014
-389,292	51,530	0,044	-0,030
-388,277	-186,684	-0,051	-0,000
-387,263	46,270	0,067	0,045
-386,248	52,723	0,092	0,063
-385,233	-63,572	0,045	-0,013
-384,219	-142,676	-0,091	0,006
-383,204	-181,851	-0,142	0,002
-382,190	-200,000	-0,016	-0,110
-381,175	50,691	0,110	-0,074
-380,160	175,261	0,087	-0,090
-379,146	264,985	-0,026	-0,033
-378,131	-58,021	0,065	0,020
-377,117	800,000	0,036	-0,110
-376,102	235,269	-0,143	-0,170
-375,088	-18,293	0,073	0,033
-374,073	150,228	0,119	0,116
-373,058	800,000	-0,040	0,117
-372,044	169,083	-0,070	0,072
-371,029	326,080	-0,013	-0,018
-370,015	151,805	-0,055	-0,053
-369,000	800,000	-0,005	-0,010
-367,985	277,521	-0,036	-0,047
-366,971	800,000	-0,029	-0,079
-365,956	181,180	0,091	-0,096
-364,942	-200,000	-0,002	0,156
-363,927	800,000	0,030	0,066
-362,912	-22,121	-0,089	-0,038
-361,898	-200,000	0,012	0,046
-360,883	-200,000	-0,013	0,048
-359,869	-19,004	0,089	-0,040
-358,854	-122,126	0,088	0,010
-357,839	-200,000	-0,013	0,072
-356,825	-88,255	0,166	0,035
-355,810	281,543	0,019	0,024
-354,796	131,087	-0,066	0,061
-353,781	-200,000	-0,003	-0,132
-352,766	800,000	-0,009	0,030
-351,752	-90,657	-0,038	0,008
-350,737	-125,637	0,229	-0,025
-349,723	115,381	-0,037	0,032
-348,708	552,550	0,035	-0,061
-347,693	-200,000	-0,008	0,043
-346,679	78,267	0,079	-0,061
-345,664	-55,318	0,141	-0,045
-344,650	-181,072	-0,034	-0,000
-343,635	220,981	0,036	0,041
-342,620	-7,277	-0,031	0,015
-341,606	379,847	0,048	0,071
-340,591	274,701	0,027	-0,034
-339,577	-200,000	-0,019	-0,104
-338,562	447,232	-0,025	-0,039
-337,548	-200,000	0,010	0,122
-336,533	221,243	-0,001	0,002
-335,518	-200,000	0,017	0,083
-334,504	105,760	-0,046	0,039
-333,489	-200,000	0,028	-0,234
-332,475	-200,000	-0,015	-0,067
-331,460	800,000	0,003	0,008
-330,445	-93,512	-0,095	-0,019
-329,431	-200,000	-0,015	-0,105
-328,416	-200,000	0,013	0,091
-327,402	178,849	-0,079	0,083
-326,387	-200,000	0,016	0,103
-325,372	76,295	0,077	0,058
-324,358	504,435	0,021	-0,034
-323,343	-200,000	0,025	-0,107
-322,329	800,000	0,068	-0,159
-321,314	122,916	0,113	0,101
-320,299	-115,144	-0,034	-0,005
-319,285	242,010	0,043	0,052
-318,270	46,076	0,050	0,033
-317,256	670,624	0,063	-0,117
-316,241	-200,000	-0,015	-0,122
-315,226	-200,000	0,012	-0,052
-314,212	13,187	0,094	0,052
-313,197	725,348	-0,032	-0,061
-312,183	458,785	-0,026	-0,041
-311,168	-200,000	0,008	0,032
-310,153	750,345	0,003	-0,005
-309,139	-112,926	-0,091	-0,013
-308,124	161,875	-0,091	0,092
-307,110	38,126	0,179	0,114
-306,095	-200,000	0,035	0,112
-305,080	-83,897	-0,116	-0,026
-304,066	223,156	-0,038	-0,043
-303,051	-200,000	-0,009	-0,030
-302,037	268,614	0,069	-0,086
-301,022	-75,800	0,087	-0,022
-300,008	800,000	-0,044	-0,097
-298,993	-200,000	0,009	0,160
-297,978	-64,731	0,134	0,039
-296,964	-154,888	-0,027	0,001
-295,949	-200,000	0,034	-0,116
-294,935	71,677	-0,055	-0,040
-293,920	-200,000	-0,012	-0,145
-292,905	-60,969	0,083	-0,025
-291,891	-95,204	0,164	-0,031
-290,876	408,695	-0,021	-0,032
-289,862	-38,413	0,054	-0,020
-288,847	-200,000	-0,009	-0,092
-287,832	463,618	0,040	0,065
-286,818	-200,000	-0,013	-0,102
-285,803	309,400	-0,032	-0,043
-284,789	536,883	0,046	0,078
-283,774	800,000	-0,030	0,078
-282,759	-200,000	0,001	0,027
-281,745	-200,000	-0,004	0,033
-280,730	-77,396	-0,096	0,024
-279,716	-200,000	0,001	0,055
-278,701	800,000	0,062	0,155
-277,686	800,000	0,047	0,115
-276,672	-94,439	0,213	0,041
-275,657	-127,174	0,158	-0,016
-274,643	-200,000	0,009	-0,116
-273,628	88,503	0,043	-0,034
-272,613	139,570	0,094	-0,089
-271,599	62,758	0,032	0,023
-270,584	-58,800	0,168	-0,052
-269,570	-200,000	-0,046	0,151
-268,555	-200,000	-0,019	0,110
-267,540	800,000	0,018	0,041
-266,526	-200,000	-0,004	0,035
-265,511	21,038	-0,053	0,031
-264,497	-87,746	0,106	-0,023
-263,482	-200,000	-0,027	0,104
-262,467	-200,000	-0,014	0,116
-261,453	197,078	-0,017	0,018
-260,438	39,643	-0,089	0,057
-259,424	-188,763	0,133	-0,001
-258,409	-200,000	-0,014	-0,076
-257,395	-54,205	0,083	-0,027
-256,380	364,965	0,122	0,176
-255,365	681,486	-0,065	0,122
-254,351	38,813	0,092	0,059
-253,336	-144,942	-0,043	-0,003
-252,322	-73,236	-0,119	-0,031
-251,307	800,000	0,036	0,103
-250,292	316,123	0,004	-0,006
-249,278	91,719	0,059	0,047
-248,263	-200,000	-0,001	-0,019
-247,249	-200,000	0,007	-0,077
-246,234	-200,000	-0,002	0,032
-245,219	223,158	-0,111	0,128
-244,205	-200,000	-0,028	-0,091
-243,190	703,301	0,022	-0,042
-242,176	800,000	0,022	-0,053
-241,161	-200,000	-0,017	-0,079
-240,146	-200,000	0,014	0,103
-239,132	-108,250	0,112	0,017
-238,117	304,255	-0,039	-0,052
-237,103	-21,117	0,131	0,057
-236,088	97,912	-0,079	0,065
-235,073	-200,000	0,008	0,111
-234,059	800,000	0,008	0,016
-233,044	-200,000	-0,025	-0,150
-232,030	211,227	-0,052	-0,059
-231,015	329,457	0,017	-0,023
-230,000	-22,776	0,010	0,004
-228,986	800,000	0,020	-0,046
-227,971	-200,000	0,019	0,074
-226,957	-200,000	-0,005	0,216
-225,942	-200,000	0,000	0,183
-224,927	74,080	0,058	0,043
-223,913	85,816	-0,032	0,025
-222,898	-200,000	0,008	0,037
-221,884	-112,426	-0,077	-0,011
-220,869	17,379	0,057	0,032
-219,855	-200,000	0,006	0,076
-218,840	-200,000	-0,007	0,062
-217,825	800,000	-0,026	-0,074
-216,811	155,290	-0,017	0,017
-215,796	-200,000	0,004	-0,059
-214,782	800,000	0,010	-0,027
-213,767	241,489	-0,044	-0,052
-212,752	44,611	0,162	0,106
-211,738	690,379	0,014	0,026
-210,723	-200,000	-0,008	0,036
-209,709	47,957	-0,013	-0,009
-208,694	41,512	-0,128	0,082
-207,679	248,428	-0,047	-0,057
-206,665	800,000	0,073	0,148
-205,650	-200,000	0,011	0,076
-204,636	100,115	-0,024	0,020
-203,621	66,962	0,076	0,055
-202,606	-133,121	-0,208	0,019
-201,592	296,394	0,021	-0,027
-200,577	315,455	-0,020	-0,027
-199,563	-200,000	0,000	0,040
-198,548	499,163	0,086	0,142
-197,533	66,141	0,053	0,038
-196,519	-200,000	0,028	0,100
-195,504	91,134	-0,099	0,079
-194,490	416,711	-0,055	-0,084
-193,475	-18,815	-0,092	-0,041
-192,460	-18,622	0,044	-0,019
-191,446	17,093	0,087	-0,049
-190,431	-63,785	0,024	-0,007
-189,417	800,000	0,029	0,068
-188,402	800,000	-0,022	-0,046
-187,387	797,363	0,034	-0,066
-186,373	800,000	-0,112	-0,269
-185,358	-200,000	-0,009	-0,061
-184,344	-9,800	0,048	-0,023
-183,329	800,000	0,029	0,082
-182,315	338,467	-0,034	0,047
-181,300	-200,000	-0,039	0,134
-180,285	-13,907	-0,090	-0,041
-179,271	-134,703	-0,153	-0,013
-178,256	-132,725	-0,175	-0,016
-177,242	-130,163	-0,050	0,005
-176,227	178,710	0,151	0,157
-175,212	-200,000	-0,008	0,169
-174,198	800,000	0,033	0,086
-173,183	533,354	-0,074	0,125
-172,169	800,000	-0,025	-0,069
-171,154	39,357	0,015	-0,009
-170,139	-2,550	0,055	-0,027
-169,125	214,489	-0,063	-0,071
-168,110	-186,088	0,123	0,001
-167,096	-200,000	-0,020	0,102
-166,081	800,000	-0,062	-0,164
-165,066	-200,000	-0,038	-0,164
-164,052	108,782	0,017	0,015
-163,037	597,909	0,008	-0,014
-162,023	-200,000	-0,021	0,145
-161,008	602,368	-0,069	0,123
-159,993	532,773	0,060	0,102
-158,979	-54,129	-0,093	-0,030
-157,964	-200,000	0,018	-0,179
-156,950	-94,480	-0,149	0,029
-155,935	-51,334	0,149	0,049
-154,920	-39,582	0,083	0,031
-153,906	-131,252	-0,114	-0,011
-152,891	-200,000	0,021	-0,085
-151,877	-8,839	0,061	-0,029
-150,862	-80,976	-0,093	-0,022
-149,847	-15,462	-0,106	-0,048
-148,833	-75,575	0,075	0,019
-147,818	9,477	0,029	-0,015
-146,804	800,000	0,054	0,117
-145,789	-6,855	-0,045	0,022
-144,775	-162,677	-0,102	0,003
-143,760	419,832	0,011	0,017
-142,745	-124,522	-0,141	0,015
-141,731	-19,730	0,188	0,082
-140,716	-200,000	0,032	0,115
-139,702	122,690	0,061	-0,054
-138,687	-74,097	0,065	-0,017
-137,672	-152,609	-0,068	-0,003
-136,658	-80,924	-0,103	-0,024
-135,643	-200,000	0,031	-0,125
-134,629	-6,696	-0,065	0,031
-133,614	165,911	0,052	-0,052
-132,599	-100,982	0,063	0,011
-131,585	-200,000	-0,009	0,033
-130,570	800,000	0,042	0,103
-129,556	-163,818	0,111	0,004
-128,541	37,126	-0,022	0,014
-127,526	458,646	-0,073	0,116
-126,512	-120,005	0,074	0,009
-125,497	-200,000	0,025	0,126
-124,483	-62,449	0,059	0,017
-123,468	305,009	-0,079	-0,105
-122,453	8,727	-0,026	0,014
-121,439	-114,424	-0,136	-0,018
-120,424	169,195	0,018	-0,019
-119,410	329,810	0,070	0,096
-118,395	461,942	0,071	0,113
-117,380	-132,400	0,077	0,007
-116,366	-3,586	-0,097	-0,048
-115,351	800,000	-0,022	0,055
-114,337	800,000	0,001	-0,003
-113,322	688,417	-0,024	-0,044
-112,307	-200,000	-0,022	-0,091
-111,293	396,509	-0,043	0,064
-110,278	-200,000	0,031	0,161
-109,264	400,668	-0,048	-0,072
-108,249	-200,000	-0,005	-0,042
-107,234	729,796	-0,039	-0,075
-106,220	-128,235	0,123	-0,012
-105,205	-45,951	-0,099	-0,035
-104,191	-58,388	0,055	0,017
-103,176	-109,104	0,122	-0,018
-102,162	130,803	0,071	0,065
-101,147	139,502	0,097	-0,091
-100,132	-63,308	-0,134	0,039
-99,118	733,480	0,068	-0,131
-98,103	-200,000	0,020	-0,097
-97,089	33,877	-0,086	0,053
-96,074	-200,000	0,033	-0,104
-95,059	110,022	0,056	-0,048
-94,045	34,963	0,079	-0,049
-93,030	800,000	-0,021	-0,063
-92,016	-32,968	-0,044	0,017
-91,001	523,886	-0,081	0,136
-89,986	-200,000	-0,009	0,054
-88,972	44,174	0,095	-0,062
-87,957	74,264	-0,127	0,095
-86,943	-161,383	-0,149	0,005
-85,928	800,000	-0,076	-0,153
-84,913	-200,000	-0,001	0,088
-83,899	-200,000	0,007	-0,081
-82,884	-200,000	-0,041	0,228
-81,870	-200,000	-0,018	0,120
-80,855	800,000	0,033	-0,066
-79,840	-200,000	0,013	-0,084
-78,826	-153,591	0,021	-0,001
-77,811	422,831	-0,101	0,154
-76,797	276,662	0,069	-0,087
-75,782	-200,000	-0,007	-0,067
-74,767	316,898	-0,018	0,024
-73,753	800,000	0,037	-0,089
-72,738	355,955	0,035	0,049
-71,724	294,315	-0,025	-0,032
-70,709	-34,982	0,199	0,077
-69,694	-126,006	-0,094	0,010
-68,680	-188,149	0,105	0,001
-67,665	-200,000	0,005	0,046
-66,651	521,467	0,047	0,079
-65,636	-200,000	0,019	0,143
-64,622	289,952	0,059	-0,076
-63,607	800,000	-0,011	-0,028
-62,592	800,000	0,019	-0,049
-61,578	49,634	0,086	0,057
-60,563	-80,307	0,118	-0,028
-59,549	23,233	-0,067	-0,039
-58,534	-32,348	-1,600	-0,629
-57,519	421,456	-1,410	-2,149
-56,505	-200,000	-0,630	-4,636
-55,490	115,044	1,092	0,944
-54,476	800,000	5,004	11,447
-53,461	-200,000	19,087	311,927
-52,446	-200,000	738,856	2319,058
-51,432	573,477	1655,051	2869,327
-50,417	79,073	1671,208	1266,322
-49,403	21,857	1544,261	888,875
-48,388	15,785	1466,725	814,719
-47,373	17,831	1456,711	819,012
-46,359	16,816	1446,884	808,586
-45,344	13,994	1442,409	792,533
-44,330	13,958	1440,205	791,117
-43,315	13,956	1438,651	790,223
-42,300	13,951	1437,009	789,262
-41,286	13,999	1435,711	788,750
-40,271	13,934	1434,489	787,735
-39,257	13,904	1433,300	786,908
-38,242	14,000	1432,020	786,630
-37,227	14,019	1430,709	785,972
-36,213	13,960	1429,736	785,124
-35,198	13,978	1428,375	784,434
-34,184	14,056	1427,121	784,080
-33,169	13,918	1426,126	782,849
-32,154	14,015	1424,916	782,616
-31,140	14,005	1423,504	781,758
-30,125	14,010	1422,460	781,181
-29,111	13,986	1421,412	780,458
-28,096	13,981	1420,281	779,785
-27,082	13,929	1419,322	778,980
-26,067	13,896	1417,960	778,049
-25,052	13,889	1417,252	777,596
-24,038	13,896	1416,210	777,025
-23,023	13,913	1415,069	776,448
-22,009	13,893	1414,187	775,838
-20,994	13,860	1413,164	775,095
-19,979	13,887	1412,342	774,736
-18,965	13,859	1411,515	774,121
-17,950	13,811	1410,563	773,344
-16,936	13,867	1409,523	773,008
-15,921	13,821	1408,397	772,140
-14,906	13,805	1407,521	771,554
-13,892	13,827	1406,544	771,091
-12,877	13,795	1405,639	770,419
-11,863	13,848	1404,854	770,204
-10,848	13,801	1403,879	769,420
-9,833	13,770	1402,967	768,745
-8,819	13,739	1402,216	768,158
-7,804	13,763	1401,120	767,638
-6,790	13,687	1400,146	766,722
-5,775	13,726	1399,044	766,267
-4,760	13,752	1398,168	765,877
-3,746	13,735	1397,243	765,264
-2,731	13,721	1396,572	764,800
-1,717	13,706	1395,825	764,293
-0,702	13,724	1393,782	763,224
0,313	17,454	1311,384	735,435
1,327	33,588	705,455	432,995
2,342	51,469	123,906	83,176
3,356	1,436	16,781	8,511
4,371	-7,661	3,229	1,539
5,386	-50,783	0,562	0,186
6,400	189,720	0,158	0,168
7,415	121,051	-0,154	-0,136
8,429	-58,524	-0,346	-0,106
9,444	30,611	-0,293	-0,177
10,459	96,805	-0,203	-0,164
11,473	-67,711	-0,223	-0,061
12,488	-75,310	-0,320	-0,080
13,502	138,065	-0,262	-0,243
14,517	99,453	-0,228	-0,186
15,531	171,126	-0,248	-0,252
16,546	127,405	-0,312	-0,280
17,561	11,202	-0,319	-0,172
18,575	26,999	-0,188	-0,111
19,590	73,515	-0,258	-0,190
20,604	-21,489	-0,193	-0,083
21,619	10,125	-0,479	-0,256
22,634	94,771	-0,491	-0,394
23,648	-34,844	-0,604	-0,232
24,663	62,220	-0,299	-0,210
25,677	16,218	-0,350	-0,195
26,692	117,377	-0,258	-0,224
27,707	276,822	-0,333	-0,419
28,721	239,318	-0,346	-0,407
29,736	155,221	-0,389	-0,378
30,750	-42,975	-0,391	-0,139
31,765	56,299	-0,407	-0,279
32,780	161,810	-0,374	-0,370
33,794	17,576	-0,442	-0,247
34,809	73,316	-0,380	-0,280
35,823	33,134	-0,339	-0,207
36,838	-0,417	-0,467	-0,233
37,853	90,888	-0,397	-0,314
38,867	33,023	-0,425	-0,259
39,882	118,938	-0,263	-0,229
40,896	188,828	-0,337	-0,357
41,911	119,423	-0,324	-0,283
42,926	-19,832	-0,407	-0,177
43,940	119,105	-0,361	-0,315
44,955	231,891	-0,388	-0,449
45,969	292,819	-0,252	-0,324
46,984	15,713	-0,381	-0,210
47,999	-1,221	-0,308	-0,153
49,013	-78,738	-0,421	-0,100
50,028	90,424	-0,282	-0,223
51,042	300,323	-0,303	-0,394
52,057	60,382	-0,316	-0,220
53,071	278,440	-0,305	-0,383
54,086	-47,415	-0,309	-0,105
55,101	62,491	-0,385	-0,270
56,115	84,193	-0,364	-0,280
57,130	-10,430	-0,312	-0,145
58,144	30,501	-0,333	-0,200
59,159	150,827	-0,388	-0,371
60,174	238,594	-0,345	-0,404
61,188	185,101	-0,258	-0,270
62,203	-20,180	-0,338	-0,146
63,217	135,644	-0,209	-0,192
64,232	-146,605	-0,362	-0,022
65,247	-62,594	-0,428	-0,124
66,261	75,268	-0,280	-0,207
67,276	73,492	-0,312	-0,229
68,290	155,606	-0,267	-0,259
69,305	-26,014	-0,284	-0,117
70,320	56,574	-0,290	-0,198
71,334	-34,977	-0,319	-0,122
72,349	-132,874	-0,431	-0,038
73,363	1,595	-0,340	-0,172
74,378	59,215	-0,335	-0,231
75,393	288,762	-0,221	-0,282
76,407	-52,482	-0,271	-0,088
77,422	52,522	-0,206	-0,138
78,436	29,740	-0,299	-0,178
79,451	-1,925	-0,235	-0,116
80,466	16,906	-0,342	-0,190
81,480	172,483	-0,337	-0,341
82,495	2,580	-0,261	-0,132
83,509	-26,043	-0,286	-0,118
84,524	60,388	-0,184	-0,128
85,539	135,504	-0,189	-0,173
86,553	161,008	-0,233	-0,229
87,568	10,640	-0,373	-0,199
88,582	-14,249	-0,291	-0,131
89,597	116,602	-0,302	-0,260
90,611	-54,123	-0,338	-0,107
91,626	-18,535	-0,312	-0,136
92,641	10,539	-0,257	-0,137
93,655	43,050	-0,339	-0,217
94,670	620,550	-0,161	-0,286
95,684	136,417	-0,309	-0,283
96,699	34,061	-0,309	-0,188
97,714	130,954	-0,210	-0,189
98,728	134,418	-0,216	-0,196
99,743	-61,967	-0,420	-0,123
100,757	49,352	-0,194	-0,128
101,772	55,558	-0,339	-0,230
102,787	-110,713	-0,169	-0,024
103,801	-43,247	-0,375	-0,132
104,816	-36,395	-0,315	-0,118
105,830	9,466	-0,254	-0,134
106,845	-51,663	-0,315	-0,102
107,860	105,241	-0,252	-0,209
108,874	125,812	-0,230	-0,204
109,889	90,352	-0,206	-0,162
110,903	14,640	-0,342	-0,187
111,918	-29,780	-0,352	-0,140
112,933	99,164	-0,253	-0,205
113,947	66,271	-0,251	-0,178
114,962	125,490	-0,226	-0,200
115,976	34,167	-0,358	-0,218
116,991	4,209	-0,208	-0,106
118,006	97,045	-0,295	-0,237
119,020	-79,361	-0,269	-0,063
120,035	-111,684	-0,209	-0,029
121,049	28,620	-0,252	-0,149
122,064	-15,917	-0,190	-0,084
123,079	-1,386	-0,286	-0,141
124,093	342,237	-0,130	-0,178
125,108	114,491	-0,286	-0,244
126,122	42,186	-0,152	-0,096
127,137	70,007	-0,248	-0,179
128,151	46,254	-0,287	-0,186
129,166	-142,922	-0,219	0,015
130,181	70,107	-0,307	-0,222
131,195	148,047	-0,178	-0,168
132,210	107,439	-0,326	-0,272
133,224	8,005	-0,321	-0,168
134,239	219,617	-0,164	-0,184
135,254	164,636	-0,187	-0,184
136,268	177,337	-0,250	-0,255
137,283	-28,696	-0,279	-0,112
138,297	147,355	-0,269	-0,253
139,312	80,901	-0,333	-0,251
140,327	223,075	-0,223	-0,252
141,341	800,000	-0,067	-0,191
142,356	-42,852	-0,224	-0,079
143,370	41,986	-0,287	-0,182
144,385	91,993	-0,242	-0,190
145,400	11,438	-0,277	-0,148
146,414	-29,409	-0,235	-0,094
147,429	104,476	-0,240	-0,197
148,443	-141,393	-0,190	0,013
149,458	-6,987	-0,211	-0,100
150,473	9,595	-0,293	-0,155
151,487	39,102	-0,165	-0,103
152,502	260,205	-0,193	-0,233
153,516	-43,372	-0,319	-0,112
154,531	-6,434	-0,241	-0,114
155,546	74,523	-0,257	-0,189
156,560	100,725	-0,253	-0,205
157,575	-19,007	-0,132	-0,057
158,589	199,746	-0,155	-0,166
159,604	-113,326	-0,175	0,024
160,619	216,791	-0,241	-0,268
161,633	5,481	-0,267	-0,137
162,648	147,311	-0,196	-0,185
163,662	140,788	-0,130	-0,120
164,677	345,230	-0,165	-0,227
165,692	-40,065	-0,204	-0,074
166,706	50,528	-0,206	-0,136
167,721	141,986	-0,282	-0,261
168,735	-114,362	-0,243	-0,032
169,750	273,379	-0,148	-0,183
170,764	16,929	-0,291	-0,161
171,779	-181,866	-0,269	0,003
172,794	35,603	-0,264	-0,161
173,808	-21,973	-0,253	-0,107
174,823	-71,766	-0,290	-0,075
175,837	-14,801	-0,320	-0,143
176,852	69,758	-0,233	-0,167
177,867	14,191	-0,283	-0,153
178,881	125,854	-0,130	-0,114
179,896	379,793	-0,105	-0,150
180,910	61,230	-0,175	-0,121
181,925	113,423	-0,307	-0,260
182,940	189,513	-0,244	-0,255
183,954	168,994	-0,246	-0,244
184,969	-96,094	-0,199	-0,036
185,983	473,301	-0,117	-0,184
186,998	241,425	-0,181	-0,211
188,013	461,113	-0,134	-0,208
189,027	139,714	-0,088	-0,081
190,042	-71,770	-0,327	-0,084
191,056	366,847	-0,134	-0,189
192,071	173,336	-0,218	-0,219
193,086	334,593	-0,118	-0,159
194,100	-200,000	-0,005	-0,148
195,115	-182,945	-0,146	-0,002
196,129	22,628	-0,241	-0,137
197,144	34,295	-0,236	-0,143
198,159	284,371	-0,134	-0,168
199,173	800,000	-0,112	-0,240
200,188	77,483	-0,172	-0,127
201,202	18,846	-0,213	-0,118
202,217	193,581	-0,143	-0,151
203,232	134,913	-0,321	-0,290
204,246	174,919	-0,224	-0,225
205,261	414,885	-0,165	-0,245
206,275	-200,000	-0,040	-0,212
207,290	15,101	-0,253	-0,137
208,304	171,623	-0,160	-0,160
209,319	28,670	-0,232	-0,136
210,334	104,414	-0,203	-0,166
211,348	137,772	-0,253	-0,230
212,363	49,400	-0,184	-0,120
213,377	-30,329	-0,269	0,105
214,392	68,331	-0,177	-0,126
215,407	208,417	-0,209	-0,227
216,421	273,747	-0,118	-0,146
217,436	-19,625	-0,256	-0,110
218,450	180,584	-0,213	-0,218
219,465	-58,044	-0,206	-0,062
220,480	142,216	-0,150	-0,138
221,494	183,571	-0,166	-0,170
222,509	481,193	-0,242	-0,383
223,523	800,000	0,064	-0,131
224,538	49,980	-0,170	-0,111
225,553	10,433	-0,275	-0,145
226,567	103,631	-0,217	-0,177
227,582	-108,284	-0,184	-0,027
228,596	-19,796	-0,171	-0,073
229,611	148,522	-0,159	-0,149
230,626	45,344	-0,200	-0,128
231,640	335,651	-0,163	-0,219
232,655	128,644	-0,130	-0,115
233,669	-40,540	-0,277	-0,099
234,684	-34,764	-0,301	-0,114
235,699	27,167	-0,126	-0,073
236,713	8,888	-0,227	-0,118
237,728	200,483	-0,163	-0,174
238,742	102,815	-0,138	-0,112
239,757	94,639	-0,139	-0,110
240,772	152,035	-0,275	-0,260
241,786	215,739	-0,179	-0,197
242,801	94,193	-0,198	-0,156
243,815	735,011	-0,132	-0,246
244,830	72,629	-0,183	-0,132
245,844	-80,263	-0,189	-0,043
246,859	182,435	-0,189	-0,193
247,874	139,309	-0,224	-0,204
248,888	714,782	-0,123	-0,227
249,903	260,027	-0,127	-0,152
250,917	-34,972	-0,200	-0,075
251,932	-135,893	-0,112	0,009
252,947	404,536	-0,016	0,024
253,961	-0,211	-0,240	-0,118
254,976	416,531	-0,146	-0,217
255,990	705,673	-0,074	-0,137
257,005	713,746	-0,091	-0,167
258,020	800,000	-0,110	-0,247
259,034	-56,738	-0,286	-0,087
260,049	1,839	-0,129	-0,064
261,063	-14,152	-0,157	-0,070
262,078	36,254	-0,205	-0,125
263,093	85,187	-0,158	-0,120
264,107	55,684	-0,156	-0,104
265,122	-81,415	-0,144	-0,033
266,136	122,256	-0,157	-0,136
267,151	389,062	-0,065	-0,094
268,166	800,000	-0,092	-0,246
269,180	60,618	-0,229	-0,157
270,195	751,978	-0,105	-0,196
271,209	-15,315	-0,277	-0,122
272,224	610,187	-0,146	-0,253
273,239	800,000	-0,066	-0,173
274,253	-10,201	-0,140	-0,064
275,268	-96,959	-0,230	-0,041
276,282	134,462	-0,148	-0,132
277,297	-200,000	-0,033	-0,183
278,312	12,974	-0,265	-0,141
279,326	73,324	-0,152	-0,110
280,341	-146,253	-0,144	-0,009
281,355	154,717	-0,178	-0,169
282,370	800,000	-0,064	-0,179
283,384	589,893	-0,201	-0,344
284,399	184,596	-0,216	-0,222
285,414	-130,223	-0,258	-0,024
286,428	109,115	-0,052	-0,043
287,443	746,654	-0,054	-0,101
288,457	-60,576	-0,063	0,018
289,472	213,455	-0,087	-0,095
290,487	272,310	-0,163	-0,199
291,501	55,132	-0,192	-0,128
292,516	458,577	-0,045	-0,069
293,530	90,660	-0,163	-0,126
294,545	27,907	-0,195	-0,113
295,560	254,114	-0,113	-0,134
296,574	-74,130	-0,135	-0,034
297,589	408,484	-0,114	-0,166
298,603	800,000	-0,025	-0,061
299,618	61,527	-0,182	-0,125
300,633	-2,067	-0,098	-0,047
301,647	39,111	-0,229	-0,141
302,662	-50,712	-0,190	-0,061
303,676	67,278	-0,083	-0,058
304,691	118,460	-0,173	-0,147
305,706	143,376	-0,257	-0,235
306,720	479,690	-0,204	-0,319
307,735	246,236	-0,151	-0,176
308,749	-84,453	-0,135	0,029
309,764	292,054	-0,100	0,126
310,779	-5,057	-0,227	-0,107
311,793	339,349	-0,128	-0,173
312,808	-129,818	-0,192	-0,018
313,822	174,880	-0,166	-0,166
314,837	1,235	-0,194	-0,096
315,852	611,184	-0,084	-0,144
316,866	692,463	-0,077	-0,139
317,881	-92,011	-0,211	-0,041
318,895	-170,167	-0,229	0,005
319,910	-43,479	-0,125	-0,043
320,925	111,803	-0,140	-0,116
321,939	-25,371	-0,201	-0,082
322,954	-23,130	-0,136	-0,056
323,968	53,922	-0,153	0,101
324,983	-81,706	-0,125	-0,028
325,997	285,711	-0,169	-0,210
327,012	158,700	-0,216	-0,206
328,027	-95,455	-0,129	-0,024
329,041	-200,000	0,002	-0,125
330,056	42,194	-0,116	-0,072
331,070	58,855	-0,093	-0,063
332,085	800,000	-0,049	0,115
333,100	-87,430	-0,175	0,036
334,114	16,761	-0,135	-0,073
335,129	304,902	-0,143	-0,183
336,143	13,896	-0,193	-0,103
337,158	44,972	-0,102	-0,065
338,173	-200,000	-0,047	-0,146
339,187	456,386	-0,092	-0,141
340,202	81,914	-0,087	-0,065
341,216	800,000	-0,061	-0,140
342,231	148,243	-0,170	-0,158
343,246	-4,123	-0,231	-0,109
344,260	-122,266	-0,134	-0,015
345,275	-42,837	-0,029	-0,010
346,289	-26,340	-0,072	-0,029
347,304	-5,506	-0,122	-0,057
348,319	295,695	-0,178	-0,225
349,333	267,911	-0,153	-0,185
350,348	144,055	-0,192	-0,176
351,362	40,253	-0,049	-0,030
352,377	38,629	-0,110	-0,067
353,392	185,591	-0,124	-0,126
354,406	-200,000	0,008	-0,125
355,421	209,253	1315,220	1415,329
356,435	161,042	1475,990	1415,806
