DTS Sentinel unit serial number:	SN410029Multiplexer serial number:	ORYXHardware model number:	OX2-SRSoftware version number:	ORYX F/W v4,00 Oryx Data Collector v3.7.2.0data status	okinstallation	B3 Nyhavnadifferential loss correction	single-endedforward channel	channel 1reverse channel	N/Adate	2023/12/01time	01:52:30forward acquisition time	300,00reverse acquisition time	0,00gamma	499,1914k internal	0,3211k external	0,3211temperature offset calibration	1,0000default loss term (dB/km)	0,3820temperature slope calibration	1,0000multiplexer offset coefficient	1,0000multiplexer slope coefficient	1,0000fibre end	0,00T internal ref (°C)	8,77T ext. ref 1 (°C)	-6,38T ext. ref 2 (°C)	-6,52length (m)	temperature (°C)	Stokes	anti-Stokes-744,400	207,723	-0,138	-0,156
-743,385	640,785	-0,096	0,178
-742,371	800,000	-0,124	-0,272
-741,356	-200,000	0,033	0,356
-740,342	241,556	-0,228	-0,276
-739,327	-200,000	-0,052	0,242
-738,312	584,863	-0,131	-0,234
-737,298	-200,000	-0,077	0,339
-736,283	311,960	-0,174	-0,238
-735,269	371,703	0,175	0,258
-734,254	248,586	-0,169	-0,208
-733,239	99,245	-0,203	0,170
-732,225	-200,000	-0,046	-0,172
-731,210	-200,000	-0,008	0,101
-730,196	711,941	0,052	0,100
-729,181	-200,000	-0,007	-0,050
-728,167	-200,000	0,019	0,095
-727,152	800,000	0,023	-0,053
-726,137	89,570	-0,207	-0,167
-725,123	800,000	-0,067	-0,141
-724,108	-200,000	-0,049	-0,214
-723,094	273,338	-0,098	-0,126
-722,079	800,000	0,020	0,048
-721,064	-200,000	-0,005	-0,055
-720,050	557,829	-0,067	-0,118
-719,035	175,795	0,061	-0,064
-718,021	597,075	0,096	-0,173
-717,006	-55,427	-0,082	-0,027
-715,991	149,807	0,052	-0,051
-714,977	-125,328	-0,095	0,010
-713,962	800,000	-0,016	0,033
-712,948	800,000	-0,044	0,109
-711,933	800,000	0,015	-0,033
-710,918	-200,000	0,010	-0,051
-709,904	532,748	-0,051	-0,088
-708,889	-105,802	0,090	-0,015
-707,875	207,733	0,053	-0,060
-706,860	-200,000	-0,004	-0,033
-705,845	-200,000	0,001	-0,052
-704,831	43,329	0,150	-0,099
-703,816	-200,000	0,004	-0,040
-702,802	46,048	-0,025	-0,017
-701,787	94,756	-0,159	-0,131
-700,772	-131,757	-0,108	0,010
-699,758	-78,540	-0,193	-0,047
-698,743	38,905	0,117	-0,075
-697,729	-113,646	0,108	0,015
-696,714	55,929	0,044	-0,031
-695,699	548,135	-0,046	0,080
-694,685	146,663	0,091	-0,089
-693,670	546,581	0,029	0,051
-692,656	-200,000	-0,009	0,034
-691,641	419,421	-0,015	-0,023
-690,627	800,000	-0,034	0,107
-689,612	170,743	-0,188	0,195
-688,597	-116,792	-0,095	0,012
-687,583	-200,000	-0,005	-0,066
-686,568	344,427	-0,047	-0,067
-685,554	2,128	-0,100	0,052
-684,539	-200,000	0,004	0,136
-683,524	443,920	0,027	0,043
-682,510	150,149	-0,114	-0,112
-681,495	-0,433	-0,103	-0,053
-680,481	432,744	-0,068	-0,108
-679,466	-29,781	0,052	-0,021
-678,451	75,436	0,060	-0,046
-677,437	54,134	-0,100	-0,069
-676,422	-160,929	-0,100	-0,004
-675,408	88,007	0,007	-0,006
-674,393	110,508	0,080	0,070
-673,378	-107,514	-0,107	-0,017
-672,364	167,480	-0,080	-0,082
-671,349	313,493	0,107	-0,145
-670,335	-200,000	-0,022	-0,138
-669,320	86,137	0,033	0,026
-668,305	-200,000	0,010	0,120
-667,291	92,962	-0,055	-0,045
-666,276	13,735	-0,043	-0,024
-665,262	118,608	0,012	-0,010
-664,247	-136,092	-0,170	0,014
-663,232	250,372	0,077	0,094
-662,218	800,000	0,019	0,044
-661,203	338,269	0,046	0,065
-660,189	287,738	0,059	0,077
-659,174	659,334	-0,136	-0,253
-658,159	213,989	-0,119	-0,136
-657,145	-85,184	-0,143	-0,032
-656,130	200,123	-0,110	0,122
-655,116	773,629	-0,036	0,070
-654,101	-110,959	0,117	-0,017
-653,086	100,436	-0,022	-0,018
-652,072	95,244	-0,035	-0,029
-651,057	-200,000	-0,032	0,229
-650,043	175,374	-0,040	-0,042
-649,028	718,080	0,052	-0,099
-648,014	-49,649	-0,078	-0,027
-646,999	-111,947	0,078	-0,011
-645,984	623,021	-0,053	0,097
-644,970	800,000	0,024	0,060
-643,955	198,665	-0,142	-0,158
-642,941	276,284	-0,125	-0,161
-641,926	140,105	0,103	-0,098
-640,911	-121,226	-0,036	0,004
-639,897	635,533	0,012	0,022
-638,882	-200,000	-0,003	0,139
-637,868	165,534	-0,099	-0,101
-636,853	-3,496	0,082	-0,041
-635,838	252,402	-0,076	-0,094
-634,824	184,003	0,027	-0,029
-633,809	241,868	-0,138	-0,167
-632,795	337,483	0,041	0,058
-631,780	23,924	0,032	-0,019
-630,765	-103,707	0,113	-0,019
-629,751	-78,593	-0,060	-0,015
-628,736	-50,296	-0,088	-0,030
-627,722	361,442	-0,077	-0,112
-626,707	-141,027	-0,082	-0,006
-625,692	-73,549	0,046	0,012
-624,678	-39,795	-0,074	-0,028
-623,663	-88,349	-0,122	0,026
-622,649	171,223	-0,109	-0,113
-621,634	89,144	-0,018	-0,014
-620,619	7,657	0,076	-0,041
-619,605	800,000	-0,048	0,119
-618,590	-200,000	-0,019	-0,158
-617,576	800,000	-0,053	0,127
-616,561	-200,000	-0,010	-0,038
-615,546	-8,385	0,033	-0,016
-614,532	-53,328	-0,154	-0,051
-613,517	-200,000	-0,018	-0,061
-612,503	-81,768	-0,144	0,034
-611,488	-162,332	0,222	0,008
-610,474	800,000	0,068	0,153
-609,459	404,377	0,021	0,032
-608,444	472,782	0,004	0,006
-607,430	-200,000	-0,023	-0,100
-606,415	800,000	-0,030	-0,063
-605,401	-200,000	0,010	0,062
-604,386	-34,323	-0,085	0,033
-603,371	55,760	-0,070	0,049
-602,357	-15,104	-0,117	-0,054
-601,342	-110,321	-0,091	-0,013
-600,328	-200,000	-0,007	-0,036
-599,313	-200,000	0,032	-0,143
-598,298	217,202	-0,041	0,048
-597,284	-5,436	0,085	0,042
-596,269	800,000	0,003	0,008
-595,255	10,832	0,061	0,034
-594,240	800,000	-0,023	0,064
-593,225	-113,292	-0,076	-0,011
-592,211	609,082	-0,028	0,051
-591,196	-89,937	0,009	-0,002
-590,182	-135,126	0,049	0,004
-589,167	160,151	-0,035	0,035
-588,152	-69,018	0,027	-0,008
-587,138	394,414	-0,021	-0,031
-586,123	246,037	-0,048	-0,059
-585,109	647,988	-0,028	0,052
-584,094	55,070	0,067	-0,047
-583,079	368,063	0,064	0,093
-582,065	-17,541	0,106	-0,048
-581,050	12,833	-0,020	-0,011
-580,036	-155,617	-0,046	-0,002
-579,021	-177,113	-0,070	0,001
-578,006	418,025	0,039	-0,060
-576,992	-174,539	-0,078	-0,002
-575,977	800,000	-0,026	0,074
-574,963	7,878	0,105	0,056
-573,948	59,699	-0,077	0,055
-572,934	-27,127	0,081	0,034
-571,919	-24,631	-0,051	-0,022
-570,904	739,980	0,080	-0,155
-569,890	-61,768	-0,080	-0,024
-568,875	415,713	-0,078	-0,120
-567,861	131,632	0,043	0,040
-566,846	227,856	-0,018	0,021
-565,831	-200,000	-0,047	-0,157
-564,817	147,759	-0,119	-0,116
-563,802	-200,000	-0,007	0,037
-562,788	77,640	0,154	-0,118
-561,773	-73,112	0,083	-0,022
-560,758	-109,388	0,106	0,016
-559,744	800,000	-0,052	0,104
-558,729	-154,914	-0,159	-0,007
-557,715	189,936	0,030	-0,032
-556,700	68,415	-0,096	-0,071
-555,685	-14,151	-0,065	0,030
-554,671	397,922	-0,031	0,047
-553,656	22,848	0,132	0,078
-552,642	40,624	-0,077	0,050
-551,627	-85,717	0,110	-0,024
-550,612	-200,000	-0,193	0,000
-549,598	515,436	0,034	-0,058
-548,583	800,000	0,065	0,186
-547,569	3,241	0,037	-0,019
-546,554	-13,688	0,086	0,040
-545,539	-200,000	0,016	0,127
-544,525	87,510	0,130	0,103
-543,510	-63,127	0,206	-0,061
-542,496	-102,300	-0,088	-0,015
-541,481	-145,984	0,027	0,002
-540,466	-3,460	0,031	0,015
-539,452	-200,000	-0,009	0,066
-538,437	-200,000	-0,011	0,046
-537,423	800,000	-0,023	0,050
-536,408	643,161	0,073	0,134
-535,393	800,000	-0,019	0,054
-534,379	25,489	-0,040	0,024
-533,364	800,000	0,014	0,036
-532,350	-200,000	0,017	0,109
-531,335	-50,186	-0,025	0,008
-530,321	-25,368	-0,052	-0,022
-529,306	-200,000	-0,015	-0,082
-528,291	-36,777	-0,071	0,027
-527,277	183,219	-0,025	-0,026
-526,262	134,203	-0,046	-0,043
-525,248	568,729	0,037	-0,064
-524,233	13,955	0,118	-0,066
-523,218	-74,800	0,070	-0,018
-522,204	-200,000	0,000	-0,024
-521,189	196,586	-0,055	-0,061
-520,175	-94,666	-0,110	0,021
-519,160	800,000	0,021	0,052
-518,145	-24,311	-0,112	-0,048
-517,131	708,598	0,016	0,031
-516,116	-145,900	0,158	-0,010
-515,102	445,116	-0,071	-0,113
-514,087	800,000	-0,024	-0,059
-513,072	125,591	-0,160	-0,145
-512,058	-200,000	-0,008	-0,149
-511,043	-200,000	-0,019	-0,173
-510,029	-48,016	0,132	-0,046
-509,014	-40,065	0,129	-0,048
-507,999	561,679	0,065	-0,113
-506,985	800,000	0,005	-0,014
-505,970	-200,000	0,001	0,143
-504,956	-118,827	-0,013	0,002
-503,941	-62,415	0,107	0,032
-502,926	151,748	0,061	0,060
-501,912	-138,870	-0,101	0,008
-500,897	-72,928	0,165	-0,043
-499,883	-200,000	-0,003	0,163
-498,868	-200,000	-0,014	-0,073
-497,853	800,000	0,042	0,127
-496,839	-200,000	0,015	0,062
-495,824	660,612	0,015	0,027
-494,810	-200,000	0,028	-0,114
-493,795	800,000	0,024	0,071
-492,781	7,738	-0,027	0,014
-491,766	273,475	0,035	-0,045
-490,751	-59,444	-0,036	0,011
-489,737	12,030	0,045	-0,025
-488,722	-56,786	-0,056	0,018
-487,708	282,393	0,060	-0,078
-486,693	162,943	0,066	0,067
-485,678	88,488	-0,069	0,055
-484,664	-200,000	0,006	-0,107
-483,649	110,740	-0,067	0,058
-482,635	147,624	0,108	0,105
-481,620	800,000	-0,010	0,021
-480,605	19,658	0,072	-0,041
-479,591	-40,171	-0,121	0,045
-478,576	596,608	-0,058	-0,104
-477,562	-14,630	-0,046	-0,021
-476,547	-200,000	-0,001	-0,055
-475,532	26,303	-0,174	0,104
-474,518	-200,000	-0,017	0,115
-473,503	-168,487	0,118	0,003
-472,489	537,122	-0,040	0,069
-471,474	-200,000	-0,002	-0,141
-470,459	800,000	-0,104	-0,213
-469,445	-35,856	-0,115	0,044
-468,430	32,344	-0,100	-0,062
-467,416	51,657	0,088	0,060
-466,401	88,641	0,010	-0,008
-465,386	72,275	-0,040	0,030
-464,372	54,275	-0,098	-0,067
-463,357	403,951	0,033	-0,049
-462,343	230,085	0,062	-0,072
-461,328	-200,000	0,011	-0,156
-460,313	59,614	0,105	0,074
-459,299	-11,602	0,091	-0,043
-458,284	-200,000	0,012	0,112
-457,270	800,000	-0,014	0,030
-456,255	368,002	-0,039	0,057
-455,241	3,143	-0,007	-0,004
-454,226	7,836	-0,114	0,061
-453,211	-200,000	0,007	0,088
-452,197	71,928	0,087	0,065
-451,182	-149,351	0,059	-0,003
-450,168	-200,000	-0,015	0,130
-449,153	-12,331	-0,056	-0,026
-448,138	-200,000	0,007	0,038
-447,124	800,000	0,021	-0,063
-446,109	472,753	-0,050	0,081
-445,095	22,884	0,098	-0,057
-444,080	-200,000	0,010	-0,149
-443,065	134,956	-0,063	-0,058
-442,051	-153,156	-0,143	-0,007
-441,036	502,202	-0,061	-0,101
-440,022	0,409	0,096	-0,049
-439,007	140,440	-0,020	-0,019
-437,992	-200,000	-0,002	0,037
-436,978	-106,045	0,072	-0,012
-435,963	147,906	-0,134	0,130
-434,949	-60,231	-0,092	0,028
-433,934	800,000	-0,053	-0,141
-432,919	136,722	-0,119	-0,112
-431,905	800,000	0,026	-0,076
-430,890	-200,000	0,012	-0,045
-429,876	-200,000	0,004	-0,064
-428,861	-52,730	0,122	-0,040
-427,846	249,733	0,016	-0,019
-426,832	-96,318	-0,121	0,023
-425,817	-200,000	0,023	0,092
-424,803	89,698	-0,133	-0,106
-423,788	800,000	-0,036	-0,084
-422,773	-200,000	-0,013	0,080
-421,759	157,648	0,147	0,146
-420,744	-85,361	-0,079	-0,017
-419,730	81,030	-0,031	-0,024
-418,715	36,410	-0,065	-0,041
-417,701	800,000	0,031	0,067
-416,686	377,036	0,032	-0,048
-415,671	800,000	-0,046	0,143
-414,657	-200,000	-0,014	-0,120
-413,642	-200,000	-0,026	-0,110
-412,628	205,847	-0,116	0,129
-411,613	-200,000	0,021	0,077
-410,598	-106,922	-0,066	-0,010
-409,584	115,698	0,091	0,080
-408,569	800,000	0,027	-0,064
-407,555	332,516	0,028	0,039
-406,540	163,602	0,115	0,116
-405,525	94,551	-0,102	0,083
-404,511	184,374	-0,037	0,039
-403,496	-200,000	0,013	-0,084
-402,482	800,000	-0,037	-0,105
-401,467	-200,000	0,029	0,196
-400,452	759,318	0,036	0,070
-399,438	143,222	-0,128	-0,122
-398,423	789,281	0,026	-0,051
-397,409	-107,939	-0,051	0,008
-396,394	-200,000	0,014	-0,117
-395,379	275,689	0,069	-0,088
-394,365	-200,000	-0,000	-0,004
-393,350	353,770	-0,033	0,048
-392,336	-200,000	-0,020	0,071
-391,321	114,802	0,024	0,021
-390,306	-141,099	-0,025	-0,002
-389,292	-200,000	0,020	0,073
-388,277	800,000	0,043	-0,087
-387,263	-153,740	-0,064	0,003
-386,248	41,701	0,192	0,124
-385,233	684,867	0,032	0,059
-384,219	-200,000	-0,000	0,047
-383,204	-47,400	-0,085	-0,029
-382,190	-200,000	-0,003	0,077
-381,175	55,031	-0,028	-0,019
-380,160	-200,000	0,032	0,138
-379,146	800,000	-0,039	-0,121
-378,131	-110,945	0,060	-0,009
-377,117	-200,000	-0,021	0,136
-376,102	85,433	0,107	0,084
-375,088	4,584	-0,148	0,077
-374,073	107,263	-0,103	0,087
-373,058	-200,000	0,022	0,105
-372,044	374,614	0,094	0,137
-371,029	105,111	0,107	-0,090
-370,015	382,254	0,032	-0,047
-369,000	-200,000	-0,052	-0,239
-367,985	-13,409	-0,297	-0,137
-366,971	34,397	-0,071	0,044
-365,956	-160,955	0,253	0,009
-364,942	24,060	-0,036	0,021
-363,927	186,758	0,031	0,033
-362,912	-200,000	-0,007	0,076
-361,898	714,665	0,045	-0,085
-360,883	-200,000	-0,028	-0,140
-359,869	-150,727	0,055	0,003
-358,854	-107,324	0,100	-0,016
-357,839	50,661	0,023	0,016
-356,825	-200,000	0,010	0,201
-355,810	-200,000	-0,016	0,154
-354,796	555,121	0,011	-0,019
-353,781	-107,419	-0,045	-0,007
-352,766	-95,573	0,118	0,022
-351,752	210,445	-0,056	0,063
-350,737	-37,080	-0,091	0,035
-349,723	800,000	0,024	-0,069
-348,708	22,732	0,100	-0,059
-347,693	-200,000	0,011	-0,129
-346,679	14,033	-0,075	-0,041
-345,664	-200,000	0,010	0,083
-344,650	170,543	0,044	-0,045
-343,635	-84,819	0,142	-0,031
-342,620	-70,095	-0,079	0,021
-341,606	17,894	0,033	-0,019
-340,591	800,000	0,042	0,085
-339,577	-5,028	-0,075	-0,037
-338,562	342,705	0,053	-0,075
-337,548	-200,000	-0,014	-0,139
-336,533	66,342	0,088	0,064
-335,518	-21,009	0,117	0,051
-334,504	-200,000	0,011	0,136
-333,489	-94,754	-0,149	0,029
-332,475	-11,599	-0,020	0,009
-331,460	-200,000	0,004	-0,028
-330,445	-200,000	0,003	0,027
-329,431	463,662	0,034	0,054
-328,416	155,057	0,098	0,096
-327,402	-100,837	0,084	-0,015
-326,387	33,011	-0,082	-0,050
-325,372	-200,000	0,014	-0,089
-324,358	-177,038	-0,164	-0,003
-323,343	362,774	-0,044	-0,063
-322,329	-22,650	0,140	0,060
-321,314	9,912	0,049	0,027
-320,299	-9,987	-0,053	0,025
-319,285	800,000	0,031	-0,064
-318,270	152,723	0,050	-0,049
-317,256	-81,245	-0,072	0,017
-316,241	-191,912	-0,040	-0,000
-315,226	36,185	0,134	0,084
-314,212	155,556	-0,065	0,064
-313,197	-200,000	0,007	0,021
-312,183	590,271	0,051	-0,091
-311,168	3,436	0,051	-0,026
-310,153	106,721	-0,094	-0,080
-309,139	60,002	-0,113	0,079
-308,124	-58,115	0,123	0,038
-307,110	99,475	-0,094	0,077
-306,095	15,504	0,033	-0,019
-305,080	-150,315	-0,031	0,002
-304,066	-200,000	-0,036	0,147
-303,051	259,617	-0,048	-0,059
-302,037	-169,789	0,110	-0,003
-301,022	610,810	-0,014	-0,025
-300,008	800,000	0,043	0,100
-298,993	-53,032	0,153	0,050
-297,978	198,477	0,070	-0,077
-296,964	371,808	-0,056	0,081
-295,949	43,508	-0,071	-0,046
-294,935	-200,000	0,004	0,062
-293,920	196,698	0,064	-0,069
-292,905	181,433	-0,082	-0,086
-291,891	800,000	-0,006	-0,014
-290,876	-200,000	0,010	-0,053
-289,862	-23,220	-0,074	0,031
-288,847	-57,546	-0,105	0,033
-287,832	800,000	-0,029	-0,090
-286,818	401,694	-0,096	-0,143
-285,803	211,851	-0,088	0,099
-284,789	-200,000	0,021	-0,081
-283,774	-200,000	-0,027	0,149
-282,759	-112,296	-0,012	-0,002
-281,745	-200,000	-0,003	-0,182
-280,730	-138,322	0,076	0,006
-279,716	-82,372	-0,046	-0,011
-278,701	800,000	0,043	0,103
-277,686	-100,596	0,082	-0,014
-276,672	-119,575	0,062	-0,008
-275,657	2,189	0,042	-0,022
-274,643	81,572	-0,099	0,076
-273,628	-200,000	0,011	-0,042
-272,613	-200,000	-0,013	-0,047
-271,599	-45,485	-0,153	0,054
-270,584	-200,000	0,012	0,072
-269,570	471,709	-0,032	0,052
-268,555	-200,000	0,000	-0,091
-267,540	-71,345	-0,098	-0,026
-266,526	800,000	-0,036	-0,102
-265,511	130,457	0,088	-0,080
-264,497	792,815	-0,049	0,096
-263,482	538,136	-0,042	-0,071
-262,467	42,815	0,164	0,106
-261,453	122,724	0,063	0,057
-260,438	-47,657	-0,143	0,049
-259,424	98,368	0,037	0,030
-258,409	800,000	0,049	-0,112
-257,395	285,142	0,038	0,049
-256,380	129,993	0,042	0,038
-255,365	-45,139	0,085	0,030
-254,351	800,000	-0,027	-0,069
-253,336	196,036	-0,010	-0,011
-252,322	-4,385	-0,096	-0,047
-251,307	3,136	-0,055	0,029
-250,292	-139,915	0,130	0,010
-249,278	-72,722	0,130	0,034
-248,263	130,587	0,147	0,134
-247,249	401,920	-0,043	-0,064
-246,234	-84,816	0,168	-0,037
-245,219	174,665	-0,027	-0,028
-244,205	-200,000	-0,024	-0,117
-243,190	-76,939	0,055	-0,013
-242,176	-59,852	-0,005	0,002
-241,161	293,247	-0,017	-0,022
-240,146	-200,000	0,017	0,173
-239,132	-200,000	-0,007	-0,040
-238,117	382,173	-0,037	-0,054
-237,103	281,197	-0,168	-0,214
-236,088	-200,000	0,048	-0,241
-235,073	1,210	0,018	0,009
-234,059	115,384	0,071	0,061
-233,044	362,527	-0,058	-0,083
-232,030	50,208	-0,129	-0,087
-231,015	-58,145	-0,115	-0,035
-230,000	515,958	0,045	0,075
-228,986	-200,000	-0,014	0,178
-227,971	800,000	0,032	-0,070
-226,957	-137,097	0,022	0,002
-225,942	176,715	0,066	0,068
-224,927	-200,000	-0,053	0,167
-223,913	800,000	-0,061	-0,121
-222,898	-137,246	0,105	-0,008
-221,884	800,000	-0,072	0,150
-220,869	57,069	0,050	-0,034
-219,855	317,732	-0,025	0,033
-218,840	-105,025	-0,208	0,034
-217,825	402,011	0,009	0,013
-216,811	800,000	-0,036	0,075
-215,796	-28,093	0,133	0,054
-214,782	103,323	0,029	-0,024
-213,767	-33,665	0,129	-0,050
-212,752	107,763	0,069	-0,058
-211,738	800,000	-0,009	0,021
-210,723	-141,609	-0,080	-0,006
-209,709	-26,339	0,090	0,038
-208,694	800,000	-0,086	-0,207
-207,679	79,387	-0,039	0,030
-206,665	-200,000	0,020	0,200
-205,650	-118,119	-0,080	0,010
-204,636	-149,348	0,098	0,005
-203,621	738,908	0,019	0,037
-202,606	390,782	0,098	0,144
-201,592	16,951	-0,058	-0,033
-200,577	800,000	0,009	-0,022
-199,563	124,138	0,065	-0,058
-198,548	81,653	0,056	0,043
-197,533	-108,042	-0,047	0,007
-196,519	-200,000	0,009	0,082
-195,504	195,671	-0,016	0,017
-194,490	-200,000	0,026	-0,163
-193,475	-45,788	-0,092	-0,032
-192,460	-200,000	0,011	-0,075
-191,446	-92,037	0,123	0,024
-190,431	574,183	-0,043	0,075
-189,417	187,371	0,110	0,117
-188,402	-44,537	-0,005	-0,002
-187,387	372,284	0,027	0,039
-186,373	52,816	0,045	0,031
-185,358	800,000	-0,026	-0,074
-184,344	-27,306	-0,078	0,032
-183,329	20,376	0,180	0,103
-182,315	-7,913	-0,117	0,056
-181,300	202,250	-0,085	0,094
-180,285	78,458	-0,121	0,091
-179,271	-130,357	0,088	-0,008
-178,256	31,644	-0,026	0,016
-177,242	659,192	0,090	0,165
-176,227	-103,442	0,155	-0,026
-175,212	-47,534	-0,053	0,018
-174,198	-87,001	0,088	-0,019
-173,183	81,670	-0,100	0,076
-172,169	162,615	-0,012	-0,012
-171,154	-2,588	0,078	0,038
-170,139	9,463	0,166	0,089
-169,125	-169,209	0,078	-0,002
-168,110	-89,890	0,018	0,004
-167,096	110,840	0,004	-0,004
-166,081	800,000	0,045	0,094
-165,066	-7,106	-0,104	0,050
-164,052	279,909	0,107	-0,136
-163,037	-200,000	0,030	-0,128
-162,023	178,090	0,072	0,075
-161,008	-117,517	0,021	-0,003
-159,993	-70,077	0,123	-0,033
-158,979	78,534	-0,051	-0,038
-157,964	-118,310	0,082	-0,010
-156,950	-36,503	-0,149	-0,057
-155,935	-104,109	0,074	0,012
-154,920	-21,392	0,103	0,045
-153,906	703,752	0,022	-0,042
-152,891	-189,799	0,091	-0,001
-151,877	-22,697	-0,155	-0,066
-150,862	-104,035	0,106	0,017
-149,847	-200,000	-0,026	-0,083
-148,833	-200,000	0,008	-0,083
-147,818	-200,000	-0,036	0,137
-146,804	-200,000	0,032	0,183
-145,789	152,592	-0,012	0,011
-144,775	-144,626	0,068	-0,004
-143,760	540,889	0,042	0,071
-142,745	-200,000	0,010	-0,061
-141,731	94,834	0,075	-0,061
-140,716	-69,680	0,089	-0,024
-139,702	-14,591	0,094	0,043
-138,687	-3,166	0,035	-0,017
-137,672	-39,516	-0,055	0,020
-136,658	-40,811	0,053	0,019
-135,643	280,635	-0,106	-0,134
-134,629	800,000	0,012	-0,026
-133,614	-110,814	-0,108	-0,016
-132,599	90,439	0,149	-0,118
-131,585	41,435	0,055	0,035
-130,570	-200,000	0,009	0,071
-129,556	108,528	-0,058	0,049
-128,541	21,161	-0,107	-0,061
-127,526	-200,000	-0,001	0,060
-126,512	7,951	0,060	0,032
-125,497	800,000	0,035	0,085
-124,483	224,757	-0,023	-0,026
-123,468	-70,544	-0,085	0,023
-122,453	-90,098	-0,052	-0,011
-121,439	-147,357	0,100	-0,006
-120,424	95,209	-0,025	0,020
-119,410	142,274	0,038	-0,036
-118,395	349,240	0,029	0,040
-117,380	800,000	-0,033	0,083
-116,366	8,490	0,134	0,071
-115,351	4,777	-0,085	0,044
-114,337	800,000	-0,046	0,093
-113,322	-157,034	-0,045	-0,002
-112,307	800,000	0,009	-0,027
-111,293	447,690	0,106	0,166
-110,278	800,000	0,050	0,132
-109,264	38,856	0,090	-0,057
-108,249	281,362	-0,089	-0,112
-107,234	800,000	-0,027	-0,066
-106,220	584,328	-0,033	-0,058
-105,205	73,825	-0,108	-0,080
-104,191	123,749	0,115	-0,102
-103,176	242,242	0,068	0,081
-102,162	130,275	-0,090	0,081
-101,147	90,985	-0,077	-0,061
-100,132	800,000	0,048	-0,095
-99,118	-144,066	0,120	0,008
-98,103	-200,000	0,019	-0,063
-97,089	-200,000	0,006	0,114
-96,074	285,733	-0,053	0,068
-95,059	98,473	0,101	0,082
-94,045	-6,894	0,090	0,043
-93,030	-200,000	-0,026	-0,107
-92,016	-200,000	0,000	0,105
-91,001	289,935	-0,032	0,041
-89,986	108,223	0,100	0,085
-88,972	-15,969	0,052	0,023
-87,957	232,009	0,090	0,104
-86,943	-93,653	-0,077	0,015
-85,928	800,000	-0,020	-0,046
-84,913	86,969	-0,051	-0,040
-83,899	-81,462	0,137	-0,032
-82,884	800,000	0,016	0,043
-81,870	-39,396	0,079	0,029
-80,855	-93,154	-0,223	-0,043
-79,840	-200,000	0,020	-0,085
-78,826	-200,000	0,020	0,176
-77,811	444,724	-0,074	-0,115
-76,797	800,000	0,041	-0,107
-75,782	-200,000	0,014	-0,089
-74,767	416,846	0,029	0,044
-73,753	-77,269	0,128	-0,031
-72,738	-13,888	-0,082	0,037
-71,724	360,870	-0,052	0,074
-70,709	42,239	0,058	-0,037
-69,694	-200,000	-0,003	-0,020
-68,680	-200,000	0,010	-0,075
-67,665	-104,577	0,105	0,017
-66,651	466,121	-0,014	-0,022
-65,636	199,275	0,048	-0,052
-64,622	166,281	-0,057	-0,057
-63,607	-143,103	-0,143	-0,010
-62,592	12,337	-0,060	-0,032
-61,578	66,480	0,141	-0,101
-60,563	770,283	0,067	0,130
-59,549	-52,490	-0,040	-0,013
-58,534	42,376	-2,084	-1,335
-57,519	549,843	-1,128	-1,916
-56,505	-200,000	-0,484	-4,667
-55,490	500,479	0,818	1,338
-54,476	800,000	5,472	12,105
-53,461	-200,000	22,061	340,951
-52,446	800,000	759,180	2296,753
-51,432	532,193	1652,717	2770,637
-50,417	68,924	1650,895	1195,397
-49,403	16,437	1526,252	848,265
-48,388	10,572	1450,978	778,168
-47,373	19,135	1443,033	814,813
-46,359	14,004	1431,914	784,199
-45,344	8,902	1427,729	757,672
-44,330	8,879	1425,687	756,451
-43,315	8,807	1423,995	755,180
-42,300	8,855	1422,133	754,393
-41,286	8,875	1420,954	753,828
-40,271	8,823	1419,691	752,885
-39,257	8,785	1418,631	752,115
-38,242	8,869	1417,407	751,831
-37,227	8,842	1416,471	751,176
-36,213	8,869	1415,036	750,512
-35,198	8,887	1413,684	749,853
-34,184	8,844	1412,923	749,216
-33,169	8,763	1411,561	748,085
-32,154	8,866	1410,607	748,034
-31,140	8,832	1409,276	747,136
-30,125	8,884	1408,047	746,699
-29,111	8,851	1406,907	745,911
-28,096	8,837	1405,752	745,204
-27,082	8,771	1404,567	744,236
-26,067	8,754	1403,738	743,691
-25,052	8,806	1402,470	743,229
-24,038	8,828	1401,608	742,847
-23,023	8,779	1400,763	742,140
-22,009	8,777	1399,677	741,528
-20,994	8,782	1398,567	740,930
-19,979	8,812	1397,462	740,456
-18,965	8,771	1396,869	739,922
-17,950	8,760	1395,577	739,158
-16,936	8,760	1394,947	738,796
-15,921	8,677	1393,928	737,841
-14,906	8,706	1392,847	737,375
-13,892	8,763	1391,946	737,133
-12,877	8,750	1391,321	736,713
-11,863	8,774	1390,353	736,282
-10,848	8,676	1389,585	735,390
-9,833	8,662	1388,667	734,810
-8,819	8,626	1387,830	734,174
-7,804	8,615	1386,829	733,566
-6,790	8,654	1385,661	733,096
-5,775	8,647	1384,619	732,483
-4,760	8,671	1383,918	732,193
-3,746	8,656	1382,977	731,597
-2,731	8,629	1381,896	730,874
-1,717	8,583	1381,249	730,293
-0,702	8,630	1379,276	729,435
0,313	12,636	1290,505	700,706
1,327	28,664	681,732	406,103
2,342	44,761	117,269	75,952
3,356	1,466	16,520	8,352
4,371	11,730	3,724	2,010
5,386	-28,116	1,340	0,544
6,400	800,000	0,227	0,623
7,415	145,362	-0,197	-0,186
8,429	123,004	-0,268	-0,236
9,444	104,208	-0,342	-0,284
10,459	46,179	-0,378	-0,246
11,473	-43,635	-0,232	-0,082
12,488	127,247	-0,122	-0,109
13,502	-17,502	-0,236	-0,104
14,517	108,430	-0,292	-0,245
15,531	95,372	-0,388	-0,312
16,546	14,633	-0,261	-0,143
17,561	-113,266	-0,360	-0,049
18,575	-52,048	-0,240	-0,078
19,590	31,785	-0,252	-0,152
20,604	-21,514	-0,356	-0,152
21,619	231,218	-0,287	-0,331
22,634	161,246	-0,389	-0,383
23,648	42,723	-0,501	-0,321
24,663	154,392	-0,386	-0,373
25,677	18,160	-0,397	-0,222
26,692	-37,070	-0,364	-0,137
27,707	109,127	-0,296	-0,249
28,721	265,344	-0,347	-0,427
29,736	-7,624	-0,326	-0,154
30,750	-11,184	-0,500	-0,231
31,765	-3,878	-0,349	-0,170
32,780	-54,603	-0,355	-0,112
33,794	128,489	-0,304	-0,273
34,809	42,865	-0,343	-0,219
35,823	94,132	-0,405	-0,323
36,838	27,282	-0,356	-0,210
37,853	34,348	-0,531	-0,325
38,867	117,028	-0,208	-0,179
39,882	154,185	-0,231	-0,223
40,896	-14,645	-0,329	-0,148
41,911	171,689	-0,279	-0,282
42,926	-31,356	-0,357	-0,141
43,940	209,255	-0,259	-0,286
44,955	194,403	-0,263	-0,281
45,969	170,736	-0,380	-0,383
46,984	-9,777	-0,391	-0,182
47,999	116,698	-0,285	-0,245
49,013	378,235	-0,157	-0,226
50,028	76,436	-0,319	-0,237
51,042	18,247	-0,414	-0,231
52,057	99,371	-0,301	-0,244
53,071	-13,828	-0,418	-0,189
54,086	126,709	-0,193	-0,172
55,101	84,525	-0,316	-0,243
56,115	56,726	-0,260	-0,178
57,130	71,557	-0,342	-0,249
58,144	22,825	-0,368	-0,211
59,159	245,519	-0,218	-0,258
60,174	90,585	-0,202	-0,159
61,188	118,414	-0,352	-0,304
62,203	80,299	-0,269	-0,203
63,217	345,307	-0,268	-0,370
64,232	104,653	-0,301	-0,249
65,247	444,393	-0,175	-0,271
66,261	83,880	-0,445	-0,341
67,276	-7,587	-0,392	-0,185
68,290	62,424	-0,322	-0,226
69,305	41,192	-0,301	-0,190
70,320	63,938	-0,272	-0,192
71,334	6,250	-0,318	-0,165
72,349	62,402	-0,404	-0,282
73,363	84,477	-0,309	-0,237
74,378	92,279	-0,346	-0,273
75,393	93,983	-0,349	-0,277
76,407	127,419	-0,279	-0,248
77,422	-61,943	-0,142	-0,041
78,436	-41,047	-0,345	-0,124
79,451	24,363	-0,275	-0,159
80,466	91,412	-0,295	-0,232
81,480	106,648	-0,306	-0,254
82,495	1,701	-0,254	-0,128
83,509	-22,982	-0,380	-0,160
84,524	580,595	-0,155	-0,266
85,539	-59,207	-0,233	-0,070
86,553	-91,228	-0,259	-0,051
87,568	-73,074	-0,298	-0,076
88,582	127,425	-0,236	-0,210
89,597	38,973	-0,280	-0,175
90,611	45,126	-0,299	-0,193
91,626	-85,501	-0,283	-0,061
92,641	-65,715	-0,262	-0,073
93,655	126,087	-0,204	-0,181
94,670	91,450	-0,203	-0,159
95,684	85,588	-0,248	-0,191
96,699	144,300	-0,260	-0,243
97,714	206,575	-0,169	-0,184
98,728	12,650	-0,275	-0,148
99,743	32,313	-0,231	-0,139
100,757	94,420	-0,274	-0,218
101,772	251,718	-0,191	-0,228
102,787	30,277	-0,281	-0,167
103,801	551,969	-0,192	-0,324
104,816	-62,663	-0,318	-0,092
105,830	-147,684	-0,207	0,012
106,845	-79,818	-0,261	0,061
107,860	-182,565	-0,290	0,004
108,874	-69,914	-0,259	-0,068
109,889	319,589	-0,256	-0,341
110,903	-8,214	-0,284	-0,133
111,918	0,015	-0,154	-0,077
112,933	88,040	-0,270	-0,209
113,947	651,845	-0,097	-0,175
114,962	-38,409	-0,255	-0,094
115,976	-50,860	-0,224	-0,073
116,991	-34,036	-0,341	-0,130
118,006	183,508	-0,203	-0,210
119,020	790,832	-0,139	-0,269
120,035	19,841	-0,291	-0,163
121,049	-4,777	-0,359	-0,172
122,064	264,815	-0,208	-0,253
123,079	71,273	-0,324	-0,234
124,093	96,983	-0,268	-0,215
125,108	218,582	-0,236	-0,263
126,122	202,364	-0,231	-0,250
127,137	90,991	-0,226	-0,177
128,151	-32,024	-0,207	-0,081
129,166	376,500	-0,110	-0,157
130,181	166,112	-0,196	-0,194
131,195	393,856	-0,203	-0,296
132,210	266,564	-0,302	-0,368
133,224	0,122	-0,219	-0,109
134,239	91,205	-0,158	-0,124
135,254	45,776	-0,188	-0,121
136,268	-46,417	-0,369	-0,126
137,283	99,142	-0,263	-0,211
138,297	-14,563	-0,354	-0,158
139,312	26,248	-0,238	-0,138
140,327	-3,538	-0,304	-0,147
141,341	321,708	-0,248	-0,329
142,356	56,800	-0,297	-0,201
143,370	416,676	-0,159	-0,237
144,385	-44,245	-0,339	-0,118
145,400	-56,265	-0,210	-0,065
146,414	113,602	-0,191	-0,162
147,429	130,441	-0,272	-0,243
148,443	56,008	-0,244	-0,165
149,458	-9,155	-0,173	-0,080
150,473	80,753	-0,292	-0,219
151,487	165,352	-0,129	-0,127
152,502	21,812	-0,309	-0,175
153,516	-22,002	-0,209	-0,088
154,531	-25,550	-0,262	-0,107
155,546	248,214	-0,251	-0,296
156,560	800,000	-0,072	-0,150
157,575	69,838	-0,169	-0,121
158,589	275,191	-0,269	-0,333
159,604	63,544	-0,187	-0,131
160,619	41,027	-0,369	-0,231
161,633	-1,001	-0,234	-0,115
162,648	-63,677	-0,060	0,017
163,662	-37,376	-0,043	-0,016
164,677	-78,555	-0,300	-0,071
165,692	-43,956	-0,222	-0,077
166,706	246,385	-0,129	-0,152
167,721	-17,593	-0,387	-0,168
168,735	39,960	-0,308	-0,192
169,750	87,727	-0,186	-0,143
170,764	322,878	-0,086	-0,115
171,779	282,043	-0,094	-0,117
172,794	42,682	-0,252	-0,159
173,808	103,029	-0,226	-0,184
174,823	-3,015	-0,213	-0,103
175,837	5,690	-0,276	-0,141
176,852	106,778	-0,239	-0,197
177,867	116,924	-0,107	-0,091
178,881	-168,738	-0,187	-0,005
179,896	-20,441	-0,288	-0,122
180,910	269,084	-0,223	-0,272
181,925	110,597	-0,152	-0,127
182,940	215,963	-0,182	-0,201
183,954	800,000	-0,098	-0,243
184,969	-141,927	-0,115	0,008
185,983	146,420	-0,198	-0,184
186,998	37,756	-0,173	-0,107
188,013	73,809	-0,260	-0,189
189,027	396,638	-0,154	-0,224
190,042	11,404	-0,210	-0,111
191,056	221,359	-0,157	-0,176
192,071	-68,947	-0,266	-0,071
193,086	52,179	-0,222	-0,146
194,100	162,158	-0,243	-0,236
195,115	32,836	-0,111	-0,066
196,129	319,539	-0,087	-0,115
197,144	117,117	-0,277	-0,236
198,159	169,739	-0,069	-0,068
199,173	-79,816	-0,143	-0,033
200,188	-164,993	-0,123	-0,004
201,202	-74,592	-0,201	0,050
202,217	-62,032	-0,135	-0,039
203,232	-14,833	-0,183	-0,081
204,246	-21,965	-0,181	-0,076
205,261	291,077	-0,172	-0,217
206,275	557,549	-0,136	-0,228
207,290	360,444	-0,182	-0,254
208,304	800,000	-0,103	-0,264
209,319	88,896	-0,264	-0,203
210,334	286,944	-0,146	-0,184
211,348	800,000	-0,132	-0,269
212,363	148,623	-0,221	-0,207
213,377	144,932	-0,224	-0,207
214,392	430,624	-0,143	-0,216
215,407	-5,904	-0,243	-0,115
216,421	-155,039	-0,161	-0,007
217,436	-26,772	-0,307	-0,123
218,450	442,682	-0,123	-0,188
219,465	34,363	-0,284	-0,171
220,480	46,182	-0,161	-0,103
221,494	789,626	-0,093	0,177
222,509	-81,420	-0,086	-0,020
223,523	25,561	-0,225	-0,129
224,538	551,099	-0,149	-0,249
225,553	116,914	-0,222	-0,188
226,567	190,839	-0,219	-0,228
227,582	387,616	-0,152	-0,218
228,596	-200,000	0,021	-0,077
229,611	20,989	-0,165	-0,092
230,626	177,068	-0,139	-0,140
231,640	181,676	-0,260	-0,265
232,655	-5,084	-0,253	-0,120
233,669	308,187	-0,176	-0,228
234,684	144,721	-0,228	-0,210
235,699	14,976	-0,251	-0,135
236,713	411,926	-0,173	-0,254
237,728	-130,262	-0,194	-0,018
238,742	-200,000	-0,042	-0,129
239,757	-77,540	-0,259	0,062
240,772	70,704	-0,212	-0,151
241,786	800,000	-0,099	-0,191
242,801	-200,000	-0,009	-0,172
243,815	223,256	-0,102	-0,114
244,830	-18,356	-0,165	-0,071
245,844	-115,112	-0,253	-0,033
246,859	61,763	-0,132	0,091
247,874	128,152	-0,235	-0,206
248,888	-200,000	0,009	-0,085
249,903	-15,576	-0,145	-0,064
250,917	440,637	-0,031	-0,047
251,932	128,391	-0,170	-0,150
252,947	1,923	-0,179	-0,089
253,961	684,166	-0,108	-0,194
254,976	477,400	-0,156	-0,245
255,990	11,119	-0,251	-0,132
257,005	-35,127	-0,182	-0,068
258,020	594,288	-0,098	-0,169
259,034	-200,000	-0,012	-0,100
260,049	-200,000	-0,014	-0,129
261,063	544,904	-0,109	-0,181
262,078	61,225	-0,179	-0,123
263,093	-76,621	-0,194	-0,046
264,107	-6,751	-0,166	-0,078
265,122	800,000	-0,065	-0,185
266,136	-51,022	-0,211	-0,068
267,151	263,080	-0,139	-0,167
268,166	113,102	-0,169	-0,141
269,180	-91,428	-0,248	-0,048
270,195	56,145	-0,252	-0,168
271,209	305,335	-0,150	-0,192
272,224	201,231	-0,168	-0,178
273,239	-87,264	-0,204	-0,042
274,253	-54,113	-0,212	-0,066
275,268	-47,442	-0,203	-0,067
276,282	-66,393	-0,188	-0,051
277,297	209,260	-0,162	-0,175
278,312	-101,122	-0,139	0,023
279,326	-57,392	-0,205	0,061
280,341	-50,574	-0,216	0,070
281,355	687,027	-0,098	-0,177
282,370	269,493	-0,176	-0,213
283,384	17,735	-0,139	-0,076
284,399	42,833	-0,211	-0,132
285,414	71,838	-0,061	-0,043
286,428	535,725	-0,074	-0,122
287,443	57,010	-0,097	-0,065
288,457	-26,212	-0,126	0,051
289,472	173,267	-0,202	-0,201
290,487	-34,869	-0,213	-0,080
291,501	-82,880	-0,236	-0,052
292,516	-58,407	-0,210	-0,062
293,530	-200,000	-0,041	-0,206
294,545	16,107	-0,111	-0,060
295,560	79,486	-0,178	-0,131
296,574	34,856	-0,151	-0,091
297,589	151,250	-0,175	-0,164
298,603	102,127	-0,150	-0,121
299,618	247,029	-0,149	-0,173
300,633	152,493	-0,155	-0,145
301,647	2,031	-0,139	0,069
302,662	-109,816	-0,158	-0,023
303,676	-76,694	-0,164	-0,039
304,691	-200,000	-0,026	-0,149
305,706	362,117	-0,173	-0,238
306,720	48,963	-0,162	-0,104
307,735	-200,000	0,033	-0,208
308,749	800,000	-0,068	-0,176
309,764	79,711	-0,086	-0,063
310,779	293,197	-0,093	-0,116
311,793	800,000	-0,110	-0,252
312,808	129,167	-0,188	-0,165
313,822	223,171	-0,127	-0,141
314,837	195,058	-0,061	-0,063
315,852	-100,813	-0,159	-0,027
316,866	39,143	-0,097	-0,060
317,881	105,339	-0,130	-0,106
318,895	450,564	-0,107	-0,163
319,910	196,620	-0,158	-0,165
320,925	267,748	-0,131	-0,158
321,939	-15,650	-0,116	-0,050
322,954	-200,000	0,018	-0,106
323,968	800,000	-0,060	-0,151
324,983	-113,798	-0,122	-0,016
325,997	-1,852	-0,185	-0,089
327,012	55,317	-0,146	-0,097
328,027	254,104	-0,142	-0,167
329,041	800,000	-0,078	-0,184
330,056	41,102	0,015	-0,009
331,070	-52,880	-0,113	0,036
332,085	-170,592	-0,252	0,006
333,100	266,130	-0,090	-0,107
334,114	-158,416	-0,124	-0,005
335,129	74,081	-0,187	-0,134
336,143	-79,772	-0,022	-0,005
337,158	-26,345	-0,145	-0,058
338,173	287,432	-0,100	-0,124
339,187	-74,583	-0,227	-0,056
340,202	-173,604	-0,142	0,003
341,216	-186,450	-0,176	-0,002
342,231	746,229	-0,082	-0,153
343,246	277,962	-0,172	-0,210
344,260	800,000	-0,034	-0,080
345,275	-76,287	-0,021	0,005
346,289	-11,337	-0,074	0,033
347,304	-2,658	-0,202	-0,096
348,319	346,502	-0,091	-0,123
349,333	-13,038	-0,134	-0,059
350,348	25,665	-0,195	-0,111
351,362	-92,928	0,094	0,018
352,377	-35,730	0,034	-0,012
353,392	267,836	-0,046	0,055
354,406	699,389	0,021	0,038
355,421	207,192	1310,077	1398,838
356,435	159,381	1470,169	1399,295
