DTS Sentinel unit serial number:	SN410029Multiplexer serial number:	ORYXHardware model number:	OX2-SRSoftware version number:	ORYX F/W v4,00 Oryx Data Collector v3.7.2.0data status	okinstallation	B3 Nyhavnadifferential loss correction	single-endedforward channel	channel 1reverse channel	N/Adate	2023/12/03time	12:42:30forward acquisition time	300,00reverse acquisition time	0,00gamma	499,1914k internal	0,3201k external	0,3201temperature offset calibration	1,0000default loss term (dB/km)	0,3820temperature slope calibration	1,0000multiplexer offset coefficient	1,0000multiplexer slope coefficient	1,0000fibre end	0,00T internal ref (°C)	14,28T ext. ref 1 (°C)	0,44T ext. ref 2 (°C)	0,42length (m)	temperature (°C)	Stokes	anti-Stokes-744,400	367,546	-0,176	-0,259
-743,385	-200,000	0,003	0,332
-742,371	-200,000	-0,037	-0,154
-741,356	-200,000	-0,006	0,366
-740,342	83,136	-0,204	-0,162
-739,327	580,748	0,129	0,231
-738,312	-66,175	-0,307	-0,088
-737,298	-200,000	0,004	0,188
-736,283	131,970	-0,298	-0,279
-735,269	-200,000	0,024	0,357
-734,254	-15,000	-0,149	-0,069
-733,239	245,072	-0,163	0,200
-732,225	-200,000	-0,051	-0,251
-731,210	177,397	0,131	0,138
-730,196	-200,000	-0,003	-0,058
-729,181	638,157	-0,053	-0,098
-728,167	-200,000	0,006	0,021
-727,152	22,385	-0,105	-0,062
-726,137	200,027	-0,054	0,061
-725,123	8,596	-0,103	-0,056
-724,108	-78,946	-0,030	0,007
-723,094	98,633	-0,081	0,068
-722,079	800,000	-0,048	-0,104
-721,064	616,207	-0,028	-0,051
-720,050	359,064	-0,029	-0,043
-719,035	-31,358	0,068	-0,028
-718,021	7,385	-0,072	-0,039
-717,006	-200,000	-0,003	-0,120
-715,991	-200,000	0,030	-0,184
-714,977	-136,563	-0,085	0,007
-713,962	-200,000	0,003	-0,024
-712,948	-200,000	0,089	0,000
-711,933	-21,339	-0,110	0,049
-710,918	-200,000	0,011	-0,091
-709,904	530,750	0,012	0,020
-708,889	-34,801	-0,202	0,080
-707,875	45,555	0,058	-0,039
-706,860	147,170	-0,061	-0,059
-705,845	-200,000	-0,007	0,147
-704,831	-60,006	0,055	0,017
-703,816	-200,000	0,001	-0,062
-702,802	-53,364	-0,109	-0,036
-701,787	-35,652	-0,125	-0,049
-700,772	51,408	-0,166	-0,114
-699,758	-200,000	0,014	-0,068
-698,743	-4,852	0,148	0,074
-697,729	102,350	0,049	0,041
-696,714	-84,993	-0,032	-0,007
-695,699	182,481	-0,064	-0,068
-694,685	-122,116	-0,047	0,006
-693,670	151,185	0,158	-0,156
-692,656	800,000	-0,062	0,174
-691,641	211,573	-0,059	0,068
-690,627	-77,913	0,096	0,024
-689,612	708,093	0,080	0,153
-688,597	317,379	-0,047	0,065
-687,583	-146,085	-0,150	-0,009
-686,568	-81,582	-0,102	-0,024
-685,554	-146,453	-0,051	0,003
-684,539	-73,166	-0,065	0,017
-683,524	-200,000	0,024	-0,079
-682,510	214,033	0,041	-0,047
-681,495	694,776	-0,031	0,060
-680,481	-57,081	-0,178	-0,057
-679,466	627,746	0,074	-0,137
-678,451	498,532	-0,023	-0,039
-677,437	-33,931	0,066	0,026
-676,422	800,000	-0,018	-0,038
-675,408	-200,000	-0,003	-0,178
-674,393	619,335	-0,011	0,019
-673,378	624,006	0,027	-0,049
-672,364	-200,000	0,005	-0,064
-671,349	98,711	0,022	-0,018
-670,335	-147,555	0,061	0,004
-669,320	77,048	-0,059	0,045
-668,305	-85,489	-0,038	-0,009
-667,291	-200,000	0,002	-0,050
-666,276	-84,403	0,034	0,008
-665,262	623,723	0,064	-0,117
-664,247	88,471	-0,111	0,089
-663,232	-1,654	0,012	0,006
-662,218	35,299	-0,056	-0,036
-661,203	-200,000	0,003	0,056
-660,189	-200,000	-0,045	0,166
-659,174	-200,000	0,011	-0,086
-658,159	361,319	-0,088	-0,128
-657,145	167,538	-0,064	-0,066
-656,130	-172,339	0,186	-0,004
-655,116	-52,681	-0,154	0,051
-654,101	371,638	0,083	0,122
-653,086	314,163	-0,080	-0,110
-652,072	567,396	-0,083	-0,147
-651,057	800,000	-0,034	-0,085
-650,043	59,629	-0,092	-0,066
-649,028	679,360	0,050	-0,094
-648,014	-81,433	-0,040	-0,009
-646,999	800,000	0,009	0,025
-645,984	-52,160	-0,037	0,012
-644,970	-200,000	-0,001	-0,007
-643,955	-105,042	0,037	-0,006
-642,941	800,000	-0,066	-0,136
-641,926	-200,000	0,001	-0,063
-640,911	23,544	-0,118	-0,070
-639,897	-105,384	-0,072	0,012
-638,882	-200,000	-0,012	-0,069
-637,868	-89,502	0,023	0,005
-636,853	800,000	-0,040	-0,096
-635,838	381,949	0,008	-0,011
-634,824	-87,992	0,030	-0,006
-633,809	-12,394	0,058	0,027
-632,795	71,238	0,052	-0,039
-631,780	349,174	0,075	0,108
-630,765	-187,366	-0,117	0,001
-629,751	148,739	-0,065	-0,063
-628,736	433,140	0,094	0,148
-627,722	-161,938	-0,099	-0,004
-626,707	2,076	0,035	-0,018
-625,692	800,000	-0,056	0,163
-624,678	59,274	0,151	0,108
-623,663	-200,000	0,005	0,058
-622,649	-60,711	-0,060	-0,018
-621,634	800,000	0,027	-0,064
-620,619	-200,000	-0,026	-0,121
-619,605	169,700	-0,048	-0,049
-618,590	222,910	0,095	0,111
-617,576	-88,420	-0,130	-0,028
-616,561	-44,789	-0,049	-0,017
-615,546	-200,000	-0,033	-0,127
-614,532	-26,683	-0,068	0,029
-613,517	462,870	0,033	0,053
-612,503	145,052	-0,041	0,040
-611,488	-35,675	0,107	-0,042
-610,474	-200,000	-0,012	-0,180
-609,459	800,000	-0,029	0,063
-608,444	-107,885	-0,154	-0,024
-607,430	800,000	-0,046	-0,143
-606,415	212,211	-0,033	-0,038
-605,401	-7,813	-0,092	-0,045
-604,386	194,801	0,005	-0,006
-603,371	-55,639	0,092	0,029
-602,357	538,925	0,023	0,040
-601,342	52,901	-0,128	0,088
-600,328	-200,000	-0,038	0,131
-599,313	-200,000	-0,016	0,157
-598,298	176,878	-0,056	-0,059
-597,284	-200,000	0,007	0,066
-596,269	-5,063	0,069	0,034
-595,255	800,000	0,017	-0,043
-594,240	-200,000	-0,011	-0,059
-593,225	800,000	-0,048	-0,133
-592,211	410,398	0,090	-0,139
-591,196	-200,000	0,067	-0,238
-590,182	-52,615	0,142	-0,047
-589,167	192,915	-0,048	-0,052
-588,152	45,156	-0,038	-0,025
-587,138	339,598	-0,032	0,046
-586,123	-200,000	-0,004	0,049
-585,109	-200,000	0,009	0,196
-584,094	-200,000	0,002	0,014
-583,079	245,390	-0,021	0,026
-582,065	245,922	0,052	0,063
-581,050	70,338	0,044	0,033
-580,036	-133,700	0,032	0,003
-579,021	-69,252	-0,139	0,038
-578,006	800,000	-0,050	-0,128
-576,992	-143,328	0,093	-0,006
-575,977	502,378	-0,075	-0,125
-574,963	745,197	0,090	0,175
-573,948	-57,459	0,085	-0,027
-572,934	-103,197	-0,075	-0,013
-571,919	-200,000	-0,027	0,093
-570,904	5,459	0,077	-0,041
-569,890	-6,780	0,079	-0,039
-568,875	173,269	0,072	0,075
-567,861	-200,000	-0,015	0,112
-566,846	800,000	0,053	0,122
-565,831	800,000	-0,022	-0,058
-564,817	-200,000	0,032	0,161
-563,802	-200,000	-0,026	-0,124
-562,788	-160,987	-0,096	-0,004
-561,773	740,691	-0,029	-0,057
-560,758	-130,195	0,095	0,009
-559,744	-67,241	0,055	0,015
-558,729	198,837	0,008	0,008
-557,715	71,727	0,024	-0,018
-556,700	-200,000	0,001	-0,015
-555,685	-200,000	0,004	0,026
-554,671	376,629	0,052	0,077
-553,656	388,909	-0,060	0,089
-552,642	89,516	0,110	-0,088
-551,627	-121,335	-0,022	0,003
-550,612	430,267	0,055	0,087
-549,598	-200,000	-0,002	-0,034
-548,583	-200,000	-0,003	-0,137
-547,569	-200,000	0,008	-0,156
-546,554	-156,814	0,072	0,003
-545,539	-200,000	-0,006	0,068
-544,525	-200,000	0,009	0,042
-543,510	258,486	-0,095	0,119
-542,496	495,717	0,074	-0,123
-541,481	-20,491	-0,101	0,045
-540,466	222,619	-0,054	0,063
-539,452	-200,000	-0,019	0,091
-538,437	333,450	-0,106	0,148
-537,423	165,469	-0,054	-0,055
-536,408	106,369	0,065	-0,055
-535,393	-200,000	-0,023	0,087
-534,379	800,000	-0,018	0,037
-533,364	-200,000	0,004	-0,060
-532,350	587,735	-0,026	-0,046
-531,335	-200,000	0,006	-0,021
-530,321	-200,000	-0,010	0,038
-529,306	425,618	0,007	-0,011
-528,291	800,000	0,024	-0,063
-527,277	78,360	-0,091	0,070
-526,262	-81,968	-0,091	0,021
-525,248	-200,000	-0,007	0,096
-524,233	-82,223	0,063	0,015
-523,218	800,000	0,044	0,111
-522,204	451,682	-0,050	0,080
-521,189	322,033	0,074	0,102
-520,175	197,617	-0,044	-0,048
-519,160	-132,434	-0,121	-0,011
-518,145	305,611	-0,027	0,037
-517,131	-51,191	0,091	0,030
-516,116	90,256	-0,055	0,045
-515,102	-200,000	0,017	0,099
-514,087	-93,085	-0,062	0,012
-513,072	626,129	-0,043	0,079
-512,058	178,356	-0,062	0,065
-511,043	5,345	0,106	-0,056
-510,029	497,023	0,043	0,071
-509,014	112,225	0,044	-0,038
-507,999	-160,294	-0,079	-0,003
-506,985	-200,000	-0,016	-0,113
-505,970	46,591	0,118	-0,079
-504,956	-200,000	0,003	-0,108
-503,941	-26,787	-0,129	-0,054
-502,926	98,101	0,009	-0,008
-501,912	-168,829	-0,110	0,003
-500,897	-42,819	-0,078	-0,028
-499,883	-159,280	0,144	0,006
-498,868	179,971	-0,047	0,050
-497,853	800,000	-0,024	0,065
-496,839	498,151	-0,058	0,096
-495,824	-200,000	0,007	-0,028
-494,810	746,875	0,041	0,079
-493,795	-11,009	-0,140	-0,066
-492,781	-166,282	-0,143	0,004
-491,766	-200,000	-0,045	-0,204
-490,751	800,000	-0,022	0,060
-489,737	544,567	-0,064	-0,110
-488,722	-84,785	0,110	-0,025
-487,708	-32,890	0,134	0,053
-486,693	338,091	0,057	0,080
-485,678	188,678	-0,057	-0,062
-484,664	-1,232	-0,039	-0,020
-483,649	-16,433	-0,053	0,024
-482,635	233,596	0,055	-0,066
-481,620	334,237	0,040	0,056
-480,605	-200,000	0,027	-0,143
-479,591	-112,498	-0,103	0,015
-478,576	-200,000	-0,006	-0,031
-477,562	229,730	-0,070	0,082
-476,547	800,000	0,011	-0,024
-475,532	365,257	-0,047	0,068
-474,518	-123,940	-0,061	0,007
-473,503	438,107	0,029	0,046
-472,489	-178,047	0,125	0,002
-471,474	59,651	0,080	-0,057
-470,459	-200,000	-0,021	-0,172
-469,445	-147,981	-0,114	0,007
-468,430	800,000	-0,039	-0,088
-467,416	68,459	0,064	-0,047
-466,401	-86,477	0,124	0,027
-465,386	10,570	-0,158	0,086
-464,372	-52,647	-0,084	0,028
-463,357	800,000	0,043	-0,103
-462,343	-183,159	0,128	-0,002
-461,328	-200,000	0,033	-0,168
-460,313	-134,468	0,078	0,007
-459,299	305,612	-0,014	0,019
-458,284	646,397	0,089	0,165
-457,270	800,000	-0,029	0,067
-456,255	57,669	0,153	-0,107
-455,241	83,138	-0,102	0,080
-454,226	-15,446	0,019	0,009
-453,211	-200,000	0,018	-0,137
-452,197	377,941	0,052	0,077
-451,182	-200,000	0,012	0,093
-450,168	-49,412	0,016	-0,005
-449,153	-200,000	0,016	-0,130
-448,138	18,070	-0,071	-0,040
-447,124	445,557	0,118	-0,186
-446,109	-130,384	-0,103	0,010
-445,095	15,023	0,082	-0,046
-444,080	800,000	-0,029	-0,060
-443,065	-190,580	0,059	0,000
-442,051	800,000	0,054	-0,116
-441,036	-200,000	-0,008	-0,036
-440,022	715,801	0,026	-0,051
-439,007	800,000	0,012	-0,029
-437,992	-175,137	0,170	-0,003
-436,978	304,556	0,077	-0,102
-435,963	-76,363	0,065	0,016
-434,949	-200,000	-0,010	0,141
-433,934	-107,949	-0,109	-0,017
-432,919	800,000	-0,015	-0,037
-431,905	183,524	0,056	-0,060
-430,890	95,813	0,163	0,134
-429,876	559,632	-0,087	0,151
-428,861	143,343	0,104	-0,100
-427,846	800,000	-0,036	-0,076
-426,832	800,000	-0,031	-0,092
-425,817	296,405	-0,064	0,085
-424,803	587,430	0,023	0,041
-423,788	52,602	0,136	0,093
-422,773	-200,000	-0,029	0,098
-421,759	-200,000	0,000	0,041
-420,744	-200,000	0,011	-0,047
-419,730	-176,707	-0,083	-0,001
-418,715	264,567	0,092	-0,116
-417,701	800,000	0,019	0,060
-416,686	-200,000	0,029	0,117
-415,671	531,298	0,008	-0,014
-414,657	-200,000	-0,023	-0,072
-413,642	-200,000	-0,048	0,208
-412,628	51,411	0,120	-0,082
-411,613	-52,547	0,193	0,064
-410,598	800,000	-0,023	-0,066
-409,584	127,248	-0,035	0,032
-408,569	-180,114	0,094	-0,001
-407,555	800,000	-0,022	0,049
-406,540	-108,160	-0,115	0,018
-405,525	263,062	0,103	0,129
-404,511	68,642	-0,134	-0,098
-403,496	57,572	-0,040	-0,028
-402,482	173,467	-0,097	0,101
-401,467	-110,566	-0,180	0,026
-400,452	-200,000	-0,002	0,009
-399,438	-91,418	0,169	0,034
-398,423	428,021	-0,064	-0,099
-397,409	-200,000	-0,013	-0,097
-396,394	108,238	0,015	-0,013
-395,379	-200,000	-0,003	0,036
-394,365	-58,157	0,059	0,018
-393,350	-200,000	-0,002	0,028
-392,336	544,516	0,113	0,195
-391,321	139,021	-0,141	0,133
-390,306	-24,207	0,087	0,037
-389,292	101,085	0,043	0,036
-388,277	173,582	-0,101	-0,104
-387,263	800,000	-0,053	0,152
-386,248	460,025	0,018	0,029
-385,233	5,948	-0,063	0,033
-384,219	800,000	-0,049	-0,151
-383,204	-108,373	0,109	-0,017
-382,190	-34,740	-0,053	-0,021
-381,175	51,543	0,150	0,102
-380,160	-3,459	0,070	0,035
-379,146	-200,000	0,036	0,150
-378,131	-6,319	-0,027	0,013
-377,117	800,000	0,014	0,036
-376,102	-120,811	0,073	0,009
-375,088	104,594	-0,083	-0,070
-374,073	-11,757	-0,070	-0,033
-373,058	-76,026	-0,192	0,048
-372,044	-62,732	0,106	-0,031
-371,029	-68,563	0,068	-0,019
-370,015	-200,000	0,035	0,157
-369,000	-16,620	-0,107	-0,048
-367,985	492,148	-0,038	0,063
-366,971	39,826	-0,111	-0,071
-365,956	78,003	0,062	0,048
-364,942	800,000	0,026	0,066
-363,927	-147,487	0,093	0,006
-362,912	262,266	0,018	0,023
-361,898	499,982	0,038	-0,063
-360,883	301,972	-0,090	-0,120
-359,869	-122,123	0,055	-0,006
-358,854	-132,648	-0,126	0,011
-357,839	800,000	0,031	-0,071
-356,825	-68,291	0,050	-0,014
-355,810	26,983	-0,062	-0,037
-354,796	-200,000	0,010	-0,110
-353,781	-85,813	-0,124	0,027
-352,766	24,366	-0,096	0,057
-351,752	-20,559	-0,042	0,018
-350,737	5,642	0,125	0,066
-349,723	779,375	0,068	0,134
-348,708	800,000	-0,025	0,076
-347,693	34,942	-0,066	0,041
-346,679	800,000	-0,039	-0,118
-345,664	175,021	0,047	0,049
-344,650	-63,284	0,110	0,032
-343,635	98,209	0,079	0,065
-342,620	-39,256	0,141	0,053
-341,606	20,600	0,116	0,067
-340,591	-200,000	0,002	-0,053
-339,577	107,960	-0,048	-0,041
-338,562	-36,717	-0,106	-0,041
-337,548	35,992	-0,087	-0,055
-336,533	800,000	-0,035	-0,085
-335,518	-75,142	0,052	0,013
-334,504	-148,603	-0,030	-0,002
-333,489	-34,736	-0,082	-0,032
-332,475	-128,142	-0,088	0,009
-331,460	-119,711	-0,042	-0,005
-330,445	245,465	0,056	0,067
-329,431	-146,739	0,073	0,004
-328,416	40,395	0,117	-0,075
-327,402	800,000	0,015	0,035
-326,387	-200,000	0,047	0,000
-325,372	-200,000	-0,002	0,020
-324,358	-200,000	0,005	0,035
-323,343	-200,000	-0,021	0,091
-322,329	48,425	0,090	0,061
-321,314	800,000	-0,018	0,053
-320,299	519,598	0,013	-0,022
-319,285	-133,781	0,054	0,005
-318,270	274,691	-0,150	0,190
-317,256	21,340	-0,050	-0,029
-316,241	800,000	-0,038	0,087
-315,226	163,641	-0,100	-0,101
-314,212	267,832	0,070	0,088
-313,197	800,000	-0,006	0,014
-312,183	-3,748	0,079	-0,039
-311,168	451,687	-0,063	-0,100
-310,153	17,004	0,124	0,070
-309,139	-200,000	-0,021	0,096
-308,124	14,380	-0,069	0,039
-307,110	42,840	0,112	-0,073
-306,095	-200,000	-0,035	0,111
-305,080	800,000	0,024	-0,067
-304,066	79,130	-0,171	-0,131
-303,051	39,446	-0,091	-0,058
-302,037	800,000	0,005	-0,014
-301,022	800,000	0,027	0,080
-300,008	800,000	0,020	0,053
-298,993	-200,000	-0,002	0,038
-297,978	-15,488	0,143	0,065
-296,964	-126,764	-0,108	0,011
-295,949	249,770	-0,053	-0,065
-294,935	800,000	0,026	-0,072
-293,920	171,688	0,091	-0,094
-292,905	-200,000	-0,010	-0,051
-291,891	647,861	0,016	0,030
-290,876	-65,042	0,186	0,053
-289,862	800,000	0,076	-0,166
-288,847	-200,000	-0,030	-0,177
-287,832	432,366	0,059	-0,091
-286,818	800,000	0,031	-0,063
-285,803	-16,444	0,117	0,053
-284,789	43,572	-0,056	0,037
-283,774	800,000	-0,039	-0,081
-282,759	-42,330	0,071	-0,026
-281,745	444,342	-0,071	-0,111
-280,730	800,000	-0,038	0,076
-279,716	-75,954	-0,111	-0,028
-278,701	134,454	0,076	-0,071
-277,686	442,667	0,027	-0,043
-276,672	-61,660	-0,046	0,014
-275,657	22,414	-0,126	-0,073
-274,643	-40,580	0,045	0,016
-273,628	800,000	-0,016	0,050
-272,613	800,000	-0,016	0,037
-271,599	800,000	-0,047	-0,106
-270,584	-200,000	-0,008	-0,068
-269,570	592,765	-0,062	0,111
-268,555	160,758	-0,067	-0,066
-267,540	800,000	-0,050	-0,149
-266,526	-103,853	0,124	-0,021
-265,511	800,000	-0,064	0,170
-264,497	78,611	0,200	0,153
-263,482	800,000	0,035	-0,087
-262,467	-112,722	0,068	-0,010
-261,453	-133,952	-0,019	0,002
-260,438	-200,000	-0,003	-0,029
-259,424	553,732	0,057	-0,098
-258,409	402,848	0,050	0,076
-257,395	-121,977	0,121	0,014
-256,380	-46,657	-0,038	-0,013
-255,365	-200,000	-0,010	0,100
-254,351	11,967	-0,138	0,075
-253,336	-12,860	0,044	-0,020
-252,322	42,413	-0,095	0,062
-251,307	745,462	-0,100	-0,192
-250,292	318,167	0,054	-0,073
-249,278	-56,597	0,169	0,053
-248,263	800,000	0,068	0,167
-247,249	76,726	-0,069	-0,052
-246,234	-97,702	0,087	-0,016
-245,219	-131,214	-0,042	0,004
-244,205	-87,658	-0,083	-0,018
-243,190	-200,000	-0,029	-0,150
-242,176	800,000	0,049	0,113
-241,161	-200,000	0,000	0,008
-240,146	-88,198	-0,026	-0,005
-239,132	-188,783	0,068	0,001
-238,117	178,498	-0,019	-0,020
-237,103	-200,000	0,029	-0,159
-236,088	800,000	0,058	-0,143
-235,073	91,304	-0,020	-0,016
-234,059	469,672	0,078	0,126
-233,044	154,894	0,069	0,068
-232,030	340,042	-0,119	-0,166
-231,015	-36,974	-0,118	-0,045
-230,000	-137,198	0,070	-0,006
-228,986	800,000	-0,027	0,066
-227,971	-200,000	0,004	-0,073
-226,957	800,000	-0,051	0,103
-225,942	378,565	0,061	0,089
-224,927	640,953	0,040	0,072
-223,913	-178,026	-0,084	-0,001
-222,898	-163,765	-0,143	0,005
-221,884	120,746	-0,086	-0,076
-220,869	321,184	0,065	0,088
-219,855	-200,000	0,009	0,061
-218,840	800,000	-0,033	0,101
-217,825	800,000	-0,040	0,089
-216,811	-96,028	-0,088	-0,017
-215,796	44,346	-0,130	0,085
-214,782	-14,532	0,047	-0,022
-213,767	-99,846	-0,119	0,021
-212,752	800,000	0,084	0,175
-211,738	287,728	-0,064	-0,082
-210,723	726,996	-0,055	-0,104
-209,709	289,211	-0,164	-0,212
-208,694	-200,000	-0,042	-0,144
-207,679	-31,356	0,039	0,015
-206,665	-25,535	0,098	0,041
-205,650	172,453	0,023	0,024
-204,636	-200,000	-0,008	0,038
-203,621	244,340	-0,036	0,043
-202,606	21,322	0,039	0,023
-201,592	-34,950	0,072	-0,028
-200,577	-62,586	0,148	-0,044
-199,563	-8,836	0,103	0,049
-198,548	359,332	0,047	0,068
-197,533	165,676	0,032	-0,032
-196,519	-200,000	0,009	0,137
-195,504	-55,785	0,039	0,012
-194,490	48,389	-0,075	-0,050
-193,475	-200,000	0,003	0,046
-192,460	108,955	-0,076	-0,065
-191,446	157,346	0,079	0,078
-190,431	-5,276	0,048	0,023
-189,417	-200,000	-0,007	-0,217
-188,402	-138,285	-0,047	-0,004
-187,387	-200,000	-0,008	-0,053
-186,373	800,000	-0,062	-0,124
-185,358	167,025	-0,015	-0,016
-184,344	-117,217	-0,122	-0,016
-183,329	800,000	-0,035	-0,088
-182,315	800,000	-0,033	0,074
-181,300	111,689	-0,066	-0,057
-180,285	-200,000	-0,010	-0,067
-179,271	-121,062	-0,130	-0,015
-178,256	-200,000	0,032	-0,202
-177,242	-200,000	-0,003	0,090
-176,227	-37,774	0,100	0,038
-175,212	800,000	0,013	0,029
-174,198	-24,561	0,071	-0,030
-173,183	-16,670	-0,124	0,056
-172,169	360,901	-0,052	-0,075
-171,154	336,848	0,059	0,081
-170,139	-200,000	-0,015	0,064
-169,125	257,343	0,052	-0,064
-168,110	1,694	-0,036	-0,018
-167,096	800,000	0,024	0,075
-166,081	-140,787	-0,119	0,009
-165,066	-200,000	-0,028	0,138
-164,052	-15,069	0,069	-0,031
-163,037	800,000	0,038	0,099
-162,023	7,172	0,072	-0,038
-161,008	-7,772	0,075	-0,036
-159,993	146,134	0,032	0,030
-158,979	43,634	0,100	-0,065
-157,964	141,806	0,036	0,034
-156,950	-200,000	-0,009	-0,140
-155,935	-200,000	0,030	-0,106
-154,920	185,169	0,068	0,072
-153,906	-200,000	-0,031	0,138
-152,891	800,000	-0,016	-0,048
-151,877	174,323	0,076	-0,078
-150,862	-30,774	0,091	-0,036
-149,847	800,000	-0,009	0,017
-148,833	107,225	-0,104	-0,088
-147,818	48,292	0,082	-0,054
-146,804	-200,000	-0,040	0,270
-145,789	279,453	-0,033	0,042
-144,775	-200,000	0,004	-0,071
-143,760	11,111	-0,087	0,047
-142,745	-77,293	0,052	0,013
-141,731	-200,000	-0,007	-0,080
-140,716	-200,000	-0,003	-0,054
-139,702	-200,000	-0,013	0,072
-138,687	81,778	0,051	0,039
-137,672	-200,000	-0,001	0,084
-136,658	134,470	0,087	0,081
-135,643	-92,380	-0,057	0,011
-134,629	317,476	-0,032	0,043
-133,614	-142,735	0,184	0,013
-132,599	800,000	0,038	0,100
-131,585	800,000	0,039	0,083
-130,570	281,683	-0,029	0,036
-129,556	-200,000	0,009	-0,104
-128,541	746,083	-0,057	-0,110
-127,526	464,111	-0,051	0,081
-126,512	420,640	-0,043	0,065
-125,497	-200,000	0,019	0,088
-124,483	800,000	0,018	0,038
-123,468	800,000	0,025	0,050
-122,453	-138,363	0,014	0,001
-121,439	339,146	0,022	-0,030
-120,424	52,850	-0,050	0,034
-119,410	248,842	0,082	-0,099
-118,395	-65,401	-0,104	0,029
-117,380	-200,000	0,061	0,201
-116,366	253,831	-0,022	-0,027
-115,351	-200,000	0,003	0,055
-114,337	-200,000	-0,026	-0,092
-113,322	-197,655	-0,043	-0,000
-112,307	-200,000	0,029	0,104
-111,293	-49,616	-0,053	0,018
-110,278	-200,000	-0,019	0,127
-109,264	353,644	-0,110	0,156
-108,249	416,287	0,014	-0,022
-107,234	76,486	-0,132	0,099
-106,220	320,125	0,085	-0,115
-105,205	615,075	-0,088	0,158
-104,191	101,296	0,127	0,105
-103,176	517,548	0,057	0,095
-102,162	-200,000	0,036	0,158
-101,147	780,207	-0,038	-0,075
-100,132	800,000	-0,050	-0,117
-99,118	-101,375	-0,143	0,025
-98,103	10,469	0,104	-0,056
-97,089	-200,000	-0,030	0,125
-96,074	558,362	-0,055	0,094
-95,059	-107,204	0,149	0,023
-94,045	5,577	-0,016	-0,008
-93,030	-138,385	0,124	0,010
-92,016	-200,000	0,001	0,025
-91,001	-200,000	0,024	-0,121
-89,986	136,225	0,039	0,037
-88,972	231,137	0,061	0,071
-87,957	148,502	-0,112	-0,107
-86,943	800,000	0,035	0,071
-85,928	800,000	0,039	0,096
-84,913	800,000	0,026	-0,064
-83,899	-36,833	0,140	-0,053
-82,884	-200,000	-0,015	0,059
-81,870	800,000	-0,059	0,132
-80,855	553,900	-0,077	0,132
-79,840	-200,000	-0,005	0,047
-78,826	-200,000	-0,004	0,068
-77,811	-127,185	-0,108	0,011
-76,797	-77,294	-0,182	-0,045
-75,782	-61,103	0,100	-0,030
-74,767	368,486	0,088	0,126
-73,753	205,471	-0,076	0,083
-72,738	-200,000	-0,026	0,145
-71,724	767,686	-0,057	0,110
-70,709	-200,000	0,001	-0,044
-69,694	61,236	0,025	-0,018
-68,680	-136,345	0,092	0,007
-67,665	800,000	-0,046	0,106
-66,651	466,126	-0,046	0,073
-65,636	167,229	-0,077	0,077
-64,622	-153,304	0,022	-0,001
-63,607	-28,929	-0,129	0,052
-62,592	-152,124	-0,056	0,003
-61,578	98,193	-0,081	0,066
-60,563	249,668	0,099	0,119
-59,549	-26,170	0,049	0,020
-58,534	-23,368	-1,497	-0,634
-57,519	520,705	-1,333	-2,221
-56,505	-200,000	-0,552	-4,552
-55,490	207,984	0,977	1,082
-54,476	800,000	4,693	10,995
-53,461	-200,000	18,430	297,992
-52,446	800,000	732,031	2261,825
-51,432	560,965	1648,073	2831,260
-50,417	78,740	1667,498	1261,456
-49,403	22,228	1540,401	888,283
-48,388	16,158	1463,115	814,293
-47,373	17,756	1453,115	816,399
-46,359	16,931	1443,469	806,999
-45,344	14,426	1438,707	792,335
-44,330	14,318	1437,117	790,913
-43,315	14,355	1435,158	789,982
-42,300	14,352	1433,503	789,021
-41,286	14,379	1432,351	788,489
-40,271	14,348	1431,018	787,572
-39,257	14,352	1429,800	786,889
-38,242	14,385	1428,564	786,339
-37,227	14,425	1427,249	785,771
-36,213	14,364	1426,081	784,807
-35,198	14,411	1424,820	784,305
-34,184	14,423	1423,960	783,859
-33,169	14,367	1422,551	782,788
-32,154	14,384	1421,545	782,281
-31,140	14,390	1420,377	781,636
-30,125	14,414	1419,176	781,058
-29,111	14,397	1418,015	780,310
-28,096	14,368	1416,767	779,452
-27,082	14,336	1416,008	778,853
-26,067	14,332	1414,692	778,081
-25,052	14,337	1413,742	777,550
-24,038	14,275	1412,849	776,739
-23,023	14,279	1411,776	776,137
-22,009	14,288	1410,937	775,687
-20,994	14,254	1409,998	774,982
-19,979	14,264	1409,127	774,518
-18,965	14,232	1407,945	773,687
-17,950	14,252	1407,005	773,234
-16,936	14,289	1405,840	772,733
-15,921	14,232	1405,038	771,996
-14,906	14,202	1404,071	771,297
-13,892	14,189	1403,325	770,795
-12,877	14,202	1402,397	770,316
-11,863	14,181	1401,569	769,732
-10,848	14,183	1400,586	769,173
-9,833	14,152	1399,615	768,461
-8,819	14,133	1398,806	767,901
-7,804	14,107	1398,034	767,328
-6,790	14,103	1396,764	766,580
-5,775	14,096	1395,778	765,976
-4,760	14,072	1395,041	765,430
-3,746	14,117	1394,029	765,050
-2,731	14,139	1393,092	764,607
-1,717	14,137	1392,077	764,013
-0,702	14,135	1390,348	763,024
0,313	18,076	1309,236	736,719
1,327	34,661	705,659	435,461
2,342	53,078	124,202	83,986
3,356	2,450	16,579	8,463
4,371	0,592	3,231	1,629
5,386	-3,614	0,447	0,219
6,400	325,153	-0,102	0,138
7,415	-18,645	-0,182	-0,080
8,429	81,303	-0,223	-0,171
9,444	146,027	-0,299	-0,284
10,459	117,704	-0,314	-0,273
11,473	-32,018	-0,419	-0,165
12,488	132,805	-0,190	-0,174
13,502	-9,065	-0,336	-0,158
14,517	143,466	-0,242	-0,227
15,531	-55,325	-0,418	-0,132
16,546	-28,214	-0,408	-0,166
17,561	184,213	-0,252	-0,263
18,575	-26,863	-0,283	-0,116
19,590	129,536	-0,228	-0,205
20,604	8,107	-0,230	-0,121
21,619	4,003	-0,460	-0,237
22,634	42,770	-0,453	-0,291
23,648	81,942	-0,496	-0,379
24,663	164,210	-0,380	-0,378
25,677	310,994	-0,216	-0,287
26,692	245,931	-0,214	-0,255
27,707	49,114	-0,374	-0,247
28,721	29,799	-0,415	-0,249
29,736	26,278	-0,433	-0,255
30,750	91,063	-0,380	-0,300
31,765	206,655	-0,245	-0,269
32,780	-23,379	-0,409	-0,173
33,794	160,367	-0,199	-0,196
34,809	65,032	-0,432	-0,308
35,823	52,045	-0,420	-0,282
36,838	323,874	-0,243	-0,328
37,853	78,550	-0,440	-0,332
38,867	176,061	-0,288	-0,295
39,882	39,618	-0,369	-0,233
40,896	-39,323	-0,445	-0,164
41,911	-26,675	-0,454	-0,186
42,926	350,403	-0,179	-0,250
43,940	7,961	-0,479	-0,252
44,955	198,844	-0,286	-0,309
45,969	171,688	-0,298	-0,302
46,984	-74,064	-0,391	-0,099
47,999	-51,092	-0,437	-0,144
49,013	111,952	-0,378	-0,322
50,028	19,630	-0,260	-0,147
51,042	177,188	-0,299	-0,307
52,057	-15,916	-0,413	-0,185
53,071	130,248	-0,305	-0,275
54,086	159,674	-0,248	-0,243
55,101	70,184	-0,287	-0,209
56,115	-14,324	-0,431	-0,195
57,130	75,015	-0,374	-0,277
58,144	-11,435	-0,439	-0,203
59,159	64,608	-0,394	-0,279
60,174	96,908	-0,349	-0,282
61,188	91,583	-0,365	-0,289
62,203	150,704	-0,324	-0,310
63,217	-91,314	-0,355	-0,071
64,232	34,856	-0,376	-0,231
65,247	198,949	-0,333	-0,359
66,261	203,207	-0,175	-0,190
67,276	41,385	-0,398	-0,253
68,290	20,575	-0,412	-0,234
69,305	54,318	-0,284	-0,192
70,320	-57,354	-0,258	-0,079
71,334	36,364	-0,354	-0,219
72,349	90,958	-0,352	-0,277
73,363	79,019	-0,359	-0,270
74,378	76,939	-0,355	-0,265
75,393	62,674	-0,327	-0,230
76,407	-31,272	-0,297	-0,117
77,422	120,542	-0,261	-0,228
78,436	53,890	-0,281	-0,189
79,451	-61,154	-0,304	-0,090
80,466	140,565	-0,226	-0,210
81,480	112,458	-0,359	-0,305
82,495	-16,992	-0,295	-0,130
83,509	-45,526	-0,258	-0,089
84,524	-91,385	-0,133	-0,026
85,539	186,248	-0,235	-0,246
86,553	22,778	-0,329	-0,189
87,568	48,426	-0,328	-0,215
88,582	68,138	-0,323	-0,232
89,597	-19,622	-0,360	-0,156
90,611	60,552	-0,274	-0,190
91,626	353,285	-0,170	-0,238
92,641	-71,981	-0,247	-0,064
93,655	18,116	-0,303	-0,169
94,670	28,928	-0,270	-0,160
95,684	45,721	-0,271	-0,175
96,699	215,149	-0,300	-0,334
97,714	233,835	-0,214	-0,248
98,728	112,939	-0,138	-0,117
99,743	-125,624	-0,169	-0,018
100,757	-33,454	-0,318	-0,123
101,772	0,567	-0,348	-0,174
102,787	33,687	-0,321	-0,195
103,801	182,077	-0,211	-0,218
104,816	363,762	-0,124	-0,175
105,830	-96,293	-0,252	-0,046
106,845	130,979	-0,162	-0,146
107,860	-89,494	-0,328	-0,067
108,874	58,715	-0,279	-0,192
109,889	138,302	-0,237	-0,218
110,903	59,628	-0,289	-0,199
111,918	53,473	-0,294	-0,197
112,933	74,627	-0,243	-0,179
113,947	-42,653	-0,444	-0,158
114,962	116,301	-0,258	-0,221
115,976	-200,000	0,001	-0,207
116,991	-17,605	-0,393	-0,172
118,006	150,562	-0,249	-0,237
119,020	95,694	-0,295	-0,236
120,035	-16,561	-0,293	-0,129
121,049	-15,035	-0,245	-0,109
122,064	304,396	-0,101	-0,132
123,079	800,000	-0,118	-0,308
124,093	482,723	-0,262	-0,418
125,108	68,713	-0,307	-0,220
126,122	-16,898	-0,317	-0,139
127,137	126,264	-0,230	-0,203
128,151	76,847	-0,181	-0,134
129,166	112,523	-0,174	-0,147
130,181	156,652	-0,157	-0,152
131,195	257,993	-0,162	-0,196
132,210	61,090	-0,357	-0,248
133,224	121,851	-0,213	-0,186
134,239	-4,205	-0,236	-0,114
135,254	-4,073	-0,274	-0,132
136,268	183,851	-0,228	-0,236
137,283	209,660	-0,190	-0,209
138,297	284,382	-0,202	-0,254
139,312	442,737	-0,192	-0,295
140,327	-48,256	-0,340	-0,114
141,341	178,512	-0,263	-0,269
142,356	147,211	-0,214	-0,202
143,370	99,983	-0,067	-0,054
144,385	23,934	-0,278	-0,160
145,400	-83,410	-0,283	-0,063
146,414	800,000	-0,173	-0,353
147,429	134,428	-0,219	-0,198
148,443	-15,922	-0,169	-0,075
149,458	-76,170	-0,281	-0,069
150,473	123,221	-0,200	-0,175
151,487	-180,417	-0,221	-0,003
152,502	-17,647	-0,333	-0,145
153,516	-98,266	-0,324	-0,058
154,531	100,863	-0,323	-0,262
155,546	-20,962	-0,129	-0,055
156,560	18,766	-0,157	-0,088
157,575	94,983	-0,271	-0,216
158,589	592,931	-0,147	-0,255
159,604	44,408	-0,226	-0,145
160,619	472,254	-0,223	-0,352
161,633	42,805	-0,241	-0,153
162,648	-21,813	-0,260	-0,110
163,662	-31,896	-0,149	-0,058
164,677	26,175	-0,273	-0,159
165,692	47,035	-0,227	-0,147
166,706	68,555	-0,165	-0,118
167,721	16,709	-0,216	-0,119
168,735	8,487	-0,269	-0,141
169,750	-9,995	-0,291	-0,134
170,764	251,782	-0,123	-0,146
171,779	-40,589	-0,261	-0,094
172,794	-54,382	-0,113	-0,035
173,808	-123,598	-0,379	-0,041
174,823	144,042	-0,207	-0,192
175,837	-94,980	-0,316	-0,059
176,852	327,949	-0,168	-0,225
177,867	-31,677	-0,190	-0,074
178,881	141,825	-0,210	-0,194
179,896	155,651	-0,164	-0,157
180,910	417,951	-0,128	-0,191
181,925	-117,691	-0,176	0,022
182,940	-39,157	-0,433	-0,158
183,954	43,821	-0,217	-0,138
184,969	-19,145	-0,163	-0,070
185,983	-10,284	-0,254	-0,117
186,998	151,712	-0,164	-0,156
188,013	231,940	-0,162	-0,185
189,027	128,794	-0,237	-0,210
190,042	189,112	-0,124	-0,129
191,056	197,480	-0,272	-0,289
192,071	-21,073	-0,230	-0,098
193,086	78,860	-0,229	-0,170
194,100	-130,477	-0,262	-0,024
195,115	54,430	-0,183	-0,122
196,129	85,621	-0,272	-0,207
197,144	62,451	-0,141	-0,098
198,159	37,817	-0,251	-0,155
199,173	-102,813	-0,193	-0,032
200,188	-62,174	-0,168	-0,048
201,202	800,000	-0,102	-0,218
202,217	789,598	-0,087	-0,168
203,232	62,673	-0,299	-0,208
204,246	294,023	-0,116	-0,148
205,261	151,328	-0,165	-0,156
206,275	800,000	-0,073	-0,165
207,290	192,459	-0,200	-0,210
208,304	453,387	-0,140	-0,217
209,319	6,049	-0,190	-0,098
210,334	165,041	-0,192	-0,189
211,348	61,594	-0,224	-0,154
212,363	325,205	-0,130	-0,173
213,377	295,231	-0,181	-0,230
214,392	-82,113	-0,162	-0,036
215,407	52,877	-0,200	-0,133
216,421	128,077	-0,180	-0,159
217,436	36,318	-0,187	-0,114
218,450	348,292	-0,174	-0,239
219,465	17,951	-0,232	-0,128
220,480	137,591	-0,184	-0,168
221,494	800,000	-0,095	-0,201
222,509	173,872	-0,127	-0,128
223,523	53,641	-0,208	-0,138
224,538	97,200	-0,134	-0,107
225,553	5,949	-0,211	-0,108
226,567	800,000	-0,077	-0,204
227,582	301,945	-0,224	-0,288
228,596	62,425	-0,197	-0,136
229,611	-147,647	-0,144	-0,008
230,626	-38,667	-0,200	-0,073
231,640	27,934	-0,119	-0,069
232,655	-200,000	-0,088	-0,302
233,669	96,314	-0,292	-0,232
234,684	-200,000	0,008	-0,162
235,699	118,100	-0,140	-0,119
236,713	-35,760	-0,166	-0,062
237,728	360,238	-0,123	-0,171
238,742	32,666	-0,160	-0,096
239,757	91,485	-0,382	-0,297
240,772	238,254	-0,230	-0,265
241,786	669,874	-0,118	-0,213
242,801	-188,355	-0,241	-0,002
243,815	-35,920	-0,243	-0,090
244,830	-2,561	-0,259	-0,125
245,844	-200,000	-0,038	-0,131
246,859	121,303	-0,267	-0,231
247,874	-16,382	-0,255	-0,112
248,888	-200,000	-0,043	-0,163
249,903	331,922	-0,170	-0,228
250,917	135,502	-0,100	-0,090
251,932	128,082	-0,128	-0,112
252,947	38,524	-0,080	-0,049
253,961	89,885	-0,117	-0,090
254,976	194,552	-0,132	-0,139
255,990	71,225	-0,154	-0,110
257,005	123,708	-0,221	-0,192
258,020	230,971	-0,162	-0,184
259,034	47,830	-0,191	-0,123
260,049	258,503	-0,131	-0,156
261,063	-71,246	-0,135	-0,035
262,078	478,082	-0,099	-0,156
263,093	630,550	-0,096	-0,169
264,107	-31,887	-0,142	-0,055
265,122	-33,931	-0,192	-0,073
266,136	181,516	-0,085	-0,087
267,151	156,483	-0,226	-0,215
268,166	800,000	-0,083	-0,163
269,180	65,136	-0,100	-0,069
270,195	241,034	-0,176	-0,204
271,209	27,240	-0,177	-0,103
272,224	112,607	-0,114	-0,096
273,239	-74,186	-0,079	-0,020
274,253	563,010	-0,132	-0,222
275,268	119,948	-0,138	-0,118
276,282	113,140	-0,123	-0,103
277,297	354,254	-0,145	-0,199
278,312	195,828	-0,106	-0,112
279,326	444,774	-0,084	-0,127
280,341	800,000	-0,053	-0,105
281,355	-26,201	-0,074	0,030
282,370	800,000	-0,043	-0,117
283,384	-87,060	-0,210	-0,044
284,399	14,413	-0,214	-0,115
285,414	-200,000	-0,045	-0,232
286,428	55,228	-0,225	-0,150
287,443	-11,839	-0,248	-0,112
288,457	800,000	-0,084	-0,162
289,472	47,396	-0,171	-0,110
290,487	49,617	-0,292	-0,189
291,501	-7,076	-0,245	-0,114
292,516	563,937	-0,089	-0,150
293,530	-39,215	-0,128	-0,046
294,545	-103,133	-0,196	-0,032
295,560	83,343	-0,150	-0,113
296,574	152,334	0,046	-0,044
297,589	18,510	-0,155	-0,085
298,603	172,808	-0,253	-0,251
299,618	461,830	-0,068	-0,106
300,633	-200,000	-0,079	-0,244
301,647	-52,462	-0,127	-0,040
302,662	-149,998	-0,050	-0,003
303,676	-55,741	-0,214	0,066
304,691	-200,000	-0,106	0,000
305,706	146,905	-0,162	-0,150
306,720	800,000	-0,075	-0,189
307,735	277,473	-0,082	-0,101
308,749	800,000	-0,034	-0,098
309,764	-2,378	-0,157	-0,075
310,779	-27,453	-0,145	-0,058
311,793	531,141	-0,131	-0,214
312,808	375,912	-0,154	-0,218
313,822	-142,386	-0,223	-0,015
314,837	220,783	-0,170	-0,188
315,852	-84,499	-0,272	-0,059
316,866	227,738	-0,082	0,092
317,881	223,867	-0,136	-0,152
318,895	-100,176	-0,298	-0,051
319,910	-200,000	-0,079	-0,307
320,925	-71,148	-0,108	-0,028
321,939	-200,000	0,006	-0,150
322,954	306,263	-0,096	-0,124
323,968	139,643	-0,120	-0,109
324,983	-124,403	-0,059	-0,006
325,997	-125,605	-0,283	-0,029
327,012	344,761	-0,158	-0,214
328,027	-58,820	-0,168	-0,050
329,041	370,350	-0,091	-0,128
330,056	87,871	-0,128	-0,098
331,070	355,773	-0,083	-0,114
332,085	59,443	-0,141	-0,095
333,100	-43,703	-0,172	-0,059
334,114	338,702	-0,046	-0,062
335,129	259,871	-0,050	-0,059
336,143	372,938	-0,110	-0,153
337,158	452,258	-0,094	-0,144
338,173	-200,000	0,002	-0,052
339,187	631,084	-0,094	-0,164
340,202	800,000	0,031	-0,084
341,216	800,000	-0,034	-0,067
342,231	529,418	-0,126	-0,205
343,246	73,565	-0,185	-0,133
344,260	-200,000	-0,016	-0,067
345,275	-200,000	-0,015	-0,117
346,289	-88,283	-0,159	0,032
347,304	-36,486	-0,159	-0,058
348,319	-100,934	-0,151	-0,025
349,333	800,000	-0,034	-0,090
350,348	1,628	-0,101	-0,050
351,362	28,009	-0,074	-0,043
352,377	-170,004	-0,158	0,004
353,392	625,555	-0,058	0,101
354,406	-0,283	-0,291	-0,142
355,421	209,230	1314,562	1414,145
356,435	161,018	1475,303	1414,650
