DTS Sentinel unit serial number:	SN410029Multiplexer serial number:	ORYXHardware model number:	OX2-SRSoftware version number:	ORYX F/W v4,00 Oryx Data Collector v3.7.2.0data status	okinstallation	B3 Nyhavnadifferential loss correction	single-endedforward channel	channel 1reverse channel	N/Adate	2023/12/02time	12:02:30forward acquisition time	300,00reverse acquisition time	0,00gamma	499,1914k internal	0,3199k external	0,3199temperature offset calibration	1,0000default loss term (dB/km)	0,3820temperature slope calibration	1,0000multiplexer offset coefficient	1,0000multiplexer slope coefficient	1,0000fibre end	0,00T internal ref (°C)	13,99T ext. ref 1 (°C)	-0,93T ext. ref 2 (°C)	-0,93length (m)	temperature (°C)	Stokes	anti-Stokes-744,400	-200,000	0,039	-0,190
-743,385	-200,000	-0,076	0,280
-742,371	363,017	-0,106	-0,155
-741,356	-200,000	0,064	0,390
-740,342	127,441	-0,115	-0,106
-739,327	-200,000	0,053	0,355
-738,312	125,185	-0,146	-0,134
-737,298	-200,000	0,061	0,253
-736,283	225,205	-0,174	-0,205
-735,269	-200,000	0,054	0,234
-734,254	188,310	-0,137	-0,149
-733,239	84,037	-0,249	0,198
-732,225	800,000	-0,100	-0,298
-731,210	108,867	0,119	0,103
-730,196	-39,823	-0,066	0,025
-729,181	9,898	-0,167	-0,092
-728,167	275,250	0,078	-0,101
-727,152	-57,288	0,052	-0,017
-726,137	-61,684	-0,043	0,013
-725,123	-53,999	-0,014	0,005
-724,108	431,613	-0,050	-0,079
-723,094	52,588	-0,108	-0,075
-722,079	54,843	-0,093	-0,065
-721,064	1,014	0,091	-0,047
-720,050	108,727	-0,171	-0,148
-719,035	-200,000	0,006	-0,060
-718,021	59,354	-0,044	-0,032
-717,006	223,680	-0,108	-0,127
-715,991	247,555	-0,058	-0,072
-714,977	-44,613	-0,134	-0,048
-713,962	-200,000	0,026	-0,114
-712,948	205,116	-0,080	-0,090
-711,933	-112,826	0,174	-0,025
-710,918	-200,000	-0,146	0,000
-709,904	-200,000	0,017	0,082
-708,889	-120,481	-0,132	0,016
-707,875	-200,000	-0,023	-0,131
-706,860	0,751	0,179	-0,093
-705,845	-200,000	0,000	0,119
-704,831	179,183	0,009	0,009
-703,816	-200,000	-0,001	0,093
-702,802	291,323	0,016	-0,022
-701,787	633,734	-0,040	-0,073
-700,772	149,123	0,125	-0,123
-699,758	-200,000	-0,034	-0,147
-698,743	184,797	-0,062	-0,067
-697,729	-200,000	0,002	-0,110
-696,714	800,000	-0,012	0,025
-695,699	147,589	-0,148	-0,145
-694,685	-200,000	0,024	-0,099
-693,670	66,332	-0,087	-0,064
-692,656	19,849	-0,107	-0,063
-691,641	99,051	-0,026	0,022
-690,627	-200,000	0,018	0,120
-689,612	11,443	0,087	-0,048
-688,597	-139,584	-0,053	0,004
-687,583	406,413	-0,030	-0,046
-686,568	55,352	-0,162	-0,113
-685,554	800,000	0,003	0,009
-684,539	-200,000	-0,010	-0,150
-683,524	-200,000	-0,012	0,118
-682,510	-200,000	0,005	-0,080
-681,495	1,729	-0,054	-0,028
-680,481	-2,182	-0,046	0,023
-679,466	708,303	0,027	-0,051
-678,451	-200,000	0,001	0,015
-677,437	2,823	-0,098	0,052
-676,422	-200,000	-0,007	-0,022
-675,408	-200,000	-0,037	0,186
-674,393	-200,000	-0,017	0,073
-673,378	676,387	-0,134	-0,253
-672,364	57,694	-0,048	-0,034
-671,349	-200,000	0,007	-0,079
-670,335	-88,711	-0,040	-0,008
-669,320	-37,580	0,045	0,017
-668,305	115,896	-0,080	-0,071
-667,291	18,281	-0,079	-0,046
-666,276	239,393	-0,039	0,047
-665,262	800,000	0,032	-0,082
-664,247	5,361	0,033	-0,017
-663,232	67,645	0,072	0,054
-662,218	194,128	-0,062	0,069
-661,203	-86,220	0,076	-0,017
-660,189	3,701	-0,107	0,056
-659,174	-200,000	0,091	0,000
-658,159	117,432	-0,104	-0,093
-657,145	52,382	-0,042	-0,029
-656,130	-132,014	-0,094	-0,009
-655,116	280,700	0,102	0,133
-654,101	25,210	-0,090	0,054
-653,086	-200,000	-0,005	-0,053
-652,072	-71,872	-0,087	-0,023
-651,057	27,845	-0,143	-0,087
-650,043	-7,087	0,063	0,031
-649,028	-84,384	-0,156	0,035
-648,014	-200,000	0,016	0,076
-646,999	112,660	0,132	0,116
-645,984	681,986	-0,043	-0,081
-644,970	-200,000	0,036	0,193
-643,955	-200,000	-0,004	0,103
-642,941	119,955	-0,053	0,048
-641,926	-25,878	0,073	-0,031
-640,911	36,458	0,084	0,054
-639,897	-64,861	0,186	0,054
-638,882	60,132	0,090	-0,064
-637,868	22,837	0,079	-0,047
-636,853	254,773	-0,042	-0,052
-635,838	-1,038	-0,083	0,042
-634,824	-200,000	0,011	-0,048
-633,809	24,735	0,044	0,026
-632,795	-200,000	-0,011	-0,222
-631,780	800,000	0,027	-0,065
-630,765	619,714	0,038	0,070
-629,751	-12,434	-0,175	-0,083
-628,736	-80,745	-0,100	0,024
-627,722	606,442	-0,035	-0,064
-626,707	-13,328	-0,004	0,002
-625,692	246,941	-0,051	0,063
-624,678	-80,219	-0,072	0,017
-623,663	127,516	-0,081	0,074
-622,649	110,608	-0,043	-0,038
-621,634	73,243	-0,071	0,054
-620,619	-55,813	0,079	-0,025
-619,605	147,033	0,098	0,095
-618,590	796,749	-0,080	-0,160
-617,576	-100,919	-0,100	0,018
-616,561	789,471	0,065	0,130
-615,546	-101,645	-0,114	-0,020
-614,532	-200,000	0,011	-0,061
-613,517	-176,259	-0,236	-0,004
-612,503	-200,000	0,003	0,068
-611,488	800,000	-0,026	-0,074
-610,474	56,241	-0,076	0,053
-609,459	353,369	-0,052	0,075
-608,444	112,173	0,130	-0,114
-607,430	-200,000	0,023	-0,113
-606,415	-108,163	-0,068	-0,011
-605,401	-200,000	-0,001	0,083
-604,386	800,000	0,034	-0,094
-603,371	-110,277	0,056	0,008
-602,357	496,368	0,070	0,117
-601,342	-42,177	-0,126	-0,046
-600,328	800,000	-0,028	-0,074
-599,313	-200,000	0,004	-0,035
-598,298	607,728	0,069	0,124
-597,284	162,165	0,073	0,074
-596,269	241,123	-0,061	0,074
-595,255	-200,000	0,002	0,067
-594,240	-70,511	-0,142	0,039
-593,225	270,884	-0,124	-0,158
-592,211	125,964	-0,026	0,024
-591,196	-60,818	0,220	-0,067
-590,182	639,522	-0,074	-0,137
-589,167	404,047	-0,142	0,217
-588,152	800,000	-0,052	0,148
-587,138	256,037	-0,101	0,125
-586,123	-200,000	-0,003	0,076
-585,109	6,764	-0,136	-0,073
-584,094	-200,000	-0,004	-0,095
-583,079	28,590	0,106	-0,065
-582,065	44,016	0,036	-0,024
-581,050	254,300	-0,052	-0,064
-580,036	-107,937	-0,158	0,025
-579,021	-27,907	-0,038	-0,016
-578,006	-200,000	-0,008	0,054
-576,992	-200,000	0,014	-0,109
-575,977	-78,379	-0,016	0,004
-574,963	165,872	0,046	0,047
-573,948	800,000	0,010	-0,026
-572,934	281,929	-0,025	-0,032
-571,919	245,956	-0,052	-0,064
-570,904	238,427	-0,108	-0,130
-569,890	800,000	0,036	-0,101
-568,875	800,000	0,019	0,050
-567,861	-12,169	0,094	0,044
-566,846	-200,000	-0,007	-0,062
-565,831	-44,740	0,092	0,033
-564,817	191,066	-0,032	-0,034
-563,802	-19,698	-0,145	-0,065
-562,788	259,595	0,095	0,118
-561,773	72,207	-0,085	0,064
-560,758	-144,485	0,060	0,004
-559,744	-135,638	0,103	0,009
-558,729	-200,000	-0,007	-0,107
-557,715	-200,000	-0,003	-0,095
-556,700	-200,000	-0,020	-0,134
-555,685	-200,000	-0,007	-0,034
-554,671	-168,186	-0,128	0,004
-553,656	-32,593	0,083	0,033
-552,642	212,270	-0,045	-0,051
-551,627	800,000	-0,005	0,015
-550,612	-110,726	-0,041	-0,006
-549,598	-7,971	-0,084	-0,041
-548,583	558,865	-0,009	0,016
-547,569	19,579	-0,037	0,021
-546,554	282,587	0,049	0,063
-545,539	-200,000	-0,002	0,069
-544,525	91,314	-0,044	0,035
-543,510	-44,404	0,032	-0,012
-542,496	70,477	0,064	0,048
-541,481	-200,000	-0,004	0,087
-540,466	106,054	0,023	0,020
-539,452	626,781	-0,066	0,120
-538,437	54,249	0,067	0,047
-537,423	569,065	-0,050	0,089
-536,408	44,622	-0,084	-0,055
-535,393	800,000	-0,056	-0,150
-534,379	197,215	-0,116	-0,127
-533,364	318,104	-0,090	-0,124
-532,350	-132,500	-0,044	0,004
-531,335	466,519	0,090	-0,146
-530,321	800,000	-0,036	0,096
-529,306	-200,000	0,020	-0,070
-528,291	800,000	0,062	-0,180
-527,277	-144,111	-0,026	-0,002
-526,262	100,212	-0,027	-0,022
-525,248	-29,900	0,227	-0,093
-524,233	284,737	-0,021	0,027
-523,218	217,555	0,073	-0,084
-522,204	-104,054	-0,111	0,018
-521,189	170,401	0,008	-0,008
-520,175	579,529	-0,053	-0,094
-519,160	800,000	-0,047	-0,125
-518,145	-200,000	0,009	0,154
-517,131	42,549	-0,060	-0,040
-516,116	-200,000	-0,035	0,117
-515,102	-151,390	-0,088	-0,005
-514,087	539,684	-0,044	-0,076
-513,072	420,252	-0,137	-0,213
-512,058	547,836	-0,023	0,040
-511,043	110,331	0,056	-0,049
-510,029	24,922	0,034	-0,020
-509,014	-200,000	0,012	0,057
-507,999	-200,000	0,022	0,147
-506,985	12,520	-0,042	-0,023
-505,970	341,270	-0,034	0,047
-504,956	712,295	-0,025	0,048
-503,941	-200,000	-0,023	0,128
-502,926	34,410	0,129	0,081
-501,912	-200,000	-0,012	-0,042
-500,897	390,042	0,034	-0,050
-499,883	101,289	0,101	0,085
-498,868	481,225	-0,041	-0,067
-497,853	337,022	-0,034	-0,047
-496,839	142,176	-0,068	0,065
-495,824	-200,000	0,000	0,055
-494,810	-171,085	0,081	-0,002
-493,795	586,809	-0,075	0,134
-492,781	-200,000	0,011	0,050
-491,766	772,680	-0,069	-0,136
-490,751	289,129	0,085	-0,112
-489,737	101,575	0,037	-0,031
-488,722	-200,000	-0,009	-0,038
-487,708	800,000	0,052	0,126
-486,693	-200,000	-0,009	-0,084
-485,678	-200,000	0,038	0,121
-484,664	62,223	-0,097	-0,069
-483,649	800,000	-0,015	-0,048
-482,635	-152,094	0,120	0,006
-481,620	103,145	0,086	0,073
-480,605	128,497	0,069	-0,063
-479,591	427,060	-0,046	0,071
-478,576	228,344	0,073	-0,086
-477,562	-200,000	0,014	0,065
-476,547	-200,000	-0,001	-0,008
-475,532	800,000	-0,015	-0,047
-474,518	36,221	-0,055	-0,035
-473,503	-10,477	0,171	0,081
-472,489	-200,000	0,009	0,087
-471,474	-62,672	0,121	0,036
-470,459	-200,000	-0,020	-0,135
-469,445	-104,324	-0,140	-0,023
-468,430	348,724	0,066	0,094
-467,416	-200,000	0,010	-0,068
-466,401	-19,038	-0,040	-0,018
-465,386	433,502	-0,036	-0,056
-464,372	677,395	0,031	-0,059
-463,357	-200,000	-0,019	-0,103
-462,343	-200,000	-0,026	-0,096
-461,328	318,990	0,108	-0,148
-460,313	-160,836	0,133	0,005
-459,299	531,891	0,058	-0,099
-458,284	135,754	0,049	-0,046
-457,270	-18,269	0,098	-0,044
-456,255	20,142	-0,081	0,047
-455,241	-82,367	0,109	0,025
-454,226	579,069	0,072	0,127
-453,211	227,077	-0,069	-0,081
-452,197	-200,000	-0,008	0,066
-451,182	-200,000	0,014	0,085
-450,168	80,351	0,017	0,013
-449,153	-70,295	0,018	0,005
-448,138	396,350	-0,088	-0,133
-447,124	-23,902	-0,099	-0,042
-446,109	519,732	-0,042	-0,072
-445,095	800,000	0,031	0,090
-444,080	411,095	0,069	0,106
-443,065	27,066	0,056	0,034
-442,051	127,736	-0,065	0,059
-441,036	-93,405	-0,135	0,027
-440,022	81,967	-0,109	-0,085
-439,007	597,180	0,077	0,137
-437,992	123,054	0,029	0,026
-436,978	-200,000	0,033	0,129
-435,963	246,613	0,100	0,122
-434,949	-104,356	0,032	-0,005
-433,934	-200,000	-0,031	-0,118
-432,919	-22,761	-0,121	-0,052
-431,905	-11,155	0,104	-0,049
-430,890	-133,748	0,141	-0,012
-429,876	-89,352	0,064	-0,013
-428,861	-186,258	0,028	0,000
-427,846	-128,012	0,196	-0,020
-426,832	800,000	-0,041	-0,112
-425,817	800,000	-0,042	0,087
-424,803	-200,000	-0,016	0,117
-423,788	-165,882	0,068	0,002
-422,773	800,000	-0,052	0,141
-421,759	-63,458	-0,047	-0,014
-420,744	124,441	-0,064	-0,058
-419,730	7,738	-0,024	-0,013
-418,715	282,949	-0,083	-0,108
-417,701	-200,000	0,026	0,097
-416,686	-200,000	-0,005	0,027
-415,671	-200,000	-0,006	-0,059
-414,657	-111,484	0,058	0,008
-413,642	800,000	0,067	0,166
-412,628	731,182	0,016	-0,031
-411,613	778,682	0,032	-0,063
-410,598	800,000	-0,010	0,031
-409,584	-200,000	-0,004	0,053
-408,569	-200,000	-0,018	-0,165
-407,555	-200,000	-0,005	0,079
-406,540	-116,471	0,092	0,012
-405,525	800,000	0,042	-0,125
-404,511	63,677	-0,016	-0,012
-403,496	-200,000	0,018	0,110
-402,482	-200,000	0,004	-0,057
-401,467	-130,270	0,067	0,006
-400,452	-144,538	0,136	0,009
-399,438	-109,147	0,060	0,009
-398,423	261,727	-0,110	-0,137
-397,409	249,626	-0,065	-0,080
-396,394	-25,016	0,066	-0,028
-395,379	-200,000	-0,003	0,097
-394,365	-26,770	0,094	0,039
-393,350	-57,061	-0,057	-0,018
-392,336	234,848	-0,100	0,119
-391,321	337,343	-0,013	0,018
-390,306	114,992	0,101	0,088
-389,292	62,066	-0,087	0,062
-388,277	-200,000	0,025	-0,206
-387,263	-136,698	-0,061	-0,005
-386,248	800,000	0,034	0,104
-385,233	105,176	-0,085	0,072
-384,219	391,483	-0,007	-0,011
-383,204	267,263	0,048	0,061
-382,190	285,117	0,128	-0,166
-381,175	-135,317	-0,078	-0,007
-380,160	-30,571	0,047	-0,019
-379,146	632,343	0,045	0,082
-378,131	-200,000	0,010	-0,118
-377,117	236,596	0,078	-0,093
-376,102	-200,000	-0,010	-0,037
-375,088	244,156	-0,036	0,043
-374,073	-186,484	-0,048	-0,000
-373,058	-80,169	0,157	-0,037
-372,044	-198,012	0,068	0,000
-371,029	138,798	0,078	-0,074
-370,015	-43,628	-0,098	-0,035
-369,000	800,000	-0,019	-0,050
-367,985	-86,130	-0,079	-0,017
-366,971	-122,429	-0,087	-0,010
-365,956	-45,629	0,087	0,031
-364,942	-200,000	-0,006	-0,051
-363,927	-44,890	-0,052	-0,018
-362,912	-200,000	0,003	-0,064
-361,898	421,916	0,067	0,103
-360,883	800,000	-0,015	0,038
-359,869	800,000	0,015	0,042
-358,854	-200,000	0,030	0,109
-357,839	23,707	0,077	0,045
-356,825	-40,268	0,091	0,034
-355,810	164,001	-0,116	-0,117
-354,796	-75,953	0,052	-0,013
-353,781	800,000	0,023	-0,047
-352,766	-36,493	0,028	0,011
-351,752	63,995	0,029	-0,021
-350,737	494,525	0,127	0,209
-349,723	149,940	-0,054	0,053
-348,708	-200,000	-0,000	0,167
-347,693	327,648	0,064	-0,088
-346,679	-102,850	-0,159	-0,027
-345,664	164,346	0,052	0,052
-344,650	-200,000	-0,003	0,012
-343,635	-30,972	-0,041	-0,016
-342,620	179,094	0,114	0,120
-341,606	-200,000	-0,038	-0,249
-340,591	-81,344	-0,091	-0,021
-339,577	413,499	0,060	0,091
-338,562	800,000	-0,056	0,145
-337,548	470,169	0,065	0,105
-336,533	681,316	0,109	0,204
-335,518	187,089	0,088	-0,094
-334,504	-200,000	-0,023	-0,103
-333,489	-200,000	0,009	-0,040
-332,475	-200,000	-0,027	-0,156
-331,460	-200,000	0,028	-0,125
-330,445	163,590	0,088	0,089
-329,431	-200,000	0,029	0,155
-328,416	-64,254	-0,020	0,006
-327,402	-25,335	0,169	0,071
-326,387	-200,000	-0,013	0,075
-325,372	-200,000	-0,008	-0,095
-324,358	-200,000	-0,006	0,049
-323,343	436,004	0,028	-0,044
-322,329	321,944	0,020	-0,027
-321,314	-200,000	-0,005	0,148
-320,299	-14,394	-0,100	0,046
-319,285	-139,496	0,159	-0,012
-318,270	-200,000	-0,022	-0,124
-317,256	-67,739	-0,116	-0,032
-316,241	-19,280	-0,042	0,019
-315,226	-94,580	0,094	-0,018
-314,212	54,933	0,045	-0,031
-313,197	-100,237	0,059	0,010
-312,183	337,054	-0,008	-0,011
-311,168	700,277	-0,035	-0,067
-310,153	162,723	-0,030	-0,030
-309,139	-120,166	-0,176	0,021
-308,124	62,391	-0,044	-0,031
-307,110	-200,000	-0,002	0,058
-306,095	202,822	0,045	-0,050
-305,080	-200,000	0,001	0,033
-304,066	-200,000	0,009	0,121
-303,051	-200,000	0,003	-0,046
-302,037	-200,000	-0,007	0,094
-301,022	-152,152	0,035	0,002
-300,008	349,517	-0,047	-0,067
-298,993	108,309	0,059	-0,050
-297,978	13,856	-0,016	-0,009
-296,964	-17,351	0,201	-0,090
-295,949	197,620	-0,046	-0,050
-294,935	134,728	0,012	0,011
-293,920	786,946	0,014	0,028
-292,905	-200,000	0,016	0,123
-291,891	-90,558	-0,114	0,023
-290,876	50,670	0,043	0,029
-289,862	-21,061	-0,034	0,015
-288,847	57,850	-0,093	0,065
-287,832	-200,000	-0,006	-0,042
-286,818	-200,000	-0,001	0,048
-285,803	570,699	0,089	0,155
-284,789	184,320	0,081	0,086
-283,774	-126,884	-0,141	-0,015
-282,759	67,935	-0,104	-0,076
-281,745	-200,000	-0,026	-0,114
-280,730	-55,898	0,087	-0,028
-279,716	-200,000	0,001	0,037
-278,701	800,000	0,004	-0,008
-277,686	593,155	0,019	-0,035
-276,672	116,392	-0,116	0,102
-275,657	800,000	0,026	-0,062
-274,643	329,368	-0,061	-0,084
-273,628	-200,000	-0,012	-0,104
-272,613	-40,838	0,073	0,027
-271,599	83,195	-0,045	0,035
-270,584	86,418	-0,013	0,010
-269,570	-73,195	0,093	0,024
-268,555	68,959	0,115	0,084
-267,540	88,132	-0,085	-0,068
-266,526	-90,566	-0,092	0,019
-265,511	202,796	-0,044	0,048
-264,497	-37,849	-0,183	-0,069
-263,482	-200,000	-0,006	-0,044
-262,467	-89,136	0,153	-0,032
-261,453	-200,000	0,021	0,084
-260,438	354,912	-0,014	-0,020
-259,424	-200,000	-0,001	-0,094
-258,409	-148,102	-0,069	-0,004
-257,395	-181,516	0,031	-0,000
-256,380	-60,822	0,149	-0,045
-255,365	-157,759	-0,109	-0,005
-254,351	99,005	0,113	-0,093
-253,336	-200,000	0,003	0,012
-252,322	305,236	-0,037	-0,049
-251,307	120,054	-0,088	0,078
-250,292	-200,000	0,016	0,146
-249,278	-200,000	0,015	0,163
-248,263	417,242	-0,016	0,025
-247,249	10,946	-0,096	-0,052
-246,234	262,280	-0,019	-0,024
-245,219	602,330	0,027	0,047
-244,205	651,705	0,037	-0,069
-243,190	30,241	-0,030	-0,018
-242,176	-200,000	0,007	0,134
-241,161	-200,000	-0,001	-0,107
-240,146	-87,045	-0,051	0,011
-239,132	-200,000	-0,001	-0,078
-238,117	-200,000	-0,010	-0,049
-237,103	-134,753	-0,047	0,004
-236,088	14,010	-0,007	0,004
-235,073	-200,000	0,005	0,066
-234,059	69,251	0,070	0,051
-233,044	-23,547	0,211	-0,090
-232,030	55,155	0,149	-0,103
-231,015	-200,000	-0,004	-0,012
-230,000	-200,000	-0,028	0,094
-228,986	-58,490	-0,002	-0,001
-227,971	800,000	0,026	0,060
-226,957	186,629	0,056	-0,059
-225,942	-200,000	0,027	0,090
-224,927	800,000	0,009	0,025
-223,913	221,921	0,049	0,056
-222,898	-42,315	0,053	0,019
-221,884	183,182	0,094	0,099
-220,869	183,412	-0,054	0,057
-219,855	189,738	0,072	-0,077
-218,840	158,844	0,030	-0,030
-217,825	-79,498	0,010	-0,002
-216,811	-89,672	-0,154	-0,032
-215,796	-160,666	0,100	-0,004
-214,782	-186,547	-0,121	0,001
-213,767	-200,000	0,003	-0,024
-212,752	71,853	0,061	-0,045
-211,738	-200,000	0,022	-0,071
-210,723	-200,000	0,003	0,081
-209,709	-51,281	-0,079	0,026
-208,694	-65,686	-0,097	0,027
-207,679	20,853	-0,157	0,090
-206,665	-102,431	0,022	0,004
-205,650	800,000	-0,037	-0,082
-204,636	66,697	0,038	-0,028
-203,621	-43,291	-0,077	-0,027
-202,606	339,992	-0,063	0,087
-201,592	-81,485	-0,209	-0,049
-200,577	23,641	-0,056	0,033
-199,563	128,294	0,142	-0,129
-198,548	0,069	0,060	0,030
-197,533	-50,239	0,028	0,009
-196,519	-200,000	0,039	0,199
-195,504	366,197	-0,002	-0,003
-194,490	800,000	0,007	0,023
-193,475	0,334	0,093	0,047
-192,460	3,447	-0,182	-0,094
-191,446	68,767	-0,098	0,072
-190,431	-86,942	0,219	0,047
-189,417	-200,000	0,020	0,130
-188,402	-200,000	0,007	0,116
-187,387	492,771	-0,039	0,064
-186,373	327,810	0,067	-0,092
-185,358	-20,481	-0,026	-0,011
-184,344	-34,703	0,050	-0,019
-183,329	-16,378	-0,012	0,005
-182,315	721,742	0,021	-0,040
-181,300	55,973	0,055	-0,038
-180,285	-18,332	-0,136	-0,060
-179,271	800,000	-0,063	-0,134
-178,256	115,582	0,035	0,031
-177,242	-200,000	0,018	-0,079
-176,227	-200,000	0,003	0,012
-175,212	-109,589	0,231	0,034
-174,198	88,701	-0,113	0,090
-173,183	-151,830	-0,039	-0,002
-172,169	377,666	-0,107	-0,156
-171,154	-200,000	-0,004	-0,029
-170,139	308,673	0,018	0,024
-169,125	14,812	-0,106	0,059
-168,110	800,000	-0,026	0,073
-167,096	329,454	-0,105	0,144
-166,081	800,000	-0,038	0,079
-165,066	-26,105	-0,076	0,032
-164,052	-200,000	0,015	-0,128
-163,037	470,282	-0,076	-0,123
-162,023	-64,045	0,127	0,037
-161,008	-37,939	-0,095	-0,036
-159,993	145,541	0,063	0,060
-158,979	185,665	0,028	0,030
-157,964	146,941	0,144	-0,138
-156,950	-138,953	-0,054	-0,004
-155,935	48,970	0,082	-0,055
-154,920	-81,050	-0,062	-0,015
-153,906	586,720	0,018	-0,032
-152,891	615,606	-0,005	0,010
-151,877	800,000	-0,025	-0,064
-150,862	27,682	-0,036	-0,021
-149,847	800,000	0,048	-0,107
-148,833	-134,542	0,075	-0,006
-147,818	-200,000	0,026	0,214
-146,804	305,355	-0,017	0,022
-145,789	157,576	-0,047	0,046
-144,775	-83,146	-0,134	-0,030
-143,760	-146,378	0,099	-0,006
-142,745	23,951	-0,117	0,068
-141,731	98,048	0,087	-0,071
-140,716	578,207	0,047	0,082
-139,702	-26,061	0,136	-0,057
-138,687	647,661	0,038	-0,069
-137,672	139,779	0,054	-0,050
-136,658	-6,315	-0,083	-0,040
-135,643	-79,702	-0,043	-0,010
-134,629	800,000	0,027	-0,056
-133,614	-1,724	0,104	-0,052
-132,599	-200,000	-0,001	0,101
-131,585	800,000	-0,071	-0,182
-130,570	-6,247	-0,072	0,035
-129,556	11,164	-0,056	-0,030
-128,541	-17,007	-0,039	0,017
-127,526	800,000	0,060	-0,118
-126,512	309,239	0,059	-0,078
-125,497	-200,000	-0,023	0,131
-124,483	393,989	-0,066	-0,098
-123,468	393,065	-0,073	-0,108
-122,453	10,303	0,030	-0,016
-121,439	116,789	-0,047	0,041
-120,424	800,000	-0,098	-0,222
-119,410	-58,928	-0,144	-0,044
-118,395	800,000	0,030	0,074
-117,380	-47,827	0,134	-0,046
-116,366	78,604	-0,068	-0,051
-115,351	230,149	-0,019	-0,023
-114,337	53,454	-0,040	0,027
-113,322	-54,741	0,053	0,017
-112,307	752,558	-0,045	0,086
-111,293	-200,000	0,012	0,044
-110,278	800,000	-0,032	0,099
-109,264	800,000	0,015	-0,035
-108,249	396,160	-0,100	-0,148
-107,234	-90,927	-0,033	0,007
-106,220	800,000	-0,042	-0,083
-105,205	55,277	0,100	-0,068
-104,191	477,875	0,039	0,063
-103,176	-200,000	0,020	0,107
-102,162	-200,000	0,011	0,141
-101,147	103,925	0,100	-0,083
-100,132	-59,883	0,050	-0,015
-99,118	-43,360	0,056	-0,020
-98,103	34,968	0,036	0,023
-97,089	-48,133	-0,100	0,034
-96,074	149,999	-0,017	0,016
-95,059	10,964	-0,067	0,036
-94,045	-34,752	0,087	-0,034
-93,030	151,746	-0,111	0,107
-92,016	28,954	-0,129	-0,077
-91,001	-148,850	0,057	0,003
-89,986	-200,000	0,015	-0,093
-88,972	-200,000	-0,006	-0,024
-87,957	-200,000	-0,013	0,127
-86,943	-200,000	0,028	0,139
-85,928	-157,316	-0,075	-0,003
-84,913	264,317	-0,086	0,106
-83,899	800,000	0,045	-0,113
-82,884	207,324	0,109	0,121
-81,870	-41,982	0,123	-0,045
-80,855	546,671	-0,022	0,038
-79,840	800,000	-0,039	-0,094
-78,826	-200,000	-0,001	0,012
-77,811	-200,000	0,008	-0,166
-76,797	0,344	0,041	-0,021
-75,782	13,989	-0,090	0,050
-74,767	-162,586	0,013	0,000
-73,753	-183,478	0,114	0,001
-72,738	-75,829	0,092	0,023
-71,724	63,821	-0,012	0,008
-70,709	-3,746	-0,119	-0,058
-69,694	211,167	-0,049	-0,055
-68,680	685,518	0,037	0,070
-67,665	-200,000	0,023	-0,073
-66,651	64,181	0,103	-0,073
-65,636	-200,000	-0,001	0,094
-64,622	800,000	-0,037	0,108
-63,607	800,000	-0,006	0,016
-62,592	46,113	0,171	-0,112
-61,578	-200,000	0,029	-0,126
-60,563	124,927	-0,054	-0,048
-59,549	103,804	0,045	-0,038
-58,534	-16,006	-1,508	-0,677
-57,519	543,375	-1,264	-2,145
-56,505	-200,000	-0,465	-4,366
-55,490	135,932	0,972	0,897
-54,476	800,000	5,034	11,249
-53,461	-200,000	18,769	308,725
-52,446	800,000	738,689	2308,486
-51,432	570,854	1654,766	2864,280
-50,417	78,896	1670,155	1264,932
-49,403	21,946	1543,004	888,821
-48,388	15,870	1465,677	814,748
-47,373	17,866	1455,735	818,835
-46,359	16,911	1445,800	808,632
-45,344	14,119	1441,133	792,620
-44,330	14,015	1439,168	791,012
-43,315	14,023	1437,630	790,174
-42,300	14,094	1435,676	789,407
-41,286	14,084	1434,625	788,750
-40,271	14,023	1433,344	787,724
-39,257	14,030	1432,088	787,037
-38,242	14,123	1430,930	786,810
-37,227	14,133	1429,675	786,138
-36,213	14,142	1428,278	785,378
-35,198	14,135	1427,042	784,638
-34,184	14,121	1426,313	784,139
-33,169	14,043	1425,093	783,068
-32,154	14,086	1423,873	782,567
-31,140	14,158	1422,275	781,999
-30,125	14,118	1421,439	781,319
-29,111	14,087	1420,171	780,443
-28,096	14,055	1419,175	779,718
-27,082	14,023	1418,267	779,034
-26,067	14,014	1417,049	778,293
-25,052	14,031	1415,856	777,688
-24,038	13,980	1415,074	776,987
-23,023	13,958	1414,113	776,325
-22,009	13,996	1412,905	775,810
-20,994	13,993	1412,017	775,276
-19,979	13,968	1411,194	774,676
-18,965	13,978	1410,112	774,100
-17,950	13,951	1409,450	773,578
-16,936	13,948	1408,394	772,954
-15,921	13,931	1407,368	772,283
-14,906	13,933	1406,522	771,797
-13,892	13,928	1405,529	771,198
-12,877	13,908	1404,621	770,572
-11,863	13,929	1403,367	769,952
-10,848	13,977	1402,633	769,744
-9,833	13,850	1401,965	768,757
-8,819	13,827	1401,187	768,194
-7,804	13,821	1400,169	767,572
-6,790	13,797	1399,131	766,865
-5,775	13,857	1397,961	766,469
-4,760	13,827	1397,059	765,805
-3,746	13,855	1396,197	765,432
-2,731	13,827	1395,481	764,882
-1,717	13,808	1394,740	764,356
-0,702	13,787	1392,811	763,172
0,313	17,665	1310,697	736,145
1,327	34,082	705,530	434,282
2,342	52,457	124,020	83,662
3,356	4,242	16,545	8,549
4,371	16,854	3,135	1,752
5,386	-79,307	0,613	0,146
6,400	-200,000	0,041	0,297
7,415	66,722	-0,260	-0,187
8,429	-29,501	-0,313	-0,126
9,444	41,765	-0,358	-0,229
10,459	62,556	-0,222	-0,157
11,473	127,858	-0,228	-0,205
12,488	15,440	-0,297	-0,165
13,502	245,253	-0,242	-0,289
14,517	-37,977	-0,353	-0,132
15,531	239,560	-0,215	-0,254
16,546	188,140	-0,351	-0,371
17,561	117,848	-0,387	-0,337
18,575	-171,662	-0,270	-0,006
19,590	52,633	-0,301	-0,203
20,604	625,158	-0,120	-0,215
21,619	101,312	-0,396	-0,325
22,634	66,870	-0,450	-0,323
23,648	328,483	-0,308	-0,420
24,663	99,169	-0,412	-0,336
25,677	147,533	-0,331	-0,316
26,692	64,812	-0,413	-0,294
27,707	58,155	-0,443	-0,306
28,721	8,225	-0,313	-0,166
29,736	58,107	-0,425	-0,294
30,750	44,837	-0,555	-0,360
31,765	136,513	-0,320	-0,295
32,780	64,486	-0,449	-0,319
33,794	193,262	-0,254	-0,272
34,809	91,698	-0,432	-0,342
35,823	121,551	-0,423	-0,372
36,838	188,586	-0,312	-0,330
37,853	38,267	-0,471	-0,295
38,867	-16,564	-0,419	-0,187
39,882	437,027	-0,237	-0,366
40,896	70,192	-0,346	-0,252
41,911	60,197	-0,362	-0,252
42,926	6,760	-0,349	-0,183
43,940	160,758	-0,368	-0,362
44,955	183,529	-0,342	-0,357
45,969	117,589	-0,267	-0,231
46,984	-42,303	-0,389	-0,139
47,999	250,590	-0,212	-0,254
49,013	-30,594	-0,328	-0,130
50,028	130,088	-0,353	-0,319
51,042	-2,671	-0,313	-0,154
52,057	31,432	-0,325	-0,196
53,071	163,024	-0,264	-0,261
54,086	89,695	-0,360	-0,283
55,101	138,255	-0,298	-0,275
56,115	150,762	-0,286	-0,274
57,130	-58,646	-0,328	-0,100
58,144	76,076	-0,345	-0,257
59,159	63,608	-0,338	-0,239
60,174	5,255	-0,323	-0,167
61,188	59,862	-0,434	-0,301
62,203	-34,108	-0,415	-0,160
63,217	482,706	-0,200	-0,321
64,232	-13,432	-0,499	-0,227
65,247	-36,658	-0,249	-0,094
66,261	60,961	-0,326	-0,227
67,276	63,516	-0,392	-0,276
68,290	24,659	-0,481	-0,280
69,305	-23,935	-0,322	-0,135
70,320	78,992	-0,265	-0,199
71,334	79,336	-0,345	-0,260
72,349	-80,291	-0,321	-0,075
73,363	-75,987	-0,289	-0,071
74,378	32,088	-0,402	-0,243
75,393	88,533	-0,310	-0,242
76,407	107,629	-0,266	-0,223
77,422	-89,127	-0,296	-0,061
78,436	46,878	-0,187	-0,122
79,451	59,018	-0,319	-0,220
80,466	-78,003	-0,454	-0,109
81,480	59,314	-0,370	-0,256
82,495	79,104	-0,311	-0,234
83,509	228,114	-0,213	-0,244
84,524	291,502	-0,160	-0,205
85,539	-32,089	-0,210	-0,082
86,553	87,908	-0,333	-0,259
87,568	11,893	-0,371	-0,200
88,582	112,938	-0,289	-0,246
89,597	15,165	-0,317	-0,174
90,611	-71,925	-0,234	-0,061
91,626	143,313	-0,221	-0,206
92,641	-34,506	-0,363	-0,139
93,655	121,759	-0,193	-0,169
94,670	92,225	-0,342	-0,270
95,684	61,243	-0,312	-0,218
96,699	800,000	-0,195	-0,380
97,714	29,547	-0,308	-0,184
98,728	-69,133	-0,304	-0,082
99,743	125,024	-0,214	-0,190
100,757	133,627	-0,283	-0,257
101,772	-86,375	-0,356	-0,076
102,787	-63,734	-0,349	-0,100
103,801	24,724	-0,355	-0,206
104,816	163,794	-0,283	-0,280
105,830	242,461	-0,258	-0,303
106,845	-149,890	-0,249	-0,013
107,860	74,178	-0,096	-0,070
108,874	-24,228	-0,289	-0,120
109,889	81,256	-0,163	-0,123
110,903	39,612	-0,269	-0,169
111,918	216,959	-0,258	-0,288
112,933	34,051	-0,312	-0,190
113,947	5,493	-0,315	-0,162
114,962	87,422	-0,241	-0,187
115,976	377,566	-0,142	-0,205
116,991	30,778	-0,379	-0,227
118,006	208,141	-0,237	-0,260
119,020	25,288	-0,199	-0,116
120,035	632,787	-0,151	-0,268
121,049	-28,864	-0,263	-0,105
122,064	6,098	-0,228	-0,118
123,079	28,895	-0,271	-0,160
124,093	-27,774	-0,344	-0,139
125,108	301,655	-0,138	-0,179
126,122	-110,375	-0,276	-0,040
127,137	269,050	-0,152	-0,187
128,151	231,552	-0,237	-0,273
129,166	-96,948	-0,270	-0,049
130,181	239,718	-0,216	-0,252
131,195	153,169	-0,273	-0,261
132,210	27,905	-0,364	-0,214
133,224	73,833	-0,289	-0,211
134,239	31,182	-0,131	-0,078
135,254	22,734	-0,268	-0,153
136,268	60,629	-0,216	-0,150
137,283	-13,536	-0,265	-0,120
138,297	9,464	-0,268	-0,141
139,312	131,382	-0,265	-0,238
140,327	28,271	-0,354	-0,209
141,341	150,166	-0,264	-0,251
142,356	-81,159	-0,235	-0,054
143,370	82,062	-0,199	-0,150
144,385	-58,121	-0,245	-0,074
145,400	35,060	-0,340	-0,208
146,414	49,582	-0,242	-0,159
147,429	77,367	-0,292	-0,217
148,443	28,449	-0,179	-0,105
149,458	17,430	-0,261	-0,145
150,473	-66,731	-0,181	-0,050
151,487	-29,275	-0,244	-0,097
152,502	251,394	-0,170	-0,203
153,516	-38,184	-0,393	-0,145
154,531	111,036	-0,232	-0,195
155,546	-77,299	-0,200	-0,048
156,560	100,349	-0,206	-0,167
157,575	267,822	-0,136	-0,166
158,589	35,936	-0,243	-0,149
159,604	402,636	-0,198	-0,291
160,619	455,866	-0,153	-0,237
161,633	86,706	-0,260	-0,200
162,648	297,724	-0,170	-0,219
163,662	-127,584	-0,218	0,022
164,677	11,982	-0,196	-0,105
165,692	107,260	-0,318	-0,264
166,706	43,699	-0,240	-0,153
167,721	317,208	-0,170	-0,224
168,735	527,162	-0,200	-0,331
169,750	-36,114	-0,297	-0,111
170,764	65,435	-0,100	-0,071
171,779	-109,151	-0,151	-0,022
172,794	-52,487	-0,288	-0,092
173,808	-32,067	-0,284	-0,110
174,823	24,343	-0,360	-0,207
175,837	60,334	-0,206	-0,142
176,852	7,513	-0,139	-0,072
177,867	257,468	-0,115	-0,138
178,881	45,397	-0,203	-0,131
179,896	-88,376	-0,241	-0,050
180,910	-107,506	-0,213	-0,032
181,925	135,650	-0,172	-0,156
182,940	800,000	-0,115	-0,240
183,954	473,098	-0,129	-0,203
184,969	87,238	-0,209	-0,161
185,983	-2,848	-0,229	-0,111
186,998	10,923	-0,264	-0,140
188,013	-116,793	-0,113	-0,014
189,027	122,369	-0,237	-0,206
190,042	54,412	-0,286	-0,192
191,056	350,183	-0,135	-0,186
192,071	-200,000	-0,080	-0,272
193,086	166,479	-0,296	-0,293
194,100	14,103	-0,182	-0,098
195,115	363,037	-0,175	-0,245
196,129	-30,283	-0,176	-0,069
197,144	32,159	-0,338	-0,203
198,159	113,572	-0,253	-0,214
199,173	99,519	-0,208	-0,168
200,188	206,908	-0,115	-0,125
201,202	62,955	-0,256	-0,178
202,217	253,721	-0,153	-0,182
203,232	62,453	-0,252	-0,174
204,246	66,955	-0,236	-0,167
205,261	-200,000	-0,011	-0,166
206,275	84,705	-0,288	-0,219
207,290	-110,123	-0,174	-0,025
208,304	-57,083	-0,131	-0,040
209,319	-23,892	-0,247	-0,102
210,334	91,018	-0,220	-0,172
211,348	-37,657	-0,305	-0,112
212,363	216,945	-0,152	-0,168
213,377	800,000	-0,049	-0,136
214,392	-200,000	0,003	-0,094
215,407	-17,006	-0,228	0,100
216,421	-112,365	-0,219	-0,030
217,436	20,475	-0,188	-0,105
218,450	115,346	-0,175	-0,149
219,465	50,960	-0,219	-0,144
220,480	-25,485	-0,276	-0,113
221,494	5,183	-0,053	-0,027
222,509	669,128	-0,063	-0,114
223,523	800,000	-0,039	-0,084
224,538	800,000	-0,094	-0,230
225,553	485,244	-0,166	-0,263
226,567	400,383	-0,198	-0,289
227,582	240,232	-0,162	-0,187
228,596	22,171	-0,172	-0,097
229,611	225,491	-0,131	-0,147
230,626	-149,718	-0,132	-0,007
231,640	50,035	-0,201	-0,131
232,655	-66,214	-0,245	-0,067
233,669	49,772	-0,230	-0,150
234,684	444,596	-0,177	-0,271
235,699	-123,097	-0,109	-0,012
236,713	800,000	-0,097	-0,248
237,728	121,798	-0,140	-0,121
238,742	-200,000	-0,027	-0,143
239,757	-112,625	-0,259	-0,035
240,772	49,688	-0,201	-0,131
241,786	-73,116	-0,267	-0,067
242,801	-50,354	-0,160	-0,052
243,815	800,000	-0,029	-0,066
244,830	-44,112	-0,232	-0,080
245,844	105,363	-0,155	-0,127
246,859	-79,429	-0,235	-0,055
247,874	429,912	-0,205	-0,309
248,888	102,767	-0,152	-0,123
249,903	-114,156	-0,207	-0,027
250,917	-200,000	-0,052	-0,231
251,932	107,251	-0,123	-0,101
252,947	-156,971	-0,248	-0,010
253,961	800,000	-0,057	-0,130
254,976	121,804	-0,219	-0,189
255,990	-120,653	-0,216	-0,025
257,005	-19,188	-0,214	-0,092
258,020	205,636	-0,087	-0,094
259,034	425,684	-0,118	-0,176
260,049	132,253	-0,188	-0,167
261,063	-158,254	-0,145	-0,006
262,078	179,222	-0,232	-0,235
263,093	347,226	-0,129	-0,177
264,107	-64,651	-0,180	-0,050
265,122	18,239	-0,114	-0,063
266,136	351,179	-0,184	-0,252
267,151	137,966	-0,098	-0,088
268,166	208,179	-0,168	-0,181
269,180	-11,265	-0,224	-0,101
270,195	37,727	-0,146	-0,089
271,209	282,336	0,022	-0,027
272,224	69,062	-0,216	-0,153
273,239	-37,717	-0,062	0,023
274,253	76,137	-0,183	-0,134
275,268	599,783	-0,121	-0,209
276,282	-200,000	-0,057	-0,232
277,297	210,089	-0,049	-0,053
278,312	800,000	-0,132	-0,281
279,326	458,621	-0,126	-0,194
280,341	-102,524	-0,145	-0,024
281,355	310,090	-0,082	-0,106
282,370	70,972	-0,206	-0,147
283,384	-99,263	-0,194	0,033
284,399	151,920	-0,181	-0,171
285,414	651,069	-0,082	-0,146
286,428	376,251	-0,110	-0,155
287,443	-84,807	-0,138	-0,030
288,457	94,557	-0,143	-0,112
289,472	-122,890	-0,132	0,015
290,487	18,124	-0,156	-0,086
291,501	187,184	-0,187	-0,193
292,516	364,634	-0,113	-0,157
293,530	26,651	-0,127	-0,073
294,545	-200,000	-0,042	-0,182
295,560	-175,362	-0,143	-0,003
296,574	-200,000	-0,233	-0,000
297,589	-200,000	-0,055	-0,215
298,603	277,829	-0,136	-0,168
299,618	237,071	-0,080	-0,091
300,633	-200,000	0,043	-0,140
301,647	180,204	-0,146	-0,148
302,662	-55,169	-0,151	-0,047
303,676	76,876	-0,071	-0,052
304,691	-49,278	-0,127	-0,041
305,706	120,633	-0,127	-0,109
306,720	557,765	-0,156	-0,260
307,735	10,635	-0,281	-0,147
308,749	-137,994	-0,098	0,007
309,764	-146,672	-0,198	0,012
310,779	-0,025	-0,169	-0,082
311,793	-20,834	-0,233	-0,098
312,808	217,959	-0,094	-0,103
313,822	-84,909	-0,202	-0,043
314,837	128,873	-0,141	-0,124
315,852	800,000	-0,068	-0,200
316,866	197,131	-0,143	-0,150
317,881	-200,000	-0,023	-0,146
318,895	-200,000	-0,010	-0,169
319,910	17,621	-0,220	-0,120
320,925	13,935	-0,144	-0,077
321,939	275,041	-0,152	-0,185
322,954	-41,197	-0,279	-0,099
323,968	800,000	-0,059	-0,159
324,983	357,102	-0,101	-0,139
325,997	86,518	-0,189	-0,144
327,012	8,858	-0,132	-0,068
328,027	-81,230	-0,102	0,023
329,041	507,439	-0,121	-0,194
330,056	800,000	0,055	-0,110
331,070	697,125	0,049	-0,089
332,085	75,684	-0,167	-0,121
333,100	-123,249	-0,107	-0,012
334,114	-200,000	-0,020	-0,144
335,129	800,000	-0,077	-0,168
336,143	-2,055	-0,246	-0,118
337,158	59,565	-0,122	-0,083
338,173	-34,956	-0,057	-0,021
339,187	247,956	-0,069	-0,080
340,202	40,397	-0,132	-0,081
341,216	140,526	-0,093	-0,084
342,231	79,889	-0,159	-0,118
343,246	800,000	-0,049	-0,105
344,260	-13,519	-0,107	-0,047
345,275	-44,875	-0,120	-0,041
346,289	800,000	-0,055	-0,107
347,304	172,706	-0,113	-0,112
348,319	42,693	-0,089	0,056
349,333	294,341	-0,199	-0,250
350,348	192,831	-0,198	-0,206
351,362	94,193	-0,122	-0,095
352,377	-161,131	-0,204	-0,007
353,392	-97,009	-0,158	-0,028
354,406	86,192	-0,101	-0,076
355,421	209,614	1312,268	1413,591
356,435	161,336	1472,694	1414,086
