DTS Sentinel unit serial number:	SN410029Multiplexer serial number:	ORYXHardware model number:	OX2-SRSoftware version number:	ORYX F/W v4,00 Oryx Data Collector v3.7.2.0data status	okinstallation	B3 Nyhavnadifferential loss correction	single-endedforward channel	channel 1reverse channel	N/Adate	2023/11/30time	17:17:30forward acquisition time	300,00reverse acquisition time	0,00gamma	499,1914k internal	0,3203k external	0,3203temperature offset calibration	1,0000default loss term (dB/km)	0,3820temperature slope calibration	1,0000multiplexer offset coefficient	1,0000multiplexer slope coefficient	1,0000fibre end	0,00T internal ref (°C)	13,11T ext. ref 1 (°C)	-1,82T ext. ref 2 (°C)	-1,85length (m)	temperature (°C)	Stokes	anti-Stokes-744,400	277,445	-0,171	-0,221
-743,385	800,000	0,085	0,209
-742,371	447,284	-0,119	-0,191
-741,356	-200,000	0,020	0,313
-740,342	189,682	-0,144	-0,157
-739,327	800,000	-0,116	0,312
-738,312	193,338	-0,225	-0,247
-737,298	-200,000	0,010	0,247
-736,283	262,652	-0,266	-0,336
-735,269	-200,000	-0,060	0,289
-734,254	188,569	-0,316	-0,344
-733,239	43,321	-0,283	0,187
-732,225	-200,000	-0,044	-0,189
-731,210	-200,000	-0,019	0,089
-730,196	-200,000	-0,025	0,091
-729,181	82,398	-0,047	-0,037
-728,167	257,801	-0,022	-0,027
-727,152	281,058	-0,091	-0,119
-726,137	-97,721	-0,048	0,009
-725,123	24,538	0,113	-0,068
-724,108	-104,453	-0,166	-0,028
-723,094	144,537	-0,135	-0,131
-722,079	-70,399	-0,181	0,050
-721,064	800,000	-0,038	0,088
-720,050	-200,000	0,016	0,072
-719,035	-36,641	-0,083	-0,032
-718,021	99,685	-0,121	-0,101
-717,006	-200,000	0,047	-0,216
-715,991	-200,000	-0,017	-0,125
-714,977	-9,202	-0,179	-0,086
-713,962	-120,966	-0,052	0,006
-712,948	800,000	0,042	0,093
-711,933	-200,000	0,017	-0,098
-710,918	306,391	-0,037	-0,050
-709,904	-200,000	0,009	-0,057
-708,889	157,503	0,065	-0,066
-707,875	-200,000	-0,004	-0,138
-706,860	-146,166	-0,173	-0,011
-705,845	-27,848	0,104	0,044
-704,831	-200,000	0,015	-0,136
-703,816	-11,900	-0,179	-0,085
-702,802	48,282	-0,172	-0,117
-701,787	800,000	0,043	-0,095
-700,772	209,723	-0,034	0,039
-699,758	800,000	-0,029	0,079
-698,743	800,000	0,018	0,053
-697,729	762,625	-0,049	0,096
-696,714	772,693	-0,025	0,049
-695,699	-132,427	-0,100	-0,009
-694,685	78,533	-0,043	0,034
-693,670	454,069	0,065	-0,106
-692,656	-200,000	-0,025	-0,085
-691,641	136,882	0,062	-0,059
-690,627	-200,000	0,010	-0,051
-689,612	151,794	0,067	0,066
-688,597	-200,000	0,016	-0,146
-687,583	-200,000	-0,017	-0,085
-686,568	328,019	-0,038	0,053
-685,554	-72,844	-0,056	-0,015
-684,539	22,908	-0,041	0,024
-683,524	-105,489	0,073	0,012
-682,510	470,496	-0,042	0,069
-681,495	-44,345	-0,121	-0,044
-680,481	-38,785	0,081	-0,031
-679,466	343,725	-0,085	-0,120
-678,451	-200,000	-0,010	0,039
-677,437	-200,000	0,010	-0,057
-676,422	3,625	-0,040	0,021
-675,408	60,584	0,045	-0,033
-674,393	42,244	-0,113	0,074
-673,378	-1,980	-0,125	-0,064
-672,364	-200,000	-0,016	-0,117
-671,349	-200,000	-0,008	0,071
-670,335	-23,896	-0,024	-0,010
-669,320	88,488	0,032	0,026
-668,305	800,000	0,022	0,046
-667,291	442,942	-0,058	-0,092
-666,276	800,000	0,039	-0,112
-665,262	501,793	-0,059	-0,099
-664,247	-200,000	0,017	0,058
-663,232	335,554	0,022	0,031
-662,218	49,234	0,062	0,042
-661,203	629,969	-0,038	0,070
-660,189	-200,000	-0,011	0,068
-659,174	-136,399	-0,114	-0,009
-658,159	-200,000	0,015	-0,082
-657,145	-72,335	0,108	0,029
-656,130	296,673	-0,033	0,044
-655,116	285,102	-0,021	-0,027
-654,101	407,381	0,017	-0,026
-653,086	-25,027	0,143	0,061
-652,072	-61,870	0,137	-0,041
-651,057	-200,000	0,014	0,126
-650,043	27,968	0,054	-0,033
-649,028	214,394	-0,065	-0,074
-648,014	539,319	0,040	0,069
-646,999	54,060	-0,094	0,065
-645,984	271,256	0,039	-0,049
-644,970	-67,653	-0,037	-0,010
-643,955	612,110	-0,083	-0,151
-642,941	540,227	-0,039	-0,067
-641,926	297,290	0,049	-0,066
-640,911	800,000	-0,045	0,119
-639,897	-14,847	0,156	0,072
-638,882	468,574	-0,041	0,068
-637,868	-124,864	0,060	-0,007
-636,853	22,674	-0,052	-0,030
-635,838	77,928	0,094	-0,072
-634,824	-200,000	0,003	0,062
-633,809	597,956	0,059	0,106
-632,795	286,602	-0,100	-0,131
-631,780	-31,910	0,098	-0,040
-630,765	69,103	0,013	0,010
-629,751	-72,649	-0,112	-0,030
-628,736	167,475	-0,115	0,119
-627,722	-200,000	-0,006	-0,115
-626,707	200,889	0,065	0,072
-625,692	-164,637	0,103	-0,003
-624,678	93,101	0,104	0,085
-623,663	-200,000	0,034	-0,142
-622,649	-200,000	0,012	-0,041
-621,634	-200,000	-0,004	-0,166
-620,619	-200,000	0,006	-0,117
-619,605	515,583	0,062	-0,105
-618,590	-200,000	-0,003	-0,132
-617,576	-200,000	-0,002	-0,035
-616,561	-200,000	-0,025	0,090
-615,546	143,167	0,129	-0,124
-614,532	174,164	-0,147	-0,154
-613,517	-15,287	-0,133	0,061
-612,503	-52,092	-0,097	0,032
-611,488	517,913	0,006	-0,010
-610,474	383,663	0,043	0,064
-609,459	347,704	-0,038	-0,054
-608,444	-200,000	-0,004	-0,149
-607,430	160,670	-0,088	-0,089
-606,415	-200,000	-0,012	-0,131
-605,401	-200,000	0,012	-0,078
-604,386	12,939	0,140	0,078
-603,371	404,337	-0,039	-0,059
-602,357	-200,000	-0,009	0,069
-601,342	-200,000	0,010	-0,091
-600,328	-200,000	0,022	-0,090
-599,313	-142,594	0,114	0,008
-598,298	800,000	-0,062	-0,138
-597,284	-48,896	-0,082	0,028
-596,269	-62,985	0,055	-0,016
-595,255	-150,450	-0,147	0,008
-594,240	288,130	0,066	-0,086
-593,225	-200,000	0,010	0,046
-592,211	-200,000	-0,012	-0,144
-591,196	-32,702	-0,098	0,039
-590,182	-93,194	0,077	0,015
-589,167	-200,000	0,004	0,105
-588,152	800,000	-0,083	0,187
-587,138	163,330	-0,038	0,038
-586,123	96,553	-0,104	-0,086
-585,109	-90,064	-0,087	0,018
-584,094	1,000	0,096	0,050
-583,079	800,000	-0,016	0,033
-582,065	-200,000	-0,059	0,209
-581,050	592,504	0,052	0,093
-580,036	170,854	0,067	0,070
-579,021	9,365	-0,094	-0,051
-578,006	-200,000	-0,042	-0,232
-576,992	-125,348	-0,112	-0,012
-575,977	800,000	0,039	0,085
-574,963	800,000	-0,002	-0,005
-573,948	-84,274	0,102	-0,023
-572,934	-100,261	0,132	0,023
-571,919	55,082	-0,131	-0,091
-570,904	544,581	0,019	-0,032
-569,890	90,947	0,038	-0,031
-568,875	800,000	-0,081	-0,170
-567,861	-18,360	-0,104	0,047
-566,846	98,090	0,099	0,082
-565,831	-8,869	-0,100	0,048
-564,817	83,997	-0,085	0,067
-563,802	596,487	-0,014	-0,026
-562,788	800,000	-0,021	0,052
-561,773	-96,991	-0,068	-0,013
-560,758	-200,000	-0,013	0,073
-559,744	-200,000	0,000	0,069
-558,729	751,827	-0,024	-0,047
-557,715	196,991	-0,089	-0,098
-556,700	800,000	-0,015	0,038
-555,685	34,045	-0,062	0,039
-554,671	181,255	-0,013	0,014
-553,656	41,641	-0,018	-0,012
-552,642	-137,519	0,083	-0,007
-551,627	-200,000	-0,007	0,069
-550,612	-200,000	-0,072	-0,000
-549,598	-97,618	-0,103	-0,019
-548,583	274,801	0,029	-0,037
-547,569	800,000	-0,023	0,058
-546,554	-1,957	0,073	0,037
-545,539	800,000	0,015	0,034
-544,525	-48,650	-0,049	0,017
-543,510	327,643	-0,030	0,042
-542,496	203,866	-0,045	0,050
-541,481	800,000	-0,041	-0,087
-540,466	165,457	0,069	0,071
-539,452	-65,536	-0,020	-0,006
-538,437	-200,000	-0,024	0,109
-537,423	693,886	0,040	0,076
-536,408	-6,518	0,118	-0,058
-535,393	-200,000	-0,001	-0,005
-534,379	800,000	0,052	-0,107
-533,364	-200,000	0,013	-0,098
-532,350	-103,936	-0,135	0,022
-531,335	105,606	0,135	0,115
-530,321	598,260	0,040	0,071
-529,306	-43,824	-0,157	0,057
-528,291	-48,047	-0,106	-0,037
-527,277	26,769	0,150	-0,090
-526,262	-82,503	-0,142	0,033
-525,248	-200,000	-0,025	0,124
-524,233	-200,000	0,030	-0,100
-523,218	273,343	-0,098	-0,125
-522,204	-27,902	-0,013	-0,005
-521,189	-91,721	-0,143	-0,029
-520,175	-83,358	-0,031	-0,007
-519,160	800,000	-0,011	-0,035
-518,145	-200,000	0,024	-0,102
-517,131	70,771	0,018	0,014
-516,116	77,279	0,074	0,057
-515,102	-38,734	-0,137	0,052
-514,087	800,000	-0,016	-0,036
-513,072	-131,199	-0,066	-0,006
-512,058	213,283	-0,065	-0,074
-511,043	-200,000	0,008	0,058
-510,029	-200,000	-0,007	0,025
-509,014	290,778	0,049	-0,064
-507,999	-190,807	-0,127	-0,001
-506,985	-200,000	-0,028	0,090
-505,970	-200,000	0,015	-0,074
-504,956	-11,110	0,089	-0,042
-503,941	-163,312	0,154	0,005
-502,926	-200,000	-0,002	-0,087
-501,912	45,535	0,045	-0,030
-500,897	-200,000	-0,006	0,172
-499,883	120,813	-0,019	0,017
-498,868	800,000	-0,023	-0,062
-497,853	44,115	0,069	-0,045
-496,839	-19,682	0,067	-0,030
-495,824	85,811	-0,156	0,124
-494,810	149,446	0,095	0,092
-493,795	-154,618	-0,033	0,002
-492,781	-61,868	-0,183	-0,055
-491,766	-200,000	0,007	0,066
-490,751	800,000	0,042	-0,103
-489,737	800,000	0,006	0,019
-488,722	60,260	0,195	0,139
-487,708	-200,000	0,009	0,044
-486,693	-70,978	0,047	0,013
-485,678	800,000	-0,022	-0,061
-484,664	-200,000	0,010	-0,134
-483,649	-200,000	0,018	0,083
-482,635	65,715	0,040	-0,029
-481,620	-54,411	-0,062	0,020
-480,605	83,508	0,009	0,007
-479,591	212,857	-0,018	0,020
-478,576	-94,701	0,116	-0,023
-477,562	-114,507	-0,023	0,003
-476,547	-74,931	0,120	-0,031
-475,532	-162,033	0,043	0,002
-474,518	132,319	0,052	-0,048
-473,503	-86,274	-0,110	-0,024
-472,489	404,230	-0,103	0,156
-471,474	183,330	0,124	-0,132
-470,459	-114,421	-0,107	0,015
-469,445	258,828	0,107	-0,133
-468,430	-102,706	-0,076	0,013
-467,416	707,249	0,061	0,117
-466,401	300,444	0,097	0,129
-465,386	138,943	0,057	0,054
-464,372	-200,000	0,002	0,064
-463,357	-74,248	0,050	0,013
-462,343	-200,000	0,002	0,018
-461,328	-200,000	0,003	0,029
-460,313	59,876	0,032	0,023
-459,299	800,000	-0,036	-0,090
-458,284	394,954	-0,035	0,053
-457,270	-0,542	-0,186	0,095
-456,255	342,701	-0,030	0,043
-455,241	-156,847	0,071	-0,003
-454,226	-200,000	-0,007	-0,023
-453,211	200,951	-0,078	-0,086
-452,197	-49,752	0,074	-0,025
-451,182	800,000	0,033	0,100
-450,168	467,281	-0,051	0,083
-449,153	211,461	0,040	-0,046
-448,138	102,403	0,061	0,051
-447,124	-200,000	0,019	-0,076
-446,109	-104,328	0,027	0,004
-445,095	800,000	-0,009	0,027
-444,080	-200,000	0,019	0,174
-443,065	651,377	-0,046	0,085
-442,051	619,998	0,054	0,098
-441,036	-200,000	-0,007	-0,065
-440,022	124,491	-0,088	-0,079
-439,007	5,649	0,089	-0,047
-437,992	-52,106	0,141	0,047
-436,978	-142,938	0,218	-0,015
-435,963	800,000	0,046	-0,145
-434,949	-200,000	-0,013	-0,088
-433,934	-200,000	0,001	-0,017
-432,919	-200,000	-0,003	-0,020
-431,905	-200,000	0,016	0,089
-430,890	233,058	0,102	0,120
-429,876	118,596	0,080	-0,071
-428,861	-200,000	0,022	-0,124
-427,846	-200,000	-0,046	-0,161
-426,832	800,000	0,026	-0,074
-425,817	13,502	0,108	-0,060
-424,803	119,919	0,055	-0,049
-423,788	132,214	-0,109	0,101
-422,773	-200,000	0,025	0,110
-421,759	-133,110	0,097	-0,009
-420,744	800,000	-0,070	0,184
-419,730	-6,753	-0,127	-0,062
-418,715	373,718	0,057	-0,084
-417,701	800,000	-0,035	-0,111
-416,686	-169,190	0,117	0,003
-415,671	-0,878	-0,138	0,070
-414,657	-200,000	0,002	-0,040
-413,642	639,351	0,098	-0,180
-412,628	-200,000	0,018	-0,154
-411,613	-82,446	-0,131	-0,030
-410,598	-200,000	-0,010	-0,044
-409,584	62,829	-0,119	0,086
-408,569	50,416	0,060	-0,040
-407,555	76,646	-0,025	0,019
-406,540	-16,028	0,110	-0,050
-405,525	-200,000	-0,000	-0,044
-404,511	48,067	-0,184	-0,123
-403,496	45,402	0,099	-0,065
-402,482	-121,560	0,091	0,011
-401,467	-200,000	0,003	0,041
-400,452	-58,095	-0,097	-0,030
-399,438	147,120	0,074	0,071
-398,423	-200,000	-0,014	0,127
-397,409	-28,612	0,030	-0,012
-396,394	-156,181	0,152	0,007
-395,379	-163,443	0,085	-0,003
-394,365	325,336	-0,035	-0,049
-393,350	190,079	0,030	0,032
-392,336	-98,907	-0,033	0,006
-391,321	-22,562	0,092	-0,040
-390,306	-150,834	-0,168	0,009
-389,292	-200,000	-0,015	-0,093
-388,277	-97,842	-0,084	-0,015
-387,263	-152,187	0,223	-0,011
-386,248	-68,526	-0,109	0,030
-385,233	800,000	-0,041	0,097
-384,219	-177,095	0,064	0,001
-383,204	22,728	-0,049	-0,029
-382,190	92,358	-0,100	-0,081
-381,175	-200,000	0,005	0,023
-380,160	-76,661	-0,161	-0,040
-379,146	-53,923	-0,126	0,041
-378,131	-200,000	-0,040	0,190
-377,117	365,909	0,081	0,118
-376,102	-52,649	0,026	-0,009
-375,088	800,000	0,022	-0,046
-374,073	800,000	-0,004	-0,013
-373,058	800,000	0,036	0,084
-372,044	8,551	0,112	0,060
-371,029	800,000	0,049	0,150
-370,015	800,000	-0,022	0,049
-369,000	421,378	0,069	0,106
-367,985	-200,000	0,007	0,026
-366,971	800,000	-0,019	0,039
-365,956	-200,000	-0,003	0,069
-364,942	8,784	0,039	0,021
-363,927	-200,000	0,011	0,046
-362,912	-200,000	0,007	0,055
-361,898	-138,107	0,031	-0,002
-360,883	-123,712	-0,108	0,012
-359,869	-97,033	-0,014	-0,003
-358,854	-200,000	0,004	0,092
-357,839	800,000	-0,053	0,123
-356,825	-109,589	0,008	-0,001
-355,810	310,191	0,075	0,100
-354,796	-200,000	-0,046	0,154
-353,781	800,000	-0,069	0,145
-352,766	-7,317	-0,011	0,005
-351,752	374,876	0,091	-0,133
-350,737	309,027	0,083	0,111
-349,723	-33,037	0,010	-0,004
-348,708	170,911	-0,104	-0,107
-347,693	216,892	-0,015	-0,017
-346,679	-200,000	-0,005	0,028
-345,664	220,281	0,057	0,066
-344,650	188,747	-0,046	0,050
-343,635	161,466	-0,045	0,045
-342,620	-78,681	0,025	0,006
-341,606	-53,024	0,106	0,035
-340,591	-200,000	-0,006	-0,057
-339,577	-200,000	-0,009	-0,151
-338,562	176,617	-0,091	-0,095
-337,548	-151,079	-0,129	0,007
-336,533	342,181	-0,027	0,038
-335,518	122,247	-0,074	0,066
-334,504	68,961	-0,055	0,041
-333,489	57,474	0,102	-0,071
-332,475	624,153	0,041	-0,073
-331,460	-200,000	0,014	-0,057
-330,445	-200,000	-0,005	-0,035
-329,431	800,000	0,048	0,110
-328,416	-120,734	0,041	-0,005
-327,402	-78,164	-0,126	-0,031
-326,387	-66,893	0,079	-0,022
-325,372	-82,130	-0,087	-0,020
-324,358	-72,646	0,071	0,019
-323,343	458,117	-0,023	0,036
-322,329	800,000	0,015	-0,043
-321,314	663,063	-0,023	0,042
-320,299	346,257	-0,119	0,168
-319,285	800,000	-0,052	-0,141
-318,270	-200,000	0,021	-0,102
-317,256	-200,000	-0,015	-0,059
-316,241	-25,336	0,059	-0,025
-315,226	-116,795	0,039	-0,005
-314,212	406,328	-0,054	-0,082
-313,197	-100,541	0,114	-0,020
-312,183	189,605	0,006	0,007
-311,168	800,000	-0,074	-0,157
-310,153	-200,000	-0,000	-0,125
-309,139	-122,260	-0,020	0,002
-308,124	21,846	0,031	0,018
-307,110	-100,233	0,032	0,006
-306,095	311,773	-0,089	-0,119
-305,080	147,515	0,040	-0,038
-304,066	-60,088	-0,084	0,025
-303,051	-63,672	-0,095	-0,028
-302,037	800,000	-0,034	0,093
-301,022	191,225	-0,073	0,079
-300,008	55,569	-0,060	0,042
-298,993	-89,140	0,127	0,026
-297,978	-200,000	-0,010	-0,132
-296,964	-200,000	0,017	0,129
-295,949	214,988	-0,092	-0,105
-294,935	17,402	-0,082	-0,046
-293,920	-51,424	-0,013	-0,004
-292,905	618,870	0,026	0,047
-291,891	-200,000	0,008	0,136
-290,876	-88,031	0,064	0,014
-289,862	141,842	-0,104	-0,099
-288,847	-200,000	0,002	-0,212
-287,832	-40,779	-0,147	-0,054
-286,818	-200,000	0,010	-0,038
-285,803	452,689	0,010	-0,016
-284,789	-22,546	0,094	-0,040
-283,774	-79,059	0,203	-0,049
-282,759	-120,228	-0,110	-0,013
-281,745	-37,307	0,006	0,002
-280,730	-200,000	-0,018	-0,087
-279,716	800,000	0,031	-0,081
-278,701	756,260	-0,018	0,035
-277,686	800,000	-0,060	0,132
-276,672	-200,000	0,010	0,033
-275,657	800,000	0,049	0,105
-274,643	-59,702	0,127	-0,039
-273,628	-200,000	-0,022	-0,089
-272,613	-200,000	0,003	0,079
-271,599	-23,640	0,126	0,054
-270,584	161,813	-0,131	0,131
-269,570	385,071	-0,039	0,058
-268,555	77,947	0,029	-0,022
-267,540	-118,834	-0,145	0,018
-266,526	278,741	0,057	0,073
-265,511	-200,000	-0,007	0,092
-264,497	800,000	-0,042	0,093
-263,482	106,361	0,059	-0,050
-262,467	7,432	0,110	-0,058
-261,453	38,391	0,148	0,094
-260,438	800,000	-0,044	0,095
-259,424	174,319	-0,115	0,118
-258,409	65,969	0,079	0,057
-257,395	107,882	-0,151	-0,128
-256,380	800,000	-0,010	-0,021
-255,365	-200,000	0,018	0,086
-254,351	800,000	0,012	-0,027
-253,336	42,722	-0,063	-0,041
-252,322	12,055	-0,104	0,057
-251,307	600,441	-0,047	-0,083
-250,292	-132,518	0,171	0,015
-249,278	274,146	-0,085	-0,108
-248,263	625,246	0,065	-0,117
-247,249	390,573	0,154	-0,228
-246,234	-20,955	-0,041	0,018
-245,219	800,000	-0,029	-0,066
-244,205	-200,000	0,009	-0,069
-243,190	441,816	-0,055	0,087
-242,176	224,789	0,166	0,192
-241,161	145,634	0,139	0,133
-240,146	83,162	0,076	0,059
-239,132	706,084	0,056	-0,106
-238,117	-143,011	-0,128	0,009
-237,103	-155,825	-0,163	0,007
-236,088	-200,000	-0,010	0,108
-235,073	36,069	0,022	-0,014
-234,059	-177,384	0,086	-0,001
-233,044	493,315	0,043	0,070
-232,030	-151,074	-0,105	0,006
-231,015	154,389	-0,081	0,079
-230,000	146,230	-0,048	0,046
-228,986	-20,841	-0,102	-0,044
-227,971	-200,000	0,082	-0,000
-226,957	-200,000	-0,032	-0,114
-225,942	496,938	0,070	0,115
-224,927	800,000	0,030	-0,059
-223,913	-200,000	-0,009	-0,098
-222,898	-30,529	-0,155	-0,062
-221,884	614,976	0,039	-0,070
-220,869	-119,965	0,099	0,012
-219,855	-200,000	0,028	0,141
-218,840	0,181	0,127	-0,065
-217,825	-111,363	0,163	0,023
-216,811	800,000	0,024	0,061
-215,796	286,510	0,051	0,066
-214,782	35,438	0,074	-0,046
-213,767	-94,441	-0,034	0,007
-212,752	-140,067	0,125	0,009
-211,738	-47,819	-0,114	0,039
-210,723	-127,597	0,129	0,013
-209,709	-38,357	-0,061	0,023
-208,694	800,000	0,010	0,029
-207,679	4,645	0,036	-0,019
-206,665	800,000	0,049	-0,105
-205,650	-200,000	-0,019	0,000
-204,636	-200,000	-0,030	-0,105
-203,621	330,562	-0,059	0,082
-202,606	-200,000	-0,010	0,064
-201,592	-120,651	-0,173	-0,021
-200,577	-200,000	-0,020	0,098
-199,563	362,251	-0,098	0,140
-198,548	-200,000	0,022	0,129
-197,533	389,039	-0,067	-0,100
-196,519	626,793	0,061	-0,110
-195,504	-200,000	-0,024	0,171
-194,490	-118,402	0,062	-0,008
-193,475	108,114	-0,107	-0,091
-192,460	800,000	0,016	0,040
-191,446	20,937	-0,002	-0,001
-190,431	-44,242	0,101	-0,036
-189,417	119,262	-0,088	0,077
-188,402	371,172	-0,074	-0,107
-187,387	-200,000	0,000	-0,031
-186,373	-200,000	0,027	-0,100
-185,358	-43,357	0,060	-0,022
-184,344	65,125	0,071	0,051
-183,329	312,481	-0,052	0,069
-182,315	431,477	-0,048	0,075
-181,300	97,565	-0,061	0,050
-180,285	-94,339	-0,056	0,011
-179,271	800,000	-0,068	-0,157
-178,256	432,948	0,073	-0,114
-177,242	800,000	-0,023	0,072
-176,227	255,759	0,048	0,059
-175,212	144,542	-0,095	0,091
-174,198	162,262	-0,050	-0,050
-173,183	759,229	-0,027	-0,053
-172,169	-93,609	0,073	0,014
-171,154	-84,620	0,135	-0,030
-170,139	-200,000	0,010	0,035
-169,125	-151,534	0,131	-0,007
-168,110	-84,291	0,151	-0,034
-167,096	-6,152	-0,076	0,037
-166,081	-2,692	0,083	0,041
-165,066	-102,985	-0,043	-0,007
-164,052	-118,439	0,086	-0,011
-163,037	-14,464	-0,008	-0,003
-162,023	-41,410	0,061	0,022
-161,008	-24,154	0,094	-0,040
-159,993	228,449	0,050	0,058
-158,979	-200,000	0,012	-0,045
-157,964	-14,489	0,068	-0,031
-156,950	800,000	0,034	-0,103
-155,935	-135,868	-0,096	0,008
-154,920	-200,000	0,034	0,200
-153,906	5,701	0,021	0,011
-152,891	152,499	0,072	-0,070
-151,877	-200,000	-0,026	0,125
-150,862	-64,475	-0,113	0,032
-149,847	-104,480	-0,087	0,014
-148,833	-200,000	0,033	-0,149
-147,818	20,710	0,016	0,009
-146,804	-200,000	0,000	-0,029
-145,789	95,358	-0,020	0,016
-144,775	27,157	-0,082	-0,049
-143,760	-122,007	-0,149	0,017
-142,745	149,930	-0,020	-0,020
-141,731	-200,000	-0,001	-0,040
-140,716	-16,032	0,066	0,030
-139,702	4,011	0,099	0,051
-138,687	648,668	-0,107	0,195
-137,672	800,000	-0,046	-0,126
-136,658	25,458	-0,092	0,054
-135,643	33,293	0,042	-0,026
-134,629	800,000	0,051	-0,133
-133,614	-45,389	-0,009	0,003
-132,599	-200,000	-0,003	0,032
-131,585	-127,116	0,096	-0,010
-130,570	49,299	0,067	0,044
-129,556	616,601	0,018	-0,033
-128,541	262,033	-0,025	-0,031
-127,526	370,269	0,011	0,016
-126,512	391,471	0,082	0,122
-125,497	566,429	0,057	0,098
-124,483	56,055	-0,058	0,040
-123,468	800,000	0,037	0,081
-122,453	800,000	0,035	-0,073
-121,439	-125,950	-0,036	-0,004
-120,424	800,000	-0,009	-0,020
-119,410	-89,612	0,163	0,034
-118,395	800,000	0,040	-0,113
-117,380	549,814	-0,034	-0,059
-116,366	-146,813	-0,134	-0,008
-115,351	294,718	-0,032	-0,042
-114,337	-181,597	-0,171	0,002
-113,322	-182,565	0,038	-0,000
-112,307	154,241	-0,075	0,073
-111,293	18,761	0,118	-0,067
-110,278	-73,236	0,129	0,033
-109,264	87,513	-0,023	-0,018
-108,249	79,481	-0,093	-0,070
-107,234	411,458	0,045	-0,067
-106,220	-200,000	-0,007	0,044
-105,205	201,584	-0,055	-0,060
-104,191	-5,616	-0,135	-0,065
-103,176	-200,000	0,009	0,119
-102,162	-72,841	0,068	-0,018
-101,147	10,804	-0,153	-0,083
-100,132	-200,000	-0,042	-0,151
-99,118	249,697	0,090	-0,109
-98,103	-110,532	-0,040	-0,006
-97,089	491,372	-0,072	-0,117
-96,074	118,089	0,140	0,122
-95,059	2,974	0,173	0,089
-94,045	-37,658	-0,084	0,031
-93,030	208,425	0,040	0,044
-92,016	-98,181	0,160	-0,029
-91,001	-200,000	0,004	0,066
-89,986	278,933	0,050	0,063
-88,972	-44,748	0,071	-0,025
-87,957	234,423	-0,035	-0,041
-86,943	42,809	0,062	-0,040
-85,928	247,670	-0,033	-0,040
-84,913	276,091	-0,061	-0,077
-83,899	20,123	0,042	-0,024
-82,884	-34,223	0,156	0,060
-81,870	266,848	0,051	0,063
-80,855	-200,000	-0,034	0,128
-79,840	800,000	0,080	0,180
-78,826	481,720	0,085	-0,138
-77,811	-133,122	-0,074	0,007
-76,797	48,745	0,076	0,051
-75,782	-121,057	-0,103	-0,012
-74,767	146,183	0,089	-0,085
-73,753	-82,602	-0,037	0,008
-72,738	24,219	-0,162	-0,095
-71,724	719,873	-0,024	0,045
-70,709	772,322	-0,030	-0,058
-69,694	-152,780	-0,097	0,005
-68,680	123,638	-0,054	-0,048
-67,665	363,039	0,030	-0,042
-66,651	10,982	-0,116	0,063
-65,636	739,084	0,041	0,078
-64,622	127,545	-0,059	0,053
-63,607	204,589	0,059	-0,065
-62,592	94,789	-0,067	0,054
-61,578	367,818	0,046	-0,065
-60,563	-139,363	-0,148	-0,011
-59,549	269,392	-0,052	0,065
-58,534	-23,858	-1,725	-0,727
-57,519	469,342	-1,335	-2,129
-56,505	-200,000	-0,483	-4,384
-55,490	374,201	0,780	1,127
-54,476	800,000	5,000	11,272
-53,461	-200,000	19,201	324,023
-52,446	-200,000	740,170	2336,441
-51,432	573,362	1651,610	2860,186
-50,417	77,911	1666,634	1255,655
-49,403	21,080	1539,843	881,472
-48,388	14,968	1462,304	807,460
-47,373	18,248	1452,658	817,899
-46,359	16,801	1442,465	805,215
-45,344	13,237	1437,988	785,670
-44,330	13,156	1436,158	784,251
-43,315	13,178	1434,267	783,293
-42,300	13,180	1432,606	782,364
-41,286	13,192	1431,176	781,608
-40,271	13,137	1429,909	780,626
-39,257	13,128	1428,893	779,994
-38,242	13,186	1427,507	779,485
-37,227	13,177	1426,371	778,791
-36,213	13,226	1424,840	778,156
-35,198	13,194	1423,918	777,467
-34,184	13,250	1422,868	777,132
-33,169	13,167	1421,670	776,053
-32,154	13,256	1420,484	775,794
-31,140	13,200	1419,329	774,869
-30,125	13,260	1418,081	774,441
-29,111	13,245	1417,185	773,847
-28,096	13,180	1416,223	772,989
-27,082	13,107	1415,047	771,973
-26,067	13,159	1413,745	771,474
-25,052	13,122	1412,823	770,766
-24,038	13,133	1411,613	770,127
-23,023	13,118	1410,625	769,488
-22,009	13,140	1409,697	769,055
-20,994	13,118	1408,729	768,394
-19,979	13,111	1408,034	767,952
-18,965	13,085	1407,031	767,250
-17,950	13,085	1406,103	766,715
-16,936	13,102	1405,159	766,250
-15,921	13,067	1404,071	765,464
-14,906	13,060	1403,241	764,944
-13,892	13,062	1402,139	764,323
-12,877	13,062	1401,537	763,966
-11,863	13,076	1400,468	763,417
-10,848	13,057	1399,568	762,808
-9,833	13,007	1398,751	762,100
-8,819	12,982	1398,080	761,587
-7,804	12,982	1397,142	761,050
-6,790	12,919	1396,296	760,264
-5,775	12,951	1395,131	759,747
-4,760	12,955	1394,113	759,184
-3,746	12,935	1393,198	758,563
-2,731	12,942	1392,396	758,127
-1,717	12,977	1391,256	757,638
-0,702	12,914	1389,606	756,419
0,313	16,908	1306,058	729,332
1,327	33,344	700,744	429,105
2,342	51,660	122,592	82,284
3,356	3,079	16,648	8,527
4,371	2,129	3,137	1,597
5,386	87,619	0,669	0,523
6,400	-200,000	0,003	0,260
7,415	270,190	-0,179	-0,222
8,429	-93,496	-0,319	-0,062
9,444	95,535	-0,311	-0,251
10,459	-16,818	-0,255	-0,113
11,473	660,290	-0,170	-0,311
12,488	208,167	-0,262	-0,290
13,502	79,171	-0,221	-0,167
14,517	66,161	-0,317	-0,227
15,531	18,331	-0,410	-0,230
16,546	218,878	-0,217	-0,246
17,561	266,533	-0,345	-0,426
18,575	-23,425	-0,233	-0,098
19,590	276,656	-0,235	-0,296
20,604	-71,617	-0,305	-0,080
21,619	72,262	-0,316	-0,232
22,634	142,118	-0,334	-0,313
23,648	-9,501	-0,553	-0,259
24,663	321,311	-0,243	-0,327
25,677	133,847	-0,302	-0,276
26,692	122,356	-0,271	-0,239
27,707	-21,610	-0,442	-0,189
28,721	218,535	-0,304	-0,343
29,736	51,630	-0,421	-0,282
30,750	303,750	-0,241	-0,316
31,765	132,847	-0,317	-0,288
32,780	155,377	-0,349	-0,339
33,794	245,324	-0,289	-0,344
34,809	81,708	-0,297	-0,226
35,823	78,025	-0,406	-0,305
36,838	244,866	-0,258	-0,306
37,853	36,585	-0,347	-0,215
38,867	238,530	-0,352	-0,413
39,882	121,589	-0,338	-0,297
40,896	-9,523	-0,301	-0,141
41,911	150,631	-0,293	-0,280
42,926	173,765	-0,325	-0,331
43,940	121,848	-0,414	-0,364
44,955	93,047	-0,380	-0,302
45,969	120,193	-0,257	-0,225
46,984	131,763	-0,333	-0,302
47,999	2,215	-0,397	-0,202
49,013	-21,833	-0,376	-0,160
50,028	-43,132	-0,396	-0,140
51,042	50,759	-0,502	-0,334
52,057	45,056	-0,386	-0,250
53,071	29,126	-0,422	-0,251
54,086	598,950	-0,191	-0,335
55,101	88,548	-0,384	-0,300
56,115	88,054	-0,297	-0,232
57,130	3,650	-0,367	-0,188
58,144	157,192	-0,283	-0,276
59,159	183,650	-0,287	-0,298
60,174	-4,395	-0,482	-0,234
61,188	188,301	-0,255	-0,268
62,203	108,289	-0,291	-0,244
63,217	-37,081	-0,298	-0,112
64,232	-1,084	-0,329	-0,163
65,247	226,815	-0,264	-0,302
66,261	144,796	-0,219	-0,206
67,276	216,079	-0,284	-0,318
68,290	42,660	-0,477	-0,305
69,305	27,485	-0,255	-0,150
70,320	137,742	-0,255	-0,235
71,334	-43,620	-0,416	-0,146
72,349	-169,059	-0,289	-0,007
73,363	-47,708	-0,349	-0,118
74,378	49,485	-0,282	-0,186
75,393	334,707	-0,218	-0,298
76,407	-50,699	-0,308	-0,101
77,422	97,822	-0,227	-0,183
78,436	-22,495	-0,279	-0,118
79,451	52,800	-0,341	-0,229
80,466	131,336	-0,303	-0,273
81,480	-9,765	-0,335	-0,156
82,495	125,070	-0,163	-0,144
83,509	-13,601	-0,355	-0,161
84,524	-109,767	-0,348	-0,051
85,539	-30,511	-0,226	-0,090
86,553	-29,516	-0,334	-0,133
87,568	114,161	-0,338	-0,289
88,582	-31,968	-0,401	-0,157
89,597	109,517	-0,266	-0,223
90,611	-41,131	-0,351	-0,126
91,626	210,346	-0,161	-0,177
92,641	91,556	-0,273	-0,215
93,655	-176,243	-0,263	0,005
94,670	85,216	-0,193	-0,148
95,684	-31,406	-0,345	-0,135
96,699	-37,984	-0,392	-0,145
97,714	-14,815	-0,267	-0,120
98,728	66,902	-0,240	-0,171
99,743	632,385	-0,196	-0,350
100,757	118,722	-0,273	-0,236
101,772	123,241	-0,223	-0,196
102,787	42,815	-0,315	-0,201
103,801	21,271	-0,315	-0,179
104,816	-10,505	-0,191	-0,088
105,830	-67,378	-0,273	-0,075
106,845	24,509	-0,245	-0,142
107,860	-3,620	-0,355	-0,172
108,874	-88,547	-0,324	-0,067
109,889	70,190	-0,369	-0,267
110,903	175,375	-0,307	-0,312
111,918	-14,279	-0,154	-0,069
112,933	86,969	-0,158	-0,122
113,947	-35,927	-0,304	-0,114
114,962	8,902	-0,200	-0,105
115,976	54,353	-0,275	-0,185
116,991	-45,164	-0,347	-0,120
118,006	-200,000	-0,076	-0,294
119,020	-79,121	-0,180	-0,042
120,035	-68,004	-0,259	-0,070
121,049	23,989	-0,313	-0,180
122,064	239,472	-0,198	-0,231
123,079	29,892	-0,298	-0,177
124,093	14,105	-0,306	-0,166
125,108	153,083	-0,207	-0,198
126,122	54,029	-0,192	-0,129
127,137	-200,000	-0,006	-0,247
128,151	185,875	-0,230	-0,240
129,166	79,544	-0,307	-0,230
130,181	119,709	-0,216	-0,187
131,195	-50,733	-0,330	-0,108
132,210	-38,659	-0,338	-0,124
133,224	176,798	-0,255	-0,259
134,239	-200,000	-0,273	0,000
135,254	800,000	-0,118	-0,238
136,268	281,229	-0,116	-0,146
137,283	42,650	-0,288	-0,183
138,297	-10,585	-0,214	-0,098
139,312	-69,038	-0,427	-0,114
140,327	98,977	-0,239	-0,193
141,341	36,795	-0,139	-0,085
142,356	-75,297	-0,288	-0,071
143,370	47,967	-0,177	-0,116
144,385	141,612	-0,089	-0,083
145,400	0,028	-0,294	-0,146
146,414	464,950	-0,163	-0,255
147,429	321,558	-0,264	-0,351
148,443	64,933	-0,216	-0,152
149,458	120,360	-0,257	-0,223
150,473	104,215	-0,162	-0,133
151,487	-28,206	-0,277	-0,111
152,502	229,266	-0,163	-0,186
153,516	-40,254	-0,413	-0,149
154,531	114,333	-0,234	-0,199
155,546	205,186	-0,205	-0,222
156,560	35,530	-0,135	-0,082
157,575	-57,848	-0,280	-0,085
158,589	125,521	-0,167	-0,147
159,604	29,097	-0,271	-0,160
160,619	78,314	-0,259	-0,192
161,633	166,234	-0,287	-0,283
162,648	240,526	-0,136	-0,158
163,662	-143,773	-0,084	0,005
164,677	-7,917	-0,276	-0,129
165,692	505,330	-0,093	-0,150
166,706	-7,922	-0,318	-0,149
167,721	311,208	-0,154	-0,201
168,735	-23,952	-0,268	-0,111
169,750	-60,596	-0,278	-0,082
170,764	82,523	-0,300	-0,227
171,779	788,751	-0,120	-0,230
172,794	-22,947	-0,198	-0,083
173,808	107,876	-0,305	-0,253
174,823	91,868	-0,215	-0,168
175,837	-200,000	-0,023	-0,278
176,852	-70,507	-0,309	-0,081
177,867	59,986	-0,208	-0,143
178,881	-97,173	-0,108	-0,019
179,896	138,610	-0,203	-0,186
180,910	-11,593	-0,252	-0,115
181,925	-71,722	-0,248	-0,064
182,940	154,246	-0,260	-0,248
183,954	136,401	-0,127	-0,115
184,969	120,331	-0,206	-0,178
185,983	-127,048	-0,139	0,014
186,998	-11,589	-0,208	-0,095
188,013	15,253	-0,228	-0,124
189,027	42,516	-0,259	-0,164
190,042	5,768	-0,362	-0,186
191,056	369,768	-0,153	-0,216
192,071	-146,056	-0,267	0,016
193,086	-142,955	-0,217	0,014
194,100	82,627	-0,187	-0,141
195,115	-15,627	-0,203	-0,090
196,129	33,451	-0,266	-0,160
197,144	271,658	-0,252	-0,310
198,159	286,261	-0,167	-0,209
199,173	61,145	-0,227	-0,156
200,188	28,744	-0,195	-0,115
201,202	-84,609	-0,145	0,031
202,217	-48,243	-0,281	-0,094
203,232	47,222	-0,387	-0,250
204,246	800,000	-0,101	-0,242
205,261	-24,733	-0,242	-0,099
206,275	800,000	-0,098	-0,219
207,290	591,060	0,043	-0,074
208,304	-150,237	-0,186	-0,010
209,319	800,000	-0,063	-0,158
210,334	21,233	-0,136	-0,077
211,348	269,057	-0,215	-0,262
212,363	367,495	-0,146	-0,205
213,377	353,828	-0,141	-0,194
214,392	371,608	-0,116	-0,164
215,407	-2,463	-0,206	-0,100
216,421	-46,341	-0,158	-0,054
217,436	-97,060	-0,301	0,054
218,450	57,459	-0,185	-0,125
219,465	383,718	-0,093	-0,134
220,480	255,568	-0,195	-0,232
221,494	167,792	-0,181	-0,178
222,509	-41,541	-0,184	0,065
223,523	215,314	-0,151	-0,166
224,538	47,020	-0,313	-0,202
225,553	711,847	-0,095	-0,174
226,567	-37,412	-0,272	-0,100
227,582	626,945	-0,073	-0,129
228,596	143,727	-0,177	-0,164
229,611	323,523	-0,087	-0,115
230,626	582,899	-0,075	-0,127
231,640	-166,023	-0,274	-0,008
232,655	-13,495	-0,324	-0,145
233,669	55,013	-0,252	-0,168
234,684	-173,016	-0,246	-0,005
235,699	70,821	-0,186	-0,134
236,713	539,021	-0,089	-0,147
237,728	0,765	-0,217	-0,107
238,742	576,445	-0,061	-0,104
239,757	-25,791	-0,257	-0,104
240,772	-5,775	-0,297	-0,140
241,786	101,658	-0,248	-0,200
242,801	44,248	-0,146	-0,093
243,815	11,880	-0,086	-0,046
244,830	521,366	-0,055	-0,090
245,844	-35,056	-0,207	-0,078
246,859	800,000	-0,102	-0,234
247,874	111,985	-0,208	-0,173
248,888	430,860	-0,140	-0,211
249,903	129,303	-0,134	-0,119
250,917	749,066	-0,067	-0,126
251,932	-102,332	-0,115	-0,019
252,947	172,240	-0,148	-0,147
253,961	800,000	-0,089	-0,271
254,976	204,417	-0,221	-0,238
255,990	523,418	-0,134	-0,218
257,005	-44,638	-0,180	-0,062
258,020	-70,156	-0,130	-0,034
259,034	-140,089	-0,168	0,012
260,049	13,670	-0,104	-0,055
261,063	163,687	-0,166	-0,162
262,078	220,140	-0,132	-0,146
263,093	245,643	-0,168	-0,195
264,107	-17,983	-0,242	-0,104
265,122	-162,033	-0,173	-0,006
266,136	-3,308	-0,129	-0,062
267,151	-125,854	-0,184	-0,019
268,166	-62,149	-0,144	-0,041
269,180	196,893	-0,096	-0,101
270,195	-36,123	-0,186	-0,069
271,209	-122,974	-0,189	-0,021
272,224	150,188	-0,077	-0,072
273,239	263,042	-0,130	-0,156
274,253	-200,000	-0,025	-0,231
275,268	239,031	-0,142	-0,164
276,282	-131,665	-0,178	-0,016
277,297	157,598	-0,210	-0,201
278,312	261,326	-0,123	-0,147
279,326	111,075	-0,217	-0,180
280,341	-157,007	-0,122	0,005
281,355	-39,242	-0,126	-0,045
282,370	-200,000	-0,049	-0,233
283,384	242,575	-0,208	-0,241
284,399	84,327	-0,224	-0,169
285,414	-27,088	-0,279	-0,112
286,428	-34,189	-0,303	-0,114
287,443	115,377	-0,105	-0,088
288,457	-167,461	-0,190	0,005
289,472	31,424	-0,118	-0,070
290,487	-137,756	-0,128	0,010
291,501	107,914	-0,144	-0,118
292,516	-95,446	-0,102	0,019
293,530	-12,209	-0,154	-0,069
294,545	-26,605	-0,274	-0,110
295,560	20,495	-0,135	-0,075
296,574	800,000	-0,045	-0,097
297,589	95,085	-0,245	-0,192
298,603	209,059	-0,119	-0,129
299,618	781,094	-0,119	-0,225
300,633	-59,419	-0,162	-0,048
301,647	203,106	-0,175	-0,187
302,662	-200,000	-0,085	-0,265
303,676	153,463	-0,134	-0,127
304,691	-128,201	-0,210	0,020
305,706	-105,606	-0,197	0,030
306,720	164,834	-0,179	-0,174
307,735	129,772	-0,192	-0,169
308,749	800,000	-0,026	-0,060
309,764	-7,623	-0,130	0,060
310,779	28,799	-0,200	-0,116
311,793	-146,752	-0,133	0,008
312,808	-33,996	-0,176	-0,066
313,822	149,395	-0,187	-0,174
314,837	59,329	-0,125	-0,084
315,852	468,539	-0,066	-0,101
316,866	-59,601	-0,113	-0,033
317,881	-200,000	-0,050	-0,242
318,895	-82,700	-0,191	-0,042
319,910	7,320	-0,304	-0,156
320,925	800,000	-0,105	-0,265
321,939	-200,000	0,004	-0,215
322,954	400,748	-0,063	-0,092
323,968	800,000	-0,034	-0,096
324,983	460,494	-0,102	-0,157
325,997	800,000	-0,043	-0,090
327,012	124,687	-0,151	-0,130
328,027	-50,563	-0,243	-0,078
329,041	-86,356	-0,140	-0,029
330,056	-8,984	-0,151	-0,069
331,070	20,675	-0,096	-0,053
332,085	-200,000	-0,003	-0,035
333,100	-200,000	-0,046	-0,143
334,114	-92,326	-0,101	-0,019
335,129	800,000	-0,087	-0,241
336,143	-76,553	-0,233	-0,056
337,158	-200,000	-0,052	-0,186
338,173	-35,443	-0,145	-0,054
339,187	244,534	-0,150	-0,174
340,202	378,466	-0,066	-0,093
341,216	-5,826	-0,166	-0,077
342,231	-74,688	-0,224	-0,055
343,246	-129,394	-0,095	-0,009
344,260	124,207	-0,073	-0,063
345,275	148,882	-0,055	-0,051
346,289	-121,906	0,034	-0,004
347,304	-141,559	-0,074	0,005
348,319	800,000	-0,041	-0,080
349,333	-92,088	-0,154	0,030
350,348	-45,646	-0,213	-0,072
351,362	-200,000	0,007	-0,051
352,377	-2,680	-0,061	-0,029
353,392	-144,394	-0,133	-0,008
354,406	217,216	-0,161	-0,177
355,421	206,875	1311,664	1402,838
356,435	159,119	1472,013	1403,340
