DTS Sentinel unit serial number:	SN410029Multiplexer serial number:	ORYXHardware model number:	OX2-SRSoftware version number:	ORYX F/W v4,00 Oryx Data Collector v3.7.2.0data status	okinstallation	B3 Nyhavnadifferential loss correction	single-endedforward channel	channel 1reverse channel	N/Adate	2023/12/01time	09:07:30forward acquisition time	300,00reverse acquisition time	0,00gamma	499,1914k internal	0,3213k external	0,3213temperature offset calibration	1,0000default loss term (dB/km)	0,3820temperature slope calibration	1,0000multiplexer offset coefficient	1,0000multiplexer slope coefficient	1,0000fibre end	0,00T internal ref (°C)	7,98T ext. ref 1 (°C)	-6,36T ext. ref 2 (°C)	-6,50length (m)	temperature (°C)	Stokes	anti-Stokes-744,400	257,314	-0,274	-0,342
-743,385	-200,000	0,051	0,165
-742,371	105,379	-0,185	-0,158
-741,356	-200,000	-0,042	0,352
-740,342	-200,000	-0,005	-0,037
-739,327	-200,000	0,025	0,294
-738,312	115,087	-0,184	-0,162
-737,298	-200,000	-0,050	0,177
-736,283	397,157	-0,222	-0,337
-735,269	800,000	-0,076	0,207
-734,254	800,000	-0,121	-0,326
-733,239	-94,911	-0,157	0,031
-732,225	103,334	-0,175	-0,148
-731,210	-126,212	0,187	0,020
-730,196	89,027	0,029	-0,023
-729,181	800,000	0,010	-0,026
-728,167	-2,926	-0,145	-0,073
-727,152	79,118	-0,112	-0,087
-726,137	310,313	-0,021	-0,029
-725,123	157,805	-0,123	-0,123
-724,108	195,429	-0,051	-0,056
-723,094	-119,110	-0,122	-0,015
-722,079	182,995	-0,068	-0,073
-721,064	218,744	-0,054	-0,063
-720,050	-93,368	-0,099	0,020
-719,035	-200,000	0,020	-0,116
-718,021	-13,204	-0,065	-0,030
-717,006	-139,347	-0,117	-0,009
-715,991	800,000	-0,051	-0,123
-714,977	87,901	-0,075	-0,060
-713,962	-200,000	0,012	-0,086
-712,948	-100,008	-0,109	0,020
-711,933	-200,000	0,001	-0,020
-710,918	-10,647	-0,088	0,042
-709,904	-200,000	-0,050	-0,196
-708,889	60,408	-0,071	-0,051
-707,875	-23,715	-0,112	0,048
-706,860	91,155	-0,011	0,009
-705,845	-200,000	0,020	0,123
-704,831	152,678	-0,026	-0,026
-703,816	-200,000	0,034	0,132
-702,802	-95,829	-0,121	-0,023
-701,787	30,561	-0,179	-0,111
-700,772	-14,785	0,139	-0,064
-699,758	-200,000	-0,009	-0,061
-698,743	-200,000	0,011	0,067
-697,729	-112,632	-0,215	0,031
-696,714	-180,268	0,065	-0,001
-695,699	-2,639	0,036	-0,018
-694,685	522,902	-0,052	-0,088
-693,670	-150,490	-0,170	-0,009
-692,656	-200,000	-0,006	0,026
-691,641	265,108	-0,023	0,030
-690,627	-79,255	-0,025	0,006
-689,612	-165,766	-0,071	-0,002
-688,597	180,154	-0,055	-0,059
-687,583	-200,000	-0,009	-0,076
-686,568	-200,000	-0,002	-0,196
-685,554	-200,000	-0,032	-0,133
-684,539	350,906	0,063	0,090
-683,524	207,532	0,068	0,077
-682,510	319,782	-0,078	0,107
-681,495	13,500	-0,136	-0,076
-680,481	-128,110	-0,121	0,012
-679,466	612,762	0,027	-0,049
-678,451	463,128	-0,108	-0,175
-677,437	800,000	-0,013	0,031
-676,422	708,062	-0,023	0,043
-675,408	-200,000	0,026	0,217
-674,393	664,268	0,053	0,099
-673,378	24,793	-0,143	0,085
-672,364	58,080	-0,021	-0,015
-671,349	103,828	0,051	-0,044
-670,335	-20,272	0,063	-0,028
-669,320	800,000	-0,043	0,112
-668,305	-8,391	0,093	0,045
-667,291	-11,313	-0,056	0,026
-666,276	-200,000	-0,002	-0,104
-665,262	47,193	-0,176	-0,118
-664,247	-200,000	-0,029	-0,126
-663,232	89,947	0,100	0,081
-662,218	-104,507	-0,066	0,011
-661,203	800,000	0,033	-0,071
-660,189	-43,091	0,077	0,028
-659,174	92,013	-0,081	0,066
-658,159	45,032	0,056	-0,037
-657,145	-200,000	-0,007	-0,054
-656,130	735,344	-0,044	0,086
-655,116	-200,000	-0,017	0,106
-654,101	473,354	0,074	0,120
-653,086	-96,903	0,048	-0,009
-652,072	-107,633	-0,106	-0,017
-651,057	800,000	-0,046	-0,103
-650,043	800,000	0,096	-0,203
-649,028	321,725	-0,021	0,030
-648,014	-200,000	0,036	-0,116
-646,999	664,027	-0,025	0,047
-645,984	233,001	-0,088	0,104
-644,970	-107,125	-0,169	-0,027
-643,955	797,732	-0,016	0,033
-642,941	499,238	-0,023	-0,038
-641,926	800,000	-0,040	0,124
-640,911	-39,223	0,052	0,020
-639,897	447,180	-0,026	-0,041
-638,882	-200,000	-0,009	0,057
-637,868	-200,000	-0,048	-0,180
-636,853	-4,947	-0,091	0,045
-635,838	-69,161	-0,135	-0,037
-634,824	800,000	0,060	-0,133
-633,809	73,680	-0,141	0,107
-632,795	406,275	-0,024	0,036
-631,780	800,000	-0,039	0,083
-630,765	-200,000	-0,014	-0,045
-629,751	-52,173	-0,041	-0,014
-628,736	-126,252	-0,121	0,013
-627,722	441,529	0,021	-0,033
-626,707	800,000	-0,044	0,092
-625,692	-36,969	-0,043	-0,017
-624,678	184,664	0,092	0,099
-623,663	-200,000	-0,009	-0,041
-622,649	457,233	-0,090	0,145
-621,634	-93,771	-0,148	-0,029
-620,619	3,271	-0,063	-0,033
-619,605	-200,000	0,052	0,000
-618,590	-200,000	0,038	0,198
-617,576	-150,422	0,111	-0,006
-616,561	-119,607	-0,163	0,020
-615,546	-200,000	-0,011	-0,101
-614,532	-78,734	0,066	-0,016
-613,517	36,632	-0,041	0,026
-612,503	50,014	0,041	0,028
-611,488	-174,475	0,134	0,003
-610,474	94,811	-0,075	-0,061
-609,459	800,000	0,004	-0,011
-608,444	184,277	-0,118	0,126
-607,430	350,294	-0,038	0,054
-606,415	-200,000	-0,018	0,063
-605,401	434,250	0,015	0,024
-604,386	244,613	0,020	0,024
-603,371	-200,000	0,006	0,044
-602,357	472,162	0,037	0,060
-601,342	208,957	-0,054	-0,061
-600,328	-73,998	0,149	0,039
-599,313	101,041	-0,068	0,057
-598,298	-200,000	0,006	-0,078
-597,284	-200,000	-0,009	0,053
-596,269	679,815	0,054	0,102
-595,255	-115,715	-0,032	0,004
-594,240	186,141	-0,077	-0,083
-593,225	7,722	0,132	-0,071
-592,211	37,964	0,033	0,021
-591,196	344,260	-0,062	0,088
-590,182	800,000	0,003	0,010
-589,167	209,257	0,013	0,015
-588,152	-200,000	-0,007	0,075
-587,138	29,493	-0,064	0,039
-586,123	317,664	-0,029	0,040
-585,109	321,949	0,034	-0,047
-584,094	555,426	0,060	0,104
-583,079	380,822	0,051	0,076
-582,065	324,722	0,053	0,073
-581,050	354,632	0,079	0,113
-580,036	273,679	-0,056	0,071
-579,021	9,801	-0,064	0,035
-578,006	800,000	-0,054	-0,115
-576,992	-39,926	-0,115	-0,043
-575,977	-12,572	0,057	-0,027
-574,963	-50,415	0,100	0,034
-573,948	637,985	0,031	0,057
-572,934	125,623	-0,014	-0,013
-571,919	660,666	0,041	-0,076
-570,904	-121,284	-0,181	0,021
-569,890	-117,708	0,047	-0,006
-568,875	-90,114	0,138	0,029
-567,861	-200,000	-0,007	-0,024
-566,846	-200,000	0,027	0,091
-565,831	-51,752	0,079	-0,026
-564,817	-168,940	-0,176	-0,005
-563,802	177,154	0,036	0,037
-562,788	800,000	-0,025	-0,060
-561,773	-200,000	0,034	0,157
-560,758	-71,779	0,065	-0,017
-559,744	-175,196	-0,111	0,002
-558,729	-5,870	-0,118	0,058
-557,715	275,457	0,070	0,090
-556,700	-166,648	-0,114	-0,003
-555,685	362,895	-0,029	0,043
-554,671	172,109	-0,057	0,059
-553,656	2,594	0,027	-0,014
-552,642	108,142	-0,058	-0,050
-551,627	800,000	-0,032	0,085
-550,612	-70,345	-0,150	-0,041
-549,598	436,581	-0,035	-0,055
-548,583	-200,000	-0,002	-0,043
-547,569	-124,030	0,030	0,003
-546,554	-200,000	0,020	0,084
-545,539	75,343	-0,059	0,045
-544,525	-200,000	0,009	-0,030
-543,510	-93,098	-0,125	-0,025
-542,496	270,160	-0,095	-0,120
-541,481	800,000	0,067	-0,160
-540,466	-200,000	-0,013	-0,049
-539,452	-200,000	0,023	-0,085
-538,437	-200,000	-0,015	0,050
-537,423	2,501	0,095	0,049
-536,408	-115,251	-0,092	-0,012
-535,393	-136,325	-0,118	-0,010
-534,379	-200,000	-0,002	-0,051
-533,364	58,363	0,124	-0,087
-532,350	-200,000	0,014	0,065
-531,335	-200,000	0,041	0,150
-530,321	800,000	-0,069	0,144
-529,306	315,460	0,034	-0,046
-528,291	-82,996	0,054	0,012
-527,277	800,000	0,071	0,148
-526,262	-23,843	0,106	0,045
-525,248	800,000	-0,043	0,136
-524,233	-200,000	-0,005	-0,029
-523,218	162,176	0,085	-0,085
-522,204	-200,000	0,005	-0,092
-521,189	107,095	0,043	0,037
-520,175	38,057	0,072	0,046
-519,160	117,453	-0,028	0,025
-518,145	768,372	0,083	-0,163
-517,131	-8,060	-0,037	-0,018
-516,116	-200,000	0,015	0,098
-515,102	537,078	0,022	0,038
-514,087	800,000	-0,072	-0,186
-513,072	-200,000	-0,025	-0,114
-512,058	-36,595	-0,074	0,028
-511,043	800,000	-0,066	0,153
-510,029	217,886	0,071	0,081
-509,014	-111,469	-0,038	0,006
-507,999	-200,000	0,003	-0,027
-506,985	-73,514	-0,005	-0,001
-505,970	800,000	-0,039	0,119
-504,956	-195,444	-0,043	0,000
-503,941	800,000	0,015	0,036
-502,926	-200,000	-0,001	0,021
-501,912	-200,000	-0,026	0,117
-500,897	172,386	-0,094	0,097
-499,883	351,812	0,041	0,058
-498,868	-200,000	-0,022	-0,134
-497,853	800,000	0,020	-0,043
-496,839	74,964	0,051	-0,038
-495,824	92,389	-0,043	0,034
-494,810	-16,098	0,092	0,042
-493,795	417,412	0,027	0,042
-492,781	-13,641	0,077	-0,036
-491,766	12,681	-0,132	-0,073
-490,751	-40,122	0,170	-0,063
-489,737	-53,376	-0,140	0,046
-488,722	-200,000	0,013	0,117
-487,708	-98,395	0,125	-0,023
-486,693	682,288	-0,051	0,097
-485,678	-36,590	-0,092	0,035
-484,664	558,162	-0,076	-0,132
-483,649	-12,033	0,104	0,049
-482,635	-122,290	-0,091	0,011
-481,620	752,745	0,032	-0,063
-480,605	-200,000	-0,015	0,068
-479,591	-200,000	0,025	0,113
-478,576	800,000	-0,053	-0,146
-477,562	-200,000	-0,001	0,059
-476,547	800,000	-0,025	-0,055
-475,532	-200,000	-0,002	0,016
-474,518	-200,000	-0,011	-0,085
-473,503	-4,004	0,086	0,042
-472,489	-70,089	0,158	0,043
-471,474	-200,000	-0,001	0,072
-470,459	623,147	0,041	-0,075
-469,445	13,438	-0,141	-0,078
-468,430	800,000	0,053	-0,137
-467,416	121,837	-0,098	-0,087
-466,401	200,763	0,071	-0,078
-465,386	-200,000	0,004	0,073
-464,372	-200,000	-0,021	-0,104
-463,357	-200,000	0,009	-0,061
-462,343	90,864	-0,031	0,025
-461,328	299,706	-0,019	0,025
-460,313	379,845	-0,062	0,091
-459,299	-184,769	0,174	-0,002
-458,284	-200,000	0,015	0,062
-457,270	800,000	0,025	0,051
-456,255	-200,000	0,004	0,022
-455,241	237,226	0,102	-0,122
-454,226	93,471	-0,047	-0,038
-453,211	800,000	-0,028	0,059
-452,197	-108,440	0,207	0,032
-451,182	85,382	0,039	0,031
-450,168	800,000	0,047	0,115
-449,153	-200,000	0,004	0,164
-448,138	-32,706	0,135	-0,054
-447,124	-200,000	0,005	-0,092
-446,109	-21,602	-0,097	0,042
-445,095	266,373	0,108	0,135
-444,080	-35,509	0,108	-0,042
-443,065	800,000	0,056	0,128
-442,051	98,783	0,119	0,098
-441,036	-53,714	-0,203	-0,066
-440,022	-200,000	-0,009	-0,055
-439,007	743,983	-0,065	-0,126
-437,992	30,661	0,052	0,032
-436,978	91,729	0,103	0,083
-435,963	800,000	0,052	0,157
-434,949	-192,088	-0,066	0,000
-433,934	800,000	0,030	-0,067
-432,919	800,000	-0,044	-0,098
-431,905	297,586	0,040	-0,053
-430,890	40,388	0,147	-0,094
-429,876	800,000	0,027	-0,073
-428,861	136,599	-0,083	0,078
-427,846	-200,000	0,007	0,022
-426,832	596,954	-0,044	-0,079
-425,817	-200,000	0,003	-0,105
-424,803	800,000	0,054	0,152
-423,788	-200,000	0,007	-0,048
-422,773	261,497	0,066	0,082
-421,759	-74,316	-0,091	0,023
-420,744	800,000	0,028	0,087
-419,730	-200,000	0,013	-0,060
-418,715	-200,000	0,003	-0,044
-417,701	-200,000	0,047	-0,230
-416,686	-200,000	0,034	-0,243
-415,671	-8,754	0,101	-0,048
-414,657	-87,555	-0,143	0,031
-413,642	105,519	-0,050	-0,042
-412,628	40,366	-0,077	-0,049
-411,613	800,000	-0,011	-0,033
-410,598	69,043	0,093	-0,068
-409,584	-42,262	-0,060	-0,022
-408,569	-79,183	-0,060	0,014
-407,555	241,176	0,081	-0,097
-406,540	-200,000	-0,006	-0,058
-405,525	-112,171	0,075	0,011
-404,511	800,000	-0,051	-0,160
-403,496	800,000	0,006	0,015
-402,482	-36,804	0,067	-0,026
-401,467	152,567	0,042	0,041
-400,452	-200,000	0,021	-0,150
-399,438	800,000	0,053	0,123
-398,423	125,428	-0,100	-0,090
-397,409	407,791	0,109	-0,166
-396,394	465,324	-0,056	0,089
-395,379	-158,524	0,147	0,006
-394,365	-124,019	0,114	-0,013
-393,350	59,425	0,029	0,021
-392,336	46,449	-0,133	0,088
-391,321	429,830	0,037	-0,057
-390,306	-200,000	-0,038	-0,161
-389,292	-34,474	-0,065	-0,025
-388,277	-59,520	0,078	0,024
-387,263	185,222	-0,030	-0,032
-386,248	25,439	0,123	0,073
-385,233	800,000	-0,025	0,075
-384,219	517,937	0,071	0,119
-383,204	-200,000	0,001	-0,094
-382,190	-200,000	-0,002	-0,087
-381,175	-200,000	-0,025	0,122
-380,160	-200,000	0,020	-0,063
-379,146	-200,000	0,022	-0,085
-378,131	23,471	-0,052	0,030
-377,117	-46,178	-0,106	-0,037
-376,102	800,000	-0,066	0,144
-375,088	163,757	-0,074	0,074
-374,073	-200,000	0,023	-0,133
-373,058	-96,778	-0,083	0,015
-372,044	379,938	0,121	0,177
-371,029	221,053	0,041	0,047
-370,015	800,000	0,046	-0,107
-369,000	211,552	-0,083	-0,093
-367,985	260,334	0,076	-0,094
-366,971	800,000	-0,056	0,112
-365,956	-200,000	-0,001	-0,103
-364,942	175,977	0,046	0,048
-363,927	800,000	0,031	0,088
-362,912	377,048	0,040	0,059
-361,898	38,544	0,034	-0,022
-360,883	108,537	0,034	0,029
-359,869	-59,639	-0,075	0,023
-358,854	141,870	0,111	-0,105
-357,839	-144,979	0,152	0,010
-356,825	16,837	0,075	0,042
-355,810	164,598	-0,036	0,037
-354,796	-200,000	-0,003	0,015
-353,781	-37,717	0,010	-0,004
-352,766	426,554	-0,051	-0,078
-351,752	221,556	0,035	0,041
-350,737	-200,000	0,033	0,106
-349,723	-200,000	0,000	0,083
-348,708	-47,196	0,077	-0,027
-347,693	457,486	-0,019	0,031
-346,679	-14,544	-0,108	-0,049
-345,664	152,700	-0,104	-0,101
-344,650	800,000	0,014	0,044
-343,635	-34,717	0,079	0,031
-342,620	17,171	0,098	0,056
-341,606	800,000	0,028	0,065
-340,591	-136,958	-0,058	0,005
-339,577	53,783	-0,091	-0,062
-338,562	-200,000	0,008	0,038
-337,548	-200,000	-0,003	-0,080
-336,533	800,000	0,037	0,110
-335,518	-200,000	-0,017	-0,059
-334,504	261,989	0,077	-0,095
-333,489	800,000	-0,017	-0,042
-332,475	800,000	-0,057	-0,152
-331,460	670,177	0,052	0,096
-330,445	373,005	0,022	0,032
-329,431	-51,997	0,039	0,013
-328,416	-102,718	-0,043	-0,007
-327,402	444,015	0,076	0,120
-326,387	800,000	-0,009	0,027
-325,372	800,000	0,043	-0,090
-324,358	800,000	-0,020	-0,054
-323,343	-107,119	0,096	0,015
-322,329	45,501	0,111	-0,073
-321,314	-74,122	-0,053	-0,014
-320,299	126,881	0,051	0,046
-319,285	275,502	0,011	-0,014
-318,270	800,000	0,032	-0,069
-317,256	43,995	-0,135	-0,088
-316,241	-6,071	-0,100	-0,048
-315,226	149,189	0,062	0,060
-314,212	-200,000	0,052	0,193
-313,197	-200,000	-0,009	0,044
-312,183	-44,139	0,066	-0,023
-311,168	-74,843	0,110	-0,028
-310,153	-169,833	-0,056	0,001
-309,139	21,180	0,065	-0,037
-308,124	-200,000	0,010	0,042
-307,110	800,000	-0,049	0,098
-306,095	490,403	-0,029	0,047
-305,080	-200,000	0,007	-0,121
-304,066	150,254	-0,089	-0,086
-303,051	-7,132	0,129	0,062
-302,037	363,229	0,033	-0,047
-301,022	228,493	0,097	-0,113
-300,008	-200,000	-0,050	0,204
-298,993	-145,064	-0,049	-0,003
-297,978	-200,000	0,060	-0,000
-296,964	41,205	0,065	0,042
-295,949	69,539	-0,180	-0,132
-294,935	800,000	0,038	-0,090
-293,920	264,493	0,120	-0,150
-292,905	800,000	0,107	0,211
-291,891	-9,827	-0,095	0,045
-290,876	-100,851	0,057	-0,010
-289,862	345,057	-0,025	-0,035
-288,847	-34,421	0,052	-0,020
-287,832	-50,913	0,080	0,027
-286,818	-58,096	-0,133	-0,041
-285,803	-90,613	-0,200	-0,041
-284,789	199,216	-0,036	-0,039
-283,774	-200,000	-0,020	0,079
-282,759	-200,000	0,021	-0,086
-281,745	-200,000	0,002	-0,075
-280,730	337,820	0,059	-0,082
-279,716	-25,965	-0,080	-0,033
-278,701	800,000	0,011	0,027
-277,686	-200,000	-0,029	0,114
-276,672	112,519	-0,097	0,084
-275,657	-200,000	0,002	-0,090
-274,643	44,283	-0,063	0,041
-273,628	79,372	0,090	-0,069
-272,613	-94,372	-0,015	0,003
-271,599	389,461	-0,081	-0,119
-270,584	183,263	0,012	0,012
-269,570	800,000	0,049	0,115
-268,555	-200,000	-0,009	0,053
-267,540	522,729	0,027	-0,045
-266,526	291,218	0,091	-0,118
-265,511	497,765	-0,061	-0,101
-264,497	35,078	0,102	-0,064
-263,482	406,013	0,009	-0,013
-262,467	215,640	0,078	0,088
-261,453	800,000	-0,022	-0,070
-260,438	-200,000	-0,004	-0,109
-259,424	800,000	-0,037	-0,081
-258,409	24,740	-0,050	-0,029
-257,395	800,000	-0,057	0,118
-256,380	-91,238	0,069	0,014
-255,365	475,737	-0,035	-0,057
-254,351	-83,931	0,048	-0,011
-253,336	-9,167	0,186	0,088
-252,322	-200,000	-0,042	-0,176
-251,307	-200,000	-0,030	-0,148
-250,292	-92,536	0,072	0,014
-249,278	-62,612	0,039	-0,012
-248,263	-200,000	0,011	0,069
-247,249	-200,000	-0,024	0,082
-246,234	654,940	-0,084	0,153
-245,219	-198,642	0,111	-0,000
-244,205	-200,000	-0,019	-0,116
-243,190	377,999	0,042	0,061
-242,176	-34,323	-0,139	-0,054
-241,161	-132,347	0,012	-0,001
-240,146	170,904	-0,031	0,031
-239,132	389,913	-0,124	0,183
-238,117	-14,011	-0,031	-0,014
-237,103	-200,000	-0,013	-0,095
-236,088	-54,780	-0,019	-0,006
-235,073	-167,430	0,058	-0,002
-234,059	-13,255	-0,046	0,021
-233,044	17,205	0,104	0,058
-232,030	-200,000	0,012	-0,055
-231,015	-139,242	-0,046	0,003
-230,000	72,909	-0,111	-0,082
-228,986	104,273	-0,007	-0,006
-227,971	7,263	0,118	-0,062
-226,957	34,243	-0,155	0,096
-225,942	9,485	-0,047	-0,025
-224,927	800,000	-0,017	0,043
-223,913	-47,018	-0,087	0,030
-222,898	0,397	-0,119	-0,060
-221,884	-26,493	0,101	0,042
-220,869	-103,813	0,117	0,019
-219,855	800,000	-0,021	-0,053
-218,840	297,907	-0,029	-0,039
-217,825	-200,000	0,012	0,103
-216,811	39,717	0,055	-0,035
-215,796	91,804	-0,117	-0,093
-214,782	417,004	-0,040	-0,061
-213,767	358,736	0,083	0,118
-212,752	-200,000	0,002	0,135
-211,738	-65,975	-0,124	-0,035
-210,723	-136,637	0,068	0,006
-209,709	-94,057	0,100	-0,019
-208,694	-200,000	0,011	-0,101
-207,679	-93,223	-0,039	0,008
-206,665	-21,580	0,153	-0,066
-205,650	800,000	0,052	0,157
-204,636	386,178	-0,061	0,090
-203,621	145,870	0,039	-0,037
-202,606	92,390	0,030	0,024
-201,592	-99,761	0,095	-0,017
-200,577	800,000	-0,042	-0,095
-199,563	1,128	-0,026	0,013
-198,548	800,000	-0,046	-0,091
-197,533	169,161	-0,054	0,055
-196,519	165,478	-0,065	0,065
-195,504	94,608	-0,031	-0,025
-194,490	-39,440	-0,183	-0,068
-193,475	677,356	-0,032	0,060
-192,460	261,088	-0,059	-0,073
-191,446	288,258	0,085	0,110
-190,431	103,966	0,044	-0,037
-189,417	23,233	0,040	-0,023
-188,402	-75,659	-0,075	-0,019
-187,387	215,485	-0,072	-0,081
-186,373	699,189	-0,027	0,051
-185,358	800,000	-0,041	-0,126
-184,344	369,808	-0,040	-0,058
-183,329	704,169	-0,018	-0,034
-182,315	495,933	0,026	0,043
-181,300	-66,137	0,117	-0,033
-180,285	57,802	0,077	-0,053
-179,271	-131,247	-0,087	0,008
-178,256	60,899	-0,033	0,023
-177,242	-2,781	0,092	-0,045
-176,227	241,094	0,033	-0,039
-175,212	-82,252	0,082	-0,019
-174,198	131,052	-0,139	-0,127
-173,183	-200,000	-0,003	-0,120
-172,169	12,162	-0,148	-0,080
-171,154	-21,422	0,069	0,030
-170,139	800,000	0,009	-0,019
-169,125	800,000	0,012	0,026
-168,110	-200,000	-0,003	-0,036
-167,096	800,000	-0,011	-0,025
-166,081	-200,000	0,008	-0,136
-165,066	20,234	0,101	-0,057
-164,052	800,000	-0,024	-0,072
-163,037	430,303	-0,027	-0,042
-162,023	124,750	0,098	0,087
-161,008	-200,000	0,022	0,087
-159,993	-200,000	0,006	0,121
-158,979	800,000	-0,013	0,028
-157,964	-200,000	-0,026	0,089
-156,950	-200,000	-0,019	0,115
-155,935	-106,985	-0,147	-0,023
-154,920	-152,519	0,137	0,007
-153,906	378,032	-0,084	0,122
-152,891	-200,000	-0,002	0,069
-151,877	-200,000	0,002	-0,048
-150,862	55,644	-0,067	-0,046
-149,847	171,960	-0,082	-0,084
-148,833	49,770	0,069	-0,046
-147,818	275,474	0,079	0,100
-146,804	120,577	-0,022	0,019
-145,789	800,000	0,037	-0,103
-144,775	133,426	-0,081	-0,074
-143,760	-200,000	-0,030	-0,107
-142,745	-200,000	-0,026	-0,083
-141,731	-200,000	-0,006	-0,022
-140,716	-12,067	0,102	-0,047
-139,702	-74,643	0,101	0,025
-138,687	46,423	0,135	-0,088
-137,672	10,553	-0,039	0,021
-136,658	32,549	0,078	0,047
-135,643	-200,000	-0,001	0,100
-134,629	-57,398	-0,067	-0,021
-133,614	212,611	0,044	-0,049
-132,599	-176,168	0,143	0,003
-131,585	-56,663	0,031	0,010
-130,570	800,000	-0,032	-0,071
-129,556	436,421	0,064	0,099
-128,541	760,210	0,009	-0,017
-127,526	-188,162	0,136	0,001
-126,512	-200,000	-0,009	0,062
-125,497	303,285	0,028	-0,036
-124,483	-0,767	-0,085	-0,042
-123,468	-32,585	0,132	0,052
-122,453	499,187	-0,025	-0,040
-121,439	-200,000	0,004	-0,083
-120,424	-200,000	0,015	-0,093
-119,410	-110,228	0,070	0,010
-118,395	800,000	0,024	0,068
-117,380	483,799	-0,078	-0,127
-116,366	474,760	-0,056	0,090
-115,351	-200,000	-0,018	-0,140
-114,337	67,069	-0,057	-0,041
-113,322	-84,738	-0,154	-0,034
-112,307	307,401	-0,050	0,066
-111,293	-188,567	0,089	0,001
-110,278	134,939	0,121	0,111
-109,264	800,000	0,037	0,093
-108,249	-200,000	-0,022	-0,094
-107,234	-146,870	0,087	0,005
-106,220	-142,119	-0,103	0,007
-105,205	800,000	-0,038	0,081
-104,191	-156,576	0,063	0,003
-103,176	12,449	-0,039	-0,021
-102,162	28,277	-0,036	0,021
-101,147	800,000	0,059	-0,117
-100,132	800,000	0,013	-0,030
-99,118	-200,000	0,015	-0,106
-98,103	800,000	0,045	0,106
-97,089	-116,031	-0,039	-0,005
-96,074	-77,038	0,099	-0,024
-95,059	-200,000	-0,004	0,089
-94,045	245,017	-0,147	0,175
-93,030	433,632	-0,026	-0,040
-92,016	-200,000	0,025	-0,197
-91,001	-200,000	0,037	0,121
-89,986	60,937	0,111	-0,077
-88,972	-200,000	0,007	-0,056
-87,957	55,934	0,143	0,098
-86,943	-164,814	0,118	-0,004
-85,928	-92,452	-0,224	-0,044
-84,913	482,727	0,034	-0,054
-83,899	139,391	0,093	-0,086
-82,884	-200,000	0,009	0,065
-81,870	-200,000	0,063	0,229
-80,855	461,365	0,041	0,064
-79,840	800,000	0,037	0,079
-78,826	-131,320	-0,032	0,003
-77,811	-200,000	0,057	-0,215
-76,797	800,000	-0,054	-0,118
-75,782	183,265	-0,072	0,076
-74,767	211,813	0,066	0,073
-73,753	30,355	0,111	-0,067
-72,738	-17,531	-0,027	-0,012
-71,724	-139,645	-0,103	-0,008
-70,709	800,000	0,048	-0,104
-69,694	-200,000	-0,012	-0,160
-68,680	-200,000	-0,013	0,058
-67,665	91,509	0,064	-0,051
-66,651	800,000	-0,037	0,077
-65,636	58,322	0,051	0,035
-64,622	-200,000	-0,006	-0,052
-63,607	27,354	-0,072	-0,043
-62,592	67,017	0,081	-0,058
-61,578	351,969	0,097	0,136
-60,563	-74,922	-0,099	-0,025
-59,549	-200,000	-0,007	-0,029
-58,534	71,874	-2,105	-1,543
-57,519	406,546	-1,202	-1,797
-56,505	-200,000	-0,327	-4,419
-55,490	764,114	0,943	1,815
-54,476	800,000	5,089	11,399
-53,461	-200,000	22,529	347,074
-52,446	800,000	757,593	2291,933
-51,432	532,845	1643,450	2754,527
-50,417	67,832	1642,237	1182,737
-49,403	15,597	1519,762	839,837
-48,388	9,798	1445,823	771,130
-47,373	19,310	1438,384	812,439
-46,359	13,361	1426,878	777,847
-45,344	8,126	1422,963	750,934
-44,330	8,107	1421,141	749,851
-43,315	8,078	1418,980	748,545
-42,300	8,047	1417,435	747,552
-41,286	8,098	1416,136	747,077
-40,271	8,065	1414,914	746,249
-39,257	8,088	1413,788	745,731
-38,242	8,098	1412,502	745,075
-37,227	8,116	1411,608	744,656
-36,213	8,103	1410,103	743,774
-35,198	8,110	1408,776	743,075
-34,184	8,081	1408,252	742,635
-33,169	7,999	1406,811	741,461
-32,154	8,057	1405,703	741,118
-31,140	8,047	1404,506	740,412
-30,125	8,088	1403,527	740,058
-29,111	8,059	1402,277	739,233
-28,096	8,042	1401,004	738,451
-27,082	7,982	1399,922	737,576
-26,067	7,976	1398,922	736,992
-25,052	8,023	1397,655	736,510
-24,038	8,044	1396,642	736,047
-23,023	8,015	1395,787	735,434
-22,009	8,009	1394,869	734,889
-20,994	7,988	1393,759	734,178
-19,979	7,967	1392,817	733,559
-18,965	7,956	1392,025	733,059
-17,950	7,897	1391,165	732,305
-16,936	7,907	1390,235	731,835
-15,921	7,898	1389,111	731,169
-14,906	7,942	1388,260	730,897
-13,892	7,968	1387,248	730,452
-12,877	7,942	1386,214	729,760
-11,863	7,941	1385,565	729,385
-10,848	7,918	1384,609	728,746
-9,833	7,881	1383,874	728,160
-8,819	7,847	1382,900	727,465
-7,804	7,828	1381,881	726,811
-6,790	7,840	1380,910	726,326
-5,775	7,845	1379,933	725,808
-4,760	7,851	1379,069	725,351
-3,746	7,890	1378,069	724,976
-2,731	7,847	1377,169	724,276
-1,717	7,841	1376,436	723,833
-0,702	7,824	1374,548	722,736
0,313	11,752	1284,954	693,430
1,327	27,396	676,822	400,089
2,342	42,531	116,351	74,473
3,356	-1,497	16,642	8,243
4,371	15,323	3,869	2,133
5,386	-14,010	1,444	0,654
6,400	800,000	0,284	0,557
7,415	79,743	-0,194	-0,146
8,429	187,864	-0,278	-0,292
9,444	114,974	-0,311	-0,267
10,459	70,141	-0,223	-0,162
11,473	23,524	-0,204	-0,118
12,488	3,347	-0,321	-0,164
13,502	7,906	-0,327	-0,172
14,517	-6,460	-0,427	-0,204
15,531	60,433	-0,299	-0,208
16,546	24,879	-0,262	-0,152
17,561	96,635	-0,334	-0,269
18,575	337,400	-0,128	-0,176
19,590	229,133	-0,276	-0,317
20,604	39,252	-0,250	-0,157
21,619	-5,321	-0,596	-0,287
22,634	184,946	-0,432	-0,452
23,648	140,670	-0,387	-0,360
24,663	58,067	-0,401	-0,276
25,677	147,614	-0,267	-0,253
26,692	130,128	-0,268	-0,241
27,707	-4,161	-0,357	-0,173
28,721	-111,052	-0,441	-0,063
29,736	47,095	-0,495	-0,323
30,750	10,527	-0,437	-0,234
31,765	-20,563	-0,390	-0,168
32,780	95,244	-0,329	-0,264
33,794	-30,620	-0,231	-0,091
34,809	26,063	-0,315	-0,184
35,823	320,392	-0,337	-0,451
36,838	84,150	-0,340	-0,261
37,853	1,242	-0,423	-0,213
38,867	-3,724	-0,391	-0,190
39,882	136,430	-0,384	-0,352
40,896	-9,860	-0,408	-0,190
41,911	26,568	-0,357	-0,209
42,926	302,303	-0,264	-0,344
43,940	138,510	-0,312	-0,288
44,955	69,138	-0,290	-0,209
45,969	142,172	-0,353	-0,329
46,984	-1,038	-0,299	-0,148
47,999	28,426	-0,383	-0,227
49,013	59,811	-0,300	-0,208
50,028	203,881	-0,336	-0,366
51,042	59,872	-0,316	-0,219
52,057	25,936	-0,376	-0,220
53,071	50,318	-0,469	-0,310
54,086	59,348	-0,306	-0,211
55,101	32,128	-0,323	-0,195
56,115	61,989	-0,385	-0,269
57,130	60,438	-0,292	-0,203
58,144	23,936	-0,319	-0,184
59,159	221,510	-0,306	-0,345
60,174	39,267	-0,378	-0,237
61,188	24,936	-0,468	-0,271
62,203	132,145	-0,334	-0,302
63,217	15,186	-0,321	-0,176
64,232	-3,503	-0,417	-0,202
65,247	149,350	-0,293	-0,278
66,261	14,344	-0,272	-0,148
67,276	279,238	-0,309	-0,388
68,290	46,280	-0,320	-0,208
69,305	174,182	-0,266	-0,270
70,320	8,246	-0,238	-0,125
71,334	50,468	-0,277	-0,183
72,349	32,921	-0,245	-0,149
73,363	-9,007	-0,360	-0,168
74,378	-19,052	-0,424	-0,184
75,393	-80,531	-0,362	-0,084
76,407	18,386	-0,269	-0,150
77,422	-15,779	-0,366	-0,163
78,436	94,609	-0,250	-0,198
79,451	155,524	-0,288	-0,278
80,466	156,847	-0,362	-0,351
81,480	96,975	-0,347	-0,278
82,495	-18,029	-0,347	-0,152
83,509	522,107	-0,175	-0,289
84,524	227,142	-0,194	-0,221
85,539	-77,547	-0,286	-0,069
86,553	-20,564	-0,315	-0,135
87,568	58,820	-0,259	-0,178
88,582	232,003	-0,248	-0,285
89,597	7,802	-0,393	-0,205
90,611	-26,028	-0,388	-0,159
91,626	-93,808	-0,247	-0,047
92,641	-60,986	-0,314	-0,092
93,655	49,565	-0,273	-0,180
94,670	94,267	-0,377	-0,299
95,684	-47,866	-0,239	-0,080
96,699	-44,951	-0,314	-0,109
97,714	333,294	-0,212	-0,287
98,728	-58,085	-0,264	-0,080
99,743	-71,269	-0,293	-0,076
100,757	4,427	-0,315	-0,161
101,772	32,096	-0,243	-0,146
102,787	89,581	-0,320	-0,249
103,801	192,735	-0,185	-0,195
104,816	107,050	-0,337	-0,279
105,830	166,014	-0,159	-0,157
106,845	-29,167	-0,286	-0,114
107,860	-39,677	-0,282	-0,103
108,874	233,404	-0,251	-0,289
109,889	-101,099	-0,349	-0,059
110,903	-130,144	-0,249	-0,023
111,918	182,664	-0,129	-0,133
112,933	73,666	-0,121	-0,088
113,947	-162,060	-0,185	-0,006
114,962	49,890	-0,257	-0,169
115,976	69,356	-0,294	-0,211
116,991	27,185	-0,371	-0,217
118,006	-59,865	-0,339	-0,101
119,020	-54,468	-0,196	-0,062
120,035	29,796	-0,182	-0,108
121,049	-60,008	-0,220	-0,065
122,064	101,512	-0,340	-0,276
123,079	-22,939	-0,276	-0,116
124,093	263,938	-0,156	-0,189
125,108	-5,714	-0,324	-0,154
126,122	138,678	-0,283	-0,260
127,137	-200,000	-0,055	-0,176
128,151	194,530	-0,205	-0,217
129,166	171,194	-0,206	-0,206
130,181	9,882	-0,283	-0,149
131,195	26,394	-0,273	-0,159
132,210	-11,588	-0,236	-0,108
133,224	447,611	-0,155	-0,239
134,239	349,949	-0,203	-0,281
135,254	120,600	-0,222	-0,192
136,268	18,612	-0,247	-0,137
137,283	84,511	-0,227	-0,173
138,297	176,595	-0,277	-0,281
139,312	-83,521	-0,390	-0,086
140,327	571,042	-0,167	-0,284
141,341	45,689	-0,310	-0,199
142,356	79,061	-0,226	-0,168
143,370	-27,929	-0,217	-0,087
144,385	125,062	-0,196	-0,172
145,400	-16,833	-0,201	-0,088
146,414	-72,163	-0,217	0,056
147,429	94,873	-0,093	-0,074
148,443	-17,688	-0,236	-0,103
149,458	7,138	-0,248	-0,128
150,473	136,608	-0,272	-0,247
151,487	68,699	-0,171	-0,122
152,502	-12,788	-0,149	-0,067
153,516	800,000	-0,106	-0,258
154,531	-17,588	-0,352	-0,153
155,546	254,572	-0,202	-0,240
156,560	-38,323	-0,164	-0,060
157,575	-3,981	-0,224	-0,108
158,589	173,106	-0,205	-0,205
159,604	-9,630	-0,276	-0,127
160,619	573,200	-0,145	-0,247
161,633	-57,355	-0,212	-0,064
162,648	328,788	-0,106	-0,141
163,662	31,152	-0,270	-0,161
164,677	-61,749	-0,186	-0,054
165,692	8,192	-0,240	-0,125
166,706	-58,400	-0,277	-0,083
167,721	115,359	-0,153	-0,130
168,735	206,912	-0,166	-0,180
169,750	47,271	-0,275	-0,177
170,764	183,474	-0,151	-0,155
171,779	663,124	-0,064	-0,115
172,794	19,000	-0,335	-0,186
173,808	-1,617	-0,197	-0,096
174,823	126,143	-0,223	-0,196
175,837	-39,655	-0,361	-0,131
176,852	193,812	-0,127	-0,134
177,867	-41,878	-0,233	-0,082
178,881	59,414	-0,244	-0,167
179,896	-69,151	-0,299	-0,079
180,910	248,832	-0,172	-0,203
181,925	123,541	-0,139	-0,121
182,940	91,738	-0,170	-0,133
183,954	0,036	-0,306	-0,151
184,969	430,584	-0,088	-0,133
185,983	-17,201	-0,303	-0,132
186,998	-41,850	-0,282	-0,100
188,013	181,814	-0,220	-0,225
189,027	-104,801	-0,368	0,058
190,042	244,725	-0,198	-0,232
191,056	-1,035	-0,213	-0,104
192,071	144,711	-0,194	-0,180
193,086	-92,620	-0,160	-0,031
194,100	376,856	-0,128	-0,182
195,115	-126,681	-0,162	0,016
196,129	385,651	-0,175	-0,251
197,144	56,386	-0,256	-0,172
198,159	79,572	-0,162	-0,120
199,173	125,453	-0,174	-0,152
200,188	134,069	-0,127	-0,114
201,202	-34,668	-0,240	-0,090
202,217	-100,269	-0,248	-0,042
203,232	164,442	-0,265	-0,259
204,246	-69,338	-0,313	-0,083
205,261	458,417	-0,101	-0,156
206,275	42,715	-0,217	-0,137
207,290	-9,516	-0,071	-0,033
208,304	-129,700	-0,191	-0,018
209,319	53,517	-0,207	-0,137
210,334	401,706	-0,140	-0,205
211,348	310,855	-0,142	-0,184
212,363	152,581	-0,214	-0,203
213,377	585,201	-0,126	-0,216
214,392	-81,380	-0,141	-0,032
215,407	-60,359	-0,161	-0,047
216,421	-42,596	-0,177	-0,062
217,436	172,340	-0,222	-0,221
218,450	113,554	-0,238	-0,200
219,465	120,484	-0,198	-0,170
220,480	82,669	-0,213	-0,160
221,494	287,140	-0,195	-0,244
222,509	174,556	-0,150	-0,150
223,523	146,776	-0,192	-0,178
224,538	73,954	-0,090	-0,066
225,553	304,457	-0,127	-0,163
226,567	448,000	-0,189	-0,289
227,582	118,174	-0,193	-0,164
228,596	213,709	-0,137	-0,150
229,611	15,479	-0,208	-0,112
230,626	61,246	-0,171	-0,117
231,640	572,615	-0,095	-0,160
232,655	128,625	-0,146	-0,129
233,669	800,000	-0,100	-0,197
234,684	-181,412	-0,065	-0,001
235,699	164,951	-0,140	-0,137
236,713	17,595	-0,262	-0,144
237,728	341,907	-0,067	-0,091
238,742	-149,535	-0,283	-0,015
239,757	17,800	-0,157	-0,086
240,772	-29,830	-0,162	-0,063
241,786	7,079	-0,126	-0,065
242,801	665,628	-0,061	-0,109
243,815	-65,698	-0,246	-0,068
244,830	51,278	-0,067	-0,044
245,844	-17,458	-0,133	-0,058
246,859	278,169	-0,215	-0,265
247,874	482,832	-0,183	-0,287
248,888	46,680	-0,245	-0,157
249,903	110,650	-0,135	-0,112
250,917	-14,362	-0,058	-0,026
251,932	0,663	-0,197	-0,097
252,947	-149,048	-0,331	-0,018
253,961	-127,741	-0,214	-0,021
254,976	-159,016	-0,301	0,012
255,990	182,159	-0,161	-0,163
257,005	517,940	-0,126	-0,204
258,020	306,058	-0,091	-0,117
259,034	109,724	-0,241	-0,199
260,049	121,971	-0,148	-0,128
261,063	-200,000	-0,002	-0,041
262,078	130,756	-0,273	-0,241
263,093	216,434	-0,191	-0,210
264,107	112,599	-0,212	-0,177
265,122	116,457	-0,124	0,105
266,136	-61,982	-0,255	-0,073
267,151	38,879	-0,134	-0,082
268,166	94,891	-0,194	-0,152
269,180	12,797	-0,332	-0,176
270,195	-97,112	-0,308	-0,055
271,209	-17,701	-0,261	-0,113
272,224	135,238	-0,150	-0,134
273,239	617,779	-0,102	-0,177
274,253	369,673	-0,162	-0,227
275,268	-22,029	-0,119	-0,050
276,282	181,051	-0,236	-0,239
277,297	-116,711	-0,268	-0,033
278,312	44,358	-0,131	-0,083
279,326	201,529	-0,168	-0,179
280,341	-23,718	-0,178	-0,073
281,355	-55,407	-0,157	0,048
282,370	-143,270	-0,141	0,009
283,384	-108,130	-0,184	-0,027
284,399	-83,391	-0,231	0,050
285,414	85,990	-0,184	-0,139
286,428	-55,753	-0,190	-0,058
287,443	-120,514	-0,169	-0,019
288,457	113,778	-0,097	-0,081
289,472	50,150	-0,135	-0,087
290,487	166,045	-0,145	-0,141
291,501	255,640	-0,181	-0,214
292,516	400,455	-0,085	-0,123
293,530	-44,834	-0,200	-0,068
294,545	113,658	-0,127	-0,106
295,560	28,048	-0,160	-0,093
296,574	41,198	-0,198	-0,122
297,589	-200,000	0,002	-0,162
298,603	69,180	-0,190	-0,134
299,618	92,985	-0,153	-0,119
300,633	117,577	-0,098	-0,083
301,647	21,392	-0,145	-0,081
302,662	129,138	-0,078	-0,068
303,676	70,389	-0,090	-0,064
304,691	-66,529	-0,232	-0,063
305,706	288,963	-0,133	-0,166
306,720	-54,193	-0,202	-0,063
307,735	247,943	-0,095	-0,110
308,749	-69,347	-0,127	0,033
309,764	-55,476	-0,067	0,021
310,779	113,268	-0,058	0,048
311,793	-94,917	-0,211	-0,039
312,808	-0,830	-0,179	-0,087
313,822	164,595	-0,178	-0,172
314,837	800,000	-0,042	-0,104
315,852	178,335	-0,144	-0,145
316,866	192,888	-0,094	-0,098
317,881	135,478	-0,170	-0,152
318,895	-103,648	-0,180	0,029
319,910	-200,000	-0,021	-0,193
320,925	-31,263	-0,117	-0,045
321,939	-55,185	-0,239	-0,073
322,954	-137,867	-0,066	0,005
323,968	-96,974	-0,135	-0,024
324,983	111,634	-0,085	-0,070
325,997	1,448	-0,180	-0,088
327,012	499,269	-0,143	-0,226
328,027	314,840	-0,123	-0,159
329,041	-34,481	-0,152	-0,057
330,056	-132,858	-0,055	0,005
331,070	-107,259	-0,143	0,021
332,085	800,000	-0,031	0,060
333,100	197,713	-0,146	-0,153
334,114	-13,584	-0,196	-0,086
335,129	482,067	-0,041	-0,064
336,143	64,675	-0,059	-0,040
337,158	245,814	-0,116	-0,134
338,173	-48,570	-0,101	-0,033
339,187	154,012	-0,068	-0,064
340,202	-137,173	-0,259	0,020
341,216	-152,009	-0,099	-0,005
342,231	-15,930	-0,220	-0,095
343,246	-97,546	-0,136	0,024
344,260	140,388	-0,030	0,027
345,275	7,835	-0,152	-0,078
346,289	161,802	-0,209	-0,200
347,304	-7,133	-0,122	-0,056
348,319	-98,482	-0,201	-0,035
349,333	643,517	-0,171	-0,300
350,348	143,323	-0,113	-0,103
351,362	-200,000	-0,031	-0,158
352,377	54,318	-0,072	-0,048
353,392	-200,000	-0,039	-0,140
354,406	71,789	-0,149	-0,106
355,421	206,983	1311,582	1398,816
356,435	159,206	1471,867	1399,259
