DTS Sentinel unit serial number:	SN410029Multiplexer serial number:	ORYXHardware model number:	OX2-SRSoftware version number:	ORYX F/W v4,00 Oryx Data Collector v3.7.2.0data status	okinstallation	B3 Nyhavnadifferential loss correction	single-endedforward channel	channel 1reverse channel	N/Adate	2023/12/05time	05:42:30forward acquisition time	300,00reverse acquisition time	0,00gamma	499,1914k internal	0,3201k external	0,3201temperature offset calibration	1,0000default loss term (dB/km)	0,3820temperature slope calibration	1,0000multiplexer offset coefficient	1,0000multiplexer slope coefficient	1,0000fibre end	0,00T internal ref (°C)	14,01T ext. ref 1 (°C)	-0,99T ext. ref 2 (°C)	-1,01length (m)	temperature (°C)	Stokes	anti-Stokes-744,400	192,021	-0,202	-0,221
-743,385	299,313	-0,137	0,184
-742,371	77,998	-0,229	-0,177
-741,356	371,789	0,213	0,316
-740,342	81,062	-0,226	-0,177
-739,327	-200,000	-0,021	0,464
-738,312	257,095	-0,241	-0,301
-737,298	-200,000	0,060	0,293
-736,283	-200,000	-0,026	-0,301
-735,269	-200,000	0,024	0,359
-734,254	260,085	-0,139	-0,175
-733,239	-200,000	0,051	0,212
-732,225	-200,000	-0,081	-0,466
-731,210	-64,522	0,185	0,054
-730,196	800,000	0,076	-0,172
-729,181	197,689	-0,096	-0,107
-728,167	-21,234	-0,095	-0,042
-727,152	-23,463	0,171	0,074
-726,137	62,333	0,053	0,038
-725,123	248,069	0,079	-0,098
-724,108	292,807	-0,063	-0,083
-723,094	399,375	-0,058	-0,089
-722,079	-47,887	-0,085	0,030
-721,064	30,609	-0,044	0,027
-720,050	22,052	0,082	-0,048
-719,035	123,300	-0,078	-0,071
-718,021	-77,107	-0,062	0,015
-717,006	201,121	-0,044	-0,050
-715,991	408,901	-0,089	-0,138
-714,977	-6,217	0,141	0,070
-713,962	-28,847	0,029	0,012
-712,948	467,240	0,048	-0,078
-711,933	-150,066	0,054	-0,003
-710,918	-200,000	-0,012	0,063
-709,904	-135,976	-0,075	0,006
-708,889	-48,885	0,083	0,029
-707,875	800,000	-0,022	-0,049
-706,860	-200,000	0,017	-0,113
-705,845	-49,714	-0,126	0,043
-704,831	156,999	0,015	0,015
-703,816	-14,573	-0,037	0,017
-702,802	-25,715	0,061	0,026
-701,787	800,000	-0,023	-0,072
-700,772	62,060	-0,179	-0,129
-699,758	177,871	0,053	-0,056
-698,743	236,651	0,116	0,139
-697,729	460,735	0,038	0,062
-696,714	46,809	-0,068	0,046
-695,699	-200,000	0,002	-0,078
-694,685	-145,623	-0,259	0,017
-693,670	-200,000	-0,001	0,027
-692,656	800,000	0,021	0,045
-691,641	-76,851	0,064	-0,016
-690,627	-150,995	0,143	-0,008
-689,612	-110,207	0,128	0,019
-688,597	-200,000	-0,003	-0,032
-687,583	-30,599	0,024	-0,010
-686,568	239,435	-0,036	-0,044
-685,554	-200,000	-0,023	-0,078
-684,539	-200,000	-0,002	0,024
-683,524	-57,991	-0,074	0,023
-682,510	-200,000	-0,025	-0,098
-681,495	-20,118	-0,002	-0,001
-680,481	-103,956	0,187	0,031
-679,466	29,473	-0,102	-0,063
-678,451	322,123	-0,061	0,085
-677,437	-200,000	0,009	-0,050
-676,422	249,610	-0,056	0,068
-675,408	-189,289	0,145	0,001
-674,393	-200,000	0,002	-0,109
-673,378	800,000	0,035	-0,103
-672,364	-156,796	-0,085	0,004
-671,349	-200,000	-0,017	-0,080
-670,335	130,733	0,050	0,047
-669,320	-10,624	-0,047	0,023
-668,305	492,508	-0,039	0,064
-667,291	150,663	-0,160	-0,157
-666,276	198,272	0,044	-0,049
-665,262	-200,000	0,046	-0,154
-664,247	584,705	0,029	-0,053
-663,232	-200,000	-0,002	-0,055
-662,218	472,441	0,075	0,123
-661,203	-200,000	-0,002	0,093
-660,189	181,421	0,068	0,073
-659,174	63,535	0,080	0,058
-658,159	-44,762	-0,030	-0,011
-657,145	800,000	0,041	-0,084
-656,130	800,000	-0,026	0,078
-655,116	-64,989	0,074	-0,021
-654,101	-200,000	-0,005	-0,026
-653,086	109,400	-0,044	-0,038
-652,072	507,692	0,051	0,086
-651,057	526,582	-0,064	-0,109
-650,043	1,453	-0,093	-0,048
-649,028	-160,766	-0,061	0,002
-648,014	800,000	-0,029	0,090
-646,999	85,005	-0,046	0,037
-645,984	800,000	0,054	0,148
-644,970	17,976	-0,008	0,004
-643,955	13,680	-0,116	-0,065
-642,941	-111,671	-0,093	-0,014
-641,926	-200,000	0,017	0,086
-640,911	-200,000	-0,000	0,135
-639,897	170,951	-0,056	-0,058
-638,882	-200,000	0,030	0,109
-637,868	53,447	-0,109	0,076
-636,853	800,000	-0,021	0,056
-635,838	-200,000	0,014	-0,147
-634,824	-121,629	-0,213	-0,025
-633,809	283,223	-0,046	0,061
-632,795	-111,941	0,102	-0,015
-631,780	-86,399	0,052	0,012
-630,765	-200,000	-0,024	0,122
-629,751	-82,550	-0,101	-0,023
-628,736	355,674	-0,056	-0,081
-627,722	309,189	-0,043	-0,059
-626,707	192,949	0,029	-0,031
-625,692	-131,035	0,121	-0,011
-624,678	-200,000	0,012	0,057
-623,663	800,000	-0,010	0,027
-622,649	-196,358	-0,153	-0,001
-621,634	-74,045	-0,071	0,018
-620,619	-134,123	-0,116	-0,010
-619,605	-200,000	0,034	0,131
-618,590	205,378	0,086	-0,097
-617,576	-200,000	0,016	0,078
-616,561	518,481	-0,059	0,100
-615,546	-120,571	-0,155	0,019
-614,532	452,926	-0,032	-0,051
-613,517	-200,000	-0,004	-0,070
-612,503	-200,000	-0,004	0,061
-611,488	-0,492	-0,090	0,046
-610,474	-200,000	0,013	0,081
-609,459	-116,799	-0,059	0,008
-608,444	800,000	0,070	-0,141
-607,430	-36,741	-0,112	-0,043
-606,415	-146,059	0,096	-0,006
-605,401	-18,574	0,093	-0,042
-604,386	800,000	-0,063	0,135
-603,371	-147,098	0,129	0,008
-602,357	54,660	0,098	0,068
-601,342	291,205	0,041	-0,054
-600,328	-200,000	0,011	-0,134
-599,313	-137,647	-0,123	-0,010
-598,298	-200,000	0,001	-0,036
-597,284	-200,000	-0,002	0,099
-596,269	-19,637	0,033	-0,015
-595,255	-39,880	-0,099	0,037
-594,240	-69,421	0,046	0,013
-593,225	-200,000	-0,026	-0,206
-592,211	800,000	-0,030	-0,073
-591,196	-200,000	0,002	-0,012
-590,182	-196,766	0,144	0,001
-589,167	237,309	-0,082	0,098
-588,152	559,304	0,016	0,029
-587,138	800,000	-0,035	-0,107
-586,123	23,960	0,026	-0,016
-585,109	-140,601	-0,147	-0,011
-584,094	-93,578	0,016	0,003
-583,079	695,033	-0,028	0,053
-582,065	36,340	-0,022	-0,014
-581,050	-69,578	0,047	0,013
-580,036	53,526	-0,058	-0,040
-579,021	800,000	0,011	0,032
-578,006	789,190	-0,063	-0,125
-576,992	-200,000	-0,004	-0,102
-575,977	-18,253	-0,019	-0,009
-574,963	140,179	-0,048	-0,046
-573,948	-103,370	0,080	0,014
-572,934	-148,856	0,007	0,000
-571,919	235,826	-0,036	0,043
-570,904	-81,918	0,164	0,039
-569,890	-200,000	0,061	-0,264
-568,875	77,080	-0,068	-0,052
-567,861	-63,617	0,157	0,046
-566,846	264,497	-0,043	0,054
-565,831	55,353	-0,062	-0,043
-564,817	347,841	0,068	-0,097
-563,802	-200,000	0,018	-0,204
-562,788	74,340	-0,078	-0,059
-561,773	800,000	-0,025	0,069
-560,758	-200,000	-0,008	0,044
-559,744	-200,000	0,017	0,065
-558,729	550,179	0,056	-0,097
-557,715	454,447	0,065	-0,105
-556,700	294,188	-0,053	-0,070
-555,685	452,202	-0,068	-0,109
-554,671	-200,000	0,005	0,072
-553,656	-132,667	0,125	-0,011
-552,642	23,694	0,078	-0,046
-551,627	800,000	-0,004	-0,009
-550,612	114,049	-0,066	-0,058
-549,598	187,039	-0,033	-0,035
-548,583	465,964	-0,070	-0,114
-547,569	-160,089	0,086	-0,003
-546,554	-200,000	-0,004	0,059
-545,539	-65,987	0,088	0,025
-544,525	182,361	0,051	0,054
-543,510	92,914	-0,096	-0,078
-542,496	-57,897	-0,081	-0,025
-541,481	547,037	0,056	-0,097
-540,466	-200,000	0,009	0,058
-539,452	380,443	0,054	-0,081
-538,437	90,534	0,041	-0,033
-537,423	38,716	-0,030	-0,019
-536,408	176,058	0,039	-0,041
-535,393	-200,000	0,001	-0,014
-534,379	-68,543	-0,073	0,020
-533,364	589,986	0,064	0,114
-532,350	173,276	0,081	0,084
-531,335	-200,000	-0,021	0,151
-530,321	214,505	-0,093	0,106
-529,306	-200,000	-0,019	-0,101
-528,291	117,899	0,011	-0,010
-527,277	-200,000	0,048	-0,160
-526,262	-134,210	0,026	-0,002
-525,248	219,753	-0,033	0,038
-524,233	-104,792	-0,052	0,009
-523,218	31,775	0,026	-0,016
-522,204	-137,196	0,204	0,016
-521,189	215,128	0,004	0,004
-520,175	728,508	-0,040	-0,078
-519,160	298,262	-0,014	-0,018
-518,145	254,369	0,072	0,089
-517,131	-137,000	0,065	0,005
-516,116	-43,463	-0,034	-0,012
-515,102	658,937	-0,054	0,100
-514,087	390,826	-0,013	0,020
-513,072	-1,863	-0,039	0,019
-512,058	-43,817	0,109	0,039
-511,043	-108,027	-0,055	0,009
-510,029	-43,166	0,081	0,029
-509,014	800,000	0,029	0,059
-507,999	33,747	-0,090	0,056
-506,985	117,426	0,043	0,038
-505,970	176,358	-0,019	-0,020
-504,956	-85,602	-0,083	0,018
-503,941	-13,926	0,120	-0,055
-502,926	-200,000	-0,008	0,059
-501,912	-200,000	0,002	0,080
-500,897	-200,000	0,018	0,098
-499,883	-35,121	-0,138	0,054
-498,868	-200,000	-0,013	-0,164
-497,853	89,469	-0,067	0,054
-496,839	202,280	0,047	-0,052
-495,824	-200,000	0,006	0,264
-494,810	-200,000	0,005	-0,021
-493,795	125,821	-0,037	0,033
-492,781	254,781	-0,031	0,038
-491,766	134,966	-0,080	0,075
-490,751	205,915	0,153	-0,172
-489,737	386,724	-0,093	-0,139
-488,722	124,032	0,031	-0,028
-487,708	-112,934	0,052	-0,007
-486,693	-200,000	-0,015	-0,054
-485,678	-131,281	-0,076	0,007
-484,664	352,096	-0,036	0,052
-483,649	-200,000	0,001	-0,023
-482,635	100,882	-0,098	-0,082
-481,620	45,005	0,100	0,066
-480,605	150,812	-0,028	0,027
-479,591	-36,135	0,090	-0,035
-478,576	76,789	-0,029	0,022
-477,562	-53,110	-0,189	-0,062
-476,547	-200,000	0,026	-0,098
-475,532	-41,197	0,111	0,041
-474,518	-200,000	0,024	0,216
-473,503	-39,983	0,173	-0,065
-472,489	-76,943	0,042	0,011
-471,474	139,933	-0,115	0,109
-470,459	642,581	-0,037	-0,068
-469,445	83,629	-0,068	-0,054
-468,430	193,801	0,068	-0,074
-467,416	475,852	0,032	-0,053
-466,401	-200,000	0,019	-0,066
-465,386	-184,044	-0,022	-0,000
-464,372	-57,148	0,078	0,025
-463,357	-33,642	-0,014	-0,006
-462,343	-200,000	0,022	-0,136
-461,328	-200,000	-0,022	-0,124
-460,313	-29,474	0,055	0,022
-459,299	-200,000	0,004	-0,067
-458,284	-200,000	0,003	0,154
-457,270	800,000	0,022	-0,049
-456,255	52,819	-0,118	-0,081
-455,241	707,727	0,059	-0,112
-454,226	455,842	-0,040	-0,063
-453,211	-60,502	-0,135	-0,041
-452,197	57,350	-0,012	0,008
-451,182	103,271	0,084	0,071
-450,168	75,968	-0,096	0,073
-449,153	-200,000	-0,013	0,092
-448,138	222,493	-0,045	-0,052
-447,124	-43,711	-0,037	0,013
-446,109	-200,000	-0,069	0,226
-445,095	494,129	0,085	0,141
-444,080	-125,570	0,131	-0,014
-443,065	513,075	-0,013	0,023
-442,051	-200,000	-0,002	-0,051
-441,036	361,072	-0,013	-0,019
-440,022	350,880	0,043	-0,061
-439,007	-120,777	0,153	-0,018
-437,992	-36,640	-0,064	0,025
-436,978	-200,000	-0,014	0,074
-435,963	222,055	0,039	0,046
-434,949	159,336	0,108	-0,108
-433,934	800,000	0,012	-0,030
-432,919	-93,118	-0,051	-0,010
-431,905	800,000	0,029	-0,084
-430,890	418,309	0,020	0,031
-429,876	-99,185	0,078	0,014
-428,861	800,000	0,039	0,112
-427,846	-52,687	0,066	0,022
-426,832	-200,000	-0,009	-0,087
-425,817	-147,277	-0,097	0,006
-424,803	299,760	-0,085	-0,113
-423,788	-174,619	0,075	-0,001
-422,773	-200,000	-0,005	-0,065
-421,759	800,000	0,061	0,172
-420,744	-200,000	-0,009	0,030
-419,730	-109,328	0,129	0,019
-418,715	356,587	-0,010	-0,015
-417,701	800,000	-0,046	-0,093
-416,686	377,804	0,083	-0,123
-415,671	284,086	0,029	-0,038
-414,657	800,000	0,030	-0,078
-413,642	-200,000	-0,002	0,156
-412,628	-200,000	-0,019	-0,096
-411,613	800,000	0,032	-0,076
-410,598	-200,000	0,016	-0,075
-409,584	11,789	-0,112	0,061
-408,569	-200,000	0,019	0,254
-407,555	-81,706	-0,098	-0,023
-406,540	162,918	-0,102	-0,103
-405,525	-200,000	0,020	0,115
-404,511	82,270	0,046	0,036
-403,496	800,000	0,017	0,048
-402,482	-123,102	-0,021	0,002
-401,467	177,194	0,061	0,063
-400,452	140,937	0,043	0,041
-399,438	64,372	-0,034	-0,025
-398,423	-57,028	0,115	-0,036
-397,409	486,416	-0,104	0,171
-396,394	-101,179	0,040	0,007
-395,379	-119,239	-0,070	0,009
-394,365	234,872	0,038	-0,045
-393,350	207,454	0,034	-0,038
-392,336	338,425	0,016	0,023
-391,321	-83,435	0,108	-0,025
-390,306	-146,306	-0,032	-0,002
-389,292	-5,152	0,077	-0,038
-388,277	-120,287	-0,069	0,008
-387,263	-6,181	0,054	-0,026
-386,248	800,000	-0,024	0,066
-385,233	584,397	0,082	-0,146
-384,219	41,001	-0,026	-0,017
-383,204	800,000	0,029	0,068
-382,190	21,760	0,116	0,067
-381,175	144,260	-0,032	-0,031
-380,160	312,308	0,012	-0,016
-379,146	800,000	-0,061	0,129
-378,131	-200,000	0,028	0,151
-377,117	416,969	0,062	0,095
-376,102	-200,000	0,002	0,024
-375,088	604,537	-0,030	-0,054
-374,073	-200,000	-0,027	0,124
-373,058	-200,000	-0,008	0,101
-372,044	-104,224	0,080	0,013
-371,029	134,092	0,118	0,109
-370,015	-68,425	0,153	0,042
-369,000	-119,824	-0,167	-0,020
-367,985	-144,010	-0,106	-0,007
-366,971	-95,122	0,131	-0,025
-365,956	701,703	-0,064	0,121
-364,942	-47,864	0,025	0,009
-363,927	243,073	0,078	-0,094
-362,912	-200,000	-0,020	0,109
-361,898	-200,000	-0,014	-0,123
-360,883	-147,567	-0,078	-0,005
-359,869	-200,000	0,033	-0,135
-358,854	-200,000	0,018	-0,060
-357,839	-121,412	0,104	0,012
-356,825	-200,000	-0,032	-0,133
-355,810	91,428	0,036	0,029
-354,796	-58,370	-0,029	-0,009
-353,781	-47,229	-0,117	0,041
-352,766	800,000	-0,011	0,024
-351,752	-200,000	-0,025	0,112
-350,737	800,000	0,027	-0,072
-349,723	-80,032	-0,085	0,020
-348,708	-200,000	-0,007	0,150
-347,693	-200,000	-0,013	0,053
-346,679	228,000	-0,052	-0,060
-345,664	-200,000	-0,012	0,123
-344,650	800,000	-0,025	-0,066
-343,635	-95,232	-0,037	-0,007
-342,620	-25,890	-0,051	-0,021
-341,606	171,107	0,034	0,035
-340,591	-112,611	0,096	0,014
-339,577	-177,525	-0,097	-0,002
-338,562	63,486	-0,048	-0,035
-337,548	54,895	0,068	-0,047
-336,533	-200,000	-0,017	0,093
-335,518	43,422	0,066	-0,043
-334,504	-75,908	0,075	0,019
-333,489	-200,000	-0,012	0,074
-332,475	-12,844	0,023	-0,010
-331,460	160,484	0,109	-0,109
-330,445	-25,531	-0,051	0,021
-329,431	24,057	-0,129	0,076
-328,416	800,000	0,033	0,067
-327,402	800,000	0,035	0,075
-326,387	-128,226	-0,159	-0,016
-325,372	-200,000	0,002	0,046
-324,358	-200,000	-0,014	-0,113
-323,343	-18,660	-0,137	-0,061
-322,329	800,000	0,075	0,154
-321,314	-83,367	-0,081	0,019
-320,299	-200,000	-0,023	0,090
-319,285	-1,027	0,137	0,069
-318,270	800,000	-0,041	0,109
-317,256	-69,791	0,107	0,029
-316,241	354,014	0,099	-0,141
-315,226	800,000	0,038	-0,082
-314,212	-129,306	0,021	-0,002
-313,197	-42,780	0,108	-0,039
-312,183	800,000	-0,021	0,062
-311,168	640,709	0,089	-0,163
-310,153	6,439	-0,081	-0,043
-309,139	-200,000	0,011	0,058
-308,124	149,049	-0,043	-0,041
-307,110	-115,262	0,127	-0,017
-306,095	134,178	-0,092	0,085
-305,080	-81,443	-0,155	-0,036
-304,066	-103,810	-0,056	0,009
-303,051	-24,764	-0,065	-0,028
-302,037	800,000	0,045	-0,129
-301,022	-94,678	0,147	-0,028
-300,008	-141,313	0,119	0,009
-298,993	-200,000	0,016	0,112
-297,978	180,419	-0,066	0,070
-296,964	68,613	-0,039	0,029
-295,949	-200,000	-0,020	-0,222
-294,935	56,230	-0,069	-0,048
-293,920	3,872	-0,082	-0,043
-292,905	-93,257	0,172	0,034
-291,891	-200,000	-0,010	-0,063
-290,876	-26,808	0,026	-0,011
-289,862	-200,000	-0,005	-0,062
-288,847	341,962	0,022	0,030
-287,832	26,401	-0,163	-0,097
-286,818	800,000	0,046	-0,109
-285,803	173,058	-0,012	-0,012
-284,789	358,281	0,082	0,118
-283,774	34,648	0,048	-0,030
-282,759	199,864	-0,042	-0,046
-281,745	-64,464	-0,090	-0,026
-280,730	202,360	0,082	-0,090
-279,716	-200,000	0,007	-0,068
-278,701	800,000	-0,007	-0,014
-277,686	326,220	0,148	0,203
-276,672	-69,416	-0,047	0,013
-275,657	48,862	0,054	0,036
-274,643	355,859	-0,088	-0,125
-273,628	87,807	-0,092	-0,073
-272,613	800,000	-0,075	0,150
-271,599	-120,021	0,041	-0,005
-270,584	177,468	0,112	0,116
-269,570	800,000	0,059	-0,155
-268,555	-33,644	-0,176	-0,069
-267,540	398,204	-0,037	-0,056
-266,526	-10,082	-0,179	0,085
-265,511	128,755	-0,083	-0,075
-264,497	72,667	-0,062	-0,046
-263,482	422,374	-0,010	0,015
-262,467	52,184	0,098	0,067
-261,453	-88,454	-0,080	0,017
-260,438	800,000	0,020	-0,051
-259,424	71,038	0,183	-0,135
-258,409	-86,555	-0,181	-0,039
-257,395	14,869	-0,034	-0,019
-256,380	-200,000	-0,002	-0,105
-255,365	-87,322	0,142	-0,031
-254,351	319,506	-0,042	0,057
-253,336	-146,833	0,139	0,008
-252,322	137,710	0,109	-0,101
-251,307	-61,723	0,073	-0,022
-250,292	506,022	0,089	-0,147
-249,278	654,971	-0,029	-0,054
-248,263	-59,739	0,064	-0,019
-247,249	-110,419	0,134	-0,020
-246,234	-8,657	-0,022	-0,010
-245,219	182,685	-0,039	-0,041
-244,205	-200,000	0,002	0,010
-243,190	331,121	0,051	0,070
-242,176	-65,626	0,141	0,040
-241,161	18,483	0,057	0,032
-240,146	-79,963	-0,082	-0,019
-239,132	263,620	-0,109	0,135
-238,117	800,000	-0,009	0,025
-237,103	-200,000	0,020	0,083
-236,088	-200,000	-0,007	0,095
-235,073	59,286	-0,109	0,076
-234,059	-22,264	0,061	0,026
-233,044	800,000	-0,064	0,164
-232,030	529,575	-0,064	0,108
-231,015	18,711	-0,082	-0,047
-230,000	-40,288	0,080	-0,030
-228,986	-85,701	-0,071	0,016
-227,971	155,163	0,083	0,081
-226,957	575,481	0,052	0,091
-225,942	51,912	-0,161	0,109
-224,927	302,451	0,116	-0,154
-223,913	73,785	-0,140	-0,104
-222,898	800,000	-0,065	-0,149
-221,884	457,218	0,022	-0,036
-220,869	-200,000	-0,012	-0,064
-219,855	-200,000	-0,011	0,051
-218,840	-163,300	-0,025	-0,001
-217,825	-165,693	0,055	-0,002
-216,811	148,457	-0,082	0,079
-215,796	-200,000	-0,020	-0,080
-214,782	173,706	0,115	-0,119
-213,767	676,180	0,037	-0,069
-212,752	-200,000	0,010	0,069
-211,738	-200,000	-0,002	-0,017
-210,723	-102,972	0,085	-0,014
-209,709	-200,000	-0,046	-0,215
-208,694	-40,905	-0,016	-0,006
-207,679	107,706	0,156	0,133
-206,665	6,243	0,024	0,013
-205,650	-200,000	-0,002	-0,086
-204,636	462,490	-0,056	0,089
-203,621	-200,000	-0,016	0,180
-202,606	93,260	0,090	0,072
-201,592	-52,363	-0,057	-0,019
-200,577	194,050	-0,072	0,078
-199,563	-200,000	0,011	-0,135
-198,548	800,000	-0,012	0,028
-197,533	24,447	0,070	-0,041
-196,519	266,387	0,061	0,076
-195,504	-200,000	0,006	-0,129
-194,490	362,199	0,051	0,074
-193,475	-200,000	0,017	-0,087
-192,460	209,589	0,026	0,030
-191,446	-143,178	0,020	0,001
-190,431	800,000	0,075	0,178
-189,417	-116,252	0,044	0,006
-188,402	-61,015	-0,066	0,020
-187,387	-200,000	-0,003	-0,101
-186,373	-140,641	-0,120	-0,009
-185,358	800,000	-0,030	0,075
-184,344	800,000	-0,023	-0,068
-183,329	-72,555	0,073	-0,019
-182,315	-200,000	0,018	-0,063
-181,300	-27,748	-0,133	0,055
-180,285	-200,000	0,006	-0,142
-179,271	256,070	0,037	-0,046
-178,256	354,564	-0,021	0,029
-177,242	141,435	-0,044	0,041
-176,227	234,235	0,023	-0,026
-175,212	279,591	0,021	-0,026
-174,198	-200,000	0,022	0,079
-173,183	-198,646	0,073	0,000
-172,169	-200,000	-0,152	-0,000
-171,154	158,863	0,064	-0,063
-170,139	8,163	-0,136	0,072
-169,125	800,000	-0,040	-0,083
-168,110	37,133	0,101	0,063
-167,096	156,408	-0,094	0,092
-166,081	-116,917	-0,098	0,013
-165,066	43,748	0,049	0,032
-164,052	-57,838	-0,072	0,022
-163,037	-135,771	0,035	0,003
-162,023	-14,053	-0,151	0,069
-161,008	563,334	-0,051	0,088
-159,993	322,323	-0,009	-0,013
-158,979	-82,948	-0,076	-0,017
-157,964	800,000	-0,021	-0,051
-156,950	578,674	0,093	-0,162
-155,935	-67,832	0,091	0,025
-154,920	800,000	-0,025	0,077
-153,906	661,098	0,052	0,096
-152,891	382,249	0,061	0,090
-151,877	6,849	-0,123	0,065
-150,862	800,000	0,052	-0,117
-149,847	800,000	0,018	-0,042
-148,833	-200,000	-0,001	0,007
-147,818	-157,068	0,072	0,003
-146,804	-20,556	-0,025	0,011
-145,789	-20,355	-0,078	0,034
-144,775	800,000	-0,026	0,056
-143,760	-52,845	-0,128	-0,042
-142,745	104,857	0,032	-0,027
-141,731	603,030	-0,048	0,085
-140,716	395,314	-0,009	-0,014
-139,702	-200,000	-0,040	0,000
-138,687	-200,000	0,011	0,165
-137,672	-200,000	-0,003	-0,152
-136,658	-200,000	-0,003	-0,041
-135,643	-161,718	-0,073	0,003
-134,629	-200,000	-0,001	0,074
-133,614	-200,000	0,010	0,119
-132,599	-84,234	0,018	-0,004
-131,585	5,972	0,018	-0,009
-130,570	420,701	0,049	0,074
-129,556	395,905	-0,036	-0,054
-128,541	325,700	-0,048	-0,065
-127,526	97,780	-0,143	-0,117
-126,512	196,932	0,038	0,041
-125,497	103,711	0,069	0,057
-124,483	33,163	0,015	-0,009
-123,468	800,000	0,014	0,030
-122,453	406,238	-0,069	0,103
-121,439	94,944	-0,175	-0,141
-120,424	56,950	0,054	-0,037
-119,410	77,477	0,033	-0,025
-118,395	41,624	0,010	-0,006
-117,380	-200,000	-0,020	0,203
-116,366	-200,000	0,001	-0,062
-115,351	255,235	0,054	-0,065
-114,337	-54,621	0,026	0,008
-113,322	-200,000	0,013	0,095
-112,307	-75,106	-0,160	0,040
-111,293	-15,785	0,078	0,035
-110,278	210,261	0,076	0,085
-109,264	-140,685	-0,027	0,002
-108,249	34,081	0,127	-0,079
-107,234	9,761	0,055	0,029
-106,220	-23,873	-0,058	-0,024
-105,205	-66,393	0,024	0,007
-104,191	-16,078	0,009	-0,004
-103,176	800,000	0,046	0,107
-102,162	13,291	0,079	0,043
-101,147	434,602	-0,033	-0,052
-100,132	-66,966	-0,079	0,022
-99,118	162,169	-0,036	-0,035
-98,103	622,546	0,025	0,045
-97,089	-200,000	-0,006	-0,032
-96,074	-161,339	-0,067	-0,002
-95,059	-119,231	0,014	0,002
-94,045	3,062	0,119	0,061
-93,030	-130,759	0,107	0,010
-92,016	-116,415	-0,231	0,030
-91,001	-65,062	0,057	-0,016
-89,986	783,854	-0,015	-0,029
-88,972	4,913	0,089	0,046
-87,957	-186,748	-0,129	0,001
-86,943	800,000	-0,053	-0,119
-85,928	-191,705	-0,038	-0,000
-84,913	283,639	-0,042	-0,053
-83,899	329,452	0,008	-0,011
-82,884	800,000	-0,004	-0,007
-81,870	213,979	0,103	0,116
-80,855	448,294	0,056	0,088
-79,840	-200,000	-0,000	0,025
-78,826	800,000	-0,037	0,104
-77,811	800,000	-0,042	-0,131
-76,797	506,320	0,037	-0,060
-75,782	800,000	0,064	-0,140
-74,767	-55,502	0,061	0,019
-73,753	-37,958	0,183	-0,069
-72,738	253,874	0,092	-0,111
-71,724	800,000	0,048	0,109
-70,709	-200,000	-0,064	0,205
-69,694	-200,000	0,003	-0,048
-68,680	-200,000	0,002	-0,067
-67,665	15,013	0,164	0,091
-66,651	162,697	0,120	-0,119
-65,636	-200,000	0,036	0,131
-64,622	176,405	-0,095	0,098
-63,607	-200,000	0,002	-0,100
-62,592	-106,651	-0,021	-0,003
-61,578	244,910	-0,052	0,062
-60,563	-200,000	-0,005	0,074
-59,549	-200,000	0,003	-0,041
-58,534	-22,591	-1,584	-0,675
-57,519	291,482	-1,528	-1,974
-56,505	-200,000	-0,573	-4,659
-55,490	168,853	1,050	1,061
-54,476	800,000	4,903	11,542
-53,461	-200,000	18,856	307,618
-52,446	800,000	737,572	2305,076
-51,432	571,242	1653,958	2862,273
-50,417	79,054	1670,797	1265,613
-49,403	22,024	1543,627	889,147
-48,388	15,880	1466,533	814,878
-47,373	17,784	1456,441	818,440
-46,359	16,846	1446,725	808,448
-45,344	14,179	1441,819	792,902
-44,330	14,086	1439,997	791,422
-43,315	14,107	1438,198	790,504
-42,300	14,094	1436,653	789,561
-41,286	14,105	1435,459	788,927
-40,271	14,107	1433,886	788,041
-39,257	14,017	1432,835	787,002
-38,242	14,100	1431,760	786,775
-37,227	14,152	1430,263	786,170
-36,213	14,147	1429,037	785,441
-35,198	14,097	1428,077	784,647
-34,184	14,114	1427,044	784,127
-33,169	14,114	1425,631	783,320
-32,154	14,119	1424,585	782,736
-31,140	14,093	1423,403	781,936
-30,125	14,140	1422,361	781,553
-29,111	14,104	1421,097	780,654
-28,096	14,089	1420,167	780,043
-27,082	14,031	1418,975	779,084
-26,067	14,000	1417,997	778,370
-25,052	14,044	1416,777	777,877
-24,038	14,017	1415,833	777,203
-23,023	14,013	1414,736	776,548
-22,009	14,053	1413,774	776,179
-20,994	14,023	1412,834	775,490
-19,979	14,003	1412,075	774,950
-18,965	13,950	1411,245	774,215
-17,950	14,028	1410,130	773,939
-16,936	13,980	1409,345	773,251
-15,921	13,933	1408,155	772,348
-14,906	13,947	1407,348	771,941
-13,892	14,003	1406,217	771,550
-12,877	13,931	1405,460	770,767
-11,863	13,921	1404,604	770,222
-10,848	13,947	1403,692	769,814
-9,833	13,919	1402,728	769,122
-8,819	13,883	1402,019	768,534
-7,804	13,861	1400,980	767,835
-6,790	13,872	1399,984	767,306
-5,775	13,823	1398,960	766,488
-4,760	13,829	1398,010	765,965
-3,746	13,884	1397,013	765,643
-2,731	13,876	1396,256	765,160
-1,717	13,825	1395,581	764,525
-0,702	13,836	1393,588	763,453
0,313	17,681	1311,202	736,141
1,327	34,065	705,824	434,215
2,342	52,166	124,155	83,599
3,356	4,112	16,553	8,542
4,371	7,327	3,284	1,730
5,386	-30,743	0,550	0,219
6,400	800,000	0,087	0,216
7,415	-98,172	-0,301	-0,054
8,429	-19,738	-0,271	-0,118
9,444	81,984	-0,251	-0,192
10,459	75,826	-0,286	-0,213
11,473	147,066	-0,298	-0,283
12,488	123,605	-0,137	-0,122
13,502	57,625	-0,237	-0,163
14,517	-17,571	-0,445	-0,197
15,531	126,675	-0,335	-0,300
16,546	47,189	-0,355	-0,233
17,561	126,607	-0,372	-0,333
18,575	99,572	-0,222	-0,181
19,590	272,526	-0,254	-0,317
20,604	50,915	-0,137	-0,092
21,619	235,181	-0,356	-0,416
22,634	100,485	-0,463	-0,379
23,648	142,624	-0,383	-0,359
24,663	44,339	-0,380	-0,246
25,677	81,260	-0,401	-0,306
26,692	67,569	-0,230	-0,166
27,707	-3,254	-0,413	-0,202
28,721	-25,678	-0,317	-0,132
29,736	109,083	-0,334	-0,282
30,750	68,576	-0,460	-0,332
31,765	107,207	-0,342	-0,287
32,780	179,508	-0,252	-0,260
33,794	60,051	-0,370	-0,257
34,809	27,061	-0,472	-0,279
35,823	183,569	-0,301	-0,314
36,838	237,542	-0,241	-0,282
37,853	-57,392	-0,427	-0,131
38,867	111,426	-0,429	-0,365
39,882	144,274	-0,254	-0,239
40,896	44,436	-0,286	-0,185
41,911	25,519	-0,399	-0,233
42,926	27,853	-0,361	-0,214
43,940	146,843	-0,276	-0,261
44,955	158,569	-0,353	-0,345
45,969	47,908	-0,334	-0,219
46,984	-23,384	-0,317	-0,134
47,999	177,410	-0,279	-0,287
49,013	-63,631	-0,415	-0,119
50,028	14,824	-0,309	-0,170
51,042	178,843	-0,275	-0,284
52,057	41,061	-0,463	-0,294
53,071	305,403	-0,216	-0,284
54,086	27,826	-0,431	-0,255
55,101	34,891	-0,341	-0,210
56,115	-6,459	-0,253	-0,121
57,130	106,784	-0,352	-0,294
58,144	44,720	-0,270	-0,175
59,159	128,642	-0,304	-0,273
60,174	68,171	-0,444	-0,320
61,188	41,264	-0,404	-0,257
62,203	-35,172	-0,378	-0,144
63,217	83,118	-0,285	-0,218
64,232	-63,354	-0,279	-0,080
65,247	-35,544	-0,429	-0,163
66,261	151,102	-0,317	-0,303
67,276	-73,354	-0,377	-0,096
68,290	41,239	-0,374	-0,237
69,305	-61,052	-0,387	-0,114
70,320	204,590	-0,272	-0,297
71,334	-63,202	-0,186	-0,054
72,349	78,967	-0,290	-0,218
73,363	-2,932	-0,417	-0,204
74,378	24,258	-0,237	-0,137
75,393	84,832	-0,333	-0,256
76,407	14,955	-0,276	-0,151
77,422	98,588	-0,296	-0,240
78,436	-125,517	-0,277	-0,029
79,451	-140,638	-0,369	-0,026
80,466	165,257	-0,357	-0,355
81,480	100,254	-0,329	-0,268
82,495	77,379	-0,295	-0,221
83,509	64,264	-0,237	-0,168
84,524	-158,109	-0,164	-0,007
85,539	-42,480	-0,293	-0,104
86,553	103,586	-0,226	-0,186
87,568	-23,779	-0,353	-0,148
88,582	44,701	-0,281	-0,181
89,597	-12,758	-0,335	-0,153
90,611	-7,231	-0,274	-0,130
91,626	111,361	-0,240	-0,203
92,641	-5,372	-0,230	-0,111
93,655	-43,103	-0,304	-0,107
94,670	-129,710	-0,291	-0,028
95,684	41,346	-0,432	-0,274
96,699	21,566	-0,437	-0,249
97,714	-101,611	-0,319	-0,054
98,728	12,387	-0,207	-0,112
99,743	-65,089	-0,414	-0,116
100,757	-25,910	-0,311	-0,128
101,772	54,816	-0,252	-0,170
102,787	327,432	-0,272	-0,366
103,801	800,000	-0,157	-0,339
104,816	102,525	-0,259	-0,213
105,830	42,922	-0,270	-0,172
106,845	227,571	-0,148	-0,169
107,860	110,113	-0,331	-0,279
108,874	3,267	-0,207	-0,105
109,889	98,554	-0,285	-0,230
110,903	-124,191	-0,149	0,016
111,918	78,335	-0,200	-0,150
112,933	91,638	-0,329	-0,259
113,947	177,087	-0,250	-0,255
114,962	109,168	-0,195	-0,164
115,976	18,500	-0,288	-0,161
116,991	-49,964	-0,243	-0,080
118,006	247,707	-0,353	-0,419
119,020	131,786	-0,224	-0,202
120,035	142,642	-0,138	-0,128
121,049	-152,813	-0,222	-0,011
122,064	137,539	-0,217	-0,199
123,079	271,216	-0,181	-0,224
124,093	563,788	-0,217	-0,369
125,108	245,918	-0,274	-0,324
126,122	-76,858	-0,300	-0,073
127,137	14,401	-0,085	-0,046
128,151	68,563	-0,179	-0,129
129,166	299,279	-0,125	-0,162
130,181	321,279	-0,213	-0,285
131,195	294,994	-0,174	-0,223
132,210	159,983	-0,339	-0,331
133,224	48,010	-0,293	-0,191
134,239	527,991	-0,129	-0,214
135,254	-68,040	-0,304	-0,082
136,268	37,767	-0,337	-0,209
137,283	354,224	-0,232	-0,323
138,297	89,234	-0,321	-0,250
139,312	79,639	-0,273	-0,204
140,327	129,211	-0,261	-0,233
141,341	364,323	-0,200	-0,282
142,356	-86,864	-0,230	-0,049
143,370	336,962	-0,110	-0,150
144,385	745,092	-0,114	-0,216
145,400	-133,067	-0,313	-0,027
146,414	-39,542	-0,281	-0,102
147,429	12,433	-0,277	-0,149
148,443	93,883	-0,226	-0,179
149,458	800,000	-0,060	-0,130
150,473	800,000	-0,075	-0,190
151,487	-60,381	-0,286	-0,084
152,502	240,722	-0,175	-0,204
153,516	800,000	-0,190	-0,372
154,531	52,702	-0,368	-0,245
155,546	2,055	-0,224	-0,113
156,560	261,169	-0,147	-0,178
157,575	292,564	-0,097	-0,123
158,589	-76,118	-0,317	-0,078
159,604	93,170	-0,226	-0,178
160,619	197,067	-0,225	-0,240
161,633	-70,070	-0,232	-0,061
162,648	-109,356	-0,247	-0,036
163,662	56,462	-0,158	-0,107
164,677	749,236	-0,130	-0,246
165,692	325,818	-0,149	-0,200
166,706	108,150	-0,241	-0,201
167,721	237,908	-0,104	-0,120
168,735	-66,129	-0,385	-0,106
169,750	76,321	-0,319	-0,235
170,764	285,325	-0,109	-0,137
171,779	-82,533	-0,234	-0,052
172,794	7,358	-0,279	-0,145
173,808	-12,490	-0,122	-0,055
174,823	166,138	-0,236	-0,233
175,837	112,274	-0,264	-0,223
176,852	-122,637	-0,192	-0,021
177,867	24,818	-0,258	-0,148
178,881	53,291	-0,204	-0,136
179,896	193,685	-0,177	-0,187
180,910	241,529	-0,227	-0,265
181,925	423,688	-0,118	-0,177
182,940	506,700	-0,259	-0,420
183,954	716,828	-0,120	-0,223
184,969	287,106	-0,170	-0,214
185,983	317,660	-0,122	-0,161
186,998	456,330	-0,157	-0,243
188,013	402,358	-0,143	-0,210
189,027	46,251	-0,299	-0,193
190,042	348,199	-0,221	-0,305
191,056	653,831	-0,084	-0,150
192,071	37,448	-0,187	-0,115
193,086	190,259	-0,215	-0,225
194,100	142,663	-0,147	-0,136
195,115	150,955	-0,237	-0,224
196,129	-175,809	-0,234	-0,004
197,144	410,037	-0,166	-0,246
198,159	473,072	-0,182	-0,287
199,173	731,161	-0,123	-0,230
200,188	99,171	-0,156	-0,125
201,202	34,650	-0,189	-0,115
202,217	14,665	-0,242	-0,131
203,232	277,258	-0,224	-0,278
204,246	54,798	-0,262	-0,176
205,261	62,438	-0,225	-0,156
206,275	159,789	-0,195	-0,189
207,290	140,988	-0,142	-0,131
208,304	4,336	-0,133	-0,067
209,319	39,343	-0,301	-0,187
210,334	200,095	-0,112	-0,119
211,348	35,277	-0,158	-0,096
212,363	75,533	-0,248	-0,182
213,377	169,262	-0,277	-0,274
214,392	220,443	-0,148	-0,165
215,407	5,991	-0,148	-0,076
216,421	461,758	-0,084	-0,130
217,436	142,702	-0,205	-0,189
218,450	134,767	-0,259	-0,233
219,465	74,711	-0,380	-0,277
220,480	115,765	-0,172	-0,146
221,494	-20,200	-0,208	-0,089
222,509	321,198	-0,113	-0,150
223,523	-200,000	-0,022	-0,149
224,538	-95,431	-0,285	-0,053
225,553	-77,385	-0,149	-0,036
226,567	143,502	-0,176	-0,163
227,582	800,000	-0,095	-0,215
228,596	1,194	-0,155	-0,077
229,611	-200,000	-0,045	-0,203
230,626	800,000	-0,080	-0,188
231,640	244,131	-0,208	-0,243
232,655	224,442	-0,204	-0,229
233,669	-59,904	-0,246	-0,072
234,684	-25,312	-0,193	-0,079
235,699	505,068	-0,092	-0,149
236,713	413,017	-0,106	-0,157
237,728	162,893	-0,173	-0,168
238,742	138,481	-0,190	-0,173
239,757	800,000	-0,063	-0,153
240,772	93,794	-0,230	-0,180
241,786	433,270	-0,158	-0,239
242,801	547,296	-0,063	-0,104
243,815	255,031	-0,155	-0,185
244,830	800,000	-0,090	-0,245
245,844	-124,153	-0,385	-0,041
246,859	27,578	-0,196	-0,114
247,874	509,423	-0,136	-0,220
248,888	-22,305	-0,204	-0,085
249,903	390,276	-0,072	-0,104
250,917	353,843	-0,186	-0,256
251,932	102,374	-0,135	-0,109
252,947	68,151	-0,168	-0,119
253,961	800,000	-0,121	-0,240
254,976	86,203	-0,152	-0,115
255,990	360,466	-0,137	-0,190
257,005	69,216	-0,089	0,064
258,020	293,213	-0,080	-0,102
259,034	-125,867	-0,257	-0,026
260,049	10,926	-0,171	-0,090
261,063	800,000	-0,145	-0,306
262,078	59,467	-0,145	-0,098
263,093	800,000	-0,155	-0,348
264,107	392,685	-0,151	-0,218
265,122	40,692	-0,224	-0,139
266,136	79,016	-0,165	-0,122
267,151	21,365	-0,194	-0,109
268,166	8,404	-0,202	-0,105
269,180	-50,020	-0,143	-0,047
270,195	162,002	-0,159	-0,154
271,209	160,084	-0,153	-0,148
272,224	255,291	-0,128	-0,152
273,239	509,872	-0,127	-0,204
274,253	584,704	0,033	-0,055
275,268	435,434	-0,156	-0,236
276,282	-11,297	-0,191	-0,086
277,297	26,731	-0,315	-0,182
278,312	35,816	-0,125	-0,076
279,326	800,000	-0,107	-0,240
280,341	446,295	-0,130	-0,198
281,355	138,877	-0,106	-0,096
282,370	86,112	-0,150	-0,114
283,384	387,389	-0,189	-0,271
284,399	312,938	-0,131	-0,171
285,414	107,582	-0,147	-0,120
286,428	3,723	-0,230	-0,116
287,443	85,132	-0,123	-0,093
288,457	108,841	-0,126	-0,104
289,472	-9,748	-0,199	-0,091
290,487	800,000	-0,096	-0,228
291,501	460,694	-0,074	-0,114
292,516	607,925	-0,089	-0,154
293,530	-200,000	-0,047	-0,156
294,545	214,586	-0,134	-0,146
295,560	70,399	-0,185	-0,132
296,574	-108,202	-0,006	-0,001
297,589	15,439	-0,191	-0,103
298,603	-102,973	-0,162	-0,026
299,618	-200,000	0,006	-0,146
300,633	291,318	-0,110	-0,138
301,647	138,461	-0,135	-0,122
302,662	800,000	-0,081	-0,165
303,676	427,297	-0,060	-0,089
304,691	-9,597	-0,173	-0,079
305,706	-87,046	-0,193	-0,040
306,720	64,152	-0,258	-0,179
307,735	325,421	-0,122	-0,161
308,749	-33,433	-0,111	-0,042
309,764	317,699	-0,145	-0,189
310,779	-27,554	-0,190	-0,076
311,793	21,761	-0,222	-0,124
312,808	800,000	-0,136	-0,278
313,822	67,263	-0,056	-0,039
314,837	378,252	-0,131	-0,185
315,852	800,000	-0,055	-0,162
316,866	110,429	-0,050	-0,041
317,881	-86,679	-0,189	0,039
318,895	150,432	-0,230	-0,215
319,910	199,752	-0,172	-0,182
320,925	90,350	-0,149	-0,115
321,939	-200,000	-0,041	-0,166
322,954	720,252	-0,089	-0,164
323,968	800,000	-0,035	0,087
324,983	78,140	-0,107	-0,078
325,997	-34,034	-0,191	-0,072
327,012	3,857	-0,097	-0,049
328,027	133,479	-0,139	-0,124
329,041	76,042	-0,068	-0,049
330,056	-200,000	-0,039	-0,132
331,070	146,658	-0,064	-0,059
332,085	126,636	-0,134	-0,117
333,100	-43,738	-0,190	-0,066
334,114	-200,000	-0,021	-0,074
335,129	557,312	-0,088	-0,147
336,143	127,873	-0,071	-0,062
337,158	800,000	-0,081	-0,180
338,173	800,000	-0,049	-0,116
339,187	41,383	-0,111	-0,069
340,202	31,924	-0,143	-0,084
341,216	105,525	-0,076	-0,062
342,231	-116,209	-0,171	0,022
343,246	33,371	-0,231	-0,137
344,260	460,133	-0,072	-0,111
345,275	-1,405	-0,138	-0,067
346,289	148,170	-0,097	-0,090
347,304	62,404	-0,096	0,065
348,319	-200,000	-0,039	-0,198
349,333	727,610	-0,069	-0,126
350,348	190,662	-0,076	-0,079
351,362	38,644	-0,167	-0,102
352,377	41,022	-0,011	-0,007
353,392	800,000	-0,063	-0,133
354,406	-13,049	-0,171	-0,076
355,421	210,989	1314,226	1419,176
356,435	162,444	1474,909	1419,671
