DTS Sentinel unit serial number:	SN410029Multiplexer serial number:	ORYXHardware model number:	OX2-SRSoftware version number:	ORYX F/W v4,00 Oryx Data Collector v3.7.2.0data status	okinstallation	B3 Nyhavnadifferential loss correction	single-endedforward channel	channel 1reverse channel	N/Adate	2023/12/03time	23:37:30forward acquisition time	300,00reverse acquisition time	0,00gamma	499,1914k internal	0,3202k external	0,3202temperature offset calibration	1,0000default loss term (dB/km)	0,3820temperature slope calibration	1,0000multiplexer offset coefficient	1,0000multiplexer slope coefficient	1,0000fibre end	0,00T internal ref (°C)	12,87T ext. ref 1 (°C)	-2,41T ext. ref 2 (°C)	-2,43length (m)	temperature (°C)	Stokes	anti-Stokes-744,400	430,222	-0,160	-0,252
-743,385	-200,000	0,054	0,383
-742,371	22,914	-0,184	-0,110
-741,356	-200,000	-0,024	0,325
-740,342	284,721	-0,119	-0,156
-739,327	-200,000	-0,073	0,356
-738,312	105,351	-0,177	-0,152
-737,298	-200,000	0,040	0,149
-736,283	81,506	-0,314	-0,247
-735,269	800,000	0,091	0,259
-734,254	800,000	-0,121	-0,298
-733,239	69,160	-0,226	0,169
-732,225	606,065	-0,113	-0,205
-731,210	-200,000	-0,006	0,092
-730,196	40,012	0,112	-0,073
-729,181	174,219	-0,097	-0,102
-728,167	94,078	0,089	-0,073
-727,152	67,429	-0,135	-0,100
-726,137	-200,000	-0,002	0,013
-725,123	-29,241	-0,032	0,013
-724,108	-200,000	0,043	-0,187
-723,094	800,000	-0,064	-0,154
-722,079	95,943	0,061	-0,050
-721,064	50,517	0,083	0,057
-720,050	226,541	0,037	0,044
-719,035	5,436	-0,013	-0,007
-718,021	-139,478	-0,182	-0,014
-717,006	63,684	-0,157	-0,115
-715,991	-200,000	-0,010	-0,065
-714,977	127,673	-0,049	-0,045
-713,962	-200,000	-0,010	-0,076
-712,948	-57,580	-0,072	0,023
-711,933	35,852	0,067	0,043
-710,918	-30,806	-0,188	0,077
-709,904	-57,395	-0,092	-0,029
-708,889	61,404	0,082	-0,059
-707,875	386,970	-0,077	-0,116
-706,860	800,000	-0,007	-0,015
-705,845	95,844	-0,063	-0,052
-704,831	-200,000	-0,007	-0,023
-703,816	250,316	0,031	-0,039
-702,802	-89,857	0,048	0,010
-701,787	-125,527	-0,026	0,003
-700,772	-200,000	0,015	-0,104
-699,758	-54,147	-0,153	-0,050
-698,743	240,297	0,072	-0,088
-697,729	800,000	-0,044	0,096
-696,714	-200,000	-0,025	0,168
-695,699	523,582	-0,052	0,089
-694,685	-80,190	0,102	0,025
-693,670	99,897	-0,014	0,012
-692,656	34,970	-0,027	-0,017
-691,641	-17,728	-0,158	0,072
-690,627	-124,674	0,079	0,009
-689,612	89,394	0,085	0,068
-688,597	800,000	-0,016	-0,037
-687,583	178,917	-0,045	0,048
-686,568	177,242	0,015	0,016
-685,554	-200,000	0,027	-0,134
-684,539	41,634	0,102	-0,067
-683,524	-200,000	0,020	-0,144
-682,510	321,922	0,063	0,087
-681,495	129,516	-0,037	-0,034
-680,481	307,206	-0,057	0,077
-679,466	670,803	-0,065	-0,123
-678,451	-95,985	-0,055	-0,011
-677,437	137,676	0,028	0,027
-676,422	-65,605	-0,047	0,013
-675,408	412,806	-0,037	-0,058
-674,393	116,775	-0,096	-0,086
-673,378	-200,000	-0,022	-0,092
-672,364	-64,188	-0,040	0,012
-671,349	-50,229	-0,100	-0,034
-670,335	-200,000	0,012	0,105
-669,320	18,334	0,123	-0,071
-668,305	-74,664	-0,029	-0,008
-667,291	-200,000	0,038	-0,126
-666,276	800,000	-0,055	-0,121
-665,262	-200,000	-0,012	-0,181
-664,247	-200,000	0,025	-0,150
-663,232	800,000	0,055	-0,133
-662,218	554,358	-0,057	-0,099
-661,203	202,292	0,041	-0,046
-660,189	-200,000	-0,086	-0,000
-659,174	-200,000	0,010	-0,063
-658,159	800,000	0,026	-0,054
-657,145	657,638	-0,039	-0,074
-656,130	800,000	-0,030	0,088
-655,116	571,201	0,060	0,106
-654,101	-36,087	0,064	-0,025
-653,086	-200,000	0,005	0,104
-652,072	800,000	0,045	-0,115
-651,057	39,422	-0,032	-0,020
-650,043	49,312	-0,113	0,077
-649,028	105,684	0,057	-0,049
-648,014	246,782	0,136	-0,167
-646,999	800,000	0,024	-0,055
-645,984	-84,406	-0,057	0,013
-644,970	321,458	-0,034	-0,047
-643,955	-200,000	0,011	0,067
-642,941	-2,006	-0,083	-0,042
-641,926	82,582	-0,045	0,035
-640,911	386,535	0,066	-0,099
-639,897	-4,341	0,047	-0,024
-638,882	800,000	-0,051	0,125
-637,868	84,890	0,034	-0,027
-636,853	45,925	-0,041	-0,027
-635,838	800,000	-0,024	-0,050
-634,824	5,342	-0,151	0,080
-633,809	-89,273	0,217	0,046
-632,795	800,000	0,031	0,099
-631,780	-31,262	-0,098	-0,040
-630,765	118,922	0,065	0,058
-629,751	-1,300	-0,087	-0,044
-628,736	-6,797	0,118	-0,058
-627,722	31,007	0,035	0,022
-626,707	-200,000	-0,012	0,060
-625,692	152,168	0,035	-0,035
-624,678	-200,000	-0,015	-0,086
-623,663	165,025	-0,108	0,111
-622,649	-200,000	-0,009	-0,050
-621,634	63,214	-0,043	-0,031
-620,619	-41,940	-0,083	-0,030
-619,605	-170,141	0,104	-0,003
-618,590	-200,000	-0,016	-0,077
-617,576	214,186	0,048	0,055
-616,561	232,173	-0,089	0,106
-615,546	170,092	-0,021	-0,022
-614,532	62,622	0,029	0,021
-613,517	-200,000	-0,008	-0,040
-612,503	672,977	-0,020	0,037
-611,488	262,670	-0,061	0,076
-610,474	-200,000	-0,004	0,034
-609,459	-13,151	0,096	0,045
-608,444	-200,000	0,005	-0,095
-607,430	45,926	-0,090	0,060
-606,415	168,530	-0,118	-0,121
-605,401	-200,000	0,007	-0,058
-604,386	-200,000	0,049	0,174
-603,371	-200,000	0,010	0,046
-602,357	64,859	-0,085	0,062
-601,342	-200,000	-0,001	0,105
-600,328	-24,495	-0,107	0,046
-599,313	29,120	-0,008	-0,005
-598,298	-127,371	-0,041	0,004
-597,284	800,000	0,021	-0,049
-596,269	106,068	-0,040	0,034
-595,255	-200,000	0,013	0,134
-594,240	-200,000	-0,004	-0,097
-593,225	659,174	-0,050	-0,093
-592,211	-200,000	-0,022	-0,097
-591,196	800,000	-0,030	0,085
-590,182	750,942	-0,024	-0,047
-589,167	690,194	-0,017	-0,033
-588,152	-200,000	-0,011	-0,060
-587,138	-200,000	-0,016	-0,059
-586,123	-79,804	-0,188	-0,045
-585,109	-140,996	0,072	0,005
-584,094	-200,000	-0,002	-0,007
-583,079	-200,000	-0,013	-0,070
-582,065	64,765	0,128	0,094
-581,050	800,000	0,069	0,191
-580,036	39,594	-0,089	0,057
-579,021	80,209	0,127	-0,099
-578,006	-200,000	-0,005	-0,164
-576,992	-124,179	-0,131	0,015
-575,977	-170,321	0,034	0,001
-574,963	36,015	0,006	-0,004
-573,948	158,847	-0,045	0,046
-572,934	-142,764	0,056	0,004
-571,919	-200,000	0,013	0,090
-570,904	-10,361	-0,136	0,065
-569,890	108,446	0,005	-0,004
-568,875	133,363	-0,088	-0,082
-567,861	-200,000	0,014	0,061
-566,846	264,527	-0,044	0,055
-565,831	800,000	-0,033	0,106
-564,817	-18,495	-0,203	-0,091
-563,802	342,571	-0,044	-0,062
-562,788	-42,908	0,083	-0,030
-561,773	208,213	-0,013	-0,015
-560,758	800,000	-0,067	-0,158
-559,744	142,924	0,068	0,066
-558,729	-92,369	0,070	-0,014
-557,715	29,046	-0,146	0,089
-556,700	666,296	-0,043	-0,081
-555,685	115,965	-0,060	-0,053
-554,671	-200,000	-0,025	-0,112
-553,656	-88,253	0,028	0,006
-552,642	135,145	0,056	0,053
-551,627	81,134	0,111	-0,086
-550,612	-42,464	0,092	0,034
-549,598	306,443	-0,099	-0,133
-548,583	-125,689	0,084	0,009
-547,569	-200,000	0,005	0,048
-546,554	393,790	-0,054	-0,082
-545,539	-126,578	0,023	0,002
-544,525	232,437	0,063	-0,074
-543,510	-49,289	-0,088	-0,030
-542,496	-200,000	0,012	0,119
-541,481	-200,000	-0,029	-0,189
-540,466	514,812	-0,081	-0,137
-539,452	-136,132	0,105	-0,009
-538,437	163,922	0,071	0,073
-537,423	148,909	-0,031	-0,030
-536,408	800,000	0,046	-0,106
-535,393	538,466	0,016	-0,028
-534,379	12,462	-0,093	0,051
-533,364	47,511	0,121	-0,081
-532,350	268,463	0,007	0,009
-531,335	-72,807	0,111	-0,029
-530,321	76,542	-0,091	-0,069
-529,306	800,000	-0,036	0,081
-528,291	-97,003	-0,157	0,029
-527,277	-200,000	-0,002	-0,142
-526,262	275,279	-0,064	0,083
-525,248	800,000	-0,010	0,023
-524,233	-120,359	-0,082	0,010
-523,218	-138,966	-0,093	-0,007
-522,204	-64,680	-0,077	0,022
-521,189	354,039	-0,044	-0,063
-520,175	151,052	0,033	-0,033
-519,160	-41,521	0,088	0,032
-518,145	-66,091	0,115	0,033
-517,131	713,758	-0,044	0,085
-516,116	135,681	-0,206	0,193
-515,102	-200,000	0,001	0,028
-514,087	800,000	0,032	0,071
-513,072	-114,497	-0,112	-0,015
-512,058	604,220	0,085	0,153
-511,043	329,837	-0,053	0,074
-510,029	-200,000	0,002	-0,183
-509,014	675,993	0,114	0,215
-507,999	-99,173	0,020	0,004
-506,985	800,000	0,022	-0,045
-505,970	37,381	-0,060	0,038
-504,956	162,073	-0,065	-0,066
-503,941	80,055	0,064	-0,049
-502,926	800,000	-0,017	-0,047
-501,912	236,843	0,107	0,128
-500,897	-67,083	0,080	-0,022
-499,883	198,639	0,047	-0,052
-498,868	21,342	-0,036	-0,021
-497,853	118,977	-0,046	0,041
-496,839	-200,000	-0,002	-0,126
-495,824	-48,370	0,079	0,027
-494,810	559,733	0,051	0,088
-493,795	46,652	0,023	-0,016
-492,781	-99,885	-0,056	-0,010
-491,766	800,000	-0,028	0,086
-490,751	-200,000	0,003	-0,173
-489,737	-116,277	-0,017	0,002
-488,722	800,000	0,017	-0,039
-487,708	-200,000	0,031	-0,115
-486,693	-18,226	-0,054	-0,024
-485,678	472,353	-0,053	-0,087
-484,664	-74,013	0,032	-0,008
-483,649	126,003	0,056	-0,051
-482,635	11,277	0,126	0,069
-481,620	-116,843	0,090	0,012
-480,605	-116,125	0,044	0,006
-479,591	29,705	0,233	-0,142
-478,576	321,870	-0,057	0,079
-477,562	9,199	-0,076	-0,041
-476,547	-200,000	0,016	-0,200
-475,532	-51,607	0,040	-0,013
-474,518	347,877	0,044	0,063
-473,503	-127,272	0,092	-0,010
-472,489	-200,000	0,106	-0,000
-471,474	-200,000	0,021	-0,158
-470,459	-46,447	-0,061	0,021
-469,445	299,157	-0,042	0,056
-468,430	-200,000	0,013	-0,077
-467,416	709,142	-0,037	0,070
-466,401	-106,299	-0,132	-0,021
-465,386	418,247	0,048	0,074
-464,372	-200,000	-0,014	0,107
-463,357	-103,174	-0,011	0,002
-462,343	32,247	0,058	-0,036
-461,328	283,411	-0,047	-0,060
-460,313	-200,000	-0,015	0,056
-459,299	383,853	-0,107	0,159
-458,284	800,000	-0,012	0,033
-457,270	369,590	0,022	0,032
-456,255	-20,593	-0,082	-0,036
-455,241	19,816	-0,116	-0,067
-454,226	-200,000	0,006	-0,179
-453,211	466,172	-0,042	0,068
-452,197	100,579	0,133	0,111
-451,182	-200,000	-0,006	0,122
-450,168	508,224	0,015	0,025
-449,153	800,000	-0,009	0,020
-448,138	-111,838	-0,134	0,019
-447,124	754,105	-0,070	0,137
-446,109	288,936	0,091	0,119
-445,095	-96,074	-0,161	0,031
-444,080	27,979	-0,032	0,020
-443,065	-200,000	-0,023	-0,119
-442,051	89,289	-0,057	0,046
-441,036	-133,051	-0,054	-0,005
-440,022	-51,664	-0,090	0,030
-439,007	-15,074	0,098	-0,045
-437,992	328,729	-0,089	0,123
-436,978	-22,600	0,134	0,058
-435,963	800,000	-0,007	-0,018
-434,949	78,466	-0,063	0,048
-433,934	114,774	0,055	-0,048
-432,919	224,622	-0,098	-0,114
-431,905	164,722	0,054	-0,055
-430,890	286,504	0,074	-0,096
-429,876	800,000	-0,027	0,078
-428,861	-200,000	-0,008	-0,055
-427,846	-146,903	0,039	0,002
-426,832	106,214	0,021	0,018
-425,817	-120,858	-0,089	-0,011
-424,803	800,000	-0,019	0,059
-423,788	115,757	0,107	0,094
-422,773	114,833	0,087	-0,076
-421,759	-200,000	0,017	0,073
-420,744	112,501	0,090	0,078
-419,730	800,000	-0,046	0,141
-418,715	19,874	-0,140	-0,081
-417,701	318,705	0,110	-0,149
-416,686	-58,924	0,143	0,044
-415,671	608,815	0,035	0,063
-414,657	-9,340	0,112	0,054
-413,642	-200,000	-0,052	0,000
-412,628	-61,436	-0,047	-0,014
-411,613	113,106	-0,080	-0,069
-410,598	87,612	-0,122	-0,097
-409,584	800,000	0,036	0,096
-408,569	-152,726	0,084	0,004
-407,555	800,000	0,034	0,090
-406,540	800,000	0,013	0,032
-405,525	154,176	0,045	0,044
-404,511	-48,150	-0,213	-0,073
-403,496	80,880	-0,110	-0,085
-402,482	98,750	0,085	0,070
-401,467	271,709	0,049	0,062
-400,452	800,000	-0,007	0,016
-399,438	-200,000	-0,020	0,086
-398,423	88,635	-0,144	0,115
-397,409	-130,993	0,032	-0,003
-396,394	-170,193	0,092	-0,002
-395,379	395,172	0,126	-0,190
-394,365	-24,604	-0,108	-0,046
-393,350	-43,345	0,174	0,063
-392,336	167,947	0,052	-0,053
-391,321	800,000	0,041	-0,091
-390,306	800,000	-0,075	-0,226
-389,292	-200,000	-0,001	-0,149
-388,277	120,388	0,048	-0,043
-387,263	159,088	-0,054	0,054
-386,248	455,830	0,070	-0,111
-385,233	2,111	-0,072	0,037
-384,219	306,389	0,110	0,148
-383,204	-2,095	-0,093	-0,047
-382,190	341,297	-0,039	-0,055
-381,175	-200,000	0,005	-0,055
-380,160	14,978	0,027	-0,015
-379,146	-200,000	0,005	-0,032
-378,131	267,303	-0,017	0,022
-377,117	261,140	0,037	-0,046
-376,102	-104,982	0,022	0,004
-375,088	92,211	-0,118	0,095
-374,073	225,490	-0,020	-0,023
-373,058	1,999	-0,046	-0,024
-372,044	-200,000	0,015	0,126
-371,029	-152,566	-0,186	0,009
-370,015	-140,805	0,159	-0,012
-369,000	369,297	-0,051	0,074
-367,985	-200,000	-0,018	-0,157
-366,971	616,324	-0,069	-0,125
-365,956	-97,228	0,086	0,016
-364,942	15,350	0,157	0,088
-363,927	-200,000	-0,057	0,208
-362,912	133,562	0,048	-0,045
-361,898	800,000	-0,019	0,049
-360,883	-88,149	-0,134	-0,028
-359,869	-87,189	0,014	0,003
-358,854	134,809	-0,071	-0,066
-357,839	-139,688	0,109	0,008
-356,825	-200,000	0,005	0,070
-355,810	208,757	0,018	-0,020
-354,796	-200,000	0,031	-0,134
-353,781	90,454	0,073	-0,059
-352,766	-7,304	-0,064	0,031
-351,752	78,652	0,100	-0,077
-350,737	-130,786	0,048	0,005
-349,723	-0,574	0,073	0,037
-348,708	-200,000	0,043	0,193
-347,693	-53,742	-0,207	0,067
-346,679	-200,000	0,008	-0,114
-345,664	-200,000	0,005	-0,026
-344,650	552,899	0,079	-0,137
-343,635	-9,195	0,071	0,034
-342,620	-82,477	-0,050	0,011
-341,606	369,960	-0,124	-0,180
-340,591	-200,000	-0,001	0,036
-339,577	-200,000	-0,013	-0,051
-338,562	497,575	0,023	0,038
-337,548	800,000	-0,034	-0,073
-336,533	-200,000	-0,019	0,073
-335,518	-118,481	-0,010	-0,001
-334,504	-46,585	-0,100	-0,035
-333,489	-31,188	0,012	-0,005
-332,475	112,617	0,115	-0,100
-331,460	800,000	-0,072	-0,152
-330,445	-22,211	0,049	-0,021
-329,431	286,363	0,027	-0,035
-328,416	324,813	-0,111	0,152
-327,402	-200,000	0,002	0,079
-326,387	800,000	-0,025	-0,056
-325,372	-200,000	0,022	-0,091
-324,358	50,582	0,030	0,020
-323,343	800,000	0,047	0,137
-322,329	-0,806	0,099	-0,050
-321,314	-200,000	0,006	0,044
-320,299	-200,000	0,034	0,189
-319,285	1,217	0,011	-0,005
-318,270	-1,537	-0,092	-0,046
-317,256	116,084	-0,051	0,044
-316,241	538,390	-0,022	0,037
-315,226	-102,732	-0,113	-0,019
-314,212	265,528	0,053	0,066
-313,197	-200,000	0,007	0,162
-312,183	172,662	0,108	-0,111
-311,168	77,546	0,069	-0,053
-310,153	-200,000	-0,030	-0,107
-309,139	457,485	0,023	0,037
-308,124	184,788	0,013	-0,014
-307,110	427,973	0,107	0,166
-306,095	184,719	0,049	0,052
-305,080	-200,000	-0,038	-0,123
-304,066	-152,994	0,163	0,008
-303,051	-138,382	-0,160	-0,012
-302,037	800,000	0,071	-0,171
-301,022	-28,742	-0,059	0,024
-300,008	800,000	0,024	-0,062
-298,993	-200,000	0,007	0,060
-297,978	-98,995	0,137	0,025
-296,964	-200,000	-0,015	-0,063
-295,949	111,899	0,028	-0,024
-294,935	263,934	-0,074	0,093
-293,920	-29,211	0,140	0,057
-292,905	-200,000	-0,021	0,095
-291,891	336,800	0,039	0,055
-290,876	-109,472	-0,099	-0,015
-289,862	-200,000	-0,051	-0,164
-288,847	293,185	0,039	-0,051
-287,832	280,698	-0,072	-0,092
-286,818	-200,000	0,001	-0,045
-285,803	211,403	-0,069	-0,078
-284,789	89,872	0,102	-0,081
-283,774	188,892	-0,113	0,121
-282,759	-200,000	0,022	-0,122
-281,745	484,275	-0,054	-0,089
-280,730	800,000	-0,080	-0,208
-279,716	6,057	0,048	0,026
-278,701	206,307	0,043	0,048
-277,686	49,837	0,070	-0,047
-276,672	-113,398	0,139	0,019
-275,657	-200,000	-0,027	0,091
-274,643	-115,405	-0,048	0,006
-273,628	-155,995	-0,146	-0,006
-272,613	800,000	-0,040	0,124
-271,599	82,392	-0,054	-0,042
-270,584	-19,182	0,183	0,081
-269,570	-12,279	0,106	-0,049
-268,555	6,131	0,058	-0,030
-267,540	-200,000	0,004	-0,054
-266,526	-9,996	0,102	-0,048
-265,511	-35,824	-0,132	-0,051
-264,497	218,219	0,044	-0,050
-263,482	-129,907	0,124	-0,012
-262,467	800,000	-0,082	0,203
-261,453	-138,064	0,174	0,014
-260,438	800,000	0,025	0,050
-259,424	514,138	-0,077	-0,129
-258,409	-127,095	0,094	-0,010
-257,395	800,000	-0,038	0,097
-256,380	253,654	-0,018	0,023
-255,365	409,802	0,071	0,108
-254,351	-200,000	-0,005	0,093
-253,336	-200,000	-0,014	-0,057
-252,322	116,398	-0,095	0,083
-251,307	345,166	0,033	-0,046
-250,292	-200,000	-0,020	0,076
-249,278	-144,619	-0,082	-0,005
-248,263	-9,002	0,065	0,031
-247,249	91,071	0,111	0,088
-246,234	-200,000	-0,065	0,000
-245,219	-75,635	-0,079	0,020
-244,205	302,423	-0,035	0,047
-243,190	800,000	0,073	-0,166
-242,176	-200,000	-0,001	-0,016
-241,161	536,567	0,073	0,125
-240,146	-200,000	0,017	-0,156
-239,132	800,000	-0,079	0,220
-238,117	504,613	-0,028	-0,046
-237,103	190,047	-0,097	-0,104
-236,088	-55,198	0,136	0,043
-235,073	19,857	0,196	0,112
-234,059	800,000	0,076	0,214
-233,044	597,356	0,089	0,157
-232,030	800,000	-0,014	-0,038
-231,015	-65,445	-0,024	-0,007
-230,000	-41,353	0,073	-0,027
-228,986	268,423	0,090	-0,112
-227,971	318,106	0,031	0,042
-226,957	12,960	-0,096	0,053
-225,942	-45,639	-0,124	-0,043
-224,927	-200,000	-0,015	0,190
-223,913	446,998	-0,038	0,060
-222,898	-200,000	0,031	-0,113
-221,884	-200,000	0,032	-0,106
-220,869	711,824	0,034	0,064
-219,855	333,407	-0,064	0,089
-218,840	-200,000	0,046	0,181
-217,825	-31,792	-0,034	0,013
-216,811	-200,000	-0,014	0,129
-215,796	-59,755	-0,042	0,013
-214,782	-200,000	-0,018	-0,095
-213,767	-200,000	0,021	-0,188
-212,752	71,882	0,115	0,085
-211,738	800,000	-0,020	-0,046
-210,723	-200,000	-0,008	0,025
-209,709	-200,000	-0,009	-0,037
-208,694	-200,000	0,002	0,077
-207,679	-200,000	-0,007	0,068
-206,665	-69,112	0,214	-0,058
-205,650	800,000	0,064	-0,132
-204,636	-200,000	-0,020	0,176
-203,621	-200,000	-0,047	0,167
-202,606	800,000	0,044	0,111
-201,592	234,027	-0,069	-0,081
-200,577	-200,000	0,000	-0,050
-199,563	5,755	-0,005	-0,003
-198,548	364,710	0,075	-0,108
-197,533	-26,409	0,156	0,065
-196,519	-50,458	0,083	-0,028
-195,504	-90,574	-0,057	-0,012
-194,490	136,475	-0,061	-0,056
-193,475	185,046	-0,076	-0,080
-192,460	183,326	0,085	-0,089
-191,446	-117,209	0,078	0,010
-190,431	125,519	-0,052	-0,047
-189,417	-0,455	0,143	0,072
-188,402	-35,944	-0,079	0,030
-187,387	279,679	-0,078	-0,099
-186,373	-145,023	0,065	-0,004
-185,358	53,111	-0,103	-0,070
-184,344	67,897	-0,027	-0,020
-183,329	-200,000	-0,014	0,116
-182,315	-200,000	-0,023	-0,102
-181,300	61,760	-0,176	-0,125
-180,285	414,164	-0,050	0,075
-179,271	-200,000	0,010	-0,036
-178,256	-39,953	0,060	-0,022
-177,242	800,000	-0,029	0,063
-176,227	-78,303	-0,054	-0,013
-175,212	163,038	0,057	0,057
-174,198	-42,055	-0,101	-0,037
-173,183	-200,000	0,000	0,009
-172,169	-200,000	0,013	-0,059
-171,154	-200,000	0,014	0,063
-170,139	201,272	-0,084	0,092
-169,125	765,072	0,060	0,117
-168,110	-80,723	0,071	0,017
-167,096	187,557	-0,021	-0,022
-166,081	-43,284	-0,135	-0,048
-165,066	260,802	-0,143	-0,176
-164,052	-49,046	0,112	-0,038
-163,037	190,808	-0,025	-0,027
-162,023	800,000	0,025	0,073
-161,008	641,561	0,067	0,121
-159,993	-200,000	0,019	0,161
-158,979	-15,754	0,033	-0,015
-157,964	-200,000	0,006	-0,107
-156,950	-200,000	0,001	0,010
-155,935	378,479	0,007	0,010
-154,920	-30,337	0,040	-0,016
-153,906	-200,000	-0,035	0,130
-152,891	800,000	0,018	0,046
-151,877	-200,000	0,005	0,059
-150,862	3,496	-0,117	-0,061
-149,847	-200,000	-0,005	-0,159
-148,833	254,669	-0,078	-0,095
-147,818	-200,000	0,021	0,213
-146,804	-200,000	0,019	0,164
-145,789	-200,000	0,007	-0,122
-144,775	28,449	-0,050	0,030
-143,760	-48,284	0,008	-0,003
-142,745	800,000	-0,068	0,164
-141,731	5,511	0,084	0,044
-140,716	800,000	-0,014	0,042
-139,702	-200,000	-0,000	0,116
-138,687	452,123	0,013	-0,021
-137,672	320,667	-0,017	0,024
-136,658	194,228	-0,025	0,027
-135,643	63,984	-0,129	0,092
-134,629	800,000	0,054	0,109
-133,614	-86,071	-0,059	-0,013
-132,599	96,800	0,069	0,056
-131,585	463,618	0,083	-0,131
-130,570	-29,866	-0,096	0,039
-129,556	-200,000	-0,028	0,151
-128,541	-200,000	-0,023	-0,076
-127,526	-200,000	0,017	-0,052
-126,512	28,638	0,113	-0,068
-125,497	800,000	-0,037	0,086
-124,483	-200,000	0,038	0,177
-123,468	273,431	-0,034	0,043
-122,453	3,447	-0,189	-0,098
-121,439	-200,000	0,006	-0,062
-120,424	-200,000	-0,015	0,068
-119,410	157,381	0,094	0,093
-118,395	-200,000	-0,025	0,122
-117,380	-200,000	-0,006	-0,051
-116,366	114,629	-0,100	-0,087
-115,351	122,385	-0,115	-0,102
-114,337	-200,000	-0,123	0,000
-113,322	-200,000	-0,005	-0,155
-112,307	-73,357	0,006	-0,002
-111,293	779,345	0,032	0,063
-110,278	0,292	-0,066	0,033
-109,264	-99,757	-0,158	0,028
-108,249	800,000	0,053	-0,114
-107,234	284,893	0,063	-0,080
-106,220	56,977	0,011	-0,008
-105,205	800,000	-0,023	-0,047
-104,191	800,000	0,048	0,127
-103,176	800,000	0,010	0,031
-102,162	-25,386	-0,096	0,040
-101,147	46,728	-0,195	-0,128
-100,132	112,894	-0,132	-0,113
-99,118	799,140	0,094	0,184
-98,103	70,430	0,108	-0,079
-97,089	395,533	0,031	0,046
-96,074	356,643	-0,068	0,096
-95,059	261,485	-0,066	0,081
-94,045	118,268	0,089	-0,078
-93,030	-79,647	-0,092	0,022
-92,016	526,182	0,056	0,094
-91,001	-94,329	-0,157	0,030
-89,986	443,621	-0,021	-0,033
-88,972	144,901	0,060	-0,057
-87,957	-200,000	-0,005	0,039
-86,943	94,143	0,017	-0,014
-85,928	-62,350	-0,183	-0,054
-84,913	612,780	-0,118	-0,210
-83,899	61,538	-0,075	-0,053
-82,884	58,301	0,011	0,008
-81,870	35,171	0,072	0,044
-80,855	75,332	0,094	-0,070
-79,840	382,199	-0,080	0,116
-78,826	-200,000	-0,015	0,086
-77,811	154,254	-0,035	-0,034
-76,797	-200,000	-0,003	0,055
-75,782	88,241	-0,097	0,077
-74,767	-73,979	0,060	0,015
-73,753	-134,981	0,019	0,002
-72,738	-200,000	0,030	-0,172
-71,724	-0,396	-0,093	0,047
-70,709	83,719	0,045	0,034
-69,694	800,000	0,036	-0,097
-68,680	-200,000	0,037	-0,131
-67,665	225,434	-0,102	0,117
-66,651	-200,000	-0,006	0,136
-65,636	50,517	-0,009	0,006
-64,622	800,000	0,022	0,059
-63,607	800,000	0,017	-0,042
-62,592	5,299	-0,085	-0,044
-61,578	800,000	0,024	0,075
-60,563	357,126	-0,057	-0,081
-59,549	112,005	-0,034	0,029
-58,534	9,260	-1,725	-0,921
-57,519	410,389	-1,424	-2,144
-56,505	-200,000	-0,591	-4,537
-55,490	315,997	0,881	1,180
-54,476	800,000	4,995	11,330
-53,461	-200,000	19,504	325,966
-52,446	-200,000	745,496	2335,071
-51,432	566,460	1657,905	2858,656
-50,417	77,223	1671,357	1256,340
-49,403	20,772	1544,782	883,179
-48,388	14,744	1466,966	809,358
-47,373	18,156	1457,299	820,485
-46,359	16,562	1447,065	807,045
-45,344	12,962	1442,534	787,232
-44,330	12,891	1440,641	785,829
-43,315	12,921	1438,767	784,917
-42,300	12,915	1437,112	783,958
-41,286	12,942	1435,890	783,387
-40,271	12,907	1434,460	782,410
-39,257	12,916	1433,131	781,697
-38,242	12,955	1431,914	781,190
-37,227	12,928	1430,897	780,474
-36,213	12,952	1429,423	779,751
-35,198	12,956	1428,165	779,056
-34,184	12,955	1427,232	778,510
-33,169	12,911	1425,954	777,574
-32,154	13,011	1424,666	777,314
-31,140	12,965	1423,589	776,477
-30,125	13,055	1422,223	776,128
-29,111	12,996	1421,232	775,274
-28,096	12,970	1420,224	774,571
-27,082	12,853	1419,341	773,508
-26,067	12,896	1418,069	772,988
-25,052	12,931	1416,953	772,512
-24,038	12,905	1416,171	771,932
-23,023	12,934	1414,785	771,284
-22,009	12,904	1413,913	770,636
-20,994	12,883	1413,072	770,048
-19,979	12,894	1412,148	769,566
-18,965	12,880	1411,088	768,892
-17,950	12,856	1410,309	768,325
-16,936	12,845	1409,246	767,666
-15,921	12,835	1408,130	766,979
-14,906	12,813	1407,270	766,378
-13,892	12,813	1406,422	765,887
-12,877	12,793	1405,678	765,355
-11,863	12,807	1404,885	764,962
-10,848	12,802	1404,007	764,426
-9,833	12,765	1403,094	763,730
-8,819	12,745	1402,111	763,068
-7,804	12,722	1401,227	762,451
-6,790	12,747	1400,212	761,983
-5,775	12,710	1399,202	761,230
-4,760	12,778	1398,085	760,908
-3,746	12,704	1397,279	760,099
-2,731	12,725	1396,374	759,672
-1,717	12,655	1395,563	758,879
-0,702	12,668	1393,642	757,860
0,313	16,527	1309,378	729,903
1,327	32,705	701,580	428,376
2,342	50,171	122,636	81,775
3,356	1,608	16,680	8,465
4,371	-8,096	3,137	1,490
5,386	-32,320	0,644	0,253
6,400	-200,000	0,020	0,276
7,415	-64,243	-0,310	-0,089
8,429	34,670	-0,330	-0,204
9,444	-9,142	-0,372	-0,175
10,459	108,647	-0,231	-0,195
11,473	98,432	-0,224	-0,182
12,488	-72,755	-0,299	-0,077
13,502	201,162	-0,224	-0,244
14,517	72,474	-0,330	-0,242
15,531	55,341	-0,357	-0,243
16,546	127,783	-0,390	-0,350
17,561	452,012	-0,137	-0,215
18,575	-65,849	-0,371	-0,104
19,590	59,120	-0,262	-0,182
20,604	364,275	-0,163	-0,233
21,619	129,629	-0,423	-0,382
22,634	172,424	-0,432	-0,440
23,648	-16,334	-0,454	-0,203
24,663	47,244	-0,381	-0,250
25,677	-24,724	-0,370	-0,155
26,692	121,465	-0,269	-0,236
27,707	48,997	-0,323	-0,214
28,721	106,286	-0,414	-0,346
29,736	23,423	-0,320	-0,185
30,750	240,926	-0,339	-0,400
31,765	47,162	-0,313	-0,205
32,780	87,953	-0,438	-0,342
33,794	268,153	-0,327	-0,405
34,809	212,620	-0,292	-0,325
35,823	113,807	-0,389	-0,333
36,838	71,888	-0,520	-0,381
37,853	98,252	-0,406	-0,330
38,867	324,201	-0,280	-0,378
39,882	77,680	-0,431	-0,323
40,896	118,152	-0,316	-0,274
41,911	-5,208	-0,379	-0,183
42,926	71,516	-0,282	-0,206
43,940	-64,540	-0,395	-0,112
44,955	239,586	-0,268	-0,315
45,969	192,670	-0,432	-0,460
46,984	95,743	-0,289	-0,232
47,999	105,895	-0,239	-0,200
49,013	23,115	-0,349	-0,201
50,028	101,469	-0,361	-0,296
51,042	85,066	-0,324	-0,250
52,057	6,349	-0,353	-0,184
53,071	37,852	-0,351	-0,219
54,086	65,521	-0,391	-0,278
55,101	38,950	-0,371	-0,233
56,115	-37,322	-0,360	-0,135
57,130	-27,854	-0,461	-0,187
58,144	29,276	-0,429	-0,256
59,159	69,047	-0,423	-0,305
60,174	195,253	-0,236	-0,253
61,188	340,561	-0,243	-0,335
62,203	-17,811	-0,454	-0,200
63,217	9,799	-0,362	-0,192
64,232	31,436	-0,337	-0,203
65,247	159,928	-0,327	-0,321
66,261	119,497	-0,227	-0,198
67,276	214,473	-0,238	-0,265
68,290	89,267	-0,366	-0,286
69,305	51,554	-0,229	-0,153
70,320	80,335	-0,197	-0,149
71,334	67,737	-0,244	-0,175
72,349	107,370	-0,283	-0,236
73,363	21,180	-0,229	-0,130
74,378	-1,415	-0,335	-0,166
75,393	22,538	-0,364	-0,209
76,407	64,298	-0,243	-0,172
77,422	11,370	-0,257	-0,138
78,436	669,253	-0,165	-0,302
79,451	-35,175	-0,465	-0,177
80,466	-48,144	-0,333	-0,112
81,480	-19,465	-0,394	-0,171
82,495	-43,743	-0,295	-0,104
83,509	-36,001	-0,291	-0,110
84,524	23,324	-0,346	-0,199
85,539	-56,357	-0,218	-0,068
86,553	-3,501	-0,332	-0,162
87,568	-52,996	-0,339	-0,109
88,582	43,928	-0,295	-0,190
89,597	12,315	-0,336	-0,181
90,611	281,719	-0,131	-0,165
91,626	59,410	-0,440	-0,304
92,641	87,329	-0,216	-0,168
93,655	32,693	-0,301	-0,182
94,670	135,405	-0,225	-0,206
95,684	94,438	-0,288	-0,229
96,699	91,877	-0,346	-0,273
97,714	-60,308	-0,362	-0,107
98,728	279,061	-0,235	-0,295
99,743	-102,543	-0,137	-0,023
100,757	30,414	-0,240	-0,143
101,772	167,978	-0,276	-0,275
102,787	167,501	-0,259	-0,258
103,801	-35,288	-0,383	-0,145
104,816	217,924	-0,240	-0,269
105,830	46,643	-0,285	-0,185
106,845	-27,302	-0,207	-0,084
107,860	-44,064	-0,281	-0,098
108,874	57,319	-0,321	-0,219
109,889	800,000	-0,103	-0,207
110,903	192,340	-0,270	-0,286
111,918	22,191	-0,308	-0,176
112,933	76,664	-0,245	-0,182
113,947	-92,926	-0,254	-0,049
114,962	-30,578	-0,207	-0,082
115,976	203,130	-0,170	-0,184
116,991	75,957	-0,232	-0,171
118,006	165,776	-0,259	-0,257
119,020	72,725	-0,213	-0,156
120,035	69,824	-0,179	-0,129
121,049	84,253	-0,302	-0,231
122,064	299,068	-0,188	-0,243
123,079	-130,854	-0,330	-0,031
124,093	305,078	-0,213	-0,278
125,108	18,075	-0,262	-0,146
126,122	238,748	-0,263	-0,306
127,137	2,064	-0,320	-0,161
128,151	85,833	-0,198	-0,152
129,166	88,242	-0,277	-0,215
130,181	33,734	-0,321	-0,195
131,195	54,833	-0,277	-0,187
132,210	121,419	-0,366	-0,319
133,224	135,199	-0,211	-0,192
134,239	-30,425	-0,275	-0,109
135,254	-176,496	-0,197	-0,003
136,268	-8,094	-0,354	-0,166
137,283	33,462	-0,248	-0,150
138,297	-49,554	-0,395	-0,131
139,312	32,870	-0,308	-0,186
140,327	-63,861	-0,275	-0,078
141,341	454,300	-0,207	-0,321
142,356	0,497	-0,350	-0,174
143,370	410,242	-0,082	-0,122
144,385	132,980	-0,288	-0,260
145,400	-42,821	-0,235	-0,083
146,414	220,284	-0,201	-0,226
147,429	113,701	-0,293	-0,248
148,443	11,028	-0,377	-0,201
149,458	-6,368	-0,183	-0,087
150,473	120,468	-0,195	-0,169
151,487	-67,594	-0,234	-0,064
152,502	134,395	-0,225	-0,204
153,516	-67,826	-0,299	-0,081
154,531	-200,000	-0,056	-0,257
155,546	155,860	-0,170	-0,163
156,560	127,025	-0,236	-0,209
157,575	-1,345	-0,212	-0,104
158,589	172,580	-0,133	-0,133
159,604	189,470	-0,206	-0,216
160,619	204,682	-0,245	-0,266
161,633	115,060	-0,303	-0,258
162,648	-200,000	-0,067	-0,212
163,662	-181,616	-0,187	0,002
164,677	-15,350	-0,265	-0,118
165,692	40,766	-0,239	-0,150
166,706	45,606	-0,315	-0,202
167,721	20,345	-0,185	-0,104
168,735	180,935	-0,254	-0,260
169,750	-8,817	-0,240	-0,112
170,764	60,948	-0,279	-0,193
171,779	35,944	-0,122	-0,075
172,794	-52,945	-0,209	-0,067
173,808	412,295	-0,164	-0,243
174,823	-179,830	-0,208	-0,003
175,837	617,091	-0,158	-0,277
176,852	440,394	-0,262	-0,401
177,867	-33,785	-0,256	-0,098
178,881	80,356	-0,102	-0,076
179,896	-21,497	-0,168	-0,071
180,910	-128,670	-0,228	-0,022
181,925	8,800	-0,306	-0,160
182,940	-71,108	-0,249	-0,065
183,954	429,198	-0,187	-0,283
184,969	21,460	-0,303	-0,171
185,983	-54,129	-0,123	-0,039
186,998	485,311	-0,139	-0,221
188,013	-7,809	-0,215	-0,101
189,027	131,770	-0,261	-0,234
190,042	85,757	-0,208	-0,159
191,056	62,847	-0,189	-0,131
192,071	-53,173	-0,145	-0,046
193,086	162,373	-0,127	-0,124
194,100	268,135	-0,090	-0,109
195,115	-200,000	-0,030	-0,189
196,129	-1,166	-0,182	-0,089
197,144	57,571	-0,329	-0,223
198,159	314,541	-0,099	-0,130
199,173	12,386	-0,260	-0,139
200,188	-145,746	-0,291	-0,018
201,202	-63,361	-0,139	-0,040
202,217	-105,056	-0,116	0,018
203,232	-74,856	-0,166	-0,041
204,246	361,250	-0,111	-0,155
205,261	398,754	-0,182	-0,265
206,275	51,222	-0,239	-0,157
207,290	94,374	-0,214	-0,169
208,304	-122,354	-0,196	-0,022
209,319	7,989	-0,229	-0,119
210,334	21,530	-0,296	-0,167
211,348	50,367	-0,233	-0,153
212,363	45,228	-0,180	-0,115
213,377	48,452	-0,288	-0,187
214,392	51,640	-0,262	-0,173
215,407	169,443	-0,201	-0,199
216,421	-117,100	-0,137	0,017
217,436	38,826	-0,213	-0,132
218,450	8,522	-0,160	-0,083
219,465	195,002	-0,144	-0,152
220,480	218,924	-0,073	-0,082
221,494	194,294	-0,073	-0,076
222,509	80,002	-0,159	-0,119
223,523	69,067	-0,129	-0,092
224,538	33,734	-0,263	-0,158
225,553	-42,181	-0,276	-0,097
226,567	-6,201	-0,275	-0,130
227,582	684,043	-0,139	-0,252
228,596	800,000	-0,091	-0,219
229,611	-38,380	-0,313	-0,114
230,626	181,821	-0,154	-0,157
231,640	28,909	-0,310	-0,182
232,655	121,578	-0,179	-0,155
233,669	395,363	-0,203	-0,294
234,684	10,843	-0,270	-0,142
235,699	170,803	-0,159	-0,158
236,713	45,022	-0,218	-0,139
237,728	25,927	-0,091	-0,052
238,742	755,243	-0,087	-0,165
239,757	644,319	-0,100	-0,177
240,772	-29,934	-0,178	-0,070
241,786	35,099	-0,243	-0,147
242,801	-107,722	-0,108	-0,016
243,815	-200,000	-0,040	-0,207
244,830	-7,312	-0,171	-0,080
245,844	136,501	-0,182	-0,165
246,859	174,139	-0,254	-0,254
247,874	78,347	-0,255	-0,188
248,888	-178,773	-0,246	-0,004
249,903	800,000	-0,074	-0,187
250,917	129,360	-0,130	-0,115
251,932	60,692	-0,249	-0,170
252,947	-64,088	-0,302	-0,085
253,961	71,142	-0,114	-0,081
254,976	-25,433	-0,136	-0,056
255,990	25,724	-0,260	-0,150
257,005	-5,094	-0,226	-0,107
258,020	-100,267	-0,187	-0,032
259,034	42,841	-0,103	-0,065
260,049	178,855	-0,159	-0,161
261,063	334,170	-0,120	-0,161
262,078	311,720	-0,161	-0,209
263,093	-40,723	-0,169	-0,060
264,107	104,485	-0,131	-0,106
265,122	2,126	-0,164	-0,082
266,136	800,000	-0,074	-0,211
267,151	40,153	-0,118	-0,073
268,166	-81,404	-0,207	-0,047
269,180	140,911	-0,112	-0,103
270,195	46,230	-0,119	-0,076
271,209	153,647	-0,215	-0,204
272,224	-135,325	-0,215	-0,018
273,239	34,651	-0,220	-0,132
274,253	-158,461	-0,228	0,009
275,268	208,062	-0,124	-0,134
276,282	143,214	-0,150	-0,138
277,297	-94,919	-0,250	-0,046
278,312	22,989	-0,185	-0,104
279,326	286,525	-0,189	-0,236
280,341	-117,555	-0,176	-0,022
281,355	-1,412	-0,213	-0,103
282,370	14,440	-0,199	-0,107
283,384	-123,998	-0,278	-0,030
284,399	365,974	-0,118	-0,164
285,414	-117,823	-0,213	0,026
286,428	213,437	-0,091	-0,099
287,443	-60,788	-0,176	0,051
288,457	76,922	-0,083	-0,061
289,472	-62,255	-0,134	-0,038
290,487	112,713	-0,131	-0,109
291,501	-37,755	-0,076	-0,028
292,516	172,128	-0,181	-0,180
293,530	30,376	-0,091	-0,053
294,545	70,124	-0,119	-0,085
295,560	120,865	-0,098	-0,084
296,574	319,792	-0,090	-0,117
297,589	-40,497	-0,198	-0,071
298,603	-200,000	-0,009	-0,093
299,618	22,863	-0,206	-0,116
300,633	189,183	-0,140	-0,145
301,647	-118,225	-0,217	-0,026
302,662	-86,762	-0,150	-0,031
303,676	290,994	-0,056	-0,070
304,691	269,792	-0,080	-0,097
305,706	56,298	-0,228	-0,152
306,720	75,452	-0,115	-0,084
307,735	93,719	-0,152	-0,119
308,749	252,588	-0,201	-0,237
309,764	-200,000	-0,041	-0,136
310,779	-11,373	-0,156	-0,071
311,793	503,981	-0,113	-0,181
312,808	166,268	-0,275	-0,268
313,822	97,978	-0,188	-0,149
314,837	302,017	-0,153	-0,195
315,852	7,907	-0,109	-0,056
316,866	-200,000	0,037	-0,153
317,881	-176,582	-0,113	-0,002
318,895	22,894	-0,124	-0,070
319,910	-88,472	-0,250	-0,051
320,925	-87,039	-0,185	-0,038
321,939	-137,981	-0,094	0,007
322,954	800,000	-0,056	-0,149
323,968	-67,894	-0,069	-0,018
324,983	-117,404	-0,165	0,020
325,997	124,812	-0,141	-0,122
327,012	138,587	-0,143	-0,129
328,027	171,940	-0,096	-0,095
329,041	117,396	-0,159	-0,135
330,056	800,000	-0,035	-0,100
331,070	212,198	-0,071	-0,077
332,085	436,110	-0,029	0,044
333,100	-23,513	-0,187	-0,077
334,114	-118,968	-0,158	0,019
335,129	800,000	-0,119	-0,240
336,143	46,460	-0,136	-0,086
337,158	47,477	-0,049	-0,032
338,173	16,932	-0,061	-0,033
339,187	62,706	-0,171	-0,117
340,202	176,751	-0,137	-0,137
341,216	63,443	-0,217	-0,150
342,231	127,142	-0,189	-0,164
343,246	-9,943	-0,059	-0,027
344,260	800,000	-0,039	-0,093
345,275	-200,000	0,004	-0,030
346,289	16,486	-0,129	-0,070
347,304	-58,587	-0,174	-0,052
348,319	362,300	-0,044	-0,060
349,333	800,000	-0,109	-0,287
350,348	33,118	-0,231	-0,137
351,362	149,739	-0,089	-0,083
352,377	-200,000	-0,009	-0,087
353,392	509,104	-0,056	-0,090
354,406	-90,356	-0,087	-0,017
355,421	208,399	1313,025	1409,642
356,435	160,355	1473,524	1410,131
