DTS Sentinel unit serial number:	SN410029Multiplexer serial number:	ORYXHardware model number:	OX2-SRSoftware version number:	ORYX F/W v4,00 Oryx Data Collector v3.7.2.0data status	okinstallation	B3 Nyhavnadifferential loss correction	single-endedforward channel	channel 1reverse channel	N/Adate	2023/12/02time	08:17:30forward acquisition time	300,00reverse acquisition time	0,00gamma	499,1914k internal	0,3195k external	0,3195temperature offset calibration	1,0000default loss term (dB/km)	0,3820temperature slope calibration	1,0000multiplexer offset coefficient	1,0000multiplexer slope coefficient	1,0000fibre end	0,00T internal ref (°C)	15,44T ext. ref 1 (°C)	0,15T ext. ref 2 (°C)	0,14length (m)	temperature (°C)	Stokes	anti-Stokes-744,400	116,278	-0,243	-0,217
-743,385	-200,000	0,030	0,422
-742,371	800,000	-0,105	-0,233
-741,356	800,000	0,098	0,293
-740,342	800,000	-0,111	-0,325
-739,327	800,000	-0,146	0,367
-738,312	485,930	-0,125	-0,208
-737,298	-200,000	0,001	0,262
-736,283	195,787	-0,191	-0,212
-735,269	800,000	0,130	0,358
-734,254	96,309	-0,239	-0,199
-733,239	-200,000	-0,023	0,200
-732,225	800,000	-0,095	-0,214
-731,210	-34,460	0,094	-0,037
-730,196	-200,000	0,011	-0,076
-729,181	14,698	0,071	-0,040
-728,167	243,442	0,047	0,057
-727,152	-200,000	0,024	0,127
-726,137	-71,668	-0,208	-0,056
-725,123	91,315	-0,048	-0,039
-724,108	-200,000	-0,011	-0,125
-723,094	11,758	-0,108	-0,060
-722,079	-39,135	-0,146	-0,055
-721,064	162,476	-0,037	-0,038
-720,050	231,189	-0,104	-0,124
-719,035	-200,000	0,004	0,031
-718,021	56,324	-0,095	-0,067
-717,006	-42,574	-0,074	0,027
-715,991	597,446	-0,058	-0,106
-714,977	163,003	0,025	-0,026
-713,962	-200,000	0,013	-0,070
-712,948	-19,717	-0,034	0,015
-711,933	800,000	-0,031	-0,068
-710,918	120,507	0,014	-0,013
-709,904	-35,501	0,050	-0,020
-708,889	-63,740	-0,262	0,078
-707,875	203,528	0,014	0,016
-706,860	800,000	0,047	0,125
-705,845	-167,270	0,045	0,001
-704,831	-200,000	-0,005	-0,089
-703,816	-200,000	0,011	-0,085
-702,802	439,078	-0,058	0,092
-701,787	281,300	0,052	0,068
-700,772	-21,544	-0,086	-0,038
-699,758	459,015	0,073	0,118
-698,743	321,043	-0,051	0,071
-697,729	-200,000	-0,005	-0,102
-696,714	-71,393	-0,087	0,023
-695,699	800,000	-0,018	-0,048
-694,685	382,096	-0,056	0,084
-693,670	-200,000	0,009	0,093
-692,656	-27,805	-0,037	-0,016
-691,641	-200,000	0,014	0,056
-690,627	388,882	0,032	0,049
-689,612	-36,790	0,046	0,018
-688,597	-71,351	-0,078	-0,021
-687,583	-200,000	0,016	-0,052
-686,568	719,670	-0,027	0,053
-685,554	-200,000	0,011	-0,141
-684,539	-200,000	-0,018	-0,087
-683,524	-200,000	-0,011	0,051
-682,510	-144,156	-0,055	-0,004
-681,495	559,076	-0,070	-0,124
-680,481	674,942	0,021	-0,040
-679,466	261,026	-0,084	0,105
-678,451	-200,000	-0,007	0,091
-677,437	-96,598	-0,072	-0,014
-676,422	-200,000	-0,036	-0,264
-675,408	16,023	-0,080	0,046
-674,393	-91,657	0,110	0,023
-673,378	2,337	-0,087	-0,046
-672,364	-123,817	-0,241	-0,027
-671,349	23,464	-0,072	0,043
-670,335	-5,709	0,023	-0,011
-669,320	800,000	0,053	-0,122
-668,305	102,535	0,107	-0,091
-667,291	-200,000	0,008	0,102
-666,276	542,846	0,037	-0,065
-665,262	-200,000	-0,014	0,094
-664,247	-136,809	-0,076	-0,006
-663,232	-133,532	0,041	0,004
-662,218	-200,000	0,000	0,100
-661,203	260,509	-0,052	0,066
-660,189	800,000	-0,003	0,008
-659,174	-200,000	0,027	-0,167
-658,159	-200,000	-0,031	-0,103
-657,145	-200,000	0,002	-0,100
-656,130	424,478	-0,109	-0,171
-655,116	-200,000	0,026	-0,100
-654,101	36,564	-0,080	-0,051
-653,086	7,761	-0,069	-0,037
-652,072	-200,000	0,030	-0,112
-651,057	-145,029	0,051	0,003
-650,043	110,612	-0,096	-0,083
-649,028	-200,000	-0,006	-0,026
-648,014	639,451	0,055	0,102
-646,999	800,000	-0,037	0,098
-645,984	385,751	0,049	-0,073
-644,970	-72,203	-0,096	0,026
-643,955	20,992	-0,100	-0,058
-642,941	800,000	0,041	-0,086
-641,926	-200,000	-0,011	0,067
-640,911	-134,550	0,032	-0,003
-639,897	-79,547	-0,021	0,005
-638,882	41,115	0,142	0,093
-637,868	11,530	0,043	0,024
-636,853	-167,336	0,169	0,005
-635,838	-200,000	-0,005	0,021
-634,824	-83,771	-0,132	0,030
-633,809	-11,014	0,086	-0,041
-632,795	94,669	-0,020	0,017
-631,780	-90,617	0,080	-0,017
-630,765	-200,000	-0,014	-0,096
-629,751	-200,000	0,009	-0,038
-628,736	153,523	0,084	0,083
-627,722	-100,879	-0,057	-0,010
-626,707	800,000	0,026	-0,068
-625,692	-16,550	-0,086	-0,039
-624,678	800,000	-0,033	-0,069
-623,663	-97,824	-0,060	-0,011
-622,649	-200,000	-0,038	-0,128
-621,634	510,362	-0,107	-0,182
-620,619	207,739	-0,151	-0,171
-619,605	-200,000	0,047	-0,158
-618,590	-65,926	0,041	-0,012
-617,576	-51,870	-0,133	0,044
-616,561	-200,000	0,002	-0,024
-615,546	-18,111	-0,054	-0,024
-614,532	-200,000	0,007	0,078
-613,517	189,317	0,031	-0,034
-612,503	11,633	0,019	0,011
-611,488	-31,376	0,107	-0,043
-610,474	56,796	-0,098	-0,069
-609,459	337,967	-0,070	-0,099
-608,444	-48,713	0,116	0,040
-607,430	-41,156	-0,128	-0,048
-606,415	-200,000	-0,020	-0,066
-605,401	173,282	-0,119	-0,124
-604,386	-200,000	-0,014	-0,161
-603,371	248,610	0,084	0,103
-602,357	-190,514	-0,112	0,001
-601,342	-78,037	-0,076	-0,019
-600,328	-50,834	-0,079	-0,027
-599,313	-200,000	0,004	0,030
-598,298	124,018	0,085	-0,077
-597,284	174,556	-0,019	0,020
-596,269	-200,000	-0,005	0,130
-595,255	-138,566	-0,059	-0,005
-594,240	-200,000	-0,011	-0,124
-593,225	800,000	-0,043	-0,125
-592,211	-200,000	-0,017	-0,090
-591,196	715,241	0,048	0,093
-590,182	3,762	-0,061	-0,032
-589,167	-31,650	-0,129	-0,052
-588,152	-200,000	-0,025	0,106
-587,138	578,998	-0,045	0,079
-586,123	-111,533	-0,093	0,013
-585,109	86,324	-0,031	-0,025
-584,094	-88,940	0,102	-0,022
-583,079	-110,151	0,036	0,005
-582,065	800,000	0,026	0,053
-581,050	-200,000	0,040	-0,210
-580,036	134,852	-0,066	-0,062
-579,021	-79,958	-0,116	-0,028
-578,006	-113,225	0,171	0,024
-576,992	552,741	-0,109	0,190
-575,977	85,871	-0,007	0,005
-574,963	800,000	0,059	-0,187
-573,948	185,756	0,049	-0,052
-572,934	149,211	-0,067	-0,066
-571,919	9,269	-0,067	-0,037
-570,904	193,907	0,026	0,029
-569,890	-6,690	0,154	-0,076
-568,875	-200,000	-0,032	0,166
-567,861	800,000	0,057	0,147
-566,846	-200,000	0,009	0,045
-565,831	27,296	-0,169	-0,102
-564,817	5,978	0,061	0,032
-563,802	-56,784	0,049	0,016
-562,788	86,967	-0,040	0,032
-561,773	-44,750	0,080	0,029
-560,758	-200,000	0,000	0,015
-559,744	73,258	0,168	0,127
-558,729	-49,857	-0,025	0,009
-557,715	-41,975	-0,084	0,031
-556,700	-69,225	-0,121	-0,033
-555,685	800,000	-0,085	-0,254
-554,671	-200,000	-0,013	-0,093
-553,656	-14,653	-0,064	0,029
-552,642	358,784	0,015	-0,021
-551,627	236,814	0,055	0,066
-550,612	209,718	0,027	0,030
-549,598	-200,000	0,000	-0,059
-548,583	82,932	-0,089	0,070
-547,569	352,934	0,122	-0,176
-546,554	716,014	-0,044	0,085
-545,539	-142,040	0,046	-0,003
-544,525	-200,000	0,013	0,087
-543,510	-200,000	0,019	0,062
-542,496	-200,000	0,014	-0,079
-541,481	168,256	0,020	-0,021
-540,466	28,977	-0,054	-0,033
-539,452	12,147	0,023	0,013
-538,437	-142,426	0,074	-0,005
-537,423	-44,776	-0,017	0,006
-536,408	8,205	0,016	-0,009
-535,393	800,000	-0,024	0,063
-534,379	-200,000	0,015	0,097
-533,364	94,914	-0,025	0,021
-532,350	221,441	-0,043	-0,050
-531,335	-200,000	-0,001	0,067
-530,321	-200,000	0,005	0,087
-529,306	-200,000	0,004	0,032
-528,291	76,006	0,056	-0,042
-527,277	-200,000	-0,007	0,114
-526,262	30,787	-0,037	-0,023
-525,248	710,644	0,021	0,040
-524,233	366,288	0,016	-0,024
-523,218	-200,000	0,000	0,078
-522,204	-104,211	0,124	-0,021
-521,189	-46,546	-0,078	0,028
-520,175	-186,460	0,075	-0,001
-519,160	-90,852	0,017	0,004
-518,145	99,805	0,093	0,078
-517,131	-200,000	-0,010	-0,064
-516,116	-126,961	0,109	-0,011
-515,102	529,890	0,043	0,073
-514,087	146,309	-0,095	-0,092
-513,072	-200,000	-0,016	0,077
-512,058	-200,000	0,022	0,190
-511,043	800,000	0,050	-0,110
-510,029	66,373	-0,100	0,074
-509,014	-200,000	0,001	-0,062
-507,999	78,621	-0,049	-0,038
-506,985	-200,000	0,011	-0,043
-505,970	-56,997	0,126	0,040
-504,956	-200,000	0,031	0,109
-503,941	-200,000	0,033	0,121
-502,926	-53,240	-0,169	-0,056
-501,912	323,312	-0,072	0,099
-500,897	-56,800	0,129	0,041
-499,883	800,000	-0,020	0,048
-498,868	-97,549	-0,172	-0,032
-497,853	800,000	0,028	0,088
-496,839	84,851	0,058	-0,046
-495,824	286,703	-0,046	-0,060
-494,810	35,573	0,012	0,008
-493,795	-9,847	0,157	-0,075
-492,781	273,899	0,045	0,058
-491,766	-200,000	-0,079	-0,255
-490,751	-200,000	0,002	-0,087
-489,737	110,117	-0,078	-0,067
-488,722	-200,000	-0,002	-0,010
-487,708	-84,044	0,108	0,025
-486,693	-200,000	-0,012	0,058
-485,678	458,006	-0,047	-0,075
-484,664	-41,916	0,108	0,040
-483,649	-73,296	-0,143	-0,037
-482,635	-11,998	0,077	0,036
-481,620	92,750	0,103	0,084
-480,605	4,547	0,064	-0,034
-479,591	-200,000	-0,001	0,033
-478,576	132,468	-0,116	-0,108
-477,562	86,157	-0,153	-0,121
-476,547	-8,066	0,042	-0,021
-475,532	-200,000	0,024	0,118
-474,518	-52,229	0,101	0,033
-473,503	19,966	0,090	0,052
-472,489	-172,719	0,079	-0,002
-471,474	21,037	-0,083	-0,049
-470,459	31,858	0,127	-0,079
-469,445	140,913	0,066	0,063
-468,430	-200,000	0,013	-0,117
-467,416	-44,492	0,075	0,027
-466,401	800,000	-0,064	0,156
-465,386	71,698	0,105	0,079
-464,372	-200,000	0,001	0,072
-463,357	-200,000	0,001	0,094
-462,343	452,664	-0,055	-0,088
-461,328	-58,784	0,036	0,011
-460,313	-97,309	-0,067	-0,012
-459,299	4,407	0,086	-0,045
-458,284	-94,984	0,113	-0,022
-457,270	800,000	0,025	0,069
-456,255	320,723	-0,027	0,036
-455,241	-200,000	-0,020	-0,131
-454,226	347,287	-0,030	0,042
-453,211	-200,000	-0,003	-0,129
-452,197	-101,995	-0,033	-0,006
-451,182	-200,000	-0,001	0,017
-450,168	282,069	-0,028	-0,036
-449,153	531,443	-0,042	0,072
-448,138	322,787	0,120	-0,165
-447,124	279,111	-0,103	-0,132
-446,109	800,000	-0,035	0,075
-445,095	800,000	0,025	0,060
-444,080	-63,960	-0,086	0,025
-443,065	209,443	0,134	0,151
-442,051	51,737	-0,093	0,064
-441,036	-200,000	0,016	-0,125
-440,022	-200,000	0,001	-0,004
-439,007	-200,000	-0,008	-0,036
-437,992	544,884	0,050	0,087
-436,978	30,220	0,070	-0,043
-435,963	800,000	-0,041	0,122
-434,949	-145,625	0,036	0,002
-433,934	800,000	-0,008	-0,017
-432,919	-74,907	0,071	-0,018
-431,905	-200,000	-0,011	0,087
-430,890	438,019	-0,029	0,045
-429,876	546,160	0,102	0,176
-428,861	-8,148	0,062	0,030
-427,846	198,716	0,044	0,049
-426,832	-52,553	0,049	-0,016
-425,817	63,577	-0,079	0,057
-424,803	-138,655	0,115	-0,009
-423,788	-43,429	0,075	0,027
-422,773	87,985	0,038	-0,030
-421,759	-200,000	0,006	0,098
-420,744	-95,716	-0,079	0,015
-419,730	-70,209	0,097	-0,026
-418,715	800,000	-0,021	-0,068
-417,701	800,000	0,026	-0,063
-416,686	-200,000	-0,006	-0,127
-415,671	222,676	0,082	-0,096
-414,657	37,938	0,045	-0,029
-413,642	-36,736	-0,124	0,048
-412,628	151,082	-0,069	0,068
-411,613	41,569	0,060	-0,039
-410,598	-200,000	-0,010	-0,108
-409,584	-200,000	0,022	0,133
-408,569	-200,000	-0,015	0,163
-407,555	-200,000	-0,026	0,198
-406,540	-200,000	-0,007	0,150
-405,525	-16,782	-0,140	0,063
-404,511	-200,000	0,009	0,064
-403,496	800,000	0,029	0,083
-402,482	617,324	-0,023	-0,043
-401,467	233,934	-0,101	0,120
-400,452	307,859	-0,024	-0,032
-399,438	152,392	0,111	-0,109
-398,423	-45,905	0,069	0,024
-397,409	3,197	0,075	-0,039
-396,394	-99,942	-0,016	0,003
-395,379	315,333	0,045	0,061
-394,365	-200,000	-0,037	-0,218
-393,350	-103,585	-0,046	-0,008
-392,336	-200,000	0,004	0,038
-391,321	-43,100	0,016	-0,006
-390,306	-76,634	-0,071	-0,018
-389,292	-76,099	0,072	0,018
-388,277	800,000	-0,027	-0,059
-387,263	800,000	0,054	0,154
-386,248	-41,315	-0,027	-0,010
-385,233	35,383	0,099	-0,063
-384,219	-200,000	-0,004	-0,117
-383,204	-78,230	-0,097	-0,024
-382,190	-162,647	-0,062	0,002
-381,175	-23,557	0,062	0,027
-380,160	-31,112	-0,049	0,020
-379,146	614,227	0,017	-0,031
-378,131	-10,866	-0,078	0,037
-377,117	-200,000	0,022	0,103
-376,102	79,068	0,084	-0,065
-375,088	644,584	-0,087	-0,161
-374,073	55,671	0,024	-0,017
-373,058	-200,000	0,002	-0,013
-372,044	-105,486	-0,091	0,015
-371,029	-35,131	0,056	-0,022
-370,015	138,422	-0,055	0,052
-369,000	43,507	-0,061	0,040
-367,985	-117,737	-0,032	-0,004
-366,971	214,938	-0,133	-0,152
-365,956	-101,957	0,099	0,017
-364,942	800,000	-0,026	-0,068
-363,927	2,465	-0,121	-0,063
-362,912	-128,428	-0,086	-0,009
-361,898	76,255	-0,011	-0,008
-360,883	-14,439	-0,086	-0,040
-359,869	-132,020	0,103	0,010
-358,854	-200,000	0,004	-0,023
-357,839	-200,000	0,007	0,032
-356,825	-200,000	-0,008	-0,061
-355,810	121,733	-0,080	0,071
-354,796	73,823	0,112	0,085
-353,781	-200,000	-0,017	-0,076
-352,766	-33,554	0,072	-0,029
-351,752	-200,000	-0,003	-0,029
-350,737	16,490	-0,061	-0,034
-349,723	-87,762	0,026	0,006
-348,708	-136,549	-0,121	-0,010
-347,693	800,000	-0,056	-0,117
-346,679	-32,228	-0,106	-0,042
-345,664	800,000	0,036	-0,113
-344,650	282,352	0,125	0,161
-343,635	592,376	0,072	0,129
-342,620	-200,000	-0,017	0,074
-341,606	-107,971	-0,035	0,005
-340,591	331,847	-0,047	-0,065
-339,577	-58,588	-0,102	-0,032
-338,562	497,816	0,043	-0,072
-337,548	262,127	-0,028	-0,035
-336,533	-64,284	0,099	0,029
-335,518	-128,756	0,047	-0,005
-334,504	40,248	0,061	-0,039
-333,489	90,939	-0,067	-0,054
-332,475	-200,000	-0,006	0,046
-331,460	117,190	-0,109	-0,096
-330,445	363,081	-0,058	-0,084
-329,431	-117,683	0,019	0,002
-328,416	118,897	0,101	-0,089
-327,402	-200,000	0,017	0,129
-326,387	-200,000	-0,008	0,141
-325,372	-77,463	0,065	0,016
-324,358	62,318	0,128	-0,091
-323,343	80,680	-0,173	0,134
-322,329	363,462	-0,074	0,106
-321,314	28,172	-0,027	-0,017
-320,299	569,113	0,056	-0,099
-319,285	-200,000	0,001	-0,009
-318,270	-47,452	0,046	-0,016
-317,256	122,093	-0,189	-0,169
-316,241	731,920	-0,047	-0,091
-315,226	-200,000	0,009	0,047
-314,212	800,000	0,011	-0,033
-313,197	-111,453	0,158	-0,023
-312,183	175,296	0,023	0,024
-311,168	-174,534	0,065	-0,001
-310,153	81,880	-0,112	-0,087
-309,139	-61,793	-0,050	0,015
-308,124	271,206	-0,027	-0,034
-307,110	-200,000	0,033	0,124
-306,095	379,365	0,064	0,094
-305,080	28,824	0,049	0,030
-304,066	362,562	-0,097	0,140
-303,051	800,000	-0,052	-0,141
-302,037	800,000	-0,045	-0,109
-301,022	188,001	0,036	0,038
-300,008	-200,000	-0,002	0,073
-298,993	-63,087	0,021	0,006
-297,978	185,811	0,035	0,038
-296,964	-71,911	0,010	-0,003
-295,949	-200,000	-0,024	-0,108
-294,935	255,398	-0,040	0,050
-293,920	-113,927	-0,038	0,005
-292,905	-200,000	0,001	0,054
-291,891	-200,000	0,030	0,097
-290,876	-200,000	-0,005	-0,042
-289,862	800,000	0,007	-0,014
-288,847	-200,000	-0,003	-0,027
-287,832	800,000	0,030	-0,085
-286,818	270,492	-0,051	-0,064
-285,803	10,024	0,103	-0,056
-284,789	128,709	0,118	-0,108
-283,774	-135,085	-0,110	0,009
-282,759	-109,516	0,132	-0,020
-281,745	67,821	0,035	-0,026
-280,730	154,725	-0,110	-0,108
-279,716	-142,128	-0,070	-0,005
-278,701	28,572	0,132	0,079
-277,686	31,272	0,149	0,091
-276,672	258,475	0,058	-0,072
-275,657	-32,638	0,009	0,004
-274,643	131,500	-0,053	0,049
-273,628	-200,000	-0,017	-0,196
-272,613	800,000	-0,103	0,215
-271,599	-200,000	-0,001	0,104
-270,584	800,000	-0,041	0,113
-269,570	-200,000	0,021	0,118
-268,555	-200,000	0,018	0,142
-267,540	-200,000	0,026	-0,096
-266,526	361,934	0,036	-0,052
-265,511	-74,405	0,008	-0,002
-264,497	120,138	-0,068	0,061
-263,482	133,471	0,073	-0,067
-262,467	-56,032	0,028	-0,009
-261,453	800,000	-0,026	-0,071
-260,438	-100,955	0,091	0,016
-259,424	-98,393	-0,121	0,022
-258,409	-29,319	-0,024	0,010
-257,395	-60,641	0,060	-0,018
-256,380	15,424	0,144	0,081
-255,365	618,254	0,020	0,037
-254,351	5,458	0,169	-0,089
-253,336	60,880	-0,052	-0,037
-252,322	800,000	-0,019	0,043
-251,307	11,370	-0,090	0,049
-250,292	69,562	-0,129	0,095
-249,278	264,894	-0,095	-0,119
-248,263	-86,361	0,100	-0,022
-247,249	800,000	-0,020	-0,051
-246,234	-127,058	0,117	-0,012
-245,219	297,512	-0,054	-0,071
-244,205	800,000	-0,020	0,050
-243,190	800,000	-0,065	-0,159
-242,176	-5,825	0,115	-0,056
-241,161	-200,000	0,023	0,085
-240,146	86,306	-0,049	0,039
-239,132	44,456	0,021	-0,014
-238,117	-25,185	0,116	-0,049
-237,103	749,562	-0,011	-0,022
-236,088	800,000	0,017	0,040
-235,073	754,043	0,063	0,122
-234,059	7,772	0,209	0,112
-233,044	-200,000	-0,022	-0,107
-232,030	137,425	0,034	-0,032
-231,015	-47,421	-0,059	-0,020
-230,000	-200,000	-0,003	-0,051
-228,986	158,586	0,075	-0,074
-227,971	800,000	-0,034	0,070
-226,957	800,000	-0,049	0,099
-225,942	-155,303	0,154	-0,007
-224,927	-14,742	0,055	0,025
-223,913	149,000	-0,072	0,069
-222,898	-96,375	0,062	0,012
-221,884	-29,326	-0,038	-0,015
-220,869	390,183	0,021	0,031
-219,855	394,394	0,087	0,130
-218,840	-54,184	-0,039	0,013
-217,825	-54,854	0,106	-0,034
-216,811	-200,000	0,001	-0,038
-215,796	79,560	-0,109	0,084
-214,782	-19,078	-0,227	0,100
-213,767	-200,000	-0,003	-0,084
-212,752	130,947	0,065	0,060
-211,738	800,000	0,006	0,019
-210,723	20,841	0,105	0,061
-209,709	-114,575	-0,121	0,016
-208,694	27,031	-0,109	-0,065
-207,679	173,699	-0,009	-0,009
-206,665	800,000	-0,033	-0,084
-205,650	-200,000	0,003	0,160
-204,636	65,450	-0,030	-0,022
-203,621	800,000	0,074	0,168
-202,606	-105,481	-0,046	-0,007
-201,592	148,934	-0,048	-0,046
-200,577	166,930	-0,080	-0,081
-199,563	-141,081	0,047	0,003
-198,548	59,301	0,022	0,016
-197,533	800,000	0,018	0,046
-196,519	-123,662	-0,146	0,016
-195,504	89,964	-0,052	-0,041
-194,490	493,217	-0,093	-0,153
-193,475	-67,328	-0,073	-0,020
-192,460	800,000	-0,031	-0,087
-191,446	-139,995	0,137	0,010
-190,431	-60,462	0,100	0,030
-189,417	-79,044	-0,016	-0,004
-188,402	800,000	-0,022	0,062
-187,387	-200,000	-0,012	-0,065
-186,373	-32,401	0,070	0,028
-185,358	100,858	-0,095	-0,079
-184,344	-24,861	0,012	0,005
-183,329	-118,063	-0,095	-0,012
-182,315	-200,000	0,024	0,124
-181,300	800,000	0,021	0,053
-180,285	-200,000	0,001	0,043
-179,271	-4,313	-0,065	0,032
-178,256	-11,136	-0,067	0,032
-177,242	-9,696	0,142	-0,067
-176,227	-200,000	-0,005	0,069
-175,212	15,355	-0,047	0,026
-174,198	-200,000	0,031	0,105
-173,183	800,000	0,031	0,087
-172,169	-200,000	0,020	-0,112
-171,154	-200,000	0,017	-0,100
-170,139	139,022	0,073	0,068
-169,125	-200,000	0,006	-0,020
-168,110	800,000	-0,087	0,187
-167,096	101,545	0,080	0,066
-166,081	800,000	-0,029	-0,062
-165,066	-17,250	-0,121	-0,054
-164,052	140,952	0,064	-0,060
-163,037	800,000	-0,012	0,025
-162,023	55,087	0,199	0,137
-161,008	800,000	0,031	-0,077
-159,993	-200,000	-0,010	-0,118
-158,979	-183,808	-0,156	-0,002
-157,964	117,849	-0,097	0,085
-156,950	493,092	0,056	0,091
-155,935	-168,887	-0,160	0,004
-154,920	-46,904	0,080	0,028
-153,906	308,309	-0,072	0,096
-152,891	-38,258	0,071	-0,027
-151,877	9,394	-0,090	-0,048
-150,862	-92,321	-0,060	0,012
-149,847	-83,557	-0,037	0,008
-148,833	454,169	-0,025	-0,039
-147,818	-77,938	0,076	0,019
-146,804	-142,906	-0,157	0,011
-145,789	-200,000	-0,024	0,116
-144,775	-200,000	-0,054	0,199
-143,760	-200,000	0,017	0,155
-142,745	-200,000	-0,026	-0,090
-141,731	800,000	-0,028	-0,063
-140,716	402,397	0,020	0,029
-139,702	376,870	0,057	-0,083
-138,687	-105,954	0,042	0,007
-137,672	-107,099	-0,051	0,008
-136,658	-89,202	0,035	-0,007
-135,643	111,956	-0,076	-0,065
-134,629	96,274	0,121	-0,098
-133,614	198,935	-0,026	-0,028
-132,599	176,104	0,065	-0,067
-131,585	-19,441	0,046	-0,020
-130,570	301,383	-0,031	-0,041
-129,556	-200,000	-0,012	-0,041
-128,541	-200,000	0,028	0,141
-127,526	136,523	-0,072	0,067
-126,512	800,000	0,061	0,134
-125,497	-63,861	0,052	-0,015
-124,483	-89,158	0,058	-0,012
-123,468	40,934	0,064	-0,041
-122,453	129,004	-0,109	-0,099
-121,439	24,030	-0,087	-0,051
-120,424	-99,858	-0,031	-0,006
-119,410	27,750	0,053	0,032
-118,395	-27,216	-0,098	-0,040
-117,380	-161,936	0,168	0,006
-116,366	-200,000	0,011	0,098
-115,351	42,663	-0,025	0,016
-114,337	398,672	0,029	0,043
-113,322	36,382	0,101	-0,063
-112,307	-26,911	0,098	-0,041
-111,293	131,563	0,084	0,077
-110,278	64,460	0,044	0,032
-109,264	193,547	0,072	0,078
-108,249	-135,190	-0,063	0,005
-107,234	-20,068	-0,075	0,033
-106,220	60,804	-0,025	-0,018
-105,205	-136,656	0,104	-0,008
-104,191	432,253	-0,048	0,074
-103,176	-147,110	0,047	-0,003
-102,162	30,870	-0,022	-0,014
-101,147	535,692	-0,042	0,072
-100,132	-64,165	0,102	0,029
-99,118	-126,403	0,025	-0,003
-98,103	-152,431	0,024	-0,001
-97,089	-200,000	0,030	0,116
-96,074	-200,000	0,003	-0,043
-95,059	-158,398	-0,163	-0,007
-94,045	-81,914	0,007	-0,002
-93,030	800,000	-0,058	-0,180
-92,016	56,142	0,080	-0,055
-91,001	7,824	-0,101	0,054
-89,986	-15,511	0,131	0,059
-88,972	-1,795	0,100	-0,050
-87,957	707,994	0,010	0,018
-86,943	-200,000	-0,031	0,100
-85,928	800,000	-0,058	-0,136
-84,913	197,081	0,086	-0,094
-83,899	-61,283	-0,091	0,027
-82,884	800,000	0,036	0,081
-81,870	256,460	0,073	-0,089
-80,855	-200,000	0,008	0,134
-79,840	117,527	-0,050	0,044
-78,826	154,568	-0,077	-0,075
-77,811	-200,000	0,012	-0,038
-76,797	314,438	0,055	0,074
-75,782	-20,752	0,074	0,032
-74,767	-200,000	0,022	0,134
-73,753	-200,000	-0,009	0,133
-72,738	-200,000	-0,006	0,020
-71,724	328,408	-0,063	0,086
-70,709	-138,190	-0,043	0,003
-69,694	27,064	-0,078	-0,047
-68,680	-138,262	0,081	-0,006
-67,665	800,000	0,049	0,129
-66,651	452,029	0,045	0,070
-65,636	71,038	0,061	-0,045
-64,622	-200,000	-0,038	-0,124
-63,607	-173,865	-0,037	0,001
-62,592	380,531	-0,032	-0,047
-61,578	216,614	0,016	-0,018
-60,563	-70,152	0,118	-0,032
-59,549	800,000	0,104	0,222
-58,534	-94,585	-1,532	-0,293
-57,519	384,149	-1,545	-2,264
-56,505	-200,000	-0,469	-4,300
-55,490	93,329	0,913	0,732
-54,476	800,000	4,870	11,022
-53,461	-200,000	17,931	284,139
-52,446	800,000	724,746	2224,700
-51,432	558,910	1640,282	2818,797
-50,417	79,941	1662,529	1266,064
-49,403	23,297	1536,340	892,970
-48,388	17,267	1459,435	819,091
-47,373	18,021	1449,321	817,009
-46,359	17,554	1439,954	809,466
-45,344	15,541	1435,019	797,058
-44,330	15,542	1433,199	796,024
-43,315	15,498	1431,487	794,829
-42,300	15,468	1430,145	793,910
-41,286	15,520	1428,807	793,384
-40,271	15,515	1427,706	792,716
-39,257	15,519	1426,260	791,900
-38,242	15,568	1424,919	791,359
-37,227	15,552	1423,686	790,566
-36,213	15,592	1422,404	790,011
-35,198	15,525	1421,205	788,999
-34,184	15,580	1420,241	788,689
-33,169	15,487	1419,180	787,632
-32,154	15,545	1418,118	787,283
-31,140	15,545	1416,674	786,452
-30,125	15,577	1415,519	785,930
-29,111	15,590	1414,198	785,224
-28,096	15,528	1413,325	784,421
-27,082	15,498	1412,362	783,714
-26,067	15,481	1411,097	782,897
-25,052	15,459	1409,995	782,152
-24,038	15,456	1409,013	781,564
-23,023	15,471	1407,944	781,010
-22,009	15,441	1407,079	780,359
-20,994	15,435	1406,223	779,825
-19,979	15,379	1405,402	779,077
-18,965	15,417	1404,241	778,583
-17,950	15,370	1403,377	777,849
-16,936	15,408	1402,439	777,475
-15,921	15,394	1401,054	776,612
-14,906	15,337	1400,243	775,869
-13,892	15,333	1399,611	775,466
-12,877	15,378	1398,468	775,011
-11,863	15,337	1397,665	774,346
-10,848	15,329	1396,790	773,795
-9,833	15,364	1395,609	773,271
-8,819	15,295	1394,926	772,540
-7,804	15,279	1393,962	771,905
-6,790	15,295	1392,653	771,224
-5,775	15,248	1391,886	770,549
-4,760	15,330	1391,039	770,427
-3,746	15,284	1390,156	769,696
-2,731	15,268	1389,227	769,079
-1,717	15,233	1388,372	768,415
-0,702	15,260	1386,512	767,480
0,313	19,118	1306,700	741,135
1,327	35,665	707,419	439,647
2,342	55,038	124,979	85,441
3,356	0,106	16,733	8,425
4,371	2,148	3,255	1,661
5,386	-7,641	0,544	0,260
6,400	-200,000	0,006	0,082
7,415	82,909	-0,306	-0,236
8,429	-33,519	-0,260	-0,101
9,444	270,055	-0,178	-0,222
10,459	186,006	-0,301	-0,318
11,473	87,677	-0,138	-0,108
12,488	7,810	-0,335	-0,177
13,502	-20,918	-0,365	-0,158
14,517	48,167	-0,345	-0,228
15,531	205,478	-0,246	-0,271
16,546	19,278	-0,490	-0,278
17,561	275,976	-0,182	-0,229
18,575	-42,457	-0,130	-0,047
19,590	-41,417	-0,367	-0,133
20,604	394,728	-0,194	-0,287
21,619	203,084	-0,428	-0,469
22,634	154,496	-0,429	-0,417
23,648	127,336	-0,427	-0,384
24,663	156,928	-0,333	-0,325
25,677	537,619	-0,198	-0,334
26,692	218,509	-0,232	-0,263
27,707	77,714	-0,441	-0,332
28,721	50,825	-0,378	-0,253
29,736	49,482	-0,488	-0,325
30,750	2,834	-0,324	-0,166
31,765	143,893	-0,419	-0,395
32,780	327,922	-0,274	-0,372
33,794	84,887	-0,435	-0,336
34,809	222,926	-0,305	-0,348
35,823	53,160	-0,351	-0,237
36,838	533,254	-0,198	-0,332
37,853	161,945	-0,411	-0,407
38,867	144,867	-0,342	-0,323
39,882	47,858	-0,565	-0,372
40,896	104,330	-0,252	-0,209
41,911	83,514	-0,212	-0,163
42,926	-76,092	-0,368	-0,091
43,940	105,648	-0,334	-0,279
44,955	161,672	-0,271	-0,268
45,969	39,426	-0,252	-0,159
46,984	-2,845	-0,368	-0,181
47,999	177,585	-0,299	-0,308
49,013	213,529	-0,227	-0,254
50,028	-55,492	-0,274	-0,086
51,042	144,603	-0,339	-0,320
52,057	165,519	-0,360	-0,360
53,071	51,739	-0,369	-0,248
54,086	86,452	-0,353	-0,274
55,101	-37,956	-0,344	-0,128
56,115	119,285	-0,319	-0,279
57,130	73,378	-0,376	-0,278
58,144	112,537	-0,336	-0,287
59,159	133,301	-0,402	-0,366
60,174	-24,657	-0,396	-0,165
61,188	61,085	-0,349	-0,244
62,203	90,840	-0,398	-0,314
63,217	-5,354	-0,364	-0,176
64,232	100,205	-0,251	-0,205
65,247	254,820	-0,169	-0,205
66,261	20,961	-0,439	-0,250
67,276	18,383	-0,301	-0,169
68,290	57,264	-0,311	-0,214
69,305	-37,016	-0,374	-0,140
70,320	-44,762	-0,381	-0,133
71,334	-43,285	-0,351	-0,124
72,349	157,479	-0,242	-0,237
73,363	197,243	-0,274	-0,295
74,378	20,706	-0,349	-0,199
75,393	35,494	-0,457	-0,282
76,407	-38,009	-0,314	-0,117
77,422	36,428	-0,350	-0,217
78,436	-12,848	-0,424	-0,194
79,451	-30,122	-0,300	-0,120
80,466	-23,558	-0,284	-0,119
81,480	108,634	-0,232	-0,195
82,495	-1,090	-0,281	-0,140
83,509	203,832	-0,162	-0,177
84,524	3,148	-0,211	-0,108
85,539	0,550	-0,379	-0,190
86,553	52,405	-0,311	-0,209
87,568	238,295	-0,195	-0,228
88,582	17,444	-0,339	-0,189
89,597	-1,351	-0,336	-0,166
90,611	21,275	-0,401	-0,229
91,626	-24,419	-0,250	-0,104
92,641	95,444	-0,283	-0,226
93,655	-63,304	-0,227	-0,065
94,670	237,271	-0,214	-0,250
95,684	-90,486	-0,366	-0,074
96,699	207,364	-0,299	-0,328
97,714	-29,218	-0,250	-0,100
98,728	2,334	-0,238	-0,121
99,743	350,482	-0,200	-0,279
100,757	12,563	-0,183	-0,099
101,772	47,700	-0,280	-0,183
102,787	104,224	-0,289	-0,239
103,801	75,209	-0,336	-0,249
104,816	148,894	-0,147	-0,140
105,830	52,957	-0,194	-0,130
106,845	26,426	-0,232	-0,136
107,860	-87,127	-0,287	-0,061
108,874	216,312	-0,247	-0,276
109,889	199,808	-0,244	-0,264
110,903	12,019	-0,290	-0,156
111,918	354,911	-0,193	-0,270
112,933	432,790	-0,156	-0,238
113,947	-80,223	-0,290	-0,068
114,962	105,970	-0,157	-0,131
115,976	298,225	-0,225	-0,292
116,991	109,417	-0,198	-0,166
118,006	-102,117	-0,362	-0,061
119,020	62,968	-0,267	-0,187
120,035	800,000	-0,136	-0,265
121,049	-4,307	-0,215	-0,104
122,064	-38,325	-0,317	-0,117
123,079	166,652	-0,197	-0,196
124,093	149,900	-0,280	-0,267
125,108	33,707	-0,305	-0,185
126,122	39,399	-0,205	-0,128
127,137	-91,949	-0,204	-0,040
128,151	16,031	-0,296	-0,163
129,166	102,352	-0,226	-0,185
130,181	620,441	-0,119	-0,210
131,195	-18,589	-0,320	-0,140
132,210	272,683	-0,266	-0,330
133,224	-15,091	-0,276	-0,123
134,239	-21,575	-0,308	-0,131
135,254	-119,139	-0,179	0,022
136,268	27,739	-0,245	-0,144
137,283	37,022	-0,349	-0,216
138,297	109,680	-0,275	-0,231
139,312	-25,671	-0,274	-0,113
140,327	275,548	-0,203	-0,252
141,341	53,487	-0,138	-0,092
142,356	-112,548	-0,243	-0,033
143,370	92,394	-0,176	-0,139
144,385	166,619	-0,296	-0,294
145,400	-69,718	-0,279	-0,074
146,414	73,541	-0,145	-0,106
147,429	-56,292	-0,196	-0,061
148,443	56,507	-0,357	-0,242
149,458	268,770	-0,161	-0,198
150,473	154,767	-0,166	-0,159
151,487	-200,000	-0,030	-0,295
152,502	90,104	-0,256	-0,200
153,516	105,262	-0,228	-0,188
154,531	-79,829	-0,261	-0,061
155,546	33,803	-0,282	-0,171
156,560	60,427	-0,111	-0,077
157,575	-5,063	-0,195	-0,093
158,589	36,232	-0,256	-0,158
159,604	237,219	-0,187	-0,218
160,619	800,000	-0,090	-0,250
161,633	13,088	-0,363	-0,196
162,648	800,000	-0,066	-0,189
163,662	-99,099	-0,292	-0,051
164,677	-59,559	-0,201	-0,060
165,692	171,746	-0,158	-0,158
166,706	216,043	-0,258	-0,287
167,721	223,223	-0,110	-0,124
168,735	46,022	-0,272	-0,176
169,750	-64,415	-0,379	-0,107
170,764	46,794	-0,335	-0,217
171,779	197,440	-0,173	-0,185
172,794	65,741	-0,168	-0,119
173,808	69,799	-0,154	-0,111
174,823	69,302	-0,340	-0,244
175,837	99,989	-0,144	-0,116
176,852	-89,927	-0,259	-0,052
177,867	-7,184	-0,341	-0,161
178,881	11,004	-0,227	-0,121
179,896	800,000	-0,139	-0,304
180,910	-36,089	-0,272	-0,102
181,925	632,244	-0,180	-0,319
182,940	337,509	-0,176	-0,239
183,954	245,602	-0,258	-0,304
184,969	42,246	-0,186	-0,118
185,983	700,600	-0,140	-0,258
186,998	-117,712	-0,207	-0,026
188,013	221,071	-0,146	-0,163
189,027	81,328	-0,233	-0,175
190,042	-47,006	-0,219	-0,074
191,056	13,622	-0,320	-0,172
192,071	220,295	-0,137	-0,154
193,086	484,460	-0,127	-0,202
194,100	447,665	-0,067	-0,103
195,115	213,880	-0,243	-0,268
196,129	189,981	-0,231	-0,242
197,144	132,964	-0,273	-0,246
198,159	-200,000	-0,026	-0,324
199,173	539,044	-0,181	-0,301
200,188	-4,305	-0,241	-0,116
201,202	115,796	-0,235	-0,200
202,217	194,675	-0,176	-0,186
203,232	-4,519	-0,222	-0,107
204,246	800,000	-0,138	-0,281
205,261	134,093	-0,254	-0,229
206,275	78,393	-0,236	-0,175
207,290	480,228	-0,147	-0,233
208,304	-141,291	-0,161	-0,011
209,319	124,710	-0,151	-0,132
210,334	62,601	-0,216	-0,150
211,348	16,358	-0,270	-0,148
212,363	61,378	-0,274	-0,189
213,377	606,059	-0,133	-0,232
214,392	65,865	-0,190	-0,134
215,407	-139,970	-0,203	-0,015
216,421	800,000	-0,118	-0,239
217,436	45,655	-0,193	-0,124
218,450	158,979	-0,176	-0,171
219,465	73,000	-0,290	-0,211
220,480	52,907	-0,215	-0,143
221,494	384,144	-0,034	-0,048
222,509	800,000	-0,064	-0,189
223,523	310,707	-0,165	-0,216
224,538	295,943	-0,163	-0,208
225,553	177,511	-0,191	-0,193
226,567	267,372	-0,153	-0,187
227,582	91,911	-0,182	-0,142
228,596	11,528	-0,168	-0,089
229,611	-0,206	-0,282	-0,139
230,626	-81,572	-0,068	-0,015
231,640	89,629	-0,107	-0,083
232,655	218,663	-0,184	-0,205
233,669	11,208	-0,193	-0,102
234,684	53,595	-0,236	-0,157
235,699	75,486	-0,247	-0,181
236,713	169,285	-0,107	-0,106
237,728	100,579	-0,138	-0,111
238,742	800,000	-0,106	-0,247
239,757	107,105	-0,266	-0,219
240,772	186,530	-0,179	-0,185
241,786	104,524	-0,231	-0,189
242,801	295,529	-0,053	-0,067
243,815	-200,000	0,015	-0,278
244,830	-13,072	-0,276	-0,124
245,844	28,541	-0,204	-0,119
246,859	102,373	-0,118	-0,095
247,874	49,131	-0,158	-0,103
248,888	73,375	-0,214	-0,155
249,903	256,976	-0,181	-0,216
250,917	800,000	-0,087	-0,202
251,932	33,549	-0,045	-0,027
252,947	-3,539	-0,142	-0,068
253,961	-13,144	-0,224	-0,100
254,976	54,928	-0,246	-0,164
255,990	326,292	-0,178	-0,237
257,005	-39,304	-0,204	-0,074
258,020	93,236	-0,119	-0,094
259,034	-200,000	0,022	-0,087
260,049	-71,572	-0,290	-0,075
261,063	192,181	-0,298	-0,312
262,078	681,188	-0,082	-0,148
263,093	47,065	-0,256	-0,164
264,107	347,344	-0,032	-0,044
265,122	94,162	-0,137	-0,108
266,136	16,633	-0,087	-0,047
267,151	800,000	-0,059	-0,125
268,166	102,393	-0,178	-0,144
269,180	-29,132	-0,093	-0,037
270,195	-37,935	-0,257	-0,094
271,209	-109,316	-0,199	-0,029
272,224	132,622	-0,155	-0,139
273,239	17,681	-0,203	-0,112
274,253	132,767	-0,190	-0,170
275,268	80,261	-0,249	-0,185
276,282	161,884	-0,193	-0,187
277,297	489,386	-0,166	-0,263
278,312	800,000	-0,092	-0,249
279,326	-48,224	-0,123	-0,041
280,341	137,092	-0,093	-0,084
281,355	53,012	-0,101	-0,067
282,370	24,460	-0,210	-0,120
283,384	7,430	-0,178	-0,092
284,399	213,279	-0,165	-0,180
285,414	421,722	-0,092	-0,137
286,428	621,260	-0,134	-0,234
287,443	-200,000	-0,034	0,000
288,457	37,473	-0,027	-0,017
289,472	57,838	-0,215	-0,145
290,487	394,044	-0,175	-0,253
291,501	140,362	-0,093	-0,085
292,516	49,898	-0,138	-0,090
293,530	-66,375	-0,095	-0,026
294,545	-142,933	-0,141	0,009
295,560	38,951	-0,134	-0,083
296,574	-37,917	-0,199	-0,073
297,589	48,666	-0,193	-0,125
298,603	-3,664	-0,254	-0,121
299,618	125,760	-0,128	-0,112
300,633	-200,000	-0,010	-0,129
301,647	-40,412	-0,184	-0,066
302,662	-152,001	-0,151	-0,007
303,676	176,324	-0,161	-0,161
304,691	231,651	-0,194	-0,220
305,706	138,970	-0,236	-0,214
306,720	-6,402	-0,136	-0,064
307,735	136,151	-0,129	-0,116
308,749	97,008	-0,193	-0,152
309,764	116,008	-0,069	-0,058
310,779	9,134	-0,112	-0,058
311,793	-31,101	-0,123	-0,048
312,808	634,973	-0,110	-0,194
313,822	11,236	-0,185	-0,097
314,837	630,970	-0,143	-0,251
315,852	-30,839	-0,047	0,018
316,866	374,879	-0,101	-0,143
317,881	800,000	-0,061	-0,118
318,895	38,485	-0,107	-0,066
319,910	634,737	-0,126	-0,221
320,925	-71,586	-0,096	-0,024
321,939	89,490	-0,138	-0,106
322,954	363,002	-0,062	-0,086
323,968	-127,274	-0,034	-0,003
324,983	-40,239	-0,136	-0,049
325,997	-142,266	-0,108	0,007
327,012	122,238	-0,234	-0,201
328,027	-76,012	-0,209	-0,050
329,041	-200,000	-0,036	-0,246
330,056	800,000	-0,045	-0,093
331,070	800,000	-0,048	-0,139
332,085	800,000	-0,016	-0,039
333,100	-94,213	-0,109	-0,020
334,114	24,455	-0,152	-0,086
335,129	-82,543	-0,109	0,024
336,143	282,387	-0,094	-0,117
337,158	316,683	-0,077	0,101
338,173	-200,000	-0,019	-0,102
339,187	-10,807	-0,087	0,039
340,202	664,418	-0,066	-0,118
341,216	84,769	-0,097	-0,073
342,231	800,000	-0,076	-0,168
343,246	800,000	-0,107	-0,209
344,260	276,091	0,020	-0,024
345,275	106,953	-0,070	-0,057
346,289	5,201	-0,115	-0,058
347,304	474,149	-0,114	-0,177
348,319	305,010	-0,103	-0,131
349,333	218,970	-0,177	-0,195
350,348	90,356	-0,103	-0,079
351,362	321,640	-0,204	-0,268
352,377	-85,029	-0,046	-0,010
353,392	-98,083	-0,154	-0,027
354,406	-50,040	-0,062	-0,020
355,421	208,973	1312,817	1414,042
356,435	160,818	1473,332	1414,565
