DTS Sentinel unit serial number:	SN410029Multiplexer serial number:	ORYXHardware model number:	OX2-SRSoftware version number:	ORYX F/W v4,00 Oryx Data Collector v3.7.2.0data status	okinstallation	B3 Nyhavnadifferential loss correction	single-endedforward channel	channel 1reverse channel	N/Adate	2023/12/04time	13:32:30forward acquisition time	300,00reverse acquisition time	0,00gamma	499,1914k internal	0,3201k external	0,3201temperature offset calibration	1,0000default loss term (dB/km)	0,3820temperature slope calibration	1,0000multiplexer offset coefficient	1,0000multiplexer slope coefficient	1,0000fibre end	0,00T internal ref (°C)	14,88T ext. ref 1 (°C)	0,26T ext. ref 2 (°C)	0,25length (m)	temperature (°C)	Stokes	anti-Stokes-744,400	346,806	-0,145	-0,208
-743,385	-200,000	0,060	0,303
-742,371	-200,000	-0,025	-0,117
-741,356	374,600	0,155	0,230
-740,342	165,639	-0,193	-0,199
-739,327	-200,000	-0,086	0,405
-738,312	74,751	-0,265	-0,203
-737,298	800,000	0,101	0,205
-736,283	306,237	-0,203	-0,276
-735,269	-200,000	0,012	0,321
-734,254	372,809	-0,123	-0,182
-733,239	-200,000	-0,050	0,212
-732,225	-200,000	-0,061	-0,195
-731,210	-56,469	0,166	0,053
-730,196	44,535	-0,037	-0,025
-729,181	-96,083	0,068	0,013
-728,167	-72,583	-0,079	-0,021
-727,152	-181,000	0,038	0,001
-726,137	-111,667	-0,111	-0,016
-725,123	59,035	-0,033	-0,023
-724,108	-71,108	-0,111	-0,030
-723,094	198,742	-0,033	-0,037
-722,079	-126,956	-0,111	0,012
-721,064	-27,887	-0,080	0,034
-720,050	674,028	-0,058	0,110
-719,035	-200,000	0,002	0,161
-718,021	-1,273	-0,037	-0,019
-717,006	-32,125	-0,093	-0,038
-715,991	252,520	-0,057	0,070
-714,977	800,000	0,053	0,144
-713,962	263,528	-0,074	-0,094
-712,948	34,093	-0,097	-0,061
-711,933	800,000	-0,073	0,170
-710,918	145,186	-0,087	0,084
-709,904	-71,804	-0,099	-0,027
-708,889	-42,050	-0,110	-0,041
-707,875	-200,000	0,021	-0,148
-706,860	282,057	0,019	-0,025
-705,845	385,978	-0,038	0,058
-704,831	800,000	0,065	0,155
-703,816	-138,045	-0,091	0,007
-702,802	364,894	0,036	0,053
-701,787	628,430	-0,085	-0,157
-700,772	508,383	-0,038	-0,065
-699,758	-200,000	-0,009	0,074
-698,743	191,520	0,080	0,087
-697,729	70,226	0,075	0,056
-696,714	110,130	0,097	0,084
-695,699	14,709	-0,220	-0,125
-694,685	-200,000	-0,001	-0,072
-693,670	79,849	-0,085	0,067
-692,656	192,269	-0,050	0,055
-691,641	0,040	0,098	0,051
-690,627	149,717	-0,042	-0,041
-689,612	-200,000	-0,036	-0,149
-688,597	800,000	-0,013	0,035
-687,583	107,841	-0,117	0,101
-686,568	-96,527	-0,170	-0,032
-685,554	44,007	-0,024	-0,016
-684,539	170,504	0,011	-0,011
-683,524	-40,186	-0,023	-0,009
-682,510	-59,832	-0,090	-0,028
-681,495	16,423	-0,097	-0,055
-680,481	-77,847	0,095	0,024
-679,466	94,050	-0,154	-0,127
-678,451	-120,015	-0,042	-0,005
-677,437	-60,860	0,109	-0,033
-676,422	800,000	0,056	0,115
-675,408	-200,000	0,009	-0,150
-674,393	-200,000	-0,009	0,037
-673,378	-200,000	-0,019	0,085
-672,364	800,000	-0,023	-0,053
-671,349	800,000	0,059	-0,129
-670,335	25,708	-0,064	-0,039
-669,320	257,156	0,098	0,122
-668,305	498,952	0,056	0,093
-667,291	-127,201	-0,059	-0,006
-666,276	160,448	-0,060	0,061
-665,262	800,000	-0,028	-0,086
-664,247	-30,518	0,040	-0,017
-663,232	800,000	0,042	0,119
-662,218	-14,922	0,116	0,054
-661,203	-51,555	-0,119	0,040
-660,189	157,453	-0,078	0,078
-659,174	203,370	-0,165	-0,185
-658,159	-200,000	0,009	-0,090
-657,145	228,377	-0,070	-0,083
-656,130	-136,691	-0,069	-0,006
-655,116	-25,021	0,138	-0,059
-654,101	531,024	0,094	0,163
-653,086	350,237	-0,106	0,153
-652,072	-200,000	-0,026	0,149
-651,057	282,009	0,039	-0,051
-650,043	800,000	-0,025	-0,070
-649,028	800,000	-0,092	-0,186
-648,014	465,958	-0,092	0,150
-646,999	-158,833	0,126	0,005
-645,984	-26,282	-0,016	-0,007
-644,970	-132,161	-0,140	-0,013
-643,955	677,691	0,067	-0,127
-642,941	-200,000	-0,015	-0,074
-641,926	-22,984	0,138	-0,060
-640,911	-39,628	-0,065	0,025
-639,897	800,000	0,018	0,044
-638,882	-149,508	-0,192	0,011
-637,868	138,179	0,126	0,119
-636,853	145,232	-0,074	-0,072
-635,838	772,694	0,047	-0,093
-634,824	157,932	0,065	0,065
-633,809	-51,888	-0,089	0,030
-632,795	628,493	0,033	-0,062
-631,780	-77,032	0,140	0,035
-630,765	-54,935	0,018	-0,006
-629,751	-200,000	-0,009	0,047
-628,736	284,833	-0,088	0,115
-627,722	129,379	-0,026	-0,024
-626,707	381,358	0,051	0,076
-625,692	35,285	0,099	0,063
-624,678	619,026	0,041	0,075
-623,663	-59,130	-0,079	0,025
-622,649	-200,000	0,014	-0,194
-621,634	-200,000	0,014	-0,049
-620,619	210,911	-0,017	-0,020
-619,605	281,089	-0,034	-0,045
-618,590	92,095	-0,056	0,045
-617,576	-162,994	0,113	-0,004
-616,561	-62,260	0,065	-0,020
-615,546	800,000	0,021	-0,047
-614,532	-125,229	-0,107	0,012
-613,517	82,379	-0,104	0,082
-612,503	426,472	-0,075	-0,117
-611,488	109,079	0,039	-0,034
-610,474	-152,810	0,074	0,004
-609,459	-36,358	-0,054	0,021
-608,444	-134,492	0,087	-0,008
-607,430	-43,811	-0,029	0,010
-606,415	-52,380	-0,145	0,048
-605,401	-179,275	0,138	-0,002
-604,386	-31,428	0,043	-0,017
-603,371	-200,000	0,051	-0,203
-602,357	257,641	-0,033	0,041
-601,342	-80,120	-0,109	-0,026
-600,328	-200,000	-0,028	-0,116
-599,313	-39,008	-0,117	0,044
-598,298	758,486	0,092	-0,181
-597,284	189,168	-0,006	-0,007
-596,269	800,000	0,036	-0,111
-595,255	-200,000	-0,006	-0,027
-594,240	-200,000	0,003	0,054
-593,225	-200,000	0,000	0,008
-592,211	-68,347	-0,006	0,002
-591,196	-114,131	-0,060	0,008
-590,182	532,356	-0,040	0,069
-589,167	-200,000	-0,026	0,088
-588,152	383,747	-0,011	-0,016
-587,138	740,133	0,034	-0,067
-586,123	105,638	-0,025	-0,021
-585,109	94,755	-0,098	-0,081
-584,094	271,877	0,043	-0,055
-583,079	800,000	-0,060	0,184
-582,065	731,994	-0,067	0,129
-581,050	-47,345	-0,052	-0,018
-580,036	402,270	-0,044	0,068
-579,021	484,723	-0,073	-0,121
-578,006	257,265	-0,068	-0,084
-576,992	-200,000	-0,006	0,079
-575,977	96,160	0,092	0,076
-574,963	97,126	-0,069	-0,057
-573,948	800,000	0,029	0,070
-572,934	-92,741	0,186	0,037
-571,919	-200,000	0,012	-0,047
-570,904	-101,686	-0,055	0,010
-569,890	-72,267	0,168	-0,045
-568,875	800,000	0,041	0,099
-567,861	151,508	0,072	0,070
-566,846	383,727	0,043	0,064
-565,831	-81,148	-0,044	-0,010
-564,817	-200,000	0,022	-0,080
-563,802	-171,042	-0,137	-0,003
-562,788	16,795	-0,022	0,013
-561,773	408,930	-0,078	0,119
-560,758	-200,000	-0,031	0,142
-559,744	-200,000	0,006	-0,144
-558,729	-200,000	0,003	0,082
-557,715	-200,000	-0,001	-0,109
-556,700	800,000	-0,037	-0,081
-555,685	683,490	-0,101	-0,190
-554,671	61,513	0,095	-0,068
-553,656	323,913	0,049	0,068
-552,642	800,000	0,011	-0,032
-551,627	-200,000	0,006	-0,062
-550,612	591,820	0,024	-0,043
-549,598	-50,043	0,083	-0,028
-548,583	-25,631	0,080	-0,034
-547,569	16,125	0,080	-0,046
-546,554	-200,000	-0,006	-0,142
-545,539	-39,601	0,100	-0,037
-544,525	-74,039	0,056	0,015
-543,510	-36,187	0,121	-0,047
-542,496	-200,000	0,016	-0,060
-541,481	-119,561	0,117	-0,014
-540,466	-200,000	-0,040	-0,137
-539,452	-200,000	0,010	-0,094
-538,437	800,000	-0,032	0,081
-537,423	414,347	-0,061	0,094
-536,408	-83,446	0,117	-0,027
-535,393	5,046	-0,111	-0,059
-534,379	-200,000	0,006	-0,180
-533,364	-44,556	0,079	0,028
-532,350	518,469	-0,084	-0,142
-531,335	464,158	0,055	0,090
-530,321	-6,070	-0,037	0,018
-529,306	-20,359	-0,114	-0,050
-528,291	175,028	-0,005	-0,005
-527,277	-85,201	-0,105	0,023
-526,262	103,951	-0,086	0,073
-525,248	24,800	-0,056	0,033
-524,233	-200,000	0,013	-0,062
-523,218	639,023	-0,047	0,087
-522,204	800,000	-0,076	-0,168
-521,189	91,516	-0,066	-0,053
-520,175	200,305	0,025	0,028
-519,160	-6,343	0,021	-0,010
-518,145	-200,000	-0,028	0,101
-517,131	-200,000	-0,027	0,149
-516,116	-200,000	0,004	-0,024
-515,102	800,000	0,039	0,097
-514,087	-47,907	0,185	-0,064
-513,072	-200,000	-0,020	0,099
-512,058	-200,000	0,017	-0,120
-511,043	-200,000	0,007	-0,102
-510,029	207,206	-0,073	-0,082
-509,014	-166,420	-0,093	-0,003
-507,999	152,721	-0,067	0,066
-506,985	-107,507	-0,149	0,023
-505,970	-200,000	-0,021	-0,203
-504,956	69,810	-0,098	-0,073
-503,941	800,000	0,031	-0,085
-502,926	-193,701	-0,100	0,001
-501,912	29,127	0,078	-0,047
-500,897	-200,000	-0,005	-0,065
-499,883	575,759	-0,035	-0,061
-498,868	181,771	-0,020	-0,021
-497,853	-19,390	-0,136	0,060
-496,839	-133,921	0,034	-0,003
-495,824	-182,064	0,146	-0,002
-494,810	287,445	0,105	0,137
-493,795	-200,000	-0,006	-0,070
-492,781	661,637	-0,075	0,141
-491,766	-13,627	0,082	0,038
-490,751	192,570	0,015	0,017
-489,737	-200,000	0,014	0,086
-488,722	-7,579	-0,030	0,015
-487,708	-48,004	0,139	-0,048
-486,693	-75,526	-0,176	0,045
-485,678	-121,065	0,100	0,012
-484,664	147,927	-0,074	-0,072
-483,649	-200,000	-0,012	-0,122
-482,635	37,108	0,101	0,064
-481,620	-180,293	0,125	0,002
-480,605	3,996	-0,059	0,031
-479,591	0,971	-0,071	0,037
-478,576	-0,699	-0,123	0,063
-477,562	-200,000	0,012	-0,056
-476,547	-93,431	0,130	-0,026
-475,532	270,981	-0,053	0,068
-474,518	87,612	0,133	0,106
-473,503	7,414	0,163	0,087
-472,489	-200,000	0,004	0,121
-471,474	-134,896	0,073	-0,006
-470,459	800,000	0,017	0,049
-469,445	38,712	-0,182	0,117
-468,430	153,430	-0,051	-0,050
-467,416	-165,163	0,083	-0,003
-466,401	-200,000	0,002	-0,037
-465,386	-89,235	0,105	-0,022
-464,372	-200,000	-0,007	0,194
-463,357	-117,720	-0,037	0,005
-462,343	800,000	0,055	-0,145
-461,328	-92,037	-0,022	-0,004
-460,313	13,875	-0,040	0,022
-459,299	228,697	0,068	0,080
-458,284	-200,000	0,022	0,204
-457,270	-22,815	-0,110	-0,048
-456,255	-200,000	0,020	-0,118
-455,241	-200,000	-0,030	-0,120
-454,226	-200,000	-0,005	-0,077
-453,211	220,592	-0,071	0,082
-452,197	738,155	0,011	-0,021
-451,182	800,000	-0,027	0,060
-450,168	156,316	-0,055	0,055
-449,153	800,000	-0,045	-0,092
-448,138	7,687	-0,007	0,004
-447,124	188,689	-0,052	0,056
-446,109	3,604	-0,118	0,062
-445,095	-200,000	0,024	0,101
-444,080	-126,104	0,060	0,006
-443,065	361,797	-0,063	0,091
-442,051	800,000	0,029	-0,087
-441,036	-86,861	-0,143	-0,031
-440,022	800,000	-0,024	-0,068
-439,007	800,000	0,077	-0,157
-437,992	-200,000	-0,016	0,082
-436,978	-200,000	-0,023	0,102
-435,963	-200,000	-0,004	0,152
-434,949	398,981	-0,032	-0,049
-433,934	198,162	0,086	0,095
-432,919	-74,573	-0,074	-0,019
-431,905	-30,890	-0,064	0,026
-430,890	254,357	0,049	0,060
-429,876	196,547	0,099	-0,108
-428,861	103,619	-0,045	0,038
-427,846	-200,000	0,045	-0,236
-426,832	-200,000	0,032	-0,102
-425,817	-26,613	0,034	0,014
-424,803	800,000	0,022	-0,067
-423,788	-35,745	-0,027	-0,010
-422,773	324,608	0,070	0,096
-421,759	-200,000	-0,000	0,024
-420,744	264,864	-0,055	0,069
-419,730	-168,304	0,046	-0,001
-418,715	-112,176	0,066	0,009
-417,701	-17,899	-0,108	-0,049
-416,686	206,994	0,095	0,106
-415,671	94,603	-0,049	0,040
-414,657	377,351	0,047	0,069
-413,642	-200,000	0,038	0,157
-412,628	-200,000	0,011	-0,045
-411,613	230,408	-0,142	-0,167
-410,598	572,262	-0,054	-0,095
-409,584	-200,000	0,015	-0,147
-408,569	800,000	0,023	0,059
-407,555	299,976	-0,048	0,063
-406,540	14,118	-0,103	0,058
-405,525	-200,000	0,021	0,087
-404,511	800,000	0,013	-0,034
-403,496	-200,000	0,000	-0,062
-402,482	120,364	-0,052	0,046
-401,467	515,875	-0,041	0,069
-400,452	-133,413	0,130	-0,012
-399,438	800,000	0,018	0,051
-398,423	-47,038	-0,065	0,023
-397,409	-200,000	-0,010	0,064
-396,394	-200,000	0,015	-0,091
-395,379	239,454	0,148	-0,177
-394,365	-200,000	-0,023	0,176
-393,350	-114,552	0,128	-0,017
-392,336	-40,942	-0,073	-0,027
-391,321	-41,253	-0,081	0,030
-390,306	800,000	0,038	-0,112
-389,292	800,000	0,010	-0,021
-388,277	-200,000	-0,001	-0,049
-387,263	448,304	0,040	-0,064
-386,248	288,092	0,077	0,100
-385,233	597,358	0,028	0,050
-384,219	40,948	0,035	0,022
-383,204	-200,000	0,028	-0,189
-382,190	800,000	0,004	0,011
-381,175	53,841	-0,146	-0,101
-380,160	-200,000	-0,032	0,199
-379,146	-200,000	-0,014	0,050
-378,131	-200,000	-0,001	-0,013
-377,117	344,146	0,048	-0,068
-376,102	-162,107	-0,058	-0,002
-375,088	-39,483	0,039	0,015
-374,073	800,000	-0,053	-0,118
-373,058	-30,950	0,093	0,038
-372,044	-200,000	0,010	0,047
-371,029	-200,000	0,022	0,130
-370,015	800,000	0,039	0,110
-369,000	329,368	-0,057	0,079
-367,985	-200,000	-0,001	0,122
-366,971	263,624	-0,068	-0,085
-365,956	-200,000	0,006	0,113
-364,942	-137,225	0,116	0,009
-363,927	307,075	-0,026	-0,035
-362,912	-200,000	0,033	-0,128
-361,898	29,533	0,106	0,064
-360,883	-200,000	-0,039	-0,176
-359,869	171,643	-0,007	0,007
-358,854	-200,000	0,011	-0,099
-357,839	578,022	-0,027	-0,047
-356,825	-32,020	0,117	0,046
-355,810	-177,168	-0,093	0,002
-354,796	-200,000	0,007	-0,026
-353,781	-60,877	-0,169	-0,051
-352,766	-14,626	-0,202	0,093
-351,752	-122,040	0,024	0,003
-350,737	136,498	0,062	-0,058
-349,723	119,636	0,118	0,104
-348,708	-178,221	0,016	-0,000
-347,693	800,000	-0,025	-0,065
-346,679	-73,713	-0,148	-0,038
-345,664	800,000	0,013	0,029
-344,650	30,757	0,090	0,055
-343,635	-148,734	0,064	0,004
-342,620	800,000	0,051	0,114
-341,606	-99,348	-0,084	-0,015
-340,591	-76,007	0,089	0,022
-339,577	-122,625	-0,021	0,002
-338,562	23,905	-0,066	-0,039
-337,548	-102,635	0,006	-0,001
-336,533	82,490	0,110	0,086
-335,518	-98,587	-0,100	0,018
-334,504	43,398	0,142	0,093
-333,489	-177,858	-0,071	-0,001
-332,475	800,000	0,010	-0,023
-331,460	675,539	-0,035	0,065
-330,445	-200,000	0,017	0,087
-329,431	191,547	0,071	-0,077
-328,416	420,785	0,073	0,112
-327,402	348,130	-0,070	0,099
-326,387	85,039	0,074	0,058
-325,372	-0,376	-0,031	-0,016
-324,358	800,000	-0,015	-0,043
-323,343	407,470	0,111	-0,169
-322,329	-52,056	0,148	-0,049
-321,314	611,495	-0,058	0,105
-320,299	211,048	0,083	-0,094
-319,285	-117,396	-0,090	-0,012
-318,270	800,000	0,054	0,108
-317,256	-200,000	-0,003	-0,015
-316,241	478,647	-0,077	0,125
-315,226	-200,000	0,000	0,161
-314,212	7,813	-0,041	0,022
-313,197	-200,000	0,007	0,056
-312,183	267,915	0,052	0,066
-311,168	-0,009	0,021	-0,011
-310,153	-93,186	0,076	0,015
-309,139	88,360	0,074	-0,059
-308,124	-98,719	0,052	-0,009
-307,110	800,000	0,009	0,026
-306,095	-200,000	0,008	0,086
-305,080	44,995	-0,059	-0,039
-304,066	95,716	0,114	-0,093
-303,051	-6,077	-0,161	-0,079
-302,037	-200,000	0,010	-0,101
-301,022	-77,048	0,096	0,024
-300,008	112,129	0,139	0,120
-298,993	-93,672	0,140	-0,027
-297,978	115,436	-0,066	0,058
-296,964	515,684	-0,026	-0,043
-295,949	-44,701	-0,071	-0,025
-294,935	172,750	0,047	-0,048
-293,920	-25,124	-0,098	-0,041
-292,905	-136,402	0,129	0,011
-291,891	-59,388	0,078	0,024
-290,876	640,017	0,068	-0,124
-289,862	-200,000	0,024	-0,076
-288,847	-200,000	0,000	-0,038
-287,832	763,728	-0,082	-0,161
-286,818	288,707	-0,122	-0,159
-285,803	-200,000	0,014	0,077
-284,789	-200,000	0,002	0,085
-283,774	-10,531	-0,119	0,056
-282,759	109,776	0,052	0,044
-281,745	44,532	0,095	0,062
-280,730	578,040	-0,048	0,084
-279,716	64,708	-0,074	0,053
-278,701	-200,000	0,008	-0,074
-277,686	-200,000	-0,011	0,098
-276,672	100,869	-0,045	0,037
-275,657	-16,910	0,044	-0,020
-274,643	-200,000	0,002	0,008
-273,628	173,599	-0,056	0,058
-272,613	580,937	0,046	-0,080
-271,599	113,911	0,044	0,039
-270,584	800,000	-0,066	-0,156
-269,570	-138,348	-0,026	0,002
-268,555	147,042	-0,047	0,045
-267,540	-200,000	-0,019	-0,118
-266,526	409,360	-0,044	-0,067
-265,511	-200,000	-0,011	-0,072
-264,497	-200,000	0,016	-0,089
-263,482	-200,000	0,020	0,089
-262,467	-84,632	0,019	0,004
-261,453	41,073	-0,057	0,037
-260,438	-132,784	-0,044	-0,004
-259,424	-120,717	-0,079	-0,009
-258,409	-200,000	0,006	0,079
-257,395	800,000	0,037	0,082
-256,380	547,223	-0,040	0,068
-255,365	581,625	-0,070	0,123
-254,351	413,366	0,034	0,052
-253,336	42,132	-0,061	-0,039
-252,322	-72,997	0,133	-0,035
-251,307	80,230	0,132	-0,101
-250,292	627,456	-0,083	0,150
-249,278	-51,405	0,028	0,009
-248,263	-41,632	0,135	0,049
-247,249	800,000	-0,057	-0,122
-246,234	-200,000	0,009	-0,120
-245,219	-108,273	-0,111	0,017
-244,205	-200,000	-0,004	-0,041
-243,190	-200,000	-0,026	-0,124
-242,176	-91,894	-0,036	-0,007
-241,161	126,142	0,080	0,072
-240,146	-200,000	-0,003	-0,061
-239,132	-200,000	-0,011	-0,042
-238,117	800,000	-0,062	-0,147
-237,103	297,839	0,081	-0,106
-236,088	-200,000	0,003	-0,072
-235,073	44,716	-0,065	-0,043
-234,059	-200,000	0,010	0,036
-233,044	742,910	-0,041	0,078
-232,030	555,538	-0,074	0,128
-231,015	-41,488	0,033	-0,012
-230,000	800,000	0,057	-0,166
-228,986	800,000	0,033	-0,074
-227,971	552,880	-0,044	0,076
-226,957	309,988	0,061	0,081
-225,942	-200,000	-0,028	0,120
-224,927	799,450	0,063	-0,125
-223,913	423,052	0,088	-0,136
-222,898	40,694	0,101	-0,065
-221,884	160,423	-0,022	0,022
-220,869	-25,643	0,129	0,054
-219,855	-200,000	0,046	0,168
-218,840	-27,508	0,082	0,034
-217,825	371,704	-0,044	0,064
-216,811	-200,000	-0,001	0,037
-215,796	-42,761	-0,157	0,057
-214,782	91,758	-0,021	-0,017
-213,767	564,795	-0,052	0,089
-212,752	-200,000	0,024	0,149
-211,738	455,605	0,088	0,140
-210,723	-200,000	-0,008	-0,049
-209,709	800,000	0,013	0,030
-208,694	-152,262	-0,016	-0,001
-207,679	-200,000	0,016	-0,052
-206,665	-6,028	-0,052	0,025
-205,650	119,795	0,120	-0,106
-204,636	-200,000	-0,001	0,010
-203,621	-91,962	0,064	-0,013
-202,606	460,208	-0,041	-0,065
-201,592	125,312	0,071	-0,064
-200,577	800,000	0,031	-0,061
-199,563	95,112	-0,047	0,038
-198,548	94,796	-0,020	-0,016
-197,533	800,000	0,025	0,063
-196,519	-52,321	0,087	0,029
-195,504	-0,922	0,070	-0,035
-194,490	-142,267	-0,052	-0,004
-193,475	52,015	-0,021	0,014
-192,460	-92,511	0,053	0,010
-191,446	86,232	-0,071	0,056
-190,431	-200,000	0,043	0,148
-189,417	-200,000	0,024	0,109
-188,402	418,897	0,099	0,152
-187,387	-95,850	-0,078	0,015
-186,373	312,579	0,039	-0,052
-185,358	-143,189	0,142	-0,010
-184,344	20,261	0,036	-0,021
-183,329	405,854	-0,008	0,012
-182,315	221,790	-0,033	0,038
-181,300	790,625	-0,043	-0,085
-180,285	-58,764	0,093	0,028
-179,271	94,155	0,053	-0,043
-178,256	-200,000	-0,018	-0,113
-177,242	-200,000	0,005	0,106
-176,227	6,919	-0,104	0,055
-175,212	-106,043	-0,113	0,018
-174,198	121,354	-0,071	-0,063
-173,183	-200,000	-0,002	-0,051
-172,169	-81,822	-0,186	-0,043
-171,154	800,000	0,072	-0,162
-170,139	616,268	0,033	-0,059
-169,125	-200,000	0,038	0,183
-168,110	-108,688	-0,112	0,017
-167,096	-117,317	-0,115	-0,015
-166,081	-200,000	0,006	0,038
-165,066	-44,405	-0,120	0,042
-164,052	-200,000	0,002	0,101
-163,037	800,000	0,038	0,077
-162,023	-200,000	0,004	0,076
-161,008	800,000	-0,062	0,126
-159,993	220,645	-0,122	-0,139
-158,979	-200,000	0,028	-0,101
-157,964	68,736	-0,105	-0,077
-156,950	800,000	-0,053	-0,106
-155,935	-105,925	0,082	-0,013
-154,920	-200,000	0,022	0,151
-153,906	-71,838	0,074	-0,019
-152,891	0,977	-0,033	-0,017
-151,877	-125,821	-0,125	-0,013
-150,862	179,663	-0,075	-0,078
-149,847	51,445	0,053	0,036
-148,833	115,026	0,107	-0,093
-147,818	606,086	0,029	-0,051
-146,804	-19,956	-0,067	-0,029
-145,789	592,508	0,060	0,105
-144,775	-42,900	0,031	-0,011
-143,760	-200,000	-0,007	-0,084
-142,745	-200,000	0,003	-0,040
-141,731	800,000	-0,020	0,041
-140,716	258,262	-0,044	0,054
-139,702	-200,000	0,011	0,085
-138,687	-71,298	0,187	-0,049
-137,672	-33,291	-0,067	0,026
-136,658	-139,259	-0,052	0,004
-135,643	-104,998	-0,139	0,022
-134,629	800,000	-0,005	-0,016
-133,614	-106,318	0,193	0,030
-132,599	-200,000	-0,018	0,202
-131,585	687,227	0,016	0,030
-130,570	-200,000	-0,005	0,096
-129,556	-182,517	-0,055	-0,001
-128,541	-34,751	0,029	0,011
-127,526	-145,102	-0,140	-0,009
-126,512	-81,666	0,129	-0,030
-125,497	-200,000	-0,019	0,129
-124,483	-138,569	-0,025	-0,002
-123,468	-56,485	-0,086	0,027
-122,453	356,389	-0,036	0,052
-121,439	-71,206	0,093	-0,025
-120,424	-200,000	-0,023	-0,087
-119,410	-18,195	-0,074	-0,033
-118,395	-200,000	0,009	0,094
-117,380	-200,000	-0,004	-0,012
-116,366	3,123	-0,109	0,056
-115,351	4,538	-0,087	0,045
-114,337	-177,878	-0,078	0,001
-113,322	-75,937	-0,080	-0,020
-112,307	95,307	0,051	0,041
-111,293	188,290	0,114	-0,122
-110,278	-200,000	0,015	-0,065
-109,264	-200,000	0,024	-0,089
-108,249	800,000	-0,054	0,120
-107,234	-200,000	-0,005	-0,081
-106,220	203,836	0,041	-0,045
-105,205	161,743	0,041	0,041
-104,191	-67,599	0,149	0,041
-103,176	263,783	-0,100	0,123
-102,162	495,641	0,065	0,107
-101,147	83,498	-0,072	-0,055
-100,132	310,106	-0,043	-0,058
-99,118	-29,772	-0,018	0,007
-98,103	71,911	0,103	0,076
-97,089	-59,706	0,019	-0,006
-96,074	800,000	-0,016	0,032
-95,059	153,585	0,051	-0,050
-94,045	-200,000	0,016	-0,056
-93,030	34,198	-0,114	-0,070
-92,016	-97,775	-0,085	0,015
-91,001	800,000	-0,036	-0,094
-89,986	329,685	-0,065	-0,089
-88,972	-200,000	0,015	0,140
-87,957	383,750	-0,044	0,064
-86,943	-2,188	0,117	-0,058
-85,928	714,810	-0,071	0,133
-84,913	-200,000	-0,027	-0,200
-83,899	-99,191	-0,082	0,014
-82,884	-68,648	0,118	0,032
-81,870	316,297	0,106	0,142
-80,855	-126,491	0,140	0,015
-79,840	-200,000	-0,039	-0,125
-78,826	184,617	-0,060	0,063
-77,811	-22,152	-0,038	0,016
-76,797	592,035	-0,035	0,061
-75,782	62,713	0,036	0,026
-74,767	-200,000	-0,064	0,218
-73,753	197,726	-0,017	0,018
-72,738	-86,871	0,052	0,011
-71,724	-61,455	0,060	0,018
-70,709	162,800	-0,061	-0,060
-69,694	18,658	-0,048	0,027
-68,680	-12,951	0,055	0,025
-67,665	-53,906	0,055	0,017
-66,651	-200,000	-0,015	0,119
-65,636	23,632	0,017	0,010
-64,622	275,738	-0,035	-0,044
-63,607	140,833	-0,107	-0,100
-62,592	800,000	-0,017	-0,044
-61,578	265,387	-0,030	0,038
-60,563	800,000	-0,045	-0,118
-59,549	-81,637	-0,164	-0,038
-58,534	-60,221	-1,526	-0,458
-57,519	433,205	-1,472	-2,270
-56,505	-200,000	-0,333	-4,628
-55,490	164,715	0,966	0,966
-54,476	800,000	4,653	10,970
-53,461	-200,000	18,331	289,855
-52,446	800,000	727,828	2234,317
-51,432	555,628	1643,746	2812,934
-50,417	79,247	1665,595	1262,580
-49,403	22,741	1539,243	890,215
-48,388	16,748	1462,496	816,804
-47,373	17,858	1452,409	816,484
-46,359	17,253	1442,668	808,083
-45,344	15,005	1438,260	794,847
-44,330	14,922	1436,175	793,271
-43,315	14,979	1434,457	792,560
-42,300	14,944	1432,902	791,502
-41,286	14,989	1431,792	791,071
-40,271	14,954	1430,599	790,215
-39,257	14,936	1429,286	789,373
-38,242	15,002	1427,856	788,864
-37,227	14,990	1426,760	788,174
-36,213	14,991	1425,429	787,408
-35,198	14,991	1424,471	786,851
-34,184	15,022	1423,406	786,379
-33,169	14,905	1422,464	785,272
-32,154	14,976	1421,086	784,815
-31,140	15,022	1419,693	784,231
-30,125	15,013	1418,768	783,648
-29,111	14,999	1417,560	782,883
-28,096	14,996	1416,472	782,236
-27,082	14,895	1415,388	781,135
-26,067	14,884	1414,343	780,475
-25,052	14,912	1413,272	779,984
-24,038	14,893	1412,284	779,318
-23,023	14,907	1411,165	778,734
-22,009	14,876	1410,238	778,046
-20,994	14,860	1409,323	777,439
-19,979	14,846	1408,509	776,889
-18,965	14,872	1407,184	776,250
-17,950	14,849	1406,466	775,717
-16,936	14,822	1405,723	775,152
-15,921	14,831	1404,451	774,462
-14,906	14,846	1403,537	773,994
-13,892	14,812	1402,543	773,257
-12,877	14,808	1401,717	772,755
-11,863	14,792	1401,047	772,280
-10,848	14,820	1399,785	771,682
-9,833	14,798	1398,893	771,056
-8,819	14,756	1398,167	770,432
-7,804	14,723	1397,168	769,701
-6,790	14,755	1396,224	769,296
-5,775	14,716	1395,019	768,421
-4,760	14,733	1394,251	768,046
-3,746	14,699	1393,418	767,401
-2,731	14,709	1392,651	766,995
-1,717	14,677	1391,888	766,395
-0,702	14,706	1389,889	765,399
0,313	18,454	1308,627	738,006
1,327	34,759	706,406	436,142
2,342	53,596	124,529	84,411
3,356	2,778	16,639	8,511
4,371	5,271	3,231	1,680
5,386	-44,780	0,638	0,224
6,400	51,302	-0,054	0,036
7,415	293,723	-0,089	-0,116
8,429	625,087	-0,163	-0,292
9,444	17,204	-0,353	-0,198
10,459	-39,764	-0,439	-0,162
11,473	53,651	-0,180	-0,122
12,488	-9,674	-0,226	-0,106
13,502	-119,788	-0,362	-0,044
14,517	-63,738	-0,399	-0,115
15,531	97,636	-0,242	-0,196
16,546	160,115	-0,245	-0,241
17,561	103,644	-0,400	-0,331
18,575	-155,603	-0,214	0,010
19,590	200,486	-0,193	-0,210
20,604	-91,874	-0,218	-0,043
21,619	-74,625	-0,515	-0,130
22,634	194,614	-0,382	-0,409
23,648	249,021	-0,393	-0,471
24,663	-19,449	-0,463	-0,202
25,677	78,129	-0,346	-0,260
26,692	134,741	-0,290	-0,266
27,707	71,147	-0,343	-0,251
28,721	-43,850	-0,526	-0,186
29,736	48,057	-0,373	-0,246
30,750	154,999	-0,345	-0,335
31,765	30,960	-0,496	-0,299
32,780	73,266	-0,324	-0,239
33,794	95,102	-0,343	-0,275
34,809	191,234	-0,241	-0,257
35,823	-2,335	-0,471	-0,232
36,838	48,730	-0,365	-0,241
37,853	95,607	-0,391	-0,315
38,867	22,392	-0,358	-0,206
39,882	91,938	-0,385	-0,305
40,896	49,032	-0,233	-0,154
41,911	14,710	-0,250	-0,137
42,926	119,532	-0,434	-0,379
43,940	50,181	-0,427	-0,284
44,955	199,175	-0,307	-0,332
45,969	5,627	-0,380	-0,198
46,984	110,433	-0,250	-0,211
47,999	88,833	-0,379	-0,297
49,013	255,479	-0,280	-0,339
50,028	10,266	-0,352	-0,188
51,042	206,304	-0,306	-0,336
52,057	58,072	-0,295	-0,203
53,071	55,193	-0,406	-0,276
54,086	-18,026	-0,376	-0,165
55,101	60,892	-0,251	-0,175
56,115	96,842	-0,299	-0,241
57,130	81,921	-0,423	-0,322
58,144	-10,928	-0,478	-0,222
59,159	58,048	-0,443	-0,305
60,174	138,521	-0,321	-0,296
61,188	15,349	-0,333	-0,183
62,203	175,981	-0,266	-0,272
63,217	-27,072	-0,440	-0,180
64,232	43,229	-0,347	-0,222
65,247	28,176	-0,235	-0,139
66,261	79,966	-0,367	-0,277
67,276	20,740	-0,452	-0,257
68,290	-22,731	-0,361	-0,153
69,305	125,619	-0,258	-0,229
70,320	-180,331	-0,226	0,003
71,334	100,249	-0,258	-0,211
72,349	29,091	-0,301	-0,179
73,363	-52,648	-0,414	-0,134
74,378	58,739	-0,241	-0,166
75,393	139,183	-0,301	-0,279
76,407	75,410	-0,248	-0,184
77,422	335,955	-0,119	-0,162
78,436	209,308	-0,216	-0,238
79,451	144,049	-0,251	-0,236
80,466	18,377	-0,380	-0,213
81,480	403,792	-0,249	-0,369
82,495	21,889	-0,428	-0,244
83,509	-61,220	-0,330	-0,097
84,524	38,736	-0,243	-0,152
85,539	38,298	-0,350	-0,219
86,553	117,938	-0,253	-0,218
87,568	115,865	-0,162	-0,139
88,582	68,987	-0,299	-0,215
89,597	72,792	-0,228	-0,167
90,611	-54,127	-0,330	-0,105
91,626	-77,528	-0,366	-0,088
92,641	192,478	-0,191	-0,203
93,655	-21,035	-0,414	-0,177
94,670	-62,377	-0,321	-0,093
95,684	186,931	-0,189	-0,198
96,699	60,912	-0,260	-0,181
97,714	77,716	-0,275	-0,205
98,728	69,303	-0,238	-0,172
99,743	260,072	-0,198	-0,241
100,757	-42,923	-0,360	-0,128
101,772	-6,087	-0,319	-0,152
102,787	110,878	-0,269	-0,227
103,801	-8,836	-0,338	-0,158
104,816	76,345	-0,231	-0,171
105,830	-11,649	-0,327	-0,150
106,845	110,160	-0,222	-0,187
107,860	24,930	-0,245	-0,142
108,874	22,594	-0,340	-0,194
109,889	170,397	-0,298	-0,299
110,903	-59,701	-0,271	-0,081
111,918	86,578	-0,196	-0,151
112,933	191,753	-0,136	-0,144
113,947	13,433	-0,254	-0,138
114,962	-51,255	-0,221	-0,072
115,976	-43,401	-0,254	-0,089
116,991	131,824	-0,246	-0,222
118,006	153,443	-0,210	-0,201
119,020	-0,234	-0,265	-0,131
120,035	107,150	-0,210	-0,174
121,049	292,790	-0,131	-0,168
122,064	199,450	-0,203	-0,218
123,079	93,698	-0,190	-0,151
124,093	1,608	-0,240	-0,121
125,108	108,189	-0,235	-0,196
126,122	37,910	-0,289	-0,179
127,137	363,107	-0,115	-0,162
128,151	7,806	-0,177	0,092
129,166	80,398	-0,163	-0,122
130,181	212,684	-0,185	-0,204
131,195	496,793	-0,165	-0,266
132,210	66,862	-0,340	-0,242
133,224	1,066	-0,319	-0,159
134,239	-88,480	-0,240	-0,050
135,254	236,682	-0,155	-0,180
136,268	301,803	-0,234	-0,303
137,283	82,728	-0,157	-0,119
138,297	15,202	-0,291	-0,159
139,312	-58,864	-0,310	-0,093
140,327	233,398	-0,240	-0,276
141,341	-200,000	-0,108	-0,369
142,356	-60,586	-0,242	-0,071
143,370	-38,558	-0,332	-0,122
144,385	168,724	-0,308	-0,307
145,400	132,826	-0,263	-0,237
146,414	125,906	-0,257	-0,227
147,429	179,914	-0,229	-0,235
148,443	-10,556	-0,392	-0,181
149,458	218,038	-0,184	-0,205
150,473	-53,719	-0,194	-0,062
151,487	-110,202	-0,157	-0,023
152,502	47,301	-0,378	-0,245
153,516	169,123	-0,205	-0,205
154,531	207,069	-0,237	-0,259
155,546	-15,825	-0,301	-0,133
156,560	-112,723	-0,166	-0,023
157,575	-28,367	-0,247	-0,099
158,589	9,398	-0,281	-0,148
159,604	141,730	-0,150	-0,138
160,619	82,058	-0,292	-0,220
161,633	27,417	-0,272	-0,159
162,648	-54,006	-0,297	-0,094
163,662	36,144	-0,173	-0,106
164,677	71,602	-0,169	-0,122
165,692	-106,536	-0,177	0,027
166,706	-70,770	-0,275	-0,072
167,721	105,972	-0,263	-0,217
168,735	175,464	-0,202	-0,205
169,750	159,379	-0,153	-0,148
170,764	198,977	-0,194	-0,208
171,779	67,575	-0,122	-0,087
172,794	182,079	-0,182	-0,187
173,808	2,493	-0,239	-0,120
174,823	60,389	-0,245	-0,169
175,837	97,836	-0,261	-0,209
176,852	144,437	-0,227	-0,211
177,867	-75,350	-0,157	-0,039
178,881	173,252	-0,212	-0,213
179,896	161,314	-0,113	-0,110
180,910	-99,169	-0,290	0,051
181,925	-82,195	-0,299	-0,067
182,940	20,428	-0,237	-0,133
183,954	437,070	-0,066	-0,100
184,969	18,869	-0,187	-0,104
185,983	-13,486	-0,258	-0,116
186,998	-56,430	-0,193	-0,059
188,013	79,638	-0,208	-0,156
189,027	-23,350	-0,200	-0,083
190,042	11,897	-0,227	-0,121
191,056	2,845	-0,201	-0,101
192,071	286,813	-0,177	-0,222
193,086	-200,000	-0,060	-0,211
194,100	618,487	-0,108	-0,189
195,115	46,211	-0,203	-0,131
196,129	123,371	-0,233	-0,203
197,144	132,265	-0,185	-0,166
198,159	79,323	-0,116	-0,087
199,173	111,734	-0,133	-0,111
200,188	78,607	-0,212	-0,157
201,202	150,635	-0,207	-0,196
202,217	277,907	-0,080	-0,099
203,232	237,934	-0,233	-0,270
204,246	8,933	-0,206	-0,107
205,261	800,000	-0,124	-0,286
206,275	84,292	-0,167	-0,126
207,290	0,535	-0,174	-0,086
208,304	-67,105	-0,297	-0,081
209,319	83,877	-0,264	-0,200
210,334	410,858	-0,211	-0,313
211,348	158,109	-0,181	-0,175
212,363	176,057	-0,170	-0,172
213,377	35,171	-0,218	-0,132
214,392	-93,877	-0,382	-0,072
215,407	136,888	-0,189	-0,172
216,421	3,497	-0,139	-0,070
217,436	110,972	-0,237	-0,198
218,450	116,268	-0,118	-0,100
219,465	195,659	-0,257	-0,272
220,480	-58,300	-0,154	-0,046
221,494	105,137	-0,152	-0,124
222,509	-92,187	-0,106	-0,021
223,523	305,159	-0,130	-0,168
224,538	-49,939	-0,085	-0,028
225,553	207,708	-0,139	-0,150
226,567	40,718	-0,178	-0,111
227,582	44,763	-0,289	-0,184
228,596	-99,238	-0,268	-0,047
229,611	-65,936	-0,119	0,033
230,626	6,156	-0,143	-0,073
231,640	54,016	-0,242	-0,161
232,655	256,851	-0,189	-0,226
233,669	394,064	-0,187	-0,271
234,684	-6,712	-0,306	-0,144
235,699	589,100	-0,099	-0,170
236,713	0,312	-0,200	-0,099
237,728	52,638	-0,161	-0,106
238,742	-190,305	-0,073	-0,001
239,757	-34,299	-0,167	-0,063
240,772	57,925	-0,241	-0,163
241,786	378,640	-0,125	-0,178
242,801	-50,100	-0,270	-0,088
243,815	800,000	-0,080	-0,153
244,830	-161,141	-0,332	0,012
245,844	155,430	-0,178	-0,170
246,859	-46,300	-0,187	-0,063
247,874	24,926	-0,247	-0,142
248,888	29,023	-0,255	-0,149
249,903	-96,415	-0,177	0,032
250,917	-57,600	-0,186	0,056
251,932	480,084	-0,094	0,148
252,947	-79,289	-0,148	-0,034
253,961	149,446	-0,127	-0,119
254,976	150,541	-0,140	-0,132
255,990	178,751	-0,189	-0,192
257,005	800,000	-0,040	-0,095
258,020	-156,101	-0,240	0,010
259,034	136,224	-0,080	-0,072
260,049	-37,125	-0,108	-0,040
261,063	200,620	-0,131	-0,140
262,078	9,665	-0,193	-0,101
263,093	-10,606	-0,268	-0,122
264,107	201,106	-0,115	-0,123
265,122	0,418	-0,141	-0,069
266,136	-21,210	-0,133	-0,056
267,151	-90,537	-0,132	-0,026
268,166	-19,013	-0,169	-0,072
269,180	794,379	-0,125	-0,239
270,195	73,756	-0,263	-0,191
271,209	16,455	-0,166	-0,090
272,224	458,132	-0,108	-0,166
273,239	-70,169	-0,203	-0,053
274,253	182,352	-0,137	-0,140
275,268	79,083	-0,240	-0,177
276,282	-30,509	-0,216	-0,084
277,297	105,371	-0,196	-0,160
278,312	93,966	-0,179	-0,140
279,326	-15,490	-0,100	-0,044
280,341	10,644	-0,181	-0,095
281,355	-21,261	-0,140	0,059
282,370	236,468	-0,092	-0,105
283,384	57,886	-0,166	-0,112
284,399	-63,207	-0,189	-0,053
285,414	47,457	-0,078	-0,050
286,428	767,597	-0,132	-0,249
287,443	-80,303	-0,170	0,039
288,457	-53,989	-0,160	-0,050
289,472	34,616	-0,172	-0,103
290,487	293,917	-0,163	-0,205
291,501	-58,873	-0,236	-0,070
292,516	94,884	-0,108	-0,085
293,530	800,000	-0,056	-0,145
294,545	59,435	-0,066	-0,045
295,560	-129,686	-0,119	-0,011
296,574	-118,532	-0,131	0,016
297,589	-39,271	-0,157	-0,056
298,603	198,846	-0,164	-0,174
299,618	-129,640	-0,136	0,013
300,633	330,111	-0,085	-0,113
301,647	45,194	-0,130	-0,082
302,662	-200,000	-0,015	-0,110
303,676	800,000	-0,085	-0,199
304,691	-48,229	-0,128	-0,042
305,706	800,000	-0,129	-0,280
306,720	589,243	-0,200	-0,341
307,735	800,000	-0,091	-0,215
308,749	35,074	-0,149	-0,090
309,764	-62,457	-0,150	-0,043
310,779	195,483	-0,117	-0,122
311,793	347,994	-0,073	-0,099
312,808	283,612	-0,118	-0,146
313,822	34,817	-0,237	-0,143
314,837	-35,099	-0,198	-0,074
315,852	-63,614	-0,234	-0,066
316,866	-109,533	-0,160	-0,023
317,881	669,011	-0,070	0,126
318,895	31,837	-0,133	-0,079
319,910	149,127	-0,070	-0,065
320,925	-200,000	0,020	-0,100
321,939	-200,000	-0,031	-0,176
322,954	540,274	-0,153	-0,252
323,968	-18,521	-0,104	-0,045
324,983	-200,000	-0,018	-0,075
325,997	252,833	-0,099	-0,117
327,012	781,206	-0,083	-0,157
328,027	-13,382	-0,184	-0,082
329,041	-200,000	0,011	-0,170
330,056	-112,388	-0,116	-0,016
331,070	68,032	-0,239	-0,168
332,085	-200,000	0,002	-0,056
333,100	800,000	-0,061	-0,122
334,114	3,420	-0,096	-0,048
335,129	375,410	-0,133	-0,187
336,143	-89,061	-0,233	-0,047
337,158	223,326	-0,074	-0,082
338,173	-53,465	-0,075	-0,024
339,187	800,000	-0,047	-0,091
340,202	5,551	-0,122	-0,062
341,216	-38,671	-0,242	-0,087
342,231	100,230	-0,136	-0,108
343,246	800,000	-0,084	-0,200
344,260	343,459	-0,106	-0,143
345,275	-200,000	-0,016	-0,223
346,289	33,073	-0,147	0,087
347,304	-110,115	-0,223	-0,032
348,319	96,093	-0,160	-0,125
349,333	7,190	-0,130	-0,067
350,348	800,000	-0,065	-0,153
351,362	365,107	-0,084	-0,116
352,377	-128,415	-0,125	0,012
353,392	-165,277	-0,159	0,005
354,406	-150,195	-0,159	-0,008
355,421	208,509	1316,617	1414,149
356,435	160,438	1477,595	1414,657
