DTS Sentinel unit serial number:	SN410029Multiplexer serial number:	ORYXHardware model number:	OX2-SRSoftware version number:	ORYX F/W v4,00 Oryx Data Collector v3.7.2.0data status	okinstallation	B3 Nyhavnadifferential loss correction	single-endedforward channel	channel 1reverse channel	N/Adate	2023/12/05time	08:02:30forward acquisition time	300,00reverse acquisition time	0,00gamma	499,1914k internal	0,3200k external	0,3200temperature offset calibration	1,0000default loss term (dB/km)	0,3820temperature slope calibration	1,0000multiplexer offset coefficient	1,0000multiplexer slope coefficient	1,0000fibre end	0,00T internal ref (°C)	13,53T ext. ref 1 (°C)	-1,68T ext. ref 2 (°C)	-1,77length (m)	temperature (°C)	Stokes	anti-Stokes-744,400	800,000	-0,096	-0,305
-743,385	-200,000	0,038	0,281
-742,371	800,000	-0,083	-0,183
-741,356	-200,000	0,049	0,298
-740,342	201,223	-0,287	-0,322
-739,327	800,000	0,062	0,189
-738,312	83,792	-0,279	-0,222
-737,298	-200,000	-0,042	0,303
-736,283	410,742	-0,114	-0,177
-735,269	460,200	0,149	0,243
-734,254	80,722	-0,194	-0,152
-733,239	-123,663	-0,152	0,017
-732,225	244,740	-0,121	-0,148
-731,210	-151,250	0,173	-0,009
-730,196	-200,000	-0,004	0,025
-729,181	-15,965	-0,103	-0,047
-728,167	-76,382	-0,087	-0,022
-727,152	-200,000	-0,009	-0,048
-726,137	-114,737	0,080	-0,011
-725,123	162,866	-0,158	-0,161
-724,108	800,000	0,027	-0,060
-723,094	129,217	-0,147	-0,136
-722,079	447,863	0,137	-0,220
-721,064	-123,770	0,074	-0,008
-720,050	434,101	0,059	-0,094
-719,035	-200,000	-0,002	-0,080
-718,021	763,497	0,071	-0,140
-717,006	-200,000	-0,006	-0,122
-715,991	306,573	0,012	0,016
-714,977	800,000	0,017	-0,044
-713,962	201,114	-0,147	-0,164
-712,948	-200,000	0,003	0,024
-711,933	54,190	0,049	-0,034
-710,918	128,798	-0,049	0,045
-709,904	72,932	0,095	0,072
-708,889	-200,000	0,004	0,015
-707,875	188,788	-0,058	-0,064
-706,860	-200,000	0,009	0,057
-705,845	-200,000	-0,005	0,089
-704,831	570,082	0,051	0,090
-703,816	800,000	-0,083	0,171
-702,802	439,714	-0,013	-0,020
-701,787	800,000	-0,025	-0,080
-700,772	50,304	-0,108	0,074
-699,758	-40,643	-0,028	0,011
-698,743	117,729	0,091	-0,081
-697,729	-200,000	0,005	0,143
-696,714	-7,151	0,049	-0,024
-695,699	165,243	0,065	-0,067
-694,685	-33,680	-0,046	0,018
-693,670	15,070	-0,125	-0,071
-692,656	-26,127	0,059	0,025
-691,641	800,000	-0,047	0,109
-690,627	203,250	0,064	0,072
-689,612	-15,559	-0,108	0,050
-688,597	105,711	0,034	-0,029
-687,583	318,689	0,050	-0,070
-686,568	197,666	0,058	-0,064
-685,554	-180,481	-0,078	-0,001
-684,539	-67,380	0,026	0,007
-683,524	26,148	-0,140	0,085
-682,510	-28,954	-0,048	-0,020
-681,495	-99,020	0,053	0,010
-680,481	-61,179	0,040	-0,012
-679,466	126,378	0,077	-0,070
-678,451	-200,000	0,050	-0,188
-677,437	129,062	0,142	0,132
-676,422	469,643	-0,018	-0,029
-675,408	-200,000	-0,017	-0,100
-674,393	-50,543	0,127	0,043
-673,378	-200,000	0,016	-0,066
-672,364	159,583	-0,038	-0,038
-671,349	-130,419	-0,045	-0,004
-670,335	739,150	-0,013	-0,026
-669,320	38,559	-0,100	0,065
-668,305	800,000	0,034	-0,080
-667,291	9,958	-0,028	0,015
-666,276	800,000	-0,070	-0,215
-665,262	-30,784	-0,062	-0,025
-664,247	-100,502	-0,098	-0,017
-663,232	800,000	-0,069	0,151
-662,218	-76,623	0,059	0,015
-661,203	-200,000	-0,010	-0,034
-660,189	5,832	-0,039	0,021
-659,174	-165,545	-0,134	0,004
-658,159	51,397	-0,052	0,035
-657,145	-200,000	0,004	-0,101
-656,130	-29,451	0,052	0,021
-655,116	-200,000	0,017	-0,101
-654,101	800,000	0,014	0,028
-653,086	115,291	0,114	-0,101
-652,072	-200,000	-0,004	0,074
-651,057	12,285	0,123	0,068
-650,043	24,137	-0,080	-0,048
-649,028	-62,472	-0,066	0,020
-648,014	800,000	-0,025	-0,051
-646,999	60,293	0,049	-0,035
-645,984	-139,500	-0,072	0,006
-644,970	800,000	-0,047	-0,097
-643,955	-200,000	-0,043	-0,188
-642,941	-32,140	-0,051	-0,021
-641,926	-110,424	0,088	-0,013
-640,911	-22,782	0,149	-0,065
-639,897	-200,000	0,015	0,068
-638,882	-4,652	-0,100	0,050
-637,868	800,000	0,032	-0,070
-636,853	800,000	0,026	-0,077
-635,838	-200,000	0,003	0,038
-634,824	-200,000	-0,007	0,051
-633,809	254,872	0,109	-0,136
-632,795	155,724	0,072	-0,072
-631,780	-102,911	0,074	-0,013
-630,765	-200,000	0,008	0,071
-629,751	-125,855	0,060	-0,006
-628,736	-200,000	-0,025	-0,170
-627,722	-69,887	-0,090	0,025
-626,707	-113,284	0,125	-0,018
-625,692	758,962	0,048	0,095
-624,678	350,717	0,028	0,041
-623,663	117,889	-0,094	0,084
-622,649	-200,000	-0,001	0,032
-621,634	-83,963	-0,061	0,014
-620,619	14,133	-0,083	-0,047
-619,605	-16,013	0,085	-0,039
-618,590	749,581	0,041	-0,080
-617,576	-89,638	-0,083	-0,017
-616,561	-47,278	0,059	-0,021
-615,546	-108,697	-0,057	0,009
-614,532	26,453	-0,097	-0,059
-613,517	-62,742	0,114	0,034
-612,503	-111,756	-0,146	0,021
-611,488	-85,786	0,165	0,037
-610,474	7,172	0,043	0,023
-609,459	243,134	0,058	0,071
-608,444	-95,740	-0,121	-0,023
-607,430	34,324	0,079	0,050
-606,415	-57,700	-0,108	-0,034
-605,401	-200,000	0,012	-0,053
-604,386	75,086	0,071	0,054
-603,371	-44,475	0,080	-0,029
-602,357	193,916	0,091	-0,100
-601,342	-200,000	-0,015	-0,111
-600,328	203,204	-0,121	-0,136
-599,313	142,659	-0,040	-0,039
-598,298	142,501	0,081	0,078
-597,284	-200,000	0,012	0,214
-596,269	-138,281	-0,108	-0,008
-595,255	-200,000	0,013	-0,089
-594,240	-89,759	-0,083	-0,017
-593,225	-84,231	-0,134	-0,031
-592,211	133,988	-0,084	-0,079
-591,196	-59,245	-0,257	0,080
-590,182	8,487	-0,056	0,030
-589,167	283,021	-0,086	0,112
-588,152	375,454	0,029	0,043
-587,138	48,786	0,087	-0,059
-586,123	-200,000	0,022	-0,085
-585,109	-80,212	-0,164	-0,039
-584,094	-200,000	0,054	-0,208
-583,079	-58,314	0,035	-0,011
-582,065	-20,392	-0,048	0,021
-581,050	-10,816	0,077	-0,037
-580,036	34,997	-0,012	0,008
-579,021	86,251	-0,063	-0,050
-578,006	-13,405	0,054	-0,025
-576,992	-45,236	-0,060	-0,021
-575,977	-200,000	-0,025	-0,100
-574,963	-136,271	0,174	0,014
-573,948	-200,000	0,017	0,087
-572,934	243,752	-0,043	-0,052
-571,919	33,978	-0,039	0,025
-570,904	800,000	-0,047	-0,131
-569,890	39,970	-0,115	0,075
-568,875	475,455	-0,072	0,117
-567,861	5,299	-0,044	-0,024
-566,846	55,887	0,122	0,086
-565,831	-200,000	-0,011	0,150
-564,817	-61,205	-0,052	0,016
-563,802	-119,940	-0,185	-0,023
-562,788	-200,000	0,008	-0,036
-561,773	518,423	-0,026	-0,045
-560,758	-200,000	0,002	0,092
-559,744	239,943	0,033	0,040
-558,729	206,099	0,050	-0,056
-557,715	161,065	-0,032	-0,032
-556,700	-106,899	-0,078	-0,012
-555,685	-68,206	-0,139	-0,039
-554,671	-21,835	-0,084	-0,037
-553,656	800,000	0,040	0,113
-552,642	103,594	0,051	0,043
-551,627	489,608	0,049	0,081
-550,612	-200,000	-0,001	-0,021
-549,598	-200,000	-0,019	-0,093
-548,583	56,401	-0,061	0,043
-547,569	558,025	0,044	0,076
-546,554	75,357	0,109	-0,083
-545,539	35,157	0,183	0,116
-544,525	-200,000	0,045	0,150
-543,510	228,004	0,018	-0,022
-542,496	-78,523	0,070	0,017
-541,481	-38,633	-0,120	0,046
-540,466	124,474	0,041	0,037
-539,452	-142,144	0,097	-0,007
-538,437	-101,752	0,054	-0,009
-537,423	128,975	-0,037	-0,034
-536,408	537,483	-0,011	-0,018
-535,393	251,022	0,069	-0,085
-534,379	-200,000	0,000	-0,103
-533,364	11,941	-0,033	-0,018
-532,350	-200,000	0,006	0,073
-531,335	-200,000	0,036	-0,120
-530,321	-144,769	0,061	0,004
-529,306	320,581	-0,047	0,065
-528,291	170,291	0,036	0,037
-527,277	322,161	-0,156	-0,215
-526,262	345,663	-0,031	-0,045
-525,248	-200,000	-0,000	0,040
-524,233	-90,074	0,181	-0,038
-523,218	186,763	0,070	0,075
-522,204	-112,288	0,089	0,013
-521,189	-110,315	-0,074	0,011
-520,175	38,327	-0,113	0,073
-519,160	81,519	-0,073	-0,057
-518,145	-200,000	-0,002	-0,094
-517,131	711,500	-0,057	-0,110
-516,116	-200,000	0,019	0,066
-515,102	401,938	-0,033	-0,051
-514,087	37,258	-0,064	-0,041
-513,072	-200,000	-0,012	-0,214
-512,058	100,396	0,101	-0,085
-511,043	509,436	0,087	-0,147
-510,029	19,091	0,027	-0,016
-509,014	301,100	-0,125	-0,167
-507,999	499,539	-0,024	-0,040
-506,985	206,965	-0,050	-0,056
-505,970	242,857	0,127	-0,153
-504,956	-21,089	-0,155	0,068
-503,941	247,729	-0,075	0,092
-502,926	800,000	0,010	-0,022
-501,912	-117,083	0,146	-0,019
-500,897	244,928	0,009	0,010
-499,883	-200,000	0,001	0,072
-498,868	55,438	0,098	0,068
-497,853	-200,000	-0,036	0,170
-496,839	-82,070	-0,163	0,038
-495,824	800,000	0,030	-0,067
-494,810	252,520	0,128	0,157
-493,795	-169,683	-0,021	-0,001
-492,781	-146,947	-0,141	-0,009
-491,766	-192,452	-0,048	-0,000
-490,751	-200,000	-0,021	-0,104
-489,737	-200,000	0,032	-0,143
-488,722	48,353	0,116	0,078
-487,708	800,000	0,017	0,035
-486,693	125,506	-0,085	0,077
-485,678	87,885	0,075	0,060
-484,664	365,437	-0,045	0,065
-483,649	-200,000	-0,011	-0,109
-482,635	155,197	-0,013	-0,013
-481,620	603,828	0,038	0,069
-480,605	-200,000	-0,011	-0,047
-479,591	-200,000	0,008	0,214
-478,576	-200,000	0,033	-0,110
-477,562	-200,000	0,004	0,023
-476,547	-26,204	-0,041	-0,017
-475,532	582,624	0,037	-0,066
-474,518	-200,000	-0,005	-0,086
-473,503	35,691	0,148	0,094
-472,489	340,946	-0,043	0,060
-471,474	-6,854	-0,061	0,030
-470,459	81,925	-0,126	-0,098
-469,445	24,814	-0,013	-0,008
-468,430	-200,000	-0,013	0,130
-467,416	-1,436	-0,071	0,036
-466,401	5,767	0,131	0,069
-465,386	184,398	-0,032	0,034
-464,372	608,243	-0,092	0,166
-463,357	-200,000	-0,020	-0,076
-462,343	92,767	-0,039	-0,031
-461,328	800,000	0,017	0,034
-460,313	118,120	-0,010	-0,008
-459,299	-46,233	-0,166	-0,059
-458,284	800,000	-0,016	-0,044
-457,270	800,000	-0,032	0,068
-456,255	116,098	0,084	-0,074
-455,241	-130,738	-0,093	-0,009
-454,226	445,459	-0,073	0,116
-453,211	-143,632	0,055	0,004
-452,197	-67,363	0,118	-0,033
-451,182	-107,992	-0,080	0,012
-450,168	-53,377	0,141	0,046
-449,153	-99,389	0,184	0,033
-448,138	-72,404	-0,030	-0,008
-447,124	-200,000	-0,023	-0,100
-446,109	-39,085	0,140	0,053
-445,095	276,089	-0,046	0,058
-444,080	690,214	-0,043	0,082
-443,065	-106,247	-0,103	-0,016
-442,051	11,306	0,075	-0,041
-441,036	-200,000	0,004	-0,137
-440,022	-200,000	0,035	-0,156
-439,007	312,497	-0,006	-0,008
-437,992	-139,971	0,141	0,011
-436,978	-87,144	0,048	0,010
-435,963	612,135	0,019	0,035
-434,949	-94,573	-0,165	0,032
-433,934	800,000	0,033	0,082
-432,919	-39,305	-0,127	-0,048
-431,905	385,196	0,103	-0,152
-430,890	800,000	0,014	0,037
-429,876	125,736	0,101	-0,091
-428,861	50,322	0,065	0,044
-427,846	-68,775	-0,102	-0,028
-426,832	81,439	-0,075	0,058
-425,817	51,820	-0,015	-0,010
-424,803	-197,856	0,074	-0,000
-423,788	410,663	0,074	0,113
-422,773	-200,000	0,004	0,075
-421,759	-200,000	0,041	0,157
-420,744	-67,733	-0,113	0,032
-419,730	-38,037	-0,012	-0,004
-418,715	141,205	-0,106	0,100
-417,701	-15,196	-0,128	0,059
-416,686	-120,611	-0,048	-0,006
-415,671	243,299	0,136	0,164
-414,657	-200,000	0,003	-0,042
-413,642	-60,077	-0,145	0,044
-412,628	40,439	-0,013	-0,008
-411,613	-112,139	-0,131	-0,019
-410,598	680,806	0,025	0,046
-409,584	46,713	-0,048	0,032
-408,569	330,131	-0,069	0,095
-407,555	-97,887	0,112	-0,021
-406,540	-156,145	0,099	-0,004
-405,525	43,712	-0,014	0,009
-404,511	-200,000	0,004	-0,059
-403,496	-104,319	-0,080	0,013
-402,482	-143,346	-0,014	-0,001
-401,467	-0,284	0,097	-0,049
-400,452	800,000	0,035	-0,094
-399,438	-73,757	0,073	0,019
-398,423	25,804	-0,140	-0,084
-397,409	-86,686	-0,033	-0,007
-396,394	397,292	-0,056	-0,085
-395,379	7,956	0,098	-0,053
-394,365	199,920	0,035	0,038
-393,350	35,564	0,171	-0,108
-392,336	51,931	0,068	0,046
-391,321	261,104	0,074	0,092
-390,306	800,000	-0,040	0,097
-389,292	800,000	-0,020	-0,060
-388,277	124,425	0,097	0,088
-387,263	-200,000	-0,011	-0,060
-386,248	-122,726	0,161	0,018
-385,233	228,336	0,038	0,044
-384,219	-15,922	-0,098	0,045
-383,204	800,000	-0,056	-0,126
-382,190	-52,202	-0,174	-0,058
-381,175	-200,000	-0,003	0,055
-380,160	-95,988	0,193	0,037
-379,146	-200,000	-0,004	-0,153
-378,131	736,194	-0,008	0,015
-377,117	27,630	0,017	0,010
-376,102	448,294	0,029	0,046
-375,088	210,763	-0,091	-0,103
-374,073	-110,405	-0,043	0,006
-373,058	-110,343	-0,022	-0,003
-372,044	-88,408	0,068	0,014
-371,029	352,256	0,028	0,041
-370,015	229,468	-0,054	0,063
-369,000	225,161	-0,044	0,051
-367,985	-200,000	-0,017	-0,124
-366,971	401,225	0,036	0,054
-365,956	-77,601	-0,074	-0,018
-364,942	800,000	0,019	0,056
-363,927	48,510	-0,069	-0,046
-362,912	306,916	-0,087	0,117
-361,898	-15,235	-0,081	-0,037
-360,883	13,158	-0,069	-0,038
-359,869	-200,000	-0,002	-0,059
-358,854	800,000	0,026	0,059
-357,839	-126,795	0,079	-0,008
-356,825	428,813	0,023	0,035
-355,810	552,477	-0,036	-0,061
-354,796	22,474	-0,105	0,062
-353,781	800,000	-0,015	-0,042
-352,766	421,000	-0,040	0,062
-351,752	-200,000	-0,036	-0,129
-350,737	800,000	-0,025	-0,079
-349,723	533,812	0,067	0,114
-348,708	92,620	-0,087	0,071
-347,693	547,811	-0,016	-0,027
-346,679	235,040	-0,044	-0,052
-345,664	-185,029	-0,038	-0,000
-344,650	175,896	-0,016	-0,017
-343,635	-200,000	0,032	0,131
-342,620	97,419	0,067	-0,055
-341,606	84,870	0,067	0,053
-340,591	53,612	-0,012	-0,008
-339,577	-200,000	0,002	-0,162
-338,562	-200,000	-0,007	-0,094
-337,548	-200,000	0,006	0,022
-336,533	800,000	-0,044	-0,119
-335,518	-56,832	0,129	-0,041
-334,504	-121,529	-0,109	0,013
-333,489	78,234	0,029	0,022
-332,475	145,061	-0,036	-0,035
-331,460	11,053	-0,169	-0,092
-330,445	26,232	-0,024	-0,015
-329,431	-82,240	-0,092	0,021
-328,416	800,000	0,064	0,151
-327,402	-101,418	0,105	-0,018
-326,387	13,938	0,120	0,067
-325,372	79,160	-0,078	-0,060
-324,358	-126,983	-0,085	0,009
-323,343	171,981	-0,077	0,079
-322,329	451,186	0,081	0,129
-321,314	-161,091	0,009	0,000
-320,299	173,162	0,096	0,099
-319,285	-98,266	0,124	-0,023
-318,270	-12,666	-0,078	0,036
-317,256	-141,882	-0,077	0,005
-316,241	-200,000	-0,043	0,170
-315,226	152,547	0,087	0,085
-314,212	-200,000	-0,035	0,177
-313,197	96,168	0,112	0,091
-312,183	-33,142	0,088	0,035
-311,168	654,654	-0,042	0,077
-310,153	34,533	0,055	0,034
-309,139	26,352	-0,179	-0,107
-308,124	234,127	0,014	0,016
-307,110	164,837	0,023	0,023
-306,095	-36,845	0,097	-0,037
-305,080	52,387	-0,130	-0,089
-304,066	-64,478	-0,065	0,019
-303,051	-70,682	-0,083	-0,022
-302,037	-159,214	-0,091	0,004
-301,022	5,846	0,139	-0,073
-300,008	39,128	0,100	0,064
-298,993	800,000	-0,044	0,094
-297,978	139,467	0,085	-0,080
-296,964	102,512	-0,151	-0,126
-295,949	-158,298	0,138	0,006
-294,935	90,170	-0,063	-0,050
-293,920	-200,000	0,005	0,083
-292,905	77,099	0,059	0,045
-291,891	38,025	0,050	-0,032
-290,876	231,418	-0,046	-0,054
-289,862	153,932	0,089	0,088
-288,847	-86,452	0,080	-0,017
-287,832	97,281	-0,072	0,059
-286,818	-3,264	0,047	-0,023
-285,803	-5,688	0,015	-0,007
-284,789	800,000	0,094	-0,195
-283,774	66,362	0,097	0,070
-282,759	-101,677	0,141	-0,024
-281,745	-25,118	0,023	0,010
-280,730	337,702	-0,037	-0,052
-279,716	-158,219	0,186	-0,008
-278,701	-114,317	-0,157	0,021
-277,686	-200,000	0,004	0,072
-276,672	273,790	0,028	0,036
-275,657	-200,000	-0,052	0,165
-274,643	-200,000	0,000	-0,014
-273,628	-11,437	-0,124	0,058
-272,613	-50,969	-0,116	-0,039
-271,599	373,661	-0,018	0,026
-270,584	800,000	0,012	0,035
-269,570	203,064	0,031	0,034
-268,555	-49,457	-0,038	-0,013
-267,540	800,000	-0,050	-0,101
-266,526	76,950	0,034	-0,026
-265,511	800,000	0,016	-0,035
-264,497	-200,000	-0,000	0,078
-263,482	597,061	-0,070	-0,125
-262,467	-200,000	0,025	-0,252
-261,453	461,612	-0,068	0,108
-260,438	800,000	-0,013	-0,033
-259,424	800,000	0,027	-0,055
-258,409	800,000	0,068	-0,143
-257,395	313,390	-0,057	0,077
-256,380	-40,166	-0,064	0,024
-255,365	-12,649	0,141	-0,065
-254,351	-113,565	-0,035	-0,005
-253,336	-60,353	-0,162	-0,049
-252,322	-62,726	0,082	-0,024
-251,307	-200,000	-0,008	-0,069
-250,292	800,000	0,060	0,138
-249,278	275,225	-0,046	0,058
-248,263	398,727	0,023	0,034
-247,249	116,470	-0,023	0,020
-246,234	27,975	-0,005	-0,003
-245,219	-200,000	0,001	-0,079
-244,205	-200,000	0,012	0,051
-243,190	80,747	-0,116	-0,089
-242,176	366,068	0,053	0,077
-241,161	-200,000	-0,008	0,046
-240,146	-200,000	0,052	0,172
-239,132	37,395	0,037	-0,023
-238,117	-67,200	-0,081	0,023
-237,103	-200,000	-0,044	0,195
-236,088	42,499	0,137	-0,089
-235,073	800,000	0,070	0,179
-234,059	-200,000	0,001	0,061
-233,044	-200,000	-0,010	0,039
-232,030	-48,908	0,141	-0,048
-231,015	800,000	-0,046	0,112
-230,000	-200,000	-0,034	-0,138
-228,986	800,000	0,054	-0,161
-227,971	19,767	0,072	0,041
-226,957	153,226	0,059	0,058
-225,942	-38,739	0,072	0,027
-224,927	-200,000	0,006	-0,097
-223,913	578,623	-0,039	0,069
-222,898	-200,000	0,000	-0,143
-221,884	-95,008	-0,140	0,027
-220,869	5,761	0,011	0,006
-219,855	284,673	-0,028	0,035
-218,840	43,056	0,057	0,037
-217,825	-62,505	0,067	-0,020
-216,811	344,101	-0,058	-0,081
-215,796	-144,104	-0,058	0,004
-214,782	-35,112	-0,149	0,057
-213,767	152,370	0,110	-0,108
-212,752	-100,658	0,134	0,023
-211,738	-200,000	0,019	0,097
-210,723	-61,535	0,108	0,032
-209,709	-200,000	0,002	0,030
-208,694	14,005	-0,133	0,074
-207,679	611,982	-0,052	0,093
-206,665	164,751	-0,070	-0,071
-205,650	75,332	0,080	0,060
-204,636	-200,000	0,030	-0,151
-203,621	-88,365	-0,024	-0,005
-202,606	696,741	0,044	0,084
-201,592	-86,227	-0,154	-0,034
-200,577	-200,000	0,013	-0,132
-199,563	-200,000	0,016	0,056
-198,548	800,000	-0,016	0,041
-197,533	-200,000	0,002	0,085
-196,519	439,382	0,024	0,037
-195,504	70,278	-0,027	-0,020
-194,490	-27,567	-0,131	-0,054
-193,475	800,000	-0,065	0,152
-192,460	-40,066	0,180	0,066
-191,446	-200,000	-0,005	-0,089
-190,431	-200,000	0,000	0,051
-189,417	-200,000	-0,008	-0,038
-188,402	438,196	0,022	0,034
-187,387	-200,000	0,036	0,119
-186,373	106,216	0,105	-0,089
-185,358	-200,000	-0,003	-0,107
-184,344	581,049	0,036	0,064
-183,329	800,000	0,012	0,035
-182,315	-200,000	-0,013	0,058
-181,300	0,728	0,023	0,012
-180,285	-200,000	0,001	-0,022
-179,271	224,152	-0,042	0,048
-178,256	-200,000	0,019	-0,179
-177,242	-42,259	-0,053	-0,019
-176,227	-200,000	-0,004	0,061
-175,212	227,144	0,124	0,143
-174,198	-200,000	0,011	-0,074
-173,183	558,103	-0,070	-0,121
-172,169	82,962	0,060	-0,047
-171,154	800,000	-0,018	-0,044
-170,139	-200,000	-0,014	-0,145
-169,125	187,024	0,033	-0,035
-168,110	172,156	0,109	0,111
-167,096	16,770	-0,118	-0,066
-166,081	-126,539	-0,059	-0,006
-165,066	457,980	-0,012	0,019
-164,052	132,424	0,023	0,022
-163,037	-17,698	0,173	0,077
-162,023	-58,913	0,146	0,045
-161,008	-106,956	0,146	0,023
-159,993	211,261	0,101	-0,113
-158,979	45,088	-0,095	0,062
-157,964	-30,984	0,108	0,043
-156,950	206,662	-0,095	-0,105
-155,935	-200,000	0,009	0,040
-154,920	-200,000	-0,025	-0,126
-153,906	165,581	0,069	0,070
-152,891	800,000	0,044	0,097
-151,877	-84,168	0,054	-0,012
-150,862	800,000	-0,029	-0,072
-149,847	20,931	-0,149	0,086
-148,833	250,053	0,061	0,074
-147,818	-30,736	0,144	-0,058
-146,804	140,833	-0,142	-0,134
-145,789	-105,068	0,150	0,024
-144,775	-200,000	0,005	-0,017
-143,760	-200,000	-0,034	-0,134
-142,745	388,008	-0,014	-0,021
-141,731	-200,000	0,008	-0,041
-140,716	-108,811	0,067	0,010
-139,702	-91,535	0,192	-0,039
-138,687	-19,048	0,073	0,032
-137,672	-200,000	-0,010	0,052
-136,658	225,308	-0,065	-0,075
-135,643	34,468	0,033	-0,020
-134,629	-104,937	-0,087	-0,014
-133,614	323,578	-0,057	0,078
-132,599	-16,256	0,028	-0,013
-131,585	52,296	0,138	-0,093
-130,570	578,945	-0,061	0,106
-129,556	143,215	-0,014	0,014
-128,541	105,870	0,082	-0,069
-127,526	-200,000	0,029	-0,092
-126,512	125,509	-0,013	-0,011
-125,497	-91,043	0,141	-0,028
-124,483	-41,286	0,172	0,063
-123,468	34,396	0,051	-0,031
-122,453	-138,376	-0,069	0,005
-121,439	172,939	-0,045	-0,046
-120,424	-104,398	-0,087	-0,014
-119,410	-200,000	-0,023	0,109
-118,395	194,623	0,017	0,018
-117,380	800,000	0,038	0,085
-116,366	-200,000	-0,009	0,096
-115,351	-43,431	-0,104	0,037
-114,337	527,481	-0,053	-0,089
-113,322	-200,000	-0,005	-0,041
-112,307	290,225	-0,069	0,089
-111,293	-50,486	-0,047	0,015
-110,278	-200,000	0,042	0,167
-109,264	56,617	0,038	-0,026
-108,249	432,996	-0,033	-0,050
-107,234	800,000	0,036	-0,102
-106,220	55,259	-0,090	-0,061
-105,205	-14,219	-0,013	-0,006
-104,191	456,818	0,059	-0,093
-103,176	-200,000	-0,007	-0,107
-102,162	-86,028	0,085	0,018
-101,147	-200,000	0,015	0,067
-100,132	144,853	-0,041	-0,039
-99,118	-131,410	0,066	0,006
-98,103	169,509	-0,076	0,077
-97,089	585,825	0,012	0,022
-96,074	-55,300	0,107	0,034
-95,059	162,760	0,094	0,094
-94,045	800,000	0,035	0,106
-93,030	-87,497	-0,211	-0,045
-92,016	800,000	0,027	0,077
-91,001	-111,137	0,065	-0,009
-89,986	237,197	-0,025	0,029
-88,972	800,000	-0,027	-0,067
-87,957	441,379	0,050	-0,078
-86,943	283,263	0,060	-0,077
-85,928	-200,000	-0,008	-0,056
-84,913	153,311	-0,075	-0,073
-83,899	-200,000	-0,154	0,000
-82,884	13,157	0,146	0,080
-81,870	165,040	0,120	0,121
-80,855	-200,000	-0,035	-0,148
-79,840	136,336	-0,087	-0,080
-78,826	446,043	-0,039	0,061
-77,811	0,158	0,124	-0,062
-76,797	-92,249	-0,079	-0,016
-75,782	-200,000	0,006	0,083
-74,767	-58,437	-0,115	-0,035
-73,753	-200,000	-0,001	0,078
-72,738	158,510	0,040	-0,040
-71,724	328,391	-0,092	-0,126
-70,709	-100,601	-0,037	0,006
-69,694	-114,143	-0,085	0,011
-68,680	-152,494	0,170	-0,008
-67,665	134,706	0,070	0,064
-66,651	-142,483	-0,095	-0,007
-65,636	-200,000	-0,024	0,102
-64,622	445,057	-0,061	-0,096
-63,607	800,000	0,036	-0,081
-62,592	-24,008	-0,079	-0,033
-61,578	-96,373	0,049	0,009
-60,563	-200,000	-0,017	0,152
-59,549	800,000	0,027	-0,080
-58,534	-18,541	-1,595	-0,702
-57,519	388,291	-1,425	-2,095
-56,505	-200,000	-0,609	-4,476
-55,490	244,878	0,957	1,141
-54,476	800,000	5,025	11,527
-53,461	-200,000	19,019	319,460
-52,446	-200,000	740,400	2337,175
-51,432	575,522	1656,073	2875,587
-50,417	78,645	1672,358	1265,190
-49,403	21,559	1545,252	888,053
-48,388	15,422	1467,616	813,556
-47,373	17,934	1457,887	820,286
-46,359	16,706	1447,942	808,764
-45,344	13,672	1443,037	791,443
-44,330	13,583	1441,287	790,022
-43,315	13,547	1439,559	788,873
-42,300	13,588	1437,903	788,130
-41,286	13,594	1436,633	787,432
-40,271	13,565	1435,321	786,542
-39,257	13,584	1434,104	785,934
-38,242	13,609	1432,842	785,331
-37,227	13,661	1431,456	784,785
-36,213	13,653	1430,304	784,086
-35,198	13,624	1429,155	783,287
-34,184	13,661	1428,356	782,995
-33,169	13,631	1426,730	781,928
-32,154	13,633	1425,680	781,332
-31,140	13,674	1424,251	780,715
-30,125	13,670	1423,314	780,148
-29,111	13,626	1422,309	779,360
-28,096	13,636	1420,952	778,632
-27,082	13,557	1419,985	777,698
-26,067	13,587	1418,803	777,160
-25,052	13,560	1417,935	776,527
-24,038	13,515	1416,646	775,580
-23,023	13,532	1415,647	775,083
-22,009	13,508	1415,007	774,589
-20,994	13,534	1413,755	773,994
-19,979	13,529	1413,043	773,549
-18,965	13,506	1411,986	772,831
-17,950	13,513	1411,156	772,381
-16,936	13,477	1410,330	771,729
-15,921	13,441	1409,066	770,836
-14,906	13,480	1408,289	770,564
-13,892	13,455	1407,436	769,950
-12,877	13,455	1406,412	769,358
-11,863	13,489	1405,374	768,920
-10,848	13,471	1404,584	768,371
-9,833	13,429	1403,744	767,688
-8,819	13,393	1402,951	767,055
-7,804	13,384	1401,876	766,397
-6,790	13,379	1401,022	765,877
-5,775	13,349	1399,938	765,113
-4,760	13,418	1398,974	764,875
-3,746	13,339	1398,202	764,058
-2,731	13,323	1397,421	763,525
-1,717	13,322	1396,484	762,978
-0,702	13,349	1394,577	762,030
0,313	17,150	1311,357	734,203
1,327	33,396	704,242	431,871
2,342	51,063	123,448	82,721
3,356	1,523	16,644	8,448
4,371	2,490	3,221	1,645
5,386	-35,462	0,702	0,269
6,400	-200,000	-0,027	0,108
7,415	159,956	-0,300	-0,296
8,429	15,713	-0,371	-0,206
9,444	7,693	-0,334	-0,176
10,459	57,457	-0,300	-0,207
11,473	42,789	-0,211	-0,136
12,488	87,147	-0,231	-0,181
13,502	-8,648	-0,431	-0,204
14,517	-44,354	-0,245	-0,086
15,531	-29,859	-0,288	-0,115
16,546	4,256	-0,499	-0,258
17,561	105,511	-0,353	-0,294
18,575	35,406	-0,317	-0,196
19,590	124,596	-0,214	-0,190
20,604	136,744	-0,204	-0,188
21,619	205,221	-0,352	-0,386
22,634	65,693	-0,461	-0,329
23,648	127,851	-0,390	-0,350
24,663	241,924	-0,411	-0,486
25,677	86,626	-0,391	-0,305
26,692	20,593	-0,402	-0,229
27,707	-15,423	-0,404	-0,181
28,721	73,846	-0,333	-0,247
29,736	182,321	-0,367	-0,383
30,750	328,927	-0,277	-0,377
31,765	61,589	-0,386	-0,271
32,780	95,817	-0,456	-0,367
33,794	152,125	-0,365	-0,352
34,809	158,505	-0,337	-0,330
35,823	51,108	-0,440	-0,294
36,838	244,677	-0,319	-0,380
37,853	72,046	-0,323	-0,237
38,867	70,116	-0,339	-0,246
39,882	-20,497	-0,365	-0,157
40,896	-0,224	-0,271	-0,135
41,911	59,167	-0,302	-0,210
42,926	283,596	-0,222	-0,282
43,940	1,867	-0,481	-0,244
44,955	252,122	-0,268	-0,323
45,969	358,647	-0,249	-0,351
46,984	138,832	-0,333	-0,309
47,999	619,288	-0,169	-0,302
49,013	192,805	-0,188	-0,201
50,028	187,668	-0,196	-0,206
51,042	800,000	-0,168	-0,369
52,057	151,532	-0,380	-0,365
53,071	108,108	-0,337	-0,283
54,086	165,788	-0,181	-0,181
55,101	81,364	-0,332	-0,252
56,115	190,116	-0,351	-0,371
57,130	81,855	-0,251	-0,192
58,144	-74,069	-0,383	-0,097
59,159	100,698	-0,413	-0,338
60,174	46,901	-0,412	-0,270
61,188	29,431	-0,368	-0,220
62,203	209,219	-0,265	-0,293
63,217	38,683	-0,313	-0,196
64,232	150,276	-0,295	-0,282
65,247	209,997	-0,282	-0,312
66,261	167,367	-0,324	-0,324
67,276	48,457	-0,372	-0,245
68,290	13,307	-0,350	-0,190
69,305	-55,326	-0,173	-0,054
70,320	24,369	-0,313	-0,182
71,334	56,880	-0,265	-0,182
72,349	-18,127	-0,267	-0,117
73,363	49,520	-0,340	-0,225
74,378	66,490	-0,322	-0,230
75,393	194,449	-0,308	-0,329
76,407	13,971	-0,342	-0,186
77,422	-95,188	-0,324	-0,061
78,436	93,591	-0,282	-0,224
79,451	86,744	-0,232	-0,180
80,466	50,639	-0,327	-0,217
81,480	-2,464	-0,418	-0,205
82,495	12,305	-0,413	-0,223
83,509	125,260	-0,177	-0,157
84,524	188,738	-0,216	-0,227
85,539	-85,951	-0,346	-0,074
86,553	-64,722	-0,296	-0,084
87,568	54,970	-0,395	-0,268
88,582	-2,432	-0,302	-0,148
89,597	164,422	-0,206	-0,204
90,611	209,680	-0,172	-0,190
91,626	175,628	-0,247	-0,252
92,641	-5,697	-0,150	-0,072
93,655	15,616	-0,218	-0,120
94,670	46,543	-0,297	-0,193
95,684	176,978	-0,365	-0,374
96,699	-200,000	-0,087	-0,273
97,714	-29,027	-0,259	-0,104
98,728	-165,735	-0,327	-0,010
99,743	126,001	-0,273	-0,243
100,757	-46,370	-0,278	-0,095
101,772	60,821	-0,232	-0,161
102,787	53,136	-0,265	-0,177
103,801	28,528	-0,257	-0,152
104,816	93,333	-0,260	-0,206
105,830	-55,128	-0,338	-0,106
106,845	-115,851	-0,193	0,025
107,860	38,453	-0,205	-0,128
108,874	15,116	-0,238	-0,130
109,889	254,665	-0,230	-0,276
110,903	-17,046	-0,278	-0,123
111,918	50,201	-0,317	-0,210
112,933	253,633	-0,213	-0,255
113,947	-7,077	-0,208	-0,099
114,962	392,066	-0,119	-0,173
115,976	256,250	-0,209	-0,252
116,991	63,102	-0,276	-0,193
118,006	40,511	-0,272	-0,171
119,020	3,102	-0,245	-0,124
120,035	800,000	-0,085	-0,187
121,049	129,083	-0,283	-0,253
122,064	23,670	-0,135	-0,078
123,079	-87,678	-0,301	-0,063
124,093	11,059	-0,261	-0,139
125,108	205,244	-0,191	-0,207
126,122	-200,000	-0,068	-0,211
127,137	87,821	-0,312	-0,242
128,151	330,623	-0,191	-0,258
129,166	-14,984	-0,225	-0,101
130,181	187,187	-0,292	-0,305
131,195	109,030	-0,182	-0,152
132,210	161,677	-0,321	-0,315
133,224	320,469	-0,284	-0,379
134,239	800,000	-0,104	-0,224
135,254	-74,160	-0,203	-0,051
136,268	184,594	-0,250	-0,259
137,283	11,178	-0,293	-0,156
138,297	19,219	-0,310	-0,174
139,312	77,954	-0,350	-0,260
140,327	42,339	-0,338	-0,214
141,341	54,816	-0,212	-0,143
142,356	-69,044	-0,268	-0,072
143,370	-16,766	-0,279	-0,123
144,385	-93,425	-0,322	-0,062
145,400	56,391	-0,186	-0,126
146,414	37,137	-0,152	-0,094
147,429	48,145	-0,262	-0,171
148,443	273,715	-0,209	-0,259
149,458	-200,000	-0,050	-0,255
150,473	191,563	-0,190	-0,200
151,487	599,288	-0,059	-0,102
152,502	-68,206	-0,334	-0,090
153,516	-52,053	-0,383	-0,124
154,531	132,108	-0,165	-0,148
155,546	261,399	-0,193	-0,234
156,560	417,983	-0,147	-0,221
157,575	-9,950	-0,224	-0,103
158,589	339,628	-0,142	-0,194
159,604	-18,036	-0,330	-0,144
160,619	312,872	-0,257	-0,338
161,633	-13,227	-0,235	-0,106
162,648	173,523	-0,249	-0,251
163,662	45,301	-0,215	-0,138
164,677	101,915	-0,221	-0,180
165,692	160,160	-0,224	-0,218
166,706	231,441	-0,203	-0,232
167,721	-163,436	-0,258	-0,008
168,735	52,187	-0,251	-0,166
169,750	153,510	-0,166	-0,159
170,764	127,621	-0,161	-0,143
171,779	-64,762	-0,232	-0,065
172,794	-15,762	-0,179	-0,079
173,808	517,854	-0,153	-0,250
174,823	86,563	-0,288	-0,221
175,837	313,400	-0,212	-0,279
176,852	615,403	-0,125	-0,220
177,867	-5,795	-0,245	-0,116
178,881	435,312	-0,074	-0,113
179,896	627,801	-0,096	-0,170
180,910	24,676	-0,190	-0,109
181,925	-54,660	-0,315	-0,099
182,940	-26,257	-0,167	-0,068
183,954	-2,678	-0,291	-0,141
184,969	196,760	-0,113	-0,120
185,983	-48,306	-0,185	-0,062
186,998	52,949	-0,147	-0,098
188,013	-7,778	-0,185	-0,087
189,027	-53,438	-0,381	-0,121
190,042	72,371	-0,239	-0,173
191,056	230,757	-0,113	-0,129
192,071	66,590	-0,232	-0,164
193,086	329,986	-0,114	-0,153
194,100	247,810	-0,093	-0,110
195,115	-53,526	-0,176	-0,056
196,129	-42,843	-0,286	-0,101
197,144	14,595	-0,255	-0,138
198,159	-23,480	-0,239	-0,099
199,173	442,934	-0,088	-0,134
200,188	2,956	-0,196	-0,098
201,202	39,365	-0,179	-0,112
202,217	16,731	-0,158	-0,087
203,232	149,987	-0,194	-0,183
204,246	9,610	-0,186	-0,098
205,261	165,761	-0,226	-0,223
206,275	6,558	-0,150	-0,077
207,290	150,160	-0,113	-0,106
208,304	800,000	-0,104	-0,230
209,319	24,747	-0,174	-0,100
210,334	-200,000	-0,070	-0,316
211,348	213,268	-0,156	-0,171
212,363	181,515	-0,245	-0,251
213,377	-1,403	-0,198	-0,097
214,392	-83,622	-0,139	-0,031
215,407	800,000	-0,114	-0,226
216,421	96,050	-0,157	-0,124
217,436	515,283	-0,069	-0,112
218,450	281,632	-0,199	-0,248
219,465	-57,147	-0,295	-0,090
220,480	-200,000	-0,044	-0,214
221,494	76,224	-0,258	-0,189
222,509	49,230	-0,172	-0,112
223,523	-200,000	0,011	-0,083
224,538	126,838	-0,193	-0,170
225,553	437,630	-0,138	-0,209
226,567	-0,633	-0,227	-0,111
227,582	81,090	-0,218	-0,163
228,596	134,472	-0,220	-0,198
229,611	33,182	-0,204	-0,123
230,626	160,499	-0,165	-0,160
231,640	800,000	-0,104	-0,303
232,655	69,326	-0,291	-0,208
233,669	40,180	-0,190	-0,118
234,684	108,597	-0,198	-0,164
235,699	800,000	-0,101	-0,216
236,713	12,991	-0,132	-0,071
237,728	-89,237	-0,264	-0,054
238,742	-105,503	-0,180	-0,028
239,757	43,353	-0,150	-0,095
240,772	38,753	-0,269	-0,166
241,786	26,226	-0,102	-0,059
242,801	-200,000	-0,023	-0,204
243,815	-24,724	-0,209	-0,086
244,830	150,647	-0,112	-0,106
245,844	-15,495	-0,147	-0,065
246,859	-200,000	-0,048	-0,188
247,874	45,375	-0,288	-0,184
248,888	208,782	-0,167	-0,181
249,903	-200,000	-0,046	-0,164
250,917	41,968	-0,109	-0,068
251,932	109,619	-0,228	-0,189
252,947	48,809	-0,202	-0,131
253,961	26,480	-0,163	-0,094
254,976	64,430	-0,229	-0,159
255,990	800,000	-0,131	-0,341
257,005	47,652	-0,209	-0,135
258,020	800,000	-0,047	-0,124
259,034	33,770	-0,076	-0,046
260,049	-50,624	-0,168	-0,054
261,063	339,162	-0,054	-0,073
262,078	154,977	-0,205	-0,195
263,093	-95,515	-0,247	-0,045
264,107	-83,140	-0,176	-0,039
265,122	-58,686	-0,161	-0,048
266,136	431,932	-0,109	-0,163
267,151	11,067	-0,138	-0,073
268,166	162,102	-0,230	-0,223
269,180	-63,377	-0,219	-0,062
270,195	-200,000	-0,069	-0,298
271,209	441,450	-0,105	-0,159
272,224	800,000	-0,073	-0,178
273,239	-34,768	-0,237	-0,089
274,253	95,878	-0,106	-0,083
275,268	-99,322	-0,196	0,034
276,282	93,596	-0,281	-0,220
277,297	316,794	-0,212	-0,278
278,312	104,488	-0,186	-0,151
279,326	14,826	-0,293	-0,158
280,341	-37,547	-0,239	-0,088
281,355	-88,245	-0,107	-0,022
282,370	56,902	-0,165	-0,111
283,384	-169,723	-0,115	0,003
284,399	-200,000	-0,027	-0,138
285,414	154,461	-0,173	-0,164
286,428	480,514	-0,145	-0,228
287,443	800,000	-0,017	-0,046
288,457	-169,031	-0,084	-0,002
289,472	-42,322	-0,174	-0,061
290,487	-129,795	-0,168	-0,016
291,501	-62,976	-0,150	-0,042
292,516	164,809	-0,190	-0,185
293,530	77,483	-0,242	-0,178
294,545	-200,000	-0,045	-0,183
295,560	800,000	-0,028	-0,080
296,574	722,009	-0,096	-0,178
297,589	217,997	-0,062	-0,069
298,603	162,802	-0,137	-0,133
299,618	738,506	-0,054	-0,101
300,633	-31,211	-0,126	-0,049
301,647	-94,177	-0,179	0,033
302,662	-200,000	-0,019	-0,175
303,676	216,525	-0,117	-0,128
304,691	23,882	-0,234	-0,132
305,706	59,119	-0,208	-0,141
306,720	800,000	-0,046	-0,114
307,735	556,433	-0,093	-0,155
308,749	122,299	-0,094	-0,081
309,764	-103,803	-0,104	0,017
310,779	800,000	-0,049	-0,110
311,793	-71,998	-0,203	-0,052
312,808	8,448	-0,218	-0,112
313,822	325,767	-0,103	-0,137
314,837	-118,946	-0,221	-0,026
315,852	3,679	-0,150	-0,075
316,866	140,312	-0,136	-0,124
317,881	110,475	-0,134	-0,111
318,895	-24,565	-0,195	-0,080
319,910	-30,006	-0,211	-0,082
320,925	-193,859	-0,185	-0,001
321,939	14,306	-0,169	0,091
322,954	800,000	-0,060	0,119
323,968	56,658	-0,077	-0,051
324,983	-16,905	-0,126	0,054
325,997	-200,000	-0,004	-0,108
327,012	694,933	-0,094	-0,171
328,027	28,419	-0,126	-0,073
329,041	-119,940	-0,229	-0,027
330,056	63,216	-0,110	-0,075
331,070	22,484	-0,051	-0,028
332,085	-61,710	-0,170	-0,049
333,100	-84,156	-0,113	-0,024
334,114	30,969	-0,119	-0,070
335,129	-10,656	-0,025	0,011
336,143	-89,819	-0,221	-0,044
337,158	397,051	-0,136	-0,196
338,173	67,984	-0,065	-0,046
339,187	-87,999	-0,057	-0,012
340,202	129,816	-0,126	-0,111
341,216	711,199	-0,021	-0,039
342,231	-66,201	-0,213	-0,058
343,246	-10,400	-0,231	-0,105
344,260	261,086	-0,111	-0,133
345,275	-139,256	-0,234	-0,017
346,289	800,000	-0,069	-0,132
347,304	269,066	-0,130	-0,157
348,319	193,132	-0,101	-0,105
349,333	102,076	-0,115	-0,092
350,348	-44,817	-0,121	-0,041
351,362	-49,001	-0,122	-0,040
352,377	-117,061	-0,108	0,013
353,392	-148,120	-0,146	0,008
354,406	-200,000	-0,062	-0,241
355,421	210,380	1314,151	1417,794
356,435	161,959	1474,788	1418,281
