DTS Sentinel unit serial number:	SN410029Multiplexer serial number:	ORYXHardware model number:	OX2-SRSoftware version number:	ORYX F/W v4,00 Oryx Data Collector v3.7.2.0data status	okinstallation	B3 Nyhavnadifferential loss correction	single-endedforward channel	channel 1reverse channel	N/Adate	2023/12/03time	19:32:30forward acquisition time	300,00reverse acquisition time	0,00gamma	499,1914k internal	0,3198k external	0,3198temperature offset calibration	1,0000default loss term (dB/km)	0,3820temperature slope calibration	1,0000multiplexer offset coefficient	1,0000multiplexer slope coefficient	1,0000fibre end	0,00T internal ref (°C)	14,25T ext. ref 1 (°C)	-1,08T ext. ref 2 (°C)	-1,09length (m)	temperature (°C)	Stokes	anti-Stokes-744,400	409,516	-0,218	-0,337
-743,385	-200,000	0,070	0,257
-742,371	800,000	-0,120	-0,267
-741,356	-200,000	0,015	0,361
-740,342	334,531	-0,151	-0,213
-739,327	-200,000	-0,031	0,212
-738,312	-12,979	-0,308	-0,145
-737,298	-200,000	0,045	0,293
-736,283	594,059	-0,158	-0,285
-735,269	800,000	0,071	0,169
-734,254	63,734	-0,316	-0,231
-733,239	-96,539	-0,085	-0,016
-732,225	151,976	-0,181	-0,180
-731,210	-39,265	0,198	0,075
-730,196	-159,938	-0,089	-0,003
-729,181	-15,682	0,025	-0,012
-728,167	-61,900	0,082	-0,025
-727,152	-66,919	0,078	-0,022
-726,137	-83,657	-0,109	-0,025
-725,123	-59,165	-0,044	0,014
-724,108	-200,000	0,004	-0,080
-723,094	37,685	-0,077	-0,050
-722,079	-156,429	-0,127	-0,006
-721,064	28,404	-0,031	-0,019
-720,050	248,093	-0,075	-0,092
-719,035	800,000	0,005	-0,016
-718,021	-200,000	0,020	-0,123
-717,006	-91,857	-0,028	-0,006
-715,991	800,000	0,052	0,158
-714,977	26,621	-0,055	0,033
-713,962	-18,577	0,111	-0,050
-712,948	93,052	-0,072	-0,059
-711,933	-141,125	0,095	0,007
-710,918	-21,395	0,063	-0,028
-709,904	-200,000	0,008	-0,101
-708,889	161,485	-0,117	-0,119
-707,875	320,460	0,052	-0,071
-706,860	-40,985	-0,058	0,022
-705,845	122,837	0,135	0,123
-704,831	-200,000	0,026	0,141
-703,816	19,759	-0,095	0,055
-702,802	436,778	-0,067	-0,106
-701,787	42,339	-0,087	-0,057
-700,772	-200,000	0,041	-0,135
-699,758	-200,000	-0,011	-0,049
-698,743	257,564	0,075	-0,093
-697,729	-108,090	0,165	-0,026
-696,714	168,566	-0,049	0,051
-695,699	-57,605	-0,065	-0,021
-694,685	564,329	-0,026	-0,046
-693,670	25,607	0,099	0,060
-692,656	-139,351	-0,111	0,009
-691,641	-100,915	0,189	0,033
-690,627	-200,000	-0,042	-0,137
-689,612	-178,323	-0,063	0,001
-688,597	-19,375	0,057	0,025
-687,583	-200,000	-0,011	-0,042
-686,568	-52,573	-0,085	0,028
-685,554	431,436	0,068	-0,107
-684,539	-200,000	0,001	-0,144
-683,524	-200,000	0,045	0,144
-682,510	-200,000	-0,018	0,075
-681,495	-76,574	0,054	0,014
-680,481	-200,000	0,006	-0,190
-679,466	-200,000	0,103	-0,000
-678,451	318,921	0,026	0,036
-677,437	-133,726	-0,085	-0,008
-676,422	-48,115	0,143	-0,050
-675,408	-125,882	0,114	0,012
-674,393	37,104	-0,063	-0,041
-673,378	-6,539	-0,087	-0,043
-672,364	89,125	-0,105	-0,085
-671,349	-167,117	0,017	0,001
-670,335	-68,179	0,122	-0,034
-669,320	-86,003	0,183	-0,041
-668,305	8,279	-0,059	0,032
-667,291	800,000	-0,018	0,046
-666,276	-200,000	0,003	-0,067
-665,262	40,328	0,047	0,031
-664,247	-183,443	0,106	0,001
-663,232	-105,846	0,043	-0,007
-662,218	-200,000	-0,011	0,051
-661,203	66,673	0,061	0,045
-660,189	266,161	0,164	-0,209
-659,174	-200,000	0,010	-0,075
-658,159	-68,829	-0,100	-0,028
-657,145	135,155	0,012	0,011
-656,130	-200,000	-0,020	-0,094
-655,116	-42,018	0,119	0,044
-654,101	-13,196	-0,031	0,014
-653,086	-47,727	-0,078	-0,027
-652,072	439,673	0,053	-0,085
-651,057	-138,916	0,033	0,003
-650,043	-200,000	-0,023	0,146
-649,028	-125,101	-0,002	0,000
-648,014	800,000	0,009	0,028
-646,999	-194,585	0,200	-0,001
-645,984	-9,122	0,157	-0,076
-644,970	-128,670	-0,034	0,003
-643,955	-88,736	-0,072	0,015
-642,941	-200,000	-0,009	0,081
-641,926	-200,000	-0,022	-0,074
-640,911	-60,088	0,026	-0,008
-639,897	-105,588	0,090	0,015
-638,882	-135,316	0,093	-0,008
-637,868	167,276	-0,076	0,078
-636,853	-129,457	0,007	-0,001
-635,838	-200,000	-0,009	-0,083
-634,824	-3,419	-0,064	-0,032
-633,809	106,493	0,112	-0,096
-632,795	16,020	0,013	-0,007
-631,780	163,534	0,063	0,064
-630,765	-200,000	-0,004	-0,014
-629,751	-200,000	0,010	-0,062
-628,736	-200,000	-0,009	-0,149
-627,722	-4,293	-0,088	0,044
-626,707	151,582	0,074	-0,073
-625,692	-200,000	0,044	0,169
-624,678	800,000	0,016	0,045
-623,663	-22,533	-0,087	-0,038
-622,649	100,756	-0,051	0,043
-621,634	107,702	0,034	0,029
-620,619	800,000	0,037	0,075
-619,605	800,000	-0,010	0,031
-618,590	800,000	0,038	0,108
-617,576	-124,956	-0,081	-0,009
-616,561	196,067	-0,030	-0,033
-615,546	-200,000	0,005	0,036
-614,532	-200,000	-0,035	0,125
-613,517	-17,101	-0,028	0,013
-612,503	800,000	-0,019	0,055
-611,488	648,494	0,030	-0,056
-610,474	-200,000	0,010	0,061
-609,459	-189,408	0,106	0,001
-608,444	-24,681	-0,155	0,066
-607,430	-181,310	0,140	0,002
-606,415	-82,611	-0,089	-0,021
-605,401	-200,000	-0,017	-0,069
-604,386	-131,811	0,128	0,012
-603,371	-200,000	-0,046	0,158
-602,357	227,306	0,040	0,047
-601,342	-200,000	0,034	-0,145
-600,328	-200,000	-0,046	-0,148
-599,313	-200,000	0,002	-0,052
-598,298	562,020	-0,026	-0,045
-597,284	374,126	0,015	-0,022
-596,269	37,895	-0,045	-0,029
-595,255	-15,078	0,068	0,031
-594,240	-200,000	-0,003	-0,020
-593,225	121,339	-0,098	0,088
-592,211	-160,396	0,016	0,001
-591,196	37,331	-0,111	0,071
-590,182	-43,202	-0,114	0,042
-589,167	16,399	0,080	0,045
-588,152	-200,000	0,012	0,108
-587,138	-200,000	-0,001	-0,055
-586,123	-200,000	0,014	0,049
-585,109	304,295	-0,094	-0,127
-584,094	157,802	0,132	-0,132
-583,079	-36,858	-0,134	0,052
-582,065	-96,330	-0,143	0,027
-581,050	111,654	-0,063	-0,055
-580,036	-200,000	-0,002	0,015
-579,021	145,181	-0,087	0,084
-578,006	-200,000	0,030	-0,155
-576,992	-200,000	0,009	-0,196
-575,977	800,000	0,035	0,098
-574,963	-97,990	0,059	0,011
-573,948	-136,307	-0,071	-0,006
-572,934	-200,000	0,007	0,054
-571,919	-163,383	-0,011	-0,000
-570,904	0,285	-0,130	0,067
-569,890	118,126	0,075	-0,067
-568,875	-95,457	-0,051	0,010
-567,861	-200,000	0,023	-0,076
-566,846	14,321	-0,125	0,071
-565,831	800,000	-0,016	0,042
-564,817	800,000	-0,031	-0,079
-563,802	-62,139	0,114	-0,034
-562,788	-101,054	-0,042	-0,007
-561,773	-144,356	0,129	-0,009
-560,758	-149,421	0,086	-0,005
-559,744	11,036	0,033	-0,018
-558,729	-200,000	0,015	-0,069
-557,715	28,587	-0,010	0,006
-556,700	-200,000	0,018	0,126
-555,685	107,099	0,081	-0,070
-554,671	-65,055	-0,043	0,013
-553,656	154,786	-0,060	0,060
-552,642	-24,657	-0,109	-0,047
-551,627	354,030	0,045	-0,065
-550,612	511,974	-0,077	0,130
-549,598	-62,230	-0,026	0,008
-548,583	800,000	-0,020	-0,045
-547,569	176,495	0,101	-0,106
-546,554	-93,415	0,145	0,029
-545,539	161,822	0,067	-0,068
-544,525	-76,938	-0,170	-0,043
-543,510	137,187	-0,070	-0,066
-542,496	237,991	-0,039	-0,047
-541,481	-200,000	0,017	-0,059
-540,466	-131,036	0,020	-0,002
-539,452	76,102	-0,076	0,058
-538,437	122,876	-0,127	0,114
-537,423	-83,070	0,117	0,027
-536,408	-39,005	-0,053	-0,020
-535,393	4,344	-0,111	-0,058
-534,379	-200,000	0,003	-0,089
-533,364	-151,917	-0,071	-0,004
-532,350	223,282	-0,042	-0,049
-531,335	800,000	0,027	-0,073
-530,321	193,619	-0,117	0,128
-529,306	107,677	-0,041	-0,036
-528,291	-31,844	-0,211	-0,085
-527,277	-94,970	0,077	0,015
-526,262	77,634	-0,057	-0,044
-525,248	-200,000	0,010	0,049
-524,233	238,290	0,050	-0,060
-523,218	125,081	0,065	0,059
-522,204	-85,384	-0,047	-0,011
-521,189	-108,282	-0,160	0,025
-520,175	-200,000	-0,001	-0,095
-519,160	-63,062	0,141	-0,042
-518,145	-200,000	0,047	0,205
-517,131	686,146	0,009	-0,018
-516,116	-44,925	0,106	0,038
-515,102	602,075	-0,035	-0,064
-514,087	277,931	-0,049	0,063
-513,072	-79,142	-0,173	0,042
-512,058	-29,830	0,034	-0,014
-511,043	-19,291	-0,072	-0,032
-510,029	-85,342	0,111	0,025
-509,014	286,170	0,065	0,085
-507,999	141,965	-0,034	0,032
-506,985	120,264	-0,036	0,032
-505,970	78,280	-0,096	-0,074
-504,956	107,958	0,038	0,033
-503,941	-68,215	-0,083	0,023
-502,926	-154,307	0,074	0,004
-501,912	-98,991	0,056	0,010
-500,897	-142,023	0,102	0,007
-499,883	21,429	0,070	0,041
-498,868	218,381	-0,055	-0,064
-497,853	37,694	0,119	-0,076
-496,839	-126,356	-0,054	-0,006
-495,824	800,000	0,065	0,165
-494,810	51,787	-0,139	-0,095
-493,795	-60,016	0,038	0,012
-492,781	-7,992	-0,100	0,048
-491,766	-47,683	-0,063	-0,022
-490,751	-99,461	-0,060	-0,011
-489,737	43,184	-0,069	0,045
-488,722	-200,000	0,009	-0,028
-487,708	800,000	0,031	0,073
-486,693	73,058	-0,098	0,074
-485,678	58,631	-0,091	0,064
-484,664	-200,000	0,001	-0,033
-483,649	-200,000	0,031	-0,108
-482,635	-42,184	-0,076	0,028
-481,620	-200,000	-0,020	-0,105
-480,605	-16,413	0,047	-0,021
-479,591	319,455	0,019	0,025
-478,576	-80,424	-0,072	0,017
-477,562	-96,628	-0,085	-0,016
-476,547	175,495	-0,081	-0,085
-475,532	-80,418	-0,060	0,014
-474,518	512,924	0,043	0,073
-473,503	800,000	0,047	0,113
-472,489	162,067	-0,070	0,070
-471,474	275,940	-0,012	-0,016
-470,459	31,037	-0,061	0,038
-469,445	-80,951	-0,046	0,011
-468,430	-89,880	0,042	-0,009
-467,416	-90,502	0,058	-0,012
-466,401	-4,541	-0,099	0,049
-465,386	431,183	0,044	-0,069
-464,372	206,964	0,029	0,032
-463,357	-52,296	0,119	-0,039
-462,343	-35,697	0,087	-0,034
-461,328	174,412	-0,075	-0,078
-460,313	-200,000	0,011	0,084
-459,299	-129,181	0,160	0,016
-458,284	-45,537	0,043	0,015
-457,270	-112,235	0,060	-0,009
-456,255	-200,000	-0,012	-0,057
-455,241	-95,245	-0,118	-0,023
-454,226	-97,556	-0,119	-0,022
-453,211	-200,000	-0,006	-0,051
-452,197	252,763	-0,003	0,004
-451,182	58,045	0,030	-0,021
-450,168	-200,000	-0,041	0,132
-449,153	-185,937	-0,113	-0,001
-448,138	465,626	0,013	-0,021
-447,124	-150,049	0,135	-0,007
-446,109	-200,000	-0,004	-0,156
-445,095	-100,882	0,036	0,006
-444,080	610,843	-0,033	0,059
-443,065	24,354	-0,037	0,022
-442,051	-200,000	0,004	-0,062
-441,036	25,576	0,035	-0,021
-440,022	-146,859	-0,112	-0,007
-439,007	-77,074	0,046	-0,011
-437,992	452,669	-0,027	-0,044
-436,978	7,556	0,090	0,048
-435,963	-93,515	-0,061	0,012
-434,949	-69,945	-0,174	-0,047
-433,934	443,563	-0,054	-0,086
-432,919	-77,601	0,136	0,034
-431,905	-144,468	0,157	-0,010
-430,890	800,000	0,009	0,019
-429,876	-200,000	0,040	0,153
-428,861	800,000	0,035	0,095
-427,846	-192,137	-0,086	-0,001
-426,832	-200,000	-0,017	0,186
-425,817	169,544	-0,148	-0,152
-424,803	-90,421	-0,136	-0,028
-423,788	-3,066	0,075	-0,038
-422,773	-200,000	0,001	0,107
-421,759	32,162	0,147	0,091
-420,744	25,468	0,058	0,034
-419,730	276,969	-0,065	-0,083
-418,715	-12,279	-0,081	0,038
-417,701	-200,000	0,020	-0,073
-416,686	-180,210	0,140	0,002
-415,671	159,139	0,080	0,080
-414,657	-200,000	-0,012	0,060
-413,642	283,351	-0,005	0,006
-412,628	293,893	-0,050	-0,066
-411,613	-72,514	-0,187	-0,049
-410,598	-200,000	0,021	0,078
-409,584	-200,000	-0,008	0,066
-408,569	124,456	0,104	0,094
-407,555	-101,543	0,143	0,025
-406,540	800,000	0,021	0,052
-405,525	800,000	0,024	-0,064
-404,511	-200,000	-0,016	-0,059
-403,496	-163,975	0,090	-0,003
-402,482	111,920	0,112	0,097
-401,467	-200,000	0,024	0,228
-400,452	-200,000	0,016	0,082
-399,438	37,130	-0,045	-0,029
-398,423	-200,000	0,015	0,061
-397,409	800,000	-0,073	-0,187
-396,394	800,000	0,040	-0,089
-395,379	159,178	0,058	-0,058
-394,365	2,189	0,026	-0,014
-393,350	800,000	0,060	0,170
-392,336	254,738	-0,117	0,144
-391,321	460,731	-0,063	-0,102
-390,306	-200,000	0,003	0,047
-389,292	633,351	-0,037	-0,068
-388,277	-163,924	-0,069	0,002
-387,263	-200,000	-0,010	0,059
-386,248	-153,418	0,165	-0,008
-385,233	284,278	0,082	-0,106
-384,219	800,000	-0,020	-0,048
-383,204	-120,048	-0,055	0,007
-382,190	-200,000	0,024	-0,107
-381,175	800,000	-0,041	0,129
-380,160	-50,860	0,059	-0,020
-379,146	-200,000	-0,023	0,110
-378,131	86,126	-0,077	0,061
-377,117	98,376	0,071	0,059
-376,102	-154,112	0,097	-0,005
-375,088	21,409	-0,124	-0,072
-374,073	-200,000	0,009	-0,088
-373,058	47,860	0,118	-0,079
-372,044	345,515	0,074	-0,104
-371,029	63,733	0,023	0,016
-370,015	203,142	-0,037	0,041
-369,000	472,459	-0,058	0,093
-367,985	-146,503	0,127	0,008
-366,971	124,860	-0,122	-0,110
-365,956	48,612	0,080	-0,054
-364,942	118,469	-0,074	0,065
-363,927	-200,000	-0,019	0,100
-362,912	-69,922	0,006	0,002
-361,898	-200,000	0,003	-0,033
-360,883	-200,000	-0,000	-0,159
-359,869	-200,000	-0,002	-0,086
-358,854	-79,522	0,141	-0,034
-357,839	410,826	-0,083	-0,127
-356,825	-200,000	-0,003	-0,023
-355,810	-11,237	0,062	-0,029
-354,796	157,687	-0,078	0,078
-353,781	-75,544	0,072	-0,018
-352,766	-200,000	-0,020	0,091
-351,752	-200,000	-0,006	-0,057
-350,737	671,812	0,048	0,090
-349,723	-200,000	-0,064	0,227
-348,708	800,000	0,033	0,076
-347,693	-163,243	-0,125	0,004
-346,679	800,000	-0,018	0,051
-345,664	-179,538	0,112	-0,002
-344,650	50,772	0,100	-0,068
-343,635	-200,000	0,030	-0,122
-342,620	237,483	0,043	0,051
-341,606	-200,000	0,008	0,085
-340,591	-200,000	0,029	0,202
-339,577	202,289	-0,098	0,109
-338,562	-200,000	-0,022	-0,176
-337,548	49,555	0,042	-0,029
-336,533	100,311	-0,049	0,041
-335,518	-1,300	0,049	0,025
-334,504	800,000	0,037	0,085
-333,489	218,103	-0,124	0,142
-332,475	-200,000	-0,016	-0,125
-331,460	655,609	-0,038	-0,070
-330,445	-34,587	-0,079	-0,031
-329,431	-200,000	-0,012	-0,093
-328,416	206,696	-0,030	0,033
-327,402	800,000	0,102	-0,249
-326,387	-99,400	0,079	-0,014
-325,372	245,935	0,019	-0,023
-324,358	-99,130	-0,068	-0,012
-323,343	355,703	-0,031	-0,044
-322,329	236,290	-0,023	-0,027
-321,314	96,165	-0,066	-0,054
-320,299	37,126	-0,082	0,052
-319,285	-79,086	0,084	-0,020
-318,270	-33,048	-0,064	0,025
-317,256	800,000	-0,050	-0,109
-316,241	-200,000	-0,009	-0,032
-315,226	-200,000	-0,006	0,073
-314,212	800,000	0,054	0,137
-313,197	118,609	-0,029	-0,025
-312,183	86,912	-0,037	-0,030
-311,168	60,351	-0,062	-0,044
-310,153	447,579	-0,050	-0,079
-309,139	-200,000	-0,012	-0,128
-308,124	-200,000	-0,008	0,089
-307,110	152,651	-0,073	-0,072
-306,095	-111,853	-0,036	0,005
-305,080	281,374	0,027	-0,034
-304,066	-81,820	0,118	-0,027
-303,051	182,853	-0,021	-0,022
-302,037	217,776	0,017	0,019
-301,022	-200,000	0,003	-0,135
-300,008	35,823	0,085	0,053
-298,993	-200,000	-0,017	0,113
-297,978	-14,662	0,070	0,032
-296,964	5,005	-0,115	-0,061
-295,949	246,227	-0,028	-0,033
-294,935	439,848	0,045	0,071
-293,920	-64,440	-0,097	-0,028
-292,905	-154,059	0,147	-0,007
-291,891	219,280	0,080	-0,092
-290,876	15,400	0,066	0,037
-289,862	-80,874	-0,026	-0,006
-288,847	800,000	-0,030	0,093
-287,832	-3,802	0,125	-0,062
-286,818	163,570	0,026	-0,026
-285,803	-200,000	0,019	0,104
-284,789	44,616	0,029	0,019
-283,774	-117,322	-0,035	-0,004
-282,759	591,322	-0,023	-0,041
-281,745	-74,126	0,064	-0,016
-280,730	-200,000	-0,014	0,089
-279,716	234,562	0,065	0,077
-278,701	-62,070	0,103	0,030
-277,686	-77,977	0,145	-0,036
-276,672	40,246	0,086	0,055
-275,657	-82,336	-0,061	0,014
-274,643	635,020	-0,025	0,045
-273,628	137,958	-0,037	0,035
-272,613	95,560	-0,078	0,064
-271,599	-138,385	0,143	0,011
-270,584	-200,000	-0,003	0,084
-269,570	-43,410	0,041	-0,015
-268,555	-107,554	0,135	0,021
-267,540	212,668	-0,067	0,076
-266,526	800,000	0,041	-0,114
-265,511	-13,988	-0,105	-0,048
-264,497	-200,000	-0,015	-0,143
-263,482	-130,086	0,078	0,008
-262,467	483,616	-0,011	-0,017
-261,453	-200,000	0,001	0,041
-260,438	-36,546	0,165	0,063
-259,424	-200,000	-0,005	-0,032
-258,409	-200,000	0,007	0,046
-257,395	-64,050	0,124	0,036
-256,380	123,449	0,094	-0,084
-255,365	-200,000	-0,029	0,098
-254,351	205,610	-0,048	-0,053
-253,336	95,018	-0,173	-0,140
-252,322	-200,000	-0,001	0,019
-251,307	-147,587	-0,022	-0,001
-250,292	35,072	0,030	0,019
-249,278	-107,720	0,052	0,008
-248,263	172,880	0,116	-0,120
-247,249	-160,919	-0,081	0,003
-246,234	-200,000	-0,008	0,046
-245,219	800,000	0,013	0,034
-244,205	377,352	0,036	0,053
-243,190	87,491	-0,101	0,080
-242,176	697,242	-0,011	-0,020
-241,161	45,588	-0,023	0,015
-240,146	800,000	0,014	0,039
-239,132	46,138	0,167	0,110
-238,117	29,316	-0,121	-0,073
-237,103	800,000	0,015	-0,034
-236,088	-13,367	0,043	0,020
-235,073	712,240	-0,063	0,119
-234,059	-14,807	-0,033	0,015
-233,044	-200,000	0,028	0,116
-232,030	526,570	0,063	0,106
-231,015	800,000	-0,062	-0,132
-230,000	220,583	0,046	-0,053
-228,986	-54,786	-0,053	-0,017
-227,971	-200,000	-0,013	-0,129
-226,957	-21,253	-0,079	-0,034
-225,942	354,153	-0,007	-0,010
-224,927	42,592	0,047	-0,031
-223,913	63,601	0,096	-0,069
-222,898	52,727	-0,063	0,043
-221,884	388,181	0,044	-0,066
-220,869	800,000	-0,030	-0,091
-219,855	800,000	0,039	0,108
-218,840	281,595	0,017	0,022
-217,825	177,449	-0,093	-0,096
-216,811	31,476	0,030	0,019
-215,796	-131,059	-0,045	0,004
-214,782	800,000	-0,013	0,033
-213,767	-200,000	0,006	-0,142
-212,752	0,436	0,138	0,070
-211,738	342,651	-0,083	0,116
-210,723	48,206	0,022	-0,015
-209,709	78,148	-0,057	0,044
-208,694	115,911	0,087	-0,076
-207,679	-200,000	0,007	-0,107
-206,665	-133,650	0,149	-0,013
-205,650	-19,011	-0,098	0,043
-204,636	-105,088	-0,052	-0,008
-203,621	312,555	0,130	0,174
-202,606	800,000	0,031	-0,076
-201,592	231,444	-0,016	0,018
-200,577	-125,049	0,096	-0,010
-199,563	-104,368	0,026	0,004
-198,548	-200,000	-0,038	0,140
-197,533	-155,487	0,086	0,004
-196,519	-3,532	-0,023	-0,011
-195,504	251,582	-0,080	-0,097
-194,490	510,244	-0,057	-0,095
-193,475	-200,000	-0,062	-0,205
-192,460	298,471	-0,060	0,078
-191,446	460,055	0,066	-0,105
-190,431	800,000	-0,022	0,048
-189,417	-115,813	0,014	-0,002
-188,402	800,000	-0,063	-0,129
-187,387	67,003	-0,078	0,056
-186,373	284,665	-0,014	0,018
-185,358	-65,547	0,062	0,018
-184,344	633,722	0,059	0,108
-183,329	66,266	-0,122	0,088
-182,315	-8,461	-0,018	0,009
-181,300	23,882	-0,061	0,036
-180,285	-45,150	-0,122	-0,043
-179,271	-200,000	0,021	-0,074
-178,256	49,972	0,077	0,052
-177,242	338,205	0,056	-0,078
-176,227	487,678	-0,032	0,051
-175,212	-21,435	-0,136	0,059
-174,198	291,648	-0,078	-0,101
-173,183	-164,362	-0,064	-0,002
-172,169	643,546	0,086	-0,156
-171,154	-68,103	0,072	-0,020
-170,139	-150,097	0,111	0,006
-169,125	79,540	0,063	0,048
-168,110	800,000	0,062	0,133
-167,096	-110,456	0,025	0,004
-166,081	-200,000	0,014	-0,083
-165,066	750,485	-0,053	-0,102
-164,052	-41,749	0,144	-0,052
-163,037	390,482	-0,025	0,037
-162,023	591,064	0,020	0,034
-161,008	800,000	-0,050	0,146
-159,993	-45,109	0,018	0,006
-158,979	82,146	-0,076	-0,059
-157,964	-200,000	0,007	-0,172
-156,950	106,248	-0,062	0,052
-155,935	800,000	0,023	-0,051
-154,920	300,524	0,083	0,110
-153,906	37,952	-0,029	-0,018
-152,891	23,382	0,068	0,040
-151,877	371,657	-0,062	-0,090
-150,862	282,843	-0,104	-0,133
-149,847	-76,099	-0,101	0,025
-148,833	403,630	0,056	-0,084
-147,818	-200,000	0,002	0,023
-146,804	-200,000	-0,029	0,137
-145,789	60,807	0,028	-0,020
-144,775	-164,296	0,048	0,002
-143,760	324,381	-0,040	0,054
-142,745	800,000	-0,028	0,081
-141,731	800,000	0,011	0,025
-140,716	800,000	0,018	0,036
-139,702	-55,702	0,154	0,049
-138,687	800,000	-0,052	-0,156
-137,672	12,932	0,083	-0,045
-136,658	-48,149	-0,012	0,004
-135,643	-96,402	-0,093	0,017
-134,629	78,806	-0,002	-0,001
-133,614	-54,457	0,117	0,037
-132,599	402,398	-0,098	-0,147
-131,585	211,190	0,042	0,047
-130,570	-110,784	0,081	0,012
-129,556	15,610	-0,022	-0,012
-128,541	422,277	-0,056	-0,086
-127,526	-57,790	0,065	0,020
-126,512	-133,684	0,270	-0,024
-125,497	260,885	0,051	0,062
-124,483	431,501	0,022	0,034
-123,468	800,000	-0,031	0,075
-122,453	-96,137	-0,118	0,022
-121,439	279,244	0,095	-0,121
-120,424	-64,655	-0,044	0,013
-119,410	-53,760	0,103	0,033
-118,395	-4,511	0,011	0,005
-117,380	-200,000	-0,003	0,181
-116,366	-46,120	0,073	-0,025
-115,351	343,527	-0,032	-0,044
-114,337	-200,000	0,047	0,194
-113,322	800,000	-0,045	-0,136
-112,307	101,343	0,119	-0,099
-111,293	67,806	0,096	0,070
-110,278	274,977	0,121	0,152
-109,264	188,901	0,036	-0,039
-108,249	22,182	0,144	0,083
-107,234	-0,723	-0,076	-0,038
-106,220	-93,823	-0,066	-0,013
-105,205	54,366	-0,118	0,080
-104,191	505,470	0,007	-0,011
-103,176	-90,862	0,167	-0,034
-102,162	800,000	-0,024	0,050
-101,147	-110,689	-0,010	0,001
-100,132	-47,463	-0,083	0,028
-99,118	-200,000	0,027	-0,087
-98,103	-200,000	0,023	-0,079
-97,089	52,639	0,040	0,027
-96,074	-115,675	0,056	0,007
-95,059	19,179	0,084	0,048
-94,045	751,325	0,024	0,046
-93,030	800,000	-0,052	-0,143
-92,016	269,516	-0,021	0,026
-91,001	24,457	0,098	0,057
-89,986	444,797	-0,035	-0,055
-88,972	-200,000	-0,018	-0,073
-87,957	-200,000	0,007	0,180
-86,943	103,685	0,063	0,052
-85,928	226,494	0,072	-0,082
-84,913	-200,000	0,023	0,077
-83,899	48,102	0,040	-0,026
-82,884	-17,279	-0,067	0,030
-81,870	-200,000	-0,020	-0,109
-80,855	800,000	0,076	0,230
-79,840	-80,238	-0,066	0,015
-78,826	-19,004	0,041	0,018
-77,811	399,035	0,021	0,031
-76,797	-129,443	-0,129	-0,013
-75,782	-59,962	0,124	-0,037
-74,767	24,412	0,101	0,059
-73,753	391,270	-0,043	-0,063
-72,738	437,579	0,064	0,099
-71,724	-200,000	0,003	0,016
-70,709	546,964	0,040	-0,068
-69,694	-105,373	0,033	0,005
-68,680	398,768	0,024	0,036
-67,665	-32,829	0,124	0,049
-66,651	224,773	-0,056	0,065
-65,636	-200,000	0,016	-0,139
-64,622	-162,665	-0,260	-0,009
-63,607	-200,000	0,009	-0,118
-62,592	-200,000	-0,006	-0,114
-61,578	800,000	-0,043	-0,089
-60,563	-76,411	0,127	0,031
-59,549	-127,939	-0,082	0,008
-58,534	-36,440	-1,585	-0,602
-57,519	360,916	-1,420	-2,023
-56,505	-200,000	-0,576	-4,479
-55,490	223,574	0,880	1,008
-54,476	800,000	4,763	10,997
-53,461	-200,000	18,690	302,818
-52,446	800,000	735,435	2282,527
-51,432	564,933	1651,579	2847,723
-50,417	78,867	1668,906	1264,227
-49,403	22,177	1542,125	889,767
-48,388	16,122	1464,951	815,826
-47,373	17,815	1455,040	818,450
-46,359	16,908	1445,435	808,664
-45,344	14,393	1440,542	793,854
-44,330	14,293	1438,741	792,351
-43,315	14,297	1437,193	791,488
-42,300	14,308	1435,415	790,531
-41,286	14,357	1434,035	789,975
-40,271	14,298	1432,909	789,041
-39,257	14,318	1431,446	788,296
-38,242	14,384	1429,988	787,778
-37,227	14,353	1429,083	787,098
-36,213	14,351	1427,679	786,288
-35,198	14,358	1426,469	785,624
-34,184	14,370	1425,671	785,206
-33,169	14,319	1424,333	784,197
-32,154	14,347	1423,273	783,715
-31,140	14,402	1421,820	783,146
-30,125	14,433	1420,841	782,721
-29,111	14,359	1419,741	781,737
-28,096	14,331	1418,535	780,906
-27,082	14,277	1417,362	779,976
-26,067	14,287	1416,292	779,403
-25,052	14,275	1415,479	778,867
-24,038	14,288	1414,499	778,358
-23,023	14,257	1413,382	777,570
-22,009	14,283	1412,438	777,140
-20,994	14,219	1411,676	776,391
-19,979	14,233	1410,643	775,857
-18,965	14,196	1409,906	775,248
-17,950	14,158	1409,018	774,551
-16,936	14,217	1407,870	774,165
-15,921	14,200	1406,545	773,326
-14,906	14,163	1405,907	772,770
-13,892	14,189	1404,923	772,319
-12,877	14,157	1404,039	771,657
-11,863	14,173	1402,911	771,079
-10,848	14,157	1402,305	770,642
-9,833	14,127	1401,410	769,978
-8,819	14,073	1400,488	769,188
-7,804	14,081	1399,349	768,572
-6,790	14,129	1398,367	768,224
-5,775	14,080	1397,471	767,476
-4,760	14,120	1396,414	767,048
-3,746	14,070	1395,663	766,377
-2,731	14,089	1394,887	766,005
-1,717	14,059	1394,024	765,363
-0,702	14,058	1392,259	764,357
0,313	17,933	1310,351	737,344
1,327	34,377	705,668	435,180
2,342	52,731	124,037	83,808
3,356	5,248	16,618	8,646
4,371	6,543	3,245	1,702
5,386	-72,553	0,550	0,143
6,400	-200,000	-0,039	0,342
7,415	-89,182	-0,289	-0,060
8,429	-32,751	-0,260	-0,102
9,444	-35,781	-0,373	-0,142
10,459	300,033	-0,227	-0,296
11,473	87,249	-0,219	-0,171
12,488	-56,582	-0,380	-0,118
13,502	265,739	-0,182	-0,225
14,517	146,593	-0,227	-0,216
15,531	588,021	-0,195	-0,341
16,546	-16,799	-0,360	-0,160
17,561	30,245	-0,346	-0,208
18,575	47,972	-0,155	-0,103
19,590	29,313	-0,297	-0,178
20,604	57,278	-0,175	-0,120
21,619	78,982	-0,440	-0,333
22,634	134,874	-0,492	-0,452
23,648	78,422	-0,454	-0,342
24,663	590,423	-0,267	-0,467
25,677	53,406	-0,368	-0,249
26,692	-34,233	-0,386	-0,149
27,707	43,730	-0,301	-0,194
28,721	-75,399	-0,472	-0,118
29,736	11,561	-0,421	-0,227
30,750	234,780	-0,271	-0,317
31,765	121,913	-0,387	-0,341
32,780	199,268	-0,257	-0,279
33,794	5,767	-0,291	-0,152
34,809	151,468	-0,329	-0,317
35,823	86,238	-0,423	-0,329
36,838	164,780	-0,298	-0,297
37,853	5,360	-0,399	-0,207
38,867	54,212	-0,387	-0,262
39,882	63,535	-0,334	-0,236
40,896	-29,220	-0,342	-0,138
41,911	76,167	-0,406	-0,303
42,926	96,174	-0,386	-0,311
43,940	27,534	-0,370	-0,219
44,955	69,246	-0,406	-0,294
45,969	202,103	-0,236	-0,258
46,984	121,611	-0,348	-0,306
47,999	29,943	-0,423	-0,254
49,013	21,050	-0,213	-0,122
50,028	95,029	-0,429	-0,344
51,042	255,996	-0,344	-0,417
52,057	38,083	-0,348	-0,218
53,071	104,983	-0,330	-0,275
54,086	217,326	-0,240	-0,270
55,101	199,648	-0,314	-0,340
56,115	26,052	-0,325	-0,191
57,130	88,202	-0,348	-0,272
58,144	28,933	-0,409	-0,243
59,159	97,724	-0,254	-0,206
60,174	-24,800	-0,250	-0,104
61,188	12,564	-0,412	-0,223
62,203	82,736	-0,329	-0,252
63,217	5,388	-0,394	-0,204
64,232	63,097	-0,289	-0,204
65,247	-3,597	-0,365	-0,178
66,261	-115,887	-0,340	-0,044
67,276	36,207	-0,299	-0,185
68,290	-30,758	-0,248	-0,098
69,305	45,432	-0,289	-0,187
70,320	270,194	-0,167	-0,207
71,334	33,151	-0,298	-0,181
72,349	51,077	-0,316	-0,210
73,363	-46,037	-0,427	-0,147
74,378	7,225	-0,277	-0,145
75,393	17,073	-0,297	-0,165
76,407	107,997	-0,317	-0,266
77,422	10,770	-0,333	-0,178
78,436	-34,408	-0,251	-0,096
79,451	58,741	-0,290	-0,200
80,466	99,934	-0,303	-0,247
81,480	81,054	-0,353	-0,267
82,495	189,638	-0,312	-0,330
83,509	135,331	-0,197	-0,180
84,524	263,153	-0,241	-0,295
85,539	-3,748	-0,362	-0,176
86,553	188,175	-0,211	-0,222
87,568	130,855	-0,269	-0,243
88,582	33,136	-0,313	-0,190
89,597	279,138	-0,247	-0,310
90,611	52,061	-0,275	-0,184
91,626	259,895	-0,158	-0,193
92,641	-35,298	-0,374	-0,142
93,655	8,123	-0,316	-0,166
94,670	10,080	-0,239	-0,127
95,684	31,398	-0,339	-0,204
96,699	384,084	-0,233	-0,338
97,714	1,288	-0,280	-0,141
98,728	-129,749	-0,379	-0,036
99,743	-0,453	-0,224	-0,111
100,757	60,296	-0,358	-0,249
101,772	122,397	-0,183	-0,160
102,787	170,612	-0,238	-0,239
103,801	166,716	-0,304	-0,303
104,816	117,779	-0,276	-0,238
105,830	335,784	-0,202	-0,276
106,845	103,506	-0,298	-0,246
107,860	40,087	-0,270	-0,170
108,874	800,000	-0,078	-0,210
109,889	71,596	-0,323	-0,235
110,903	-12,018	-0,279	-0,128
111,918	9,217	-0,369	-0,195
112,933	100,158	-0,200	-0,163
113,947	-113,423	-0,326	-0,044
114,962	70,901	-0,244	-0,177
115,976	186,133	-0,251	-0,262
116,991	-65,854	-0,280	-0,078
118,006	-22,410	-0,258	-0,109
119,020	62,978	-0,198	-0,139
120,035	180,022	-0,260	-0,267
121,049	12,388	-0,306	-0,165
122,064	299,981	-0,136	-0,176
123,079	230,970	-0,190	-0,219
124,093	234,061	-0,158	-0,182
125,108	32,461	-0,264	-0,159
126,122	21,060	-0,303	-0,172
127,137	224,265	-0,211	-0,239
128,151	450,379	-0,139	-0,215
129,166	375,340	-0,125	-0,178
130,181	-156,139	-0,236	0,010
131,195	2,421	-0,245	-0,124
132,210	103,754	-0,265	-0,218
133,224	160,696	-0,235	-0,229
134,239	59,824	-0,338	-0,233
135,254	157,771	-0,240	-0,233
136,268	-13,967	-0,209	-0,094
137,283	221,857	-0,271	-0,305
138,297	426,663	-0,215	-0,325
139,312	-84,775	-0,213	-0,046
140,327	-21,489	-0,335	-0,142
141,341	84,595	-0,240	-0,184
142,356	52,813	-0,293	-0,196
143,370	86,642	-0,236	-0,182
144,385	108,786	-0,204	-0,170
145,400	-20,523	-0,435	-0,186
146,414	162,826	-0,233	-0,229
147,429	102,542	-0,272	-0,222
148,443	-114,007	-0,275	-0,037
149,458	131,498	-0,221	-0,199
150,473	-65,312	-0,266	-0,074
151,487	32,588	-0,289	-0,174
152,502	-12,261	-0,174	-0,079
153,516	297,513	-0,219	-0,281
154,531	193,589	-0,172	-0,182
155,546	12,970	-0,328	-0,177
156,560	135,495	-0,219	-0,199
157,575	125,455	-0,214	-0,189
158,589	-33,175	-0,224	-0,086
159,604	399,027	-0,192	-0,281
160,619	187,168	-0,215	-0,224
161,633	483,470	-0,133	-0,212
162,648	212,202	-0,241	-0,265
163,662	-39,814	-0,240	-0,087
164,677	-78,212	-0,237	-0,057
165,692	419,576	-0,115	-0,172
166,706	800,000	-0,130	-0,257
167,721	69,366	-0,217	-0,156
168,735	11,062	-0,311	-0,166
169,750	-13,853	-0,238	-0,107
170,764	590,678	-0,107	-0,185
171,779	-75,619	-0,168	0,041
172,794	15,215	-0,271	-0,148
173,808	48,267	-0,286	-0,186
174,823	89,058	-0,311	-0,241
175,837	555,486	-0,126	-0,212
176,852	800,000	-0,125	-0,259
177,867	75,965	-0,192	-0,141
178,881	65,722	-0,187	-0,132
179,896	343,816	-0,204	-0,280
180,910	-200,000	-0,089	-0,282
181,925	286,498	-0,154	-0,194
182,940	318,259	-0,204	-0,269
183,954	-152,791	-0,253	-0,012
184,969	-27,063	-0,344	-0,139
185,983	51,800	-0,149	-0,099
186,998	338,769	-0,168	-0,228
188,013	108,879	-0,172	-0,143
189,027	178,464	-0,157	-0,160
190,042	100,919	-0,274	-0,222
191,056	17,176	-0,313	-0,172
192,071	431,827	-0,107	-0,162
193,086	137,839	-0,205	-0,187
194,100	713,435	-0,053	-0,098
195,115	-86,057	-0,285	-0,061
196,129	45,715	-0,248	-0,159
197,144	-22,554	-0,196	-0,082
198,159	183,892	-0,220	-0,227
199,173	188,606	-0,167	-0,174
200,188	160,700	-0,179	-0,174
201,202	336,750	-0,078	-0,106
202,217	-3,888	-0,118	-0,057
203,232	227,257	-0,158	-0,179
204,246	175,062	-0,159	-0,160
205,261	358,704	-0,111	-0,155
206,275	12,366	-0,119	-0,063
207,290	104,864	-0,137	-0,113
208,304	104,872	-0,158	-0,129
209,319	157,781	-0,101	0,098
210,334	388,260	-0,151	-0,218
211,348	37,392	-0,226	-0,139
212,363	347,871	-0,180	-0,247
213,377	-43,758	-0,172	-0,060
214,392	254,147	-0,159	-0,189
215,407	86,061	-0,166	-0,127
216,421	-188,096	-0,300	0,003
217,436	239,546	-0,197	-0,229
218,450	196,505	-0,205	-0,217
219,465	188,841	-0,148	-0,154
220,480	-56,841	-0,230	-0,070
221,494	173,100	-0,172	-0,172
222,509	185,602	-0,228	-0,236
223,523	274,943	-0,082	-0,101
224,538	84,868	-0,109	-0,083
225,553	151,136	-0,217	-0,205
226,567	49,003	-0,252	-0,164
227,582	-28,619	-0,240	-0,095
228,596	655,724	-0,079	-0,141
229,611	-68,578	-0,275	-0,073
230,626	-200,000	-0,033	-0,169
231,640	-197,739	-0,176	0,001
232,655	-11,195	-0,298	-0,136
233,669	82,134	-0,195	-0,146
234,684	262,066	-0,139	-0,168
235,699	376,712	-0,090	-0,129
236,713	-200,000	0,018	-0,154
237,728	21,217	-0,170	-0,095
238,742	-18,371	-0,211	-0,091
239,757	40,716	-0,239	-0,149
240,772	422,633	-0,178	-0,266
241,786	198,511	-0,185	-0,196
242,801	66,483	-0,160	-0,113
243,815	114,534	-0,192	-0,162
244,830	264,920	-0,134	-0,162
245,844	252,161	-0,138	-0,163
246,859	-37,761	-0,235	-0,086
247,874	-200,000	-0,080	-0,372
248,888	701,495	-0,126	-0,231
249,903	-21,718	-0,083	0,035
250,917	800,000	-0,050	-0,136
251,932	70,545	-0,074	-0,053
252,947	92,933	-0,094	-0,073
253,961	-82,322	-0,299	-0,067
254,976	-129,994	-0,214	0,020
255,990	405,768	-0,088	-0,129
257,005	800,000	-0,099	-0,207
258,020	335,317	-0,105	-0,142
259,034	500,218	-0,113	-0,181
260,049	-112,297	-0,122	0,017
261,063	121,641	-0,210	-0,181
262,078	-78,220	-0,218	-0,051
263,093	61,553	-0,268	-0,184
264,107	800,000	-0,147	-0,298
265,122	246,160	-0,115	-0,134
266,136	263,610	-0,115	-0,138
267,151	-98,020	-0,207	-0,036
268,166	-23,821	-0,195	-0,080
269,180	310,153	-0,149	-0,194
270,195	800,000	-0,084	-0,176
271,209	3,112	-0,207	-0,104
272,224	337,325	-0,094	-0,126
273,239	-200,000	-0,014	-0,110
274,253	105,318	-0,143	-0,117
275,268	-24,304	-0,194	-0,079
276,282	91,813	-0,127	-0,099
277,297	106,235	-0,256	-0,210
278,312	269,508	-0,171	-0,207
279,326	-137,827	-0,188	0,014
280,341	98,216	-0,054	-0,043
281,355	99,921	-0,050	0,040
282,370	-122,360	-0,273	-0,030
283,384	44,291	-0,167	-0,106
284,399	800,000	-0,084	-0,248
285,414	800,000	-0,103	-0,296
286,428	115,568	-0,109	-0,092
287,443	-102,094	-0,032	0,005
288,457	54,928	-0,115	-0,076
289,472	-131,663	-0,193	0,017
290,487	70,606	-0,121	-0,087
291,501	800,000	-0,099	-0,264
292,516	-137,183	-0,168	0,013
293,530	57,337	-0,206	-0,139
294,545	-1,869	-0,193	-0,093
295,560	-200,000	-0,030	-0,158
296,574	89,678	-0,204	-0,157
297,589	800,000	-0,069	-0,145
298,603	278,014	-0,148	-0,183
299,618	274,419	-0,114	-0,139
300,633	-141,144	-0,050	-0,003
301,647	585,094	-0,111	-0,189
302,662	-200,000	-0,047	-0,173
303,676	28,067	-0,134	-0,078
304,691	118,008	-0,165	-0,140
305,706	101,723	-0,141	-0,113
306,720	-200,000	-0,211	-0,000
307,735	-14,526	-0,184	-0,081
308,749	-53,996	-0,160	-0,050
309,764	177,897	-0,118	-0,119
310,779	-200,000	0,010	-0,050
311,793	791,930	-0,078	-0,148
312,808	-0,953	-0,177	-0,086
313,822	-200,000	-0,064	-0,196
314,837	768,660	-0,025	-0,048
315,852	-11,231	-0,105	-0,048
316,866	339,737	-0,025	-0,033
317,881	330,523	-0,070	-0,093
318,895	790,956	-0,101	-0,192
319,910	362,197	-0,253	-0,350
320,925	177,679	-0,164	-0,165
321,939	404,155	-0,119	-0,173
322,954	51,924	-0,204	-0,133
323,968	-53,708	-0,158	-0,049
324,983	64,336	-0,186	-0,129
325,997	177,674	-0,054	0,054
327,012	-23,590	-0,112	-0,046
328,027	7,493	-0,138	-0,071
329,041	-200,000	-0,037	-0,331
330,056	264,622	-0,105	-0,126
331,070	119,915	-0,128	-0,109
332,085	37,149	-0,135	-0,082
333,100	114,921	-0,148	-0,124
334,114	-200,000	-0,013	-0,183
335,129	17,461	-0,217	-0,118
336,143	-199,244	-0,180	-0,001
337,158	-146,085	-0,228	-0,014
338,173	415,313	-0,049	-0,072
339,187	10,003	-0,083	-0,043
340,202	412,093	-0,140	-0,204
341,216	-200,000	0,015	-0,082
342,231	317,313	-0,074	-0,096
343,246	104,691	-0,168	-0,136
344,260	-52,705	-0,105	-0,033
345,275	206,432	-0,059	0,063
346,289	387,898	-0,132	-0,188
347,304	783,213	-0,082	-0,155
348,319	96,030	-0,120	-0,094
349,333	-18,487	-0,147	-0,063
350,348	-139,115	-0,175	-0,013
351,362	-51,240	-0,196	-0,063
352,377	307,175	-0,088	-0,113
353,392	315,244	-0,107	-0,138
354,406	-123,331	-0,145	-0,016
355,421	209,228	1315,341	1416,168
356,435	161,017	1476,156	1416,654
