DTS Sentinel unit serial number:	SN410029Multiplexer serial number:	ORYXHardware model number:	OX2-SRSoftware version number:	ORYX F/W v4,00 Oryx Data Collector v3.7.2.0data status	okinstallation	B3 Nyhavnadifferential loss correction	single-endedforward channel	channel 1reverse channel	N/Adate	2023/11/30time	23:17:30forward acquisition time	300,00reverse acquisition time	0,00gamma	499,1914k internal	0,3210k external	0,3210temperature offset calibration	1,0000default loss term (dB/km)	0,3820temperature slope calibration	1,0000multiplexer offset coefficient	1,0000multiplexer slope coefficient	1,0000fibre end	0,00T internal ref (°C)	9,68T ext. ref 1 (°C)	-5,45T ext. ref 2 (°C)	-5,58length (m)	temperature (°C)	Stokes	anti-Stokes-744,400	5,139	-0,239	-0,128
-743,385	-200,000	0,054	0,336
-742,371	114,970	-0,043	-0,038
-741,356	-200,000	-0,025	0,329
-740,342	-200,000	-0,052	-0,175
-739,327	800,000	-0,109	0,279
-738,312	800,000	-0,146	-0,302
-737,298	-200,000	0,031	0,199
-736,283	169,734	-0,255	-0,265
-735,269	-200,000	-0,038	0,216
-734,254	514,631	-0,113	-0,192
-733,239	-151,060	-0,324	0,017
-732,225	-200,000	-0,069	-0,277
-731,210	354,381	0,063	0,091
-730,196	-141,588	-0,132	-0,010
-729,181	-200,000	-0,005	-0,070
-728,167	-75,650	0,031	-0,008
-727,152	71,323	0,096	-0,072
-726,137	77,667	-0,060	0,046
-725,123	-200,000	-0,009	0,068
-724,108	368,283	0,072	-0,106
-723,094	-200,000	0,017	-0,143
-722,079	-48,899	-0,229	-0,079
-721,064	471,011	0,054	-0,089
-720,050	-17,079	-0,071	-0,032
-719,035	800,000	0,031	-0,070
-718,021	-57,654	-0,045	0,014
-717,006	2,753	-0,149	-0,078
-715,991	384,537	0,017	-0,026
-714,977	-18,140	-0,102	-0,046
-713,962	-123,058	-0,046	-0,005
-712,948	-17,035	0,077	0,035
-711,933	345,571	-0,090	-0,128
-710,918	-200,000	0,012	-0,068
-709,904	-93,852	-0,234	-0,046
-708,889	321,837	-0,068	-0,095
-707,875	-200,000	-0,038	-0,172
-706,860	25,097	0,109	-0,065
-705,845	364,271	-0,061	0,090
-704,831	9,856	-0,030	0,016
-703,816	-30,482	-0,083	-0,034
-702,802	-17,738	-0,069	-0,031
-701,787	-200,000	-0,026	-0,085
-700,772	-58,808	-0,110	0,034
-699,758	616,446	0,058	-0,106
-698,743	260,020	-0,101	-0,127
-697,729	158,605	-0,030	0,030
-696,714	40,729	-0,183	0,119
-695,699	39,161	-0,077	-0,050
-694,685	-22,168	0,151	-0,066
-693,670	346,265	0,049	0,070
-692,656	6,944	-0,110	0,059
-691,641	713,254	-0,063	-0,121
-690,627	-46,862	0,051	0,018
-689,612	-200,000	0,007	0,081
-688,597	193,733	-0,081	0,089
-687,583	-200,000	0,018	-0,122
-686,568	97,554	-0,093	0,077
-685,554	310,003	-0,046	-0,062
-684,539	800,000	-0,032	0,082
-683,524	-200,000	0,019	0,078
-682,510	13,677	0,127	-0,071
-681,495	242,321	-0,043	-0,053
-680,481	64,094	0,065	-0,047
-679,466	535,752	-0,060	-0,103
-678,451	141,989	0,097	-0,093
-677,437	-25,943	0,037	0,016
-676,422	371,142	0,094	0,138
-675,408	-66,078	0,062	0,018
-674,393	800,000	-0,023	0,070
-673,378	375,334	-0,074	-0,110
-672,364	397,080	0,050	-0,075
-671,349	-119,350	-0,026	-0,003
-670,335	-57,017	0,199	-0,063
-669,320	578,186	0,040	-0,071
-668,305	215,019	-0,123	0,141
-667,291	-116,695	0,136	0,018
-666,276	800,000	0,093	-0,200
-665,262	-82,775	0,053	-0,012
-664,247	-2,290	0,023	-0,012
-663,232	-69,620	0,070	-0,019
-662,218	148,908	-0,008	0,008
-661,203	208,784	-0,068	-0,077
-660,189	-200,000	-0,001	-0,088
-659,174	-200,000	-0,000	-0,039
-658,159	121,245	-0,006	-0,006
-657,145	508,189	-0,032	-0,055
-656,130	71,841	0,103	0,077
-655,116	-39,270	-0,105	0,040
-654,101	61,783	-0,026	0,018
-653,086	-19,591	0,037	0,017
-652,072	800,000	0,015	-0,034
-651,057	292,099	-0,068	-0,089
-650,043	-200,000	0,016	-0,147
-649,028	310,511	0,099	-0,135
-648,014	-149,119	-0,077	-0,004
-646,999	128,141	-0,117	0,108
-645,984	-82,772	-0,035	-0,008
-644,970	-74,817	-0,053	-0,014
-643,955	-110,095	-0,059	-0,009
-642,941	-200,000	0,029	0,105
-641,926	30,167	-0,054	-0,033
-640,911	-96,122	-0,099	0,019
-639,897	-200,000	-0,016	0,092
-638,882	93,563	-0,071	-0,058
-637,868	-57,491	0,080	0,025
-636,853	800,000	0,033	-0,104
-635,838	-200,000	0,037	-0,176
-634,824	-200,000	-0,003	0,048
-633,809	34,988	0,041	-0,026
-632,795	-200,000	0,009	0,131
-631,780	-4,901	0,115	0,057
-630,765	96,180	-0,092	-0,076
-629,751	165,420	0,053	-0,055
-628,736	7,858	-0,173	-0,093
-627,722	89,899	0,087	0,070
-626,707	192,242	0,058	0,063
-625,692	202,290	-0,095	0,106
-624,678	13,971	-0,045	-0,025
-623,663	4,839	0,089	0,047
-622,649	95,245	-0,081	-0,067
-621,634	-57,221	0,087	0,028
-620,619	-67,702	-0,120	0,034
-619,605	-67,587	0,072	0,020
-618,590	-92,431	0,114	-0,023
-617,576	-105,433	0,055	0,009
-616,561	-200,000	0,015	-0,202
-615,546	-74,301	0,037	-0,009
-614,532	800,000	-0,031	0,093
-613,517	-200,000	-0,039	-0,170
-612,503	-125,991	-0,095	-0,010
-611,488	-200,000	-0,022	0,080
-610,474	148,711	0,056	0,055
-609,459	65,026	-0,071	-0,052
-608,444	232,682	-0,080	-0,095
-607,430	97,291	0,038	0,032
-606,415	-200,000	0,001	0,002
-605,401	-200,000	0,014	0,064
-604,386	494,224	0,030	0,050
-603,371	-1,068	0,206	0,105
-602,357	-36,282	-0,153	0,059
-601,342	242,892	-0,015	-0,019
-600,328	-200,000	-0,002	-0,010
-599,313	590,242	-0,051	-0,091
-598,298	348,196	0,084	-0,119
-597,284	-28,583	-0,047	0,019
-596,269	-133,016	-0,073	-0,007
-595,255	30,728	-0,201	0,124
-594,240	-20,573	-0,012	-0,005
-593,225	524,613	-0,090	-0,153
-592,211	197,576	-0,083	0,091
-591,196	800,000	0,015	0,041
-590,182	-9,572	0,068	-0,033
-589,167	262,554	-0,088	-0,111
-588,152	-124,130	0,136	-0,015
-587,138	-200,000	0,001	0,091
-586,123	-136,505	-0,056	0,005
-585,109	64,492	0,048	0,035
-584,094	131,201	-0,107	0,099
-583,079	-200,000	0,001	0,218
-582,065	92,181	0,144	0,117
-581,050	-61,681	-0,117	0,035
-580,036	697,980	-0,066	0,126
-579,021	-0,034	-0,087	0,045
-578,006	-200,000	-0,003	-0,116
-576,992	-83,931	-0,204	-0,046
-575,977	-200,000	0,002	0,025
-574,963	-53,913	0,236	0,077
-573,948	220,520	-0,024	-0,028
-572,934	800,000	-0,012	-0,026
-571,919	-50,834	-0,143	-0,048
-570,904	-200,000	-0,012	0,101
-569,890	101,977	0,075	-0,063
-568,875	481,779	0,056	0,091
-567,861	37,518	0,159	0,102
-566,846	625,392	0,016	-0,029
-565,831	111,143	-0,043	0,037
-564,817	-156,316	-0,059	0,003
-563,802	-40,166	-0,059	0,022
-562,788	-200,000	0,035	0,117
-561,773	-71,831	-0,031	-0,008
-560,758	-200,000	-0,007	-0,057
-559,744	-200,000	-0,014	0,075
-558,729	800,000	0,030	0,060
-557,715	-200,000	-0,026	0,125
-556,700	9,366	-0,158	-0,086
-555,685	800,000	0,030	-0,064
-554,671	-200,000	-0,001	-0,086
-553,656	-28,687	0,145	-0,060
-552,642	-43,276	-0,066	0,024
-551,627	-136,708	0,092	0,008
-550,612	668,777	0,016	-0,029
-549,598	-16,703	-0,034	0,016
-548,583	54,991	0,084	-0,058
-547,569	391,356	-0,075	0,112
-546,554	636,429	0,023	0,042
-545,539	-200,000	0,011	-0,106
-544,525	-26,103	0,107	0,045
-543,510	-200,000	-0,003	-0,025
-542,496	145,726	-0,040	-0,038
-541,481	127,905	0,027	0,025
-540,466	-115,672	-0,094	-0,013
-539,452	113,085	0,047	0,041
-538,437	449,188	-0,028	-0,045
-537,423	-79,367	0,099	-0,024
-536,408	316,194	-0,067	-0,091
-535,393	478,704	0,032	-0,052
-534,379	-200,000	0,024	-0,201
-533,364	686,998	0,010	-0,019
-532,350	-86,229	-0,068	0,015
-531,335	45,780	0,029	0,019
-530,321	42,250	0,040	-0,026
-529,306	-200,000	0,045	-0,153
-528,291	-23,110	-0,064	0,028
-527,277	47,004	-0,041	0,028
-526,262	-61,148	-0,146	0,044
-525,248	330,643	-0,112	-0,155
-524,233	800,000	0,013	0,027
-523,218	44,750	0,069	0,046
-522,204	476,256	-0,093	0,152
-521,189	-200,000	-0,016	0,059
-520,175	533,881	0,048	-0,081
-519,160	-200,000	-0,008	-0,173
-518,145	-46,007	0,014	0,005
-517,131	-33,415	-0,068	0,027
-516,116	617,144	0,028	-0,051
-515,102	-101,662	-0,058	0,010
-514,087	112,485	-0,137	-0,119
-513,072	-200,000	0,020	-0,075
-512,058	152,738	0,053	-0,052
-511,043	78,699	-0,063	0,048
-510,029	190,662	0,098	0,106
-509,014	-52,929	-0,107	-0,035
-507,999	-200,000	-0,007	0,047
-506,985	165,322	-0,031	-0,031
-505,970	-200,000	-0,036	-0,121
-504,956	687,760	0,040	-0,076
-503,941	-53,389	0,133	0,044
-502,926	800,000	0,028	0,080
-501,912	800,000	0,033	-0,066
-500,897	-64,909	-0,045	-0,013
-499,883	499,073	0,062	0,103
-498,868	-173,766	-0,212	0,004
-497,853	-200,000	0,004	-0,032
-496,839	67,396	-0,088	-0,064
-495,824	-69,499	0,207	0,056
-494,810	-200,000	0,010	0,126
-493,795	-200,000	-0,002	0,015
-492,781	-96,027	0,072	-0,014
-491,766	18,949	-0,068	-0,039
-490,751	220,133	-0,048	0,055
-489,737	293,228	-0,042	-0,056
-488,722	-125,842	0,177	-0,019
-487,708	800,000	0,059	0,183
-486,693	-200,000	0,000	0,128
-485,678	138,530	-0,062	0,058
-484,664	-200,000	-0,023	-0,122
-483,649	-40,134	-0,101	-0,038
-482,635	-62,753	-0,022	0,007
-481,620	-126,051	-0,049	0,005
-480,605	66,874	0,021	-0,016
-479,591	-91,862	0,078	-0,016
-478,576	268,962	-0,046	0,058
-477,562	-123,394	-0,164	-0,019
-476,547	-200,000	0,006	-0,103
-475,532	-200,000	-0,004	-0,019
-474,518	-62,234	0,170	-0,050
-473,503	140,318	0,064	0,060
-472,489	-62,373	0,094	0,028
-471,474	51,813	0,067	0,046
-470,459	800,000	-0,032	0,078
-469,445	-123,671	-0,150	0,017
-468,430	196,571	0,125	-0,137
-467,416	-122,023	-0,205	-0,024
-466,401	-200,000	0,011	-0,057
-465,386	-5,411	0,076	0,037
-464,372	-200,000	-0,008	-0,034
-463,357	-200,000	-0,009	-0,093
-462,343	-200,000	-0,001	-0,244
-461,328	-67,546	-0,073	-0,020
-460,313	-130,103	0,034	-0,003
-459,299	-81,871	0,100	0,023
-458,284	800,000	-0,044	0,091
-457,270	-49,598	-0,080	-0,027
-456,255	-200,000	0,015	0,049
-455,241	301,785	-0,077	-0,102
-454,226	39,478	-0,129	-0,083
-453,211	443,826	0,068	-0,107
-452,197	422,280	-0,019	-0,030
-451,182	-27,809	0,009	0,004
-450,168	-146,473	0,079	-0,005
-449,153	175,946	-0,052	-0,054
-448,138	-192,847	-0,103	-0,001
-447,124	-200,000	0,006	-0,070
-446,109	-101,284	0,206	-0,036
-445,095	-18,849	0,131	-0,058
-444,080	667,093	-0,086	0,160
-443,065	-27,498	0,051	0,021
-442,051	800,000	-0,041	0,092
-441,036	800,000	-0,059	-0,150
-440,022	90,423	0,086	-0,069
-439,007	52,766	-0,093	0,064
-437,992	-75,107	0,125	-0,032
-436,978	1,104	-0,150	-0,077
-435,963	39,182	-0,021	-0,013
-434,949	-27,423	0,063	-0,026
-433,934	10,119	-0,107	0,058
-432,919	-99,021	-0,103	-0,019
-431,905	-156,165	-0,088	0,004
-430,890	-37,844	0,095	0,036
-429,876	59,056	0,060	0,042
-428,861	421,946	0,028	0,043
-427,846	521,605	0,043	0,072
-426,832	63,442	0,051	-0,037
-425,817	800,000	0,047	-0,122
-424,803	-7,720	0,160	0,077
-423,788	-200,000	0,023	-0,108
-422,773	217,156	0,041	-0,046
-421,759	244,656	0,094	0,113
-420,744	1,731	0,047	-0,024
-419,730	-200,000	-0,015	0,048
-418,715	-56,245	0,134	0,042
-417,701	459,106	-0,079	-0,126
-416,686	179,123	-0,051	-0,054
-415,671	800,000	-0,014	-0,029
-414,657	800,000	-0,043	0,127
-413,642	-6,413	0,110	-0,054
-412,628	437,346	-0,037	0,058
-411,613	-10,623	-0,117	0,055
-410,598	26,754	0,095	-0,057
-409,584	16,839	0,050	-0,028
-408,569	-200,000	-0,021	0,128
-407,555	-98,343	0,075	0,014
-406,540	-4,750	0,079	-0,039
-405,525	-5,712	0,041	-0,020
-404,511	-63,768	-0,109	-0,032
-403,496	252,942	0,044	-0,053
-402,482	67,909	0,105	-0,077
-401,467	-200,000	0,003	0,014
-400,452	-200,000	-0,007	0,044
-399,438	-7,703	-0,227	0,109
-398,423	570,093	-0,054	0,095
-397,409	-200,000	0,017	-0,064
-396,394	296,934	0,036	0,047
-395,379	297,573	0,037	0,049
-394,365	101,242	0,145	0,121
-393,350	277,072	0,047	0,059
-392,336	307,028	-0,087	-0,116
-391,321	800,000	0,025	0,077
-390,306	47,119	-0,066	0,044
-389,292	-178,620	-0,134	-0,002
-388,277	-63,367	0,116	-0,034
-387,263	448,881	0,036	-0,058
-386,248	317,132	-0,136	0,184
-385,233	-200,000	-0,003	0,216
-384,219	664,525	-0,053	0,098
-383,204	91,547	0,023	0,018
-382,190	279,125	-0,055	-0,070
-381,175	-135,850	-0,045	0,004
-380,160	230,034	0,053	0,062
-379,146	152,613	0,065	-0,063
-378,131	47,429	0,046	0,030
-377,117	684,427	0,039	0,073
-376,102	330,418	-0,010	0,014
-375,088	163,218	-0,013	-0,013
-374,073	270,751	0,086	0,109
-373,058	23,062	-0,099	-0,058
-372,044	111,657	0,106	-0,091
-371,029	800,000	-0,019	0,037
-370,015	-28,870	0,038	0,015
-369,000	800,000	0,030	0,086
-367,985	-110,121	0,043	-0,006
-366,971	-200,000	-0,003	-0,086
-365,956	-200,000	-0,001	0,061
-364,942	-200,000	0,002	0,128
-363,927	203,524	0,030	-0,033
-362,912	-80,723	0,110	-0,026
-361,898	-200,000	0,003	0,065
-360,883	496,716	-0,042	0,068
-359,869	-63,352	-0,074	0,022
-358,854	187,537	0,139	0,148
-357,839	800,000	0,037	0,094
-356,825	-43,976	-0,099	-0,035
-355,810	592,078	-0,045	0,080
-354,796	450,306	-0,042	-0,066
-353,781	293,489	0,041	-0,054
-352,766	38,713	0,104	-0,066
-351,752	360,388	-0,086	0,123
-350,737	-24,306	0,007	0,003
-349,723	-144,419	0,063	-0,004
-348,708	736,524	0,087	0,168
-347,693	-200,000	-0,027	-0,202
-346,679	-128,602	-0,021	0,002
-345,664	193,708	0,049	-0,053
-344,650	-103,538	-0,078	-0,013
-343,635	-7,401	-0,019	0,009
-342,620	-40,133	0,184	-0,068
-341,606	25,769	0,025	-0,015
-340,591	102,334	-0,102	-0,085
-339,577	316,328	0,053	-0,071
-338,562	-200,000	-0,014	-0,058
-337,548	-200,000	-0,025	0,099
-336,533	115,214	0,103	0,090
-335,518	-200,000	0,007	-0,100
-334,504	68,681	-0,075	0,055
-333,489	126,276	0,068	0,061
-332,475	800,000	-0,040	-0,083
-331,460	138,207	-0,015	-0,014
-330,445	4,830	-0,025	-0,013
-329,431	-200,000	0,011	0,113
-328,416	800,000	-0,042	0,083
-327,402	510,337	0,083	-0,138
-326,387	-200,000	-0,006	-0,123
-325,372	258,772	-0,056	-0,069
-324,358	-200,000	0,020	0,104
-323,343	-11,377	0,094	0,044
-322,329	129,536	0,024	0,022
-321,314	119,066	0,089	-0,079
-320,299	-143,947	0,127	0,008
-319,285	185,560	0,048	0,051
-318,270	186,923	-0,084	-0,089
-317,256	622,230	0,033	-0,059
-316,241	-200,000	0,006	0,043
-315,226	215,942	-0,041	-0,046
-314,212	-18,942	0,073	0,032
-313,197	14,454	-0,061	-0,034
-312,183	-102,149	0,156	0,026
-311,168	-200,000	0,006	-0,046
-310,153	-200,000	0,003	-0,027
-309,139	-8,540	-0,041	0,020
-308,124	-200,000	-0,009	-0,066
-307,110	110,236	-0,094	0,081
-306,095	800,000	0,012	0,028
-305,080	71,429	-0,066	-0,049
-304,066	-31,591	0,108	0,043
-303,051	-34,419	-0,009	-0,003
-302,037	-147,388	0,016	-0,001
-301,022	30,498	-0,112	-0,068
-300,008	-0,981	0,126	-0,063
-298,993	-62,337	0,216	-0,064
-297,978	-200,000	0,031	-0,103
-296,964	-200,000	-0,017	-0,111
-295,949	-200,000	-0,034	0,136
-294,935	799,201	-0,043	-0,084
-293,920	-0,246	0,067	0,034
-292,905	-164,160	0,148	0,005
-291,891	-200,000	0,016	0,063
-290,876	-61,994	0,154	0,046
-289,862	-200,000	-0,004	0,036
-288,847	198,578	-0,041	-0,045
-287,832	-200,000	0,002	-0,045
-286,818	-194,857	0,036	-0,000
-285,803	687,068	0,004	-0,007
-284,789	9,042	0,072	0,038
-283,774	405,255	0,033	0,049
-282,759	659,559	-0,046	0,084
-281,745	338,013	0,056	-0,078
-280,730	73,408	-0,088	-0,065
-279,716	-200,000	-0,001	0,020
-278,701	352,142	0,046	0,065
-277,686	305,682	0,039	0,052
-276,672	42,507	0,119	0,077
-275,657	800,000	0,018	-0,056
-274,643	-79,155	-0,128	0,031
-273,628	76,679	-0,052	0,039
-272,613	-137,637	0,097	-0,008
-271,599	-200,000	-0,004	0,012
-270,584	240,886	0,012	0,014
-269,570	-12,707	0,094	0,044
-268,555	-192,965	-0,101	-0,001
-267,540	111,768	-0,109	-0,094
-266,526	-200,000	0,042	-0,147
-265,511	-200,000	0,011	-0,077
-264,497	-36,171	-0,089	0,034
-263,482	800,000	0,081	0,182
-262,467	-44,454	0,059	0,021
-261,453	-120,513	-0,157	-0,019
-260,438	7,746	0,059	0,031
-259,424	-200,000	0,007	-0,139
-258,409	-200,000	0,001	-0,019
-257,395	-200,000	-0,012	0,093
-256,380	800,000	0,038	0,106
-255,365	69,277	-0,033	-0,024
-254,351	293,642	-0,032	-0,041
-253,336	214,520	-0,048	-0,054
-252,322	30,136	0,092	-0,056
-251,307	-200,000	0,029	-0,104
-250,292	-19,158	-0,057	-0,025
-249,278	186,614	0,097	-0,103
-248,263	-171,251	0,070	0,002
-247,249	-153,191	0,035	0,002
-246,234	18,167	-0,123	-0,069
-245,219	-36,264	-0,090	0,034
-244,205	144,213	-0,041	-0,039
-243,190	800,000	-0,024	-0,061
-242,176	800,000	0,031	-0,084
-241,161	771,571	-0,012	-0,023
-240,146	241,341	-0,029	-0,035
-239,132	46,810	0,073	0,048
-238,117	15,887	-0,171	-0,095
-237,103	413,193	-0,009	0,014
-236,088	-109,866	0,127	0,019
-235,073	-200,000	0,008	-0,036
-234,059	-200,000	-0,018	0,155
-233,044	800,000	-0,026	-0,057
-232,030	534,874	-0,026	-0,044
-231,015	-150,675	0,075	-0,004
-230,000	-200,000	-0,025	-0,193
-228,986	800,000	-0,025	-0,050
-227,971	-125,429	0,109	-0,012
-226,957	-68,181	0,048	0,013
-225,942	329,487	0,024	0,033
-224,927	-121,645	-0,151	-0,018
-223,913	14,856	-0,071	-0,040
-222,898	90,782	0,034	-0,027
-221,884	146,491	0,090	-0,086
-220,869	70,382	-0,053	-0,039
-219,855	-200,000	-0,013	0,072
-218,840	-200,000	-0,004	0,034
-217,825	-200,000	0,012	-0,060
-216,811	-63,966	-0,024	-0,007
-215,796	-110,920	-0,097	-0,014
-214,782	800,000	-0,038	-0,100
-213,767	182,474	0,041	-0,043
-212,752	-36,662	-0,058	-0,022
-211,738	-62,920	0,103	0,030
-210,723	157,799	-0,066	-0,065
-209,709	-114,108	-0,147	0,020
-208,694	-118,550	-0,188	0,023
-207,679	-18,758	0,023	0,010
-206,665	-200,000	0,008	0,131
-205,650	424,824	0,080	0,123
-204,636	54,838	0,101	0,069
-203,621	-28,132	-0,046	-0,019
-202,606	8,585	0,040	-0,021
-201,592	-15,318	-0,024	0,011
-200,577	800,000	0,012	-0,029
-199,563	119,237	-0,101	0,089
-198,548	172,245	-0,087	0,089
-197,533	800,000	-0,039	0,111
-196,519	-9,512	0,091	-0,043
-195,504	-200,000	-0,012	0,089
-194,490	110,759	-0,180	-0,154
-193,475	-200,000	-0,007	-0,183
-192,460	-114,561	0,112	0,015
-191,446	751,819	0,002	-0,005
-190,431	213,567	-0,052	0,059
-189,417	697,987	0,080	0,150
-188,402	-200,000	-0,003	0,028
-187,387	543,698	-0,042	-0,072
-186,373	332,634	-0,043	0,060
-185,358	463,095	0,044	-0,070
-184,344	-46,258	0,048	-0,017
-183,329	437,881	-0,052	-0,080
-182,315	-145,648	-0,026	-0,002
-181,300	237,187	-0,073	0,085
-180,285	-12,161	0,083	-0,038
-179,271	-0,023	0,081	-0,041
-178,256	-59,352	0,047	-0,014
-177,242	800,000	-0,040	-0,107
-176,227	-200,000	0,012	-0,109
-175,212	-200,000	0,003	0,046
-174,198	226,649	-0,035	0,040
-173,183	54,768	0,063	0,043
-172,169	-8,881	-0,064	0,030
-171,154	378,109	0,018	0,027
-170,139	800,000	-0,033	0,067
-169,125	654,719	0,067	0,123
-168,110	-200,000	0,055	0,253
-167,096	-200,000	-0,009	0,099
-166,081	43,347	-0,059	0,038
-165,066	95,942	-0,118	-0,095
-164,052	-23,965	-0,049	-0,021
-163,037	100,474	-0,084	-0,069
-162,023	110,869	0,068	0,058
-161,008	18,398	-0,055	0,031
-159,993	800,000	-0,051	0,121
-158,979	-135,372	-0,115	-0,010
-157,964	42,477	0,038	-0,024
-156,950	-200,000	-0,020	-0,080
-155,935	139,352	0,062	0,058
-154,920	-200,000	0,008	-0,024
-153,906	13,990	0,059	-0,032
-152,891	-200,000	0,030	0,156
-151,877	-200,000	-0,001	0,006
-150,862	-25,093	-0,156	0,065
-149,847	54,969	-0,117	-0,080
-148,833	-26,745	0,078	0,032
-147,818	-105,831	-0,122	0,019
-146,804	800,000	0,023	0,049
-145,789	-200,000	-0,029	0,000
-144,775	-122,798	-0,043	0,005
-143,760	125,689	-0,120	-0,108
-142,745	209,859	0,083	-0,092
-141,731	-9,266	0,116	0,055
-140,716	316,995	0,023	0,031
-139,702	-43,809	0,092	-0,033
-138,687	-200,000	-0,085	-0,000
-137,672	-140,643	0,105	-0,008
-136,658	232,640	-0,038	-0,044
-135,643	197,511	0,063	-0,068
-134,629	-200,000	0,018	0,111
-133,614	494,311	-0,021	-0,035
-132,599	800,000	0,043	-0,106
-131,585	-92,244	-0,091	0,018
-130,570	-200,000	-0,023	-0,086
-129,556	-200,000	0,026	-0,198
-128,541	-200,000	-0,005	-0,072
-127,526	474,603	-0,045	-0,073
-126,512	-67,975	0,239	0,066
-125,497	-200,000	-0,015	-0,061
-124,483	-2,104	0,056	-0,028
-123,468	-67,400	-0,053	0,015
-122,453	91,649	0,009	0,007
-121,439	-200,000	0,015	-0,059
-120,424	182,552	-0,092	0,096
-119,410	-200,000	0,000	0,057
-118,395	-58,812	0,038	-0,012
-117,380	800,000	-0,078	-0,174
-116,366	111,041	-0,101	0,086
-115,351	-113,317	-0,062	0,009
-114,337	-200,000	0,022	0,081
-113,322	118,939	0,102	-0,089
-112,307	800,000	-0,039	-0,110
-111,293	-83,907	0,118	0,026
-110,278	-133,109	0,227	-0,020
-109,264	800,000	-0,050	0,104
-108,249	-200,000	0,013	-0,044
-107,234	301,010	0,038	0,050
-106,220	800,000	-0,064	-0,159
-105,205	237,095	0,055	0,064
-104,191	-200,000	-0,018	0,085
-103,176	-200,000	0,006	0,077
-102,162	249,059	0,025	-0,030
-101,147	-200,000	-0,020	0,079
-100,132	-200,000	-0,008	-0,047
-99,118	-200,000	-0,014	-0,169
-98,103	21,584	0,027	0,016
-97,089	-33,344	0,204	0,080
-96,074	-200,000	-0,005	0,026
-95,059	-58,673	0,087	-0,026
-94,045	-63,690	0,069	-0,020
-93,030	182,535	-0,078	-0,081
-92,016	204,624	-0,035	0,038
-91,001	800,000	-0,036	-0,072
-89,986	-60,612	0,070	-0,021
-88,972	572,197	0,042	-0,073
-87,957	-106,687	0,072	-0,011
-86,943	251,580	0,090	0,108
-85,928	248,024	-0,031	0,038
-84,913	-119,251	0,053	0,006
-83,899	-200,000	0,010	-0,094
-82,884	-41,595	-0,093	0,034
-81,870	80,023	0,130	0,099
-80,855	332,462	-0,030	-0,042
-79,840	34,665	0,131	-0,081
-78,826	287,164	-0,122	-0,157
-77,811	93,907	-0,057	0,046
-76,797	-52,025	-0,100	-0,033
-75,782	-118,812	-0,039	0,005
-74,767	-36,999	0,055	0,021
-73,753	800,000	0,083	0,203
-72,738	481,682	-0,009	-0,014
-71,724	-86,884	-0,125	-0,027
-70,709	800,000	-0,112	-0,221
-69,694	800,000	0,032	-0,069
-68,680	-200,000	0,008	-0,054
-67,665	-29,457	0,078	0,031
-66,651	88,456	-0,031	0,024
-65,636	112,086	0,037	0,031
-64,622	24,189	-0,063	0,037
-63,607	-47,316	-0,088	0,030
-62,592	-200,000	0,016	-0,058
-61,578	800,000	0,034	-0,070
-60,563	576,828	0,051	0,088
-59,549	-200,000	-0,043	0,173
-58,534	37,006	-2,026	-1,263
-57,519	610,969	-1,109	-1,966
-56,505	-200,000	-0,533	-4,476
-55,490	294,894	1,028	1,330
-54,476	800,000	5,369	11,750
-53,461	-200,000	21,576	344,189
-52,446	800,000	762,804	2351,341
-51,432	550,616	1664,200	2829,409
-50,417	72,117	1661,369	1219,570
-49,403	17,498	1534,762	858,552
-48,388	11,559	1458,434	787,114
-47,373	19,441	1450,013	820,385
-46,359	15,043	1438,949	793,169
-45,344	9,850	1434,745	766,078
-44,330	9,711	1433,050	764,483
-43,315	9,712	1431,362	763,557
-42,300	9,727	1429,458	762,580
-41,286	9,783	1428,017	762,047
-40,271	9,747	1426,788	761,191
-39,257	9,736	1425,931	760,652
-38,242	9,756	1424,448	759,926
-37,227	9,756	1423,715	759,506
-36,213	9,723	1422,257	758,538
-35,198	9,786	1420,933	758,102
-34,184	9,806	1419,979	757,657
-33,169	9,762	1418,620	756,692
-32,154	9,761	1417,749	756,195
-31,140	9,788	1416,451	755,600
-30,125	9,818	1415,375	755,136
-29,111	9,774	1414,194	754,269
-28,096	9,758	1412,935	753,492
-27,082	9,717	1411,762	752,646
-26,067	9,694	1410,734	751,959
-25,052	9,734	1409,547	751,482
-24,038	9,760	1408,703	751,125
-23,023	9,719	1407,912	750,483
-22,009	9,700	1406,746	749,742
-20,994	9,679	1405,757	749,088
-19,979	9,690	1404,929	748,666
-18,965	9,663	1403,961	747,997
-17,950	9,664	1403,149	747,541
-16,936	9,654	1402,321	747,021
-15,921	9,614	1401,101	746,156
-14,906	9,609	1400,368	745,711
-13,892	9,666	1399,052	745,247
-12,877	9,667	1398,455	744,903
-11,863	9,598	1397,754	744,179
-10,848	9,566	1396,967	743,585
-9,833	9,584	1395,778	743,005
-8,819	9,574	1394,972	742,499
-7,804	9,539	1394,137	741,863
-6,790	9,552	1392,904	741,237
-5,775	9,537	1391,933	740,623
-4,760	9,509	1391,095	740,019
-3,746	9,557	1390,128	739,696
-2,731	9,571	1389,207	739,239
-1,717	9,492	1388,643	738,548
-0,702	9,525	1386,600	737,582
0,313	13,485	1298,897	709,064
1,327	29,290	689,087	411,977
2,342	45,532	119,281	77,565
3,356	1,179	16,578	8,368
4,371	6,875	3,590	1,880
5,386	-18,782	1,112	0,487
6,400	800,000	0,162	0,482
7,415	-82,668	-0,198	-0,045
8,429	33,784	-0,349	-0,213
9,444	37,987	-0,259	-0,162
10,459	13,146	-0,281	-0,153
11,473	-18,392	-0,197	-0,086
12,488	12,315	-0,298	-0,161
13,502	-36,897	-0,382	-0,144
14,517	477,786	-0,253	-0,405
15,531	83,553	-0,389	-0,298
16,546	248,749	-0,284	-0,339
17,561	-52,222	-0,334	-0,109
18,575	-128,611	-0,247	0,024
19,590	21,498	-0,120	-0,069
20,604	-56,258	-0,265	-0,082
21,619	166,771	-0,431	-0,431
22,634	210,628	-0,490	-0,543
23,648	60,990	-0,466	-0,325
24,663	32,986	-0,384	-0,234
25,677	-106,485	-0,412	-0,064
26,692	349,292	-0,262	-0,365
27,707	59,724	-0,396	-0,274
28,721	162,895	-0,284	-0,280
29,736	-8,813	-0,414	-0,195
30,750	291,321	-0,295	-0,378
31,765	85,967	-0,396	-0,306
32,780	43,341	-0,386	-0,248
33,794	81,584	-0,344	-0,262
34,809	288,306	-0,238	-0,304
35,823	25,073	-0,344	-0,200
36,838	278,725	-0,302	-0,379
37,853	47,378	-0,371	-0,242
38,867	363,763	-0,234	-0,332
39,882	95,644	-0,348	-0,279
40,896	0,527	-0,256	-0,128
41,911	-22,334	-0,325	-0,138
42,926	-25,983	-0,315	-0,130
43,940	38,153	-0,368	-0,230
44,955	157,302	-0,259	-0,252
45,969	4,163	-0,320	-0,164
46,984	145,425	-0,346	-0,326
47,999	195,364	-0,263	-0,281
49,013	82,351	-0,189	-0,144
50,028	103,396	-0,349	-0,288
51,042	48,195	-0,371	-0,244
52,057	96,123	-0,308	-0,247
53,071	187,264	-0,268	-0,281
54,086	-27,848	-0,379	-0,154
55,101	3,621	-0,308	-0,157
56,115	79,444	-0,302	-0,227
57,130	-43,536	-0,351	-0,124
58,144	-27,166	-0,430	-0,175
59,159	233,965	-0,300	-0,348
60,174	-48,048	-0,309	-0,104
61,188	49,297	-0,441	-0,291
62,203	137,362	-0,215	-0,197
63,217	46,937	-0,354	-0,230
64,232	-29,176	-0,286	-0,114
65,247	57,424	-0,236	-0,162
66,261	70,282	-0,315	-0,228
67,276	46,906	-0,461	-0,300
68,290	52,772	-0,306	-0,205
69,305	130,422	-0,367	-0,330
70,320	256,968	-0,210	-0,254
71,334	41,447	-0,382	-0,242
72,349	71,537	-0,219	-0,159
73,363	-52,968	-0,362	-0,116
74,378	35,828	-0,396	-0,243
75,393	145,298	-0,327	-0,307
76,407	25,259	-0,307	-0,178
77,422	141,478	-0,147	-0,136
78,436	-37,586	-0,358	-0,133
79,451	-124,200	-0,297	-0,032
80,466	102,605	-0,245	-0,201
81,480	1,721	-0,363	-0,183
82,495	800,000	-0,141	-0,297
83,509	33,441	-0,317	-0,192
84,524	-78,255	-0,288	-0,069
85,539	-164,787	-0,339	0,010
86,553	48,862	-0,334	-0,219
87,568	48,655	-0,305	-0,200
88,582	-45,491	-0,275	-0,095
89,597	21,767	-0,189	-0,107
90,611	-147,326	-0,338	-0,020
91,626	800,000	-0,094	-0,194
92,641	207,039	-0,117	-0,128
93,655	-4,277	-0,314	-0,151
94,670	-104,508	-0,330	-0,053
95,684	186,904	-0,248	-0,258
96,699	307,964	-0,248	-0,325
97,714	140,133	-0,313	-0,289
98,728	63,056	-0,190	-0,133
99,743	-7,994	-0,125	-0,059
100,757	19,381	-0,321	-0,180
101,772	19,990	-0,236	-0,133
102,787	759,291	-0,203	-0,387
103,801	-54,528	-0,364	-0,115
104,816	-37,369	-0,294	-0,109
105,830	59,547	-0,258	-0,177
106,845	-27,821	-0,257	-0,104
107,860	467,479	-0,133	-0,209
108,874	207,311	-0,152	-0,166
109,889	37,992	-0,339	-0,210
110,903	800,000	-0,109	-0,249
111,918	214,500	-0,199	-0,220
112,933	143,618	-0,249	-0,232
113,947	27,165	-0,300	-0,175
114,962	-79,892	-0,315	-0,073
115,976	-50,877	-0,233	-0,076
116,991	537,441	-0,088	-0,147
118,006	117,743	-0,297	-0,255
119,020	326,137	-0,183	-0,245
120,035	-1,857	-0,311	-0,152
121,049	17,965	-0,204	-0,113
122,064	13,640	-0,227	-0,123
123,079	23,546	-0,289	-0,166
124,093	89,619	-0,233	-0,181
125,108	-4,922	-0,221	-0,106
126,122	-68,231	-0,159	-0,043
127,137	312,169	-0,118	-0,155
128,151	110,549	-0,342	-0,286
129,166	77,271	-0,251	-0,186
130,181	83,091	-0,268	-0,203
131,195	98,518	-0,250	-0,201
132,210	347,801	-0,242	-0,333
133,224	206,665	-0,295	-0,321
134,239	359,794	-0,234	-0,327
135,254	56,626	-0,219	-0,148
136,268	167,031	-0,161	-0,160
137,283	247,334	-0,220	-0,259
138,297	99,747	-0,260	-0,210
139,312	256,622	-0,152	-0,183
140,327	306,717	-0,108	-0,141
141,341	202,369	-0,123	-0,133
142,356	-52,541	-0,259	-0,083
143,370	-114,682	-0,185	-0,024
144,385	103,531	-0,171	-0,139
145,400	334,783	-0,160	-0,216
146,414	227,691	-0,254	-0,288
147,429	104,010	-0,217	-0,177
148,443	85,554	-0,338	-0,258
149,458	9,199	-0,115	-0,061
150,473	64,123	-0,291	-0,204
151,487	-193,787	-0,148	-0,001
152,502	45,801	-0,296	-0,190
153,516	73,371	-0,310	-0,225
154,531	118,007	-0,203	-0,174
155,546	159,841	-0,274	-0,266
156,560	-79,666	-0,217	-0,051
157,575	-88,696	-0,323	-0,066
158,589	129,797	-0,182	-0,162
159,604	214,883	-0,262	-0,289
160,619	-24,788	-0,390	-0,160
161,633	-43,549	-0,293	-0,102
162,648	193,040	-0,194	-0,204
163,662	-29,607	-0,313	-0,124
164,677	-77,478	-0,315	-0,075
165,692	-27,510	-0,216	-0,087
166,706	407,813	-0,213	-0,315
167,721	5,194	-0,350	-0,179
168,735	332,269	-0,147	-0,198
169,750	-44,915	-0,264	-0,091
170,764	197,912	-0,208	-0,221
171,779	463,614	-0,141	-0,219
172,794	-23,718	-0,292	-0,121
173,808	22,269	-0,266	-0,151
174,823	368,091	-0,244	-0,343
175,837	318,387	-0,161	-0,213
176,852	720,346	-0,149	-0,276
177,867	-84,010	-0,139	-0,031
178,881	112,695	-0,123	-0,104
179,896	28,487	-0,299	-0,175
180,910	49,387	-0,206	-0,134
181,925	157,285	-0,203	-0,195
182,940	13,323	-0,200	-0,108
183,954	145,699	-0,241	-0,224
184,969	225,781	-0,153	-0,172
185,983	75,511	-0,156	-0,114
186,998	129,283	-0,126	-0,112
188,013	193,235	-0,166	-0,175
189,027	800,000	-0,102	-0,205
190,042	182,852	-0,204	-0,209
191,056	-18,644	-0,297	-0,128
192,071	-73,154	-0,281	-0,071
193,086	29,350	-0,228	-0,134
194,100	42,181	-0,166	-0,105
195,115	800,000	-0,125	-0,248
196,129	-69,545	-0,264	-0,070
197,144	254,339	-0,156	-0,185
198,159	44,273	-0,102	-0,065
199,173	65,298	-0,215	-0,151
200,188	23,277	-0,196	-0,111
201,202	275,801	-0,090	-0,111
202,217	-105,210	-0,176	0,028
203,232	529,091	-0,149	-0,245
204,246	800,000	-0,126	-0,347
205,261	225,107	-0,147	-0,166
206,275	800,000	-0,037	-0,076
207,290	704,042	-0,090	-0,165
208,304	345,943	-0,114	-0,155
209,319	209,836	-0,081	-0,088
210,334	114,782	-0,244	-0,206
211,348	130,673	-0,170	-0,151
212,363	163,923	-0,174	-0,169
213,377	-26,298	-0,190	-0,077
214,392	-77,312	-0,169	0,040
215,407	244,291	-0,156	-0,181
216,421	75,085	-0,288	-0,210
217,436	-40,278	-0,166	-0,060
218,450	167,593	-0,197	-0,194
219,465	128,104	-0,222	-0,195
220,480	453,494	-0,187	-0,287
221,494	275,650	-0,180	-0,222
222,509	-25,610	-0,229	-0,093
223,523	-76,105	-0,128	-0,031
224,538	647,975	-0,129	-0,229
225,553	0,072	-0,208	-0,102
226,567	244,943	-0,197	-0,230
227,582	-45,556	-0,256	-0,087
228,596	50,250	-0,214	-0,140
229,611	510,012	-0,115	-0,186
230,626	160,346	-0,164	-0,158
231,640	292,180	-0,089	-0,112
232,655	-71,708	-0,252	-0,065
233,669	-163,603	-0,179	-0,006
234,684	224,933	-0,196	-0,219
235,699	27,322	-0,216	-0,125
236,713	-76,177	-0,153	-0,037
237,728	169,779	-0,182	-0,180
238,742	604,470	-0,203	-0,350
239,757	-200,000	-0,075	-0,244
240,772	800,000	-0,096	-0,273
241,786	205,429	-0,184	-0,198
242,801	-90,979	-0,194	-0,038
243,815	294,628	-0,134	-0,169
244,830	334,283	-0,024	-0,032
245,844	131,153	-0,206	-0,183
246,859	251,444	-0,124	-0,146
247,874	86,814	-0,085	-0,065
248,888	96,004	-0,070	-0,055
249,903	116,768	-0,106	-0,090
250,917	51,245	-0,055	-0,036
251,932	-51,092	-0,122	-0,039
252,947	246,672	-0,055	-0,064
253,961	85,706	-0,260	-0,197
254,976	89,649	-0,237	-0,183
255,990	800,000	-0,091	-0,260
257,005	288,600	-0,165	-0,207
258,020	800,000	-0,067	-0,185
259,034	10,643	-0,097	0,051
260,049	800,000	-0,057	-0,113
261,063	176,400	-0,184	-0,184
262,078	491,818	-0,136	-0,216
263,093	116,390	-0,101	-0,086
264,107	138,852	-0,208	-0,188
265,122	-52,524	-0,172	-0,055
266,136	-200,000	-0,059	-0,228
267,151	25,117	-0,230	-0,132
268,166	-0,558	-0,318	-0,155
269,180	-114,514	-0,147	-0,019
270,195	117,716	-0,151	-0,128
271,209	800,000	-0,068	-0,139
272,224	-76,440	-0,291	-0,070
273,239	-14,635	-0,124	-0,055
274,253	146,986	-0,225	-0,209
275,268	-200,000	-0,070	-0,000
276,282	800,000	-0,163	-0,326
277,297	695,313	-0,142	-0,259
278,312	560,389	-0,117	-0,196
279,326	-26,978	-0,205	-0,082
280,341	462,934	-0,132	-0,204
281,355	667,009	-0,037	0,067
282,370	9,477	-0,147	0,077
283,384	159,217	-0,160	-0,153
284,399	18,955	-0,286	-0,157
285,414	51,116	-0,112	-0,073
286,428	73,165	-0,161	-0,116
287,443	-200,000	-0,021	-0,147
288,457	557,708	0,023	0,039
289,472	161,749	-0,283	-0,273
290,487	-100,321	-0,260	-0,044
291,501	46,543	-0,181	-0,115
292,516	179,959	-0,141	-0,142
293,530	330,357	-0,111	-0,147
294,545	434,387	-0,130	-0,195
295,560	-11,768	-0,104	0,047
296,574	379,792	-0,116	-0,164
297,589	72,488	-0,265	-0,190
298,603	800,000	-0,099	-0,189
299,618	800,000	-0,025	-0,072
300,633	233,323	-0,239	-0,271
301,647	-93,029	-0,136	-0,026
302,662	-200,000	0,004	-0,162
303,676	274,145	-0,112	-0,137
304,691	181,853	-0,168	-0,170
305,706	-167,535	-0,242	0,007
306,720	23,337	-0,139	-0,078
307,735	800,000	-0,074	-0,154
308,749	-26,484	-0,116	-0,046
309,764	41,419	-0,039	-0,024
310,779	566,274	-0,091	-0,152
311,793	257,371	-0,126	-0,150
312,808	302,945	-0,143	-0,182
313,822	-40,199	-0,218	-0,077
314,837	117,740	-0,212	-0,179
315,852	608,035	-0,081	-0,139
316,866	-100,634	-0,138	-0,023
317,881	-78,944	-0,045	-0,010
318,895	104,782	-0,134	-0,108
319,910	121,356	-0,177	-0,151
320,925	-9,638	-0,162	-0,074
321,939	129,089	-0,194	-0,170
322,954	800,000	0,047	-0,115
323,968	800,000	-0,030	-0,058
324,983	232,276	-0,121	-0,137
325,997	60,942	-0,100	-0,068
327,012	228,018	-0,159	-0,178
328,027	-97,630	-0,119	-0,021
329,041	-41,002	-0,162	-0,057
330,056	-94,390	-0,143	-0,027
331,070	-200,000	0,045	-0,221
332,085	-90,105	-0,033	-0,007
333,100	56,059	-0,133	0,088
334,114	182,459	-0,127	-0,128
335,129	22,949	-0,187	-0,105
336,143	104,982	-0,093	-0,075
337,158	279,538	-0,093	-0,115
338,173	344,647	-0,074	-0,100
339,187	212,942	-0,082	-0,089
340,202	-200,000	0,033	-0,224
341,216	38,589	-0,105	-0,064
342,231	196,199	-0,186	-0,194
343,246	524,421	-0,054	-0,087
344,260	-200,000	-0,037	-0,124
345,275	-94,076	-0,294	0,055
346,289	-200,000	-0,027	-0,135
347,304	160,815	-0,165	-0,157
348,319	155,076	-0,160	-0,150
349,333	-200,000	-0,055	-0,224
350,348	61,900	-0,154	-0,105
351,362	266,640	-0,115	-0,138
352,377	800,000	-0,037	-0,088
353,392	796,450	-0,061	0,116
354,406	-48,794	-0,081	-0,026
355,421	208,345	1311,174	1403,783
356,435	160,314	1471,431	1404,265
