DTS Sentinel unit serial number:	SN410029Multiplexer serial number:	ORYXHardware model number:	OX2-SRSoftware version number:	ORYX F/W v4,00 Oryx Data Collector v3.7.2.0data status	okinstallation	B3 Nyhavnadifferential loss correction	single-endedforward channel	channel 1reverse channel	N/Adate	2023/12/02time	20:47:30forward acquisition time	300,00reverse acquisition time	0,00gamma	499,1914k internal	0,3201k external	0,3201temperature offset calibration	1,0000default loss term (dB/km)	0,3820temperature slope calibration	1,0000multiplexer offset coefficient	1,0000multiplexer slope coefficient	1,0000fibre end	0,00T internal ref (°C)	13,27T ext. ref 1 (°C)	-1,75T ext. ref 2 (°C)	-1,76length (m)	temperature (°C)	Stokes	anti-Stokes-744,400	412,577	-0,188	-0,292
-743,385	-200,000	0,006	0,306
-742,371	-200,000	-0,048	-0,367
-741,356	-200,000	-0,061	0,361
-740,342	1,242	-0,252	-0,131
-739,327	-200,000	-0,114	0,368
-738,312	203,564	-0,189	-0,213
-737,298	-200,000	0,051	0,247
-736,283	55,114	-0,195	-0,137
-735,269	-200,000	0,070	0,421
-734,254	107,870	-0,155	-0,134
-733,239	39,352	-0,205	0,133
-732,225	5,475	-0,196	-0,105
-731,210	-200,000	-0,002	0,017
-730,196	-89,919	-0,068	-0,014
-729,181	-200,000	0,002	-0,049
-728,167	800,000	0,053	-0,146
-727,152	-100,058	-0,010	0,002
-726,137	800,000	-0,047	0,135
-725,123	-200,000	0,010	-0,127
-724,108	66,547	-0,106	-0,078
-723,094	-5,444	-0,186	-0,092
-722,079	-40,104	-0,131	-0,049
-721,064	-200,000	-0,031	0,129
-720,050	-200,000	0,027	0,099
-719,035	55,856	-0,111	-0,078
-718,021	-90,861	-0,064	-0,013
-717,006	-200,000	-0,031	-0,136
-715,991	-11,487	-0,048	-0,023
-714,977	-200,000	0,008	-0,066
-713,962	-38,678	-0,045	-0,017
-712,948	-200,000	0,003	0,058
-711,933	55,999	0,037	0,026
-710,918	172,742	0,074	-0,078
-709,904	-96,581	-0,149	0,028
-708,889	66,718	0,059	-0,044
-707,875	736,291	-0,079	-0,154
-706,860	-200,000	0,014	0,057
-705,845	-33,145	0,120	0,048
-704,831	-200,000	-0,027	-0,090
-703,816	211,884	0,034	-0,039
-702,802	510,488	0,009	-0,015
-701,787	223,122	-0,134	-0,157
-700,772	21,471	0,067	-0,040
-699,758	418,411	0,070	-0,110
-698,743	-98,678	-0,092	0,017
-697,729	28,314	-0,091	-0,056
-696,714	359,983	0,086	0,125
-695,699	-36,076	-0,033	-0,013
-694,685	98,367	-0,125	0,104
-693,670	23,604	0,070	0,042
-692,656	103,718	0,043	0,037
-691,641	81,396	0,022	0,017
-690,627	39,575	0,067	0,044
-689,612	-200,000	-0,014	-0,168
-688,597	-105,910	-0,098	-0,016
-687,583	471,308	0,044	-0,073
-686,568	-79,688	-0,087	-0,021
-685,554	-28,566	0,069	0,029
-684,539	-200,000	0,027	0,092
-683,524	184,334	-0,056	-0,060
-682,510	40,885	-0,085	-0,055
-681,495	-23,897	0,093	-0,040
-680,481	202,388	-0,069	0,078
-679,466	-56,803	-0,127	0,040
-678,451	-200,000	0,007	-0,090
-677,437	422,426	-0,038	-0,060
-676,422	-200,000	-0,003	-0,094
-675,408	-115,726	-0,180	0,024
-674,393	248,040	-0,016	-0,020
-673,378	-147,008	-0,125	0,008
-672,364	-200,000	-0,029	-0,126
-671,349	-200,000	-0,031	-0,121
-670,335	69,532	-0,014	-0,010
-669,320	18,894	0,134	0,078
-668,305	107,479	-0,075	0,065
-667,291	661,869	0,084	0,158
-666,276	343,762	-0,012	-0,017
-665,262	-35,965	-0,030	-0,012
-664,247	-77,076	-0,039	-0,010
-663,232	148,267	0,131	-0,129
-662,218	65,752	-0,097	-0,071
-661,203	-120,937	-0,065	0,008
-660,189	-199,032	-0,098	0,000
-659,174	-200,000	0,057	-0,201
-658,159	-200,000	0,006	-0,102
-657,145	410,481	0,057	-0,087
-656,130	31,261	-0,102	0,064
-655,116	-102,334	-0,090	0,015
-654,101	800,000	-0,015	0,033
-653,086	793,216	0,069	-0,137
-652,072	-103,451	-0,142	-0,024
-651,057	444,278	0,002	0,003
-650,043	-106,289	-0,079	-0,013
-649,028	-200,000	0,011	0,087
-648,014	547,152	0,060	0,105
-646,999	-200,000	0,001	-0,048
-645,984	154,401	-0,144	-0,143
-644,970	-200,000	-0,014	-0,101
-643,955	419,068	-0,112	-0,174
-642,941	354,821	-0,038	-0,055
-641,926	-34,761	0,032	-0,013
-640,911	-70,779	-0,080	-0,022
-639,897	800,000	0,028	-0,090
-638,882	-145,146	-0,066	0,004
-637,868	345,004	-0,029	-0,041
-636,853	-13,501	-0,061	-0,028
-635,838	-151,809	0,071	0,004
-634,824	96,474	0,151	-0,125
-633,809	223,014	0,082	0,096
-632,795	800,000	-0,027	0,085
-631,780	26,744	-0,123	-0,074
-630,765	196,457	-0,049	-0,054
-629,751	-90,771	-0,051	0,011
-628,736	22,763	-0,069	-0,041
-627,722	-200,000	-0,012	0,091
-626,707	120,631	-0,042	-0,037
-625,692	-200,000	0,019	-0,070
-624,678	-170,483	-0,167	-0,004
-623,663	-82,297	0,120	0,028
-622,649	-200,000	0,016	0,101
-621,634	-200,000	-0,036	-0,120
-620,619	-110,479	0,059	0,009
-619,605	484,102	-0,096	-0,158
-618,590	264,491	-0,022	-0,027
-617,576	800,000	0,036	-0,092
-616,561	-124,953	0,075	0,008
-615,546	-43,491	-0,170	-0,062
-614,532	-75,978	-0,111	-0,028
-613,517	-200,000	0,003	-0,130
-612,503	-28,507	-0,113	0,047
-611,488	134,218	0,024	-0,023
-610,474	-168,524	0,143	0,004
-609,459	734,888	0,020	-0,040
-608,444	-82,172	-0,110	-0,026
-607,430	-200,000	-0,004	0,038
-606,415	800,000	-0,027	-0,083
-605,401	-162,499	-0,137	-0,005
-604,386	312,835	0,122	-0,166
-603,371	170,202	-0,092	0,096
-602,357	-54,394	0,063	0,021
-601,342	-32,400	0,056	-0,023
-600,328	-45,675	-0,043	-0,015
-599,313	-85,515	-0,062	-0,014
-598,298	238,247	0,009	0,011
-597,284	-3,684	0,053	-0,026
-596,269	-200,000	0,009	-0,044
-595,255	800,000	-0,096	-0,196
-594,240	533,539	-0,047	0,081
-593,225	41,505	-0,070	0,046
-592,211	-200,000	-0,008	0,062
-591,196	-200,000	0,019	-0,096
-590,182	791,847	-0,069	0,137
-589,167	343,605	0,069	-0,098
-588,152	44,045	-0,120	-0,079
-587,138	800,000	0,042	0,096
-586,123	800,000	0,042	-0,089
-585,109	-200,000	0,023	-0,105
-584,094	594,130	0,056	-0,101
-583,079	-84,564	0,032	0,007
-582,065	-108,500	0,009	-0,001
-581,050	-47,975	0,081	-0,028
-580,036	-200,000	-0,027	-0,099
-579,021	800,000	0,021	-0,064
-578,006	555,878	0,030	0,053
-576,992	-200,000	-0,017	-0,062
-575,977	-57,708	0,101	-0,032
-574,963	343,674	0,131	0,187
-573,948	-200,000	0,033	0,111
-572,934	-200,000	0,015	-0,118
-571,919	37,641	0,072	0,046
-570,904	9,730	-0,010	0,005
-569,890	48,713	-0,086	-0,058
-568,875	60,849	-0,068	0,049
-567,861	-200,000	0,060	0,190
-566,846	-200,000	0,007	0,092
-565,831	800,000	0,029	-0,064
-564,817	-37,537	-0,129	-0,049
-563,802	16,485	-0,140	-0,079
-562,788	334,030	-0,026	-0,036
-561,773	182,541	0,027	0,029
-560,758	299,432	0,076	0,102
-559,744	-120,122	0,092	0,011
-558,729	-33,505	-0,061	0,024
-557,715	800,000	-0,021	-0,046
-556,700	16,238	-0,032	-0,018
-555,685	-200,000	0,023	-0,124
-554,671	-200,000	-0,009	0,090
-553,656	-200,000	0,001	0,050
-552,642	-98,119	-0,105	-0,019
-551,627	-133,494	-0,070	-0,006
-550,612	428,528	-0,035	-0,055
-549,598	454,297	0,014	-0,022
-548,583	800,000	-0,032	-0,101
-547,569	800,000	0,013	-0,028
-546,554	80,616	-0,065	-0,050
-545,539	5,476	0,086	-0,046
-544,525	24,005	0,097	-0,058
-543,510	-200,000	0,008	0,036
-542,496	705,343	-0,077	0,147
-541,481	213,827	0,075	-0,086
-540,466	50,116	0,152	-0,103
-539,452	604,971	-0,041	0,073
-538,437	34,960	0,106	0,067
-537,423	68,783	0,031	0,023
-536,408	-89,615	-0,066	-0,014
-535,393	-106,202	-0,101	0,016
-534,379	-200,000	0,017	-0,078
-533,364	151,604	-0,088	-0,087
-532,350	-73,211	0,045	0,012
-531,335	800,000	-0,017	0,053
-530,321	-154,956	0,020	0,001
-529,306	-200,000	-0,008	0,077
-528,291	265,454	0,058	0,073
-527,277	77,260	0,029	-0,022
-526,262	-51,784	-0,116	-0,039
-525,248	383,067	-0,083	0,123
-524,233	800,000	-0,031	-0,076
-523,218	545,808	0,084	0,146
-522,204	800,000	-0,005	0,012
-521,189	800,000	-0,039	-0,092
-520,175	800,000	-0,024	-0,071
-519,160	-4,419	-0,090	-0,045
-518,145	-85,819	0,111	-0,025
-517,131	-200,000	-0,018	0,115
-516,116	-200,000	0,002	-0,117
-515,102	-14,773	-0,107	-0,049
-514,087	-200,000	0,008	-0,053
-513,072	-71,949	0,125	-0,033
-512,058	-126,178	-0,068	-0,007
-511,043	800,000	-0,013	-0,042
-510,029	-200,000	0,002	0,119
-509,014	-131,623	0,091	0,009
-507,999	-200,000	-0,003	-0,101
-506,985	401,100	0,079	0,120
-505,970	194,426	-0,085	0,093
-504,956	-200,000	0,014	-0,082
-503,941	109,248	-0,049	-0,042
-502,926	-73,625	-0,061	-0,016
-501,912	561,681	0,045	-0,079
-500,897	-200,000	-0,036	0,116
-499,883	23,462	-0,048	0,028
-498,868	-163,047	0,038	0,001
-497,853	-200,000	0,009	-0,086
-496,839	-169,544	-0,092	0,002
-495,824	-29,172	0,228	0,094
-494,810	-200,000	-0,028	0,166
-493,795	-62,040	-0,193	-0,058
-492,781	-200,000	-0,004	-0,051
-491,766	292,602	0,020	0,027
-490,751	193,842	0,086	-0,093
-489,737	521,079	0,055	0,093
-488,722	62,589	0,112	0,081
-487,708	-30,368	0,126	0,051
-486,693	800,000	0,029	0,073
-485,678	568,766	-0,018	0,032
-484,664	240,845	-0,031	0,038
-483,649	800,000	-0,035	0,077
-482,635	81,236	-0,036	0,028
-481,620	51,437	0,045	-0,030
-480,605	323,819	-0,108	0,149
-479,591	-11,208	0,030	-0,014
-478,576	-44,878	0,124	-0,044
-477,562	139,359	-0,105	-0,100
-476,547	175,015	0,046	0,048
-475,532	-114,364	0,016	0,002
-474,518	230,568	0,062	0,073
-473,503	32,945	0,101	0,063
-472,489	6,700	0,088	0,047
-471,474	-21,776	0,119	0,052
-470,459	692,293	0,030	0,056
-469,445	-0,848	-0,149	0,076
-468,430	-98,084	-0,048	0,009
-467,416	-200,000	0,024	-0,081
-466,401	-142,783	0,084	0,006
-465,386	-99,482	-0,100	-0,018
-464,372	779,267	0,046	0,090
-463,357	-200,000	-0,028	0,116
-462,343	-96,000	0,063	0,012
-461,328	-200,000	0,011	-0,118
-460,313	461,267	-0,044	-0,071
-459,299	-200,000	0,021	0,110
-458,284	94,768	0,141	0,116
-457,270	7,754	-0,049	-0,026
-456,255	-73,292	-0,035	0,009
-455,241	-51,699	-0,075	-0,025
-454,226	167,574	-0,073	-0,074
-453,211	-200,000	-0,007	0,076
-452,197	800,000	0,042	0,103
-451,182	-76,857	0,177	0,044
-450,168	-200,000	-0,001	0,057
-449,153	-86,107	-0,104	0,023
-448,138	800,000	0,039	-0,102
-447,124	55,927	-0,038	-0,026
-446,109	683,292	-0,050	0,095
-445,095	212,759	0,121	0,138
-444,080	800,000	-0,044	-0,103
-443,065	-200,000	-0,011	0,099
-442,051	201,928	-0,035	0,038
-441,036	-81,626	-0,145	-0,034
-440,022	-85,686	-0,125	-0,028
-439,007	800,000	-0,030	0,089
-437,992	-58,784	-0,043	0,013
-436,978	-132,172	0,043	-0,004
-435,963	68,488	0,030	-0,022
-434,949	-85,062	-0,042	0,009
-433,934	-72,953	-0,049	-0,013
-432,919	153,497	0,041	0,040
-431,905	90,132	-0,035	0,028
-430,890	-200,000	-0,012	0,104
-429,876	-200,000	0,027	0,091
-428,861	20,542	0,082	0,048
-427,846	-136,026	0,068	-0,006
-426,832	387,131	-0,051	-0,076
-425,817	45,761	0,052	-0,034
-424,803	-17,961	-0,066	-0,029
-423,788	-127,695	-0,084	-0,009
-422,773	-136,757	0,166	-0,014
-421,759	800,000	-0,028	-0,068
-420,744	124,142	-0,097	-0,087
-419,730	-129,325	0,051	0,005
-418,715	-27,087	-0,081	0,034
-417,701	772,454	0,022	0,044
-416,686	647,218	0,043	-0,080
-415,671	-42,636	-0,055	0,020
-414,657	-200,000	0,013	0,087
-413,642	-200,000	-0,011	-0,108
-412,628	-54,499	-0,115	-0,037
-411,613	289,981	0,020	-0,026
-410,598	270,417	-0,100	-0,126
-409,584	800,000	0,043	0,086
-408,569	-200,000	-0,039	0,154
-407,555	353,553	-0,068	-0,098
-406,540	-34,544	-0,035	0,014
-405,525	-200,000	0,011	0,067
-404,511	409,356	-0,028	0,042
-403,496	372,785	0,011	-0,017
-402,482	-200,000	0,003	-0,044
-401,467	-107,144	-0,084	-0,013
-400,452	-200,000	-0,023	0,122
-399,438	191,183	0,050	0,054
-398,423	-74,063	0,032	0,008
-397,409	-200,000	-0,029	-0,150
-396,394	800,000	-0,062	-0,163
-395,379	-200,000	-0,005	0,079
-394,365	505,532	-0,034	0,056
-393,350	-200,000	-0,004	-0,073
-392,336	-200,000	0,016	0,075
-391,321	52,045	-0,026	0,018
-390,306	800,000	-0,035	-0,096
-389,292	800,000	-0,020	0,051
-388,277	2,505	0,150	0,078
-387,263	-26,306	0,100	0,042
-386,248	-3,262	-0,081	0,040
-385,233	125,446	-0,045	-0,041
-384,219	-27,351	-0,158	-0,065
-383,204	-200,000	-0,008	-0,073
-382,190	-100,775	-0,086	-0,015
-381,175	486,813	0,017	0,029
-380,160	-13,335	0,058	0,027
-379,146	-127,399	0,163	-0,017
-378,131	-200,000	-0,010	0,066
-377,117	-44,070	-0,042	-0,015
-376,102	537,043	-0,056	0,096
-375,088	-200,000	-0,049	-0,194
-374,073	117,664	-0,033	-0,029
-373,058	590,504	-0,010	0,018
-372,044	125,008	0,097	-0,088
-371,029	21,883	-0,092	-0,054
-370,015	-200,000	-0,025	-0,106
-369,000	231,735	0,083	0,098
-367,985	-200,000	0,022	0,079
-366,971	147,889	-0,039	0,037
-365,956	800,000	-0,073	-0,156
-364,942	29,711	0,085	0,051
-363,927	600,575	-0,082	0,146
-362,912	-200,000	-0,012	0,064
-361,898	-118,806	-0,073	0,009
-360,883	112,529	-0,053	0,046
-359,869	420,637	0,039	0,059
-358,854	99,416	0,059	-0,049
-357,839	-200,000	0,001	0,049
-356,825	19,439	0,088	0,051
-355,810	5,008	-0,095	-0,050
-354,796	18,206	-0,070	-0,040
-353,781	-200,000	0,007	-0,057
-352,766	14,309	-0,032	-0,018
-351,752	46,657	0,096	0,064
-350,737	102,703	0,088	0,073
-349,723	44,493	0,059	-0,039
-348,708	-69,460	-0,093	0,025
-347,693	-73,870	-0,103	-0,027
-346,679	94,514	-0,175	0,143
-345,664	-38,430	0,079	-0,030
-344,650	614,415	-0,050	-0,089
-343,635	134,823	0,014	0,013
-342,620	-56,635	0,142	0,045
-341,606	-200,000	-0,016	0,065
-340,591	-84,526	-0,104	0,023
-339,577	532,734	0,027	0,046
-338,562	198,691	0,096	-0,106
-337,548	-8,904	0,025	-0,012
-336,533	-115,318	0,043	0,006
-335,518	-157,745	0,089	0,004
-334,504	-200,000	-0,020	0,144
-333,489	-135,264	0,177	0,015
-332,475	35,255	-0,115	-0,072
-331,460	800,000	-0,029	0,076
-330,445	800,000	-0,006	-0,013
-329,431	60,440	-0,109	0,077
-328,416	-200,000	-0,015	-0,056
-327,402	-72,419	0,088	0,023
-326,387	619,303	-0,036	-0,064
-325,372	-200,000	-0,029	-0,125
-324,358	61,028	-0,044	0,031
-323,343	2,691	0,087	0,045
-322,329	-128,661	0,037	0,004
-321,314	168,616	0,122	0,125
-320,299	593,075	-0,017	0,030
-319,285	-39,522	-0,047	0,018
-318,270	241,445	0,058	-0,069
-317,256	-200,000	0,014	0,165
-316,241	-200,000	-0,032	0,147
-315,226	97,852	0,071	-0,058
-314,212	-200,000	-0,046	-0,194
-313,197	-10,377	-0,019	-0,009
-312,183	15,419	0,051	-0,029
-311,168	-200,000	0,017	-0,090
-310,153	800,000	-0,029	0,074
-309,139	21,022	0,058	-0,033
-308,124	-200,000	0,018	0,126
-307,110	83,161	0,073	-0,057
-306,095	56,368	0,174	0,121
-305,080	-52,928	0,105	0,034
-304,066	61,404	0,141	-0,100
-303,051	-200,000	-0,011	-0,099
-302,037	-84,461	-0,057	0,013
-301,022	-137,171	0,053	-0,004
-300,008	800,000	0,026	-0,057
-298,993	255,018	0,039	0,047
-297,978	9,972	-0,106	0,057
-296,964	189,314	0,060	0,064
-295,949	-41,831	0,078	0,029
-294,935	-200,000	0,003	0,038
-293,920	-17,342	0,068	-0,030
-292,905	82,331	0,096	0,074
-291,891	-49,955	0,117	-0,039
-290,876	16,576	0,035	-0,020
-289,862	-29,982	-0,069	0,028
-288,847	233,421	-0,153	-0,180
-287,832	178,652	-0,022	0,023
-286,818	607,060	-0,058	0,103
-285,803	-26,504	-0,077	-0,032
-284,789	119,141	0,069	-0,061
-283,774	309,691	0,090	0,120
-282,759	-200,000	0,016	0,146
-281,745	268,704	0,040	-0,050
-280,730	74,949	0,021	-0,016
-279,716	-122,179	-0,107	-0,012
-278,701	-200,000	0,029	0,203
-277,686	205,173	0,014	0,016
-276,672	-200,000	-0,013	0,075
-275,657	121,098	0,032	0,028
-274,643	-200,000	-0,042	-0,157
-273,628	-68,147	-0,101	-0,028
-272,613	-45,643	0,106	0,037
-271,599	439,265	0,042	0,065
-270,584	-96,362	0,102	-0,019
-269,570	47,099	-0,029	0,019
-268,555	527,328	0,039	0,066
-267,540	140,256	-0,098	-0,093
-266,526	71,923	-0,103	-0,076
-265,511	41,751	-0,070	0,045
-264,497	-200,000	-0,014	0,191
-263,482	-200,000	-0,002	0,135
-262,467	-105,278	0,120	-0,019
-261,453	97,104	-0,065	0,053
-260,438	150,083	0,013	-0,013
-259,424	-200,000	0,028	-0,121
-258,409	735,067	-0,049	-0,094
-257,395	361,888	-0,018	-0,026
-256,380	22,545	0,056	-0,032
-255,365	2,128	0,118	0,061
-254,351	-158,865	-0,093	0,004
-253,336	-47,493	-0,168	-0,058
-252,322	-67,876	-0,040	0,011
-251,307	43,025	-0,124	-0,081
-250,292	800,000	-0,067	0,137
-249,278	48,977	0,063	-0,042
-248,263	217,695	0,015	-0,017
-247,249	120,891	-0,019	0,017
-246,234	800,000	0,030	0,088
-245,219	291,084	-0,047	-0,061
-244,205	-41,520	-0,104	0,038
-243,190	-152,982	0,039	0,002
-242,176	322,750	0,023	-0,031
-241,161	-64,024	0,060	-0,017
-240,146	70,934	-0,115	-0,085
-239,132	376,880	0,060	-0,088
-238,117	-111,076	-0,046	0,007
-237,103	-118,489	-0,049	-0,006
-236,088	-112,800	0,017	0,002
-235,073	-200,000	0,015	0,055
-234,059	800,000	-0,012	-0,029
-233,044	293,648	0,061	0,080
-232,030	127,416	0,116	-0,105
-231,015	445,763	-0,056	0,088
-230,000	-200,000	-0,014	0,069
-228,986	294,347	-0,056	-0,073
-227,971	-101,473	-0,028	0,005
-226,957	106,806	0,081	-0,069
-225,942	-136,146	-0,197	0,016
-224,927	-200,000	-0,013	-0,073
-223,913	121,995	0,040	-0,035
-222,898	-200,000	0,009	-0,203
-221,884	139,543	0,065	-0,061
-220,869	-200,000	-0,029	-0,184
-219,855	96,565	0,053	0,043
-218,840	-140,748	0,177	0,013
-217,825	411,576	-0,092	-0,140
-216,811	244,757	-0,074	-0,088
-215,796	-200,000	-0,012	0,085
-214,782	438,132	-0,019	-0,030
-213,767	92,821	-0,062	-0,050
-212,752	116,447	0,020	-0,017
-211,738	94,835	0,035	0,028
-210,723	-200,000	0,001	-0,016
-209,709	-200,000	-0,008	-0,089
-208,694	-200,000	-0,002	-0,039
-207,679	499,798	-0,032	0,053
-206,665	-200,000	0,005	0,017
-205,650	-33,173	-0,092	-0,036
-204,636	800,000	0,033	-0,075
-203,621	-200,000	-0,031	0,118
-202,606	800,000	-0,033	0,067
-201,592	800,000	0,030	0,084
-200,577	23,004	0,084	0,049
-199,563	800,000	0,037	-0,093
-198,548	171,485	0,088	-0,090
-197,533	-34,259	-0,096	0,037
-196,519	-109,635	0,112	-0,017
-195,504	800,000	0,023	0,063
-194,490	800,000	-0,031	0,081
-193,475	211,198	0,086	0,096
-192,460	319,464	-0,085	0,115
-191,446	-112,188	0,164	-0,023
-190,431	22,746	0,051	-0,030
-189,417	423,563	-0,058	-0,090
-188,402	105,985	0,071	-0,060
-187,387	-70,863	-0,045	-0,012
-186,373	-200,000	-0,003	-0,140
-185,358	-105,583	0,165	0,026
-184,344	51,042	-0,007	0,004
-183,329	-200,000	-0,002	0,020
-182,315	800,000	0,032	0,072
-181,300	800,000	0,039	0,098
-180,285	-151,396	-0,071	-0,004
-179,271	-102,105	0,155	-0,026
-178,256	-124,037	0,120	0,013
-177,242	-177,019	0,028	-0,000
-176,227	692,918	0,047	0,088
-175,212	29,599	0,147	0,089
-174,198	800,000	-0,017	-0,038
-173,183	-200,000	0,003	0,035
-172,169	131,542	-0,118	-0,108
-171,154	-71,360	0,036	0,010
-170,139	800,000	0,015	0,033
-169,125	800,000	-0,032	0,064
-168,110	118,760	0,075	0,066
-167,096	-200,000	0,021	-0,132
-166,081	389,468	-0,041	-0,061
-165,066	81,930	0,057	-0,044
-164,052	145,578	0,023	-0,022
-163,037	-196,333	-0,010	0,000
-162,023	441,851	-0,032	0,050
-161,008	69,820	0,126	-0,092
-159,993	-138,813	-0,060	-0,005
-158,979	-200,000	-0,007	0,093
-157,964	-74,828	0,100	0,025
-156,950	-200,000	-0,017	0,110
-155,935	247,647	-0,046	0,055
-154,920	-138,032	-0,109	-0,008
-153,906	800,000	0,040	0,093
-152,891	-200,000	0,019	-0,104
-151,877	19,644	-0,042	-0,024
-150,862	-34,303	-0,037	0,014
-149,847	42,357	-0,049	-0,032
-148,833	-200,000	-0,025	-0,177
-147,818	800,000	0,005	-0,011
-146,804	800,000	0,036	0,080
-145,789	148,050	-0,113	0,108
-144,775	420,045	0,047	-0,071
-143,760	800,000	-0,038	-0,107
-142,745	-200,000	0,008	-0,080
-141,731	-200,000	-0,006	0,054
-140,716	-166,958	0,199	-0,006
-139,702	-164,985	0,035	-0,001
-138,687	108,496	0,110	0,093
-137,672	-200,000	-0,002	0,048
-136,658	-168,247	-0,110	0,003
-135,643	617,275	-0,097	-0,174
-134,629	14,467	0,076	0,042
-133,614	-57,197	-0,071	-0,022
-132,599	-95,818	0,130	0,024
-131,585	800,000	-0,026	0,067
-130,570	-200,000	-0,007	-0,103
-129,556	-200,000	0,008	-0,099
-128,541	561,982	0,069	-0,118
-127,526	53,576	0,071	0,048
-126,512	-200,000	0,030	-0,141
-125,497	547,766	0,084	-0,143
-124,483	-16,902	-0,066	-0,029
-123,468	-21,043	0,052	0,022
-122,453	-135,284	0,136	0,011
-121,439	179,514	-0,036	-0,037
-120,424	657,393	-0,063	-0,116
-119,410	-70,295	-0,144	0,039
-118,395	800,000	-0,051	-0,108
-117,380	18,707	0,064	0,036
-116,366	-145,514	-0,104	0,007
-115,351	-158,774	-0,032	0,001
-114,337	-64,991	0,063	-0,018
-113,322	-200,000	0,004	-0,064
-112,307	1,333	0,083	-0,042
-111,293	134,248	-0,022	-0,021
-110,278	358,797	-0,067	0,096
-109,264	258,676	0,045	0,055
-108,249	-200,000	0,008	-0,061
-107,234	2,377	-0,053	-0,027
-106,220	71,089	-0,077	-0,057
-105,205	147,544	0,106	-0,102
-104,191	372,761	-0,012	-0,017
-103,176	129,199	0,175	0,158
-102,162	5,775	-0,139	-0,073
-101,147	653,605	-0,038	-0,070
-100,132	-200,000	-0,040	-0,188
-99,118	13,636	-0,019	-0,011
-98,103	374,905	-0,124	-0,180
-97,089	800,000	0,045	0,109
-96,074	-200,000	0,033	0,162
-95,059	200,347	0,048	0,052
-94,045	56,969	0,045	-0,031
-93,030	51,217	-0,161	0,108
-92,016	-200,000	-0,016	-0,065
-91,001	-200,000	-0,008	-0,155
-89,986	9,108	0,141	0,075
-88,972	-200,000	-0,008	0,117
-87,957	-54,014	-0,090	0,029
-86,943	-200,000	0,019	-0,072
-85,928	800,000	-0,042	-0,103
-84,913	-200,000	-0,011	0,098
-83,899	472,711	-0,017	-0,027
-82,884	60,307	0,036	0,025
-81,870	220,751	0,062	-0,070
-80,855	65,679	-0,041	-0,030
-79,840	-148,689	0,052	0,003
-78,826	194,508	0,137	0,147
-77,811	-11,421	-0,179	-0,083
-76,797	-115,935	-0,065	-0,008
-75,782	-200,000	-0,002	-0,034
-74,767	23,121	0,138	-0,080
-73,753	-200,000	-0,008	-0,033
-72,738	-143,106	0,029	-0,002
-71,724	-27,522	0,021	0,009
-70,709	86,937	0,108	-0,084
-69,694	-191,869	-0,055	0,000
-68,680	323,795	0,051	-0,069
-67,665	119,487	0,042	0,037
-66,651	255,464	-0,083	0,101
-65,636	-91,036	-0,063	-0,013
-64,622	-10,293	0,137	-0,064
-63,607	325,776	-0,059	-0,080
-62,592	-200,000	-0,004	-0,014
-61,578	280,851	0,096	-0,122
-60,563	391,223	-0,076	0,112
-59,549	800,000	-0,023	0,069
-58,534	-15,232	-1,630	-0,736
-57,519	475,031	-1,291	-2,071
-56,505	-200,000	-0,469	-4,560
-55,490	272,751	0,877	1,098
-54,476	800,000	5,042	11,390
-53,461	-200,000	19,318	321,286
-52,446	-200,000	741,595	2335,387
-51,432	572,067	1656,064	2867,619
-50,417	78,151	1671,224	1261,348
-49,403	21,243	1544,133	885,473
-48,388	15,108	1466,607	811,172
-47,373	17,998	1456,899	819,742
-46,359	16,640	1446,788	807,505
-45,344	13,370	1441,971	789,121
-44,330	13,279	1440,083	787,616
-43,315	13,296	1438,493	786,798
-42,300	13,291	1436,814	785,826
-41,286	13,371	1435,429	785,418
-40,271	13,319	1434,037	784,377
-39,257	13,330	1432,639	783,636
-38,242	13,348	1431,577	783,107
-37,227	13,348	1430,276	782,364
-36,213	13,357	1428,974	781,665
-35,198	13,312	1427,808	780,781
-34,184	13,404	1426,882	780,683
-33,169	13,345	1425,455	779,591
-32,154	13,404	1424,550	779,343
-31,140	13,372	1423,214	778,431
-30,125	13,426	1421,906	777,941
-29,111	13,414	1421,010	777,362
-28,096	13,341	1419,897	776,378
-27,082	13,255	1418,896	775,394
-26,067	13,278	1417,710	774,821
-25,052	13,301	1416,657	774,327
-24,038	13,293	1415,671	773,717
-23,023	13,260	1414,565	772,929
-22,009	13,256	1413,690	772,399
-20,994	13,257	1412,756	771,863
-19,979	13,286	1411,680	771,379
-18,965	13,260	1410,876	770,788
-17,950	13,231	1409,950	770,116
-16,936	13,259	1408,848	769,616
-15,921	13,208	1407,923	768,840
-14,906	13,192	1406,897	768,177
-13,892	13,234	1405,907	767,801
-12,877	13,221	1405,081	767,260
-11,863	13,189	1404,359	766,685
-10,848	13,190	1403,532	766,209
-9,833	13,169	1402,418	765,471
-8,819	13,145	1401,702	764,938
-7,804	13,102	1400,877	764,257
-6,790	13,153	1399,758	763,852
-5,775	13,141	1398,661	763,168
-4,760	13,113	1397,552	762,400
-3,746	13,133	1396,759	762,032
-2,731	13,084	1396,115	761,422
-1,717	13,095	1395,070	760,875
-0,702	13,078	1393,193	759,744
0,313	16,953	1309,866	732,243
1,327	33,185	703,520	430,787
2,342	50,899	123,314	82,537
3,356	0,738	16,593	8,375
4,371	18,570	3,259	1,839
5,386	-11,157	0,584	0,271
6,400	269,221	0,086	0,107
7,415	77,991	-0,284	-0,214
8,429	-25,114	-0,282	-0,118
9,444	73,270	-0,343	-0,253
10,459	-27,611	-0,271	-0,111
11,473	-39,111	-0,260	-0,096
12,488	-5,664	-0,340	-0,164
13,502	-98,722	-0,272	-0,049
14,517	16,784	-0,394	-0,220
15,531	111,367	-0,298	-0,254
16,546	122,127	-0,250	-0,221
17,561	-10,448	-0,452	-0,211
18,575	-80,122	-0,158	-0,037
19,590	325,127	-0,152	-0,206
20,604	12,860	-0,353	-0,192
21,619	69,160	-0,402	-0,291
22,634	57,695	-0,512	-0,353
23,648	78,992	-0,409	-0,309
24,663	-2,338	-0,341	-0,168
25,677	4,334	-0,319	-0,165
26,692	159,578	-0,224	-0,220
27,707	32,842	-0,353	-0,215
28,721	84,307	-0,358	-0,276
29,736	116,398	-0,432	-0,374
30,750	29,373	-0,427	-0,255
31,765	37,939	-0,406	-0,254
32,780	55,489	-0,457	-0,311
33,794	389,488	-0,198	-0,291
34,809	31,839	-0,423	-0,256
35,823	87,462	-0,377	-0,295
36,838	184,500	-0,269	-0,282
37,853	-46,410	-0,407	-0,140
38,867	246,832	-0,308	-0,367
39,882	144,709	-0,382	-0,360
40,896	7,312	-0,396	-0,208
41,911	137,359	-0,311	-0,287
42,926	113,400	-0,244	-0,209
43,940	151,161	-0,302	-0,290
44,955	-9,067	-0,480	-0,226
45,969	-6,780	-0,474	-0,226
46,984	45,694	-0,286	-0,186
47,999	-22,952	-0,383	-0,162
49,013	50,660	-0,322	-0,215
50,028	79,707	-0,307	-0,232
51,042	28,859	-0,372	-0,222
52,057	166,926	-0,310	-0,310
53,071	5,621	-0,371	-0,193
54,086	325,861	-0,236	-0,318
55,101	335,822	-0,189	-0,259
56,115	101,173	-0,381	-0,312
57,130	86,219	-0,369	-0,286
58,144	67,031	-0,420	-0,301
59,159	-21,265	-0,416	-0,178
60,174	107,285	-0,354	-0,296
61,188	24,464	-0,283	-0,164
62,203	21,511	-0,265	-0,152
63,217	201,067	-0,287	-0,311
64,232	-26,431	-0,356	-0,146
65,247	70,983	-0,310	-0,225
66,261	149,195	-0,290	-0,277
67,276	200,063	-0,282	-0,305
68,290	-103,784	-0,359	-0,058
69,305	151,189	-0,267	-0,256
70,320	74,753	-0,274	-0,202
71,334	800,000	-0,192	-0,387
72,349	168,322	-0,326	-0,327
73,363	278,306	-0,237	-0,298
74,378	30,057	-0,319	-0,191
75,393	40,261	-0,374	-0,236
76,407	144,002	-0,285	-0,267
77,422	162,912	-0,229	-0,226
78,436	104,383	-0,360	-0,298
79,451	119,489	-0,308	-0,268
80,466	34,413	-0,264	-0,162
81,480	99,942	-0,329	-0,268
82,495	206,787	-0,376	-0,413
83,509	-15,611	-0,316	-0,141
84,524	-39,169	-0,275	-0,101
85,539	-22,163	-0,329	-0,140
86,553	69,517	-0,339	-0,245
87,568	117,532	-0,257	-0,222
88,582	285,767	-0,139	-0,177
89,597	-42,565	-0,355	-0,126
90,611	1,368	-0,289	-0,146
91,626	-33,048	-0,274	-0,106
92,641	393,788	-0,189	-0,276
93,655	237,006	-0,247	-0,288
94,670	109,750	-0,270	-0,227
95,684	78,449	-0,272	-0,204
96,699	187,765	-0,285	-0,299
97,714	-3,436	-0,323	-0,157
98,728	-69,717	-0,226	-0,060
99,743	316,097	-0,179	-0,238
100,757	1,842	-0,294	-0,148
101,772	120,202	-0,252	-0,219
102,787	800,000	-0,113	-0,295
103,801	166,384	-0,248	-0,246
104,816	97,398	-0,293	-0,236
105,830	-74,833	-0,243	-0,061
106,845	196,425	-0,249	-0,266
107,860	85,556	-0,222	-0,171
108,874	77,481	-0,294	-0,219
109,889	169,280	-0,282	-0,283
110,903	488,144	-0,140	-0,224
111,918	102,097	-0,268	-0,219
112,933	116,699	-0,200	-0,172
113,947	80,620	-0,289	-0,218
114,962	109,526	-0,230	-0,193
115,976	103,387	-0,247	-0,203
116,991	-62,176	-0,240	-0,070
118,006	63,562	-0,334	-0,235
119,020	174,240	-0,212	-0,215
120,035	23,371	-0,229	-0,132
121,049	-54,687	-0,191	-0,060
122,064	379,331	-0,170	-0,245
123,079	18,599	-0,280	-0,156
124,093	109,905	-0,278	-0,233
125,108	-13,334	-0,336	-0,152
126,122	14,561	-0,266	-0,145
127,137	-127,004	-0,217	-0,022
128,151	8,676	-0,298	-0,156
129,166	190,773	-0,216	-0,228
130,181	18,750	-0,284	-0,158
131,195	117,121	-0,173	-0,149
132,210	-1,081	-0,297	-0,146
133,224	800,000	-0,105	-0,247
134,239	431,984	-0,135	-0,205
135,254	-6,324	-0,237	-0,113
136,268	-115,015	-0,326	-0,043
137,283	1,887	-0,208	-0,105
138,297	55,227	-0,263	-0,178
139,312	-1,191	-0,285	-0,140
140,327	25,915	-0,345	-0,201
141,341	-71,385	-0,280	-0,073
142,356	406,522	-0,141	-0,209
143,370	21,707	-0,243	-0,138
144,385	58,317	-0,311	-0,213
145,400	-85,328	-0,308	-0,067
146,414	124,412	-0,213	-0,187
147,429	63,500	-0,365	-0,255
148,443	262,835	-0,147	-0,178
149,458	261,861	-0,182	-0,221
150,473	101,233	-0,219	-0,178
151,487	-84,725	-0,231	-0,050
152,502	-54,315	-0,408	-0,129
153,516	-38,302	-0,401	-0,148
154,531	77,552	-0,329	-0,244
155,546	103,241	-0,309	-0,253
156,560	13,491	-0,267	-0,144
157,575	500,842	-0,109	-0,176
158,589	141,764	-0,181	-0,167
159,604	73,230	-0,162	-0,118
160,619	-111,265	-0,200	0,028
161,633	-77,443	-0,309	-0,074
162,648	67,847	-0,290	-0,207
163,662	-74,634	-0,282	-0,070
164,677	800,000	-0,029	-0,074
165,692	-48,002	-0,178	-0,060
166,706	169,845	-0,241	-0,241
167,721	-86,168	-0,177	0,038
168,735	-20,852	-0,274	-0,117
169,750	99,954	-0,230	-0,186
170,764	-104,919	-0,299	-0,047
171,779	-134,551	-0,228	0,019
172,794	241,157	-0,160	-0,187
173,808	-10,961	-0,228	-0,105
174,823	-29,839	-0,257	-0,102
175,837	75,170	-0,175	-0,128
176,852	79,765	-0,263	-0,197
177,867	800,000	-0,069	-0,211
178,881	330,008	-0,089	-0,120
179,896	-10,295	-0,245	-0,113
180,910	116,649	-0,239	-0,204
181,925	-112,744	-0,311	-0,042
182,940	-25,051	-0,345	-0,142
183,954	129,155	-0,275	-0,244
184,969	-200,000	-0,215	0,000
185,983	120,836	-0,158	-0,137
186,998	306,458	-0,179	-0,232
188,013	800,000	-0,082	-0,163
189,027	170,380	-0,066	-0,065
190,042	290,649	-0,165	-0,209
191,056	179,642	-0,143	-0,145
192,071	-134,629	-0,196	0,016
193,086	311,251	-0,093	-0,121
194,100	5,869	-0,185	-0,095
195,115	109,753	-0,132	-0,110
196,129	213,168	-0,229	-0,252
197,144	330,750	-0,157	-0,211
198,159	85,046	-0,275	-0,210
199,173	-32,326	-0,248	-0,096
200,188	98,842	-0,152	-0,122
201,202	-18,350	-0,158	-0,068
202,217	37,860	-0,201	-0,124
203,232	800,000	-0,112	-0,246
204,246	59,830	-0,214	-0,147
205,261	81,857	-0,223	-0,168
206,275	-86,545	-0,145	-0,031
207,290	481,837	-0,084	-0,133
208,304	53,000	-0,188	-0,125
209,319	-6,270	-0,128	-0,061
210,334	551,503	-0,118	-0,197
211,348	195,088	-0,224	-0,237
212,363	229,286	-0,230	-0,261
213,377	111,334	-0,208	-0,174
214,392	-200,000	-0,055	-0,232
215,407	54,975	-0,091	-0,061
216,421	58,627	-0,154	-0,105
217,436	293,186	-0,092	-0,117
218,450	500,039	-0,159	-0,256
219,465	263,485	-0,228	-0,276
220,480	-193,952	-0,259	0,001
221,494	162,129	-0,088	-0,086
222,509	-107,296	-0,101	-0,015
223,523	292,417	-0,113	-0,144
224,538	13,593	-0,278	-0,149
225,553	240,437	-0,225	-0,261
226,567	37,889	-0,280	-0,172
227,582	389,618	-0,184	-0,265
228,596	800,000	-0,090	-0,215
229,611	800,000	-0,102	-0,214
230,626	153,135	-0,042	0,040
231,640	-138,633	-0,254	0,019
232,655	30,315	-0,170	-0,100
233,669	328,707	-0,162	-0,217
234,684	130,346	-0,153	-0,136
235,699	157,537	-0,181	-0,173
236,713	189,816	-0,108	-0,113
237,728	800,000	-0,096	-0,211
238,742	-110,445	-0,200	-0,028
239,757	192,876	-0,302	-0,316
240,772	259,250	-0,245	-0,294
241,786	368,919	-0,248	-0,349
242,801	800,000	-0,047	-0,094
243,815	30,248	-0,271	-0,160
244,830	210,484	-0,180	-0,196
245,844	-200,000	-0,044	-0,196
246,859	-94,210	-0,365	-0,069
247,874	145,026	-0,236	-0,218
248,888	800,000	-0,118	-0,228
249,903	153,281	-0,223	-0,211
250,917	-5,828	-0,154	-0,073
251,932	-2,747	-0,177	-0,085
252,947	97,750	-0,182	-0,145
253,961	404,281	-0,070	-0,102
254,976	76,434	-0,165	-0,121
255,990	163,925	-0,145	-0,142
257,005	34,766	-0,228	-0,138
258,020	295,130	-0,110	-0,139
259,034	354,061	-0,046	-0,063
260,049	262,259	-0,192	-0,231
261,063	-100,682	-0,207	-0,035
262,078	-68,204	-0,242	-0,065
263,093	-120,290	-0,261	-0,030
264,107	9,063	-0,240	-0,125
265,122	34,051	-0,088	-0,053
266,136	800,000	-0,098	-0,191
267,151	-27,906	-0,182	-0,073
268,166	-72,575	-0,125	0,032
269,180	69,078	-0,229	-0,162
270,195	-40,195	-0,195	-0,070
271,209	459,176	-0,099	-0,153
272,224	142,346	-0,202	-0,186
273,239	71,519	-0,190	-0,136
274,253	-6,108	-0,192	-0,090
275,268	588,242	-0,049	-0,084
276,282	-118,291	-0,156	-0,019
277,297	-174,507	-0,243	0,005
278,312	53,529	-0,236	-0,156
279,326	85,104	-0,157	-0,119
280,341	-176,950	-0,177	0,003
281,355	800,000	-0,037	-0,103
282,370	800,000	-0,058	-0,164
283,384	130,419	-0,229	-0,202
284,399	32,846	-0,224	-0,134
285,414	212,934	-0,135	-0,147
286,428	-88,263	-0,156	-0,032
287,443	800,000	-0,075	-0,155
288,457	116,469	-0,215	-0,182
289,472	-12,926	-0,221	-0,099
290,487	283,385	-0,117	-0,146
291,501	140,756	-0,253	-0,231
292,516	-125,597	-0,183	-0,019
293,530	145,867	-0,038	-0,035
294,545	342,635	-0,197	-0,267
295,560	-200,000	-0,047	-0,257
296,574	77,414	-0,149	-0,109
297,589	384,802	-0,089	-0,126
298,603	72,269	-0,257	-0,184
299,618	584,521	-0,097	-0,166
300,633	48,872	-0,118	-0,076
301,647	67,217	-0,168	-0,118
302,662	-32,186	-0,167	-0,064
303,676	42,841	-0,070	0,044
304,691	695,300	-0,102	-0,186
305,706	125,192	-0,211	-0,183
306,720	642,753	-0,082	-0,145
307,735	800,000	-0,063	-0,121
308,749	141,719	-0,169	-0,154
309,764	-200,000	-0,028	-0,098
310,779	-87,182	-0,185	-0,038
311,793	31,636	-0,029	0,017
312,808	39,396	-0,212	-0,131
313,822	468,014	-0,107	-0,165
314,837	-172,803	-0,196	-0,004
315,852	416,357	-0,033	-0,049
316,866	206,931	-0,067	-0,072
317,881	426,839	-0,100	-0,149
318,895	246,305	-0,075	-0,088
319,910	146,710	-0,206	-0,190
320,925	-116,846	-0,117	-0,015
321,939	9,035	-0,135	-0,070
322,954	800,000	-0,061	-0,161
323,968	536,902	0,020	-0,032
324,983	570,315	-0,062	0,105
325,997	651,278	-0,065	-0,115
327,012	137,942	-0,137	-0,123
328,027	487,974	-0,063	-0,100
329,041	193,510	-0,110	-0,115
330,056	-9,956	-0,124	-0,056
331,070	-99,358	-0,205	-0,035
332,085	591,935	-0,115	-0,196
333,100	778,219	-0,041	-0,078
334,114	216,315	-0,187	-0,205
335,129	150,932	-0,158	-0,147
336,143	49,974	-0,039	-0,025
337,158	751,591	-0,065	-0,121
338,173	-32,495	-0,159	-0,061
339,187	152,804	-0,088	-0,083
340,202	-100,460	-0,150	-0,025
341,216	385,815	-0,187	-0,266
342,231	295,289	-0,102	-0,129
343,246	-151,475	-0,129	0,006
344,260	191,369	-0,126	-0,130
345,275	41,141	-0,064	-0,040
346,289	688,835	-0,052	-0,093
347,304	-10,945	-0,102	-0,046
348,319	503,644	-0,138	-0,220
349,333	-13,066	-0,168	-0,075
350,348	312,609	-0,147	-0,190
351,362	68,448	-0,056	-0,039
352,377	165,422	-0,146	-0,142
353,392	-4,574	-0,126	-0,060
354,406	-100,795	-0,172	-0,029
355,421	208,929	1313,103	1411,752
356,435	160,776	1473,643	1412,241
