DTS Sentinel unit serial number:	SN410029Multiplexer serial number:	ORYXHardware model number:	OX2-SRSoftware version number:	ORYX F/W v4,00 Oryx Data Collector v3.7.2.0data status	okinstallation	B3 Nyhavnadifferential loss correction	single-endedforward channel	channel 1reverse channel	N/Adate	2023/12/04time	15:32:30forward acquisition time	300,00reverse acquisition time	0,00gamma	499,1914k internal	0,3200k external	0,3200temperature offset calibration	1,0000default loss term (dB/km)	0,3820temperature slope calibration	1,0000multiplexer offset coefficient	1,0000multiplexer slope coefficient	1,0000fibre end	0,00T internal ref (°C)	15,12T ext. ref 1 (°C)	0,39T ext. ref 2 (°C)	0,38length (m)	temperature (°C)	Stokes	anti-Stokes-744,400	800,000	-0,138	-0,280
-743,385	-200,000	0,065	0,467
-742,371	43,415	-0,130	-0,087
-741,356	-200,000	0,083	0,308
-740,342	95,340	-0,208	-0,172
-739,327	-200,000	-0,069	0,231
-738,312	168,763	-0,159	-0,165
-737,298	-200,000	0,047	0,272
-736,283	-200,000	0,059	-0,217
-735,269	-200,000	0,011	0,316
-734,254	88,990	-0,285	-0,231
-733,239	135,783	-0,109	0,103
-732,225	270,787	-0,194	-0,249
-731,210	-99,033	0,159	-0,029
-730,196	800,000	0,011	-0,023
-729,181	-17,616	-0,177	-0,080
-728,167	-87,596	0,128	-0,028
-727,152	-200,000	-0,011	0,092
-726,137	3,678	-0,064	-0,034
-725,123	-0,403	-0,070	-0,036
-724,108	19,766	-0,189	-0,110
-723,094	148,454	-0,103	-0,102
-722,079	-111,139	-0,027	0,004
-721,064	-70,027	-0,101	-0,028
-720,050	-106,082	-0,059	-0,010
-719,035	800,000	-0,010	-0,031
-718,021	91,181	-0,182	-0,148
-717,006	-49,841	-0,096	-0,033
-715,991	-23,373	-0,069	-0,030
-714,977	-200,000	-0,012	-0,046
-713,962	596,820	0,017	-0,030
-712,948	149,881	-0,047	0,047
-711,933	-53,293	-0,030	0,010
-710,918	-200,000	-0,027	0,111
-709,904	309,263	-0,074	-0,101
-708,889	194,100	-0,036	-0,040
-707,875	14,432	0,059	-0,033
-706,860	4,410	-0,068	-0,036
-705,845	92,176	-0,027	-0,022
-704,831	-2,692	0,041	0,021
-703,816	723,257	0,084	0,164
-702,802	504,402	-0,060	0,102
-701,787	333,746	0,053	0,075
-700,772	800,000	-0,005	-0,011
-699,758	800,000	-0,009	-0,026
-698,743	-177,167	0,111	-0,002
-697,729	449,050	0,001	0,002
-696,714	194,520	0,067	-0,073
-695,699	-200,000	0,011	-0,041
-694,685	53,256	-0,090	-0,063
-693,670	800,000	-0,019	0,040
-692,656	-84,845	-0,059	-0,013
-691,641	-200,000	0,036	0,120
-690,627	-200,000	-0,006	-0,098
-689,612	40,632	0,021	-0,013
-688,597	107,431	-0,053	0,046
-687,583	-3,778	-0,096	-0,048
-686,568	76,091	-0,121	-0,093
-685,554	520,727	-0,027	0,045
-684,539	-2,361	0,051	0,026
-683,524	-189,679	-0,142	0,001
-682,510	-76,675	0,070	-0,018
-681,495	42,816	-0,138	0,091
-680,481	-200,000	-0,028	-0,115
-679,466	114,634	-0,082	-0,073
-678,451	143,285	0,099	0,096
-677,437	-200,000	-0,001	0,071
-676,422	-200,000	-0,006	0,049
-675,408	-200,000	-0,002	0,059
-674,393	188,001	0,058	0,063
-673,378	149,322	-0,126	-0,124
-672,364	-80,877	-0,108	-0,026
-671,349	-40,885	-0,048	0,018
-670,335	71,951	0,039	-0,030
-669,320	116,140	0,115	-0,102
-668,305	-39,420	0,052	-0,020
-667,291	104,705	-0,042	0,035
-666,276	-142,595	0,065	-0,005
-665,262	15,259	-0,095	0,054
-664,247	114,685	-0,071	0,063
-663,232	24,826	0,080	-0,048
-662,218	134,620	-0,048	-0,045
-661,203	74,586	0,104	0,079
-660,189	341,403	0,078	-0,111
-659,174	-200,000	-0,002	0,059
-658,159	-99,402	-0,125	-0,023
-657,145	800,000	-0,048	-0,124
-656,130	-71,266	-0,163	0,044
-655,116	166,000	0,108	0,111
-654,101	-76,310	-0,105	0,027
-653,086	-71,693	0,094	0,025
-652,072	238,658	0,057	0,069
-651,057	-43,548	-0,108	-0,039
-650,043	476,785	0,055	-0,090
-649,028	-200,000	-0,025	-0,091
-648,014	-200,000	0,002	-0,013
-646,999	599,230	0,068	-0,122
-645,984	20,588	-0,021	-0,012
-644,970	56,232	-0,080	-0,057
-643,955	800,000	-0,031	-0,068
-642,941	-200,000	-0,002	-0,050
-641,926	32,703	-0,087	-0,055
-640,911	128,595	0,055	-0,051
-639,897	90,156	0,042	-0,034
-638,882	-151,104	0,052	0,003
-637,868	-200,000	0,021	-0,074
-636,853	-96,335	-0,051	0,010
-635,838	-7,585	-0,082	-0,040
-634,824	52,006	-0,109	0,075
-633,809	-200,000	0,000	0,200
-632,795	504,808	0,065	0,109
-631,780	7,202	-0,133	-0,072
-630,765	-200,000	-0,042	-0,168
-629,751	800,000	-0,066	-0,201
-628,736	104,447	-0,115	-0,098
-627,722	-69,356	-0,061	-0,017
-626,707	353,329	0,067	-0,096
-625,692	294,566	-0,018	-0,024
-624,678	252,063	-0,050	-0,062
-623,663	-200,000	0,014	-0,105
-622,649	409,572	-0,068	-0,105
-621,634	-200,000	0,007	-0,034
-620,619	-163,508	-0,113	-0,004
-619,605	-30,234	0,111	-0,046
-618,590	-12,932	0,075	-0,035
-617,576	158,264	0,022	0,022
-616,561	-35,571	0,043	-0,017
-615,546	623,830	-0,019	-0,035
-614,532	211,246	0,025	-0,028
-613,517	800,000	-0,030	-0,080
-612,503	143,710	0,056	-0,054
-611,488	33,733	0,024	0,015
-610,474	-106,553	-0,085	-0,014
-609,459	20,836	-0,068	0,040
-608,444	800,000	-0,016	0,049
-607,430	-200,000	0,012	0,055
-606,415	651,411	-0,077	0,143
-605,401	-7,462	0,071	-0,035
-604,386	800,000	0,018	-0,053
-603,371	-200,000	0,021	0,154
-602,357	-200,000	-0,011	0,164
-601,342	-200,000	-0,000	-0,080
-600,328	-200,000	-0,012	-0,111
-599,313	-101,029	-0,060	0,011
-598,298	-200,000	-0,007	-0,054
-597,284	-200,000	-0,024	0,083
-596,269	15,506	-0,084	-0,047
-595,255	29,890	0,099	0,061
-594,240	592,056	-0,066	-0,118
-593,225	-200,000	-0,018	0,118
-592,211	138,473	-0,022	-0,021
-591,196	267,186	-0,072	0,091
-590,182	3,758	-0,055	0,029
-589,167	462,997	-0,017	-0,027
-588,152	-200,000	0,009	0,070
-587,138	210,066	-0,004	0,004
-586,123	-200,000	-0,014	-0,077
-585,109	-200,000	-0,010	-0,086
-584,094	30,358	-0,024	-0,015
-583,079	356,046	0,049	-0,071
-582,065	-101,165	-0,100	0,017
-581,050	800,000	0,065	0,143
-580,036	368,704	0,088	-0,129
-579,021	800,000	0,035	0,111
-578,006	-200,000	0,004	-0,087
-576,992	800,000	-0,048	-0,109
-575,977	-105,686	-0,028	-0,004
-574,963	66,235	0,031	-0,022
-573,948	-200,000	0,025	-0,081
-572,934	-85,990	-0,061	0,014
-571,919	-200,000	0,011	0,099
-570,904	-200,000	-0,023	0,157
-569,890	251,623	0,079	-0,097
-568,875	14,804	-0,050	-0,028
-567,861	-200,000	0,001	0,092
-566,846	800,000	-0,027	0,082
-565,831	28,429	0,038	0,023
-564,817	-48,628	-0,052	-0,018
-563,802	540,053	-0,029	0,050
-562,788	-200,000	-0,015	-0,107
-561,773	800,000	-0,055	-0,113
-560,758	220,585	0,048	0,056
-559,744	-200,000	0,004	0,119
-558,729	381,031	0,077	0,115
-557,715	-200,000	-0,008	0,057
-556,700	716,676	0,053	-0,103
-555,685	-69,267	0,256	-0,071
-554,671	51,054	-0,131	-0,090
-553,656	-105,897	-0,023	0,004
-552,642	400,048	-0,011	-0,017
-551,627	-127,579	-0,050	-0,005
-550,612	-200,000	-0,002	-0,010
-549,598	-200,000	-0,018	0,093
-548,583	-135,498	0,075	-0,006
-547,569	-21,533	0,127	0,056
-546,554	38,319	0,106	-0,068
-545,539	-200,000	0,005	0,148
-544,525	10,522	-0,062	0,034
-543,510	800,000	0,020	0,042
-542,496	601,483	0,052	0,094
-541,481	-80,183	-0,159	0,038
-540,466	-200,000	-0,018	-0,089
-539,452	-15,960	-0,042	-0,019
-538,437	5,564	0,105	-0,056
-537,423	56,258	-0,004	-0,003
-536,408	-200,000	-0,011	0,076
-535,393	79,901	-0,086	0,066
-534,379	-200,000	0,008	-0,181
-533,364	-53,806	-0,061	-0,020
-532,350	126,353	-0,055	0,050
-531,335	528,708	-0,025	0,043
-530,321	48,758	-0,038	0,026
-529,306	800,000	0,012	-0,028
-528,291	162,695	-0,047	0,048
-527,277	110,344	-0,092	-0,080
-526,262	-200,000	0,001	0,029
-525,248	800,000	-0,037	0,099
-524,233	-168,735	0,110	-0,003
-523,218	43,026	-0,021	-0,014
-522,204	-15,822	-0,026	0,012
-521,189	388,619	-0,020	-0,030
-520,175	206,118	-0,104	-0,117
-519,160	-200,000	-0,043	-0,174
-518,145	14,792	0,136	0,076
-517,131	-200,000	-0,019	-0,067
-516,116	-56,561	0,160	-0,051
-515,102	-89,211	0,089	-0,019
-514,087	49,564	-0,066	0,045
-513,072	-200,000	-0,007	-0,169
-512,058	554,314	-0,066	-0,114
-511,043	154,888	0,053	-0,052
-510,029	-64,567	0,122	0,035
-509,014	267,177	0,028	0,036
-507,999	438,888	-0,029	-0,045
-506,985	-76,596	-0,099	0,025
-505,970	800,000	-0,065	-0,145
-504,956	-150,401	0,102	-0,006
-503,941	361,852	-0,095	0,138
-502,926	-164,561	0,143	0,005
-501,912	-76,547	0,151	-0,038
-500,897	291,242	0,047	-0,062
-499,883	-16,793	-0,097	-0,044
-498,868	800,000	-0,062	-0,176
-497,853	-200,000	0,006	-0,067
-496,839	-36,406	0,060	-0,023
-495,824	173,723	0,021	0,022
-494,810	-54,402	-0,040	0,013
-493,795	209,629	0,073	0,083
-492,781	513,889	0,064	-0,108
-491,766	689,254	0,055	0,103
-490,751	-10,222	0,037	0,018
-489,737	287,606	-0,088	-0,114
-488,722	-200,000	-0,033	0,110
-487,708	800,000	0,024	-0,051
-486,693	800,000	0,073	0,157
-485,678	27,260	-0,014	-0,008
-484,664	-166,996	-0,223	0,006
-483,649	292,377	-0,016	-0,021
-482,635	-2,990	-0,035	0,018
-481,620	-165,489	0,071	-0,002
-480,605	64,814	0,061	0,045
-479,591	694,014	0,083	0,158
-478,576	213,720	-0,072	0,082
-477,562	800,000	-0,024	-0,071
-476,547	-54,837	-0,078	-0,025
-475,532	125,550	-0,104	-0,095
-474,518	-38,758	0,098	0,037
-473,503	125,967	0,026	-0,024
-472,489	800,000	0,057	0,161
-471,474	-13,699	-0,105	-0,049
-470,459	-153,647	0,061	0,003
-469,445	-46,040	-0,029	0,010
-468,430	-24,546	-0,040	-0,017
-467,416	75,515	0,044	0,033
-466,401	333,448	0,159	0,222
-465,386	160,609	-0,078	0,079
-464,372	-76,715	0,103	0,026
-463,357	800,000	0,016	-0,047
-462,343	193,021	-0,129	-0,140
-461,328	348,163	0,064	-0,092
-460,313	66,178	-0,019	0,014
-459,299	-200,000	-0,008	-0,039
-458,284	85,480	-0,005	-0,004
-457,270	-200,000	-0,011	0,131
-456,255	118,634	0,042	0,038
-455,241	-138,048	0,044	-0,003
-454,226	-7,593	-0,105	-0,051
-453,211	58,727	0,131	-0,092
-452,197	66,658	0,048	-0,035
-451,182	31,746	0,016	0,010
-450,168	-61,358	0,233	0,070
-449,153	800,000	-0,023	-0,056
-448,138	-33,169	-0,136	-0,054
-447,124	-0,923	-0,088	-0,045
-446,109	26,266	0,147	-0,088
-445,095	-25,908	-0,022	0,009
-444,080	-200,000	-0,013	0,057
-443,065	-3,331	-0,081	0,041
-442,051	335,502	0,096	-0,134
-441,036	0,888	0,048	0,024
-440,022	570,702	-0,090	0,158
-439,007	-200,000	-0,002	0,087
-437,992	453,851	0,078	0,124
-436,978	-200,000	0,000	0,060
-435,963	-200,000	0,047	0,151
-434,949	190,183	0,023	0,025
-433,934	170,553	-0,040	0,041
-432,919	800,000	0,021	0,055
-431,905	221,245	0,075	-0,086
-430,890	-200,000	-0,009	0,030
-429,876	145,072	-0,130	0,125
-428,861	-37,413	0,041	0,016
-427,846	-14,787	0,123	0,057
-426,832	800,000	-0,026	-0,056
-425,817	6,887	-0,101	0,054
-424,803	151,123	-0,085	0,083
-423,788	557,914	0,026	-0,044
-422,773	102,558	0,093	0,078
-421,759	512,377	0,087	0,146
-420,744	800,000	0,026	-0,054
-419,730	-81,369	0,098	-0,023
-418,715	146,964	0,055	0,053
-417,701	-200,000	0,004	-0,027
-416,686	800,000	0,027	0,055
-415,671	-200,000	0,024	0,114
-414,657	684,229	-0,021	0,039
-413,642	-37,727	-0,107	-0,041
-412,628	528,854	0,018	0,030
-411,613	174,462	0,060	-0,062
-410,598	38,177	0,109	0,070
-409,584	800,000	0,007	-0,021
-408,569	-58,630	0,123	-0,038
-407,555	-198,292	-0,118	-0,000
-406,540	-200,000	-0,025	0,084
-405,525	384,382	0,055	-0,081
-404,511	-200,000	-0,019	-0,077
-403,496	800,000	-0,044	-0,134
-402,482	108,992	-0,140	-0,120
-401,467	800,000	0,027	0,066
-400,452	113,302	-0,072	-0,063
-399,438	-161,021	0,045	-0,002
-398,423	-200,000	-0,014	0,202
-397,409	285,372	0,067	-0,087
-396,394	154,237	-0,030	-0,029
-395,379	800,000	0,049	-0,110
-394,365	132,842	-0,106	-0,098
-393,350	-54,069	0,116	-0,038
-392,336	-80,540	-0,025	0,006
-391,321	368,402	0,102	0,149
-390,306	92,297	0,102	-0,082
-389,292	-64,950	-0,162	-0,047
-388,277	50,154	0,028	-0,019
-387,263	800,000	0,042	-0,105
-386,248	-200,000	-0,028	-0,089
-385,233	800,000	-0,007	-0,017
-384,219	-159,676	0,083	0,003
-383,204	800,000	-0,024	-0,076
-382,190	-149,272	-0,016	-0,001
-381,175	800,000	0,014	0,032
-380,160	-200,000	0,004	0,054
-379,146	16,884	-0,087	-0,049
-378,131	-200,000	-0,016	-0,121
-377,117	-200,000	0,004	-0,114
-376,102	240,251	0,076	-0,091
-375,088	800,000	0,027	-0,062
-374,073	348,461	-0,044	-0,062
-373,058	-181,831	-0,021	0,000
-372,044	-200,000	-0,001	0,166
-371,029	438,976	0,027	0,043
-370,015	799,915	0,017	0,034
-369,000	96,927	-0,035	0,029
-367,985	45,706	-0,178	-0,118
-366,971	17,371	0,101	-0,058
-365,956	175,271	-0,008	0,008
-364,942	-44,729	-0,077	0,027
-363,927	-67,390	0,095	-0,027
-362,912	800,000	-0,022	-0,064
-361,898	800,000	-0,043	-0,130
-360,883	527,696	0,011	0,020
-359,869	-44,586	0,088	0,031
-358,854	800,000	0,119	0,237
-357,839	800,000	0,095	0,199
-356,825	-56,797	0,058	0,018
-355,810	-124,310	0,108	-0,012
-354,796	604,585	0,058	-0,104
-353,781	138,610	0,104	-0,098
-352,766	800,000	-0,035	0,089
-351,752	-82,426	0,111	0,026
-350,737	-39,089	0,032	-0,012
-349,723	800,000	0,004	-0,011
-348,708	31,687	0,109	0,067
-347,693	785,204	-0,058	0,115
-346,679	404,218	-0,050	0,076
-345,664	-200,000	-0,025	-0,094
-344,650	-200,000	-0,031	0,132
-343,635	635,172	0,023	-0,041
-342,620	324,815	-0,009	-0,013
-341,606	-200,000	0,025	0,113
-340,591	-200,000	-0,005	0,038
-339,577	-66,003	0,097	0,027
-338,562	-31,269	0,090	-0,036
-337,548	-196,411	-0,112	0,001
-336,533	-124,895	0,028	0,003
-335,518	150,570	0,101	0,098
-334,504	353,747	0,058	-0,082
-333,489	590,846	-0,044	-0,078
-332,475	-14,937	0,135	-0,062
-331,460	314,084	0,060	0,081
-330,445	-50,400	0,108	0,036
-329,431	800,000	0,057	0,174
-328,416	28,690	0,045	0,027
-327,402	800,000	-0,030	-0,075
-326,387	-200,000	0,031	0,099
-325,372	-200,000	0,030	-0,109
-324,358	-122,769	-0,098	-0,011
-323,343	200,047	0,039	0,043
-322,329	448,056	0,056	0,089
-321,314	-34,569	0,041	-0,016
-320,299	-200,000	0,027	0,102
-319,285	-89,595	-0,077	0,016
-318,270	42,283	-0,156	0,101
-317,256	-177,408	0,076	-0,001
-316,241	17,340	0,007	-0,004
-315,226	103,835	0,143	-0,120
-314,212	800,000	-0,029	0,075
-313,197	-85,774	0,075	-0,017
-312,183	3,970	-0,042	0,022
-311,168	-27,884	-0,140	-0,058
-310,153	-25,954	-0,081	0,034
-309,139	-200,000	-0,018	-0,066
-308,124	83,579	0,061	0,048
-307,110	800,000	-0,031	0,093
-306,095	55,923	-0,085	0,059
-305,080	422,575	-0,071	0,109
-304,066	200,292	-0,048	0,052
-303,051	218,071	-0,004	-0,004
-302,037	-200,000	-0,011	-0,050
-301,022	-69,410	-0,117	-0,032
-300,008	800,000	0,046	-0,105
-298,993	800,000	0,055	0,112
-297,978	-69,225	-0,107	-0,029
-296,964	50,433	-0,044	-0,030
-295,949	800,000	-0,023	-0,072
-294,935	-200,000	0,017	-0,100
-293,920	-60,184	0,013	-0,004
-292,905	-200,000	-0,006	0,026
-291,891	800,000	0,025	0,057
-290,876	800,000	0,055	0,147
-289,862	800,000	0,028	-0,068
-288,847	-42,063	-0,138	-0,050
-287,832	-200,000	0,001	-0,012
-286,818	-34,654	-0,116	-0,045
-285,803	405,051	0,040	-0,061
-284,789	800,000	0,020	-0,062
-283,774	-200,000	-0,001	0,120
-282,759	748,063	-0,037	0,072
-281,745	344,393	0,060	-0,084
-280,730	663,108	-0,104	-0,193
-279,716	-28,949	-0,253	0,103
-278,701	-200,000	0,002	0,080
-277,686	-128,550	0,072	-0,007
-276,672	4,044	-0,070	-0,037
-275,657	474,471	-0,067	-0,109
-274,643	110,893	-0,069	-0,060
-273,628	43,025	-0,097	-0,063
-272,613	-132,547	-0,147	0,013
-271,599	-28,101	-0,073	0,030
-270,584	-200,000	0,000	0,084
-269,570	-200,000	-0,004	-0,014
-268,555	-200,000	-0,000	0,140
-267,540	-200,000	-0,043	0,142
-266,526	-98,613	0,069	0,013
-265,511	350,301	0,076	-0,107
-264,497	-156,335	0,182	0,008
-263,482	800,000	0,033	-0,083
-262,467	-37,245	-0,049	-0,019
-261,453	-103,762	-0,043	0,007
-260,438	-15,415	0,046	0,021
-259,424	37,391	0,059	0,037
-258,409	243,995	-0,042	0,051
-257,395	42,822	0,031	-0,020
-256,380	179,468	0,062	-0,064
-255,365	-117,361	-0,071	0,009
-254,351	174,986	0,119	0,123
-253,336	-200,000	-0,015	0,134
-252,322	85,090	-0,070	-0,055
-251,307	-200,000	-0,020	-0,103
-250,292	-47,158	-0,154	-0,053
-249,278	800,000	-0,004	0,010
-248,263	-43,422	0,153	0,055
-247,249	658,825	-0,015	0,027
-246,234	64,342	0,034	0,025
-245,219	-122,978	-0,020	-0,002
-244,205	243,072	-0,066	-0,079
-243,190	800,000	0,029	-0,076
-242,176	50,447	0,035	-0,023
-241,161	117,452	-0,012	-0,011
-240,146	48,241	0,047	-0,031
-239,132	800,000	-0,030	0,073
-238,117	-200,000	0,013	-0,125
-237,103	-133,567	-0,143	0,013
-236,088	-200,000	-0,000	0,049
-235,073	800,000	-0,011	-0,025
-234,059	102,586	0,081	0,068
-233,044	-105,709	0,129	0,021
-232,030	324,889	-0,027	-0,037
-231,015	-94,947	0,084	0,016
-230,000	-37,336	-0,148	-0,056
-228,986	491,718	0,045	0,074
-227,971	800,000	-0,028	-0,085
-226,957	-200,000	0,008	0,059
-225,942	800,000	-0,103	0,320
-224,927	-200,000	-0,012	0,073
-223,913	-200,000	-0,031	-0,102
-222,898	34,489	0,100	-0,062
-221,884	-200,000	-0,032	-0,105
-220,869	349,340	0,117	-0,166
-219,855	241,351	0,059	0,070
-218,840	160,201	-0,057	0,057
-217,825	319,371	0,024	-0,033
-216,811	160,262	-0,063	-0,062
-215,796	491,436	0,073	-0,119
-214,782	-156,769	-0,034	0,001
-213,767	-200,000	0,022	0,135
-212,752	-200,000	0,007	0,079
-211,738	-51,652	0,063	0,021
-210,723	-33,209	-0,081	0,032
-209,709	771,108	0,026	0,051
-208,694	214,212	-0,016	-0,018
-207,679	86,024	0,088	-0,069
-206,665	-85,785	0,032	-0,007
-205,650	-173,057	0,095	0,002
-204,636	313,028	0,078	0,105
-203,621	46,281	-0,074	0,048
-202,606	-131,322	-0,037	0,003
-201,592	800,000	-0,039	-0,108
-200,577	147,580	-0,078	0,075
-199,563	-59,722	0,037	0,011
-198,548	333,064	0,061	-0,084
-197,533	-95,635	0,046	0,009
-196,519	83,695	0,042	0,033
-195,504	606,482	0,035	-0,063
-194,490	-104,509	0,077	-0,013
-193,475	40,192	0,048	0,031
-192,460	6,718	0,076	0,040
-191,446	109,411	0,072	-0,062
-190,431	-77,412	-0,082	-0,020
-189,417	-200,000	-0,015	0,098
-188,402	-74,265	-0,099	-0,025
-187,387	568,799	-0,024	0,041
-186,373	31,350	-0,089	-0,054
-185,358	-111,276	-0,046	0,007
-184,344	-200,000	0,022	0,198
-183,329	-200,000	-0,013	0,139
-182,315	-200,000	0,031	-0,114
-181,300	-107,761	-0,199	-0,031
-180,285	168,660	0,021	-0,021
-179,271	-122,325	-0,056	-0,006
-178,256	-78,475	-0,086	0,021
-177,242	394,398	-0,032	0,048
-176,227	-200,000	0,011	-0,052
-175,212	510,482	0,019	0,032
-174,198	266,439	-0,067	-0,083
-173,183	-200,000	0,000	0,078
-172,169	211,456	-0,025	-0,028
-171,154	13,069	-0,056	-0,031
-170,139	800,000	-0,054	0,125
-169,125	-200,000	0,015	0,050
-168,110	-200,000	-0,007	-0,026
-167,096	469,681	-0,061	0,097
-166,081	145,626	0,098	-0,093
-165,066	-59,480	-0,073	0,022
-164,052	800,000	-0,036	0,074
-163,037	185,516	-0,032	-0,034
-162,023	-35,834	-0,055	-0,021
-161,008	76,299	0,030	-0,023
-159,993	284,865	-0,084	0,108
-158,979	129,595	-0,029	0,026
-157,964	-109,643	-0,110	-0,016
-156,950	-55,629	-0,067	-0,021
-155,935	-125,009	0,203	-0,022
-154,920	-111,453	0,120	-0,017
-153,906	800,000	0,013	-0,041
-152,891	29,770	0,010	-0,006
-151,877	-28,279	-0,042	-0,017
-150,862	104,501	-0,108	-0,090
-149,847	-25,992	-0,051	0,021
-148,833	495,423	-0,041	-0,067
-147,818	-135,112	0,070	0,006
-146,804	74,351	0,043	-0,032
-145,789	-163,002	0,110	-0,004
-144,775	-103,471	-0,174	0,029
-143,760	-18,763	-0,040	-0,018
-142,745	-57,093	-0,046	0,014
-141,731	-200,000	0,010	-0,139
-140,716	-124,187	0,009	-0,001
-139,702	800,000	-0,021	0,047
-138,687	-79,492	0,136	0,032
-137,672	-107,008	-0,061	-0,010
-136,658	-200,000	0,001	-0,077
-135,643	89,189	-0,043	-0,034
-134,629	76,912	-0,062	0,047
-133,614	-104,689	-0,061	0,010
-132,599	116,683	0,106	0,092
-131,585	-60,282	-0,086	0,026
-130,570	-190,989	-0,182	-0,001
-129,556	800,000	-0,038	0,112
-128,541	799,442	0,002	-0,005
-127,526	-200,000	0,026	-0,159
-126,512	-200,000	0,012	-0,045
-125,497	-200,000	0,002	0,242
-124,483	-105,625	-0,069	-0,011
-123,468	453,237	0,060	0,095
-122,453	-200,000	0,003	0,045
-121,439	595,426	-0,054	-0,094
-120,424	-200,000	-0,054	-0,206
-119,410	-200,000	0,015	-0,089
-118,395	800,000	0,024	0,057
-117,380	-89,247	0,138	0,029
-116,366	-16,573	-0,075	0,034
-115,351	-200,000	-0,004	-0,132
-114,337	43,993	-0,089	-0,058
-113,322	800,000	-0,044	0,135
-112,307	-200,000	-0,009	0,032
-111,293	739,779	0,046	-0,088
-110,278	17,986	-0,038	0,022
-109,264	800,000	0,020	0,057
-108,249	800,000	0,029	-0,060
-107,234	-200,000	-0,018	-0,222
-106,220	-98,827	-0,024	0,004
-105,205	800,000	0,077	0,186
-104,191	-147,235	0,002	0,000
-103,176	-110,561	0,069	-0,010
-102,162	552,597	0,026	-0,045
-101,147	-24,113	-0,122	-0,052
-100,132	-200,000	-0,039	-0,175
-99,118	-200,000	0,000	-0,150
-98,103	800,000	0,008	0,023
-97,089	800,000	0,061	0,149
-96,074	616,794	-0,025	0,044
-95,059	51,160	0,092	-0,061
-94,045	395,408	-0,094	0,139
-93,030	120,964	-0,116	-0,102
-92,016	800,000	0,030	-0,080
-91,001	149,752	0,031	0,029
-89,986	-200,000	0,003	0,081
-88,972	-66,955	0,094	-0,026
-87,957	526,657	0,093	0,155
-86,943	-22,785	-0,034	-0,014
-85,928	-41,195	-0,129	0,047
-84,913	119,325	-0,023	0,020
-83,899	424,717	0,043	-0,066
-82,884	800,000	-0,037	0,077
-81,870	191,601	-0,087	-0,093
-80,855	-107,626	0,088	-0,014
-79,840	53,566	-0,048	0,032
-78,826	-100,624	0,079	0,014
-77,811	-140,428	0,061	-0,004
-76,797	72,299	0,101	0,074
-75,782	98,384	-0,100	-0,082
-74,767	160,656	-0,086	0,085
-73,753	-200,000	-0,016	0,182
-72,738	-200,000	0,043	-0,161
-71,724	376,312	0,051	-0,074
-70,709	481,084	0,066	-0,107
-69,694	423,823	-0,035	0,053
-68,680	104,182	0,120	0,100
-67,665	-128,927	0,005	-0,000
-66,651	743,381	-0,012	0,023
-65,636	117,955	0,028	-0,024
-64,622	800,000	0,034	-0,087
-63,607	679,056	-0,060	-0,112
-62,592	800,000	-0,016	-0,036
-61,578	-46,687	-0,011	0,004
-60,563	-200,000	-0,050	0,171
-59,549	800,000	0,025	-0,050
-58,534	-56,068	-1,540	-0,483
-57,519	342,500	-1,529	-2,125
-56,505	-200,000	-0,539	-4,498
-55,490	83,773	0,986	0,761
-54,476	800,000	4,739	11,450
-53,461	-200,000	18,083	286,840
-52,446	800,000	726,621	2223,718
-51,432	553,572	1642,574	2807,497
-50,417	79,417	1664,807	1263,191
-49,403	23,012	1538,481	891,392
-48,388	17,004	1461,822	817,892
-47,373	17,908	1451,508	816,440
-46,359	17,330	1442,230	808,426
-45,344	15,240	1437,604	795,829
-44,330	15,164	1435,692	794,377
-43,315	15,177	1433,814	793,366
-42,300	15,150	1432,389	792,419
-41,286	15,255	1431,114	792,180
-40,271	15,224	1429,928	791,346
-39,257	15,181	1428,663	790,410
-38,242	15,263	1427,199	789,959
-37,227	15,252	1426,010	789,216
-36,213	15,214	1424,850	788,364
-35,198	15,244	1423,673	787,822
-34,184	15,221	1422,901	787,257
-33,169	15,172	1421,587	786,267
-32,154	15,197	1420,474	785,740
-31,140	15,239	1419,249	785,225
-30,125	15,297	1417,856	784,699
-29,111	15,237	1416,953	783,886
-28,096	15,235	1415,733	783,169
-27,082	15,160	1414,768	782,251
-26,067	15,136	1413,639	781,484
-25,052	15,156	1412,517	780,926
-24,038	15,105	1411,606	780,153
-23,023	15,135	1410,368	779,578
-22,009	15,124	1409,538	779,036
-20,994	15,086	1408,688	778,359
-19,979	15,143	1407,717	778,058
-18,965	15,112	1406,682	777,312
-17,950	15,085	1405,773	776,650
-16,936	15,104	1404,733	776,135
-15,921	15,113	1403,484	775,455
-14,906	15,051	1402,790	774,750
-13,892	15,088	1401,933	774,421
-12,877	15,084	1400,895	773,797
-11,863	15,049	1400,069	773,149
-10,848	15,055	1399,052	772,582
-9,833	15,049	1398,125	772,013
-8,819	14,966	1397,406	771,202
-7,804	14,935	1396,580	770,568
-6,790	14,955	1395,463	770,017
-5,775	14,960	1394,408	769,427
-4,760	14,982	1393,675	769,094
-3,746	14,940	1392,721	768,344
-2,731	14,978	1391,958	768,065
-1,717	14,982	1390,846	767,439
-0,702	14,940	1389,138	766,275
0,313	18,762	1308,457	739,446
1,327	35,181	707,326	437,801
2,342	54,161	124,945	84,939
3,356	1,266	16,785	8,503
4,371	7,281	3,199	1,685
5,386	-87,673	0,528	0,112
6,400	-200,000	-0,015	0,109
7,415	35,956	-0,186	-0,115
8,429	-41,845	-0,346	-0,125
9,444	-97,470	-0,395	-0,072
10,459	-14,536	-0,263	-0,119
11,473	123,509	-0,174	-0,154
12,488	-63,342	-0,258	-0,075
13,502	-20,197	-0,341	-0,148
14,517	161,838	-0,426	-0,422
15,531	-75,855	-0,372	-0,092
16,546	82,596	-0,282	-0,217
17,561	121,217	-0,391	-0,344
18,575	-121,997	-0,219	-0,025
19,590	-200,000	-0,075	-0,237
20,604	101,641	-0,270	-0,222
21,619	157,940	-0,398	-0,390
22,634	10,553	-0,454	-0,244
23,648	109,172	-0,397	-0,335
24,663	-29,231	-0,501	-0,202
25,677	11,895	-0,399	-0,216
26,692	800,000	-0,175	-0,389
27,707	47,954	-0,497	-0,328
28,721	38,496	-0,345	-0,217
29,736	128,772	-0,300	-0,270
30,750	165,321	-0,371	-0,370
31,765	-7,111	-0,567	-0,271
32,780	-36,357	-0,388	-0,147
33,794	154,585	-0,261	-0,253
34,809	64,743	-0,386	-0,274
35,823	0,568	-0,379	-0,190
36,838	21,485	-0,503	-0,288
37,853	26,877	-0,399	-0,235
38,867	-103,698	-0,422	-0,069
39,882	79,264	-0,272	-0,206
40,896	70,452	-0,387	-0,282
41,911	-59,050	-0,383	-0,116
42,926	25,621	-0,323	-0,189
43,940	-8,489	-0,412	-0,194
44,955	9,105	-0,448	-0,238
45,969	82,865	-0,431	-0,330
46,984	184,375	-0,302	-0,316
47,999	166,646	-0,418	-0,418
49,013	322,198	-0,187	-0,251
50,028	24,716	-0,344	-0,200
51,042	24,230	-0,334	-0,194
52,057	48,038	-0,427	-0,281
53,071	21,231	-0,350	-0,200
54,086	67,943	-0,350	-0,252
55,101	-81,059	-0,332	-0,077
56,115	-64,230	-0,340	-0,097
57,130	-2,277	-0,373	-0,184
58,144	-11,202	-0,440	-0,204
59,159	196,659	-0,354	-0,381
60,174	-24,704	-0,458	-0,191
61,188	158,902	-0,356	-0,348
62,203	82,458	-0,356	-0,272
63,217	-65,312	-0,397	-0,112
64,232	-0,048	-0,259	-0,130
65,247	94,936	-0,227	-0,182
66,261	6,355	-0,470	-0,245
67,276	8,821	-0,387	-0,204
68,290	12,307	-0,397	-0,214
69,305	-8,937	-0,334	-0,157
70,320	37,501	-0,302	-0,188
71,334	90,567	-0,232	-0,183
72,349	198,589	-0,316	-0,341
73,363	212,066	-0,289	-0,321
74,378	4,608	-0,379	-0,195
75,393	-50,255	-0,406	-0,134
76,407	-44,855	-0,248	-0,086
77,422	-19,006	-0,313	-0,136
78,436	38,681	-0,296	-0,186
79,451	-61,823	-0,405	-0,118
80,466	101,023	-0,288	-0,236
81,480	299,783	-0,214	-0,277
82,495	68,541	-0,260	-0,187
83,509	-7,532	-0,328	-0,155
84,524	19,930	-0,365	-0,206
85,539	-37,079	-0,188	-0,071
86,553	-11,200	-0,333	-0,153
87,568	106,202	-0,303	-0,252
88,582	148,670	-0,329	-0,313
89,597	29,957	-0,313	-0,187
90,611	17,099	-0,204	-0,113
91,626	211,381	-0,146	-0,162
92,641	256,392	-0,193	-0,233
93,655	75,325	-0,290	-0,214
94,670	-69,509	-0,493	-0,132
95,684	102,029	-0,223	-0,183
96,699	300,814	-0,263	-0,341
97,714	287,242	-0,187	-0,238
98,728	-5,325	-0,232	-0,111
99,743	297,901	-0,156	-0,201
100,757	223,488	-0,180	-0,204
101,772	-36,573	-0,230	-0,086
102,787	60,763	-0,224	-0,156
103,801	214,566	-0,210	-0,234
104,816	-57,841	-0,274	-0,083
105,830	-15,399	-0,181	-0,081
106,845	2,695	-0,184	-0,093
107,860	214,469	-0,163	-0,181
108,874	86,987	-0,286	-0,221
109,889	-3,113	-0,329	-0,160
110,903	200,688	-0,234	-0,252
111,918	-11,534	-0,294	-0,135
112,933	121,549	-0,243	-0,212
113,947	32,665	-0,347	-0,210
114,962	-57,630	-0,284	0,087
115,976	45,682	-0,386	-0,249
116,991	238,120	-0,214	-0,249
118,006	28,810	-0,306	-0,181
119,020	64,731	-0,380	-0,268
120,035	47,276	-0,338	-0,220
121,049	-57,218	-0,258	-0,079
122,064	299,930	-0,170	-0,219
123,079	-1,531	-0,292	-0,144
124,093	116,142	-0,220	-0,189
125,108	6,995	-0,262	-0,136
126,122	130,097	-0,199	-0,178
127,137	-15,610	-0,184	-0,082
128,151	148,242	-0,196	-0,186
129,166	171,391	-0,151	-0,151
130,181	585,705	-0,192	-0,331
131,195	154,069	-0,221	-0,212
132,210	115,222	-0,215	-0,183
133,224	-43,182	-0,317	-0,112
134,239	56,553	-0,186	-0,126
135,254	168,766	-0,225	-0,225
136,268	84,282	-0,184	-0,141
137,283	-20,976	-0,262	-0,112
138,297	585,167	-0,148	-0,255
139,312	202,906	-0,258	-0,279
140,327	31,717	-0,325	-0,195
141,341	-66,907	-0,251	-0,069
142,356	50,661	-0,134	-0,088
143,370	168,845	-0,245	-0,245
144,385	1,153	-0,255	-0,128
145,400	-34,705	-0,227	-0,086
146,414	100,794	-0,239	-0,194
147,429	157,561	-0,304	-0,294
148,443	-16,281	-0,313	-0,138
149,458	-7,942	-0,207	-0,097
150,473	114,162	-0,150	-0,127
151,487	-71,634	-0,313	-0,081
152,502	-86,436	-0,320	-0,068
153,516	220,846	-0,267	-0,300
154,531	19,830	-0,269	-0,151
155,546	361,121	-0,183	-0,257
156,560	-36,443	-0,236	-0,088
157,575	78,085	-0,125	-0,093
158,589	174,249	-0,202	-0,204
159,604	160,785	-0,145	-0,142
160,619	6,929	-0,187	-0,097
161,633	32,633	-0,154	-0,093
162,648	64,428	-0,153	-0,107
163,662	288,016	-0,295	-0,374
164,677	-121,129	-0,156	-0,018
165,692	-54,618	-0,253	-0,079
166,706	34,663	-0,271	-0,165
167,721	-10,100	-0,289	-0,133
168,735	553,124	-0,112	-0,189
169,750	38,233	-0,229	-0,142
170,764	767,240	-0,067	-0,128
171,779	122,033	-0,169	-0,147
172,794	191,233	-0,195	-0,205
173,808	-87,481	-0,404	-0,084
174,823	34,046	-0,232	-0,141
175,837	391,952	-0,165	-0,240
176,852	19,663	-0,296	-0,166
177,867	-39,750	-0,201	-0,073
178,881	-128,622	-0,214	-0,021
179,896	-161,465	-0,163	-0,006
180,910	30,904	-0,270	-0,161
181,925	36,253	-0,165	-0,101
182,940	526,730	-0,096	-0,158
183,954	13,178	-0,307	-0,165
184,969	-30,752	-0,416	-0,163
185,983	-200,000	-0,027	-0,258
186,998	381,715	-0,146	-0,210
188,013	0,900	-0,268	-0,133
189,027	166,360	-0,202	-0,200
190,042	39,085	-0,221	-0,137
191,056	298,277	-0,223	-0,285
192,071	209,530	-0,169	-0,184
193,086	141,394	-0,191	-0,176
194,100	169,262	-0,162	-0,161
195,115	18,827	-0,213	-0,118
196,129	15,174	-0,227	-0,124
197,144	303,304	-0,235	-0,304
198,159	322,028	-0,186	-0,247
199,173	238,458	-0,173	-0,201
200,188	256,688	-0,220	-0,263
201,202	-5,466	-0,161	-0,076
202,217	-124,355	-0,073	0,008
203,232	214,340	-0,137	-0,151
204,246	-97,408	-0,207	-0,037
205,261	493,122	-0,128	-0,205
206,275	1,664	-0,300	-0,150
207,290	73,480	-0,256	-0,186
208,304	174,499	-0,128	-0,129
209,319	-130,681	-0,165	-0,015
210,334	1,487	-0,329	-0,164
211,348	39,361	-0,243	-0,151
212,363	172,620	-0,185	-0,185
213,377	-74,386	-0,257	0,064
214,392	87,264	-0,194	-0,149
215,407	429,660	-0,119	-0,180
216,421	-88,117	-0,126	-0,026
217,436	238,727	-0,106	-0,122
218,450	303,483	-0,166	-0,214
219,465	606,356	-0,101	-0,176
220,480	305,813	-0,213	-0,275
221,494	94,730	-0,198	-0,156
222,509	-43,725	-0,225	-0,078
223,523	70,445	-0,076	-0,054
224,538	-114,689	-0,113	-0,015
225,553	-17,602	-0,238	-0,103
226,567	-158,430	-0,273	0,011
227,582	30,879	-0,288	-0,171
228,596	-33,257	-0,099	-0,038
229,611	-119,054	-0,192	-0,023
230,626	303,915	-0,169	-0,217
231,640	215,915	-0,121	-0,133
232,655	-200,000	-0,049	-0,348
233,669	-53,815	-0,293	-0,092
234,684	-200,000	-0,041	-0,257
235,699	-29,212	-0,258	-0,102
236,713	-52,472	-0,220	-0,070
237,728	250,136	-0,164	-0,194
238,742	-67,557	-0,221	0,060
239,757	69,569	-0,211	-0,150
240,772	-68,173	-0,281	-0,075
241,786	-0,062	-0,228	-0,112
242,801	173,938	-0,122	-0,122
243,815	-200,000	0,001	-0,038
244,830	238,067	-0,090	-0,104
245,844	-128,127	-0,217	-0,021
246,859	30,703	-0,275	-0,163
247,874	204,331	-0,222	-0,239
248,888	302,278	-0,188	-0,241
249,903	-44,560	-0,169	-0,058
250,917	-96,343	-0,200	0,036
251,932	-110,293	-0,146	-0,021
252,947	34,139	-0,169	-0,102
253,961	201,872	-0,286	-0,306
254,976	288,223	-0,154	-0,193
255,990	-15,796	-0,247	-0,108
257,005	448,046	-0,144	-0,221
258,020	173,139	-0,268	-0,267
259,034	-200,000	-0,019	-0,089
260,049	71,382	-0,133	-0,095
261,063	-200,000	-0,027	-0,110
262,078	79,646	-0,185	-0,137
263,093	148,865	-0,265	-0,248
264,107	800,000	-0,039	-0,081
265,122	-117,256	-0,186	-0,023
266,136	-114,651	-0,114	0,015
267,151	800,000	-0,115	-0,243
268,166	35,244	-0,146	-0,088
269,180	-31,537	-0,219	-0,085
270,195	752,172	-0,211	-0,395
271,209	255,457	-0,180	-0,214
272,224	134,253	-0,229	-0,205
273,239	132,392	-0,130	-0,115
274,253	485,371	-0,126	-0,199
275,268	430,125	-0,092	-0,138
276,282	800,000	-0,109	-0,240
277,297	-40,089	-0,177	-0,063
278,312	372,011	-0,116	-0,164
279,326	23,546	-0,187	-0,106
280,341	-200,000	-0,011	-0,061
281,355	-131,699	-0,088	0,008
282,370	0,259	-0,147	-0,072
283,384	521,211	-0,146	-0,238
284,399	250,484	-0,194	-0,228
285,414	800,000	-0,069	-0,165
286,428	800,000	-0,064	-0,184
287,443	-31,622	-0,072	-0,028
288,457	-73,030	-0,135	-0,034
289,472	93,930	-0,153	-0,120
290,487	50,884	-0,041	-0,027
291,501	103,750	-0,223	-0,181
292,516	30,084	-0,125	-0,074
293,530	121,576	-0,051	-0,044
294,545	319,868	-0,097	-0,128
295,560	128,706	-0,118	-0,104
296,574	26,761	-0,148	-0,085
297,589	159,212	-0,201	-0,193
298,603	800,000	-0,055	-0,148
299,618	-67,065	-0,196	-0,053
300,633	38,999	-0,135	-0,083
301,647	-73,925	-0,091	-0,023
302,662	-105,785	-0,199	-0,031
303,676	-200,000	-0,047	-0,143
304,691	646,145	-0,056	-0,098
305,706	-200,000	-0,076	-0,274
306,720	187,215	-0,169	-0,173
307,735	691,850	-0,145	-0,263
308,749	-31,683	-0,189	0,073
309,764	116,933	-0,067	-0,056
310,779	800,000	-0,037	-0,103
311,793	88,108	-0,179	-0,137
312,808	800,000	-0,085	-0,205
313,822	-148,443	-0,134	-0,007
314,837	417,920	-0,111	-0,164
315,852	-182,091	-0,155	-0,002
316,866	768,499	-0,055	-0,103
317,881	-200,000	-0,037	-0,137
318,895	-41,486	-0,096	-0,034
319,910	-88,836	-0,291	-0,059
320,925	37,620	-0,126	-0,077
321,939	47,419	-0,085	-0,054
322,954	35,206	-0,105	0,063
323,968	146,608	-0,131	0,121
324,983	61,105	-0,165	-0,112
325,997	-139,677	-0,160	-0,012
327,012	746,065	-0,038	-0,071
328,027	-142,142	-0,143	-0,010
329,041	-14,360	-0,147	-0,065
330,056	-200,000	0,003	-0,109
331,070	-200,000	0,029	-0,131
332,085	343,892	-0,096	-0,130
333,100	96,179	-0,065	-0,051
334,114	800,000	-0,045	-0,134
335,129	-129,187	-0,216	-0,020
336,143	800,000	-0,119	-0,235
337,158	443,211	-0,125	-0,189
338,173	-102,487	-0,260	-0,042
339,187	-34,148	-0,383	0,144
340,202	2,160	-0,117	-0,058
341,216	-22,802	-0,081	-0,034
342,231	115,938	-0,187	-0,157
343,246	162,178	-0,181	-0,175
344,260	-112,519	-0,204	-0,028
345,275	-163,457	0,038	-0,001
346,289	429,056	-0,033	0,049
347,304	-200,000	-0,009	-0,076
348,319	-200,000	-0,024	-0,134
349,333	157,440	-0,149	-0,141
350,348	397,399	-0,128	-0,184
351,362	485,343	-0,052	-0,081
352,377	677,936	-0,053	-0,095
353,392	104,191	-0,110	-0,089
354,406	-95,996	-0,225	-0,041
355,421	208,792	1317,710	1416,576
356,435	160,663	1478,830	1417,076
