DTS Sentinel unit serial number:	SN410029Multiplexer serial number:	ORYXHardware model number:	OX2-SRSoftware version number:	ORYX F/W v4,00 Oryx Data Collector v3.7.2.0data status	okinstallation	B3 Nyhavnadifferential loss correction	single-endedforward channel	channel 1reverse channel	N/Adate	2023/12/02time	08:22:30forward acquisition time	300,00reverse acquisition time	0,00gamma	499,1914k internal	0,3195k external	0,3195temperature offset calibration	1,0000default loss term (dB/km)	0,3820temperature slope calibration	1,0000multiplexer offset coefficient	1,0000multiplexer slope coefficient	1,0000fibre end	0,00T internal ref (°C)	15,42T ext. ref 1 (°C)	0,10T ext. ref 2 (°C)	0,08length (m)	temperature (°C)	Stokes	anti-Stokes-744,400	-17,581	-0,287	-0,131
-743,385	-200,000	0,044	0,318
-742,371	269,681	-0,201	-0,258
-741,356	-200,000	0,072	0,272
-740,342	77,765	-0,226	-0,176
-739,327	686,529	-0,167	0,319
-738,312	439,952	-0,186	-0,298
-737,298	-200,000	-0,012	0,277
-736,283	344,141	-0,136	-0,194
-735,269	-200,000	-0,017	0,395
-734,254	83,562	-0,291	-0,231
-733,239	26,376	-0,184	0,112
-732,225	149,524	-0,105	-0,104
-731,210	-127,703	0,188	0,020
-730,196	65,554	-0,028	0,021
-729,181	-191,337	-0,231	-0,002
-728,167	800,000	-0,059	-0,153
-727,152	-200,000	-0,011	-0,076
-726,137	142,608	-0,162	-0,157
-725,123	143,394	-0,078	-0,076
-724,108	-200,000	-0,019	-0,126
-723,094	349,235	-0,158	-0,228
-722,079	-134,816	-0,065	-0,006
-721,064	55,107	-0,043	-0,030
-720,050	800,000	-0,052	-0,131
-719,035	-50,751	0,079	0,027
-718,021	-200,000	0,000	0,031
-717,006	800,000	-0,065	-0,190
-715,991	18,926	-0,193	-0,112
-714,977	-200,000	-0,017	0,075
-713,962	-161,253	-0,174	0,006
-712,948	-187,640	-0,065	0,001
-711,933	-176,608	-0,085	-0,002
-710,918	800,000	-0,030	-0,078
-709,904	128,716	-0,135	-0,126
-708,889	-200,000	0,014	-0,187
-707,875	119,506	-0,038	0,035
-706,860	-200,000	0,010	0,092
-705,845	632,749	0,035	0,065
-704,831	104,655	0,090	-0,077
-703,816	-200,000	-0,005	0,035
-702,802	66,860	-0,091	0,067
-701,787	-200,000	-0,010	-0,087
-700,772	-78,829	-0,156	-0,038
-699,758	-174,271	-0,044	-0,001
-698,743	-63,746	-0,125	0,037
-697,729	800,000	-0,026	0,076
-696,714	-13,595	0,090	-0,042
-695,699	-200,000	0,016	-0,085
-694,685	-200,000	-0,013	-0,042
-693,670	800,000	-0,018	-0,055
-692,656	54,211	0,093	0,065
-691,641	101,913	-0,025	-0,021
-690,627	15,334	0,112	-0,064
-689,612	-82,641	-0,109	0,026
-688,597	-200,000	0,010	-0,131
-687,583	-133,775	-0,102	-0,009
-686,568	-200,000	0,003	-0,011
-685,554	-200,000	0,003	-0,061
-684,539	-200,000	-0,013	-0,101
-683,524	-200,000	-0,033	0,164
-682,510	369,397	-0,011	0,017
-681,495	800,000	0,054	-0,149
-680,481	22,374	-0,080	0,048
-679,466	-200,000	-0,035	-0,191
-678,451	285,343	-0,060	-0,079
-677,437	-128,738	-0,094	-0,010
-676,422	-200,000	0,053	0,171
-675,408	-8,876	-0,101	0,049
-674,393	-200,000	-0,007	0,155
-673,378	-79,886	-0,041	-0,010
-672,364	47,293	-0,096	-0,065
-671,349	522,586	0,031	-0,053
-670,335	800,000	-0,044	-0,109
-669,320	-165,443	0,051	0,002
-668,305	221,352	0,080	-0,093
-667,291	-65,992	-0,068	0,020
-666,276	800,000	0,033	-0,098
-665,262	-200,000	-0,032	-0,125
-664,247	-141,475	-0,116	0,008
-663,232	-129,083	-0,159	-0,016
-662,218	374,122	-0,064	0,095
-661,203	106,483	0,038	-0,033
-660,189	800,000	-0,021	-0,051
-659,174	800,000	-0,016	-0,042
-658,159	800,000	-0,042	-0,090
-657,145	-200,000	-0,019	-0,072
-656,130	250,877	-0,145	0,180
-655,116	-200,000	-0,032	-0,152
-654,101	-200,000	0,010	-0,127
-653,086	-44,057	0,148	0,054
-652,072	-12,653	-0,104	-0,049
-651,057	432,235	0,043	-0,068
-650,043	328,644	-0,068	-0,096
-649,028	262,292	0,066	-0,083
-648,014	284,378	0,043	0,056
-646,999	-159,281	0,115	0,005
-645,984	800,000	0,028	0,060
-644,970	92,673	-0,069	0,056
-643,955	-200,000	0,057	-0,192
-642,941	-46,290	-0,055	-0,020
-641,926	663,652	0,028	-0,052
-640,911	800,000	0,010	-0,021
-639,897	800,000	0,063	0,145
-638,882	106,287	0,064	-0,055
-637,868	-200,000	-0,014	-0,140
-636,853	800,000	-0,026	-0,061
-635,838	-200,000	-0,014	-0,119
-634,824	241,551	-0,063	-0,076
-633,809	225,157	-0,077	-0,090
-632,795	30,206	0,090	0,056
-631,780	592,291	-0,031	-0,055
-630,765	38,039	0,010	-0,006
-629,751	32,221	-0,087	-0,054
-628,736	37,248	-0,130	0,084
-627,722	-200,000	-0,002	0,138
-626,707	-98,569	0,076	0,014
-625,692	620,516	-0,011	-0,021
-624,678	-200,000	0,012	0,094
-623,663	-19,580	-0,106	-0,047
-622,649	-14,688	-0,134	-0,062
-621,634	-17,630	-0,121	0,055
-620,619	-185,827	-0,126	-0,001
-619,605	-113,408	-0,140	0,020
-618,590	74,372	0,096	-0,073
-617,576	472,880	-0,053	0,087
-616,561	183,582	-0,091	-0,097
-615,546	-176,788	0,086	-0,002
-614,532	-99,093	-0,138	0,025
-613,517	-200,000	-0,017	-0,082
-612,503	214,864	0,068	-0,078
-611,488	336,071	0,078	0,109
-610,474	-200,000	0,022	0,139
-609,459	-95,079	0,014	0,003
-608,444	-181,499	-0,151	-0,002
-607,430	94,189	0,137	0,113
-606,415	-49,508	0,071	-0,024
-605,401	-64,084	0,049	-0,014
-604,386	-174,270	0,198	0,004
-603,371	354,737	0,056	0,081
-602,357	800,000	-0,030	0,061
-601,342	-200,000	-0,002	0,042
-600,328	-98,472	0,051	-0,009
-599,313	392,484	-0,028	0,043
-598,298	203,163	0,067	-0,075
-597,284	800,000	0,033	0,067
-596,269	34,302	-0,120	0,076
-595,255	-98,410	0,043	-0,008
-594,240	800,000	0,056	0,139
-593,225	28,773	-0,132	-0,081
-592,211	58,533	0,023	-0,016
-591,196	9,324	-0,079	-0,043
-590,182	800,000	-0,058	0,126
-589,167	44,425	-0,015	-0,010
-588,152	-200,000	0,004	0,142
-587,138	105,626	0,041	0,035
-586,123	-200,000	-0,014	0,064
-585,109	108,191	-0,036	-0,031
-584,094	800,000	0,014	0,044
-583,079	-200,000	0,001	0,009
-582,065	13,136	0,107	0,060
-581,050	-200,000	-0,006	0,141
-580,036	3,292	-0,125	-0,066
-579,021	-200,000	-0,040	-0,140
-578,006	-200,000	-0,028	-0,185
-576,992	-200,000	0,004	0,015
-575,977	-200,000	0,006	-0,044
-574,963	800,000	0,041	-0,085
-573,948	800,000	-0,043	0,119
-572,934	-200,000	-0,019	-0,098
-571,919	166,757	0,069	0,071
-570,904	493,563	0,046	-0,077
-569,890	-200,000	-0,032	-0,146
-568,875	800,000	0,061	-0,168
-567,861	-200,000	-0,009	0,175
-566,846	6,960	-0,156	-0,084
-565,831	800,000	0,032	-0,076
-564,817	-200,000	-0,017	-0,101
-563,802	81,812	-0,052	0,041
-562,788	179,523	0,092	-0,098
-561,773	-109,445	-0,030	0,005
-560,758	-20,009	0,161	0,072
-559,744	800,000	0,030	0,077
-558,729	-38,865	0,045	0,017
-557,715	-167,772	0,114	0,003
-556,700	346,215	-0,140	-0,200
-555,685	-43,009	-0,073	-0,027
-554,671	-200,000	0,012	0,085
-553,656	800,000	0,058	-0,139
-552,642	-200,000	0,006	0,050
-551,627	-57,099	-0,067	-0,021
-550,612	-47,936	-0,079	-0,027
-549,598	97,466	-0,068	-0,056
-548,583	-12,143	-0,042	-0,020
-547,569	-200,000	0,006	0,034
-546,554	-119,873	0,091	-0,011
-545,539	-73,147	-0,105	0,028
-544,525	-124,119	0,110	0,012
-543,510	-23,502	-0,062	-0,027
-542,496	-7,594	-0,136	-0,066
-541,481	-200,000	-0,013	-0,118
-540,466	-57,719	0,008	0,002
-539,452	-105,616	0,052	0,008
-538,437	-65,553	0,090	0,026
-537,423	17,965	0,024	-0,014
-536,408	10,315	0,036	-0,019
-535,393	-119,040	-0,084	0,011
-534,379	151,439	-0,039	0,038
-533,364	477,344	0,030	-0,049
-532,350	-200,000	-0,039	0,150
-531,335	186,180	0,093	0,100
-530,321	424,724	0,083	-0,130
-529,306	74,136	-0,186	0,141
-528,291	-200,000	-0,047	0,155
-527,277	-200,000	0,009	0,045
-526,262	20,293	0,091	-0,053
-525,248	47,891	0,009	0,006
-524,233	394,328	0,022	-0,034
-523,218	72,883	-0,108	0,082
-522,204	-126,339	0,111	-0,012
-521,189	-200,000	0,005	-0,198
-520,175	5,883	-0,137	-0,073
-519,160	-59,413	0,191	0,059
-518,145	23,487	-0,036	0,021
-517,131	-200,000	-0,064	0,000
-516,116	-121,347	0,161	-0,019
-515,102	-200,000	-0,039	0,167
-514,087	468,279	-0,059	0,095
-513,072	132,691	0,122	-0,114
-512,058	39,020	-0,100	-0,064
-511,043	-200,000	-0,003	0,167
-510,029	349,203	0,025	0,035
-509,014	800,000	0,074	-0,169
-507,999	633,850	-0,040	0,073
-506,985	2,820	0,135	-0,070
-505,970	473,338	-0,042	-0,069
-504,956	22,579	-0,122	0,072
-503,941	56,402	0,028	0,019
-502,926	-137,503	0,052	0,004
-501,912	304,366	0,078	0,104
-500,897	800,000	-0,047	0,130
-499,883	360,490	-0,060	0,087
-498,868	-200,000	-0,008	-0,142
-497,853	21,217	-0,036	-0,021
-496,839	168,916	-0,102	-0,105
-495,824	312,088	0,019	-0,025
-494,810	-200,000	-0,049	0,177
-493,795	214,054	0,035	-0,040
-492,781	55,828	-0,107	-0,075
-491,766	-151,530	0,040	-0,002
-490,751	-18,324	-0,110	0,049
-489,737	-107,615	0,084	0,013
-488,722	96,593	-0,062	0,051
-487,708	6,177	0,091	0,049
-486,693	-16,217	0,064	-0,029
-485,678	144,404	-0,102	0,099
-484,664	-23,521	0,054	-0,023
-483,649	-200,000	-0,008	-0,079
-482,635	-200,000	-0,022	-0,080
-481,620	28,670	-0,103	0,063
-480,605	315,838	0,076	-0,104
-479,591	800,000	0,015	-0,041
-478,576	-49,750	-0,053	0,018
-477,562	223,651	0,053	-0,062
-476,547	-200,000	0,022	-0,077
-475,532	800,000	-0,061	-0,124
-474,518	328,872	0,081	-0,113
-473,503	-146,053	0,123	-0,008
-472,489	37,877	0,098	0,063
-471,474	-200,000	-0,071	0,000
-470,459	-194,553	-0,026	-0,000
-469,445	-200,000	0,009	-0,134
-468,430	17,090	-0,105	0,060
-467,416	221,890	-0,114	-0,133
-466,401	55,916	0,183	0,128
-465,386	448,164	0,092	0,147
-464,372	191,851	0,040	0,044
-463,357	-200,000	-0,018	0,074
-462,343	-37,161	-0,102	0,039
-461,328	-147,774	0,088	0,005
-460,313	341,725	-0,026	0,036
-459,299	182,123	0,073	0,078
-458,284	-200,000	-0,028	0,145
-457,270	776,898	0,075	-0,147
-456,255	-200,000	-0,025	-0,133
-455,241	55,951	-0,053	-0,037
-454,226	180,936	-0,113	-0,120
-453,211	40,043	-0,076	-0,049
-452,197	800,000	0,041	-0,097
-451,182	800,000	-0,020	0,048
-450,168	-70,117	0,030	0,008
-449,153	732,157	0,068	-0,131
-448,138	800,000	0,016	-0,039
-447,124	5,403	-0,108	-0,057
-446,109	-117,160	0,016	-0,002
-445,095	-132,903	0,027	0,002
-444,080	76,247	0,060	0,045
-443,065	130,007	0,134	0,124
-442,051	-78,415	0,066	0,016
-441,036	692,926	-0,034	-0,065
-440,022	-200,000	-0,011	-0,068
-439,007	800,000	-0,039	0,080
-437,992	800,000	0,022	-0,046
-436,978	800,000	-0,036	0,081
-435,963	190,799	0,124	-0,134
-434,949	-200,000	-0,012	0,048
-433,934	-158,563	0,049	0,002
-432,919	240,183	-0,049	0,059
-431,905	-27,549	-0,104	-0,043
-430,890	429,274	-0,050	-0,079
-429,876	147,638	0,140	0,136
-428,861	-71,706	0,114	0,031
-427,846	-61,300	0,135	0,041
-426,832	-200,000	-0,019	0,180
-425,817	140,832	-0,118	0,113
-424,803	-200,000	-0,015	0,138
-423,788	-200,000	-0,010	-0,074
-422,773	164,967	0,024	0,024
-421,759	-200,000	0,001	-0,005
-420,744	-200,000	-0,016	0,073
-419,730	278,820	0,087	-0,112
-418,715	800,000	-0,027	-0,061
-417,701	-200,000	0,016	-0,085
-416,686	31,508	0,084	-0,052
-415,671	800,000	0,033	-0,093
-414,657	-200,000	0,002	0,020
-413,642	-200,000	0,018	0,062
-412,628	800,000	0,017	0,038
-411,613	355,621	-0,050	0,071
-410,598	-89,340	-0,077	-0,016
-409,584	-62,787	0,093	0,027
-408,569	20,448	-0,035	-0,020
-407,555	24,120	-0,025	-0,015
-406,540	-51,570	-0,072	0,024
-405,525	523,286	0,029	-0,050
-404,511	-200,000	0,001	0,029
-403,496	-149,639	-0,061	0,003
-402,482	100,850	-0,032	0,027
-401,467	-5,530	-0,048	0,024
-400,452	-45,913	-0,007	-0,003
-399,438	-200,000	0,002	0,100
-398,423	170,318	-0,078	0,080
-397,409	-200,000	-0,021	0,105
-396,394	451,970	-0,008	-0,012
-395,379	-200,000	-0,039	-0,150
-394,365	339,893	0,010	-0,014
-393,350	-200,000	-0,015	0,054
-392,336	-45,987	-0,090	0,032
-391,321	-200,000	-0,009	0,125
-390,306	-200,000	-0,014	-0,178
-389,292	-200,000	-0,001	-0,140
-388,277	401,298	0,104	-0,157
-387,263	41,511	0,102	0,066
-386,248	-81,387	0,113	0,027
-385,233	-200,000	0,003	-0,045
-384,219	88,394	-0,056	0,044
-383,204	176,968	0,061	-0,064
-382,190	-22,227	-0,087	0,038
-381,175	98,600	-0,065	-0,054
-380,160	124,503	-0,050	0,045
-379,146	40,377	-0,176	-0,113
-378,131	91,078	0,069	0,056
-377,117	789,551	0,047	0,094
-376,102	800,000	-0,068	0,137
-375,088	617,423	0,007	-0,013
-374,073	-139,019	-0,047	0,004
-373,058	-158,106	0,050	-0,002
-372,044	800,000	0,036	0,099
-371,029	-93,383	0,079	0,016
-370,015	800,000	-0,016	-0,037
-369,000	-152,867	-0,070	-0,003
-367,985	800,000	-0,049	-0,111
-366,971	268,551	0,056	-0,070
-365,956	169,514	0,023	0,024
-364,942	-163,713	-0,061	0,002
-363,927	800,000	0,051	-0,103
-362,912	800,000	0,052	-0,131
-361,898	321,880	-0,089	0,122
-360,883	-200,000	0,007	-0,102
-359,869	114,662	-0,074	-0,065
-358,854	-200,000	0,000	-0,087
-357,839	5,811	0,182	0,097
-356,825	-200,000	-0,003	-0,021
-355,810	-200,000	0,009	0,100
-354,796	286,345	-0,054	-0,070
-353,781	87,601	-0,057	0,045
-352,766	281,234	-0,100	-0,128
-351,752	-200,000	0,021	0,100
-350,737	-200,000	-0,036	0,181
-349,723	698,456	0,065	0,123
-348,708	800,000	0,038	0,093
-347,693	-178,806	-0,158	-0,003
-346,679	-102,845	0,078	-0,013
-345,664	-200,000	0,004	0,031
-344,650	-200,000	0,018	0,063
-343,635	-23,209	0,105	0,045
-342,620	78,185	-0,062	0,047
-341,606	-200,000	0,003	-0,027
-340,591	-32,843	0,177	0,070
-339,577	203,307	0,042	0,046
-338,562	-200,000	0,016	-0,063
-337,548	-200,000	0,016	-0,159
-336,533	-150,111	0,084	0,005
-335,518	404,338	-0,068	-0,103
-334,504	800,000	0,036	0,107
-333,489	800,000	0,016	0,034
-332,475	800,000	-0,013	0,036
-331,460	-121,913	-0,130	0,015
-330,445	-200,000	0,001	-0,047
-329,431	-53,493	-0,025	-0,008
-328,416	158,647	-0,063	0,063
-327,402	-32,898	0,064	-0,025
-326,387	-148,689	-0,070	-0,004
-325,372	569,418	0,059	-0,104
-324,358	-29,311	-0,083	-0,034
-323,343	474,599	-0,013	0,021
-322,329	523,044	-0,081	0,136
-321,314	-83,603	0,128	-0,029
-320,299	800,000	0,048	0,108
-319,285	-48,724	-0,134	-0,046
-318,270	-200,000	0,015	0,063
-317,256	-110,807	-0,066	0,010
-316,241	-200,000	0,020	-0,142
-315,226	-200,000	-0,008	0,027
-314,212	143,487	0,015	0,015
-313,197	75,972	-0,072	0,054
-312,183	5,277	-0,113	-0,060
-311,168	252,092	-0,059	0,072
-310,153	800,000	-0,055	-0,138
-309,139	-68,044	-0,073	-0,020
-308,124	45,746	-0,024	-0,016
-307,110	800,000	-0,011	0,024
-306,095	-70,798	-0,059	0,016
-305,080	339,071	0,005	0,006
-304,066	-200,000	0,020	-0,068
-303,051	-162,298	0,044	-0,002
-302,037	426,050	-0,088	-0,136
-301,022	27,799	0,102	0,061
-300,008	111,852	-0,091	0,079
-298,993	-20,149	-0,010	0,004
-297,978	-35,198	0,053	-0,021
-296,964	477,596	-0,075	-0,122
-295,949	-200,000	-0,014	-0,051
-294,935	196,565	-0,044	-0,048
-293,920	-54,222	0,054	-0,018
-292,905	654,367	-0,030	-0,055
-291,891	287,014	-0,084	0,108
-290,876	800,000	-0,014	-0,028
-289,862	672,671	-0,063	-0,117
-288,847	-127,267	0,051	-0,005
-287,832	-127,117	-0,100	0,010
-286,818	-21,515	0,046	-0,020
-285,803	137,520	0,092	0,086
-284,789	-200,000	-0,007	0,035
-283,774	-92,199	0,107	0,021
-282,759	0,599	0,007	0,004
-281,745	800,000	-0,035	-0,080
-280,730	800,000	0,048	0,109
-279,716	-200,000	-0,004	0,064
-278,701	147,153	-0,049	0,047
-277,686	800,000	0,010	-0,028
-276,672	-127,313	0,108	0,011
-275,657	-18,715	-0,150	0,067
-274,643	300,337	-0,023	0,030
-273,628	18,048	-0,071	0,040
-272,613	189,064	-0,057	0,061
-271,599	800,000	0,057	0,113
-270,584	31,436	-0,059	-0,036
-269,570	26,889	0,061	0,037
-268,555	-71,299	0,034	-0,009
-267,540	211,281	0,040	-0,045
-266,526	800,000	-0,072	-0,151
-265,511	79,422	0,022	0,017
-264,497	-153,159	0,060	-0,003
-263,482	-20,862	0,074	-0,032
-262,467	800,000	0,013	0,038
-261,453	800,000	-0,055	0,109
-260,438	-130,426	0,054	-0,005
-259,424	644,750	0,032	0,059
-258,409	-159,858	0,015	-0,001
-257,395	-105,786	0,077	0,012
-256,380	767,137	0,017	0,032
-255,365	800,000	-0,030	0,065
-254,351	-200,000	0,021	0,081
-253,336	171,159	-0,018	-0,019
-252,322	-200,000	0,032	-0,127
-251,307	-200,000	0,010	-0,096
-250,292	15,852	0,168	-0,094
-249,278	-25,541	0,078	-0,033
-248,263	101,859	-0,115	-0,096
-247,249	545,984	0,024	-0,041
-246,234	-200,000	-0,028	-0,091
-245,219	532,097	-0,083	-0,140
-244,205	440,946	0,055	0,086
-243,190	-91,935	0,036	0,007
-242,176	-74,754	-0,103	0,026
-241,161	343,656	-0,037	-0,052
-240,146	-200,000	-0,020	-0,173
-239,132	118,732	-0,075	-0,066
-238,117	-200,000	0,024	-0,088
-237,103	375,844	0,116	-0,170
-236,088	142,925	0,122	0,116
-235,073	280,007	0,045	0,058
-234,059	800,000	0,011	0,026
-233,044	-93,289	0,142	0,028
-232,030	-186,560	0,135	-0,001
-231,015	800,000	-0,018	-0,055
-230,000	-47,240	0,065	0,023
-228,986	-200,000	0,004	-0,022
-227,971	-200,000	0,011	0,083
-226,957	407,775	-0,105	0,160
-225,942	139,747	-0,030	0,028
-224,927	417,685	-0,009	-0,014
-223,913	-200,000	0,005	0,132
-222,898	800,000	-0,035	-0,074
-221,884	-93,581	-0,006	-0,001
-220,869	37,167	0,075	0,047
-219,855	-200,000	-0,006	0,031
-218,840	77,739	0,119	0,090
-217,825	-4,243	0,076	0,037
-216,811	800,000	-0,023	0,048
-215,796	-72,611	-0,161	-0,042
-214,782	130,403	0,085	-0,077
-213,767	-146,566	0,151	0,009
-212,752	45,435	-0,047	-0,031
-211,738	262,035	0,071	-0,088
-210,723	-200,000	0,017	0,064
-209,709	-44,154	-0,058	-0,021
-208,694	226,972	-0,027	-0,031
-207,679	-140,444	-0,023	-0,002
-206,665	-200,000	0,003	0,103
-205,650	28,645	0,113	-0,068
-204,636	266,891	-0,039	-0,049
-203,621	303,956	-0,037	-0,050
-202,606	237,055	0,018	-0,021
-201,592	-200,000	-0,037	-0,119
-200,577	256,760	0,095	-0,117
-199,563	83,141	0,017	0,013
-198,548	258,214	0,051	0,062
-197,533	-200,000	-0,001	0,082
-196,519	50,848	0,067	0,045
-195,504	145,701	0,097	0,093
-194,490	53,971	-0,069	0,047
-193,475	-21,357	-0,108	-0,047
-192,460	800,000	0,039	-0,096
-191,446	129,785	-0,039	-0,036
-190,431	-29,849	0,076	0,031
-189,417	-200,000	0,014	0,131
-188,402	387,348	-0,069	0,101
-187,387	12,889	-0,110	-0,061
-186,373	-200,000	-0,005	-0,157
-185,358	800,000	0,050	0,099
-184,344	-200,000	-0,015	0,097
-183,329	209,161	0,053	0,059
-182,315	0,448	-0,046	0,023
-181,300	0,568	-0,034	0,017
-180,285	-158,359	-0,073	-0,003
-179,271	-74,639	0,039	0,010
-178,256	-5,032	-0,022	0,011
-177,242	-200,000	-0,035	-0,128
-176,227	-57,592	0,008	-0,003
-175,212	-114,383	0,067	0,009
-174,198	166,199	0,049	0,049
-173,183	800,000	-0,033	-0,086
-172,169	-200,000	0,005	-0,105
-171,154	791,860	0,067	-0,132
-170,139	-194,407	-0,149	0,001
-169,125	744,118	0,045	0,087
-168,110	800,000	-0,031	0,080
-167,096	-57,971	-0,082	0,025
-166,081	-27,897	-0,055	0,023
-165,066	24,771	-0,083	0,049
-164,052	205,769	0,024	0,027
-163,037	222,800	0,099	0,114
-162,023	-110,326	0,101	0,015
-161,008	-80,371	0,024	0,006
-159,993	-200,000	-0,044	0,153
-158,979	-55,885	-0,023	0,007
-157,964	-21,727	-0,080	-0,035
-156,950	-61,239	-0,078	0,023
-155,935	167,297	0,075	0,076
-154,920	-155,743	-0,061	-0,003
-153,906	-101,465	0,157	-0,027
-152,891	-136,719	0,059	0,005
-151,877	800,000	0,022	0,066
-150,862	800,000	0,065	0,169
-149,847	-82,510	-0,147	0,034
-148,833	708,863	0,098	0,185
-147,818	-200,000	0,002	-0,009
-146,804	-200,000	-0,009	0,044
-145,789	-60,005	-0,190	-0,057
-144,775	-39,024	0,057	0,021
-143,760	-108,730	-0,152	-0,023
-142,745	54,581	-0,080	-0,055
-141,731	-28,150	0,007	0,003
-140,716	494,709	0,026	-0,043
-139,702	-50,657	0,095	0,031
-138,687	-200,000	-0,017	-0,090
-137,672	3,013	0,015	0,008
-136,658	-131,209	-0,108	-0,010
-135,643	620,696	-0,058	-0,104
-134,629	-108,072	0,013	0,002
-133,614	-200,000	-0,011	0,087
-132,599	360,362	0,064	-0,092
-131,585	128,444	0,050	-0,046
-130,570	66,106	-0,082	0,059
-129,556	-200,000	0,016	0,138
-128,541	-200,000	0,008	-0,043
-127,526	387,197	-0,079	-0,117
-126,512	700,657	0,036	0,067
-125,497	-145,574	0,098	0,006
-124,483	-200,000	0,012	0,104
-123,468	-200,000	-0,003	0,118
-122,453	-17,389	-0,040	-0,018
-121,439	35,767	-0,062	0,039
-120,424	-97,690	-0,021	0,004
-119,410	800,000	0,037	0,110
-118,395	-124,039	-0,143	0,016
-117,380	800,000	-0,051	-0,139
-116,366	-4,436	-0,118	-0,058
-115,351	123,537	0,081	0,073
-114,337	681,888	0,026	0,048
-113,322	-115,711	-0,003	0,000
-112,307	412,117	0,060	0,091
-111,293	-43,235	-0,031	-0,011
-110,278	-133,471	0,053	-0,005
-109,264	70,909	0,055	0,041
-108,249	9,751	-0,049	-0,026
-107,234	-18,372	-0,055	-0,024
-106,220	56,515	0,165	0,114
-105,205	-200,000	-0,001	0,138
-104,191	800,000	-0,024	0,075
-103,176	567,966	0,068	0,118
-102,162	84,585	-0,075	0,059
-101,147	45,824	-0,067	0,044
-100,132	18,456	-0,063	-0,036
-99,118	-69,649	-0,045	-0,012
-98,103	-12,977	-0,054	-0,025
-97,089	43,815	0,084	-0,055
-96,074	-46,681	0,073	0,025
-95,059	800,000	0,077	0,156
-94,045	-104,582	0,046	0,008
-93,030	-200,000	-0,025	-0,091
-92,016	-200,000	-0,002	-0,066
-91,001	800,000	0,061	0,169
-89,986	-2,699	-0,026	-0,013
-88,972	46,338	0,140	0,092
-87,957	192,601	0,070	0,075
-86,943	-113,948	-0,095	0,013
-85,928	-200,000	-0,021	0,155
-84,913	-200,000	-0,007	-0,061
-83,899	-200,000	0,030	-0,240
-82,884	-84,217	-0,143	-0,032
-81,870	-1,877	0,052	-0,026
-80,855	-102,075	-0,079	0,013
-79,840	800,000	-0,044	0,131
-78,826	800,000	-0,047	0,113
-77,811	18,578	-0,104	-0,059
-76,797	333,075	0,078	-0,107
-75,782	317,840	0,039	-0,053
-74,767	105,942	-0,037	0,031
-73,753	153,517	0,018	-0,017
-72,738	200,212	0,115	0,125
-71,724	538,383	-0,045	-0,077
-70,709	-200,000	0,006	0,056
-69,694	-200,000	0,001	0,094
-68,680	800,000	0,056	-0,132
-67,665	17,921	0,078	0,044
-66,651	-200,000	0,017	-0,075
-65,636	-200,000	0,012	0,162
-64,622	-58,420	-0,114	-0,035
-63,607	800,000	0,037	0,082
-62,592	-102,043	-0,047	-0,008
-61,578	800,000	0,052	0,109
-60,563	-200,000	-0,021	0,121
-59,549	-115,862	0,060	-0,008
-58,534	-54,633	-1,546	-0,493
-57,519	421,443	-1,445	-2,206
-56,505	-200,000	-0,542	-4,384
-55,490	77,078	1,052	0,792
-54,476	800,000	4,809	11,310
-53,461	-200,000	18,019	284,706
-52,446	800,000	725,474	2224,853
-51,432	557,959	1640,637	2817,640
-50,417	79,807	1662,307	1265,290
-49,403	23,292	1536,001	892,798
-48,388	17,293	1459,446	819,275
-47,373	18,008	1449,215	816,939
-46,359	17,532	1439,764	809,301
-45,344	15,545	1435,157	797,200
-44,330	15,449	1433,299	795,678
-43,315	15,522	1431,524	795,013
-42,300	15,504	1430,024	794,061
-41,286	15,517	1428,767	793,391
-40,271	15,526	1427,387	792,638
-39,257	15,440	1426,477	791,695
-38,242	15,553	1424,743	791,234
-37,227	15,566	1423,413	790,527
-36,213	15,542	1422,345	789,788
-35,198	15,531	1421,087	789,008
-34,184	15,573	1420,353	788,764
-33,169	15,493	1419,116	787,669
-32,154	15,545	1417,983	787,257
-31,140	15,549	1416,611	786,483
-30,125	15,549	1415,603	785,892
-29,111	15,546	1414,521	785,244
-28,096	15,540	1413,319	784,516
-27,082	15,491	1412,078	783,569
-26,067	15,456	1411,064	782,812
-25,052	15,455	1410,213	782,301
-24,038	15,447	1409,025	781,574
-23,023	15,398	1408,140	780,822
-22,009	15,411	1407,073	780,260
-20,994	15,366	1406,353	779,620
-19,979	15,445	1405,090	779,257
-18,965	15,362	1404,110	778,297
-17,950	15,346	1403,460	777,833
-16,936	15,354	1402,607	777,366
-15,921	15,353	1401,140	776,518
-14,906	15,344	1399,996	775,808
-13,892	15,313	1399,391	775,301
-12,877	15,309	1398,665	774,848
-11,863	15,316	1397,707	774,318
-10,848	15,321	1396,757	773,785
-9,833	15,339	1395,690	773,246
-8,819	15,265	1394,705	772,326
-7,804	15,272	1393,896	771,881
-6,790	15,260	1392,780	771,178
-5,775	15,221	1391,787	770,418
-4,760	15,240	1391,036	770,058
-3,746	15,250	1390,139	769,577
-2,731	15,255	1389,204	769,052
-1,717	15,205	1388,426	768,360
-0,702	15,205	1386,851	767,459
0,313	19,131	1306,474	741,106
1,327	35,594	707,087	439,304
2,342	54,500	124,941	85,208
3,356	3,107	16,602	8,527
4,371	6,200	3,096	1,622
5,386	-32,042	0,424	0,167
6,400	80,902	0,089	0,068
7,415	83,755	-0,271	-0,210
8,429	174,929	-0,216	-0,222
9,444	148,751	-0,257	-0,246
10,459	438,705	-0,136	-0,211
11,473	-14,604	-0,330	-0,150
12,488	-71,919	-0,157	-0,041
13,502	-2,915	-0,346	-0,171
14,517	-0,197	-0,207	-0,104
15,531	84,151	-0,445	-0,344
16,546	35,066	-0,355	-0,220
17,561	120,230	-0,359	-0,315
18,575	-88,006	-0,154	0,032
19,590	-2,776	-0,241	-0,119
20,604	-180,368	-0,230	0,003
21,619	27,461	-0,485	-0,288
22,634	38,513	-0,490	-0,308
23,648	61,498	-0,359	-0,252
24,663	148,458	-0,266	-0,255
25,677	95,274	-0,466	-0,375
26,692	48,987	-0,299	-0,198
27,707	65,062	-0,339	-0,242
28,721	-44,004	-0,431	-0,152
29,736	61,371	-0,375	-0,263
30,750	103,258	-0,424	-0,351
31,765	69,680	-0,317	-0,230
32,780	800,000	-0,133	-0,334
33,794	153,362	-0,409	-0,396
34,809	23,095	-0,394	-0,228
35,823	86,068	-0,354	-0,275
36,838	-16,492	-0,485	-0,216
37,853	112,649	-0,429	-0,367
38,867	103,715	-0,300	-0,249
39,882	34,837	-0,434	-0,268
40,896	68,193	-0,334	-0,242
41,911	14,195	-0,396	-0,217
42,926	1,388	-0,420	-0,213
43,940	191,974	-0,266	-0,283
44,955	725,291	-0,172	-0,325
45,969	148,502	-0,335	-0,320
46,984	36,565	-0,266	-0,165
47,999	-44,330	-0,318	-0,112
49,013	28,603	-0,242	-0,144
50,028	189,982	-0,236	-0,251
51,042	113,451	-0,320	-0,275
52,057	21,767	-0,410	-0,235
53,071	303,627	-0,306	-0,401
54,086	80,511	-0,424	-0,322
55,101	301,963	-0,281	-0,367
56,115	60,554	-0,280	-0,195
57,130	248,787	-0,332	-0,398
58,144	48,842	-0,421	-0,278
59,159	12,113	-0,351	-0,190
60,174	-18,790	-0,368	-0,161
61,188	105,646	-0,401	-0,334
62,203	34,605	-0,169	-0,104
63,217	47,368	-0,302	-0,198
64,232	100,231	-0,299	-0,245
65,247	133,258	-0,277	-0,253
66,261	119,292	-0,341	-0,297
67,276	93,356	-0,408	-0,325
68,290	-34,951	-0,398	-0,152
69,305	89,849	-0,275	-0,217
70,320	-15,515	-0,392	-0,176
71,334	24,251	-0,350	-0,203
72,349	14,489	-0,294	-0,161
73,363	70,627	-0,411	-0,299
74,378	21,740	-0,391	-0,224
75,393	-141,013	-0,359	-0,026
76,407	-64,267	-0,324	-0,092
77,422	-31,709	-0,229	-0,090
78,436	-3,863	-0,419	-0,204
79,451	65,685	-0,308	-0,219
80,466	33,515	-0,336	-0,205
81,480	305,262	-0,274	-0,359
82,495	-48,908	-0,398	-0,134
83,509	1,258	-0,392	-0,197
84,524	-176,170	-0,229	-0,004
85,539	103,464	-0,189	-0,156
86,553	184,139	-0,271	-0,282
87,568	24,635	-0,319	-0,185
88,582	-80,153	-0,347	-0,081
89,597	-16,837	-0,429	-0,190
90,611	318,587	-0,192	-0,257
91,626	157,893	-0,299	-0,291
92,641	-136,012	-0,224	-0,018
93,655	113,625	-0,326	-0,279
94,670	608,033	-0,158	-0,279
95,684	164,040	-0,251	-0,249
96,699	5,225	-0,284	-0,147
97,714	84,764	-0,316	-0,243
98,728	-125,218	-0,146	-0,015
99,743	3,619	-0,247	-0,126
100,757	-101,253	-0,283	-0,048
101,772	-16,632	-0,316	-0,140
102,787	46,176	-0,384	-0,250
103,801	65,663	-0,310	-0,220
104,816	-69,262	-0,335	-0,090
105,830	147,000	-0,247	-0,233
106,845	0,650	-0,272	-0,136
107,860	11,729	-0,329	-0,177
108,874	800,000	-0,121	-0,248
109,889	219,507	-0,255	-0,286
110,903	10,847	-0,368	-0,196
111,918	73,609	-0,320	-0,235
112,933	-5,911	-0,299	-0,143
113,947	172,592	-0,253	-0,255
114,962	35,299	-0,230	-0,141
115,976	562,596	-0,164	-0,279
116,991	800,000	-0,173	-0,343
118,006	87,705	-0,356	-0,277
119,020	131,423	-0,278	-0,250
120,035	224,297	-0,220	-0,249
121,049	-26,866	-0,224	-0,091
122,064	23,873	-0,202	-0,116
123,079	-77,990	-0,267	-0,064
124,093	138,212	-0,292	-0,269
125,108	186,369	-0,313	-0,327
126,122	-27,577	-0,201	-0,082
127,137	89,206	-0,094	-0,073
128,151	35,119	-0,218	-0,134
129,166	161,153	-0,161	-0,157
130,181	137,054	-0,308	-0,282
131,195	149,915	-0,258	-0,246
132,210	64,747	-0,294	-0,207
133,224	-42,196	-0,256	-0,091
134,239	-63,211	-0,319	-0,092
135,254	-1,094	-0,172	-0,085
136,268	255,059	-0,190	-0,228
137,283	3,699	-0,353	-0,180
138,297	30,078	-0,357	-0,213
139,312	150,104	-0,251	-0,238
140,327	68,212	-0,292	-0,209
141,341	178,293	-0,221	-0,226
142,356	103,969	-0,259	-0,213
143,370	553,655	-0,146	-0,247
144,385	54,432	-0,314	-0,211
145,400	134,291	-0,270	-0,245
146,414	130,178	-0,291	-0,261
147,429	165,383	-0,241	-0,238
148,443	93,174	-0,194	-0,153
149,458	16,196	-0,302	-0,166
150,473	235,464	-0,220	-0,254
151,487	265,875	-0,141	-0,173
152,502	-18,863	-0,206	-0,089
153,516	22,116	-0,377	-0,215
154,531	41,200	-0,272	-0,172
155,546	223,012	-0,254	-0,287
156,560	462,284	-0,163	-0,256
157,575	269,042	-0,119	-0,146
158,589	57,488	-0,247	-0,169
159,604	65,731	-0,221	-0,156
160,619	26,707	-0,162	-0,095
161,633	187,997	-0,160	-0,168
162,648	618,569	-0,231	-0,408
163,662	-148,722	-0,140	-0,008
164,677	178,120	-0,095	-0,097
165,692	370,168	-0,166	-0,235
166,706	14,813	-0,226	-0,123
167,721	171,796	-0,199	-0,200
168,735	-78,682	-0,202	-0,048
169,750	-78,106	-0,280	-0,067
170,764	88,714	-0,201	-0,156
171,779	-121,348	-0,244	-0,028
172,794	-17,678	-0,230	-0,100
173,808	603,226	-0,069	-0,121
174,823	144,276	-0,164	-0,153
175,837	110,673	-0,300	-0,252
176,852	155,980	-0,247	-0,238
177,867	105,555	-0,213	-0,176
178,881	101,975	-0,286	-0,233
179,896	88,965	-0,203	-0,158
180,910	137,955	-0,180	-0,165
181,925	126,143	-0,202	-0,178
182,940	127,999	-0,266	-0,236
183,954	-24,318	-0,189	-0,078
184,969	14,168	-0,231	-0,125
185,983	6,233	-0,257	-0,133
186,998	192,713	-0,197	-0,208
188,013	56,935	-0,236	-0,160
189,027	-53,728	-0,273	-0,086
190,042	397,276	-0,126	-0,184
191,056	56,896	-0,232	-0,158
192,071	121,189	-0,196	-0,170
193,086	-68,128	-0,260	-0,070
194,100	97,846	-0,253	-0,203
195,115	281,644	-0,199	-0,249
196,129	800,000	-0,115	-0,238
197,144	117,142	-0,150	-0,128
198,159	244,121	-0,245	-0,287
199,173	-81,950	-0,209	-0,047
200,188	-63,090	-0,223	-0,064
201,202	68,601	-0,189	-0,135
202,217	90,121	-0,206	-0,161
203,232	-39,259	-0,274	-0,100
204,246	167,540	-0,201	-0,199
205,261	102,713	-0,287	-0,234
206,275	242,306	-0,083	-0,097
207,290	10,526	-0,166	-0,088
208,304	41,269	-0,191	-0,120
209,319	-47,505	-0,157	-0,053
210,334	-200,000	-0,033	-0,135
211,348	84,799	-0,178	-0,136
212,363	140,850	-0,301	-0,277
213,377	-22,473	-0,129	-0,054
214,392	-200,000	-0,041	-0,176
215,407	-45,395	-0,245	0,084
216,421	6,568	-0,299	-0,154
217,436	156,138	-0,246	-0,236
218,450	800,000	-0,137	-0,289
219,465	800,000	-0,074	-0,189
220,480	131,659	-0,216	-0,193
221,494	408,304	-0,172	-0,254
222,509	-39,242	-0,234	-0,085
223,523	160,199	-0,233	-0,226
224,538	172,512	-0,204	-0,205
225,553	321,394	-0,184	-0,244
226,567	496,316	-0,120	-0,192
227,582	226,560	-0,246	-0,278
228,596	282,135	-0,169	-0,211
229,611	229,782	-0,118	-0,134
230,626	478,214	-0,067	-0,106
231,640	71,215	-0,244	-0,176
232,655	105,666	-0,274	-0,225
233,669	396,127	-0,098	-0,142
234,684	800,000	-0,111	-0,217
235,699	-21,401	-0,291	-0,123
236,713	599,614	-0,060	-0,104
237,728	534,804	-0,159	-0,263
238,742	592,099	-0,058	-0,100
239,757	69,109	-0,280	-0,199
240,772	190,503	-0,143	-0,150
241,786	298,422	-0,205	-0,262
242,801	623,925	-0,140	-0,246
243,815	121,199	-0,062	-0,053
244,830	364,489	-0,132	-0,184
245,844	-22,940	-0,201	-0,084
246,859	147,185	-0,222	-0,207
247,874	167,087	-0,161	-0,159
248,888	659,214	-0,163	-0,292
249,903	-89,776	-0,114	-0,023
250,917	-52,227	-0,263	-0,084
251,932	526,752	-0,100	-0,164
252,947	-120,732	-0,126	0,015
253,961	-106,449	-0,217	-0,033
254,976	258,140	-0,116	-0,139
255,990	88,478	-0,220	-0,170
257,005	253,951	-0,057	-0,068
258,020	45,759	-0,137	0,088
259,034	-95,426	-0,114	-0,021
260,049	-29,820	-0,149	-0,058
261,063	31,155	-0,277	-0,164
262,078	93,109	-0,110	-0,086
263,093	249,831	-0,177	-0,208
264,107	69,460	-0,151	-0,107
265,122	553,146	-0,089	-0,148
266,136	-200,000	-0,034	-0,151
267,151	103,136	-0,190	-0,154
268,166	-100,546	-0,126	-0,021
269,180	32,653	-0,195	-0,117
270,195	243,866	-0,155	-0,180
271,209	-98,496	-0,181	-0,032
272,224	172,367	-0,180	-0,179
273,239	800,000	-0,054	-0,131
274,253	101,126	-0,115	-0,093
275,268	-103,597	-0,210	-0,034
276,282	48,758	-0,251	-0,162
277,297	-32,303	-0,120	-0,046
278,312	548,251	-0,146	-0,244
279,326	265,747	-0,109	-0,132
280,341	-59,183	-0,089	-0,026
281,355	800,000	0,026	-0,080
282,370	132,040	-0,110	-0,098
283,384	23,124	-0,196	-0,111
284,399	-200,000	-0,010	-0,230
285,414	79,789	-0,227	-0,169
286,428	800,000	-0,046	-0,130
287,443	-33,644	-0,159	-0,060
288,457	-16,520	-0,121	-0,053
289,472	-194,287	-0,306	-0,002
290,487	-0,139	-0,193	-0,095
291,501	-50,824	-0,291	-0,094
292,516	800,000	-0,062	-0,187
293,530	104,453	-0,234	-0,190
294,545	51,020	-0,061	-0,040
295,560	254,900	-0,116	-0,137
296,574	176,574	-0,118	-0,119
297,589	111,128	-0,196	-0,163
298,603	116,331	-0,241	-0,204
299,618	-94,875	-0,211	-0,039
300,633	184,274	-0,099	-0,102
301,647	36,154	-0,013	0,008
302,662	58,392	-0,086	-0,058
303,676	-54,105	-0,112	-0,035
304,691	220,183	-0,049	-0,055
305,706	307,690	-0,148	-0,191
306,720	22,836	-0,178	-0,100
307,735	-79,441	-0,192	-0,044
308,749	254,428	-0,099	-0,117
309,764	-200,000	0,002	0,073
310,779	-200,000	0,011	-0,131
311,793	-200,000	0,012	-0,125
312,808	-22,077	-0,169	-0,071
313,822	110,450	-0,176	-0,146
314,837	800,000	-0,037	-0,101
315,852	80,047	-0,119	-0,088
316,866	258,534	-0,115	-0,137
317,881	800,000	-0,040	-0,083
318,895	164,585	-0,209	-0,203
319,910	263,736	-0,126	-0,152
320,925	800,000	-0,126	-0,281
321,939	-36,747	-0,172	-0,063
322,954	-5,234	-0,111	-0,053
323,968	-164,150	-0,105	-0,003
324,983	103,012	-0,156	-0,126
325,997	-42,377	-0,171	-0,060
327,012	-42,495	-0,188	-0,066
328,027	60,300	-0,125	-0,085
329,041	3,268	-0,152	-0,076
330,056	58,655	-0,187	-0,126
331,070	24,693	-0,155	-0,088
332,085	-143,661	-0,120	0,008
333,100	-141,018	-0,151	-0,011
334,114	209,370	-0,118	-0,127
335,129	65,414	-0,218	-0,151
336,143	70,378	-0,068	-0,048
337,158	60,305	-0,064	-0,043
338,173	465,567	-0,107	-0,165
339,187	-95,524	-0,139	-0,025
340,202	-66,966	-0,153	-0,041
341,216	148,717	-0,150	-0,140
342,231	40,127	-0,197	-0,122
343,246	580,548	-0,089	-0,150
344,260	-12,701	-0,247	-0,111
345,275	383,759	-0,073	-0,104
346,289	-200,000	-0,032	-0,136
347,304	-106,521	-0,105	-0,016
348,319	-200,000	-0,083	-0,279
349,333	162,875	-0,240	-0,231
350,348	478,637	-0,077	-0,121
351,362	-200,000	-0,014	0,103
352,377	248,619	-0,174	-0,203
353,392	151,733	0,029	-0,027
354,406	683,492	-0,026	-0,047
355,421	209,406	1313,191	1415,844
356,435	161,168	1473,749	1416,359
