DTS Sentinel unit serial number:	SN410029Multiplexer serial number:	ORYXHardware model number:	OX2-SRSoftware version number:	ORYX F/W v4,00 Oryx Data Collector v3.7.2.0data status	okinstallation	B3 Nyhavnadifferential loss correction	single-endedforward channel	channel 1reverse channel	N/Adate	2023/12/04time	05:42:30forward acquisition time	300,00reverse acquisition time	0,00gamma	499,1914k internal	0,3206k external	0,3206temperature offset calibration	1,0000default loss term (dB/km)	0,3820temperature slope calibration	1,0000multiplexer offset coefficient	1,0000multiplexer slope coefficient	1,0000fibre end	0,00T internal ref (°C)	12,02T ext. ref 1 (°C)	-2,91T ext. ref 2 (°C)	-2,92length (m)	temperature (°C)	Stokes	anti-Stokes-744,400	411,845	-0,217	-0,336
-743,385	800,000	-0,098	0,200
-742,371	111,558	-0,128	-0,112
-741,356	-200,000	-0,076	0,411
-740,342	29,538	-0,203	-0,125
-739,327	800,000	0,053	0,170
-738,312	221,435	-0,161	-0,188
-737,298	-200,000	0,001	0,201
-736,283	800,000	-0,102	-0,228
-735,269	-200,000	-0,022	0,249
-734,254	141,257	-0,162	-0,156
-733,239	34,682	-0,221	0,140
-732,225	-200,000	0,036	-0,194
-731,210	4,058	0,111	0,059
-730,196	-24,781	0,094	-0,041
-729,181	-200,000	-0,008	-0,127
-728,167	-117,745	0,013	0,002
-727,152	409,564	-0,054	0,084
-726,137	-156,674	-0,137	-0,006
-725,123	-200,000	-0,033	-0,188
-724,108	-200,000	0,033	-0,127
-723,094	-200,000	0,004	0,038
-722,079	86,476	-0,101	-0,081
-721,064	-67,809	0,145	0,041
-720,050	-51,520	0,142	-0,048
-719,035	-200,000	0,017	-0,076
-718,021	-139,115	-0,141	0,011
-717,006	136,564	-0,123	-0,117
-715,991	-42,264	-0,025	0,009
-714,977	-66,241	-0,078	0,022
-713,962	800,000	-0,063	-0,145
-712,948	-7,719	0,100	0,049
-711,933	97,910	0,082	-0,069
-710,918	5,977	-0,107	0,057
-709,904	272,777	-0,062	0,079
-708,889	-29,357	0,133	-0,055
-707,875	-91,189	-0,103	0,021
-706,860	-68,102	-0,154	-0,043
-705,845	-200,000	0,005	0,103
-704,831	98,469	-0,108	-0,090
-703,816	181,912	0,076	0,081
-702,802	-57,561	-0,088	0,028
-701,787	-200,000	0,000	-0,007
-700,772	469,583	-0,051	-0,084
-699,758	198,462	-0,098	0,109
-698,743	328,007	0,127	-0,177
-697,729	-200,000	-0,005	0,109
-696,714	-200,000	-0,016	0,144
-695,699	-89,794	-0,180	-0,038
-694,685	-200,000	-0,011	-0,036
-693,670	43,350	-0,112	0,074
-692,656	-200,000	0,007	0,038
-691,641	385,185	-0,006	0,009
-690,627	-4,918	0,037	-0,019
-689,612	-71,914	0,060	0,016
-688,597	-58,053	-0,075	0,024
-687,583	-200,000	-0,033	0,159
-686,568	-200,000	0,012	-0,075
-685,554	-200,000	-0,025	-0,112
-684,539	-128,920	0,069	0,007
-683,524	-79,230	0,055	0,013
-682,510	-66,226	-0,089	0,025
-681,495	-76,011	0,044	-0,011
-680,481	106,123	0,091	-0,078
-679,466	99,579	-0,155	0,130
-678,451	-172,161	-0,178	-0,004
-677,437	3,567	0,064	0,034
-676,422	-200,000	-0,022	-0,150
-675,408	800,000	0,037	0,092
-674,393	-200,000	0,005	-0,119
-673,378	182,616	-0,125	-0,134
-672,364	-57,422	-0,145	0,046
-671,349	-109,112	-0,123	0,019
-670,335	-118,737	-0,081	-0,010
-669,320	800,000	0,039	0,121
-668,305	-200,000	0,003	0,076
-667,291	-200,000	0,002	-0,065
-666,276	800,000	0,031	-0,083
-665,262	-55,960	-0,084	0,027
-664,247	340,733	0,044	-0,063
-663,232	77,140	-0,089	-0,068
-662,218	-40,696	-0,016	-0,006
-661,203	-60,689	-0,020	0,006
-660,189	260,220	-0,069	-0,086
-659,174	546,714	-0,015	-0,025
-658,159	96,451	-0,057	0,047
-657,145	136,931	-0,115	-0,109
-656,130	-34,336	0,105	0,042
-655,116	800,000	0,027	-0,075
-654,101	-200,000	0,006	0,155
-653,086	-200,000	-0,021	0,125
-652,072	-200,000	0,015	0,056
-651,057	304,431	-0,033	-0,044
-650,043	-144,576	-0,097	0,006
-649,028	-99,979	-0,068	-0,012
-648,014	-200,000	0,013	0,103
-646,999	-99,782	-0,067	-0,012
-645,984	-200,000	-0,016	0,065
-644,970	-35,045	0,030	-0,012
-643,955	-200,000	-0,033	-0,110
-642,941	-200,000	-0,031	-0,149
-641,926	470,830	-0,053	0,086
-640,911	55,208	0,081	-0,057
-639,897	315,097	-0,051	-0,070
-638,882	-42,122	-0,097	-0,036
-637,868	-39,087	0,106	0,040
-636,853	-200,000	0,001	-0,062
-635,838	-200,000	0,002	0,052
-634,824	16,655	-0,167	-0,095
-633,809	176,997	0,082	-0,087
-632,795	800,000	0,060	0,139
-631,780	332,970	-0,079	0,110
-630,765	-200,000	-0,006	0,083
-629,751	154,850	-0,090	0,089
-628,736	800,000	-0,004	0,012
-627,722	-94,365	-0,012	0,002
-626,707	531,431	-0,013	0,022
-625,692	-200,000	-0,018	0,094
-624,678	133,747	-0,087	0,082
-623,663	-21,618	0,096	0,042
-622,649	-123,778	-0,218	-0,025
-621,634	-200,000	0,002	0,006
-620,619	47,109	-0,037	-0,025
-619,605	-49,038	-0,044	-0,015
-618,590	-97,593	0,090	-0,017
-617,576	-129,410	0,056	0,006
-616,561	-9,234	0,042	0,020
-615,546	-169,904	-0,142	0,004
-614,532	464,494	0,053	0,086
-613,517	-26,504	-0,114	-0,048
-612,503	450,901	-0,027	-0,043
-611,488	205,073	-0,080	-0,090
-610,474	31,192	0,054	0,033
-609,459	-135,092	-0,167	-0,014
-608,444	-1,061	-0,096	-0,049
-607,430	653,289	-0,086	-0,161
-606,415	96,614	0,042	0,035
-605,401	24,048	0,071	0,042
-604,386	347,822	0,015	0,021
-603,371	-200,000	-0,023	0,083
-602,357	129,458	0,010	-0,009
-601,342	-200,000	-0,002	-0,013
-600,328	-122,906	-0,019	-0,002
-599,313	119,566	-0,043	-0,039
-598,298	598,835	0,029	-0,052
-597,284	-200,000	0,016	0,052
-596,269	-30,124	0,148	0,060
-595,255	-55,830	-0,141	0,045
-594,240	-200,000	0,001	-0,076
-593,225	11,157	0,047	-0,026
-592,211	-33,632	0,121	0,048
-591,196	203,556	-0,082	0,092
-590,182	531,462	0,036	0,061
-589,167	69,097	-0,048	0,036
-588,152	-27,236	0,103	0,043
-587,138	-200,000	0,001	-0,056
-586,123	-200,000	0,014	-0,078
-585,109	476,432	0,027	-0,045
-584,094	-142,182	-0,135	0,009
-583,079	-25,085	0,114	-0,048
-582,065	-128,614	0,104	-0,010
-581,050	-200,000	-0,000	0,036
-580,036	-200,000	0,033	-0,150
-579,021	-145,542	-0,211	-0,013
-578,006	-200,000	0,020	-0,068
-576,992	800,000	-0,031	-0,087
-575,977	-200,000	-0,001	0,075
-574,963	-6,323	0,106	-0,052
-573,948	55,358	0,080	0,055
-572,934	-61,302	-0,107	-0,032
-571,919	-100,113	-0,116	0,021
-570,904	-89,024	-0,073	0,015
-569,890	800,000	-0,045	-0,109
-568,875	95,182	0,081	0,067
-567,861	52,211	0,091	-0,063
-566,846	8,779	-0,086	0,046
-565,831	-200,000	0,018	-0,173
-564,817	-58,563	-0,116	-0,036
-563,802	-99,317	-0,113	0,020
-562,788	-81,376	-0,203	0,048
-561,773	91,307	0,051	-0,041
-560,758	119,530	0,070	-0,062
-559,744	155,693	-0,010	-0,010
-558,729	-45,494	0,106	0,038
-557,715	320,901	0,050	-0,068
-556,700	193,621	0,057	-0,062
-555,685	159,729	-0,053	0,053
-554,671	-11,897	0,088	0,042
-553,656	-80,118	-0,090	-0,022
-552,642	-3,578	0,058	0,029
-551,627	509,732	0,065	0,110
-550,612	-31,569	-0,061	0,025
-549,598	-50,173	-0,065	-0,022
-548,583	-200,000	0,019	-0,130
-547,569	176,267	0,074	-0,077
-546,554	800,000	0,035	-0,078
-545,539	64,925	-0,087	-0,063
-544,525	800,000	0,042	0,099
-543,510	-68,892	0,182	-0,050
-542,496	93,544	-0,095	0,077
-541,481	288,795	-0,073	-0,096
-540,466	-157,431	-0,065	-0,003
-539,452	-172,433	-0,053	0,001
-538,437	800,000	-0,014	0,045
-537,423	-103,171	0,099	-0,017
-536,408	-200,000	-0,002	0,034
-535,393	469,839	-0,096	-0,157
-534,379	131,926	-0,157	0,146
-533,364	108,052	-0,198	-0,170
-532,350	-0,165	0,057	0,029
-531,335	-111,841	0,108	-0,016
-530,321	27,337	-0,094	-0,057
-529,306	-200,000	0,007	0,081
-528,291	-200,000	-0,021	-0,072
-527,277	-177,709	-0,115	-0,002
-526,262	-82,657	-0,049	-0,011
-525,248	299,134	0,083	-0,111
-524,233	-200,000	0,019	-0,067
-523,218	-59,846	-0,138	0,042
-522,204	-163,938	-0,060	0,002
-521,189	-122,029	-0,104	-0,012
-520,175	-141,199	-0,113	-0,008
-519,160	78,640	-0,019	-0,015
-518,145	67,933	0,084	0,062
-517,131	181,684	0,015	0,016
-516,116	7,362	0,123	0,066
-515,102	-200,000	0,019	0,102
-514,087	230,291	-0,031	0,037
-513,072	-200,000	-0,026	-0,100
-512,058	-200,000	-0,001	-0,106
-511,043	141,475	-0,080	-0,076
-510,029	-3,135	0,121	0,061
-509,014	-200,000	0,000	0,035
-507,999	0,821	-0,128	0,066
-506,985	-200,000	-0,016	0,107
-505,970	-64,435	0,056	-0,016
-504,956	-53,228	-0,151	-0,050
-503,941	-172,962	0,071	0,002
-502,926	-133,896	0,097	-0,009
-501,912	-42,048	0,099	0,036
-500,897	800,000	-0,012	-0,032
-499,883	-200,000	-0,006	-0,068
-498,868	800,000	0,052	-0,145
-497,853	-200,000	0,024	-0,134
-496,839	-120,341	0,162	0,020
-495,824	-104,769	0,143	-0,023
-494,810	-91,172	-0,087	-0,018
-493,795	68,186	-0,044	0,033
-492,781	-76,191	-0,015	0,004
-491,766	-43,670	-0,110	-0,040
-490,751	-200,000	-0,031	-0,127
-489,737	-26,011	0,103	-0,043
-488,722	123,890	0,163	0,147
-487,708	151,890	0,078	0,076
-486,693	-29,553	-0,068	0,028
-485,678	-200,000	0,002	0,151
-484,664	800,000	0,020	0,060
-483,649	309,962	-0,034	-0,046
-482,635	76,778	0,074	-0,056
-481,620	-147,576	0,082	0,005
-480,605	68,627	0,041	0,030
-479,591	-200,000	0,015	0,135
-478,576	99,253	0,087	-0,072
-477,562	-97,210	0,038	-0,007
-476,547	-32,262	0,048	0,019
-475,532	435,539	-0,019	-0,030
-474,518	-101,098	0,160	0,028
-473,503	14,364	0,081	0,045
-472,489	465,687	0,037	0,060
-471,474	-52,907	0,056	-0,019
-470,459	-89,587	0,084	0,017
-469,445	-122,595	0,016	-0,002
-468,430	-39,190	0,141	0,053
-467,416	165,106	0,043	0,044
-466,401	271,207	-0,161	0,204
-465,386	267,063	0,099	0,125
-464,372	-63,610	0,103	-0,030
-463,357	-57,311	-0,083	-0,026
-462,343	800,000	0,049	0,098
-461,328	-140,252	-0,081	0,006
-460,313	504,906	0,025	0,042
-459,299	345,225	0,037	0,052
-458,284	170,822	0,095	0,098
-457,270	800,000	-0,027	-0,077
-456,255	-64,497	0,033	0,009
-455,241	-156,356	0,107	-0,005
-454,226	-19,172	-0,113	-0,050
-453,211	-200,000	-0,026	0,096
-452,197	-200,000	-0,030	-0,117
-451,182	800,000	0,041	0,122
-450,168	800,000	-0,013	0,028
-449,153	731,177	0,055	-0,106
-448,138	228,494	-0,116	-0,136
-447,124	-200,000	-0,019	-0,133
-446,109	-200,000	-0,012	-0,099
-445,095	142,546	0,114	0,109
-444,080	-81,980	0,075	0,017
-443,065	-200,000	-0,010	0,093
-442,051	-74,882	0,097	-0,025
-441,036	-175,570	-0,087	0,002
-440,022	-105,599	-0,084	-0,014
-439,007	103,767	-0,024	-0,020
-437,992	-132,793	0,124	0,011
-436,978	-200,000	-0,007	0,071
-435,963	-59,297	-0,039	-0,012
-434,949	800,000	-0,056	0,111
-433,934	-172,425	-0,077	0,002
-432,919	9,051	0,048	-0,026
-431,905	-200,000	0,003	0,022
-430,890	-200,000	-0,016	0,124
-429,876	800,000	0,086	0,185
-428,861	113,302	-0,030	0,026
-427,846	-200,000	0,029	-0,103
-426,832	-15,128	0,062	0,028
-425,817	178,289	-0,106	0,111
-424,803	800,000	0,024	0,056
-423,788	212,715	-0,121	0,137
-422,773	45,197	0,082	-0,054
-421,759	17,719	0,190	0,108
-420,744	-68,973	-0,108	-0,030
-419,730	425,909	-0,084	0,130
-418,715	-164,315	0,048	0,002
-417,701	800,000	-0,032	-0,067
-416,686	266,120	0,101	0,127
-415,671	142,967	0,059	-0,056
-414,657	-77,830	0,173	-0,043
-413,642	107,993	-0,035	0,030
-412,628	116,359	-0,069	0,061
-411,613	800,000	-0,021	-0,059
-410,598	-200,000	-0,003	-0,020
-409,584	350,673	0,061	-0,087
-408,569	387,922	0,080	-0,119
-407,555	-36,311	0,111	0,043
-406,540	-93,476	-0,094	0,018
-405,525	8,380	-0,090	-0,049
-404,511	-54,036	0,100	0,032
-403,496	-200,000	0,001	0,053
-402,482	380,386	0,039	0,057
-401,467	-200,000	-0,001	0,049
-400,452	20,076	0,140	0,081
-399,438	-22,260	-0,083	-0,036
-398,423	691,184	0,015	0,028
-397,409	-125,235	0,049	-0,005
-396,394	45,802	-0,027	0,018
-395,379	-46,137	-0,102	-0,036
-394,365	-63,750	0,102	0,030
-393,350	338,171	-0,019	0,027
-392,336	790,709	0,042	-0,083
-391,321	-32,289	0,057	0,023
-390,306	45,160	0,057	-0,038
-389,292	-200,000	0,003	-0,105
-388,277	-200,000	-0,001	-0,033
-387,263	99,867	-0,036	-0,030
-386,248	800,000	-0,018	0,040
-385,233	185,045	0,045	0,048
-384,219	27,737	-0,145	0,087
-383,204	-44,164	-0,050	0,018
-382,190	-200,000	-0,001	0,015
-381,175	578,755	-0,068	0,120
-380,160	18,733	0,058	0,033
-379,146	-200,000	0,002	0,100
-378,131	-200,000	0,018	0,089
-377,117	348,960	-0,047	-0,067
-376,102	598,187	-0,046	-0,082
-375,088	800,000	0,007	-0,015
-374,073	800,000	-0,038	-0,080
-373,058	-52,790	0,075	-0,025
-372,044	216,853	0,038	0,043
-371,029	-56,398	0,172	0,054
-370,015	-47,122	0,122	-0,043
-369,000	-44,385	-0,112	-0,040
-367,985	-83,787	0,016	0,004
-366,971	-169,492	0,033	0,001
-365,956	37,182	0,115	-0,073
-364,942	-200,000	-0,009	-0,039
-363,927	800,000	-0,036	-0,071
-362,912	691,591	0,039	-0,074
-361,898	-22,360	0,075	-0,032
-360,883	696,437	-0,013	-0,024
-359,869	800,000	0,072	-0,147
-358,854	261,270	0,022	0,027
-357,839	759,513	0,038	-0,074
-356,825	-52,702	0,084	-0,027
-355,810	307,189	0,032	0,043
-354,796	421,723	-0,087	0,134
-353,781	-200,000	-0,037	-0,153
-352,766	800,000	-0,007	0,020
-351,752	266,911	-0,094	0,118
-350,737	-200,000	0,013	-0,109
-349,723	166,776	0,023	0,023
-348,708	800,000	-0,017	0,044
-347,693	-200,000	-0,001	-0,093
-346,679	-123,099	-0,096	-0,011
-345,664	-200,000	0,029	0,141
-344,650	247,520	-0,052	0,063
-343,635	217,308	-0,049	-0,056
-342,620	475,921	0,094	0,152
-341,606	-200,000	-0,014	0,125
-340,591	-200,000	-0,005	-0,063
-339,577	-200,000	0,029	-0,150
-338,562	171,248	-0,071	-0,073
-337,548	200,101	-0,038	-0,042
-336,533	-200,000	0,017	-0,058
-335,518	332,177	-0,021	0,029
-334,504	310,971	0,017	0,023
-333,489	-73,509	-0,139	-0,036
-332,475	-200,000	0,021	-0,086
-331,460	-135,603	-0,149	0,012
-330,445	-139,895	-0,009	-0,001
-329,431	-200,000	-0,001	0,067
-328,416	54,122	0,166	0,114
-327,402	-48,395	0,068	0,023
-326,387	800,000	-0,034	0,082
-325,372	-9,467	0,049	-0,023
-324,358	15,001	0,010	-0,006
-323,343	-200,000	-0,005	-0,026
-322,329	38,426	0,102	-0,065
-321,314	-16,837	0,054	0,024
-320,299	-200,000	-0,011	-0,037
-319,285	-200,000	-0,003	-0,085
-318,270	92,346	-0,095	-0,076
-317,256	-200,000	-0,011	-0,119
-316,241	-166,060	-0,069	0,002
-315,226	163,516	0,066	0,066
-314,212	800,000	-0,069	0,144
-313,197	-200,000	0,022	0,102
-312,183	800,000	-0,011	-0,034
-311,168	800,000	0,076	-0,221
-310,153	70,881	-0,066	-0,049
-309,139	-200,000	-0,011	-0,095
-308,124	130,662	0,171	0,157
-307,110	13,391	-0,063	0,035
-306,095	754,566	0,028	0,055
-305,080	-200,000	-0,006	0,082
-304,066	202,129	-0,073	-0,081
-303,051	800,000	-0,056	-0,130
-302,037	143,073	0,063	0,060
-301,022	-66,233	-0,077	0,022
-300,008	-170,098	-0,035	-0,001
-298,993	-200,000	0,020	0,098
-297,978	-16,970	0,071	0,032
-296,964	-68,739	-0,069	0,019
-295,949	87,969	0,080	0,063
-294,935	-200,000	0,015	-0,049
-293,920	-200,000	-0,013	0,043
-292,905	590,484	-0,060	0,106
-291,891	800,000	0,034	0,085
-290,876	-200,000	0,006	0,100
-289,862	-117,378	-0,109	0,014
-288,847	800,000	-0,035	0,088
-287,832	511,985	0,043	-0,072
-286,818	150,481	0,136	-0,131
-285,803	-200,000	-0,009	0,126
-284,789	-153,186	0,097	0,005
-283,774	520,510	0,064	0,107
-282,759	-63,037	0,046	0,014
-281,745	-129,092	-0,055	-0,005
-280,730	800,000	-0,058	0,140
-279,716	228,032	-0,069	0,080
-278,701	33,287	0,068	-0,042
-277,686	3,032	-0,115	0,059
-276,672	-144,676	-0,027	0,002
-275,657	-64,752	0,112	-0,032
-274,643	512,430	0,066	-0,111
-273,628	43,961	-0,132	-0,086
-272,613	363,730	-0,082	-0,117
-271,599	134,254	-0,051	-0,047
-270,584	-200,000	0,012	-0,113
-269,570	-128,149	-0,085	-0,009
-268,555	-15,661	0,132	0,060
-267,540	23,570	0,084	-0,049
-266,526	800,000	-0,061	-0,191
-265,511	-200,000	-0,001	-0,023
-264,497	149,353	0,056	0,054
-263,482	19,601	0,032	0,018
-262,467	-200,000	-0,010	-0,065
-261,453	406,854	0,031	0,046
-260,438	800,000	-0,045	0,100
-259,424	-132,648	0,053	0,005
-258,409	-200,000	0,047	-0,254
-257,395	13,476	-0,092	-0,051
-256,380	-103,654	0,132	-0,022
-255,365	-200,000	0,008	-0,166
-254,351	-200,000	0,002	-0,033
-253,336	635,734	0,052	-0,095
-252,322	-200,000	-0,014	-0,057
-251,307	-200,000	-0,016	-0,089
-250,292	-163,659	-0,140	-0,005
-249,278	-52,356	-0,109	-0,036
-248,263	-200,000	-0,018	0,077
-247,249	100,890	0,118	0,097
-246,234	517,327	-0,060	-0,100
-245,219	-149,554	-0,043	0,002
-244,205	-13,615	-0,081	-0,037
-243,190	76,507	-0,092	-0,069
-242,176	72,906	0,107	-0,079
-241,161	-200,000	0,030	0,174
-240,146	-97,427	0,083	-0,015
-239,132	-200,000	0,024	0,126
-238,117	138,398	-0,083	-0,078
-237,103	-200,000	0,019	-0,164
-236,088	609,594	0,067	0,120
-235,073	158,597	0,014	0,014
-234,059	-200,000	-0,021	-0,070
-233,044	-200,000	0,000	0,007
-232,030	800,000	0,007	0,014
-231,015	-152,511	-0,099	0,005
-230,000	-200,000	0,026	0,105
-228,986	-200,000	-0,007	-0,116
-227,971	185,414	0,019	0,020
-226,957	-200,000	0,028	-0,099
-225,942	-200,000	0,058	-0,209
-224,927	-72,109	-0,074	0,020
-223,913	-200,000	0,005	-0,046
-222,898	800,000	-0,032	-0,083
-221,884	800,000	-0,024	0,047
-220,869	80,873	-0,105	0,080
-219,855	-200,000	0,002	-0,031
-218,840	-200,000	0,030	0,117
-217,825	-123,245	-0,079	0,009
-216,811	-119,916	0,020	0,002
-215,796	800,000	0,032	0,065
-214,782	800,000	-0,052	-0,157
-213,767	800,000	-0,088	-0,186
-212,752	442,912	0,072	0,113
-211,738	800,000	0,093	0,186
-210,723	352,714	-0,069	0,097
-209,709	192,844	0,035	-0,038
-208,694	8,745	-0,051	0,027
-207,679	516,470	-0,009	-0,014
-206,665	-62,980	0,088	0,026
-205,650	-200,000	-0,017	0,127
-204,636	161,763	0,101	0,100
-203,621	80,955	-0,210	-0,161
-202,606	18,076	-0,044	-0,025
-201,592	-170,207	0,091	-0,002
-200,577	-87,537	-0,121	-0,026
-199,563	-200,000	-0,018	-0,102
-198,548	79,326	0,083	0,063
-197,533	-200,000	-0,001	0,238
-196,519	16,220	0,088	0,049
-195,504	17,698	-0,060	-0,034
-194,490	-200,000	0,012	-0,191
-193,475	-38,328	-0,111	-0,042
-192,460	800,000	0,042	0,098
-191,446	-13,083	-0,109	-0,050
-190,431	-200,000	0,005	0,099
-189,417	-200,000	-0,010	0,092
-188,402	771,382	-0,052	-0,101
-187,387	-2,910	-0,055	0,027
-186,373	47,816	0,059	0,039
-185,358	-200,000	0,026	0,119
-184,344	-79,574	0,139	0,033
-183,329	-57,326	-0,063	0,020
-182,315	-117,444	-0,116	-0,015
-181,300	-143,293	0,146	-0,010
-180,285	101,002	0,043	-0,036
-179,271	-200,000	0,026	-0,266
-178,256	-57,060	0,045	0,014
-177,242	800,000	-0,013	-0,037
-176,227	800,000	0,021	0,045
-175,212	91,775	-0,108	0,086
-174,198	-200,000	0,000	0,046
-173,183	-81,205	-0,099	-0,023
-172,169	186,513	-0,137	-0,145
-171,154	-200,000	0,001	-0,082
-170,139	-78,394	-0,080	0,019
-169,125	13,134	-0,120	0,066
-168,110	-52,797	0,148	0,048
-167,096	-95,904	0,023	-0,004
-166,081	-200,000	-0,012	-0,058
-165,066	-91,321	0,088	0,018
-164,052	183,765	-0,093	0,098
-163,037	-17,226	0,152	-0,068
-162,023	-200,000	0,019	0,093
-161,008	195,727	-0,057	0,061
-159,993	147,515	0,073	-0,070
-158,979	17,745	0,074	0,041
-157,964	-41,681	-0,036	-0,013
-156,950	-148,277	-0,089	0,005
-155,935	-200,000	0,013	0,102
-154,920	-140,730	0,047	0,003
-153,906	-167,559	-0,039	-0,001
-152,891	195,268	0,067	0,072
-151,877	-50,401	-0,111	-0,037
-150,862	258,364	0,035	-0,043
-149,847	166,270	-0,099	-0,099
-148,833	126,393	-0,071	0,063
-147,818	-200,000	-0,028	0,153
-146,804	800,000	0,039	0,079
-145,789	800,000	-0,074	0,169
-144,775	-134,508	0,075	-0,006
-143,760	-80,229	-0,099	0,023
-142,745	132,656	-0,046	-0,042
-141,731	-122,015	0,082	0,009
-140,716	-11,557	0,031	0,015
-139,702	705,587	-0,068	0,128
-138,687	-10,433	0,074	-0,035
-137,672	-200,000	0,004	0,032
-136,658	141,670	-0,040	-0,038
-135,643	91,185	-0,030	-0,024
-134,629	-43,373	-0,094	0,034
-133,614	-70,746	0,072	0,019
-132,599	176,975	0,024	0,025
-131,585	-32,358	0,102	-0,040
-130,570	535,993	-0,045	0,076
-129,556	146,550	0,079	0,075
-128,541	479,656	-0,081	-0,130
-127,526	151,094	0,109	-0,105
-126,512	70,366	0,072	0,052
-125,497	269,051	0,078	0,097
-124,483	-61,117	-0,091	-0,027
-123,468	-8,345	-0,058	0,028
-122,453	-34,707	-0,144	0,056
-121,439	800,000	-0,037	0,092
-120,424	-200,000	0,032	-0,110
-119,410	411,008	0,024	0,036
-118,395	173,876	0,034	-0,035
-117,380	145,888	0,031	-0,030
-116,366	547,479	-0,034	-0,058
-115,351	1,904	0,039	-0,020
-114,337	-200,000	-0,009	-0,129
-113,322	180,565	0,049	-0,051
-112,307	-60,776	-0,041	0,012
-111,293	444,920	0,043	0,067
-110,278	-200,000	-0,021	0,076
-109,264	181,795	0,019	-0,020
-108,249	44,900	-0,030	0,019
-107,234	592,015	0,041	-0,072
-106,220	-88,516	-0,047	-0,010
-105,205	-200,000	0,038	0,120
-104,191	800,000	-0,013	0,035
-103,176	800,000	0,047	0,101
-102,162	-31,318	0,143	-0,057
-101,147	-128,377	0,182	0,018
-100,132	82,682	0,063	0,048
-99,118	800,000	0,051	-0,156
-98,103	-68,793	0,065	-0,018
-97,089	-119,288	0,183	0,022
-96,074	36,182	0,042	-0,026
-95,059	800,000	-0,025	0,054
-94,045	-84,734	-0,129	0,029
-93,030	-200,000	0,017	-0,124
-92,016	121,410	-0,045	0,040
-91,001	-67,805	-0,081	-0,022
-89,986	660,839	-0,030	-0,054
-88,972	528,860	0,082	0,137
-87,957	303,083	-0,086	-0,113
-86,943	-200,000	-0,021	0,121
-85,928	-200,000	0,011	-0,088
-84,913	-100,115	-0,048	0,008
-83,899	78,810	0,167	-0,126
-82,884	-25,600	0,023	-0,009
-81,870	-200,000	-0,000	-0,011
-80,855	184,027	0,075	-0,079
-79,840	-49,686	-0,026	0,009
-78,826	800,000	0,019	-0,040
-77,811	-200,000	0,043	-0,137
-76,797	-57,287	0,060	-0,019
-75,782	2,855	-0,116	0,059
-74,767	-5,334	0,064	0,031
-73,753	3,118	-0,108	-0,055
-72,738	-67,483	0,078	0,021
-71,724	-200,000	0,001	0,013
-70,709	-200,000	0,013	-0,087
-69,694	388,260	-0,014	-0,021
-68,680	129,734	-0,082	-0,074
-67,665	564,044	-0,077	-0,132
-66,651	552,906	0,039	0,066
-65,636	-126,284	0,082	0,009
-64,622	572,115	0,024	0,041
-63,607	-56,236	-0,052	0,016
-62,592	-200,000	0,027	-0,101
-61,578	-39,266	0,069	-0,025
-60,563	441,180	0,084	0,130
-59,549	51,652	0,062	-0,041
-58,534	-18,219	-1,916	-0,844
-57,519	540,929	-1,180	-1,995
-56,505	-200,000	-0,523	-4,506
-55,490	282,415	1,156	1,469
-54,476	800,000	4,774	11,110
-53,461	-200,000	20,186	324,181
-52,446	800,000	752,227	2310,614
-51,432	548,837	1662,967	2827,564
-50,417	74,762	1671,591	1242,377
-49,403	19,823	1544,657	877,176
-48,388	13,857	1467,224	804,179
-47,373	18,413	1457,302	820,713
-46,359	16,320	1446,835	804,759
-45,344	12,169	1442,232	782,291
-44,330	12,039	1440,699	780,807
-43,315	12,073	1438,686	779,848
-42,300	12,062	1437,172	778,943
-41,286	12,075	1435,824	778,243
-40,271	12,083	1434,405	777,483
-39,257	12,055	1433,236	776,685
-38,242	12,084	1431,969	776,104
-37,227	12,103	1430,787	775,525
-36,213	12,091	1429,374	774,670
-35,198	12,080	1428,464	774,093
-34,184	12,136	1427,394	773,748
-33,169	12,113	1425,610	772,644
-32,154	12,123	1424,711	772,172
-31,140	12,147	1423,481	771,590
-30,125	12,189	1422,298	771,113
-29,111	12,126	1421,420	770,309
-28,096	12,149	1420,083	769,665
-27,082	12,092	1419,126	768,846
-26,067	12,025	1418,343	768,077
-25,052	12,078	1416,893	767,510
-24,038	12,072	1415,968	766,948
-23,023	12,059	1415,095	766,387
-22,009	12,031	1413,970	765,614
-20,994	12,026	1412,992	765,031
-19,979	12,027	1412,076	764,507
-18,965	11,982	1411,205	763,798
-17,950	11,996	1410,401	763,399
-16,936	11,990	1409,404	762,798
-15,921	11,870	1408,674	761,810
-14,906	11,982	1407,459	761,647
-13,892	11,985	1406,546	761,138
-12,877	11,949	1405,672	760,466
-11,863	11,931	1404,931	759,950
-10,848	11,947	1403,765	759,366
-9,833	11,896	1402,989	758,679
-8,819	11,820	1402,394	757,971
-7,804	11,841	1401,546	757,582
-6,790	11,877	1400,094	756,932
-5,775	11,912	1399,010	756,481
-4,760	11,888	1398,231	755,915
-3,746	11,872	1397,257	755,286
-2,731	11,851	1396,538	754,770
-1,717	11,809	1395,894	754,199
-0,702	11,815	1393,957	753,148
0,313	15,799	1308,797	725,518
1,327	32,157	699,573	425,375
2,342	49,780	121,845	80,995
3,356	2,164	16,420	8,354
4,371	-8,116	3,307	1,568
5,386	-7,763	0,570	0,271
6,400	-200,000	0,064	0,408
7,415	83,165	-0,350	-0,269
8,429	58,208	-0,337	-0,233
9,444	513,881	-0,180	-0,297
10,459	-51,051	-0,264	-0,087
11,473	677,010	-0,112	-0,206
12,488	-68,546	-0,214	-0,058
13,502	103,341	-0,431	-0,357
14,517	109,198	-0,333	-0,281
15,531	10,038	-0,449	-0,240
16,546	340,017	-0,210	-0,290
17,561	35,719	-0,363	-0,225
18,575	-200,000	-0,026	-0,092
19,590	-84,201	-0,346	-0,077
20,604	-10,447	-0,186	-0,086
21,619	20,646	-0,470	-0,268
22,634	74,054	-0,429	-0,317
23,648	2,529	-0,608	-0,309
24,663	230,345	-0,291	-0,337
25,677	5,724	-0,482	-0,251
26,692	47,139	-0,295	-0,193
27,707	58,262	-0,329	-0,227
28,721	-7,034	-0,429	-0,204
29,736	60,224	-0,345	-0,240
30,750	127,233	-0,411	-0,367
31,765	24,063	-0,480	-0,279
32,780	59,806	-0,335	-0,233
33,794	78,889	-0,286	-0,215
34,809	72,883	-0,285	-0,209
35,823	74,147	-0,410	-0,303
36,838	24,040	-0,366	-0,212
37,853	28,750	-0,396	-0,236
38,867	32,978	-0,383	-0,233
39,882	487,442	-0,249	-0,402
40,896	-3,094	-0,460	-0,225
41,911	22,425	-0,402	-0,231
42,926	756,158	-0,211	-0,403
43,940	23,492	-0,386	-0,223
44,955	113,033	-0,337	-0,287
45,969	90,775	-0,364	-0,287
46,984	204,797	-0,285	-0,312
47,999	185,631	-0,255	-0,267
49,013	42,806	-0,261	-0,167
50,028	32,531	-0,358	-0,217
51,042	245,291	-0,267	-0,316
52,057	112,344	-0,362	-0,308
53,071	354,987	-0,250	-0,350
54,086	36,443	-0,416	-0,258
55,101	-1,001	-0,362	-0,180
56,115	-37,668	-0,464	-0,173
57,130	27,233	-0,312	-0,184
58,144	56,788	-0,416	-0,285
59,159	-21,049	-0,496	-0,213
60,174	118,378	-0,357	-0,310
61,188	72,489	-0,349	-0,256
62,203	201,903	-0,332	-0,360
63,217	161,477	-0,191	-0,188
64,232	256,192	-0,295	-0,357
65,247	-41,522	-0,350	-0,126
66,261	18,430	-0,318	-0,178
67,276	213,377	-0,199	-0,221
68,290	-11,810	-0,444	-0,204
69,305	149,178	-0,289	-0,275
70,320	14,702	-0,335	-0,183
71,334	68,683	-0,362	-0,260
72,349	62,868	-0,344	-0,242
73,363	-86,404	-0,302	-0,065
74,378	88,698	-0,294	-0,229
75,393	123,369	-0,275	-0,242
76,407	146,580	-0,327	-0,309
77,422	132,262	-0,247	-0,224
78,436	58,248	-0,356	-0,245
79,451	16,083	-0,299	-0,165
80,466	90,859	-0,336	-0,264
81,480	2,065	-0,402	-0,203
82,495	75,951	-0,420	-0,311
83,509	-33,724	-0,322	-0,124
84,524	587,868	-0,150	-0,260
85,539	-103,044	-0,268	-0,044
86,553	-7,487	-0,387	-0,183
87,568	312,342	-0,196	-0,259
88,582	150,072	-0,260	-0,247
89,597	72,410	-0,255	-0,186
90,611	219,338	-0,174	-0,195
91,626	109,613	-0,252	-0,212
92,641	47,559	-0,327	-0,214
93,655	26,574	-0,310	-0,181
94,670	73,489	-0,318	-0,233
95,684	48,327	-0,269	-0,176
96,699	21,681	-0,365	-0,208
97,714	-175,573	-0,425	-0,008
98,728	-73,176	-0,253	-0,064
99,743	150,693	-0,204	-0,194
100,757	-63,974	-0,287	-0,081
101,772	51,300	-0,291	-0,193
102,787	430,122	-0,247	-0,376
103,801	292,024	-0,218	-0,278
104,816	99,449	-0,236	-0,191
105,830	-90,837	-0,336	-0,067
106,845	6,984	-0,218	-0,113
107,860	-23,832	-0,208	-0,087
108,874	34,748	-0,235	-0,144
109,889	82,035	-0,190	-0,144
110,903	39,196	-0,287	-0,179
111,918	179,265	-0,262	-0,269
112,933	-0,108	-0,206	-0,102
113,947	-2,227	-0,340	-0,166
114,962	53,369	-0,371	-0,248
115,976	-31,587	-0,359	-0,140
116,991	-143,229	-0,210	-0,014
118,006	-24,924	-0,311	-0,129
119,020	76,671	-0,207	-0,153
120,035	-200,000	-0,030	-0,142
121,049	23,335	-0,308	-0,177
122,064	-1,918	-0,249	-0,122
123,079	3,273	-0,260	-0,132
124,093	331,015	-0,182	-0,245
125,108	-138,088	-0,294	-0,023
126,122	167,863	-0,202	-0,201
127,137	32,179	-0,096	-0,058
128,151	19,764	-0,191	0,107
129,166	-8,851	-0,262	-0,122
130,181	30,053	-0,239	-0,142
131,195	175,505	-0,215	-0,218
132,210	88,547	-0,299	-0,232
133,224	164,371	-0,256	-0,252
134,239	-3,423	-0,134	-0,065
135,254	-103,105	-0,223	-0,036
136,268	-0,711	-0,215	-0,106
137,283	40,666	-0,242	-0,152
138,297	337,982	-0,211	-0,287
139,312	313,805	-0,180	-0,237
140,327	33,296	-0,370	-0,224
141,341	64,865	-0,310	-0,218
142,356	150,069	-0,147	-0,140
143,370	4,103	-0,265	-0,135
144,385	17,148	-0,232	-0,128
145,400	-48,626	-0,228	-0,076
146,414	180,767	-0,185	-0,190
147,429	21,822	-0,250	-0,142
148,443	100,779	-0,210	-0,170
149,458	-131,636	-0,138	0,012
150,473	107,390	-0,235	-0,195
151,487	72,599	-0,278	-0,202
152,502	31,913	-0,311	-0,187
153,516	47,682	-0,301	-0,196
154,531	71,519	-0,249	-0,180
155,546	3,294	-0,225	-0,114
156,560	-74,876	-0,181	-0,045
157,575	203,841	-0,147	-0,159
158,589	22,768	-0,257	-0,146
159,604	48,227	-0,184	-0,120
160,619	10,264	-0,246	-0,130
161,633	76,242	-0,279	-0,206
162,648	-35,403	-0,228	-0,086
163,662	241,230	-0,188	-0,219
164,677	71,951	-0,304	-0,220
165,692	297,779	-0,190	-0,244
166,706	452,040	-0,159	-0,246
167,721	-11,223	-0,287	-0,131
168,735	22,373	-0,222	-0,126
169,750	-82,656	-0,146	0,033
170,764	800,000	-0,123	-0,248
171,779	55,746	-0,223	-0,150
172,794	10,459	-0,223	-0,118
173,808	39,258	-0,143	-0,089
174,823	179,470	-0,236	-0,240
175,837	135,863	-0,272	-0,247
176,852	112,865	-0,162	-0,136
177,867	-27,710	-0,303	-0,122
178,881	307,963	-0,166	-0,216
179,896	-148,002	-0,224	-0,013
180,910	32,518	-0,232	-0,139
181,925	14,783	-0,226	-0,122
182,940	35,032	-0,178	-0,108
183,954	178,612	-0,109	-0,111
184,969	248,157	-0,191	-0,225
185,983	488,056	-0,135	-0,215
186,998	-73,661	-0,270	-0,068
188,013	273,653	-0,116	-0,143
189,027	1,412	-0,263	-0,131
190,042	21,664	-0,319	-0,180
191,056	121,161	-0,242	-0,209
192,071	-8,020	-0,260	-0,121
193,086	-55,161	-0,066	-0,021
194,100	-92,319	-0,122	-0,024
195,115	-18,028	-0,202	-0,088
196,129	-90,061	-0,263	-0,053
197,144	-23,017	-0,213	-0,089
198,159	95,106	-0,233	-0,184
199,173	339,306	-0,226	-0,306
200,188	292,534	-0,131	-0,166
201,202	229,324	-0,119	-0,135
202,217	-133,890	-0,176	-0,015
203,232	244,293	-0,154	-0,180
204,246	3,441	-0,212	-0,107
205,261	97,615	-0,245	-0,195
206,275	76,803	-0,265	-0,195
207,290	137,762	-0,222	-0,202
208,304	-17,411	-0,103	-0,045
209,319	-70,201	-0,211	-0,055
210,334	4,325	-0,216	-0,109
211,348	141,018	-0,176	-0,161
212,363	186,963	-0,245	-0,254
213,377	-83,100	-0,192	-0,043
214,392	25,224	-0,194	-0,112
215,407	800,000	-0,161	-0,334
216,421	423,214	-0,109	-0,162
217,436	466,961	-0,086	-0,135
218,450	113,979	-0,203	-0,171
219,465	6,726	-0,292	-0,150
220,480	113,855	-0,155	-0,131
221,494	-167,839	-0,243	-0,006
222,509	-52,148	-0,252	-0,080
223,523	-35,865	-0,244	-0,091
224,538	133,066	-0,106	-0,095
225,553	3,838	-0,197	-0,099
226,567	-74,798	-0,195	-0,048
227,582	-77,156	-0,298	-0,071
228,596	-17,968	-0,085	-0,037
229,611	-60,250	-0,220	-0,064
230,626	271,123	-0,087	-0,106
231,640	145,675	-0,142	-0,132
232,655	317,953	-0,184	-0,242
233,669	-38,432	-0,211	-0,077
234,684	100,970	-0,272	-0,219
235,699	-24,491	-0,123	-0,051
236,713	163,221	-0,130	-0,126
237,728	280,196	-0,134	-0,166
238,742	119,264	-0,229	-0,196
239,757	-49,225	-0,165	-0,054
240,772	187,725	-0,178	-0,184
241,786	-200,000	-0,061	-0,197
242,801	-98,152	-0,276	-0,049
243,815	180,025	-0,115	-0,116
244,830	-200,000	-0,052	-0,182
245,844	14,551	-0,160	-0,086
246,859	-119,191	-0,281	0,034
247,874	800,000	-0,109	-0,219
248,888	36,489	-0,125	-0,076
249,903	11,555	-0,112	0,059
250,917	800,000	-0,070	-0,185
251,932	10,406	-0,119	-0,062
252,947	256,056	-0,083	-0,099
253,961	48,765	-0,188	-0,122
254,976	-44,169	-0,276	-0,095
255,990	241,470	-0,151	-0,174
257,005	-14,676	-0,167	-0,074
258,020	-67,768	-0,260	-0,070
259,034	203,875	-0,075	-0,080
260,049	-76,942	-0,155	-0,037
261,063	-65,173	-0,206	-0,057
262,078	-42,102	-0,210	-0,074
263,093	161,906	-0,139	-0,134
264,107	10,116	-0,300	-0,157
265,122	262,109	-0,120	-0,144
266,136	184,848	-0,114	-0,117
267,151	43,353	-0,201	-0,126
268,166	251,044	-0,203	-0,239
269,180	156,694	-0,157	-0,150
270,195	11,063	-0,183	-0,096
271,209	62,329	-0,171	-0,118
272,224	292,250	-0,121	-0,153
273,239	-200,000	-0,037	-0,170
274,253	145,642	-0,259	-0,239
275,268	123,112	-0,114	-0,098
276,282	-83,477	-0,374	-0,082
277,297	-71,315	-0,252	-0,065
278,312	-121,016	-0,169	-0,019
279,326	70,806	-0,188	-0,134
280,341	-84,673	-0,233	-0,050
281,355	-43,950	-0,258	-0,089
282,370	-74,058	-0,181	-0,045
283,384	-26,335	-0,292	-0,117
284,399	-15,081	-0,131	-0,058
285,414	-77,925	-0,092	0,022
286,428	85,459	-0,131	-0,099
287,443	285,981	-0,032	-0,040
288,457	-177,921	-0,127	0,002
289,472	222,586	-0,091	-0,101
290,487	800,000	-0,040	-0,099
291,501	47,605	-0,202	-0,130
292,516	-128,980	-0,233	-0,022
293,530	3,896	-0,193	-0,097
294,545	-27,449	-0,212	-0,084
295,560	800,000	-0,049	-0,141
296,574	-165,537	-0,173	-0,005
297,589	-27,956	-0,333	-0,132
298,603	-36,340	-0,138	-0,051
299,618	49,520	-0,124	-0,080
300,633	92,488	-0,086	-0,066
301,647	291,337	-0,041	0,052
302,662	11,357	-0,125	-0,066
303,676	-4,731	-0,256	-0,121
304,691	-200,000	-0,035	-0,151
305,706	-0,561	-0,166	-0,081
306,720	239,102	-0,053	-0,061
307,735	-200,000	0,029	-0,089
308,749	377,622	-0,080	-0,113
309,764	-183,420	-0,146	-0,002
310,779	75,898	-0,172	-0,125
311,793	744,847	-0,059	-0,109
312,808	-162,775	-0,200	0,007
313,822	115,834	-0,186	-0,156
314,837	-200,000	-0,027	-0,124
315,852	418,145	-0,085	-0,126
316,866	-95,346	-0,088	0,016
317,881	-61,593	-0,159	-0,046
318,895	552,858	-0,059	-0,097
319,910	-57,732	-0,188	-0,056
320,925	48,626	-0,060	0,039
321,939	55,581	-0,150	-0,099
322,954	31,950	-0,179	-0,106
323,968	267,638	-0,072	-0,086
324,983	-22,537	-0,093	0,039
325,997	-45,567	-0,098	-0,033
327,012	-72,741	-0,197	-0,049
328,027	-110,549	-0,195	0,027
329,041	251,690	-0,130	-0,152
330,056	-36,003	-0,148	-0,055
331,070	-58,372	-0,146	-0,043
332,085	-23,869	-0,093	-0,038
333,100	71,936	-0,084	-0,060
334,114	750,480	-0,088	-0,163
335,129	187,035	-0,180	-0,184
336,143	800,000	-0,069	-0,150
337,158	331,390	-0,126	-0,167
338,173	-177,304	0,083	-0,001
339,187	-87,404	-0,170	-0,035
340,202	-112,905	-0,118	0,016
341,216	-12,158	-0,197	-0,088
342,231	275,726	-0,139	-0,170
343,246	-74,548	-0,226	-0,056
344,260	56,361	-0,162	-0,108
345,275	-80,737	-0,177	-0,040
346,289	156,460	-0,105	-0,099
347,304	118,559	-0,258	-0,219
348,319	30,680	-0,204	-0,120
349,333	670,107	-0,152	-0,270
350,348	-64,687	-0,067	-0,018
351,362	312,683	-0,080	-0,103
352,377	-200,000	-0,004	-0,037
353,392	-124,491	-0,133	-0,014
354,406	657,256	-0,098	-0,173
355,421	208,609	1315,230	1410,901
356,435	160,521	1475,997	1411,372
