DTS Sentinel unit serial number:	SN410029Multiplexer serial number:	ORYXHardware model number:	OX2-SRSoftware version number:	ORYX F/W v4,00 Oryx Data Collector v3.7.2.0data status	okinstallation	B3 Nyhavnadifferential loss correction	single-endedforward channel	channel 1reverse channel	N/Adate	2023/12/03time	04:02:30forward acquisition time	300,00reverse acquisition time	0,00gamma	499,1914k internal	0,3201k external	0,3201temperature offset calibration	1,0000default loss term (dB/km)	0,3820temperature slope calibration	1,0000multiplexer offset coefficient	1,0000multiplexer slope coefficient	1,0000fibre end	0,00T internal ref (°C)	13,31T ext. ref 1 (°C)	-1,75T ext. ref 2 (°C)	-1,76length (m)	temperature (°C)	Stokes	anti-Stokes-744,400	439,298	-0,147	-0,235
-743,385	-200,000	-0,044	0,380
-742,371	119,261	-0,157	-0,141
-741,356	-200,000	-0,043	0,438
-740,342	122,553	-0,185	-0,169
-739,327	489,978	-0,123	0,205
-738,312	368,693	-0,173	-0,255
-737,298	695,021	0,065	0,125
-736,283	95,018	-0,232	-0,192
-735,269	800,000	0,099	0,317
-734,254	633,554	-0,165	-0,305
-733,239	-70,054	-0,233	0,064
-732,225	38,048	-0,208	-0,135
-731,210	89,380	0,132	0,107
-730,196	-200,000	-0,080	0,000
-729,181	-200,000	-0,012	0,092
-728,167	-140,686	-0,058	0,004
-727,152	-120,605	0,112	-0,014
-726,137	564,682	-0,025	-0,044
-725,123	800,000	-0,034	-0,090
-724,108	-3,771	-0,244	-0,123
-723,094	46,642	-0,147	-0,099
-722,079	17,010	-0,097	-0,056
-721,064	121,001	0,112	-0,102
-720,050	246,769	0,010	-0,012
-719,035	21,230	-0,082	-0,048
-718,021	-97,404	-0,092	0,017
-717,006	-5,772	-0,101	-0,050
-715,991	99,641	-0,041	-0,034
-714,977	-95,968	-0,101	0,019
-713,962	269,497	0,087	-0,112
-712,948	267,372	0,068	-0,087
-711,933	-36,885	-0,051	0,020
-710,918	800,000	-0,006	-0,016
-709,904	178,011	-0,065	-0,069
-708,889	152,419	-0,035	0,035
-707,875	800,000	-0,014	-0,033
-706,860	-4,120	0,022	0,011
-705,845	-130,800	-0,097	-0,009
-704,831	43,661	0,063	-0,042
-703,816	-200,000	0,030	0,115
-702,802	31,385	0,187	-0,117
-701,787	-99,549	-0,159	-0,029
-700,772	288,732	-0,032	-0,042
-699,758	123,836	-0,024	0,022
-698,743	-50,834	0,125	0,043
-697,729	-200,000	0,032	0,139
-696,714	532,944	0,038	0,065
-695,699	-200,000	-0,032	0,158
-694,685	-89,222	-0,105	-0,022
-693,670	800,000	-0,022	-0,051
-692,656	153,463	0,092	-0,091
-691,641	-171,766	0,060	0,001
-690,627	267,583	-0,054	0,068
-689,612	272,371	0,092	0,118
-688,597	299,551	-0,077	-0,104
-687,583	286,162	-0,104	-0,136
-686,568	-200,000	-0,009	-0,086
-685,554	-200,000	0,024	-0,134
-684,539	-157,742	0,095	-0,004
-683,524	-200,000	-0,003	0,091
-682,510	-200,000	-0,040	0,144
-681,495	-200,000	0,007	0,080
-680,481	-200,000	0,034	-0,117
-679,466	-200,000	-0,005	-0,100
-678,451	236,054	0,075	-0,090
-677,437	-200,000	-0,042	0,200
-676,422	21,545	0,153	0,090
-675,408	296,304	-0,082	-0,109
-674,393	800,000	-0,047	-0,100
-673,378	-200,000	-0,003	-0,045
-672,364	-98,419	-0,184	0,034
-671,349	195,745	0,010	-0,011
-670,335	800,000	-0,072	-0,198
-669,320	800,000	-0,046	0,125
-668,305	282,267	-0,108	0,141
-667,291	-35,889	0,139	-0,054
-666,276	-163,927	-0,097	0,003
-665,262	-200,000	0,010	0,178
-664,247	800,000	-0,035	-0,110
-663,232	-138,107	-0,046	-0,004
-662,218	-200,000	-0,010	0,098
-661,203	800,000	0,019	-0,041
-660,189	-114,338	0,252	0,035
-659,174	28,076	-0,025	-0,015
-658,159	-85,628	-0,171	-0,038
-657,145	-200,000	-0,000	0,014
-656,130	82,062	-0,057	-0,045
-655,116	-50,143	0,038	0,013
-654,101	-18,469	0,048	0,021
-653,086	-87,372	-0,108	0,024
-652,072	-79,254	0,012	-0,003
-651,057	-63,653	-0,044	-0,013
-650,043	-200,000	0,020	-0,105
-649,028	800,000	0,028	-0,059
-648,014	-117,535	0,054	-0,007
-646,999	-138,860	-0,022	0,002
-645,984	416,511	-0,022	-0,034
-644,970	95,314	-0,060	0,049
-643,955	148,472	-0,144	-0,141
-642,941	-200,000	-0,005	-0,172
-641,926	-200,000	-0,019	0,064
-640,911	-24,928	-0,038	-0,016
-639,897	-200,000	-0,001	-0,064
-638,882	800,000	-0,041	-0,115
-637,868	-200,000	0,001	0,017
-636,853	797,738	0,015	-0,029
-635,838	-200,000	-0,007	-0,072
-634,824	-76,280	-0,142	0,036
-633,809	177,487	0,039	-0,041
-632,795	-94,989	0,180	-0,035
-631,780	599,498	0,052	-0,093
-630,765	-200,000	-0,014	0,075
-629,751	16,662	-0,082	-0,047
-628,736	637,739	-0,016	-0,030
-627,722	-52,433	0,122	-0,041
-626,707	-113,072	-0,080	0,011
-625,692	190,644	0,051	-0,056
-624,678	541,324	0,042	-0,072
-623,663	800,000	-0,019	-0,061
-622,649	800,000	-0,031	0,081
-621,634	-200,000	0,003	-0,035
-620,619	515,906	-0,034	-0,057
-619,605	44,366	-0,050	-0,033
-618,590	31,713	-0,064	0,040
-617,576	-200,000	0,004	-0,022
-616,561	464,197	0,076	0,123
-615,546	205,458	-0,085	-0,096
-614,532	800,000	-0,022	-0,045
-613,517	-1,317	0,045	-0,023
-612,503	-26,412	-0,051	-0,022
-611,488	191,322	-0,013	0,014
-610,474	-87,270	0,093	-0,020
-609,459	-200,000	0,033	-0,156
-608,444	-200,000	0,026	-0,101
-607,430	-33,241	-0,087	-0,035
-606,415	6,572	-0,132	-0,071
-605,401	223,366	0,119	-0,139
-604,386	-52,029	-0,068	0,023
-603,371	-22,118	0,029	-0,013
-602,357	510,280	0,036	0,060
-601,342	123,519	0,069	0,062
-600,328	-111,715	0,103	0,015
-599,313	424,579	-0,020	0,031
-598,298	-140,149	-0,169	-0,013
-597,284	-126,717	-0,100	0,011
-596,269	-200,000	0,024	0,093
-595,255	800,000	-0,040	0,114
-594,240	-97,928	0,062	0,012
-593,225	-133,789	-0,096	0,008
-592,211	240,381	-0,052	-0,063
-591,196	68,293	-0,105	-0,078
-590,182	517,081	0,141	0,239
-589,167	800,000	0,021	0,062
-588,152	121,316	-0,041	0,037
-587,138	800,000	-0,009	-0,021
-586,123	800,000	-0,042	-0,130
-585,109	-200,000	-0,030	-0,097
-584,094	-200,000	-0,002	-0,018
-583,079	107,091	-0,090	-0,077
-582,065	-54,721	-0,209	-0,068
-581,050	531,279	-0,052	0,090
-580,036	-114,715	-0,091	0,012
-579,021	-46,847	-0,124	-0,044
-578,006	-200,000	-0,018	-0,138
-576,992	53,100	-0,120	0,083
-575,977	-200,000	0,008	0,052
-574,963	289,237	-0,018	-0,023
-573,948	-200,000	0,018	-0,121
-572,934	298,698	0,009	0,012
-571,919	800,000	-0,011	0,026
-570,904	-200,000	-0,040	-0,148
-569,890	-130,310	0,134	-0,013
-568,875	-200,000	0,002	0,046
-567,861	-131,463	-0,129	-0,012
-566,846	-200,000	-0,014	0,047
-565,831	237,195	-0,019	0,023
-564,817	-200,000	-0,002	0,041
-563,802	800,000	-0,053	-0,115
-562,788	-61,789	0,070	0,021
-561,773	800,000	-0,095	0,229
-560,758	-200,000	-0,013	-0,063
-559,744	33,306	0,064	0,040
-558,729	-200,000	0,003	-0,016
-557,715	800,000	-0,073	-0,147
-556,700	-94,604	-0,084	0,016
-555,685	-9,084	-0,025	0,012
-554,671	800,000	-0,005	-0,012
-553,656	-200,000	0,026	0,102
-552,642	800,000	0,066	0,154
-551,627	-200,000	0,016	0,073
-550,612	800,000	-0,032	0,078
-549,598	2,272	-0,042	-0,022
-548,583	167,469	-0,055	0,057
-547,569	204,913	-0,086	-0,096
-546,554	-200,000	0,011	0,129
-545,539	800,000	-0,033	0,083
-544,525	-8,690	-0,077	0,037
-543,510	35,987	-0,074	-0,047
-542,496	-79,927	-0,070	0,017
-541,481	800,000	0,020	-0,051
-540,466	-38,358	0,053	0,020
-539,452	353,510	0,075	-0,108
-538,437	560,916	-0,024	-0,043
-537,423	800,000	0,036	0,073
-536,408	-200,000	0,005	-0,146
-535,393	-129,858	0,011	-0,001
-534,379	285,827	0,024	-0,031
-533,364	2,242	-0,094	0,049
-532,350	205,978	0,111	0,124
-531,335	30,958	0,004	-0,003
-530,321	-200,000	-0,011	0,077
-529,306	590,117	0,075	-0,135
-528,291	-200,000	-0,034	-0,110
-527,277	-200,000	0,033	-0,107
-526,262	-200,000	0,031	0,142
-525,248	-31,987	0,044	0,018
-524,233	33,879	0,077	-0,048
-523,218	-42,318	0,124	-0,045
-522,204	64,350	0,015	0,011
-521,189	-125,539	-0,131	0,014
-520,175	-66,999	0,059	-0,017
-519,160	700,462	0,047	-0,090
-518,145	-200,000	-0,025	0,115
-517,131	508,015	0,129	0,216
-516,116	-96,220	0,042	-0,008
-515,102	-38,127	-0,071	-0,027
-514,087	107,350	-0,109	0,094
-513,072	33,589	-0,138	-0,086
-512,058	48,257	0,180	0,121
-511,043	-86,121	-0,078	-0,017
-510,029	-200,000	-0,007	0,027
-509,014	94,520	-0,033	-0,027
-507,999	-128,255	-0,165	0,017
-506,985	-164,291	0,117	-0,004
-505,970	800,000	-0,018	-0,052
-504,956	-10,217	0,066	-0,031
-503,941	-200,000	-0,001	0,070
-502,926	-50,809	-0,124	0,042
-501,912	180,245	0,082	0,087
-500,897	-95,730	-0,067	0,013
-499,883	24,249	0,010	0,006
-498,868	-103,246	-0,093	0,016
-497,853	-200,000	0,020	-0,157
-496,839	-200,000	-0,007	0,039
-495,824	3,772	0,055	0,029
-494,810	53,819	0,118	0,082
-493,795	800,000	0,020	0,053
-492,781	-90,480	-0,093	0,019
-491,766	62,490	-0,089	-0,064
-490,751	164,517	0,055	0,056
-489,737	-200,000	-0,015	0,086
-488,722	-99,306	0,177	0,032
-487,708	-200,000	0,017	0,104
-486,693	-200,000	-0,002	0,100
-485,678	800,000	-0,019	0,037
-484,664	-200,000	0,011	-0,143
-483,649	-200,000	-0,008	-0,107
-482,635	-16,998	0,188	0,085
-481,620	91,787	-0,089	0,072
-480,605	800,000	0,035	0,101
-479,591	-200,000	0,001	-0,049
-478,576	299,506	-0,060	-0,079
-477,562	-200,000	-0,012	0,058
-476,547	729,001	-0,042	-0,081
-475,532	-200,000	-0,033	0,140
-474,518	-96,301	0,085	0,016
-473,503	-200,000	0,003	0,088
-472,489	109,983	0,143	-0,123
-471,474	289,217	-0,046	0,060
-470,459	114,198	0,076	-0,067
-469,445	-75,173	0,123	0,031
-468,430	-38,987	0,137	0,052
-467,416	-116,603	-0,046	-0,006
-466,401	181,163	-0,036	0,038
-465,386	-200,000	-0,017	-0,095
-464,372	-200,000	0,030	-0,128
-463,357	800,000	0,022	0,049
-462,343	210,397	0,051	-0,058
-461,328	-53,684	-0,082	-0,027
-460,313	5,162	0,113	0,060
-459,299	-163,241	-0,130	0,004
-458,284	-159,904	0,089	0,003
-457,270	-123,843	-0,108	-0,012
-456,255	-94,953	-0,062	0,012
-455,241	-43,694	-0,169	0,061
-454,226	155,149	-0,091	0,090
-453,211	-200,000	0,043	-0,161
-452,197	79,120	0,099	0,076
-451,182	115,498	0,055	0,049
-450,168	-63,801	0,049	0,014
-449,153	-200,000	-0,048	0,189
-448,138	630,375	-0,047	-0,086
-447,124	-150,487	-0,104	-0,006
-446,109	800,000	-0,027	-0,077
-445,095	-97,040	0,047	0,009
-444,080	505,841	0,045	0,075
-443,065	-200,000	0,035	0,211
-442,051	-200,000	0,001	-0,065
-441,036	-67,495	-0,070	0,020
-440,022	-200,000	-0,002	-0,057
-439,007	-200,000	-0,000	-0,027
-437,992	-108,828	0,071	-0,011
-436,978	330,298	-0,037	0,052
-435,963	-46,564	0,122	0,043
-434,949	-200,000	-0,005	0,026
-433,934	418,168	-0,057	-0,088
-432,919	59,283	0,035	-0,025
-431,905	-163,593	0,065	0,002
-430,890	-2,167	0,051	0,025
-429,876	-77,714	-0,156	-0,038
-428,861	-200,000	0,003	0,049
-427,846	800,000	0,030	-0,062
-426,832	164,384	0,028	-0,028
-425,817	-148,869	0,068	0,004
-424,803	-200,000	0,014	-0,048
-423,788	-71,119	0,159	0,043
-422,773	405,163	0,034	-0,051
-421,759	-49,325	0,063	0,022
-420,744	-200,000	-0,017	0,083
-419,730	468,885	-0,039	-0,063
-418,715	661,929	-0,035	-0,064
-417,701	327,337	-0,082	-0,113
-416,686	-152,519	-0,071	-0,004
-415,671	41,945	0,277	0,180
-414,657	-200,000	0,008	0,089
-413,642	800,000	-0,025	0,053
-412,628	-103,190	0,133	0,022
-411,613	149,528	-0,074	0,072
-410,598	800,000	-0,034	-0,092
-409,584	-130,122	0,059	-0,006
-408,569	268,029	0,063	0,079
-407,555	-200,000	-0,038	0,146
-406,540	152,430	0,121	-0,119
-405,525	-200,000	-0,007	0,095
-404,511	32,743	0,125	0,077
-403,496	42,745	-0,058	-0,038
-402,482	61,249	0,127	-0,090
-401,467	85,400	0,052	-0,041
-400,452	800,000	0,036	0,071
-399,438	-35,229	-0,059	0,023
-398,423	-154,333	0,083	-0,004
-397,409	53,141	-0,065	0,044
-396,394	566,264	-0,032	0,056
-395,379	30,162	0,091	0,055
-394,365	186,970	0,066	0,070
-393,350	179,952	0,017	-0,018
-392,336	800,000	0,084	0,169
-391,321	-46,962	-0,061	-0,021
-390,306	-200,000	0,009	-0,106
-389,292	68,824	-0,029	-0,021
-388,277	504,371	0,046	0,077
-387,263	-200,000	0,003	0,054
-386,248	800,000	-0,028	-0,073
-385,233	-31,334	0,077	0,031
-384,219	-83,702	0,088	-0,020
-383,204	-30,814	-0,167	0,067
-382,190	-200,000	0,004	-0,045
-381,175	-19,416	0,032	0,014
-380,160	800,000	0,014	0,039
-379,146	24,922	0,095	0,056
-378,131	10,986	0,103	0,056
-377,117	800,000	0,097	-0,199
-376,102	80,811	-0,163	-0,126
-375,088	800,000	-0,060	-0,146
-374,073	-127,187	0,040	0,004
-373,058	164,920	-0,013	0,013
-372,044	162,744	0,029	0,029
-371,029	268,627	-0,033	0,042
-370,015	800,000	0,017	0,037
-369,000	34,201	0,059	-0,037
-367,985	193,357	-0,039	-0,043
-366,971	-140,324	0,152	0,011
-365,956	-200,000	0,007	0,072
-364,942	113,374	0,024	0,021
-363,927	-69,979	0,051	-0,014
-362,912	-97,891	0,036	0,007
-361,898	-200,000	-0,007	-0,062
-360,883	712,541	-0,051	-0,097
-359,869	-97,483	0,154	-0,028
-358,854	130,740	0,104	-0,095
-357,839	166,549	-0,049	0,050
-356,825	-61,232	0,234	0,070
-355,810	38,112	-0,030	0,019
-354,796	136,638	-0,027	-0,026
-353,781	-108,849	0,101	-0,015
-352,766	800,000	0,032	0,066
-351,752	-79,790	0,128	0,031
-350,737	800,000	-0,033	0,093
-349,723	-200,000	-0,015	-0,061
-348,708	118,942	0,069	0,061
-347,693	-2,881	0,058	0,029
-346,679	-70,502	0,065	0,017
-345,664	-200,000	-0,032	-0,159
-344,650	-200,000	0,001	-0,041
-343,635	2,318	-0,025	-0,013
-342,620	-200,000	-0,013	0,071
-341,606	-200,000	-0,006	0,028
-340,591	-82,635	-0,086	-0,020
-339,577	-16,525	-0,066	-0,030
-338,562	-200,000	-0,009	-0,113
-337,548	-165,295	0,060	-0,002
-336,533	-154,549	-0,078	-0,004
-335,518	-144,873	0,173	-0,011
-334,504	-200,000	0,018	0,098
-333,489	800,000	-0,007	0,020
-332,475	141,294	-0,044	-0,042
-331,460	800,000	-0,082	-0,194
-330,445	360,163	0,041	-0,058
-329,431	49,749	-0,026	0,017
-328,416	526,316	0,038	0,064
-327,402	-200,000	-0,009	-0,094
-326,387	37,844	-0,075	0,048
-325,372	-110,306	-0,061	0,009
-324,358	-148,649	-0,092	-0,005
-323,343	-27,968	0,059	-0,024
-322,329	18,128	0,014	-0,008
-321,314	-200,000	0,023	0,080
-320,299	11,856	-0,074	-0,040
-319,285	-200,000	0,024	-0,089
-318,270	-200,000	-0,044	-0,165
-317,256	276,748	-0,109	-0,139
-316,241	800,000	0,065	0,129
-315,226	-200,000	0,006	0,094
-314,212	21,108	0,032	0,018
-313,197	60,868	-0,053	-0,038
-312,183	247,681	0,031	-0,037
-311,168	-200,000	0,005	-0,023
-310,153	58,849	0,093	-0,065
-309,139	1,851	-0,074	0,038
-308,124	-146,007	-0,135	0,008
-307,110	-200,000	-0,011	0,066
-306,095	-121,820	-0,189	0,022
-305,080	-13,757	0,083	0,038
-304,066	285,167	0,097	0,126
-303,051	-200,000	-0,024	0,119
-302,037	-200,000	0,030	-0,116
-301,022	-29,762	0,141	-0,057
-300,008	460,394	-0,043	0,068
-298,993	29,850	0,133	0,081
-297,978	-76,957	-0,180	0,044
-296,964	800,000	-0,043	0,102
-295,949	76,254	-0,099	0,075
-294,935	-147,631	-0,058	0,003
-293,920	-44,698	0,124	0,044
-292,905	703,736	-0,061	0,116
-291,891	46,040	0,192	0,127
-290,876	-200,000	-0,014	-0,076
-289,862	332,045	0,151	-0,209
-288,847	231,277	0,142	-0,167
-287,832	116,777	-0,126	-0,110
-286,818	133,895	0,063	-0,058
-285,803	262,523	-0,120	0,149
-284,789	-105,013	-0,006	-0,001
-283,774	800,000	0,035	0,088
-282,759	-136,389	0,062	0,005
-281,745	-107,902	-0,210	-0,032
-280,730	622,094	-0,062	-0,113
-279,716	38,800	0,101	-0,064
-278,701	-200,000	-0,032	0,117
-277,686	800,000	0,016	0,045
-276,672	256,856	0,033	0,041
-275,657	36,811	-0,067	0,042
-274,643	800,000	-0,066	-0,141
-273,628	-200,000	0,021	-0,154
-272,613	-121,354	-0,080	0,009
-271,599	216,762	-0,043	-0,049
-270,584	205,704	-0,070	0,078
-269,570	23,778	0,084	0,049
-268,555	-105,229	0,039	0,006
-267,540	-200,000	0,004	-0,038
-266,526	-200,000	0,003	0,021
-265,511	-200,000	-0,057	-0,187
-264,497	800,000	-0,060	0,129
-263,482	-119,758	0,026	-0,003
-262,467	243,078	-0,045	0,054
-261,453	-81,398	-0,093	0,022
-260,438	-21,357	0,064	-0,028
-259,424	46,462	0,120	-0,079
-258,409	356,509	0,046	-0,066
-257,395	-200,000	-0,004	-0,065
-256,380	800,000	-0,014	-0,037
-255,365	16,549	0,064	-0,036
-254,351	-140,650	-0,032	0,002
-253,336	253,443	-0,059	-0,073
-252,322	-200,000	0,034	-0,149
-251,307	800,000	-0,058	-0,135
-250,292	-88,876	-0,146	0,031
-249,278	800,000	-0,057	-0,146
-248,263	437,967	-0,048	0,074
-247,249	78,290	0,086	0,066
-246,234	-100,853	-0,081	0,014
-245,219	-200,000	-0,028	-0,115
-244,205	-60,961	0,144	-0,043
-243,190	-164,652	0,014	0,000
-242,176	-200,000	-0,014	-0,121
-241,161	266,543	0,042	0,053
-240,146	410,827	0,100	0,152
-239,132	100,922	0,028	-0,023
-238,117	60,217	-0,071	0,050
-237,103	-182,860	-0,138	0,002
-236,088	800,000	-0,017	-0,047
-235,073	-64,565	0,186	-0,053
-234,059	-200,000	-0,033	0,120
-233,044	-200,000	0,001	-0,025
-232,030	654,404	0,027	-0,049
-231,015	-116,124	-0,032	0,004
-230,000	540,536	0,077	-0,132
-228,986	-130,599	-0,020	0,002
-227,971	270,701	-0,056	-0,070
-226,957	-52,054	0,073	-0,024
-225,942	-93,242	0,083	0,016
-224,927	-200,000	0,013	0,177
-223,913	-200,000	-0,036	0,119
-222,898	-90,205	-0,170	0,035
-221,884	-6,682	0,062	-0,030
-220,869	-200,000	-0,019	0,062
-219,855	800,000	0,063	-0,129
-218,840	325,945	-0,077	0,105
-217,825	-200,000	-0,006	-0,034
-216,811	37,909	0,038	0,024
-215,796	-200,000	-0,006	-0,103
-214,782	-200,000	-0,020	0,206
-213,767	6,391	0,072	-0,038
-212,752	151,503	0,099	0,096
-211,738	800,000	-0,020	-0,041
-210,723	-200,000	-0,002	-0,049
-209,709	42,262	0,080	0,051
-208,694	-146,995	-0,131	0,008
-207,679	-96,054	-0,031	0,006
-206,665	-74,106	-0,144	0,037
-205,650	-200,000	0,024	0,143
-204,636	200,193	-0,043	-0,047
-203,621	59,060	0,040	-0,028
-202,606	139,313	-0,090	0,085
-201,592	-115,131	-0,078	-0,010
-200,577	-9,154	0,141	0,067
-199,563	-54,431	0,111	0,036
-198,548	-76,474	-0,178	0,044
-197,533	-200,000	-0,010	0,041
-196,519	147,715	-0,034	-0,032
-195,504	40,181	-0,081	0,052
-194,490	-114,529	-0,072	-0,010
-193,475	-200,000	-0,015	-0,106
-192,460	-167,258	-0,011	0,000
-191,446	-168,148	-0,085	-0,002
-190,431	-200,000	0,057	0,216
-189,417	-200,000	0,020	-0,098
-188,402	-200,000	-0,005	0,099
-187,387	-7,993	-0,128	0,061
-186,373	-118,439	-0,107	-0,013
-185,358	425,003	0,035	-0,054
-184,344	-51,824	0,169	0,056
-183,329	-200,000	0,020	0,189
-182,315	19,194	-0,042	0,024
-181,300	-102,521	0,034	0,006
-180,285	-94,736	-0,210	-0,040
-179,271	427,190	0,038	0,058
-178,256	53,136	0,103	-0,070
-177,242	-200,000	0,001	-0,148
-176,227	-200,000	-0,004	0,078
-175,212	339,088	-0,056	0,078
-174,198	159,267	0,072	0,071
-173,183	-35,723	-0,178	-0,068
-172,169	-24,937	-0,038	0,016
-171,154	-200,000	-0,007	0,040
-170,139	87,616	0,089	-0,070
-169,125	176,675	0,073	0,076
-168,110	27,958	-0,173	0,104
-167,096	800,000	0,039	-0,079
-166,081	-200,000	-0,018	-0,172
-165,066	-200,000	-0,006	-0,152
-164,052	45,471	-0,047	-0,031
-163,037	541,405	0,045	0,077
-162,023	240,740	0,066	0,079
-161,008	-101,967	-0,055	0,009
-159,993	14,786	0,050	-0,028
-158,979	-200,000	-0,018	-0,176
-157,964	69,279	0,077	-0,056
-156,950	-200,000	-0,011	-0,126
-155,935	800,000	0,061	0,171
-154,920	-86,972	0,069	-0,015
-153,906	268,188	0,037	-0,046
-152,891	800,000	0,048	0,117
-151,877	298,827	-0,040	0,053
-150,862	-116,852	-0,070	-0,009
-149,847	626,227	0,035	-0,063
-148,833	331,766	-0,059	0,081
-147,818	270,522	0,041	0,052
-146,804	-200,000	0,006	0,038
-145,789	-200,000	-0,008	-0,057
-144,775	800,000	0,050	-0,125
-143,760	572,799	-0,086	-0,150
-142,745	0,851	-0,136	-0,069
-141,731	54,988	0,084	-0,057
-140,716	9,321	0,039	0,021
-139,702	800,000	0,040	0,102
-138,687	-45,570	-0,107	0,037
-137,672	800,000	0,031	-0,063
-136,658	70,223	-0,101	-0,074
-135,643	244,836	0,078	-0,093
-134,629	-200,000	-0,062	0,000
-133,614	222,805	0,063	0,072
-132,599	800,000	-0,059	0,170
-131,585	754,328	0,070	0,135
-130,570	-200,000	-0,005	0,067
-129,556	-200,000	-0,021	0,081
-128,541	120,369	-0,080	-0,071
-127,526	800,000	-0,017	-0,050
-126,512	720,495	-0,067	0,126
-125,497	-131,832	0,028	0,003
-124,483	457,773	-0,040	-0,064
-123,468	800,000	-0,051	0,109
-122,453	93,947	0,015	-0,012
-121,439	-200,000	-0,004	0,079
-120,424	-200,000	-0,046	-0,225
-119,410	378,723	-0,067	-0,098
-118,395	62,651	0,067	-0,047
-117,380	213,344	0,124	-0,139
-116,366	-114,993	-0,067	-0,009
-115,351	-200,000	-0,020	-0,071
-114,337	8,608	0,074	-0,039
-113,322	-89,471	0,093	-0,019
-112,307	-200,000	0,021	0,095
-111,293	94,966	0,102	0,083
-110,278	-17,966	0,071	-0,032
-109,264	-200,000	-0,022	0,100
-108,249	73,171	-0,127	0,094
-107,234	-82,857	-0,060	-0,014
-106,220	-200,000	-0,031	-0,244
-105,205	-200,000	0,046	-0,180
-104,191	-54,412	0,150	0,048
-103,176	269,687	-0,026	0,032
-102,162	360,377	0,026	-0,038
-101,147	-11,654	-0,055	-0,025
-100,132	-200,000	0,018	-0,101
-99,118	291,342	0,056	0,073
-98,103	600,376	0,048	-0,084
-97,089	-200,000	-0,030	-0,128
-96,074	-200,000	-0,039	-0,179
-95,059	800,000	0,054	-0,112
-94,045	-38,163	-0,103	-0,038
-93,030	667,838	0,040	-0,073
-92,016	-76,439	-0,036	0,009
-91,001	-200,000	-0,028	-0,125
-89,986	30,830	0,160	-0,097
-88,972	39,055	-0,105	0,066
-87,957	334,499	0,106	-0,146
-86,943	-200,000	-0,036	-0,153
-85,928	153,436	0,096	-0,093
-84,913	302,333	-0,040	0,053
-83,899	-200,000	0,002	0,015
-82,884	-200,000	0,002	0,061
-81,870	291,010	-0,116	0,149
-80,855	610,862	-0,074	-0,132
-79,840	-83,209	-0,061	0,014
-78,826	-14,838	0,027	0,012
-77,811	-52,154	-0,113	-0,037
-76,797	-37,937	-0,067	0,025
-75,782	30,080	0,063	0,038
-74,767	351,243	0,019	0,027
-73,753	-200,000	-0,049	0,189
-72,738	-131,824	-0,015	-0,001
-71,724	800,000	0,022	0,061
-70,709	199,584	-0,079	0,086
-69,694	127,725	0,060	-0,054
-68,680	-200,000	0,008	-0,147
-67,665	275,468	0,033	-0,041
-66,651	-200,000	-0,025	0,086
-65,636	23,677	-0,083	-0,049
-64,622	193,302	-0,136	-0,146
-63,607	115,207	-0,010	0,009
-62,592	-200,000	0,001	-0,036
-61,578	-200,000	0,018	0,194
-60,563	-200,000	-0,024	0,275
-59,549	-200,000	-0,037	0,126
-58,534	-12,571	-1,690	-0,778
-57,519	354,982	-1,500	-2,118
-56,505	-200,000	-0,463	-4,491
-55,490	200,992	0,997	1,087
-54,476	800,000	4,980	11,548
-53,461	-200,000	19,238	319,810
-52,446	-200,000	740,413	2334,091
-51,432	573,459	1655,113	2868,811
-50,417	78,362	1670,768	1262,107
-49,403	21,310	1543,943	885,720
-48,388	15,178	1466,090	811,244
-47,373	17,911	1456,531	819,131
-46,359	16,609	1446,388	807,147
-45,344	13,444	1441,760	789,372
-44,330	13,361	1439,626	787,776
-43,315	13,431	1437,953	787,163
-42,300	13,362	1436,446	785,976
-41,286	13,399	1435,059	785,365
-40,271	13,325	1434,036	784,418
-39,257	13,336	1432,528	783,617
-38,242	13,363	1431,238	783,007
-37,227	13,416	1430,132	782,624
-36,213	13,397	1428,727	781,734
-35,198	13,373	1427,682	781,020
-34,184	13,441	1426,580	780,707
-33,169	13,360	1425,308	779,595
-32,154	13,407	1424,167	779,164
-31,140	13,408	1423,119	778,562
-30,125	13,439	1421,887	778,007
-29,111	13,401	1420,729	777,163
-28,096	13,437	1419,405	776,577
-27,082	13,354	1418,768	775,805
-26,067	13,313	1417,493	774,885
-25,052	13,346	1416,247	774,330
-24,038	13,269	1415,560	773,558
-23,023	13,357	1414,402	773,307
-22,009	13,343	1413,237	772,575
-20,994	13,275	1412,500	771,822
-19,979	13,267	1411,488	771,200
-18,965	13,308	1410,498	770,823
-17,950	13,302	1409,393	770,159
-16,936	13,304	1408,687	769,751
-15,921	13,289	1407,474	768,990
-14,906	13,269	1406,763	768,478
-13,892	13,271	1405,836	767,948
-12,877	13,220	1404,929	767,185
-11,863	13,269	1403,878	766,808
-10,848	13,231	1403,274	766,274
-9,833	13,186	1402,426	765,570
-8,819	13,176	1401,494	764,981
-7,804	13,134	1400,574	764,253
-6,790	13,140	1399,519	763,677
-5,775	13,148	1398,470	763,110
-4,760	13,165	1397,590	762,679
-3,746	13,143	1396,588	761,999
-2,731	13,140	1395,850	761,552
-1,717	13,113	1394,989	760,928
-0,702	13,066	1393,121	759,664
0,313	16,986	1309,834	732,383
1,327	33,184	703,910	431,033
2,342	51,131	123,340	82,647
3,356	2,485	16,671	8,513
4,371	14,502	3,165	1,743
5,386	17,435	0,496	0,278
6,400	-200,000	0,027	0,205
7,415	-66,242	-0,405	-0,113
8,429	110,102	-0,186	-0,158
9,444	-59,772	-0,414	-0,125
10,459	-124,566	-0,428	-0,046
11,473	168,663	-0,213	-0,215
12,488	-9,089	-0,234	-0,110
13,502	-49,771	-0,298	-0,099
14,517	74,801	-0,325	-0,241
15,531	172,513	-0,285	-0,290
16,546	17,568	-0,295	-0,165
17,561	163,145	-0,347	-0,345
18,575	-72,921	-0,230	-0,059
19,590	24,017	-0,285	-0,166
20,604	61,403	-0,161	-0,113
21,619	185,300	-0,357	-0,375
22,634	32,101	-0,444	-0,270
23,648	65,580	-0,469	-0,335
24,663	152,810	-0,293	-0,282
25,677	-55,301	-0,284	-0,090
26,692	-26,414	-0,370	-0,152
27,707	80,186	-0,320	-0,243
28,721	-44,206	-0,382	-0,135
29,736	63,066	-0,476	-0,336
30,750	41,419	-0,372	-0,237
31,765	55,362	-0,403	-0,275
32,780	-11,824	-0,419	-0,193
33,794	198,136	-0,343	-0,371
34,809	136,149	-0,357	-0,329
35,823	66,822	-0,435	-0,312
36,838	226,509	-0,325	-0,372
37,853	-68,683	-0,413	-0,112
38,867	26,570	-0,413	-0,243
39,882	-53,962	-0,400	-0,128
40,896	126,852	-0,214	-0,191
41,911	70,515	-0,320	-0,233
42,926	71,375	-0,460	-0,336
43,940	69,738	-0,290	-0,210
44,955	160,862	-0,429	-0,423
45,969	73,605	-0,381	-0,281
46,984	177,264	-0,297	-0,305
47,999	14,562	-0,338	-0,185
49,013	-106,815	-0,496	-0,077
50,028	244,301	-0,300	-0,355
51,042	151,529	-0,325	-0,312
52,057	108,176	-0,380	-0,319
53,071	140,325	-0,242	-0,225
54,086	-28,961	-0,339	-0,137
55,101	70,557	-0,298	-0,217
56,115	114,276	-0,302	-0,259
57,130	1,859	-0,360	-0,182
58,144	75,099	-0,344	-0,255
59,159	18,727	-0,445	-0,250
60,174	-52,657	-0,385	-0,124
61,188	339,001	-0,281	-0,386
62,203	127,352	-0,234	-0,210
63,217	116,397	-0,273	-0,235
64,232	14,053	-0,305	-0,167
65,247	23,226	-0,293	-0,169
66,261	177,305	-0,247	-0,253
67,276	255,561	-0,353	-0,426
68,290	-40,112	-0,231	-0,084
69,305	-8,487	-0,353	-0,166
70,320	9,874	-0,323	-0,172
71,334	64,884	-0,284	-0,201
72,349	-117,627	-0,396	-0,050
73,363	-7,911	-0,361	-0,171
74,378	-17,034	-0,324	-0,143
75,393	12,374	-0,256	-0,139
76,407	52,501	-0,218	-0,146
77,422	-29,606	-0,308	-0,123
78,436	235,767	-0,160	-0,186
79,451	49,503	-0,271	-0,179
80,466	36,120	-0,208	-0,128
81,480	-16,648	-0,353	-0,156
82,495	64,035	-0,245	-0,173
83,509	-90,700	-0,267	-0,054
84,524	41,961	-0,301	-0,191
85,539	14,079	-0,275	-0,150
86,553	-9,541	-0,322	-0,150
87,568	59,595	-0,328	-0,227
88,582	30,166	-0,290	-0,174
89,597	71,688	-0,272	-0,198
90,611	-23,419	-0,313	-0,131
91,626	-21,896	-0,369	-0,157
92,641	94,944	-0,131	-0,105
93,655	-131,284	-0,230	-0,021
94,670	36,532	-0,205	-0,127
95,684	-15,122	-0,370	-0,166
96,699	399,156	-0,211	-0,312
97,714	54,172	-0,310	-0,209
98,728	72,753	-0,333	-0,244
99,743	17,756	-0,334	-0,186
100,757	179,383	-0,294	-0,302
101,772	45,991	-0,456	-0,295
102,787	310,548	-0,169	-0,223
103,801	0,605	-0,334	-0,167
104,816	126,685	-0,141	-0,125
105,830	206,087	-0,203	-0,222
106,845	241,693	-0,204	-0,239
107,860	398,278	-0,216	-0,318
108,874	117,019	-0,259	-0,223
109,889	193,666	-0,206	-0,219
110,903	120,257	-0,284	-0,247
111,918	140,743	-0,257	-0,238
112,933	149,030	-0,202	-0,191
113,947	34,455	-0,286	-0,175
114,962	52,194	-0,306	-0,204
115,976	165,238	-0,265	-0,262
116,991	-124,398	-0,313	-0,034
118,006	158,453	-0,281	-0,274
119,020	26,410	-0,325	-0,190
120,035	458,869	-0,136	-0,212
121,049	-60,468	-0,321	-0,095
122,064	-6,463	-0,187	-0,089
123,079	518,669	-0,112	-0,185
124,093	39,704	-0,208	-0,131
125,108	-73,524	-0,309	-0,078
126,122	521,839	-0,206	-0,340
127,137	156,386	-0,145	-0,140
128,151	53,927	-0,269	-0,180
129,166	-85,473	-0,221	-0,048
130,181	50,818	-0,260	-0,172
131,195	428,915	-0,161	-0,244
132,210	28,959	-0,294	-0,174
133,224	238,919	-0,175	-0,204
134,239	79,237	-0,226	-0,169
135,254	51,315	-0,260	-0,172
136,268	289,657	-0,260	-0,330
137,283	-9,313	-0,345	-0,161
138,297	-30,279	-0,254	-0,101
139,312	45,310	-0,373	-0,240
140,327	-37,697	-0,224	-0,083
141,341	569,234	-0,166	-0,283
142,356	98,366	-0,236	-0,190
143,370	-112,739	-0,238	-0,033
144,385	232,673	-0,258	-0,297
145,400	20,321	-0,355	-0,200
146,414	22,916	-0,375	-0,214
147,429	313,455	-0,182	-0,240
148,443	-101,976	-0,179	-0,030
149,458	70,802	-0,163	-0,118
150,473	105,565	-0,122	-0,101
151,487	-8,467	-0,302	-0,141
152,502	-88,502	-0,369	-0,076
153,516	51,597	-0,264	-0,175
154,531	800,000	-0,092	-0,211
155,546	15,744	-0,260	-0,143
156,560	-54,085	-0,188	0,059
157,575	-71,032	-0,291	-0,076
158,589	10,431	-0,248	-0,131
159,604	51,776	-0,315	-0,209
160,619	97,319	-0,289	-0,232
161,633	379,011	-0,148	-0,212
162,648	443,942	-0,190	-0,291
163,662	155,413	-0,172	-0,166
164,677	-7,438	-0,274	-0,129
165,692	55,064	-0,263	-0,177
166,706	-23,083	-0,230	-0,096
167,721	537,008	-0,224	-0,373
168,735	276,179	-0,211	-0,262
169,750	128,476	-0,208	-0,185
170,764	-9,804	-0,223	-0,103
171,779	61,127	-0,239	-0,165
172,794	-35,826	-0,147	-0,055
173,808	217,279	-0,195	-0,217
174,823	178,399	-0,279	-0,284
175,837	40,185	-0,168	-0,105
176,852	203,130	-0,183	-0,198
177,867	84,430	-0,189	-0,144
178,881	800,000	-0,156	-0,319
179,896	151,946	-0,134	-0,128
180,910	99,726	-0,238	-0,192
181,925	86,514	-0,278	-0,214
182,940	153,748	-0,315	-0,301
183,954	235,065	-0,193	-0,223
184,969	380,709	-0,134	-0,192
185,983	54,448	-0,205	-0,137
186,998	800,000	-0,133	-0,287
188,013	64,101	-0,122	-0,086
189,027	-0,846	-0,178	-0,088
190,042	268,102	-0,218	-0,267
191,056	74,401	-0,251	-0,184
192,071	70,960	-0,229	-0,165
193,086	580,947	-0,114	-0,195
194,100	216,597	-0,188	-0,208
195,115	80,600	-0,153	-0,115
196,129	207,300	-0,322	-0,350
197,144	-65,170	-0,205	-0,057
198,159	-43,419	-0,273	-0,095
199,173	-136,558	-0,260	-0,021
200,188	-95,612	-0,184	0,034
201,202	-38,182	-0,169	-0,062
202,217	800,000	-0,066	-0,190
203,232	56,299	-0,237	-0,160
204,246	178,320	-0,226	-0,230
205,261	380,803	-0,212	-0,303
206,275	-200,000	-0,034	-0,116
207,290	219,713	-0,132	-0,147
208,304	557,434	-0,133	-0,223
209,319	-106,888	-0,198	-0,030
210,334	3,791	-0,194	-0,098
211,348	170,418	-0,217	-0,216
212,363	236,972	-0,225	-0,259
213,377	-0,114	-0,254	-0,125
214,392	123,751	-0,189	-0,165
215,407	1,627	-0,308	-0,153
216,421	178,544	-0,259	-0,263
217,436	157,104	-0,169	-0,162
218,450	800,000	-0,100	-0,239
219,465	87,438	-0,194	-0,149
220,480	-52,110	-0,171	-0,055
221,494	-104,221	-0,218	-0,035
222,509	50,873	-0,298	-0,196
223,523	559,502	-0,131	-0,220
224,538	699,314	-0,063	-0,115
225,553	177,572	-0,239	-0,242
226,567	-10,201	-0,264	-0,121
227,582	121,847	-0,159	-0,137
228,596	411,776	-0,176	-0,261
229,611	-141,503	-0,186	-0,013
230,626	109,090	-0,159	-0,132
231,640	800,000	-0,115	-0,240
232,655	-21,451	-0,244	-0,103
233,669	800,000	-0,077	-0,216
234,684	270,757	-0,125	-0,153
235,699	800,000	-0,059	-0,117
236,713	-93,230	-0,190	-0,036
237,728	-125,848	-0,256	0,026
238,742	372,614	-0,179	-0,252
239,757	386,574	-0,184	-0,264
240,772	90,791	-0,135	-0,105
241,786	134,896	-0,191	-0,172
242,801	285,637	-0,185	-0,231
243,815	23,305	-0,175	-0,099
244,830	-92,208	-0,131	0,025
245,844	-200,000	0,022	-0,173
246,859	-17,177	-0,203	-0,088
247,874	92,415	-0,079	-0,062
248,888	42,610	-0,211	-0,132
249,903	31,305	-0,279	-0,165
250,917	800,000	-0,090	-0,219
251,932	451,142	-0,082	-0,125
252,947	-159,092	-0,159	0,006
253,961	-57,006	-0,177	-0,054
254,976	-25,249	-0,275	-0,112
255,990	118,537	-0,185	-0,158
257,005	800,000	-0,082	-0,168
258,020	141,151	-0,214	-0,195
259,034	-43,071	-0,220	-0,077
260,049	58,291	-0,233	-0,158
261,063	-73,574	-0,284	-0,071
262,078	-200,000	-0,021	-0,236
263,093	245,897	-0,150	-0,175
264,107	271,539	-0,083	-0,102
265,122	-18,248	-0,171	-0,074
266,136	800,000	-0,092	-0,201
267,151	535,523	-0,183	-0,302
268,166	373,373	-0,160	-0,225
269,180	195,262	-0,189	-0,199
270,195	358,206	-0,182	-0,251
271,209	139,708	-0,209	-0,191
272,224	140,713	-0,100	-0,092
273,239	72,427	-0,227	-0,163
274,253	198,792	-0,118	-0,125
275,268	182,086	-0,112	-0,114
276,282	3,091	-0,287	-0,144
277,297	-31,974	-0,134	-0,052
278,312	-81,909	-0,255	-0,057
279,326	369,059	-0,167	-0,235
280,341	-81,202	-0,027	-0,006
281,355	363,822	-0,058	-0,081
282,370	-0,388	-0,207	-0,101
283,384	-24,448	-0,227	-0,093
284,399	-79,644	-0,225	-0,052
285,414	198,239	-0,094	-0,100
286,428	126,057	-0,171	-0,150
287,443	-37,948	-0,198	-0,072
288,457	183,967	-0,067	-0,069
289,472	-46,862	-0,129	0,043
290,487	-68,322	-0,204	-0,054
291,501	628,003	-0,115	-0,201
292,516	-44,667	-0,214	-0,073
293,530	-200,000	-0,024	-0,166
294,545	800,000	-0,044	-0,128
295,560	38,169	-0,195	-0,119
296,574	-20,519	-0,220	-0,093
297,589	51,885	-0,114	-0,075
298,603	561,457	-0,115	-0,192
299,618	600,920	-0,130	-0,223
300,633	69,250	-0,120	-0,085
301,647	-200,000	-0,046	-0,157
302,662	17,382	-0,201	-0,110
303,676	121,143	-0,076	-0,066
304,691	521,733	-0,114	-0,185
305,706	324,865	-0,091	-0,121
306,720	74,112	-0,147	-0,106
307,735	-145,148	-0,136	-0,008
308,749	36,004	-0,094	-0,057
309,764	12,482	-0,167	-0,089
310,779	287,229	-0,071	-0,088
311,793	-109,980	-0,259	0,037
312,808	-14,952	-0,245	-0,108
313,822	139,131	-0,099	-0,090
314,837	-139,848	0,090	-0,006
315,852	7,231	-0,114	-0,059
316,866	-27,998	-0,068	-0,027
317,881	-58,522	0,032	0,009
318,895	-106,484	-0,214	0,032
319,910	-78,249	-0,213	-0,050
320,925	-19,168	-0,202	-0,086
321,939	-6,263	-0,136	-0,064
322,954	-89,633	-0,128	-0,026
323,968	427,077	-0,086	-0,128
324,983	71,624	0,031	0,022
325,997	-137,847	-0,158	-0,012
327,012	205,925	-0,197	-0,211
328,027	-101,172	-0,251	0,042
329,041	356,470	-0,107	-0,147
330,056	170,614	-0,162	-0,160
331,070	-88,549	-0,110	-0,022
332,085	-65,314	-0,150	-0,041
333,100	72,976	-0,169	-0,121
334,114	616,503	-0,131	-0,226
335,129	113,413	-0,164	-0,137
336,143	800,000	-0,052	-0,127
337,158	196,162	-0,101	0,106
338,173	127,778	-0,156	-0,137
339,187	-88,218	-0,224	-0,046
340,202	-200,000	-0,023	-0,157
341,216	266,819	-0,128	-0,154
342,231	406,933	-0,130	-0,189
343,246	64,892	-0,090	-0,063
344,260	643,419	-0,020	0,035
345,275	800,000	0,022	-0,043
346,289	58,906	-0,192	-0,129
347,304	133,462	-0,091	-0,080
348,319	-74,387	-0,179	-0,044
349,333	800,000	-0,124	-0,277
350,348	-200,000	-0,066	-0,207
351,362	100,003	-0,126	-0,100
352,377	384,569	0,014	0,019
353,392	123,575	-0,164	-0,141
354,406	163,169	-0,090	-0,087
355,421	209,427	1312,459	1412,594
356,435	161,181	1472,906	1413,074
