DTS Sentinel unit serial number:	SN410029Multiplexer serial number:	ORYXHardware model number:	OX2-SRSoftware version number:	ORYX F/W v4,00 Oryx Data Collector v3.7.2.0data status	okinstallation	B3 Nyhavnadifferential loss correction	single-endedforward channel	channel 1reverse channel	N/Adate	2023/12/02time	15:12:30forward acquisition time	300,00reverse acquisition time	0,00gamma	499,1914k internal	0,3197k external	0,3197temperature offset calibration	1,0000default loss term (dB/km)	0,3820temperature slope calibration	1,0000multiplexer offset coefficient	1,0000multiplexer slope coefficient	1,0000fibre end	0,00T internal ref (°C)	14,76T ext. ref 1 (°C)	-0,68T ext. ref 2 (°C)	-0,69length (m)	temperature (°C)	Stokes	anti-Stokes-744,400	77,552	-0,255	-0,197
-743,385	-200,000	-0,010	0,140
-742,371	652,275	-0,168	-0,316
-741,356	-200,000	0,075	0,404
-740,342	647,211	-0,087	-0,162
-739,327	800,000	0,113	0,231
-738,312	152,566	-0,246	-0,245
-737,298	-200,000	0,022	0,210
-736,283	207,077	-0,171	-0,194
-735,269	-200,000	-0,009	0,332
-734,254	-22,673	-0,220	-0,097
-733,239	20,791	-0,198	0,116
-732,225	124,390	-0,168	-0,153
-731,210	-120,513	0,062	-0,008
-730,196	-107,036	-0,123	-0,020
-729,181	-87,184	-0,153	0,033
-728,167	218,658	-0,023	-0,027
-727,152	-200,000	0,024	-0,144
-726,137	-76,290	-0,193	0,049
-725,123	5,696	-0,140	-0,075
-724,108	62,644	-0,124	-0,090
-723,094	149,209	0,092	-0,091
-722,079	138,892	-0,110	0,106
-721,064	-101,320	0,104	0,018
-720,050	41,445	0,053	-0,035
-719,035	-98,554	0,068	-0,013
-718,021	-32,895	-0,053	-0,022
-717,006	-70,189	0,046	-0,013
-715,991	-200,000	0,015	-0,142
-714,977	348,027	-0,027	0,040
-713,962	-58,884	0,042	0,013
-712,948	-51,836	-0,066	-0,022
-711,933	-60,633	-0,079	0,024
-710,918	35,918	-0,088	0,056
-709,904	-32,063	-0,167	-0,068
-708,889	-200,000	-0,003	0,041
-707,875	24,344	-0,044	0,026
-706,860	587,657	-0,040	0,071
-705,845	800,000	0,009	0,028
-704,831	-19,216	-0,120	0,054
-703,816	800,000	0,005	0,013
-702,802	800,000	-0,037	-0,110
-701,787	160,410	-0,043	-0,043
-700,772	800,000	-0,066	-0,136
-699,758	97,583	-0,115	-0,096
-698,743	800,000	-0,014	0,035
-697,729	-10,821	0,104	0,050
-696,714	330,415	0,012	0,016
-695,699	-62,743	-0,201	-0,060
-694,685	-30,287	0,172	-0,071
-693,670	-200,000	0,009	-0,112
-692,656	-133,083	0,069	0,006
-691,641	-5,339	-0,080	0,040
-690,627	635,569	0,106	0,196
-689,612	-200,000	-0,026	-0,118
-688,597	800,000	-0,096	-0,224
-687,583	-200,000	0,013	-0,094
-686,568	-200,000	0,022	-0,151
-685,554	240,080	-0,084	0,102
-684,539	-56,814	0,055	-0,018
-683,524	565,968	-0,048	0,084
-682,510	61,066	0,059	0,042
-681,495	-200,000	-0,027	0,114
-680,481	800,000	-0,068	-0,144
-679,466	66,338	-0,143	-0,105
-678,451	14,681	0,118	0,067
-677,437	266,600	-0,078	0,099
-676,422	85,589	0,157	0,126
-675,408	19,428	-0,101	-0,059
-674,393	800,000	0,000	0,001
-673,378	-39,996	-0,142	-0,054
-672,364	196,168	-0,135	-0,149
-671,349	580,488	0,052	0,094
-670,335	203,254	-0,057	0,064
-669,320	-78,038	-0,023	-0,006
-668,305	459,970	0,011	-0,018
-667,291	127,354	-0,017	0,016
-666,276	-200,000	-0,010	-0,129
-665,262	13,562	0,064	0,036
-664,247	-133,299	-0,069	0,006
-663,232	55,140	-0,071	-0,050
-662,218	800,000	-0,043	-0,107
-661,203	800,000	0,003	-0,008
-660,189	800,000	-0,035	0,090
-659,174	-55,251	-0,102	0,033
-658,159	385,586	0,017	-0,026
-657,145	-87,062	-0,062	-0,014
-656,130	50,436	-0,014	0,010
-655,116	800,000	0,035	-0,077
-654,101	173,518	0,065	0,068
-653,086	164,781	-0,063	0,065
-652,072	-101,322	-0,028	-0,005
-651,057	-200,000	-0,079	0,000
-650,043	-200,000	0,001	0,053
-649,028	19,745	0,053	-0,031
-648,014	301,953	0,012	0,016
-646,999	108,768	-0,075	0,065
-645,984	800,000	0,010	0,025
-644,970	-78,324	0,078	0,019
-643,955	49,166	0,018	-0,012
-642,941	-26,521	-0,159	0,067
-641,926	-39,280	0,048	-0,018
-640,911	28,519	0,069	-0,042
-639,897	-124,343	-0,041	0,005
-638,882	601,794	-0,086	0,156
-637,868	-200,000	0,008	0,037
-636,853	-46,696	-0,190	-0,067
-635,838	-200,000	-0,022	0,088
-634,824	-166,355	0,080	-0,002
-633,809	-200,000	0,029	0,113
-632,795	-88,869	0,041	-0,009
-631,780	-200,000	-0,015	-0,048
-630,765	-200,000	0,013	-0,077
-629,751	50,410	-0,065	0,045
-628,736	774,044	-0,045	-0,090
-627,722	-200,000	-0,008	-0,082
-626,707	-75,612	-0,158	-0,041
-625,692	-200,000	-0,020	0,068
-624,678	-5,836	-0,097	-0,048
-623,663	37,106	-0,086	0,055
-622,649	-81,191	-0,090	-0,021
-621,634	800,000	-0,041	-0,104
-620,619	-200,000	-0,025	-0,089
-619,605	290,169	-0,043	0,057
-618,590	57,203	-0,054	0,038
-617,576	86,965	0,046	-0,037
-616,561	110,497	-0,071	0,062
-615,546	553,612	0,129	-0,226
-614,532	-200,000	-0,011	0,039
-613,517	230,865	-0,044	-0,053
-612,503	260,512	0,051	-0,064
-611,488	800,000	-0,057	0,115
-610,474	106,361	-0,036	0,031
-609,459	252,916	-0,052	0,065
-608,444	-87,054	0,020	-0,004
-607,430	197,952	-0,060	-0,066
-606,415	-200,000	-0,030	-0,125
-605,401	-200,000	0,016	0,104
-604,386	-88,203	0,058	0,012
-603,371	-200,000	0,025	0,109
-602,357	2,108	-0,078	-0,041
-601,342	-200,000	0,004	-0,071
-600,328	-194,919	-0,203	-0,001
-599,313	-200,000	-0,017	0,091
-598,298	-200,000	0,045	0,159
-597,284	-54,476	0,099	0,032
-596,269	-200,000	0,006	-0,119
-595,255	148,764	-0,030	-0,029
-594,240	-0,508	-0,088	-0,045
-593,225	146,701	-0,060	-0,058
-592,211	51,581	-0,016	-0,011
-591,196	42,349	0,075	0,049
-590,182	232,310	0,039	0,047
-589,167	220,707	0,060	0,070
-588,152	-30,767	-0,068	0,028
-587,138	-64,816	0,084	0,025
-586,123	64,697	-0,178	-0,130
-585,109	64,520	-0,069	0,050
-584,094	-200,000	-0,030	0,102
-583,079	-200,000	-0,001	-0,094
-582,065	341,129	0,058	-0,082
-581,050	-163,576	0,049	0,002
-580,036	-51,869	-0,055	0,018
-579,021	-23,826	-0,130	0,056
-578,006	207,643	0,075	-0,085
-576,992	-200,000	-0,026	-0,096
-575,977	-200,000	-0,011	-0,055
-574,963	627,687	-0,089	-0,163
-573,948	27,585	0,038	0,023
-572,934	164,918	-0,070	-0,072
-571,919	353,209	-0,130	-0,188
-570,904	71,848	-0,050	-0,038
-569,890	-175,531	-0,184	0,004
-568,875	39,764	0,123	0,079
-567,861	-24,324	-0,164	0,071
-566,846	-97,831	0,083	0,015
-565,831	-200,000	-0,004	-0,017
-564,817	-0,180	-0,078	0,040
-563,802	-135,508	0,093	-0,008
-562,788	98,969	-0,021	0,017
-561,773	28,025	-0,137	0,083
-560,758	-200,000	0,006	0,019
-559,744	-200,000	0,025	0,116
-558,729	500,965	-0,087	0,146
-557,715	-123,525	0,079	-0,009
-556,700	-105,345	-0,141	0,023
-555,685	148,692	-0,087	-0,085
-554,671	800,000	-0,010	0,022
-553,656	113,219	0,064	0,056
-552,642	800,000	0,047	0,114
-551,627	-4,304	-0,055	0,028
-550,612	717,141	-0,044	-0,084
-549,598	-50,134	-0,131	-0,045
-548,583	86,990	0,090	0,072
-547,569	-46,298	-0,078	0,027
-546,554	-151,199	0,061	-0,003
-545,539	800,000	0,065	0,137
-544,525	31,244	0,049	0,030
-543,510	-106,692	-0,101	-0,016
-542,496	181,103	-0,093	0,099
-541,481	70,558	-0,023	-0,018
-540,466	22,195	-0,102	0,060
-539,452	800,000	-0,007	-0,014
-538,437	87,374	-0,049	0,039
-537,423	109,659	-0,034	0,030
-536,408	-200,000	0,017	-0,062
-535,393	20,558	-0,076	0,045
-534,379	579,422	-0,030	-0,052
-533,364	30,791	-0,102	0,063
-532,350	31,300	0,008	-0,005
-531,335	799,051	0,081	0,163
-530,321	-120,510	0,064	-0,008
-529,306	800,000	-0,020	-0,042
-528,291	134,107	-0,111	-0,104
-527,277	-5,703	0,009	0,004
-526,262	-200,000	-0,001	-0,043
-525,248	84,876	0,071	-0,056
-524,233	-200,000	0,028	0,103
-523,218	65,891	-0,047	0,034
-522,204	-129,297	-0,084	0,008
-521,189	-60,307	0,041	-0,013
-520,175	198,229	-0,067	0,074
-519,160	-94,981	0,105	-0,020
-518,145	-200,000	-0,000	-0,054
-517,131	-42,435	0,096	0,035
-516,116	-111,621	-0,056	-0,008
-515,102	178,859	-0,026	0,028
-514,087	800,000	-0,028	-0,082
-513,072	800,000	0,031	-0,097
-512,058	404,775	-0,056	-0,086
-511,043	387,013	-0,070	-0,104
-510,029	368,190	-0,059	0,086
-509,014	800,000	0,019	0,044
-507,999	177,445	0,053	0,056
-506,985	-96,708	0,020	-0,004
-505,970	0,053	-0,050	0,026
-504,956	347,190	0,019	-0,027
-503,941	68,304	0,107	-0,079
-502,926	-200,000	0,010	0,061
-501,912	33,419	-0,122	0,076
-500,897	70,916	0,106	0,079
-499,883	6,264	0,163	-0,087
-498,868	-200,000	-0,004	0,047
-497,853	800,000	0,023	-0,052
-496,839	-200,000	-0,010	-0,055
-495,824	74,193	0,067	-0,051
-494,810	-200,000	0,005	-0,073
-493,795	-200,000	0,016	-0,078
-492,781	-200,000	-0,022	0,117
-491,766	-113,340	-0,080	-0,011
-490,751	66,126	-0,065	0,047
-489,737	191,056	0,070	-0,076
-488,722	-200,000	-0,010	-0,055
-487,708	-87,488	0,046	0,010
-486,693	5,135	-0,079	0,042
-485,678	-200,000	-0,031	-0,150
-484,664	-200,000	0,021	0,073
-483,649	78,986	-0,053	0,041
-482,635	800,000	0,069	-0,147
-481,620	800,000	-0,077	0,223
-480,605	239,638	0,115	0,138
-479,591	-169,877	-0,035	0,001
-478,576	-200,000	-0,013	0,062
-477,562	-70,910	-0,241	0,065
-476,547	24,370	-0,068	-0,040
-475,532	-200,000	-0,015	0,125
-474,518	-27,294	0,045	0,019
-473,503	46,970	0,057	0,038
-472,489	154,426	0,106	0,105
-471,474	800,000	0,010	-0,029
-470,459	30,207	-0,041	0,025
-469,445	-116,775	0,083	-0,011
-468,430	364,311	0,038	-0,056
-467,416	62,183	-0,022	-0,016
-466,401	363,151	0,135	0,196
-465,386	-200,000	0,005	-0,039
-464,372	-76,460	0,071	0,018
-463,357	165,646	0,076	0,078
-462,343	57,049	0,008	0,006
-461,328	-63,500	-0,213	0,063
-460,313	800,000	-0,026	0,081
-459,299	-200,000	-0,027	0,096
-458,284	-10,253	-0,069	0,033
-457,270	800,000	0,060	0,127
-456,255	-131,222	0,080	0,008
-455,241	53,515	-0,115	-0,079
-454,226	-122,121	0,042	0,005
-453,211	55,466	0,055	-0,038
-452,197	-200,000	0,027	0,130
-451,182	-200,000	-0,004	-0,016
-450,168	-165,181	-0,011	-0,000
-449,153	800,000	-0,012	-0,034
-448,138	800,000	0,038	-0,112
-447,124	-10,878	-0,129	-0,061
-446,109	-59,948	-0,216	0,066
-445,095	245,943	-0,102	-0,124
-444,080	68,808	0,100	0,074
-443,065	-84,963	-0,027	0,006
-442,051	193,153	-0,083	-0,091
-441,036	540,613	0,068	-0,117
-440,022	-42,572	0,032	-0,012
-439,007	-1,616	0,114	-0,058
-437,992	-200,000	-0,022	0,072
-436,978	-8,095	0,058	0,028
-435,963	-181,012	0,139	-0,002
-434,949	800,000	-0,042	0,096
-433,934	-22,906	-0,041	-0,018
-432,919	800,000	0,040	-0,089
-431,905	-200,000	0,032	-0,121
-430,890	-197,400	0,096	-0,000
-429,876	274,286	0,085	0,108
-428,861	-200,000	0,019	-0,071
-427,846	81,753	-0,161	0,125
-426,832	800,000	0,048	0,100
-425,817	106,748	-0,046	-0,040
-424,803	52,083	0,042	0,029
-423,788	-200,000	0,007	-0,145
-422,773	-200,000	0,020	-0,096
-421,759	4,325	-0,054	0,028
-420,744	800,000	0,022	-0,050
-419,730	13,776	0,057	0,032
-418,715	-120,102	0,119	-0,014
-417,701	210,464	-0,030	0,034
-416,686	-200,000	-0,040	-0,135
-415,671	-36,702	-0,030	0,011
-414,657	-46,384	0,064	0,023
-413,642	-200,000	0,007	-0,061
-412,628	-200,000	-0,005	-0,075
-411,613	175,606	0,028	-0,030
-410,598	800,000	-0,049	-0,133
-409,584	37,510	0,090	0,057
-408,569	-170,030	0,150	-0,004
-407,555	-200,000	-0,014	-0,150
-406,540	-124,085	-0,050	0,006
-405,525	-24,680	0,044	0,019
-404,511	374,773	0,040	-0,059
-403,496	800,000	0,044	-0,119
-402,482	93,447	-0,048	-0,039
-401,467	211,447	-0,074	-0,084
-400,452	-200,000	0,051	0,200
-399,438	25,372	-0,030	-0,018
-398,423	-99,379	-0,123	-0,022
-397,409	-23,904	-0,037	0,016
-396,394	76,374	-0,092	-0,070
-395,379	-200,000	-0,017	0,168
-394,365	800,000	-0,030	-0,096
-393,350	-200,000	-0,030	0,126
-392,336	-142,774	0,117	-0,008
-391,321	-20,707	-0,056	-0,024
-390,306	203,800	-0,127	-0,141
-389,292	-200,000	0,012	0,128
-388,277	-200,000	-0,026	0,125
-387,263	-200,000	-0,054	0,228
-386,248	-66,254	0,178	0,051
-385,233	-200,000	0,021	-0,071
-384,219	-77,472	0,068	-0,017
-383,204	-200,000	-0,009	-0,171
-382,190	-30,839	-0,039	-0,016
-381,175	800,000	-0,037	-0,102
-380,160	800,000	0,062	-0,128
-379,146	-200,000	0,005	-0,020
-378,131	-200,000	0,006	0,126
-377,117	-200,000	0,019	-0,111
-376,102	271,035	-0,068	0,086
-375,088	800,000	0,017	-0,043
-374,073	-24,906	-0,086	0,036
-373,058	247,921	0,050	0,061
-372,044	95,348	0,190	-0,156
-371,029	229,349	0,051	-0,060
-370,015	289,120	0,069	-0,090
-369,000	223,516	-0,077	-0,089
-367,985	567,649	0,019	-0,034
-366,971	800,000	0,042	-0,120
-365,956	-85,240	-0,056	-0,012
-364,942	-40,534	0,074	0,028
-363,927	244,784	0,070	-0,085
-362,912	800,000	-0,035	0,074
-361,898	111,556	0,020	-0,018
-360,883	398,397	-0,022	-0,034
-359,869	126,249	-0,052	0,047
-358,854	800,000	0,062	-0,146
-357,839	-200,000	-0,018	-0,072
-356,825	176,942	-0,040	0,042
-355,810	378,505	0,060	0,088
-354,796	618,203	0,084	-0,152
-353,781	212,321	0,035	-0,040
-352,766	742,286	-0,013	0,026
-351,752	800,000	-0,014	0,031
-350,737	397,056	0,119	0,178
-349,723	52,148	0,075	-0,051
-348,708	447,670	0,082	0,130
-347,693	-67,552	-0,055	-0,015
-346,679	170,951	0,043	-0,044
-345,664	630,914	-0,090	-0,164
-344,650	66,209	0,059	0,043
-343,635	-62,240	-0,009	0,003
-342,620	-27,881	0,086	0,035
-341,606	268,895	-0,025	-0,032
-340,591	-153,436	0,168	-0,008
-339,577	-12,897	-0,034	0,016
-338,562	-12,419	-0,032	0,015
-337,548	-120,488	-0,093	-0,011
-336,533	800,000	0,017	-0,050
-335,518	-200,000	-0,025	0,107
-334,504	166,846	-0,065	0,066
-333,489	156,992	0,028	0,028
-332,475	-53,214	-0,061	0,020
-331,460	61,721	0,024	-0,017
-330,445	800,000	-0,023	0,071
-329,431	51,216	0,137	0,093
-328,416	800,000	-0,022	0,044
-327,402	-200,000	-0,025	0,101
-326,387	90,168	0,182	0,146
-325,372	399,418	-0,068	0,103
-324,358	199,885	0,074	-0,082
-323,343	-200,000	0,005	0,094
-322,329	168,017	0,081	0,083
-321,314	-200,000	-0,004	0,094
-320,299	-200,000	0,004	0,178
-319,285	-200,000	0,000	-0,054
-318,270	-200,000	0,018	0,082
-317,256	649,372	-0,043	-0,079
-316,241	-100,056	-0,124	-0,022
-315,226	366,701	-0,056	0,081
-314,212	-8,403	0,051	0,024
-313,197	-200,000	-0,029	0,139
-312,183	293,685	0,090	0,119
-311,168	82,589	-0,105	-0,082
-310,153	261,957	-0,043	0,054
-309,139	-200,000	0,007	0,023
-308,124	307,145	0,024	-0,032
-307,110	-200,000	0,044	0,181
-306,095	-31,508	0,238	0,095
-305,080	-51,625	0,073	-0,024
-304,066	149,499	-0,101	-0,098
-303,051	368,300	0,026	0,038
-302,037	-200,000	0,016	0,060
-301,022	-66,260	0,043	-0,012
-300,008	192,570	-0,020	-0,021
-298,993	-110,278	0,138	-0,020
-297,978	466,421	-0,056	0,090
-296,964	145,867	0,068	0,065
-295,949	385,223	0,016	-0,023
-294,935	800,000	-0,017	-0,042
-293,920	-110,219	0,137	0,020
-292,905	-191,360	0,094	0,001
-291,891	6,790	0,019	-0,010
-290,876	800,000	0,038	0,091
-289,862	-116,551	-0,076	-0,010
-288,847	-28,665	-0,051	0,021
-287,832	800,000	0,046	0,129
-286,818	-200,000	-0,052	0,000
-285,803	126,630	-0,067	0,061
-284,789	-200,000	-0,003	-0,092
-283,774	-200,000	0,011	-0,117
-282,759	-140,007	-0,042	-0,003
-281,745	-39,216	-0,059	-0,022
-280,730	800,000	-0,065	-0,129
-279,716	178,139	0,034	0,036
-278,701	-200,000	-0,010	-0,126
-277,686	143,151	0,082	-0,078
-276,672	800,000	-0,022	-0,045
-275,657	-143,596	-0,134	-0,009
-274,643	-29,739	0,138	-0,056
-273,628	-128,364	-0,141	-0,014
-272,613	-200,000	-0,027	-0,106
-271,599	15,998	-0,034	0,019
-270,584	49,531	0,038	0,026
-269,570	563,793	-0,036	0,063
-268,555	42,906	0,058	-0,038
-267,540	-200,000	0,021	-0,108
-266,526	657,537	-0,027	0,051
-265,511	267,546	0,047	-0,058
-264,497	260,303	0,103	0,128
-263,482	-68,201	-0,034	0,009
-262,467	-100,417	0,133	0,023
-261,453	462,049	0,044	0,070
-260,438	452,536	-0,042	-0,067
-259,424	-139,565	-0,089	-0,007
-258,409	-16,243	0,069	-0,031
-257,395	-125,842	0,137	-0,015
-256,380	-200,000	0,004	-0,052
-255,365	91,942	0,058	-0,047
-254,351	469,755	-0,044	-0,071
-253,336	376,677	0,063	-0,092
-252,322	339,045	-0,126	-0,175
-251,307	-47,479	0,075	-0,026
-250,292	-63,026	-0,158	-0,046
-249,278	-62,817	0,196	0,058
-248,263	712,409	0,064	0,121
-247,249	-31,926	0,053	-0,021
-246,234	2,607	0,079	-0,041
-245,219	36,000	0,087	-0,054
-244,205	149,402	-0,052	0,050
-243,190	-3,626	0,044	-0,022
-242,176	-67,680	0,219	0,061
-241,161	459,244	0,073	-0,116
-240,146	-200,000	0,006	-0,036
-239,132	-27,389	-0,207	-0,085
-238,117	24,575	0,042	-0,025
-237,103	-200,000	0,018	-0,167
-236,088	265,224	-0,006	0,007
-235,073	-200,000	-0,011	-0,043
-234,059	-200,000	0,006	0,076
-233,044	202,950	0,024	0,026
-232,030	800,000	0,051	0,112
-231,015	-43,312	-0,118	-0,042
-230,000	-200,000	0,010	0,042
-228,986	-106,571	0,133	-0,021
-227,971	800,000	0,034	0,104
-226,957	5,616	0,046	0,024
-225,942	398,981	0,027	-0,040
-224,927	78,441	-0,034	-0,026
-223,913	-200,000	0,003	-0,085
-222,898	674,488	0,028	-0,052
-221,884	373,126	-0,057	0,083
-220,869	321,547	0,072	-0,098
-219,855	62,103	0,096	-0,069
-218,840	-200,000	-0,011	0,113
-217,825	723,833	-0,092	0,175
-216,811	26,198	0,047	-0,028
-215,796	120,518	-0,077	-0,068
-214,782	151,718	-0,083	-0,081
-213,767	-200,000	-0,012	0,080
-212,752	-139,318	0,184	0,014
-211,738	-200,000	-0,041	0,000
-210,723	-25,394	0,142	-0,060
-209,709	-200,000	0,043	-0,171
-208,694	800,000	0,088	-0,192
-207,679	-200,000	-0,024	-0,126
-206,665	357,658	0,026	0,036
-205,650	7,797	0,189	-0,101
-204,636	410,915	0,106	0,161
-203,621	-96,374	-0,092	0,017
-202,606	622,319	-0,053	0,095
-201,592	298,000	-0,053	0,069
-200,577	222,566	-0,108	-0,124
-199,563	224,777	-0,045	-0,052
-198,548	669,529	-0,029	0,053
-197,533	-131,615	0,183	0,017
-196,519	-200,000	0,007	0,107
-195,504	-13,752	-0,236	0,108
-194,490	479,109	-0,022	-0,035
-193,475	-200,000	0,011	-0,036
-192,460	-200,000	-0,032	0,114
-191,446	800,000	0,061	0,129
-190,431	468,359	0,054	0,086
-189,417	189,054	0,009	-0,009
-188,402	800,000	0,015	0,039
-187,387	97,358	-0,046	-0,038
-186,373	-200,000	0,015	-0,056
-185,358	-116,061	-0,089	0,012
-184,344	72,696	-0,066	0,049
-183,329	-200,000	0,002	0,121
-182,315	800,000	-0,054	-0,159
-181,300	-155,645	0,027	0,001
-180,285	800,000	-0,068	-0,133
-179,271	220,292	-0,025	-0,029
-178,256	800,000	0,023	-0,070
-177,242	800,000	-0,028	-0,088
-176,227	422,591	0,038	0,059
-175,212	307,418	0,135	0,179
-174,198	-33,546	0,024	0,009
-173,183	203,349	-0,154	-0,170
-172,169	-146,955	-0,097	-0,006
-171,154	5,069	0,097	0,051
-170,139	-46,272	-0,037	0,013
-169,125	48,482	0,113	0,075
-168,110	-200,000	-0,003	0,034
-167,096	80,758	-0,045	0,035
-166,081	-200,000	-0,017	-0,088
-165,066	-68,681	-0,119	0,033
-164,052	-71,837	0,116	-0,030
-163,037	144,298	-0,032	-0,031
-162,023	-200,000	0,007	-0,048
-161,008	-133,203	0,176	-0,016
-159,993	-13,548	-0,035	0,016
-158,979	-34,595	-0,117	0,045
-157,964	381,943	-0,038	-0,056
-156,950	-70,508	-0,011	0,003
-155,935	800,000	0,060	-0,158
-154,920	-86,092	0,121	0,026
-153,906	-109,564	-0,106	-0,016
-152,891	-32,582	0,153	-0,060
-151,877	-115,247	0,050	-0,007
-150,862	-200,000	-0,016	-0,138
-149,847	4,366	0,157	0,082
-148,833	800,000	-0,045	-0,112
-147,818	65,229	0,102	-0,073
-146,804	-200,000	0,007	0,045
-145,789	-200,000	0,007	0,052
-144,775	52,394	0,022	-0,015
-143,760	-33,313	-0,081	-0,032
-142,745	-200,000	0,017	-0,109
-141,731	800,000	-0,032	0,074
-140,716	784,341	0,038	0,075
-139,702	248,526	0,038	0,046
-138,687	106,810	0,034	-0,029
-137,672	-12,744	0,047	-0,022
-136,658	-3,129	0,078	0,038
-135,643	-149,348	0,080	-0,004
-134,629	323,754	-0,041	-0,056
-133,614	376,945	0,056	0,081
-132,599	409,448	-0,042	0,063
-131,585	407,584	0,072	0,109
-130,570	-144,967	-0,084	-0,005
-129,556	236,713	-0,117	-0,138
-128,541	70,093	0,116	-0,085
-127,526	204,205	0,089	-0,098
-126,512	-81,288	0,079	-0,018
-125,497	329,201	0,073	0,100
-124,483	467,988	-0,061	0,097
-123,468	-154,954	0,043	-0,002
-122,453	-136,983	-0,094	-0,008
-121,439	397,111	-0,062	-0,092
-120,424	62,520	-0,185	-0,131
-119,410	592,231	-0,059	-0,104
-118,395	796,064	-0,014	-0,028
-117,380	-114,613	-0,097	-0,013
-116,366	-200,000	-0,055	-0,187
-115,351	-109,440	-0,045	-0,007
-114,337	116,462	-0,074	-0,065
-113,322	149,714	-0,027	-0,026
-112,307	-150,712	0,065	-0,003
-111,293	108,886	0,100	0,085
-110,278	541,803	-0,068	0,116
-109,264	800,000	-0,013	0,029
-108,249	800,000	-0,068	0,171
-107,234	-200,000	0,006	0,077
-106,220	182,182	0,042	0,044
-105,205	-93,956	-0,080	-0,015
-104,191	515,165	0,060	-0,100
-103,176	-63,450	0,145	-0,042
-102,162	22,460	-0,049	0,029
-101,147	-200,000	-0,001	-0,063
-100,132	75,239	-0,153	-0,114
-99,118	-200,000	-0,018	-0,150
-98,103	187,036	0,082	-0,087
-97,089	-27,032	-0,041	-0,017
-96,074	800,000	0,021	-0,047
-95,059	207,362	-0,086	0,095
-94,045	-200,000	0,003	-0,016
-93,030	-91,889	0,036	0,007
-92,016	-200,000	-0,033	-0,103
-91,001	73,974	-0,063	-0,047
-89,986	-200,000	0,001	-0,227
-88,972	800,000	-0,034	0,078
-87,957	800,000	-0,030	-0,089
-86,943	10,938	-0,085	-0,046
-85,928	-200,000	-0,034	-0,117
-84,913	217,368	0,050	-0,057
-83,899	28,318	-0,065	0,039
-82,884	800,000	0,056	0,142
-81,870	-66,044	0,021	0,006
-80,855	-200,000	-0,002	-0,042
-79,840	175,916	0,027	0,028
-78,826	-50,734	-0,107	0,036
-77,811	-200,000	-0,016	-0,073
-76,797	-200,000	-0,002	0,023
-75,782	34,380	0,118	0,073
-74,767	44,915	-0,064	0,042
-73,753	-200,000	-0,090	0,000
-72,738	102,319	0,038	0,032
-71,724	-48,933	-0,052	0,018
-70,709	140,588	-0,054	0,051
-69,694	-161,474	0,066	-0,002
-68,680	-200,000	0,007	-0,082
-67,665	-82,127	0,130	-0,030
-66,651	11,099	-0,056	0,030
-65,636	-200,000	0,002	0,049
-64,622	-200,000	0,019	-0,066
-63,607	-200,000	-0,006	0,035
-62,592	-25,843	-0,074	-0,031
-61,578	-200,000	-0,007	-0,051
-60,563	-69,949	0,048	0,013
-59,549	-200,000	-0,004	0,113
-58,534	-34,322	-1,540	-0,596
-57,519	501,162	-1,375	-2,259
-56,505	-200,000	-0,479	-4,415
-55,490	178,970	0,913	0,948
-54,476	800,000	4,959	11,174
-53,461	-200,000	18,523	291,949
-52,446	800,000	729,179	2243,477
-51,432	558,013	1645,047	2823,584
-50,417	79,010	1665,575	1262,946
-49,403	22,610	1539,328	890,718
-48,388	16,591	1462,424	817,029
-47,373	17,900	1452,234	817,614
-46,359	17,211	1442,676	808,901
-45,344	14,844	1438,198	795,047
-44,330	14,833	1435,958	793,723
-43,315	14,804	1434,426	792,706
-42,300	14,875	1432,803	792,117
-41,286	14,859	1431,619	791,354
-40,271	14,857	1430,367	790,622
-39,257	14,821	1429,147	789,746
-38,242	14,858	1427,769	789,130
-37,227	14,836	1426,549	788,316
-36,213	14,883	1425,279	787,809
-35,198	14,812	1424,155	786,817
-34,184	14,925	1423,219	786,805
-33,169	14,814	1422,051	785,601
-32,154	14,869	1420,695	785,083
-31,140	14,897	1419,457	784,501
-30,125	14,882	1418,395	783,811
-29,111	14,889	1417,339	783,229
-28,096	14,851	1416,177	782,379
-27,082	14,760	1415,267	781,415
-26,067	14,797	1414,005	780,860
-25,052	14,803	1412,926	780,262
-24,038	14,743	1412,152	779,524
-23,023	14,724	1411,042	778,789
-22,009	14,762	1410,130	778,435
-20,994	14,737	1409,067	777,700
-19,979	14,749	1408,062	777,172
-18,965	14,733	1407,177	776,573
-17,950	14,712	1406,266	775,945
-16,936	14,713	1405,369	775,422
-15,921	14,653	1404,293	774,517
-14,906	14,685	1403,439	774,166
-13,892	14,722	1402,442	773,758
-12,877	14,714	1401,521	773,182
-11,863	14,666	1400,765	772,510
-10,848	14,687	1399,811	772,052
-9,833	14,674	1398,847	771,430
-8,819	14,637	1397,952	770,732
-7,804	14,604	1396,879	769,958
-6,790	14,640	1395,741	769,468
-5,775	14,608	1394,912	768,830
-4,760	14,590	1393,989	768,209
-3,746	14,592	1393,465	767,899
-2,731	14,581	1392,563	767,317
-1,717	14,595	1391,495	766,762
-0,702	14,562	1389,960	765,735
0,313	18,211	1308,491	737,803
1,327	34,412	705,773	435,504
2,342	52,981	124,165	84,028
3,356	2,934	16,533	8,477
4,371	2,184	3,125	1,594
5,386	-58,474	0,717	0,219
6,400	800,000	0,036	-0,095
7,415	-33,263	-0,296	-0,116
8,429	10,608	-0,347	-0,186
9,444	107,403	-0,401	-0,338
10,459	393,124	-0,171	-0,253
11,473	244,293	-0,243	-0,289
12,488	-104,911	-0,388	-0,062
13,502	100,147	-0,276	-0,226
14,517	-27,075	-0,441	-0,181
15,531	31,136	-0,476	-0,288
16,546	-38,764	-0,235	-0,087
17,561	65,469	-0,426	-0,305
18,575	-49,935	-0,216	-0,072
19,590	171,445	-0,245	-0,248
20,604	-61,255	-0,221	-0,065
21,619	229,739	-0,335	-0,388
22,634	203,606	-0,393	-0,431
23,648	93,290	-0,376	-0,300
24,663	6,065	-0,442	-0,231
25,677	90,186	-0,274	-0,216
26,692	226,296	-0,286	-0,329
27,707	67,257	-0,435	-0,313
28,721	114,680	-0,237	-0,204
29,736	115,033	-0,288	-0,248
30,750	97,989	-0,435	-0,354
31,765	-11,183	-0,245	-0,114
32,780	121,251	-0,387	-0,340
33,794	-58,671	-0,461	-0,140
34,809	64,049	-0,422	-0,299
35,823	114,842	-0,311	-0,268
36,838	200,125	-0,411	-0,447
37,853	41,954	-0,412	-0,263
38,867	50,817	-0,393	-0,262
39,882	197,650	-0,299	-0,323
40,896	105,619	-0,231	-0,192
41,911	-57,972	-0,455	-0,139
42,926	22,437	-0,333	-0,192
43,940	193,818	-0,282	-0,302
44,955	-18,129	-0,462	-0,203
45,969	99,436	-0,419	-0,342
46,984	800,000	-0,249	-0,496
47,999	620,421	-0,154	-0,273
49,013	-36,875	-0,491	-0,185
50,028	91,121	-0,292	-0,231
51,042	-30,473	-0,330	-0,131
52,057	179,940	-0,351	-0,363
53,071	-36,547	-0,368	-0,139
54,086	51,277	-0,346	-0,231
55,101	202,748	-0,320	-0,349
56,115	-31,587	-0,304	-0,120
57,130	436,027	-0,190	-0,293
58,144	14,941	-0,496	-0,273
59,159	-3,284	-0,448	-0,219
60,174	-34,614	-0,408	-0,157
61,188	-138,805	-0,264	0,020
62,203	447,867	-0,195	-0,303
63,217	327,026	-0,284	-0,384
64,232	204,869	-0,223	-0,244
65,247	-11,256	-0,459	-0,212
66,261	85,976	-0,336	-0,260
67,276	33,527	-0,485	-0,296
68,290	-60,696	-0,330	-0,098
69,305	167,221	-0,233	-0,233
70,320	89,291	-0,274	-0,215
71,334	-44,486	-0,273	-0,095
72,349	232,626	-0,312	-0,362
73,363	89,549	-0,253	-0,198
74,378	-11,451	-0,214	-0,099
75,393	48,720	-0,282	-0,186
76,407	44,616	-0,151	-0,098
77,422	77,621	-0,257	-0,193
78,436	-51,556	-0,316	-0,103
79,451	-10,826	-0,259	-0,120
80,466	98,989	-0,173	-0,140
81,480	-68,534	-0,390	-0,106
82,495	143,147	-0,291	-0,272
83,509	184,283	-0,239	-0,249
84,524	-136,991	-0,344	-0,027
85,539	44,696	-0,296	-0,191
86,553	47,019	-0,266	-0,173
87,568	89,529	-0,233	-0,183
88,582	158,297	-0,288	-0,281
89,597	18,339	-0,296	-0,166
90,611	8,134	-0,288	-0,151
91,626	127,591	-0,262	-0,234
92,641	-91,490	-0,300	-0,060
93,655	-68,750	-0,213	-0,057
94,670	146,644	-0,293	-0,277
95,684	169,734	-0,247	-0,249
96,699	64,709	-0,264	-0,187
97,714	301,669	-0,216	-0,281
98,728	100,330	-0,199	-0,162
99,743	14,545	-0,343	-0,188
100,757	-2,600	-0,275	-0,135
101,772	-20,258	-0,362	-0,156
102,787	111,778	-0,324	-0,274
103,801	203,566	-0,301	-0,327
104,816	27,538	-0,320	-0,188
105,830	-117,789	-0,224	-0,028
106,845	728,879	-0,176	-0,331
107,860	130,327	-0,152	-0,137
108,874	85,352	-0,264	-0,203
109,889	-65,796	-0,223	-0,062
110,903	106,156	-0,280	-0,233
111,918	43,953	-0,351	-0,225
112,933	69,416	-0,243	-0,175
113,947	-94,642	-0,274	-0,052
114,962	-33,427	-0,288	-0,111
115,976	223,155	-0,180	-0,204
116,991	133,824	-0,254	-0,230
118,006	158,470	-0,228	-0,222
119,020	-55,795	-0,271	-0,084
120,035	511,217	-0,163	-0,267
121,049	260,997	-0,186	-0,226
122,064	187,348	-0,237	-0,248
123,079	274,532	-0,216	-0,269
124,093	65,125	-0,216	-0,153
125,108	-69,894	-0,463	-0,123
126,122	63,059	-0,246	-0,173
127,137	72,237	-0,350	-0,255
128,151	-0,796	-0,315	-0,156
129,166	236,910	-0,204	-0,237
130,181	-11,049	-0,260	-0,120
131,195	108,687	-0,173	-0,145
132,210	153,215	-0,224	-0,215
133,224	-2,033	-0,276	-0,135
134,239	139,097	-0,191	-0,176
135,254	210,765	-0,153	-0,168
136,268	224,935	-0,185	-0,210
137,283	800,000	-0,127	-0,297
138,297	-70,540	-0,475	-0,125
139,312	17,632	-0,217	-0,121
140,327	231,460	-0,175	-0,201
141,341	163,854	-0,157	-0,155
142,356	-48,502	-0,326	-0,109
143,370	-37,792	-0,247	-0,091
144,385	-179,025	-0,374	-0,006
145,400	-29,024	-0,361	-0,144
146,414	33,156	-0,302	-0,183
147,429	388,211	-0,187	-0,272
148,443	145,777	-0,232	-0,218
149,458	800,000	-0,132	-0,293
150,473	95,052	-0,155	-0,124
151,487	33,115	-0,262	-0,159
152,502	134,137	-0,252	-0,229
153,516	40,497	-0,371	-0,233
154,531	157,856	-0,196	-0,190
155,546	32,875	-0,266	-0,161
156,560	-11,914	-0,171	-0,078
157,575	508,160	-0,205	-0,333
158,589	68,645	-0,343	-0,246
159,604	23,759	-0,283	-0,162
160,619	137,014	-0,245	-0,224
161,633	-123,006	-0,335	-0,037
162,648	62,620	-0,164	-0,114
163,662	-1,720	-0,254	-0,125
164,677	-111,576	-0,335	-0,047
165,692	408,827	-0,132	-0,196
166,706	8,317	-0,211	-0,110
167,721	48,578	-0,232	-0,152
168,735	128,143	-0,210	-0,187
169,750	80,451	-0,247	-0,185
170,764	220,823	-0,181	-0,203
171,779	36,453	-0,228	-0,140
172,794	58,516	-0,149	-0,102
173,808	161,464	-0,162	-0,159
174,823	70,484	-0,296	-0,213
175,837	283,704	-0,179	-0,225
176,852	800,000	-0,188	-0,377
177,867	327,323	-0,122	-0,164
178,881	82,668	-0,191	-0,145
179,896	228,688	-0,179	-0,204
180,910	137,039	-0,161	-0,147
181,925	166,044	-0,263	-0,259
182,940	39,939	-0,300	-0,188
183,954	152,363	-0,294	-0,280
184,969	227,694	-0,291	-0,331
185,983	10,494	-0,252	-0,133
186,998	800,000	-0,110	-0,268
188,013	534,571	-0,160	-0,266
189,027	433,582	-0,101	-0,154
190,042	110,276	-0,168	-0,141
191,056	98,998	-0,185	-0,149
192,071	-44,393	-0,301	-0,105
193,086	183,203	-0,161	-0,166
194,100	-28,169	-0,208	-0,083
195,115	244,937	-0,143	-0,167
196,129	50,442	-0,244	-0,161
197,144	144,871	-0,208	-0,194
198,159	147,200	-0,329	-0,308
199,173	167,374	-0,145	-0,143
200,188	33,174	-0,044	0,027
201,202	-72,610	-0,125	-0,032
202,217	82,479	-0,159	-0,120
203,232	618,654	-0,110	-0,194
204,246	-8,275	-0,194	-0,091
205,261	-6,094	-0,201	-0,095
206,275	314,571	-0,102	-0,134
207,290	202,757	-0,173	-0,186
208,304	800,000	-0,099	-0,249
209,319	-2,379	-0,218	-0,106
210,334	20,295	-0,282	-0,158
211,348	-63,717	-0,174	-0,049
212,363	-55,266	-0,324	-0,101
213,377	156,733	-0,268	-0,257
214,392	193,475	-0,097	-0,102
215,407	173,944	-0,239	-0,240
216,421	412,112	-0,149	-0,221
217,436	324,280	-0,189	-0,252
218,450	-14,857	-0,315	-0,140
219,465	800,000	-0,063	-0,187
220,480	-46,039	-0,105	-0,036
221,494	257,079	-0,176	-0,210
222,509	276,701	-0,171	-0,212
223,523	403,781	-0,078	-0,114
224,538	56,000	-0,266	-0,179
225,553	62,416	-0,253	-0,175
226,567	254,363	-0,219	-0,260
227,582	300,410	-0,211	-0,271
228,596	800,000	-0,082	-0,173
229,611	-61,630	-0,193	-0,056
230,626	-55,162	-0,249	-0,077
231,640	21,564	-0,336	-0,189
232,655	138,413	-0,159	-0,145
233,669	255,174	-0,192	-0,228
234,684	5,949	-0,248	-0,127
235,699	119,957	-0,217	-0,186
236,713	-98,905	-0,191	-0,033
237,728	239,501	-0,068	-0,079
238,742	178,781	-0,141	-0,144
239,757	-124,215	-0,097	-0,010
240,772	337,105	-0,199	-0,269
241,786	267,650	-0,149	-0,181
242,801	-30,017	-0,256	-0,101
243,815	323,602	-0,129	-0,171
244,830	300,127	-0,107	-0,137
245,844	-41,261	-0,268	-0,095
246,859	-77,155	-0,163	-0,039
247,874	766,325	-0,072	-0,136
248,888	33,217	-0,232	-0,139
249,903	323,539	-0,174	-0,231
250,917	264,704	-0,110	-0,133
251,932	-33,394	-0,191	-0,073
252,947	800,000	-0,074	-0,142
253,961	181,572	-0,203	-0,207
254,976	352,580	-0,098	-0,135
255,990	502,566	-0,102	-0,164
257,005	26,023	-0,195	-0,112
258,020	800,000	-0,118	-0,242
259,034	-95,601	-0,128	0,024
260,049	-66,588	-0,232	-0,063
261,063	325,453	-0,146	-0,194
262,078	580,562	-0,174	-0,297
263,093	176,462	-0,223	-0,224
264,107	107,908	-0,103	-0,085
265,122	800,000	-0,071	-0,166
266,136	46,725	-0,237	0,152
267,151	-82,074	-0,126	0,028
268,166	-20,984	-0,310	-0,131
269,180	313,342	-0,179	-0,234
270,195	2,306	-0,234	-0,117
271,209	-144,366	-0,230	-0,015
272,224	68,010	-0,217	-0,154
273,239	34,623	-0,140	-0,084
274,253	-200,000	-0,024	-0,133
275,268	-22,621	-0,197	-0,082
276,282	59,353	-0,121	-0,082
277,297	-12,959	-0,184	-0,082
278,312	-24,837	-0,161	-0,066
279,326	764,422	-0,047	-0,089
280,341	201,957	-0,128	-0,137
281,355	60,822	-0,218	-0,149
282,370	-26,819	-0,203	-0,082
283,384	-18,086	-0,246	-0,106
284,399	-44,402	-0,155	-0,053
285,414	-132,864	-0,251	0,022
286,428	265,769	-0,100	-0,120
287,443	184,013	-0,037	-0,037
288,457	-87,478	-0,132	-0,027
289,472	-65,761	-0,169	-0,046
290,487	113,014	-0,138	-0,115
291,501	-101,620	-0,200	-0,033
292,516	228,342	-0,161	-0,182
293,530	380,941	-0,095	-0,135
294,545	257,229	-0,131	-0,156
295,560	58,546	-0,208	-0,141
296,574	-86,817	-0,205	-0,043
297,589	34,547	-0,227	-0,137
298,603	437,710	-0,122	-0,184
299,618	320,854	-0,212	-0,278
300,633	469,265	-0,086	-0,134
301,647	-43,169	-0,089	-0,031
302,662	119,722	-0,153	-0,131
303,676	24,101	-0,183	-0,104
304,691	10,386	-0,191	-0,100
305,706	151,593	-0,156	-0,146
306,720	-146,811	-0,205	-0,012
307,735	522,590	-0,087	-0,142
308,749	-31,791	-0,100	-0,038
309,764	267,841	-0,083	-0,100
310,779	559,370	-0,091	-0,152
311,793	149,655	-0,145	-0,135
312,808	50,031	-0,198	-0,129
313,822	49,599	-0,240	-0,155
314,837	800,000	-0,098	-0,234
315,852	297,362	-0,090	-0,114
316,866	-200,000	0,005	-0,209
317,881	387,537	-0,061	-0,087
318,895	252,953	-0,098	-0,116
319,910	13,287	-0,157	-0,084
320,925	378,241	-0,185	-0,262
321,939	7,155	-0,267	-0,137
322,954	45,271	-0,175	-0,111
323,968	135,732	-0,071	-0,064
324,983	-200,000	-0,070	-0,253
325,997	55,126	-0,136	0,090
327,012	259,765	-0,106	-0,126
328,027	558,240	-0,118	-0,196
329,041	800,000	-0,123	-0,236
330,056	800,000	-0,046	-0,136
331,070	270,996	-0,086	-0,104
332,085	153,629	0,119	-0,112
333,100	-116,354	-0,059	0,007
334,114	371,205	0,110	-0,154
335,129	48,900	-0,212	-0,137
336,143	452,744	-0,088	-0,135
337,158	-62,038	-0,141	0,040
338,173	92,798	-0,108	-0,084
339,187	-200,000	0,008	-0,078
340,202	-200,000	-0,049	-0,153
341,216	96,717	-0,212	-0,167
342,231	800,000	-0,106	-0,216
343,246	96,085	-0,219	-0,172
344,260	531,607	-0,064	-0,104
345,275	-200,000	-0,002	-0,047
346,289	59,950	-0,068	0,046
347,304	800,000	-0,052	-0,131
348,319	227,824	-0,122	-0,137
349,333	609,654	-0,115	-0,199
350,348	225,002	-0,161	-0,179
351,362	195,860	-0,190	-0,198
352,377	-200,000	-0,009	-0,069
353,392	28,472	-0,205	-0,119
354,406	-143,808	-0,063	0,004
355,421	207,372	1314,369	1410,051
356,435	159,519	1475,065	1410,557
