DTS Sentinel unit serial number:	SN410029Multiplexer serial number:	ORYXHardware model number:	OX2-SRSoftware version number:	ORYX F/W v4,00 Oryx Data Collector v3.7.2.0data status	okinstallation	B3 Nyhavnadifferential loss correction	single-endedforward channel	channel 1reverse channel	N/Adate	2023/12/01time	11:57:30forward acquisition time	300,00reverse acquisition time	0,00gamma	499,1914k internal	0,3213k external	0,3213temperature offset calibration	1,0000default loss term (dB/km)	0,3820temperature slope calibration	1,0000multiplexer offset coefficient	1,0000multiplexer slope coefficient	1,0000fibre end	0,00T internal ref (°C)	8,66T ext. ref 1 (°C)	-5,25T ext. ref 2 (°C)	-5,35length (m)	temperature (°C)	Stokes	anti-Stokes-744,400	122,250	-0,281	-0,254
-743,385	-200,000	-0,006	0,260
-742,371	800,000	-0,083	-0,208
-741,356	-200,000	-0,002	0,407
-740,342	228,331	-0,182	-0,215
-739,327	-200,000	0,011	0,156
-738,312	174,087	-0,216	-0,226
-737,298	380,345	-0,139	0,207
-736,283	-200,000	-0,010	-0,115
-735,269	-200,000	0,063	0,297
-734,254	476,279	-0,094	-0,155
-733,239	10,729	-0,261	0,144
-732,225	800,000	-0,081	-0,175
-731,210	178,221	0,153	0,161
-730,196	246,318	-0,075	-0,092
-729,181	267,941	-0,094	-0,120
-728,167	-200,000	-0,005	0,138
-727,152	-200,000	-0,024	0,123
-726,137	228,938	-0,131	-0,154
-725,123	800,000	-0,059	-0,153
-724,108	-155,599	0,125	-0,006
-723,094	-31,792	-0,210	-0,085
-722,079	800,000	-0,047	-0,103
-721,064	-66,387	-0,160	-0,046
-720,050	-200,000	-0,012	0,111
-719,035	-200,000	0,005	-0,084
-718,021	-29,153	-0,079	0,033
-717,006	5,818	-0,085	-0,046
-715,991	800,000	-0,080	-0,219
-714,977	-200,000	-0,012	-0,072
-713,962	800,000	-0,019	-0,045
-712,948	-200,000	-0,000	-0,052
-711,933	-87,646	-0,056	0,012
-710,918	97,768	-0,017	-0,014
-709,904	-15,977	-0,042	-0,019
-708,889	800,000	0,035	-0,085
-707,875	297,485	0,029	-0,039
-706,860	68,405	-0,193	-0,143
-705,845	-60,664	0,048	-0,015
-704,831	7,278	0,029	0,016
-703,816	800,000	-0,012	-0,030
-702,802	-146,935	-0,096	-0,006
-701,787	-200,000	-0,033	-0,135
-700,772	278,607	-0,048	0,062
-699,758	66,965	0,084	-0,062
-698,743	418,656	0,046	0,072
-697,729	790,011	0,049	0,097
-696,714	43,642	0,148	0,098
-695,699	46,482	-0,070	-0,047
-694,685	800,000	-0,050	-0,105
-693,670	-40,051	-0,062	-0,023
-692,656	89,248	-0,093	-0,075
-691,641	-200,000	-0,003	-0,110
-690,627	26,720	-0,125	-0,075
-689,612	59,675	0,122	0,087
-688,597	89,799	-0,097	-0,078
-687,583	800,000	0,006	0,017
-686,568	-200,000	-0,016	-0,062
-685,554	47,297	-0,016	0,011
-684,539	0,290	0,063	0,032
-683,524	241,259	0,060	0,073
-682,510	800,000	-0,038	-0,077
-681,495	-200,000	-0,019	-0,144
-680,481	598,265	-0,062	-0,112
-679,466	-200,000	-0,009	-0,038
-678,451	278,920	-0,113	0,145
-677,437	-200,000	-0,016	0,085
-676,422	-94,782	-0,032	0,006
-675,408	-66,887	0,068	0,019
-674,393	-80,657	-0,151	0,036
-673,378	-200,000	-0,010	-0,052
-672,364	434,533	-0,105	-0,166
-671,349	125,862	0,061	0,056
-670,335	10,096	0,054	-0,029
-669,320	95,405	0,157	-0,129
-668,305	438,863	-0,079	0,125
-667,291	144,659	0,150	-0,144
-666,276	-3,593	-0,149	-0,075
-665,262	-200,000	0,013	0,083
-664,247	8,529	-0,065	-0,035
-663,232	143,042	0,129	-0,124
-662,218	-200,000	0,021	0,143
-661,203	-200,000	-0,001	-0,138
-660,189	43,271	-0,140	-0,092
-659,174	-200,000	0,018	-0,124
-658,159	800,000	0,003	-0,007
-657,145	800,000	-0,087	-0,183
-656,130	-89,774	-0,056	-0,012
-655,116	80,620	0,095	0,074
-654,101	-147,055	-0,027	-0,002
-653,086	800,000	-0,014	-0,036
-652,072	282,340	0,068	-0,088
-651,057	376,349	-0,035	-0,052
-650,043	800,000	-0,086	-0,217
-649,028	21,902	0,044	-0,026
-648,014	-200,000	-0,017	0,103
-646,999	54,472	-0,087	-0,060
-645,984	577,154	0,116	0,206
-644,970	-200,000	0,010	-0,049
-643,955	-152,024	-0,076	-0,004
-642,941	786,774	-0,026	-0,051
-641,926	-28,894	-0,021	-0,009
-640,911	507,640	-0,038	-0,063
-639,897	800,000	-0,013	-0,026
-638,882	-25,627	0,059	0,025
-637,868	62,110	-0,083	-0,060
-636,853	-200,000	-0,007	0,036
-635,838	800,000	-0,044	0,092
-634,824	800,000	-0,027	-0,068
-633,809	-112,268	0,102	0,015
-632,795	132,641	-0,072	0,067
-631,780	800,000	0,026	0,079
-630,765	195,538	-0,065	-0,072
-629,751	-200,000	0,005	-0,189
-628,736	-51,018	-0,079	0,026
-627,722	46,945	-0,076	0,051
-626,707	-99,522	-0,012	0,002
-625,692	-76,297	0,022	0,005
-624,678	23,140	-0,064	-0,038
-623,663	334,942	-0,065	0,092
-622,649	408,286	0,075	-0,115
-621,634	800,000	-0,024	0,058
-620,619	-41,781	0,107	0,039
-619,605	-107,817	-0,168	0,026
-618,590	137,693	0,116	-0,109
-617,576	-107,493	-0,075	0,012
-616,561	383,154	-0,050	-0,074
-615,546	-200,000	0,020	0,146
-614,532	-200,000	-0,028	0,127
-613,517	-69,557	-0,073	-0,020
-612,503	800,000	0,053	0,110
-611,488	-200,000	0,031	0,151
-610,474	88,962	0,029	-0,023
-609,459	191,403	0,026	-0,028
-608,444	-30,287	0,121	0,049
-607,430	-175,125	-0,107	-0,002
-606,415	3,230	-0,033	0,017
-605,401	79,609	-0,103	0,080
-604,386	72,516	0,153	0,115
-603,371	-50,763	-0,156	0,053
-602,357	72,325	-0,058	0,044
-601,342	250,979	-0,038	-0,047
-600,328	54,542	-0,109	-0,076
-599,313	157,288	-0,084	-0,084
-598,298	800,000	-0,029	0,063
-597,284	133,714	0,014	0,013
-596,269	-200,000	-0,013	0,091
-595,255	-200,000	0,026	0,086
-594,240	-103,360	-0,012	-0,002
-593,225	628,983	0,012	0,021
-592,211	-43,169	-0,143	-0,052
-591,196	-117,465	-0,082	-0,011
-590,182	-49,145	0,096	0,033
-589,167	800,000	0,031	0,087
-588,152	800,000	-0,024	0,061
-587,138	746,303	-0,032	-0,063
-586,123	-200,000	0,028	-0,112
-585,109	-73,467	-0,050	-0,013
-584,094	274,730	0,057	0,072
-583,079	-49,028	-0,112	0,039
-582,065	237,446	0,083	0,099
-581,050	275,174	0,044	-0,057
-580,036	-34,945	-0,063	-0,025
-579,021	800,000	-0,034	-0,077
-578,006	0,451	-0,068	0,035
-576,992	50,415	0,104	-0,071
-575,977	-77,303	0,073	-0,018
-574,963	160,572	0,061	0,062
-573,948	-47,314	0,160	0,056
-572,934	252,400	0,040	-0,050
-571,919	-118,399	-0,149	-0,019
-570,904	-200,000	-0,038	-0,193
-569,890	-26,828	-0,132	-0,055
-568,875	29,740	0,054	-0,033
-567,861	-87,140	-0,150	0,033
-566,846	194,451	0,030	-0,033
-565,831	260,988	-0,095	0,119
-564,817	-200,000	0,015	-0,052
-563,802	123,384	-0,069	-0,062
-562,788	-12,686	0,047	-0,022
-561,773	109,420	-0,081	-0,070
-560,758	-37,349	-0,087	0,033
-559,744	-200,000	-0,005	-0,048
-558,729	115,099	-0,011	-0,010
-557,715	-200,000	-0,012	-0,066
-556,700	800,000	0,050	-0,153
-555,685	-140,961	-0,130	-0,009
-554,671	52,317	0,096	-0,066
-553,656	800,000	0,055	0,152
-552,642	5,835	0,081	0,043
-551,627	260,678	0,050	0,063
-550,612	800,000	-0,036	-0,107
-549,598	231,354	0,053	-0,062
-548,583	0,485	0,118	0,060
-547,569	-200,000	0,008	-0,158
-546,554	99,399	-0,065	-0,054
-545,539	-162,307	0,139	0,005
-544,525	51,710	0,088	0,060
-543,510	-57,561	0,036	-0,011
-542,496	130,914	-0,089	-0,082
-541,481	64,587	-0,062	0,045
-540,466	-200,000	0,006	0,032
-539,452	-183,885	0,162	-0,002
-538,437	10,725	0,043	0,024
-537,423	256,642	-0,021	-0,025
-536,408	124,228	-0,026	0,023
-535,393	-149,047	0,084	0,005
-534,379	-91,186	-0,241	-0,049
-533,364	800,000	0,063	-0,170
-532,350	-200,000	0,012	-0,076
-531,335	153,184	-0,029	0,029
-530,321	800,000	-0,053	0,133
-529,306	422,209	0,032	-0,050
-528,291	106,992	-0,088	-0,075
-527,277	800,000	-0,032	0,064
-526,262	303,726	-0,045	0,060
-525,248	35,304	0,092	-0,058
-524,233	207,625	0,071	-0,080
-523,218	390,247	-0,043	0,064
-522,204	-200,000	-0,019	0,117
-521,189	-200,000	-0,019	-0,119
-520,175	800,000	-0,015	-0,041
-519,160	132,937	-0,029	0,027
-518,145	-8,836	-0,030	0,014
-517,131	-92,907	-0,119	-0,024
-516,116	338,720	0,057	-0,080
-515,102	140,485	-0,083	-0,079
-514,087	462,849	-0,086	0,139
-513,072	-0,773	-0,089	0,045
-512,058	327,811	0,052	-0,072
-511,043	-88,870	0,081	0,017
-510,029	173,882	0,138	0,143
-509,014	137,072	-0,052	0,049
-507,999	-112,324	-0,085	-0,012
-506,985	507,570	0,029	-0,048
-505,970	-19,641	-0,112	0,049
-504,956	412,603	0,049	-0,075
-503,941	-200,000	-0,005	-0,037
-502,926	-43,995	0,287	0,103
-501,912	385,027	-0,022	-0,032
-500,897	117,902	-0,124	0,110
-499,883	-92,029	-0,175	-0,035
-498,868	17,385	-0,182	0,104
-497,853	-200,000	-0,002	-0,118
-496,839	4,676	-0,176	0,093
-495,824	-200,000	-0,024	0,126
-494,810	-94,376	-0,084	-0,016
-493,795	-200,000	0,013	0,142
-492,781	-200,000	0,015	-0,138
-491,766	-68,580	-0,105	0,029
-490,751	800,000	0,046	-0,093
-489,737	771,880	0,060	-0,118
-488,722	666,284	0,044	0,082
-487,708	-107,715	0,071	0,011
-486,693	-200,000	-0,009	0,031
-485,678	-125,205	0,094	-0,010
-484,664	800,000	0,030	-0,095
-483,649	99,408	-0,094	-0,078
-482,635	42,755	0,146	0,095
-481,620	-132,551	0,112	-0,010
-480,605	800,000	-0,013	-0,033
-479,591	-57,937	0,081	0,025
-478,576	346,079	-0,093	-0,131
-477,562	226,203	-0,068	0,079
-476,547	345,363	0,044	-0,062
-475,532	-158,298	0,120	-0,005
-474,518	140,003	-0,059	-0,056
-473,503	-200,000	0,004	-0,105
-472,489	800,000	0,045	0,099
-471,474	735,290	0,056	0,108
-470,459	620,910	-0,064	-0,116
-469,445	5,394	-0,073	0,038
-468,430	172,313	-0,088	-0,091
-467,416	-38,422	0,134	0,050
-466,401	-95,957	-0,049	0,009
-465,386	-200,000	0,001	-0,051
-464,372	-95,209	0,071	0,014
-463,357	-200,000	-0,007	0,028
-462,343	-200,000	-0,036	-0,135
-461,328	1,065	-0,050	-0,026
-460,313	-200,000	0,010	-0,141
-459,299	-200,000	-0,012	0,130
-458,284	-153,307	0,047	0,002
-457,270	-200,000	0,004	0,028
-456,255	-96,126	-0,028	-0,005
-455,241	800,000	0,026	0,056
-454,226	-12,839	-0,057	0,026
-453,211	-17,716	0,044	-0,020
-452,197	-136,486	0,057	0,005
-451,182	76,418	-0,072	0,054
-450,168	800,000	0,047	0,141
-449,153	137,945	-0,097	-0,091
-448,138	-200,000	-0,023	-0,085
-447,124	800,000	0,016	0,050
-446,109	-200,000	-0,008	-0,037
-445,095	800,000	0,025	0,068
-444,080	800,000	0,024	-0,065
-443,065	171,502	0,082	0,085
-442,051	-200,000	-0,018	-0,118
-441,036	507,645	0,061	-0,102
-440,022	-108,555	0,116	0,018
-439,007	-200,000	0,001	0,074
-437,992	800,000	0,021	-0,043
-436,978	42,837	0,087	0,057
-435,963	800,000	-0,050	0,137
-434,949	-200,000	-0,006	-0,088
-433,934	286,268	-0,029	0,037
-432,919	-174,447	-0,217	-0,004
-431,905	-200,000	0,006	-0,082
-430,890	-110,024	0,086	-0,013
-429,876	-11,482	0,134	-0,063
-428,861	445,071	0,027	0,042
-427,846	194,448	0,048	-0,052
-426,832	800,000	-0,016	-0,047
-425,817	-32,830	-0,110	-0,044
-424,803	-200,000	0,014	-0,243
-423,788	-200,000	0,013	-0,080
-422,773	-157,060	0,160	-0,007
-421,759	-83,566	-0,022	-0,005
-420,744	-44,504	-0,076	-0,027
-419,730	-200,000	0,006	-0,198
-418,715	-85,140	0,025	-0,006
-417,701	67,349	-0,046	-0,034
-416,686	-73,900	0,134	-0,035
-415,671	11,711	0,031	0,017
-414,657	-79,444	-0,048	-0,011
-413,642	82,673	0,051	-0,040
-412,628	2,056	-0,027	-0,014
-411,613	270,835	-0,045	-0,057
-410,598	219,784	0,077	0,088
-409,584	-26,823	0,107	-0,045
-408,569	62,278	-0,062	0,044
-407,555	-43,805	0,003	0,001
-406,540	-200,000	-0,009	0,084
-405,525	469,555	0,072	-0,116
-404,511	-200,000	0,004	-0,059
-403,496	377,687	0,045	-0,066
-402,482	-200,000	0,032	0,137
-401,467	59,922	0,030	-0,021
-400,452	-88,349	-0,087	-0,018
-399,438	77,638	-0,054	0,041
-398,423	274,833	0,065	0,083
-397,409	-113,609	-0,095	-0,013
-396,394	-52,895	-0,083	-0,027
-395,379	-200,000	0,032	-0,153
-394,365	-157,428	0,099	0,004
-393,350	-90,926	0,072	0,015
-392,336	71,693	0,208	0,155
-391,321	-200,000	-0,019	-0,086
-390,306	800,000	0,013	-0,039
-389,292	393,613	-0,093	0,139
-388,277	-119,696	0,093	0,011
-387,263	79,196	0,099	-0,076
-386,248	800,000	-0,046	0,092
-385,233	-86,764	0,159	-0,034
-384,219	-200,000	0,037	-0,159
-383,204	-200,000	-0,000	0,016
-382,190	-200,000	-0,029	-0,110
-381,175	121,329	0,126	-0,112
-380,160	-85,771	-0,076	-0,017
-379,146	351,441	0,041	0,059
-378,131	44,475	0,046	-0,030
-377,117	220,175	-0,122	0,140
-376,102	-175,454	-0,150	-0,003
-375,088	-200,000	0,009	0,076
-374,073	-62,289	-0,092	-0,027
-373,058	800,000	0,083	0,190
-372,044	800,000	0,060	0,173
-371,029	-97,482	0,056	-0,010
-370,015	-128,181	0,023	-0,002
-369,000	-46,071	-0,093	-0,032
-367,985	65,330	-0,083	-0,060
-366,971	39,891	0,091	0,058
-365,956	-47,726	0,063	0,022
-364,942	184,327	-0,075	0,079
-363,927	388,430	0,063	-0,093
-362,912	532,637	0,017	0,029
-361,898	-200,000	0,024	0,206
-360,883	56,247	-0,041	-0,028
-359,869	360,511	0,074	-0,107
-358,854	91,857	0,011	-0,009
-357,839	-122,434	0,128	0,015
-356,825	163,822	0,120	0,120
-355,810	591,856	0,049	0,087
-354,796	-152,325	-0,134	-0,007
-353,781	800,000	-0,027	-0,081
-352,766	-73,249	-0,019	-0,005
-351,752	-200,000	0,022	0,082
-350,737	393,218	0,069	0,102
-349,723	-200,000	-0,015	0,077
-348,708	-120,193	0,019	-0,002
-347,693	312,933	-0,031	0,042
-346,679	-132,674	0,076	-0,007
-345,664	76,457	0,038	0,029
-344,650	-58,081	0,025	-0,008
-343,635	-85,610	0,046	0,010
-342,620	800,000	0,057	0,136
-341,606	13,509	0,083	-0,046
-340,591	162,868	-0,080	0,081
-339,577	32,556	0,045	-0,027
-338,562	32,735	0,162	-0,100
-337,548	162,807	0,105	-0,105
-336,533	800,000	-0,026	0,077
-335,518	-98,464	0,086	-0,015
-334,504	360,400	-0,080	0,115
-333,489	-126,814	-0,016	-0,002
-332,475	-19,567	-0,181	-0,079
-331,460	-27,479	0,144	-0,059
-330,445	173,424	0,031	-0,032
-329,431	-18,579	0,085	-0,038
-328,416	-200,000	-0,007	0,120
-327,402	210,876	-0,088	0,098
-326,387	66,483	0,051	-0,037
-325,372	-140,248	-0,067	-0,005
-324,358	-70,236	0,077	-0,021
-323,343	-81,225	-0,083	-0,019
-322,329	66,487	-0,015	-0,011
-321,314	151,738	0,042	0,041
-320,299	800,000	0,008	0,024
-319,285	75,927	0,073	-0,055
-318,270	47,496	0,094	0,062
-317,256	218,706	0,045	0,051
-316,241	-200,000	-0,012	0,056
-315,226	-200,000	-0,000	0,188
-314,212	-200,000	0,027	0,181
-313,197	-24,464	0,074	-0,031
-312,183	800,000	0,072	0,179
-311,168	-200,000	0,004	0,043
-310,153	1,719	-0,130	0,066
-309,139	-200,000	0,023	-0,185
-308,124	800,000	0,023	-0,060
-307,110	305,951	0,052	0,069
-306,095	664,624	-0,066	0,121
-305,080	750,887	0,043	0,084
-304,066	164,454	0,019	0,019
-303,051	800,000	-0,068	-0,139
-302,037	31,359	0,036	0,022
-301,022	118,313	0,101	-0,089
-300,008	-200,000	-0,010	-0,034
-298,993	456,577	0,040	-0,064
-297,978	-29,636	0,051	-0,021
-296,964	-166,932	-0,112	0,003
-295,949	-100,995	-0,130	-0,023
-294,935	-200,000	0,000	-0,260
-293,920	-200,000	0,013	-0,109
-292,905	800,000	-0,022	-0,068
-291,891	-137,477	-0,032	-0,003
-290,876	-166,189	0,038	-0,001
-289,862	36,446	-0,063	0,039
-288,847	-46,668	0,112	-0,039
-287,832	561,207	-0,018	-0,032
-286,818	-106,250	0,147	-0,023
-285,803	-200,000	0,008	0,117
-284,789	67,327	0,187	0,135
-283,774	34,988	0,071	0,044
-282,759	747,957	-0,009	-0,018
-281,745	-98,617	-0,039	0,007
-280,730	-200,000	-0,026	-0,094
-279,716	-200,000	0,032	-0,150
-278,701	72,046	-0,102	0,075
-277,686	-200,000	0,030	0,145
-276,672	407,357	0,072	-0,109
-275,657	-200,000	-0,035	0,217
-274,643	-90,196	-0,111	0,023
-273,628	31,872	-0,027	-0,016
-272,613	-76,114	-0,105	-0,026
-271,599	218,694	0,047	0,053
-270,584	-25,823	0,137	0,057
-269,570	38,540	-0,072	0,046
-268,555	395,251	0,071	-0,106
-267,540	75,957	-0,074	0,056
-266,526	-153,726	-0,066	-0,003
-265,511	171,675	0,077	0,079
-264,497	22,094	0,093	-0,054
-263,482	-200,000	0,007	0,073
-262,467	-200,000	-0,011	0,073
-261,453	-63,798	-0,120	0,035
-260,438	800,000	-0,041	-0,097
-259,424	-53,554	0,088	0,028
-258,409	-86,136	-0,160	0,035
-257,395	-69,920	0,166	0,045
-256,380	800,000	-0,051	-0,142
-255,365	-200,000	0,014	-0,094
-254,351	-200,000	0,021	-0,076
-253,336	-70,364	-0,218	-0,058
-252,322	-200,000	0,013	-0,053
-251,307	-200,000	0,022	0,093
-250,292	800,000	0,034	0,090
-249,278	106,535	0,079	0,067
-248,263	206,038	0,070	0,077
-247,249	48,031	0,121	0,080
-246,234	254,325	-0,065	-0,080
-245,219	-200,000	-0,043	0,149
-244,205	215,743	0,042	0,047
-243,190	32,476	0,061	-0,038
-242,176	800,000	0,064	0,156
-241,161	315,056	-0,032	0,043
-240,146	-98,046	-0,095	-0,017
-239,132	156,279	0,113	0,111
-238,117	565,079	-0,101	-0,175
-237,103	800,000	0,032	0,099
-236,088	-200,000	-0,012	0,133
-235,073	32,018	0,101	-0,062
-234,059	-173,649	-0,091	-0,002
-233,044	-200,000	0,030	-0,133
-232,030	445,797	0,043	-0,068
-231,015	434,951	-0,074	-0,115
-230,000	667,188	-0,069	-0,127
-228,986	223,048	-0,033	0,038
-227,971	134,202	0,024	0,023
-226,957	-115,617	-0,119	0,016
-225,942	-200,000	-0,001	0,113
-224,927	-200,000	-0,012	-0,075
-223,913	134,289	-0,088	0,081
-222,898	99,324	-0,123	-0,101
-221,884	-31,290	0,064	0,026
-220,869	-200,000	-0,020	-0,089
-219,855	245,490	0,048	0,057
-218,840	185,445	-0,085	0,090
-217,825	49,699	0,038	-0,026
-216,811	341,970	-0,036	-0,050
-215,796	-200,000	-0,013	-0,057
-214,782	-200,000	-0,003	-0,057
-213,767	553,029	0,041	-0,071
-212,752	0,550	-0,074	0,038
-211,738	118,711	0,033	0,029
-210,723	-145,944	0,034	-0,002
-209,709	8,291	-0,021	-0,011
-208,694	-200,000	-0,001	-0,039
-207,679	-144,287	-0,081	0,005
-206,665	-200,000	0,001	-0,033
-205,650	85,898	0,079	0,062
-204,636	-86,544	-0,040	-0,009
-203,621	192,222	-0,126	0,135
-202,606	-200,000	0,021	0,117
-201,592	800,000	-0,045	-0,118
-200,577	-200,000	0,035	-0,165
-199,563	-200,000	-0,008	0,083
-198,548	-132,365	0,218	-0,020
-197,533	-170,965	-0,052	-0,001
-196,519	-109,662	-0,109	-0,016
-195,504	347,791	0,079	-0,111
-194,490	45,212	-0,172	-0,112
-193,475	800,000	-0,033	-0,070
-192,460	-200,000	-0,004	0,100
-191,446	-200,000	0,003	0,067
-190,431	51,776	-0,101	0,068
-189,417	87,370	-0,034	0,027
-188,402	-200,000	-0,001	-0,119
-187,387	440,467	-0,010	0,015
-186,373	-200,000	0,007	0,122
-185,358	800,000	-0,021	-0,045
-184,344	800,000	0,035	0,101
-183,329	746,934	0,017	0,032
-182,315	-36,157	0,180	-0,068
-181,300	-66,603	-0,223	-0,062
-180,285	-200,000	-0,034	-0,112
-179,271	238,894	0,028	-0,033
-178,256	-200,000	0,014	0,060
-177,242	-115,228	-0,035	-0,005
-176,227	173,582	-0,111	-0,114
-175,212	-200,000	-0,041	-0,137
-174,198	232,574	0,043	-0,050
-173,183	-48,894	0,009	0,003
-172,169	-99,986	0,066	0,012
-171,154	578,559	0,037	0,065
-170,139	-200,000	-0,011	-0,053
-169,125	-200,000	-0,005	-0,041
-168,110	-72,972	0,109	-0,028
-167,096	52,824	0,026	-0,018
-166,081	254,089	-0,080	0,097
-165,066	-76,723	-0,195	-0,048
-164,052	-200,000	0,032	-0,138
-163,037	-99,215	0,169	0,030
-162,023	12,379	0,082	0,045
-161,008	-21,863	-0,041	0,018
-159,993	-28,097	-0,127	-0,052
-158,979	-200,000	0,020	0,117
-157,964	-128,609	-0,061	0,006
-156,950	188,723	-0,009	-0,009
-155,935	-200,000	0,005	-0,063
-154,920	284,644	0,051	-0,065
-153,906	-200,000	0,007	0,115
-152,891	191,789	-0,106	0,114
-151,877	-200,000	0,018	-0,112
-150,862	-114,467	0,044	-0,006
-149,847	58,580	0,076	-0,053
-148,833	-200,000	-0,052	0,189
-147,818	-110,856	0,093	0,013
-146,804	-200,000	-0,026	0,082
-145,789	249,452	-0,080	0,096
-144,775	112,325	-0,103	-0,088
-143,760	134,068	-0,127	-0,117
-142,745	-73,193	-0,169	-0,044
-141,731	800,000	-0,049	-0,143
-140,716	-65,646	0,088	-0,025
-139,702	76,660	0,033	0,025
-138,687	441,261	0,062	-0,096
-137,672	401,222	0,052	-0,078
-136,658	800,000	-0,025	-0,078
-135,643	71,436	0,108	0,079
-134,629	449,085	-0,039	-0,061
-133,614	122,090	0,043	0,038
-132,599	-200,000	-0,019	0,143
-131,585	-32,974	-0,021	0,008
-130,570	-54,947	-0,089	0,028
-129,556	-31,859	-0,036	0,014
-128,541	365,146	0,047	-0,067
-127,526	-200,000	0,013	-0,070
-126,512	-200,000	0,004	-0,120
-125,497	-200,000	-0,010	-0,084
-124,483	-200,000	-0,014	0,085
-123,468	-115,462	-0,065	-0,009
-122,453	800,000	0,056	0,138
-121,439	-75,334	-0,026	0,007
-120,424	-112,299	0,043	0,006
-119,410	-53,570	-0,067	-0,022
-118,395	-74,681	-0,094	-0,024
-117,380	592,637	-0,034	-0,060
-116,366	24,333	-0,113	0,066
-115,351	-200,000	-0,012	-0,141
-114,337	80,660	-0,053	0,040
-113,322	800,000	0,007	-0,014
-112,307	800,000	-0,013	0,037
-111,293	165,262	0,025	0,025
-110,278	69,146	0,166	-0,120
-109,264	800,000	0,039	-0,088
-108,249	-200,000	-0,009	-0,127
-107,234	-60,572	-0,173	0,051
-106,220	-200,000	-0,020	-0,067
-105,205	800,000	0,058	-0,138
-104,191	572,659	-0,038	-0,065
-103,176	12,220	0,116	0,063
-102,162	26,816	0,013	-0,008
-101,147	-200,000	-0,014	0,053
-100,132	3,777	0,073	-0,037
-99,118	455,579	-0,045	0,071
-98,103	800,000	-0,029	0,067
-97,089	-200,000	0,008	0,046
-96,074	-58,921	0,038	0,012
-95,059	-200,000	-0,003	0,035
-94,045	800,000	0,017	0,037
-93,030	800,000	-0,015	0,040
-92,016	56,647	-0,055	0,038
-91,001	800,000	-0,020	-0,043
-89,986	443,453	0,039	0,060
-88,972	67,900	0,023	-0,016
-87,957	25,346	0,024	0,014
-86,943	240,384	-0,061	-0,072
-85,928	-158,293	0,133	0,005
-84,913	3,209	-0,102	-0,052
-83,899	-26,349	-0,151	0,062
-82,884	673,610	0,059	0,109
-81,870	-200,000	-0,017	0,090
-80,855	-200,000	0,028	0,151
-79,840	88,154	0,071	0,056
-78,826	751,507	-0,064	-0,123
-77,811	-200,000	-0,023	0,137
-76,797	141,925	-0,042	-0,039
-75,782	800,000	0,039	-0,101
-74,767	566,638	0,020	0,035
-73,753	-200,000	-0,001	0,065
-72,738	-31,480	0,068	-0,027
-71,724	800,000	-0,082	-0,173
-70,709	-26,939	-0,006	0,003
-69,694	800,000	0,040	-0,109
-68,680	-116,420	-0,094	0,012
-67,665	-200,000	0,016	0,070
-66,651	177,770	0,069	0,071
-65,636	45,744	-0,007	0,005
-64,622	-200,000	-0,028	0,114
-63,607	175,821	-0,066	-0,067
-62,592	-200,000	-0,001	-0,101
-61,578	-200,000	-0,010	0,033
-60,563	37,581	0,149	0,093
-59,549	322,611	0,058	0,077
-58,534	44,140	-2,059	-1,330
-57,519	577,521	-1,129	-1,955
-56,505	-200,000	-0,509	-4,645
-55,490	573,029	0,956	1,650
-54,476	800,000	5,130	11,357
-53,461	-200,000	22,166	340,986
-52,446	800,000	759,339	2291,740
-51,432	530,325	1652,859	2764,697
-50,417	68,711	1651,365	1193,702
-49,403	16,308	1526,686	847,186
-48,388	10,545	1451,381	777,635
-47,373	19,139	1443,725	814,575
-46,359	13,944	1432,542	783,640
-45,344	8,835	1428,464	757,147
-44,330	8,803	1426,522	755,934
-43,315	8,745	1424,844	754,740
-42,300	8,734	1422,810	753,578
-41,286	8,774	1421,703	753,155
-40,271	8,737	1420,321	752,214
-39,257	8,785	1419,062	751,745
-38,242	8,798	1417,973	751,202
-37,227	8,732	1417,061	750,375
-36,213	8,725	1415,692	749,587
-35,198	8,760	1414,629	749,163
-34,184	8,792	1413,430	748,648
-33,169	8,681	1412,160	747,424
-32,154	8,727	1411,102	747,048
-31,140	8,717	1409,749	746,257
-30,125	8,770	1408,627	745,880
-29,111	8,733	1407,668	745,172
-28,096	8,738	1406,493	744,543
-27,082	8,681	1405,121	743,520
-26,067	8,641	1404,172	742,802
-25,052	8,692	1403,073	742,430
-24,038	8,716	1401,976	741,932
-23,023	8,694	1401,435	741,514
-22,009	8,662	1400,188	740,672
-20,994	8,698	1399,027	740,198
-19,979	8,641	1398,246	739,493
-18,965	8,667	1397,248	739,052
-17,950	8,616	1396,211	738,241
-16,936	8,602	1395,439	737,737
-15,921	8,605	1394,467	737,206
-14,906	8,653	1393,329	736,801
-13,892	8,628	1392,548	736,240
-12,877	8,630	1391,907	735,882
-11,863	8,582	1391,292	735,306
-10,848	8,587	1390,126	734,683
-9,833	8,538	1389,164	733,920
-8,819	8,466	1388,411	733,159
-7,804	8,489	1387,173	732,584
-6,790	8,546	1386,011	732,204
-5,775	8,567	1385,252	731,869
-4,760	8,553	1384,251	731,249
-3,746	8,587	1383,200	730,819
-2,731	8,583	1382,414	730,358
-1,717	8,533	1381,736	729,741
-0,702	8,496	1380,098	728,677
0,313	12,534	1291,282	700,139
1,327	28,328	682,427	405,447
2,342	44,008	117,760	75,926
3,356	-0,469	16,557	8,258
4,371	-7,867	3,824	1,812
5,386	-24,740	1,272	0,530
6,400	800,000	0,251	0,525
7,415	-88,232	-0,266	-0,056
8,429	45,056	-0,199	-0,129
9,444	120,780	-0,208	-0,182
10,459	260,096	-0,228	-0,278
11,473	-18,015	-0,333	-0,146
12,488	-27,087	-0,312	-0,128
13,502	-119,335	-0,287	-0,035
14,517	38,071	-0,370	-0,231
15,531	113,387	-0,320	-0,273
16,546	48,008	-0,410	-0,269
17,561	137,773	-0,329	-0,304
18,575	-12,732	-0,203	-0,093
19,590	-38,233	-0,277	-0,103
20,604	265,578	-0,167	-0,205
21,619	-15,274	-0,528	-0,237
22,634	110,792	-0,450	-0,380
23,648	171,472	-0,338	-0,341
24,663	-45,152	-0,368	-0,128
25,677	-21,112	-0,195	-0,084
26,692	88,619	-0,204	-0,159
27,707	-4,775	-0,425	-0,205
28,721	48,641	-0,530	-0,349
29,736	355,493	-0,252	-0,354
30,750	151,239	-0,370	-0,355
31,765	1,832	-0,384	-0,194
32,780	172,999	-0,285	-0,289
33,794	164,558	-0,241	-0,239
34,809	25,778	-0,346	-0,202
35,823	-13,451	-0,399	-0,181
36,838	120,966	-0,395	-0,346
37,853	31,509	-0,437	-0,263
38,867	138,998	-0,315	-0,291
39,882	72,094	-0,319	-0,233
40,896	66,277	-0,412	-0,293
41,911	-30,250	-0,300	-0,119
42,926	382,150	-0,202	-0,292
43,940	115,600	-0,318	-0,273
44,955	43,614	-0,403	-0,258
45,969	92,056	-0,347	-0,274
46,984	105,923	-0,260	-0,216
47,999	107,008	-0,215	-0,179
49,013	106,674	-0,213	-0,178
50,028	116,787	-0,206	-0,177
51,042	-109,055	-0,218	-0,032
52,057	409,854	-0,197	-0,293
53,071	330,279	-0,206	-0,279
54,086	179,005	-0,306	-0,314
55,101	171,249	-0,320	-0,322
56,115	-14,509	-0,458	-0,206
57,130	25,796	-0,339	-0,198
58,144	76,753	-0,335	-0,249
59,159	51,593	-0,345	-0,230
60,174	237,570	-0,219	-0,256
61,188	136,243	-0,231	-0,212
62,203	95,472	-0,332	-0,265
63,217	-62,772	-0,306	-0,088
64,232	112,277	-0,410	-0,348
65,247	199,855	-0,305	-0,329
66,261	101,635	-0,271	-0,221
67,276	-2,303	-0,453	-0,222
68,290	110,243	-0,272	-0,229
69,305	105,943	-0,293	-0,242
70,320	167,260	-0,319	-0,318
71,334	548,686	-0,178	-0,299
72,349	85,280	-0,363	-0,279
73,363	42,052	-0,365	-0,232
74,378	128,541	-0,307	-0,274
75,393	139,716	-0,243	-0,224
76,407	-40,527	-0,340	-0,123
77,422	32,593	-0,243	-0,147
78,436	2,928	-0,246	-0,124
79,451	15,412	-0,273	-0,149
80,466	-5,324	-0,305	-0,146
81,480	-4,025	-0,285	-0,138
82,495	5,800	-0,290	-0,149
83,509	344,853	-0,160	-0,221
84,524	153,758	-0,266	-0,255
85,539	-86,998	-0,237	-0,050
86,553	38,140	-0,258	-0,160
87,568	97,844	-0,255	-0,205
88,582	-139,183	-0,243	0,018
89,597	-15,120	-0,356	-0,159
90,611	-33,072	-0,334	-0,129
91,626	-51,597	-0,265	-0,086
92,641	-73,473	-0,281	-0,071
93,655	198,410	-0,194	-0,207
94,670	77,370	-0,288	-0,214
95,684	110,551	-0,320	-0,269
96,699	-46,468	-0,316	-0,108
97,714	199,574	-0,247	-0,266
98,728	-42,674	-0,259	-0,092
99,743	1,022	-0,308	-0,154
100,757	20,993	-0,296	-0,167
101,772	246,166	-0,216	-0,255
102,787	236,289	-0,259	-0,300
103,801	263,721	-0,283	-0,344
104,816	287,107	-0,191	-0,241
105,830	39,281	-0,217	-0,135
106,845	-155,388	-0,241	-0,011
107,860	108,824	-0,249	-0,208
108,874	365,679	-0,210	-0,296
109,889	315,019	-0,276	-0,365
110,903	8,794	-0,303	-0,159
111,918	-4,653	-0,285	-0,137
112,933	99,703	-0,218	-0,176
113,947	291,912	-0,178	-0,227
114,962	-36,856	-0,176	-0,066
115,976	4,592	-0,228	-0,116
116,991	289,395	-0,207	-0,262
118,006	164,340	-0,252	-0,248
119,020	100,712	-0,269	-0,218
120,035	273,238	-0,148	-0,183
121,049	-99,327	-0,207	-0,036
122,064	41,159	-0,166	-0,105
123,079	345,787	-0,145	-0,200
124,093	136,152	-0,297	-0,270
125,108	-23,460	-0,316	-0,132
126,122	354,328	-0,169	-0,235
127,137	-54,137	-0,248	-0,078
128,151	-200,000	-0,028	-0,169
129,166	-94,139	-0,119	-0,023
130,181	-7,022	-0,328	-0,155
131,195	697,155	-0,131	-0,242
132,210	102,079	-0,144	-0,117
133,224	262,912	-0,179	-0,217
134,239	800,000	-0,100	-0,235
135,254	58,349	-0,256	-0,174
136,268	-24,706	-0,252	-0,104
137,283	55,618	-0,245	-0,165
138,297	64,351	-0,233	-0,163
139,312	149,599	-0,289	-0,272
140,327	505,824	-0,244	-0,395
141,341	78,187	-0,182	-0,135
142,356	7,170	-0,163	-0,084
143,370	328,521	-0,141	-0,189
144,385	-68,072	-0,272	-0,073
145,400	98,803	-0,170	-0,136
146,414	181,800	-0,197	-0,202
147,429	250,361	-0,235	-0,278
148,443	-66,327	-0,308	-0,085
149,458	-24,454	-0,196	-0,081
150,473	-200,000	-0,061	-0,199
151,487	275,471	-0,224	-0,277
152,502	55,568	-0,277	-0,187
153,516	195,765	-0,189	-0,200
154,531	-89,350	-0,214	-0,043
155,546	-75,086	-0,273	-0,067
156,560	20,988	-0,264	-0,149
157,575	271,553	-0,177	-0,217
158,589	-140,255	-0,235	-0,017
159,604	76,998	-0,239	-0,176
160,619	44,429	-0,311	-0,198
161,633	54,738	-0,261	-0,175
162,648	-200,000	-0,080	-0,296
163,662	179,041	-0,152	-0,155
164,677	77,101	-0,235	-0,173
165,692	-36,379	-0,271	-0,101
166,706	334,696	-0,147	-0,199
167,721	318,810	-0,187	-0,246
168,735	449,916	-0,161	-0,247
169,750	-99,036	-0,335	-0,058
170,764	152,342	-0,172	-0,163
171,779	-95,579	-0,225	-0,042
172,794	326,356	-0,098	-0,131
173,808	26,725	-0,280	-0,163
174,823	645,324	-0,177	-0,315
175,837	-84,658	-0,405	-0,088
176,852	800,000	-0,164	-0,331
177,867	410,594	-0,137	-0,202
178,881	107,495	-0,196	-0,162
179,896	99,619	-0,211	-0,169
180,910	60,447	-0,180	-0,123
181,925	800,000	-0,094	-0,199
182,940	-17,998	-0,213	-0,092
183,954	-67,937	-0,367	-0,099
184,969	13,378	-0,158	-0,085
185,983	-99,635	-0,142	-0,024
186,998	-61,940	-0,283	-0,081
188,013	800,000	-0,067	-0,168
189,027	171,897	-0,134	-0,133
190,042	310,401	-0,176	-0,230
191,056	-155,146	-0,261	-0,012
192,071	-68,767	-0,162	-0,043
193,086	-61,996	-0,206	-0,059
194,100	800,000	-0,119	-0,248
195,115	-200,000	-0,041	-0,170
196,129	-82,697	-0,126	-0,028
197,144	-48,815	-0,243	-0,080
198,159	2,487	-0,293	-0,147
199,173	160,987	-0,207	-0,200
200,188	-57,435	-0,208	-0,063
201,202	86,996	-0,216	-0,165
202,217	96,472	-0,218	-0,173
203,232	-27,184	-0,288	-0,116
204,246	189,641	-0,252	-0,262
205,261	119,376	-0,306	-0,262
206,275	27,940	-0,233	-0,136
207,290	-200,000	-0,047	-0,163
208,304	616,472	-0,129	-0,224
209,319	524,856	-0,044	-0,071
210,334	-0,692	-0,257	-0,126
211,348	113,196	-0,263	-0,221
212,363	800,000	-0,073	-0,207
213,377	395,088	-0,202	-0,292
214,392	22,293	-0,200	-0,113
215,407	36,373	-0,137	-0,084
216,421	478,883	-0,108	-0,169
217,436	128,717	-0,169	-0,149
218,450	-41,122	-0,176	-0,063
219,465	63,808	-0,208	-0,144
220,480	-21,572	-0,191	-0,080
221,494	23,515	-0,160	-0,091
222,509	-103,959	-0,200	-0,032
223,523	403,505	-0,103	-0,150
224,538	324,611	-0,216	-0,286
225,553	530,891	-0,096	-0,158
226,567	24,804	-0,161	-0,092
227,582	151,293	-0,168	-0,158
228,596	800,000	-0,074	-0,162
229,611	163,782	-0,234	-0,228
230,626	-105,462	-0,214	-0,033
231,640	-3,942	-0,134	-0,064
232,655	241,702	-0,167	-0,193
233,669	103,830	-0,185	-0,150
234,684	800,000	-0,103	-0,201
235,699	197,439	-0,172	-0,182
236,713	208,365	-0,130	-0,140
237,728	400,953	-0,181	-0,263
238,742	-16,104	-0,229	-0,100
239,757	276,448	-0,065	-0,080
240,772	25,333	-0,181	-0,103
241,786	-53,965	-0,239	-0,075
242,801	-2,263	-0,085	-0,041
243,815	786,481	-0,076	-0,144
244,830	62,855	-0,188	-0,129
245,844	-11,045	-0,194	-0,088
246,859	727,938	-0,142	-0,263
247,874	3,287	-0,275	-0,138
248,888	421,483	-0,175	-0,260
249,903	494,822	-0,116	-0,185
250,917	29,914	-0,206	-0,121
251,932	-200,000	0,004	-0,041
252,947	9,527	-0,191	-0,099
253,961	750,989	-0,125	-0,233
254,976	162,505	-0,229	-0,221
255,990	757,433	-0,074	-0,138
257,005	800,000	0,043	-0,113
258,020	365,147	-0,108	-0,150
259,034	183,690	-0,097	-0,099
260,049	-120,908	-0,182	-0,021
261,063	-31,097	-0,234	-0,091
262,078	254,563	-0,250	-0,295
263,093	-159,805	-0,246	0,009
264,107	163,804	-0,141	-0,137
265,122	408,350	-0,128	-0,188
266,136	738,801	-0,095	-0,177
267,151	560,231	-0,181	-0,302
268,166	7,798	-0,228	-0,117
269,180	-200,000	-0,006	-0,217
270,195	-182,314	-0,149	0,002
271,209	294,992	-0,115	-0,145
272,224	-74,063	-0,094	-0,023
273,239	-200,000	-0,009	-0,090
274,253	0,305	-0,137	-0,067
275,268	-160,837	-0,192	-0,007
276,282	298,514	-0,130	-0,165
277,297	-14,954	-0,176	-0,077
278,312	-78,766	-0,210	-0,049
279,326	26,533	-0,114	-0,066
280,341	117,051	-0,104	-0,088
281,355	94,133	-0,039	-0,030
282,370	109,528	-0,089	-0,073
283,384	214,201	-0,255	-0,278
284,399	127,932	-0,138	-0,120
285,414	-27,206	-0,158	-0,063
286,428	42,046	-0,151	-0,094
287,443	-157,440	-0,188	0,008
288,457	69,504	-0,079	0,056
289,472	-156,703	-0,139	0,006
290,487	160,624	-0,201	-0,193
291,501	620,476	-0,122	-0,212
292,516	800,000	-0,082	-0,194
293,530	-200,000	0,004	0,100
294,545	221,277	-0,035	-0,039
295,560	-141,578	-0,141	-0,010
296,574	800,000	-0,052	-0,157
297,589	214,153	-0,142	-0,154
298,603	150,734	-0,150	-0,140
299,618	-200,000	-0,057	-0,326
300,633	90,128	-0,091	-0,070
301,647	-57,202	-0,219	-0,066
302,662	-200,000	-0,052	-0,246
303,676	-58,751	-0,127	-0,038
304,691	-67,787	-0,127	-0,034
305,706	789,945	-0,043	-0,081
306,720	-6,269	-0,190	-0,089
307,735	-64,001	-0,156	0,043
308,749	199,465	-0,179	-0,188
309,764	532,281	-0,119	-0,194
310,779	44,511	-0,162	-0,102
311,793	-109,871	-0,317	0,045
312,808	800,000	-0,071	-0,189
313,822	-2,868	-0,209	-0,100
314,837	-147,279	-0,144	-0,008
315,852	129,908	-0,112	-0,098
316,866	-35,321	-0,178	0,066
317,881	-46,633	-0,077	-0,026
318,895	565,609	-0,061	-0,101
319,910	175,573	-0,199	-0,198
320,925	800,000	0,030	-0,083
321,939	264,409	-0,223	-0,267
322,954	106,370	-0,071	-0,058
323,968	-171,805	-0,013	0,000
324,983	800,000	-0,078	-0,203
325,997	141,397	-0,107	-0,097
327,012	344,936	-0,143	-0,192
328,027	461,694	-0,062	-0,095
329,041	44,731	-0,135	0,085
330,056	216,705	-0,111	-0,121
331,070	-8,680	-0,082	-0,037
332,085	-68,122	-0,128	0,034
333,100	800,000	-0,075	-0,193
334,114	52,110	-0,164	-0,107
335,129	794,857	-0,074	-0,140
336,143	-200,000	-0,006	-0,064
337,158	185,433	-0,142	-0,144
338,173	121,138	-0,081	-0,069
339,187	111,848	-0,131	-0,108
340,202	-90,798	-0,069	-0,014
341,216	-34,306	-0,104	-0,039
342,231	800,000	-0,094	-0,184
343,246	99,406	-0,249	-0,197
344,260	327,213	-0,074	-0,098
345,275	131,449	0,085	-0,074
346,289	-21,942	-0,100	-0,041
347,304	-200,000	-0,014	0,057
348,319	-6,295	-0,207	-0,096
349,333	569,125	-0,118	-0,197
350,348	-32,245	-0,076	-0,029
351,362	228,110	-0,194	-0,216
352,377	-133,706	-0,097	-0,008
353,392	-164,396	-0,204	-0,006
354,406	-200,000	-0,036	-0,158
355,421	207,197	1310,262	1397,942
356,435	159,388	1470,358	1398,392
