DTS Sentinel unit serial number:	SN410029Multiplexer serial number:	ORYXHardware model number:	OX2-SRSoftware version number:	ORYX F/W v4,00 Oryx Data Collector v3.7.2.0data status	okinstallation	B3 Nyhavnadifferential loss correction	single-endedforward channel	channel 1reverse channel	N/Adate	2023/12/04time	01:07:30forward acquisition time	300,00reverse acquisition time	0,00gamma	499,1914k internal	0,3204k external	0,3204temperature offset calibration	1,0000default loss term (dB/km)	0,3820temperature slope calibration	1,0000multiplexer offset coefficient	1,0000multiplexer slope coefficient	1,0000fibre end	0,00T internal ref (°C)	12,52T ext. ref 1 (°C)	-2,71T ext. ref 2 (°C)	-2,76length (m)	temperature (°C)	Stokes	anti-Stokes-744,400	800,000	-0,154	-0,317
-743,385	-200,000	-0,084	0,439
-742,371	-107,561	-0,236	-0,037
-741,356	800,000	-0,098	0,307
-740,342	32,593	-0,251	-0,157
-739,327	-200,000	-0,042	0,344
-738,312	93,961	-0,259	-0,214
-737,298	-200,000	-0,021	0,396
-736,283	171,403	-0,216	-0,225
-735,269	-200,000	-0,032	0,324
-734,254	-200,000	-0,085	-0,287
-733,239	-0,717	-0,182	0,094
-732,225	469,319	-0,066	-0,108
-731,210	-165,409	0,139	-0,004
-730,196	-159,835	-0,079	-0,003
-729,181	243,581	-0,015	0,018
-728,167	288,864	-0,037	-0,049
-727,152	-200,000	0,018	0,121
-726,137	141,600	0,077	-0,074
-725,123	-200,000	-0,004	-0,030
-724,108	-200,000	-0,010	-0,090
-723,094	90,103	-0,109	-0,088
-722,079	-87,775	-0,161	-0,035
-721,064	-45,275	0,206	0,074
-720,050	-200,000	0,020	0,234
-719,035	155,792	0,010	0,010
-718,021	-200,000	0,027	-0,095
-717,006	-15,982	-0,165	0,076
-715,991	538,934	-0,057	0,099
-714,977	-200,000	0,025	-0,130
-713,962	-2,651	-0,150	0,076
-712,948	-35,525	0,112	-0,044
-711,933	15,390	-0,084	0,048
-710,918	-200,000	0,021	0,074
-709,904	-200,000	-0,009	-0,131
-708,889	-200,000	-0,008	-0,110
-707,875	800,000	0,024	-0,076
-706,860	358,090	-0,047	0,069
-705,845	-11,787	0,031	0,015
-704,831	-200,000	0,018	0,104
-703,816	-200,000	-0,008	-0,027
-702,802	800,000	-0,060	0,138
-701,787	-200,000	-0,033	-0,190
-700,772	124,744	-0,026	-0,024
-699,758	-200,000	0,017	-0,176
-698,743	800,000	-0,064	-0,135
-697,729	-200,000	0,060	0,210
-696,714	254,326	0,002	0,002
-695,699	-200,000	-0,012	0,074
-694,685	-87,013	0,054	0,012
-693,670	-156,022	-0,188	0,008
-692,656	-139,264	0,059	-0,005
-691,641	-75,973	0,089	0,023
-690,627	203,746	0,031	-0,034
-689,612	-200,000	-0,026	0,107
-688,597	-200,000	0,012	-0,082
-687,583	-75,290	-0,040	0,010
-686,568	800,000	-0,072	-0,153
-685,554	-91,024	-0,077	-0,016
-684,539	118,986	0,029	-0,026
-683,524	-200,000	-0,002	-0,014
-682,510	800,000	0,010	-0,024
-681,495	-0,889	-0,225	-0,115
-680,481	651,512	0,034	-0,064
-679,466	-25,968	-0,124	-0,053
-678,451	-127,434	0,106	0,011
-677,437	-27,472	0,053	0,022
-676,422	800,000	-0,004	0,008
-675,408	800,000	-0,028	-0,064
-674,393	416,950	-0,080	-0,124
-673,378	-32,971	-0,098	-0,039
-672,364	-200,000	-0,025	-0,101
-671,349	-200,000	-0,051	-0,245
-670,335	-200,000	-0,009	-0,143
-669,320	291,219	0,130	0,172
-668,305	-4,765	-0,195	0,097
-667,291	800,000	0,040	0,107
-666,276	-47,130	0,030	-0,011
-665,262	49,051	-0,091	0,062
-664,247	-32,940	-0,109	0,044
-663,232	-200,000	-0,007	-0,030
-662,218	95,624	-0,211	0,174
-661,203	211,260	-0,060	-0,069
-660,189	288,450	-0,016	0,022
-659,174	-200,000	-0,015	-0,078
-658,159	-33,351	-0,097	0,039
-657,145	122,678	0,055	-0,050
-656,130	-41,030	-0,046	0,017
-655,116	-200,000	0,007	0,048
-654,101	415,419	0,049	0,076
-653,086	-132,324	-0,081	-0,008
-652,072	127,266	-0,132	0,121
-651,057	-200,000	-0,049	-0,234
-650,043	-42,016	-0,102	-0,038
-649,028	57,440	0,040	0,029
-648,014	123,600	-0,014	-0,013
-646,999	269,734	0,059	0,075
-645,984	119,089	-0,091	0,081
-644,970	-73,374	-0,072	-0,019
-643,955	80,705	0,029	-0,023
-642,941	-82,667	0,072	0,017
-641,926	159,252	-0,042	-0,042
-640,911	3,465	-0,126	0,066
-639,897	64,729	0,057	0,042
-638,882	-200,000	0,012	-0,144
-637,868	614,268	-0,096	-0,176
-636,853	-200,000	-0,019	-0,077
-635,838	-102,319	-0,044	-0,008
-634,824	-200,000	0,025	-0,084
-633,809	-123,946	0,174	-0,020
-632,795	34,833	-0,072	0,045
-631,780	68,016	-0,071	0,052
-630,765	800,000	0,072	0,145
-629,751	245,473	-0,098	-0,119
-628,736	-50,668	0,078	0,026
-627,722	-200,000	-0,001	0,159
-626,707	-84,270	-0,195	0,044
-625,692	358,141	0,068	0,098
-624,678	-81,578	0,099	0,023
-623,663	176,917	-0,030	-0,032
-622,649	-46,637	-0,187	0,066
-621,634	106,718	-0,137	0,118
-620,619	514,708	0,014	-0,023
-619,605	-200,000	-0,004	0,055
-618,590	-123,246	-0,073	0,008
-617,576	215,739	0,047	-0,054
-616,561	-200,000	-0,004	-0,039
-615,546	562,808	0,052	-0,092
-614,532	-26,049	0,037	-0,016
-613,517	59,288	-0,155	-0,110
-612,503	89,359	-0,111	0,089
-611,488	-1,992	-0,124	0,063
-610,474	800,000	-0,025	-0,071
-609,459	800,000	-0,072	0,171
-608,444	270,687	0,074	-0,094
-607,430	-200,000	-0,008	-0,081
-606,415	-75,650	0,196	0,050
-605,401	81,124	-0,024	0,019
-604,386	-103,303	-0,130	-0,022
-603,371	45,251	-0,033	-0,022
-602,357	800,000	-0,038	0,083
-601,342	67,005	-0,091	-0,067
-600,328	-200,000	0,045	-0,162
-599,313	800,000	-0,026	0,059
-598,298	204,370	-0,069	-0,078
-597,284	-200,000	-0,007	0,023
-596,269	-200,000	-0,003	0,168
-595,255	-200,000	-0,009	0,080
-594,240	-200,000	-0,024	-0,079
-593,225	182,899	-0,035	0,037
-592,211	265,809	-0,032	-0,040
-591,196	87,926	-0,031	-0,025
-590,182	-65,940	-0,014	-0,004
-589,167	-108,802	0,081	-0,012
-588,152	35,275	-0,109	-0,069
-587,138	-200,000	0,012	0,096
-586,123	-200,000	-0,009	0,041
-585,109	800,000	-0,024	-0,070
-584,094	-29,360	-0,075	0,031
-583,079	49,878	0,090	-0,061
-582,065	800,000	0,036	-0,100
-581,050	31,480	-0,173	0,107
-580,036	800,000	-0,029	-0,085
-579,021	-89,194	-0,184	-0,039
-578,006	-84,882	-0,126	-0,028
-576,992	278,190	0,009	-0,012
-575,977	800,000	0,036	0,100
-574,963	1,150	0,095	0,049
-573,948	800,000	0,015	-0,033
-572,934	331,462	-0,035	0,049
-571,919	124,703	-0,157	-0,143
-570,904	41,395	0,116	-0,076
-569,890	-200,000	0,014	-0,063
-568,875	-125,797	0,114	-0,012
-567,861	-200,000	0,007	-0,033
-566,846	-200,000	0,016	-0,094
-565,831	-42,430	-0,197	-0,072
-564,817	165,940	0,078	-0,080
-563,802	622,499	-0,039	-0,071
-562,788	-35,956	-0,088	-0,034
-561,773	789,142	0,043	0,086
-560,758	800,000	0,026	-0,081
-559,744	-92,655	0,122	0,024
-558,729	-100,618	-0,108	0,019
-557,715	57,521	0,055	0,039
-556,700	23,022	-0,158	0,093
-555,685	800,000	0,017	-0,046
-554,671	-200,000	-0,004	0,018
-553,656	-171,396	-0,117	-0,003
-552,642	284,167	-0,044	0,057
-551,627	359,929	-0,027	0,038
-550,612	800,000	0,014	-0,043
-549,598	800,000	0,048	0,121
-548,583	-200,000	-0,021	-0,078
-547,569	108,538	-0,120	-0,103
-546,554	800,000	-0,012	0,029
-545,539	-200,000	0,025	-0,127
-544,525	-26,091	-0,060	-0,025
-543,510	123,149	-0,083	-0,075
-542,496	261,502	0,049	-0,061
-541,481	145,163	0,068	-0,065
-540,466	6,299	0,074	0,040
-539,452	800,000	0,044	-0,100
-538,437	90,160	0,013	0,011
-537,423	-200,000	-0,005	0,030
-536,408	350,547	-0,111	0,158
-535,393	672,153	-0,058	0,110
-534,379	-200,000	-0,028	0,137
-533,364	-79,963	-0,047	-0,011
-532,350	485,072	-0,038	-0,063
-531,335	-200,000	-0,029	0,097
-530,321	35,657	0,023	0,014
-529,306	37,904	-0,058	-0,037
-528,291	159,806	-0,119	-0,120
-527,277	-200,000	0,011	0,047
-526,262	800,000	-0,044	0,112
-525,248	685,125	0,040	0,075
-524,233	60,536	0,033	0,024
-523,218	-10,461	0,151	-0,072
-522,204	-98,616	0,190	-0,035
-521,189	-38,070	0,037	0,014
-520,175	113,377	-0,049	-0,043
-519,160	-70,051	-0,126	-0,034
-518,145	-0,707	0,073	-0,037
-517,131	-56,762	-0,129	-0,041
-516,116	197,448	0,026	-0,028
-515,102	284,889	0,025	-0,032
-514,087	800,000	0,066	-0,168
-513,072	-200,000	-0,011	-0,198
-512,058	401,389	0,141	-0,214
-511,043	568,780	-0,047	0,083
-510,029	560,597	0,067	0,118
-509,014	421,358	-0,080	0,124
-507,999	-17,227	0,120	0,054
-506,985	435,719	0,029	0,045
-505,970	-149,917	0,078	-0,004
-504,956	-200,000	-0,005	0,077
-503,941	800,000	-0,019	0,058
-502,926	-75,348	0,120	0,030
-501,912	800,000	0,025	0,067
-500,897	150,437	-0,139	0,136
-499,883	800,000	0,035	0,070
-498,868	29,785	-0,036	-0,022
-497,853	167,250	-0,042	-0,043
-496,839	82,142	0,086	0,067
-495,824	-70,764	0,025	-0,007
-494,810	-101,266	0,061	-0,011
-493,795	79,484	-0,099	0,077
-492,781	-159,173	-0,085	0,003
-491,766	-200,000	-0,004	0,032
-490,751	582,596	-0,029	0,052
-489,737	12,886	-0,064	-0,036
-488,722	-124,916	0,177	0,019
-487,708	62,609	0,138	0,099
-486,693	-85,891	0,080	-0,018
-485,678	-66,836	0,097	0,027
-484,664	-100,708	-0,130	0,023
-483,649	-92,789	0,119	0,024
-482,635	-44,013	-0,104	0,037
-481,620	800,000	0,037	-0,090
-480,605	800,000	0,015	-0,037
-479,591	800,000	0,028	0,077
-478,576	10,382	-0,063	0,034
-477,562	10,274	-0,026	-0,014
-476,547	188,034	-0,028	0,030
-475,532	800,000	-0,016	-0,033
-474,518	107,905	0,114	-0,098
-473,503	-57,650	-0,070	0,022
-472,489	-104,783	-0,128	0,021
-471,474	800,000	0,032	-0,077
-470,459	-29,263	-0,176	0,072
-469,445	-200,000	0,019	-0,085
-468,430	-200,000	0,003	-0,045
-467,416	-200,000	-0,003	-0,100
-466,401	-30,389	-0,054	0,022
-465,386	-200,000	-0,007	0,083
-464,372	-12,890	0,148	0,069
-463,357	-200,000	0,044	0,200
-462,343	114,564	-0,069	-0,060
-461,328	-200,000	0,011	-0,104
-460,313	286,440	-0,040	-0,052
-459,299	-50,680	0,126	0,042
-458,284	-7,313	0,041	-0,020
-457,270	0,310	-0,038	-0,019
-456,255	-99,375	-0,101	-0,018
-455,241	-200,000	-0,002	-0,077
-454,226	-200,000	-0,019	-0,201
-453,211	-107,339	-0,082	-0,013
-452,197	179,292	0,076	0,080
-451,182	128,001	-0,073	0,067
-450,168	48,453	-0,065	0,044
-449,153	62,082	-0,057	0,040
-448,138	-49,025	-0,117	-0,040
-447,124	91,088	-0,022	0,017
-446,109	800,000	-0,031	0,087
-445,095	182,697	-0,028	0,030
-444,080	800,000	-0,012	0,027
-443,065	800,000	0,061	0,123
-442,051	-200,000	0,019	-0,114
-441,036	-200,000	0,016	-0,056
-440,022	-110,569	-0,179	0,026
-439,007	-158,267	0,105	-0,004
-437,992	38,645	0,050	0,032
-436,978	-200,000	-0,011	0,223
-435,963	487,739	-0,030	-0,049
-434,949	-155,393	0,080	-0,004
-433,934	513,414	-0,029	-0,048
-432,919	113,274	-0,160	0,139
-431,905	800,000	0,034	0,095
-430,890	800,000	0,019	-0,046
-429,876	-155,043	0,059	0,003
-428,861	-74,091	0,133	-0,034
-427,846	-36,694	-0,054	-0,021
-426,832	431,389	-0,021	0,033
-425,817	410,079	-0,035	0,054
-424,803	326,238	0,039	-0,054
-423,788	800,000	0,013	-0,034
-422,773	121,706	0,019	0,017
-421,759	319,179	0,082	-0,112
-420,744	800,000	0,012	-0,033
-419,730	78,500	0,126	-0,096
-418,715	-200,000	0,012	-0,135
-417,701	800,000	-0,038	-0,097
-416,686	-196,792	-0,118	0,001
-415,671	78,187	0,057	-0,044
-414,657	51,846	0,067	0,046
-413,642	800,000	0,016	-0,037
-412,628	23,032	-0,096	-0,056
-411,613	68,983	-0,036	-0,027
-410,598	-146,609	0,049	-0,003
-409,584	-43,438	0,109	0,039
-408,569	-92,109	0,092	-0,019
-407,555	800,000	-0,020	0,051
-406,540	-200,000	-0,002	-0,013
-405,525	-200,000	-0,012	0,051
-404,511	69,115	0,033	-0,024
-403,496	800,000	0,041	0,107
-402,482	-113,421	-0,086	0,012
-401,467	800,000	-0,053	0,107
-400,452	800,000	0,023	-0,055
-399,438	800,000	-0,027	0,084
-398,423	155,895	-0,108	0,107
-397,409	-200,000	0,002	0,059
-396,394	-49,465	-0,072	0,024
-395,379	-105,974	0,076	-0,012
-394,365	-12,195	0,077	-0,036
-393,350	-174,221	0,130	-0,003
-392,336	-61,100	0,024	0,007
-391,321	-90,774	0,098	-0,020
-390,306	98,443	-0,035	-0,029
-389,292	800,000	0,048	-0,104
-388,277	566,231	-0,056	-0,098
-387,263	21,595	0,140	0,081
-386,248	-95,870	-0,092	0,017
-385,233	-5,524	0,062	0,030
-384,219	53,370	-0,043	0,029
-383,204	-144,276	-0,016	-0,001
-382,190	-27,037	-0,086	0,036
-381,175	32,546	-0,039	0,024
-380,160	-200,000	0,005	0,085
-379,146	-111,609	-0,110	0,016
-378,131	-114,248	0,047	0,006
-377,117	338,242	-0,071	0,099
-376,102	800,000	-0,033	-0,094
-375,088	800,000	0,023	-0,070
-374,073	160,782	-0,099	-0,099
-373,058	-40,510	0,082	-0,030
-372,044	20,839	0,111	0,064
-371,029	-7,604	0,094	-0,045
-370,015	-200,000	0,010	0,059
-369,000	-102,163	0,041	-0,007
-367,985	-136,709	-0,111	-0,009
-366,971	221,962	-0,136	0,157
-365,956	-101,219	0,065	0,011
-364,942	-108,177	0,076	0,012
-363,927	-21,526	-0,091	-0,040
-362,912	800,000	0,017	0,051
-361,898	-114,874	-0,134	0,018
-360,883	604,396	0,029	-0,053
-359,869	39,446	0,073	-0,047
-358,854	-200,000	-0,007	0,047
-357,839	-90,132	0,114	-0,024
-356,825	22,585	0,054	0,032
-355,810	636,074	0,067	0,123
-354,796	-132,077	-0,142	0,013
-353,781	-114,557	0,099	0,013
-352,766	-112,828	0,085	0,012
-351,752	599,313	-0,017	-0,029
-350,737	339,743	0,069	-0,097
-349,723	800,000	-0,030	0,092
-348,708	-200,000	-0,007	0,135
-347,693	-47,989	0,114	0,039
-346,679	800,000	0,056	-0,139
-345,664	800,000	-0,059	-0,135
-344,650	-34,955	-0,053	-0,021
-343,635	800,000	-0,029	-0,080
-342,620	118,398	0,096	-0,084
-341,606	286,482	0,046	-0,059
-340,591	-148,463	0,124	0,007
-339,577	-22,753	-0,103	0,044
-338,562	251,079	0,096	-0,117
-337,548	-200,000	-0,005	0,019
-336,533	-19,136	-0,070	0,031
-335,518	93,159	0,109	0,088
-334,504	73,318	0,055	-0,041
-333,489	10,616	0,068	-0,037
-332,475	-200,000	-0,031	-0,113
-331,460	800,000	0,020	0,043
-330,445	-115,038	-0,106	-0,014
-329,431	121,707	0,089	0,079
-328,416	7,539	0,102	-0,054
-327,402	-106,469	0,107	-0,017
-326,387	800,000	0,048	0,128
-325,372	640,963	-0,029	-0,053
-324,358	691,313	-0,123	-0,231
-323,343	-200,000	-0,020	-0,135
-322,329	-200,000	0,030	0,180
-321,314	-200,000	0,017	0,101
-320,299	9,630	0,038	0,021
-319,285	-145,095	-0,108	0,007
-318,270	86,516	-0,044	-0,035
-317,256	800,000	-0,108	-0,223
-316,241	-200,000	0,037	-0,140
-315,226	-200,000	-0,003	-0,043
-314,212	-132,397	0,082	0,007
-313,197	800,000	0,031	0,064
-312,183	-200,000	0,026	0,136
-311,168	555,008	0,041	0,070
-310,153	184,414	-0,063	-0,067
-309,139	-200,000	-0,044	-0,208
-308,124	283,715	0,069	-0,089
-307,110	14,178	0,089	-0,050
-306,095	800,000	0,070	0,139
-305,080	98,426	-0,032	0,027
-304,066	547,327	-0,017	-0,030
-303,051	316,483	-0,114	-0,154
-302,037	800,000	0,050	0,100
-301,022	259,751	-0,018	0,023
-300,008	-200,000	-0,009	0,092
-298,993	138,772	-0,086	0,081
-297,978	314,502	0,066	0,089
-296,964	-60,367	-0,004	0,001
-295,949	94,151	-0,054	0,044
-294,935	-100,561	-0,108	0,019
-293,920	-104,513	0,043	0,007
-292,905	800,000	-0,000	0,001
-291,891	29,384	0,102	-0,062
-290,876	25,599	0,111	-0,066
-289,862	-200,000	0,005	-0,092
-288,847	-9,291	0,061	-0,029
-287,832	51,936	-0,014	-0,009
-286,818	310,947	0,017	-0,022
-285,803	108,205	-0,053	-0,045
-284,789	-23,184	0,070	-0,030
-283,774	-200,000	0,047	0,181
-282,759	530,148	-0,048	-0,080
-281,745	64,608	0,061	0,044
-280,730	-200,000	0,016	0,076
-279,716	780,941	-0,011	0,021
-278,701	368,338	0,088	0,128
-277,686	-8,693	0,037	0,018
-276,672	788,124	0,057	0,113
-275,657	-94,332	-0,096	0,019
-274,643	45,016	0,108	0,071
-273,628	-200,000	0,011	-0,061
-272,613	29,124	0,134	-0,081
-271,599	45,162	-0,049	0,032
-270,584	-73,750	-0,074	-0,019
-269,570	800,000	0,037	0,081
-268,555	113,512	-0,042	0,036
-267,540	284,950	-0,025	0,032
-266,526	-200,000	-0,052	-0,179
-265,511	-32,875	0,061	-0,024
-264,497	-129,154	0,108	-0,011
-263,482	-200,000	0,000	-0,037
-262,467	-200,000	0,119	0,000
-261,453	-200,000	-0,013	0,112
-260,438	-166,811	-0,109	-0,003
-259,424	-200,000	-0,013	-0,119
-258,409	800,000	-0,013	-0,032
-257,395	-18,376	-0,051	-0,023
-256,380	47,572	0,099	-0,066
-255,365	800,000	-0,067	0,172
-254,351	44,028	-0,033	0,022
-253,336	-200,000	-0,024	-0,081
-252,322	800,000	-0,033	0,098
-251,307	-71,371	-0,052	0,014
-250,292	544,209	0,064	0,109
-249,278	92,798	0,094	0,076
-248,263	799,385	-0,059	0,117
-247,249	612,986	0,058	0,104
-246,234	-200,000	0,033	-0,114
-245,219	82,034	0,103	-0,080
-244,205	-200,000	0,033	-0,129
-243,190	-56,304	0,097	-0,030
-242,176	800,000	-0,062	0,134
-241,161	-113,275	0,190	0,026
-240,146	-35,179	-0,150	0,058
-239,132	354,610	-0,007	0,009
-238,117	41,225	-0,073	0,047
-237,103	-4,165	0,106	-0,052
-236,088	800,000	-0,072	-0,162
-235,073	-200,000	-0,017	0,067
-234,059	211,642	-0,023	0,025
-233,044	800,000	-0,052	0,126
-232,030	-200,000	-0,005	-0,025
-231,015	800,000	-0,017	0,037
-230,000	-200,000	0,002	-0,078
-228,986	412,495	-0,104	-0,158
-227,971	4,037	-0,053	0,027
-226,957	-200,000	0,012	0,142
-225,942	-200,000	-0,001	-0,018
-224,927	-60,122	0,066	-0,020
-223,913	-110,390	0,058	-0,008
-222,898	800,000	0,050	0,132
-221,884	-128,872	0,062	-0,006
-220,869	133,875	0,095	-0,088
-219,855	-33,566	0,044	-0,017
-218,840	-27,399	0,085	0,035
-217,825	273,128	-0,022	-0,028
-216,811	234,956	-0,073	0,085
-215,796	-200,000	0,001	0,110
-214,782	154,919	0,093	-0,091
-213,767	800,000	-0,009	0,019
-212,752	37,501	0,151	0,095
-211,738	-163,149	0,122	-0,004
-210,723	6,295	0,111	0,058
-209,709	110,773	-0,134	-0,115
-208,694	-97,325	-0,034	0,006
-207,679	-200,000	-0,026	0,125
-206,665	800,000	0,009	0,024
-205,650	-200,000	-0,024	-0,174
-204,636	-172,883	0,077	0,002
-203,621	-36,890	-0,073	-0,028
-202,606	-138,012	-0,115	-0,009
-201,592	22,615	-0,043	-0,025
-200,577	126,269	0,060	-0,054
-199,563	-8,738	0,059	0,028
-198,548	-200,000	0,033	0,115
-197,533	33,417	0,024	-0,015
-196,519	45,221	-0,125	-0,082
-195,504	-200,000	-0,015	-0,095
-194,490	78,058	0,033	-0,025
-193,475	-55,703	-0,076	-0,024
-192,460	-157,417	-0,073	-0,003
-191,446	-200,000	-0,004	0,032
-190,431	-163,280	-0,131	0,004
-189,417	50,506	0,120	0,081
-188,402	228,663	-0,110	0,128
-187,387	-40,009	-0,014	-0,005
-186,373	597,982	0,047	0,083
-185,358	-200,000	-0,013	0,105
-184,344	373,895	0,049	0,072
-183,329	800,000	-0,028	0,078
-182,315	232,176	0,012	0,014
-181,300	-47,051	-0,110	-0,038
-180,285	-200,000	-0,003	-0,193
-179,271	-83,454	-0,019	-0,004
-178,256	-200,000	-0,000	-0,117
-177,242	-200,000	0,018	-0,132
-176,227	515,230	0,084	-0,139
-175,212	-200,000	0,006	-0,064
-174,198	-200,000	-0,019	-0,115
-173,183	137,519	0,026	-0,024
-172,169	223,579	-0,061	-0,070
-171,154	80,788	0,087	-0,066
-170,139	-72,716	-0,065	0,017
-169,125	-114,145	0,066	0,009
-168,110	-200,000	-0,026	-0,083
-167,096	233,733	-0,065	0,077
-166,081	-200,000	-0,014	-0,065
-165,066	-200,000	-0,015	0,079
-164,052	800,000	0,031	0,062
-163,037	289,941	0,066	0,085
-162,023	-38,513	0,049	0,018
-161,008	-200,000	0,042	0,235
-159,993	-200,000	0,000	0,070
-158,979	4,232	0,070	-0,036
-157,964	-200,000	-0,032	-0,122
-156,950	200,249	0,068	-0,074
-155,935	636,548	-0,042	-0,075
-154,920	-161,533	0,081	0,003
-153,906	53,861	-0,045	0,030
-152,891	46,267	0,066	0,043
-151,877	-200,000	-0,003	0,063
-150,862	800,000	0,026	0,066
-149,847	-124,544	0,058	-0,006
-148,833	-17,745	0,066	-0,029
-147,818	-29,865	-0,037	-0,015
-146,804	800,000	-0,053	-0,143
-145,789	148,830	0,065	0,063
-144,775	-37,562	-0,206	-0,078
-143,760	-200,000	0,001	-0,075
-142,745	800,000	-0,043	-0,122
-141,731	269,783	0,066	-0,083
-140,716	390,763	-0,094	-0,139
-139,702	233,510	-0,036	-0,042
-138,687	800,000	-0,014	0,042
-137,672	311,239	0,115	-0,153
-136,658	151,732	-0,020	-0,020
-135,643	-200,000	-0,005	-0,025
-134,629	800,000	0,019	0,055
-133,614	800,000	0,012	-0,032
-132,599	-200,000	0,017	0,122
-131,585	-200,000	-0,005	0,043
-130,570	215,963	0,076	0,086
-129,556	-135,059	-0,097	0,008
-128,541	800,000	0,002	0,004
-127,526	-200,000	0,010	-0,044
-126,512	-200,000	-0,001	-0,084
-125,497	800,000	0,013	0,030
-124,483	-69,389	0,075	-0,020
-123,468	23,340	-0,093	0,054
-122,453	3,251	0,041	-0,021
-121,439	533,786	0,049	-0,083
-120,424	-48,885	-0,045	-0,015
-119,410	76,775	0,071	-0,053
-118,395	195,916	-0,021	0,023
-117,380	-36,186	0,099	0,038
-116,366	-200,000	-0,012	-0,143
-115,351	800,000	-0,046	-0,092
-114,337	800,000	0,005	-0,011
-113,322	175,380	0,076	-0,078
-112,307	-200,000	0,001	-0,032
-111,293	70,410	0,081	0,059
-110,278	-128,028	0,030	0,003
-109,264	800,000	-0,064	0,160
-108,249	-200,000	-0,032	0,153
-107,234	-91,416	-0,192	-0,039
-106,220	158,186	-0,107	-0,105
-105,205	7,872	-0,092	-0,049
-104,191	-200,000	0,002	0,015
-103,176	800,000	-0,009	-0,027
-102,162	-200,000	0,004	0,019
-101,147	-24,888	-0,097	0,041
-100,132	-8,786	-0,084	-0,040
-99,118	-200,000	-0,012	-0,118
-98,103	75,519	-0,077	0,057
-97,089	-90,830	0,022	-0,004
-96,074	800,000	0,019	0,040
-95,059	373,735	-0,023	-0,034
-94,045	-12,899	-0,051	0,023
-93,030	-30,915	0,141	0,056
-92,016	178,048	-0,037	0,038
-91,001	117,653	0,072	-0,063
-89,986	-46,314	0,078	0,027
-88,972	-58,460	0,070	-0,021
-87,957	165,355	-0,054	0,054
-86,943	-200,000	-0,031	0,132
-85,928	-200,000	-0,005	0,120
-84,913	43,348	0,085	-0,055
-83,899	-200,000	-0,011	-0,100
-82,884	87,441	0,142	-0,111
-81,870	-200,000	0,028	-0,105
-80,855	-200,000	-0,006	-0,101
-79,840	190,649	-0,072	-0,077
-78,826	-200,000	-0,014	0,078
-77,811	231,318	-0,074	-0,086
-76,797	-33,823	0,099	0,038
-75,782	25,204	0,110	0,065
-74,767	-59,139	-0,112	0,034
-73,753	-200,000	-0,013	0,088
-72,738	153,861	0,134	0,130
-71,724	-200,000	-0,040	-0,183
-70,709	-77,224	0,070	-0,017
-69,694	78,158	-0,114	0,086
-68,680	-25,649	0,120	-0,050
-67,665	298,175	0,087	0,114
-66,651	-2,584	0,142	-0,070
-65,636	89,399	-0,099	-0,078
-64,622	-81,424	0,173	0,040
-63,607	-200,000	0,017	-0,078
-62,592	87,453	-0,027	0,021
-61,578	-200,000	-0,006	0,066
-60,563	-62,330	0,069	0,020
-59,549	-52,354	0,056	0,018
-58,534	-16,625	-1,813	-0,809
-57,519	444,268	-1,276	-1,987
-56,505	-200,000	-0,537	-4,519
-55,490	259,081	0,977	1,194
-54,476	800,000	5,099	11,488
-53,461	-200,000	19,877	325,806
-52,446	800,000	748,920	2323,601
-51,432	557,278	1660,765	2843,084
-50,417	76,171	1671,788	1250,516
-49,403	20,399	1545,011	880,864
-48,388	14,361	1467,390	807,227
-47,373	18,223	1457,502	820,421
-46,359	16,492	1446,872	806,108
-45,344	12,648	1442,424	785,185
-44,330	12,559	1440,597	783,733
-43,315	12,568	1438,910	782,827
-42,300	12,583	1437,285	781,985
-41,286	12,615	1435,901	781,352
-40,271	12,575	1434,396	780,313
-39,257	12,589	1433,094	779,640
-38,242	12,623	1432,086	779,223
-37,227	12,614	1430,866	778,483
-36,213	12,589	1429,471	777,574
-35,198	12,606	1428,433	777,063
-34,184	12,671	1427,358	776,754
-33,169	12,594	1425,884	775,558
-32,154	12,655	1424,855	775,256
-31,140	12,648	1423,603	774,509
-30,125	12,647	1422,705	773,986
-29,111	12,670	1421,305	773,304
-28,096	12,632	1420,427	772,616
-27,082	12,534	1419,458	771,592
-26,067	12,541	1418,298	770,966
-25,052	12,584	1417,043	770,457
-24,038	12,534	1416,188	769,725
-23,023	12,510	1415,205	769,045
-22,009	12,561	1413,894	768,543
-20,994	12,501	1413,105	767,805
-19,979	12,484	1412,516	767,373
-18,965	12,515	1411,220	766,782
-17,950	12,514	1410,322	766,258
-16,936	12,529	1409,297	765,744
-15,921	12,446	1408,496	764,888
-14,906	12,460	1407,575	764,424
-13,892	12,464	1406,504	763,832
-12,877	12,489	1405,669	763,465
-11,863	12,436	1404,741	762,681
-10,848	12,414	1404,002	762,149
-9,833	12,365	1403,232	761,472
-8,819	12,385	1402,333	761,046
-7,804	12,343	1401,540	760,388
-6,790	12,347	1400,278	759,693
-5,775	12,394	1399,300	759,350
-4,760	12,400	1398,187	758,747
-3,746	12,307	1397,391	757,849
-2,731	12,351	1396,408	757,492
-1,717	12,329	1395,742	757,000
-0,702	12,327	1393,714	755,862
0,313	16,279	1309,531	728,467
1,327	32,639	701,259	427,767
2,342	50,655	122,357	81,727
3,356	4,932	16,492	8,549
4,371	4,490	3,241	1,675
5,386	18,907	0,623	0,352
6,400	-200,000	0,057	0,311
7,415	41,861	-0,240	-0,154
8,429	-29,164	-0,383	-0,154
9,444	-10,845	-0,315	-0,147
10,459	418,476	-0,217	-0,328
11,473	-11,604	-0,295	-0,136
12,488	-4,378	-0,336	-0,164
13,502	-7,545	-0,319	-0,152
14,517	114,603	-0,234	-0,202
15,531	92,950	-0,400	-0,319
16,546	33,165	-0,402	-0,246
17,561	54,926	-0,384	-0,262
18,575	-46,633	-0,097	-0,034
19,590	177,383	-0,221	-0,228
20,604	15,930	-0,250	-0,138
21,619	43,807	-0,445	-0,287
22,634	240,260	-0,299	-0,352
23,648	94,421	-0,395	-0,316
24,663	94,681	-0,413	-0,331
25,677	171,097	-0,263	-0,266
26,692	43,754	-0,371	-0,239
27,707	365,694	-0,184	-0,262
28,721	54,001	-0,536	-0,363
29,736	-25,533	-0,569	-0,236
30,750	49,812	-0,429	-0,285
31,765	-17,279	-0,449	-0,198
32,780	226,080	-0,316	-0,362
33,794	-14,861	-0,306	-0,138
34,809	200,322	-0,340	-0,369
35,823	45,368	-0,422	-0,274
36,838	111,812	-0,347	-0,295
37,853	62,385	-0,437	-0,307
38,867	195,859	-0,399	-0,428
39,882	23,497	-0,373	-0,215
40,896	129,022	-0,219	-0,197
41,911	54,757	-0,286	-0,194
42,926	25,887	-0,455	-0,267
43,940	163,226	-0,374	-0,371
44,955	41,090	-0,465	-0,295
45,969	51,683	-0,390	-0,261
46,984	84,634	-0,280	-0,215
47,999	-49,159	-0,270	-0,090
49,013	74,117	-0,192	-0,142
50,028	179,567	-0,284	-0,293
51,042	89,854	-0,379	-0,298
52,057	167,789	-0,281	-0,281
53,071	-86,961	-0,404	-0,086
54,086	281,808	-0,250	-0,316
55,101	467,817	-0,251	-0,397
56,115	26,280	-0,337	-0,197
57,130	67,158	-0,278	-0,199
58,144	104,303	-0,249	-0,206
59,159	12,069	-0,418	-0,225
60,174	1,923	-0,323	-0,163
61,188	186,895	-0,197	-0,207
62,203	139,588	-0,321	-0,298
63,217	1,547	-0,235	-0,118
64,232	205,810	-0,352	-0,386
65,247	108,200	-0,305	-0,256
66,261	17,068	-0,472	-0,262
67,276	118,818	-0,313	-0,272
68,290	258,720	-0,218	-0,264
69,305	-54,390	-0,295	-0,093
70,320	56,387	-0,178	-0,121
71,334	-11,658	-0,309	-0,142
72,349	24,598	-0,203	-0,117
73,363	22,548	-0,342	-0,196
74,378	-14,929	-0,305	-0,137
75,393	182,195	-0,281	-0,291
76,407	179,842	-0,261	-0,269
77,422	140,053	-0,348	-0,322
78,436	51,463	-0,286	-0,190
79,451	-18,661	-0,360	-0,157
80,466	75,823	-0,248	-0,184
81,480	241,342	-0,156	-0,183
82,495	23,435	-0,350	-0,202
83,509	-1,653	-0,354	-0,175
84,524	-13,065	-0,417	-0,189
85,539	-73,708	-0,318	-0,081
86,553	8,959	-0,386	-0,204
87,568	61,008	-0,255	-0,177
88,582	-38,727	-0,280	-0,103
89,597	31,954	-0,330	-0,199
90,611	325,259	-0,184	-0,247
91,626	139,247	-0,197	-0,182
92,641	8,753	-0,238	-0,125
93,655	58,456	-0,322	-0,221
94,670	81,968	-0,303	-0,230
95,684	154,174	-0,356	-0,342
96,699	69,781	-0,326	-0,235
97,714	74,302	-0,220	-0,162
98,728	-128,918	-0,405	-0,039
99,743	161,601	-0,109	-0,107
100,757	65,607	-0,195	-0,139
101,772	132,957	-0,209	-0,189
102,787	209,184	-0,308	-0,339
103,801	127,857	-0,210	-0,187
104,816	800,000	-0,136	-0,335
105,830	240,068	-0,294	-0,344
106,845	-45,936	-0,305	-0,105
107,860	-67,347	-0,387	-0,106
108,874	81,711	-0,248	-0,188
109,889	47,706	-0,290	-0,189
110,903	52,942	-0,361	-0,242
111,918	294,584	-0,155	-0,199
112,933	57,718	-0,377	-0,258
113,947	-97,614	-0,281	0,051
114,962	-126,115	-0,288	-0,030
115,976	-86,615	-0,330	-0,070
116,991	136,252	-0,200	-0,182
118,006	185,829	-0,153	-0,160
119,020	253,755	-0,187	-0,224
120,035	194,965	-0,206	-0,219
121,049	60,673	-0,192	-0,133
122,064	40,369	-0,226	-0,142
123,079	-37,891	-0,385	-0,142
124,093	-34,071	-0,363	-0,139
125,108	12,248	-0,278	-0,149
126,122	-1,765	-0,234	-0,115
127,137	800,000	-0,145	-0,308
128,151	-47,811	-0,217	-0,073
129,166	125,904	-0,236	-0,208
130,181	72,412	-0,339	-0,247
131,195	-104,509	-0,249	-0,040
132,210	62,207	-0,306	-0,213
133,224	217,581	-0,141	-0,157
134,239	780,785	-0,166	-0,320
135,254	173,936	-0,185	-0,187
136,268	235,000	-0,209	-0,241
137,283	-15,946	-0,160	-0,071
138,297	108,745	-0,202	-0,169
139,312	79,994	-0,322	-0,241
140,327	166,376	-0,232	-0,230
141,341	-15,400	-0,175	-0,078
142,356	-10,835	-0,257	-0,118
143,370	81,744	-0,239	-0,181
144,385	-39,412	-0,282	-0,103
145,400	-75,038	-0,310	-0,077
146,414	-170,796	-0,302	-0,007
147,429	423,733	-0,212	-0,320
148,443	98,542	-0,254	-0,205
149,458	-38,518	-0,300	-0,110
150,473	-110,387	-0,290	-0,042
151,487	1,063	-0,229	-0,114
152,502	141,057	-0,254	-0,235
153,516	-28,003	-0,339	-0,136
154,531	149,684	-0,317	-0,300
155,546	94,364	-0,252	-0,200
156,560	18,265	-0,235	-0,131
157,575	-42,408	-0,260	-0,092
158,589	-153,498	-0,201	-0,010
159,604	-55,208	-0,351	-0,109
160,619	108,542	-0,281	-0,234
161,633	75,630	-0,368	-0,271
162,648	-78,702	-0,270	-0,064
163,662	83,253	-0,238	-0,181
164,677	278,246	-0,192	-0,238
165,692	24,977	-0,202	-0,117
166,706	180,420	-0,241	-0,247
167,721	107,188	-0,323	-0,267
168,735	12,990	-0,271	-0,146
169,750	19,268	-0,266	-0,149
170,764	-1,058	-0,167	-0,082
171,779	-189,841	-0,126	0,001
172,794	129,207	-0,188	-0,167
173,808	184,757	-0,176	-0,182
174,823	63,348	-0,140	-0,097
175,837	176,850	-0,182	-0,185
176,852	159,335	-0,202	-0,196
177,867	-43,560	-0,262	-0,092
178,881	-200,000	-0,038	-0,139
179,896	60,521	-0,294	-0,202
180,910	81,038	-0,266	-0,199
181,925	-178,430	-0,185	-0,003
182,940	197,858	-0,255	-0,272
183,954	599,241	-0,164	-0,285
184,969	-85,490	-0,229	-0,049
185,983	-123,769	-0,187	-0,020
186,998	92,713	-0,174	-0,136
188,013	-70,978	-0,340	-0,088
189,027	-10,625	-0,283	-0,130
190,042	758,621	-0,144	-0,272
191,056	16,357	-0,177	-0,097
192,071	21,629	-0,239	-0,135
193,086	-99,586	-0,115	-0,020
194,100	13,117	-0,103	-0,055
195,115	-7,698	-0,097	-0,045
196,129	98,692	-0,170	-0,136
197,144	28,349	-0,183	-0,107
198,159	191,866	-0,236	-0,247
199,173	106,026	-0,198	-0,163
200,188	-29,384	-0,169	-0,067
201,202	124,262	-0,118	-0,103
202,217	747,597	-0,137	-0,257
203,232	51,864	-0,285	-0,188
204,246	266,711	-0,196	-0,239
205,261	42,606	-0,218	-0,138
206,275	219,025	-0,293	-0,325
207,290	-18,956	-0,060	-0,026
208,304	-0,760	-0,140	-0,068
209,319	-82,661	-0,223	-0,050
210,334	208,595	-0,176	-0,191
211,348	75,394	-0,183	-0,134
212,363	75,277	-0,256	-0,187
213,377	255,316	-0,151	-0,180
214,392	642,931	-0,123	-0,218
215,407	45,585	-0,208	-0,133
216,421	51,082	-0,249	-0,163
217,436	-25,744	-0,191	-0,078
218,450	102,478	-0,193	-0,157
219,465	98,602	-0,173	-0,138
220,480	-6,957	-0,212	-0,099
221,494	119,440	-0,154	-0,132
222,509	-73,238	-0,283	-0,071
223,523	-143,548	-0,313	-0,020
224,538	192,034	-0,203	-0,213
225,553	280,165	-0,181	-0,225
226,567	247,362	-0,160	-0,187
227,582	-14,713	-0,244	-0,108
228,596	20,665	-0,231	-0,129
229,611	-115,945	-0,210	0,027
230,626	91,804	-0,128	-0,100
231,640	165,391	-0,149	-0,146
232,655	96,940	-0,230	-0,183
233,669	143,550	-0,282	-0,260
234,684	149,994	-0,192	-0,181
235,699	301,248	-0,148	-0,190
236,713	-42,551	-0,145	0,051
237,728	800,000	-0,060	-0,153
238,742	277,672	-0,199	-0,246
239,757	-14,323	-0,215	-0,095
240,772	0,978	-0,163	-0,081
241,786	96,146	-0,163	-0,129
242,801	314,630	-0,105	-0,137
243,815	-72,672	-0,155	-0,039
244,830	-97,534	-0,206	-0,037
245,844	461,844	-0,141	-0,218
246,859	123,262	-0,172	-0,149
247,874	42,230	-0,165	-0,104
248,888	127,866	-0,203	-0,179
249,903	279,679	-0,117	-0,144
250,917	207,299	-0,053	-0,057
251,932	165,347	-0,135	-0,132
252,947	-2,839	-0,265	-0,128
253,961	-157,284	-0,141	-0,006
254,976	384,909	-0,139	-0,198
255,990	671,875	-0,143	-0,258
257,005	-139,878	-0,157	-0,011
258,020	-14,010	-0,133	-0,059
259,034	-200,000	-0,060	-0,241
260,049	107,766	-0,069	0,057
261,063	86,433	-0,242	-0,184
262,078	156,109	-0,286	-0,273
263,093	-1,521	-0,206	-0,100
264,107	15,807	-0,267	-0,145
265,122	-150,707	-0,251	-0,013
266,136	-131,639	-0,177	-0,016
267,151	85,776	-0,131	-0,099
268,166	371,936	-0,217	-0,305
269,180	114,062	-0,222	-0,186
270,195	106,602	-0,216	-0,177
271,209	27,068	-0,186	-0,107
272,224	498,746	-0,126	-0,200
273,239	159,180	-0,108	-0,104
274,253	800,000	-0,081	-0,194
275,268	83,627	-0,202	-0,152
276,282	-41,407	-0,215	-0,076
277,297	59,440	-0,264	-0,179
278,312	67,457	-0,230	-0,162
279,326	800,000	-0,064	-0,133
280,341	800,000	0,011	0,026
281,355	-141,883	-0,289	-0,020
282,370	179,224	-0,152	-0,154
283,384	2,373	-0,316	-0,157
284,399	39,584	-0,254	-0,157
285,414	109,534	-0,271	-0,224
286,428	126,303	-0,156	-0,136
287,443	28,234	-0,226	-0,131
288,457	191,880	-0,230	-0,239
289,472	474,055	-0,102	-0,160
290,487	-139,264	-0,123	-0,009
291,501	112,202	-0,168	-0,140
292,516	287,656	-0,120	-0,149
293,530	168,617	-0,175	-0,172
294,545	348,519	-0,060	-0,081
295,560	800,000	-0,069	-0,183
296,574	-87,602	-0,195	-0,040
297,589	235,327	-0,185	-0,211
298,603	5,584	-0,092	0,047
299,618	-96,612	-0,243	-0,044
300,633	655,337	-0,040	-0,072
301,647	-200,000	-0,011	0,051
302,662	-200,000	0,012	-0,159
303,676	800,000	-0,041	-0,110
304,691	-23,338	-0,142	-0,059
305,706	84,660	-0,035	-0,026
306,720	260,182	-0,129	-0,153
307,735	62,360	-0,167	-0,114
308,749	-53,258	-0,104	0,033
309,764	39,919	-0,106	0,066
310,779	-200,000	-0,061	-0,197
311,793	21,220	-0,182	-0,101
312,808	126,145	-0,236	-0,206
313,822	-200,000	-0,045	-0,179
314,837	173,218	-0,144	-0,143
315,852	233,987	-0,068	-0,078
316,866	-37,688	-0,135	-0,049
317,881	-89,782	-0,135	-0,027
318,895	47,912	-0,113	0,072
319,910	-79,104	-0,170	-0,039
320,925	98,878	-0,170	-0,135
321,939	-90,720	-0,193	-0,038
322,954	80,252	-0,044	-0,033
323,968	77,696	-0,051	-0,037
324,983	285,729	-0,052	-0,064
325,997	211,103	-0,219	-0,237
327,012	106,340	-0,155	-0,126
328,027	-152,337	-0,264	0,013
329,041	-200,000	0,006	-0,121
330,056	35,969	-0,156	-0,094
331,070	-74,825	-0,096	0,023
332,085	-2,794	-0,154	-0,074
333,100	517,802	-0,088	-0,143
334,114	-19,648	-0,234	-0,099
335,129	45,914	-0,059	-0,037
336,143	203,275	-0,180	-0,191
337,158	-6,760	-0,098	-0,045
338,173	395,193	-0,079	-0,113
339,187	-19,345	-0,048	-0,020
340,202	-156,051	-0,152	-0,006
341,216	18,097	-0,113	-0,062
342,231	-7,367	-0,180	0,083
343,246	429,781	-0,099	-0,148
344,260	-115,731	-0,178	0,023
345,275	-40,830	-0,198	-0,070
346,289	117,498	-0,156	-0,132
347,304	-98,003	-0,094	-0,016
348,319	800,000	-0,036	-0,075
349,333	152,876	-0,108	-0,101
350,348	496,081	-0,152	-0,240
351,362	99,914	-0,156	-0,124
352,377	201,731	-0,133	-0,140
353,392	109,322	-0,159	-0,131
354,406	582,762	-0,109	-0,184
355,421	209,395	1312,427	1411,155
356,435	161,159	1472,851	1411,629
