DTS Sentinel unit serial number:	SN410029Multiplexer serial number:	ORYXHardware model number:	OX2-SRSoftware version number:	ORYX F/W v4,00 Oryx Data Collector v3.7.2.0data status	okinstallation	B3 Nyhavnadifferential loss correction	single-endedforward channel	channel 1reverse channel	N/Adate	2023/12/01time	10:47:30forward acquisition time	300,00reverse acquisition time	0,00gamma	499,1914k internal	0,3213k external	0,3213temperature offset calibration	1,0000default loss term (dB/km)	0,3820temperature slope calibration	1,0000multiplexer offset coefficient	1,0000multiplexer slope coefficient	1,0000fibre end	0,00T internal ref (°C)	8,14T ext. ref 1 (°C)	-6,19T ext. ref 2 (°C)	-6,29length (m)	temperature (°C)	Stokes	anti-Stokes-744,400	91,983	-0,163	-0,133
-743,385	-200,000	0,016	0,220
-742,371	494,392	-0,160	-0,267
-741,356	-200,000	-0,033	0,250
-740,342	68,632	-0,238	-0,177
-739,327	-200,000	-0,013	0,269
-738,312	245,532	-0,211	-0,258
-737,298	72,188	-0,124	0,094
-736,283	136,945	-0,171	-0,162
-735,269	-200,000	-0,054	0,229
-734,254	-200,000	-0,033	-0,185
-733,239	-78,406	-0,080	0,020
-732,225	426,210	-0,174	-0,273
-731,210	188,185	0,055	0,059
-730,196	-181,277	-0,101	-0,001
-729,181	-62,884	-0,134	-0,040
-728,167	-119,166	0,104	0,013
-727,152	73,715	-0,089	0,067
-726,137	-142,207	-0,134	0,009
-725,123	800,000	-0,016	-0,047
-724,108	-91,807	-0,040	-0,008
-723,094	22,868	-0,165	-0,098
-722,079	-2,720	0,084	-0,042
-721,064	-90,076	-0,072	-0,015
-720,050	365,979	0,031	0,045
-719,035	298,616	-0,075	0,101
-718,021	-200,000	0,007	-0,130
-717,006	362,860	-0,065	-0,094
-715,991	-200,000	-0,027	-0,153
-714,977	800,000	-0,036	-0,088
-713,962	-12,340	0,069	0,033
-712,948	743,900	-0,005	0,010
-711,933	-36,709	-0,017	0,007
-710,918	-150,096	-0,120	0,007
-709,904	208,202	-0,093	0,105
-708,889	110,593	-0,110	-0,096
-707,875	-56,847	0,072	0,023
-706,860	-200,000	0,025	-0,097
-705,845	-22,719	-0,017	0,007
-704,831	426,256	0,022	-0,035
-703,816	800,000	0,011	0,024
-702,802	-200,000	-0,007	-0,028
-701,787	-12,940	-0,020	0,009
-700,772	3,593	-0,105	0,055
-699,758	135,557	0,066	0,062
-698,743	-11,770	0,110	0,052
-697,729	288,840	0,011	-0,015
-696,714	-26,341	-0,076	0,032
-695,699	17,113	-0,049	-0,028
-694,685	-24,223	-0,102	0,044
-693,670	800,000	-0,010	-0,021
-692,656	-85,043	0,100	-0,022
-691,641	102,212	-0,117	-0,099
-690,627	-112,980	0,109	-0,015
-689,612	202,171	-0,049	-0,055
-688,597	-200,000	-0,001	-0,043
-687,583	340,478	-0,043	-0,061
-686,568	122,662	-0,223	-0,202
-685,554	-200,000	-0,003	-0,014
-684,539	-48,010	-0,019	-0,007
-683,524	224,736	0,018	-0,021
-682,510	800,000	-0,020	0,059
-681,495	-171,105	-0,076	0,002
-680,481	71,373	0,018	0,013
-679,466	33,712	-0,020	-0,013
-678,451	800,000	0,027	-0,075
-677,437	102,538	-0,075	-0,063
-676,422	800,000	0,021	-0,056
-675,408	341,089	-0,094	-0,133
-674,393	800,000	0,050	-0,144
-673,378	172,011	-0,128	-0,133
-672,364	-126,932	0,072	-0,008
-671,349	-200,000	-0,016	-0,110
-670,335	-200,000	0,004	0,085
-669,320	800,000	0,052	0,106
-668,305	800,000	0,016	0,033
-667,291	14,092	-0,153	0,086
-666,276	-36,432	0,072	-0,028
-665,262	27,016	-0,074	-0,045
-664,247	22,027	0,057	-0,034
-663,232	74,881	-0,042	0,032
-662,218	-165,092	-0,094	-0,003
-661,203	29,429	-0,123	-0,075
-660,189	-36,973	-0,071	-0,027
-659,174	30,992	-0,064	-0,040
-658,159	800,000	-0,033	-0,083
-657,145	-200,000	-0,032	-0,183
-656,130	435,495	-0,060	0,094
-655,116	-134,127	0,037	0,003
-654,101	-200,000	0,014	0,058
-653,086	295,090	-0,031	0,041
-652,072	107,979	-0,023	0,020
-651,057	800,000	0,031	-0,076
-650,043	-95,196	-0,070	0,013
-649,028	-22,102	-0,071	-0,031
-648,014	-10,908	0,141	-0,067
-646,999	288,676	-0,050	-0,066
-645,984	-200,000	0,008	0,073
-644,970	-200,000	-0,008	0,063
-643,955	80,422	-0,016	-0,012
-642,941	-134,864	0,139	-0,012
-641,926	537,837	0,094	-0,162
-640,911	140,746	-0,078	0,074
-639,897	800,000	0,057	0,166
-638,882	206,208	0,042	-0,047
-637,868	320,567	-0,077	0,105
-636,853	-63,040	0,105	-0,031
-635,838	252,920	-0,031	-0,039
-634,824	-200,000	-0,068	-0,219
-633,809	-41,983	0,083	-0,031
-632,795	312,104	-0,057	0,077
-631,780	124,794	0,072	0,065
-630,765	416,794	-0,062	-0,096
-629,751	800,000	-0,090	-0,259
-628,736	-152,460	-0,138	0,007
-627,722	-200,000	-0,027	0,149
-626,707	-71,712	0,044	0,012
-625,692	36,141	0,052	0,033
-624,678	-200,000	-0,006	0,110
-623,663	-34,608	-0,066	0,026
-622,649	-0,981	-0,149	-0,076
-621,634	87,581	0,011	0,009
-620,619	466,002	0,023	-0,037
-619,605	4,515	0,104	-0,055
-618,590	-200,000	-0,009	-0,063
-617,576	-142,171	-0,094	0,007
-616,561	-200,000	0,008	-0,044
-615,546	-200,000	-0,012	0,197
-614,532	392,636	-0,089	0,133
-613,517	-200,000	-0,031	0,109
-612,503	800,000	-0,004	-0,011
-611,488	753,737	-0,051	0,100
-610,474	-200,000	-0,007	0,068
-609,459	-200,000	-0,013	-0,041
-608,444	-160,307	-0,031	-0,001
-607,430	-68,895	-0,046	0,013
-606,415	289,890	-0,021	0,027
-605,401	-80,059	0,176	-0,042
-604,386	-153,139	0,093	0,005
-603,371	322,751	0,073	0,100
-602,357	-181,253	0,101	0,001
-601,342	137,253	-0,083	0,079
-600,328	56,139	-0,169	-0,118
-599,313	552,957	-0,057	0,100
-598,298	617,908	-0,109	-0,197
-597,284	1,900	0,056	-0,029
-596,269	-45,731	-0,179	-0,064
-595,255	-110,951	-0,071	0,010
-594,240	-125,134	-0,045	0,005
-593,225	257,902	-0,114	-0,142
-592,211	-200,000	-0,016	-0,079
-591,196	-28,446	0,133	-0,055
-590,182	-35,170	0,053	-0,021
-589,167	-103,178	0,064	0,011
-588,152	-200,000	0,005	-0,078
-587,138	-11,512	-0,090	-0,042
-586,123	-115,185	-0,164	-0,022
-585,109	-80,331	-0,125	-0,030
-584,094	87,982	0,056	-0,045
-583,079	144,386	-0,041	-0,039
-582,065	-61,091	0,182	0,055
-581,050	-200,000	-0,021	0,081
-580,036	139,175	-0,035	0,033
-579,021	-85,019	-0,145	0,032
-578,006	800,000	-0,039	-0,114
-576,992	-152,982	-0,116	0,006
-575,977	381,955	0,099	-0,147
-574,963	-116,560	-0,015	-0,002
-573,948	116,050	-0,025	0,022
-572,934	429,143	0,040	-0,063
-571,919	607,322	-0,081	-0,145
-570,904	-129,196	0,091	-0,009
-569,890	112,953	0,105	0,091
-568,875	-200,000	0,008	0,055
-567,861	-41,274	-0,020	0,007
-566,846	800,000	-0,068	-0,183
-565,831	-200,000	-0,004	-0,051
-564,817	-122,288	-0,087	-0,010
-563,802	262,703	-0,057	0,072
-562,788	-165,289	-0,082	-0,003
-561,773	-200,000	-0,004	0,181
-560,758	158,257	-0,101	0,101
-559,744	260,932	0,031	-0,039
-558,729	792,771	0,027	-0,054
-557,715	147,072	-0,109	-0,106
-556,700	53,410	-0,069	0,047
-555,685	-191,658	0,047	-0,000
-554,671	800,000	0,018	-0,050
-553,656	122,995	0,082	-0,074
-552,642	-200,000	0,010	0,059
-551,627	-73,052	0,028	-0,007
-550,612	800,000	0,045	-0,140
-549,598	-101,658	0,130	-0,022
-548,583	-149,119	-0,279	-0,016
-547,569	800,000	-0,020	-0,061
-546,554	232,203	-0,056	0,066
-545,539	-109,316	0,028	-0,004
-544,525	-200,000	-0,011	-0,061
-543,510	-60,555	-0,160	-0,048
-542,496	170,801	0,039	-0,040
-541,481	46,962	-0,093	-0,062
-540,466	-13,639	-0,118	0,055
-539,452	-200,000	-0,002	0,132
-538,437	-159,456	0,100	-0,004
-537,423	-44,922	-0,080	-0,029
-536,408	-106,731	0,082	-0,013
-535,393	-141,850	-0,023	-0,002
-534,379	47,802	0,047	0,032
-533,364	-4,474	-0,055	-0,027
-532,350	5,940	-0,154	-0,082
-531,335	618,668	-0,043	0,078
-530,321	-39,544	0,030	0,011
-529,306	-95,062	-0,060	0,012
-528,291	15,513	-0,097	0,055
-527,277	5,871	-0,134	-0,071
-526,262	21,198	-0,117	-0,068
-525,248	800,000	-0,055	-0,140
-524,233	-32,297	-0,009	-0,003
-523,218	-20,732	-0,099	-0,044
-522,204	800,000	0,040	0,095
-521,189	-200,000	-0,001	0,059
-520,175	171,222	0,029	0,030
-519,160	134,174	0,051	-0,048
-518,145	-200,000	0,000	-0,030
-517,131	-80,654	-0,076	0,018
-516,116	800,000	-0,022	0,060
-515,102	-12,389	-0,092	0,043
-514,087	-200,000	-0,048	-0,160
-513,072	5,965	-0,070	-0,037
-512,058	471,996	-0,026	-0,042
-511,043	-40,276	0,061	-0,023
-510,029	-80,414	0,021	-0,005
-509,014	800,000	-0,040	0,099
-507,999	49,096	0,064	-0,043
-506,985	-83,378	0,055	0,013
-505,970	46,711	-0,111	-0,074
-504,956	-200,000	0,009	0,034
-503,941	443,959	-0,107	-0,169
-502,926	524,631	-0,020	0,034
-501,912	56,249	0,060	-0,042
-500,897	137,812	0,091	0,085
-499,883	800,000	0,027	-0,069
-498,868	90,906	-0,054	-0,043
-497,853	-200,000	0,012	0,045
-496,839	-200,000	0,017	0,113
-495,824	-77,154	0,073	0,018
-494,810	-128,521	0,175	0,018
-493,795	755,361	0,015	0,029
-492,781	800,000	0,019	0,058
-491,766	172,621	-0,104	-0,108
-490,751	8,380	-0,022	0,012
-489,737	41,629	0,024	-0,015
-488,722	166,931	0,087	0,089
-487,708	-200,000	-0,014	0,182
-486,693	-12,144	0,119	0,056
-485,678	-142,434	-0,046	0,003
-484,664	-200,000	0,002	-0,068
-483,649	250,447	-0,061	0,074
-482,635	-200,000	-0,021	-0,112
-481,620	139,834	-0,076	0,072
-480,605	713,502	0,022	0,042
-479,591	-200,000	0,000	0,090
-478,576	131,978	-0,079	-0,073
-477,562	-200,000	0,017	0,157
-476,547	391,017	-0,019	-0,028
-475,532	59,518	0,109	-0,077
-474,518	268,499	0,076	-0,096
-473,503	-22,980	0,061	0,026
-472,489	-200,000	0,000	0,062
-471,474	-98,829	0,102	0,018
-470,459	535,695	-0,084	-0,143
-469,445	2,304	0,054	-0,028
-468,430	-19,484	-0,095	0,042
-467,416	107,800	-0,079	0,068
-466,401	800,000	0,021	0,044
-465,386	28,003	0,076	0,046
-464,372	39,511	-0,069	-0,044
-463,357	-173,341	-0,190	-0,004
-462,343	-64,350	-0,083	0,024
-461,328	-56,059	0,063	-0,020
-460,313	-70,218	-0,107	-0,029
-459,299	-122,034	0,133	0,016
-458,284	-111,477	-0,033	-0,005
-457,270	107,890	-0,035	0,030
-456,255	415,151	-0,020	-0,030
-455,241	324,576	0,092	0,127
-454,226	-200,000	0,008	-0,029
-453,211	639,137	0,012	-0,022
-452,197	-112,627	0,080	0,011
-451,182	236,951	0,098	0,117
-450,168	800,000	0,022	0,045
-449,153	214,650	0,029	0,033
-448,138	-200,000	0,030	-0,100
-447,124	-11,771	-0,155	-0,073
-446,109	252,044	0,055	0,067
-445,095	-67,878	0,052	0,015
-444,080	660,830	-0,062	0,115
-443,065	-41,740	0,025	0,009
-442,051	-68,185	0,080	0,022
-441,036	606,220	0,066	-0,119
-440,022	587,188	-0,011	-0,019
-439,007	-190,058	0,063	0,000
-437,992	58,678	0,078	-0,055
-436,978	-12,640	0,152	0,071
-435,963	147,940	-0,083	-0,080
-434,949	-200,000	-0,007	-0,207
-433,934	-134,587	-0,069	0,006
-432,919	-154,950	-0,020	-0,001
-431,905	-200,000	-0,015	-0,139
-430,890	122,736	-0,076	0,068
-429,876	-96,909	0,014	0,003
-428,861	-43,980	0,106	0,038
-427,846	79,691	0,092	-0,071
-426,832	56,118	0,102	-0,071
-425,817	800,000	-0,022	-0,069
-424,803	245,128	-0,012	-0,015
-423,788	378,149	0,048	-0,071
-422,773	309,807	-0,064	-0,086
-421,759	188,621	0,051	-0,055
-420,744	800,000	0,029	-0,064
-419,730	800,000	-0,030	-0,066
-418,715	800,000	0,053	-0,120
-417,701	93,422	0,055	0,044
-416,686	-16,327	0,058	-0,026
-415,671	800,000	0,041	0,083
-414,657	-85,535	0,190	-0,042
-413,642	528,520	-0,073	0,124
-412,628	-68,876	0,036	-0,010
-411,613	45,299	0,047	-0,031
-410,598	-76,071	-0,136	-0,034
-409,584	-200,000	-0,014	0,074
-408,569	-200,000	0,024	0,130
-407,555	-200,000	0,025	0,115
-406,540	-200,000	-0,009	-0,059
-405,525	-57,932	-0,024	0,007
-404,511	-24,609	0,045	-0,019
-403,496	800,000	-0,056	-0,124
-402,482	-111,799	0,071	-0,010
-401,467	77,656	-0,075	-0,057
-400,452	800,000	0,043	0,111
-399,438	-17,127	0,118	0,053
-398,423	800,000	-0,054	-0,159
-397,409	-148,888	0,055	0,003
-396,394	49,577	-0,106	-0,071
-395,379	-200,000	0,043	0,172
-394,365	433,437	0,078	0,122
-393,350	-128,443	0,145	0,015
-392,336	-92,485	-0,084	-0,017
-391,321	85,777	0,147	-0,116
-390,306	-200,000	0,006	-0,060
-389,292	206,523	-0,035	-0,039
-388,277	-68,511	-0,059	-0,016
-387,263	-77,168	0,027	0,007
-386,248	-200,000	0,026	0,215
-385,233	800,000	0,035	0,098
-384,219	-200,000	-0,003	-0,044
-383,204	35,462	-0,007	-0,005
-382,190	-78,719	-0,090	0,022
-381,175	-86,832	-0,097	-0,021
-380,160	-200,000	-0,026	-0,150
-379,146	-200,000	-0,049	0,198
-378,131	165,071	0,061	0,061
-377,117	-200,000	0,011	-0,056
-376,102	24,529	-0,126	-0,074
-375,088	-200,000	0,006	-0,037
-374,073	-139,210	-0,110	-0,008
-373,058	81,871	0,097	0,075
-372,044	30,977	0,046	-0,028
-371,029	-200,000	0,013	-0,075
-370,015	-84,113	-0,171	0,039
-369,000	-200,000	0,005	-0,175
-367,985	-2,070	0,083	0,042
-366,971	-200,000	0,005	-0,036
-365,956	-200,000	-0,027	0,136
-364,942	-200,000	0,020	0,106
-363,927	18,753	0,082	-0,046
-362,912	589,057	-0,060	0,106
-361,898	-200,000	0,009	-0,039
-360,883	71,593	-0,162	-0,120
-359,869	36,951	-0,056	0,035
-358,854	-87,717	0,125	0,027
-357,839	564,094	0,045	0,077
-356,825	-200,000	-0,008	0,067
-355,810	666,218	0,060	0,111
-354,796	173,501	-0,116	0,120
-353,781	-67,786	0,111	0,031
-352,766	-64,993	-0,071	-0,020
-351,752	-77,351	-0,041	-0,010
-350,737	-117,421	-0,070	-0,009
-349,723	-132,211	0,053	0,005
-348,708	-5,370	0,074	0,036
-347,693	167,818	-0,026	0,026
-346,679	-4,310	-0,034	-0,017
-345,664	-33,266	0,060	-0,023
-344,650	-200,000	-0,011	0,099
-343,635	76,274	-0,048	-0,036
-342,620	-200,000	0,007	-0,099
-341,606	-200,000	0,035	0,195
-340,591	-57,752	0,092	-0,028
-339,577	-200,000	-0,007	-0,069
-338,562	-116,967	-0,162	-0,021
-337,548	72,579	-0,092	0,068
-336,533	800,000	0,012	0,024
-335,518	-200,000	0,013	0,066
-334,504	-130,732	0,087	-0,008
-333,489	244,833	0,080	0,096
-332,475	-53,734	-0,112	0,036
-331,460	351,479	0,048	-0,069
-330,445	-200,000	-0,003	0,067
-329,431	-200,000	-0,032	-0,111
-328,416	456,320	0,069	0,109
-327,402	-200,000	0,004	0,027
-326,387	11,932	-0,026	-0,014
-325,372	800,000	-0,042	-0,092
-324,358	-93,736	-0,076	0,015
-323,343	800,000	0,024	0,064
-322,329	439,611	0,115	0,180
-321,314	34,082	0,091	-0,056
-320,299	-177,822	0,084	0,001
-319,285	756,532	0,033	-0,063
-318,270	-200,000	-0,030	0,109
-317,256	557,154	-0,075	-0,130
-316,241	-17,692	0,063	-0,028
-315,226	-200,000	0,018	0,075
-314,212	28,156	-0,074	0,045
-313,197	-200,000	-0,010	0,040
-312,183	201,313	-0,078	0,085
-311,168	-119,531	0,084	-0,010
-310,153	800,000	0,056	-0,114
-309,139	800,000	0,033	-0,070
-308,124	175,819	-0,040	0,041
-307,110	348,716	-0,020	-0,028
-306,095	-105,743	-0,103	0,016
-305,080	138,936	0,040	0,038
-304,066	-83,276	-0,137	-0,031
-303,051	-200,000	0,008	0,054
-302,037	-200,000	-0,018	-0,111
-301,022	-53,098	0,092	0,030
-300,008	338,128	0,115	0,159
-298,993	-38,044	0,096	-0,036
-297,978	-94,056	0,050	-0,010
-296,964	155,240	-0,095	-0,093
-295,949	800,000	-0,019	-0,058
-294,935	270,331	0,111	-0,139
-293,920	17,870	-0,056	-0,032
-292,905	47,278	0,036	0,024
-291,891	194,935	-0,108	0,117
-290,876	404,364	0,093	0,140
-289,862	-113,796	-0,049	0,007
-288,847	-41,165	0,029	0,010
-287,832	800,000	0,042	0,094
-286,818	-28,392	0,076	-0,031
-285,803	800,000	0,051	-0,160
-284,789	-64,771	0,074	-0,021
-283,774	800,000	0,094	0,195
-282,759	23,052	-0,100	0,058
-281,745	-124,173	-0,085	-0,009
-280,730	162,192	0,037	0,037
-279,716	-200,000	-0,002	-0,037
-278,701	-200,000	0,003	0,197
-277,686	-200,000	0,017	-0,076
-276,672	46,650	0,015	-0,010
-275,657	138,600	0,024	0,023
-274,643	-200,000	0,016	-0,086
-273,628	182,600	0,105	-0,111
-272,613	-16,907	-0,148	-0,066
-271,599	142,351	0,126	0,119
-270,584	-200,000	0,002	0,102
-269,570	135,627	-0,032	0,030
-268,555	13,400	0,100	0,055
-267,540	2,348	0,064	-0,033
-266,526	-200,000	-0,028	-0,121
-265,511	800,000	0,027	0,070
-264,497	-86,823	0,026	0,006
-263,482	-200,000	0,005	0,060
-262,467	155,785	-0,046	-0,045
-261,453	800,000	0,057	0,166
-260,438	-200,000	-0,028	-0,119
-259,424	142,341	-0,080	-0,075
-258,409	-53,385	0,089	0,029
-257,395	29,342	0,167	-0,101
-256,380	-200,000	-0,000	-0,001
-255,365	26,995	0,166	-0,099
-254,351	800,000	0,054	0,115
-253,336	-87,339	0,076	-0,016
-252,322	-200,000	0,000	-0,040
-251,307	-4,384	-0,048	-0,024
-250,292	-200,000	-0,001	0,093
-249,278	-44,402	0,128	0,045
-248,263	800,000	0,020	0,058
-247,249	40,084	-0,027	-0,017
-246,234	-200,000	-0,005	0,074
-245,219	800,000	-0,066	0,139
-244,205	800,000	-0,053	-0,111
-243,190	-74,604	0,023	-0,006
-242,176	-200,000	0,002	-0,052
-241,161	-200,000	0,025	0,085
-240,146	365,144	0,023	-0,033
-239,132	800,000	0,019	0,045
-238,117	61,787	-0,117	0,083
-237,103	370,761	0,072	0,104
-236,088	-200,000	-0,003	-0,025
-235,073	-200,000	-0,058	-0,203
-234,059	214,775	0,061	0,069
-233,044	-40,947	-0,063	0,023
-232,030	-85,583	0,141	0,031
-231,015	50,239	0,129	0,087
-230,000	-200,000	-0,011	-0,109
-228,986	49,623	0,073	0,049
-227,971	-124,753	0,180	0,019
-226,957	634,830	-0,062	-0,113
-225,942	156,884	-0,074	-0,073
-224,927	577,746	0,045	-0,078
-223,913	-96,688	-0,105	0,019
-222,898	86,487	0,071	0,056
-221,884	113,014	-0,068	0,058
-220,869	-60,357	0,153	0,046
-219,855	197,951	-0,048	-0,053
-218,840	800,000	0,034	0,099
-217,825	97,896	-0,082	-0,067
-216,811	48,622	0,041	0,027
-215,796	-200,000	0,002	-0,112
-214,782	-200,000	0,007	-0,136
-213,767	55,421	0,075	-0,052
-212,752	36,743	0,061	0,038
-211,738	-143,371	0,112	-0,008
-210,723	129,260	0,037	0,033
-209,709	150,944	-0,105	-0,101
-208,694	-200,000	-0,010	0,039
-207,679	83,746	0,047	0,036
-206,665	-200,000	-0,004	0,026
-205,650	-25,116	0,126	0,053
-204,636	-200,000	0,002	-0,015
-203,621	66,479	-0,077	-0,055
-202,606	-200,000	-0,021	-0,101
-201,592	-6,796	-0,142	0,068
-200,577	800,000	0,041	0,118
-199,563	-200,000	0,036	0,148
-198,548	-200,000	0,017	0,063
-197,533	-6,953	-0,021	0,010
-196,519	-135,141	-0,098	0,008
-195,504	-107,462	-0,040	0,006
-194,490	227,927	-0,041	-0,048
-193,475	122,614	-0,027	-0,024
-192,460	-120,084	0,151	-0,018
-191,446	188,438	-0,099	-0,105
-190,431	800,000	-0,042	-0,090
-189,417	152,823	-0,083	0,081
-188,402	800,000	-0,005	-0,012
-187,387	-84,846	-0,045	0,010
-186,373	800,000	0,050	-0,131
-185,358	30,518	0,108	0,065
-184,344	-200,000	0,006	0,025
-183,329	123,132	0,018	-0,016
-182,315	-200,000	-0,009	0,178
-181,300	751,092	-0,036	-0,070
-180,285	-49,346	0,061	0,020
-179,271	-148,357	-0,095	0,005
-178,256	-31,852	-0,086	0,034
-177,242	-200,000	-0,002	0,093
-176,227	36,419	0,123	0,076
-175,212	-22,798	0,026	-0,011
-174,198	-200,000	-0,006	-0,183
-173,183	-145,659	-0,058	0,004
-172,169	120,491	0,032	-0,028
-171,154	497,764	0,073	-0,119
-170,139	-200,000	-0,023	0,128
-169,125	-117,661	-0,108	0,014
-168,110	-200,000	-0,030	0,151
-167,096	-200,000	0,004	0,140
-166,081	-200,000	0,012	-0,082
-165,066	530,481	-0,089	-0,150
-164,052	-87,208	-0,117	0,025
-163,037	800,000	0,044	-0,108
-162,023	609,600	0,056	-0,100
-161,008	-46,614	0,103	-0,036
-159,993	-200,000	-0,002	-0,018
-158,979	104,087	0,048	-0,040
-157,964	800,000	0,017	-0,052
-156,950	-29,502	-0,136	-0,055
-155,935	-200,000	-0,009	0,040
-154,920	-200,000	-0,005	0,054
-153,906	689,983	-0,035	0,066
-152,891	86,057	0,150	0,117
-151,877	-200,000	-0,024	0,078
-150,862	-127,352	-0,096	0,010
-149,847	50,183	0,010	0,007
-148,833	-200,000	0,006	-0,100
-147,818	-87,863	0,093	-0,020
-146,804	124,591	0,040	-0,036
-145,789	-114,848	0,100	0,013
-144,775	-200,000	-0,032	0,146
-143,760	319,219	0,046	0,062
-142,745	163,215	-0,055	-0,055
-141,731	-200,000	-0,004	0,020
-140,716	-93,242	0,091	0,018
-139,702	320,982	0,089	0,120
-138,687	-200,000	-0,014	-0,153
-137,672	41,706	-0,100	-0,064
-136,658	-6,889	0,073	0,035
-135,643	58,896	-0,059	-0,041
-134,629	-200,000	-0,003	0,035
-133,614	-200,000	-0,011	-0,038
-132,599	780,073	-0,064	0,125
-131,585	238,695	0,018	-0,022
-130,570	100,459	0,019	-0,016
-129,556	170,417	0,105	-0,107
-128,541	-200,000	0,025	-0,209
-127,526	212,625	-0,072	0,081
-126,512	126,323	0,033	-0,029
-125,497	202,201	0,103	0,112
-124,483	-200,000	0,027	0,178
-123,468	-136,815	0,193	-0,015
-122,453	-200,000	-0,011	0,109
-121,439	-36,861	-0,033	0,013
-120,424	-200,000	-0,004	0,027
-119,410	-127,926	0,025	0,002
-118,395	188,288	0,090	0,095
-117,380	596,235	-0,017	-0,029
-116,366	-200,000	0,003	0,031
-115,351	108,955	-0,086	0,073
-114,337	800,000	-0,005	-0,013
-113,322	205,192	0,022	0,024
-112,307	2,491	-0,085	-0,043
-111,293	-200,000	0,004	0,034
-110,278	-160,122	0,113	-0,004
-109,264	-200,000	-0,014	0,071
-108,249	297,191	-0,073	0,095
-107,234	-19,453	-0,070	-0,031
-106,220	292,371	-0,112	-0,145
-105,205	-95,320	0,083	-0,016
-104,191	-184,748	0,084	0,001
-103,176	-105,427	0,035	-0,006
-102,162	-120,996	-0,086	-0,010
-101,147	276,763	0,050	-0,063
-100,132	-89,575	-0,082	-0,017
-99,118	800,000	-0,046	0,108
-98,103	-115,742	-0,115	-0,015
-97,089	-17,931	0,156	0,069
-96,074	-200,000	-0,017	-0,091
-95,059	-200,000	0,016	0,069
-94,045	-200,000	0,029	-0,161
-93,030	-200,000	-0,001	0,023
-92,016	44,629	-0,047	-0,031
-91,001	-28,291	-0,078	-0,032
-89,986	-200,000	0,003	0,106
-88,972	800,000	-0,009	-0,026
-87,957	140,238	0,055	0,051
-86,943	417,724	0,041	-0,062
-85,928	14,344	-0,106	-0,058
-84,913	357,962	0,043	0,061
-83,899	144,961	0,046	-0,044
-82,884	800,000	0,063	0,165
-81,870	47,854	0,055	0,036
-80,855	-200,000	0,026	0,226
-79,840	800,000	0,023	0,054
-78,826	107,007	-0,028	0,024
-77,811	-42,052	0,053	-0,019
-76,797	773,381	0,042	-0,082
-75,782	-200,000	-0,007	0,049
-74,767	423,326	0,050	0,077
-73,753	-76,939	0,191	0,047
-72,738	-200,000	-0,017	-0,115
-71,724	-35,005	0,074	-0,028
-70,709	-200,000	-0,002	-0,083
-69,694	-200,000	0,003	-0,029
-68,680	109,067	-0,099	0,084
-67,665	-69,782	-0,043	-0,011
-66,651	800,000	-0,056	0,113
-65,636	78,991	0,031	0,023
-64,622	39,339	0,137	0,087
-63,607	717,041	-0,102	-0,193
-62,592	-200,000	-0,026	-0,126
-61,578	11,955	0,091	0,049
-60,563	-147,295	-0,086	-0,005
-59,549	-98,296	0,033	0,006
-58,534	43,131	-2,255	-1,449
-57,519	515,710	-1,109	-1,834
-56,505	-200,000	-0,405	-4,380
-55,490	800,000	0,890	1,909
-54,476	800,000	5,170	11,268
-53,461	-200,000	22,454	346,964
-52,446	800,000	758,490	2298,683
-51,432	534,340	1646,154	2762,259
-50,417	68,236	1644,535	1186,464
-49,403	15,782	1521,604	841,797
-48,388	10,042	1447,145	773,021
-47,373	19,246	1439,702	812,889
-46,359	13,434	1428,356	779,010
-45,344	8,299	1424,277	752,454
-44,330	8,257	1422,426	751,248
-43,315	8,226	1420,581	750,098
-42,300	8,212	1418,804	749,062
-41,286	8,255	1417,368	748,480
-40,271	8,239	1416,243	747,778
-39,257	8,197	1415,050	746,921
-38,242	8,226	1414,073	746,515
-37,227	8,241	1413,013	745,997
-36,213	8,242	1411,333	745,084
-35,198	8,274	1410,227	744,617
-34,184	8,244	1409,425	744,025
-33,169	8,177	1408,235	743,052
-32,154	8,222	1407,110	742,641
-31,140	8,215	1405,908	741,944
-30,125	8,212	1404,840	741,338
-29,111	8,226	1403,497	740,663
-28,096	8,257	1402,193	740,092
-27,082	8,229	1401,232	739,427
-26,067	8,146	1400,198	738,465
-25,052	8,172	1398,908	737,875
-24,038	8,203	1397,863	737,440
-23,023	8,131	1397,398	736,830
-22,009	8,158	1396,197	736,294
-20,994	8,164	1394,994	735,658
-19,979	8,137	1394,266	735,116
-18,965	8,099	1393,228	734,365
-17,950	8,112	1392,368	733,944
-16,936	8,094	1391,422	733,331
-15,921	8,045	1390,645	732,666
-14,906	8,094	1389,404	732,211
-13,892	8,127	1388,454	731,832
-12,877	8,075	1387,928	731,287
-11,863	8,085	1387,124	730,882
-10,848	8,115	1385,881	730,333
-9,833	8,024	1385,158	729,508
-8,819	7,992	1384,249	728,849
-7,804	7,974	1383,265	728,219
-6,790	8,042	1382,124	727,906
-5,775	7,972	1381,278	727,107
-4,760	8,009	1380,289	726,729
-3,746	7,998	1379,521	726,246
-2,731	8,015	1378,549	725,782
-1,717	7,967	1377,803	725,143
-0,702	8,004	1375,979	724,322
0,313	12,035	1286,335	695,388
1,327	27,897	678,139	401,984
2,342	43,419	116,668	75,008
3,356	0,066	16,640	8,329
4,371	10,677	3,766	2,018
5,386	-0,886	1,479	0,735
6,400	800,000	0,249	0,732
7,415	0,144	-0,117	0,058
8,429	800,000	-0,077	-0,176
9,444	140,252	-0,268	-0,249
10,459	-125,084	-0,299	0,032
11,473	-78,887	-0,290	-0,069
12,488	-41,564	-0,278	-0,100
13,502	-124,441	-0,325	-0,035
14,517	340,265	-0,189	-0,260
15,531	165,994	-0,312	-0,311
16,546	41,259	-0,313	-0,199
17,561	212,607	-0,310	-0,344
18,575	-112,488	-0,172	0,024
19,590	41,753	-0,209	-0,133
20,604	-72,888	-0,156	0,040
21,619	151,073	-0,344	-0,330
22,634	34,577	-0,458	-0,281
23,648	156,276	-0,296	-0,287
24,663	-25,999	-0,396	-0,163
25,677	44,776	-0,366	-0,237
26,692	144,370	-0,282	-0,265
27,707	29,527	-0,377	-0,225
28,721	60,837	-0,409	-0,285
29,736	29,894	-0,422	-0,252
30,750	118,105	-0,452	-0,391
31,765	476,517	-0,245	-0,390
32,780	55,273	-0,437	-0,297
33,794	183,331	-0,251	-0,261
34,809	-19,022	-0,322	-0,140
35,823	190,550	-0,366	-0,387
36,838	201,590	-0,308	-0,334
37,853	31,774	-0,412	-0,249
38,867	28,742	-0,263	-0,156
39,882	245,530	-0,254	-0,301
40,896	181,471	-0,244	-0,252
41,911	7,699	-0,418	-0,219
42,926	6,807	-0,387	-0,202
43,940	111,668	-0,286	-0,242
44,955	92,265	-0,379	-0,299
45,969	95,047	-0,367	-0,293
46,984	145,318	-0,309	-0,290
47,999	5,226	-0,319	-0,165
49,013	-10,528	-0,236	-0,110
50,028	3,977	-0,317	-0,162
51,042	33,012	-0,386	-0,234
52,057	83,865	-0,444	-0,340
53,071	19,074	-0,286	-0,160
54,086	60,060	-0,284	-0,197
55,101	66,962	-0,291	-0,207
56,115	59,327	-0,280	-0,193
57,130	33,816	-0,371	-0,226
58,144	139,877	-0,373	-0,345
59,159	125,157	-0,374	-0,331
60,174	142,658	-0,348	-0,324
61,188	26,217	-0,355	-0,207
62,203	51,700	-0,244	-0,163
63,217	-86,868	-0,275	-0,058
64,232	10,923	-0,299	-0,160
65,247	105,646	-0,337	-0,279
66,261	148,596	-0,305	-0,289
67,276	-52,037	-0,377	-0,122
68,290	63,971	-0,366	-0,258
69,305	-67,129	-0,355	-0,097
70,320	-9,250	-0,219	-0,102
71,334	-67,219	-0,254	-0,069
72,349	24,767	-0,374	-0,217
73,363	30,814	-0,380	-0,228
74,378	19,430	-0,352	-0,197
75,393	-13,421	-0,265	-0,120
76,407	800,000	-0,147	-0,302
77,422	25,109	-0,254	-0,147
78,436	-48,752	-0,400	-0,134
79,451	56,808	-0,278	-0,189
80,466	175,592	-0,319	-0,324
81,480	-43,618	-0,356	-0,125
82,495	72,660	-0,287	-0,210
83,509	-34,343	-0,138	-0,053
84,524	270,895	-0,170	-0,209
85,539	-25,524	-0,203	-0,084
86,553	-5,762	-0,202	-0,096
87,568	-14,764	-0,348	-0,156
88,582	74,969	-0,346	-0,255
89,597	-45,872	-0,283	-0,097
90,611	27,371	-0,319	-0,187
91,626	275,549	-0,217	-0,270
92,641	130,062	-0,286	-0,256
93,655	580,052	-0,182	-0,312
94,670	-95,009	-0,436	-0,082
95,684	-25,911	-0,237	-0,097
96,699	70,037	-0,227	-0,163
97,714	216,267	-0,192	-0,214
98,728	133,612	-0,237	-0,214
99,743	88,425	-0,261	-0,203
100,757	109,113	-0,278	-0,233
101,772	-30,563	-0,274	-0,108
102,787	68,863	-0,308	-0,221
103,801	169,920	-0,280	-0,279
104,816	-29,631	-0,262	-0,104
105,830	-97,967	-0,182	0,033
106,845	800,000	-0,108	-0,211
107,860	91,852	-0,330	-0,259
108,874	57,125	-0,318	-0,216
109,889	174,431	-0,279	-0,282
110,903	38,704	-0,251	-0,156
111,918	106,600	-0,280	-0,232
112,933	88,176	-0,180	-0,139
113,947	194,297	-0,133	-0,141
114,962	-24,997	-0,224	-0,092
115,976	-13,714	-0,148	-0,066
116,991	800,000	-0,127	-0,283
118,006	198,251	-0,264	-0,282
119,020	141,320	-0,101	-0,093
120,035	73,555	-0,214	-0,156
121,049	-8,402	-0,261	-0,122
122,064	-23,876	-0,227	-0,094
123,079	85,546	-0,275	-0,210
124,093	213,659	-0,245	-0,271
125,108	488,913	-0,144	-0,231
126,122	77,329	-0,213	-0,157
127,137	66,194	-0,314	-0,222
128,151	-61,204	-0,204	-0,060
129,166	125,232	-0,227	-0,200
130,181	-152,262	-0,275	-0,014
131,195	-42,298	-0,284	-0,101
132,210	83,116	-0,279	-0,211
133,224	450,753	-0,158	-0,244
134,239	192,947	-0,223	-0,235
135,254	-100,798	-0,243	-0,041
136,268	-116,547	-0,085	-0,011
137,283	-110,935	-0,256	-0,036
138,297	128,185	-0,291	-0,258
139,312	311,283	-0,219	-0,287
140,327	-12,569	-0,294	-0,133
141,341	-41,951	-0,341	-0,121
142,356	28,788	-0,173	-0,102
143,370	-74,488	-0,295	-0,073
144,385	78,304	-0,172	-0,127
145,400	31,216	-0,251	-0,149
146,414	-53,658	-0,330	-0,104
147,429	98,288	-0,258	-0,207
148,443	184,057	-0,131	-0,136
149,458	800,000	-0,148	-0,316
150,473	32,952	-0,258	-0,155
151,487	107,424	-0,284	-0,235
152,502	800,000	-0,138	-0,287
153,516	-6,606	-0,246	-0,116
154,531	39,285	-0,194	-0,121
155,546	11,837	-0,305	-0,163
156,560	254,837	-0,190	-0,227
157,575	171,883	-0,266	-0,266
158,589	139,053	-0,123	-0,112
159,604	169,165	-0,142	-0,141
160,619	50,741	-0,286	-0,188
161,633	82,167	-0,329	-0,248
162,648	-4,965	-0,282	-0,135
163,662	151,006	-0,094	-0,089
164,677	-41,734	-0,258	-0,092
165,692	-200,000	-0,069	-0,225
166,706	83,251	-0,228	-0,172
167,721	-52,908	-0,255	-0,081
168,735	98,463	-0,285	-0,228
169,750	4,823	-0,200	-0,102
170,764	80,404	-0,243	-0,181
171,779	-133,897	-0,286	-0,024
172,794	-20,245	-0,217	-0,093
173,808	-23,723	-0,231	-0,096
174,823	296,772	-0,213	-0,271
175,837	281,243	-0,228	-0,284
176,852	165,147	-0,174	-0,170
177,867	174,947	-0,227	-0,228
178,881	-113,543	-0,232	-0,031
179,896	91,022	-0,135	-0,105
180,910	362,465	-0,137	-0,192
181,925	0,856	-0,318	-0,158
182,940	229,231	-0,174	-0,198
183,954	5,805	-0,168	-0,086
184,969	-76,019	-0,165	0,040
185,983	305,685	-0,111	-0,143
186,998	-134,649	-0,175	-0,015
188,013	33,742	-0,178	-0,107
189,027	800,000	-0,150	-0,367
190,042	150,907	-0,287	-0,271
191,056	63,164	-0,242	-0,168
192,071	406,742	-0,173	-0,254
193,086	-150,010	-0,193	0,010
194,100	-129,617	-0,075	-0,007
195,115	269,299	-0,158	-0,192
196,129	-52,988	-0,208	-0,066
197,144	197,137	-0,171	-0,181
198,159	-40,469	-0,191	-0,069
199,173	151,550	-0,067	-0,064
200,188	117,947	-0,254	-0,217
201,202	43,075	-0,313	-0,198
202,217	-76,514	-0,314	-0,076
203,232	-7,713	-0,277	-0,129
204,246	55,831	-0,161	-0,108
205,261	-12,533	-0,179	-0,081
206,275	-200,000	-0,064	-0,258
207,290	81,548	-0,124	-0,093
208,304	73,322	-0,111	-0,080
209,319	-101,960	-0,188	0,031
210,334	84,591	-0,196	-0,148
211,348	108,254	-0,158	-0,130
212,363	-85,031	-0,091	-0,020
213,377	-90,337	-0,183	-0,036
214,392	800,000	-0,097	-0,201
215,407	-72,429	-0,286	-0,073
216,421	-130,418	-0,119	0,011
217,436	-63,116	-0,179	0,051
218,450	-59,929	-0,223	-0,066
219,465	161,554	-0,251	-0,243
220,480	800,000	-0,132	-0,263
221,494	-18,950	-0,084	-0,036
222,509	-76,172	-0,201	-0,049
223,523	-31,111	-0,083	-0,032
224,538	-74,437	-0,077	-0,019
225,553	-109,736	-0,191	-0,027
226,567	800,000	-0,069	-0,160
227,582	149,453	-0,167	-0,156
228,596	-200,000	-0,059	-0,213
229,611	-119,781	-0,148	-0,017
230,626	-31,032	-0,196	-0,076
231,640	44,103	-0,168	-0,106
232,655	92,144	-0,142	-0,110
233,669	-98,204	-0,203	-0,036
234,684	-92,468	-0,217	-0,042
235,699	-19,780	-0,156	-0,066
236,713	-165,046	-0,195	-0,006
237,728	-94,556	-0,133	-0,025
238,742	59,261	-0,253	-0,172
239,757	191,867	-0,070	-0,073
240,772	475,190	-0,175	-0,273
241,786	182,500	-0,267	-0,272
242,801	515,979	-0,089	-0,145
243,815	35,481	-0,154	-0,093
244,830	0,114	-0,112	-0,055
245,844	94,346	-0,110	-0,086
246,859	-76,650	-0,254	-0,061
247,874	134,709	-0,162	-0,145
248,888	352,062	-0,101	-0,138
249,903	289,706	-0,143	-0,180
250,917	-200,000	0,046	-0,148
251,932	4,504	-0,056	-0,028
252,947	686,622	-0,117	-0,212
253,961	126,714	-0,155	-0,135
254,976	113,485	-0,103	-0,086
255,990	41,978	-0,139	-0,087
257,005	800,000	-0,080	-0,170
258,020	69,253	-0,205	-0,145
259,034	130,942	-0,108	-0,095
260,049	800,000	-0,084	-0,218
261,063	164,763	-0,217	-0,211
262,078	-60,066	-0,174	-0,051
263,093	478,728	-0,111	-0,173
264,107	615,912	-0,077	-0,134
265,122	-81,882	-0,245	0,055
266,136	11,935	-0,207	-0,109
267,151	-53,116	-0,233	-0,073
268,166	800,000	-0,068	-0,175
269,180	3,902	-0,287	-0,144
270,195	800,000	-0,039	-0,080
271,209	198,343	-0,184	-0,194
272,224	236,863	-0,123	-0,141
273,239	209,741	-0,146	-0,158
274,253	-103,591	-0,141	-0,023
275,268	-15,183	-0,206	-0,091
276,282	255,443	-0,160	-0,189
277,297	218,018	-0,194	-0,213
278,312	252,405	-0,180	-0,211
279,326	17,473	-0,172	-0,094
280,341	156,985	-0,179	-0,170
281,355	558,852	-0,056	-0,092
282,370	110,983	-0,188	-0,156
283,384	268,292	-0,207	-0,250
284,399	-107,222	-0,255	-0,038
285,414	-200,000	-0,059	-0,195
286,428	-200,000	0,004	-0,090
287,443	83,442	-0,108	-0,081
288,457	269,238	-0,185	-0,224
289,472	-34,881	-0,162	-0,060
290,487	-27,467	-0,230	-0,091
291,501	165,894	-0,140	-0,137
292,516	221,401	-0,141	-0,156
293,530	610,292	-0,044	-0,075
294,545	800,000	-0,042	-0,101
295,560	-200,000	0,007	-0,065
296,574	259,325	-0,112	-0,132
297,589	247,671	-0,138	-0,160
298,603	356,647	-0,142	-0,194
299,618	-91,639	-0,156	-0,030
300,633	230,600	-0,150	-0,169
301,647	-200,000	-0,017	-0,112
302,662	428,826	-0,073	-0,108
303,676	164,567	-0,105	-0,101
304,691	52,131	-0,069	-0,045
305,706	89,699	-0,110	-0,084
306,720	426,315	-0,110	-0,163
307,735	-107,433	-0,186	-0,028
308,749	260,641	-0,115	-0,136
309,764	245,801	-0,070	-0,081
310,779	134,989	-0,172	0,153
311,793	57,768	-0,182	-0,122
312,808	800,000	-0,157	-0,335
313,822	534,162	-0,078	-0,127
314,837	98,509	-0,108	-0,086
315,852	104,852	-0,121	-0,098
316,866	-164,979	-0,061	0,002
317,881	-96,214	-0,150	0,027
318,895	164,901	-0,087	-0,085
319,910	163,919	-0,032	-0,031
320,925	800,000	-0,152	-0,301
321,939	277,112	-0,181	-0,221
322,954	131,833	-0,121	-0,107
323,968	-52,486	-0,110	0,035
324,983	156,607	-0,120	-0,114
325,997	348,802	-0,050	-0,068
327,012	-200,000	-0,029	-0,114
328,027	800,000	-0,104	-0,215
329,041	49,446	-0,144	-0,093
330,056	114,752	-0,125	-0,105
331,070	-120,698	-0,132	-0,015
332,085	156,742	-0,133	-0,126
333,100	-72,674	-0,181	-0,045
334,114	-29,145	-0,153	0,060
335,129	800,000	-0,100	-0,206
336,143	-90,416	-0,185	-0,036
337,158	346,207	-0,009	-0,012
338,173	-59,479	-0,066	-0,019
339,187	-200,000	0,026	-0,099
340,202	140,604	-0,113	-0,102
341,216	6,996	-0,322	-0,164
342,231	130,547	-0,206	-0,181
343,246	508,901	-0,096	-0,153
344,260	-133,317	-0,238	-0,020
345,275	39,605	-0,035	-0,021
346,289	211,130	-0,136	0,146
347,304	-200,000	-0,018	-0,056
348,319	-81,539	-0,108	-0,024
349,333	118,574	-0,156	-0,132
350,348	800,000	-0,054	-0,149
351,362	-147,006	-0,182	-0,010
352,377	-95,251	-0,094	0,017
353,392	224,019	-0,090	-0,100
354,406	119,173	-0,074	-0,063
355,421	207,209	1311,023	1398,922
356,435	159,392	1471,221	1399,360
