DTS Sentinel unit serial number:	SN410029Multiplexer serial number:	ORYXHardware model number:	OX2-SRSoftware version number:	ORYX F/W v4,00 Oryx Data Collector v3.7.2.0data status	okinstallation	B3 Nyhavnadifferential loss correction	single-endedforward channel	channel 1reverse channel	N/Adate	2023/12/01time	10:02:30forward acquisition time	300,00reverse acquisition time	0,00gamma	499,1914k internal	0,3213k external	0,3213temperature offset calibration	1,0000default loss term (dB/km)	0,3820temperature slope calibration	1,0000multiplexer offset coefficient	1,0000multiplexer slope coefficient	1,0000fibre end	0,00T internal ref (°C)	8,01T ext. ref 1 (°C)	-6,39T ext. ref 2 (°C)	-6,51length (m)	temperature (°C)	Stokes	anti-Stokes-744,400	232,805	-0,194	-0,231
-743,385	-200,000	0,032	0,166
-742,371	800,000	-0,092	-0,239
-741,356	800,000	-0,117	0,252
-740,342	155,207	-0,237	-0,236
-739,327	-200,000	0,061	0,222
-738,312	800,000	-0,165	-0,338
-737,298	757,249	-0,074	0,145
-736,283	211,179	-0,121	-0,138
-735,269	800,000	-0,074	0,219
-734,254	-58,751	-0,176	-0,055
-733,239	43,800	-0,220	0,146
-732,225	756,724	-0,067	-0,132
-731,210	367,851	0,046	-0,068
-730,196	-68,444	-0,117	-0,033
-729,181	84,424	-0,124	-0,098
-728,167	-200,000	0,022	0,085
-727,152	-93,552	-0,243	-0,048
-726,137	-128,885	-0,091	0,009
-725,123	-200,000	-0,006	-0,109
-724,108	-200,000	-0,001	-0,064
-723,094	800,000	-0,009	0,019
-722,079	-48,128	-0,286	-0,099
-721,064	800,000	0,032	-0,096
-720,050	87,661	-0,019	-0,015
-719,035	558,314	0,027	-0,048
-718,021	28,102	0,030	0,018
-717,006	423,022	-0,106	-0,166
-715,991	86,261	-0,160	-0,128
-714,977	-200,000	-0,041	-0,143
-713,962	-3,775	-0,031	-0,015
-712,948	189,222	-0,108	-0,117
-711,933	-200,000	-0,009	0,033
-710,918	-2,725	0,034	-0,017
-709,904	725,237	-0,024	-0,047
-708,889	393,890	-0,058	-0,088
-707,875	-41,142	0,073	0,027
-706,860	231,198	-0,028	0,033
-705,845	86,361	0,100	0,079
-704,831	346,237	0,071	-0,102
-703,816	98,871	0,076	-0,063
-702,802	-26,940	-0,058	-0,024
-701,787	-200,000	0,003	-0,161
-700,772	-200,000	0,017	-0,073
-699,758	-200,000	-0,017	0,099
-698,743	800,000	-0,022	0,056
-697,729	-106,273	0,097	-0,016
-696,714	56,586	0,030	-0,021
-695,699	-200,000	-0,011	-0,183
-694,685	-88,062	0,098	0,021
-693,670	-117,518	-0,209	0,027
-692,656	800,000	0,063	-0,148
-691,641	584,198	0,104	-0,186
-690,627	800,000	-0,043	-0,110
-689,612	27,562	0,095	-0,058
-688,597	-73,090	0,143	0,038
-687,583	-200,000	0,010	-0,076
-686,568	-22,978	-0,150	0,065
-685,554	351,596	0,048	0,068
-684,539	-159,184	0,172	0,007
-683,524	98,078	0,140	-0,117
-682,510	-9,025	0,080	0,038
-681,495	800,000	-0,017	0,039
-680,481	425,474	-0,056	-0,088
-679,466	800,000	0,004	-0,010
-678,451	-200,000	0,010	0,061
-677,437	789,987	0,051	0,102
-676,422	-77,202	-0,100	0,025
-675,408	691,443	0,023	0,044
-674,393	100,768	-0,122	-0,103
-673,378	-105,022	-0,080	-0,013
-672,364	800,000	-0,018	-0,040
-671,349	348,687	-0,099	-0,142
-670,335	-145,860	-0,052	-0,003
-669,320	-5,226	-0,156	0,077
-668,305	368,406	-0,047	-0,069
-667,291	-94,748	-0,138	0,027
-666,276	-42,048	0,097	-0,036
-665,262	554,997	-0,138	-0,241
-664,247	-200,000	-0,011	-0,053
-663,232	800,000	-0,045	-0,121
-662,218	-117,639	0,104	0,013
-661,203	5,047	0,026	-0,014
-660,189	-33,130	-0,130	-0,052
-659,174	464,169	-0,060	-0,097
-658,159	800,000	0,006	0,018
-657,145	-25,385	-0,071	-0,030
-656,130	12,632	0,126	-0,070
-655,116	800,000	0,043	-0,099
-654,101	58,736	0,167	0,118
-653,086	-200,000	0,029	0,113
-652,072	-164,418	-0,199	0,006
-651,057	325,514	0,087	-0,121
-650,043	-56,060	-0,022	0,007
-649,028	800,000	0,020	0,046
-648,014	-87,219	0,073	-0,016
-646,999	-46,553	-0,068	0,024
-645,984	-200,000	-0,008	-0,081
-644,970	-200,000	0,055	-0,202
-643,955	-125,497	0,047	-0,005
-642,941	99,382	-0,167	-0,140
-641,926	-200,000	-0,029	-0,140
-640,911	-200,000	-0,034	0,165
-639,897	-89,907	-0,021	-0,004
-638,882	-71,371	-0,156	0,042
-637,868	-0,239	-0,020	0,010
-636,853	-137,423	-0,083	-0,007
-635,838	113,857	0,074	-0,065
-634,824	-200,000	0,018	-0,106
-633,809	161,840	0,119	0,120
-632,795	-69,757	0,125	0,034
-631,780	565,241	0,015	-0,027
-630,765	258,837	0,046	-0,057
-629,751	25,341	-0,118	-0,070
-628,736	800,000	0,041	-0,086
-627,722	-200,000	0,044	0,149
-626,707	148,790	-0,112	0,110
-625,692	-80,602	0,040	-0,009
-624,678	76,415	0,135	0,103
-623,663	800,000	-0,034	0,079
-622,649	523,615	-0,101	-0,172
-621,634	800,000	0,021	-0,047
-620,619	53,244	-0,062	-0,043
-619,605	639,314	0,029	-0,054
-618,590	-200,000	0,127	-0,000
-617,576	-139,716	0,089	0,007
-616,561	5,525	-0,031	0,016
-615,546	-200,000	-0,013	0,189
-614,532	-7,030	-0,122	-0,059
-613,517	-200,000	0,002	-0,041
-612,503	464,387	0,052	-0,085
-611,488	295,756	-0,017	-0,023
-610,474	502,168	-0,034	-0,057
-609,459	547,171	-0,071	-0,123
-608,444	-200,000	-0,197	0,000
-607,430	271,166	0,082	-0,105
-606,415	-27,516	0,113	0,047
-605,401	-200,000	-0,005	-0,074
-604,386	-68,502	-0,074	-0,021
-603,371	800,000	0,046	0,117
-602,357	-81,039	-0,117	-0,028
-601,342	-15,078	-0,079	-0,036
-600,328	282,688	0,077	-0,099
-599,313	-200,000	0,021	-0,085
-598,298	68,758	-0,163	-0,120
-597,284	2,208	0,061	0,032
-596,269	69,082	0,134	0,099
-595,255	115,185	0,110	-0,097
-594,240	300,384	0,075	-0,100
-593,225	-54,051	-0,122	0,040
-592,211	800,000	0,048	-0,117
-591,196	800,000	0,084	-0,173
-590,182	19,921	0,131	0,076
-589,167	25,253	0,086	0,051
-588,152	-200,000	-0,028	0,092
-587,138	-200,000	-0,005	0,019
-586,123	130,329	-0,115	-0,106
-585,109	173,558	-0,048	-0,050
-584,094	29,844	0,104	0,064
-583,079	-120,770	0,075	-0,009
-582,065	800,000	0,023	-0,052
-581,050	-151,822	0,061	-0,003
-580,036	-200,000	-0,004	-0,068
-579,021	16,352	-0,129	-0,073
-578,006	-200,000	0,001	-0,099
-576,992	147,771	0,058	0,057
-575,977	-200,000	0,009	-0,118
-574,963	-51,425	0,069	-0,023
-573,948	4,808	0,175	-0,092
-572,934	800,000	-0,106	0,237
-571,919	-113,865	-0,101	0,014
-570,904	-200,000	0,007	-0,176
-569,890	-200,000	-0,003	-0,104
-568,875	-156,112	0,115	-0,005
-567,861	-44,439	-0,031	-0,011
-566,846	-132,164	0,028	-0,003
-565,831	-102,414	-0,092	0,016
-564,817	340,650	-0,071	-0,100
-563,802	161,974	-0,044	-0,044
-562,788	148,049	0,153	-0,148
-561,773	-41,803	0,099	0,037
-560,758	-200,000	0,003	0,215
-559,744	74,516	0,095	0,072
-558,729	204,728	-0,046	-0,051
-557,715	9,034	-0,090	-0,049
-556,700	-56,042	-0,106	-0,034
-555,685	-97,760	-0,142	0,026
-554,671	-200,000	0,007	0,040
-553,656	727,346	0,071	-0,137
-552,642	-90,026	0,109	0,023
-551,627	800,000	0,027	0,077
-550,612	-110,347	-0,219	0,032
-549,598	101,125	-0,045	0,037
-548,583	485,605	0,046	0,076
-547,569	21,236	0,087	0,051
-546,554	-187,472	-0,110	-0,001
-545,539	35,794	0,076	0,048
-544,525	515,954	-0,008	-0,014
-543,510	260,111	0,036	0,045
-542,496	-200,000	0,007	0,106
-541,481	-200,000	-0,018	-0,069
-540,466	-29,594	0,010	-0,004
-539,452	-200,000	-0,010	0,097
-538,437	140,467	0,033	-0,032
-537,423	27,097	0,023	-0,014
-536,408	-200,000	0,012	0,106
-535,393	-12,603	-0,172	0,080
-534,379	800,000	-0,058	-0,176
-533,364	-60,206	0,078	0,024
-532,350	350,283	0,051	0,073
-531,335	191,079	0,042	0,046
-530,321	-200,000	-0,017	0,150
-529,306	-72,355	-0,123	-0,033
-528,291	635,924	0,033	0,061
-527,277	-13,292	-0,040	-0,019
-526,262	-200,000	0,041	0,162
-525,248	278,067	0,037	-0,048
-524,233	-200,000	0,011	0,056
-523,218	677,302	-0,056	0,104
-522,204	-200,000	-0,010	-0,099
-521,189	-36,959	0,026	-0,010
-520,175	72,584	-0,046	0,034
-519,160	-100,279	-0,136	0,024
-518,145	-200,000	-0,029	0,122
-517,131	42,076	0,094	0,061
-516,116	-200,000	-0,011	-0,060
-515,102	482,376	0,060	0,098
-514,087	4,466	0,131	-0,069
-513,072	350,885	-0,120	-0,171
-512,058	-19,004	-0,055	-0,025
-511,043	-200,000	0,005	-0,119
-510,029	800,000	0,034	-0,084
-509,014	-78,737	-0,088	0,021
-507,999	717,518	-0,028	-0,054
-506,985	800,000	-0,020	0,044
-505,970	-51,344	0,140	0,047
-504,956	281,943	0,084	-0,108
-503,941	304,920	0,052	0,070
-502,926	800,000	0,062	0,192
-501,912	800,000	0,018	0,042
-500,897	-200,000	0,005	0,045
-499,883	-110,486	-0,173	-0,026
-498,868	21,556	0,136	-0,079
-497,853	-200,000	-0,001	-0,011
-496,839	-200,000	-0,002	0,035
-495,824	-200,000	0,019	-0,071
-494,810	15,671	0,151	0,085
-493,795	116,882	-0,086	0,075
-492,781	-33,845	-0,128	-0,051
-491,766	-200,000	0,020	0,137
-490,751	-12,534	-0,022	0,010
-489,737	-158,823	-0,162	0,007
-488,722	-42,244	0,031	-0,011
-487,708	800,000	0,040	0,089
-486,693	-113,188	0,114	-0,016
-485,678	800,000	-0,063	-0,176
-484,664	-145,706	-0,063	-0,004
-483,649	-200,000	-0,029	0,154
-482,635	-45,821	0,046	-0,016
-481,620	-200,000	-0,006	0,028
-480,605	30,113	0,092	-0,056
-479,591	-134,562	-0,018	0,002
-478,576	-102,428	0,103	0,017
-477,562	-117,709	-0,068	0,009
-476,547	-200,000	-0,019	0,075
-475,532	800,000	-0,068	-0,143
-474,518	144,291	-0,054	0,052
-473,503	800,000	-0,046	-0,132
-472,489	-200,000	0,027	-0,218
-471,474	8,300	0,117	0,063
-470,459	247,269	0,052	0,064
-469,445	107,691	0,073	-0,063
-468,430	-117,409	-0,048	0,006
-467,416	-200,000	-0,006	-0,085
-466,401	162,538	-0,026	-0,026
-465,386	-200,000	0,023	0,291
-464,372	302,549	0,083	0,110
-463,357	-92,437	0,081	-0,016
-462,343	280,879	-0,048	0,061
-461,328	19,266	0,076	0,044
-460,313	-78,673	0,164	-0,040
-459,299	-200,000	-0,013	0,094
-458,284	157,280	0,104	0,103
-457,270	-200,000	0,002	0,030
-456,255	77,842	-0,041	-0,031
-455,241	-130,146	-0,183	-0,018
-454,226	270,398	-0,053	0,067
-453,211	71,632	0,062	-0,046
-452,197	800,000	0,010	0,029
-451,182	-75,510	0,060	0,015
-450,168	-124,711	0,071	0,008
-449,153	-200,000	0,016	-0,085
-448,138	12,566	-0,036	-0,020
-447,124	149,099	-0,090	0,087
-446,109	562,931	0,042	-0,073
-445,095	-200,000	-0,014	0,078
-444,080	19,776	0,079	0,046
-443,065	800,000	-0,029	-0,072
-442,051	127,115	0,057	-0,052
-441,036	-52,443	-0,148	0,049
-440,022	-197,623	-0,102	0,000
-439,007	22,050	0,091	0,053
-437,992	98,119	-0,045	-0,037
-436,978	694,577	0,070	0,132
-435,963	28,424	-0,075	-0,045
-434,949	245,341	-0,011	0,014
-433,934	-200,000	0,006	0,112
-432,919	73,028	0,089	-0,066
-431,905	-24,111	-0,110	-0,047
-430,890	-170,263	0,059	0,001
-429,876	13,028	0,188	0,104
-428,861	-200,000	-0,033	0,183
-427,846	-200,000	-0,018	0,127
-426,832	-19,774	-0,065	0,029
-425,817	-200,000	0,012	0,079
-424,803	160,227	-0,023	-0,023
-423,788	-124,809	-0,111	-0,012
-422,773	-141,452	0,126	-0,009
-421,759	14,755	-0,073	-0,041
-420,744	245,441	-0,075	0,090
-419,730	-200,000	-0,012	-0,056
-418,715	-60,418	-0,111	-0,033
-417,701	248,037	-0,094	-0,114
-416,686	351,267	-0,045	0,064
-415,671	-200,000	-0,002	0,052
-414,657	-112,027	0,081	-0,012
-413,642	16,694	0,094	-0,053
-412,628	195,354	-0,036	-0,040
-411,613	-200,000	0,002	-0,077
-410,598	493,547	0,035	-0,058
-409,584	122,960	0,063	-0,056
-408,569	-200,000	-0,016	-0,081
-407,555	71,854	0,037	0,028
-406,540	-55,297	-0,103	-0,033
-405,525	181,841	-0,039	0,041
-404,511	-82,746	0,078	0,018
-403,496	-26,230	-0,071	0,030
-402,482	800,000	0,060	0,135
-401,467	800,000	0,022	-0,047
-400,452	54,943	0,059	0,040
-399,438	-40,924	0,116	0,043
-398,423	-86,338	-0,170	-0,037
-397,409	120,029	-0,060	-0,053
-396,394	-200,000	0,013	-0,171
-395,379	-28,040	-0,117	-0,048
-394,365	135,815	-0,076	-0,071
-393,350	-200,000	0,042	-0,136
-392,336	72,092	-0,094	0,070
-391,321	599,120	-0,049	-0,087
-390,306	46,782	0,028	0,019
-389,292	-200,000	-0,019	0,084
-388,277	162,937	0,032	0,032
-387,263	-200,000	0,032	0,169
-386,248	-158,233	0,080	0,003
-385,233	144,535	-0,106	0,101
-384,219	441,814	-0,026	0,041
-383,204	-200,000	-0,018	-0,096
-382,190	-200,000	-0,013	-0,063
-381,175	55,063	0,098	-0,068
-380,160	131,040	-0,028	0,026
-379,146	-200,000	0,007	0,028
-378,131	-200,000	-0,017	-0,064
-377,117	168,879	-0,026	0,026
-376,102	-200,000	-0,008	-0,066
-375,088	239,602	0,075	0,090
-374,073	-100,999	-0,196	-0,034
-373,058	-200,000	-0,022	0,144
-372,044	345,788	0,031	-0,044
-371,029	171,025	-0,037	-0,038
-370,015	-74,698	0,127	-0,032
-369,000	-149,347	-0,114	-0,006
-367,985	10,396	-0,075	-0,040
-366,971	-47,811	-0,070	0,024
-365,956	-174,027	0,103	-0,002
-364,942	139,344	-0,019	0,017
-363,927	42,009	0,123	0,079
-362,912	-118,542	-0,188	0,023
-361,898	-118,276	-0,129	0,016
-360,883	800,000	-0,034	-0,090
-359,869	109,314	0,045	-0,039
-358,854	504,472	0,017	0,029
-357,839	-173,568	0,126	0,003
-356,825	-185,585	-0,133	-0,001
-355,810	800,000	-0,033	0,095
-354,796	-72,560	0,168	0,044
-353,781	121,177	0,068	-0,061
-352,766	764,373	0,035	-0,069
-351,752	-98,537	-0,061	0,011
-350,737	446,818	-0,027	-0,043
-349,723	359,439	0,112	-0,160
-348,708	70,158	-0,081	0,060
-347,693	343,128	0,047	-0,066
-346,679	-200,000	-0,038	-0,163
-345,664	800,000	0,011	-0,027
-344,650	-200,000	0,029	0,115
-343,635	-12,470	0,149	-0,069
-342,620	190,755	0,094	-0,101
-341,606	800,000	-0,059	0,129
-340,591	12,002	-0,053	-0,029
-339,577	106,718	-0,047	0,040
-338,562	782,176	0,055	-0,108
-337,548	53,295	0,075	0,051
-336,533	132,639	0,120	0,110
-335,518	52,911	-0,112	-0,076
-334,504	-116,739	0,158	-0,021
-333,489	-96,099	-0,085	0,016
-332,475	-200,000	-0,008	0,060
-331,460	146,367	-0,126	-0,121
-330,445	-114,696	0,101	0,014
-329,431	-81,227	0,027	-0,006
-328,416	-200,000	0,010	0,063
-327,402	-170,928	-0,084	0,002
-326,387	-95,647	-0,062	0,012
-325,372	28,334	0,061	0,037
-324,358	504,656	-0,025	0,041
-323,343	800,000	0,007	-0,015
-322,329	472,217	0,021	0,033
-321,314	-35,471	0,067	0,026
-320,299	800,000	0,018	-0,046
-319,285	-129,326	0,126	0,012
-318,270	24,376	-0,061	-0,036
-317,256	800,000	-0,052	-0,163
-316,241	128,559	0,016	0,014
-315,226	-200,000	0,004	0,061
-314,212	800,000	0,041	0,087
-313,197	417,743	0,069	0,106
-312,183	-45,937	0,050	0,017
-311,168	-122,872	-0,078	0,009
-310,153	-6,944	0,044	0,021
-309,139	-200,000	0,033	-0,118
-308,124	-200,000	0,018	0,057
-307,110	-68,912	0,165	0,045
-306,095	-128,316	-0,057	0,006
-305,080	800,000	0,034	-0,099
-304,066	-29,472	-0,115	-0,047
-303,051	-195,842	-0,098	0,000
-302,037	-18,446	0,039	-0,017
-301,022	-200,000	0,003	-0,085
-300,008	717,241	0,024	0,045
-298,993	196,629	0,043	0,046
-297,978	800,000	0,004	0,009
-296,964	107,873	0,045	0,038
-295,949	800,000	-0,031	-0,090
-294,935	-4,959	-0,009	0,004
-293,920	63,153	-0,081	-0,058
-292,905	187,105	0,061	0,065
-291,891	-22,480	0,074	0,032
-290,876	97,686	0,104	0,085
-289,862	27,696	-0,112	0,067
-288,847	372,690	-0,093	0,135
-287,832	-82,945	-0,055	0,013
-286,818	-200,000	-0,016	-0,078
-285,803	3,375	-0,089	-0,046
-284,789	322,039	-0,052	0,071
-283,774	800,000	0,036	-0,089
-282,759	534,126	0,050	-0,084
-281,745	52,747	-0,086	-0,059
-280,730	33,519	-0,172	-0,106
-279,716	800,000	-0,016	0,043
-278,701	418,087	-0,057	-0,088
-277,686	-35,402	-0,052	0,020
-276,672	800,000	0,025	-0,077
-275,657	-113,551	-0,111	-0,015
-274,643	-40,420	-0,055	0,020
-273,628	-77,137	-0,084	0,021
-272,613	-75,549	-0,097	0,024
-271,599	-77,123	0,038	0,009
-270,584	-200,000	-0,014	-0,065
-269,570	-27,381	-0,046	0,019
-268,555	52,605	0,052	0,035
-267,540	-200,000	-0,029	-0,091
-266,526	273,636	0,049	0,062
-265,511	-200,000	0,019	-0,090
-264,497	800,000	-0,002	-0,006
-263,482	-200,000	0,021	0,109
-262,467	69,924	0,080	0,058
-261,453	-11,932	-0,086	0,040
-260,438	21,500	-0,035	0,020
-259,424	-200,000	-0,004	0,025
-258,409	800,000	-0,048	-0,119
-257,395	512,016	-0,040	0,067
-256,380	211,170	0,018	0,020
-255,365	-61,495	0,055	-0,016
-254,351	-5,118	-0,021	0,010
-253,336	173,170	-0,104	0,106
-252,322	262,944	0,048	0,059
-251,307	150,100	0,076	0,073
-250,292	-10,927	-0,235	0,110
-249,278	-200,000	-0,004	0,019
-248,263	53,602	-0,065	0,044
-247,249	-124,480	-0,046	0,005
-246,234	150,069	-0,059	-0,057
-245,219	-95,662	0,180	0,034
-244,205	-200,000	0,001	-0,059
-243,190	-145,580	0,103	-0,006
-242,176	-73,282	0,065	0,017
-241,161	125,567	0,095	0,085
-240,146	2,835	-0,055	-0,028
-239,132	800,000	0,009	-0,024
-238,117	100,402	-0,113	0,093
-237,103	-104,362	-0,044	0,007
-236,088	738,855	-0,008	-0,015
-235,073	-103,292	0,076	-0,013
-234,059	-200,000	-0,003	0,114
-233,044	645,726	0,069	0,125
-232,030	-46,027	-0,111	-0,039
-231,015	-66,300	0,159	-0,045
-230,000	231,319	-0,147	-0,171
-228,986	751,363	-0,032	0,061
-227,971	-0,101	0,094	0,047
-226,957	353,841	0,074	0,105
-225,942	39,955	-0,070	0,044
-224,927	450,784	-0,096	-0,150
-223,913	231,528	-0,063	-0,073
-222,898	312,475	-0,048	0,064
-221,884	117,114	-0,075	-0,065
-220,869	-24,021	0,134	0,057
-219,855	-200,000	-0,013	0,091
-218,840	77,872	0,064	0,048
-217,825	552,039	-0,102	0,174
-216,811	-57,079	-0,030	-0,009
-215,796	-200,000	-0,039	-0,149
-214,782	51,324	-0,058	-0,039
-213,767	150,748	0,095	0,092
-212,752	102,417	0,013	0,011
-211,738	386,383	-0,019	0,028
-210,723	166,859	0,077	0,077
-209,709	125,929	0,042	-0,037
-208,694	-200,000	-0,028	-0,089
-207,679	5,928	0,088	-0,046
-206,665	-75,349	0,077	-0,019
-205,650	-44,965	0,040	-0,014
-204,636	73,387	0,083	-0,061
-203,621	-88,581	-0,167	-0,035
-202,606	800,000	0,033	-0,080
-201,592	61,036	0,077	0,054
-200,577	76,858	-0,089	0,067
-199,563	-200,000	-0,008	0,084
-198,548	-200,000	0,002	0,091
-197,533	294,248	0,076	0,098
-196,519	-28,289	-0,121	0,049
-195,504	-98,154	0,136	-0,025
-194,490	129,054	0,092	0,083
-193,475	800,000	0,020	-0,060
-192,460	-200,000	-0,002	-0,039
-191,446	52,455	0,028	0,019
-190,431	128,289	0,083	-0,075
-189,417	-200,000	-0,001	-0,041
-188,402	118,124	0,038	-0,033
-187,387	800,000	0,100	-0,230
-186,373	132,391	-0,086	-0,079
-185,358	800,000	-0,015	-0,040
-184,344	-200,000	0,003	0,111
-183,329	-200,000	-0,017	0,191
-182,315	-123,186	0,035	-0,004
-181,300	94,691	-0,036	-0,029
-180,285	346,649	-0,060	0,084
-179,271	161,791	-0,069	0,068
-178,256	-41,860	-0,126	-0,045
-177,242	-200,000	0,001	-0,063
-176,227	-45,415	0,028	0,010
-175,212	-64,855	0,193	-0,055
-174,198	-200,000	-0,003	0,043
-173,183	368,745	-0,045	-0,065
-172,169	800,000	-0,039	-0,084
-171,154	35,920	-0,100	0,062
-170,139	-54,386	0,185	-0,059
-169,125	800,000	-0,018	0,043
-168,110	39,652	0,044	-0,028
-167,096	0,377	-0,040	0,020
-166,081	-200,000	0,013	-0,055
-165,066	-200,000	0,030	-0,129
-164,052	-200,000	0,027	0,093
-163,037	-3,413	0,134	0,066
-162,023	-200,000	-0,029	0,122
-161,008	-67,255	0,040	0,011
-159,993	-61,828	-0,055	-0,016
-158,979	-47,848	0,089	0,030
-157,964	525,958	-0,051	-0,086
-156,950	-85,451	0,102	0,022
-155,935	33,940	0,086	-0,053
-154,920	102,191	-0,020	-0,016
-153,906	800,000	-0,032	0,094
-152,891	224,199	-0,072	-0,083
-151,877	-200,000	0,005	0,048
-150,862	-200,000	-0,031	-0,111
-149,847	412,252	-0,149	0,225
-148,833	192,867	0,051	0,054
-147,818	533,785	0,021	0,036
-146,804	-200,000	-0,001	-0,009
-145,789	-80,098	0,109	-0,026
-144,775	19,382	0,057	-0,032
-143,760	32,035	-0,045	-0,028
-142,745	-178,750	-0,113	-0,002
-141,731	-82,469	0,147	-0,033
-140,716	-0,781	0,108	0,054
-139,702	248,509	0,091	0,110
-138,687	-200,000	-0,029	-0,117
-137,672	-1,495	-0,136	-0,068
-136,658	183,890	-0,096	0,100
-135,643	-80,330	-0,080	-0,019
-134,629	530,481	0,029	-0,048
-133,614	800,000	0,036	-0,081
-132,599	269,982	0,069	0,086
-131,585	-200,000	0,011	0,050
-130,570	206,732	-0,068	0,075
-129,556	-200,000	0,005	0,043
-128,541	373,183	0,009	0,013
-127,526	800,000	0,043	-0,105
-126,512	144,853	-0,101	0,095
-125,497	277,556	-0,096	0,121
-124,483	570,863	-0,047	-0,082
-123,468	-43,464	-0,045	0,016
-122,453	-200,000	-0,017	-0,065
-121,439	-200,000	0,002	0,035
-120,424	-200,000	-0,040	-0,233
-119,410	-200,000	0,002	-0,015
-118,395	800,000	-0,013	-0,035
-117,380	-200,000	0,038	0,133
-116,366	-134,008	-0,126	-0,011
-115,351	-25,983	0,092	-0,038
-114,337	93,638	-0,214	0,172
-113,322	800,000	0,018	-0,047
-112,307	-19,132	0,120	0,053
-111,293	800,000	0,017	0,034
-110,278	-200,000	0,014	0,077
-109,264	251,763	-0,050	-0,060
-108,249	-13,342	0,043	0,020
-107,234	800,000	-0,037	-0,083
-106,220	8,482	0,042	0,023
-105,205	68,699	-0,045	-0,033
-104,191	-60,595	-0,111	-0,033
-103,176	-28,928	0,168	0,068
-102,162	-200,000	-0,029	0,160
-101,147	-200,000	0,021	-0,117
-100,132	800,000	0,063	-0,189
-99,118	234,152	0,039	0,046
-98,103	-167,909	0,034	-0,001
-97,089	800,000	0,016	-0,042
-96,074	63,185	0,066	0,047
-95,059	800,000	-0,048	0,111
-94,045	-16,490	-0,079	-0,035
-93,030	342,861	0,071	-0,098
-92,016	60,525	0,019	-0,013
-91,001	131,289	-0,112	0,101
-89,986	-38,388	-0,033	0,012
-88,972	-200,000	0,008	-0,105
-87,957	-90,670	-0,036	-0,007
-86,943	-77,444	-0,091	-0,022
-85,928	800,000	0,053	-0,150
-84,913	350,249	0,032	0,045
-83,899	-125,477	-0,061	-0,006
-82,884	-162,986	0,035	-0,001
-81,870	800,000	0,029	-0,058
-80,855	-200,000	-0,010	0,125
-79,840	85,156	0,032	0,025
-78,826	229,608	0,041	-0,047
-77,811	-200,000	0,003	0,061
-76,797	-200,000	-0,005	-0,057
-75,782	-200,000	0,021	0,080
-74,767	355,749	0,144	0,204
-73,753	-0,973	0,057	-0,028
-72,738	113,791	-0,165	-0,142
-71,724	-200,000	-0,008	-0,035
-70,709	-200,000	-0,004	-0,083
-69,694	-94,609	-0,136	-0,026
-68,680	-29,900	-0,106	0,042
-67,665	759,107	-0,041	-0,079
-66,651	800,000	0,033	-0,068
-65,636	370,331	0,057	0,082
-64,622	-7,050	-0,073	-0,035
-63,607	367,142	-0,080	-0,114
-62,592	-15,950	0,026	-0,012
-61,578	137,591	-0,079	0,073
-60,563	248,514	-0,056	0,067
-59,549	475,928	0,088	0,141
-58,534	54,232	-2,122	-1,439
-57,519	465,191	-1,116	-1,768
-56,505	-200,000	-0,611	-4,592
-55,490	603,491	0,963	1,697
-54,476	800,000	5,155	11,355
-53,461	-200,000	22,423	346,799
-52,446	800,000	757,662	2293,462
-51,432	533,235	1644,137	2756,825
-50,417	67,904	1642,653	1183,542
-49,403	15,670	1519,909	840,380
-48,388	9,846	1446,043	771,568
-47,373	19,291	1438,581	812,554
-46,359	13,338	1427,261	778,039
-45,344	8,136	1423,229	751,209
-44,330	8,136	1421,221	750,118
-43,315	8,089	1419,384	748,896
-42,300	8,101	1417,570	747,964
-41,286	8,077	1416,612	747,320
-40,271	8,097	1415,216	746,647
-39,257	8,111	1413,842	745,957
-38,242	8,153	1412,708	745,528
-37,227	8,092	1411,940	744,806
-36,213	8,122	1410,416	744,111
-35,198	8,105	1409,137	743,329
-34,184	8,136	1408,424	743,070
-33,169	8,052	1406,992	741,891
-32,154	8,092	1406,053	741,550
-31,140	8,074	1404,893	740,828
-30,125	8,105	1403,640	740,281
-29,111	8,083	1402,548	739,576
-28,096	8,088	1401,303	738,910
-27,082	8,027	1400,058	737,942
-26,067	8,012	1399,096	737,335
-25,052	8,070	1397,828	736,905
-24,038	8,066	1396,856	736,347
-23,023	8,043	1396,182	735,857
-22,009	8,038	1395,061	735,214
-20,994	8,031	1394,064	734,625
-19,979	8,013	1393,240	734,080
-18,965	7,987	1392,390	733,480
-17,950	7,963	1391,208	732,717
-16,936	7,940	1390,444	732,179
-15,921	7,899	1389,628	731,531
-14,906	7,951	1388,620	731,212
-13,892	8,005	1387,295	730,737
-12,877	7,972	1386,531	730,151
-11,863	7,903	1386,040	729,547
-10,848	7,968	1384,947	729,242
-9,833	7,874	1384,103	728,335
-8,819	7,862	1383,342	727,848
-7,804	7,839	1382,273	727,152
-6,790	7,861	1381,174	726,648
-5,775	7,818	1380,224	725,921
-4,760	7,886	1379,189	725,662
-3,746	7,862	1378,354	725,083
-2,731	7,916	1377,544	724,876
-1,717	7,877	1376,692	724,218
-0,702	7,859	1374,884	723,156
0,313	11,787	1285,256	693,820
1,327	27,398	677,117	400,317
2,342	42,339	116,462	74,481
3,356	-0,867	16,615	8,266
4,371	4,097	3,852	1,980
5,386	-5,944	1,389	0,667
6,400	800,000	0,297	0,639
7,415	149,468	-0,132	-0,126
8,429	66,918	-0,306	-0,219
9,444	137,484	-0,354	-0,327
10,459	90,483	-0,169	-0,133
11,473	85,151	-0,264	-0,204
12,488	91,524	-0,201	-0,159
13,502	107,116	-0,270	-0,226
14,517	66,575	-0,361	-0,258
15,531	16,962	-0,311	-0,173
16,546	85,360	-0,297	-0,229
17,561	175,692	-0,420	-0,429
18,575	-133,479	-0,068	-0,006
19,590	800,000	-0,177	-0,378
20,604	-132,014	-0,247	-0,022
21,619	300,716	-0,288	-0,375
22,634	3,774	-0,502	-0,257
23,648	171,830	-0,444	-0,449
24,663	49,986	-0,298	-0,197
25,677	-58,661	-0,367	-0,111
26,692	1,563	-0,280	-0,141
27,707	-19,772	-0,346	-0,150
28,721	11,431	-0,388	-0,208
29,736	136,799	-0,370	-0,340
30,750	-20,044	-0,384	-0,166
31,765	89,935	-0,397	-0,312
32,780	105,385	-0,334	-0,278
33,794	313,343	-0,252	-0,334
34,809	18,788	-0,297	-0,167
35,823	-72,945	-0,441	-0,113
36,838	119,506	-0,432	-0,376
37,853	119,296	-0,367	-0,319
38,867	23,384	-0,421	-0,242
39,882	114,327	-0,342	-0,293
40,896	187,158	-0,245	-0,256
41,911	167,977	-0,371	-0,371
42,926	48,090	-0,371	-0,243
43,940	-10,038	-0,328	-0,152
44,955	18,181	-0,356	-0,199
45,969	48,025	-0,451	-0,296
46,984	208,644	-0,247	-0,271
47,999	-2,003	-0,319	-0,157
49,013	15,386	-0,372	-0,205
50,028	42,465	-0,311	-0,198
51,042	142,055	-0,326	-0,304
52,057	173,073	-0,323	-0,327
53,071	79,023	-0,208	-0,156
54,086	-2,202	-0,296	-0,145
55,101	89,665	-0,216	-0,169
56,115	-1,405	-0,331	-0,163
57,130	73,931	-0,277	-0,204
58,144	-58,256	-0,474	-0,144
59,159	147,004	-0,258	-0,244
60,174	194,063	-0,289	-0,308
61,188	18,202	-0,291	-0,162
62,203	189,162	-0,248	-0,261
63,217	147,816	-0,242	-0,229
64,232	-39,933	-0,354	-0,129
65,247	97,156	-0,351	-0,282
66,261	-5,908	-0,499	-0,238
67,276	166,391	-0,343	-0,341
68,290	102,237	-0,296	-0,242
69,305	-63,554	-0,272	-0,078
70,320	-59,400	-0,341	-0,102
71,334	246,158	-0,185	-0,219
72,349	-100,979	-0,407	-0,069
73,363	97,126	-0,250	-0,201
74,378	137,009	-0,308	-0,282
75,393	101,561	-0,177	-0,145
76,407	70,854	-0,272	-0,197
77,422	-33,236	-0,276	-0,107
78,436	148,643	-0,218	-0,206
79,451	226,564	-0,196	-0,223
80,466	7,490	-0,370	-0,193
81,480	120,397	-0,313	-0,272
82,495	160,858	-0,279	-0,273
83,509	-200,000	-0,032	-0,113
84,524	158,997	-0,242	-0,236
85,539	-73,066	-0,284	-0,072
86,553	16,211	-0,333	-0,183
87,568	98,880	-0,300	-0,242
88,582	22,115	-0,314	-0,179
89,597	-99,440	-0,302	-0,053
90,611	317,702	-0,166	-0,220
91,626	-9,590	-0,347	-0,161
92,641	55,962	-0,220	-0,149
93,655	134,521	-0,300	-0,272
94,670	-0,358	-0,329	-0,163
95,684	10,674	-0,307	-0,163
96,699	60,050	-0,194	-0,134
97,714	36,288	-0,196	-0,121
98,728	317,586	-0,226	-0,300
99,743	119,778	-0,306	-0,265
100,757	-60,010	-0,319	-0,095
101,772	62,895	-0,351	-0,245
102,787	148,536	-0,309	-0,292
103,801	104,448	-0,395	-0,325
104,816	109,414	-0,191	-0,160
105,830	-11,709	-0,402	-0,184
106,845	-15,721	-0,239	-0,106
107,860	48,433	-0,261	-0,170
108,874	64,928	-0,180	-0,127
109,889	332,837	-0,296	-0,400
110,903	-30,329	-0,408	-0,161
111,918	217,901	-0,218	-0,243
112,933	-53,871	-0,281	-0,089
113,947	-63,876	-0,196	-0,056
114,962	201,276	-0,243	-0,262
115,976	189,652	-0,248	-0,260
116,991	26,180	-0,315	-0,183
118,006	220,667	-0,250	-0,281
119,020	84,837	-0,163	-0,124
120,035	-6,104	-0,295	-0,140
121,049	-195,077	-0,220	0,001
122,064	-98,377	-0,396	-0,070
123,079	-70,791	-0,315	-0,082
124,093	649,224	-0,105	-0,189
125,108	186,248	-0,184	-0,192
126,122	380,548	-0,176	-0,253
127,137	227,597	-0,269	-0,305
128,151	20,307	-0,188	-0,106
129,166	0,584	-0,272	-0,135
130,181	44,950	-0,244	-0,156
131,195	17,034	-0,328	-0,181
132,210	164,758	-0,271	-0,267
133,224	434,123	-0,114	-0,173
134,239	-57,415	-0,273	-0,083
135,254	-31,842	-0,167	-0,065
136,268	800,000	-0,098	-0,253
137,283	0,756	-0,321	-0,160
138,297	70,474	-0,117	-0,084
139,312	15,101	-0,286	-0,155
140,327	189,558	-0,202	-0,212
141,341	196,575	-0,171	-0,181
142,356	53,271	-0,209	-0,139
143,370	237,018	-0,231	-0,267
144,385	430,945	-0,194	-0,293
145,400	-69,761	-0,374	-0,099
146,414	357,103	-0,181	-0,252
147,429	489,994	-0,183	-0,292
148,443	66,350	-0,336	-0,237
149,458	83,602	-0,178	-0,135
150,473	11,766	-0,230	-0,123
151,487	523,578	-0,158	-0,259
152,502	138,393	-0,270	-0,246
153,516	-33,472	-0,479	-0,183
154,531	50,975	-0,290	-0,191
155,546	-83,062	-0,249	-0,055
156,560	133,751	-0,148	-0,133
157,575	138,110	-0,257	-0,235
158,589	27,050	-0,380	-0,221
159,604	-39,229	-0,275	-0,100
160,619	16,233	-0,187	-0,102
161,633	-99,351	-0,204	-0,035
162,648	-92,301	-0,317	-0,062
163,662	-43,996	-0,152	-0,053
164,677	114,073	-0,303	-0,256
165,692	0,963	-0,221	-0,110
166,706	3,359	-0,316	-0,159
167,721	-27,977	-0,362	-0,145
168,735	395,984	-0,230	-0,334
169,750	60,084	-0,276	-0,189
170,764	267,167	-0,176	-0,214
171,779	0,262	-0,196	-0,097
172,794	91,980	-0,308	-0,241
173,808	462,950	-0,191	-0,297
174,823	-101,510	-0,313	-0,052
175,837	75,120	-0,307	-0,224
176,852	113,165	-0,243	-0,205
177,867	-108,887	-0,251	0,037
178,881	220,814	-0,100	-0,112
179,896	-92,946	-0,170	0,033
180,910	-145,419	-0,244	-0,015
181,925	310,185	-0,227	-0,295
182,940	185,342	-0,160	-0,165
183,954	329,179	-0,163	-0,218
184,969	-12,685	-0,192	-0,086
185,983	190,758	-0,199	-0,208
186,998	-102,601	-0,169	-0,028
188,013	234,253	-0,173	-0,198
189,027	131,092	-0,179	-0,159
190,042	271,884	-0,160	-0,196
191,056	415,694	-0,079	-0,117
192,071	85,637	-0,191	-0,146
193,086	55,662	-0,281	-0,188
194,100	153,513	-0,134	-0,127
195,115	117,089	-0,175	-0,149
196,129	5,135	-0,316	-0,161
197,144	800,000	-0,144	-0,292
198,159	661,505	-0,191	-0,343
199,173	800,000	-0,071	-0,205
200,188	800,000	-0,114	-0,250
201,202	800,000	-0,032	-0,072
202,217	-38,436	-0,209	-0,076
203,232	92,635	-0,276	-0,216
204,246	12,380	-0,147	-0,078
205,261	214,378	-0,146	-0,160
206,275	70,506	-0,185	-0,132
207,290	66,655	-0,121	-0,085
208,304	88,690	-0,112	-0,086
209,319	55,159	-0,180	-0,120
210,334	269,921	-0,145	-0,177
211,348	206,680	-0,192	-0,207
212,363	0,729	-0,258	-0,127
213,377	176,230	-0,156	-0,157
214,392	357,732	-0,103	-0,142
215,407	-11,967	-0,254	-0,115
216,421	-104,761	-0,256	0,040
217,436	442,367	-0,090	-0,137
218,450	213,382	-0,164	-0,180
219,465	-125,969	-0,325	-0,033
220,480	-39,088	-0,233	-0,084
221,494	-133,334	-0,190	0,016
222,509	193,075	-0,060	-0,063
223,523	-40,627	-0,210	-0,075
224,538	126,565	-0,248	-0,217
225,553	27,775	-0,240	-0,139
226,567	-9,628	-0,233	-0,107
227,582	-71,333	-0,143	-0,037
228,596	67,507	-0,212	-0,149
229,611	5,184	-0,094	-0,048
230,626	775,287	-0,129	-0,245
231,640	27,447	-0,272	-0,157
232,655	160,329	-0,168	-0,162
233,669	-6,608	-0,298	-0,140
234,684	-13,921	-0,258	-0,115
235,699	224,923	-0,157	-0,175
236,713	800,000	-0,070	-0,205
237,728	800,000	-0,091	-0,184
238,742	183,553	-0,159	-0,163
239,757	140,719	-0,228	-0,208
240,772	-109,438	-0,151	-0,022
241,786	166,842	-0,225	-0,220
242,801	-98,336	-0,135	-0,024
243,815	800,000	-0,093	-0,186
244,830	-200,000	0,004	-0,171
245,844	25,346	-0,088	-0,050
246,859	294,169	-0,165	-0,208
247,874	-200,000	-0,036	-0,171
248,888	94,801	-0,249	-0,195
249,903	45,837	-0,052	-0,033
250,917	-34,154	-0,170	-0,064
251,932	59,690	-0,240	-0,163
252,947	-177,122	-0,176	0,003
253,961	211,638	-0,154	-0,168
254,976	278,460	-0,123	-0,151
255,990	577,675	-0,128	-0,217
257,005	-14,025	-0,224	-0,099
258,020	577,461	-0,099	-0,167
259,034	-200,000	-0,010	-0,109
260,049	51,865	-0,109	-0,071
261,063	38,509	-0,166	-0,102
262,078	800,000	-0,160	-0,364
263,093	183,199	-0,145	-0,148
264,107	-163,304	-0,247	0,008
265,122	-20,722	-0,130	-0,055
266,136	-177,187	-0,258	0,004
267,151	-200,000	-0,056	-0,182
268,166	84,973	-0,218	-0,164
269,180	8,375	-0,269	-0,139
270,195	-92,860	-0,176	-0,034
271,209	-99,857	-0,222	-0,038
272,224	29,429	-0,183	-0,107
273,239	-72,643	-0,329	-0,083
274,253	-43,285	-0,239	0,083
275,268	276,069	-0,100	-0,122
276,282	-200,000	-0,068	-0,246
277,297	-92,450	-0,209	-0,040
278,312	8,141	-0,177	-0,091
279,326	101,699	-0,135	-0,108
280,341	219,079	-0,117	-0,129
281,355	-82,702	-0,152	0,034
282,370	50,904	-0,133	0,087
283,384	37,874	-0,163	-0,100
284,399	800,000	-0,084	-0,180
285,414	643,410	-0,053	-0,094
286,428	-71,128	-0,164	-0,042
287,443	-62,065	-0,086	-0,025
288,457	85,802	-0,062	-0,047
289,472	800,000	-0,086	-0,173
290,487	-5,487	-0,147	-0,069
291,501	280,852	-0,109	-0,134
292,516	184,995	-0,150	-0,153
293,530	706,817	-0,068	-0,125
294,545	-200,000	-0,026	-0,224
295,560	800,000	-0,040	-0,082
296,574	-38,232	-0,090	-0,033
297,589	105,422	-0,132	-0,107
298,603	-131,331	-0,190	0,017
299,618	-200,000	-0,105	0,000
300,633	-196,818	-0,073	-0,000
301,647	9,366	-0,131	0,068
302,662	-85,705	-0,244	-0,052
303,676	-42,441	-0,078	-0,027
304,691	-200,000	0,011	-0,141
305,706	11,095	-0,259	-0,135
306,720	109,168	-0,186	-0,152
307,735	-35,666	-0,161	-0,060
308,749	-20,197	-0,162	0,068
309,764	116,654	-0,101	-0,085
310,779	198,943	-0,113	-0,118
311,793	-43,498	-0,155	-0,053
312,808	-52,863	-0,178	-0,056
313,822	127,930	-0,126	-0,110
314,837	-200,000	-0,019	-0,185
315,852	272,870	-0,106	-0,128
316,866	367,286	-0,097	-0,134
317,881	-89,602	-0,225	-0,045
318,895	-61,493	-0,050	0,014
319,910	42,919	-0,151	-0,094
320,925	-50,781	-0,196	-0,063
321,939	14,058	-0,105	0,056
322,954	-128,841	-0,048	0,005
323,968	106,092	-0,114	-0,092
324,983	93,708	-0,070	-0,054
325,997	523,343	-0,143	-0,231
327,012	-73,166	-0,212	-0,053
328,027	196,634	-0,085	-0,089
329,041	282,337	-0,151	-0,186
330,056	-200,000	-0,092	-0,299
331,070	289,135	-0,117	-0,146
332,085	268,405	-0,061	-0,073
333,100	-52,847	-0,144	-0,045
334,114	-2,071	-0,149	-0,072
335,129	76,130	-0,208	-0,150
336,143	-75,330	-0,174	-0,042
337,158	800,000	-0,015	-0,032
338,173	381,289	-0,093	-0,131
339,187	-112,422	-0,271	-0,037
340,202	-9,672	-0,219	-0,100
341,216	2,627	-0,168	-0,083
342,231	-24,398	-0,269	-0,109
343,246	-83,017	-0,154	0,034
344,260	-3,593	-0,175	-0,083
345,275	29,749	-0,161	-0,094
346,289	-60,120	-0,166	-0,048
347,304	689,819	-0,071	-0,128
348,319	-23,965	-0,092	0,037
349,333	-25,722	-0,246	-0,099
350,348	162,310	-0,078	-0,075
351,362	-20,163	-0,172	-0,072
352,377	448,633	-0,066	-0,100
353,392	-200,000	0,012	-0,151
354,406	-9,471	-0,094	-0,042
355,421	208,276	1311,288	1402,576
356,435	160,255	1471,533	1403,020
