DTS Sentinel unit serial number:	SN410029Multiplexer serial number:	ORYXHardware model number:	OX2-SRSoftware version number:	ORYX F/W v4,00 Oryx Data Collector v3.7.2.0data status	okinstallation	B3 Nyhavnadifferential loss correction	single-endedforward channel	channel 1reverse channel	N/Adate	2023/12/04time	03:52:30forward acquisition time	300,00reverse acquisition time	0,00gamma	499,1914k internal	0,3205k external	0,3205temperature offset calibration	1,0000default loss term (dB/km)	0,3820temperature slope calibration	1,0000multiplexer offset coefficient	1,0000multiplexer slope coefficient	1,0000fibre end	0,00T internal ref (°C)	12,04T ext. ref 1 (°C)	-3,09T ext. ref 2 (°C)	-3,12length (m)	temperature (°C)	Stokes	anti-Stokes-744,400	224,257	-0,188	-0,221
-743,385	-200,000	0,004	0,227
-742,371	-53,909	-0,250	-0,082
-741,356	800,000	0,085	0,253
-740,342	337,942	-0,177	-0,251
-739,327	-200,000	-0,004	0,425
-738,312	204,555	-0,157	-0,177
-737,298	323,497	-0,165	0,229
-736,283	-29,282	-0,301	-0,125
-735,269	800,000	0,129	0,283
-734,254	339,892	-0,151	-0,214
-733,239	8,820	-0,177	0,097
-732,225	800,000	0,096	-0,222
-731,210	800,000	-0,057	0,123
-730,196	-28,382	-0,063	-0,026
-729,181	69,859	-0,062	0,047
-728,167	800,000	-0,034	-0,076
-727,152	-73,783	-0,046	-0,012
-726,137	800,000	0,071	-0,173
-725,123	-200,000	-0,002	-0,131
-724,108	-200,000	-0,018	-0,129
-723,094	84,514	-0,132	-0,105
-722,079	-200,000	-0,011	0,043
-721,064	505,055	-0,030	-0,051
-720,050	-200,000	0,003	0,024
-719,035	-61,826	-0,063	0,019
-718,021	-48,409	-0,076	-0,026
-717,006	-200,000	-0,032	0,141
-715,991	-125,852	-0,134	-0,015
-714,977	-200,000	-0,055	-0,200
-713,962	-200,000	-0,019	-0,082
-712,948	-200,000	-0,005	0,080
-711,933	-106,390	0,076	-0,012
-710,918	581,844	-0,018	0,033
-709,904	-144,142	-0,188	0,013
-708,889	-26,738	-0,070	0,030
-707,875	-200,000	-0,041	-0,141
-706,860	-77,321	-0,063	-0,016
-705,845	-200,000	-0,015	0,050
-704,831	196,088	0,042	-0,046
-703,816	-17,225	-0,064	-0,029
-702,802	-200,000	-0,046	-0,217
-701,787	-8,928	-0,031	-0,015
-700,772	53,685	-0,083	0,058
-699,758	-81,017	-0,107	-0,025
-698,743	165,358	0,087	0,089
-697,729	3,018	-0,029	0,015
-696,714	32,669	-0,081	-0,051
-695,699	-13,474	-0,012	-0,006
-694,685	-200,000	0,007	-0,049
-693,670	-110,151	-0,101	-0,015
-692,656	-200,000	-0,010	0,091
-691,641	457,154	0,022	0,036
-690,627	418,253	0,032	-0,050
-689,612	-43,706	-0,096	-0,035
-688,597	-83,532	-0,129	-0,030
-687,583	518,083	-0,039	-0,067
-686,568	-77,757	-0,036	0,009
-685,554	161,308	0,109	-0,111
-684,539	244,467	0,073	0,088
-683,524	-200,000	0,044	0,169
-682,510	800,000	0,025	0,079
-681,495	800,000	-0,063	-0,158
-680,481	-200,000	-0,001	-0,149
-679,466	-31,915	-0,092	-0,037
-678,451	53,566	-0,062	-0,043
-677,437	795,161	-0,056	-0,111
-676,422	-173,356	-0,100	0,002
-675,408	-200,000	-0,000	0,155
-674,393	800,000	-0,017	0,054
-673,378	-75,359	-0,164	0,042
-672,364	-165,530	0,157	-0,005
-671,349	-24,800	0,102	0,044
-670,335	37,928	0,149	-0,096
-669,320	-109,872	-0,125	0,019
-668,305	-200,000	0,038	0,127
-667,291	-200,000	-0,002	-0,009
-666,276	158,063	-0,126	-0,127
-665,262	71,742	-0,134	0,101
-664,247	266,276	0,017	0,021
-663,232	142,427	-0,078	-0,075
-662,218	145,648	-0,101	-0,098
-661,203	26,076	0,014	-0,008
-660,189	211,512	0,056	-0,064
-659,174	-200,000	0,011	-0,066
-658,159	110,039	-0,092	-0,080
-657,145	116,348	0,049	-0,044
-656,130	-200,000	-0,002	-0,029
-655,116	-200,000	-0,010	0,039
-654,101	-200,000	0,018	-0,135
-653,086	596,083	-0,115	0,207
-652,072	-51,648	0,039	0,013
-651,057	14,243	-0,098	-0,055
-650,043	-29,263	-0,107	0,044
-649,028	-200,000	0,032	-0,105
-648,014	800,000	-0,056	0,129
-646,999	27,270	0,114	0,069
-645,984	-200,000	-0,005	-0,023
-644,970	-115,637	-0,199	0,027
-643,955	-200,000	0,013	-0,142
-642,941	-200,000	0,011	-0,145
-641,926	-50,683	-0,177	-0,060
-640,911	81,364	0,058	-0,045
-639,897	295,681	0,040	0,053
-638,882	-200,000	-0,016	-0,052
-637,868	-200,000	-0,005	0,038
-636,853	800,000	-0,050	-0,130
-635,838	241,063	-0,101	0,122
-634,824	194,276	-0,113	-0,124
-633,809	-75,997	-0,127	0,032
-632,795	652,060	0,103	0,192
-631,780	253,001	0,088	0,109
-630,765	106,733	-0,046	0,039
-629,751	-200,000	-0,018	0,067
-628,736	29,947	-0,090	-0,056
-627,722	-200,000	-0,020	-0,131
-626,707	136,547	-0,026	-0,025
-625,692	-200,000	-0,019	-0,110
-624,678	211,106	0,050	0,057
-623,663	-60,426	-0,085	0,026
-622,649	800,000	0,040	-0,116
-621,634	219,375	-0,093	-0,108
-620,619	408,591	-0,021	-0,033
-619,605	800,000	0,016	0,035
-618,590	536,932	-0,080	0,138
-617,576	502,353	0,043	0,072
-616,561	-200,000	0,017	0,065
-615,546	45,734	-0,147	-0,098
-614,532	-200,000	-0,042	-0,135
-613,517	383,386	-0,006	0,008
-612,503	800,000	-0,020	0,058
-611,488	182,271	0,055	-0,059
-610,474	38,406	-0,080	0,051
-609,459	800,000	-0,011	0,026
-608,444	66,445	-0,110	0,081
-607,430	-200,000	0,002	-0,048
-606,415	59,132	-0,079	-0,056
-605,401	48,522	0,024	0,016
-604,386	-16,957	0,163	0,074
-603,371	-48,324	0,090	0,031
-602,357	800,000	0,021	0,051
-601,342	31,075	0,062	-0,038
-600,328	16,519	-0,126	0,072
-599,313	139,054	-0,144	-0,136
-598,298	-200,000	-0,003	0,105
-597,284	-123,964	-0,129	-0,014
-596,269	185,885	0,071	-0,077
-595,255	-200,000	-0,022	0,108
-594,240	800,000	-0,042	-0,106
-593,225	-200,000	-0,031	-0,101
-592,211	281,557	-0,128	-0,166
-591,196	-95,572	-0,073	0,014
-590,182	14,918	-0,089	0,050
-589,167	-1,238	0,088	-0,045
-588,152	-200,000	0,007	-0,087
-587,138	153,772	-0,049	-0,048
-586,123	37,229	-0,044	0,028
-585,109	-126,903	-0,096	-0,010
-584,094	800,000	-0,019	-0,060
-583,079	-55,159	0,155	0,050
-582,065	-200,000	-0,017	0,092
-581,050	192,276	0,069	-0,075
-580,036	3,201	-0,113	-0,059
-579,021	-156,765	0,151	0,007
-578,006	-71,293	-0,154	-0,041
-576,992	-53,522	-0,038	-0,013
-575,977	-4,587	0,044	0,022
-574,963	758,422	-0,096	0,188
-573,948	85,687	0,074	-0,058
-572,934	-74,477	0,070	0,018
-571,919	10,968	-0,010	-0,005
-570,904	152,969	-0,089	-0,088
-569,890	-8,831	-0,090	-0,043
-568,875	114,278	0,080	-0,070
-567,861	57,761	-0,044	-0,031
-566,846	-200,000	0,000	0,055
-565,831	214,924	0,073	0,084
-564,817	91,521	-0,108	-0,088
-563,802	-115,681	-0,182	-0,024
-562,788	-32,635	-0,138	0,055
-561,773	614,431	0,028	-0,050
-560,758	2,619	0,117	0,061
-559,744	-120,735	0,068	-0,008
-558,729	752,887	0,037	-0,073
-557,715	145,410	-0,031	-0,030
-556,700	448,425	-0,080	-0,128
-555,685	800,000	0,055	0,119
-554,671	174,894	-0,045	-0,047
-553,656	-101,294	-0,087	0,015
-552,642	-200,000	0,042	-0,156
-551,627	219,600	0,113	0,130
-550,612	347,475	-0,156	-0,222
-549,598	-115,269	-0,037	-0,005
-548,583	-104,091	-0,107	-0,018
-547,569	-200,000	0,001	-0,072
-546,554	-113,360	0,233	0,033
-545,539	502,749	0,094	0,157
-544,525	-100,909	0,120	0,021
-543,510	13,549	0,017	-0,009
-542,496	286,475	-0,064	-0,084
-541,481	800,000	-0,084	-0,204
-540,466	-200,000	-0,009	-0,111
-539,452	-200,000	-0,008	0,035
-538,437	85,862	0,070	0,056
-537,423	236,731	-0,022	-0,027
-536,408	-125,408	-0,041	-0,004
-535,393	800,000	0,032	-0,070
-534,379	-120,539	0,118	-0,014
-533,364	-22,969	-0,042	-0,018
-532,350	-36,649	0,054	-0,021
-531,335	800,000	-0,032	-0,077
-530,321	-14,984	0,110	-0,050
-529,306	-200,000	-0,002	0,046
-528,291	800,000	-0,025	-0,055
-527,277	106,656	-0,127	-0,109
-526,262	-200,000	0,005	-0,021
-525,248	-54,599	0,096	0,031
-524,233	-200,000	-0,009	0,164
-523,218	-69,076	0,058	0,016
-522,204	112,549	-0,041	-0,036
-521,189	-15,018	-0,052	0,024
-520,175	92,894	0,058	-0,047
-519,160	191,129	0,013	-0,014
-518,145	-111,788	-0,193	-0,028
-517,131	-30,979	0,259	0,105
-516,116	54,147	-0,023	0,016
-515,102	-200,000	-0,014	0,055
-514,087	92,899	-0,109	0,089
-513,072	245,174	0,057	-0,069
-512,058	-200,000	0,000	-0,094
-511,043	190,830	0,037	0,040
-510,029	800,000	-0,050	-0,102
-509,014	613,446	-0,072	-0,130
-507,999	92,707	-0,115	0,093
-506,985	-23,227	-0,087	0,037
-505,970	-200,000	0,000	0,027
-504,956	-100,806	-0,171	-0,030
-503,941	76,464	-0,085	-0,064
-502,926	91,462	-0,052	0,042
-501,912	24,156	0,075	0,044
-500,897	-200,000	-0,002	0,029
-499,883	16,205	-0,083	-0,047
-498,868	763,989	-0,037	-0,072
-497,853	56,287	-0,148	0,103
-496,839	60,255	-0,074	-0,052
-495,824	52,139	0,072	0,050
-494,810	800,000	-0,008	0,020
-493,795	20,739	0,070	-0,041
-492,781	-200,000	0,025	-0,113
-491,766	465,019	-0,029	0,047
-490,751	9,775	0,123	-0,067
-489,737	9,868	-0,142	-0,077
-488,722	456,984	0,038	-0,060
-487,708	800,000	0,030	-0,091
-486,693	266,730	0,133	0,168
-485,678	125,984	-0,035	0,032
-484,664	15,883	0,061	-0,034
-483,649	427,487	0,060	0,094
-482,635	-200,000	-0,029	0,137
-481,620	-200,000	0,011	0,112
-480,605	800,000	0,047	0,140
-479,591	255,862	0,083	-0,102
-478,576	-170,905	-0,159	-0,004
-477,562	800,000	-0,026	0,076
-476,547	594,688	-0,048	0,087
-475,532	-200,000	0,011	-0,047
-474,518	201,243	-0,081	0,089
-473,503	-200,000	-0,017	0,088
-472,489	800,000	-0,033	0,101
-471,474	114,467	-0,055	-0,048
-470,459	-200,000	-0,007	0,029
-469,445	-17,176	-0,068	-0,031
-468,430	-200,000	-0,021	-0,096
-467,416	-200,000	-0,004	-0,034
-466,401	-66,594	0,203	-0,057
-465,386	205,811	-0,006	0,006
-464,372	369,479	0,101	0,147
-463,357	-200,000	0,025	0,121
-462,343	-200,000	-0,018	0,073
-461,328	-64,675	-0,126	0,036
-460,313	-42,699	-0,083	0,030
-459,299	-24,919	0,132	0,056
-458,284	-9,018	0,173	0,083
-457,270	72,467	0,072	-0,054
-456,255	800,000	0,058	-0,140
-455,241	494,164	0,024	0,040
-454,226	-101,944	-0,081	0,014
-453,211	800,000	0,016	-0,033
-452,197	-9,010	0,121	0,058
-451,182	315,886	-0,121	0,164
-450,168	648,491	0,027	0,049
-449,153	-200,000	-0,004	-0,050
-448,138	-200,000	-0,005	-0,057
-447,124	5,076	-0,124	0,066
-446,109	800,000	0,030	0,092
-445,095	-200,000	-0,008	0,116
-444,080	-200,000	0,001	0,044
-443,065	4,021	0,126	-0,066
-442,051	20,246	-0,056	0,032
-441,036	-118,004	-0,111	0,014
-440,022	-200,000	-0,013	0,058
-439,007	6,620	0,033	-0,018
-437,992	800,000	-0,016	0,038
-436,978	234,754	0,058	0,069
-435,963	-83,020	-0,206	0,047
-434,949	401,556	-0,042	-0,064
-433,934	160,518	0,068	-0,068
-432,919	495,079	0,024	0,040
-431,905	609,595	0,084	0,152
-430,890	198,014	0,041	0,045
-429,876	607,661	-0,033	-0,059
-428,861	-200,000	-0,021	0,085
-427,846	160,707	0,015	-0,015
-426,832	-200,000	-0,001	-0,060
-425,817	800,000	-0,067	-0,143
-424,803	-26,997	0,076	0,032
-423,788	166,540	0,131	-0,133
-422,773	-65,864	-0,031	0,009
-421,759	113,320	-0,071	0,062
-420,744	800,000	0,024	-0,048
-419,730	800,000	-0,007	0,017
-418,715	-44,527	0,015	0,005
-417,701	800,000	0,026	0,066
-416,686	-29,906	0,119	0,048
-415,671	800,000	-0,009	-0,018
-414,657	800,000	0,033	0,085
-413,642	-121,966	-0,016	-0,002
-412,628	145,173	-0,071	-0,069
-411,613	773,364	-0,075	-0,148
-410,598	-200,000	-0,025	-0,088
-409,584	-200,000	-0,016	-0,084
-408,569	49,373	0,092	0,062
-407,555	800,000	0,037	0,096
-406,540	71,097	-0,120	0,089
-405,525	800,000	0,015	0,040
-404,511	-200,000	0,002	-0,009
-403,496	144,325	-0,118	-0,113
-402,482	-169,664	0,165	0,004
-401,467	-104,924	0,055	-0,009
-400,452	-43,825	-0,047	0,017
-399,438	105,486	-0,046	0,039
-398,423	-200,000	-0,000	-0,018
-397,409	800,000	-0,026	0,067
-396,394	-200,000	-0,018	-0,072
-395,379	800,000	-0,032	-0,092
-394,365	-108,352	-0,062	-0,010
-393,350	-200,000	0,005	0,080
-392,336	59,742	-0,029	0,020
-391,321	-200,000	0,008	0,062
-390,306	-21,421	-0,058	-0,025
-389,292	800,000	-0,014	-0,043
-388,277	-120,000	-0,043	-0,005
-387,263	-121,566	0,102	0,012
-386,248	-43,791	0,101	0,036
-385,233	-200,000	0,009	0,155
-384,219	-36,475	0,058	-0,022
-383,204	-200,000	-0,011	-0,094
-382,190	136,641	0,061	-0,057
-381,175	89,147	0,045	0,036
-380,160	26,102	0,061	0,037
-379,146	800,000	0,019	-0,052
-378,131	51,013	-0,058	-0,039
-377,117	-125,035	0,088	-0,010
-376,102	-47,971	0,006	-0,002
-375,088	-69,304	0,052	0,014
-374,073	-133,330	0,132	0,012
-373,058	-200,000	0,008	0,083
-372,044	-72,607	0,140	-0,037
-371,029	-136,724	0,120	-0,010
-370,015	266,675	0,024	-0,030
-369,000	-117,062	-0,156	-0,020
-367,985	173,612	0,117	-0,121
-366,971	800,000	0,024	0,054
-365,956	179,477	0,125	0,131
-364,942	38,719	-0,026	0,017
-363,927	267,545	0,125	0,156
-362,912	-200,000	0,017	0,084
-361,898	221,863	-0,108	-0,124
-360,883	537,811	-0,076	-0,129
-359,869	-200,000	0,042	-0,167
-358,854	-41,172	-0,070	-0,026
-357,839	-81,549	0,164	-0,038
-356,825	8,740	0,065	0,035
-355,810	1,583	0,108	-0,056
-354,796	-151,623	0,041	0,002
-353,781	-108,439	-0,054	0,008
-352,766	-200,000	-0,017	-0,151
-351,752	-74,693	-0,185	0,047
-350,737	34,513	0,196	-0,122
-349,723	439,463	-0,016	-0,024
-348,708	-33,482	0,055	0,022
-347,693	207,695	-0,049	0,055
-346,679	120,544	0,068	-0,060
-345,664	745,633	-0,048	-0,093
-344,650	136,298	-0,070	0,065
-343,635	167,874	0,045	0,046
-342,620	800,000	-0,041	0,083
-341,606	213,192	0,106	0,120
-340,591	462,514	-0,080	-0,128
-339,577	139,123	0,108	-0,101
-338,562	-200,000	0,023	-0,100
-337,548	12,339	0,074	-0,041
-336,533	497,850	-0,032	0,052
-335,518	678,898	0,042	0,078
-334,504	-200,000	-0,037	0,126
-333,489	-80,116	-0,092	0,022
-332,475	800,000	-0,058	-0,117
-331,460	-79,211	0,135	-0,033
-330,445	800,000	0,035	-0,070
-329,431	385,445	0,059	0,088
-328,416	13,235	-0,055	-0,030
-327,402	-200,000	-0,010	0,096
-326,387	-103,936	0,068	-0,011
-325,372	800,000	0,034	-0,091
-324,358	23,986	-0,071	0,042
-323,343	66,457	0,058	0,042
-322,329	-163,668	0,070	-0,002
-321,314	-15,415	0,076	-0,034
-320,299	271,919	-0,091	-0,115
-319,285	-200,000	0,000	0,042
-318,270	59,991	-0,104	-0,073
-317,256	186,994	-0,078	-0,083
-316,241	151,733	0,082	-0,080
-315,226	-200,000	0,025	0,081
-314,212	-21,387	0,045	0,020
-313,197	-200,000	-0,014	-0,053
-312,183	-7,916	-0,056	0,027
-311,168	-200,000	-0,016	-0,060
-310,153	77,294	0,168	-0,127
-309,139	-62,264	-0,091	0,027
-308,124	-200,000	-0,008	-0,064
-307,110	46,621	0,125	0,083
-306,095	-200,000	-0,018	0,111
-305,080	-200,000	-0,026	-0,083
-304,066	800,000	-0,033	0,093
-303,051	-136,310	-0,096	0,008
-302,037	9,294	0,096	0,052
-301,022	-200,000	-0,036	-0,149
-300,008	216,573	0,019	0,021
-298,993	3,060	0,124	0,064
-297,978	53,047	-0,081	-0,056
-296,964	402,849	-0,047	0,071
-295,949	-170,197	-0,067	-0,002
-294,935	206,991	-0,124	-0,139
-293,920	-200,000	0,005	0,027
-292,905	659,514	0,076	0,140
-291,891	4,158	-0,115	0,060
-290,876	-200,000	-0,001	0,180
-289,862	80,350	-0,096	0,074
-288,847	-200,000	-0,039	-0,130
-287,832	-200,000	0,030	-0,114
-286,818	-115,107	0,057	-0,008
-285,803	-200,000	-0,011	0,052
-284,789	-200,000	-0,008	-0,099
-283,774	-132,934	0,088	0,008
-282,759	503,402	-0,081	-0,134
-281,745	67,859	-0,103	-0,075
-280,730	31,034	-0,109	0,067
-279,716	671,100	-0,021	0,038
-278,701	800,000	0,044	-0,098
-277,686	280,822	-0,021	0,027
-276,672	308,129	-0,067	0,090
-275,657	537,284	0,033	-0,056
-274,643	-200,000	-0,011	-0,039
-273,628	-200,000	-0,026	-0,226
-272,613	-19,631	-0,060	-0,026
-271,599	-134,898	0,047	-0,004
-270,584	448,450	0,058	0,091
-269,570	-200,000	-0,006	0,030
-268,555	15,797	0,067	0,037
-267,540	800,000	-0,004	0,009
-266,526	212,568	-0,024	0,027
-265,511	-200,000	-0,015	0,064
-264,497	800,000	-0,010	-0,025
-263,482	46,218	-0,044	0,029
-262,467	228,745	0,118	0,138
-261,453	-200,000	-0,014	0,061
-260,438	43,972	-0,101	-0,066
-259,424	348,777	-0,042	-0,060
-258,409	6,634	0,083	-0,044
-257,395	-164,401	-0,100	0,003
-256,380	8,099	0,059	0,032
-255,365	505,815	0,100	0,166
-254,351	-200,000	-0,002	-0,040
-253,336	-106,586	0,267	-0,042
-252,322	-142,177	0,053	-0,004
-251,307	11,800	0,095	-0,052
-250,292	170,593	0,048	0,049
-249,278	52,198	0,065	0,044
-248,263	377,119	0,086	-0,126
-247,249	272,289	-0,061	-0,077
-246,234	-112,492	0,022	-0,003
-245,219	79,783	-0,176	-0,135
-244,205	-88,015	-0,077	0,016
-243,190	137,125	-0,009	-0,008
-242,176	-200,000	-0,015	-0,079
-241,161	-200,000	0,027	0,121
-240,146	195,078	-0,066	0,071
-239,132	-73,324	0,162	-0,042
-238,117	800,000	-0,031	-0,095
-237,103	153,517	0,106	-0,103
-236,088	800,000	0,056	0,148
-235,073	-200,000	0,018	-0,061
-234,059	130,134	0,162	-0,148
-233,044	-86,747	0,041	0,009
-232,030	390,738	0,022	0,033
-231,015	524,176	0,021	-0,034
-230,000	346,166	-0,103	-0,144
-228,986	140,985	-0,064	0,060
-227,971	237,180	-0,021	0,025
-226,957	-40,564	0,136	0,050
-225,942	154,519	-0,077	0,075
-224,927	117,648	0,099	-0,087
-223,913	-126,217	-0,057	-0,006
-222,898	-1,018	0,107	-0,054
-221,884	529,602	0,009	-0,015
-220,869	657,511	-0,071	0,130
-219,855	-200,000	0,023	0,191
-218,840	11,487	-0,120	0,065
-217,825	800,000	0,026	0,062
-216,811	-200,000	-0,019	0,083
-215,796	-60,889	0,044	0,013
-214,782	-106,719	0,049	-0,008
-213,767	-200,000	0,004	-0,017
-212,752	-200,000	0,021	0,085
-211,738	-200,000	0,002	-0,006
-210,723	-200,000	-0,017	0,069
-209,709	-142,395	-0,089	-0,006
-208,694	34,167	0,171	-0,106
-207,679	566,791	-0,041	0,071
-206,665	198,468	-0,092	-0,100
-205,650	-200,000	-0,015	0,106
-204,636	800,000	-0,012	0,026
-203,621	212,239	0,019	0,021
-202,606	-200,000	-0,008	0,030
-201,592	299,129	-0,023	-0,030
-200,577	352,332	-0,053	-0,075
-199,563	349,543	0,075	0,106
-198,548	-19,812	0,112	-0,049
-197,533	-200,000	0,108	-0,000
-196,519	392,542	-0,059	0,088
-195,504	258,426	-0,017	0,021
-194,490	697,407	0,038	0,071
-193,475	-59,112	-0,110	-0,033
-192,460	-107,310	0,051	0,008
-191,446	800,000	-0,079	0,199
-190,431	-68,519	0,082	0,022
-189,417	-200,000	0,058	0,000
-188,402	63,891	-0,071	-0,051
-187,387	26,989	-0,023	-0,013
-186,373	-159,073	-0,048	-0,002
-185,358	-99,197	0,067	-0,012
-184,344	-166,094	-0,057	0,002
-183,329	44,369	-0,031	-0,020
-182,315	421,246	0,081	0,124
-181,300	-102,479	-0,008	-0,001
-180,285	0,395	0,095	0,048
-179,271	-5,070	-0,058	0,028
-178,256	-94,450	-0,045	0,009
-177,242	11,381	0,049	-0,027
-176,227	234,396	0,058	0,069
-175,212	-156,030	0,146	0,006
-174,198	104,803	-0,065	0,055
-173,183	-39,077	-0,038	0,014
-172,169	-20,080	0,055	-0,024
-171,154	570,951	-0,071	-0,123
-170,139	800,000	-0,032	0,069
-169,125	-200,000	-0,003	0,103
-168,110	40,909	0,043	0,028
-167,096	-43,572	-0,127	0,045
-166,081	800,000	-0,044	0,100
-165,066	10,407	-0,039	0,021
-164,052	-49,773	0,015	0,005
-163,037	800,000	-0,076	0,194
-162,023	800,000	0,033	-0,068
-161,008	-84,656	0,073	0,016
-159,993	-5,056	0,099	0,048
-158,979	182,222	0,022	0,023
-157,964	-9,488	0,135	-0,064
-156,950	-40,617	0,100	-0,037
-155,935	-140,074	-0,024	0,002
-154,920	-200,000	-0,022	-0,100
-153,906	-200,000	0,000	-0,020
-152,891	-95,834	0,073	0,014
-151,877	334,931	-0,095	-0,131
-150,862	-200,000	0,008	-0,113
-149,847	-200,000	-0,028	0,118
-148,833	-200,000	-0,014	-0,044
-147,818	-200,000	-0,002	0,070
-146,804	761,433	0,034	0,066
-145,789	788,917	-0,045	-0,089
-144,775	451,852	-0,071	-0,111
-143,760	800,000	-0,031	-0,081
-142,745	457,861	-0,024	-0,038
-141,731	-85,269	-0,094	0,021
-140,716	42,326	0,044	0,028
-139,702	-200,000	-0,016	0,149
-138,687	-111,044	0,055	0,008
-137,672	587,166	-0,058	0,102
-136,658	800,000	-0,044	0,132
-135,643	16,737	-0,160	-0,090
-134,629	324,500	0,123	-0,167
-133,614	-200,000	0,006	0,034
-132,599	-135,095	0,144	0,012
-131,585	162,961	0,013	0,013
-130,570	282,370	0,056	0,072
-129,556	-80,260	-0,126	-0,030
-128,541	110,377	0,129	-0,110
-127,526	-200,000	-0,005	0,063
-126,512	-200,000	0,016	0,090
-125,497	75,280	0,089	0,066
-124,483	96,669	-0,034	0,028
-123,468	-200,000	0,021	0,250
-122,453	-67,013	-0,078	0,022
-121,439	-39,328	-0,064	-0,024
-120,424	-90,024	-0,027	0,006
-119,410	68,631	0,104	-0,075
-118,395	532,255	-0,025	0,042
-117,380	-200,000	-0,003	-0,064
-116,366	800,000	-0,036	-0,077
-115,351	399,941	0,027	0,041
-114,337	61,037	0,189	0,133
-113,322	-200,000	-0,019	0,159
-112,307	-200,000	0,004	-0,045
-111,293	800,000	0,024	0,053
-110,278	-58,269	0,055	-0,017
-109,264	569,331	0,018	0,031
-108,249	-115,773	-0,129	-0,017
-107,234	800,000	-0,019	0,039
-106,220	-147,583	0,144	-0,008
-105,205	54,832	0,036	-0,025
-104,191	249,825	-0,004	-0,005
-103,176	-200,000	0,019	0,092
-102,162	800,000	0,037	0,080
-101,147	9,645	0,102	-0,055
-100,132	-71,004	-0,171	-0,045
-99,118	669,006	0,027	0,051
-98,103	-200,000	0,004	-0,014
-97,089	-116,118	0,133	0,017
-96,074	424,903	-0,059	0,090
-95,059	18,937	0,122	0,069
-94,045	25,722	-0,047	0,027
-93,030	151,370	-0,054	-0,052
-92,016	-200,000	-0,008	-0,037
-91,001	800,000	-0,078	-0,230
-89,986	14,816	0,126	0,069
-88,972	80,991	-0,129	0,099
-87,957	-200,000	0,010	0,112
-86,943	-106,390	0,118	-0,019
-85,928	285,174	-0,091	-0,116
-84,913	-200,000	-0,005	-0,040
-83,899	-94,720	0,104	0,020
-82,884	-105,573	0,099	-0,016
-81,870	78,809	0,016	-0,012
-80,855	-54,025	0,088	0,028
-79,840	275,695	-0,020	-0,025
-78,826	86,270	0,080	-0,062
-77,811	41,839	-0,061	-0,039
-76,797	643,223	0,007	0,013
-75,782	-54,718	0,125	0,040
-74,767	-79,603	0,069	0,016
-73,753	171,353	0,083	0,085
-72,738	-94,354	-0,059	-0,011
-71,724	147,550	-0,099	0,095
-70,709	-69,509	0,064	0,017
-69,694	-200,000	0,038	0,130
-68,680	-125,607	0,048	0,005
-67,665	-172,106	0,082	-0,002
-66,651	331,041	0,075	0,102
-65,636	800,000	-0,023	-0,062
-64,622	-13,514	-0,086	0,039
-63,607	148,432	-0,084	-0,080
-62,592	-56,488	-0,037	0,012
-61,578	174,621	0,021	-0,021
-60,563	0,497	0,146	0,074
-59,549	502,971	-0,103	0,169
-58,534	-1,544	-1,772	-0,880
-57,519	455,578	-1,327	-2,088
-56,505	-200,000	-0,552	-4,614
-55,490	356,077	1,029	1,453
-54,476	800,000	4,996	11,118
-53,461	-200,000	20,230	323,723
-52,446	800,000	752,871	2310,723
-51,432	548,092	1663,460	2827,239
-50,417	74,659	1671,683	1242,090
-49,403	19,867	1544,748	877,574
-48,388	13,889	1467,247	804,457
-47,373	18,380	1457,224	820,624
-46,359	16,278	1446,890	804,700
-45,344	12,216	1442,297	782,661
-44,330	12,083	1440,469	781,003
-43,315	12,085	1438,658	779,998
-42,300	12,088	1437,110	779,146
-41,286	12,102	1435,796	778,467
-40,271	12,097	1434,435	777,673
-39,257	12,074	1433,171	776,849
-38,242	12,132	1432,005	776,462
-37,227	12,126	1430,942	775,824
-36,213	12,091	1429,743	774,976
-35,198	12,140	1428,509	774,513
-34,184	12,171	1427,509	774,088
-33,169	12,134	1425,768	772,937
-32,154	12,177	1424,892	772,634
-31,140	12,163	1423,661	771,871
-30,125	12,204	1422,610	771,463
-29,111	12,161	1421,387	770,568
-28,096	12,140	1420,189	769,788
-27,082	12,081	1419,085	768,881
-26,067	12,065	1418,145	768,262
-25,052	12,063	1417,013	767,611
-24,038	12,059	1416,038	767,034
-23,023	12,044	1415,086	766,419
-22,009	12,056	1414,016	765,861
-20,994	12,044	1413,019	765,237
-19,979	12,007	1412,176	764,578
-18,965	12,031	1411,271	764,168
-17,950	12,040	1410,499	763,763
-16,936	12,071	1409,332	763,246
-15,921	11,961	1408,464	762,231
-14,906	11,954	1407,735	761,771
-13,892	11,989	1406,740	761,370
-12,877	11,964	1405,759	760,689
-11,863	11,987	1404,899	760,303
-10,848	11,889	1404,019	759,340
-9,833	11,934	1403,021	758,976
-8,819	11,906	1402,236	758,394
-7,804	11,875	1401,383	757,756
-6,790	11,887	1400,285	757,187
-5,775	11,897	1399,241	756,642
-4,760	11,891	1398,414	756,137
-3,746	11,876	1397,403	755,490
-2,731	11,864	1396,557	754,946
-1,717	11,882	1395,655	754,513
-0,702	11,867	1394,110	753,577
0,313	15,850	1308,832	725,864
1,327	32,233	699,102	425,321
2,342	49,995	121,833	81,082
3,356	2,246	16,465	8,382
4,371	9,563	3,251	1,734
5,386	-59,017	0,736	0,223
6,400	800,000	0,095	0,268
7,415	170,776	-0,175	-0,178
8,429	-3,656	-0,368	-0,180
9,444	3,789	-0,414	-0,213
10,459	-15,200	-0,171	-0,077
11,473	-175,673	-0,214	0,004
12,488	-122,611	-0,283	-0,032
13,502	-164,816	-0,333	0,010
14,517	-78,983	-0,217	-0,052
15,531	-59,383	-0,443	-0,134
16,546	242,361	-0,333	-0,394
17,561	184,058	-0,279	-0,291
18,575	303,131	-0,143	-0,187
19,590	-101,759	-0,248	-0,042
20,604	-63,582	-0,213	-0,061
21,619	110,465	-0,375	-0,318
22,634	160,685	-0,372	-0,367
23,648	228,297	-0,327	-0,376
24,663	68,288	-0,339	-0,244
25,677	14,587	-0,276	-0,151
26,692	145,079	-0,283	-0,267
27,707	252,163	-0,208	-0,251
28,721	-12,079	-0,348	-0,160
29,736	237,284	-0,281	-0,329
30,750	-22,956	-0,455	-0,192
31,765	101,437	-0,430	-0,353
32,780	106,193	-0,263	-0,220
33,794	48,204	-0,301	-0,198
34,809	-10,157	-0,434	-0,202
35,823	-71,248	-0,486	-0,128
36,838	129,285	-0,348	-0,313
37,853	288,926	-0,303	-0,388
38,867	151,015	-0,335	-0,321
39,882	82,604	-0,436	-0,333
40,896	64,041	-0,307	-0,217
41,911	28,755	-0,255	-0,152
42,926	-96,611	-0,350	-0,064
43,940	105,086	-0,403	-0,334
44,955	13,700	-0,338	-0,184
45,969	238,519	-0,227	-0,266
46,984	39,123	-0,341	-0,214
47,999	40,380	-0,309	-0,195
49,013	274,654	-0,226	-0,282
50,028	60,120	-0,356	-0,247
51,042	-35,036	-0,385	-0,147
52,057	63,644	-0,434	-0,306
53,071	37,465	-0,404	-0,252
54,086	321,596	-0,242	-0,325
55,101	44,900	-0,365	-0,236
56,115	157,084	-0,267	-0,259
57,130	4,220	-0,416	-0,213
58,144	37,302	-0,395	-0,246
59,159	183,781	-0,394	-0,410
60,174	160,047	-0,300	-0,294
61,188	40,223	-0,390	-0,246
62,203	52,346	-0,431	-0,289
63,217	62,495	-0,283	-0,198
64,232	-58,762	-0,393	-0,119
65,247	140,750	-0,380	-0,352
66,261	124,966	-0,381	-0,337
67,276	20,544	-0,340	-0,193
68,290	87,176	-0,427	-0,331
69,305	222,425	-0,252	-0,285
70,320	214,147	-0,274	-0,305
71,334	172,755	-0,248	-0,251
72,349	11,812	-0,354	-0,191
73,363	-22,602	-0,388	-0,164
74,378	-74,369	-0,292	-0,073
75,393	188,964	-0,364	-0,383
76,407	70,586	-0,238	-0,172
77,422	292,147	-0,218	-0,280
78,436	110,144	-0,339	-0,285
79,451	-32,894	-0,369	-0,143
80,466	-20,279	-0,331	-0,142
81,480	14,140	-0,352	-0,192
82,495	247,310	-0,272	-0,323
83,509	45,710	-0,350	-0,227
84,524	137,309	-0,243	-0,223
85,539	-180,505	-0,293	-0,004
86,553	-61,171	-0,311	-0,091
87,568	-66,913	-0,381	-0,105
88,582	280,050	-0,277	-0,348
89,597	-30,217	-0,347	-0,138
90,611	231,434	-0,186	-0,215
91,626	-72,598	-0,215	-0,055
92,641	31,491	-0,349	-0,210
93,655	64,858	-0,269	-0,190
94,670	136,676	-0,317	-0,290
95,684	-35,968	-0,281	-0,106
96,699	-89,672	-0,304	-0,062
97,714	45,155	-0,367	-0,236
98,728	88,413	-0,254	-0,197
99,743	127,688	-0,321	-0,286
100,757	60,900	-0,297	-0,206
101,772	156,492	-0,248	-0,240
102,787	69,846	-0,366	-0,264
103,801	94,144	-0,255	-0,203
104,816	284,824	-0,220	-0,278
105,830	50,371	-0,260	-0,172
106,845	-18,893	-0,289	-0,125
107,860	-32,991	-0,205	-0,079
108,874	-7,598	-0,323	-0,152
109,889	122,562	-0,324	-0,284
110,903	146,795	-0,225	-0,211
111,918	85,191	-0,303	-0,232
112,933	36,938	-0,279	-0,172
113,947	-8,287	-0,156	-0,073
114,962	17,420	-0,248	-0,137
115,976	254,283	-0,241	-0,288
116,991	-9,864	-0,376	-0,174
118,006	107,754	-0,239	-0,199
119,020	70,067	-0,320	-0,231
120,035	552,143	-0,138	-0,232
121,049	26,978	-0,208	-0,122
122,064	769,386	-0,161	-0,308
123,079	320,457	-0,211	-0,281
124,093	74,311	-0,235	-0,172
125,108	268,543	-0,258	-0,317
126,122	48,186	-0,220	-0,144
127,137	184,756	-0,182	-0,189
128,151	-38,433	-0,212	-0,078
129,166	214,329	-0,176	-0,195
130,181	174,212	-0,248	-0,250
131,195	18,520	-0,354	-0,197
132,210	-33,840	-0,193	-0,074
133,224	257,221	-0,209	-0,252
134,239	52,129	-0,180	-0,119
135,254	113,773	-0,204	-0,173
136,268	800,000	-0,072	-0,140
137,283	800,000	-0,118	-0,270
138,297	110,509	-0,218	-0,183
139,312	62,780	-0,265	-0,185
140,327	124,544	-0,210	-0,184
141,341	155,942	-0,200	-0,192
142,356	-76,656	-0,260	-0,063
143,370	-57,882	-0,248	-0,075
144,385	22,944	-0,218	-0,125
145,400	112,160	-0,223	-0,188
146,414	-45,372	-0,408	-0,140
147,429	-46,548	-0,290	-0,098
148,443	-44,190	-0,308	-0,107
149,458	148,277	-0,220	-0,207
150,473	172,676	-0,232	-0,234
151,487	349,112	-0,102	-0,141
152,502	22,123	-0,187	-0,106
153,516	-38,287	-0,240	-0,088
154,531	-39,315	-0,235	-0,085
155,546	-5,989	-0,339	-0,161
156,560	175,794	-0,224	-0,227
157,575	-60,317	-0,256	-0,076
158,589	-56,951	-0,290	-0,089
159,604	71,331	-0,262	-0,189
160,619	-143,151	-0,334	-0,022
161,633	10,866	-0,265	-0,140
162,648	45,780	-0,229	-0,147
163,662	-43,358	-0,145	-0,051
164,677	-189,180	-0,156	0,001
165,692	5,352	-0,179	-0,092
166,706	123,383	-0,216	-0,188
167,721	94,658	-0,321	-0,254
168,735	243,327	-0,153	-0,179
169,750	-26,792	-0,242	-0,098
170,764	134,898	-0,080	-0,073
171,779	-16,245	-0,167	-0,073
172,794	758,970	-0,088	-0,166
173,808	131,307	-0,228	-0,204
174,823	61,301	-0,310	-0,214
175,837	800,000	-0,089	-0,178
176,852	17,131	-0,293	-0,161
177,867	322,747	-0,096	-0,128
178,881	-57,273	-0,235	-0,071
179,896	62,556	-0,159	-0,111
180,910	204,055	-0,278	-0,300
181,925	724,817	-0,139	-0,258
182,940	30,641	-0,285	-0,169
183,954	242,331	-0,227	-0,265
184,969	625,028	-0,136	-0,239
185,983	-21,816	-0,210	-0,089
186,998	46,901	-0,250	-0,161
188,013	197,561	-0,249	-0,264
189,027	302,913	-0,132	-0,170
190,042	225,494	-0,152	-0,172
191,056	257,338	-0,154	-0,184
192,071	168,311	-0,187	-0,186
193,086	-12,916	-0,281	-0,126
194,100	41,999	-0,132	-0,083
195,115	-109,987	-0,146	0,021
196,129	-3,321	-0,266	-0,128
197,144	462,425	-0,172	-0,267
198,159	-93,994	-0,299	-0,056
199,173	-141,034	-0,192	0,013
200,188	-15,479	-0,234	0,103
201,202	178,255	-0,173	-0,176
202,217	620,458	-0,129	-0,227
203,232	-122,277	-0,184	0,021
204,246	-10,336	-0,241	-0,111
205,261	-101,689	-0,159	-0,026
206,275	355,854	-0,102	-0,141
207,290	191,175	-0,124	-0,130
208,304	142,841	-0,086	-0,079
209,319	71,198	-0,147	-0,106
210,334	178,657	-0,139	-0,141
211,348	173,066	-0,114	-0,114
212,363	401,595	-0,168	-0,245
213,377	122,924	-0,199	-0,173
214,392	217,303	-0,147	-0,162
215,407	84,967	-0,140	-0,106
216,421	120,077	-0,198	-0,170
217,436	761,390	-0,133	-0,252
218,450	-12,504	-0,234	-0,106
219,465	34,019	-0,287	-0,173
220,480	13,583	-0,358	-0,192
221,494	-92,000	-0,123	-0,024
222,509	800,000	-0,061	-0,138
223,523	-112,198	-0,201	-0,028
224,538	139,873	-0,126	-0,115
225,553	57,662	-0,330	-0,223
226,567	-24,718	-0,263	-0,108
227,582	-128,985	-0,252	-0,024
228,596	800,000	-0,102	-0,205
229,611	-2,041	-0,164	-0,079
230,626	-63,573	-0,124	-0,035
231,640	800,000	-0,059	-0,181
232,655	1,967	-0,233	-0,116
233,669	24,077	-0,203	-0,116
234,684	134,130	-0,205	-0,184
235,699	138,277	-0,173	-0,157
236,713	19,133	-0,228	-0,126
237,728	-200,000	-0,013	-0,117
238,742	79,518	-0,307	-0,228
239,757	-29,336	-0,166	-0,066
240,772	-67,170	-0,246	-0,067
241,786	-38,482	-0,283	-0,103
242,801	459,754	-0,130	-0,201
243,815	800,000	-0,070	-0,176
244,830	245,282	-0,107	-0,125
245,844	133,848	-0,151	-0,135
246,859	-59,740	-0,204	-0,060
247,874	160,507	-0,253	-0,244
248,888	-7,371	-0,224	-0,105
249,903	16,517	-0,193	-0,105
250,917	294,073	-0,156	-0,198
251,932	-200,000	0,002	-0,126
252,947	800,000	-0,056	-0,152
253,961	-82,384	-0,203	-0,045
254,976	11,923	-0,266	-0,141
255,990	515,261	-0,078	-0,126
257,005	-117,006	-0,152	-0,019
258,020	-200,000	-0,023	-0,171
259,034	124,555	-0,117	-0,102
260,049	-200,000	-0,003	-0,066
261,063	11,527	-0,260	-0,137
262,078	307,923	-0,158	-0,204
263,093	560,539	-0,209	-0,349
264,107	483,279	-0,129	-0,204
265,122	449,286	-0,089	-0,136
266,136	62,787	-0,165	-0,114
267,151	800,000	-0,111	-0,299
268,166	108,036	-0,159	-0,131
269,180	-200,000	-0,059	-0,200
270,195	21,369	-0,244	-0,136
271,209	-62,178	-0,217	-0,062
272,224	66,848	-0,089	-0,063
273,239	107,525	-0,135	-0,111
274,253	-99,086	-0,196	-0,034
275,268	139,187	-0,199	-0,180
276,282	84,035	-0,162	-0,122
277,297	115,302	-0,171	-0,144
278,312	-81,794	-0,238	-0,053
279,326	-34,048	-0,032	0,012
280,341	-67,132	-0,147	-0,040
281,355	-200,000	0,010	-0,117
282,370	241,308	-0,089	-0,102
283,384	84,769	-0,212	-0,160
284,399	110,568	-0,155	-0,129
285,414	-17,052	-0,136	-0,059
286,428	-132,870	-0,218	0,019
287,443	-200,000	0,016	-0,114
288,457	401,541	-0,091	-0,132
289,472	99,678	-0,174	-0,139
290,487	-16,516	-0,311	-0,135
291,501	24,168	-0,100	-0,056
292,516	800,000	-0,064	-0,135
293,530	-17,451	-0,183	-0,079
294,545	-185,566	-0,269	-0,003
295,560	90,920	-0,152	-0,117
296,574	-57,394	-0,172	-0,052
297,589	134,659	-0,192	-0,172
298,603	155,254	-0,069	-0,065
299,618	127,510	-0,144	-0,126
300,633	-40,667	-0,153	-0,054
301,647	-83,042	-0,116	0,025
302,662	800,000	-0,018	0,042
303,676	325,311	-0,170	-0,225
304,691	800,000	-0,114	-0,306
305,706	19,315	-0,287	-0,158
306,720	217,806	-0,139	-0,153
307,735	355,827	-0,131	-0,179
308,749	41,445	-0,122	-0,076
309,764	8,199	-0,112	-0,058
310,779	54,717	-0,146	-0,097
311,793	52,946	-0,204	0,134
312,808	800,000	-0,023	-0,062
313,822	308,865	-0,133	-0,171
314,837	78,427	-0,150	-0,110
315,852	146,003	-0,075	-0,069
316,866	800,000	-0,025	-0,052
317,881	-35,163	-0,097	0,036
318,895	-196,021	-0,107	0,001
319,910	-60,713	-0,225	0,065
320,925	188,496	-0,207	-0,213
321,939	-87,737	-0,130	-0,027
322,954	-200,000	-0,024	-0,082
323,968	-54,931	-0,135	-0,042
324,983	-18,583	-0,092	-0,039
325,997	-8,632	-0,235	-0,108
327,012	-138,851	-0,165	-0,012
328,027	-36,097	-0,136	-0,050
329,041	455,821	-0,107	-0,164
330,056	-200,000	-0,063	-0,213
331,070	145,330	-0,070	-0,064
332,085	162,377	-0,126	-0,122
333,100	-8,182	-0,104	-0,048
334,114	800,000	-0,057	-0,125
335,129	-10,618	-0,140	-0,063
336,143	59,580	-0,074	-0,050
337,158	38,999	-0,036	0,022
338,173	800,000	-0,071	-0,214
339,187	173,920	-0,077	-0,076
340,202	-27,858	-0,176	-0,070
341,216	-63,861	-0,302	-0,084
342,231	-65,111	-0,148	-0,041
343,246	171,042	-0,206	-0,203
344,260	353,422	-0,078	-0,107
345,275	-58,762	-0,149	-0,044
346,289	800,000	-0,068	-0,175
347,304	449,528	-0,103	-0,157
348,319	-99,389	-0,080	0,014
349,333	-200,000	-0,036	-0,152
350,348	800,000	-0,064	-0,165
351,362	736,492	-0,038	0,071
352,377	-80,050	-0,117	-0,027
353,392	247,283	-0,071	-0,082
354,406	-37,170	-0,084	-0,031
355,421	207,780	1314,619	1407,925
356,435	159,846	1475,308	1408,381
