DTS Sentinel unit serial number:	SN410029Multiplexer serial number:	ORYXHardware model number:	OX2-SRSoftware version number:	ORYX F/W v4,00 Oryx Data Collector v3.7.2.0data status	okinstallation	B3 Nyhavnadifferential loss correction	single-endedforward channel	channel 1reverse channel	N/Adate	2023/12/02time	14:17:30forward acquisition time	300,00reverse acquisition time	0,00gamma	499,1914k internal	0,3198k external	0,3198temperature offset calibration	1,0000default loss term (dB/km)	0,3820temperature slope calibration	1,0000multiplexer offset coefficient	1,0000multiplexer slope coefficient	1,0000fibre end	0,00T internal ref (°C)	14,89T ext. ref 1 (°C)	0,14T ext. ref 2 (°C)	0,16length (m)	temperature (°C)	Stokes	anti-Stokes-744,400	180,607	-0,187	-0,200
-743,385	-200,000	0,038	0,277
-742,371	218,748	-0,158	-0,184
-741,356	-200,000	0,069	0,251
-740,342	152,870	-0,158	-0,157
-739,327	-200,000	0,064	0,314
-738,312	688,689	-0,104	-0,199
-737,298	550,937	0,141	0,247
-736,283	110,989	-0,219	-0,192
-735,269	-200,000	0,014	0,384
-734,254	68,584	-0,154	-0,115
-733,239	554,657	-0,100	0,176
-732,225	-200,000	-0,082	-0,303
-731,210	800,000	0,087	0,202
-730,196	225,665	0,033	0,039
-729,181	-200,000	0,017	0,142
-728,167	-200,000	-0,005	-0,067
-727,152	-90,076	-0,133	0,028
-726,137	-99,334	0,037	0,007
-725,123	-200,000	-0,013	-0,146
-724,108	-131,643	-0,146	-0,014
-723,094	214,253	-0,085	-0,098
-722,079	800,000	-0,035	-0,094
-721,064	6,809	-0,096	-0,052
-720,050	800,000	0,041	-0,124
-719,035	-127,151	0,062	0,007
-718,021	-200,000	-0,017	0,072
-717,006	800,000	-0,066	-0,156
-715,991	-40,324	-0,056	0,021
-714,977	419,201	-0,081	-0,127
-713,962	90,341	-0,031	-0,025
-712,948	-200,000	-0,007	-0,100
-711,933	-200,000	-0,005	0,065
-710,918	-89,353	-0,061	0,013
-709,904	6,396	-0,056	-0,030
-708,889	800,000	-0,017	-0,052
-707,875	28,770	0,113	-0,070
-706,860	-200,000	0,011	-0,069
-705,845	-200,000	-0,018	0,143
-704,831	186,559	0,098	0,106
-703,816	-21,500	-0,010	-0,005
-702,802	271,467	0,053	-0,068
-701,787	800,000	0,033	-0,072
-700,772	237,773	-0,145	-0,176
-699,758	171,658	0,080	0,084
-698,743	-124,153	0,132	-0,015
-697,729	105,034	0,096	-0,082
-696,714	630,058	0,041	0,075
-695,699	-200,000	-0,009	-0,191
-694,685	800,000	0,036	-0,086
-693,670	190,737	0,050	0,054
-692,656	121,931	0,052	0,047
-691,641	204,309	-0,015	0,017
-690,627	-35,544	0,066	-0,026
-689,612	501,497	-0,003	0,005
-688,597	4,605	-0,077	0,041
-687,583	-82,126	-0,119	-0,028
-686,568	-200,000	0,021	-0,086
-685,554	277,251	-0,033	0,043
-684,539	-111,947	0,090	0,013
-683,524	-149,079	0,115	0,007
-682,510	-15,182	0,090	0,042
-681,495	-26,388	0,118	-0,050
-680,481	800,000	-0,049	-0,152
-679,466	-200,000	-0,001	-0,019
-678,451	800,000	-0,042	-0,114
-677,437	-200,000	-0,013	-0,078
-676,422	-112,433	0,034	-0,005
-675,408	-77,355	-0,165	0,041
-674,393	42,408	0,077	-0,051
-673,378	26,532	-0,069	-0,042
-672,364	6,525	-0,064	-0,034
-671,349	19,318	-0,027	0,016
-670,335	617,831	0,060	0,110
-669,320	-0,336	0,130	0,067
-668,305	-200,000	0,025	0,101
-667,291	138,898	0,059	-0,057
-666,276	-200,000	0,005	0,061
-665,262	75,608	-0,101	0,078
-664,247	-200,000	-0,011	0,082
-663,232	76,854	0,079	0,061
-662,218	-200,000	0,002	0,027
-661,203	170,908	0,113	-0,117
-660,189	-200,000	0,009	-0,088
-659,174	-150,033	-0,132	-0,007
-658,159	800,000	-0,016	-0,041
-657,145	182,482	-0,028	0,029
-656,130	800,000	0,022	-0,068
-655,116	-200,000	-0,002	0,026
-654,101	81,897	0,124	0,098
-653,086	140,352	0,057	-0,054
-652,072	-200,000	0,028	0,126
-651,057	-147,917	-0,109	-0,006
-650,043	498,668	-0,063	-0,106
-649,028	-157,630	-0,102	0,004
-648,014	398,121	0,037	-0,057
-646,999	352,918	0,068	-0,098
-645,984	90,483	-0,010	0,008
-644,970	-177,852	-0,185	0,003
-643,955	7,162	-0,150	-0,081
-642,941	93,174	-0,129	-0,106
-641,926	26,065	0,165	0,100
-640,911	125,416	0,057	0,052
-639,897	-200,000	0,001	-0,072
-638,882	-72,177	0,144	0,038
-637,868	800,000	0,019	-0,052
-636,853	581,037	-0,040	-0,072
-635,838	-200,000	-0,025	-0,180
-634,824	131,808	-0,137	-0,128
-633,809	33,738	0,022	-0,014
-632,795	-102,395	0,134	0,023
-631,780	-71,665	-0,033	-0,009
-630,765	215,999	0,111	0,128
-629,751	800,000	-0,036	-0,082
-628,736	-199,698	-0,095	0,000
-627,722	-43,072	0,054	-0,020
-626,707	-200,000	-0,025	-0,133
-625,692	-102,246	0,040	0,007
-624,678	-8,931	-0,138	0,067
-623,663	800,000	-0,023	0,073
-622,649	98,955	-0,023	-0,019
-621,634	68,460	-0,151	-0,112
-620,619	582,974	0,045	0,080
-619,605	-171,657	0,072	-0,002
-618,590	376,034	0,017	0,026
-617,576	800,000	-0,028	0,061
-616,561	-7,800	-0,130	-0,064
-615,546	800,000	-0,041	-0,109
-614,532	-200,000	-0,022	-0,090
-613,517	54,384	-0,050	0,035
-612,503	21,035	-0,119	-0,070
-611,488	-9,410	0,073	0,035
-610,474	105,962	-0,036	-0,031
-609,459	344,611	0,046	0,066
-608,444	14,683	-0,106	-0,060
-607,430	-138,841	0,123	-0,010
-606,415	-122,371	-0,211	-0,025
-605,401	-200,000	0,009	-0,040
-604,386	111,518	-0,073	-0,064
-603,371	261,031	0,166	0,208
-602,357	108,803	0,001	0,001
-601,342	113,983	-0,042	-0,037
-600,328	-112,751	-0,075	0,011
-599,313	-46,347	-0,085	-0,030
-598,298	-81,857	0,177	-0,042
-597,284	-31,906	0,058	-0,024
-596,269	95,772	-0,042	-0,034
-595,255	67,556	0,094	-0,069
-594,240	-200,000	-0,009	0,030
-593,225	668,291	-0,046	-0,087
-592,211	-200,000	-0,024	-0,110
-591,196	714,512	-0,072	-0,138
-590,182	-9,898	-0,034	0,016
-589,167	-200,000	0,032	0,116
-588,152	-200,000	-0,025	0,165
-587,138	277,591	-0,058	0,074
-586,123	104,649	-0,146	0,125
-585,109	-158,846	-0,073	0,003
-584,094	306,761	-0,024	-0,032
-583,079	800,000	0,009	0,020
-582,065	800,000	0,019	-0,052
-581,050	34,042	0,091	0,057
-580,036	-200,000	0,018	-0,078
-579,021	26,879	0,045	0,027
-578,006	-200,000	-0,012	-0,127
-576,992	357,232	-0,033	-0,048
-575,977	326,987	0,079	-0,109
-574,963	-200,000	0,004	0,027
-573,948	-101,665	-0,061	-0,011
-572,934	32,577	0,090	0,056
-571,919	331,097	-0,055	-0,077
-570,904	318,144	-0,064	-0,087
-569,890	369,186	-0,063	-0,092
-568,875	800,000	0,017	-0,035
-567,861	-135,317	0,081	-0,007
-566,846	-65,175	-0,054	-0,016
-565,831	-28,284	0,043	0,018
-564,817	114,048	-0,096	-0,085
-563,802	800,000	0,036	-0,108
-562,788	27,824	-0,117	0,071
-561,773	-200,000	-0,005	-0,046
-560,758	-200,000	-0,004	-0,105
-559,744	53,257	-0,064	-0,045
-558,729	270,625	0,045	-0,057
-557,715	-73,612	-0,072	0,019
-556,700	-134,447	-0,083	0,007
-555,685	346,290	0,012	0,017
-554,671	-200,000	-0,005	-0,035
-553,656	-200,000	-0,007	0,060
-552,642	-200,000	0,020	-0,091
-551,627	122,026	0,047	0,043
-550,612	-200,000	-0,007	-0,110
-549,598	138,196	-0,069	-0,065
-548,583	39,059	-0,095	0,061
-547,569	206,773	0,089	-0,100
-546,554	163,948	-0,024	0,024
-545,539	77,593	-0,157	-0,120
-544,525	-200,000	0,015	0,079
-543,510	538,317	-0,071	0,123
-542,496	427,237	-0,066	-0,103
-541,481	-86,248	-0,111	-0,024
-540,466	412,447	-0,036	0,056
-539,452	396,873	0,058	-0,088
-538,437	207,685	0,138	0,156
-537,423	-115,804	0,077	-0,010
-536,408	-131,049	0,102	-0,010
-535,393	800,000	0,049	0,110
-534,379	-80,040	-0,084	-0,020
-533,364	15,218	-0,050	0,028
-532,350	75,019	0,053	-0,040
-531,335	179,138	0,043	-0,046
-530,321	-200,000	-0,012	-0,094
-529,306	496,275	-0,042	0,069
-528,291	-65,081	0,046	-0,013
-527,277	-37,444	-0,021	0,008
-526,262	-180,623	-0,049	-0,001
-525,248	390,026	0,058	0,086
-524,233	-200,000	0,014	-0,114
-523,218	-200,000	-0,000	0,051
-522,204	-200,000	-0,009	0,091
-521,189	28,951	-0,104	0,064
-520,175	301,335	-0,019	0,026
-519,160	-175,388	-0,034	0,001
-518,145	66,535	0,076	-0,056
-517,131	603,723	0,057	0,104
-516,116	-56,472	-0,087	-0,028
-515,102	-20,716	0,043	0,019
-514,087	71,242	0,104	0,078
-513,072	567,195	0,011	-0,020
-512,058	-200,000	-0,012	-0,112
-511,043	128,248	0,063	0,058
-510,029	-100,896	-0,016	-0,003
-509,014	352,032	0,064	0,091
-507,999	179,268	0,030	0,032
-506,985	-100,362	0,058	-0,010
-505,970	-200,000	-0,017	-0,073
-504,956	76,074	-0,119	-0,091
-503,941	800,000	-0,003	0,006
-502,926	800,000	0,023	0,054
-501,912	800,000	-0,038	0,106
-500,897	800,000	0,064	-0,143
-499,883	461,752	0,034	-0,054
-498,868	176,133	0,045	0,048
-497,853	-200,000	-0,004	0,021
-496,839	-200,000	0,030	-0,149
-495,824	55,105	0,066	0,046
-494,810	20,458	-0,052	-0,030
-493,795	254,634	-0,096	0,119
-492,781	303,127	-0,092	-0,124
-491,766	104,407	0,059	-0,050
-490,751	-44,982	-0,065	-0,023
-489,737	35,323	-0,049	-0,031
-488,722	305,429	0,077	0,104
-487,708	-200,000	-0,020	0,109
-486,693	-200,000	0,008	-0,093
-485,678	-200,000	-0,046	0,162
-484,664	-200,000	0,012	-0,109
-483,649	-86,260	-0,089	-0,019
-482,635	-200,000	0,001	-0,088
-481,620	-200,000	-0,005	0,053
-480,605	-120,980	0,023	-0,003
-479,591	800,000	-0,042	0,102
-478,576	165,592	0,100	0,102
-477,562	19,109	-0,123	0,071
-476,547	593,356	-0,020	-0,036
-475,532	-60,335	-0,082	-0,025
-474,518	-200,000	-0,001	0,099
-473,503	85,645	0,113	0,090
-472,489	-200,000	0,000	-0,037
-471,474	680,056	0,017	0,033
-470,459	-167,713	-0,077	-0,002
-469,445	63,767	-0,051	0,037
-468,430	757,055	0,042	-0,082
-467,416	800,000	-0,026	-0,071
-466,401	800,000	-0,036	0,080
-465,386	1,591	0,066	-0,034
-464,372	743,753	0,038	0,073
-463,357	-200,000	-0,010	-0,066
-462,343	223,297	-0,082	-0,095
-461,328	-200,000	0,033	0,113
-460,313	189,889	-0,082	0,089
-459,299	-138,387	0,116	0,009
-458,284	-113,726	0,050	-0,007
-457,270	-152,232	0,111	0,006
-456,255	-33,831	-0,078	-0,031
-455,241	-35,393	0,043	-0,017
-454,226	48,414	-0,043	-0,029
-453,211	-55,813	-0,092	0,030
-452,197	-98,423	0,105	0,019
-451,182	-162,991	-0,059	-0,002
-450,168	688,179	-0,034	0,065
-449,153	800,000	0,017	0,045
-448,138	70,474	-0,046	0,034
-447,124	800,000	0,011	-0,031
-446,109	-200,000	0,027	-0,102
-445,095	-161,509	-0,064	-0,002
-444,080	-200,000	-0,012	0,043
-443,065	-200,000	-0,005	0,142
-442,051	-200,000	-0,006	-0,087
-441,036	-79,725	-0,110	0,026
-440,022	121,990	-0,075	-0,068
-439,007	69,180	0,047	0,035
-437,992	-4,764	0,133	0,066
-436,978	-200,000	0,011	0,073
-435,963	18,109	0,172	0,098
-434,949	-200,000	-0,012	0,075
-433,934	-8,299	0,089	-0,043
-432,919	-55,837	0,105	-0,033
-431,905	54,064	-0,076	0,052
-430,890	365,577	-0,015	0,023
-429,876	-200,000	-0,002	-0,104
-428,861	-43,769	0,006	-0,002
-427,846	37,241	0,061	0,039
-426,832	-200,000	0,019	0,089
-425,817	120,070	-0,082	0,073
-424,803	-200,000	-0,004	-0,044
-423,788	341,083	0,087	-0,122
-422,773	508,733	-0,090	0,151
-421,759	-178,743	0,041	0,001
-420,744	-81,929	-0,027	0,006
-419,730	800,000	0,012	0,036
-418,715	800,000	-0,049	-0,116
-417,701	-200,000	0,010	-0,063
-416,686	125,324	0,064	0,058
-415,671	300,746	-0,026	-0,035
-414,657	146,461	0,104	0,101
-413,642	-5,428	-0,106	-0,052
-412,628	-200,000	0,004	0,064
-411,613	-40,449	-0,196	0,073
-410,598	-200,000	0,011	0,106
-409,584	-38,604	-0,184	0,069
-408,569	-6,142	0,039	0,019
-407,555	-200,000	0,001	0,081
-406,540	-200,000	-0,020	0,090
-405,525	-200,000	-0,006	0,165
-404,511	90,151	-0,027	0,022
-403,496	-200,000	-0,004	-0,111
-402,482	-17,073	-0,041	0,018
-401,467	38,076	-0,041	-0,026
-400,452	114,050	0,097	-0,085
-399,438	419,902	0,036	-0,055
-398,423	-200,000	-0,007	0,131
-397,409	-200,000	0,029	0,113
-396,394	800,000	0,022	-0,060
-395,379	52,870	-0,059	0,041
-394,365	-200,000	-0,019	0,086
-393,350	334,163	0,106	0,148
-392,336	281,697	-0,059	0,076
-391,321	-95,815	0,108	0,020
-390,306	-200,000	0,005	-0,108
-389,292	-130,269	-0,025	0,002
-388,277	96,167	0,035	-0,029
-387,263	-89,530	-0,132	0,028
-386,248	800,000	-0,042	-0,122
-385,233	-26,743	0,102	0,043
-384,219	-160,626	0,177	0,007
-383,204	89,001	-0,092	-0,074
-382,190	-52,937	-0,115	-0,038
-381,175	800,000	0,015	0,030
-380,160	-31,360	0,093	0,037
-379,146	6,905	-0,045	-0,024
-378,131	800,000	0,019	-0,042
-377,117	-200,000	0,007	0,042
-376,102	31,575	-0,026	0,016
-375,088	800,000	0,067	-0,154
-374,073	57,191	-0,023	-0,016
-373,058	331,856	0,027	-0,037
-372,044	-200,000	-0,008	0,095
-371,029	-200,000	-0,009	0,031
-370,015	163,592	-0,022	0,022
-369,000	301,775	-0,015	0,020
-367,985	800,000	-0,072	-0,198
-366,971	-200,000	0,005	0,023
-365,956	-77,888	0,052	-0,013
-364,942	147,741	0,040	-0,039
-363,927	-200,000	0,021	0,086
-362,912	700,965	-0,044	-0,084
-361,898	800,000	0,031	0,093
-360,883	800,000	-0,027	0,056
-359,869	-50,618	0,043	-0,014
-358,854	800,000	0,022	-0,062
-357,839	6,330	0,064	0,034
-356,825	45,475	0,108	0,072
-355,810	76,405	-0,016	0,012
-354,796	54,089	0,065	-0,045
-353,781	42,391	-0,117	0,076
-352,766	-200,000	0,002	-0,036
-351,752	-200,000	0,013	0,056
-350,737	-156,089	0,085	0,004
-349,723	69,654	-0,117	0,086
-348,708	68,367	-0,061	0,045
-347,693	800,000	-0,026	-0,071
-346,679	30,556	0,046	0,028
-345,664	614,255	0,107	-0,193
-344,650	-62,096	0,036	0,011
-343,635	238,367	0,054	-0,064
-342,620	-121,137	-0,090	0,011
-341,606	44,089	-0,110	0,072
-340,591	64,260	-0,070	0,051
-339,577	-200,000	-0,020	-0,150
-338,562	-41,574	0,060	-0,022
-337,548	765,750	-0,045	-0,089
-336,533	-82,413	0,174	0,040
-335,518	22,705	0,100	0,058
-334,504	37,564	-0,054	0,034
-333,489	151,016	0,035	0,034
-332,475	334,282	0,056	-0,078
-331,460	-161,843	-0,083	0,003
-330,445	-125,398	0,119	0,013
-329,431	559,289	0,128	-0,222
-328,416	-55,193	0,089	0,028
-327,402	-26,401	-0,046	-0,019
-326,387	-80,968	0,053	-0,013
-325,372	-200,000	-0,027	-0,098
-324,358	367,842	-0,037	-0,054
-323,343	800,000	-0,035	-0,100
-322,329	-55,690	0,102	0,033
-321,314	42,826	0,030	0,020
-320,299	391,262	-0,074	0,111
-319,285	530,294	0,085	-0,144
-318,270	14,044	-0,045	0,025
-317,256	-65,809	-0,065	-0,019
-316,241	800,000	-0,021	-0,060
-315,226	800,000	0,074	-0,165
-314,212	-144,914	0,140	-0,009
-313,197	800,000	0,058	0,136
-312,183	-188,151	0,063	0,001
-311,168	443,282	-0,048	0,075
-310,153	476,669	0,053	-0,087
-309,139	137,262	0,022	-0,021
-308,124	73,209	0,079	-0,059
-307,110	138,178	-0,065	-0,061
-306,095	-200,000	0,046	0,228
-305,080	-165,355	0,139	-0,004
-304,066	379,007	-0,046	0,067
-303,051	-34,632	-0,069	-0,027
-302,037	581,100	0,057	-0,100
-301,022	-143,449	0,092	-0,006
-300,008	64,699	0,077	-0,056
-298,993	244,535	-0,072	0,087
-297,978	-74,944	-0,159	0,040
-296,964	-83,066	0,043	0,010
-295,949	214,539	0,075	0,085
-294,935	-116,249	0,144	0,019
-293,920	-99,656	-0,057	0,010
-292,905	-200,000	-0,036	0,126
-291,891	-128,029	0,080	-0,008
-290,876	-123,928	0,182	0,020
-289,862	-69,691	0,063	-0,017
-288,847	411,759	-0,069	-0,105
-287,832	-115,501	0,193	-0,026
-286,818	65,799	-0,056	0,040
-285,803	-200,000	0,000	-0,046
-284,789	30,508	0,061	-0,037
-283,774	-200,000	0,001	-0,016
-282,759	582,071	0,026	0,045
-281,745	-200,000	0,017	-0,094
-280,730	77,030	-0,001	0,001
-279,716	244,123	-0,048	0,057
-278,701	-144,854	0,163	-0,011
-277,686	393,691	0,004	0,007
-276,672	-159,953	-0,117	0,004
-275,657	176,296	0,071	-0,074
-274,643	-141,483	-0,131	0,009
-273,628	274,602	-0,015	-0,019
-272,613	104,148	-0,141	-0,119
-271,599	-20,991	0,086	0,037
-270,584	150,546	0,109	-0,106
-269,570	445,394	0,048	0,075
-268,555	-51,957	0,087	0,029
-267,540	203,176	-0,069	-0,076
-266,526	477,104	0,058	0,095
-265,511	-43,153	-0,053	0,019
-264,497	33,532	0,078	0,048
-263,482	252,417	0,054	-0,066
-262,467	-87,165	0,200	0,043
-261,453	-69,504	0,158	0,043
-260,438	574,346	-0,094	-0,165
-259,424	800,000	-0,023	0,056
-258,409	800,000	-0,054	-0,150
-257,395	-2,753	0,155	-0,077
-256,380	187,951	0,068	-0,073
-255,365	149,607	0,071	0,068
-254,351	-122,648	0,047	-0,005
-253,336	-140,445	-0,112	0,008
-252,322	-22,071	0,034	0,015
-251,307	108,049	-0,109	-0,093
-250,292	-200,000	0,023	0,128
-249,278	-73,758	-0,059	-0,015
-248,263	113,819	-0,123	0,107
-247,249	227,230	-0,062	0,072
-246,234	179,990	0,066	-0,069
-245,219	-200,000	-0,025	-0,108
-244,205	-200,000	-0,012	0,045
-243,190	-200,000	0,017	0,132
-242,176	50,683	0,135	0,091
-241,161	-77,542	0,082	0,020
-240,146	-99,677	0,126	0,022
-239,132	-200,000	-0,009	-0,052
-238,117	-121,178	-0,072	0,008
-237,103	-74,780	0,045	-0,011
-236,088	-21,946	-0,195	-0,084
-235,073	-38,933	0,178	0,066
-234,059	-200,000	0,029	0,123
-233,044	800,000	-0,064	0,174
-232,030	-26,919	0,097	0,040
-231,015	-121,326	-0,128	-0,015
-230,000	73,414	-0,041	-0,030
-228,986	-24,566	0,054	0,023
-227,971	348,022	-0,034	0,048
-226,957	-44,682	0,018	0,006
-225,942	441,725	-0,042	0,067
-224,927	800,000	-0,040	-0,085
-223,913	800,000	-0,033	-0,082
-222,898	-200,000	-0,040	0,150
-221,884	800,000	-0,024	0,054
-220,869	76,723	0,052	0,039
-219,855	-200,000	-0,020	-0,114
-218,840	-114,873	0,109	0,015
-217,825	23,549	0,043	-0,025
-216,811	-200,000	0,038	-0,122
-215,796	-117,958	-0,124	-0,016
-214,782	363,344	-0,061	0,087
-213,767	23,630	0,079	-0,046
-212,752	-108,147	0,138	-0,021
-211,738	800,000	-0,026	-0,058
-210,723	304,957	-0,010	0,014
-209,709	-3,417	-0,022	-0,011
-208,694	-200,000	-0,002	-0,029
-207,679	-198,521	0,149	0,001
-206,665	83,300	0,088	0,068
-205,650	64,733	-0,012	-0,008
-204,636	-100,400	0,035	0,006
-203,621	800,000	-0,064	0,151
-202,606	800,000	0,016	0,035
-201,592	-95,866	-0,203	-0,038
-200,577	-18,011	-0,116	0,052
-199,563	-200,000	0,012	-0,167
-198,548	-200,000	0,004	0,070
-197,533	-7,842	-0,119	0,057
-196,519	-149,682	-0,115	-0,006
-195,504	-182,503	-0,139	0,002
-194,490	594,312	-0,044	0,077
-193,475	-38,262	0,032	0,012
-192,460	-117,421	-0,196	-0,025
-191,446	-200,000	0,018	-0,060
-190,431	61,320	0,024	-0,017
-189,417	401,078	0,016	0,023
-188,402	-44,558	0,170	0,060
-187,387	129,084	0,131	-0,119
-186,373	172,304	-0,075	-0,077
-185,358	800,000	-0,031	0,072
-184,344	-105,457	0,056	0,009
-183,329	-3,558	0,159	0,079
-182,315	126,614	0,103	0,093
-181,300	-200,000	0,013	0,059
-180,285	33,527	-0,051	-0,031
-179,271	166,676	-0,012	-0,012
-178,256	-83,438	-0,086	0,019
-177,242	349,931	0,027	0,038
-176,227	800,000	0,024	0,058
-175,212	-200,000	0,003	0,079
-174,198	144,537	-0,051	0,048
-173,183	128,508	-0,046	0,042
-172,169	38,426	-0,066	-0,042
-171,154	-200,000	0,019	-0,081
-170,139	-145,048	0,110	-0,007
-169,125	-200,000	-0,017	-0,057
-168,110	-200,000	0,003	0,011
-167,096	-200,000	-0,009	-0,043
-166,081	-50,489	-0,154	0,052
-165,066	-27,599	-0,090	-0,037
-164,052	197,123	0,074	-0,081
-163,037	-143,817	-0,105	-0,007
-162,023	-18,203	0,064	-0,028
-161,008	-43,985	-0,069	0,024
-159,993	309,117	-0,083	0,111
-158,979	333,272	-0,056	0,077
-157,964	-47,661	-0,081	-0,028
-156,950	800,000	0,028	-0,077
-155,935	-14,463	0,095	0,044
-154,920	120,198	-0,096	0,085
-153,906	800,000	0,046	0,141
-152,891	60,473	0,003	0,002
-151,877	436,539	-0,052	0,081
-150,862	-134,318	-0,093	-0,008
-149,847	-90,953	-0,029	0,006
-148,833	728,287	0,083	-0,157
-147,818	-91,205	0,041	0,008
-146,804	-200,000	-0,011	-0,087
-145,789	248,520	0,093	0,113
-144,775	-115,079	0,081	-0,011
-143,760	15,783	-0,134	0,075
-142,745	21,110	0,157	-0,091
-141,731	800,000	0,021	-0,048
-140,716	800,000	-0,034	0,072
-139,702	-200,000	-0,001	0,108
-138,687	307,560	-0,068	0,090
-137,672	-125,855	0,036	0,004
-136,658	800,000	-0,068	-0,140
-135,643	68,231	0,034	0,024
-134,629	800,000	0,061	0,124
-133,614	11,416	0,040	-0,022
-132,599	624,509	0,090	0,162
-131,585	-200,000	-0,015	0,073
-130,570	-16,649	-0,154	0,069
-129,556	-200,000	0,004	-0,037
-128,541	-200,000	0,012	0,066
-127,526	343,526	0,041	-0,058
-126,512	10,966	-0,142	-0,077
-125,497	-87,598	0,122	0,026
-124,483	42,619	-0,116	0,075
-123,468	305,717	-0,075	-0,100
-122,453	52,781	-0,149	-0,101
-121,439	-26,638	0,179	-0,074
-120,424	176,178	-0,126	-0,130
-119,410	-200,000	0,110	0,000
-118,395	-82,811	-0,113	0,026
-117,380	800,000	0,075	0,188
-116,366	160,937	0,047	-0,047
-115,351	-140,029	0,016	-0,001
-114,337	-87,216	-0,107	-0,023
-113,322	-122,565	-0,079	-0,009
-112,307	319,446	-0,030	0,041
-111,293	33,612	0,027	-0,017
-110,278	-23,847	0,101	0,043
-109,264	-155,160	-0,087	-0,004
-108,249	-200,000	-0,013	-0,130
-107,234	-12,074	-0,036	-0,017
-106,220	-66,933	-0,047	0,013
-105,205	3,485	-0,036	-0,019
-104,191	800,000	-0,073	-0,163
-103,176	-200,000	0,029	0,271
-102,162	85,810	0,114	0,089
-101,147	-84,441	-0,107	-0,024
-100,132	60,511	0,056	0,039
-99,118	-200,000	-0,021	0,146
-98,103	380,853	-0,060	0,088
-97,089	800,000	0,049	0,146
-96,074	-200,000	0,023	0,141
-95,059	142,746	-0,006	0,005
-94,045	-166,483	-0,128	-0,004
-93,030	-0,738	0,104	-0,052
-92,016	120,089	-0,054	-0,048
-91,001	-106,967	0,129	0,020
-89,986	19,459	-0,047	-0,027
-88,972	-146,670	-0,050	-0,003
-87,957	222,427	0,049	0,056
-86,943	43,447	-0,076	-0,049
-85,928	-48,598	-0,036	0,012
-84,913	568,641	0,022	-0,038
-83,899	-200,000	0,016	0,085
-82,884	43,917	0,039	-0,025
-81,870	-138,873	0,109	-0,008
-80,855	73,770	0,107	0,079
-79,840	-85,516	-0,179	-0,039
-78,826	73,388	0,024	-0,018
-77,811	-72,550	-0,124	0,032
-76,797	38,490	0,114	0,072
-75,782	5,910	0,054	0,028
-74,767	-200,000	0,025	0,105
-73,753	200,227	0,043	0,046
-72,738	-174,041	-0,116	-0,002
-71,724	-200,000	0,053	0,167
-70,709	430,249	-0,047	-0,072
-69,694	-173,509	-0,034	-0,001
-68,680	-14,588	-0,065	-0,030
-67,665	800,000	0,027	0,068
-66,651	391,548	0,039	0,058
-65,636	-29,177	-0,101	0,041
-64,622	-200,000	-0,011	0,041
-63,607	-44,865	0,015	0,005
-62,592	-200,000	0,010	-0,062
-61,578	287,759	0,051	0,066
-60,563	-73,118	-0,153	0,040
-59,549	273,181	-0,084	0,106
-58,534	-64,068	-1,488	-0,428
-57,519	396,238	-1,526	-2,266
-56,505	-200,000	-0,561	-4,426
-55,490	163,542	0,990	0,988
-54,476	800,000	4,931	11,286
-53,461	-200,000	18,195	289,263
-52,446	800,000	727,986	2235,335
-51,432	557,862	1643,641	2820,037
-50,417	79,168	1664,883	1262,859
-49,403	22,796	1538,488	890,916
-48,388	16,747	1461,679	817,130
-47,373	17,895	1451,413	816,891
-46,359	17,282	1441,816	808,523
-45,344	15,034	1437,183	795,160
-44,330	14,927	1435,296	793,577
-43,315	14,916	1433,706	792,613
-42,300	14,967	1432,016	791,887
-41,286	14,955	1430,839	791,151
-40,271	14,988	1429,597	790,589
-39,257	14,956	1428,400	789,742
-38,242	15,022	1427,059	789,284
-37,227	15,015	1425,877	788,563
-36,213	15,005	1424,559	787,755
-35,198	14,976	1423,502	787,006
-34,184	15,033	1422,460	786,667
-33,169	14,966	1421,168	785,604
-32,154	15,023	1420,156	785,283
-31,140	15,027	1418,786	784,512
-30,125	15,040	1417,776	783,984
-29,111	15,025	1416,607	783,234
-28,096	14,969	1415,574	782,372
-27,082	14,918	1414,419	781,463
-26,067	14,962	1413,130	780,927
-25,052	14,928	1412,179	780,209
-24,038	14,897	1411,402	779,604
-23,023	14,925	1410,152	779,015
-22,009	14,857	1409,284	778,185
-20,994	14,892	1408,216	777,726
-19,979	14,848	1407,543	777,120
-18,965	14,821	1406,465	776,365
-17,950	14,853	1405,409	775,901
-16,936	14,862	1404,559	775,442
-15,921	14,819	1403,469	774,610
-14,906	14,834	1402,560	774,148
-13,892	14,863	1401,616	773,731
-12,877	14,796	1400,952	773,025
-11,863	14,807	1399,906	772,465
-10,848	14,820	1398,784	771,875
-9,833	14,795	1398,172	771,390
-8,819	14,742	1397,235	770,598
-7,804	14,680	1396,391	769,817
-6,790	14,686	1395,305	769,214
-5,775	14,767	1394,049	768,866
-4,760	14,728	1393,433	768,316
-3,746	14,707	1392,460	767,651
-2,731	14,672	1391,964	767,184
-1,717	14,708	1390,729	766,641
-0,702	14,750	1388,946	765,823
0,313	18,486	1308,049	738,529
1,327	34,727	706,079	436,288
2,342	53,398	124,245	84,221
3,356	5,011	16,484	8,564
4,371	2,891	3,186	1,632
5,386	-91,563	0,700	0,140
6,400	800,000	0,042	0,132
7,415	146,079	-0,155	-0,147
8,429	-67,091	-0,366	-0,101
9,444	41,317	-0,266	-0,170
10,459	30,860	-0,399	-0,241
11,473	95,704	-0,241	-0,195
12,488	-169,161	-0,354	0,009
13,502	46,709	-0,317	-0,208
14,517	118,026	-0,209	-0,182
15,531	8,818	-0,376	-0,200
16,546	85,698	-0,404	-0,314
17,561	-34,873	-0,540	-0,208
18,575	40,781	-0,185	-0,118
19,590	270,058	-0,261	-0,325
20,604	38,449	-0,234	-0,147
21,619	-8,096	-0,379	-0,180
22,634	0,914	-0,486	-0,246
23,648	152,838	-0,411	-0,397
24,663	4,031	-0,418	-0,215
25,677	100,053	-0,351	-0,287
26,692	384,446	-0,256	-0,374
27,707	124,283	-0,210	-0,187
28,721	185,791	-0,294	-0,309
29,736	47,976	-0,437	-0,288
30,750	58,949	-0,334	-0,232
31,765	216,400	-0,356	-0,400
32,780	8,993	-0,367	-0,195
33,794	168,556	-0,325	-0,327
34,809	116,317	-0,341	-0,295
35,823	-5,044	-0,447	-0,216
36,838	188,904	-0,328	-0,347
37,853	106,861	-0,406	-0,341
38,867	108,817	-0,315	-0,265
39,882	180,298	-0,216	-0,224
40,896	120,713	-0,282	-0,247
41,911	-69,373	-0,422	-0,114
42,926	-16,715	-0,327	-0,146
43,940	148,337	-0,309	-0,295
44,955	62,723	-0,330	-0,233
45,969	92,640	-0,361	-0,287
46,984	132,574	-0,330	-0,300
47,999	28,352	-0,248	-0,147
49,013	5,919	-0,365	-0,190
50,028	-75,728	-0,448	-0,111
51,042	-14,884	-0,457	-0,206
52,057	79,213	-0,273	-0,206
53,071	35,032	-0,312	-0,192
54,086	9,409	-0,294	-0,156
55,101	105,193	-0,363	-0,302
56,115	72,766	-0,403	-0,296
57,130	144,879	-0,313	-0,295
58,144	66,766	-0,322	-0,231
59,159	103,584	-0,254	-0,210
60,174	159,209	-0,395	-0,387
61,188	27,407	-0,405	-0,239
62,203	-3,435	-0,409	-0,200
63,217	-58,488	-0,291	-0,088
64,232	22,157	-0,284	-0,163
65,247	45,116	-0,435	-0,282
66,261	42,239	-0,338	-0,216
67,276	163,735	-0,322	-0,319
68,290	63,986	-0,376	-0,266
69,305	202,427	-0,286	-0,311
70,320	69,563	-0,253	-0,183
71,334	-8,062	-0,303	-0,143
72,349	-38,581	-0,420	-0,155
73,363	22,428	-0,440	-0,253
74,378	82,589	-0,225	-0,172
75,393	120,370	-0,257	-0,224
76,407	81,293	-0,237	-0,180
77,422	19,717	-0,273	-0,154
78,436	-83,907	-0,216	0,048
79,451	56,987	-0,337	-0,231
80,466	-33,506	-0,402	-0,155
81,480	31,981	-0,404	-0,244
82,495	59,510	-0,369	-0,255
83,509	93,110	-0,221	-0,176
84,524	243,860	-0,269	-0,318
85,539	78,157	-0,282	-0,212
86,553	-28,022	-0,262	-0,106
87,568	276,666	-0,129	-0,161
88,582	59,486	-0,306	-0,212
89,597	162,145	-0,251	-0,248
90,611	-29,495	-0,348	-0,139
91,626	-23,496	-0,241	-0,101
92,641	95,589	-0,236	-0,189
93,655	-20,667	-0,178	-0,076
94,670	-63,628	-0,273	-0,078
95,684	233,723	-0,262	-0,304
96,699	-42,679	-0,303	-0,108
97,714	-92,630	-0,295	-0,058
98,728	-38,593	-0,379	-0,140
99,743	-58,646	-0,168	-0,051
100,757	377,843	-0,176	-0,254
101,772	20,959	-0,279	-0,159
102,787	173,624	-0,229	-0,232
103,801	15,764	-0,295	-0,162
104,816	-96,680	-0,139	0,025
105,830	-102,373	-0,268	-0,045
106,845	171,971	-0,112	-0,113
107,860	793,314	-0,194	-0,377
108,874	5,625	-0,329	-0,170
109,889	161,015	-0,239	-0,234
110,903	-42,262	-0,226	-0,080
111,918	197,788	-0,293	-0,315
112,933	78,404	-0,321	-0,240
113,947	-197,342	-0,257	0,001
114,962	292,045	-0,220	-0,281
115,976	220,434	-0,272	-0,307
116,991	55,023	-0,193	-0,130
118,006	140,468	-0,344	-0,319
119,020	126,751	-0,159	-0,142
120,035	-79,071	-0,254	-0,060
121,049	-99,531	-0,300	-0,052
122,064	-129,427	-0,145	0,014
123,079	62,639	-0,235	-0,164
124,093	78,403	-0,283	-0,211
125,108	13,904	-0,331	-0,180
126,122	-38,572	-0,314	-0,116
127,137	-106,547	-0,308	0,048
128,151	116,971	-0,226	-0,195
129,166	-36,820	-0,276	-0,103
130,181	567,466	-0,192	-0,328
131,195	11,527	-0,291	-0,156
132,210	-49,995	-0,329	-0,109
133,224	159,671	-0,262	-0,256
134,239	201,708	-0,243	-0,262
135,254	38,751	-0,276	-0,172
136,268	41,354	-0,241	-0,152
137,283	120,914	-0,309	-0,269
138,297	175,420	-0,260	-0,264
139,312	90,408	-0,210	-0,165
140,327	121,802	-0,190	-0,166
141,341	-67,865	-0,133	-0,036
142,356	-101,602	-0,329	-0,055
143,370	174,907	-0,104	-0,105
144,385	-5,507	-0,279	-0,133
145,400	54,922	-0,222	-0,150
146,414	157,826	-0,211	-0,205
147,429	75,405	-0,256	-0,189
148,443	-6,301	-0,359	-0,171
149,458	-32,516	-0,154	-0,060
150,473	-67,183	-0,191	-0,052
151,487	800,000	-0,115	-0,263
152,502	141,481	-0,222	-0,205
153,516	35,020	-0,267	-0,163
154,531	-46,497	-0,329	-0,112
155,546	-17,572	-0,216	-0,095
156,560	-56,649	-0,265	-0,082
157,575	265,904	-0,229	-0,279
158,589	285,575	-0,132	-0,167
159,604	35,455	-0,216	-0,132
160,619	146,774	-0,373	-0,351
161,633	94,793	-0,290	-0,230
162,648	116,947	-0,235	-0,202
163,662	167,476	-0,233	-0,231
164,677	231,507	-0,213	-0,244
165,692	309,327	-0,093	-0,122
166,706	70,841	-0,235	-0,170
167,721	189,189	-0,297	-0,311
168,735	-44,404	-0,223	-0,078
169,750	-39,584	-0,292	-0,106
170,764	-74,085	-0,286	-0,072
171,779	-21,329	-0,180	-0,077
172,794	272,464	-0,111	-0,137
173,808	108,173	-0,154	-0,128
174,823	-8,526	-0,199	-0,093
175,837	-127,952	-0,139	0,014
176,852	53,235	-0,178	-0,118
177,867	800,000	-0,065	-0,175
178,881	25,712	-0,248	-0,144
179,896	10,774	-0,210	-0,111
180,910	-111,653	-0,204	-0,029
181,925	-37,328	-0,360	-0,134
182,940	219,498	-0,194	-0,216
183,954	149,126	-0,221	-0,209
184,969	-19,855	-0,096	-0,041
185,983	17,028	-0,270	-0,148
186,998	40,090	-0,197	-0,123
188,013	-200,000	-0,083	-0,258
189,027	87,181	-0,217	-0,167
190,042	6,665	-0,276	-0,143
191,056	131,268	-0,197	-0,176
192,071	17,879	-0,284	-0,157
193,086	308,423	-0,090	-0,117
194,100	126,047	-0,221	-0,195
195,115	-66,542	-0,169	0,046
196,129	54,649	-0,227	-0,152
197,144	85,513	-0,303	-0,232
198,159	-32,511	-0,159	-0,062
199,173	120,927	-0,232	-0,201
200,188	-137,927	-0,317	-0,024
201,202	97,475	-0,125	-0,100
202,217	97,634	-0,236	-0,189
203,232	15,648	-0,206	-0,113
204,246	165,208	-0,278	-0,273
205,261	623,162	-0,148	-0,260
206,275	97,719	-0,197	-0,157
207,290	362,625	-0,167	-0,234
208,304	-39,201	-0,265	-0,096
209,319	16,711	-0,169	-0,093
210,334	-76,875	-0,227	-0,055
211,348	-18,530	-0,347	-0,150
212,363	48,020	-0,177	-0,115
213,377	800,000	-0,101	-0,286
214,392	155,848	-0,220	-0,211
215,407	800,000	-0,067	-0,159
216,421	-39,304	-0,229	-0,083
217,436	-52,293	-0,229	-0,073
218,450	506,438	-0,137	-0,222
219,465	-97,587	-0,084	-0,015
220,480	27,844	-0,214	-0,125
221,494	14,898	-0,182	-0,099
222,509	-70,308	-0,271	-0,071
223,523	544,116	-0,117	-0,194
224,538	158,286	-0,261	-0,251
225,553	149,212	-0,204	-0,192
226,567	209,408	-0,156	-0,169
227,582	-200,000	-0,057	-0,221
228,596	247,373	-0,131	-0,154
229,611	-119,541	-0,190	0,023
230,626	191,142	-0,200	-0,209
231,640	386,660	-0,119	-0,171
232,655	-38,581	-0,188	-0,069
233,669	211,522	-0,212	-0,232
234,684	-15,545	-0,192	-0,085
235,699	388,340	-0,116	-0,167
236,713	54,845	-0,133	-0,089
237,728	63,570	-0,187	-0,130
238,742	-27,396	-0,233	-0,094
239,757	-58,032	-0,167	-0,050
240,772	-6,790	-0,212	-0,100
241,786	30,360	-0,348	-0,206
242,801	149,918	-0,143	-0,135
243,815	52,586	-0,229	-0,151
244,830	100,752	-0,149	-0,120
245,844	360,955	-0,135	-0,188
246,859	268,549	-0,215	-0,262
247,874	20,230	-0,258	-0,144
248,888	-18,881	-0,161	-0,069
249,903	157,615	-0,205	-0,197
250,917	188,991	-0,104	-0,108
251,932	35,057	-0,169	-0,102
252,947	-23,494	-0,190	-0,079
253,961	-56,819	-0,169	-0,051
254,976	-10,263	-0,107	-0,049
255,990	246,103	-0,211	-0,246
257,005	-54,719	-0,236	-0,073
258,020	-52,814	-0,190	-0,060
259,034	-28,972	-0,105	-0,042
260,049	800,000	-0,075	-0,207
261,063	254,601	-0,215	-0,255
262,078	800,000	-0,054	-0,130
263,093	94,996	-0,106	-0,084
264,107	302,262	-0,148	-0,190
265,122	3,562	-0,176	-0,088
266,136	38,420	-0,233	-0,143
267,151	-60,579	-0,198	-0,058
268,166	115,561	-0,208	-0,176
269,180	148,975	-0,098	-0,092
270,195	18,308	-0,162	-0,089
271,209	-106,160	-0,186	-0,029
272,224	275,068	-0,065	-0,080
273,239	800,000	-0,030	-0,061
274,253	800,000	-0,037	-0,074
275,268	-96,386	-0,184	0,033
276,282	8,558	-0,247	-0,128
277,297	-117,639	-0,152	-0,019
278,312	15,152	-0,237	-0,128
279,326	-2,792	-0,154	-0,074
280,341	111,500	-0,141	-0,117
281,355	4,486	-0,181	-0,092
282,370	-200,000	-0,069	-0,239
283,384	51,213	-0,088	-0,058
284,399	-200,000	-0,050	-0,210
285,414	6,616	-0,209	-0,107
286,428	-123,176	-0,174	-0,019
287,443	-145,688	-0,165	-0,010
288,457	690,695	-0,063	-0,114
289,472	225,884	-0,111	-0,125
290,487	800,000	-0,065	-0,145
291,501	692,644	-0,100	-0,181
292,516	299,265	-0,189	-0,241
293,530	129,080	-0,135	-0,119
294,545	800,000	-0,064	-0,160
295,560	96,060	-0,135	-0,107
296,574	800,000	-0,083	-0,243
297,589	-8,978	-0,199	-0,092
298,603	-16,528	-0,117	-0,051
299,618	-102,653	-0,224	-0,037
300,633	-170,835	-0,260	-0,006
301,647	800,000	-0,084	-0,197
302,662	0,837	-0,235	-0,116
303,676	-95,401	-0,142	0,026
304,691	618,825	-0,079	-0,138
305,706	382,948	-0,183	-0,261
306,720	12,083	-0,171	-0,091
307,735	-119,589	-0,156	0,018
308,749	800,000	-0,059	-0,168
309,764	219,100	-0,051	-0,056
310,779	267,680	-0,044	-0,053
311,793	611,833	-0,056	-0,096
312,808	-47,625	-0,262	-0,087
313,822	-141,606	-0,124	-0,008
314,837	201,720	-0,151	-0,160
315,852	-200,000	-0,012	-0,057
316,866	-37,730	-0,138	-0,051
317,881	121,440	-0,137	-0,118
318,895	800,000	-0,104	-0,273
319,910	-27,711	-0,155	-0,062
320,925	-1,564	-0,195	-0,094
321,939	-177,222	-0,140	-0,002
322,954	-200,000	-0,015	0,156
323,968	-43,307	-0,129	0,045
324,983	-13,899	-0,069	-0,031
325,997	366,191	-0,104	-0,145
327,012	-86,943	-0,214	-0,045
328,027	78,378	-0,248	-0,182
329,041	53,362	-0,135	-0,089
330,056	800,000	-0,091	-0,251
331,070	76,297	-0,217	-0,158
332,085	-8,505	-0,120	0,055
333,100	178,668	-0,097	-0,097
334,114	160,108	-0,145	-0,139
335,129	251,738	-0,165	-0,193
336,143	-141,665	-0,041	-0,003
337,158	-18,457	-0,055	-0,023
338,173	502,051	-0,054	-0,087
339,187	37,520	-0,174	-0,106
340,202	123,373	-0,159	-0,137
341,216	31,451	-0,154	-0,091
342,231	558,148	-0,157	-0,261
343,246	-200,000	-0,050	-0,219
344,260	237,574	-0,073	-0,084
345,275	245,639	-0,077	-0,089
346,289	35,437	-0,124	-0,074
347,304	-200,000	-0,071	-0,231
348,319	-200,000	-0,022	-0,194
349,333	-200,000	-0,014	-0,074
350,348	-200,000	-0,054	-0,196
351,362	800,000	-0,081	-0,158
352,377	53,139	-0,139	-0,092
353,392	28,582	-0,152	-0,088
354,406	-97,967	-0,045	0,008
355,421	207,963	1313,783	1410,810
356,435	159,999	1474,399	1411,314
