DTS Sentinel unit serial number:	SN410029Multiplexer serial number:	ORYXHardware model number:	OX2-SRSoftware version number:	ORYX F/W v4,00 Oryx Data Collector v3.7.2.0data status	okinstallation	B3 Nyhavnadifferential loss correction	single-endedforward channel	channel 1reverse channel	N/Adate	2023/12/03time	01:37:30forward acquisition time	300,00reverse acquisition time	0,00gamma	499,1914k internal	0,3200k external	0,3200temperature offset calibration	1,0000default loss term (dB/km)	0,3820temperature slope calibration	1,0000multiplexer offset coefficient	1,0000multiplexer slope coefficient	1,0000fibre end	0,00T internal ref (°C)	13,33T ext. ref 1 (°C)	-1,65T ext. ref 2 (°C)	-1,66length (m)	temperature (°C)	Stokes	anti-Stokes-744,400	129,615	-0,300	-0,279
-743,385	800,000	0,091	0,192
-742,371	100,610	-0,248	-0,210
-741,356	-200,000	0,039	0,272
-740,342	355,010	-0,167	-0,242
-739,327	-200,000	0,040	0,266
-738,312	40,854	-0,263	-0,172
-737,298	-200,000	-0,039	0,271
-736,283	331,244	-0,247	-0,348
-735,269	-200,000	0,024	0,324
-734,254	-4,053	-0,332	-0,167
-733,239	-56,509	-0,291	0,093
-732,225	541,418	-0,094	-0,164
-731,210	380,447	0,107	0,160
-730,196	-116,067	-0,161	0,022
-729,181	-170,594	-0,055	0,001
-728,167	-200,000	0,004	-0,112
-727,152	93,890	-0,062	-0,051
-726,137	-200,000	0,023	0,146
-725,123	145,186	-0,097	-0,094
-724,108	42,664	0,060	-0,040
-723,094	145,010	-0,142	-0,138
-722,079	231,408	-0,078	-0,093
-721,064	554,748	-0,089	-0,157
-720,050	-28,380	-0,120	0,050
-719,035	-53,259	0,047	-0,016
-718,021	-200,000	-0,016	-0,135
-717,006	91,000	-0,044	0,035
-715,991	-98,473	-0,136	-0,025
-714,977	800,000	-0,027	0,056
-713,962	-77,006	-0,085	0,021
-712,948	526,558	0,057	0,098
-711,933	435,493	-0,062	0,098
-710,918	81,601	-0,085	0,067
-709,904	43,830	-0,074	-0,049
-708,889	-200,000	0,007	-0,120
-707,875	206,878	-0,072	-0,081
-706,860	800,000	-0,017	-0,035
-705,845	30,504	-0,082	0,051
-704,831	-200,000	-0,016	-0,076
-703,816	-109,904	-0,058	-0,009
-702,802	-200,000	0,007	-0,053
-701,787	92,215	0,196	0,160
-700,772	800,000	0,034	-0,080
-699,758	215,669	0,039	-0,045
-698,743	-100,356	0,026	0,005
-697,729	39,547	-0,156	0,101
-696,714	-62,861	0,134	-0,040
-695,699	152,968	-0,070	0,070
-694,685	267,969	-0,044	0,056
-693,670	91,105	0,052	-0,042
-692,656	103,771	-0,050	-0,042
-691,641	149,860	-0,044	0,044
-690,627	800,000	0,080	0,165
-689,612	800,000	-0,029	0,068
-688,597	437,872	0,028	0,045
-687,583	119,846	-0,046	-0,041
-686,568	-200,000	-0,017	-0,062
-685,554	17,494	-0,064	0,037
-684,539	-200,000	-0,015	0,069
-683,524	341,630	-0,049	0,070
-682,510	22,660	0,029	-0,017
-681,495	-140,226	-0,101	-0,008
-680,481	-84,913	-0,018	-0,004
-679,466	-200,000	-0,023	-0,118
-678,451	-21,002	-0,127	-0,056
-677,437	-83,411	0,127	0,029
-676,422	-86,136	-0,027	-0,006
-675,408	-200,000	0,015	0,051
-674,393	52,774	0,097	0,067
-673,378	-200,000	-0,027	0,101
-672,364	684,978	0,051	-0,096
-671,349	-110,563	-0,193	0,029
-670,335	-30,311	-0,098	-0,040
-669,320	-200,000	0,009	-0,073
-668,305	152,116	0,098	0,097
-667,291	90,316	-0,035	0,028
-666,276	365,879	-0,065	-0,095
-665,262	-200,000	-0,019	-0,127
-664,247	-200,000	0,007	-0,062
-663,232	800,000	0,029	0,091
-662,218	-200,000	0,120	0,000
-661,203	213,081	0,044	0,051
-660,189	-200,000	-0,008	0,046
-659,174	-49,060	-0,115	-0,040
-658,159	-65,862	-0,085	-0,025
-657,145	-48,496	-0,209	0,072
-656,130	272,537	0,137	-0,176
-655,116	800,000	0,074	-0,155
-654,101	-101,587	-0,055	-0,010
-653,086	800,000	-0,056	-0,115
-652,072	-22,292	-0,111	-0,049
-651,057	-200,000	0,003	-0,145
-650,043	209,290	-0,095	-0,108
-649,028	71,215	-0,069	-0,052
-648,014	363,328	-0,050	-0,073
-646,999	132,292	0,062	0,058
-645,984	-200,000	-0,013	0,048
-644,970	38,607	0,164	0,106
-643,955	72,563	-0,119	-0,090
-642,941	311,435	-0,068	-0,092
-641,926	800,000	-0,047	0,131
-640,911	-19,991	-0,028	0,013
-639,897	107,402	0,014	-0,012
-638,882	160,064	-0,059	0,060
-637,868	82,236	-0,060	0,047
-636,853	-200,000	0,018	-0,067
-635,838	800,000	-0,062	-0,151
-634,824	361,893	0,079	-0,115
-633,809	724,618	-0,084	0,162
-632,795	412,478	0,017	0,026
-631,780	-112,416	0,041	-0,006
-630,765	592,848	0,032	-0,057
-629,751	800,000	0,057	0,145
-628,736	-182,278	-0,086	-0,001
-627,722	250,807	-0,025	-0,031
-626,707	-5,132	-0,106	-0,052
-625,692	-200,000	0,018	-0,175
-624,678	228,121	0,040	0,047
-623,663	391,101	-0,045	-0,068
-622,649	-200,000	0,023	-0,132
-621,634	276,273	0,079	-0,102
-620,619	-200,000	-0,019	0,065
-619,605	67,898	-0,105	-0,078
-618,590	-34,907	-0,034	0,013
-617,576	800,000	0,079	0,179
-616,561	-200,000	0,009	-0,032
-615,546	232,249	0,025	0,030
-614,532	38,458	-0,095	0,061
-613,517	277,097	-0,092	-0,119
-612,503	639,863	-0,033	-0,061
-611,488	109,349	-0,077	-0,067
-610,474	-200,000	-0,001	-0,149
-609,459	-108,271	-0,078	0,012
-608,444	186,046	-0,079	-0,085
-607,430	800,000	-0,040	-0,089
-606,415	-200,000	0,006	-0,047
-605,401	-39,018	-0,112	0,042
-604,386	322,179	0,100	0,138
-603,371	238,031	0,039	-0,047
-602,357	800,000	0,041	0,092
-601,342	800,000	0,040	-0,094
-600,328	-200,000	-0,008	-0,048
-599,313	32,874	-0,058	0,036
-598,298	295,852	-0,041	-0,055
-597,284	-200,000	0,010	0,054
-596,269	121,431	0,035	0,031
-595,255	-200,000	-0,001	-0,095
-594,240	96,881	0,093	0,077
-593,225	-55,444	-0,208	-0,067
-592,211	-200,000	-0,000	-0,035
-591,196	113,313	0,017	0,015
-590,182	-92,595	-0,124	-0,025
-589,167	800,000	0,059	0,148
-588,152	-53,354	0,045	-0,015
-587,138	-3,922	-0,058	0,029
-586,123	-157,550	-0,067	0,003
-585,109	375,324	-0,088	-0,130
-584,094	451,245	0,086	-0,138
-583,079	-200,000	-0,020	0,088
-582,065	-51,545	0,084	-0,028
-581,050	-72,990	0,072	0,019
-580,036	-125,368	-0,041	0,004
-579,021	181,622	-0,075	0,080
-578,006	502,458	-0,056	-0,094
-576,992	-200,000	-0,007	-0,220
-575,977	406,692	-0,064	0,098
-574,963	-200,000	-0,027	0,104
-573,948	96,542	0,099	-0,082
-572,934	33,411	-0,058	-0,037
-571,919	-144,589	-0,135	-0,009
-570,904	374,763	0,082	-0,122
-569,890	-7,412	-0,124	0,060
-568,875	-62,750	0,030	-0,009
-567,861	-168,514	-0,054	-0,001
-566,846	-200,000	0,037	0,210
-565,831	-3,186	-0,029	-0,015
-564,817	-200,000	-0,015	-0,100
-563,802	128,120	0,009	0,008
-562,788	-200,000	0,031	-0,131
-561,773	-2,822	0,131	-0,066
-560,758	-200,000	0,001	0,057
-559,744	800,000	-0,017	-0,055
-558,729	238,017	-0,060	-0,072
-557,715	-100,891	0,124	0,022
-556,700	-100,854	-0,136	-0,024
-555,685	95,791	-0,105	-0,087
-554,671	-200,000	-0,032	0,169
-553,656	95,583	0,087	-0,072
-552,642	-13,262	-0,014	-0,007
-551,627	-200,000	0,013	0,081
-550,612	23,779	0,038	0,023
-549,598	-200,000	0,019	-0,098
-548,583	-102,210	0,082	-0,014
-547,569	800,000	-0,053	0,130
-546,554	-200,000	0,011	-0,135
-545,539	-81,350	0,023	0,005
-544,525	259,638	0,009	-0,011
-543,510	150,091	0,110	0,108
-542,496	310,191	0,039	-0,053
-541,481	-11,960	0,055	0,026
-540,466	59,796	0,085	0,060
-539,452	730,414	-0,045	-0,088
-538,437	800,000	-0,016	-0,043
-537,423	377,563	0,036	-0,053
-536,408	0,402	0,050	0,026
-535,393	6,956	0,133	-0,071
-534,379	-181,561	0,060	0,001
-533,364	-73,121	0,111	0,029
-532,350	-200,000	0,027	0,222
-531,335	207,495	-0,091	0,103
-530,321	-30,022	0,059	0,024
-529,306	-32,438	0,157	-0,063
-528,291	675,715	-0,044	0,083
-527,277	317,126	0,070	-0,095
-526,262	-200,000	-0,018	0,126
-525,248	-6,100	0,092	0,045
-524,233	800,000	-0,019	0,040
-523,218	451,695	-0,033	-0,053
-522,204	53,335	0,165	-0,114
-521,189	-139,551	0,031	0,002
-520,175	94,784	-0,061	-0,050
-519,160	-41,334	-0,022	-0,008
-518,145	-200,000	0,012	0,073
-517,131	228,208	0,038	0,044
-516,116	51,720	0,123	0,084
-515,102	-200,000	0,017	0,087
-514,087	-1,788	-0,144	-0,073
-513,072	800,000	-0,074	-0,158
-512,058	-200,000	0,031	-0,137
-511,043	-166,063	0,124	0,004
-510,029	800,000	0,034	0,093
-509,014	255,395	-0,093	0,115
-507,999	185,078	-0,042	0,045
-506,985	-10,738	-0,073	-0,035
-505,970	617,501	0,046	-0,083
-504,956	100,013	-0,026	0,021
-503,941	-169,751	-0,095	-0,002
-502,926	-200,000	-0,022	0,087
-501,912	253,454	-0,047	0,058
-500,897	466,750	-0,070	-0,113
-499,883	-200,000	0,007	0,082
-498,868	-90,821	-0,094	-0,019
-497,853	800,000	-0,035	-0,092
-496,839	69,376	-0,011	-0,008
-495,824	-13,396	0,035	0,016
-494,810	106,407	-0,090	0,077
-493,795	-200,000	0,016	-0,123
-492,781	19,269	0,060	0,034
-491,766	10,732	-0,005	0,003
-490,751	109,351	-0,028	0,024
-489,737	372,495	-0,008	0,012
-488,722	-52,639	-0,111	-0,037
-487,708	-200,000	-0,024	-0,125
-486,693	723,182	0,050	0,096
-485,678	-200,000	0,008	0,065
-484,664	-158,603	-0,283	0,012
-483,649	257,739	-0,076	-0,094
-482,635	240,221	0,045	-0,055
-481,620	600,478	0,053	-0,095
-480,605	-60,102	-0,108	-0,033
-479,591	-200,000	0,012	-0,038
-478,576	-200,000	-0,031	-0,107
-477,562	-200,000	-0,001	0,077
-476,547	-120,392	-0,022	-0,003
-475,532	-169,291	0,134	-0,003
-474,518	-200,000	0,024	0,077
-473,503	182,806	0,094	0,100
-472,489	23,414	-0,043	-0,025
-471,474	-200,000	0,007	0,151
-470,459	45,383	-0,087	0,057
-469,445	133,094	0,062	-0,058
-468,430	176,463	0,128	0,134
-467,416	-200,000	-0,031	-0,129
-466,401	-0,395	0,039	0,020
-465,386	-200,000	-0,020	-0,105
-464,372	800,000	0,048	-0,116
-463,357	172,758	-0,106	0,109
-462,343	-133,539	-0,067	0,006
-461,328	463,564	-0,048	-0,078
-460,313	-200,000	0,042	-0,150
-459,299	500,961	-0,023	-0,039
-458,284	-19,677	-0,128	-0,057
-457,270	-200,000	-0,021	-0,121
-456,255	-110,455	0,149	-0,022
-455,241	-83,478	-0,076	0,017
-454,226	681,944	-0,042	-0,078
-453,211	-77,812	0,104	-0,026
-452,197	12,994	-0,046	0,025
-451,182	800,000	-0,001	-0,003
-450,168	234,801	-0,130	0,154
-449,153	800,000	-0,056	0,142
-448,138	80,113	-0,063	0,049
-447,124	-130,108	0,082	-0,008
-446,109	158,452	-0,028	-0,028
-445,095	-4,778	-0,112	0,055
-444,080	116,412	0,092	0,081
-443,065	121,156	0,084	0,075
-442,051	104,269	-0,055	-0,046
-441,036	490,524	-0,016	-0,026
-440,022	-200,000	0,000	-0,044
-439,007	-120,299	0,058	0,007
-437,992	-17,121	0,091	0,041
-436,978	-92,341	0,113	0,023
-435,963	35,347	0,037	0,023
-434,949	217,175	-0,005	0,005
-433,934	-200,000	0,005	0,098
-432,919	186,931	-0,059	0,063
-431,905	-200,000	0,001	0,074
-430,890	145,690	-0,027	-0,026
-429,876	-5,216	-0,033	0,016
-428,861	-90,677	0,142	0,029
-427,846	65,347	0,063	0,046
-426,832	137,054	-0,045	-0,042
-425,817	-200,000	-0,024	-0,124
-424,803	800,000	0,049	-0,139
-423,788	157,422	-0,112	0,111
-422,773	-157,661	0,081	0,003
-421,759	-46,824	-0,088	-0,031
-420,744	800,000	0,023	-0,053
-419,730	-200,000	-0,035	0,179
-418,715	-200,000	0,002	-0,107
-417,701	314,193	0,028	-0,038
-416,686	-200,000	0,013	-0,092
-415,671	-39,879	-0,076	0,028
-414,657	-46,582	0,129	-0,045
-413,642	11,180	0,090	0,049
-412,628	174,321	0,113	-0,117
-411,613	-200,000	0,028	-0,115
-410,598	168,973	-0,005	0,005
-409,584	635,899	-0,085	-0,157
-408,569	-28,633	-0,098	0,040
-407,555	130,242	0,108	0,100
-406,540	-200,000	-0,012	0,076
-405,525	-111,286	0,081	-0,012
-404,511	269,537	-0,003	-0,004
-403,496	-200,000	0,000	-0,052
-402,482	-66,017	0,080	-0,023
-401,467	-200,000	0,007	0,059
-400,452	175,043	0,078	0,081
-399,438	-200,000	0,005	0,017
-398,423	-200,000	0,039	-0,163
-397,409	21,199	-0,131	0,076
-396,394	-125,836	-0,074	0,008
-395,379	-148,418	0,010	0,001
-394,365	204,167	0,092	0,102
-393,350	-105,104	0,079	-0,013
-392,336	198,446	-0,071	0,078
-391,321	-112,612	-0,194	-0,027
-390,306	-200,000	-0,017	-0,140
-389,292	-200,000	-0,035	-0,113
-388,277	-200,000	0,002	0,073
-387,263	-194,617	-0,051	0,000
-386,248	-200,000	-0,011	0,070
-385,233	-144,896	0,048	0,003
-384,219	-6,511	-0,182	-0,089
-383,204	-163,524	-0,021	-0,001
-382,190	-137,897	0,057	-0,004
-381,175	-84,412	-0,170	0,038
-380,160	-81,649	0,063	0,015
-379,146	136,190	-0,144	0,134
-378,131	419,236	0,086	0,133
-377,117	26,797	-0,096	0,057
-376,102	3,849	0,115	-0,060
-375,088	-184,792	-0,198	-0,002
-374,073	291,773	0,071	0,093
-373,058	3,319	0,124	-0,064
-372,044	-200,000	0,015	-0,075
-371,029	-73,632	0,151	0,039
-370,015	157,631	0,081	0,081
-369,000	8,641	0,115	0,062
-367,985	338,900	-0,057	0,080
-366,971	-200,000	-0,015	-0,147
-365,956	-10,737	0,171	-0,081
-364,942	150,459	0,065	0,063
-363,927	-134,487	0,026	0,002
-362,912	-53,831	0,071	0,023
-361,898	-82,964	0,103	0,024
-360,883	-200,000	0,001	-0,138
-359,869	133,145	-0,079	0,073
-358,854	-200,000	-0,010	-0,151
-357,839	-151,090	0,058	-0,003
-356,825	-200,000	0,007	-0,051
-355,810	26,204	-0,143	0,085
-354,796	-139,329	-0,066	0,005
-353,781	209,740	-0,066	-0,074
-352,766	-57,088	-0,130	-0,041
-351,752	-154,051	-0,065	0,003
-350,737	195,845	0,098	0,107
-349,723	667,789	0,062	0,115
-348,708	456,093	0,021	0,033
-347,693	106,311	0,108	0,092
-346,679	-200,000	0,021	0,108
-345,664	800,000	-0,019	0,048
-344,650	800,000	0,045	-0,111
-343,635	-200,000	0,022	-0,120
-342,620	203,788	0,111	0,123
-341,606	-117,785	-0,046	-0,006
-340,591	-137,951	0,168	-0,013
-339,577	800,000	0,006	0,014
-338,562	488,424	-0,051	0,085
-337,548	-200,000	0,034	-0,142
-336,533	-151,118	0,183	-0,010
-335,518	45,520	0,092	0,061
-334,504	-75,695	0,078	-0,020
-333,489	-134,059	0,018	-0,002
-332,475	-97,983	-0,124	-0,023
-331,460	44,311	-0,096	-0,063
-330,445	-53,945	0,070	-0,023
-329,431	188,531	-0,092	-0,098
-328,416	-0,810	0,096	-0,049
-327,402	800,000	0,034	0,103
-326,387	-48,304	-0,084	0,029
-325,372	800,000	0,044	-0,113
-324,358	-200,000	-0,017	-0,072
-323,343	-200,000	-0,021	-0,096
-322,329	-131,685	-0,090	0,008
-321,314	-21,819	0,165	0,072
-320,299	-8,523	-0,109	0,052
-319,285	-77,770	0,184	-0,045
-318,270	2,474	-0,120	0,062
-317,256	-25,443	0,086	-0,036
-316,241	41,975	-0,160	-0,104
-315,226	83,009	0,054	-0,042
-314,212	305,995	-0,037	0,050
-313,197	800,000	0,088	-0,191
-312,183	-38,182	0,068	0,026
-311,168	-134,997	-0,110	-0,009
-310,153	328,654	-0,090	-0,124
-309,139	-16,423	0,032	0,014
-308,124	199,432	0,054	-0,060
-307,110	675,331	-0,045	0,084
-306,095	-100,917	0,096	-0,017
-305,080	489,663	-0,100	0,163
-304,066	-9,561	-0,071	-0,034
-303,051	17,442	0,050	0,028
-302,037	474,490	0,083	-0,134
-301,022	645,343	-0,032	-0,059
-300,008	24,957	-0,027	0,016
-298,993	432,216	-0,038	-0,058
-297,978	-90,911	0,172	0,035
-296,964	-0,087	-0,069	-0,035
-295,949	-42,945	-0,113	-0,041
-294,935	158,503	-0,042	0,042
-293,920	159,472	0,088	-0,088
-292,905	800,000	0,057	0,132
-291,891	571,847	0,073	-0,128
-290,876	-87,757	-0,065	0,014
-289,862	-26,754	0,064	0,027
-288,847	461,374	-0,035	-0,055
-287,832	-38,580	-0,169	-0,063
-286,818	383,885	0,069	-0,102
-285,803	-200,000	0,011	-0,061
-284,789	-82,182	0,101	0,023
-283,774	800,000	-0,017	-0,046
-282,759	313,255	0,136	-0,183
-281,745	99,829	0,043	-0,036
-280,730	-200,000	0,007	-0,052
-279,716	235,725	-0,038	0,045
-278,701	44,044	0,092	0,060
-277,686	-200,000	0,010	0,105
-276,672	613,006	0,038	0,069
-275,657	-69,826	0,095	0,026
-274,643	800,000	0,015	0,035
-273,628	-200,000	0,021	-0,070
-272,613	544,502	-0,028	-0,047
-271,599	209,729	0,050	0,056
-270,584	-6,812	0,115	0,056
-269,570	-200,000	0,030	0,121
-268,555	-200,000	-0,011	0,041
-267,540	-200,000	-0,028	0,153
-266,526	187,022	-0,064	-0,068
-265,511	800,000	-0,062	-0,162
-264,497	-10,509	-0,038	0,018
-263,482	122,467	0,084	-0,075
-262,467	592,300	-0,054	0,095
-261,453	-200,000	-0,019	0,160
-260,438	182,560	0,032	0,034
-259,424	99,285	-0,044	0,036
-258,409	-124,321	-0,145	-0,016
-257,395	800,000	0,057	-0,165
-256,380	110,107	-0,065	0,056
-255,365	-153,929	0,100	-0,005
-254,351	-200,000	-0,003	-0,013
-253,336	176,535	0,080	-0,083
-252,322	-121,305	-0,148	-0,017
-251,307	-49,049	0,232	0,079
-250,292	-57,409	0,027	-0,008
-249,278	337,943	0,031	0,043
-248,263	-200,000	0,021	0,077
-247,249	-200,000	0,031	0,125
-246,234	83,098	-0,136	-0,106
-245,219	-56,222	0,048	-0,015
-244,205	709,891	0,051	-0,098
-243,190	800,000	0,051	-0,159
-242,176	-150,417	0,103	-0,006
-241,161	-84,431	0,139	0,031
-240,146	-124,408	-0,149	-0,016
-239,132	-75,002	-0,019	0,005
-238,117	-105,284	-0,117	-0,019
-237,103	-200,000	0,002	-0,126
-236,088	147,088	0,041	-0,039
-235,073	110,437	0,141	0,121
-234,059	21,455	-0,075	0,043
-233,044	-173,511	0,070	0,001
-232,030	-200,000	0,024	0,079
-231,015	-111,507	-0,150	-0,022
-230,000	65,416	-0,058	-0,042
-228,986	30,420	0,086	-0,052
-227,971	137,432	0,082	0,077
-226,957	32,489	0,050	0,031
-225,942	800,000	-0,088	0,179
-224,927	800,000	-0,035	0,090
-223,913	800,000	-0,051	0,105
-222,898	216,662	0,073	-0,083
-221,884	66,842	-0,081	-0,059
-220,869	773,126	0,016	0,031
-219,855	-200,000	0,019	0,062
-218,840	757,443	0,010	0,020
-217,825	310,395	-0,090	-0,120
-216,811	800,000	-0,040	0,107
-215,796	-114,900	0,036	-0,005
-214,782	-200,000	0,011	0,099
-213,767	229,274	-0,054	-0,063
-212,752	439,577	-0,066	0,104
-211,738	282,104	0,094	-0,120
-210,723	-82,537	-0,093	-0,021
-209,709	4,262	-0,026	0,014
-208,694	407,823	-0,082	0,123
-207,679	-92,857	0,046	-0,009
-206,665	-66,849	0,053	0,015
-205,650	-200,000	-0,007	-0,109
-204,636	800,000	-0,008	-0,016
-203,621	800,000	-0,022	0,050
-202,606	-1,618	-0,098	0,049
-201,592	50,434	-0,071	0,048
-200,577	800,000	0,019	-0,048
-199,563	162,389	-0,142	0,142
-198,548	-30,522	0,092	0,037
-197,533	800,000	-0,034	0,093
-196,519	-52,384	-0,115	0,038
-195,504	481,260	-0,084	0,136
-194,490	-0,244	-0,128	-0,064
-193,475	220,848	0,031	-0,036
-192,460	-42,701	-0,067	0,024
-191,446	41,582	0,061	-0,039
-190,431	800,000	0,054	0,132
-189,417	-142,707	0,024	-0,002
-188,402	-200,000	0,004	-0,014
-187,387	-10,679	0,128	0,060
-186,373	-200,000	0,026	-0,105
-185,358	276,899	0,029	-0,037
-184,344	-200,000	0,001	0,056
-183,329	-75,509	0,038	-0,009
-182,315	-200,000	-0,004	0,082
-181,300	-101,443	-0,038	0,006
-180,285	-78,156	-0,093	0,023
-179,271	312,433	0,040	-0,053
-178,256	-84,604	0,032	0,007
-177,242	-90,297	-0,130	-0,027
-176,227	134,871	0,037	-0,034
-175,212	-200,000	-0,015	0,111
-174,198	-84,628	-0,119	0,026
-173,183	-66,551	-0,047	0,013
-172,169	292,481	-0,057	-0,074
-171,154	10,326	-0,159	-0,086
-170,139	-96,581	0,110	-0,020
-169,125	27,500	0,108	0,065
-168,110	8,633	-0,091	0,049
-167,096	-200,000	-0,005	0,095
-166,081	-75,232	0,097	-0,024
-165,066	800,000	0,026	-0,065
-164,052	800,000	-0,026	0,053
-163,037	219,310	0,058	0,066
-162,023	417,015	-0,088	0,134
-161,008	800,000	-0,046	0,135
-159,993	-145,962	0,097	-0,006
-158,979	31,255	0,067	-0,041
-157,964	-200,000	0,008	-0,042
-156,950	94,663	-0,050	0,041
-155,935	-127,532	0,059	-0,006
-154,920	800,000	0,032	0,068
-153,906	-200,000	0,020	0,195
-152,891	645,402	0,085	0,155
-151,877	-200,000	-0,007	-0,051
-150,862	242,179	0,148	0,176
-149,847	92,890	0,091	0,073
-148,833	800,000	0,028	0,060
-147,818	-200,000	-0,008	-0,056
-146,804	800,000	0,083	-0,191
-145,789	800,000	0,064	0,156
-144,775	-74,545	0,092	0,023
-143,760	590,275	-0,069	-0,122
-142,745	-200,000	0,022	-0,075
-141,731	-155,727	0,057	-0,003
-140,716	-200,000	-0,005	-0,065
-139,702	367,946	0,044	0,063
-138,687	311,068	0,073	-0,098
-137,672	190,159	-0,058	-0,062
-136,658	-136,065	-0,023	0,002
-135,643	-52,800	0,099	0,032
-134,629	176,433	-0,056	0,058
-133,614	800,000	0,048	0,115
-132,599	366,108	-0,089	0,128
-131,585	-126,691	0,079	0,008
-130,570	681,372	-0,050	0,093
-129,556	-21,830	-0,090	-0,039
-128,541	800,000	-0,045	-0,124
-127,526	-200,000	-0,001	-0,024
-126,512	-200,000	-0,027	0,099
-125,497	-119,802	0,111	0,013
-124,483	-200,000	0,010	-0,042
-123,468	-62,271	0,111	0,033
-122,453	-200,000	0,010	-0,127
-121,439	-127,117	-0,079	0,008
-120,424	-200,000	-0,002	-0,043
-119,410	239,964	-0,074	0,087
-118,395	-200,000	-0,038	0,154
-117,380	164,175	0,045	0,045
-116,366	-87,744	-0,061	0,013
-115,351	800,000	0,024	0,054
-114,337	114,252	-0,133	0,115
-113,322	39,900	-0,027	-0,017
-112,307	75,960	0,112	-0,084
-111,293	-134,079	0,124	-0,011
-110,278	283,446	-0,054	0,069
-109,264	-49,974	0,070	0,023
-108,249	800,000	-0,016	0,035
-107,234	-200,000	-0,006	-0,072
-106,220	119,179	-0,081	-0,071
-105,205	556,250	-0,032	-0,056
-104,191	114,092	0,044	0,038
-103,176	568,771	-0,014	-0,024
-102,162	104,520	0,022	-0,018
-101,147	204,843	-0,027	-0,030
-100,132	800,000	-0,047	-0,107
-99,118	-200,000	0,003	-0,076
-98,103	498,251	0,035	0,057
-97,089	212,424	0,079	0,089
-96,074	-200,000	-0,021	0,066
-95,059	-175,121	0,019	-0,000
-94,045	20,226	-0,110	-0,063
-93,030	-170,742	-0,029	-0,001
-92,016	-200,000	-0,008	0,091
-91,001	-104,720	0,159	-0,026
-89,986	362,680	-0,037	0,052
-88,972	-200,000	0,024	-0,125
-87,957	-200,000	-0,004	-0,060
-86,943	522,503	-0,028	0,047
-85,928	800,000	-0,017	0,044
-84,913	-200,000	0,013	-0,044
-83,899	-15,714	-0,104	0,047
-82,884	800,000	0,060	0,175
-81,870	164,254	0,072	-0,072
-80,855	-48,871	0,032	-0,011
-79,840	-200,000	-0,019	0,119
-78,826	-55,102	-0,037	-0,012
-77,811	176,578	-0,021	-0,021
-76,797	198,967	-0,160	0,174
-75,782	84,851	0,083	-0,064
-74,767	-28,316	0,096	0,039
-73,753	-171,963	-0,141	-0,003
-72,738	-17,010	0,106	0,047
-71,724	56,654	-0,110	-0,076
-70,709	-49,401	-0,033	-0,011
-69,694	21,831	0,038	0,022
-68,680	-152,732	-0,027	0,001
-67,665	11,910	0,099	0,054
-66,651	13,695	0,107	0,059
-65,636	-200,000	0,019	0,112
-64,622	-78,147	-0,079	-0,019
-63,607	143,517	-0,079	-0,074
-62,592	3,661	-0,026	0,013
-61,578	699,987	0,064	0,120
-60,563	-74,271	0,180	-0,046
-59,549	27,203	0,061	0,036
-58,534	-33,104	-1,723	-0,673
-57,519	444,970	-1,321	-2,061
-56,505	-200,000	-0,694	-4,518
-55,490	174,893	0,936	0,960
-54,476	800,000	4,901	11,362
-53,461	-200,000	19,256	321,001
-52,446	-200,000	740,549	2336,383
-51,432	573,788	1655,983	2871,216
-50,417	78,379	1671,537	1262,878
-49,403	21,337	1544,244	886,106
-48,388	15,227	1466,803	811,945
-47,373	18,025	1457,249	820,155
-46,359	16,745	1447,011	808,218
-45,344	13,433	1442,384	789,726
-44,330	13,358	1440,455	788,282
-43,315	13,376	1438,760	787,409
-42,300	13,405	1436,728	786,403
-41,286	13,415	1435,691	785,854
-40,271	13,346	1434,452	784,815
-39,257	13,404	1433,097	784,317
-38,242	13,390	1431,880	783,556
-37,227	13,455	1430,386	783,014
-36,213	13,418	1429,323	782,225
-35,198	13,411	1427,975	781,424
-34,184	13,499	1427,177	781,373
-33,169	13,376	1425,903	780,060
-32,154	13,444	1424,751	779,725
-31,140	13,467	1423,442	779,086
-30,125	13,460	1422,350	778,421
-29,111	13,437	1421,373	777,751
-28,096	13,405	1420,272	776,965
-27,082	13,347	1419,101	776,019
-26,067	13,325	1417,917	775,238
-25,052	13,372	1416,769	774,798
-24,038	13,356	1415,882	774,210
-23,023	13,363	1414,765	773,601
-22,009	13,324	1413,910	772,918
-20,994	13,341	1413,002	772,474
-19,979	13,253	1412,128	771,549
-18,965	13,297	1411,138	771,186
-17,950	13,295	1410,211	770,638
-16,936	13,330	1409,212	770,224
-15,921	13,293	1408,072	769,397
-14,906	13,268	1407,269	768,812
-13,892	13,254	1406,324	768,203
-12,877	13,263	1405,620	767,826
-11,863	13,255	1404,599	767,202
-10,848	13,332	1403,746	767,064
-9,833	13,257	1402,737	766,134
-8,819	13,168	1401,937	765,252
-7,804	13,165	1401,185	764,798
-6,790	13,175	1400,161	764,252
-5,775	13,202	1398,797	763,605
-4,760	13,211	1397,731	763,033
-3,746	13,164	1397,043	762,409
-2,731	13,139	1396,336	761,876
-1,717	13,134	1395,376	761,301
-0,702	13,143	1393,573	760,327
0,313	16,997	1310,421	732,819
1,327	33,168	704,246	431,239
2,342	51,171	123,446	82,740
3,356	0,695	16,621	8,388
4,371	-8,329	3,329	1,579
5,386	10,503	0,661	0,355
6,400	800,000	0,189	0,418
7,415	75,548	-0,249	-0,186
8,429	134,524	-0,263	-0,241
9,444	80,432	-0,297	-0,226
10,459	151,289	-0,132	-0,127
11,473	12,364	-0,333	-0,181
12,488	248,580	-0,146	-0,175
13,502	132,954	-0,275	-0,251
14,517	82,705	-0,289	-0,222
15,531	27,519	-0,302	-0,179
16,546	66,802	-0,549	-0,394
17,561	161,494	-0,347	-0,344
18,575	119,196	-0,185	-0,162
19,590	183,883	-0,218	-0,228
20,604	125,905	-0,287	-0,256
21,619	14,121	-0,464	-0,255
22,634	24,658	-0,485	-0,283
23,648	164,587	-0,354	-0,352
24,663	90,206	-0,347	-0,274
25,677	297,144	-0,252	-0,327
26,692	-0,232	-0,283	-0,142
27,707	106,040	-0,389	-0,325
28,721	116,942	-0,288	-0,250
29,736	298,146	-0,313	-0,407
30,750	9,235	-0,464	-0,247
31,765	-44,860	-0,519	-0,182
32,780	62,765	-0,373	-0,263
33,794	40,385	-0,314	-0,199
34,809	87,965	-0,343	-0,268
35,823	105,939	-0,384	-0,321
36,838	54,224	-0,452	-0,306
37,853	174,373	-0,346	-0,353
38,867	91,273	-0,422	-0,334
39,882	179,431	-0,292	-0,302
40,896	132,841	-0,216	-0,197
41,911	60,199	-0,259	-0,180
42,926	-27,356	-0,356	-0,146
43,940	103,573	-0,282	-0,234
44,955	37,049	-0,435	-0,271
45,969	105,647	-0,428	-0,356
46,984	303,608	-0,223	-0,292
47,999	139,624	-0,331	-0,307
49,013	65,426	-0,242	-0,173
50,028	355,022	-0,248	-0,349
51,042	32,923	-0,242	-0,147
52,057	41,717	-0,327	-0,208
53,071	58,121	-0,419	-0,289
54,086	-7,835	-0,427	-0,202
55,101	52,099	-0,385	-0,258
56,115	125,898	-0,335	-0,298
57,130	148,031	-0,312	-0,296
58,144	0,249	-0,378	-0,189
59,159	1,601	-0,495	-0,250
60,174	79,499	-0,449	-0,339
61,188	213,602	-0,282	-0,314
62,203	46,301	-0,506	-0,330
63,217	347,389	-0,196	-0,273
64,232	139,583	-0,394	-0,365
65,247	170,733	-0,293	-0,296
66,261	41,052	-0,383	-0,243
67,276	22,218	-0,467	-0,267
68,290	3,701	-0,327	-0,168
69,305	-66,555	-0,433	-0,120
70,320	0,179	-0,270	-0,135
71,334	182,156	-0,210	-0,218
72,349	142,016	-0,302	-0,282
73,363	138,638	-0,325	-0,301
74,378	81,277	-0,353	-0,268
75,393	-53,360	-0,292	-0,093
76,407	70,986	-0,259	-0,188
77,422	120,970	-0,297	-0,260
78,436	185,344	-0,282	-0,294
79,451	70,212	-0,385	-0,279
80,466	-33,684	-0,328	-0,126
81,480	84,680	-0,306	-0,235
82,495	-31,398	-0,253	-0,100
83,509	-39,462	-0,281	-0,103
84,524	331,927	-0,147	-0,200
85,539	26,066	-0,313	-0,183
86,553	9,294	-0,306	-0,162
87,568	76,793	-0,335	-0,250
88,582	93,905	-0,331	-0,264
89,597	107,010	-0,393	-0,327
90,611	-32,098	-0,283	-0,111
91,626	63,792	-0,183	-0,129
92,641	26,699	-0,249	-0,146
93,655	86,559	-0,242	-0,187
94,670	-81,145	-0,336	-0,077
95,684	-74,158	-0,449	-0,113
96,699	-6,708	-0,357	-0,170
97,714	157,048	-0,188	-0,183
98,728	77,512	-0,278	-0,207
99,743	-63,266	-0,319	-0,092
100,757	313,491	-0,161	-0,213
101,772	-24,490	-0,321	-0,134
102,787	34,203	-0,391	-0,239
103,801	25,974	-0,341	-0,199
104,816	104,859	-0,290	-0,239
105,830	528,830	-0,120	-0,199
106,845	800,000	-0,054	-0,146
107,860	103,820	-0,243	-0,200
108,874	1,468	-0,193	-0,097
109,889	-10,131	-0,315	-0,146
110,903	209,439	-0,227	-0,249
111,918	134,092	-0,267	-0,243
112,933	-48,289	-0,228	-0,076
113,947	179,690	-0,166	-0,171
114,962	-27,399	-0,283	-0,115
115,976	47,650	-0,272	-0,177
116,991	-64,117	-0,305	-0,087
118,006	93,197	-0,312	-0,247
119,020	70,142	-0,295	-0,213
120,035	275,631	-0,221	-0,275
121,049	53,586	-0,256	-0,172
122,064	-188,427	-0,347	-0,003
123,079	34,336	-0,226	-0,138
124,093	167,246	-0,259	-0,258
125,108	584,917	-0,189	-0,327
126,122	211,074	-0,258	-0,284
127,137	184,095	-0,179	-0,186
128,151	29,097	-0,196	-0,116
129,166	237,437	-0,132	-0,153
130,181	-86,444	-0,399	-0,085
131,195	41,580	-0,224	-0,141
132,210	85,636	-0,211	-0,162
133,224	-28,884	-0,231	-0,092
134,239	347,895	-0,089	-0,124
135,254	29,035	-0,225	-0,133
136,268	15,463	-0,294	-0,161
137,283	28,116	-0,361	-0,213
138,297	-83,195	-0,280	-0,062
139,312	139,236	-0,299	-0,275
140,327	186,995	-0,230	-0,240
141,341	800,000	-0,115	-0,321
142,356	13,612	-0,140	-0,076
143,370	-67,066	-0,221	-0,061
144,385	9,577	-0,223	-0,118
145,400	77,092	-0,203	-0,150
146,414	-40,577	-0,280	-0,101
147,429	86,643	-0,316	-0,244
148,443	-14,833	-0,304	-0,136
149,458	-93,034	-0,316	-0,061
150,473	-33,290	-0,310	-0,119
151,487	-84,241	-0,192	-0,042
152,502	35,071	-0,278	-0,170
153,516	11,547	-0,325	-0,173
154,531	90,920	-0,182	-0,142
155,546	86,727	-0,193	-0,148
156,560	70,697	-0,286	-0,206
157,575	-58,310	-0,162	-0,049
158,589	169,787	-0,237	-0,236
159,604	312,592	-0,140	-0,184
160,619	339,560	-0,130	-0,177
161,633	73,357	-0,304	-0,222
162,648	-21,389	-0,275	-0,117
163,662	113,759	-0,268	-0,227
164,677	237,895	-0,213	-0,247
165,692	299,117	-0,133	-0,171
166,706	12,087	-0,182	-0,098
167,721	-152,344	-0,270	-0,013
168,735	-90,983	-0,258	-0,051
169,750	27,588	-0,230	-0,134
170,764	-92,641	-0,276	-0,053
171,779	-4,764	-0,167	-0,080
172,794	448,471	-0,094	-0,145
173,808	554,234	-0,198	-0,333
174,823	154,620	-0,181	-0,173
175,837	77,422	-0,271	-0,201
176,852	-36,708	-0,316	-0,118
177,867	42,008	-0,247	-0,156
178,881	76,870	-0,217	-0,160
179,896	-200,000	-0,057	-0,190
180,910	800,000	-0,086	-0,257
181,925	63,964	-0,244	-0,170
182,940	110,575	-0,195	-0,164
183,954	-89,828	-0,303	-0,061
184,969	201,479	-0,211	-0,227
185,983	195,801	-0,110	-0,117
186,998	228,195	-0,128	-0,146
188,013	-6,614	-0,102	-0,048
189,027	91,335	-0,197	-0,154
190,042	-10,380	-0,315	-0,145
191,056	213,792	-0,219	-0,241
192,071	-2,448	-0,240	-0,116
193,086	154,313	-0,179	-0,171
194,100	159,952	-0,155	-0,150
195,115	215,412	-0,229	-0,253
196,129	60,371	-0,208	-0,143
197,144	-67,145	-0,160	-0,044
198,159	265,126	-0,210	-0,255
199,173	-33,665	-0,254	-0,097
200,188	19,720	-0,198	-0,111
201,202	51,010	-0,110	-0,072
202,217	149,566	-0,233	-0,220
203,232	281,125	-0,165	-0,205
204,246	198,307	-0,230	-0,244
205,261	800,000	-0,113	-0,337
206,275	94,590	-0,109	-0,086
207,290	-79,398	-0,297	-0,069
208,304	23,694	-0,277	-0,158
209,319	800,000	-0,097	-0,198
210,334	-139,382	-0,225	-0,017
211,348	68,106	-0,248	-0,176
212,363	188,613	-0,135	-0,141
213,377	190,256	-0,124	-0,129
214,392	193,621	-0,261	-0,274
215,407	411,104	-0,119	-0,176
216,421	662,121	-0,096	-0,172
217,436	-64,106	-0,281	-0,079
218,450	246,951	-0,169	-0,199
219,465	14,560	-0,162	-0,088
220,480	16,728	-0,222	-0,121
221,494	162,277	-0,181	-0,177
222,509	37,234	-0,165	-0,101
223,523	32,248	-0,158	-0,095
224,538	800,000	-0,086	-0,190
225,553	24,732	-0,181	-0,104
226,567	44,597	-0,288	-0,184
227,582	800,000	-0,070	-0,145
228,596	371,443	-0,146	-0,206
229,611	175,210	-0,130	-0,130
230,626	266,016	-0,145	-0,176
231,640	158,254	-0,164	-0,158
232,655	53,964	-0,219	-0,146
233,669	548,657	-0,194	-0,324
234,684	379,928	-0,139	-0,198
235,699	-165,703	-0,127	0,004
236,713	520,213	-0,112	-0,182
237,728	-39,604	-0,241	-0,087
238,742	226,744	-0,100	-0,113
239,757	35,428	-0,265	-0,161
240,772	21,557	-0,185	-0,104
241,786	259,965	-0,156	-0,187
242,801	-13,412	-0,129	-0,058
243,815	2,237	-0,212	-0,106
244,830	144,084	-0,186	-0,172
245,844	800,000	-0,072	-0,156
246,859	55,442	-0,147	-0,099
247,874	66,009	-0,134	-0,094
248,888	189,864	-0,176	-0,183
249,903	-200,000	-0,035	-0,224
250,917	-81,415	-0,252	-0,057
251,932	112,460	-0,103	-0,086
252,947	-183,716	-0,259	0,003
253,961	-34,862	-0,254	-0,095
254,976	-5,657	-0,184	-0,087
255,990	181,004	-0,215	-0,219
257,005	64,169	-0,194	-0,135
258,020	203,357	-0,126	-0,135
259,034	-190,908	-0,147	0,001
260,049	327,892	-0,029	-0,039
261,063	-40,226	-0,237	-0,085
262,078	108,209	-0,239	-0,197
263,093	100,937	-0,197	-0,158
264,107	-49,498	-0,215	-0,070
265,122	-55,947	-0,237	-0,073
266,136	-111,774	-0,153	0,021
267,151	29,923	-0,180	-0,106
268,166	677,290	-0,088	-0,158
269,180	247,959	-0,203	-0,238
270,195	57,178	-0,219	-0,148
271,209	50,728	-0,135	-0,088
272,224	245,316	-0,220	-0,257
273,239	-171,930	-0,087	0,002
274,253	365,073	-0,105	-0,146
275,268	682,930	-0,106	-0,191
276,282	527,643	-0,106	-0,173
277,297	473,222	-0,138	-0,216
278,312	-58,568	-0,266	-0,079
279,326	-36,838	-0,210	-0,077
280,341	181,046	-0,148	-0,150
281,355	800,000	-0,125	-0,275
282,370	-52,256	-0,133	-0,042
283,384	-15,777	-0,139	-0,061
284,399	-12,403	-0,254	-0,114
285,414	126,934	-0,143	-0,126
286,428	-200,000	-0,055	-0,205
287,443	235,920	-0,168	-0,192
288,457	41,213	-0,137	-0,085
289,472	-70,638	-0,204	-0,053
290,487	83,702	-0,113	-0,085
291,501	-44,797	-0,189	-0,065
292,516	192,465	-0,191	-0,199
293,530	-85,387	-0,278	-0,059
294,545	153,712	-0,137	-0,129
295,560	359,211	-0,031	-0,043
296,574	-7,089	-0,195	-0,091
297,589	420,739	-0,064	-0,096
298,603	-60,483	-0,195	-0,057
299,618	-200,000	0,006	-0,164
300,633	-200,000	-0,018	-0,111
301,647	-200,000	-0,032	-0,101
302,662	254,215	-0,077	-0,091
303,676	-26,528	-0,134	-0,054
304,691	746,101	-0,069	-0,129
305,706	599,951	-0,099	-0,170
306,720	-198,865	-0,219	-0,001
307,735	32,894	-0,113	-0,067
308,749	-200,000	-0,036	-0,140
309,764	381,360	-0,081	-0,115
310,779	-110,886	-0,077	-0,011
311,793	6,179	-0,202	-0,103
312,808	-73,980	-0,207	-0,051
313,822	204,995	-0,248	-0,265
314,837	-200,000	-0,049	-0,248
315,852	2,121	-0,103	-0,051
316,866	-0,313	-0,094	0,046
317,881	-94,211	-0,165	0,031
318,895	-33,097	-0,147	-0,056
319,910	-2,578	-0,164	-0,079
320,925	-42,763	-0,121	0,042
321,939	162,206	-0,120	-0,116
322,954	376,895	-0,120	-0,169
323,968	-200,000	0,017	-0,079
324,983	193,468	-0,084	-0,088
325,997	-140,691	-0,184	-0,013
327,012	462,287	-0,151	-0,232
328,027	-95,598	-0,132	0,024
329,041	-19,996	-0,240	-0,101
330,056	-22,299	-0,182	-0,076
331,070	14,066	-0,150	-0,080
332,085	-114,426	-0,208	-0,027
333,100	-87,233	-0,207	-0,043
334,114	182,310	-0,168	-0,171
335,129	31,753	-0,115	-0,068
336,143	131,346	-0,176	-0,156
337,158	511,121	-0,117	-0,188
338,173	211,401	0,002	0,003
339,187	227,351	-0,135	-0,151
340,202	433,486	-0,153	-0,228
341,216	-200,000	-0,010	-0,134
342,231	132,400	-0,204	-0,180
343,246	800,000	-0,104	-0,242
344,260	132,825	-0,128	-0,114
345,275	603,933	-0,053	-0,091
346,289	-174,626	-0,128	0,002
347,304	338,077	-0,079	0,105
348,319	-55,360	-0,143	-0,044
349,333	-200,000	-0,039	-0,153
350,348	21,357	-0,175	-0,098
351,362	800,000	-0,046	-0,135
352,377	49,093	-0,108	-0,069
353,392	-89,007	-0,095	-0,019
354,406	-61,930	-0,145	0,041
355,421	209,570	1313,698	1414,479
356,435	161,297	1474,303	1414,969
