DTS Sentinel unit serial number:	SN410029Multiplexer serial number:	ORYXHardware model number:	OX2-SRSoftware version number:	ORYX F/W v4,00 Oryx Data Collector v3.7.2.0data status	okinstallation	B3 Nyhavnadifferential loss correction	single-endedforward channel	channel 1reverse channel	N/Adate	2023/12/03time	11:57:30forward acquisition time	300,00reverse acquisition time	0,00gamma	499,1914k internal	0,3201k external	0,3201temperature offset calibration	1,0000default loss term (dB/km)	0,3820temperature slope calibration	1,0000multiplexer offset coefficient	1,0000multiplexer slope coefficient	1,0000fibre end	0,00T internal ref (°C)	13,69T ext. ref 1 (°C)	-0,63T ext. ref 2 (°C)	-0,65length (m)	temperature (°C)	Stokes	anti-Stokes-744,400	511,063	-0,200	-0,340
-743,385	-200,000	-0,019	0,171
-742,371	800,000	0,116	-0,345
-741,356	-200,000	0,082	0,398
-740,342	-90,448	-0,098	-0,021
-739,327	583,445	-0,184	0,329
-738,312	796,072	-0,135	-0,272
-737,298	-200,000	-0,019	0,276
-736,283	37,200	-0,264	-0,170
-735,269	-200,000	-0,048	0,397
-734,254	-88,899	-0,204	-0,044
-733,239	-146,544	-0,190	0,012
-732,225	-200,000	-0,046	-0,156
-731,210	49,007	0,161	0,110
-730,196	14,204	-0,055	-0,031
-729,181	-17,557	0,112	0,051
-728,167	-200,000	0,004	-0,039
-727,152	800,000	0,015	0,041
-726,137	441,011	-0,062	-0,099
-725,123	586,641	-0,052	-0,093
-724,108	-200,000	0,004	-0,053
-723,094	197,686	-0,099	-0,110
-722,079	-91,956	-0,077	0,016
-721,064	382,122	-0,042	-0,062
-720,050	146,381	-0,051	-0,050
-719,035	-200,000	0,011	-0,112
-718,021	800,000	0,029	0,073
-717,006	82,385	-0,063	-0,050
-715,991	800,000	-0,077	-0,170
-714,977	9,255	-0,162	-0,089
-713,962	-104,631	0,083	-0,014
-712,948	-37,206	-0,045	-0,017
-711,933	-11,592	0,144	-0,068
-710,918	-200,000	-0,002	0,106
-709,904	116,304	-0,071	-0,063
-708,889	800,000	0,036	-0,106
-707,875	115,137	-0,051	-0,045
-706,860	124,353	0,109	-0,100
-705,845	-200,000	0,013	-0,056
-704,831	-200,000	0,006	-0,035
-703,816	92,118	0,038	-0,031
-702,802	800,000	0,076	-0,172
-701,787	-170,299	-0,160	0,004
-700,772	216,418	-0,048	-0,056
-699,758	-200,000	0,007	0,111
-698,743	800,000	-0,025	0,063
-697,729	-76,868	-0,103	0,026
-696,714	-200,000	0,002	-0,021
-695,699	-49,169	-0,088	0,030
-694,685	15,714	-0,021	-0,012
-693,670	-164,198	-0,030	0,001
-692,656	-200,000	-0,001	0,009
-691,641	-79,464	-0,026	0,006
-690,627	-124,939	-0,059	-0,007
-689,612	-32,491	-0,036	0,014
-688,597	-99,144	-0,088	0,016
-687,583	-98,705	0,067	0,012
-686,568	-200,000	-0,009	-0,073
-685,554	800,000	-0,010	-0,021
-684,539	-200,000	-0,047	0,164
-683,524	14,068	-0,105	-0,059
-682,510	52,640	0,061	0,042
-681,495	-61,978	-0,042	-0,013
-680,481	-63,603	-0,146	0,043
-679,466	117,632	-0,072	-0,064
-678,451	63,272	0,113	0,082
-677,437	73,686	0,022	0,017
-676,422	-5,638	0,114	-0,057
-675,408	-49,418	-0,117	-0,040
-674,393	-114,975	-0,072	0,010
-673,378	-200,000	-0,006	-0,050
-672,364	161,684	-0,086	-0,088
-671,349	336,617	0,009	-0,012
-670,335	-200,000	-0,013	0,043
-669,320	800,000	0,050	0,125
-668,305	9,641	0,093	-0,051
-667,291	800,000	-0,058	0,124
-666,276	800,000	-0,052	-0,107
-665,262	-200,000	0,000	-0,061
-664,247	-12,809	-0,020	-0,009
-663,232	-90,198	0,096	0,020
-662,218	20,256	-0,062	0,036
-661,203	800,000	0,013	-0,028
-660,189	210,745	-0,003	0,003
-659,174	-61,936	-0,064	0,019
-658,159	-200,000	0,026	-0,091
-657,145	-129,977	0,014	-0,001
-656,130	-148,725	-0,103	-0,006
-655,116	-7,557	-0,034	-0,017
-654,101	297,897	0,052	0,069
-653,086	-134,690	-0,086	-0,007
-652,072	-149,862	-0,063	0,004
-651,057	800,000	-0,058	-0,160
-650,043	-78,280	-0,031	-0,008
-649,028	118,855	0,102	0,091
-648,014	64,073	-0,123	0,090
-646,999	-37,992	-0,032	-0,012
-645,984	-200,000	0,048	0,170
-644,970	-30,135	0,059	-0,024
-643,955	-81,433	-0,076	0,018
-642,941	-200,000	-0,001	-0,037
-641,926	62,027	-0,077	0,056
-640,911	203,682	0,078	-0,087
-639,897	144,225	0,085	0,082
-638,882	79,700	-0,041	0,032
-637,868	135,518	-0,066	-0,063
-636,853	-200,000	-0,046	0,153
-635,838	-11,062	0,055	-0,026
-634,824	800,000	0,044	-0,089
-633,809	7,080	0,057	0,031
-632,795	800,000	-0,018	-0,037
-631,780	-64,123	-0,065	-0,019
-630,765	133,781	0,055	-0,052
-629,751	-200,000	0,017	-0,082
-628,736	-200,000	-0,011	-0,136
-627,722	-157,627	-0,086	0,004
-626,707	-5,202	0,095	-0,047
-625,692	-92,057	0,066	0,013
-624,678	449,701	0,082	-0,132
-623,663	-200,000	0,013	0,049
-622,649	222,787	-0,058	-0,068
-621,634	247,035	-0,170	-0,208
-620,619	-22,544	-0,159	0,069
-619,605	512,967	0,051	-0,087
-618,590	-200,000	0,000	0,073
-617,576	-111,873	0,025	-0,004
-616,561	800,000	-0,062	-0,125
-615,546	313,655	-0,033	-0,046
-614,532	691,184	0,042	-0,080
-613,517	-84,136	-0,039	-0,009
-612,503	104,759	-0,087	-0,074
-611,488	202,713	0,025	0,028
-610,474	-200,000	0,022	0,087
-609,459	121,670	-0,062	-0,056
-608,444	47,242	-0,027	-0,018
-607,430	-200,000	-0,025	-0,153
-606,415	-200,000	-0,016	-0,153
-605,401	63,546	-0,088	-0,064
-604,386	369,262	0,009	0,013
-603,371	800,000	-0,075	-0,211
-602,357	-195,819	-0,043	0,000
-601,342	124,375	0,043	0,039
-600,328	470,505	-0,112	-0,183
-599,313	-200,000	0,016	-0,067
-598,298	-37,342	-0,088	-0,034
-597,284	69,571	0,107	-0,079
-596,269	241,357	0,057	0,069
-595,255	-200,000	-0,012	0,123
-594,240	532,850	0,033	-0,056
-593,225	-74,247	0,078	0,020
-592,211	351,226	0,004	0,006
-591,196	214,523	-0,007	-0,007
-590,182	63,296	-0,172	-0,125
-589,167	-105,498	0,153	0,025
-588,152	-87,505	0,035	-0,008
-587,138	461,960	0,031	-0,050
-586,123	-103,596	-0,062	-0,010
-585,109	-112,468	0,091	0,013
-584,094	800,000	0,025	0,062
-583,079	34,490	0,137	0,086
-582,065	-200,000	-0,015	0,091
-581,050	31,540	-0,050	0,031
-580,036	302,942	0,057	0,077
-579,021	-146,472	-0,167	0,010
-578,006	82,231	-0,031	0,024
-576,992	-200,000	0,014	-0,052
-575,977	-200,000	-0,000	-0,096
-574,963	-200,000	0,013	0,143
-573,948	28,141	-0,056	-0,034
-572,934	71,393	-0,031	0,023
-571,919	-200,000	0,030	-0,196
-570,904	-200,000	0,005	-0,082
-569,890	378,608	-0,095	-0,140
-568,875	-125,957	0,089	-0,010
-567,861	-32,171	0,134	0,054
-566,846	32,288	-0,176	0,109
-565,831	55,680	0,068	0,047
-564,817	20,622	-0,122	-0,071
-563,802	-46,906	0,015	0,005
-562,788	-200,000	0,018	0,074
-561,773	161,682	0,104	0,105
-560,758	-22,821	0,116	-0,051
-559,744	-200,000	-0,009	0,042
-558,729	-115,064	0,036	0,005
-557,715	-124,215	-0,145	-0,016
-556,700	-200,000	-0,022	0,106
-555,685	-6,654	-0,054	-0,027
-554,671	-79,136	0,110	0,027
-553,656	-84,717	0,070	0,016
-552,642	-200,000	0,008	-0,174
-551,627	156,000	-0,063	0,062
-550,612	508,312	-0,028	0,047
-549,598	-200,000	0,024	-0,085
-548,583	-200,000	-0,010	-0,148
-547,569	-71,126	0,047	-0,013
-546,554	19,146	0,124	-0,071
-545,539	-166,009	-0,097	0,003
-544,525	-200,000	0,030	0,161
-543,510	531,990	-0,060	-0,103
-542,496	-161,962	-0,134	-0,005
-541,481	91,284	-0,098	-0,080
-540,466	47,719	0,040	-0,027
-539,452	-200,000	0,003	-0,036
-538,437	800,000	0,049	0,119
-537,423	-200,000	-0,016	-0,056
-536,408	36,577	0,103	-0,065
-535,393	41,268	-0,150	0,097
-534,379	-14,661	-0,117	-0,054
-533,364	800,000	0,071	-0,161
-532,350	50,646	-0,040	0,027
-531,335	-31,401	0,096	0,039
-530,321	44,077	-0,075	0,049
-529,306	-200,000	0,022	-0,134
-528,291	26,393	0,070	-0,042
-527,277	-100,535	-0,043	-0,008
-526,262	800,000	0,025	0,067
-525,248	3,627	0,102	-0,054
-524,233	458,881	0,056	-0,090
-523,218	-200,000	0,013	-0,062
-522,204	-64,636	-0,015	0,004
-521,189	800,000	-0,011	-0,026
-520,175	117,649	-0,120	0,106
-519,160	-200,000	-0,001	0,009
-518,145	47,761	0,091	-0,061
-517,131	104,144	0,053	0,045
-516,116	-20,713	-0,070	0,031
-515,102	-73,523	0,052	-0,013
-514,087	-200,000	-0,037	-0,180
-513,072	800,000	0,015	0,038
-512,058	-200,000	0,020	-0,115
-511,043	800,000	-0,043	0,100
-510,029	215,905	0,009	0,010
-509,014	-200,000	-0,002	-0,094
-507,999	-200,000	-0,028	-0,091
-506,985	62,942	0,026	0,019
-505,970	-165,399	-0,207	-0,006
-504,956	83,589	0,106	-0,083
-503,941	-139,522	-0,222	0,017
-502,926	653,949	0,080	0,148
-501,912	-200,000	-0,018	0,168
-500,897	778,059	-0,033	0,066
-499,883	47,339	-0,133	0,089
-498,868	119,039	0,103	-0,091
-497,853	83,392	0,061	-0,048
-496,839	303,878	0,082	-0,110
-495,824	290,488	-0,077	0,101
-494,810	337,735	-0,068	0,095
-493,795	800,000	0,092	0,206
-492,781	-200,000	-0,010	0,120
-491,766	-50,337	-0,144	-0,049
-490,751	800,000	0,028	-0,071
-489,737	800,000	-0,020	-0,040
-488,722	800,000	-0,046	-0,095
-487,708	-200,000	0,004	0,019
-486,693	-200,000	-0,013	0,112
-485,678	-141,370	0,018	0,001
-484,664	18,466	-0,036	-0,020
-483,649	-164,091	-0,095	0,003
-482,635	-200,000	0,003	0,019
-481,620	188,835	0,062	0,067
-480,605	731,647	0,047	0,090
-479,591	331,941	0,070	0,097
-478,576	268,048	0,066	-0,083
-477,562	670,385	0,014	0,026
-476,547	529,067	-0,035	-0,060
-475,532	-22,190	-0,088	0,038
-474,518	121,480	-0,127	-0,114
-473,503	-76,067	0,162	0,041
-472,489	-110,158	-0,061	-0,009
-471,474	-142,539	0,104	-0,007
-470,459	146,321	0,038	0,037
-469,445	187,893	0,041	-0,044
-468,430	514,587	-0,037	-0,062
-467,416	185,901	-0,095	0,102
-466,401	-46,130	0,063	0,022
-465,386	-58,706	0,091	0,028
-464,372	215,022	0,037	-0,042
-463,357	800,000	-0,030	0,090
-462,343	-200,000	-0,000	0,004
-461,328	-40,367	-0,116	-0,043
-460,313	43,515	-0,063	0,041
-459,299	444,925	-0,017	0,027
-458,284	-37,548	0,137	0,052
-457,270	-69,396	-0,069	-0,019
-456,255	-200,000	-0,014	0,091
-455,241	2,714	-0,111	-0,058
-454,226	-200,000	0,046	-0,196
-453,211	434,170	-0,039	0,062
-452,197	800,000	0,039	0,089
-451,182	-82,570	0,111	0,026
-450,168	530,538	0,063	0,107
-449,153	296,040	0,072	-0,095
-448,138	-117,064	-0,147	-0,019
-447,124	-200,000	-0,014	-0,057
-446,109	254,957	0,029	-0,036
-445,095	-200,000	-0,004	-0,158
-444,080	-200,000	-0,007	0,059
-443,065	92,750	0,091	0,074
-442,051	99,742	0,070	-0,058
-441,036	-114,584	0,005	-0,001
-440,022	800,000	-0,038	-0,081
-439,007	79,614	-0,048	-0,037
-437,992	-200,000	0,008	0,079
-436,978	-200,000	-0,002	0,047
-435,963	-200,000	-0,016	0,108
-434,949	564,935	-0,064	0,111
-433,934	800,000	-0,095	-0,195
-432,919	19,660	0,003	-0,002
-431,905	-99,810	-0,081	-0,014
-430,890	151,267	0,055	0,054
-429,876	758,770	-0,072	0,141
-428,861	-200,000	0,003	-0,034
-427,846	800,000	0,024	-0,054
-426,832	-56,723	-0,091	0,029
-425,817	171,484	0,082	-0,084
-424,803	-200,000	-0,032	-0,117
-423,788	222,772	0,052	0,061
-422,773	-200,000	-0,004	-0,130
-421,759	234,278	0,081	-0,096
-420,744	-200,000	-0,004	-0,082
-419,730	-117,190	-0,103	-0,013
-418,715	164,986	0,092	-0,093
-417,701	206,896	-0,048	0,054
-416,686	111,824	0,026	0,022
-415,671	800,000	0,012	0,033
-414,657	90,777	0,062	0,050
-413,642	-200,000	-0,002	0,149
-412,628	-110,515	-0,060	-0,009
-411,613	-152,448	0,049	0,002
-410,598	162,226	-0,022	0,022
-409,584	368,031	0,053	0,077
-408,569	800,000	0,032	-0,082
-407,555	36,631	-0,034	0,022
-406,540	-4,002	-0,107	-0,053
-405,525	-200,000	-0,018	0,117
-404,511	-189,693	-0,057	-0,000
-403,496	800,000	-0,045	-0,091
-402,482	143,589	-0,078	0,075
-401,467	-73,354	0,211	-0,055
-400,452	-200,000	0,019	0,123
-399,438	800,000	-0,046	0,110
-398,423	-200,000	0,020	-0,066
-397,409	37,437	-0,068	-0,043
-396,394	91,198	0,054	-0,043
-395,379	275,490	0,128	0,163
-394,365	269,903	0,056	0,070
-393,350	-200,000	-0,003	0,076
-392,336	692,838	-0,003	0,005
-391,321	-200,000	-0,005	0,017
-390,306	-200,000	-0,015	-0,056
-389,292	-23,434	0,026	0,011
-388,277	113,666	-0,100	-0,087
-387,263	3,822	0,061	-0,032
-386,248	198,915	0,021	-0,023
-385,233	13,357	0,055	0,030
-384,219	768,611	0,021	0,041
-383,204	-13,859	-0,149	-0,069
-382,190	24,232	-0,029	-0,017
-381,175	-200,000	-0,034	-0,117
-380,160	434,837	0,019	0,030
-379,146	-200,000	0,008	0,041
-378,131	-200,000	0,023	0,106
-377,117	-200,000	0,012	0,080
-376,102	-130,850	-0,118	0,011
-375,088	83,884	0,042	-0,033
-374,073	302,833	-0,036	-0,048
-373,058	-75,498	-0,047	-0,012
-372,044	-73,712	-0,044	0,011
-371,029	800,000	0,043	0,109
-370,015	800,000	-0,024	0,053
-369,000	-91,063	-0,126	0,026
-367,985	118,521	0,038	0,034
-366,971	140,687	-0,044	-0,041
-365,956	800,000	0,034	-0,072
-364,942	97,971	0,015	-0,013
-363,927	-200,000	0,012	0,080
-362,912	-200,000	-0,043	0,161
-361,898	187,918	-0,034	0,036
-360,883	16,203	0,120	0,068
-359,869	-200,000	-0,013	-0,071
-358,854	67,814	0,080	0,059
-357,839	-200,000	0,019	-0,066
-356,825	-200,000	-0,005	0,084
-355,810	-200,000	-0,007	0,071
-354,796	238,135	-0,065	-0,078
-353,781	-65,933	-0,081	-0,023
-352,766	96,582	0,063	0,052
-351,752	800,000	0,012	-0,025
-350,737	-41,670	-0,049	-0,018
-349,723	733,555	0,055	0,106
-348,708	-31,536	0,196	0,079
-347,693	379,202	0,081	-0,120
-346,679	364,633	-0,064	-0,093
-345,664	800,000	0,034	0,080
-344,650	800,000	-0,033	0,067
-343,635	800,000	0,029	0,067
-342,620	630,792	-0,023	-0,042
-341,606	-108,453	-0,090	0,014
-340,591	-117,436	0,049	-0,006
-339,577	-200,000	-0,022	-0,203
-338,562	12,114	0,108	0,059
-337,548	-93,939	-0,106	0,021
-336,533	800,000	0,010	-0,030
-335,518	-63,546	0,105	0,031
-334,504	-35,932	0,095	-0,037
-333,489	351,353	-0,033	-0,046
-332,475	800,000	-0,051	-0,144
-331,460	-200,000	-0,029	-0,126
-330,445	-200,000	-0,025	-0,135
-329,431	800,000	0,076	0,180
-328,416	800,000	0,087	0,173
-327,402	19,954	0,011	-0,007
-326,387	8,295	-0,099	-0,053
-325,372	26,599	-0,036	0,022
-324,358	100,191	-0,022	-0,018
-323,343	794,687	0,079	-0,157
-322,329	-56,474	0,026	0,008
-321,314	527,801	0,019	-0,032
-320,299	-91,057	0,072	0,015
-319,285	-53,651	-0,042	-0,014
-318,270	78,687	0,141	-0,107
-317,256	-103,345	-0,104	-0,017
-316,241	-102,306	-0,084	-0,014
-315,226	-200,000	-0,006	-0,107
-314,212	-0,933	0,107	0,054
-313,197	-200,000	0,022	-0,110
-312,183	-108,521	0,038	0,006
-311,168	133,118	-0,029	-0,026
-310,153	332,500	-0,033	-0,045
-309,139	-200,000	-0,048	-0,214
-308,124	-200,000	-0,004	0,122
-307,110	80,808	0,064	-0,049
-306,095	25,517	-0,043	-0,025
-305,080	44,283	0,046	-0,030
-304,066	-200,000	-0,009	-0,143
-303,051	118,777	-0,061	-0,054
-302,037	268,275	-0,057	-0,072
-301,022	-200,000	-0,027	-0,094
-300,008	39,429	-0,049	0,031
-298,993	9,192	0,012	-0,007
-297,978	-29,080	0,149	-0,061
-296,964	-13,213	0,063	0,029
-295,949	-200,000	0,006	-0,022
-294,935	-141,853	-0,144	-0,010
-293,920	800,000	0,085	0,202
-292,905	128,093	0,034	0,031
-291,891	-85,661	-0,137	0,030
-290,876	-116,239	0,103	-0,014
-289,862	182,694	-0,054	0,057
-288,847	469,213	-0,030	-0,048
-287,832	-200,000	0,011	-0,048
-286,818	303,424	0,094	-0,125
-285,803	800,000	-0,044	0,121
-284,789	177,168	0,069	0,071
-283,774	-11,702	-0,068	0,032
-282,759	-200,000	0,013	0,090
-281,745	222,320	0,051	-0,059
-280,730	547,871	-0,062	0,106
-279,716	-200,000	-0,009	-0,038
-278,701	108,074	0,044	0,038
-277,686	-55,577	-0,111	-0,035
-276,672	800,000	-0,014	-0,034
-275,657	-200,000	0,026	-0,095
-274,643	-54,728	0,147	0,047
-273,628	-56,133	-0,117	0,037
-272,613	-48,892	0,070	0,024
-271,599	26,358	0,058	-0,034
-270,584	-90,688	0,022	-0,004
-269,570	-117,152	-0,134	0,017
-268,555	-156,491	-0,087	-0,004
-267,540	800,000	-0,023	-0,071
-266,526	240,172	-0,019	0,023
-265,511	-200,000	-0,016	-0,101
-264,497	-200,000	0,002	-0,073
-263,482	147,958	0,034	-0,033
-262,467	73,328	0,020	0,015
-261,453	575,408	-0,067	0,118
-260,438	-200,000	-0,015	0,056
-259,424	5,949	-0,150	0,079
-258,409	74,647	0,035	0,026
-257,395	800,000	0,040	0,090
-256,380	94,707	0,148	0,120
-255,365	-200,000	-0,008	0,119
-254,351	41,179	0,072	0,046
-253,336	62,622	0,062	-0,044
-252,322	180,719	-0,097	-0,102
-251,307	-58,949	-0,088	0,027
-250,292	694,951	0,037	0,069
-249,278	322,623	0,066	0,090
-248,263	-200,000	0,008	0,038
-247,249	-200,000	0,038	0,195
-246,234	69,856	0,077	0,056
-245,219	-200,000	-0,006	-0,084
-244,205	-200,000	0,004	-0,082
-243,190	-200,000	0,053	0,177
-242,176	800,000	0,051	0,106
-241,161	-200,000	0,008	0,093
-240,146	-200,000	0,019	0,180
-239,132	89,063	-0,017	0,014
-238,117	-200,000	-0,000	-0,052
-237,103	4,415	0,044	-0,023
-236,088	-200,000	0,061	0,196
-235,073	-128,841	-0,059	0,006
-234,059	800,000	0,029	-0,058
-233,044	71,270	0,066	0,049
-232,030	-200,000	0,002	0,216
-231,015	-123,208	-0,071	0,008
-230,000	-44,382	-0,078	0,028
-228,986	389,260	0,105	0,156
-227,971	116,601	0,064	-0,056
-226,957	-102,993	0,054	0,009
-225,942	166,509	0,040	0,040
-224,927	127,396	0,092	0,083
-223,913	-200,000	-0,029	-0,112
-222,898	-200,000	0,001	0,010
-221,884	392,242	0,021	0,031
-220,869	-200,000	-0,006	-0,020
-219,855	-200,000	-0,057	0,203
-218,840	9,016	-0,120	0,064
-217,825	465,307	0,061	-0,098
-216,811	-6,677	-0,095	0,046
-215,796	-156,584	0,073	-0,003
-214,782	-200,000	-0,046	-0,183
-213,767	145,549	-0,110	-0,105
-212,752	164,531	0,065	-0,065
-211,738	-200,000	0,029	0,167
-210,723	-125,924	-0,094	-0,010
-209,709	-200,000	-0,016	-0,054
-208,694	62,895	0,024	-0,017
-207,679	-86,061	0,170	-0,037
-206,665	-200,000	-0,009	0,081
-205,650	301,158	0,003	0,004
-204,636	252,380	0,147	0,179
-203,621	-152,120	0,056	-0,003
-202,606	800,000	0,044	-0,106
-201,592	-200,000	-0,017	-0,054
-200,577	554,786	-0,037	-0,063
-199,563	175,082	-0,102	0,105
-198,548	38,262	-0,053	0,033
-197,533	-7,297	-0,056	0,027
-196,519	25,305	0,031	-0,018
-195,504	-200,000	0,047	0,217
-194,490	800,000	0,024	0,070
-193,475	-72,761	0,150	-0,039
-192,460	78,851	-0,037	0,028
-191,446	365,069	0,133	-0,191
-190,431	128,907	-0,128	-0,117
-189,417	206,417	0,112	0,125
-188,402	204,676	-0,043	-0,047
-187,387	-200,000	-0,016	-0,058
-186,373	-28,654	0,034	-0,014
-185,358	137,691	-0,024	-0,022
-184,344	-145,630	0,124	0,008
-183,329	780,655	0,034	0,066
-182,315	800,000	-0,008	-0,021
-181,300	-200,000	0,010	-0,032
-180,285	-0,603	-0,132	0,066
-179,271	800,000	-0,062	-0,144
-178,256	-79,699	0,107	-0,025
-177,242	-163,802	0,052	0,002
-176,227	350,641	0,069	0,097
-175,212	-107,083	-0,075	0,012
-174,198	-96,301	0,112	-0,021
-173,183	-27,731	0,059	-0,024
-172,169	-53,594	-0,230	-0,074
-171,154	723,639	0,043	-0,081
-170,139	-200,000	0,017	-0,066
-169,125	-53,378	0,097	0,032
-168,110	121,757	-0,048	-0,043
-167,096	183,823	-0,075	-0,079
-166,081	86,015	-0,074	0,058
-165,066	252,208	-0,084	0,103
-164,052	-57,682	-0,076	0,024
-163,037	149,078	-0,009	-0,009
-162,023	-96,374	0,038	0,007
-161,008	-51,795	-0,069	0,023
-159,993	-32,435	-0,050	0,020
-158,979	400,846	-0,042	-0,063
-157,964	-25,887	0,117	-0,049
-156,950	800,000	-0,025	0,058
-155,935	263,356	0,026	0,032
-154,920	-137,758	-0,022	-0,002
-153,906	800,000	0,062	0,126
-152,891	476,264	0,037	0,059
-151,877	-89,600	0,119	0,025
-150,862	-14,529	-0,115	-0,052
-149,847	-200,000	0,000	0,071
-148,833	-37,631	-0,024	0,009
-147,818	800,000	0,096	-0,227
-146,804	-130,361	0,074	-0,007
-145,789	95,946	-0,078	0,063
-144,775	-200,000	-0,018	-0,158
-143,760	-112,434	-0,105	-0,015
-142,745	12,125	0,057	-0,031
-141,731	800,000	0,070	0,165
-140,716	707,287	-0,035	-0,066
-139,702	-200,000	0,005	-0,080
-138,687	-89,554	0,017	0,003
-137,672	-57,226	0,044	-0,014
-136,658	111,244	-0,128	-0,110
-135,643	443,459	-0,044	-0,069
-134,629	-112,198	-0,127	-0,018
-133,614	800,000	-0,020	-0,040
-132,599	182,867	-0,064	0,068
-131,585	-200,000	0,008	0,072
-130,570	-200,000	0,016	-0,058
-129,556	105,839	0,067	-0,056
-128,541	531,105	-0,148	-0,249
-127,526	-111,489	0,045	-0,006
-126,512	-200,000	0,007	0,096
-125,497	275,953	0,036	-0,046
-124,483	-200,000	0,003	0,153
-123,468	800,000	0,037	-0,103
-122,453	20,654	-0,082	-0,047
-121,439	24,902	-0,035	-0,021
-120,424	-200,000	0,011	0,062
-119,410	-200,000	0,004	-0,028
-118,395	-200,000	-0,028	0,207
-117,380	184,399	-0,082	-0,086
-116,366	-61,024	0,118	0,035
-115,351	4,615	-0,138	-0,072
-114,337	-52,541	0,089	-0,029
-113,322	94,490	-0,043	-0,035
-112,307	-200,000	0,027	-0,129
-111,293	-200,000	0,004	-0,030
-110,278	-119,951	-0,137	0,016
-109,264	-75,186	-0,044	0,011
-108,249	257,055	-0,028	0,035
-107,234	-200,000	0,052	-0,226
-106,220	800,000	0,023	-0,062
-105,205	800,000	0,010	-0,029
-104,191	-34,338	-0,047	-0,018
-103,176	91,871	-0,130	0,104
-102,162	493,231	-0,044	-0,071
-101,147	-27,998	-0,053	-0,022
-100,132	-200,000	0,013	-0,062
-99,118	-75,896	0,102	-0,025
-98,103	-111,999	-0,052	0,007
-97,089	87,993	0,109	0,086
-96,074	-149,326	0,100	-0,006
-95,059	-20,797	0,037	-0,016
-94,045	-114,856	-0,121	0,016
-93,030	800,000	-0,055	-0,111
-92,016	800,000	-0,049	0,149
-91,001	-200,000	0,008	0,100
-89,986	328,150	0,024	0,032
-88,972	-113,431	-0,009	0,001
-87,957	-200,000	-0,019	0,113
-86,943	130,107	-0,113	-0,102
-85,928	-83,487	-0,116	-0,026
-84,913	-79,341	0,024	0,006
-83,899	12,769	0,116	-0,063
-82,884	672,740	0,070	-0,129
-81,870	-92,751	0,154	0,030
-80,855	345,580	0,070	-0,097
-79,840	-45,094	-0,180	-0,063
-78,826	-99,056	-0,126	-0,022
-77,811	207,069	-0,046	-0,050
-76,797	-61,091	0,055	0,016
-75,782	-90,027	0,051	-0,010
-74,767	176,563	0,105	-0,109
-73,753	140,084	0,127	-0,118
-72,738	62,558	0,149	0,105
-71,724	-200,000	0,020	-0,063
-70,709	-200,000	-0,001	-0,062
-69,694	305,282	0,067	0,088
-68,680	-200,000	-0,021	-0,069
-67,665	270,633	0,056	0,070
-66,651	800,000	-0,019	0,057
-65,636	800,000	-0,007	-0,019
-64,622	316,071	0,011	0,015
-63,607	-17,307	-0,140	-0,062
-62,592	-200,000	-0,007	-0,103
-61,578	-200,000	0,001	-0,074
-60,563	96,082	0,072	0,058
-59,549	304,794	-0,081	0,107
-58,534	-26,454	-1,541	-0,637
-57,519	398,248	-1,451	-2,157
-56,505	-200,000	-0,451	-4,550
-55,490	254,569	1,067	1,295
-54,476	800,000	4,784	11,201
-53,461	-200,000	18,936	313,269
-52,446	-200,000	739,079	2323,767
-51,432	575,475	1654,691	2872,134
-50,417	78,954	1670,775	1265,145
-49,403	21,732	1543,296	887,510
-48,388	15,590	1465,737	813,065
-47,373	17,839	1456,066	818,534
-46,359	16,800	1446,078	807,905
-45,344	13,818	1441,228	790,884
-44,330	13,726	1439,346	789,378
-43,315	13,756	1437,678	788,578
-42,300	13,761	1435,939	787,618
-41,286	13,747	1434,888	786,939
-40,271	13,748	1433,302	786,045
-39,257	13,712	1432,217	785,249
-38,242	13,769	1430,944	784,789
-37,227	13,788	1429,871	784,261
-36,213	13,847	1428,442	783,725
-35,198	13,798	1427,221	782,792
-34,184	13,795	1426,428	782,310
-33,169	13,759	1425,074	781,369
-32,154	13,820	1423,932	781,001
-31,140	13,798	1422,473	780,064
-30,125	13,837	1421,686	779,787
-29,111	13,822	1420,470	779,017
-28,096	13,792	1419,308	778,205
-27,082	13,736	1418,364	777,393
-26,067	13,720	1417,082	776,586
-25,052	13,744	1415,844	775,992
-24,038	13,715	1415,040	775,381
-23,023	13,673	1414,248	774,720
-22,009	13,691	1413,067	774,124
-20,994	13,647	1412,485	773,569
-19,979	13,703	1411,327	773,168
-18,965	13,690	1410,225	772,475
-17,950	13,616	1409,504	771,700
-16,936	13,652	1408,615	771,353
-15,921	13,642	1407,511	770,670
-14,906	13,624	1406,474	769,986
-13,892	13,676	1405,508	769,673
-12,877	13,636	1404,605	768,961
-11,863	13,576	1403,957	768,295
-10,848	13,575	1402,861	767,658
-9,833	13,630	1401,906	767,360
-8,819	13,603	1401,009	766,714
-7,804	13,562	1400,158	766,030
-6,790	13,511	1399,308	765,295
-5,775	13,568	1397,848	764,733
-4,760	13,575	1397,091	764,319
-3,746	13,544	1396,455	763,798
-2,731	13,509	1395,536	763,103
-1,717	13,495	1394,697	762,546
-0,702	13,503	1392,957	761,603
0,313	17,315	1310,567	734,229
1,327	33,450	705,253	432,471
2,342	51,405	123,720	83,011
3,356	3,882	16,682	8,596
4,371	3,979	3,228	1,664
5,386	-33,637	0,623	0,242
6,400	530,514	0,090	0,151
7,415	152,451	-0,211	-0,204
8,429	151,134	-0,269	-0,259
9,444	-10,134	-0,337	-0,158
10,459	-5,665	-0,391	-0,189
11,473	96,057	-0,274	-0,222
12,488	127,095	-0,279	-0,250
13,502	185,967	-0,286	-0,301
14,517	13,902	-0,401	-0,220
15,531	36,133	-0,339	-0,211
16,546	33,721	-0,448	-0,275
17,561	62,392	-0,477	-0,336
18,575	-147,247	-0,279	-0,017
19,590	50,948	-0,301	-0,201
20,604	-63,117	-0,251	-0,073
21,619	-28,842	-0,415	-0,168
22,634	70,955	-0,395	-0,289
23,648	103,715	-0,432	-0,358
24,663	121,640	-0,327	-0,288
25,677	77,791	-0,219	-0,165
26,692	399,781	-0,250	-0,371
27,707	108,708	-0,348	-0,294
28,721	37,613	-0,415	-0,260
29,736	34,098	-0,419	-0,257
30,750	39,766	-0,274	-0,173
31,765	115,220	-0,361	-0,311
32,780	89,784	-0,333	-0,263
33,794	100,762	-0,331	-0,271
34,809	49,405	-0,320	-0,212
35,823	205,209	-0,365	-0,401
36,838	800,000	-0,166	-0,388
37,853	30,010	-0,396	-0,238
38,867	33,755	-0,506	-0,310
39,882	205,848	-0,348	-0,383
40,896	-12,616	-0,292	-0,134
41,911	-11,989	-0,337	-0,155
42,926	70,606	-0,380	-0,277
43,940	116,191	-0,330	-0,285
44,955	210,973	-0,349	-0,387
45,969	-68,906	-0,537	-0,145
46,984	211,157	-0,288	-0,320
47,999	107,869	-0,365	-0,307
49,013	-19,557	-0,340	-0,148
50,028	-140,289	-0,253	-0,018
51,042	45,805	-0,387	-0,252
52,057	268,197	-0,368	-0,456
53,071	10,455	-0,364	-0,195
54,086	-37,650	-0,358	-0,134
55,101	-18,376	-0,461	-0,202
56,115	113,472	-0,272	-0,233
57,130	29,201	-0,473	-0,282
58,144	54,223	-0,365	-0,247
59,159	34,291	-0,410	-0,252
60,174	266,297	-0,336	-0,414
61,188	-52,717	-0,401	-0,130
62,203	7,944	-0,385	-0,203
63,217	678,532	-0,198	-0,364
64,232	44,588	-0,337	-0,218
65,247	-42,730	-0,409	-0,145
66,261	16,929	-0,326	-0,181
67,276	40,812	-0,424	-0,269
68,290	19,942	-0,310	-0,175
69,305	276,676	-0,209	-0,262
70,320	-2,296	-0,191	-0,094
71,334	-68,076	-0,302	-0,082
72,349	150,394	-0,320	-0,306
73,363	97,927	-0,246	-0,199
74,378	175,078	-0,340	-0,347
75,393	214,121	-0,251	-0,280
76,407	190,604	-0,221	-0,234
77,422	73,413	-0,345	-0,254
78,436	163,273	-0,219	-0,216
79,451	162,848	-0,300	-0,296
80,466	-10,886	-0,265	-0,122
81,480	138,560	-0,269	-0,248
82,495	73,872	-0,296	-0,218
83,509	47,168	-0,243	-0,158
84,524	-110,736	-0,404	-0,058
85,539	-4,088	-0,252	-0,122
86,553	-127,706	-0,287	-0,029
87,568	-6,928	-0,329	-0,156
88,582	-7,229	-0,319	-0,151
89,597	94,634	-0,338	-0,270
90,611	-71,053	-0,459	-0,120
91,626	25,528	-0,356	-0,207
92,641	176,744	-0,217	-0,222
93,655	-19,331	-0,318	-0,138
94,670	-36,009	-0,230	-0,087
95,684	55,196	-0,239	-0,162
96,699	43,733	-0,267	-0,171
97,714	72,159	-0,320	-0,233
98,728	113,909	-0,188	-0,160
99,743	374,486	-0,181	-0,260
100,757	-70,640	-0,302	-0,080
101,772	63,566	-0,340	-0,239
102,787	100,126	-0,274	-0,223
103,801	159,578	-0,129	-0,126
104,816	75,784	-0,246	-0,182
105,830	19,185	-0,273	-0,153
106,845	-60,882	-0,364	-0,107
107,860	57,217	-0,281	-0,192
108,874	-87,586	-0,320	-0,067
109,889	502,212	-0,163	-0,265
110,903	-102,266	-0,343	-0,057
111,918	676,779	-0,123	-0,226
112,933	-62,620	-0,331	-0,096
113,947	-200,000	-0,032	-0,166
114,962	-46,805	-0,305	-0,104
115,976	-25,744	-0,358	-0,147
116,991	-42,999	-0,330	-0,117
118,006	128,079	-0,246	-0,219
119,020	154,703	-0,241	-0,232
120,035	21,178	-0,216	-0,123
121,049	25,689	-0,229	-0,133
122,064	103,337	-0,291	-0,239
123,079	83,346	-0,187	-0,142
124,093	112,764	-0,258	-0,218
125,108	124,878	-0,268	-0,236
126,122	225,773	-0,223	-0,253
127,137	17,954	-0,266	-0,148
128,151	-88,229	-0,296	-0,062
129,166	50,408	-0,312	-0,206
130,181	257,509	-0,246	-0,296
131,195	11,925	-0,243	-0,130
132,210	163,125	-0,232	-0,228
133,224	127,607	-0,202	-0,180
134,239	250,052	-0,140	-0,167
135,254	131,190	-0,178	-0,160
136,268	45,221	-0,195	-0,126
137,283	116,559	-0,251	-0,216
138,297	-19,848	-0,209	-0,090
139,312	800,000	-0,059	-0,144
140,327	59,232	-0,321	-0,221
141,341	570,774	-0,104	-0,177
142,356	300,045	-0,128	-0,165
143,370	6,182	-0,212	-0,110
144,385	103,357	-0,165	-0,135
145,400	67,581	-0,219	-0,156
146,414	257,146	-0,221	-0,266
147,429	79,965	-0,307	-0,230
148,443	155,240	-0,194	-0,187
149,458	-26,415	-0,219	-0,089
150,473	224,909	-0,120	-0,136
151,487	175,439	-0,241	-0,244
152,502	282,117	-0,182	-0,229
153,516	280,102	-0,253	-0,316
154,531	488,222	-0,144	-0,230
155,546	303,105	-0,134	-0,173
156,560	-66,163	-0,290	-0,080
157,575	-7,652	-0,170	-0,080
158,589	158,479	-0,242	-0,235
159,604	166,909	-0,204	-0,202
160,619	527,928	-0,133	-0,220
161,633	-29,871	-0,295	-0,117
162,648	66,675	-0,258	-0,183
163,662	71,578	-0,267	-0,193
164,677	26,037	-0,270	-0,157
165,692	87,752	-0,170	-0,132
166,706	-96,384	-0,291	-0,053
167,721	117,511	-0,213	-0,183
168,735	122,678	-0,323	-0,281
169,750	-130,178	-0,211	-0,020
170,764	248,458	-0,198	-0,234
171,779	800,000	-0,128	-0,268
172,794	-101,560	-0,329	-0,055
173,808	32,724	-0,275	-0,166
174,823	83,764	-0,205	-0,155
175,837	108,768	-0,287	-0,239
176,852	135,200	-0,254	-0,230
177,867	513,444	-0,178	-0,290
178,881	95,311	-0,132	-0,104
179,896	21,359	-0,165	-0,093
180,910	115,385	-0,217	-0,185
181,925	117,521	-0,260	-0,222
182,940	126,689	-0,213	-0,188
183,954	205,476	-0,188	-0,204
184,969	107,105	-0,252	-0,208
185,983	-67,451	-0,104	-0,028
186,998	189,364	-0,179	-0,187
188,013	45,786	-0,191	-0,122
189,027	335,733	-0,127	-0,172
190,042	-59,978	-0,299	-0,088
191,056	25,012	-0,255	-0,147
192,071	-1,130	-0,246	-0,121
193,086	246,236	-0,195	-0,229
194,100	-89,643	-0,165	-0,033
195,115	800,000	-0,132	-0,259
196,129	195,163	-0,200	-0,211
197,144	-6,235	-0,118	-0,056
198,159	184,284	-0,229	-0,236
199,173	-64,188	-0,116	-0,033
200,188	164,790	-0,077	-0,075
201,202	191,340	-0,238	-0,249
202,217	-91,747	-0,162	-0,032
203,232	-32,838	-0,186	-0,071
204,246	190,388	-0,307	-0,321
205,261	111,661	-0,298	-0,250
206,275	277,803	-0,197	-0,245
207,290	149,562	-0,148	-0,140
208,304	333,851	-0,091	-0,123
209,319	142,035	-0,179	-0,165
210,334	-40,829	-0,109	-0,039
211,348	60,288	-0,218	-0,150
212,363	-0,736	-0,302	-0,148
213,377	268,288	-0,125	-0,152
214,392	198,853	-0,125	-0,133
215,407	-100,298	-0,084	-0,014
216,421	-58,346	-0,202	-0,060
217,436	800,000	-0,107	-0,271
218,450	-150,688	-0,193	0,010
219,465	291,772	-0,126	-0,160
220,480	91,830	-0,111	-0,086
221,494	-13,819	-0,247	-0,110
222,509	800,000	-0,117	-0,256
223,523	48,432	-0,133	-0,086
224,538	224,388	-0,152	-0,171
225,553	37,060	-0,155	-0,095
226,567	198,292	-0,184	-0,195
227,582	527,867	-0,090	-0,148
228,596	521,496	-0,099	-0,162
229,611	363,935	-0,164	-0,229
230,626	13,917	-0,165	-0,089
231,640	256,697	-0,200	-0,238
232,655	-94,083	-0,234	-0,044
233,669	231,379	-0,132	-0,150
234,684	-57,316	-0,197	-0,060
235,699	-24,631	-0,247	-0,101
236,713	-30,218	-0,142	-0,056
237,728	-94,954	-0,096	0,018
238,742	139,664	-0,087	-0,079
239,757	24,905	-0,232	-0,133
240,772	-46,693	-0,240	-0,081
241,786	-24,255	-0,217	-0,089
242,801	219,719	-0,119	-0,132
243,815	366,009	-0,131	-0,183
244,830	-84,984	-0,116	-0,025
245,844	-143,651	-0,272	-0,018
246,859	800,000	-0,098	-0,293
247,874	800,000	-0,101	-0,219
248,888	426,054	-0,226	-0,339
249,903	55,085	-0,199	-0,133
250,917	185,270	-0,145	-0,149
251,932	296,174	-0,121	-0,153
252,947	229,269	-0,188	-0,213
253,961	-200,000	-0,076	-0,331
254,976	48,444	-0,233	-0,151
255,990	270,953	-0,228	-0,279
257,005	17,323	-0,146	-0,080
258,020	97,140	-0,109	-0,087
259,034	-136,057	-0,147	0,012
260,049	125,444	-0,105	-0,092
261,063	76,495	-0,138	-0,101
262,078	-26,238	-0,189	-0,077
263,093	175,228	-0,120	-0,120
264,107	36,803	-0,193	-0,118
265,122	20,975	-0,240	-0,134
266,136	26,580	-0,189	-0,109
267,151	1,532	-0,192	-0,095
268,166	120,034	-0,162	-0,139
269,180	-68,730	-0,261	-0,069
270,195	534,594	-0,141	-0,232
271,209	7,049	-0,194	-0,099
272,224	47,998	-0,220	-0,142
273,239	-107,342	-0,155	-0,023
274,253	-57,131	-0,293	-0,089
275,268	-193,957	-0,198	-0,001
276,282	119,601	-0,204	-0,174
277,297	-113,285	-0,303	-0,041
278,312	149,635	-0,243	-0,227
279,326	-60,965	-0,107	-0,031
280,341	58,829	-0,079	-0,054
281,355	141,686	-0,108	-0,099
282,370	11,218	-0,156	-0,082
283,384	-28,344	-0,232	-0,092
284,399	32,414	-0,208	-0,124
285,414	800,000	-0,065	-0,124
286,428	800,000	-0,091	-0,189
287,443	13,402	-0,116	-0,062
288,457	-101,325	-0,155	-0,026
289,472	-147,704	-0,260	-0,015
290,487	194,847	-0,173	-0,182
291,501	129,147	-0,176	-0,155
292,516	49,087	-0,160	-0,104
293,530	-140,733	-0,160	-0,011
294,545	234,958	-0,160	-0,183
295,560	665,360	-0,067	-0,120
296,574	191,510	-0,185	-0,192
297,589	138,367	-0,173	-0,156
298,603	124,139	-0,163	-0,141
299,618	6,761	-0,283	-0,145
300,633	29,922	-0,120	-0,071
301,647	800,000	-0,057	-0,111
302,662	800,000	-0,066	-0,135
303,676	-106,763	-0,139	-0,021
304,691	428,216	-0,095	-0,141
305,706	216,832	-0,260	-0,286
306,720	-200,000	-0,017	-0,205
307,735	-200,000	-0,024	-0,143
308,749	123,823	-0,159	-0,138
309,764	43,172	-0,133	-0,084
310,779	81,467	-0,233	-0,173
311,793	39,488	-0,139	-0,086
312,808	133,876	-0,168	-0,150
313,822	47,549	-0,163	-0,105
314,837	272,938	-0,106	-0,129
315,852	109,890	-0,176	-0,145
316,866	-130,149	-0,264	-0,024
317,881	13,836	-0,087	-0,047
318,895	-130,672	-0,161	-0,015
319,910	-200,000	-0,015	-0,129
320,925	66,511	-0,179	-0,125
321,939	220,976	-0,036	-0,040
322,954	397,333	0,061	0,087
323,968	350,496	-0,106	-0,144
324,983	-97,400	-0,149	-0,026
325,997	-55,385	-0,083	-0,026
327,012	188,184	-0,086	-0,089
328,027	336,164	-0,149	-0,199
329,041	-161,270	-0,200	-0,007
330,056	157,892	-0,101	-0,096
331,070	-200,000	-0,024	-0,154
332,085	-51,097	-0,146	0,047
333,100	800,000	-0,039	-0,094
334,114	53,123	-0,200	-0,132
335,129	60,252	-0,269	-0,183
336,143	316,078	-0,151	-0,196
337,158	-200,000	-0,003	-0,122
338,173	410,751	-0,119	-0,174
339,187	800,000	-0,047	-0,113
340,202	95,942	-0,149	-0,117
341,216	800,000	-0,051	-0,149
342,231	157,558	-0,173	-0,164
343,246	-200,000	-0,062	-0,271
344,260	-36,668	-0,139	-0,051
345,275	-102,381	0,072	0,012
346,289	-98,888	-0,098	0,017
347,304	148,084	-0,076	-0,071
348,319	175,673	-0,178	-0,177
349,333	-66,256	-0,140	-0,038
350,348	-51,295	-0,132	-0,042
351,362	-183,166	-0,128	-0,002
352,377	265,156	-0,079	-0,095
353,392	43,793	-0,205	-0,129
354,406	-175,761	-0,173	0,003
355,421	208,642	1314,488	1412,414
356,435	160,550	1475,189	1412,918
