DTS Sentinel unit serial number:	SN410029Multiplexer serial number:	ORYXHardware model number:	OX2-SRSoftware version number:	ORYX F/W v4,00 Oryx Data Collector v3.7.2.0data status	okinstallation	B3 Nyhavnadifferential loss correction	single-endedforward channel	channel 1reverse channel	N/Adate	2023/12/03time	12:12:30forward acquisition time	300,00reverse acquisition time	0,00gamma	499,1914k internal	0,3201k external	0,3201temperature offset calibration	1,0000default loss term (dB/km)	0,3820temperature slope calibration	1,0000multiplexer offset coefficient	1,0000multiplexer slope coefficient	1,0000fibre end	0,00T internal ref (°C)	13,87T ext. ref 1 (°C)	-0,23T ext. ref 2 (°C)	-0,25length (m)	temperature (°C)	Stokes	anti-Stokes-744,400	-200,000	-0,076	-0,271
-743,385	-200,000	-0,003	0,339
-742,371	800,000	-0,134	-0,286
-741,356	-200,000	0,090	0,301
-740,342	77,714	-0,257	-0,199
-739,327	-200,000	-0,079	0,393
-738,312	-38,772	-0,236	-0,090
-737,298	-200,000	-0,083	0,394
-736,283	88,370	-0,204	-0,164
-735,269	354,061	0,130	0,189
-734,254	-4,261	-0,305	-0,153
-733,239	800,000	-0,157	0,383
-732,225	58,555	-0,208	-0,148
-731,210	800,000	0,071	0,151
-730,196	92,334	0,095	0,078
-729,181	-200,000	-0,009	0,053
-728,167	-200,000	0,026	-0,106
-727,152	78,251	-0,071	0,055
-726,137	292,505	0,015	-0,019
-725,123	-41,799	-0,203	-0,075
-724,108	-200,000	-0,002	-0,010
-723,094	-200,000	-0,025	-0,168
-722,079	140,937	-0,133	-0,128
-721,064	58,100	-0,104	0,074
-720,050	302,501	0,024	-0,032
-719,035	106,087	-0,062	-0,053
-718,021	-200,000	0,006	-0,058
-717,006	88,137	0,036	-0,029
-715,991	493,421	-0,049	-0,081
-714,977	-200,000	0,006	0,033
-713,962	-200,000	-0,087	0,000
-712,948	-200,000	0,012	-0,094
-711,933	800,000	-0,024	-0,066
-710,918	-23,454	0,031	0,013
-709,904	-158,853	0,068	-0,003
-708,889	211,296	-0,059	0,067
-707,875	-73,314	0,145	-0,038
-706,860	-35,685	-0,194	0,076
-705,845	115,592	0,113	0,100
-704,831	-107,605	0,110	0,017
-703,816	-200,000	0,021	0,093
-702,802	487,667	-0,037	0,062
-701,787	149,946	-0,118	-0,116
-700,772	-200,000	-0,012	-0,174
-699,758	443,088	-0,035	-0,057
-698,743	77,556	0,099	-0,076
-697,729	359,680	-0,033	0,049
-696,714	703,354	-0,029	-0,055
-695,699	800,000	-0,028	-0,066
-694,685	138,601	-0,083	-0,079
-693,670	-53,120	0,034	-0,011
-692,656	-200,000	-0,007	-0,077
-691,641	-200,000	-0,023	-0,202
-690,627	-25,611	0,009	0,004
-689,612	654,749	-0,039	0,073
-688,597	-92,199	-0,062	0,013
-687,583	-200,000	-0,024	-0,103
-686,568	35,696	-0,049	-0,031
-685,554	-200,000	0,003	-0,077
-684,539	419,808	-0,026	0,041
-683,524	-117,973	0,101	0,013
-682,510	800,000	0,028	0,067
-681,495	-57,578	-0,020	-0,006
-680,481	76,330	-0,187	-0,144
-679,466	800,000	0,037	0,108
-678,451	-29,069	0,058	-0,024
-677,437	-13,203	-0,140	-0,066
-676,422	-200,000	-0,026	-0,146
-675,408	-200,000	-0,039	0,164
-674,393	-200,000	-0,017	0,067
-673,378	-200,000	0,027	-0,105
-672,364	-51,390	-0,166	-0,056
-671,349	-80,535	-0,056	-0,013
-670,335	133,334	-0,130	-0,122
-669,320	-112,554	0,093	0,013
-668,305	-68,834	0,038	-0,011
-667,291	800,000	-0,044	0,100
-666,276	-21,960	0,044	-0,019
-665,262	-82,029	-0,007	0,002
-664,247	-11,358	-0,134	0,064
-663,232	183,137	0,023	-0,024
-662,218	-124,448	-0,039	-0,004
-661,203	-200,000	-0,023	0,145
-660,189	-200,000	-0,015	0,092
-659,174	-200,000	-0,006	0,094
-658,159	-36,165	-0,057	0,022
-657,145	29,315	-0,010	-0,006
-656,130	800,000	0,028	-0,083
-655,116	-25,618	-0,043	-0,018
-654,101	-200,000	0,008	0,110
-653,086	-112,407	-0,125	0,018
-652,072	-0,484	-0,065	0,033
-651,057	-35,523	-0,144	-0,056
-650,043	392,495	-0,148	-0,224
-649,028	412,447	0,062	0,095
-648,014	324,414	0,048	0,067
-646,999	165,225	-0,083	0,085
-645,984	61,181	0,066	0,048
-644,970	306,062	-0,076	-0,102
-643,955	-200,000	0,010	-0,109
-642,941	-200,000	-0,015	-0,104
-641,926	156,763	0,039	0,039
-640,911	272,737	-0,071	0,091
-639,897	-135,596	0,091	0,008
-638,882	36,251	-0,083	0,053
-637,868	-21,219	0,068	0,030
-636,853	620,274	0,030	-0,055
-635,838	800,000	-0,033	-0,087
-634,824	-56,453	0,042	0,014
-633,809	-101,922	0,213	-0,037
-632,795	-82,255	-0,103	0,024
-631,780	-200,000	-0,003	-0,065
-630,765	800,000	-0,012	0,025
-629,751	800,000	-0,070	-0,142
-628,736	225,255	0,077	-0,091
-627,722	-149,273	-0,082	-0,005
-626,707	246,884	0,060	-0,073
-625,692	13,868	0,102	0,057
-624,678	-17,927	-0,119	0,054
-623,663	800,000	-0,018	0,057
-622,649	89,813	-0,103	-0,084
-621,634	-200,000	-0,027	-0,103
-620,619	-200,000	-0,008	0,086
-619,605	86,977	0,085	-0,068
-618,590	226,007	-0,074	0,087
-617,576	37,033	0,066	0,042
-616,561	-87,922	0,020	-0,004
-615,546	-171,888	0,078	0,002
-614,532	-200,000	-0,005	-0,121
-613,517	-44,211	-0,143	-0,052
-612,503	44,164	0,052	0,035
-611,488	156,215	0,043	0,043
-610,474	-43,249	0,091	0,033
-609,459	-200,000	-0,007	0,058
-608,444	-153,309	-0,088	0,004
-607,430	-200,000	-0,012	-0,181
-606,415	-86,604	-0,096	-0,021
-605,401	-190,245	0,045	-0,000
-604,386	-58,026	0,066	-0,021
-603,371	102,883	0,153	0,129
-602,357	-100,517	-0,024	-0,004
-601,342	336,276	0,063	-0,089
-600,328	-186,669	-0,135	0,001
-599,313	-200,000	-0,014	-0,054
-598,298	411,061	0,022	0,034
-597,284	402,420	-0,055	0,085
-596,269	89,970	-0,054	0,044
-595,255	308,525	0,049	0,066
-594,240	-200,000	-0,012	0,110
-593,225	205,504	-0,070	-0,079
-592,211	-146,318	0,081	-0,005
-591,196	800,000	-0,027	-0,083
-590,182	5,563	-0,048	-0,025
-589,167	-135,816	0,198	-0,017
-588,152	71,845	-0,052	0,039
-587,138	279,592	-0,072	0,093
-586,123	-60,740	0,090	0,027
-585,109	-200,000	0,008	-0,126
-584,094	283,472	-0,022	-0,028
-583,079	347,647	-0,150	-0,215
-582,065	-54,122	-0,105	0,034
-581,050	800,000	0,040	-0,093
-580,036	800,000	-0,038	-0,086
-579,021	364,025	0,082	0,119
-578,006	-129,665	-0,044	0,004
-576,992	-3,336	0,044	-0,022
-575,977	268,125	-0,041	0,051
-574,963	-5,895	-0,205	-0,101
-573,948	-90,130	-0,119	0,025
-572,934	263,490	0,017	-0,021
-571,919	-16,534	-0,092	0,042
-570,904	800,000	-0,041	-0,105
-569,890	800,000	-0,039	-0,085
-568,875	800,000	-0,030	0,069
-567,861	800,000	0,051	0,136
-566,846	-155,965	-0,077	-0,003
-565,831	-200,000	0,009	0,101
-564,817	800,000	0,048	-0,114
-563,802	-160,566	0,059	-0,002
-562,788	-71,892	-0,128	-0,034
-561,773	-10,777	-0,008	0,004
-560,758	-79,227	-0,093	-0,022
-559,744	-17,459	-0,212	-0,096
-558,729	-108,808	0,088	-0,014
-557,715	-126,010	-0,184	0,020
-556,700	-25,445	-0,140	-0,059
-555,685	-200,000	0,019	-0,129
-554,671	-137,488	-0,074	-0,006
-553,656	-200,000	0,006	-0,091
-552,642	210,918	0,067	0,076
-551,627	6,307	-0,075	0,040
-550,612	165,404	-0,068	-0,070
-549,598	89,043	-0,125	-0,100
-548,583	800,000	-0,012	-0,030
-547,569	-93,225	0,027	-0,005
-546,554	358,647	-0,011	0,016
-545,539	800,000	-0,016	-0,046
-544,525	-200,000	0,009	0,036
-543,510	-89,376	0,084	0,018
-542,496	74,143	-0,087	0,066
-541,481	-200,000	-0,009	-0,160
-540,466	800,000	0,039	-0,105
-539,452	800,000	-0,040	-0,095
-538,437	800,000	-0,031	-0,090
-537,423	-200,000	0,000	-0,145
-536,408	800,000	0,032	-0,073
-535,393	89,910	-0,071	-0,057
-534,379	-121,475	-0,233	-0,028
-533,364	-200,000	0,005	0,021
-532,350	-139,790	-0,131	-0,010
-531,335	-68,124	0,071	-0,020
-530,321	-28,268	0,107	0,045
-529,306	-200,000	0,044	0,206
-528,291	308,937	-0,124	-0,167
-527,277	-200,000	-0,025	-0,094
-526,262	-200,000	0,009	-0,031
-525,248	800,000	0,021	0,067
-524,233	90,419	0,089	-0,072
-523,218	-10,006	-0,113	0,054
-522,204	67,558	0,102	0,075
-521,189	-19,948	-0,016	-0,007
-520,175	-21,428	0,047	-0,021
-519,160	2,405	-0,054	0,028
-518,145	198,434	-0,053	0,058
-517,131	800,000	0,020	-0,041
-516,116	-106,619	0,087	0,014
-515,102	-200,000	-0,006	0,150
-514,087	451,595	0,020	0,032
-513,072	-77,272	-0,096	0,024
-512,058	150,295	-0,026	0,026
-511,043	15,446	0,037	-0,021
-510,029	-32,744	-0,085	0,034
-509,014	-127,140	0,073	-0,008
-507,999	800,000	0,055	0,125
-506,985	97,137	-0,103	0,085
-505,970	119,941	-0,036	-0,032
-504,956	106,949	0,055	0,047
-503,941	-59,567	0,066	0,020
-502,926	20,909	0,130	-0,076
-501,912	-28,092	0,122	-0,050
-500,897	-74,407	0,017	0,004
-499,883	407,768	-0,095	-0,146
-498,868	-200,000	-0,010	-0,128
-497,853	-124,926	-0,159	-0,017
-496,839	-200,000	-0,009	-0,050
-495,824	491,400	0,064	0,105
-494,810	-200,000	-0,006	-0,114
-493,795	579,416	0,036	0,064
-492,781	558,755	-0,029	-0,051
-491,766	-74,687	-0,077	0,020
-490,751	800,000	0,008	-0,021
-489,737	800,000	0,030	0,073
-488,722	6,732	0,115	0,062
-487,708	-200,000	-0,001	-0,072
-486,693	643,624	-0,047	-0,086
-485,678	-6,845	-0,197	-0,096
-484,664	148,837	0,066	-0,064
-483,649	461,738	0,029	0,046
-482,635	62,737	-0,037	-0,027
-481,620	124,025	-0,061	0,055
-480,605	-168,552	0,086	0,002
-479,591	-200,000	-0,025	0,094
-478,576	800,000	-0,088	-0,201
-477,562	-200,000	-0,011	0,062
-476,547	9,478	0,112	-0,061
-475,532	92,150	0,016	-0,013
-474,518	191,680	-0,048	0,052
-473,503	800,000	0,038	0,116
-472,489	95,201	-0,139	-0,114
-471,474	800,000	-0,035	-0,075
-470,459	-117,101	-0,149	-0,019
-469,445	254,444	-0,046	-0,057
-468,430	-103,674	-0,088	0,015
-467,416	181,686	0,028	0,030
-466,401	132,339	0,114	0,105
-465,386	73,076	-0,069	-0,052
-464,372	800,000	-0,021	0,051
-463,357	-158,595	-0,128	-0,005
-462,343	-125,501	-0,079	-0,008
-461,328	800,000	0,022	-0,066
-460,313	-36,197	0,074	0,029
-459,299	800,000	0,016	0,049
-458,284	-1,271	-0,048	-0,024
-457,270	-200,000	0,015	0,197
-456,255	-156,865	-0,091	-0,004
-455,241	540,903	-0,040	-0,068
-454,226	-73,836	-0,017	-0,004
-453,211	-110,138	0,057	0,009
-452,197	-0,137	0,129	0,066
-451,182	50,497	-0,100	0,068
-450,168	292,870	-0,102	0,134
-449,153	800,000	0,026	-0,064
-448,138	-132,248	0,071	0,007
-447,124	204,475	-0,096	-0,107
-446,109	332,196	-0,038	0,053
-445,095	800,000	-0,028	-0,062
-444,080	144,532	0,088	0,085
-443,065	-40,213	0,113	-0,042
-442,051	-117,115	0,116	-0,015
-441,036	-200,000	-0,014	-0,161
-440,022	-129,655	-0,079	-0,008
-439,007	-102,829	0,125	0,021
-437,992	-200,000	0,016	0,057
-436,978	-200,000	0,031	0,108
-435,963	-200,000	0,000	0,003
-434,949	-200,000	-0,033	0,139
-433,934	-200,000	-0,013	-0,054
-432,919	5,404	-0,065	0,035
-431,905	-76,579	0,149	-0,037
-430,890	-122,053	-0,077	0,009
-429,876	470,127	0,041	-0,066
-428,861	10,133	-0,004	-0,002
-427,846	-200,000	0,005	-0,120
-426,832	332,286	-0,057	0,079
-425,817	800,000	0,030	-0,086
-424,803	140,946	-0,039	0,037
-423,788	103,455	0,015	0,013
-422,773	800,000	-0,051	-0,156
-421,759	40,207	-0,072	0,046
-420,744	197,782	0,009	0,010
-419,730	441,394	0,051	0,080
-418,715	445,541	-0,037	-0,058
-417,701	-139,804	-0,140	-0,011
-416,686	-69,634	0,103	-0,028
-415,671	800,000	0,005	0,015
-414,657	-85,271	0,025	0,005
-413,642	72,712	0,042	-0,032
-412,628	-200,000	-0,025	0,109
-411,613	-25,600	0,044	0,019
-410,598	210,845	-0,061	-0,069
-409,584	301,860	0,049	0,066
-408,569	-200,000	-0,006	0,074
-407,555	-90,643	0,101	0,021
-406,540	-97,449	-0,076	0,014
-405,525	-39,477	0,103	0,038
-404,511	-200,000	-0,012	-0,108
-403,496	-200,000	0,003	-0,113
-402,482	-170,439	0,104	0,003
-401,467	-89,718	0,106	-0,022
-400,452	48,205	0,069	0,046
-399,438	800,000	0,036	-0,100
-398,423	-200,000	-0,013	-0,096
-397,409	-77,748	-0,029	-0,007
-396,394	0,623	-0,036	-0,018
-395,379	-66,668	0,097	-0,027
-394,365	57,284	-0,076	-0,053
-393,350	-200,000	0,022	0,074
-392,336	464,211	0,050	0,081
-391,321	141,897	0,063	0,060
-390,306	134,205	-0,043	-0,040
-389,292	33,427	-0,116	-0,072
-388,277	208,706	-0,065	-0,073
-387,263	800,000	0,049	-0,099
-386,248	-73,504	-0,077	-0,020
-385,233	-116,635	0,073	-0,009
-384,219	-101,854	-0,087	0,015
-383,204	-200,000	-0,003	0,127
-382,190	407,378	-0,065	0,099
-381,175	319,892	-0,069	0,095
-380,160	800,000	-0,030	0,066
-379,146	-200,000	0,001	-0,061
-378,131	-88,216	0,074	-0,016
-377,117	221,081	0,038	-0,044
-376,102	-121,691	-0,158	0,019
-375,088	224,633	-0,047	0,055
-374,073	800,000	0,030	-0,068
-373,058	-200,000	-0,020	0,078
-372,044	184,535	0,078	0,082
-371,029	190,992	0,104	0,112
-370,015	-150,883	-0,042	0,002
-369,000	800,000	-0,023	0,057
-367,985	540,641	-0,014	-0,024
-366,971	-42,021	-0,054	-0,020
-365,956	-149,002	0,057	0,003
-364,942	-200,000	0,006	0,068
-363,927	146,581	0,056	-0,054
-362,912	-145,632	0,145	-0,009
-361,898	-75,914	-0,032	0,008
-360,883	800,000	-0,011	0,026
-359,869	-13,918	-0,088	0,041
-358,854	-100,084	0,108	-0,019
-357,839	800,000	-0,051	0,103
-356,825	254,834	0,023	0,028
-355,810	800,000	-0,055	0,136
-354,796	256,202	0,028	-0,035
-353,781	800,000	-0,004	0,009
-352,766	-98,802	0,080	-0,015
-351,752	164,345	0,130	0,131
-350,737	261,453	0,059	0,073
-349,723	-116,054	0,077	0,010
-348,708	286,471	-0,097	0,126
-347,693	-26,985	0,093	-0,039
-346,679	168,201	-0,079	0,080
-345,664	-80,461	0,159	0,038
-344,650	-200,000	-0,009	0,040
-343,635	-31,670	-0,012	0,005
-342,620	37,143	0,070	-0,044
-341,606	219,552	-0,105	-0,120
-340,591	-107,837	0,053	0,008
-339,577	-200,000	-0,008	-0,113
-338,562	800,000	0,052	-0,132
-337,548	28,053	-0,173	0,104
-336,533	4,466	-0,087	-0,045
-335,518	-59,450	0,125	0,038
-334,504	488,224	0,055	0,090
-333,489	-57,745	-0,050	0,016
-332,475	-200,000	0,000	0,075
-331,460	195,829	-0,100	-0,109
-330,445	248,110	-0,032	0,039
-329,431	99,420	0,110	0,091
-328,416	-133,810	0,078	0,007
-327,402	800,000	0,009	-0,024
-326,387	-111,023	-0,131	0,019
-325,372	14,365	0,049	-0,027
-324,358	800,000	0,025	-0,060
-323,343	800,000	-0,072	-0,158
-322,329	-117,347	0,135	0,017
-321,314	-200,000	0,015	0,103
-320,299	335,567	0,043	0,060
-319,285	-101,939	-0,104	0,018
-318,270	-142,599	-0,156	-0,011
-317,256	-200,000	-0,008	0,000
-316,241	499,899	-0,034	0,057
-315,226	-200,000	0,002	0,009
-314,212	-67,647	0,041	-0,011
-313,197	-146,803	-0,080	-0,005
-312,183	785,001	-0,046	0,090
-311,168	-37,662	-0,057	-0,022
-310,153	84,313	-0,063	-0,049
-309,139	-60,476	-0,027	0,008
-308,124	-54,319	0,093	-0,030
-307,110	-200,000	-0,011	0,137
-306,095	169,509	-0,043	0,044
-305,080	-150,182	0,115	-0,006
-304,066	800,000	0,041	0,104
-303,051	310,266	-0,073	0,097
-302,037	103,357	0,011	-0,009
-301,022	122,102	0,043	0,038
-300,008	-46,394	0,103	0,036
-298,993	-200,000	-0,019	0,064
-297,978	-18,591	0,018	0,008
-296,964	708,227	0,063	0,119
-295,949	138,099	-0,055	0,052
-294,935	647,675	-0,051	-0,093
-293,920	-200,000	-0,019	-0,108
-292,905	-200,000	0,049	0,158
-291,891	601,399	0,081	0,144
-290,876	-176,943	0,084	0,001
-289,862	-200,000	-0,023	0,121
-288,847	395,424	0,034	-0,051
-287,832	354,368	0,072	0,102
-286,818	-87,038	0,156	-0,034
-285,803	72,526	0,067	0,050
-284,789	-46,483	0,157	0,055
-283,774	800,000	0,070	0,185
-282,759	800,000	-0,041	0,095
-281,745	184,533	-0,051	-0,054
-280,730	800,000	0,015	0,045
-279,716	192,516	0,061	0,066
-278,701	-67,055	0,250	0,070
-277,686	-19,339	-0,017	-0,007
-276,672	450,708	-0,020	0,031
-275,657	97,268	-0,033	-0,027
-274,643	417,792	0,059	-0,091
-273,628	-40,595	-0,083	-0,031
-272,613	-79,282	0,154	0,037
-271,599	-82,013	-0,080	0,019
-270,584	33,265	0,138	0,085
-269,570	18,848	-0,083	0,047
-268,555	-12,958	-0,086	0,040
-267,540	71,457	0,060	0,044
-266,526	-200,000	-0,057	-0,183
-265,511	178,231	-0,068	-0,071
-264,497	52,408	0,109	0,074
-263,482	194,288	0,044	0,048
-262,467	-91,221	-0,114	-0,023
-261,453	-200,000	-0,009	0,038
-260,438	-200,000	0,007	0,044
-259,424	12,887	-0,068	0,037
-258,409	77,545	0,067	0,051
-257,395	147,467	0,101	-0,097
-256,380	175,801	0,024	-0,025
-255,365	-200,000	-0,026	-0,114
-254,351	-34,735	0,188	0,073
-253,336	67,324	0,043	-0,031
-252,322	409,574	-0,055	-0,084
-251,307	-91,181	-0,153	0,031
-250,292	60,175	-0,156	0,110
-249,278	800,000	0,023	0,064
-248,263	-73,749	0,017	0,004
-247,249	579,359	0,077	-0,134
-246,234	-72,260	-0,067	0,018
-245,219	391,514	0,060	-0,089
-244,205	-91,760	0,025	-0,005
-243,190	-37,333	0,075	-0,028
-242,176	-25,166	-0,091	0,038
-241,161	33,503	0,102	0,063
-240,146	7,407	-0,108	0,057
-239,132	-16,927	0,104	-0,046
-238,117	-200,000	0,003	0,147
-237,103	36,729	-0,038	0,024
-236,088	-200,000	0,005	0,051
-235,073	-74,503	0,148	-0,038
-234,059	-200,000	-0,123	-0,000
-233,044	-47,886	0,115	0,039
-232,030	800,000	-0,008	0,017
-231,015	128,538	0,084	-0,076
-230,000	-158,873	-0,083	0,003
-228,986	-200,000	-0,037	-0,138
-227,971	-46,560	0,101	0,035
-226,957	87,889	0,021	0,017
-225,942	23,302	0,103	0,060
-224,927	88,364	0,070	-0,056
-223,913	20,125	-0,077	-0,044
-222,898	23,335	-0,074	0,043
-221,884	-200,000	-0,001	0,027
-220,869	800,000	0,060	0,154
-219,855	480,431	0,040	0,065
-218,840	-200,000	-0,021	-0,121
-217,825	800,000	-0,017	-0,038
-216,811	-111,677	-0,044	0,006
-215,796	414,869	-0,033	-0,050
-214,782	800,000	0,049	-0,118
-213,767	-75,686	0,145	-0,036
-212,752	-52,753	-0,029	0,009
-211,738	-200,000	0,015	-0,104
-210,723	800,000	-0,071	0,162
-209,709	800,000	-0,015	0,033
-208,694	-97,213	-0,124	-0,023
-207,679	-200,000	-0,009	-0,119
-206,665	-38,897	0,030	-0,011
-205,650	-200,000	-0,032	0,136
-204,636	196,196	0,077	0,083
-203,621	-49,826	-0,053	0,018
-202,606	435,694	-0,043	0,066
-201,592	800,000	0,059	-0,135
-200,577	-200,000	-0,035	-0,164
-199,563	261,560	0,030	0,038
-198,548	31,147	0,119	-0,072
-197,533	-71,826	0,086	0,023
-196,519	298,776	-0,060	-0,078
-195,504	-82,606	0,114	0,026
-194,490	151,921	-0,026	-0,025
-193,475	800,000	-0,092	-0,218
-192,460	800,000	-0,010	0,024
-191,446	-105,500	0,026	0,004
-190,431	352,702	0,105	0,148
-189,417	800,000	-0,039	0,111
-188,402	130,155	0,104	0,095
-187,387	239,780	-0,034	-0,041
-186,373	-200,000	-0,017	-0,080
-185,358	-200,000	-0,000	-0,081
-184,344	-200,000	0,000	-0,067
-183,329	56,866	0,190	0,131
-182,315	187,041	0,120	0,128
-181,300	-79,353	-0,091	-0,022
-180,285	66,356	-0,020	0,015
-179,271	-6,005	-0,065	0,032
-178,256	-200,000	0,001	-0,046
-177,242	-28,289	0,148	0,060
-176,227	-200,000	0,026	-0,088
-175,212	121,913	0,021	-0,019
-174,198	264,762	0,095	-0,118
-173,183	371,432	0,044	-0,064
-172,169	220,120	-0,119	-0,136
-171,154	800,000	-0,033	0,083
-170,139	-200,000	0,004	-0,029
-169,125	-62,350	0,073	0,022
-168,110	395,639	-0,122	0,182
-167,096	146,057	0,066	-0,063
-166,081	176,323	-0,026	-0,027
-165,066	800,000	0,016	-0,041
-164,052	800,000	0,013	-0,036
-163,037	-14,391	-0,096	0,044
-162,023	-200,000	0,015	-0,072
-161,008	800,000	0,008	-0,020
-159,993	-200,000	0,009	-0,057
-158,979	-88,902	-0,086	0,018
-157,964	443,259	-0,051	-0,079
-156,950	13,319	0,061	0,034
-155,935	-200,000	-0,011	-0,066
-154,920	37,282	0,031	0,020
-153,906	35,035	-0,051	0,032
-152,891	800,000	0,058	-0,147
-151,877	225,815	-0,054	0,062
-150,862	258,864	-0,036	-0,044
-149,847	-200,000	0,000	-0,226
-148,833	-82,498	0,056	-0,013
-147,818	-55,004	-0,063	0,020
-146,804	-200,000	0,002	0,102
-145,789	639,485	-0,035	-0,064
-144,775	-13,608	-0,099	0,045
-143,760	800,000	0,028	-0,081
-142,745	800,000	-0,125	-0,267
-141,731	-200,000	0,041	-0,137
-140,716	-200,000	-0,047	0,170
-139,702	50,922	0,099	0,066
-138,687	6,264	-0,107	-0,056
-137,672	-97,673	-0,224	-0,041
-136,658	54,683	0,059	-0,040
-135,643	-200,000	0,022	-0,159
-134,629	535,789	0,032	0,054
-133,614	386,887	0,032	0,047
-132,599	-97,512	0,019	0,004
-131,585	332,025	-0,109	0,150
-130,570	-179,467	-0,020	0,000
-129,556	-200,000	-0,042	0,147
-128,541	-200,000	-0,012	-0,073
-127,526	-64,848	-0,196	-0,056
-126,512	-77,537	0,148	0,036
-125,497	-52,964	0,058	-0,019
-124,483	-200,000	0,014	0,053
-123,468	131,082	-0,031	0,028
-122,453	-110,633	0,048	-0,007
-121,439	152,107	-0,062	-0,061
-120,424	-95,611	0,143	-0,027
-119,410	-69,482	0,019	-0,005
-118,395	-9,884	0,115	0,054
-117,380	89,837	-0,025	0,020
-116,366	70,295	0,121	0,089
-115,351	549,854	-0,078	-0,133
-114,337	-200,000	0,010	0,052
-113,322	-200,000	0,007	0,051
-112,307	107,802	0,062	0,053
-111,293	-200,000	0,014	0,065
-110,278	406,766	0,093	0,139
-109,264	357,663	0,047	0,067
-108,249	-200,000	0,019	0,103
-107,234	-123,503	-0,033	0,004
-106,220	-200,000	0,006	-0,085
-105,205	800,000	0,038	-0,100
-104,191	800,000	0,025	0,057
-103,176	-109,028	0,154	0,023
-102,162	-3,382	0,081	-0,040
-101,147	800,000	-0,053	-0,105
-100,132	-200,000	0,001	0,038
-99,118	-200,000	-0,008	0,036
-98,103	-200,000	0,014	0,078
-97,089	248,370	0,127	-0,153
-96,074	-200,000	-0,014	0,058
-95,059	186,277	0,032	0,034
-94,045	324,260	-0,047	0,064
-93,030	-180,248	0,077	0,001
-92,016	-200,000	0,011	-0,054
-91,001	-200,000	0,006	0,092
-89,986	473,719	0,041	0,066
-88,972	296,803	0,030	-0,039
-87,957	-27,788	0,058	-0,024
-86,943	-98,081	-0,046	0,008
-85,928	-36,490	-0,107	0,040
-84,913	800,000	0,025	0,065
-83,899	800,000	-0,060	0,120
-82,884	788,022	-0,050	0,097
-81,870	178,301	0,050	0,052
-80,855	800,000	-0,064	-0,131
-79,840	323,119	-0,025	0,034
-78,826	199,692	-0,058	0,063
-77,811	-135,616	0,169	-0,014
-76,797	356,309	-0,079	-0,112
-75,782	443,132	0,055	0,086
-74,767	-101,328	-0,079	-0,014
-73,753	-200,000	-0,003	0,096
-72,738	319,390	-0,029	0,039
-71,724	167,036	0,077	0,077
-70,709	419,519	-0,062	-0,094
-69,694	48,089	0,138	-0,091
-68,680	82,724	-0,052	0,040
-67,665	-200,000	-0,002	0,029
-66,651	110,705	0,028	0,024
-65,636	800,000	0,020	-0,039
-64,622	53,888	-0,113	-0,077
-63,607	30,344	-0,050	-0,030
-62,592	111,047	-0,040	0,034
-61,578	-86,455	-0,016	-0,003
-60,563	-35,021	0,131	0,050
-59,549	13,059	0,084	0,046
-58,534	-24,197	-1,654	-0,696
-57,519	396,009	-1,358	-2,013
-56,505	-200,000	-0,497	-4,456
-55,490	299,007	0,982	1,282
-54,476	800,000	4,796	10,953
-53,461	-200,000	18,851	307,805
-52,446	-200,000	737,648	2306,674
-51,432	572,068	1653,445	2863,258
-50,417	78,910	1669,587	1264,058
-49,403	21,849	1542,329	887,576
-48,388	15,719	1465,048	813,333
-47,373	17,713	1454,948	817,319
-46,359	16,757	1445,165	807,210
-45,344	13,996	1440,433	791,322
-44,330	13,913	1438,516	789,844
-43,315	13,886	1436,858	788,771
-42,300	13,904	1435,420	788,036
-41,286	13,983	1433,978	787,593
-40,271	13,943	1432,648	786,639
-39,257	13,931	1431,445	785,890
-38,242	13,982	1430,035	785,325
-37,227	13,969	1429,013	784,675
-36,213	13,973	1427,849	784,021
-35,198	13,963	1426,564	783,239
-34,184	14,024	1425,707	783,025
-33,169	13,892	1424,265	781,576
-32,154	13,980	1423,139	781,345
-31,140	14,001	1421,853	780,706
-30,125	13,997	1420,804	780,080
-29,111	13,969	1419,733	779,330
-28,096	13,938	1418,649	778,556
-27,082	13,873	1417,541	777,611
-26,067	13,892	1416,362	777,025
-25,052	13,911	1415,289	776,496
-24,038	13,905	1414,322	775,903
-23,023	13,882	1413,286	775,196
-22,009	13,883	1412,407	774,689
-20,994	13,866	1411,393	774,022
-19,979	13,852	1410,556	773,467
-18,965	13,821	1409,738	772,840
-17,950	13,832	1408,578	772,229
-16,936	13,848	1407,704	771,792
-15,921	13,837	1406,620	771,115
-14,906	13,863	1405,641	770,668
-13,892	13,815	1404,833	769,974
-12,877	13,778	1403,921	769,269
-11,863	13,792	1403,134	768,875
-10,848	13,781	1402,111	768,231
-9,833	13,763	1401,376	767,714
-8,819	13,708	1400,485	766,937
-7,804	13,745	1399,449	766,515
-6,790	13,718	1398,550	765,866
-5,775	13,702	1397,436	765,151
-4,760	13,688	1396,516	764,551
-3,746	13,720	1395,623	764,182
-2,731	13,707	1394,818	763,647
-1,717	13,672	1393,879	762,942
-0,702	13,710	1392,026	762,076
0,313	17,566	1310,244	735,162
1,327	33,992	705,386	433,810
2,342	52,100	123,877	83,391
3,356	3,440	16,518	8,488
4,371	7,539	3,161	1,668
5,386	-27,940	0,662	0,270
6,400	-200,000	-0,007	0,202
7,415	217,516	-0,253	-0,285
8,429	81,772	-0,309	-0,236
9,444	33,583	-0,371	-0,227
10,459	-31,364	-0,337	-0,133
11,473	45,115	-0,390	-0,254
12,488	304,768	-0,215	-0,283
13,502	66,729	-0,295	-0,212
14,517	26,583	-0,435	-0,257
15,531	76,841	-0,304	-0,228
16,546	66,477	-0,390	-0,280
17,561	54,885	-0,454	-0,309
18,575	-59,424	-0,306	-0,092
19,590	376,170	-0,204	-0,296
20,604	-46,481	-0,336	-0,116
21,619	86,840	-0,507	-0,395
22,634	32,616	-0,367	-0,223
23,648	96,186	-0,502	-0,405
24,663	108,277	-0,289	-0,244
25,677	388,631	-0,206	-0,302
26,692	19,857	-0,384	-0,218
27,707	-0,956	-0,379	-0,189
28,721	17,990	-0,411	-0,231
29,736	32,839	-0,445	-0,271
30,750	54,689	-0,314	-0,213
31,765	240,719	-0,297	-0,350
32,780	98,032	-0,332	-0,269
33,794	102,531	-0,205	-0,169
34,809	36,182	-0,205	-0,127
35,823	59,228	-0,374	-0,260
36,838	59,557	-0,440	-0,305
37,853	22,592	-0,437	-0,252
38,867	75,084	-0,382	-0,284
39,882	118,904	-0,370	-0,322
40,896	127,931	-0,295	-0,264
41,911	186,611	-0,169	-0,177
42,926	-29,817	-0,389	-0,156
43,940	37,324	-0,397	-0,247
44,955	140,101	-0,348	-0,324
45,969	46,762	-0,447	-0,292
46,984	130,015	-0,320	-0,288
47,999	157,487	-0,278	-0,271
49,013	39,413	-0,411	-0,259
50,028	35,527	-0,277	-0,171
51,042	194,049	-0,350	-0,374
52,057	119,664	-0,348	-0,303
53,071	219,469	-0,354	-0,400
54,086	23,444	-0,296	-0,171
55,101	209,302	-0,258	-0,285
56,115	-70,303	-0,355	-0,094
57,130	79,030	-0,399	-0,300
58,144	41,856	-0,436	-0,278
59,159	132,251	-0,314	-0,285
60,174	-4,704	-0,332	-0,161
61,188	216,983	-0,288	-0,323
62,203	132,560	-0,322	-0,292
63,217	-33,588	-0,364	-0,141
64,232	-53,450	-0,348	-0,111
65,247	16,802	-0,486	-0,270
66,261	174,336	-0,317	-0,323
67,276	135,712	-0,362	-0,332
68,290	156,149	-0,347	-0,337
69,305	-57,519	-0,324	-0,099
70,320	161,117	-0,271	-0,267
71,334	-93,523	-0,354	-0,068
72,349	38,819	-0,269	-0,168
73,363	48,900	-0,422	-0,278
74,378	-47,362	-0,261	-0,089
75,393	-19,030	-0,406	-0,177
76,407	17,891	-0,323	-0,180
77,422	-17,559	-0,321	-0,141
78,436	-58,422	-0,240	-0,073
79,451	36,073	-0,384	-0,237
80,466	36,740	-0,275	-0,170
81,480	414,422	-0,226	-0,339
82,495	-43,283	-0,362	-0,128
83,509	-27,055	-0,496	-0,203
84,524	243,178	-0,195	-0,230
85,539	50,576	-0,252	-0,167
86,553	65,725	-0,241	-0,171
87,568	1,525	-0,353	-0,178
88,582	27,475	-0,341	-0,201
89,597	177,869	-0,232	-0,238
90,611	254,035	-0,219	-0,263
91,626	-54,285	-0,329	-0,104
92,641	79,933	-0,179	-0,135
93,655	-16,101	-0,245	-0,109
94,670	-31,755	-0,311	-0,122
95,684	45,752	-0,390	-0,253
96,699	150,472	-0,238	-0,226
97,714	232,973	-0,261	-0,302
98,728	16,709	-0,279	-0,154
99,743	-39,578	-0,320	-0,117
100,757	-57,526	-0,255	-0,078
101,772	52,307	-0,308	-0,205
102,787	232,499	-0,181	-0,209
103,801	126,725	-0,353	-0,314
104,816	128,269	-0,254	-0,226
105,830	-150,059	-0,223	-0,012
106,845	36,211	-0,249	-0,154
107,860	-81,615	-0,281	-0,064
108,874	120,035	-0,245	-0,213
109,889	62,100	-0,317	-0,221
110,903	800,000	-0,158	-0,348
111,918	75,128	-0,239	-0,176
112,933	131,652	-0,352	-0,317
113,947	49,216	-0,245	-0,161
114,962	90,284	-0,186	-0,146
115,976	-22,965	-0,303	-0,127
116,991	38,701	-0,310	-0,193
118,006	133,106	-0,249	-0,225
119,020	477,497	-0,156	-0,248
120,035	-23,523	-0,240	-0,100
121,049	29,792	-0,265	-0,158
122,064	-59,787	-0,293	-0,087
123,079	-38,998	-0,260	-0,095
124,093	213,434	-0,330	-0,366
125,108	25,292	-0,264	-0,153
126,122	214,229	-0,260	-0,288
127,137	66,671	-0,329	-0,234
128,151	-35,488	-0,172	-0,065
129,166	-33,564	-0,382	-0,147
130,181	29,861	-0,293	-0,174
131,195	524,592	-0,119	-0,196
132,210	-43,123	-0,379	-0,134
133,224	1,452	-0,320	-0,160
134,239	-8,506	-0,246	-0,115
135,254	-34,612	-0,355	-0,135
136,268	37,449	-0,195	-0,121
137,283	63,263	-0,354	-0,248
138,297	-21,007	-0,333	-0,142
139,312	68,675	-0,198	-0,142
140,327	63,135	-0,334	-0,233
141,341	-94,980	-0,302	-0,057
142,356	205,389	-0,189	-0,206
143,370	-20,153	-0,280	-0,120
144,385	110,481	-0,198	-0,167
145,400	144,184	-0,164	-0,153
146,414	124,372	-0,251	-0,220
147,429	-34,891	-0,429	-0,163
148,443	-23,898	-0,272	-0,113
149,458	129,040	-0,131	-0,117
150,473	45,899	-0,165	-0,107
151,487	211,503	-0,265	-0,292
152,502	201,390	-0,263	-0,284
153,516	86,057	-0,317	-0,243
154,531	-28,249	-0,327	-0,131
155,546	11,851	-0,275	-0,147
156,560	-7,780	-0,216	-0,101
157,575	99,770	-0,287	-0,232
158,589	109,794	-0,238	-0,199
159,604	-9,785	-0,276	-0,128
160,619	227,431	-0,184	-0,209
161,633	232,711	-0,225	-0,258
162,648	4,000	-0,214	-0,109
163,662	144,077	-0,156	-0,145
164,677	206,340	-0,202	-0,220
165,692	53,115	-0,149	-0,099
166,706	94,142	-0,190	-0,150
167,721	-80,958	-0,337	-0,077
168,735	73,655	-0,258	-0,189
169,750	800,000	-0,122	-0,268
170,764	367,767	-0,151	-0,214
171,779	800,000	-0,085	-0,184
172,794	62,586	-0,183	-0,127
173,808	-34,057	-0,220	-0,084
174,823	800,000	-0,143	-0,311
175,837	98,545	-0,351	-0,282
176,852	114,369	-0,327	-0,278
177,867	171,365	-0,131	-0,131
178,881	34,966	-0,225	-0,137
179,896	17,106	-0,197	-0,109
180,910	292,565	-0,284	-0,361
181,925	134,976	-0,262	-0,237
182,940	79,328	-0,269	-0,201
183,954	96,494	-0,171	-0,136
184,969	42,548	-0,251	-0,159
185,983	-72,092	-0,154	-0,039
186,998	9,797	-0,291	-0,153
188,013	287,062	-0,143	-0,181
189,027	-40,530	-0,309	-0,111
190,042	46,803	-0,253	-0,164
191,056	731,760	-0,140	-0,263
192,071	137,398	-0,207	-0,188
193,086	783,450	-0,111	-0,212
194,100	-61,467	-0,157	-0,046
195,115	-21,385	-0,239	-0,101
196,129	106,364	-0,157	-0,130
197,144	-14,693	-0,229	-0,102
198,159	-200,000	-0,039	-0,181
199,173	-81,046	-0,168	-0,038
200,188	309,880	-0,108	-0,141
201,202	130,731	-0,231	-0,206
202,217	8,981	-0,218	-0,114
203,232	141,759	-0,214	-0,197
204,246	-0,059	-0,340	-0,168
205,261	279,605	-0,126	-0,157
206,275	124,301	-0,181	-0,158
207,290	39,825	-0,200	-0,125
208,304	-44,892	-0,206	-0,071
209,319	-52,781	-0,279	-0,089
210,334	36,389	-0,222	-0,136
211,348	441,763	-0,096	-0,146
212,363	800,000	-0,107	-0,233
213,377	-38,544	-0,244	-0,089
214,392	48,498	-0,156	-0,101
215,407	800,000	-0,088	-0,202
216,421	41,475	-0,235	-0,147
217,436	169,474	-0,205	-0,204
218,450	800,000	-0,078	-0,179
219,465	135,573	-0,233	-0,210
220,480	68,604	-0,112	-0,080
221,494	-123,969	-0,160	-0,017
222,509	-33,899	-0,127	-0,048
223,523	124,721	-0,152	-0,132
224,538	69,186	-0,213	-0,152
225,553	52,348	-0,171	-0,113
226,567	509,580	-0,124	-0,201
227,582	297,157	-0,103	-0,131
228,596	477,273	-0,127	-0,200
229,611	-134,476	-0,348	-0,029
230,626	-100,815	-0,264	-0,045
231,640	-60,288	-0,158	-0,046
232,655	30,397	-0,267	-0,158
233,669	35,335	-0,276	-0,167
234,684	9,117	-0,223	-0,117
235,699	203,770	-0,156	-0,167
236,713	150,995	-0,123	-0,116
237,728	-66,874	-0,175	-0,048
238,742	206,551	-0,089	-0,096
239,757	481,540	-0,120	-0,190
240,772	4,027	-0,292	-0,147
241,786	-14,792	-0,226	-0,100
242,801	383,037	-0,166	-0,237
243,815	-55,982	-0,167	-0,051
244,830	2,873	-0,157	-0,079
245,844	25,905	-0,219	-0,126
246,859	253,918	-0,120	-0,142
247,874	106,943	-0,125	-0,103
248,888	24,502	-0,196	-0,112
249,903	63,521	-0,181	-0,126
250,917	90,720	-0,145	-0,113
251,932	-79,814	-0,251	-0,058
252,947	-123,323	-0,154	-0,017
253,961	-131,790	-0,067	-0,006
254,976	106,406	-0,272	-0,223
255,990	657,101	-0,057	-0,102
257,005	103,306	-0,183	-0,148
258,020	-7,953	-0,137	-0,064
259,034	22,267	-0,163	-0,092
260,049	-5,204	-0,197	0,094
261,063	10,348	-0,228	-0,120
262,078	7,106	-0,255	-0,131
263,093	-69,131	-0,345	-0,091
264,107	-16,443	-0,173	-0,076
265,122	-122,385	-0,054	-0,006
266,136	-132,525	-0,192	-0,017
267,151	41,043	-0,113	-0,071
268,166	271,999	-0,109	-0,133
269,180	113,800	-0,188	-0,158
270,195	135,635	-0,189	-0,170
271,209	-87,348	-0,207	-0,043
272,224	6,600	-0,181	-0,093
273,239	640,205	-0,118	-0,208
274,253	10,950	-0,172	-0,091
275,268	-21,320	-0,209	-0,088
276,282	33,411	-0,167	-0,100
277,297	-200,000	-0,240	-0,000
278,312	223,595	-0,128	-0,143
279,326	26,801	-0,206	-0,119
280,341	9,796	-0,182	-0,095
281,355	-32,941	-0,208	-0,079
282,370	179,173	-0,191	-0,193
283,384	-99,305	-0,112	-0,019
284,399	222,572	-0,063	-0,070
285,414	-200,000	0,001	-0,216
286,428	209,104	-0,030	-0,033
287,443	-61,229	-0,058	0,017
288,457	-99,251	-0,244	-0,042
289,472	72,702	-0,164	-0,118
290,487	-25,332	-0,196	-0,080
291,501	-172,215	-0,178	0,004
292,516	800,000	-0,105	-0,230
293,530	36,738	-0,260	-0,158
294,545	11,480	-0,109	-0,057
295,560	-16,712	-0,199	-0,086
296,574	80,436	-0,085	-0,063
297,589	-61,039	-0,240	-0,070
298,603	-148,899	-0,259	-0,014
299,618	126,387	-0,142	-0,124
300,633	11,727	-0,057	0,030
301,647	-200,000	0,015	-0,050
302,662	55,671	-0,062	-0,041
303,676	173,687	-0,150	-0,150
304,691	59,077	-0,082	-0,056
305,706	31,961	-0,125	-0,074
306,720	-72,624	-0,133	-0,033
307,735	251,580	-0,134	-0,157
308,749	-79,226	-0,120	0,028
309,764	-128,531	-0,173	-0,017
310,779	5,403	-0,193	-0,098
311,793	-200,000	-0,011	-0,069
312,808	150,705	-0,122	-0,115
313,822	693,214	-0,141	-0,256
314,837	114,886	-0,202	-0,170
315,852	-162,676	-0,185	0,006
316,866	-50,300	-0,182	-0,059
317,881	489,940	-0,070	-0,111
318,895	-81,486	-0,224	-0,050
319,910	-72,923	-0,194	-0,049
320,925	-61,948	-0,173	-0,049
321,939	535,437	-0,122	-0,200
322,954	-200,000	-0,030	-0,111
323,968	82,008	-0,093	-0,069
324,983	-150,058	-0,169	0,009
325,997	-43,423	-0,186	-0,064
327,012	-58,420	-0,247	-0,073
328,027	90,132	-0,081	-0,062
329,041	8,898	-0,185	-0,095
330,056	32,358	-0,147	-0,087
331,070	-75,024	-0,150	-0,037
332,085	-107,873	-0,033	0,005
333,100	134,908	-0,098	-0,088
334,114	-45,061	-0,085	-0,029
335,129	-152,715	-0,237	0,011
336,143	627,250	-0,099	-0,173
337,158	-200,000	-0,024	-0,165
338,173	800,000	-0,080	-0,160
339,187	188,746	-0,171	-0,176
340,202	120,219	-0,126	-0,107
341,216	500,051	-0,091	-0,144
342,231	-199,441	-0,210	0,001
343,246	465,076	-0,087	-0,134
344,260	31,452	-0,084	-0,049
345,275	502,554	0,039	0,062
346,289	-108,279	-0,045	0,007
347,304	26,535	-0,202	-0,116
348,319	19,474	-0,195	-0,107
349,333	427,230	-0,069	-0,103
350,348	53,334	-0,034	-0,022
351,362	800,000	-0,044	-0,095
352,377	-127,312	-0,213	-0,021
353,392	-200,000	-0,032	-0,139
354,406	-40,652	-0,097	-0,034
355,421	209,445	1313,331	1413,647
356,435	161,195	1473,893	1414,135
