DTS Sentinel unit serial number:	SN410029Multiplexer serial number:	ORYXHardware model number:	OX2-SRSoftware version number:	ORYX F/W v4,00 Oryx Data Collector v3.7.2.0data status	okinstallation	B3 Nyhavnadifferential loss correction	single-endedforward channel	channel 1reverse channel	N/Adate	2023/12/02time	17:57:30forward acquisition time	300,00reverse acquisition time	0,00gamma	499,1914k internal	0,3199k external	0,3199temperature offset calibration	1,0000default loss term (dB/km)	0,3820temperature slope calibration	1,0000multiplexer offset coefficient	1,0000multiplexer slope coefficient	1,0000fibre end	0,00T internal ref (°C)	13,70T ext. ref 1 (°C)	-1,62T ext. ref 2 (°C)	-1,64length (m)	temperature (°C)	Stokes	anti-Stokes-744,400	131,523	-0,392	-0,367
-743,385	800,000	0,142	0,400
-742,371	127,291	-0,220	-0,203
-741,356	800,000	-0,103	0,271
-740,342	13,338	-0,229	-0,129
-739,327	800,000	-0,155	0,408
-738,312	321,527	-0,226	-0,314
-737,298	-200,000	-0,056	0,271
-736,283	17,962	-0,179	-0,104
-735,269	800,000	0,074	0,156
-734,254	338,157	-0,247	-0,350
-733,239	-99,241	-0,213	0,039
-732,225	123,097	-0,173	-0,158
-731,210	-142,321	0,100	0,007
-730,196	711,956	-0,055	-0,106
-729,181	-144,669	0,069	0,005
-728,167	687,553	0,012	-0,023
-727,152	70,300	-0,144	-0,108
-726,137	-50,688	-0,097	0,033
-725,123	800,000	-0,049	-0,153
-724,108	136,954	-0,130	-0,124
-723,094	-171,769	-0,138	-0,003
-722,079	-133,950	-0,115	-0,010
-721,064	-72,639	-0,127	0,034
-720,050	51,221	-0,008	0,005
-719,035	233,159	-0,096	-0,115
-718,021	103,851	-0,031	0,027
-717,006	428,718	-0,049	0,078
-715,991	-50,850	-0,114	-0,039
-714,977	-200,000	0,001	-0,179
-713,962	-64,937	-0,105	-0,031
-712,948	-200,000	-0,024	0,127
-711,933	256,079	-0,051	0,064
-710,918	45,773	0,111	0,075
-709,904	226,832	-0,045	-0,054
-708,889	240,081	0,007	-0,008
-707,875	131,932	-0,147	-0,138
-706,860	90,261	0,081	-0,066
-705,845	15,920	0,127	-0,072
-704,831	-200,000	0,002	0,054
-703,816	-40,548	-0,063	-0,024
-702,802	800,000	0,034	-0,077
-701,787	-125,949	-0,139	0,015
-700,772	232,869	-0,046	-0,055
-699,758	116,630	-0,093	0,083
-698,743	180,063	0,068	-0,073
-697,729	-46,247	0,081	0,029
-696,714	-64,774	0,063	-0,019
-695,699	223,293	-0,015	-0,018
-694,685	-200,000	-0,005	0,028
-693,670	-200,000	-0,001	0,079
-692,656	176,656	-0,125	0,132
-691,641	-200,000	-0,002	0,006
-690,627	-200,000	-0,034	-0,109
-689,612	-200,000	-0,027	0,106
-688,597	-62,060	-0,045	-0,013
-687,583	393,252	-0,049	-0,075
-686,568	349,552	-0,084	-0,121
-685,554	211,862	-0,061	-0,069
-684,539	-200,000	0,011	0,059
-683,524	-94,049	0,079	-0,016
-682,510	-200,000	-0,011	-0,067
-681,495	-96,276	-0,133	0,025
-680,481	-200,000	-0,003	-0,184
-679,466	-200,000	0,005	-0,071
-678,451	-200,000	-0,019	-0,093
-677,437	-200,000	-0,019	0,078
-676,422	9,469	-0,088	0,048
-675,408	111,263	0,004	-0,003
-674,393	800,000	-0,052	0,112
-673,378	-123,088	-0,120	-0,014
-672,364	-200,000	0,093	0,000
-671,349	-119,119	-0,040	0,005
-670,335	-200,000	-0,001	0,005
-669,320	-200,000	-0,008	-0,075
-668,305	800,000	-0,057	0,162
-667,291	-200,000	0,001	0,049
-666,276	-200,000	0,047	-0,180
-665,262	-200,000	0,011	-0,098
-664,247	800,000	0,054	-0,124
-663,232	-151,767	0,101	-0,005
-662,218	264,289	0,014	-0,018
-661,203	-200,000	-0,032	0,135
-660,189	382,432	0,062	-0,092
-659,174	800,000	-0,077	0,218
-658,159	-60,000	-0,040	0,012
-657,145	-200,000	0,005	-0,145
-656,130	-57,190	0,071	-0,023
-655,116	461,242	-0,054	0,087
-654,101	800,000	0,040	0,082
-653,086	-56,359	0,092	0,029
-652,072	-200,000	0,018	-0,094
-651,057	-200,000	0,005	0,023
-650,043	12,300	0,006	0,003
-649,028	86,705	-0,050	-0,040
-648,014	320,766	0,047	-0,065
-646,999	-200,000	0,019	-0,079
-645,984	-200,000	0,025	0,099
-644,970	147,005	-0,056	0,054
-643,955	-200,000	-0,177	0,000
-642,941	742,653	0,054	-0,106
-641,926	-92,780	-0,037	-0,007
-640,911	800,000	0,018	-0,043
-639,897	-50,669	0,040	0,014
-638,882	457,221	-0,028	-0,045
-637,868	-10,882	-0,030	-0,014
-636,853	132,508	-0,047	-0,044
-635,838	-143,669	0,137	0,009
-634,824	611,943	-0,037	-0,067
-633,809	-23,127	0,083	-0,036
-632,795	48,730	0,110	-0,075
-631,780	-200,000	0,031	0,170
-630,765	800,000	-0,034	-0,090
-629,751	-200,000	0,008	-0,045
-628,736	-37,719	0,053	-0,020
-627,722	-64,948	-0,099	0,029
-626,707	84,516	-0,053	0,042
-625,692	172,934	0,090	0,095
-624,678	800,000	0,050	0,122
-623,663	800,000	0,042	-0,118
-622,649	-200,000	-0,002	0,066
-621,634	-27,136	-0,047	0,020
-620,619	0,331	0,093	-0,048
-619,605	-178,219	-0,112	0,002
-618,590	800,000	-0,022	0,047
-617,576	800,000	-0,006	-0,013
-616,561	800,000	0,043	-0,121
-615,546	-200,000	0,005	-0,023
-614,532	2,672	-0,026	0,014
-613,517	364,189	-0,019	0,028
-612,503	-50,191	0,101	-0,034
-611,488	800,000	0,047	0,149
-610,474	-200,000	-0,003	0,045
-609,459	-200,000	-0,037	-0,147
-608,444	-127,704	-0,082	-0,008
-607,430	-193,169	-0,177	0,001
-606,415	156,838	-0,164	-0,164
-605,401	-62,994	0,082	0,024
-604,386	-164,488	-0,107	-0,003
-603,371	-200,000	-0,027	0,137
-602,357	-46,144	-0,052	0,018
-601,342	800,000	0,028	-0,084
-600,328	-147,901	-0,020	0,001
-599,313	7,729	-0,089	-0,048
-598,298	215,585	0,025	-0,029
-597,284	770,849	-0,018	0,035
-596,269	-200,000	0,013	0,047
-595,255	-101,506	0,095	0,017
-594,240	-200,000	-0,009	-0,044
-593,225	-200,000	-0,006	-0,033
-592,211	-108,961	0,011	-0,002
-591,196	84,966	-0,025	-0,020
-590,182	-91,575	-0,058	-0,012
-589,167	-200,000	0,046	-0,200
-588,152	-200,000	-0,006	0,107
-587,138	-12,558	-0,083	0,039
-586,123	307,597	-0,006	-0,008
-585,109	800,000	-0,008	0,022
-584,094	-18,012	0,022	-0,010
-583,079	-173,207	-0,059	-0,001
-582,065	774,040	0,043	0,086
-581,050	-44,935	0,108	-0,039
-580,036	-37,936	-0,170	-0,065
-579,021	42,713	-0,093	-0,061
-578,006	548,670	-0,058	-0,102
-576,992	-200,000	-0,006	-0,092
-575,977	800,000	-0,024	-0,053
-574,963	-104,118	0,082	0,014
-573,948	93,934	0,090	0,074
-572,934	34,698	0,032	0,020
-571,919	800,000	-0,008	-0,018
-570,904	800,000	-0,077	-0,172
-569,890	103,392	0,075	-0,063
-568,875	148,894	-0,056	-0,055
-567,861	87,000	0,166	0,133
-566,846	375,608	-0,080	-0,118
-565,831	-42,316	-0,141	0,052
-564,817	800,000	-0,036	-0,088
-563,802	-86,229	-0,066	-0,015
-562,788	134,477	-0,044	-0,041
-561,773	-62,360	0,188	0,056
-560,758	347,793	0,067	-0,095
-559,744	-52,901	-0,079	0,026
-558,729	-88,274	0,041	0,009
-557,715	-76,024	-0,059	-0,015
-556,700	-200,000	0,019	-0,076
-555,685	-131,923	-0,138	0,013
-554,671	-147,170	0,148	0,009
-553,656	148,358	-0,056	0,055
-552,642	-200,000	0,011	0,349
-551,627	714,273	-0,023	0,044
-550,612	84,848	0,076	-0,060
-549,598	250,741	-0,095	0,116
-548,583	-13,783	0,080	0,037
-547,569	522,318	-0,098	-0,167
-546,554	-23,205	-0,081	0,035
-545,539	-129,518	0,097	0,010
-544,525	800,000	-0,055	0,143
-543,510	86,072	-0,042	-0,033
-542,496	-200,000	-0,019	-0,101
-541,481	-200,000	-0,017	0,079
-540,466	-7,630	-0,134	-0,065
-539,452	-146,426	0,033	0,002
-538,437	-48,047	0,094	0,033
-537,423	-146,039	-0,088	0,006
-536,408	755,762	0,050	0,098
-535,393	170,214	-0,072	-0,074
-534,379	20,083	-0,098	0,057
-533,364	92,342	-0,042	0,034
-532,350	-59,418	0,051	-0,016
-531,335	33,097	-0,084	0,052
-530,321	258,714	0,081	0,101
-529,306	-151,072	0,168	-0,009
-528,291	109,380	0,032	0,028
-527,277	-200,000	-0,038	-0,146
-526,262	-0,083	0,016	0,008
-525,248	61,068	0,077	-0,055
-524,233	695,626	-0,063	0,119
-523,218	-200,000	0,026	-0,107
-522,204	800,000	-0,014	-0,036
-521,189	125,285	-0,035	0,032
-520,175	56,907	-0,026	-0,018
-519,160	17,683	-0,051	-0,029
-518,145	294,043	0,029	-0,038
-517,131	-64,945	0,156	0,045
-516,116	-200,000	-0,044	0,181
-515,102	10,247	0,044	-0,024
-514,087	293,003	-0,035	0,046
-513,072	36,003	-0,049	0,031
-512,058	26,235	0,180	-0,108
-511,043	-200,000	0,017	0,071
-510,029	-81,315	0,067	0,016
-509,014	94,998	0,097	0,079
-507,999	-200,000	-0,005	-0,077
-506,985	-100,919	-0,112	-0,020
-505,970	-200,000	-0,004	0,047
-504,956	-43,459	0,011	-0,004
-503,941	800,000	0,039	-0,105
-502,926	-19,009	0,033	0,015
-501,912	-107,653	0,165	0,026
-500,897	800,000	0,046	0,099
-499,883	-200,000	-0,044	-0,189
-498,868	175,359	0,074	-0,078
-497,853	-200,000	-0,029	-0,174
-496,839	-36,038	0,035	0,014
-495,824	800,000	0,051	0,115
-494,810	19,649	0,119	0,069
-493,795	271,025	0,010	0,012
-492,781	-28,544	-0,064	0,026
-491,766	-200,000	-0,037	-0,229
-490,751	505,513	-0,018	-0,030
-489,737	-75,264	-0,127	-0,032
-488,722	55,507	0,035	0,024
-487,708	234,971	-0,032	0,038
-486,693	-57,260	-0,150	-0,047
-485,678	-56,439	0,073	-0,023
-484,664	-86,869	0,022	0,005
-483,649	167,433	-0,087	-0,089
-482,635	188,776	-0,035	-0,037
-481,620	800,000	-0,012	0,031
-480,605	-200,000	-0,003	-0,058
-479,591	-55,398	0,100	-0,032
-478,576	-200,000	0,001	-0,106
-477,562	-80,385	-0,032	0,008
-476,547	-85,168	0,084	-0,019
-475,532	-101,281	-0,131	-0,023
-474,518	-200,000	-0,007	0,066
-473,503	-106,157	-0,047	-0,008
-472,489	241,616	0,030	0,036
-471,474	-200,000	-0,002	-0,010
-470,459	133,051	-0,081	0,076
-469,445	800,000	-0,029	0,086
-468,430	-200,000	0,019	-0,089
-467,416	-9,359	0,027	0,013
-466,401	-112,998	0,081	0,011
-465,386	-200,000	0,002	0,110
-464,372	63,172	0,076	0,054
-463,357	-200,000	-0,027	0,100
-462,343	-200,000	-0,005	-0,135
-461,328	800,000	0,066	-0,194
-460,313	800,000	0,046	-0,104
-459,299	91,160	0,073	-0,059
-458,284	-200,000	0,017	-0,095
-457,270	-53,983	0,126	-0,041
-456,255	-29,294	-0,104	-0,043
-455,241	-46,399	-0,147	-0,052
-454,226	-143,143	-0,106	-0,007
-453,211	-200,000	0,018	0,207
-452,197	-37,337	0,154	-0,059
-451,182	140,407	0,086	0,081
-450,168	-200,000	-0,010	-0,105
-449,153	537,524	0,041	-0,070
-448,138	-200,000	-0,004	-0,092
-447,124	237,992	0,045	-0,053
-446,109	-200,000	0,027	-0,098
-445,095	337,920	-0,074	0,103
-444,080	-68,397	-0,049	0,013
-443,065	-200,000	0,008	0,088
-442,051	770,803	0,052	0,102
-441,036	615,266	-0,042	-0,076
-440,022	-77,756	0,044	-0,011
-439,007	-17,321	0,106	-0,048
-437,992	-37,199	-0,104	-0,040
-436,978	7,099	0,062	-0,033
-435,963	800,000	0,032	-0,102
-434,949	-25,433	0,049	0,021
-433,934	-63,171	-0,108	-0,032
-432,919	7,654	-0,079	-0,042
-431,905	119,051	-0,042	-0,038
-430,890	-75,640	-0,074	0,019
-429,876	258,695	0,054	0,067
-428,861	-58,532	-0,009	-0,003
-427,846	800,000	0,049	0,131
-426,832	-125,484	-0,120	-0,013
-425,817	176,275	-0,073	-0,076
-424,803	-105,396	-0,039	-0,006
-423,788	-35,434	0,120	0,047
-422,773	-137,291	0,150	-0,012
-421,759	28,130	0,117	0,071
-420,744	800,000	-0,045	0,112
-419,730	-13,594	-0,048	0,022
-418,715	800,000	-0,040	0,087
-417,701	-200,000	0,012	-0,165
-416,686	395,046	-0,034	0,051
-415,671	664,906	0,003	0,006
-414,657	-76,840	0,152	0,038
-413,642	-31,634	-0,054	0,021
-412,628	61,570	-0,014	-0,010
-411,613	-43,338	0,128	-0,046
-410,598	83,446	-0,109	0,085
-409,584	-200,000	0,029	0,106
-408,569	-11,946	0,086	0,041
-407,555	-200,000	0,012	0,163
-406,540	800,000	0,056	0,123
-405,525	-23,041	-0,038	-0,016
-404,511	-200,000	0,015	-0,051
-403,496	105,141	-0,020	-0,017
-402,482	-200,000	-0,019	-0,073
-401,467	242,501	-0,039	0,047
-400,452	187,596	-0,065	0,070
-399,438	142,118	-0,029	0,027
-398,423	74,048	-0,061	0,046
-397,409	208,262	-0,092	-0,103
-396,394	32,211	-0,096	-0,059
-395,379	107,800	0,076	-0,065
-394,365	-160,388	0,103	0,004
-393,350	17,553	-0,078	0,044
-392,336	-200,000	-0,003	0,177
-391,321	-66,717	0,117	-0,033
-390,306	-114,955	0,030	-0,004
-389,292	-200,000	-0,009	0,036
-388,277	800,000	0,058	-0,146
-387,263	573,365	0,058	0,102
-386,248	313,001	0,019	-0,026
-385,233	-200,000	0,008	0,111
-384,219	275,613	-0,056	0,072
-383,204	-103,582	-0,077	-0,013
-382,190	387,023	0,042	-0,063
-381,175	-119,634	0,063	-0,008
-380,160	800,000	0,013	-0,034
-379,146	-200,000	-0,001	0,027
-378,131	299,664	0,043	0,057
-377,117	800,000	0,026	-0,070
-376,102	-93,094	-0,142	0,028
-375,088	-54,892	-0,078	-0,025
-374,073	-64,152	-0,063	-0,018
-373,058	-200,000	0,013	0,088
-372,044	-200,000	-0,006	0,187
-371,029	275,408	-0,036	0,046
-370,015	75,479	0,150	-0,114
-369,000	-200,000	0,011	-0,133
-367,985	69,306	-0,084	-0,062
-366,971	-48,334	-0,078	-0,027
-365,956	10,938	0,045	-0,025
-364,942	-200,000	0,039	0,178
-363,927	150,695	-0,069	0,067
-362,912	67,532	0,241	0,177
-361,898	110,732	-0,065	-0,056
-360,883	-200,000	0,022	-0,079
-359,869	92,340	-0,065	-0,052
-358,854	42,195	0,086	-0,056
-357,839	282,788	0,024	0,031
-356,825	-124,048	0,069	-0,008
-355,810	-140,218	-0,102	0,008
-354,796	42,938	-0,116	0,076
-353,781	360,843	0,081	-0,117
-352,766	-130,794	-0,134	-0,013
-351,752	72,623	0,074	-0,055
-350,737	-200,000	0,038	0,144
-349,723	-82,087	0,105	0,024
-348,708	-200,000	0,016	0,104
-347,693	-184,421	0,064	-0,001
-346,679	122,615	-0,178	-0,160
-345,664	-106,809	0,100	0,016
-344,650	-105,637	-0,075	0,012
-343,635	130,242	0,193	0,177
-342,620	734,312	0,074	0,143
-341,606	286,452	0,090	0,117
-340,591	134,423	0,067	0,062
-339,577	-97,260	-0,060	-0,011
-338,562	800,000	-0,074	-0,178
-337,548	-125,543	0,111	-0,012
-336,533	263,284	0,099	0,123
-335,518	-138,937	0,053	-0,004
-334,504	55,667	0,015	-0,011
-333,489	359,653	0,053	0,076
-332,475	114,357	0,093	0,081
-331,460	69,692	-0,094	-0,069
-330,445	438,646	-0,061	-0,095
-329,431	276,827	0,024	-0,031
-328,416	171,394	0,040	0,041
-327,402	669,471	0,106	0,197
-326,387	122,206	0,019	0,017
-325,372	310,117	-0,090	0,121
-324,358	-5,503	0,069	-0,034
-323,343	-200,000	0,015	0,153
-322,329	362,706	0,088	0,127
-321,314	-200,000	-0,005	0,083
-320,299	23,076	0,013	0,008
-319,285	-200,000	-0,034	0,142
-318,270	-200,000	-0,029	-0,208
-317,256	800,000	-0,022	-0,059
-316,241	-200,000	-0,027	-0,104
-315,226	71,581	-0,006	0,005
-314,212	800,000	-0,052	-0,151
-313,197	800,000	0,063	0,136
-312,183	-200,000	-0,029	0,098
-311,168	800,000	0,115	-0,237
-310,153	-123,704	-0,146	-0,016
-309,139	800,000	0,034	-0,074
-308,124	265,920	0,065	0,081
-307,110	-200,000	-0,023	-0,082
-306,095	-200,000	0,021	0,127
-305,080	14,777	-0,159	0,089
-304,066	307,030	-0,038	0,050
-303,051	56,458	0,095	0,066
-302,037	114,861	-0,005	0,004
-301,022	800,000	-0,057	-0,165
-300,008	289,095	0,096	-0,125
-298,993	379,619	-0,027	0,040
-297,978	120,660	-0,103	0,091
-296,964	18,929	0,019	-0,011
-295,949	-119,958	-0,085	0,010
-294,935	88,382	-0,058	-0,046
-293,920	-53,367	0,165	0,054
-292,905	42,690	0,078	0,050
-291,891	-110,804	0,073	0,011
-290,876	-67,908	-0,060	-0,017
-289,862	800,000	-0,063	-0,145
-288,847	572,868	-0,121	-0,211
-287,832	91,729	-0,120	-0,097
-286,818	-138,275	0,052	-0,004
-285,803	-10,790	-0,132	-0,062
-284,789	800,000	-0,051	0,138
-283,774	-200,000	-0,012	0,120
-282,759	276,385	-0,111	-0,142
-281,745	-13,709	-0,091	-0,042
-280,730	800,000	-0,021	-0,048
-279,716	-200,000	0,017	-0,145
-278,701	-77,849	0,090	0,022
-277,686	113,347	0,039	0,034
-276,672	-200,000	-0,003	0,145
-275,657	42,567	0,064	0,041
-274,643	199,388	-0,007	-0,008
-273,628	-40,715	0,047	-0,017
-272,613	-133,776	0,124	0,011
-271,599	800,000	0,049	0,100
-270,584	-200,000	0,014	0,045
-269,570	501,130	0,039	-0,065
-268,555	69,404	0,043	0,032
-267,540	169,702	-0,127	0,129
-266,526	29,220	0,069	-0,042
-265,511	800,000	0,033	-0,092
-264,497	-200,000	-0,005	-0,063
-263,482	-148,198	0,125	0,007
-262,467	-61,826	0,221	-0,066
-261,453	1,541	-0,029	-0,015
-260,438	260,880	-0,107	-0,132
-259,424	800,000	-0,023	0,068
-258,409	-200,000	0,009	-0,104
-257,395	-200,000	0,009	-0,125
-256,380	175,426	0,046	0,048
-255,365	105,953	0,072	0,061
-254,351	223,484	-0,093	0,108
-253,336	231,475	-0,069	0,080
-252,322	-46,424	-0,142	0,049
-251,307	-200,000	-0,009	0,167
-250,292	800,000	-0,032	0,075
-249,278	-28,352	0,044	0,018
-248,263	298,106	-0,043	-0,056
-247,249	-200,000	-0,010	-0,078
-246,234	113,930	0,051	-0,045
-245,219	-200,000	-0,028	0,101
-244,205	-94,393	0,130	0,025
-243,190	84,187	0,105	0,082
-242,176	-200,000	-0,008	-0,031
-241,161	-55,862	-0,140	0,044
-240,146	-200,000	0,013	-0,044
-239,132	122,802	-0,091	-0,082
-238,117	73,254	-0,070	-0,052
-237,103	764,184	0,020	-0,039
-236,088	-200,000	-0,006	0,038
-235,073	800,000	0,050	0,105
-234,059	-200,000	-0,038	0,125
-233,044	-96,276	-0,029	-0,006
-232,030	19,354	0,023	-0,013
-231,015	-200,000	-0,014	0,124
-230,000	-55,463	-0,093	-0,030
-228,986	419,460	-0,065	-0,100
-227,971	-10,088	0,053	-0,025
-226,957	800,000	0,081	0,218
-225,942	-24,306	-0,044	0,018
-224,927	-200,000	0,029	0,155
-223,913	63,885	0,060	-0,043
-222,898	-39,337	-0,096	-0,036
-221,884	800,000	-0,060	0,158
-220,869	0,841	-0,020	0,010
-219,855	-31,213	-0,110	-0,044
-218,840	-200,000	0,005	-0,044
-217,825	-200,000	0,010	-0,150
-216,811	800,000	-0,045	-0,093
-215,796	800,000	0,049	-0,144
-214,782	-148,291	-0,112	-0,006
-213,767	297,996	0,084	-0,111
-212,752	-12,128	-0,124	0,058
-211,738	-200,000	-0,039	0,153
-210,723	-92,407	0,114	-0,023
-209,709	247,270	0,106	-0,128
-208,694	35,213	-0,107	-0,067
-207,679	800,000	0,026	0,073
-206,665	800,000	0,050	-0,121
-205,650	-29,496	0,060	-0,024
-204,636	-200,000	-0,020	0,112
-203,621	-50,358	-0,037	0,012
-202,606	800,000	-0,044	0,134
-201,592	-37,701	-0,080	0,030
-200,577	-31,525	-0,057	-0,023
-199,563	213,645	0,047	-0,053
-198,548	505,620	0,039	0,065
-197,533	-168,531	0,090	0,002
-196,519	-148,749	0,053	0,003
-195,504	-102,251	0,109	-0,018
-194,490	-200,000	-0,001	-0,159
-193,475	298,765	-0,086	-0,112
-192,460	38,476	0,175	-0,111
-191,446	800,000	-0,048	0,112
-190,431	-69,567	0,046	0,012
-189,417	-200,000	0,008	0,100
-188,402	256,045	-0,047	-0,058
-187,387	800,000	-0,035	-0,077
-186,373	138,502	-0,102	-0,096
-185,358	-54,314	-0,097	-0,031
-184,344	322,131	0,100	0,136
-183,329	310,018	0,100	0,133
-182,315	418,329	0,055	-0,084
-181,300	-154,336	-0,129	0,006
-180,285	97,279	-0,123	-0,101
-179,271	34,507	-0,034	-0,021
-178,256	-43,339	0,024	0,009
-177,242	122,822	-0,183	-0,163
-176,227	152,984	0,089	-0,087
-175,212	-200,000	-0,006	-0,053
-174,198	161,335	0,126	0,126
-173,183	-33,729	-0,079	-0,031
-172,169	43,680	-0,079	0,051
-171,154	-22,340	-0,038	-0,016
-170,139	-200,000	0,005	0,079
-169,125	231,609	-0,134	0,157
-168,110	86,918	0,071	0,056
-167,096	59,505	0,102	0,071
-166,081	-200,000	-0,021	0,069
-165,066	-96,810	-0,158	0,029
-164,052	800,000	-0,025	-0,053
-163,037	71,298	0,090	-0,067
-162,023	26,207	0,151	0,090
-161,008	800,000	0,024	-0,063
-159,993	-200,000	0,003	-0,071
-158,979	-65,573	-0,013	-0,004
-157,964	-91,130	0,041	0,008
-156,950	-0,082	-0,185	0,093
-155,935	-200,000	0,015	-0,055
-154,920	111,716	0,072	0,062
-153,906	-60,394	0,058	0,017
-152,891	737,956	-0,032	-0,061
-151,877	98,740	0,043	-0,035
-150,862	-200,000	0,019	0,074
-149,847	-139,915	-0,166	-0,012
-148,833	-54,245	0,141	-0,045
-147,818	-27,933	0,117	0,048
-146,804	47,552	0,107	0,071
-145,789	800,000	0,019	0,037
-144,775	-200,000	-0,018	-0,101
-143,760	-48,680	-0,044	-0,015
-142,745	800,000	-0,082	-0,163
-141,731	-15,851	-0,074	-0,033
-140,716	-200,000	-0,000	0,238
-139,702	113,821	0,070	0,061
-138,687	59,406	0,058	-0,040
-137,672	218,844	-0,062	-0,070
-136,658	800,000	0,105	-0,214
-135,643	546,636	0,032	-0,055
-134,629	8,278	-0,059	0,031
-133,614	-96,390	-0,050	0,009
-132,599	-200,000	-0,025	-0,125
-131,585	-15,271	-0,105	0,047
-130,570	-98,560	0,141	-0,025
-129,556	-141,050	-0,066	-0,005
-128,541	-200,000	-0,009	0,071
-127,526	-200,000	-0,006	0,082
-126,512	-15,429	0,113	0,051
-125,497	-200,000	0,019	0,101
-124,483	-200,000	0,017	-0,081
-123,468	-106,262	-0,042	-0,007
-122,453	-118,367	0,047	0,006
-121,439	118,209	-0,097	0,085
-120,424	800,000	0,010	0,028
-119,410	-38,874	-0,056	0,021
-118,395	-200,000	-0,023	0,142
-117,380	-200,000	0,019	-0,080
-116,366	212,931	-0,036	0,041
-115,351	307,446	-0,028	-0,037
-114,337	800,000	-0,055	-0,134
-113,322	-84,369	-0,141	-0,031
-112,307	800,000	-0,028	0,066
-111,293	231,039	0,081	0,094
-110,278	-200,000	-0,021	-0,076
-109,264	-141,858	0,116	-0,008
-108,249	-73,050	-0,112	-0,029
-107,234	-65,955	0,125	0,035
-106,220	98,220	-0,129	0,106
-105,205	637,484	-0,054	-0,098
-104,191	115,088	0,097	0,084
-103,176	-200,000	-0,034	0,109
-102,162	-200,000	-0,000	-0,099
-101,147	467,448	0,056	-0,089
-100,132	6,706	-0,097	-0,051
-99,118	67,489	-0,126	-0,091
-98,103	-166,672	0,010	-0,000
-97,089	800,000	0,026	-0,080
-96,074	-200,000	-0,012	0,174
-95,059	-200,000	-0,021	0,103
-94,045	18,925	-0,193	0,110
-93,030	-200,000	-0,002	0,045
-92,016	-120,770	-0,046	-0,005
-91,001	297,835	-0,121	0,158
-89,986	108,982	0,122	0,104
-88,972	-140,659	0,116	-0,008
-87,957	-200,000	-0,015	0,089
-86,943	-175,857	-0,047	-0,001
-85,928	-44,229	-0,048	0,017
-84,913	-47,004	0,044	-0,015
-83,899	800,000	0,032	-0,092
-82,884	-12,887	0,089	0,041
-81,870	268,139	0,089	0,111
-80,855	-72,222	0,080	-0,021
-79,840	-59,428	-0,121	0,037
-78,826	157,695	-0,053	-0,052
-77,811	230,012	-0,079	-0,092
-76,797	-88,321	-0,133	-0,028
-75,782	-93,129	0,126	0,025
-74,767	-200,000	0,014	-0,077
-73,753	274,316	0,042	-0,053
-72,738	800,000	-0,046	-0,106
-71,724	-24,581	0,160	-0,067
-70,709	-106,775	-0,132	-0,021
-69,694	-200,000	0,008	-0,053
-68,680	60,181	0,039	-0,027
-67,665	-65,723	0,189	-0,053
-66,651	589,943	0,062	0,108
-65,636	-98,214	0,114	-0,021
-64,622	120,883	0,012	-0,011
-63,607	-68,170	-0,101	-0,028
-62,592	-148,036	0,093	-0,005
-61,578	306,733	-0,097	-0,129
-60,563	96,876	0,080	0,065
-59,549	800,000	-0,023	0,068
-58,534	-52,162	-1,634	-0,534
-57,519	397,648	-1,345	-1,998
-56,505	-200,000	-0,643	-4,560
-55,490	276,634	0,876	1,105
-54,476	800,000	4,963	11,394
-53,461	-200,000	19,021	316,506
-52,446	-200,000	740,217	2331,971
-51,432	574,947	1655,848	2874,684
-50,417	78,836	1671,409	1265,726
-49,403	21,687	1543,969	888,160
-48,388	15,602	1466,437	813,963
-47,373	17,954	1456,667	819,880
-46,359	16,901	1446,369	809,001
-45,344	13,806	1442,075	791,729
-44,330	13,742	1440,047	790,282
-43,315	13,736	1438,334	789,280
-42,300	13,771	1436,448	788,382
-41,286	13,778	1435,359	787,784
-40,271	13,768	1434,033	786,976
-39,257	13,716	1432,767	786,005
-38,242	13,797	1431,427	785,625
-37,227	13,812	1430,209	784,997
-36,213	13,766	1429,108	784,140
-35,198	13,802	1427,981	783,663
-34,184	13,854	1426,999	783,340
-33,169	13,821	1425,431	782,291
-32,154	13,858	1424,379	781,861
-31,140	13,822	1423,110	780,959
-30,125	13,835	1422,033	780,398
-29,111	13,809	1421,106	779,736
-28,096	13,787	1419,989	778,991
-27,082	13,804	1418,420	778,177
-26,067	13,746	1417,791	777,526
-25,052	13,739	1416,513	776,763
-24,038	13,715	1415,604	776,119
-23,023	13,688	1414,709	775,471
-22,009	13,734	1413,733	775,125
-20,994	13,655	1412,691	774,150
-19,979	13,674	1411,920	773,786
-18,965	13,641	1411,070	773,133
-17,950	13,690	1409,736	772,603
-16,936	13,650	1409,005	771,984
-15,921	13,639	1407,968	771,336
-14,906	13,590	1407,131	770,615
-13,892	13,640	1406,074	770,242
-12,877	13,668	1405,178	769,848
-11,863	13,672	1404,325	769,370
-10,848	13,620	1403,392	768,588
-9,833	13,623	1402,407	768,031
-8,819	13,565	1401,670	767,325
-7,804	13,546	1400,787	766,724
-6,790	13,475	1399,718	765,775
-5,775	13,593	1398,473	765,615
-4,760	13,511	1397,888	764,883
-3,746	13,518	1397,050	764,428
-2,731	13,552	1395,944	763,950
-1,717	13,494	1395,166	763,225
-0,702	13,494	1393,619	762,349
0,313	17,252	1310,753	734,467
1,327	33,242	704,993	432,075
2,342	51,145	123,656	82,911
3,356	2,273	16,580	8,459
4,371	21,394	3,221	1,848
5,386	43,955	0,539	0,349
6,400	-200,000	0,038	0,247
7,415	-1,928	-0,256	-0,127
8,429	-1,072	-0,200	-0,100
9,444	36,835	-0,353	-0,220
10,459	-74,387	-0,180	-0,046
11,473	109,878	-0,291	-0,247
12,488	21,222	-0,228	-0,131
13,502	-26,040	-0,276	-0,114
14,517	233,569	-0,223	-0,260
15,531	-17,175	-0,400	-0,178
16,546	93,187	-0,333	-0,266
17,561	45,539	-0,428	-0,279
18,575	24,275	-0,158	-0,092
19,590	54,744	-0,234	-0,160
20,604	-72,450	-0,183	-0,048
21,619	209,579	-0,220	-0,244
22,634	100,580	-0,444	-0,364
23,648	-22,439	-0,654	-0,279
24,663	-2,432	-0,467	-0,230
25,677	-29,713	-0,344	-0,138
26,692	40,862	-0,355	-0,226
27,707	8,202	-0,358	-0,190
28,721	79,327	-0,335	-0,253
29,736	111,207	-0,457	-0,389
30,750	31,423	-0,346	-0,209
31,765	121,733	-0,339	-0,298
32,780	800,000	-0,218	-0,462
33,794	62,069	-0,392	-0,276
34,809	67,793	-0,406	-0,293
35,823	22,631	-0,360	-0,208
36,838	140,483	-0,449	-0,418
37,853	6,685	-0,476	-0,249
38,867	90,856	-0,433	-0,343
39,882	335,014	-0,253	-0,347
40,896	21,177	-0,332	-0,190
41,911	-64,382	-0,512	-0,146
42,926	464,385	-0,308	-0,487
43,940	116,871	-0,316	-0,273
44,955	4,734	-0,395	-0,204
45,969	105,038	-0,422	-0,351
46,984	91,820	-0,299	-0,237
47,999	-135,550	-0,381	-0,032
49,013	-62,774	-0,338	-0,098
50,028	115,984	-0,281	-0,243
51,042	-75,831	-0,400	-0,099
52,057	121,892	-0,348	-0,306
53,071	377,757	-0,243	-0,352
54,086	81,356	-0,333	-0,253
55,101	10,071	-0,197	-0,105
56,115	25,501	-0,315	-0,184
57,130	33,225	-0,342	-0,209
58,144	52,895	-0,313	-0,210
59,159	15,384	-0,416	-0,229
60,174	14,156	-0,402	-0,220
61,188	110,159	-0,360	-0,304
62,203	116,984	-0,310	-0,268
63,217	-45,137	-0,348	-0,121
64,232	20,310	-0,381	-0,216
65,247	-30,958	-0,316	-0,125
66,261	61,056	-0,399	-0,278
67,276	79,130	-0,360	-0,271
68,290	35,108	-0,357	-0,220
69,305	138,976	-0,301	-0,278
70,320	222,322	-0,155	-0,175
71,334	96,640	-0,267	-0,215
72,349	-48,966	-0,279	-0,094
73,363	88,879	-0,368	-0,288
74,378	28,703	-0,361	-0,215
75,393	42,175	-0,325	-0,207
76,407	79,354	-0,205	-0,154
77,422	282,974	-0,249	-0,316
78,436	298,675	-0,197	-0,256
79,451	222,190	-0,259	-0,293
80,466	130,922	-0,273	-0,247
81,480	143,657	-0,320	-0,300
82,495	186,333	-0,223	-0,234
83,509	6,806	-0,321	-0,167
84,524	273,144	-0,131	-0,163
85,539	147,174	-0,271	-0,256
86,553	61,484	-0,248	-0,173
87,568	140,277	-0,282	-0,262
88,582	190,475	-0,262	-0,276
89,597	-19,087	-0,375	-0,163
90,611	24,868	-0,298	-0,173
91,626	349,881	-0,218	-0,303
92,641	314,907	-0,253	-0,336
93,655	-45,107	-0,300	-0,104
94,670	-9,480	-0,339	-0,158
95,684	33,425	-0,294	-0,179
96,699	99,117	-0,292	-0,237
97,714	286,142	-0,119	-0,151
98,728	19,023	-0,246	-0,138
99,743	-40,320	-0,346	-0,126
100,757	26,690	-0,247	-0,145
101,772	132,709	-0,220	-0,199
102,787	68,504	-0,314	-0,226
103,801	105,263	-0,281	-0,233
104,816	-46,936	-0,349	-0,119
105,830	34,312	-0,258	-0,158
106,845	-15,537	-0,266	-0,119
107,860	-98,348	-0,222	0,040
108,874	59,504	-0,308	-0,213
109,889	295,044	-0,303	-0,390
110,903	78,245	-0,325	-0,243
111,918	126,739	-0,323	-0,287
112,933	-182,700	-0,080	0,001
113,947	4,236	-0,213	-0,109
114,962	213,351	-0,197	-0,218
115,976	-2,236	-0,212	-0,104
116,991	-52,627	-0,401	-0,129
118,006	40,339	-0,302	-0,190
119,020	-31,571	-0,299	-0,117
120,035	-33,304	-0,315	-0,121
121,049	194,696	-0,166	-0,176
122,064	337,230	-0,161	-0,220
123,079	-47,865	-0,215	-0,073
124,093	-42,961	-0,308	-0,109
125,108	168,492	-0,275	-0,274
126,122	-59,995	-0,309	-0,092
127,137	111,150	-0,189	-0,160
128,151	121,277	-0,248	-0,216
129,166	-56,102	-0,284	-0,088
130,181	-2,647	-0,219	-0,107
131,195	32,912	-0,309	-0,187
132,210	-4,337	-0,424	-0,204
133,224	-136,684	-0,158	-0,013
134,239	-4,595	-0,288	-0,139
135,254	72,968	-0,174	-0,127
136,268	120,673	-0,301	-0,261
137,283	115,645	-0,288	-0,247
138,297	59,343	-0,147	-0,101
139,312	77,537	-0,276	-0,205
140,327	151,809	-0,243	-0,232
141,341	49,451	-0,278	-0,183
142,356	43,302	-0,203	-0,130
143,370	34,609	-0,175	-0,107
144,385	59,057	-0,211	-0,145
145,400	-10,133	-0,237	-0,110
146,414	137,147	-0,336	-0,307
147,429	-95,875	-0,258	-0,048
148,443	66,274	-0,260	-0,185
149,458	-34,709	-0,230	-0,088
150,473	311,827	-0,113	-0,149
151,487	23,844	-0,226	-0,130
152,502	800,000	-0,073	-0,149
153,516	29,086	-0,329	-0,194
154,531	-71,968	-0,406	-0,105
155,546	82,222	-0,284	-0,215
156,560	-58,027	-0,293	-0,089
157,575	-64,981	-0,232	-0,065
158,589	-142,376	-0,205	0,014
159,604	-114,389	-0,224	-0,030
160,619	65,316	-0,258	-0,182
161,633	198,199	-0,103	-0,110
162,648	141,254	-0,246	-0,227
163,662	175,243	-0,260	-0,263
164,677	192,597	-0,176	-0,186
165,692	498,457	-0,099	-0,159
166,706	68,895	-0,262	-0,188
167,721	800,000	-0,063	-0,162
168,735	51,311	-0,319	-0,211
169,750	34,623	-0,180	-0,109
170,764	21,023	-0,295	-0,166
171,779	518,016	-0,096	-0,157
172,794	87,003	-0,220	-0,170
173,808	27,045	-0,346	-0,202
174,823	394,804	-0,194	-0,283
175,837	458,098	-0,158	-0,246
176,852	208,213	-0,230	-0,251
177,867	-63,506	-0,211	-0,060
178,881	-8,715	-0,212	-0,099
179,896	-43,369	-0,254	-0,089
180,910	800,000	-0,161	-0,336
181,925	5,501	-0,270	-0,138
182,940	262,889	-0,203	-0,247
183,954	427,322	-0,168	-0,253
184,969	-2,181	-0,123	-0,060
185,983	-90,100	-0,129	-0,026
186,998	34,158	-0,124	-0,075
188,013	151,194	-0,217	-0,206
189,027	102,615	-0,195	-0,159
190,042	585,106	-0,179	-0,307
191,056	105,242	-0,334	-0,275
192,071	266,923	-0,129	-0,158
193,086	284,269	-0,101	-0,126
194,100	-0,543	-0,124	-0,061
195,115	-35,356	-0,132	-0,050
196,129	638,494	-0,103	-0,182
197,144	93,356	-0,255	-0,201
198,159	-200,000	-0,040	-0,145
199,173	287,771	-0,048	-0,060
200,188	-20,227	-0,115	-0,049
201,202	388,485	-0,078	-0,113
202,217	132,032	-0,157	-0,140
203,232	-108,072	-0,264	-0,039
204,246	1,276	-0,150	-0,074
205,261	105,045	-0,235	-0,193
206,275	800,000	-0,066	-0,150
207,290	101,399	-0,113	-0,092
208,304	64,770	-0,277	-0,194
209,319	52,032	-0,321	-0,212
210,334	44,254	-0,106	-0,068
211,348	279,292	-0,223	-0,277
212,363	-190,448	-0,277	-0,002
213,377	39,816	-0,153	-0,095
214,392	503,386	-0,102	-0,164
215,407	154,396	-0,139	-0,133
216,421	69,531	-0,194	-0,139
217,436	347,542	-0,104	-0,143
218,450	406,954	-0,142	-0,210
219,465	613,564	-0,140	-0,245
220,480	287,844	-0,174	-0,219
221,494	-200,000	-0,033	-0,199
222,509	179,884	-0,067	-0,068
223,523	-37,979	-0,252	-0,092
224,538	454,075	-0,164	-0,253
225,553	-125,975	-0,226	0,023
226,567	209,319	-0,127	-0,138
227,582	-67,607	-0,289	-0,078
228,596	800,000	-0,057	-0,114
229,611	323,314	-0,142	-0,188
230,626	800,000	-0,126	-0,283
231,640	142,042	-0,213	-0,196
232,655	-46,996	-0,214	-0,072
233,669	-37,670	-0,141	-0,052
234,684	10,828	-0,201	-0,106
235,699	-146,157	-0,190	0,011
236,713	206,403	-0,163	-0,177
237,728	-200,000	-0,041	-0,140
238,742	126,171	-0,247	-0,216
239,757	209,241	-0,118	-0,128
240,772	-81,907	-0,242	-0,055
241,786	-200,000	-0,073	-0,262
242,801	-118,550	-0,134	-0,016
243,815	146,150	-0,122	-0,113
244,830	339,920	-0,116	-0,157
245,844	380,731	-0,118	-0,168
246,859	593,373	-0,118	-0,202
247,874	69,076	-0,189	-0,135
248,888	-79,842	-0,292	-0,067
249,903	187,984	-0,145	-0,150
250,917	43,905	-0,067	-0,043
251,932	-183,314	-0,265	0,003
252,947	181,229	-0,083	-0,085
253,961	-73,653	-0,292	-0,073
254,976	212,329	-0,216	-0,236
255,990	561,942	-0,147	-0,248
257,005	-64,362	-0,110	-0,031
258,020	22,704	-0,114	-0,064
259,034	-15,708	-0,109	-0,048
260,049	-29,515	-0,217	-0,085
261,063	701,197	-0,126	-0,230
262,078	-0,280	-0,222	-0,109
263,093	-13,611	-0,233	-0,104
264,107	45,411	-0,102	-0,065
265,122	-86,423	-0,229	-0,048
266,136	162,614	-0,081	-0,078
267,151	-42,876	-0,268	-0,094
268,166	386,202	-0,054	-0,078
269,180	-49,268	-0,261	-0,086
270,195	183,844	-0,145	-0,148
271,209	367,640	-0,131	-0,183
272,224	-163,238	-0,229	0,007
273,239	37,365	-0,147	-0,090
274,253	-32,768	-0,163	0,062
275,268	17,198	-0,155	-0,085
276,282	295,642	-0,096	-0,122
277,297	-200,000	-0,146	0,000
278,312	-200,000	-0,033	-0,117
279,326	-10,649	-0,170	-0,078
280,341	-51,649	-0,130	-0,042
281,355	-200,000	0,003	-0,162
282,370	157,084	-0,094	-0,090
283,384	449,488	-0,055	-0,084
284,399	346,943	-0,065	-0,089
285,414	-98,138	-0,175	-0,031
286,428	198,330	-0,128	-0,136
287,443	-107,038	-0,125	-0,019
288,457	20,593	-0,071	0,040
289,472	-62,061	-0,059	0,017
290,487	51,456	-0,200	-0,131
291,501	145,780	-0,144	-0,134
292,516	332,372	-0,144	-0,192
293,530	102,836	-0,158	-0,128
294,545	68,299	-0,141	-0,099
295,560	-55,312	-0,111	-0,034
296,574	-104,513	-0,086	-0,014
297,589	-44,463	-0,133	-0,046
298,603	14,004	-0,164	-0,088
299,618	-119,186	-0,203	-0,024
300,633	92,992	-0,166	-0,129
301,647	92,347	-0,116	-0,090
302,662	27,852	-0,124	-0,072
303,676	-72,518	-0,144	-0,036
304,691	-68,629	-0,345	0,091
305,706	2,950	-0,143	-0,071
306,720	717,526	-0,144	-0,265
307,735	169,901	-0,109	-0,107
308,749	-200,000	-0,115	-0,000
309,764	145,451	-0,127	-0,117
310,779	91,821	-0,187	-0,145
311,793	279,192	-0,081	-0,100
312,808	5,153	-0,242	-0,122
313,822	800,000	-0,064	-0,126
314,837	389,508	-0,121	-0,173
315,852	-200,000	-0,053	-0,160
316,866	-90,675	-0,122	-0,024
317,881	-200,000	-0,002	0,083
318,895	161,008	-0,220	-0,211
319,910	800,000	-0,038	-0,085
320,925	43,631	-0,143	-0,090
321,939	-200,000	-0,060	-0,246
322,954	-63,418	-0,136	0,038
323,968	582,036	-0,054	-0,092
324,983	166,605	-0,099	-0,096
325,997	-71,153	-0,145	-0,037
327,012	-64,874	-0,234	-0,065
328,027	-91,400	-0,227	-0,044
329,041	-91,834	-0,190	-0,037
330,056	230,854	-0,148	-0,167
331,070	535,661	-0,080	-0,131
332,085	-200,000	0,028	-0,099
333,100	-126,336	-0,172	-0,017
334,114	35,909	-0,150	-0,090
335,129	187,069	-0,152	-0,156
336,143	-4,372	-0,239	-0,113
337,158	-85,112	-0,167	0,036
338,173	92,876	-0,111	-0,086
339,187	579,817	-0,028	-0,048
340,202	-111,324	-0,215	0,030
341,216	562,844	-0,075	-0,125
342,231	90,616	-0,162	-0,124
343,246	-200,000	-0,040	-0,122
344,260	-20,339	-0,127	-0,054
345,275	-76,083	-0,079	0,019
346,289	800,000	-0,048	-0,115
347,304	391,689	-0,125	-0,179
348,319	157,441	-0,126	-0,120
349,333	229,907	-0,107	-0,120
350,348	-163,299	-0,068	0,002
351,362	800,000	-0,041	-0,117
352,377	-200,000	-0,038	-0,137
353,392	55,440	-0,111	-0,074
354,406	589,078	-0,110	-0,188
355,421	209,107	1313,660	1413,719
356,435	160,921	1474,265	1414,209
