DTS Sentinel unit serial number:	SN410029Multiplexer serial number:	ORYXHardware model number:	OX2-SRSoftware version number:	ORYX F/W v4,00 Oryx Data Collector v3.7.2.0data status	okinstallation	B3 Nyhavnadifferential loss correction	single-endedforward channel	channel 1reverse channel	N/Adate	2023/12/04time	23:47:30forward acquisition time	300,00reverse acquisition time	0,00gamma	499,1914k internal	0,3200k external	0,3200temperature offset calibration	1,0000default loss term (dB/km)	0,3820temperature slope calibration	1,0000multiplexer offset coefficient	1,0000multiplexer slope coefficient	1,0000fibre end	0,00T internal ref (°C)	14,07T ext. ref 1 (°C)	-1,24T ext. ref 2 (°C)	-1,26length (m)	temperature (°C)	Stokes	anti-Stokes-744,400	677,275	-0,156	-0,296
-743,385	800,000	0,067	0,184
-742,371	40,257	-0,253	-0,165
-741,356	-200,000	-0,026	0,337
-740,342	-30,802	-0,324	-0,133
-739,327	-200,000	0,080	0,285
-738,312	203,238	-0,255	-0,288
-737,298	-200,000	-0,053	0,267
-736,283	135,672	-0,195	-0,185
-735,269	-200,000	-0,008	0,276
-734,254	105,236	-0,199	-0,171
-733,239	-37,573	-0,189	0,073
-732,225	800,000	-0,103	-0,220
-731,210	-200,000	0,019	0,122
-730,196	-200,000	0,024	-0,124
-729,181	593,716	-0,044	-0,080
-728,167	37,157	-0,033	-0,021
-727,152	800,000	-0,054	0,115
-726,137	-200,000	-0,025	-0,097
-725,123	-163,759	-0,065	-0,002
-724,108	-49,587	-0,091	0,031
-723,094	800,000	-0,010	0,024
-722,079	800,000	-0,014	0,044
-721,064	329,418	0,094	0,131
-720,050	800,000	-0,013	0,039
-719,035	336,893	-0,038	-0,053
-718,021	-200,000	-0,003	0,101
-717,006	152,170	-0,175	-0,173
-715,991	800,000	-0,032	-0,076
-714,977	800,000	-0,022	-0,057
-713,962	188,647	0,040	-0,043
-712,948	-52,831	-0,019	0,006
-711,933	-200,000	0,001	0,079
-710,918	800,000	0,018	0,036
-709,904	-69,722	-0,088	0,024
-708,889	-59,258	-0,118	0,037
-707,875	72,160	-0,067	-0,050
-706,860	600,635	0,022	-0,039
-705,845	-76,459	0,138	0,035
-704,831	77,620	0,040	0,031
-703,816	-84,703	-0,046	-0,011
-702,802	800,000	0,015	-0,036
-701,787	90,686	0,069	-0,056
-700,772	-6,789	-0,099	-0,049
-699,758	-200,000	0,003	0,075
-698,743	-200,000	0,003	-0,065
-697,729	15,781	-0,020	-0,012
-696,714	6,593	0,058	-0,031
-695,699	-200,000	0,013	-0,082
-694,685	27,999	-0,047	-0,029
-693,670	623,889	-0,038	-0,070
-692,656	279,733	0,065	0,085
-691,641	-200,000	-0,010	-0,077
-690,627	4,847	0,076	-0,040
-689,612	-200,000	0,009	0,068
-688,597	112,917	-0,089	0,078
-687,583	-200,000	0,041	-0,191
-686,568	-200,000	0,010	0,073
-685,554	-179,934	-0,089	-0,001
-684,539	93,370	-0,043	0,035
-683,524	-200,000	0,019	0,111
-682,510	-146,333	0,162	0,010
-681,495	-195,219	-0,011	0,000
-680,481	800,000	0,046	-0,138
-679,466	99,194	0,074	-0,062
-678,451	800,000	-0,027	0,074
-677,437	-200,000	-0,013	-0,067
-676,422	482,653	-0,059	0,097
-675,408	295,955	-0,082	0,110
-674,393	-109,446	-0,098	0,015
-673,378	23,621	-0,084	-0,050
-672,364	12,587	0,052	-0,029
-671,349	-200,000	0,002	-0,111
-670,335	-56,898	0,101	-0,032
-669,320	551,542	0,006	0,010
-668,305	-200,000	-0,027	-0,113
-667,291	135,190	-0,045	0,042
-666,276	61,195	-0,056	-0,040
-665,262	3,360	-0,218	-0,115
-664,247	-166,670	-0,067	-0,002
-663,232	-200,000	0,010	0,092
-662,218	800,000	0,034	-0,075
-661,203	-200,000	-0,019	0,127
-660,189	53,776	0,006	-0,004
-659,174	137,691	0,018	0,018
-658,159	-40,878	-0,050	0,019
-657,145	-200,000	-0,043	0,167
-656,130	194,434	0,072	-0,079
-655,116	800,000	0,017	-0,051
-654,101	331,099	-0,061	0,086
-653,086	332,577	0,046	-0,064
-652,072	560,176	-0,079	-0,138
-651,057	-162,069	-0,065	-0,002
-650,043	-85,570	-0,092	-0,021
-649,028	-1,069	-0,069	0,035
-648,014	-107,898	-0,083	0,013
-646,999	-200,000	-0,012	0,081
-645,984	-58,443	0,014	0,004
-644,970	214,423	-0,055	0,063
-643,955	-12,260	-0,049	0,023
-642,941	302,571	-0,057	-0,077
-641,926	-200,000	0,041	-0,151
-640,911	328,762	0,063	-0,088
-639,897	-88,445	0,097	0,021
-638,882	576,914	0,053	-0,095
-637,868	293,986	-0,064	-0,085
-636,853	492,693	-0,085	-0,141
-635,838	285,208	0,082	-0,107
-634,824	800,000	0,044	-0,099
-633,809	268,929	0,076	0,097
-632,795	229,109	0,076	0,090
-631,780	-58,467	-0,147	0,046
-630,765	-95,255	0,067	0,013
-629,751	219,926	-0,066	-0,077
-628,736	-200,000	-0,005	-0,072
-627,722	-86,588	-0,089	0,020
-626,707	83,116	0,151	-0,119
-625,692	81,679	0,042	0,033
-624,678	129,766	-0,024	-0,022
-623,663	157,956	0,035	0,035
-622,649	75,139	-0,069	-0,053
-621,634	338,491	0,045	-0,064
-620,619	124,483	-0,110	0,100
-619,605	800,000	-0,035	-0,082
-618,590	-41,156	0,122	-0,046
-617,576	363,978	-0,014	-0,021
-616,561	-200,000	-0,005	0,071
-615,546	800,000	-0,030	-0,077
-614,532	800,000	-0,039	-0,125
-613,517	-128,934	-0,082	0,008
-612,503	747,570	-0,025	-0,050
-611,488	439,430	-0,041	0,064
-610,474	-121,618	0,171	-0,020
-609,459	157,773	0,027	-0,027
-608,444	-104,627	-0,197	-0,033
-607,430	44,360	-0,103	-0,068
-606,415	-72,840	-0,096	-0,025
-605,401	582,501	0,078	-0,140
-604,386	445,295	-0,010	0,016
-603,371	225,695	0,060	0,071
-602,357	800,000	0,011	0,034
-601,342	800,000	0,015	0,036
-600,328	800,000	0,040	-0,091
-599,313	-69,643	-0,083	0,023
-598,298	800,000	-0,075	-0,177
-597,284	212,329	0,038	0,044
-596,269	-200,000	0,027	0,148
-595,255	-20,175	0,086	-0,038
-594,240	-200,000	0,007	0,076
-593,225	31,292	-0,067	-0,042
-592,211	-176,810	-0,220	-0,004
-591,196	702,593	0,054	-0,103
-590,182	2,599	-0,084	0,044
-589,167	48,116	0,025	-0,017
-588,152	-200,000	-0,006	0,057
-587,138	-200,000	0,003	-0,024
-586,123	-120,869	-0,124	-0,015
-585,109	354,840	-0,011	-0,015
-584,094	106,172	0,089	-0,076
-583,079	800,000	0,023	0,054
-582,065	60,982	0,045	-0,032
-581,050	-127,221	0,071	0,007
-580,036	309,052	0,086	-0,116
-579,021	-124,890	-0,112	0,012
-578,006	41,271	-0,092	0,060
-576,992	584,414	-0,065	0,116
-575,977	761,533	-0,034	-0,067
-574,963	-200,000	-0,010	0,056
-573,948	-200,000	0,004	0,052
-572,934	-9,127	-0,154	0,074
-571,919	-172,467	-0,180	0,004
-570,904	-200,000	0,008	-0,105
-569,890	-64,010	0,097	-0,029
-568,875	-200,000	0,026	0,165
-567,861	-146,514	0,123	-0,008
-566,846	-19,167	0,094	-0,042
-565,831	-200,000	-0,062	-0,213
-564,817	223,411	-0,105	-0,123
-563,802	63,930	-0,048	-0,035
-562,788	-200,000	0,018	0,070
-561,773	45,944	-0,093	-0,062
-560,758	220,722	-0,026	0,031
-559,744	-55,515	0,086	0,028
-558,729	117,839	-0,046	-0,041
-557,715	-9,467	-0,027	-0,013
-556,700	150,997	0,045	-0,045
-555,685	-32,062	-0,047	-0,019
-554,671	67,863	-0,076	0,056
-553,656	239,654	0,026	-0,031
-552,642	-200,000	0,020	0,073
-551,627	67,229	-0,122	0,090
-550,612	-147,281	-0,051	0,003
-549,598	549,953	-0,071	-0,124
-548,583	-119,973	-0,043	-0,005
-547,569	-89,125	0,083	-0,018
-546,554	800,000	0,034	0,080
-545,539	-8,532	0,068	0,033
-544,525	103,652	0,123	0,104
-543,510	-123,064	0,137	0,016
-542,496	39,080	-0,078	-0,050
-541,481	-171,024	-0,056	0,001
-540,466	255,390	-0,049	-0,061
-539,452	-200,000	0,005	-0,047
-538,437	-200,000	-0,005	0,126
-537,423	-89,665	-0,090	-0,019
-536,408	40,942	-0,089	-0,058
-535,393	-44,345	-0,043	-0,016
-534,379	360,767	-0,057	0,083
-533,364	296,345	-0,052	0,069
-532,350	-188,357	0,137	-0,001
-531,335	95,241	0,033	0,027
-530,321	333,528	-0,082	-0,114
-529,306	-82,211	0,007	0,002
-528,291	111,072	-0,121	-0,105
-527,277	519,390	-0,046	-0,079
-526,262	431,201	0,052	-0,081
-525,248	754,549	-0,055	-0,107
-524,233	-200,000	0,003	-0,040
-523,218	-200,000	-0,016	-0,061
-522,204	-200,000	0,007	-0,066
-521,189	-176,697	-0,171	-0,003
-520,175	800,000	-0,006	-0,018
-519,160	800,000	0,040	0,111
-518,145	-2,272	-0,048	-0,024
-517,131	800,000	-0,004	0,013
-516,116	800,000	0,040	0,100
-515,102	-200,000	0,010	-0,189
-514,087	-200,000	-0,016	-0,053
-513,072	208,839	0,059	-0,066
-512,058	12,948	-0,064	-0,036
-511,043	-200,000	-0,013	-0,080
-510,029	-117,075	0,112	-0,015
-509,014	-124,396	0,030	-0,003
-507,999	118,254	0,014	0,013
-506,985	144,687	-0,070	0,067
-505,970	45,231	-0,079	0,052
-504,956	800,000	0,045	-0,118
-503,941	130,550	-0,038	0,035
-502,926	231,072	0,029	0,035
-501,912	-37,885	0,130	0,050
-500,897	-200,000	-0,017	0,057
-499,883	-85,193	-0,072	-0,016
-498,868	-10,080	-0,078	0,037
-497,853	130,222	0,063	-0,058
-496,839	-200,000	-0,001	0,011
-495,824	-200,000	-0,018	0,065
-494,810	-58,379	0,088	0,027
-493,795	-200,000	-0,010	0,106
-492,781	800,000	-0,027	-0,069
-491,766	-200,000	-0,003	-0,118
-490,751	800,000	0,024	-0,054
-489,737	44,828	-0,080	0,053
-488,722	-22,782	0,156	-0,067
-487,708	-164,153	-0,155	0,005
-486,693	642,600	-0,030	-0,055
-485,678	416,194	-0,059	0,092
-484,664	751,596	-0,022	0,043
-483,649	800,000	0,024	-0,051
-482,635	219,957	-0,060	-0,070
-481,620	-5,354	0,115	-0,057
-480,605	800,000	0,033	0,083
-479,591	-200,000	0,001	0,083
-478,576	-188,279	0,067	-0,001
-477,562	263,571	-0,090	0,113
-476,547	-200,000	0,011	-0,079
-475,532	-43,382	0,068	-0,025
-474,518	99,076	0,065	-0,054
-473,503	-56,709	-0,061	0,019
-472,489	-29,725	0,111	-0,045
-471,474	800,000	-0,030	-0,074
-470,459	15,410	0,139	0,079
-469,445	-90,740	-0,104	-0,021
-468,430	-9,692	0,063	-0,030
-467,416	-200,000	0,026	0,189
-466,401	-200,000	-0,000	0,010
-465,386	-157,460	0,071	0,003
-464,372	-200,000	0,037	0,122
-463,357	800,000	0,026	-0,078
-462,343	256,715	-0,051	-0,063
-461,328	800,000	-0,007	-0,015
-460,313	-104,160	0,186	-0,031
-459,299	-200,000	0,004	0,089
-458,284	800,000	0,043	0,086
-457,270	-74,728	0,092	0,024
-456,255	-117,650	0,142	-0,018
-455,241	800,000	-0,050	-0,100
-454,226	620,527	-0,049	-0,088
-453,211	-185,495	-0,140	0,001
-452,197	-200,000	0,016	0,124
-451,182	-200,000	0,019	-0,080
-450,168	800,000	-0,028	-0,075
-449,153	-145,272	-0,029	-0,002
-448,138	-200,000	-0,016	-0,111
-447,124	-200,000	-0,060	-0,200
-446,109	42,991	-0,101	0,066
-445,095	319,138	-0,062	0,085
-444,080	-200,000	0,028	0,145
-443,065	-200,000	-0,011	0,038
-442,051	366,943	0,050	0,073
-441,036	48,135	0,060	0,040
-440,022	800,000	0,048	-0,148
-439,007	-200,000	-0,003	-0,025
-437,992	13,132	0,072	0,040
-436,978	-30,486	0,058	-0,023
-435,963	529,594	-0,059	0,100
-434,949	-148,629	0,094	-0,005
-433,934	-22,464	-0,087	0,038
-432,919	-200,000	-0,019	-0,101
-431,905	-182,338	0,054	0,001
-430,890	-200,000	0,028	0,108
-429,876	-200,000	0,023	0,105
-428,861	36,839	0,073	-0,046
-427,846	-126,914	-0,091	-0,009
-426,832	155,735	-0,075	-0,074
-425,817	-16,148	-0,138	0,063
-424,803	271,936	0,046	0,058
-423,788	95,751	0,046	-0,038
-422,773	7,670	0,060	-0,032
-421,759	393,382	-0,020	0,030
-420,744	71,291	-0,040	-0,030
-419,730	800,000	0,099	0,198
-418,715	800,000	-0,029	-0,076
-417,701	-72,040	-0,114	-0,030
-416,686	73,267	-0,120	-0,090
-415,671	19,222	0,049	-0,028
-414,657	800,000	0,039	0,079
-413,642	-35,481	-0,121	-0,047
-412,628	800,000	0,036	-0,082
-411,613	-54,804	-0,149	0,048
-410,598	-4,345	0,052	0,026
-409,584	225,720	0,043	0,050
-408,569	519,802	-0,050	0,084
-407,555	800,000	-0,011	-0,027
-406,540	142,663	-0,075	0,072
-405,525	-114,329	0,031	-0,004
-404,511	-49,466	-0,114	-0,039
-403,496	-155,030	-0,074	-0,003
-402,482	-200,000	-0,002	0,015
-401,467	-158,438	0,163	0,007
-400,452	-138,495	-0,120	0,009
-399,438	-4,151	-0,096	0,048
-398,423	-183,835	-0,011	-0,000
-397,409	167,280	0,072	0,073
-396,394	-200,000	0,018	-0,116
-395,379	395,200	0,030	0,046
-394,365	82,670	-0,114	0,089
-393,350	800,000	0,041	0,124
-392,336	42,660	0,153	0,100
-391,321	-60,506	0,016	-0,005
-390,306	-200,000	-0,005	-0,025
-389,292	800,000	0,017	0,037
-388,277	1,822	-0,092	-0,048
-387,263	274,206	-0,056	-0,072
-386,248	22,564	0,117	0,069
-385,233	542,677	-0,058	0,100
-384,219	287,995	0,052	0,067
-383,204	-200,000	-0,011	0,052
-382,190	476,420	0,089	-0,145
-381,175	16,361	-0,106	-0,060
-380,160	-200,000	-0,001	-0,034
-379,146	800,000	0,051	0,147
-378,131	-200,000	-0,023	0,138
-377,117	-166,249	0,078	0,002
-376,102	-200,000	-0,001	-0,070
-375,088	89,006	-0,073	-0,059
-374,073	776,400	0,035	-0,070
-373,058	-32,669	0,072	-0,029
-372,044	57,379	0,062	-0,043
-371,029	-184,981	0,162	0,002
-370,015	-200,000	-0,031	0,110
-369,000	-200,000	0,007	-0,100
-367,985	35,619	-0,033	-0,021
-366,971	177,405	-0,059	-0,061
-365,956	151,234	0,112	0,109
-364,942	-22,713	0,169	0,073
-363,927	-200,000	0,039	0,132
-362,912	-200,000	0,001	-0,024
-361,898	-54,717	0,072	-0,023
-360,883	144,966	-0,067	0,064
-359,869	37,971	-0,094	-0,060
-358,854	26,464	-0,028	0,017
-357,839	-59,714	0,178	0,054
-356,825	-12,561	0,021	-0,010
-355,810	88,302	0,046	-0,037
-354,796	-200,000	-0,016	-0,069
-353,781	-30,431	-0,018	0,007
-352,766	-98,048	-0,127	0,023
-351,752	-3,007	-0,107	0,053
-350,737	238,484	0,079	0,094
-349,723	214,584	0,036	0,041
-348,708	118,533	-0,037	-0,033
-347,693	-200,000	-0,040	-0,131
-346,679	-117,578	-0,069	-0,009
-345,664	162,853	0,080	-0,080
-344,650	-12,570	0,108	-0,050
-343,635	-160,741	-0,134	-0,005
-342,620	-137,621	-0,022	-0,002
-341,606	161,342	-0,008	0,008
-340,591	-121,133	-0,057	0,007
-339,577	87,170	0,077	-0,061
-338,562	-200,000	0,003	0,055
-337,548	279,918	-0,052	0,067
-336,533	242,279	0,013	0,015
-335,518	-200,000	0,028	0,175
-334,504	-132,459	-0,129	-0,012
-333,489	24,307	0,031	0,018
-332,475	-200,000	-0,012	0,082
-331,460	-200,000	-0,010	-0,040
-330,445	153,968	0,064	-0,063
-329,431	197,461	0,119	0,130
-328,416	738,706	0,012	0,023
-327,402	556,655	0,058	0,101
-326,387	690,943	0,037	0,071
-325,372	484,688	-0,056	-0,092
-324,358	-114,425	-0,094	-0,013
-323,343	-200,000	0,020	-0,103
-322,329	-129,088	-0,114	-0,011
-321,314	800,000	-0,045	0,118
-320,299	83,996	0,025	-0,020
-319,285	-87,410	0,077	0,017
-318,270	-146,169	0,006	-0,000
-317,256	-200,000	-0,009	-0,051
-316,241	534,951	0,043	-0,073
-315,226	-200,000	-0,000	-0,066
-314,212	244,938	-0,084	0,102
-313,197	-98,494	0,175	-0,032
-312,183	-200,000	-0,001	-0,035
-311,168	-200,000	0,001	-0,122
-310,153	151,883	-0,043	0,042
-309,139	26,266	-0,090	-0,053
-308,124	-9,440	0,133	-0,063
-307,110	292,555	0,016	0,021
-306,095	342,861	0,132	0,185
-305,080	-200,000	0,037	0,146
-304,066	349,385	0,048	0,069
-303,051	800,000	0,054	-0,171
-302,037	84,449	-0,067	-0,052
-301,022	800,000	0,033	0,073
-300,008	158,912	0,124	0,123
-298,993	800,000	-0,079	0,190
-297,978	-27,074	-0,136	-0,057
-296,964	21,749	-0,124	-0,072
-295,949	-112,327	0,130	-0,018
-294,935	-88,887	-0,117	-0,025
-293,920	800,000	-0,018	0,048
-292,905	-65,573	0,066	-0,019
-291,891	-200,000	-0,010	0,061
-290,876	-138,245	0,079	-0,006
-289,862	-12,888	0,073	-0,034
-288,847	-196,820	-0,090	0,000
-287,832	27,157	-0,067	-0,040
-286,818	800,000	0,020	-0,044
-285,803	158,199	0,087	0,086
-284,789	161,481	0,090	0,090
-283,774	-81,198	-0,122	0,028
-282,759	-200,000	0,008	-0,188
-281,745	324,239	-0,121	-0,166
-280,730	168,439	0,092	-0,094
-279,716	738,930	0,021	-0,041
-278,701	800,000	0,012	0,035
-277,686	800,000	0,019	-0,041
-276,672	85,097	0,070	-0,055
-275,657	-200,000	0,002	0,029
-274,643	-3,897	-0,073	-0,036
-273,628	-200,000	0,004	0,087
-272,613	-17,321	-0,002	0,001
-271,599	-98,777	-0,010	0,002
-270,584	346,347	0,055	0,078
-269,570	-200,000	0,022	0,096
-268,555	-200,000	-0,007	-0,049
-267,540	190,494	-0,095	0,102
-266,526	-200,000	-0,023	-0,112
-265,511	254,385	0,069	-0,085
-264,497	800,000	0,048	-0,104
-263,482	800,000	0,009	0,021
-262,467	-66,810	0,060	0,017
-261,453	-178,336	0,103	0,002
-260,438	-129,459	-0,167	0,016
-259,424	92,818	-0,029	-0,023
-258,409	-3,499	-0,078	-0,038
-257,395	-200,000	0,015	-0,113
-256,380	-68,672	0,049	-0,014
-255,365	-112,192	0,133	-0,019
-254,351	134,850	0,070	-0,065
-253,336	-200,000	-0,006	0,051
-252,322	17,841	-0,120	0,068
-251,307	80,339	-0,077	-0,059
-250,292	-200,000	0,039	0,152
-249,278	77,774	0,150	0,114
-248,263	-32,732	-0,132	0,052
-247,249	800,000	-0,052	0,112
-246,234	-41,107	0,044	-0,016
-245,219	-123,233	-0,088	0,010
-244,205	800,000	-0,024	-0,070
-243,190	-48,467	-0,012	-0,004
-242,176	444,452	0,021	0,033
-241,161	445,324	0,052	0,082
-240,146	-32,245	0,075	0,030
-239,132	136,332	-0,043	0,040
-238,117	-140,157	0,109	-0,008
-237,103	-200,000	0,007	-0,054
-236,088	17,251	-0,100	-0,057
-235,073	-145,809	0,148	0,009
-234,059	111,193	-0,072	-0,062
-233,044	278,848	0,048	-0,061
-232,030	-200,000	0,024	0,098
-231,015	176,815	0,016	-0,016
-230,000	-157,316	-0,066	0,003
-228,986	32,705	-0,013	0,008
-227,971	14,453	0,160	-0,089
-226,957	228,198	0,047	0,055
-225,942	431,993	-0,041	-0,063
-224,927	71,150	-0,117	-0,086
-223,913	-48,181	-0,081	-0,028
-222,898	-175,103	-0,070	0,001
-221,884	800,000	-0,030	-0,063
-220,869	-200,000	-0,004	-0,077
-219,855	-164,631	0,177	0,006
-218,840	244,425	0,098	0,117
-217,825	-56,593	-0,093	-0,029
-216,811	121,454	0,109	0,096
-215,796	701,516	0,074	0,140
-214,782	36,402	-0,110	0,069
-213,767	-200,000	-0,006	-0,071
-212,752	-115,316	0,133	-0,018
-211,738	630,596	0,073	0,131
-210,723	-200,000	0,023	-0,114
-209,709	800,000	-0,016	-0,038
-208,694	800,000	0,027	-0,065
-207,679	448,892	-0,013	0,021
-206,665	204,102	0,029	-0,032
-205,650	-200,000	0,002	0,097
-204,636	4,908	0,099	0,052
-203,621	-125,784	0,140	0,015
-202,606	247,608	0,063	0,076
-201,592	465,112	0,035	0,056
-200,577	342,958	-0,051	-0,071
-199,563	333,693	0,083	-0,115
-198,548	441,839	0,043	-0,067
-197,533	560,395	-0,075	0,130
-196,519	-186,086	-0,091	-0,001
-195,504	76,370	0,079	0,060
-194,490	-10,618	-0,149	0,070
-193,475	-200,000	-0,035	-0,115
-192,460	-200,000	-0,014	-0,073
-191,446	599,932	-0,007	0,013
-190,431	-200,000	-0,002	0,086
-189,417	-137,694	0,179	0,014
-188,402	-81,928	0,062	-0,014
-187,387	-111,208	-0,160	-0,023
-186,373	-200,000	-0,042	-0,135
-185,358	-92,305	0,120	-0,024
-184,344	-106,855	-0,050	0,008
-183,329	-140,907	0,132	-0,010
-182,315	800,000	0,042	0,084
-181,300	62,286	0,037	-0,026
-180,285	800,000	-0,060	-0,123
-179,271	-114,325	-0,053	0,007
-178,256	177,004	-0,125	0,130
-177,242	53,479	-0,163	0,111
-176,227	-122,436	0,106	-0,012
-175,212	36,260	0,116	0,073
-174,198	171,761	-0,036	-0,036
-173,183	-20,949	0,142	-0,062
-172,169	350,339	-0,002	-0,002
-171,154	-97,061	-0,031	0,006
-170,139	800,000	0,027	0,064
-169,125	-200,000	0,028	0,145
-168,110	-46,491	0,157	0,054
-167,096	-200,000	0,000	-0,012
-166,081	-200,000	0,007	0,085
-165,066	74,836	-0,103	-0,077
-164,052	-200,000	-0,006	0,115
-163,037	-200,000	0,025	0,096
-162,023	-200,000	-0,007	0,026
-161,008	-200,000	-0,004	0,014
-159,993	-200,000	-0,005	-0,025
-158,979	534,467	-0,033	0,055
-157,964	-170,202	-0,200	0,005
-156,950	800,000	-0,020	0,050
-155,935	722,806	-0,056	0,106
-154,920	-200,000	0,029	0,113
-153,906	516,839	0,062	-0,104
-152,891	-133,082	-0,024	0,002
-151,877	-200,000	-0,011	0,094
-150,862	-141,308	-0,110	0,008
-149,847	409,346	0,063	-0,094
-148,833	800,000	0,028	0,061
-147,818	268,250	-0,058	0,073
-146,804	800,000	-0,030	0,086
-145,789	800,000	0,053	-0,110
-144,775	-49,935	-0,037	-0,012
-143,760	-98,286	0,102	-0,018
-142,745	-32,124	-0,097	0,038
-141,731	800,000	-0,020	-0,058
-140,716	-17,278	-0,021	0,009
-139,702	-104,379	-0,057	-0,009
-138,687	-180,575	-0,218	0,003
-137,672	-34,728	0,072	0,028
-136,658	-200,000	-0,000	0,002
-135,643	447,750	-0,064	-0,100
-134,629	-200,000	0,024	-0,086
-133,614	72,206	0,159	0,118
-132,599	-79,039	0,139	0,033
-131,585	136,458	-0,017	0,016
-130,570	-1,631	0,044	-0,022
-129,556	-200,000	-0,006	-0,093
-128,541	-200,000	0,002	-0,133
-127,526	417,234	0,072	-0,110
-126,512	-200,000	0,002	-0,033
-125,497	189,431	0,096	-0,102
-124,483	-200,000	-0,019	-0,076
-123,468	-22,886	-0,083	0,035
-122,453	203,113	0,015	0,016
-121,439	245,230	-0,076	-0,091
-120,424	-26,612	0,021	-0,009
-119,410	24,765	-0,067	0,039
-118,395	258,852	-0,092	0,113
-117,380	222,784	0,068	0,078
-116,366	35,927	-0,127	-0,079
-115,351	800,000	0,033	-0,074
-114,337	800,000	0,023	-0,072
-113,322	234,048	-0,060	-0,070
-112,307	129,490	0,015	0,013
-111,293	-24,120	0,048	0,020
-110,278	522,484	0,062	0,105
-109,264	38,747	0,086	0,054
-108,249	-88,717	-0,057	0,012
-107,234	76,251	-0,108	-0,081
-106,220	99,111	0,143	-0,117
-105,205	96,816	-0,175	0,142
-104,191	82,579	-0,031	0,024
-103,176	800,000	0,056	-0,116
-102,162	800,000	0,037	0,088
-101,147	800,000	0,038	0,081
-100,132	689,566	0,042	-0,078
-99,118	-200,000	0,013	0,093
-98,103	93,501	0,107	0,086
-97,089	800,000	-0,028	0,068
-96,074	-200,000	0,002	0,013
-95,059	156,505	0,062	-0,061
-94,045	25,288	-0,088	-0,052
-93,030	-182,930	0,083	-0,001
-92,016	16,141	-0,058	0,032
-91,001	-200,000	-0,026	0,081
-89,986	800,000	0,061	0,143
-88,972	392,521	0,065	-0,096
-87,957	-83,518	-0,155	-0,035
-86,943	70,429	-0,032	0,023
-85,928	14,095	-0,072	-0,040
-84,913	44,012	0,063	-0,041
-83,899	800,000	-0,051	0,111
-82,884	-200,000	-0,007	0,033
-81,870	-200,000	0,020	0,105
-80,855	154,623	-0,099	0,097
-79,840	800,000	0,010	0,023
-78,826	-160,044	-0,112	0,004
-77,811	800,000	-0,036	-0,103
-76,797	800,000	0,042	0,133
-75,782	-60,012	0,038	-0,012
-74,767	-57,512	0,088	-0,027
-73,753	119,903	0,004	-0,003
-72,738	245,028	-0,067	-0,079
-71,724	428,206	0,045	0,069
-70,709	-47,255	-0,064	-0,022
-69,694	-23,429	-0,034	-0,014
-68,680	89,193	0,157	-0,124
-67,665	800,000	-0,055	-0,112
-66,651	-150,776	-0,129	0,007
-65,636	443,534	0,077	0,119
-64,622	182,480	-0,105	-0,110
-63,607	-74,898	0,109	0,027
-62,592	800,000	0,040	-0,100
-61,578	298,106	0,067	0,087
-60,563	-36,415	0,127	-0,048
-59,549	800,000	0,040	0,115
-58,534	-34,391	-1,535	-0,593
-57,519	340,134	-1,365	-1,892
-56,505	-200,000	-0,557	-4,647
-55,490	161,417	1,025	1,016
-54,476	800,000	4,995	11,486
-53,461	-200,000	18,933	308,612
-52,446	800,000	737,718	2304,771
-51,432	569,993	1654,294	2861,164
-50,417	79,072	1671,472	1266,575
-49,403	22,008	1544,206	889,652
-48,388	15,962	1466,752	815,635
-47,373	17,903	1456,838	819,470
-46,359	16,921	1447,314	809,367
-45,344	14,212	1442,581	793,707
-44,330	14,088	1440,813	792,109
-43,315	14,108	1438,876	791,107
-42,300	14,113	1437,283	790,225
-41,286	14,167	1436,095	789,797
-40,271	14,115	1434,848	788,832
-39,257	14,129	1433,467	788,109
-38,242	14,185	1432,158	787,627
-37,227	14,185	1430,924	786,914
-36,213	14,184	1429,814	786,270
-35,198	14,200	1428,494	785,586
-34,184	14,253	1427,619	785,328
-33,169	14,127	1426,269	783,953
-32,154	14,212	1425,256	783,772
-31,140	14,201	1423,911	782,947
-30,125	14,160	1422,922	782,178
-29,111	14,186	1421,715	781,608
-28,096	14,141	1420,547	780,723
-27,082	14,121	1419,489	780,016
-26,067	14,101	1418,365	779,270
-25,052	14,130	1417,300	778,790
-24,038	14,030	1416,777	778,001
-23,023	14,117	1415,341	777,592
-22,009	14,067	1414,487	776,859
-20,994	14,049	1413,575	776,241
-19,979	14,036	1412,776	775,712
-18,965	14,020	1411,800	775,069
-17,950	14,009	1410,696	774,381
-16,936	14,049	1409,788	774,036
-15,921	14,011	1408,511	773,128
-14,906	13,995	1407,807	772,635
-13,892	13,999	1406,968	772,166
-12,877	14,002	1405,881	771,550
-11,863	14,007	1404,995	771,060
-10,848	13,966	1404,286	770,449
-9,833	13,911	1403,419	769,682
-8,819	13,910	1402,495	769,140
-7,804	13,898	1401,413	768,463
-6,790	13,901	1400,471	767,931
-5,775	13,871	1399,577	767,268
-4,760	13,879	1398,467	766,666
-3,746	13,889	1397,668	766,247
-2,731	13,915	1396,941	765,936
-1,717	13,898	1395,866	765,240
-0,702	13,916	1393,975	764,253
0,313	17,652	1311,942	736,643
1,327	34,026	705,962	434,333
2,342	52,003	124,149	83,554
3,356	2,486	16,680	8,519
4,371	-6,180	3,238	1,559
5,386	-47,559	0,605	0,207
6,400	800,000	-0,063	0,173
7,415	-49,559	-0,323	-0,108
8,429	-83,187	-0,379	-0,085
9,444	145,271	-0,275	-0,260
10,459	196,157	-0,207	-0,223
11,473	98,060	-0,354	-0,288
12,488	115,065	-0,284	-0,245
13,502	67,134	-0,276	-0,198
14,517	61,062	-0,408	-0,286
15,531	31,618	-0,452	-0,274
16,546	104,157	-0,309	-0,257
17,561	93,600	-0,292	-0,234
18,575	-82,398	-0,259	-0,059
19,590	142,650	-0,226	-0,212
20,604	-125,213	-0,240	0,026
21,619	21,114	-0,498	-0,285
22,634	38,432	-0,338	-0,213
23,648	183,331	-0,414	-0,433
24,663	-11,032	-0,479	-0,223
25,677	81,943	-0,379	-0,290
26,692	321,856	-0,273	-0,368
27,707	165,674	-0,368	-0,367
28,721	84,691	-0,486	-0,375
29,736	81,156	-0,508	-0,387
30,750	62,030	-0,391	-0,275
31,765	76,974	-0,403	-0,302
32,780	-7,838	-0,329	-0,156
33,794	47,594	-0,347	-0,228
34,809	101,484	-0,341	-0,281
35,823	127,023	-0,352	-0,315
36,838	7,469	-0,424	-0,223
37,853	1,996	-0,322	-0,164
38,867	34,732	-0,380	-0,234
39,882	9,099	-0,468	-0,248
40,896	351,472	-0,185	-0,259
41,911	243,047	-0,343	-0,406
42,926	36,569	-0,376	-0,234
43,940	386,016	-0,282	-0,412
44,955	120,924	-0,393	-0,345
45,969	111,433	-0,366	-0,311
46,984	61,577	-0,351	-0,246
47,999	-30,835	-0,373	-0,148
49,013	27,446	-0,327	-0,194
50,028	96,677	-0,258	-0,208
51,042	216,436	-0,185	-0,208
52,057	44,439	-0,371	-0,240
53,071	20,168	-0,368	-0,209
54,086	116,296	-0,353	-0,305
55,101	56,970	-0,372	-0,255
56,115	-9,433	-0,335	-0,157
57,130	98,278	-0,336	-0,272
58,144	126,668	-0,273	-0,244
59,159	2,400	-0,410	-0,208
60,174	64,944	-0,333	-0,236
61,188	395,154	-0,212	-0,312
62,203	14,120	-0,418	-0,229
63,217	95,641	-0,397	-0,319
64,232	-33,339	-0,500	-0,194
65,247	-8,281	-0,328	-0,155
66,261	37,746	-0,316	-0,197
67,276	144,767	-0,358	-0,336
68,290	56,695	-0,347	-0,237
69,305	8,401	-0,360	-0,190
70,320	195,957	-0,239	-0,256
71,334	403,979	-0,137	-0,204
72,349	14,209	-0,269	-0,147
73,363	-133,452	-0,404	-0,035
74,378	374,954	-0,229	-0,329
75,393	4,864	-0,410	-0,211
76,407	386,609	-0,165	-0,241
77,422	-104,822	-0,232	-0,037
78,436	12,116	-0,285	-0,153
79,451	93,422	-0,309	-0,246
80,466	-15,879	-0,319	-0,142
81,480	-22,270	-0,268	-0,114
82,495	800,000	-0,135	-0,322
83,509	81,025	-0,202	-0,153
84,524	161,299	-0,186	-0,183
85,539	-42,126	-0,314	-0,112
86,553	-19,895	-0,281	-0,121
87,568	22,390	-0,317	-0,181
88,582	127,159	-0,323	-0,288
89,597	-32,168	-0,405	-0,158
90,611	12,614	-0,356	-0,193
91,626	-124,956	-0,356	-0,038
92,641	65,522	-0,264	-0,188
93,655	104,996	-0,310	-0,257
94,670	55,568	-0,302	-0,205
95,684	56,065	-0,264	-0,180
96,699	-35,377	-0,482	-0,183
97,714	157,917	-0,226	-0,220
98,728	-70,625	-0,336	0,088
99,743	120,640	-0,236	-0,206
100,757	147,206	-0,325	-0,307
101,772	18,217	-0,369	-0,206
102,787	4,438	-0,311	-0,159
103,801	365,000	-0,164	-0,232
104,816	45,215	-0,154	-0,099
105,830	37,901	-0,244	-0,152
106,845	95,908	-0,205	-0,164
107,860	57,605	-0,377	-0,258
108,874	76,835	-0,283	-0,211
109,889	-68,528	-0,279	-0,075
110,903	91,112	-0,272	-0,214
111,918	-20,012	-0,268	-0,116
112,933	-143,052	-0,282	-0,019
113,947	155,335	-0,166	-0,160
114,962	-14,074	-0,208	-0,094
115,976	38,303	-0,310	-0,193
116,991	22,036	-0,328	-0,187
118,006	103,969	-0,213	-0,175
119,020	23,559	-0,267	-0,153
120,035	145,114	-0,161	-0,151
121,049	-95,511	-0,262	-0,049
122,064	85,521	-0,206	-0,158
123,079	59,667	-0,179	-0,123
124,093	-58,468	-0,253	-0,076
125,108	678,157	-0,149	-0,272
126,122	199,425	-0,180	-0,194
127,137	419,171	-0,131	-0,196
128,151	50,999	-0,310	-0,206
129,166	-134,539	-0,267	-0,022
130,181	-15,926	-0,295	-0,131
131,195	-13,589	-0,358	-0,162
132,210	126,324	-0,208	-0,184
133,224	27,296	-0,361	-0,212
134,239	289,093	-0,196	-0,250
135,254	161,427	-0,226	-0,221
136,268	62,535	-0,221	-0,154
137,283	-118,880	-0,295	-0,036
138,297	345,223	-0,224	-0,308
139,312	-5,645	-0,200	-0,096
140,327	584,097	-0,204	-0,352
141,341	272,559	-0,220	-0,273
142,356	-62,502	-0,332	-0,096
143,370	800,000	-0,123	-0,256
144,385	-131,388	-0,264	-0,024
145,400	129,953	-0,356	-0,318
146,414	197,026	-0,212	-0,226
147,429	98,398	-0,297	-0,239
148,443	19,270	-0,265	-0,148
149,458	-76,676	-0,220	-0,053
150,473	20,929	-0,213	-0,120
151,487	598,218	-0,133	-0,231
152,502	579,780	-0,173	-0,296
153,516	179,232	-0,283	-0,289
154,531	208,671	-0,289	-0,316
155,546	30,051	-0,145	-0,086
156,560	22,954	-0,259	-0,148
157,575	8,494	-0,214	-0,112
158,589	112,380	-0,258	-0,218
159,604	-130,928	-0,275	0,025
160,619	784,580	-0,140	-0,269
161,633	154,683	-0,260	-0,249
162,648	539,985	-0,114	-0,189
163,662	366,454	-0,156	-0,220
164,677	223,101	-0,218	-0,246
165,692	-129,913	-0,219	-0,021
166,706	-73,053	-0,224	-0,057
167,721	78,376	-0,151	-0,113
168,735	48,655	-0,292	-0,190
169,750	112,293	-0,167	-0,140
170,764	191,410	-0,170	-0,179
171,779	-164,784	-0,305	0,009
172,794	24,207	-0,141	-0,081
173,808	-77,041	-0,201	-0,049
174,823	684,188	-0,186	-0,341
175,837	54,964	-0,197	-0,132
176,852	-86,347	-0,376	-0,080
177,867	-102,978	-0,277	-0,045
178,881	9,193	-0,195	-0,102
179,896	-35,140	-0,324	-0,122
180,910	-7,855	-0,269	-0,126
181,925	162,363	-0,285	-0,279
182,940	-93,837	-0,282	-0,054
183,954	95,488	-0,184	-0,146
184,969	250,580	-0,159	-0,189
185,983	-8,053	-0,210	-0,098
186,998	87,522	-0,270	-0,208
188,013	125,353	-0,211	-0,186
189,027	141,559	-0,220	-0,203
190,042	800,000	-0,111	-0,311
191,056	303,804	-0,139	-0,180
192,071	-200,000	-0,112	-0,417
193,086	51,551	-0,236	-0,156
194,100	60,358	-0,273	-0,188
195,115	-200,000	-0,016	-0,069
196,129	128,279	-0,252	-0,223
197,144	57,823	-0,303	-0,206
198,159	237,498	-0,179	-0,207
199,173	122,424	-0,191	-0,166
200,188	107,985	-0,306	-0,253
201,202	-134,252	-0,207	-0,017
202,217	4,906	-0,216	-0,110
203,232	19,600	-0,164	-0,091
204,246	205,117	-0,261	-0,282
205,261	25,184	-0,276	-0,159
206,275	-89,889	-0,196	0,040
207,290	-54,436	-0,210	-0,066
208,304	800,000	-0,061	-0,128
209,319	-13,155	-0,240	-0,108
210,334	649,939	-0,104	-0,186
211,348	164,598	-0,102	-0,100
212,363	50,518	-0,251	-0,164
213,377	354,378	-0,172	-0,238
214,392	220,954	-0,174	-0,194
215,407	-82,756	-0,065	-0,014
216,421	-140,141	-0,414	0,030
217,436	-7,894	-0,257	-0,120
218,450	-52,785	-0,225	-0,072
219,465	-30,105	-0,205	-0,080
220,480	102,550	-0,222	-0,180
221,494	800,000	-0,048	-0,100
222,509	20,375	-0,145	-0,081
223,523	-11,694	-0,186	-0,085
224,538	89,759	-0,140	-0,108
225,553	129,553	-0,269	-0,238
226,567	-18,050	-0,182	0,079
227,582	107,019	-0,233	-0,192
228,596	150,422	-0,158	-0,149
229,611	15,697	-0,182	-0,099
230,626	89,493	-0,246	-0,190
231,640	-45,395	-0,128	-0,044
232,655	103,555	-0,178	-0,145
233,669	163,707	-0,225	-0,220
234,684	5,375	-0,245	-0,125
235,699	92,872	-0,175	-0,137
236,713	-56,078	-0,201	-0,062
237,728	258,276	-0,172	-0,206
238,742	191,926	-0,160	-0,168
239,757	-84,544	-0,317	-0,069
240,772	91,372	-0,183	-0,143
241,786	-200,000	-0,027	-0,105
242,801	684,100	-0,093	-0,170
243,815	142,667	-0,152	-0,140
244,830	44,190	-0,246	-0,156
245,844	186,251	-0,190	-0,196
246,859	800,000	-0,114	-0,242
247,874	35,347	-0,226	-0,137
248,888	67,186	-0,246	-0,173
249,903	79,857	-0,213	-0,159
250,917	131,166	-0,074	-0,066
251,932	339,340	-0,118	-0,159
252,947	316,462	-0,090	-0,117
253,961	227,393	-0,094	-0,106
254,976	-10,180	-0,218	-0,100
255,990	-47,550	-0,165	-0,055
257,005	334,757	-0,140	-0,188
258,020	94,981	-0,100	-0,079
259,034	11,569	-0,148	-0,079
260,049	278,076	-0,127	-0,156
261,063	-78,151	-0,195	-0,046
262,078	117,722	-0,249	-0,212
263,093	201,316	-0,189	-0,201
264,107	2,684	-0,211	-0,105
265,122	12,582	-0,096	-0,051
266,136	-200,000	-0,045	-0,187
267,151	295,056	-0,186	-0,236
268,166	190,911	-0,190	-0,198
269,180	-43,990	-0,043	0,015
270,195	279,465	-0,113	-0,140
271,209	195,179	-0,162	-0,170
272,224	76,773	-0,142	-0,104
273,239	-54,906	-0,105	0,032
274,253	-67,842	-0,231	-0,062
275,268	-6,458	-0,226	-0,106
276,282	30,835	-0,161	-0,095
277,297	145,561	-0,161	-0,149
278,312	112,270	-0,092	-0,077
279,326	754,517	-0,078	-0,146
280,341	-123,644	-0,123	0,013
281,355	800,000	-0,071	-0,143
282,370	-200,000	0,018	-0,089
283,384	800,000	-0,095	-0,218
284,399	-35,750	-0,182	-0,068
285,414	-200,000	-0,029	-0,173
286,428	-6,484	-0,068	-0,032
287,443	800,000	-0,026	-0,055
288,457	-43,443	-0,117	-0,041
289,472	55,547	-0,200	-0,133
290,487	800,000	-0,115	-0,251
291,501	508,255	-0,102	-0,164
292,516	30,640	-0,131	-0,077
293,530	258,472	-0,161	-0,191
294,545	253,136	-0,018	0,022
295,560	550,638	-0,081	-0,135
296,574	85,496	-0,181	-0,137
297,589	66,092	-0,055	-0,038
298,603	-200,000	-0,068	-0,235
299,618	800,000	-0,076	-0,157
300,633	158,023	-0,075	-0,072
301,647	-33,286	-0,112	0,043
302,662	110,166	-0,189	-0,156
303,676	343,895	-0,099	-0,134
304,691	338,549	-0,193	-0,260
305,706	56,833	-0,120	-0,080
306,720	172,533	-0,168	-0,167
307,735	118,903	-0,165	-0,140
308,749	283,316	-0,104	-0,129
309,764	-50,107	-0,245	0,079
310,779	134,791	-0,101	-0,090
311,793	800,000	-0,123	-0,261
312,808	-148,552	-0,106	0,006
313,822	-81,873	-0,145	-0,032
314,837	-153,329	-0,070	0,003
315,852	267,922	-0,134	-0,162
316,866	-146,711	-0,132	-0,008
317,881	26,908	-0,109	-0,063
318,895	513,672	-0,068	-0,110
319,910	156,745	-0,204	-0,195
320,925	150,980	-0,224	-0,209
321,939	271,095	-0,109	-0,133
322,954	30,812	-0,125	-0,073
323,968	-109,957	-0,082	-0,012
324,983	-59,399	-0,155	-0,046
325,997	-100,002	-0,079	0,013
327,012	150,161	-0,168	-0,157
328,027	135,593	-0,202	-0,181
329,041	515,842	-0,097	-0,157
330,056	-35,729	-0,207	-0,077
331,070	62,675	-0,105	-0,072
332,085	-7,105	-0,156	-0,073
333,100	-182,198	-0,108	-0,001
334,114	-200,000	-0,040	-0,148
335,129	368,482	-0,132	-0,184
336,143	326,646	-0,164	-0,216
337,158	344,737	-0,110	-0,148
338,173	-48,054	-0,151	-0,050
339,187	-200,000	-0,013	-0,061
340,202	120,402	-0,141	-0,121
341,216	332,607	-0,121	-0,161
342,231	-200,000	-0,036	-0,211
343,246	800,000	-0,046	-0,138
344,260	-200,000	-0,019	-0,091
345,275	211,499	-0,053	-0,058
346,289	-200,000	-0,030	-0,135
347,304	49,850	-0,185	-0,120
348,319	47,970	-0,151	-0,097
349,333	61,047	-0,203	-0,138
350,348	800,000	-0,104	-0,212
351,362	227,902	-0,178	-0,200
352,377	-200,000	0,044	-0,148
353,392	165,399	-0,198	-0,193
354,406	92,644	-0,245	-0,189
355,421	207,739	1316,423	1412,080
356,435	159,810	1477,377	1412,569
