DTS Sentinel unit serial number:	SN410029Multiplexer serial number:	ORYXHardware model number:	OX2-SRSoftware version number:	ORYX F/W v4,00 Oryx Data Collector v3.7.2.0data status	okinstallation	B3 Nyhavnadifferential loss correction	single-endedforward channel	channel 1reverse channel	N/Adate	2023/12/03time	07:37:30forward acquisition time	300,00reverse acquisition time	0,00gamma	499,1914k internal	0,3201k external	0,3201temperature offset calibration	1,0000default loss term (dB/km)	0,3820temperature slope calibration	1,0000multiplexer offset coefficient	1,0000multiplexer slope coefficient	1,0000fibre end	0,00T internal ref (°C)	13,31T ext. ref 1 (°C)	-1,70T ext. ref 2 (°C)	-1,71length (m)	temperature (°C)	Stokes	anti-Stokes-744,400	-10,443	-0,129	-0,062
-743,385	-200,000	-0,052	0,361
-742,371	-200,000	-0,047	-0,198
-741,356	-200,000	-0,096	0,442
-740,342	167,975	-0,252	-0,261
-739,327	-200,000	0,038	0,359
-738,312	114,460	-0,243	-0,215
-737,298	800,000	-0,094	0,204
-736,283	215,730	-0,140	-0,161
-735,269	595,513	0,084	0,152
-734,254	800,000	-0,136	-0,288
-733,239	5,572	-0,295	0,158
-732,225	-200,000	0,017	-0,271
-731,210	207,785	-0,056	0,064
-730,196	40,669	0,028	0,018
-729,181	800,000	-0,039	0,105
-728,167	800,000	0,065	-0,136
-727,152	216,555	-0,049	0,057
-726,137	-200,000	0,013	0,120
-725,123	-135,297	-0,225	0,019
-724,108	309,471	-0,070	-0,095
-723,094	-92,168	-0,060	-0,012
-722,079	-175,534	-0,029	0,001
-721,064	-51,530	0,061	-0,020
-720,050	238,151	-0,040	0,048
-719,035	61,625	0,100	0,072
-718,021	346,863	0,017	-0,024
-717,006	800,000	-0,086	-0,200
-715,991	-95,918	-0,053	0,010
-714,977	99,134	0,034	-0,029
-713,962	800,000	-0,016	0,039
-712,948	-12,117	0,011	-0,005
-711,933	-13,500	-0,107	-0,050
-710,918	519,684	0,060	-0,103
-709,904	105,848	-0,032	0,027
-708,889	-79,666	-0,084	-0,020
-707,875	-141,777	-0,012	0,001
-706,860	-20,490	0,055	0,025
-705,845	800,000	-0,037	0,108
-704,831	433,727	-0,029	0,045
-703,816	-7,248	-0,035	-0,017
-702,802	-200,000	-0,057	-0,248
-701,787	92,289	-0,063	0,052
-700,772	204,915	0,026	0,029
-699,758	-77,381	0,040	0,010
-698,743	232,302	-0,064	-0,076
-697,729	800,000	0,014	-0,034
-696,714	800,000	-0,020	-0,056
-695,699	800,000	0,045	0,114
-694,685	257,812	-0,087	-0,109
-693,670	-200,000	0,012	0,105
-692,656	-59,938	-0,050	0,015
-691,641	-200,000	0,002	-0,155
-690,627	-112,119	0,091	-0,013
-689,612	103,760	-0,106	0,091
-688,597	130,387	0,038	-0,036
-687,583	-89,181	-0,054	-0,012
-686,568	-200,000	-0,015	-0,067
-685,554	298,775	0,033	-0,045
-684,539	331,430	-0,052	-0,073
-683,524	128,233	0,090	-0,083
-682,510	-169,860	0,103	-0,003
-681,495	677,541	-0,057	0,108
-680,481	800,000	0,035	-0,092
-679,466	-97,905	0,049	-0,009
-678,451	-141,636	0,055	0,004
-677,437	-166,973	0,048	-0,001
-676,422	-200,000	0,014	-0,058
-675,408	88,107	-0,040	-0,032
-674,393	209,719	-0,052	-0,059
-673,378	-58,342	-0,090	-0,028
-672,364	61,983	0,126	-0,091
-671,349	60,646	0,042	0,030
-670,335	-200,000	0,022	-0,075
-669,320	-200,000	0,016	-0,092
-668,305	-200,000	-0,010	0,046
-667,291	184,272	0,056	-0,060
-666,276	15,204	-0,108	0,061
-665,262	-112,804	-0,165	0,023
-664,247	163,195	-0,052	-0,053
-663,232	800,000	0,020	-0,054
-662,218	-200,000	0,038	-0,123
-661,203	-65,030	0,130	0,038
-660,189	800,000	-0,015	0,038
-659,174	64,388	-0,063	-0,046
-658,159	-200,000	-0,024	-0,188
-657,145	-6,400	-0,096	-0,047
-656,130	-97,848	0,076	-0,014
-655,116	-50,040	-0,060	0,020
-654,101	-155,673	0,093	-0,004
-653,086	546,553	0,033	0,057
-652,072	800,000	-0,014	0,044
-651,057	-192,490	-0,129	-0,001
-650,043	89,768	0,060	-0,049
-649,028	-200,000	-0,001	-0,064
-648,014	-107,693	0,026	-0,004
-646,999	282,999	0,100	0,131
-645,984	188,382	0,012	0,013
-644,970	23,213	0,031	-0,019
-643,955	54,406	-0,164	-0,114
-642,941	293,315	-0,078	0,103
-641,926	-200,000	0,011	0,070
-640,911	-129,010	0,027	0,003
-639,897	110,426	0,028	-0,025
-638,882	800,000	0,034	0,084
-637,868	-47,625	0,044	-0,015
-636,853	-28,064	0,021	-0,009
-635,838	-200,000	0,014	-0,142
-634,824	524,907	-0,013	-0,023
-633,809	95,009	0,064	-0,053
-632,795	-36,169	0,038	0,015
-631,780	632,931	0,054	0,100
-630,765	-200,000	-0,045	-0,180
-629,751	136,646	-0,109	0,104
-628,736	-75,855	-0,091	-0,023
-627,722	-106,875	0,088	-0,014
-626,707	800,000	0,022	-0,067
-625,692	-200,000	0,001	0,053
-624,678	-200,000	-0,004	0,041
-623,663	716,017	-0,064	0,124
-622,649	-99,504	0,091	0,016
-621,634	800,000	0,012	0,035
-620,619	701,525	0,031	-0,060
-619,605	-200,000	0,029	-0,148
-618,590	-200,000	-0,036	-0,187
-617,576	-200,000	-0,021	-0,162
-616,561	134,197	0,083	-0,078
-615,546	239,126	-0,097	-0,117
-614,532	-18,489	-0,101	-0,045
-613,517	-175,678	-0,100	0,002
-612,503	506,849	-0,023	0,038
-611,488	103,856	0,115	-0,098
-610,474	-124,507	0,099	-0,011
-609,459	-80,313	0,070	-0,017
-608,444	269,284	-0,086	0,110
-607,430	47,818	0,051	0,034
-606,415	166,917	-0,055	-0,057
-605,401	26,900	-0,107	0,065
-604,386	272,055	-0,105	-0,134
-603,371	-200,000	0,006	-0,037
-602,357	-200,000	-0,035	0,133
-601,342	-200,000	-0,010	-0,058
-600,328	-124,784	0,029	0,003
-599,313	8,421	-0,032	-0,017
-598,298	743,241	0,079	-0,153
-597,284	-133,254	-0,046	0,004
-596,269	14,586	-0,069	-0,039
-595,255	172,851	-0,052	-0,054
-594,240	-39,447	-0,090	-0,034
-593,225	359,493	-0,040	-0,058
-592,211	-9,818	-0,091	0,044
-591,196	-200,000	0,018	-0,157
-590,182	-68,511	0,040	0,011
-589,167	-173,481	-0,120	0,003
-588,152	-200,000	-0,012	0,148
-587,138	5,103	0,057	0,030
-586,123	-0,268	-0,087	-0,045
-585,109	-132,521	-0,074	0,007
-584,094	388,006	-0,076	0,114
-583,079	-144,712	-0,093	-0,006
-582,065	-66,481	0,106	-0,030
-581,050	-102,908	-0,091	-0,015
-580,036	-200,000	0,017	0,097
-579,021	-200,000	-0,034	-0,149
-578,006	-94,863	0,037	0,007
-576,992	800,000	0,014	0,039
-575,977	-141,370	0,205	0,015
-574,963	26,619	0,116	0,070
-573,948	-200,000	-0,034	-0,154
-572,934	-64,787	0,059	-0,017
-571,919	376,469	-0,059	-0,088
-570,904	-200,000	0,043	-0,202
-569,890	130,751	-0,052	-0,048
-568,875	95,538	0,113	0,093
-567,861	32,954	0,054	0,034
-566,846	800,000	-0,054	0,119
-565,831	-101,095	-0,099	-0,017
-564,817	800,000	0,051	0,112
-563,802	-83,237	-0,136	-0,031
-562,788	149,982	-0,068	-0,067
-561,773	53,860	-0,168	-0,116
-560,758	800,000	0,041	0,109
-559,744	-200,000	0,013	-0,128
-558,729	-200,000	-0,012	-0,160
-557,715	-155,438	-0,087	0,004
-556,700	-145,517	-0,028	0,002
-555,685	-18,909	-0,120	0,054
-554,671	241,618	-0,128	-0,154
-553,656	800,000	0,021	-0,044
-552,642	650,538	-0,067	0,124
-551,627	-200,000	0,025	0,114
-550,612	800,000	-0,058	0,128
-549,598	-200,000	-0,012	-0,043
-548,583	-119,421	0,047	-0,006
-547,569	-106,225	0,114	0,018
-546,554	-200,000	0,029	0,092
-545,539	800,000	0,022	0,054
-544,525	81,428	0,069	0,054
-543,510	344,910	-0,053	0,076
-542,496	-200,000	0,008	-0,116
-541,481	-200,000	0,015	-0,069
-540,466	800,000	0,027	-0,078
-539,452	282,348	0,073	0,095
-538,437	704,620	0,060	0,114
-537,423	-200,000	0,003	-0,095
-536,408	-200,000	-0,005	0,114
-535,393	-200,000	-0,009	-0,069
-534,379	-200,000	-0,011	-0,055
-533,364	-28,704	0,102	-0,042
-532,350	-200,000	0,010	0,054
-531,335	-200,000	-0,013	0,152
-530,321	-200,000	-0,017	-0,078
-529,306	54,944	-0,031	0,022
-528,291	707,766	0,025	0,047
-527,277	211,316	0,081	0,092
-526,262	-200,000	-0,012	-0,046
-525,248	-28,844	0,029	-0,012
-524,233	-58,035	0,098	-0,031
-523,218	170,127	-0,073	-0,076
-522,204	304,547	0,066	-0,089
-521,189	-123,018	0,111	0,013
-520,175	606,451	-0,049	-0,088
-519,160	238,575	-0,067	-0,080
-518,145	36,248	-0,014	0,009
-517,131	800,000	0,025	0,073
-516,116	-17,700	0,120	0,054
-515,102	800,000	0,026	-0,067
-514,087	99,852	0,033	0,028
-513,072	-167,744	-0,084	-0,002
-512,058	-32,506	-0,030	-0,012
-511,043	-200,000	-0,004	-0,031
-510,029	800,000	-0,019	-0,058
-509,014	-97,745	0,088	-0,016
-507,999	800,000	0,005	-0,015
-506,985	105,653	0,102	-0,086
-505,970	-47,868	-0,059	0,020
-504,956	-200,000	0,019	0,110
-503,941	171,133	0,064	-0,066
-502,926	138,392	0,072	0,068
-501,912	-200,000	-0,012	0,109
-500,897	9,317	0,115	0,062
-499,883	-195,863	-0,028	-0,000
-498,868	25,369	-0,103	-0,062
-497,853	492,503	0,041	-0,067
-496,839	-200,000	0,003	0,058
-495,824	-148,507	0,081	0,005
-494,810	-200,000	-0,001	0,025
-493,795	-198,100	0,192	-0,001
-492,781	-200,000	-0,020	0,065
-491,766	244,281	0,067	-0,082
-490,751	69,536	0,066	-0,049
-489,737	-95,384	0,151	0,029
-488,722	-200,000	-0,005	0,128
-487,708	-77,484	0,056	0,014
-486,693	6,725	-0,050	0,027
-485,678	-200,000	0,036	0,133
-484,664	63,858	-0,097	0,070
-483,649	257,828	0,081	-0,101
-482,635	-200,000	-0,003	-0,100
-481,620	-124,254	0,134	0,015
-480,605	43,063	0,029	-0,019
-479,591	268,657	-0,068	0,086
-478,576	-200,000	-0,006	-0,164
-477,562	5,849	-0,020	-0,011
-476,547	800,000	0,039	-0,109
-475,532	453,585	0,067	-0,108
-474,518	278,829	-0,019	0,024
-473,503	-200,000	0,025	0,158
-472,489	800,000	0,033	0,069
-471,474	-200,000	-0,009	0,111
-470,459	348,283	0,057	-0,081
-469,445	206,004	-0,044	-0,049
-468,430	800,000	-0,032	-0,088
-467,416	-10,118	0,101	0,048
-466,401	52,183	0,070	-0,048
-465,386	800,000	0,023	-0,052
-464,372	-200,000	0,025	-0,114
-463,357	124,944	0,048	-0,044
-462,343	-131,878	-0,064	0,006
-461,328	-200,000	0,013	0,118
-460,313	138,927	0,105	0,100
-459,299	-28,607	0,032	0,013
-458,284	-9,412	0,142	0,068
-457,270	-54,700	-0,147	0,048
-456,255	138,898	-0,075	-0,071
-455,241	-200,000	0,003	0,032
-454,226	800,000	-0,047	0,122
-453,211	-111,787	-0,100	0,014
-452,197	800,000	-0,048	0,148
-451,182	157,044	0,156	0,155
-450,168	-200,000	-0,034	-0,114
-449,153	170,057	-0,064	-0,066
-448,138	131,469	0,113	-0,105
-447,124	-57,068	0,061	0,019
-446,109	153,155	0,034	0,034
-445,095	351,728	-0,070	-0,100
-444,080	-22,268	0,068	0,029
-443,065	-84,611	0,233	0,052
-442,051	343,208	-0,050	-0,070
-441,036	186,950	0,058	-0,063
-440,022	179,737	-0,066	-0,070
-439,007	-173,499	-0,078	-0,002
-437,992	800,000	-0,028	0,061
-436,978	-200,000	-0,003	0,108
-435,963	26,091	-0,022	0,013
-434,949	-200,000	0,007	0,075
-433,934	-58,293	0,063	-0,020
-432,919	707,570	-0,032	-0,061
-431,905	-200,000	-0,014	0,046
-430,890	800,000	-0,054	0,158
-429,876	-54,762	-0,068	0,022
-428,861	93,105	0,103	-0,084
-427,846	94,865	-0,076	-0,062
-426,832	377,174	-0,024	0,035
-425,817	-120,869	0,154	0,018
-424,803	-200,000	-0,022	-0,125
-423,788	-200,000	-0,023	-0,144
-422,773	253,253	-0,017	0,021
-421,759	-200,000	0,014	0,103
-420,744	-44,973	-0,076	0,027
-419,730	-165,671	0,079	0,002
-418,715	86,268	-0,092	-0,073
-417,701	-152,318	-0,079	0,004
-416,686	-200,000	-0,011	0,129
-415,671	452,302	0,065	0,103
-414,657	-200,000	0,029	0,105
-413,642	-200,000	0,040	-0,169
-412,628	104,722	-0,043	0,036
-411,613	-32,090	-0,240	0,096
-410,598	-197,191	0,017	0,000
-409,584	800,000	-0,084	0,185
-408,569	124,403	0,080	-0,072
-407,555	71,251	-0,005	-0,004
-406,540	-58,928	0,068	0,021
-405,525	-40,570	-0,066	-0,024
-404,511	525,072	-0,021	0,036
-403,496	-9,383	-0,024	-0,012
-402,482	-93,670	-0,084	0,016
-401,467	49,581	0,104	0,070
-400,452	-200,000	0,032	0,119
-399,438	31,323	-0,073	0,045
-398,423	55,103	0,053	-0,036
-397,409	392,897	-0,055	-0,083
-396,394	-200,000	-0,044	-0,145
-395,379	165,838	-0,029	0,030
-394,365	6,845	0,083	-0,044
-393,350	-200,000	-0,007	0,068
-392,336	-200,000	-0,009	0,128
-391,321	-200,000	0,019	0,123
-390,306	-200,000	-0,034	0,125
-389,292	278,550	-0,066	0,084
-388,277	471,568	0,038	0,062
-387,263	-200,000	0,005	0,071
-386,248	159,201	-0,032	-0,032
-385,233	-21,179	0,030	0,013
-384,219	-121,130	-0,026	0,003
-383,204	246,443	-0,048	-0,058
-382,190	103,103	-0,044	-0,037
-381,175	800,000	-0,001	-0,003
-380,160	168,667	0,140	0,143
-379,146	300,916	-0,066	0,087
-378,131	246,477	-0,064	0,077
-377,117	800,000	-0,010	0,024
-376,102	57,699	-0,095	-0,066
-375,088	-51,976	-0,094	-0,031
-374,073	462,825	-0,036	0,059
-373,058	232,834	0,059	0,069
-372,044	260,359	0,021	-0,026
-371,029	-140,825	-0,037	0,003
-370,015	-200,000	0,035	-0,128
-369,000	-200,000	-0,032	-0,109
-367,985	177,391	0,087	-0,091
-366,971	428,791	0,028	-0,044
-365,956	-74,274	-0,193	0,050
-364,942	-200,000	-0,024	0,091
-363,927	416,728	0,016	0,024
-362,912	18,838	0,100	0,057
-361,898	14,716	-0,052	0,029
-360,883	-200,000	-0,001	0,048
-359,869	12,844	-0,118	-0,065
-358,854	-115,916	0,195	0,026
-357,839	-200,000	0,026	-0,137
-356,825	-200,000	0,002	0,015
-355,810	120,614	-0,084	0,075
-354,796	-24,001	0,070	0,030
-353,781	9,154	-0,023	0,012
-352,766	-200,000	0,022	-0,129
-351,752	228,739	-0,028	-0,033
-350,737	327,608	-0,084	0,116
-349,723	279,338	-0,059	0,076
-348,708	-200,000	-0,020	0,070
-347,693	800,000	-0,040	-0,080
-346,679	-100,620	0,093	0,016
-345,664	109,873	0,057	0,049
-344,650	-134,318	0,028	-0,002
-343,635	425,980	0,025	0,038
-342,620	-200,000	0,021	0,116
-341,606	130,091	-0,059	-0,054
-340,591	800,000	0,074	-0,188
-339,577	40,748	0,039	-0,025
-338,562	-200,000	-0,144	0,000
-337,548	520,591	0,073	0,123
-336,533	-200,000	-0,004	0,020
-335,518	-200,000	0,012	0,161
-334,504	15,327	-0,049	-0,028
-333,489	9,860	0,094	0,051
-332,475	-200,000	-0,023	-0,094
-331,460	-200,000	0,010	-0,062
-330,445	-200,000	-0,009	-0,105
-329,431	225,892	0,126	0,147
-328,416	796,357	0,030	0,059
-327,402	68,497	0,062	0,046
-326,387	326,784	0,011	-0,015
-325,372	-25,412	0,065	-0,028
-324,358	55,443	-0,067	-0,046
-323,343	-200,000	-0,018	-0,160
-322,329	-153,678	0,081	0,004
-321,314	35,693	-0,081	0,051
-320,299	-200,000	0,003	0,033
-319,285	800,000	0,015	-0,031
-318,270	-200,000	-0,037	0,154
-317,256	-200,000	0,006	-0,047
-316,241	-38,566	0,080	-0,030
-315,226	116,612	0,141	-0,123
-314,212	59,561	-0,102	0,072
-313,197	800,000	-0,023	0,061
-312,183	621,356	0,023	-0,042
-311,168	-64,963	-0,061	-0,017
-310,153	-8,054	-0,102	-0,049
-309,139	-54,648	-0,112	-0,036
-308,124	-57,261	-0,008	-0,002
-307,110	194,776	0,033	-0,036
-306,095	12,737	-0,157	0,087
-305,080	800,000	0,066	0,135
-304,066	298,061	-0,002	0,002
-303,051	193,418	-0,088	-0,095
-302,037	-200,000	0,004	-0,105
-301,022	-84,434	0,068	-0,015
-300,008	-121,986	-0,023	-0,003
-298,993	-138,174	0,116	0,009
-297,978	737,704	0,055	-0,105
-296,964	8,052	0,069	-0,037
-295,949	28,403	0,068	-0,041
-294,935	-26,378	-0,118	0,049
-293,920	-200,000	0,001	-0,028
-292,905	-97,237	-0,077	0,014
-291,891	800,000	0,041	0,126
-290,876	90,766	0,068	-0,054
-289,862	119,895	-0,089	0,079
-288,847	122,352	-0,053	0,047
-287,832	-55,366	-0,072	-0,023
-286,818	-124,426	-0,057	0,006
-285,803	-112,845	0,039	0,006
-284,789	165,616	0,103	0,105
-283,774	9,826	-0,057	0,031
-282,759	-71,139	-0,041	-0,011
-281,745	230,726	-0,063	0,073
-280,730	-200,000	0,015	-0,130
-279,716	-200,000	0,014	-0,100
-278,701	-39,649	-0,073	-0,027
-277,686	-62,777	0,118	-0,035
-276,672	92,089	0,175	0,140
-275,657	-3,452	-0,098	0,048
-274,643	-200,000	0,017	-0,056
-273,628	335,811	-0,054	-0,075
-272,613	291,145	-0,066	0,086
-271,599	116,678	-0,051	-0,044
-270,584	-148,713	0,091	-0,005
-269,570	800,000	0,007	-0,018
-268,555	550,330	-0,008	0,014
-267,540	609,984	0,085	-0,152
-266,526	148,936	-0,211	-0,204
-265,511	250,744	0,144	0,175
-264,497	-200,000	-0,004	-0,116
-263,482	-200,000	-0,011	0,059
-262,467	-36,116	-0,037	-0,014
-261,453	14,147	-0,062	0,034
-260,438	20,833	-0,076	-0,044
-259,424	100,907	0,100	-0,083
-258,409	285,679	0,062	-0,079
-257,395	-61,742	-0,053	-0,016
-256,380	81,348	0,060	0,046
-255,365	98,097	0,104	0,086
-254,351	-200,000	0,005	0,056
-253,336	-200,000	-0,005	-0,087
-252,322	320,827	0,026	0,035
-251,307	256,472	0,074	0,091
-250,292	-139,819	0,129	-0,010
-249,278	800,000	-0,026	0,072
-248,263	-23,260	0,028	-0,012
-247,249	-73,429	-0,124	0,032
-246,234	800,000	-0,038	0,111
-245,219	-37,018	-0,136	-0,052
-244,205	19,181	-0,136	0,078
-243,190	-100,210	-0,085	-0,015
-242,176	66,567	-0,057	-0,042
-241,161	-48,902	-0,042	0,014
-240,146	-19,766	0,067	0,029
-239,132	-200,000	0,008	-0,055
-238,117	-200,000	-0,046	-0,149
-237,103	104,565	-0,094	-0,079
-236,088	-1,691	-0,180	-0,090
-235,073	323,454	0,045	0,062
-234,059	-200,000	-0,001	0,131
-233,044	-200,000	0,013	0,054
-232,030	-200,000	0,010	-0,070
-231,015	-200,000	0,000	-0,085
-230,000	3,975	-0,035	0,018
-228,986	-83,205	-0,087	-0,020
-227,971	203,958	0,031	-0,034
-226,957	54,331	0,045	-0,031
-225,942	792,845	-0,051	0,100
-224,927	69,768	-0,103	-0,075
-223,913	244,157	0,007	-0,008
-222,898	-70,578	-0,008	-0,002
-221,884	100,557	-0,063	0,052
-220,869	43,427	0,080	-0,052
-219,855	764,213	0,062	-0,121
-218,840	757,314	0,028	0,055
-217,825	-89,959	-0,047	-0,010
-216,811	-44,146	0,115	-0,041
-215,796	111,608	-0,071	-0,061
-214,782	-200,000	-0,010	-0,068
-213,767	-41,933	0,051	0,018
-212,752	-200,000	-0,003	0,126
-211,738	-200,000	-0,003	0,104
-210,723	-200,000	-0,004	0,117
-209,709	-108,659	0,070	0,011
-208,694	76,672	-0,089	-0,067
-207,679	64,483	-0,057	0,041
-206,665	331,222	0,086	-0,119
-205,650	-106,704	0,051	-0,008
-204,636	473,692	0,078	0,126
-203,621	-152,520	-0,210	-0,011
-202,606	17,276	-0,035	-0,020
-201,592	-200,000	-0,016	-0,077
-200,577	800,000	0,045	-0,089
-199,563	-11,963	-0,011	-0,005
-198,548	10,581	0,089	0,048
-197,533	800,000	0,049	0,109
-196,519	800,000	0,049	-0,122
-195,504	605,633	-0,032	0,057
-194,490	453,170	-0,054	-0,086
-193,475	-65,437	0,043	-0,012
-192,460	-122,781	-0,160	-0,018
-191,446	-5,479	-0,080	0,039
-190,431	-121,414	0,025	-0,003
-189,417	-73,156	0,092	0,024
-188,402	800,000	-0,043	-0,115
-187,387	607,238	-0,055	0,098
-186,373	-22,394	0,094	0,040
-185,358	-200,000	0,009	0,082
-184,344	69,180	0,091	-0,066
-183,329	-200,000	0,004	0,090
-182,315	-200,000	-0,009	0,118
-181,300	-9,687	-0,047	-0,022
-180,285	800,000	0,017	0,037
-179,271	105,432	-0,061	-0,051
-178,256	800,000	0,063	0,189
-177,242	14,965	0,070	-0,039
-176,227	800,000	0,031	0,071
-175,212	182,789	-0,068	0,071
-174,198	-200,000	0,000	-0,033
-173,183	269,297	-0,042	-0,053
-172,169	-195,715	0,155	0,001
-171,154	-200,000	-0,019	-0,101
-170,139	-200,000	0,014	-0,164
-169,125	-130,940	0,112	0,011
-168,110	8,568	0,071	0,038
-167,096	800,000	-0,048	-0,113
-166,081	-200,000	-0,009	0,108
-165,066	-70,051	-0,154	0,041
-164,052	88,238	-0,116	0,091
-163,037	-9,981	0,029	-0,014
-162,023	-76,525	0,069	0,017
-161,008	32,594	-0,069	-0,043
-159,993	125,224	0,049	0,044
-158,979	-200,000	-0,009	-0,132
-157,964	-200,000	-0,011	-0,066
-156,950	-35,301	-0,022	-0,008
-155,935	-77,921	0,107	0,026
-154,920	196,002	0,041	0,045
-153,906	-158,855	0,085	0,003
-152,891	800,000	0,032	-0,078
-151,877	800,000	-0,088	-0,205
-150,862	-38,591	-0,113	-0,042
-149,847	-65,254	-0,060	0,017
-148,833	43,393	-0,113	-0,073
-147,818	-60,467	0,029	0,009
-146,804	-91,264	0,109	-0,022
-145,789	186,588	-0,061	0,064
-144,775	17,403	-0,037	0,021
-143,760	-99,268	-0,121	0,022
-142,745	261,593	-0,074	-0,092
-141,731	-200,000	-0,021	0,109
-140,716	19,597	0,209	-0,119
-139,702	180,024	-0,009	0,009
-138,687	-54,460	-0,069	0,022
-137,672	-98,412	-0,015	-0,003
-136,658	800,000	-0,037	-0,079
-135,643	-200,000	-0,010	0,071
-134,629	1,699	0,122	-0,062
-133,614	-22,168	0,116	0,050
-132,599	-200,000	0,015	0,142
-131,585	-200,000	-0,009	0,115
-130,570	-200,000	-0,013	0,098
-129,556	141,811	0,085	-0,080
-128,541	800,000	0,030	0,075
-127,526	194,990	-0,030	-0,032
-126,512	-53,871	-0,136	0,044
-125,497	96,001	0,045	0,036
-124,483	203,431	0,072	0,079
-123,468	-200,000	-0,012	0,054
-122,453	-200,000	-0,011	-0,102
-121,439	-200,000	-0,016	-0,096
-120,424	-99,164	0,077	-0,014
-119,410	-117,174	-0,093	0,012
-118,395	5,443	0,191	-0,100
-117,380	-200,000	0,008	0,066
-116,366	-200,000	-0,015	0,071
-115,351	144,879	0,043	0,040
-114,337	-58,195	-0,112	-0,034
-113,322	-31,271	-0,116	0,046
-112,307	5,843	0,063	-0,033
-111,293	-200,000	0,001	0,018
-110,278	172,548	0,135	0,138
-109,264	-97,568	-0,095	0,017
-108,249	-68,263	-0,202	0,055
-107,234	371,973	-0,025	-0,036
-106,220	236,557	0,024	-0,028
-105,205	-200,000	-0,008	-0,032
-104,191	-200,000	-0,023	-0,122
-103,176	121,285	0,028	-0,025
-102,162	51,610	-0,087	-0,059
-101,147	154,590	0,151	-0,148
-100,132	-64,211	-0,194	0,056
-99,118	-81,544	-0,034	-0,008
-98,103	437,616	-0,077	-0,119
-97,089	47,415	-0,053	-0,035
-96,074	-28,319	0,049	0,020
-95,059	800,000	0,005	-0,015
-94,045	-200,000	-0,015	0,102
-93,030	88,656	0,073	-0,058
-92,016	198,341	-0,099	0,108
-91,001	350,620	-0,072	-0,101
-89,986	-131,056	0,056	0,005
-88,972	800,000	-0,047	-0,094
-87,957	-200,000	-0,012	-0,114
-86,943	75,084	-0,028	0,021
-85,928	-151,055	-0,046	-0,002
-84,913	-20,802	-0,030	-0,013
-83,899	-200,000	0,026	-0,105
-82,884	-155,918	-0,100	0,004
-81,870	-54,342	0,126	0,040
-80,855	223,627	0,113	-0,129
-79,840	411,779	-0,034	-0,051
-78,826	75,914	0,086	-0,064
-77,811	-51,446	0,105	0,035
-76,797	357,726	-0,096	0,136
-75,782	-76,575	-0,127	-0,031
-74,767	109,652	0,077	0,065
-73,753	800,000	0,006	-0,011
-72,738	-200,000	0,028	-0,129
-71,724	9,341	-0,106	0,057
-70,709	-48,491	-0,137	0,046
-69,694	-32,331	0,066	0,026
-68,680	-70,770	-0,081	-0,022
-67,665	5,668	0,090	-0,047
-66,651	-17,455	0,072	0,032
-65,636	800,000	-0,002	-0,006
-64,622	-200,000	0,001	-0,031
-63,607	101,997	-0,037	0,030
-62,592	65,175	-0,022	0,016
-61,578	-200,000	0,027	0,100
-60,563	1,535	-0,092	0,047
-59,549	-200,000	0,010	0,106
-58,534	-16,158	-1,551	-0,695
-57,519	294,105	-1,440	-1,867
-56,505	-200,000	-0,566	-4,438
-55,490	126,105	1,033	0,925
-54,476	800,000	5,070	11,567
-53,461	-200,000	19,198	320,291
-52,446	-200,000	740,852	2334,797
-51,432	573,410	1655,779	2869,599
-50,417	78,234	1671,356	1261,779
-49,403	21,266	1544,358	885,651
-48,388	15,176	1466,721	811,506
-47,373	18,008	1456,928	819,745
-46,359	16,668	1446,787	807,582
-45,344	13,431	1442,114	789,430
-44,330	13,377	1440,011	787,991
-43,315	13,358	1438,503	787,044
-42,300	13,345	1436,618	785,918
-41,286	13,403	1435,579	785,596
-40,271	13,347	1434,120	784,500
-39,257	13,321	1433,081	783,776
-38,242	13,408	1431,451	783,266
-37,227	13,418	1430,300	782,651
-36,213	13,424	1428,967	781,919
-35,198	13,397	1428,060	781,267
-34,184	13,441	1426,996	780,861
-33,169	13,380	1425,569	779,759
-32,154	13,391	1424,758	779,337
-31,140	13,441	1423,151	778,663
-30,125	13,444	1422,254	778,157
-29,111	13,401	1421,086	777,283
-28,096	13,393	1419,934	776,586
-27,082	13,348	1418,965	775,811
-26,067	13,309	1417,852	774,991
-25,052	13,325	1416,729	774,419
-24,038	13,326	1415,769	773,867
-23,023	13,319	1414,753	773,252
-22,009	13,323	1413,683	772,652
-20,994	13,344	1412,810	772,243
-19,979	13,301	1412,075	771,611
-18,965	13,315	1410,868	770,983
-17,950	13,277	1410,023	770,314
-16,936	13,286	1409,177	769,864
-15,921	13,276	1407,772	769,021
-14,906	13,238	1407,317	768,563
-13,892	13,279	1406,240	768,136
-12,877	13,288	1405,134	767,543
-11,863	13,224	1404,420	766,822
-10,848	13,259	1403,605	766,511
-9,833	13,225	1402,762	765,861
-8,819	13,155	1401,925	765,047
-7,804	13,147	1400,865	764,402
-6,790	13,139	1399,845	763,778
-5,775	13,200	1398,682	763,396
-4,760	13,172	1397,802	762,756
-3,746	13,139	1396,952	762,110
-2,731	13,168	1395,942	761,661
-1,717	13,065	1395,525	760,925
-0,702	13,065	1393,594	759,842
0,313	16,983	1310,253	732,534
1,327	33,278	703,884	431,192
2,342	51,332	123,274	82,674
3,356	3,679	16,543	8,513
4,371	14,739	3,251	1,793
5,386	-8,430	0,520	0,246
6,400	-200,000	0,073	0,267
7,415	619,203	-0,097	-0,173
8,429	-51,183	-0,375	-0,124
9,444	62,655	-0,406	-0,286
10,459	230,162	-0,213	-0,247
11,473	108,252	-0,446	-0,376
12,488	129,138	-0,263	-0,237
13,502	95,947	-0,312	-0,252
14,517	14,678	-0,278	-0,153
15,531	88,484	-0,385	-0,302
16,546	126,917	-0,279	-0,249
17,561	274,167	-0,347	-0,435
18,575	163,872	-0,185	-0,184
19,590	31,256	-0,264	-0,160
20,604	-73,486	-0,241	-0,062
21,619	131,072	-0,395	-0,358
22,634	173,607	-0,540	-0,551
23,648	65,652	-0,480	-0,343
24,663	187,827	-0,369	-0,389
25,677	48,686	-0,469	-0,310
26,692	30,426	-0,303	-0,183
27,707	134,310	-0,317	-0,290
28,721	60,224	-0,243	-0,169
29,736	93,110	-0,362	-0,288
30,750	43,702	-0,417	-0,269
31,765	284,581	-0,273	-0,348
32,780	73,661	-0,317	-0,234
33,794	165,143	-0,295	-0,294
34,809	52,265	-0,341	-0,229
35,823	42,371	-0,472	-0,302
36,838	256,028	-0,282	-0,342
37,853	89,484	-0,429	-0,337
38,867	75,879	-0,268	-0,199
39,882	178,726	-0,384	-0,396
40,896	32,851	-0,328	-0,200
41,911	180,295	-0,339	-0,351
42,926	136,784	-0,327	-0,301
43,940	7,985	-0,330	-0,174
44,955	-13,290	-0,324	-0,148
45,969	-28,814	-0,461	-0,186
46,984	-49,839	-0,348	-0,116
47,999	-5,673	-0,291	-0,140
49,013	130,812	-0,328	-0,296
50,028	90,652	-0,386	-0,304
51,042	149,406	-0,440	-0,420
52,057	92,667	-0,340	-0,270
53,071	2,282	-0,393	-0,200
54,086	14,861	-0,394	-0,216
55,101	15,539	-0,345	-0,190
56,115	13,635	-0,279	-0,152
57,130	-2,262	-0,314	-0,155
58,144	30,372	-0,334	-0,200
59,159	48,584	-0,335	-0,220
60,174	37,102	-0,397	-0,247
61,188	166,327	-0,235	-0,234
62,203	-17,683	-0,283	-0,125
63,217	-5,904	-0,349	-0,167
64,232	-26,647	-0,476	-0,195
65,247	182,425	-0,217	-0,226
66,261	13,340	-0,457	-0,249
67,276	87,383	-0,359	-0,279
68,290	19,522	-0,438	-0,247
69,305	14,024	-0,331	-0,181
70,320	-31,526	-0,343	-0,135
71,334	185,989	-0,245	-0,256
72,349	-10,654	-0,475	-0,220
73,363	-44,515	-0,379	-0,133
74,378	163,942	-0,309	-0,306
75,393	-16,478	-0,339	-0,150
76,407	-61,613	-0,217	-0,064
77,422	-11,850	-0,419	-0,193
78,436	-83,674	-0,306	-0,068
79,451	163,922	-0,269	-0,267
80,466	502,168	-0,187	-0,305
81,480	93,762	-0,354	-0,282
82,495	199,236	-0,201	-0,217
83,509	269,357	-0,179	-0,221
84,524	157,220	-0,183	-0,177
85,539	140,543	-0,256	-0,237
86,553	-15,105	-0,451	-0,202
87,568	-111,665	-0,353	-0,050
88,582	168,163	-0,277	-0,277
89,597	9,108	-0,329	-0,174
90,611	202,163	-0,193	-0,209
91,626	25,400	-0,255	-0,148
92,641	56,922	-0,298	-0,204
93,655	-189,070	-0,253	0,002
94,670	-13,350	-0,265	-0,120
95,684	202,976	-0,293	-0,318
96,699	4,038	-0,430	-0,220
97,714	103,859	-0,275	-0,227
98,728	84,911	-0,325	-0,249
99,743	-54,326	-0,294	-0,093
100,757	108,143	-0,251	-0,210
101,772	-37,044	-0,362	-0,135
102,787	314,278	-0,166	-0,219
103,801	-68,509	-0,365	-0,099
104,816	43,143	-0,339	-0,216
105,830	127,163	-0,264	-0,235
106,845	58,713	-0,287	-0,197
107,860	67,004	-0,235	-0,168
108,874	55,399	-0,188	-0,127
109,889	127,464	-0,309	-0,275
110,903	331,656	-0,221	-0,300
111,918	177,006	-0,274	-0,280
112,933	221,825	-0,149	-0,168
113,947	19,645	-0,266	-0,150
114,962	161,085	-0,152	-0,149
115,976	-55,133	-0,336	-0,105
116,991	111,137	-0,310	-0,261
118,006	59,531	-0,295	-0,204
119,020	255,694	-0,212	-0,255
120,035	90,866	-0,209	-0,164
121,049	155,521	-0,258	-0,249
122,064	85,043	-0,284	-0,218
123,079	290,516	-0,193	-0,246
124,093	57,208	-0,275	-0,188
125,108	800,000	-0,105	-0,215
126,122	182,721	-0,199	-0,206
127,137	74,435	-0,276	-0,203
128,151	146,374	-0,192	-0,180
129,166	70,324	-0,225	-0,162
130,181	40,906	-0,330	-0,208
131,195	219,564	-0,218	-0,244
132,210	228,810	-0,243	-0,277
133,224	397,078	-0,181	-0,265
134,239	93,477	-0,303	-0,240
135,254	275,168	-0,196	-0,243
136,268	134,040	-0,199	-0,180
137,283	67,269	-0,216	-0,154
138,297	165,479	-0,120	-0,118
139,312	62,701	-0,300	-0,210
140,327	43,937	-0,289	-0,184
141,341	64,283	-0,167	-0,118
142,356	248,687	-0,196	-0,232
143,370	53,397	-0,269	-0,180
144,385	172,733	-0,252	-0,254
145,400	-4,900	-0,252	-0,121
146,414	-65,104	-0,280	0,078
147,429	158,224	-0,233	-0,226
148,443	68,967	-0,201	-0,144
149,458	153,481	-0,169	-0,162
150,473	122,205	-0,281	-0,245
151,487	-74,629	-0,329	-0,082
152,502	800,000	-0,155	-0,302
153,516	117,510	-0,291	-0,250
154,531	101,611	-0,283	-0,230
155,546	12,502	-0,192	-0,103
156,560	-197,761	-0,233	-0,001
157,575	48,658	-0,192	-0,126
158,589	12,967	-0,375	-0,202
159,604	182,965	-0,217	-0,224
160,619	144,256	-0,268	-0,250
161,633	123,397	-0,197	-0,172
162,648	162,703	-0,248	-0,243
163,662	800,000	-0,161	-0,330
164,677	-109,079	-0,073	-0,011
165,692	55,329	-0,097	0,066
166,706	18,660	-0,208	-0,116
167,721	288,749	-0,186	-0,236
168,735	77,074	-0,196	-0,145
169,750	20,562	-0,258	-0,145
170,764	285,876	-0,210	-0,265
171,779	-54,193	-0,276	-0,087
172,794	159,735	-0,167	-0,162
173,808	24,781	-0,191	-0,110
174,823	88,650	-0,286	-0,221
175,837	11,422	-0,212	-0,113
176,852	296,318	-0,292	-0,374
177,867	40,674	-0,186	-0,117
178,881	257,876	-0,163	-0,195
179,896	664,484	-0,140	-0,253
180,910	166,240	-0,257	-0,254
181,925	190,802	-0,229	-0,240
182,940	113,734	-0,144	-0,122
183,954	146,426	-0,229	-0,214
184,969	71,101	-0,350	-0,252
185,983	-97,982	-0,209	-0,037
186,998	93,071	-0,267	-0,210
188,013	253,469	-0,180	-0,214
189,027	-125,275	-0,267	-0,028
190,042	45,302	-0,384	-0,246
191,056	-123,602	-0,282	-0,031
192,071	-31,174	-0,248	-0,097
193,086	138,341	-0,154	-0,141
194,100	17,886	-0,219	-0,121
195,115	-71,948	-0,266	-0,068
196,129	-200,000	-0,043	-0,172
197,144	800,000	-0,158	-0,355
198,159	-102,921	-0,264	-0,043
199,173	268,003	-0,213	-0,260
200,188	234,870	-0,144	-0,166
201,202	-50,956	-0,123	-0,040
202,217	-139,286	-0,207	-0,015
203,232	-154,611	-0,307	0,014
204,246	42,353	-0,200	-0,126
205,261	81,067	-0,186	-0,139
206,275	620,003	-0,104	-0,183
207,290	191,364	-0,234	-0,245
208,304	-3,079	-0,138	-0,067
209,319	88,209	-0,170	-0,131
210,334	10,556	-0,221	-0,117
211,348	-19,473	-0,211	-0,091
212,363	-21,804	-0,228	-0,096
213,377	-45,347	-0,318	-0,109
214,392	402,231	-0,184	-0,270
215,407	349,327	-0,120	-0,165
216,421	-166,467	-0,151	0,004
217,436	-22,896	-0,195	-0,081
218,450	800,000	-0,076	-0,196
219,465	39,963	-0,256	-0,160
220,480	78,686	-0,174	-0,129
221,494	448,726	-0,052	-0,080
222,509	65,820	-0,221	-0,155
223,523	-83,304	-0,193	-0,043
224,538	48,136	-0,167	-0,108
225,553	65,765	-0,122	-0,086
226,567	-55,936	-0,480	-0,148
227,582	96,447	-0,213	-0,169
228,596	348,894	-0,140	-0,193
229,611	-77,118	-0,225	-0,054
230,626	309,770	-0,133	-0,173
231,640	124,521	-0,173	-0,151
232,655	26,958	-0,214	-0,124
233,669	65,312	-0,243	-0,170
234,684	391,038	-0,199	-0,287
235,699	28,179	-0,160	-0,093
236,713	59,996	-0,156	-0,107
237,728	88,724	-0,234	-0,180
238,742	99,637	-0,212	-0,170
239,757	-118,149	-0,151	-0,018
240,772	33,642	-0,270	-0,162
241,786	200,572	-0,178	-0,190
242,801	-200,000	-0,045	-0,155
243,815	-47,077	-0,175	-0,059
244,830	-200,000	-0,011	-0,118
245,844	800,000	-0,070	-0,196
246,859	-72,282	-0,305	-0,078
247,874	-122,384	-0,110	-0,012
248,888	26,031	-0,227	-0,131
249,903	-114,760	-0,122	-0,016
250,917	-200,000	-0,058	-0,232
251,932	-91,327	-0,192	0,038
252,947	-59,593	-0,095	-0,028
253,961	20,585	-0,282	-0,158
254,976	-52,538	-0,202	-0,064
255,990	212,298	-0,177	-0,193
257,005	105,281	-0,087	-0,071
258,020	-72,830	-0,293	-0,074
259,034	29,358	-0,120	0,070
260,049	-86,272	-0,269	-0,057
261,063	164,687	-0,177	-0,173
262,078	328,157	-0,231	-0,308
263,093	133,458	-0,214	-0,191
264,107	149,382	-0,154	-0,144
265,122	-84,568	-0,122	-0,026
266,136	-111,139	-0,102	0,014
267,151	-200,000	-0,053	-0,179
268,166	-200,000	-0,025	-0,152
269,180	108,958	-0,213	-0,176
270,195	262,229	-0,139	-0,167
271,209	149,785	-0,192	-0,180
272,224	-64,210	-0,134	0,037
273,239	66,425	-0,123	-0,086
274,253	190,219	-0,125	-0,130
275,268	154,118	-0,163	-0,154
276,282	726,888	-0,091	-0,169
277,297	800,000	-0,065	-0,157
278,312	199,694	-0,073	0,077
279,326	217,909	-0,061	-0,067
280,341	14,605	-0,134	-0,072
281,355	-98,726	-0,200	-0,035
282,370	35,766	-0,217	-0,132
283,384	172,510	-0,175	-0,173
284,399	92,352	-0,224	-0,175
285,414	80,069	-0,064	-0,048
286,428	-21,358	-0,204	-0,086
287,443	-110,933	-0,097	-0,014
288,457	-55,523	-0,206	0,063
289,472	-47,922	-0,204	-0,068
290,487	-116,064	-0,188	0,024
291,501	-31,722	-0,231	-0,089
292,516	179,289	-0,206	-0,208
293,530	-200,000	-0,001	-0,084
294,545	42,691	-0,118	0,074
295,560	-152,576	-0,117	0,006
296,574	-9,306	-0,261	-0,120
297,589	371,056	-0,195	-0,274
298,603	152,955	-0,256	-0,241
299,618	-37,651	-0,175	-0,064
300,633	-70,927	-0,182	-0,047
301,647	-106,536	-0,141	-0,021
302,662	-200,000	0,009	-0,054
303,676	-92,269	-0,046	-0,009
304,691	455,602	-0,055	-0,084
305,706	-0,776	-0,153	-0,074
306,720	2,512	-0,070	0,035
307,735	-27,960	-0,122	-0,048
308,749	191,967	-0,043	-0,045
309,764	189,773	-0,118	0,122
310,779	-25,239	-0,105	-0,043
311,793	171,651	-0,219	-0,216
312,808	289,629	-0,166	-0,208
313,822	-200,000	-0,024	-0,084
314,837	800,000	-0,050	-0,120
315,852	-20,561	-0,196	-0,083
316,866	170,736	-0,158	-0,156
317,881	742,088	-0,085	-0,158
318,895	468,706	-0,081	-0,126
319,910	-182,593	-0,249	-0,003
320,925	-97,879	-0,287	-0,051
321,939	210,633	-0,160	-0,173
322,954	517,905	-0,086	-0,139
323,968	355,532	-0,160	-0,220
324,983	104,134	-0,196	-0,158
325,997	62,103	-0,256	-0,175
327,012	-12,349	-0,176	-0,079
328,027	24,890	-0,153	-0,087
329,041	411,209	-0,155	-0,227
330,056	-80,660	-0,082	-0,019
331,070	-73,455	-0,170	0,042
332,085	-3,116	-0,158	-0,076
333,100	628,184	-0,035	-0,061
334,114	34,723	-0,067	-0,040
335,129	170,479	-0,125	-0,123
336,143	-113,421	-0,154	-0,021
337,158	800,000	0,022	0,052
338,173	-50,715	-0,060	-0,019
339,187	-92,511	-0,126	0,024
340,202	-69,380	-0,051	0,013
341,216	168,967	-0,109	-0,107
342,231	-58,525	-0,180	-0,053
343,246	57,492	-0,137	-0,092
344,260	-150,120	-0,184	-0,010
345,275	42,919	-0,130	-0,081
346,289	152,491	-0,133	-0,125
347,304	180,326	-0,099	-0,100
348,319	91,850	-0,074	-0,057
349,333	800,000	-0,102	-0,244
350,348	149,169	-0,125	-0,116
351,362	45,127	-0,130	0,082
352,377	-103,311	-0,026	-0,004
353,392	268,608	-0,108	-0,130
354,406	-3,809	-0,098	-0,047
355,421	209,756	1312,858	1413,888
356,435	161,446	1473,359	1414,369
