DTS Sentinel unit serial number:	SN410029Multiplexer serial number:	ORYXHardware model number:	OX2-SRSoftware version number:	ORYX F/W v4,00 Oryx Data Collector v3.7.2.0data status	okinstallation	B3 Nyhavnadifferential loss correction	single-endedforward channel	channel 1reverse channel	N/Adate	2023/11/30time	09:57:30forward acquisition time	300,00reverse acquisition time	0,00gamma	499,1914k internal	0,3211k external	0,3211temperature offset calibration	1,0000default loss term (dB/km)	0,3820temperature slope calibration	1,0000multiplexer offset coefficient	1,0000multiplexer slope coefficient	1,0000fibre end	0,00T internal ref (°C)	9,55T ext. ref 1 (°C)	-5,27T ext. ref 2 (°C)	-5,36length (m)	temperature (°C)	Stokes	anti-Stokes-744,400	363,965	-0,160	-0,234
-743,385	-200,000	-0,035	0,151
-742,371	329,667	-0,140	-0,195
-741,356	-200,000	-0,014	0,294
-740,342	219,468	-0,232	-0,270
-739,327	-200,000	-0,049	0,273
-738,312	-0,621	-0,352	-0,180
-737,298	-200,000	-0,024	0,092
-736,283	549,633	-0,110	-0,193
-735,269	-200,000	0,019	0,238
-734,254	370,565	-0,185	-0,273
-733,239	29,482	-0,228	0,140
-732,225	88,737	-0,222	-0,179
-731,210	109,618	0,128	0,111
-730,196	361,272	0,072	-0,105
-729,181	-165,372	-0,103	-0,003
-728,167	-28,432	0,074	0,031
-727,152	-150,216	-0,130	0,007
-726,137	-200,000	-0,002	-0,144
-725,123	239,622	-0,099	-0,119
-724,108	-70,825	-0,108	-0,029
-723,094	175,241	0,016	0,017
-722,079	-40,526	-0,164	0,061
-721,064	-99,440	0,130	-0,024
-720,050	800,000	-0,006	0,011
-719,035	-121,691	-0,068	0,008
-718,021	106,447	-0,091	0,078
-717,006	176,771	-0,074	-0,078
-715,991	6,546	-0,113	-0,060
-714,977	-200,000	-0,033	0,217
-713,962	394,587	0,046	0,069
-712,948	-51,562	-0,068	0,023
-711,933	-200,000	0,067	0,218
-710,918	-200,000	-0,003	0,011
-709,904	25,906	-0,034	-0,021
-708,889	800,000	0,025	-0,074
-707,875	299,042	-0,090	-0,120
-706,860	800,000	0,027	-0,055
-705,845	258,005	0,048	0,060
-704,831	-200,000	0,013	0,085
-703,816	-200,000	-0,007	0,059
-702,802	-21,753	-0,093	-0,041
-701,787	-3,738	0,150	-0,075
-700,772	-42,388	-0,046	0,017
-699,758	800,000	0,034	-0,101
-698,743	-200,000	-0,039	0,169
-697,729	-200,000	0,006	-0,074
-696,714	555,111	0,021	0,037
-695,699	800,000	-0,067	-0,168
-694,685	-100,150	-0,074	-0,013
-693,670	-89,359	-0,132	-0,028
-692,656	-200,000	0,003	-0,044
-691,641	-83,058	-0,109	0,025
-690,627	-19,412	0,076	-0,034
-689,612	690,483	0,025	0,048
-688,597	-200,000	0,004	-0,215
-687,583	33,699	-0,099	-0,062
-686,568	458,541	-0,033	-0,053
-685,554	800,000	-0,083	-0,167
-684,539	14,257	0,093	0,052
-683,524	800,000	0,034	0,098
-682,510	485,819	0,041	0,068
-681,495	42,191	-0,065	0,043
-680,481	-200,000	-0,019	-0,181
-679,466	200,597	-0,193	-0,215
-678,451	122,279	0,071	-0,064
-677,437	-200,000	-0,023	0,082
-676,422	-200,000	-0,022	0,089
-675,408	-157,556	0,140	-0,006
-674,393	-132,612	-0,092	0,008
-673,378	-200,000	0,003	0,041
-672,364	-200,000	0,036	-0,154
-671,349	-39,512	-0,110	-0,041
-670,335	-46,455	0,096	0,034
-669,320	12,473	-0,182	0,101
-668,305	800,000	0,049	-0,127
-667,291	800,000	0,005	-0,011
-666,276	-139,286	-0,026	0,002
-665,262	214,213	-0,029	0,033
-664,247	-139,430	0,155	-0,012
-663,232	-144,411	-0,126	0,008
-662,218	-200,000	-0,026	-0,089
-661,203	17,303	0,058	-0,033
-660,189	279,844	-0,030	-0,038
-659,174	149,382	-0,101	-0,098
-658,159	40,491	-0,090	-0,058
-657,145	-200,000	0,005	-0,032
-656,130	-189,058	0,062	-0,001
-655,116	-14,065	0,112	0,052
-654,101	800,000	0,029	-0,092
-653,086	66,068	-0,056	0,041
-652,072	55,445	0,094	-0,066
-651,057	-118,334	-0,117	0,015
-650,043	800,000	-0,035	-0,072
-649,028	-200,000	0,016	-0,071
-648,014	800,000	-0,036	0,077
-646,999	72,369	0,089	0,067
-645,984	800,000	0,026	0,068
-644,970	-127,952	0,055	0,006
-643,955	-200,000	-0,028	-0,102
-642,941	29,799	-0,115	0,071
-641,926	-111,132	0,049	-0,007
-640,911	439,786	0,060	0,095
-639,897	-200,000	-0,018	-0,080
-638,882	34,021	0,123	-0,077
-637,868	233,605	-0,040	0,048
-636,853	-109,778	-0,183	-0,027
-635,838	-45,988	0,092	-0,032
-634,824	-76,990	-0,124	-0,031
-633,809	293,461	0,045	-0,059
-632,795	128,154	0,070	0,064
-631,780	72,304	-0,077	-0,058
-630,765	-29,843	0,079	-0,032
-629,751	800,000	0,007	-0,019
-628,736	153,023	-0,102	-0,101
-627,722	-200,000	0,028	-0,135
-626,707	75,616	-0,038	0,029
-625,692	-200,000	-0,008	-0,043
-624,678	800,000	0,034	0,072
-623,663	-123,037	0,088	0,010
-622,649	800,000	-0,028	-0,063
-621,634	-200,000	-0,031	-0,117
-620,619	-13,449	-0,021	-0,010
-619,605	205,141	0,065	-0,073
-618,590	3,346	-0,112	0,059
-617,576	175,369	-0,135	-0,141
-616,561	-21,574	0,111	-0,048
-615,546	-200,000	-0,038	-0,127
-614,532	-89,355	0,149	-0,031
-613,517	604,000	0,010	-0,018
-612,503	100,285	0,042	0,035
-611,488	407,695	-0,018	0,028
-610,474	800,000	0,015	0,048
-609,459	-110,884	0,015	0,002
-608,444	-108,908	-0,109	-0,017
-607,430	301,955	-0,114	-0,152
-606,415	-26,028	-0,057	0,024
-605,401	-65,228	0,077	0,022
-604,386	800,000	0,048	0,103
-603,371	-9,913	0,149	-0,071
-602,357	122,869	-0,165	0,149
-601,342	643,874	0,046	-0,085
-600,328	205,900	0,049	0,055
-599,313	49,004	-0,069	0,046
-598,298	80,753	0,034	-0,026
-597,284	-200,000	-0,031	0,103
-596,269	-200,000	0,009	0,103
-595,255	20,897	0,052	0,030
-594,240	800,000	0,093	-0,197
-593,225	800,000	-0,039	-0,101
-592,211	-53,421	0,083	-0,027
-591,196	98,701	-0,043	0,036
-590,182	35,016	0,106	-0,067
-589,167	299,116	-0,099	0,132
-588,152	21,721	-0,109	0,064
-587,138	-51,548	-0,095	-0,032
-586,123	-103,425	-0,055	-0,009
-585,109	-52,585	-0,164	-0,054
-584,094	121,327	-0,040	0,036
-583,079	-53,624	-0,065	0,021
-582,065	-200,000	-0,005	0,122
-581,050	-65,635	0,094	-0,027
-580,036	-52,309	0,062	0,021
-579,021	49,575	-0,050	0,034
-578,006	-200,000	0,034	-0,129
-576,992	-144,424	-0,029	-0,002
-575,977	171,854	-0,038	-0,039
-574,963	800,000	0,029	0,087
-573,948	490,406	-0,003	-0,005
-572,934	800,000	-0,035	-0,109
-571,919	800,000	-0,033	-0,091
-570,904	-200,000	-0,037	0,147
-569,890	-89,792	-0,188	0,039
-568,875	-67,934	0,132	0,037
-567,861	16,356	0,190	-0,108
-566,846	685,333	0,033	0,062
-565,831	189,008	-0,074	-0,080
-564,817	-23,264	0,047	-0,020
-563,802	182,666	-0,098	0,104
-562,788	800,000	-0,031	-0,063
-561,773	800,000	-0,022	0,059
-560,758	-56,985	-0,126	0,040
-559,744	-200,000	0,005	-0,029
-558,729	25,862	-0,037	0,022
-557,715	-200,000	0,003	-0,017
-556,700	532,613	-0,016	-0,027
-555,685	-158,090	-0,218	0,009
-554,671	-200,000	0,035	0,198
-553,656	6,487	0,134	-0,071
-552,642	-200,000	0,011	0,108
-551,627	-200,000	-0,003	-0,018
-550,612	324,157	-0,068	-0,094
-549,598	782,014	-0,018	0,036
-548,583	-144,047	-0,059	0,004
-547,569	292,687	0,013	-0,018
-546,554	-104,256	0,071	0,012
-545,539	-68,616	0,076	0,021
-544,525	227,985	0,103	0,121
-543,510	-51,893	-0,132	-0,044
-542,496	153,703	-0,052	-0,052
-541,481	-200,000	-0,006	0,045
-540,466	-128,213	-0,073	-0,007
-539,452	190,028	0,031	0,034
-538,437	131,799	0,098	0,091
-537,423	800,000	0,049	0,150
-536,408	-200,000	-0,031	-0,120
-535,393	-200,000	-0,009	-0,054
-534,379	-200,000	0,005	-0,029
-533,364	88,390	-0,071	-0,057
-532,350	76,055	0,107	0,082
-531,335	190,619	-0,043	-0,046
-530,321	-45,254	-0,037	0,013
-529,306	800,000	0,025	-0,065
-528,291	7,248	-0,017	0,009
-527,277	-200,000	0,006	-0,144
-526,262	246,432	0,069	0,084
-525,248	-200,000	0,020	0,184
-524,233	-124,921	-0,072	-0,008
-523,218	-200,000	0,007	0,028
-522,204	-89,024	-0,049	-0,010
-521,189	-200,000	-0,016	-0,114
-520,175	-39,728	0,072	0,027
-519,160	800,000	-0,044	0,096
-518,145	538,630	-0,035	-0,061
-517,131	180,720	-0,099	-0,104
-516,116	-51,749	0,140	0,047
-515,102	243,447	0,035	0,042
-514,087	-200,000	-0,011	-0,044
-513,072	-40,418	-0,053	0,020
-512,058	800,000	0,057	0,159
-511,043	185,387	0,057	0,060
-510,029	-176,648	0,199	0,004
-509,014	606,900	0,026	0,046
-507,999	800,000	-0,031	-0,068
-506,985	-64,789	0,030	-0,009
-505,970	-200,000	-0,010	-0,041
-504,956	99,093	0,070	-0,058
-503,941	-26,008	-0,091	0,038
-502,926	290,339	0,083	0,109
-501,912	-200,000	-0,036	0,181
-500,897	-200,000	-0,051	-0,212
-499,883	76,487	-0,087	-0,066
-498,868	800,000	-0,029	0,088
-497,853	192,535	0,055	0,060
-496,839	449,782	0,020	-0,032
-495,824	547,851	-0,038	-0,066
-494,810	382,727	0,029	0,043
-493,795	-44,483	-0,032	0,011
-492,781	-200,000	-0,015	0,158
-491,766	66,754	0,008	0,006
-490,751	318,437	-0,031	0,043
-489,737	-200,000	-0,028	-0,119
-488,722	202,341	0,034	0,038
-487,708	-192,442	-0,096	-0,001
-486,693	-200,000	-0,011	0,047
-485,678	-9,177	-0,085	0,040
-484,664	-21,049	0,045	0,020
-483,649	108,666	0,072	0,062
-482,635	52,758	0,025	-0,017
-481,620	-200,000	-0,014	0,103
-480,605	384,247	0,055	-0,082
-479,591	443,183	-0,019	0,029
-478,576	464,907	0,046	-0,074
-477,562	-200,000	-0,017	-0,062
-476,547	422,660	-0,059	-0,091
-475,532	-200,000	0,001	-0,073
-474,518	223,156	-0,023	0,027
-473,503	393,274	0,067	-0,101
-472,489	702,813	0,042	0,079
-471,474	-41,327	-0,083	0,030
-470,459	-114,053	0,061	-0,008
-469,445	766,824	0,046	-0,090
-468,430	796,810	-0,103	-0,204
-467,416	146,156	0,059	0,057
-466,401	-65,353	0,182	0,052
-465,386	-200,000	0,003	0,120
-464,372	-129,906	-0,105	-0,010
-463,357	190,729	0,030	-0,033
-462,343	124,923	-0,046	0,041
-461,328	-50,140	-0,042	-0,014
-460,313	119,971	-0,051	0,045
-459,299	75,557	-0,082	0,062
-458,284	476,167	-0,041	0,067
-457,270	401,537	0,057	-0,086
-456,255	-59,842	-0,021	-0,006
-455,241	109,454	-0,072	0,062
-454,226	-11,262	-0,098	-0,046
-453,211	-200,000	0,005	0,031
-452,197	800,000	0,028	-0,062
-451,182	184,137	0,114	0,121
-450,168	458,330	0,099	0,159
-449,153	132,615	-0,061	0,056
-448,138	259,510	-0,090	-0,112
-447,124	-10,020	0,043	0,020
-446,109	447,374	0,006	-0,010
-445,095	-4,671	0,158	-0,078
-444,080	99,637	0,056	-0,046
-443,065	31,507	-0,044	0,027
-442,051	276,310	-0,083	-0,106
-441,036	-200,000	0,036	-0,123
-440,022	511,530	0,032	-0,053
-439,007	103,809	0,188	-0,158
-437,992	36,627	0,099	0,062
-436,978	412,736	-0,045	0,069
-435,963	800,000	-0,010	-0,021
-434,949	32,556	0,042	0,026
-433,934	800,000	-0,049	-0,132
-432,919	75,465	-0,034	-0,026
-431,905	405,238	0,035	0,053
-430,890	60,441	-0,025	0,018
-429,876	800,000	0,081	-0,208
-428,861	-200,000	-0,031	-0,129
-427,846	395,842	0,085	0,128
-426,832	-0,751	-0,139	-0,070
-425,817	-200,000	-0,016	-0,054
-424,803	800,000	-0,027	0,054
-423,788	407,948	-0,077	-0,117
-422,773	-200,000	-0,023	0,160
-421,759	-90,096	0,007	-0,002
-420,744	53,232	-0,063	0,043
-419,730	-110,005	0,200	-0,030
-418,715	-84,588	0,073	-0,016
-417,701	-123,762	0,081	-0,009
-416,686	130,870	-0,028	0,026
-415,671	311,702	-0,039	-0,052
-414,657	-200,000	-0,025	-0,098
-413,642	-200,000	-0,012	-0,056
-412,628	800,000	0,037	0,102
-411,613	181,648	-0,158	-0,167
-410,598	21,010	0,054	0,031
-409,584	-103,943	0,204	0,034
-408,569	518,127	-0,025	0,043
-407,555	287,884	-0,031	-0,040
-406,540	484,357	-0,038	0,062
-405,525	464,497	-0,104	-0,167
-404,511	800,000	0,061	-0,154
-403,496	84,207	-0,027	0,021
-402,482	800,000	-0,019	0,050
-401,467	-200,000	0,013	0,063
-400,452	-35,946	-0,143	0,055
-399,438	71,355	0,107	0,079
-398,423	24,531	0,024	0,014
-397,409	69,446	0,066	-0,049
-396,394	-65,127	-0,102	-0,029
-395,379	372,080	0,051	0,075
-394,365	-3,004	0,043	-0,021
-393,350	-200,000	0,009	-0,068
-392,336	529,531	0,039	-0,066
-391,321	372,577	0,043	0,063
-390,306	-52,957	-0,063	0,021
-389,292	-200,000	0,008	-0,068
-388,277	57,371	-0,077	0,054
-387,263	-20,176	0,077	0,034
-386,248	-123,953	0,033	0,004
-385,233	800,000	0,034	-0,081
-384,219	-30,608	-0,093	-0,037
-383,204	-200,000	0,000	0,038
-382,190	99,418	-0,015	-0,012
-381,175	170,212	-0,065	0,066
-380,160	-61,118	0,019	-0,006
-379,146	681,061	0,042	0,079
-378,131	496,585	0,073	0,120
-377,117	102,424	0,076	-0,063
-376,102	-200,000	0,017	-0,072
-375,088	-100,307	-0,064	-0,011
-374,073	-200,000	-0,005	-0,112
-373,058	374,428	0,044	-0,064
-372,044	617,200	-0,018	0,032
-371,029	112,742	0,042	0,036
-370,015	800,000	-0,043	0,107
-369,000	-85,743	-0,093	0,021
-367,985	800,000	0,014	-0,036
-366,971	228,744	-0,018	-0,021
-365,956	-30,977	0,087	-0,035
-364,942	-20,056	-0,093	0,041
-363,927	635,699	0,055	0,100
-362,912	58,019	-0,082	0,057
-361,898	287,829	0,061	0,079
-360,883	193,890	-0,098	-0,106
-359,869	-54,489	-0,120	-0,039
-358,854	25,093	-0,092	0,054
-357,839	-166,117	-0,086	-0,003
-356,825	-200,000	0,008	0,115
-355,810	-200,000	-0,034	0,114
-354,796	800,000	0,073	0,168
-353,781	-200,000	0,019	-0,086
-352,766	-98,800	-0,058	-0,010
-351,752	-95,134	0,075	0,014
-350,737	42,269	-0,077	0,050
-349,723	243,700	0,038	0,045
-348,708	127,895	0,146	0,132
-347,693	-31,496	-0,111	0,044
-346,679	-101,298	-0,088	-0,015
-345,664	172,667	0,005	-0,005
-344,650	800,000	-0,012	0,026
-343,635	-40,679	0,072	-0,027
-342,620	-17,315	-0,095	-0,042
-341,606	304,181	-0,050	-0,067
-340,591	60,912	-0,115	-0,081
-339,577	221,127	-0,079	0,090
-338,562	800,000	-0,045	-0,092
-337,548	-175,024	-0,101	0,002
-336,533	-200,000	0,033	-0,151
-335,518	-54,696	-0,031	0,010
-334,504	58,082	0,148	-0,103
-333,489	83,024	-0,036	0,028
-332,475	-200,000	0,004	-0,048
-331,460	35,847	-0,094	-0,059
-330,445	75,126	0,011	0,009
-329,431	-200,000	-0,019	0,072
-328,416	428,146	-0,044	-0,068
-327,402	-200,000	-0,007	0,112
-326,387	800,000	-0,059	0,116
-325,372	-200,000	-0,008	0,073
-324,358	100,693	-0,080	-0,066
-323,343	265,975	-0,077	-0,095
-322,329	54,164	0,140	-0,096
-321,314	322,311	0,019	-0,027
-320,299	178,426	0,079	-0,082
-319,285	-87,463	0,120	-0,026
-318,270	-200,000	-0,024	-0,087
-317,256	94,300	-0,097	-0,078
-316,241	49,271	-0,163	-0,109
-315,226	-200,000	-0,001	0,136
-314,212	-46,397	0,230	0,080
-313,197	693,162	0,058	0,109
-312,183	-162,333	-0,077	0,003
-311,168	34,324	0,054	-0,033
-310,153	-114,677	-0,206	0,028
-309,139	-193,202	0,120	-0,001
-308,124	-200,000	0,029	0,138
-307,110	800,000	0,045	0,139
-306,095	-200,000	0,019	0,072
-305,080	-200,000	0,004	0,134
-304,066	-178,502	-0,073	0,001
-303,051	-200,000	0,008	0,075
-302,037	-147,608	-0,075	0,004
-301,022	-0,306	0,153	0,077
-300,008	-200,000	0,007	0,122
-298,993	-175,281	0,162	-0,003
-297,978	589,195	0,011	-0,019
-296,964	766,312	-0,084	-0,164
-295,949	255,190	-0,055	-0,067
-294,935	15,583	-0,056	0,031
-293,920	-200,000	-0,006	0,072
-292,905	287,905	0,084	0,108
-291,891	82,895	0,039	0,030
-290,876	800,000	0,008	0,022
-289,862	38,721	-0,039	-0,025
-288,847	-200,000	0,005	0,049
-287,832	-57,514	-0,198	-0,062
-286,818	2,790	-0,072	-0,037
-285,803	5,241	0,182	0,095
-284,789	800,000	-0,033	0,074
-283,774	62,801	0,081	-0,058
-282,759	17,824	0,071	-0,040
-281,745	291,896	0,029	0,038
-280,730	800,000	-0,038	-0,105
-279,716	-200,000	0,047	0,158
-278,701	324,245	0,026	0,036
-277,686	-69,825	0,087	-0,024
-276,672	-103,332	-0,053	0,009
-275,657	643,680	-0,050	-0,092
-274,643	30,241	-0,110	0,067
-273,628	44,836	0,091	-0,060
-272,613	47,064	-0,009	0,006
-271,599	217,451	0,023	0,027
-270,584	-200,000	-0,003	-0,033
-269,570	-52,901	0,090	-0,029
-268,555	-200,000	-0,059	-0,229
-267,540	-26,584	-0,153	-0,063
-266,526	-200,000	0,033	-0,154
-265,511	800,000	-0,043	-0,123
-264,497	-47,496	0,174	-0,060
-263,482	-43,706	-0,075	-0,027
-262,467	800,000	-0,024	-0,069
-261,453	-44,674	-0,041	0,015
-260,438	-85,487	0,176	-0,039
-259,424	-200,000	-0,031	0,104
-258,409	667,062	-0,039	-0,072
-257,395	-200,000	-0,003	-0,044
-256,380	169,156	0,043	-0,043
-255,365	-122,190	0,090	0,010
-254,351	527,410	-0,069	0,117
-253,336	-133,782	-0,095	-0,008
-252,322	-58,527	0,115	-0,035
-251,307	-200,000	-0,017	-0,064
-250,292	-200,000	-0,003	0,035
-249,278	-200,000	0,009	0,054
-248,263	800,000	-0,015	0,035
-247,249	414,590	-0,036	0,054
-246,234	-109,509	0,029	0,004
-245,219	-200,000	0,024	-0,195
-244,205	73,008	-0,058	0,043
-243,190	205,984	0,086	0,095
-242,176	800,000	0,019	-0,046
-241,161	43,045	-0,057	0,037
-240,146	-200,000	-0,005	0,116
-239,132	-39,104	-0,018	0,007
-238,117	-67,138	-0,099	-0,028
-237,103	-200,000	0,006	-0,051
-236,088	355,890	-0,067	-0,096
-235,073	-200,000	0,002	0,099
-234,059	119,366	0,046	-0,040
-233,044	-127,708	0,088	0,009
-232,030	-162,629	0,097	-0,003
-231,015	800,000	0,034	0,088
-230,000	-200,000	0,000	-0,046
-228,986	-200,000	-0,014	-0,088
-227,971	406,966	0,065	-0,098
-226,957	123,068	0,073	0,065
-225,942	198,601	0,044	-0,048
-224,927	-78,900	-0,104	0,025
-223,913	153,068	0,021	0,020
-222,898	-200,000	0,010	0,156
-221,884	800,000	0,041	0,101
-220,869	-92,663	0,103	-0,020
-219,855	-156,330	-0,023	0,001
-218,840	476,688	0,056	0,090
-217,825	-66,689	-0,058	-0,016
-216,811	89,353	-0,148	-0,117
-215,796	-77,305	0,037	0,009
-214,782	-110,713	-0,146	-0,021
-213,767	800,000	0,023	0,051
-212,752	-125,937	0,157	0,017
-211,738	-200,000	-0,008	-0,026
-210,723	800,000	-0,019	0,044
-209,709	11,472	-0,077	-0,042
-208,694	-200,000	-0,007	-0,058
-207,679	-200,000	0,017	-0,065
-206,665	-56,292	0,148	0,046
-205,650	-126,157	0,091	-0,010
-204,636	-45,646	0,068	-0,024
-203,621	-200,000	-0,009	0,067
-202,606	-200,000	0,020	0,076
-201,592	800,000	0,037	0,077
-200,577	-151,040	0,152	-0,008
-199,563	800,000	-0,049	0,124
-198,548	-43,927	-0,107	-0,038
-197,533	800,000	0,079	0,164
-196,519	274,690	0,086	0,108
-195,504	315,812	0,005	-0,007
-194,490	-13,352	0,076	0,035
-193,475	800,000	0,018	-0,044
-192,460	-81,347	0,143	0,033
-191,446	-200,000	0,024	-0,118
-190,431	51,094	-0,021	-0,014
-189,417	41,195	0,067	-0,043
-188,402	-200,000	0,016	-0,053
-187,387	394,819	-0,055	-0,082
-186,373	86,937	0,062	-0,048
-185,358	-34,478	-0,077	-0,030
-184,344	76,165	-0,070	0,052
-183,329	-134,690	0,075	0,006
-182,315	415,648	0,044	0,066
-181,300	-104,637	0,062	0,010
-180,285	-63,537	-0,074	-0,021
-179,271	800,000	-0,063	-0,130
-178,256	800,000	-0,084	0,178
-177,242	800,000	0,049	-0,133
-176,227	-34,322	0,103	0,040
-175,212	-8,064	0,100	-0,047
-174,198	-200,000	0,016	0,068
-173,183	328,981	-0,026	0,035
-172,169	-200,000	-0,016	0,078
-171,154	-90,675	-0,090	-0,018
-170,139	21,985	-0,093	-0,054
-169,125	-36,668	0,052	-0,020
-168,110	-18,292	0,061	0,027
-167,096	2,778	0,120	-0,062
-166,081	2,989	-0,108	-0,055
-165,066	-44,204	-0,073	-0,026
-164,052	362,464	0,073	-0,104
-163,037	-200,000	-0,036	0,169
-162,023	239,301	-0,116	0,137
-161,008	-200,000	-0,008	0,056
-159,993	646,018	0,019	-0,035
-158,979	-56,458	-0,123	-0,038
-157,964	-200,000	0,003	-0,126
-156,950	90,395	0,095	-0,075
-155,935	131,764	-0,057	0,052
-154,920	22,026	0,040	0,023
-153,906	-200,000	-0,019	0,173
-152,891	-130,263	-0,080	0,008
-151,877	800,000	-0,030	-0,062
-150,862	-124,496	-0,129	-0,014
-149,847	-33,932	0,057	0,022
-148,833	631,913	-0,024	0,043
-147,818	88,788	0,080	-0,063
-146,804	26,393	-0,052	0,031
-145,789	-179,558	0,157	0,002
-144,775	800,000	-0,028	0,055
-143,760	-18,565	-0,170	0,075
-142,745	5,159	-0,097	-0,050
-141,731	-92,944	0,042	0,008
-140,716	247,195	0,022	-0,026
-139,702	660,879	0,085	0,155
-138,687	466,457	0,038	0,060
-137,672	101,150	-0,066	0,054
-136,658	-200,000	-0,020	-0,083
-135,643	-78,805	0,072	0,017
-134,629	-20,806	0,118	0,051
-133,614	-40,698	0,102	-0,037
-132,599	367,126	0,057	-0,082
-131,585	32,095	-0,084	0,051
-130,570	800,000	0,021	-0,059
-129,556	735,288	-0,012	-0,022
-128,541	353,915	-0,069	-0,097
-127,526	-200,000	0,022	-0,089
-126,512	44,355	0,007	-0,005
-125,497	-97,537	-0,081	0,015
-124,483	800,000	-0,032	0,066
-123,468	800,000	-0,024	0,072
-122,453	-85,593	0,099	0,022
-121,439	154,296	0,073	-0,071
-120,424	-78,597	0,086	0,021
-119,410	84,541	-0,032	0,025
-118,395	28,321	0,106	0,063
-117,380	-200,000	-0,002	0,140
-116,366	-48,024	-0,017	0,006
-115,351	-200,000	0,018	-0,074
-114,337	-22,589	-0,181	-0,077
-113,322	115,501	0,023	0,020
-112,307	-200,000	-0,032	0,146
-111,293	-200,000	0,026	0,116
-110,278	239,228	-0,092	0,109
-109,264	478,401	-0,061	-0,098
-108,249	-200,000	0,006	-0,057
-107,234	800,000	-0,008	-0,016
-106,220	713,772	0,024	0,045
-105,205	-200,000	-0,002	-0,062
-104,191	223,677	0,105	-0,120
-103,176	-131,534	-0,084	0,008
-102,162	518,921	-0,014	0,024
-101,147	-200,000	0,013	0,160
-100,132	-66,750	-0,033	-0,009
-99,118	-200,000	-0,009	-0,138
-98,103	800,000	0,033	0,067
-97,089	-47,757	0,089	0,030
-96,074	94,067	0,069	0,056
-95,059	166,144	0,049	-0,050
-94,045	-44,068	-0,073	-0,026
-93,030	-200,000	-0,017	0,158
-92,016	-21,086	-0,068	-0,029
-91,001	-200,000	0,029	-0,123
-89,986	-200,000	0,002	0,044
-88,972	216,696	0,084	0,095
-87,957	-48,025	-0,068	0,023
-86,943	547,052	0,031	-0,053
-85,928	-11,893	-0,046	-0,021
-84,913	71,906	-0,122	0,090
-83,899	435,554	0,045	-0,069
-82,884	800,000	0,040	0,083
-81,870	-200,000	-0,004	0,107
-80,855	-74,504	-0,235	0,059
-79,840	172,404	-0,080	0,081
-78,826	-200,000	-0,199	0,000
-77,811	-117,219	0,090	0,011
-76,797	-157,953	-0,029	0,001
-75,782	103,374	0,151	0,125
-74,767	-28,702	0,050	0,020
-73,753	406,936	0,101	0,152
-72,738	-125,674	-0,104	-0,011
-71,724	55,928	0,034	0,023
-70,709	800,000	-0,089	-0,230
-69,694	-20,839	0,114	0,049
-68,680	800,000	0,019	0,048
-67,665	464,879	-0,048	0,075
-66,651	41,772	0,085	0,055
-65,636	580,291	0,023	-0,041
-64,622	72,307	0,026	-0,019
-63,607	-110,353	-0,110	0,016
-62,592	9,515	0,039	-0,021
-61,578	-135,960	0,116	0,010
-60,563	573,046	0,049	0,086
-59,549	-45,768	-0,135	0,047
-58,534	38,262	-2,081	-1,306
-57,519	418,233	-1,292	-1,956
-56,505	-200,000	-0,307	-4,362
-55,490	345,269	1,085	1,509
-54,476	800,000	5,223	11,294
-53,461	-200,000	21,502	344,216
-52,446	800,000	763,044	2347,149
-51,432	548,996	1662,876	2822,919
-50,417	71,809	1659,587	1216,321
-49,403	17,327	1532,967	856,422
-48,388	11,394	1456,589	785,076
-47,373	19,433	1448,067	818,994
-46,359	14,939	1437,279	791,510
-45,344	9,682	1433,058	764,142
-44,330	9,617	1431,306	762,869
-43,315	9,578	1429,508	761,698
-42,300	9,597	1427,727	760,805
-41,286	9,647	1426,248	760,228
-40,271	9,580	1425,300	759,371
-39,257	9,586	1424,252	758,811
-38,242	9,637	1423,071	758,395
-37,227	9,634	1421,813	757,679
-36,213	9,652	1420,399	756,980
-35,198	9,664	1419,174	756,358
-34,184	9,650	1418,424	755,861
-33,169	9,617	1417,028	754,931
-32,154	9,648	1415,970	754,485
-31,140	9,617	1414,845	753,709
-30,125	9,692	1413,633	753,385
-29,111	9,684	1412,458	752,692
-28,096	9,618	1411,404	751,788
-27,082	9,569	1409,906	750,732
-26,067	9,537	1409,083	750,116
-25,052	9,570	1408,182	749,759
-24,038	9,593	1407,160	749,293
-23,023	9,552	1406,257	748,589
-22,009	9,555	1405,261	748,044
-20,994	9,599	1404,125	747,614
-19,979	9,535	1403,300	746,847
-18,965	9,540	1402,287	746,304
-17,950	9,534	1401,238	745,688
-16,936	9,497	1400,532	745,110
-15,921	9,488	1399,642	744,565
-14,906	9,526	1398,606	744,162
-13,892	9,529	1397,664	743,643
-12,877	9,459	1397,111	742,996
-11,863	9,493	1396,031	742,547
-10,848	9,473	1395,092	741,929
-9,833	9,435	1394,248	741,271
-8,819	9,379	1393,182	740,416
-7,804	9,405	1392,476	740,132
-6,790	9,371	1391,387	739,369
-5,775	9,390	1390,259	738,825
-4,760	9,456	1389,151	738,512
-3,746	9,428	1388,237	737,870
-2,731	9,392	1387,544	737,306
-1,717	9,397	1386,883	736,948
-0,702	9,370	1385,095	735,844
0,313	13,420	1297,212	707,649
1,327	29,403	688,268	411,615
2,342	45,491	119,073	77,390
3,356	2,946	16,526	8,437
4,371	8,297	3,614	1,909
5,386	40,141	1,107	0,700
6,400	563,438	0,282	0,483
7,415	-157,545	-0,200	-0,008
8,429	-20,510	-0,297	-0,128
9,444	127,699	-0,312	-0,279
10,459	123,350	-0,189	-0,167
11,473	9,914	-0,186	-0,099
12,488	124,973	-0,178	-0,158
13,502	-51,027	-0,223	-0,073
14,517	129,282	-0,278	-0,250
15,531	63,581	-0,324	-0,229
16,546	115,863	-0,295	-0,254
17,561	369,422	-0,218	-0,312
18,575	43,279	-0,243	-0,156
19,590	765,951	-0,144	-0,278
20,604	10,115	-0,293	-0,156
21,619	65,847	-0,427	-0,304
22,634	138,563	-0,358	-0,331
23,648	60,741	-0,429	-0,299
24,663	27,821	-0,502	-0,297
25,677	311,783	-0,320	-0,423
26,692	-27,802	-0,488	-0,198
27,707	-50,559	-0,403	-0,133
28,721	-4,033	-0,409	-0,199
29,736	198,763	-0,301	-0,325
30,750	36,508	-0,400	-0,248
31,765	128,333	-0,479	-0,429
32,780	113,364	-0,387	-0,330
33,794	53,361	-0,230	-0,155
34,809	71,733	-0,267	-0,195
35,823	-10,614	-0,233	-0,108
36,838	19,635	-0,420	-0,237
37,853	16,889	-0,329	-0,183
38,867	230,957	-0,374	-0,431
39,882	90,507	-0,348	-0,274
40,896	2,772	-0,305	-0,155
41,911	25,835	-0,256	-0,150
42,926	71,367	-0,356	-0,259
43,940	-21,268	-0,349	-0,149
44,955	159,917	-0,331	-0,325
45,969	260,219	-0,346	-0,421
46,984	233,772	-0,203	-0,236
47,999	153,244	-0,275	-0,265
49,013	-17,155	-0,272	-0,120
50,028	-2,448	-0,356	-0,174
51,042	103,793	-0,314	-0,259
52,057	37,835	-0,362	-0,225
53,071	47,451	-0,393	-0,257
54,086	103,660	-0,339	-0,279
55,101	-20,146	-0,396	-0,170
56,115	239,610	-0,237	-0,277
57,130	68,026	-0,373	-0,267
58,144	253,673	-0,282	-0,338
59,159	-32,632	-0,364	-0,142
60,174	36,422	-0,342	-0,211
61,188	-11,697	-0,319	-0,146
62,203	-26,915	-0,371	-0,151
63,217	71,408	-0,258	-0,187
64,232	56,121	-0,348	-0,237
65,247	22,591	-0,500	-0,286
66,261	90,481	-0,416	-0,327
67,276	17,865	-0,374	-0,208
68,290	51,599	-0,348	-0,231
69,305	800,000	-0,142	-0,277
70,320	-6,080	-0,381	-0,182
71,334	-5,759	-0,306	-0,146
72,349	-58,748	-0,359	-0,108
73,363	131,836	-0,359	-0,324
74,378	250,116	-0,210	-0,250
75,393	-85,726	-0,257	-0,055
76,407	148,318	-0,242	-0,229
77,422	8,710	-0,294	-0,155
78,436	-130,656	-0,255	-0,024
79,451	-34,278	-0,436	-0,167
80,466	94,494	-0,253	-0,201
81,480	15,085	-0,346	-0,189
82,495	-102,573	-0,330	-0,055
83,509	279,119	-0,248	-0,311
84,524	60,297	-0,125	-0,086
85,539	17,049	-0,234	0,129
86,553	18,436	-0,210	-0,117
87,568	81,178	-0,294	-0,222
88,582	102,084	-0,273	-0,223
89,597	1,701	-0,260	-0,131
90,611	396,652	-0,206	-0,302
91,626	265,439	-0,228	-0,278
92,641	-0,788	-0,183	-0,090
93,655	166,677	-0,139	-0,138
94,670	150,008	-0,267	-0,254
95,684	180,268	-0,277	-0,284
96,699	58,112	-0,179	-0,122
97,714	61,338	-0,322	-0,224
98,728	107,612	-0,176	-0,146
99,743	21,952	-0,201	-0,114
100,757	800,000	-0,083	-0,185
101,772	-16,827	-0,334	-0,147
102,787	56,650	-0,304	-0,206
103,801	-49,048	-0,211	-0,070
104,816	6,559	-0,254	-0,132
105,830	50,133	-0,220	-0,145
106,845	109,985	-0,319	-0,267
107,860	27,236	-0,260	-0,152
108,874	-9,735	-0,264	-0,122
109,889	-34,268	-0,391	-0,149
110,903	571,747	-0,154	-0,264
111,918	38,166	-0,304	-0,189
112,933	110,119	-0,225	-0,189
113,947	-86,292	-0,196	0,042
114,962	178,020	-0,168	-0,171
115,976	800,000	-0,150	-0,402
116,991	245,183	-0,213	-0,251
118,006	42,579	-0,336	-0,213
119,020	62,949	-0,242	-0,169
120,035	82,326	-0,274	-0,207
121,049	-27,833	-0,219	-0,088
122,064	20,005	-0,158	-0,089
123,079	-17,885	-0,337	-0,147
124,093	91,468	-0,190	-0,149
125,108	90,431	-0,171	-0,133
126,122	79,958	-0,353	-0,264
127,137	385,885	-0,190	-0,274
128,151	60,517	-0,174	-0,120
129,166	-55,830	-0,125	-0,039
130,181	-11,141	-0,343	-0,157
131,195	158,586	-0,159	-0,154
132,210	10,721	-0,305	-0,162
133,224	-1,099	-0,314	-0,154
134,239	-159,179	-0,230	-0,009
135,254	158,772	-0,143	-0,138
136,268	-120,354	-0,311	-0,037
137,283	94,716	-0,274	-0,217
138,297	32,864	-0,309	-0,186
139,312	-122,429	-0,290	-0,032
140,327	-42,154	-0,326	-0,115
141,341	14,731	-0,279	-0,151
142,356	-47,987	-0,143	0,048
143,370	-63,936	-0,222	-0,063
144,385	56,830	-0,236	-0,160
145,400	214,914	-0,237	-0,262
146,414	52,132	-0,189	-0,125
147,429	146,765	-0,263	-0,246
148,443	-181,406	-0,147	-0,002
149,458	203,492	-0,128	-0,138
150,473	73,850	-0,168	-0,122
151,487	556,083	-0,163	-0,275
152,502	-154,423	-0,143	0,007
153,516	136,397	-0,190	-0,173
154,531	40,611	-0,339	-0,212
155,546	26,013	-0,250	-0,145
156,560	-51,206	-0,331	-0,107
157,575	314,005	-0,177	-0,233
158,589	62,554	-0,272	-0,189
159,604	453,020	-0,155	-0,239
160,619	27,387	-0,360	-0,210
161,633	121,389	-0,243	-0,210
162,648	155,913	-0,224	-0,215
163,662	43,726	-0,156	-0,099
164,677	-32,178	-0,215	-0,083
165,692	0,409	-0,204	-0,101
166,706	112,528	-0,221	-0,186
167,721	14,507	-0,266	-0,144
168,735	-27,158	-0,318	-0,128
169,750	35,249	-0,206	-0,125
170,764	283,907	-0,097	-0,121
171,779	-49,448	-0,292	-0,096
172,794	178,834	-0,154	-0,157
173,808	94,938	-0,201	-0,159
174,823	22,892	-0,295	-0,168
175,837	-33,060	-0,276	-0,106
176,852	213,092	-0,202	-0,222
177,867	6,037	-0,191	-0,098
178,881	145,672	-0,150	-0,140
179,896	3,873	-0,148	-0,075
180,910	231,298	-0,208	-0,236
181,925	157,485	-0,164	-0,157
182,940	-85,641	-0,296	-0,063
183,954	-8,553	-0,176	-0,082
184,969	325,938	-0,181	-0,241
185,983	-135,945	-0,244	-0,020
186,998	131,721	-0,263	-0,235
188,013	-132,751	-0,225	0,020
189,027	55,119	-0,266	-0,178
190,042	-42,788	-0,188	-0,066
191,056	133,368	-0,205	-0,184
192,071	43,006	-0,163	-0,103
193,086	-31,968	-0,146	-0,057
194,100	-9,355	-0,211	-0,098
195,115	166,127	-0,217	-0,213
196,129	148,110	-0,210	-0,197
197,144	-71,011	-0,302	-0,078
198,159	66,419	-0,292	-0,206
199,173	73,402	-0,216	-0,157
200,188	800,000	-0,014	-0,036
201,202	-80,242	-0,345	-0,079
202,217	55,561	-0,184	-0,123
203,232	468,590	-0,114	-0,178
204,246	-139,294	-0,303	0,022
205,261	-93,504	-0,213	-0,040
206,275	47,482	-0,228	-0,147
207,290	480,265	-0,109	-0,172
208,304	83,024	-0,253	-0,190
209,319	-37,888	-0,268	-0,098
210,334	-14,335	-0,252	-0,112
211,348	355,779	-0,141	-0,195
212,363	30,953	-0,184	-0,109
213,377	-13,535	-0,258	-0,115
214,392	54,481	-0,117	-0,078
215,407	16,072	-0,128	-0,070
216,421	-20,145	-0,179	-0,076
217,436	238,043	-0,231	-0,265
218,450	67,440	-0,240	-0,169
219,465	6,804	-0,229	-0,117
220,480	136,104	-0,292	-0,263
221,494	-32,270	-0,117	-0,045
222,509	244,675	-0,196	-0,228
223,523	-133,523	-0,201	0,017
224,538	-33,644	-0,157	-0,060
225,553	10,861	-0,245	-0,129
226,567	-22,577	-0,155	-0,064
227,582	5,590	-0,151	-0,077
228,596	-200,000	-0,003	-0,057
229,611	-70,375	-0,237	-0,062
230,626	-31,066	-0,354	-0,137
231,640	-116,884	-0,240	-0,030
232,655	-110,357	-0,312	-0,044
233,669	446,382	-0,115	-0,176
234,684	800,000	-0,099	-0,268
235,699	1,902	-0,217	-0,108
236,713	191,317	-0,141	-0,147
237,728	582,387	-0,090	-0,153
238,742	-74,244	-0,126	-0,031
239,757	43,236	-0,304	-0,192
240,772	121,042	-0,214	-0,184
241,786	27,496	-0,303	-0,176
242,801	-47,840	-0,252	-0,084
243,815	26,824	-0,190	-0,110
244,830	347,116	-0,122	-0,166
245,844	227,345	-0,122	-0,137
246,859	-107,339	-0,183	-0,028
247,874	97,262	-0,208	-0,165
248,888	-25,032	-0,283	-0,115
249,903	221,656	-0,106	-0,118
250,917	98,767	-0,132	0,105
251,932	-119,280	-0,152	0,018
252,947	-37,372	-0,197	-0,072
253,961	163,998	-0,233	-0,226
254,976	267,927	-0,149	-0,180
255,990	566,896	-0,118	-0,198
257,005	-27,339	-0,176	-0,070
258,020	84,652	-0,072	-0,055
259,034	-22,074	-0,114	-0,048
260,049	-42,150	-0,229	-0,080
261,063	-200,000	-0,055	-0,175
262,078	42,971	-0,148	-0,093
263,093	209,785	-0,165	-0,179
264,107	160,196	-0,168	-0,162
265,122	543,929	-0,068	0,113
266,136	-24,278	-0,158	0,065
267,151	708,084	-0,087	-0,159
268,166	187,223	-0,206	-0,212
269,180	-37,536	-0,136	-0,050
270,195	484,703	-0,141	-0,222
271,209	-159,392	-0,154	-0,006
272,224	-89,522	-0,065	0,013
273,239	-31,395	-0,084	-0,032
274,253	275,911	-0,149	-0,182
275,268	-35,511	-0,139	-0,052
276,282	111,060	-0,119	-0,099
277,297	0,533	-0,197	-0,097
278,312	800,000	-0,037	-0,093
279,326	1,399	-0,200	-0,098
280,341	736,105	-0,094	-0,174
281,355	130,506	-0,106	-0,094
282,370	129,896	-0,170	-0,149
283,384	-200,000	0,022	-0,177
284,399	317,417	-0,118	-0,154
285,414	-93,133	-0,108	-0,020
286,428	-80,305	-0,208	0,048
287,443	-200,000	0,002	-0,094
288,457	65,670	-0,228	-0,159
289,472	254,181	-0,181	-0,213
290,487	-48,190	-0,242	-0,080
291,501	41,247	-0,111	-0,069
292,516	-11,311	-0,186	-0,084
293,530	-89,179	-0,074	-0,015
294,545	-87,059	-0,152	0,032
295,560	-61,500	-0,052	0,015
296,574	725,591	-0,049	-0,091
297,589	36,827	-0,197	-0,119
298,603	123,613	-0,227	-0,196
299,618	800,000	-0,058	-0,112
300,633	-33,881	-0,165	-0,062
301,647	-200,000	-0,035	-0,169
302,662	800,000	-0,075	-0,145
303,676	800,000	-0,044	-0,090
304,691	-18,819	-0,245	-0,104
305,706	21,201	-0,143	-0,079
306,720	-91,306	-0,214	-0,042
307,735	-8,065	-0,226	-0,104
308,749	-94,784	-0,111	-0,020
309,764	54,650	-0,110	0,073
310,779	-138,272	-0,240	-0,018
311,793	100,546	-0,209	-0,166
312,808	20,464	-0,215	-0,119
313,822	800,000	-0,100	-0,195
314,837	372,785	-0,022	-0,031
315,852	-78,961	-0,134	-0,031
316,866	76,072	-0,162	-0,118
317,881	169,083	-0,069	-0,067
318,895	-85,534	-0,106	-0,022
319,910	-200,000	-0,028	-0,119
320,925	125,880	-0,160	-0,139
321,939	564,775	-0,062	-0,103
322,954	-200,000	-0,013	-0,055
323,968	-93,444	-0,017	-0,003
324,983	800,000	-0,090	-0,264
325,997	231,375	-0,158	-0,178
327,012	135,428	-0,170	-0,152
328,027	800,000	-0,057	-0,144
329,041	199,500	-0,109	-0,115
330,056	-104,143	-0,138	0,022
331,070	-145,098	-0,035	-0,002
332,085	90,650	-0,067	-0,051
333,100	-59,741	-0,097	-0,028
334,114	720,136	-0,063	-0,114
335,129	68,393	-0,143	-0,100
336,143	-60,214	-0,127	0,037
337,158	-95,885	-0,132	0,024
338,173	-152,162	-0,120	0,006
339,187	305,702	-0,086	-0,110
340,202	168,876	-0,133	-0,130
341,216	110,213	-0,115	-0,094
342,231	37,491	-0,191	-0,116
343,246	800,000	-0,095	-0,256
344,260	-110,269	-0,114	0,016
345,275	85,198	-0,114	0,085
346,289	731,545	-0,067	-0,123
347,304	25,655	-0,250	-0,142
348,319	-200,000	-0,083	-0,298
349,333	8,486	-0,217	-0,111
350,348	-200,000	-0,044	-0,194
351,362	-16,327	-0,199	-0,086
352,377	114,690	-0,123	-0,103
353,392	-200,000	-0,041	-0,137
354,406	98,538	-0,183	-0,144
355,421	206,940	1310,278	1398,144
356,435	159,165	1470,448	1398,610
