DTS Sentinel unit serial number:	SN410029Multiplexer serial number:	ORYXHardware model number:	OX2-SRSoftware version number:	ORYX F/W v4,00 Oryx Data Collector v3.7.2.0data status	okinstallation	B3 Nyhavnadifferential loss correction	single-endedforward channel	channel 1reverse channel	N/Adate	2023/11/29time	02:27:30forward acquisition time	300,00reverse acquisition time	0,00gamma	499,1914k internal	0,3211k external	0,3211temperature offset calibration	1,0000default loss term (dB/km)	0,3820temperature slope calibration	1,0000multiplexer offset coefficient	1,0000multiplexer slope coefficient	1,0000fibre end	0,00T internal ref (°C)	9,61T ext. ref 1 (°C)	-5,59T ext. ref 2 (°C)	-5,73length (m)	temperature (°C)	Stokes	anti-Stokes-744,400	268,447	-0,215	-0,274
-743,385	-200,000	0,049	0,323
-742,371	-200,000	-0,033	-0,223
-741,356	-200,000	-0,011	0,336
-740,342	98,091	-0,163	-0,136
-739,327	-200,000	0,045	0,320
-738,312	161,402	-0,170	-0,172
-737,298	-200,000	0,015	0,226
-736,283	-200,000	-0,082	-0,279
-735,269	800,000	-0,107	0,254
-734,254	53,669	-0,286	-0,199
-733,239	220,547	-0,116	0,135
-732,225	800,000	-0,080	-0,229
-731,210	375,889	0,106	0,157
-730,196	-71,909	-0,051	-0,014
-729,181	-122,292	-0,108	-0,013
-728,167	-200,000	-0,017	0,055
-727,152	-200,000	0,001	-0,187
-726,137	664,565	-0,033	-0,063
-725,123	-48,710	-0,048	-0,017
-724,108	-101,503	-0,124	0,022
-723,094	800,000	0,072	-0,160
-722,079	296,020	-0,047	0,062
-721,064	-40,381	-0,045	-0,017
-720,050	-180,559	0,085	0,001
-719,035	633,593	-0,039	0,073
-718,021	13,249	-0,098	-0,055
-717,006	-200,000	-0,021	-0,147
-715,991	-171,352	-0,071	-0,002
-714,977	-72,633	-0,151	-0,040
-713,962	-200,000	0,015	-0,060
-712,948	734,704	0,038	0,074
-711,933	62,806	0,034	-0,025
-710,918	-200,000	-0,023	0,124
-709,904	800,000	-0,034	-0,090
-708,889	-33,761	-0,058	-0,023
-707,875	800,000	0,034	-0,076
-706,860	-200,000	-0,021	0,087
-705,845	-32,491	0,126	0,051
-704,831	574,679	-0,037	0,065
-703,816	-200,000	0,015	0,090
-702,802	99,881	-0,066	-0,056
-701,787	-200,000	0,028	-0,196
-700,772	-200,000	-0,002	-0,136
-699,758	-200,000	-0,019	-0,079
-698,743	-60,303	0,146	0,045
-697,729	451,012	0,045	-0,072
-696,714	545,019	0,048	0,084
-695,699	153,620	0,107	0,106
-694,685	121,839	-0,113	-0,102
-693,670	800,000	-0,056	-0,117
-692,656	53,629	-0,041	-0,028
-691,641	0,147	0,044	0,022
-690,627	38,077	0,091	0,059
-689,612	-200,000	-0,001	-0,068
-688,597	-200,000	0,015	-0,072
-687,583	-200,000	-0,038	-0,126
-686,568	800,000	-0,034	-0,086
-685,554	-200,000	-0,013	0,076
-684,539	210,238	-0,011	0,013
-683,524	357,602	-0,017	-0,024
-682,510	-200,000	0,007	-0,028
-681,495	674,644	0,034	0,065
-680,481	-13,100	-0,150	-0,070
-679,466	198,433	-0,104	-0,115
-678,451	800,000	-0,052	-0,138
-677,437	800,000	-0,051	-0,132
-676,422	-200,000	0,012	0,078
-675,408	-85,524	-0,059	-0,013
-674,393	-200,000	0,001	0,004
-673,378	-154,742	-0,148	-0,007
-672,364	166,303	-0,041	0,042
-671,349	273,418	0,050	-0,064
-670,335	37,588	0,061	-0,039
-669,320	29,523	-0,067	0,041
-668,305	-128,420	-0,104	-0,011
-667,291	800,000	-0,021	-0,043
-666,276	479,652	0,040	0,067
-665,262	225,615	0,079	-0,093
-664,247	800,000	-0,072	-0,192
-663,232	-99,648	0,116	0,021
-662,218	0,272	-0,107	-0,055
-661,203	-200,000	0,044	0,195
-660,189	13,578	0,096	-0,054
-659,174	-200,000	0,019	-0,146
-658,159	-52,688	-0,080	-0,027
-657,145	-200,000	-0,031	-0,099
-656,130	-200,000	-0,019	-0,094
-655,116	-13,970	-0,110	-0,051
-654,101	-21,385	0,035	-0,015
-653,086	-52,645	-0,161	-0,054
-652,072	74,303	-0,192	0,146
-651,057	-45,809	-0,065	0,023
-650,043	-23,687	0,099	0,043
-649,028	201,162	-0,070	-0,077
-648,014	-84,972	0,150	0,034
-646,999	-25,258	0,063	-0,027
-645,984	85,415	0,106	0,084
-644,970	230,954	0,065	0,077
-643,955	-44,716	0,032	0,011
-642,941	35,158	0,090	0,057
-641,926	800,000	-0,033	-0,075
-640,911	-200,000	0,014	0,060
-639,897	92,723	-0,067	0,055
-638,882	-200,000	0,026	0,089
-637,868	4,487	-0,039	0,021
-636,853	-200,000	0,015	-0,074
-635,838	145,753	0,083	-0,080
-634,824	91,811	0,086	-0,070
-633,809	142,948	0,050	-0,048
-632,795	-200,000	0,022	0,154
-631,780	-200,000	-0,003	0,010
-630,765	-115,098	0,062	-0,008
-629,751	89,161	-0,067	-0,054
-628,736	800,000	-0,018	-0,054
-627,722	56,541	-0,041	-0,029
-626,707	800,000	0,021	-0,063
-625,692	513,367	0,020	-0,034
-624,678	213,760	-0,043	0,049
-623,663	-199,271	0,032	-0,000
-622,649	-200,000	-0,000	-0,126
-621,634	683,384	0,065	-0,123
-620,619	-200,000	-0,013	-0,079
-619,605	-200,000	-0,024	-0,136
-618,590	660,142	0,029	0,053
-617,576	255,479	0,124	0,154
-616,561	121,778	-0,071	0,064
-615,546	19,387	-0,040	0,023
-614,532	800,000	0,027	0,080
-613,517	475,764	-0,034	-0,056
-612,503	105,240	0,097	-0,082
-611,488	800,000	-0,005	0,013
-610,474	606,992	-0,073	-0,131
-609,459	462,421	0,096	0,154
-608,444	-181,281	0,043	-0,001
-607,430	136,600	-0,082	-0,077
-606,415	108,951	-0,076	-0,065
-605,401	-2,787	-0,040	-0,020
-604,386	-54,776	0,030	-0,010
-603,371	-132,544	0,083	0,008
-602,357	40,779	0,109	-0,071
-601,342	-200,000	0,035	-0,195
-600,328	-78,057	0,100	-0,025
-599,313	-15,308	0,093	-0,043
-598,298	393,419	-0,026	-0,040
-597,284	133,960	0,022	0,021
-596,269	-66,196	-0,078	-0,022
-595,255	-107,038	0,058	0,009
-594,240	-143,358	0,166	-0,011
-593,225	800,000	-0,017	-0,051
-592,211	-106,192	-0,105	0,017
-591,196	595,744	-0,099	-0,177
-590,182	-153,402	0,084	0,004
-589,167	-112,728	-0,125	-0,018
-588,152	-200,000	0,007	-0,036
-587,138	251,109	0,069	-0,085
-586,123	147,306	-0,029	0,029
-585,109	-38,323	0,044	-0,017
-584,094	-200,000	0,004	0,082
-583,079	13,593	0,038	-0,021
-582,065	28,817	0,072	0,044
-581,050	115,760	-0,032	-0,028
-580,036	-200,000	0,035	-0,114
-579,021	291,926	-0,011	-0,014
-578,006	179,758	-0,036	-0,038
-576,992	-12,674	0,086	-0,040
-575,977	-30,975	-0,092	0,037
-574,963	-67,578	0,075	0,021
-573,948	-125,418	-0,027	0,003
-572,934	-27,225	0,098	0,041
-571,919	198,921	-0,038	-0,042
-570,904	-200,000	-0,031	0,000
-569,890	641,157	-0,043	0,080
-568,875	24,411	-0,078	0,046
-567,861	396,679	-0,015	-0,023
-566,846	800,000	0,057	0,140
-565,831	37,120	0,121	0,077
-564,817	800,000	-0,047	-0,142
-563,802	258,196	-0,061	-0,076
-562,788	800,000	-0,033	0,082
-561,773	-82,844	-0,062	-0,014
-560,758	719,308	-0,026	-0,050
-559,744	-200,000	-0,043	0,191
-558,729	-200,000	0,027	-0,111
-557,715	150,080	0,004	-0,004
-556,700	368,852	-0,062	0,090
-555,685	-200,000	-0,019	0,069
-554,671	87,828	-0,024	0,019
-553,656	-200,000	0,003	-0,083
-552,642	-128,030	0,111	-0,011
-551,627	-200,000	-0,035	-0,152
-550,612	-0,176	-0,067	-0,034
-549,598	-200,000	0,019	-0,187
-548,583	-140,375	-0,082	0,006
-547,569	-125,010	-0,021	0,002
-546,554	199,210	0,067	0,074
-545,539	234,943	0,100	-0,119
-544,525	564,113	-0,048	0,084
-543,510	25,664	-0,104	-0,062
-542,496	122,726	-0,012	0,011
-541,481	-79,345	0,076	-0,018
-540,466	-60,542	0,100	-0,030
-539,452	87,269	-0,100	0,080
-538,437	-200,000	0,012	0,149
-537,423	39,097	0,065	-0,041
-536,408	800,000	-0,056	-0,114
-535,393	-200,000	-0,059	-0,304
-534,379	214,263	-0,077	-0,088
-533,364	61,076	0,101	-0,072
-532,350	566,282	-0,077	0,135
-531,335	-108,631	0,065	0,010
-530,321	705,102	-0,041	0,078
-529,306	190,581	0,034	-0,037
-528,291	800,000	-0,024	0,053
-527,277	-94,402	-0,090	0,017
-526,262	190,813	0,057	-0,062
-525,248	270,316	0,048	0,061
-524,233	-200,000	-0,031	0,197
-523,218	16,157	0,127	0,072
-522,204	455,452	0,079	0,126
-521,189	-60,833	-0,169	-0,051
-520,175	-200,000	0,036	-0,270
-519,160	-200,000	-0,056	0,189
-518,145	172,315	0,088	0,091
-517,131	-84,890	0,097	-0,022
-516,116	234,552	-0,061	-0,072
-515,102	192,266	-0,069	0,075
-514,087	39,378	-0,119	-0,076
-513,072	627,860	-0,039	-0,071
-512,058	480,153	0,047	-0,077
-511,043	-130,789	0,063	-0,006
-510,029	132,671	0,105	0,097
-509,014	-200,000	0,042	0,176
-507,999	-27,429	-0,141	-0,059
-506,985	-200,000	0,015	-0,087
-505,970	342,333	-0,022	0,031
-504,956	800,000	-0,033	0,094
-503,941	93,658	0,102	0,083
-502,926	-200,000	0,027	0,102
-501,912	126,958	-0,100	0,091
-500,897	72,864	0,053	0,040
-499,883	561,463	-0,092	-0,160
-498,868	124,889	0,075	-0,068
-497,853	-200,000	-0,017	-0,081
-496,839	152,023	-0,081	-0,079
-495,824	10,683	0,044	-0,024
-494,810	-175,145	-0,186	-0,004
-493,795	86,306	0,036	-0,028
-492,781	222,151	0,034	-0,039
-491,766	236,131	0,093	0,111
-490,751	78,899	-0,193	-0,148
-489,737	-162,354	0,185	-0,006
-488,722	800,000	0,026	0,078
-487,708	-200,000	0,001	-0,026
-486,693	-66,638	0,055	-0,016
-485,678	145,220	-0,035	0,033
-484,664	800,000	-0,023	-0,069
-483,649	800,000	0,014	-0,041
-482,635	157,948	-0,024	0,024
-481,620	800,000	0,035	0,087
-480,605	-200,000	-0,019	0,115
-479,591	-40,613	-0,040	0,015
-478,576	-34,812	-0,029	-0,011
-477,562	-200,000	-0,025	-0,119
-476,547	-169,811	0,023	0,001
-475,532	-69,041	-0,065	-0,018
-474,518	-97,862	-0,056	0,010
-473,503	-200,000	-0,001	-0,070
-472,489	64,988	0,064	0,046
-471,474	383,901	0,090	0,134
-470,459	800,000	0,026	0,074
-469,445	-43,109	0,119	-0,043
-468,430	-17,746	-0,120	-0,054
-467,416	-69,093	0,155	0,042
-466,401	-43,108	-0,142	-0,051
-465,386	-90,516	-0,041	0,008
-464,372	-200,000	0,019	0,073
-463,357	-104,738	-0,110	0,018
-462,343	-200,000	0,015	-0,056
-461,328	198,557	-0,025	0,027
-460,313	-115,949	0,131	0,017
-459,299	780,523	-0,026	0,051
-458,284	-200,000	-0,034	0,155
-457,270	-200,000	-0,007	0,036
-456,255	668,940	-0,012	0,021
-455,241	127,220	-0,072	0,066
-454,226	62,512	0,034	-0,025
-453,211	-83,382	-0,090	-0,020
-452,197	-85,465	0,049	-0,011
-451,182	-68,623	0,088	0,024
-450,168	800,000	-0,033	0,066
-449,153	32,731	-0,027	-0,017
-448,138	-200,000	0,002	-0,107
-447,124	152,400	-0,110	-0,108
-446,109	601,269	-0,037	0,067
-445,095	130,580	-0,054	0,050
-444,080	-59,207	0,026	0,008
-443,065	-7,139	-0,046	-0,022
-442,051	-175,566	-0,060	0,001
-441,036	82,504	-0,121	-0,094
-440,022	-194,697	0,049	0,000
-439,007	800,000	-0,031	0,069
-437,992	-45,024	0,179	0,064
-436,978	-200,000	-0,005	0,044
-435,963	-109,409	-0,023	0,004
-434,949	419,836	-0,055	-0,085
-433,934	-200,000	0,021	-0,147
-432,919	-200,000	-0,013	-0,111
-431,905	-157,161	0,100	0,004
-430,890	-110,935	0,074	0,011
-429,876	800,000	-0,031	-0,071
-428,861	-200,000	-0,034	0,123
-427,846	116,425	0,068	0,060
-426,832	-200,000	0,012	-0,047
-425,817	214,263	-0,042	-0,047
-424,803	-91,707	-0,211	0,043
-423,788	51,903	0,043	-0,029
-422,773	589,682	0,058	-0,103
-421,759	-35,220	0,050	-0,019
-420,744	800,000	0,056	0,123
-419,730	-97,439	-0,150	-0,028
-418,715	800,000	-0,094	-0,195
-417,701	103,065	-0,061	-0,052
-416,686	-127,510	0,143	-0,015
-415,671	800,000	-0,013	0,032
-414,657	800,000	-0,036	0,098
-413,642	605,131	0,008	-0,014
-412,628	-152,709	-0,048	-0,002
-411,613	245,545	-0,023	-0,028
-410,598	-200,000	0,001	-0,083
-409,584	49,691	0,058	0,039
-408,569	-111,984	0,126	0,018
-407,555	-200,000	-0,010	0,105
-406,540	-200,000	-0,006	-0,070
-405,525	800,000	-0,061	-0,144
-404,511	44,599	-0,018	0,012
-403,496	-35,284	-0,066	0,026
-402,482	234,662	-0,026	0,031
-401,467	800,000	-0,021	0,060
-400,452	-11,285	0,025	-0,012
-399,438	800,000	-0,038	0,108
-398,423	-200,000	0,011	0,097
-397,409	800,000	0,045	-0,125
-396,394	22,123	-0,118	0,069
-395,379	-166,490	0,042	-0,001
-394,365	56,977	0,066	0,046
-393,350	-200,000	0,008	0,142
-392,336	151,080	-0,031	0,030
-391,321	-96,750	0,074	0,014
-390,306	503,003	0,072	-0,119
-389,292	800,000	-0,038	-0,078
-388,277	800,000	-0,016	0,041
-387,263	-20,748	0,019	-0,008
-386,248	-44,392	-0,033	-0,012
-385,233	118,615	0,051	-0,045
-384,219	-79,538	-0,070	-0,017
-383,204	54,578	0,127	-0,087
-382,190	-200,000	-0,014	0,104
-381,175	-200,000	0,032	-0,131
-380,160	-200,000	0,002	0,028
-379,146	-200,000	-0,004	0,085
-378,131	-161,440	0,071	0,003
-377,117	-67,529	-0,092	-0,026
-376,102	-200,000	0,007	-0,038
-375,088	-11,926	-0,020	-0,009
-374,073	-0,664	-0,050	-0,025
-373,058	522,547	0,018	0,030
-372,044	-72,479	-0,107	0,028
-371,029	-200,000	0,012	0,065
-370,015	-200,000	-0,000	-0,028
-369,000	-200,000	-0,015	0,063
-367,985	-122,320	-0,080	0,009
-366,971	65,669	0,074	0,053
-365,956	12,421	0,105	0,057
-364,942	706,625	-0,016	-0,030
-363,927	97,759	-0,052	0,043
-362,912	-49,376	0,020	-0,007
-361,898	-45,409	0,060	-0,021
-360,883	496,610	-0,068	0,113
-359,869	-107,535	-0,066	-0,010
-358,854	-29,080	-0,161	-0,066
-357,839	335,896	-0,073	-0,102
-356,825	550,005	0,043	-0,074
-355,810	166,592	-0,077	0,078
-354,796	-1,075	0,090	-0,046
-353,781	800,000	-0,028	-0,080
-352,766	-156,525	-0,147	-0,006
-351,752	-22,634	0,092	-0,039
-350,737	21,724	0,055	0,032
-349,723	-200,000	-0,002	0,112
-348,708	800,000	-0,022	0,069
-347,693	66,920	0,024	0,017
-346,679	85,066	-0,077	0,061
-345,664	-162,354	-0,028	0,001
-344,650	800,000	-0,026	-0,058
-343,635	15,820	-0,066	0,037
-342,620	-28,480	0,174	0,071
-341,606	93,893	0,110	-0,089
-340,591	50,795	-0,050	0,034
-339,577	800,000	-0,039	0,087
-338,562	-200,000	-0,018	-0,103
-337,548	171,747	0,048	-0,049
-336,533	123,755	0,041	0,037
-335,518	-55,264	-0,085	0,027
-334,504	-200,000	-0,002	0,052
-333,489	103,442	0,056	-0,047
-332,475	-34,157	-0,034	0,013
-331,460	800,000	-0,036	-0,075
-330,445	-107,414	0,032	0,005
-329,431	800,000	0,073	0,214
-328,416	579,153	-0,028	-0,050
-327,402	26,628	-0,099	0,059
-326,387	4,517	-0,011	-0,006
-325,372	-117,503	0,108	0,014
-324,358	784,228	0,013	0,026
-323,343	-0,322	-0,028	-0,014
-322,329	405,645	-0,091	-0,138
-321,314	658,086	0,059	-0,108
-320,299	37,988	-0,084	-0,053
-319,285	86,536	-0,038	-0,030
-318,270	-49,242	-0,061	-0,021
-317,256	115,134	-0,088	-0,076
-316,241	48,247	-0,025	-0,017
-315,226	800,000	0,020	0,054
-314,212	-77,613	-0,113	0,028
-313,197	-200,000	-0,011	0,069
-312,183	405,773	0,077	0,116
-311,168	-200,000	-0,004	0,015
-310,153	-90,871	-0,118	-0,024
-309,139	127,810	-0,095	-0,086
-308,124	24,543	-0,107	-0,063
-307,110	-200,000	0,019	0,118
-306,095	-200,000	-0,005	0,021
-305,080	479,241	0,017	-0,027
-304,066	800,000	-0,048	0,116
-303,051	-200,000	-0,035	-0,125
-302,037	122,887	-0,010	-0,009
-301,022	182,370	-0,062	-0,065
-300,008	-200,000	-0,008	0,166
-298,993	230,150	-0,059	0,069
-297,978	-200,000	0,004	-0,186
-296,964	800,000	-0,011	0,032
-295,949	149,243	0,080	-0,077
-294,935	-200,000	-0,019	-0,069
-293,920	-200,000	0,021	-0,111
-292,905	7,823	0,030	-0,016
-291,891	800,000	0,063	0,165
-290,876	800,000	0,019	0,058
-289,862	4,131	0,062	-0,032
-288,847	-200,000	-0,024	-0,083
-287,832	219,931	-0,110	-0,126
-286,818	-87,560	-0,046	0,010
-285,803	-64,701	-0,127	0,036
-284,789	-200,000	-0,021	0,067
-283,774	-162,173	0,116	-0,004
-282,759	-200,000	-0,013	-0,074
-281,745	-124,781	-0,193	-0,021
-280,730	-13,105	-0,131	0,060
-279,716	-158,214	0,088	0,004
-278,701	800,000	-0,025	0,073
-277,686	43,041	0,087	0,056
-276,672	110,036	0,040	-0,034
-275,657	117,817	-0,142	0,124
-274,643	472,588	0,019	0,030
-273,628	127,665	0,041	-0,037
-272,613	205,820	-0,015	-0,016
-271,599	29,780	-0,017	0,010
-270,584	-116,517	0,043	-0,006
-269,570	-5,206	0,077	0,037
-268,555	-129,393	0,129	0,013
-267,540	-200,000	-0,025	0,117
-266,526	98,762	-0,027	-0,022
-265,511	624,447	-0,087	-0,157
-264,497	212,184	-0,082	-0,092
-263,482	-200,000	0,021	0,167
-262,467	88,104	-0,103	0,081
-261,453	-200,000	0,013	-0,041
-260,438	-200,000	-0,033	0,158
-259,424	95,142	0,060	0,049
-258,409	41,149	-0,058	0,037
-257,395	-76,147	-0,055	0,014
-256,380	-120,060	0,034	0,004
-255,365	57,627	0,142	0,099
-254,351	800,000	0,016	-0,044
-253,336	3,383	-0,041	-0,021
-252,322	-200,000	0,004	-0,017
-251,307	17,789	-0,107	-0,061
-250,292	800,000	0,046	-0,142
-249,278	-77,058	-0,211	0,052
-248,263	108,262	0,111	0,094
-247,249	-68,303	-0,113	-0,031
-246,234	-80,213	0,117	-0,028
-245,219	187,292	0,051	0,054
-244,205	-39,474	0,204	-0,076
-243,190	634,298	-0,069	0,126
-242,176	800,000	-0,025	0,067
-241,161	80,759	0,127	-0,097
-240,146	800,000	-0,008	-0,024
-239,132	-175,602	-0,077	0,001
-238,117	800,000	-0,024	-0,049
-237,103	477,218	0,040	-0,064
-236,088	800,000	0,063	-0,173
-235,073	-89,900	0,047	0,010
-234,059	800,000	0,033	0,070
-233,044	-72,644	-0,052	-0,013
-232,030	-200,000	-0,007	0,034
-231,015	-94,389	-0,061	0,012
-230,000	595,369	-0,062	-0,110
-228,986	222,136	0,034	-0,039
-227,971	210,076	-0,032	-0,036
-226,957	116,159	0,081	0,070
-225,942	-200,000	0,013	-0,216
-224,927	32,808	-0,057	-0,035
-223,913	-109,612	0,109	0,016
-222,898	216,454	0,016	0,018
-221,884	-96,169	0,080	-0,015
-220,869	-132,306	0,117	-0,011
-219,855	-168,708	0,159	0,004
-218,840	102,069	-0,048	-0,040
-217,825	141,172	0,044	0,042
-216,811	-200,000	0,002	-0,100
-215,796	726,308	0,032	-0,061
-214,782	370,747	0,055	-0,080
-213,767	128,608	-0,056	-0,051
-212,752	-200,000	-0,003	0,097
-211,738	-200,000	0,020	0,088
-210,723	-20,924	-0,027	-0,012
-209,709	85,776	-0,179	-0,140
-208,694	14,148	0,087	0,048
-207,679	800,000	-0,034	-0,076
-206,665	-200,000	-0,006	0,222
-205,650	-200,000	0,037	0,159
-204,636	589,848	0,066	0,116
-203,621	-200,000	-0,016	0,070
-202,606	-200,000	0,019	-0,156
-201,592	-128,414	-0,062	-0,006
-200,577	-200,000	0,010	-0,114
-199,563	800,000	0,052	0,126
-198,548	-127,154	0,087	-0,009
-197,533	-200,000	-0,020	0,149
-196,519	643,259	0,046	0,084
-195,504	-200,000	0,019	0,101
-194,490	-200,000	0,000	0,079
-193,475	-19,906	-0,056	-0,025
-192,460	29,065	-0,108	0,065
-191,446	-133,540	0,108	-0,010
-190,431	-188,046	0,031	-0,000
-189,417	800,000	-0,043	-0,104
-188,402	-200,000	0,001	-0,014
-187,387	63,888	0,048	0,034
-186,373	-200,000	-0,013	-0,130
-185,358	85,942	-0,033	-0,025
-184,344	364,563	-0,042	0,059
-183,329	9,760	0,088	0,047
-182,315	103,003	-0,110	0,092
-181,300	114,800	0,056	0,049
-180,285	-126,874	0,115	-0,012
-179,271	250,197	-0,044	0,053
-178,256	347,725	-0,013	0,019
-177,242	-200,000	-0,003	0,073
-176,227	-117,929	0,076	0,010
-175,212	169,270	-0,030	-0,031
-174,198	78,930	0,064	-0,048
-173,183	135,913	0,060	-0,056
-172,169	800,000	0,035	0,078
-171,154	800,000	0,039	0,109
-170,139	-200,000	0,003	0,076
-169,125	407,006	0,048	0,072
-168,110	96,972	-0,009	0,008
-167,096	276,857	0,061	0,077
-166,081	800,000	-0,078	-0,165
-165,066	-200,000	-0,056	0,181
-164,052	-200,000	0,025	0,135
-163,037	199,417	-0,104	-0,113
-162,023	79,970	0,064	0,049
-161,008	800,000	-0,020	-0,052
-159,993	800,000	-0,024	-0,052
-158,979	56,828	0,042	-0,029
-157,964	20,676	0,164	0,094
-156,950	-200,000	-0,009	0,051
-155,935	-38,706	-0,024	-0,009
-154,920	-200,000	-0,008	0,026
-153,906	16,677	0,094	-0,053
-152,891	800,000	-0,026	0,062
-151,877	4,933	-0,118	-0,061
-150,862	-200,000	-0,059	-0,238
-149,847	92,250	-0,062	-0,050
-148,833	-200,000	-0,001	0,086
-147,818	-107,232	-0,084	0,013
-146,804	91,319	0,050	0,040
-145,789	192,998	0,045	-0,049
-144,775	-200,000	0,002	0,067
-143,760	430,303	-0,069	-0,107
-142,745	229,436	-0,068	0,079
-141,731	-59,431	-0,038	-0,012
-140,716	111,377	0,026	0,022
-139,702	175,049	-0,029	-0,029
-138,687	-52,978	-0,069	-0,022
-137,672	429,622	-0,026	-0,040
-136,658	-50,164	0,074	-0,025
-135,643	-200,000	-0,012	-0,126
-134,629	72,286	0,143	0,105
-133,614	227,146	-0,082	-0,095
-132,599	-200,000	0,008	-0,087
-131,585	800,000	-0,037	-0,103
-130,570	-89,113	-0,143	0,030
-129,556	-133,018	0,115	0,010
-128,541	-11,493	-0,119	-0,055
-127,526	800,000	0,066	-0,151
-126,512	316,902	-0,024	0,032
-125,497	8,026	0,137	0,073
-124,483	-177,082	0,082	-0,001
-123,468	-200,000	-0,010	-0,081
-122,453	443,582	-0,035	-0,055
-121,439	-54,906	0,141	0,045
-120,424	285,295	0,004	-0,006
-119,410	800,000	0,064	0,141
-118,395	-200,000	0,004	0,075
-117,380	264,387	0,121	0,149
-116,366	-64,631	-0,050	-0,014
-115,351	800,000	0,003	-0,006
-114,337	-37,848	-0,068	-0,026
-113,322	-200,000	-0,055	-0,223
-112,307	29,381	-0,060	-0,036
-111,293	-168,582	0,068	-0,002
-110,278	-125,234	-0,032	0,003
-109,264	-6,801	-0,079	-0,038
-108,249	35,883	-0,065	0,040
-107,234	800,000	-0,067	0,133
-106,220	153,667	0,040	-0,039
-105,205	37,567	-0,048	0,030
-104,191	800,000	0,028	0,062
-103,176	109,384	0,037	0,032
-102,162	-200,000	-0,001	-0,065
-101,147	800,000	-0,039	-0,106
-100,132	122,480	-0,015	0,014
-99,118	-132,160	0,103	0,009
-98,103	126,224	0,044	0,039
-97,089	-200,000	0,025	0,083
-96,074	800,000	-0,072	0,189
-95,059	-51,854	0,022	-0,007
-94,045	74,679	0,058	0,043
-93,030	148,182	0,087	0,083
-92,016	-116,494	-0,105	-0,014
-91,001	-200,000	-0,006	0,051
-89,986	287,226	0,046	-0,059
-88,972	-15,196	0,179	-0,081
-87,957	-14,498	0,070	0,032
-86,943	-114,931	-0,134	0,018
-85,928	116,247	0,143	-0,124
-84,913	-200,000	-0,003	-0,211
-83,899	645,524	0,049	0,089
-82,884	-200,000	-0,034	-0,169
-81,870	-200,000	-0,025	0,091
-80,855	-200,000	-0,006	0,141
-79,840	463,921	-0,044	0,070
-78,826	149,302	-0,035	-0,033
-77,811	-200,000	-0,000	-0,014
-76,797	-200,000	-0,025	0,101
-75,782	17,790	-0,138	0,077
-74,767	694,391	0,112	0,208
-73,753	800,000	0,038	-0,111
-72,738	-12,137	-0,076	0,035
-71,724	746,664	0,027	-0,051
-70,709	58,711	-0,079	-0,055
-69,694	800,000	0,061	0,141
-68,680	-83,735	-0,173	0,039
-67,665	184,271	-0,017	0,018
-66,651	-163,538	-0,090	0,003
-65,636	-49,554	0,041	0,014
-64,622	472,948	0,028	0,044
-63,607	517,215	-0,050	-0,083
-62,592	-200,000	-0,008	-0,057
-61,578	-200,000	0,005	0,031
-60,563	-92,314	0,077	0,015
-59,549	-55,717	0,118	-0,037
-58,534	33,594	-2,005	-1,227
-57,519	463,330	-1,250	-1,978
-56,505	-200,000	-0,333	-4,208
-55,490	727,717	0,897	1,698
-54,476	800,000	5,135	11,262
-53,461	-200,000	21,699	343,276
-52,446	800,000	763,075	2353,604
-51,432	551,354	1662,429	2826,964
-50,417	72,069	1658,335	1216,681
-49,403	17,446	1531,870	856,379
-48,388	11,419	1455,791	784,740
-47,373	19,379	1447,489	818,382
-46,359	14,957	1436,493	791,137
-45,344	9,707	1432,399	763,887
-44,330	9,694	1430,225	762,632
-43,315	9,671	1428,638	761,645
-42,300	9,665	1427,003	760,719
-41,286	9,727	1425,470	760,163
-40,271	9,671	1424,341	759,268
-39,257	9,611	1423,359	758,427
-38,242	9,694	1421,976	758,054
-37,227	9,674	1421,132	757,479
-36,213	9,690	1419,757	756,794
-35,198	9,714	1418,403	756,155
-34,184	9,719	1417,582	755,711
-33,169	9,622	1416,391	754,586
-32,154	9,665	1415,201	754,126
-31,140	9,718	1413,884	753,642
-30,125	9,729	1412,708	753,039
-29,111	9,733	1411,536	752,403
-28,096	9,697	1410,468	751,636
-27,082	9,630	1409,371	750,707
-26,067	9,626	1408,412	750,145
-25,052	9,657	1407,237	749,636
-24,038	9,644	1406,364	749,080
-23,023	9,609	1405,446	748,397
-22,009	9,636	1404,284	747,874
-20,994	9,619	1403,337	747,264
-19,979	9,629	1402,373	746,767
-18,965	9,597	1401,574	746,162
-17,950	9,595	1400,598	745,605
-16,936	9,577	1399,872	745,105
-15,921	9,515	1398,820	744,227
-14,906	9,548	1398,007	743,917
-13,892	9,586	1396,746	743,394
-12,877	9,594	1395,951	742,977
-11,863	9,562	1395,253	742,428
-10,848	9,573	1394,229	741,906
-9,833	9,460	1393,505	740,966
-8,819	9,442	1392,500	740,319
-7,804	9,476	1391,618	739,978
-6,790	9,443	1390,558	739,233
-5,775	9,472	1389,281	738,658
-4,760	9,453	1388,628	738,195
-3,746	9,452	1387,658	737,644
-2,731	9,475	1386,539	737,127
-1,717	9,430	1385,914	736,557
-0,702	9,447	1384,072	735,629
0,313	13,451	1296,399	707,315
1,327	29,267	687,327	410,732
2,342	45,719	118,579	77,153
3,356	0,981	16,414	8,271
4,371	0,427	3,512	1,763
5,386	-20,164	1,212	0,524
6,400	-200,000	0,212	0,687
7,415	-25,330	-0,169	-0,070
8,429	76,728	-0,361	-0,270
9,444	8,573	-0,315	-0,167
10,459	223,072	-0,272	-0,310
11,473	35,091	-0,277	-0,171
12,488	-99,254	-0,372	-0,065
13,502	51,249	-0,266	-0,177
14,517	139,392	-0,163	-0,152
15,531	46,339	-0,413	-0,269
16,546	128,386	-0,265	-0,238
17,561	6,422	-0,451	-0,235
18,575	-66,412	-0,346	-0,096
19,590	57,800	-0,228	-0,157
20,604	86,648	-0,202	-0,157
21,619	57,259	-0,474	-0,325
22,634	62,420	-0,520	-0,365
23,648	230,902	-0,298	-0,344
24,663	45,864	-0,433	-0,281
25,677	106,076	-0,381	-0,317
26,692	-200,000	-0,131	-0,421
27,707	31,469	-0,447	-0,269
28,721	62,246	-0,311	-0,218
29,736	87,686	-0,397	-0,309
30,750	43,557	-0,389	-0,250
31,765	321,024	-0,278	-0,372
32,780	177,016	-0,257	-0,263
33,794	376,965	-0,246	-0,355
34,809	145,315	-0,351	-0,331
35,823	172,820	-0,310	-0,314
36,838	46,778	-0,433	-0,283
37,853	395,628	-0,272	-0,401
38,867	116,924	-0,324	-0,280
39,882	99,189	-0,325	-0,264
40,896	-7,163	-0,411	-0,195
41,911	24,764	-0,411	-0,239
42,926	111,897	-0,310	-0,263
43,940	19,542	-0,436	-0,246
44,955	17,968	-0,453	-0,253
45,969	76,143	-0,376	-0,280
46,984	192,192	-0,326	-0,346
47,999	80,690	-0,304	-0,230
49,013	-34,318	-0,293	-0,112
50,028	176,791	-0,179	-0,183
51,042	52,709	-0,424	-0,284
52,057	6,062	-0,379	-0,197
53,071	219,399	-0,301	-0,339
54,086	-26,242	-0,405	-0,166
55,101	93,701	-0,372	-0,296
56,115	90,129	-0,263	-0,206
57,130	-24,938	-0,319	-0,132
58,144	111,012	-0,237	-0,200
59,159	-34,007	-0,459	-0,176
60,174	-12,628	-0,271	-0,123
61,188	17,656	-0,430	-0,239
62,203	146,261	-0,260	-0,245
63,217	-26,390	-0,188	-0,077
64,232	27,446	-0,313	-0,184
65,247	13,863	-0,483	-0,263
66,261	137,678	-0,324	-0,297
67,276	514,893	-0,236	-0,388
68,290	114,483	-0,346	-0,295
69,305	114,744	-0,260	-0,223
70,320	-94,390	-0,329	-0,062
71,334	89,820	-0,311	-0,243
72,349	28,055	-0,261	-0,154
73,363	505,236	-0,153	-0,250
74,378	134,276	-0,427	-0,388
75,393	25,194	-0,261	-0,152
76,407	-4,698	-0,409	-0,197
77,422	-9,658	-0,359	-0,167
78,436	-10,585	-0,271	-0,125
79,451	-43,789	-0,328	-0,115
80,466	-80,403	-0,256	-0,060
81,480	-29,912	-0,372	-0,148
82,495	23,719	-0,329	-0,189
83,509	121,173	-0,318	-0,277
84,524	-73,518	-0,264	-0,067
85,539	107,420	-0,180	-0,150
86,553	65,544	-0,205	-0,145
87,568	13,758	-0,301	-0,163
88,582	286,439	-0,240	-0,304
89,597	-87,472	-0,305	-0,064
90,611	116,923	-0,289	-0,248
91,626	116,051	-0,281	-0,241
92,641	11,855	-0,247	-0,132
93,655	27,583	-0,299	-0,176
94,670	201,475	-0,321	-0,346
95,684	92,239	-0,254	-0,200
96,699	53,961	-0,348	-0,233
97,714	189,900	-0,235	-0,247
98,728	27,693	-0,284	-0,167
99,743	66,958	-0,304	-0,216
100,757	-56,426	-0,305	-0,094
101,772	64,353	-0,286	-0,201
102,787	22,015	-0,280	-0,159
103,801	8,887	-0,304	-0,160
104,816	414,174	-0,224	-0,334
105,830	157,213	-0,209	-0,202
106,845	236,524	-0,254	-0,294
107,860	-76,302	-0,227	-0,055
108,874	62,034	-0,298	-0,208
109,889	238,262	-0,219	-0,254
110,903	139,991	-0,278	-0,256
111,918	148,092	-0,197	-0,186
112,933	-38,655	-0,209	-0,077
113,947	127,049	-0,177	-0,157
114,962	33,644	-0,188	-0,114
115,976	87,168	-0,231	-0,179
116,991	161,952	-0,325	-0,318
118,006	-9,734	-0,320	-0,148
119,020	-167,374	-0,315	-0,009
120,035	274,366	-0,216	-0,267
121,049	10,823	-0,202	-0,107
122,064	-82,318	-0,067	0,015
123,079	-4,974	-0,261	-0,125
124,093	109,532	-0,242	-0,203
125,108	153,799	-0,205	-0,196
126,122	156,249	-0,287	-0,276
127,137	-11,952	-0,169	0,077
128,151	-5,861	-0,204	-0,097
129,166	96,713	-0,211	-0,168
130,181	84,536	-0,242	-0,185
131,195	488,455	-0,166	-0,266
132,210	-14,770	-0,429	-0,191
133,224	9,241	-0,237	-0,124
134,239	-110,945	-0,331	-0,047
135,254	-83,013	-0,311	-0,069
136,268	70,271	-0,145	-0,104
137,283	-104,607	-0,187	-0,030
138,297	252,267	-0,210	-0,249
139,312	19,797	-0,235	-0,132
140,327	393,851	-0,166	-0,242
141,341	-80,065	-0,294	-0,068
142,356	90,587	-0,213	-0,166
143,370	-2,732	-0,302	-0,146
144,385	142,242	-0,165	-0,153
145,400	-14,174	-0,228	-0,102
146,414	66,438	-0,309	-0,219
147,429	323,471	-0,245	-0,327
148,443	-7,684	-0,355	-0,166
149,458	40,275	-0,230	-0,144
150,473	-192,108	-0,192	-0,001
151,487	-41,102	-0,215	-0,077
152,502	277,622	-0,193	-0,240
153,516	-18,107	-0,287	-0,125
154,531	-57,174	-0,222	-0,068
155,546	68,695	-0,269	-0,192
156,560	5,762	-0,144	-0,074
157,575	87,655	-0,234	-0,180
158,589	800,000	-0,044	-0,099
159,604	67,911	-0,220	-0,156
160,619	240,859	-0,242	-0,281
161,633	30,685	-0,249	-0,148
162,648	48,448	-0,237	-0,154
163,662	-10,876	-0,206	-0,094
164,677	67,098	-0,259	-0,183
165,692	47,443	-0,142	-0,092
166,706	46,262	-0,368	-0,237
167,721	481,524	-0,153	-0,242
168,735	-46,838	-0,223	-0,075
169,750	-89,035	-0,096	-0,020
170,764	131,192	-0,157	-0,140
171,779	130,864	-0,160	-0,142
172,794	6,314	-0,210	-0,108
173,808	232,110	-0,112	-0,128
174,823	340,374	-0,179	-0,243
175,837	463,847	-0,161	-0,251
176,852	799,840	-0,166	-0,320
177,867	-172,817	-0,301	-0,006
178,881	-32,013	-0,175	-0,068
179,896	453,162	-0,117	-0,181
180,910	137,704	-0,194	-0,176
181,925	-70,190	-0,257	-0,067
182,940	190,904	-0,133	-0,139
183,954	-78,001	-0,265	-0,063
184,969	49,823	-0,299	-0,195
185,983	87,540	-0,225	-0,172
186,998	117,715	-0,231	-0,197
188,013	161,548	-0,254	-0,247
189,027	143,464	-0,150	-0,138
190,042	319,706	-0,205	-0,271
191,056	123,516	-0,167	-0,145
192,071	29,094	-0,155	-0,091
193,086	195,868	-0,196	-0,207
194,100	-33,183	-0,220	-0,084
195,115	-93,468	-0,259	-0,049
196,129	321,485	-0,185	-0,245
197,144	139,581	-0,226	-0,206
198,159	66,283	-0,199	-0,140
199,173	800,000	-0,111	-0,295
200,188	-13,434	-0,162	-0,073
201,202	150,860	-0,116	-0,109
202,217	55,190	-0,305	-0,204
203,232	-134,334	-0,196	-0,016
204,246	143,375	-0,167	-0,154
205,261	613,017	-0,153	-0,266
206,275	217,976	-0,151	-0,167
207,290	469,100	-0,101	-0,157
208,304	784,875	-0,100	-0,191
209,319	6,748	-0,305	-0,157
210,334	184,056	-0,200	-0,205
211,348	148,035	-0,250	-0,233
212,363	-55,940	-0,147	-0,045
213,377	-200,000	-0,037	-0,131
214,392	-200,000	-0,078	-0,275
215,407	-72,312	-0,106	-0,027
216,421	42,903	-0,155	-0,098
217,436	284,650	-0,135	-0,168
218,450	40,162	-0,271	-0,168
219,465	-12,377	-0,224	-0,101
220,480	207,336	-0,068	-0,073
221,494	515,119	-0,136	-0,220
222,509	-144,283	-0,278	-0,018
223,523	-75,899	-0,142	-0,034
224,538	511,965	-0,071	-0,114
225,553	77,756	-0,158	-0,116
226,567	32,392	-0,281	-0,168
227,582	445,629	-0,101	-0,154
228,596	-200,000	-0,042	-0,231
229,611	572,040	-0,099	-0,167
230,626	47,042	-0,174	-0,112
231,640	658,127	-0,108	-0,193
232,655	40,676	-0,213	-0,132
233,669	-169,780	-0,179	-0,004
234,684	800,000	-0,082	-0,173
235,699	-95,154	-0,226	-0,042
236,713	-62,560	-0,102	-0,029
237,728	165,258	-0,158	-0,155
238,742	-12,133	-0,067	-0,030
239,757	375,433	-0,105	-0,148
240,772	177,384	-0,211	-0,213
241,786	-200,000	-0,112	-0,368
242,801	800,000	-0,054	-0,129
243,815	-63,615	-0,271	-0,076
244,830	273,070	-0,155	-0,190
245,844	56,095	-0,196	-0,131
246,859	2,120	-0,204	-0,102
247,874	533,182	-0,117	-0,192
248,888	7,387	-0,164	-0,084
249,903	111,676	-0,197	-0,164
250,917	-7,699	-0,191	-0,089
251,932	-5,892	-0,208	-0,098
252,947	-134,995	-0,242	-0,020
253,961	34,947	-0,156	-0,094
254,976	7,753	-0,167	-0,086
255,990	163,137	-0,213	-0,207
257,005	-63,316	-0,237	-0,067
258,020	-200,000	-0,018	-0,062
259,034	-29,102	-0,224	-0,088
260,049	108,862	-0,163	-0,134
261,063	206,978	-0,154	-0,166
262,078	-5,330	-0,240	-0,113
263,093	-37,825	-0,189	-0,069
264,107	-33,007	-0,186	-0,071
265,122	112,277	-0,095	-0,079
266,136	82,677	-0,133	-0,100
267,151	332,482	-0,138	-0,183
268,166	167,057	-0,126	-0,123
269,180	179,673	-0,164	-0,166
270,195	358,010	-0,185	-0,255
271,209	-21,417	-0,233	-0,098
272,224	122,997	-0,216	-0,186
273,239	-186,653	-0,252	-0,002
274,253	49,610	-0,129	-0,083
275,268	350,617	-0,098	-0,134
276,282	-130,128	-0,199	-0,018
277,297	286,823	-0,190	-0,237
278,312	128,615	-0,249	-0,218
279,326	800,000	-0,089	-0,170
280,341	-74,588	-0,140	-0,035
281,355	92,623	-0,149	-0,116
282,370	62,432	-0,280	-0,192
283,384	31,612	-0,181	-0,107
284,399	129,638	-0,169	-0,149
285,414	411,965	-0,198	-0,290
286,428	369,941	-0,124	-0,173
287,443	-128,884	-0,150	-0,014
288,457	-85,025	-0,116	0,025
289,472	129,331	-0,143	-0,126
290,487	383,950	-0,170	-0,241
291,501	314,088	-0,077	-0,100
292,516	-170,324	-0,135	-0,003
293,530	169,679	-0,132	-0,129
294,545	800,000	-0,053	-0,123
295,560	-42,951	-0,203	-0,070
296,574	87,444	-0,159	-0,121
297,589	-53,678	-0,221	-0,069
298,603	170,296	-0,189	-0,186
299,618	-200,000	-0,016	-0,137
300,633	239,739	-0,142	-0,163
301,647	534,131	-0,192	-0,314
302,662	137,348	-0,105	-0,094
303,676	366,603	-0,064	-0,089
304,691	405,818	-0,056	-0,081
305,706	284,667	-0,155	-0,192
306,720	157,516	-0,213	-0,203
307,735	78,867	-0,175	-0,128
308,749	-80,932	-0,165	-0,037
309,764	337,803	-0,076	-0,102
310,779	800,000	-0,099	-0,197
311,793	280,568	-0,144	-0,177
312,808	-104,499	-0,122	-0,019
313,822	6,340	-0,086	-0,044
314,837	-200,000	-0,010	-0,047
315,852	-112,645	-0,099	0,013
316,866	-110,069	-0,198	-0,028
317,881	263,777	-0,167	-0,200
318,895	-148,062	-0,184	-0,010
319,910	145,521	-0,091	-0,083
320,925	209,317	-0,255	-0,274
321,939	-67,317	-0,109	0,029
322,954	591,362	-0,051	0,086
323,968	-39,000	-0,089	-0,032
324,983	131,449	-0,112	0,099
325,997	-62,806	-0,071	-0,020
327,012	-200,000	-0,001	-0,260
328,027	-18,457	-0,158	-0,067
329,041	-25,465	-0,172	-0,069
330,056	-1,200	-0,116	-0,056
331,070	225,191	-0,093	-0,104
332,085	53,373	-0,139	0,091
333,100	204,855	-0,142	-0,151
334,114	233,020	-0,105	-0,118
335,129	-169,994	-0,160	-0,004
336,143	-65,553	-0,156	-0,043
337,158	-0,945	-0,210	-0,101
338,173	89,872	-0,124	-0,095
339,187	111,368	-0,162	-0,134
340,202	-34,776	-0,263	-0,098
341,216	-200,000	-0,048	-0,196
342,231	544,722	-0,095	-0,156
343,246	36,838	-0,229	-0,138
344,260	-200,000	-0,035	0,118
345,275	5,145	-0,092	0,046
346,289	-65,146	-0,268	-0,073
347,304	-15,789	-0,200	-0,087
348,319	93,170	-0,094	-0,073
349,333	449,965	-0,124	-0,188
350,348	-44,949	-0,271	-0,092
351,362	220,231	-0,093	-0,102
352,377	-10,878	-0,148	-0,067
353,392	800,000	-0,072	-0,142
354,406	-23,679	-0,138	-0,056
355,421	207,082	1306,979	1395,004
356,435	159,287	1466,736	1395,484
