DTS Sentinel unit serial number:	SN410029Multiplexer serial number:	ORYXHardware model number:	OX2-SRSoftware version number:	ORYX F/W v4,00 Oryx Data Collector v3.7.2.0data status	okinstallation	B3 Nyhavnadifferential loss correction	single-endedforward channel	channel 1reverse channel	N/Adate	2023/12/01time	21:32:30forward acquisition time	300,00reverse acquisition time	0,00gamma	499,1914k internal	0,3196k external	0,3196temperature offset calibration	1,0000default loss term (dB/km)	0,3820temperature slope calibration	1,0000multiplexer offset coefficient	1,0000multiplexer slope coefficient	1,0000fibre end	0,00T internal ref (°C)	16,02T ext. ref 1 (°C)	1,13T ext. ref 2 (°C)	1,15length (m)	temperature (°C)	Stokes	anti-Stokes-744,400	721,569	-0,126	-0,246
-743,385	-200,000	0,034	0,180
-742,371	61,205	-0,290	-0,209
-741,356	-200,000	0,028	0,321
-740,342	12,084	-0,195	-0,109
-739,327	-200,000	0,037	0,296
-738,312	-16,118	-0,360	-0,166
-737,298	-200,000	-0,003	0,221
-736,283	800,000	-0,058	-0,137
-735,269	-200,000	0,015	0,399
-734,254	-33,083	-0,224	-0,090
-733,239	34,088	-0,165	0,104
-732,225	191,275	-0,263	-0,288
-731,210	92,585	0,113	0,093
-730,196	362,630	-0,087	-0,128
-729,181	-200,000	-0,016	-0,099
-728,167	414,462	0,016	0,024
-727,152	-169,568	-0,053	-0,001
-726,137	-134,839	-0,098	-0,008
-725,123	-62,251	-0,152	0,046
-724,108	-49,076	-0,067	0,023
-723,094	-46,426	-0,189	-0,067
-722,079	-10,599	-0,142	-0,068
-721,064	226,827	0,096	-0,113
-720,050	334,589	-0,031	-0,044
-719,035	52,219	0,047	-0,033
-718,021	201,728	-0,024	-0,027
-717,006	-171,077	-0,104	0,003
-715,991	27,321	-0,131	0,080
-714,977	114,599	-0,085	-0,076
-713,962	-200,000	0,004	0,032
-712,948	282,798	-0,049	-0,064
-711,933	477,640	-0,032	-0,052
-710,918	-66,782	0,067	-0,019
-709,904	125,914	-0,058	-0,053
-708,889	-11,386	0,126	-0,060
-707,875	-124,205	-0,065	0,007
-706,860	800,000	0,073	0,150
-705,845	-200,000	0,000	0,003
-704,831	-200,000	-0,007	0,057
-703,816	88,144	-0,053	0,042
-702,802	192,797	-0,022	0,024
-701,787	-26,110	-0,099	-0,042
-700,772	316,994	-0,112	-0,154
-699,758	-200,000	-0,002	-0,057
-698,743	-81,690	0,174	0,041
-697,729	-200,000	-0,003	0,095
-696,714	319,922	-0,006	-0,008
-695,699	-200,000	-0,015	-0,090
-694,685	250,958	0,025	-0,031
-693,670	-200,000	0,022	-0,135
-692,656	775,512	-0,029	-0,058
-691,641	-23,650	-0,057	0,025
-690,627	75,073	0,128	-0,098
-689,612	102,776	-0,056	-0,048
-688,597	293,126	-0,124	-0,165
-687,583	160,947	-0,079	-0,081
-686,568	800,000	-0,032	-0,096
-685,554	-134,800	-0,119	-0,010
-684,539	182,103	-0,032	0,034
-683,524	342,549	0,068	0,097
-682,510	800,000	0,037	-0,117
-681,495	-200,000	-0,003	-0,116
-680,481	27,211	0,048	-0,029
-679,466	-200,000	0,021	-0,154
-678,451	133,386	0,017	0,016
-677,437	1,902	-0,054	-0,028
-676,422	684,354	0,013	-0,024
-675,408	-200,000	-0,060	0,000
-674,393	314,146	0,076	0,104
-673,378	187,738	-0,123	-0,134
-672,364	-200,000	0,016	-0,082
-671,349	800,000	0,056	-0,137
-670,335	-200,000	0,016	-0,186
-669,320	44,463	-0,032	-0,021
-668,305	5,734	-0,031	-0,016
-667,291	800,000	-0,043	-0,122
-666,276	-24,946	-0,122	-0,053
-665,262	-200,000	-0,031	-0,115
-664,247	98,258	-0,092	-0,077
-663,232	800,000	-0,032	-0,070
-662,218	-95,542	0,157	-0,030
-661,203	-200,000	-0,021	-0,119
-660,189	-29,394	-0,149	0,062
-659,174	800,000	-0,033	0,068
-658,159	-200,000	-0,002	-0,096
-657,145	-200,000	-0,036	-0,130
-656,130	-143,808	-0,111	-0,008
-655,116	-38,934	0,033	-0,013
-654,101	-200,000	-0,002	0,103
-653,086	-85,748	-0,052	0,012
-652,072	178,268	-0,147	-0,156
-651,057	-200,000	0,004	-0,050
-650,043	-188,365	-0,130	-0,001
-649,028	148,472	0,083	0,082
-648,014	-200,000	0,011	0,159
-646,999	35,089	-0,061	0,038
-645,984	800,000	-0,029	-0,090
-644,970	269,271	-0,023	-0,030
-643,955	-73,082	-0,026	-0,007
-642,941	69,971	-0,070	-0,052
-641,926	-128,349	-0,084	0,009
-640,911	32,361	0,073	-0,046
-639,897	-200,000	-0,030	0,112
-638,882	96,705	-0,082	0,069
-637,868	800,000	-0,045	-0,127
-636,853	216,817	-0,077	-0,089
-635,838	21,801	-0,105	-0,062
-634,824	182,834	0,074	-0,080
-633,809	-75,005	-0,149	0,038
-632,795	644,231	0,037	-0,069
-631,780	192,859	-0,014	-0,015
-630,765	-136,463	-0,098	-0,008
-629,751	-200,000	-0,024	-0,089
-628,736	-200,000	0,009	-0,058
-627,722	-68,306	0,021	-0,006
-626,707	-200,000	-0,002	0,045
-625,692	118,450	0,073	0,066
-624,678	800,000	0,031	-0,084
-623,663	-6,335	-0,181	-0,089
-622,649	800,000	-0,015	-0,039
-621,634	97,871	0,049	-0,041
-620,619	-50,135	-0,019	-0,006
-619,605	-200,000	-0,031	-0,110
-618,590	-146,415	-0,093	-0,006
-617,576	-100,125	-0,045	-0,008
-616,561	800,000	-0,020	-0,045
-615,546	-180,673	-0,035	-0,001
-614,532	473,809	-0,035	0,057
-613,517	800,000	-0,032	-0,088
-612,503	-200,000	-0,029	-0,094
-611,488	-63,224	0,082	-0,024
-610,474	79,725	-0,085	0,066
-609,459	47,670	0,070	0,047
-608,444	-31,564	0,086	-0,035
-607,430	200,164	-0,128	-0,143
-606,415	110,277	0,017	0,014
-605,401	-47,741	0,052	-0,018
-604,386	640,670	0,029	-0,054
-603,371	-200,000	0,074	-0,245
-602,357	-1,731	-0,068	-0,035
-601,342	-85,571	0,101	-0,023
-600,328	-81,341	-0,108	-0,026
-599,313	-200,000	-0,016	-0,067
-598,298	-82,700	-0,051	-0,012
-597,284	55,999	0,044	0,031
-596,269	-200,000	-0,017	-0,071
-595,255	-113,320	-0,098	-0,014
-594,240	-26,246	-0,059	-0,025
-593,225	50,113	-0,018	-0,012
-592,211	800,000	-0,031	-0,070
-591,196	-200,000	-0,037	-0,144
-590,182	255,047	0,143	-0,177
-589,167	-200,000	0,017	0,080
-588,152	173,839	-0,060	0,062
-587,138	169,030	-0,088	-0,091
-586,123	684,032	0,054	-0,102
-585,109	371,733	-0,077	-0,113
-584,094	-120,416	0,099	0,012
-583,079	-200,000	-0,010	0,045
-582,065	800,000	-0,023	0,073
-581,050	-200,000	0,017	0,148
-580,036	-138,567	0,052	0,004
-579,021	505,885	-0,041	0,069
-578,006	800,000	-0,030	-0,079
-576,992	800,000	0,047	0,098
-575,977	-200,000	0,007	0,073
-574,963	-90,155	0,100	0,021
-573,948	124,058	-0,062	0,057
-572,934	72,499	0,101	-0,076
-571,919	75,044	-0,091	-0,069
-570,904	163,648	-0,061	-0,062
-569,890	190,140	-0,060	-0,066
-568,875	-94,088	0,091	0,018
-567,861	800,000	0,004	0,008
-566,846	800,000	-0,055	-0,161
-565,831	83,740	-0,099	0,078
-564,817	123,637	-0,034	-0,031
-563,802	-200,000	-0,003	0,067
-562,788	97,651	0,049	-0,040
-561,773	35,698	0,085	-0,054
-560,758	179,339	-0,029	0,031
-559,744	590,767	0,028	0,049
-558,729	771,005	-0,052	0,104
-557,715	-200,000	-0,018	-0,132
-556,700	181,702	-0,060	-0,064
-555,685	-200,000	-0,051	-0,209
-554,671	-200,000	0,198	-0,000
-553,656	-200,000	-0,008	-0,085
-552,642	-82,583	0,080	0,019
-551,627	-149,008	-0,038	0,002
-550,612	-200,000	0,013	-0,077
-549,598	-38,063	-0,087	-0,033
-548,583	273,636	-0,009	0,012
-547,569	-165,821	-0,077	-0,002
-546,554	-139,845	0,131	-0,010
-545,539	-200,000	-0,005	0,154
-544,525	800,000	0,014	-0,038
-543,510	-71,078	-0,116	-0,031
-542,496	457,664	-0,056	-0,090
-541,481	175,297	0,063	0,066
-540,466	300,140	-0,081	-0,108
-539,452	664,016	0,026	-0,049
-538,437	142,269	0,009	0,009
-537,423	-200,000	0,022	-0,092
-536,408	94,805	0,052	0,043
-535,393	-164,544	-0,068	0,002
-534,379	-200,000	0,030	-0,126
-533,364	-200,000	0,002	-0,216
-532,350	159,744	0,092	-0,093
-531,335	99,090	0,028	-0,023
-530,321	508,364	0,052	-0,087
-529,306	80,783	0,041	-0,032
-528,291	268,343	0,055	0,070
-527,277	-137,907	0,024	0,002
-526,262	-122,103	-0,137	-0,016
-525,248	0,559	0,026	-0,013
-524,233	-147,887	0,152	0,009
-523,218	92,509	0,096	0,078
-522,204	800,000	-0,005	0,010
-521,189	191,582	0,076	0,083
-520,175	-200,000	0,004	-0,014
-519,160	-15,106	-0,142	-0,065
-518,145	800,000	0,050	-0,118
-517,131	36,625	0,088	0,056
-516,116	-26,949	-0,118	0,049
-515,102	-121,595	0,081	-0,010
-514,087	-200,000	0,005	-0,081
-513,072	-75,685	-0,102	0,026
-512,058	-200,000	0,000	0,123
-511,043	-200,000	-0,020	0,134
-510,029	4,217	-0,087	-0,046
-509,014	-133,883	0,101	0,009
-507,999	800,000	0,035	-0,073
-506,985	291,375	-0,010	0,013
-505,970	-69,432	-0,092	-0,025
-504,956	-172,630	-0,212	-0,005
-503,941	-9,185	-0,156	0,075
-502,926	-140,091	0,073	0,005
-501,912	800,000	-0,071	0,196
-500,897	30,813	0,074	0,046
-499,883	800,000	0,021	0,055
-498,868	-110,572	-0,055	-0,008
-497,853	233,483	-0,097	-0,115
-496,839	-136,212	-0,061	-0,005
-495,824	-200,000	-0,015	-0,076
-494,810	800,000	0,040	0,097
-493,795	-105,472	-0,131	0,021
-492,781	-12,513	0,134	0,063
-491,766	-20,587	-0,227	-0,100
-490,751	-200,000	-0,027	-0,159
-489,737	-108,574	-0,131	-0,020
-488,722	-25,070	0,023	0,010
-487,708	-200,000	-0,007	-0,070
-486,693	284,903	0,048	0,062
-485,678	-22,432	-0,013	-0,006
-484,664	-73,017	-0,080	-0,021
-483,649	-58,348	-0,204	0,064
-482,635	-138,711	0,055	-0,004
-481,620	167,408	-0,031	0,032
-480,605	246,829	-0,052	0,064
-479,591	60,116	0,079	0,056
-478,576	-200,000	-0,007	-0,090
-477,562	130,081	0,042	-0,039
-476,547	780,066	-0,045	-0,090
-475,532	-200,000	0,053	-0,236
-474,518	800,000	0,015	-0,041
-473,503	220,070	0,102	0,118
-472,489	45,654	0,125	0,083
-471,474	77,235	-0,029	0,022
-470,459	-47,204	-0,133	-0,047
-469,445	360,178	-0,077	-0,111
-468,430	-29,575	-0,069	0,028
-467,416	-200,000	0,010	0,077
-466,401	-200,000	-0,019	-0,123
-465,386	23,411	0,087	-0,051
-464,372	800,000	-0,024	0,071
-463,357	800,000	-0,029	-0,072
-462,343	-191,609	-0,098	0,001
-461,328	-200,000	-0,012	0,053
-460,313	371,521	0,053	0,078
-459,299	82,656	0,014	0,011
-458,284	628,656	0,069	0,127
-457,270	-200,000	-0,001	0,056
-456,255	402,073	0,051	-0,078
-455,241	800,000	-0,049	-0,112
-454,226	800,000	-0,019	-0,049
-453,211	15,280	0,111	0,062
-452,197	800,000	-0,029	-0,077
-451,182	-200,000	-0,034	0,154
-450,168	800,000	-0,025	0,073
-449,153	800,000	-0,019	-0,061
-448,138	-200,000	-0,002	-0,088
-447,124	-42,411	-0,018	0,007
-446,109	-100,359	-0,060	-0,011
-445,095	209,380	0,041	-0,047
-444,080	800,000	0,025	-0,053
-443,065	-200,000	-0,002	-0,128
-442,051	-200,000	0,012	0,101
-441,036	-200,000	-0,066	0,000
-440,022	260,067	0,041	-0,052
-439,007	-200,000	0,009	-0,112
-437,992	-22,866	0,023	0,010
-436,978	251,336	0,064	0,079
-435,963	18,243	0,065	-0,037
-434,949	-142,595	-0,138	-0,010
-433,934	2,414	0,111	0,058
-432,919	800,000	0,040	0,095
-431,905	-122,348	0,060	-0,007
-430,890	264,719	-0,053	0,067
-429,876	-120,020	0,130	-0,016
-428,861	281,847	-0,027	-0,035
-427,846	800,000	-0,015	0,038
-426,832	50,803	0,069	0,047
-425,817	-111,876	-0,081	0,012
-424,803	-200,000	-0,005	0,196
-423,788	-200,000	-0,064	0,238
-422,773	800,000	0,068	0,147
-421,759	-200,000	0,015	0,052
-420,744	222,857	-0,025	-0,028
-419,730	266,501	-0,076	-0,095
-418,715	-1,608	0,019	0,010
-417,701	800,000	-0,034	-0,073
-416,686	-200,000	0,017	-0,081
-415,671	-200,000	0,014	0,050
-414,657	-79,783	-0,033	0,008
-413,642	54,867	-0,080	-0,055
-412,628	-200,000	0,005	-0,043
-411,613	-12,949	-0,076	-0,035
-410,598	50,821	0,017	-0,012
-409,584	170,198	0,060	-0,062
-408,569	-87,596	0,128	-0,028
-407,555	690,735	0,029	-0,054
-406,540	736,262	0,012	-0,023
-405,525	800,000	-0,046	0,093
-404,511	46,559	-0,068	-0,046
-403,496	479,225	0,043	-0,070
-402,482	-118,504	0,099	0,012
-401,467	-19,808	0,068	0,030
-400,452	-132,877	0,164	0,015
-399,438	800,000	-0,019	-0,058
-398,423	32,307	-0,128	-0,079
-397,409	-95,869	0,043	-0,008
-396,394	-129,572	-0,155	0,015
-395,379	602,758	-0,007	0,012
-394,365	800,000	-0,014	0,043
-393,350	133,966	0,030	0,027
-392,336	-200,000	0,000	0,017
-391,321	-200,000	0,013	0,101
-390,306	-200,000	0,005	-0,016
-389,292	122,182	0,008	-0,007
-388,277	60,142	0,025	0,018
-387,263	200,018	0,058	-0,064
-386,248	-149,826	0,198	-0,011
-385,233	800,000	0,024	0,055
-384,219	800,000	-0,074	-0,183
-383,204	799,889	-0,014	0,028
-382,190	262,957	-0,092	-0,115
-381,175	-200,000	-0,009	0,066
-380,160	-160,879	0,034	-0,001
-379,146	800,000	0,072	0,220
-378,131	-200,000	-0,040	-0,139
-377,117	-181,164	0,026	0,000
-376,102	-123,449	0,092	0,010
-375,088	-200,000	-0,026	0,117
-374,073	-200,000	0,027	0,147
-373,058	15,786	0,039	0,022
-372,044	419,326	0,063	0,096
-371,029	766,914	-0,053	0,105
-370,015	-45,302	-0,065	0,023
-369,000	17,955	-0,103	0,059
-367,985	364,530	0,056	0,081
-366,971	-79,302	-0,171	-0,041
-365,956	-200,000	0,023	0,113
-364,942	326,568	-0,096	0,132
-363,927	-117,999	0,090	0,011
-362,912	78,166	-0,112	0,086
-361,898	-200,000	0,027	-0,102
-360,883	-59,480	0,039	0,012
-359,869	597,522	-0,090	0,161
-358,854	27,419	0,073	-0,044
-357,839	-200,000	0,015	-0,090
-356,825	470,585	0,090	0,146
-355,810	504,086	0,092	0,153
-354,796	-159,087	-0,039	0,002
-353,781	800,000	-0,025	0,057
-352,766	599,265	0,026	-0,046
-351,752	178,500	-0,082	0,086
-350,737	-91,390	0,126	0,026
-349,723	-37,180	0,063	0,024
-348,708	573,533	0,103	-0,181
-347,693	-42,239	-0,063	-0,023
-346,679	-200,000	0,004	-0,067
-345,664	800,000	0,037	0,082
-344,650	-106,282	0,042	0,007
-343,635	157,825	-0,034	0,034
-342,620	-53,628	0,106	0,034
-341,606	-64,670	-0,085	0,025
-340,591	-145,437	-0,047	0,003
-339,577	394,288	0,081	-0,121
-338,562	-181,428	0,068	-0,001
-337,548	293,636	0,021	-0,028
-336,533	-46,844	-0,064	-0,022
-335,518	-200,000	-0,009	0,034
-334,504	81,922	0,033	-0,026
-333,489	-200,000	-0,002	0,057
-332,475	-56,472	0,086	-0,027
-331,460	-200,000	-0,012	0,147
-330,445	-119,674	0,053	-0,006
-329,431	-51,561	0,043	-0,014
-328,416	202,265	0,085	-0,094
-327,402	-39,506	-0,111	0,041
-326,387	133,019	0,126	0,117
-325,372	3,029	0,076	0,039
-324,358	-124,599	-0,076	-0,008
-323,343	367,229	-0,067	0,097
-322,329	290,520	0,080	-0,104
-321,314	800,000	-0,024	0,050
-320,299	216,889	0,083	0,095
-319,285	-100,581	-0,054	0,009
-318,270	-135,853	0,067	-0,006
-317,256	-170,068	-0,131	0,003
-316,241	140,082	0,094	-0,088
-315,226	-22,142	0,118	0,051
-314,212	-200,000	0,040	0,156
-313,197	-200,000	-0,025	0,169
-312,183	571,453	-0,031	0,054
-311,168	91,914	0,038	-0,031
-310,153	-95,040	-0,154	-0,029
-309,139	-142,193	-0,038	0,003
-308,124	-117,714	0,094	0,012
-307,110	-48,821	-0,030	-0,010
-306,095	-6,420	-0,144	0,070
-305,080	-60,400	0,157	0,047
-304,066	-185,810	0,079	-0,001
-303,051	-8,620	-0,100	-0,048
-302,037	-91,772	0,105	-0,021
-301,022	-200,000	0,004	0,027
-300,008	-39,061	-0,057	0,021
-298,993	277,839	-0,074	0,094
-297,978	-94,523	-0,057	0,011
-296,964	68,604	-0,026	-0,019
-295,949	-200,000	-0,003	0,027
-294,935	705,408	-0,063	-0,119
-293,920	170,983	0,034	-0,034
-292,905	-200,000	-0,024	0,099
-291,891	-200,000	0,023	0,074
-290,876	157,111	0,095	0,094
-289,862	-14,134	0,108	0,050
-288,847	46,993	-0,083	-0,055
-287,832	63,959	-0,081	-0,058
-286,818	6,744	0,038	0,020
-285,803	-81,799	0,265	0,062
-284,789	-131,763	0,082	-0,008
-283,774	-118,491	0,101	-0,013
-282,759	-83,390	0,136	0,031
-281,745	165,447	-0,071	-0,072
-280,730	-136,813	-0,038	0,003
-279,716	-54,960	-0,027	0,009
-278,701	375,001	-0,031	0,045
-277,686	503,709	-0,035	0,058
-276,672	-200,000	-0,024	0,102
-275,657	-100,198	-0,158	0,028
-274,643	-174,022	-0,082	-0,002
-273,628	277,910	-0,080	-0,102
-272,613	452,611	0,041	-0,066
-271,599	-114,856	-0,083	-0,011
-270,584	800,000	0,039	0,088
-269,570	-200,000	-0,003	0,057
-268,555	800,000	-0,015	-0,031
-267,540	-147,683	0,129	0,008
-266,526	-200,000	-0,001	0,009
-265,511	-157,436	-0,076	-0,003
-264,497	800,000	0,041	0,107
-263,482	63,155	0,130	0,093
-262,467	-4,166	0,034	0,017
-261,453	57,727	-0,066	0,046
-260,438	-61,962	-0,097	0,029
-259,424	157,892	0,044	-0,044
-258,409	-31,810	0,081	-0,032
-257,395	-200,000	-0,006	0,048
-256,380	54,634	0,120	0,082
-255,365	-112,878	-0,112	0,016
-254,351	-149,493	0,176	-0,010
-253,336	-132,192	0,113	-0,010
-252,322	-200,000	0,014	-0,068
-251,307	-50,431	-0,180	0,060
-250,292	800,000	0,030	0,088
-249,278	-109,965	0,132	0,019
-248,263	141,592	0,090	0,085
-247,249	-200,000	0,025	0,086
-246,234	-200,000	0,032	-0,108
-245,219	-180,822	-0,140	0,002
-244,205	80,263	-0,093	-0,071
-243,190	-139,658	0,074	0,006
-242,176	-93,754	0,060	-0,012
-241,161	800,000	-0,031	0,077
-240,146	97,216	0,162	0,132
-239,132	-121,146	0,040	-0,005
-238,117	-200,000	-0,007	-0,212
-237,103	-200,000	-0,003	-0,079
-236,088	-112,676	-0,122	-0,017
-235,073	-40,916	0,119	-0,044
-234,059	800,000	0,033	0,088
-233,044	-153,333	0,054	0,003
-232,030	310,424	-0,087	-0,117
-231,015	-143,445	-0,097	-0,007
-230,000	129,856	-0,098	-0,089
-228,986	-200,000	-0,025	-0,114
-227,971	97,570	0,055	0,045
-226,957	800,000	-0,020	0,043
-225,942	-113,546	0,105	-0,014
-224,927	-200,000	-0,027	0,108
-223,913	94,150	-0,056	-0,045
-222,898	-42,667	-0,084	-0,030
-221,884	192,010	0,039	-0,042
-220,869	51,162	-0,048	0,033
-219,855	-200,000	-0,011	-0,048
-218,840	118,243	0,019	0,017
-217,825	203,270	-0,048	0,053
-216,811	316,923	-0,025	0,034
-215,796	286,021	-0,081	-0,104
-214,782	-79,132	0,090	0,022
-213,767	-27,557	0,023	-0,010
-212,752	-200,000	0,010	0,055
-211,738	90,816	0,083	-0,067
-210,723	170,659	-0,093	0,095
-209,709	-200,000	-0,013	0,176
-208,694	800,000	-0,031	-0,088
-207,679	126,385	0,121	-0,110
-206,665	-200,000	-0,005	-0,078
-205,650	118,989	0,075	0,066
-204,636	-130,128	0,019	-0,002
-203,621	141,855	-0,031	0,030
-202,606	170,496	0,095	-0,097
-201,592	315,931	0,013	0,017
-200,577	800,000	0,041	-0,115
-199,563	204,785	0,036	0,039
-198,548	-200,000	0,010	0,055
-197,533	151,746	-0,030	0,030
-196,519	-200,000	-0,026	0,192
-195,504	20,276	-0,178	0,102
-194,490	-200,000	-0,023	-0,123
-193,475	-54,221	-0,076	-0,024
-192,460	24,079	0,099	0,058
-191,446	800,000	0,061	0,131
-190,431	87,126	0,032	-0,025
-189,417	78,187	0,104	0,079
-188,402	-14,213	-0,150	-0,069
-187,387	-200,000	-0,044	-0,164
-186,373	142,895	0,053	-0,050
-185,358	-10,460	-0,195	-0,092
-184,344	-200,000	0,032	0,133
-183,329	71,498	0,189	0,139
-182,315	-200,000	-0,009	0,055
-181,300	-34,616	-0,110	0,043
-180,285	-39,445	0,103	-0,038
-179,271	-200,000	-0,023	0,100
-178,256	368,650	-0,033	-0,048
-177,242	-154,811	0,027	-0,001
-176,227	800,000	0,012	-0,036
-175,212	-97,149	0,078	0,014
-174,198	-0,617	0,094	0,047
-173,183	-200,000	-0,038	0,137
-172,169	387,076	-0,021	-0,030
-171,154	-42,345	0,059	0,021
-170,139	-47,832	-0,071	-0,024
-169,125	800,000	0,066	0,145
-168,110	106,922	0,037	-0,032
-167,096	800,000	0,060	0,122
-166,081	800,000	-0,047	-0,132
-165,066	590,515	0,048	-0,084
-164,052	-8,383	-0,033	0,016
-163,037	800,000	0,066	-0,166
-162,023	-200,000	-0,016	0,141
-161,008	-200,000	0,035	-0,112
-159,993	-200,000	0,007	0,050
-158,979	-200,000	0,010	-0,048
-157,964	448,637	-0,090	-0,141
-156,950	800,000	0,073	-0,195
-155,935	-171,257	-0,114	-0,003
-154,920	-200,000	0,030	0,183
-153,906	331,471	0,028	0,039
-152,891	800,000	0,041	0,089
-151,877	144,428	0,079	0,075
-150,862	-200,000	0,015	-0,212
-149,847	-113,037	0,077	-0,011
-148,833	-128,333	-0,124	-0,012
-147,818	-200,000	-0,003	-0,048
-146,804	225,989	0,015	0,017
-145,789	800,000	-0,013	0,040
-144,775	43,078	0,100	0,065
-143,760	-154,310	-0,061	-0,003
-142,745	-200,000	0,019	-0,061
-141,731	184,073	-0,067	-0,071
-140,716	-59,750	-0,082	-0,025
-139,702	180,607	0,018	-0,018
-138,687	540,973	-0,018	0,031
-137,672	800,000	-0,023	0,047
-136,658	-200,000	-0,031	-0,159
-135,643	-83,821	0,019	-0,004
-134,629	-184,948	0,132	0,001
-133,614	-116,765	-0,095	-0,012
-132,599	84,453	-0,086	0,067
-131,585	800,000	0,092	0,192
-130,570	-200,000	0,001	0,099
-129,556	227,365	-0,072	-0,084
-128,541	-174,702	-0,157	-0,003
-127,526	-42,501	0,047	0,017
-126,512	-200,000	-0,014	0,125
-125,497	-19,349	0,125	0,055
-124,483	158,174	0,075	-0,074
-123,468	-54,174	0,072	-0,023
-122,453	-200,000	0,022	-0,071
-121,439	525,273	0,062	-0,105
-120,424	112,988	-0,024	-0,020
-119,410	450,432	0,055	-0,086
-118,395	-23,107	0,102	0,043
-117,380	330,067	0,020	-0,028
-116,366	-67,767	-0,017	-0,005
-115,351	177,067	-0,076	-0,079
-114,337	-200,000	0,022	-0,104
-113,322	-112,198	-0,066	-0,009
-112,307	107,587	0,054	0,045
-111,293	-200,000	-0,006	0,073
-110,278	-122,623	0,097	0,011
-109,264	-116,290	-0,048	0,006
-108,249	-200,000	-0,023	0,076
-107,234	15,033	0,097	0,054
-106,220	132,657	-0,039	0,035
-105,205	-200,000	-0,020	-0,112
-104,191	-200,000	0,039	0,176
-103,176	-200,000	0,011	0,084
-102,162	111,583	-0,078	-0,067
-101,147	-91,297	-0,145	0,029
-100,132	290,486	-0,017	-0,022
-99,118	344,405	-0,058	-0,082
-98,103	-169,505	-0,078	0,002
-97,089	15,835	0,118	0,066
-96,074	-45,578	-0,064	-0,022
-95,059	167,453	0,102	-0,103
-94,045	-115,786	0,078	0,010
-93,030	474,948	-0,055	-0,089
-92,016	344,740	-0,079	-0,111
-91,001	-55,330	0,112	0,036
-89,986	-108,946	0,030	-0,004
-88,972	800,000	-0,065	0,155
-87,957	-15,720	-0,104	0,047
-86,943	-119,670	0,115	-0,014
-85,928	38,595	-0,103	-0,065
-84,913	-86,882	-0,059	-0,013
-83,899	-200,000	0,041	-0,178
-82,884	-200,000	-0,003	-0,077
-81,870	-200,000	-0,003	0,028
-80,855	-16,569	-0,079	0,035
-79,840	-200,000	0,004	0,057
-78,826	361,477	0,051	-0,073
-77,811	800,000	0,070	-0,193
-76,797	-200,000	-0,003	-0,061
-75,782	6,404	0,135	-0,071
-74,767	13,565	-0,007	0,004
-73,753	-200,000	-0,003	-0,072
-72,738	-200,000	-0,011	0,122
-71,724	-200,000	0,011	-0,073
-70,709	-200,000	0,008	0,046
-69,694	315,572	-0,028	-0,038
-68,680	-200,000	0,003	0,063
-67,665	-200,000	-0,005	0,080
-66,651	538,643	-0,069	0,117
-65,636	-200,000	0,013	0,048
-64,622	391,231	0,023	-0,034
-63,607	800,000	0,057	-0,133
-62,592	57,685	0,042	0,029
-61,578	-200,000	-0,008	0,060
-60,563	322,898	0,151	0,205
-59,549	800,000	-0,066	0,181
-58,534	-60,352	-1,378	-0,413
-57,519	422,908	-1,510	-2,307
-56,505	-200,000	-0,356	-4,378
-55,490	92,882	1,069	0,856
-54,476	800,000	4,742	11,355
-53,461	-200,000	17,696	279,487
-52,446	800,000	720,138	2214,218
-51,432	558,669	1633,961	2806,638
-50,417	80,910	1657,384	1266,677
-49,403	23,853	1531,917	892,951
-48,388	17,847	1455,372	819,378
-47,373	18,274	1444,640	815,353
-46,359	17,927	1435,298	808,395
-45,344	16,120	1430,699	797,188
-44,330	16,066	1428,768	795,821
-43,315	16,108	1427,055	795,036
-42,300	16,111	1425,445	794,119
-41,286	16,132	1424,300	793,549
-40,271	16,103	1422,941	792,623
-39,257	16,100	1421,824	791,955
-38,242	16,158	1420,374	791,392
-37,227	16,123	1419,245	790,565
-36,213	16,187	1417,612	789,925
-35,198	16,111	1416,748	789,055
-34,184	16,150	1415,562	788,547
-33,169	16,047	1414,465	787,420
-32,154	16,084	1413,626	787,097
-31,140	16,137	1412,027	786,425
-30,125	16,175	1410,912	785,949
-29,111	16,128	1409,908	785,139
-28,096	16,092	1408,903	784,379
-27,082	16,068	1407,717	783,578
-26,067	16,078	1406,530	782,933
-25,052	16,112	1405,481	782,476
-24,038	16,059	1404,567	781,687
-23,023	16,064	1403,390	781,024
-22,009	15,998	1402,629	780,264
-20,994	15,944	1401,718	779,476
-19,979	15,975	1400,803	779,077
-18,965	15,993	1399,534	778,425
-17,950	15,973	1398,638	777,803
-16,936	15,972	1397,811	777,310
-15,921	15,975	1396,296	776,450
-14,906	15,961	1395,578	775,951
-13,892	15,938	1394,569	775,253
-12,877	15,921	1393,780	774,704
-11,863	15,946	1392,850	774,274
-10,848	15,935	1392,103	773,780
-9,833	15,951	1390,899	773,153
-8,819	15,900	1389,982	772,374
-7,804	15,848	1389,053	771,588
-6,790	15,912	1387,814	771,163
-5,775	15,877	1387,011	770,528
-4,760	15,825	1386,291	769,856
-3,746	15,813	1385,549	769,360
-2,731	15,847	1384,523	768,918
-1,717	15,850	1383,418	768,284
-0,702	15,843	1381,714	767,277
0,313	19,634	1302,498	740,766
1,327	35,990	706,635	439,781
2,342	55,268	125,236	85,684
3,356	6,292	16,509	8,653
4,371	2,344	3,101	1,584
5,386	-71,082	0,409	0,108
6,400	-200,000	-0,028	0,143
7,415	44,504	-0,230	-0,150
8,429	800,000	-0,139	-0,293
9,444	-0,983	-0,362	-0,181
10,459	200,452	-0,283	-0,309
11,473	205,466	-0,220	-0,242
12,488	107,152	-0,198	-0,167
13,502	61,272	-0,339	-0,238
14,517	-20,156	-0,342	-0,149
15,531	60,009	-0,271	-0,189
16,546	44,727	-0,395	-0,257
17,561	150,585	-0,273	-0,262
18,575	-142,716	-0,315	0,021
19,590	538,753	-0,150	-0,253
20,604	-68,902	-0,289	-0,078
21,619	156,798	-0,394	-0,385
22,634	366,678	-0,330	-0,473
23,648	110,726	-0,417	-0,355
24,663	475,348	-0,243	-0,389
25,677	149,504	-0,263	-0,252
26,692	-14,947	-0,452	-0,204
27,707	67,313	-0,409	-0,295
28,721	193,842	-0,422	-0,452
29,736	106,062	-0,308	-0,257
30,750	25,509	-0,582	-0,341
31,765	61,789	-0,338	-0,238
32,780	303,383	-0,247	-0,324
33,794	61,262	-0,378	-0,265
34,809	78,158	-0,331	-0,249
35,823	-15,394	-0,491	-0,221
36,838	135,790	-0,330	-0,304
37,853	5,969	-0,359	-0,187
38,867	220,423	-0,433	-0,491
39,882	27,280	-0,393	-0,232
40,896	49,843	-0,244	-0,162
41,911	140,069	-0,281	-0,262
42,926	22,280	-0,388	-0,223
43,940	68,450	-0,449	-0,325
44,955	128,331	-0,406	-0,365
45,969	7,834	-0,450	-0,237
46,984	355,721	-0,272	-0,383
47,999	128,580	-0,197	-0,177
49,013	-29,550	-0,428	-0,172
50,028	107,441	-0,267	-0,224
51,042	36,651	-0,414	-0,257
52,057	54,300	-0,364	-0,247
53,071	-62,971	-0,414	-0,120
54,086	138,049	-0,341	-0,316
55,101	306,658	-0,285	-0,376
56,115	154,701	-0,427	-0,414
57,130	571,403	-0,167	-0,289
58,144	-1,194	-0,419	-0,208
59,159	98,108	-0,489	-0,397
60,174	117,422	-0,260	-0,226
61,188	38,962	-0,472	-0,297
62,203	340,504	-0,293	-0,404
63,217	-97,855	-0,290	-0,052
64,232	20,057	-0,277	-0,157
65,247	144,837	-0,274	-0,258
66,261	82,896	-0,384	-0,294
67,276	50,558	-0,390	-0,260
68,290	167,667	-0,291	-0,292
69,305	33,627	-0,356	-0,217
70,320	51,086	-0,283	-0,189
71,334	-166,308	-0,270	-0,008
72,349	87,162	-0,411	-0,319
73,363	-59,977	-0,317	-0,095
74,378	9,260	-0,362	-0,192
75,393	68,605	-0,182	-0,131
76,407	16,231	-0,314	-0,174
77,422	-132,870	-0,329	-0,029
78,436	-75,131	-0,247	-0,062
79,451	40,378	-0,275	-0,174
80,466	147,230	-0,221	-0,209
81,480	36,816	-0,330	-0,205
82,495	19,733	-0,395	-0,223
83,509	57,619	-0,338	-0,232
84,524	-9,972	-0,337	-0,157
85,539	29,849	-0,298	-0,178
86,553	-22,795	-0,330	-0,140
87,568	146,150	-0,196	-0,185
88,582	62,142	-0,243	-0,170
89,597	197,797	-0,325	-0,349
90,611	146,310	-0,243	-0,230
91,626	1,300	-0,226	-0,114
92,641	800,000	-0,086	-0,232
93,655	39,587	-0,283	-0,178
94,670	42,780	-0,303	-0,193
95,684	207,021	-0,252	-0,276
96,699	63,910	-0,357	-0,252
97,714	34,496	-0,418	-0,256
98,728	433,953	-0,137	-0,210
99,743	-147,408	-0,197	-0,012
100,757	-34,268	-0,281	-0,108
101,772	403,240	-0,241	-0,357
102,787	304,049	-0,244	-0,318
103,801	231,028	-0,229	-0,263
104,816	194,552	-0,130	-0,139
105,830	16,571	-0,245	-0,135
106,845	-157,887	-0,317	-0,013
107,860	244,602	-0,252	-0,297
108,874	168,039	-0,355	-0,355
109,889	97,265	-0,267	-0,215
110,903	37,002	-0,381	-0,236
111,918	47,324	-0,196	-0,128
112,933	64,413	-0,208	-0,147
113,947	337,973	-0,230	-0,315
114,962	460,718	-0,120	-0,188
115,976	147,664	-0,240	-0,227
116,991	140,227	-0,273	-0,252
118,006	16,217	-0,329	-0,182
119,020	89,004	-0,191	-0,149
120,035	77,785	-0,309	-0,231
121,049	304,403	-0,131	-0,171
122,064	-134,715	-0,280	0,024
123,079	-27,301	-0,251	-0,102
124,093	47,162	-0,217	-0,141
125,108	42,061	-0,271	-0,172
126,122	333,811	-0,173	-0,236
127,137	551,800	-0,179	-0,302
128,151	33,674	-0,254	-0,155
129,166	-71,542	-0,338	-0,088
130,181	100,174	-0,283	-0,230
131,195	47,202	-0,194	-0,126
132,210	288,553	-0,279	-0,355
133,224	57,875	-0,284	-0,194
134,239	113,530	-0,244	-0,208
135,254	104,990	-0,284	-0,235
136,268	58,439	-0,198	-0,136
137,283	45,601	-0,350	-0,226
138,297	1,701	-0,335	-0,168
139,312	265,317	-0,281	-0,344
140,327	6,665	-0,317	-0,165
141,341	24,785	-0,203	-0,118
142,356	231,270	-0,143	-0,164
143,370	51,868	-0,163	-0,109
144,385	-200,000	-0,077	-0,363
145,400	167,955	-0,254	-0,253
146,414	236,291	-0,265	-0,308
147,429	238,581	-0,238	-0,277
148,443	-0,781	-0,246	-0,122
149,458	-68,414	-0,212	-0,057
150,473	14,063	-0,271	-0,147
151,487	2,693	-0,282	-0,143
152,502	-24,790	-0,209	-0,087
153,516	65,157	-0,181	-0,128
154,531	76,835	-0,345	-0,256
155,546	74,080	-0,198	-0,145
156,560	363,091	-0,122	-0,171
157,575	289,629	-0,162	-0,205
158,589	-33,038	-0,225	-0,087
159,604	123,283	-0,173	-0,151
160,619	168,767	-0,228	-0,227
161,633	-2,002	-0,310	-0,152
162,648	41,379	-0,279	-0,176
163,662	-24,558	-0,249	-0,103
164,677	-46,398	-0,190	-0,065
165,692	51,957	-0,242	-0,161
166,706	88,422	-0,309	-0,240
167,721	109,689	-0,309	-0,258
168,735	-58,580	-0,270	-0,081
169,750	493,023	-0,096	-0,155
170,764	-75,588	-0,236	-0,058
171,779	800,000	-0,065	-0,154
172,794	791,337	-0,145	-0,279
173,808	114,427	-0,184	-0,157
174,823	-46,989	-0,164	-0,055
175,837	55,878	-0,273	-0,184
176,852	158,223	-0,239	-0,231
177,867	27,403	-0,088	-0,051
178,881	117,935	-0,177	-0,152
179,896	-16,069	-0,312	-0,138
180,910	471,965	-0,063	-0,099
181,925	258,483	-0,188	-0,226
182,940	41,420	-0,267	-0,168
183,954	212,094	-0,127	-0,139
184,969	651,046	-0,088	-0,158
185,983	279,497	-0,034	-0,043
186,998	-98,388	-0,258	-0,046
188,013	693,519	-0,096	-0,176
189,027	90,741	-0,207	-0,161
190,042	-32,634	-0,337	-0,130
191,056	143,096	-0,245	-0,227
192,071	216,197	-0,216	-0,240
193,086	282,786	-0,137	-0,172
194,100	317,690	-0,118	-0,156
195,115	-70,572	-0,295	-0,077
196,129	122,553	-0,235	-0,204
197,144	210,488	-0,141	-0,154
198,159	56,575	-0,174	-0,118
199,173	73,904	-0,176	-0,129
200,188	-1,367	-0,151	-0,074
201,202	6,656	-0,272	-0,141
202,217	527,835	-0,145	-0,239
203,232	14,471	-0,177	-0,096
204,246	-124,235	-0,146	-0,016
205,261	110,403	-0,141	-0,118
206,275	63,434	-0,191	-0,133
207,290	-94,826	-0,244	-0,046
208,304	-27,627	-0,203	-0,081
209,319	800,000	-0,076	-0,214
210,334	83,514	-0,283	-0,215
211,348	484,470	-0,142	-0,226
212,363	341,976	-0,221	-0,302
213,377	7,499	-0,362	-0,188
214,392	98,206	-0,209	-0,167
215,407	-41,762	-0,167	0,059
216,421	-0,014	-0,225	-0,111
217,436	98,344	-0,123	-0,098
218,450	112,174	-0,190	-0,160
219,465	120,999	-0,172	-0,149
220,480	279,912	-0,181	-0,225
221,494	2,697	-0,236	-0,119
222,509	-29,942	-0,313	-0,123
223,523	74,826	-0,160	-0,117
224,538	73,138	-0,139	-0,101
225,553	72,347	-0,164	-0,119
226,567	145,400	-0,357	-0,333
227,582	131,844	-0,264	-0,236
228,596	-64,994	-0,239	-0,067
229,611	469,359	-0,153	-0,239
230,626	800,000	-0,085	-0,239
231,640	-26,088	-0,183	-0,075
232,655	-54,309	-0,216	-0,068
233,669	31,761	-0,174	-0,104
234,684	-12,449	-0,174	-0,079
235,699	186,803	-0,228	-0,236
236,713	-53,283	-0,255	-0,081
237,728	414,731	-0,184	-0,273
238,742	60,311	-0,225	-0,154
239,757	31,225	-0,324	-0,192
240,772	800,000	-0,049	-0,127
241,786	108,879	-0,151	-0,125
242,801	172,404	-0,174	-0,174
243,815	129,698	-0,117	-0,104
244,830	800,000	-0,069	-0,172
245,844	413,700	-0,085	-0,126
246,859	456,106	-0,219	-0,338
247,874	638,803	-0,102	-0,181
248,888	-92,692	-0,214	-0,041
249,903	198,112	-0,117	-0,124
250,917	66,878	-0,136	-0,096
251,932	327,749	-0,042	-0,056
252,947	131,752	-0,199	-0,177
253,961	82,444	-0,230	-0,173
254,976	80,633	-0,245	-0,183
255,990	125,774	-0,175	-0,153
257,005	-30,302	-0,222	-0,087
258,020	-13,855	-0,203	-0,090
259,034	104,400	-0,127	-0,104
260,049	-87,529	-0,209	-0,043
261,063	624,216	-0,107	-0,187
262,078	16,591	-0,168	-0,092
263,093	52,338	-0,234	-0,155
264,107	423,887	-0,164	-0,245
265,122	286,836	-0,113	-0,142
266,136	200,862	-0,187	-0,199
267,151	39,099	-0,102	-0,063
268,166	-80,775	-0,290	-0,066
269,180	14,330	-0,151	-0,081
270,195	22,816	-0,140	-0,079
271,209	800,000	-0,097	-0,223
272,224	-95,646	-0,173	-0,032
273,239	-42,926	-0,175	-0,061
274,253	455,895	-0,034	-0,053
275,268	214,195	-0,151	-0,165
276,282	-94,102	-0,206	-0,039
277,297	100,498	-0,205	-0,165
278,312	1,712	-0,264	-0,131
279,326	-85,492	-0,110	-0,024
280,341	-98,965	-0,196	-0,034
281,355	-95,663	-0,233	0,043
282,370	-84,738	-0,140	-0,030
283,384	-104,280	-0,172	-0,027
284,399	-187,389	-0,187	-0,002
285,414	434,134	-0,173	-0,260
286,428	122,773	-0,162	-0,140
287,443	-200,000	0,008	0,061
288,457	90,819	-0,109	-0,084
289,472	-92,021	-0,204	-0,040
290,487	96,772	-0,040	-0,032
291,501	-130,137	-0,182	0,017
292,516	-72,038	-0,217	0,055
293,530	397,762	-0,113	-0,164
294,545	-200,000	-0,060	-0,194
295,560	33,926	-0,204	-0,123
296,574	9,117	-0,152	-0,079
297,589	-200,000	-0,021	-0,117
298,603	183,262	-0,126	-0,128
299,618	354,446	-0,182	-0,250
300,633	170,585	-0,198	-0,196
301,647	-76,412	-0,200	-0,048
302,662	448,709	-0,100	-0,153
303,676	-43,662	0,070	0,024
304,691	372,887	-0,044	-0,061
305,706	-200,000	-0,043	-0,189
306,720	65,753	-0,174	-0,121
307,735	593,051	-0,091	-0,156
308,749	112,724	-0,070	-0,058
309,764	-30,399	-0,121	0,047
310,779	-64,003	-0,226	-0,063
311,793	102,386	-0,130	-0,105
312,808	348,369	-0,111	-0,151
313,822	-63,450	-0,106	-0,030
314,837	72,125	-0,203	-0,146
315,852	444,708	-0,129	-0,195
316,866	-111,081	-0,178	0,025
317,881	-26,745	-0,218	0,087
318,895	-169,328	-0,133	-0,003
319,910	192,059	-0,214	-0,222
320,925	144,758	-0,231	-0,213
321,939	-200,000	-0,020	-0,088
322,954	-19,433	-0,139	-0,059
323,968	-200,000	-0,041	-0,170
324,983	800,000	-0,052	-0,125
325,997	-121,511	-0,222	-0,025
327,012	-95,238	-0,212	-0,039
328,027	728,050	-0,085	-0,157
329,041	30,419	-0,205	-0,120
330,056	157,944	-0,124	-0,119
331,070	-106,739	-0,239	-0,036
332,085	218,995	-0,081	-0,089
333,100	-85,106	-0,141	-0,030
334,114	800,000	-0,037	-0,073
335,129	349,816	-0,148	-0,202
336,143	402,228	-0,118	-0,170
337,158	302,445	-0,061	-0,078
338,173	-200,000	-0,001	-0,018
339,187	800,000	-0,063	-0,145
340,202	-83,954	-0,086	-0,019
341,216	-200,000	0,019	-0,104
342,231	278,664	-0,176	-0,216
343,246	60,027	-0,119	-0,080
344,260	20,239	-0,139	-0,077
345,275	72,921	-0,121	-0,087
346,289	-113,851	-0,216	-0,029
347,304	89,505	-0,079	-0,060
348,319	-200,000	-0,008	-0,118
349,333	-105,486	-0,156	-0,024
350,348	280,433	-0,102	-0,125
351,362	231,210	-0,175	-0,197
352,377	-148,929	-0,182	-0,010
353,392	142,340	-0,110	-0,100
354,406	43,388	-0,216	-0,136
355,421	209,085	1314,519	1415,808
356,435	160,902	1475,279	1416,340
