DTS Sentinel unit serial number:	SN410029Multiplexer serial number:	ORYXHardware model number:	OX2-SRSoftware version number:	ORYX F/W v4,00 Oryx Data Collector v3.7.2.0data status	okinstallation	B3 Nyhavnadifferential loss correction	single-endedforward channel	channel 1reverse channel	N/Adate	2023/12/03time	18:12:30forward acquisition time	300,00reverse acquisition time	0,00gamma	499,1914k internal	0,3198k external	0,3198temperature offset calibration	1,0000default loss term (dB/km)	0,3820temperature slope calibration	1,0000multiplexer offset coefficient	1,0000multiplexer slope coefficient	1,0000fibre end	0,00T internal ref (°C)	14,66T ext. ref 1 (°C)	-0,68T ext. ref 2 (°C)	-0,69length (m)	temperature (°C)	Stokes	anti-Stokes-744,400	800,000	-0,187	-0,480
-743,385	745,701	0,090	0,177
-742,371	-200,000	-0,051	-0,219
-741,356	-200,000	0,047	0,356
-740,342	144,500	-0,270	-0,262
-739,327	-200,000	0,064	0,337
-738,312	41,725	-0,379	-0,250
-737,298	-200,000	0,027	0,207
-736,283	800,000	-0,136	-0,321
-735,269	800,000	0,109	0,266
-734,254	244,350	-0,199	-0,244
-733,239	-66,678	-0,134	0,038
-732,225	-200,000	-0,037	-0,348
-731,210	-200,000	0,048	0,231
-730,196	-200,000	-0,008	0,062
-729,181	800,000	-0,033	-0,106
-728,167	75,083	-0,110	-0,084
-727,152	-200,000	0,003	-0,108
-726,137	177,044	-0,082	-0,087
-725,123	338,716	-0,065	-0,092
-724,108	-200,000	-0,010	-0,133
-723,094	637,356	-0,081	-0,151
-722,079	-24,710	-0,030	-0,013
-721,064	44,815	-0,113	0,075
-720,050	800,000	-0,043	-0,129
-719,035	357,140	-0,020	0,029
-718,021	174,890	-0,031	-0,033
-717,006	800,000	-0,038	0,081
-715,991	800,000	-0,036	0,094
-714,977	174,367	-0,055	-0,058
-713,962	387,745	-0,059	0,089
-712,948	800,000	-0,006	-0,014
-711,933	127,934	0,044	0,041
-710,918	157,760	0,066	-0,067
-709,904	5,571	-0,038	-0,020
-708,889	-70,431	-0,016	0,004
-707,875	-200,000	0,010	-0,053
-706,860	-200,000	-0,005	-0,111
-705,845	-154,716	0,170	0,008
-704,831	-71,885	0,042	-0,011
-703,816	36,724	-0,190	-0,122
-702,802	-200,000	0,015	-0,067
-701,787	154,432	-0,072	0,072
-700,772	-48,315	-0,068	-0,024
-699,758	382,719	0,060	-0,091
-698,743	-70,604	-0,098	-0,027
-697,729	-200,000	0,002	-0,016
-696,714	800,000	-0,041	0,110
-695,699	-151,212	0,110	0,006
-694,685	-200,000	0,025	-0,094
-693,670	372,831	-0,022	-0,032
-692,656	-119,106	0,079	-0,010
-691,641	359,068	-0,027	0,039
-690,627	-138,949	0,041	-0,003
-689,612	677,828	-0,076	-0,144
-688,597	319,199	0,042	0,058
-687,583	-69,734	-0,230	-0,063
-686,568	-200,000	0,004	-0,077
-685,554	-200,000	-0,023	-0,109
-684,539	103,973	-0,037	0,031
-683,524	118,483	-0,034	-0,030
-682,510	131,568	-0,104	-0,097
-681,495	716,744	-0,073	0,141
-680,481	-100,742	-0,142	-0,025
-679,466	-120,087	-0,111	0,014
-678,451	800,000	0,045	0,098
-677,437	-200,000	0,006	-0,066
-676,422	-200,000	0,006	-0,031
-675,408	395,660	0,048	0,073
-674,393	157,657	-0,073	0,074
-673,378	723,467	-0,038	-0,073
-672,364	-143,274	-0,099	0,007
-671,349	526,008	0,078	0,133
-670,335	393,568	0,074	0,111
-669,320	50,208	0,076	0,052
-668,305	800,000	-0,013	-0,034
-667,291	48,489	0,070	0,047
-666,276	-77,443	-0,049	-0,012
-665,262	-200,000	0,013	0,123
-664,247	-2,272	-0,119	0,061
-663,232	-28,440	0,072	0,030
-662,218	800,000	0,018	0,049
-661,203	-20,499	0,045	0,020
-660,189	429,825	-0,080	0,126
-659,174	26,173	-0,036	0,021
-658,159	364,473	-0,010	-0,015
-657,145	-19,955	-0,113	-0,050
-656,130	-200,000	-0,045	-0,194
-655,116	128,304	0,060	0,056
-654,101	-55,533	0,085	0,028
-653,086	800,000	-0,041	-0,098
-652,072	360,202	-0,071	-0,103
-651,057	800,000	-0,046	-0,135
-650,043	-85,798	-0,075	0,017
-649,028	-130,636	-0,039	0,004
-648,014	-200,000	-0,012	-0,055
-646,999	741,057	0,072	-0,140
-645,984	294,644	-0,042	-0,056
-644,970	216,988	0,033	-0,038
-643,955	321,345	-0,003	-0,004
-642,941	520,213	-0,019	0,033
-641,926	-64,160	-0,089	-0,026
-640,911	-46,697	-0,070	0,025
-639,897	407,685	-0,032	-0,049
-638,882	-22,483	0,094	0,041
-637,868	-23,557	0,052	-0,023
-636,853	392,844	-0,066	-0,100
-635,838	-200,000	0,011	-0,038
-634,824	-88,468	0,069	-0,015
-633,809	-140,380	-0,104	-0,008
-632,795	-200,000	0,023	-0,086
-631,780	800,000	0,023	0,067
-630,765	767,632	-0,046	-0,091
-629,751	-86,998	0,049	-0,011
-628,736	597,763	-0,063	-0,113
-627,722	-117,617	-0,041	0,005
-626,707	724,732	0,011	-0,022
-625,692	68,142	-0,055	0,041
-624,678	-88,761	0,103	0,022
-623,663	-64,968	-0,010	0,003
-622,649	-110,893	-0,120	-0,018
-621,634	-52,833	0,090	-0,030
-620,619	-10,335	0,073	-0,035
-619,605	800,000	0,014	0,044
-618,590	800,000	-0,037	0,106
-617,576	-116,262	0,067	-0,009
-616,561	427,064	0,039	0,062
-615,546	-127,093	-0,163	0,017
-614,532	800,000	0,040	-0,114
-613,517	155,935	0,141	-0,141
-612,503	573,583	-0,005	-0,009
-611,488	-200,000	-0,000	0,073
-610,474	327,718	0,023	-0,033
-609,459	419,745	0,108	0,168
-608,444	23,322	-0,077	0,046
-607,430	-173,910	0,027	0,001
-606,415	800,000	-0,031	-0,075
-605,401	157,713	-0,036	0,036
-604,386	127,343	-0,092	0,085
-603,371	-115,742	-0,091	-0,012
-602,357	-34,803	0,136	0,054
-601,342	-200,000	-0,007	0,034
-600,328	578,476	0,083	-0,147
-599,313	-51,690	0,106	-0,036
-598,298	-200,000	-0,013	-0,074
-597,284	57,708	0,051	-0,036
-596,269	-200,000	-0,011	-0,057
-595,255	-42,612	0,009	-0,003
-594,240	800,000	-0,021	-0,046
-593,225	-174,458	0,070	0,001
-592,211	249,565	-0,031	-0,038
-591,196	-112,386	0,066	-0,009
-590,182	148,502	-0,036	-0,035
-589,167	800,000	-0,039	-0,086
-588,152	-91,082	-0,051	-0,010
-587,138	-200,000	0,006	0,051
-586,123	800,000	-0,022	0,057
-585,109	-153,742	-0,049	0,002
-584,094	800,000	-0,015	-0,034
-583,079	-13,258	0,085	0,040
-582,065	298,574	0,060	0,080
-581,050	137,879	-0,118	0,112
-580,036	280,221	0,060	-0,077
-579,021	294,138	-0,070	-0,093
-578,006	800,000	0,057	-0,176
-576,992	-133,715	-0,178	-0,016
-575,977	-103,156	0,058	0,010
-574,963	-200,000	0,000	0,003
-573,948	-157,507	-0,166	0,007
-572,934	17,203	0,099	-0,057
-571,919	-108,509	-0,048	-0,007
-570,904	800,000	0,036	-0,105
-569,890	161,359	-0,095	-0,097
-568,875	-24,369	0,017	0,007
-567,861	-41,350	0,152	-0,056
-566,846	45,234	-0,043	0,029
-565,831	-15,152	-0,039	-0,018
-564,817	-200,000	-0,031	-0,231
-563,802	-9,617	-0,166	-0,080
-562,788	800,000	0,076	0,221
-561,773	318,234	-0,007	0,009
-560,758	96,822	0,064	0,053
-559,744	800,000	0,048	0,153
-558,729	-200,000	0,002	-0,053
-557,715	-178,818	-0,072	0,001
-556,700	296,935	-0,078	-0,104
-555,685	-7,996	-0,046	0,022
-554,671	54,809	-0,043	-0,030
-553,656	217,840	-0,024	0,028
-552,642	-200,000	-0,016	0,121
-551,627	-52,718	-0,048	0,016
-550,612	-200,000	0,011	-0,038
-549,598	272,129	-0,091	-0,116
-548,583	-200,000	-0,008	-0,162
-547,569	11,706	-0,045	-0,025
-546,554	-95,528	-0,092	-0,018
-545,539	-200,000	0,000	-0,152
-544,525	-200,000	-0,029	0,108
-543,510	-200,000	0,012	-0,101
-542,496	170,811	-0,080	-0,083
-541,481	8,872	-0,131	-0,071
-540,466	-29,930	-0,138	-0,057
-539,452	-200,000	0,018	0,083
-538,437	-61,048	0,125	-0,038
-537,423	391,449	0,031	0,047
-536,408	-200,000	-0,004	-0,034
-535,393	113,224	0,009	0,008
-534,379	-119,303	-0,015	-0,002
-533,364	800,000	-0,041	-0,094
-532,350	-200,000	-0,019	-0,060
-531,335	-200,000	0,068	0,234
-530,321	-49,900	0,038	0,013
-529,306	300,670	-0,053	-0,070
-528,291	800,000	-0,016	0,039
-527,277	73,531	-0,141	-0,107
-526,262	140,916	-0,059	0,056
-525,248	322,298	0,006	-0,009
-524,233	-200,000	0,002	0,081
-523,218	317,754	0,074	0,102
-522,204	-56,496	-0,110	0,035
-521,189	800,000	0,011	-0,024
-520,175	63,447	-0,058	-0,042
-519,160	-121,831	-0,101	-0,012
-518,145	173,246	0,069	0,072
-517,131	336,652	0,053	0,075
-516,116	273,458	-0,047	-0,060
-515,102	125,134	0,015	0,014
-514,087	-200,000	-0,011	-0,067
-513,072	-44,756	-0,078	0,028
-512,058	537,521	0,089	0,153
-511,043	-140,360	0,136	-0,010
-510,029	25,527	0,099	0,059
-509,014	123,328	0,075	0,068
-507,999	-49,389	-0,113	0,039
-506,985	-200,000	0,039	0,126
-505,970	800,000	0,034	-0,099
-504,956	800,000	-0,070	0,170
-503,941	-200,000	0,004	-0,072
-502,926	-3,770	-0,066	-0,033
-501,912	800,000	-0,040	0,124
-500,897	-157,861	0,055	-0,002
-499,883	339,849	0,007	-0,010
-498,868	-120,340	-0,117	-0,014
-497,853	-15,580	0,038	-0,017
-496,839	800,000	0,035	0,085
-495,824	-11,903	-0,077	-0,036
-494,810	-200,000	-0,012	0,053
-493,795	4,899	-0,048	-0,025
-492,781	583,719	-0,064	-0,114
-491,766	-147,205	-0,141	-0,009
-490,751	-95,945	0,110	-0,021
-489,737	-200,000	-0,003	0,036
-488,722	-134,089	0,019	-0,002
-487,708	-200,000	0,030	0,115
-486,693	20,879	0,058	0,034
-485,678	-200,000	-0,006	-0,115
-484,664	-200,000	-0,006	0,041
-483,649	-200,000	-0,020	-0,121
-482,635	-10,521	0,076	-0,036
-481,620	-200,000	0,005	0,032
-480,605	-94,590	0,124	0,024
-479,591	800,000	0,014	0,033
-478,576	546,890	0,054	-0,093
-477,562	492,615	-0,089	-0,148
-476,547	800,000	0,041	-0,097
-475,532	411,918	0,046	0,070
-474,518	-200,000	0,001	0,125
-473,503	62,538	0,060	0,043
-472,489	800,000	-0,020	0,055
-471,474	800,000	0,009	-0,027
-470,459	-146,499	-0,079	-0,005
-469,445	-200,000	-0,014	-0,101
-468,430	37,025	0,060	0,038
-467,416	-200,000	0,012	0,068
-466,401	-200,000	0,019	0,080
-465,386	-200,000	-0,003	0,032
-464,372	466,611	0,046	0,074
-463,357	-200,000	-0,008	0,031
-462,343	754,068	-0,010	-0,020
-461,328	4,417	0,116	-0,061
-460,313	76,124	-0,050	-0,038
-459,299	40,392	0,095	-0,062
-458,284	800,000	-0,040	0,098
-457,270	800,000	0,074	0,193
-456,255	217,044	0,082	-0,094
-455,241	418,351	0,025	-0,039
-454,226	-62,750	0,034	-0,010
-453,211	-200,000	0,002	0,018
-452,197	-200,000	-0,006	0,164
-451,182	38,572	0,034	-0,022
-450,168	-200,000	0,002	-0,081
-449,153	-145,623	-0,072	0,005
-448,138	402,985	-0,022	-0,033
-447,124	104,881	-0,064	0,054
-446,109	41,361	0,065	0,042
-445,095	-200,000	-0,028	0,088
-444,080	176,750	0,140	0,147
-443,065	800,000	-0,022	-0,049
-442,051	27,513	0,078	-0,047
-441,036	76,404	-0,065	0,049
-440,022	328,689	0,029	-0,041
-439,007	-76,161	0,153	-0,039
-437,992	-200,000	0,067	-0,223
-436,978	-116,995	-0,095	-0,012
-435,963	91,503	-0,063	-0,051
-434,949	136,478	0,007	0,006
-433,934	-59,954	-0,143	-0,044
-432,919	228,426	0,066	-0,078
-431,905	800,000	0,040	0,086
-430,890	800,000	0,037	0,083
-429,876	-44,807	0,106	-0,038
-428,861	-60,379	-0,065	-0,020
-427,846	800,000	0,019	0,049
-426,832	668,509	-0,027	-0,051
-425,817	92,970	-0,113	-0,092
-424,803	800,000	0,040	0,096
-423,788	334,304	-0,085	0,119
-422,773	737,011	-0,049	0,095
-421,759	-105,862	0,119	-0,019
-420,744	51,194	-0,142	0,097
-419,730	438,374	-0,031	-0,049
-418,715	800,000	0,043	-0,106
-417,701	800,000	0,023	-0,053
-416,686	320,062	-0,053	0,072
-415,671	-130,001	-0,105	-0,010
-414,657	215,980	0,066	0,076
-413,642	-104,658	-0,166	-0,027
-412,628	524,126	0,045	0,076
-411,613	-24,999	-0,104	-0,044
-410,598	-200,000	0,005	-0,075
-409,584	-135,208	0,146	0,012
-408,569	-200,000	0,001	0,019
-407,555	800,000	-0,061	0,129
-406,540	269,010	-0,048	0,061
-405,525	290,470	-0,044	0,058
-404,511	-76,451	0,084	-0,021
-403,496	-20,616	-0,084	0,037
-402,482	800,000	-0,025	0,076
-401,467	-200,000	0,066	0,220
-400,452	69,018	-0,071	0,052
-399,438	197,902	0,010	-0,011
-398,423	-200,000	0,008	-0,107
-397,409	785,671	-0,057	-0,113
-396,394	152,414	0,027	0,027
-395,379	-82,962	-0,066	-0,015
-394,365	271,989	0,127	0,161
-393,350	-200,000	-0,017	0,113
-392,336	569,108	0,053	0,092
-391,321	-57,813	0,092	0,029
-390,306	-200,000	0,011	-0,081
-389,292	732,468	0,014	-0,027
-388,277	-200,000	0,072	-0,000
-387,263	124,255	-0,137	-0,123
-386,248	434,527	-0,083	0,130
-385,233	800,000	-0,033	0,078
-384,219	60,441	0,005	-0,003
-383,204	75,776	-0,094	0,071
-382,190	-92,205	-0,075	-0,015
-381,175	-200,000	-0,021	0,067
-380,160	1,362	0,097	0,050
-379,146	-76,106	-0,061	-0,015
-378,131	0,387	0,062	0,032
-377,117	-169,132	-0,039	-0,001
-376,102	15,798	-0,115	-0,065
-375,088	-200,000	0,012	-0,112
-374,073	-200,000	-0,049	0,188
-373,058	-200,000	0,006	0,096
-372,044	227,051	-0,104	0,121
-371,029	800,000	-0,012	-0,034
-370,015	355,265	0,005	-0,007
-369,000	747,757	-0,053	-0,103
-367,985	185,413	-0,078	-0,083
-366,971	41,598	0,120	-0,078
-365,956	183,381	-0,036	0,038
-364,942	800,000	-0,024	-0,061
-363,927	800,000	-0,030	0,084
-362,912	-52,835	0,106	0,035
-361,898	-59,714	-0,043	-0,013
-360,883	800,000	0,053	-0,154
-359,869	301,865	-0,090	-0,119
-358,854	-57,857	0,096	0,030
-357,839	-200,000	-0,007	0,029
-356,825	-15,669	0,081	-0,037
-355,810	800,000	0,057	-0,162
-354,796	-200,000	0,005	-0,017
-353,781	-200,000	0,005	-0,047
-352,766	40,061	0,031	-0,020
-351,752	-124,992	-0,138	-0,015
-350,737	-1,468	-0,080	-0,040
-349,723	478,067	0,042	-0,068
-348,708	-64,904	0,060	-0,017
-347,693	-114,628	-0,064	-0,009
-346,679	-160,322	-0,089	-0,003
-345,664	800,000	0,033	-0,081
-344,650	-200,000	-0,033	0,110
-343,635	30,374	0,208	0,127
-342,620	731,159	0,096	0,185
-341,606	-12,260	0,019	0,009
-340,591	108,138	-0,056	-0,048
-339,577	-200,000	0,004	-0,102
-338,562	493,130	0,026	-0,042
-337,548	194,391	-0,063	-0,068
-336,533	-200,000	-0,007	0,149
-335,518	143,607	0,030	0,029
-334,504	-48,063	-0,066	-0,023
-333,489	-200,000	-0,094	-0,000
-332,475	185,214	0,022	0,024
-331,460	-117,653	-0,103	0,013
-330,445	-200,000	0,017	-0,095
-329,431	800,000	0,005	0,012
-328,416	-79,166	0,069	0,017
-327,402	800,000	-0,009	0,020
-326,387	-88,053	0,045	-0,010
-325,372	-200,000	0,026	-0,095
-324,358	-200,000	-0,001	-0,073
-323,343	6,834	0,156	-0,083
-322,329	-104,491	0,183	-0,030
-321,314	224,421	0,171	0,198
-320,299	84,179	0,117	0,091
-319,285	-200,000	0,015	0,073
-318,270	225,981	0,022	0,026
-317,256	329,524	-0,061	-0,084
-316,241	-200,000	0,000	-0,042
-315,226	-155,303	-0,126	0,006
-314,212	379,769	0,061	0,090
-313,197	-98,804	0,087	0,016
-312,183	-85,613	0,044	-0,010
-311,168	-177,480	0,128	0,002
-310,153	-158,465	-0,042	0,002
-309,139	-200,000	0,005	-0,108
-308,124	800,000	-0,041	0,098
-307,110	-200,000	0,001	0,049
-306,095	800,000	0,023	0,048
-305,080	-14,045	0,059	0,027
-304,066	-26,352	-0,157	-0,066
-303,051	0,350	-0,021	-0,010
-302,037	12,340	-0,134	-0,074
-301,022	98,519	-0,057	-0,047
-300,008	-129,808	-0,073	0,007
-298,993	-200,000	0,026	0,179
-297,978	634,914	-0,034	0,062
-296,964	115,749	0,090	0,078
-295,949	125,093	0,034	0,030
-294,935	-200,000	0,020	-0,123
-293,920	-200,000	0,001	-0,027
-292,905	265,035	0,053	0,067
-291,891	24,774	-0,095	0,056
-290,876	-113,489	0,105	-0,015
-289,862	302,734	0,035	0,046
-288,847	800,000	-0,012	-0,024
-287,832	84,577	0,061	0,048
-286,818	-56,540	-0,078	-0,025
-285,803	-154,475	0,105	0,005
-284,789	-29,382	0,059	-0,024
-283,774	-200,000	0,012	0,047
-282,759	-38,536	-0,009	0,003
-281,745	141,740	-0,079	-0,075
-280,730	-200,000	-0,013	-0,151
-279,716	-98,720	-0,071	-0,013
-278,701	-110,125	-0,053	0,008
-277,686	800,000	0,047	0,136
-276,672	-142,176	0,034	-0,002
-275,657	339,289	-0,037	-0,052
-274,643	-200,000	-0,000	0,009
-273,628	800,000	0,047	0,119
-272,613	75,204	-0,103	-0,078
-271,599	-104,882	0,077	0,012
-270,584	5,936	0,152	0,080
-269,570	237,801	-0,072	0,085
-268,555	-200,000	0,040	0,136
-267,540	12,800	-0,102	0,056
-266,526	101,885	-0,056	-0,047
-265,511	-33,764	-0,081	0,032
-264,497	-17,975	0,187	0,084
-263,482	293,865	0,061	0,080
-262,467	800,000	0,031	0,067
-261,453	-200,000	-0,018	-0,096
-260,438	22,709	-0,093	0,054
-259,424	-34,099	0,024	0,009
-258,409	-37,299	-0,192	-0,073
-257,395	226,464	0,074	0,086
-256,380	-100,659	0,095	-0,017
-255,365	44,865	-0,015	0,010
-254,351	-134,450	0,077	0,007
-253,336	161,850	0,055	0,055
-252,322	493,932	0,078	-0,128
-251,307	-142,023	-0,095	0,007
-250,292	756,064	0,020	-0,040
-249,278	-151,352	0,137	-0,007
-248,263	-198,914	0,108	-0,000
-247,249	-152,687	0,163	-0,008
-246,234	-200,000	-0,012	0,073
-245,219	-80,222	-0,151	-0,036
-244,205	-163,600	-0,033	0,001
-243,190	-94,201	-0,086	0,017
-242,176	800,000	-0,025	-0,051
-241,161	-200,000	-0,001	0,135
-240,146	-200,000	0,007	0,161
-239,132	-23,309	-0,054	0,023
-238,117	-200,000	-0,006	0,076
-237,103	583,557	-0,025	0,043
-236,088	-200,000	-0,005	-0,087
-235,073	800,000	-0,016	0,035
-234,059	-48,543	0,096	-0,033
-233,044	-36,197	-0,087	-0,034
-232,030	64,964	-0,038	0,027
-231,015	32,731	-0,042	-0,026
-230,000	-200,000	-0,017	-0,181
-228,986	-200,000	0,003	0,013
-227,971	-200,000	0,009	-0,052
-226,957	-142,829	0,100	-0,007
-225,942	28,797	0,075	0,045
-224,927	183,284	0,104	-0,110
-223,913	-200,000	0,020	-0,165
-222,898	-200,000	-0,005	-0,022
-221,884	139,750	-0,133	0,125
-220,869	-114,617	0,175	-0,024
-219,855	-200,000	-0,008	-0,193
-218,840	-200,000	0,001	-0,042
-217,825	-49,580	-0,064	0,022
-216,811	-200,000	-0,009	-0,028
-215,796	-200,000	-0,062	-0,203
-214,782	501,717	-0,060	-0,099
-213,767	156,697	-0,021	0,021
-212,752	329,776	0,087	0,120
-211,738	-34,430	0,056	0,022
-210,723	502,242	0,081	-0,134
-209,709	418,701	-0,042	0,065
-208,694	-200,000	0,013	-0,107
-207,679	-30,545	-0,072	0,029
-206,665	261,885	0,109	-0,135
-205,650	-178,335	0,125	-0,002
-204,636	-84,058	0,067	-0,015
-203,621	543,892	0,026	-0,044
-202,606	-5,396	0,034	-0,016
-201,592	-200,000	-0,003	-0,030
-200,577	-200,000	0,000	-0,009
-199,563	800,000	0,034	-0,078
-198,548	-85,837	0,058	-0,013
-197,533	-200,000	0,022	0,126
-196,519	29,810	0,065	-0,039
-195,504	-200,000	0,016	-0,096
-194,490	-90,536	-0,131	-0,027
-193,475	423,396	-0,072	-0,111
-192,460	-102,226	-0,040	0,007
-191,446	-13,648	0,031	0,014
-190,431	-80,373	0,133	0,031
-189,417	-200,000	0,029	0,124
-188,402	-200,000	-0,024	0,118
-187,387	-200,000	-0,005	-0,085
-186,373	-89,057	-0,147	-0,031
-185,358	30,548	0,047	-0,029
-184,344	77,710	0,042	-0,032
-183,329	548,511	0,059	0,102
-182,315	-94,864	0,058	-0,011
-181,300	85,546	0,060	0,047
-180,285	-18,252	-0,134	0,060
-179,271	-138,124	-0,048	-0,004
-178,256	-61,632	0,041	0,012
-177,242	-200,000	-0,018	0,102
-176,227	531,882	0,019	0,032
-175,212	3,039	0,098	-0,051
-174,198	555,057	-0,042	-0,072
-173,183	-173,901	-0,175	0,004
-172,169	-148,741	0,047	0,003
-171,154	-200,000	0,011	-0,048
-170,139	-200,000	0,022	0,078
-169,125	251,542	-0,090	0,109
-168,110	235,553	-0,067	0,079
-167,096	-200,000	0,006	-0,022
-166,081	203,152	-0,104	0,115
-165,066	-160,005	0,070	-0,003
-164,052	-53,711	-0,101	-0,033
-163,037	-95,252	-0,099	-0,019
-162,023	20,065	0,098	-0,056
-161,008	-105,421	0,018	0,003
-159,993	115,671	-0,049	-0,042
-158,979	287,809	0,034	-0,044
-157,964	-117,252	-0,038	0,005
-156,950	7,753	-0,077	0,041
-155,935	-200,000	0,015	0,054
-154,920	93,194	0,059	-0,047
-153,906	189,108	0,116	0,123
-152,891	423,655	0,042	0,064
-151,877	28,296	-0,077	-0,046
-150,862	800,000	-0,026	-0,069
-149,847	-103,073	-0,045	0,008
-148,833	-200,000	-0,012	-0,052
-147,818	-112,579	0,026	0,004
-146,804	245,543	0,056	0,068
-145,789	255,726	0,075	0,092
-144,775	1,698	0,130	-0,066
-143,760	-63,151	-0,116	-0,034
-142,745	163,845	-0,011	0,011
-141,731	153,218	0,061	-0,060
-140,716	70,038	-0,041	-0,030
-139,702	-200,000	0,026	0,081
-138,687	-200,000	0,011	0,072
-137,672	3,010	-0,020	0,011
-136,658	-100,821	0,116	-0,020
-135,643	13,459	0,116	0,064
-134,629	-60,697	-0,099	-0,030
-133,614	-91,471	-0,152	0,031
-132,599	372,598	0,091	0,132
-131,585	-33,507	-0,045	-0,017
-130,570	-135,868	0,073	0,006
-129,556	-60,919	0,045	-0,013
-128,541	39,947	-0,099	0,063
-127,526	209,171	-0,052	0,058
-126,512	14,565	-0,058	-0,032
-125,497	-200,000	-0,005	0,038
-124,483	39,557	0,063	0,040
-123,468	-128,816	-0,093	0,009
-122,453	17,782	0,021	0,012
-121,439	98,075	-0,028	0,023
-120,424	-55,738	0,131	0,041
-119,410	-13,318	-0,049	-0,023
-118,395	-40,953	-0,058	-0,021
-117,380	36,919	-0,096	-0,060
-116,366	607,150	-0,026	-0,046
-115,351	-13,583	-0,153	-0,070
-114,337	800,000	0,024	-0,070
-113,322	800,000	-0,012	-0,026
-112,307	29,317	-0,128	-0,077
-111,293	-200,000	0,012	0,053
-110,278	-180,272	-0,121	0,002
-109,264	-200,000	-0,016	-0,080
-108,249	25,165	-0,074	-0,043
-107,234	800,000	-0,027	0,058
-106,220	-25,285	-0,107	0,045
-105,205	-200,000	-0,005	-0,057
-104,191	-63,381	-0,097	-0,028
-103,176	138,838	0,161	0,150
-102,162	88,032	-0,107	0,084
-101,147	-200,000	-0,016	0,115
-100,132	-63,757	0,118	-0,034
-99,118	-134,460	-0,046	-0,004
-98,103	330,807	-0,036	0,049
-97,089	-116,794	0,085	-0,011
-96,074	222,299	0,035	0,040
-95,059	-200,000	0,022	0,165
-94,045	47,315	-0,112	-0,074
-93,030	-116,276	0,100	-0,013
-92,016	17,371	-0,174	-0,098
-91,001	-194,355	0,162	-0,001
-89,986	800,000	0,058	0,149
-88,972	-200,000	-0,000	0,118
-87,957	-169,109	0,026	0,001
-86,943	75,715	-0,051	-0,038
-85,928	-77,320	-0,088	-0,022
-84,913	-200,000	-0,008	-0,110
-83,899	-32,605	-0,107	0,042
-82,884	288,138	0,074	0,095
-81,870	-200,000	-0,009	0,038
-80,855	218,530	0,046	0,052
-79,840	-200,000	-0,005	0,218
-78,826	-200,000	-0,020	-0,082
-77,811	81,750	0,035	0,027
-76,797	23,173	-0,072	-0,042
-75,782	-200,000	-0,002	-0,042
-74,767	-44,027	0,133	-0,047
-73,753	-200,000	-0,002	-0,078
-72,738	-200,000	0,042	0,176
-71,724	800,000	-0,060	0,126
-70,709	93,622	-0,077	0,062
-69,694	202,774	-0,068	-0,074
-68,680	76,690	0,083	-0,062
-67,665	163,049	-0,027	0,027
-66,651	-98,632	0,037	0,007
-65,636	800,000	-0,032	0,068
-64,622	61,139	0,105	0,074
-63,607	17,048	-0,087	-0,049
-62,592	-69,949	-0,044	-0,012
-61,578	17,518	0,052	0,029
-60,563	800,000	0,022	0,066
-59,549	-200,000	0,006	0,082
-58,534	-59,240	-1,642	-0,498
-57,519	257,075	-1,589	-1,939
-56,505	-200,000	-0,453	-4,544
-55,490	213,586	0,979	1,098
-54,476	800,000	4,786	10,902
-53,461	-200,000	18,444	294,404
-52,446	800,000	730,114	2250,635
-51,432	559,410	1646,176	2827,371
-50,417	78,894	1666,918	1262,933
-49,403	22,537	1540,245	890,560
-48,388	16,509	1463,330	816,848
-47,373	17,829	1453,232	817,545
-46,359	17,073	1443,474	808,401
-45,344	14,789	1438,822	794,846
-44,330	14,729	1437,105	793,579
-43,315	14,691	1435,446	792,451
-42,300	14,702	1433,782	791,554
-41,286	14,785	1432,438	791,176
-40,271	14,708	1431,362	790,182
-39,257	14,714	1429,996	789,426
-38,242	14,801	1428,553	789,009
-37,227	14,821	1427,404	788,439
-36,213	14,756	1426,239	787,455
-35,198	14,800	1424,822	786,851
-34,184	14,799	1424,209	786,478
-33,169	14,728	1422,614	785,232
-32,154	14,772	1421,768	784,941
-31,140	14,783	1420,372	784,191
-30,125	14,841	1419,140	783,750
-29,111	14,791	1418,149	782,939
-28,096	14,759	1416,928	782,081
-27,082	14,686	1416,077	781,236
-26,067	14,704	1414,837	780,608
-25,052	14,683	1413,898	779,959
-24,038	14,694	1412,953	779,461
-23,023	14,650	1411,923	778,654
-22,009	14,652	1410,731	777,972
-20,994	14,595	1410,111	777,336
-19,979	14,669	1409,022	777,051
-18,965	14,596	1408,163	776,204
-17,950	14,604	1407,106	775,628
-16,936	14,666	1406,194	775,386
-15,921	14,570	1405,151	774,331
-14,906	14,578	1404,332	773,887
-13,892	14,597	1403,348	773,400
-12,877	14,558	1402,543	772,744
-11,863	14,578	1401,679	772,330
-10,848	14,539	1400,653	771,555
-9,833	14,558	1399,645	771,058
-8,819	14,515	1398,983	770,462
-7,804	14,507	1398,020	769,861
-6,790	14,510	1396,740	769,139
-5,775	14,486	1395,751	768,454
-4,760	14,484	1394,890	767,943
-3,746	14,480	1394,133	767,474
-2,731	14,487	1393,262	766,999
-1,717	14,471	1392,557	766,503
-0,702	14,464	1390,778	765,465
0,313	18,258	1309,173	738,130
1,327	34,497	706,086	435,739
2,342	53,273	124,137	84,094
3,356	2,951	16,548	8,482
4,371	9,742	3,151	1,687
5,386	-73,686	0,642	0,164
6,400	-17,725	-0,080	0,035
7,415	14,415	-0,270	-0,149
8,429	-16,903	-0,343	-0,153
9,444	12,975	-0,387	-0,211
10,459	233,405	-0,119	-0,139
11,473	50,022	-0,344	-0,229
12,488	55,096	-0,388	-0,265
13,502	-97,190	-0,342	-0,063
14,517	-19,598	-0,296	-0,129
15,531	38,757	-0,453	-0,286
16,546	123,619	-0,316	-0,280
17,561	67,189	-0,400	-0,288
18,575	-39,861	-0,289	-0,106
19,590	277,197	-0,196	-0,248
20,604	628,799	-0,153	-0,274
21,619	-54,062	-0,534	-0,171
22,634	-74,635	-0,526	-0,133
23,648	241,951	-0,379	-0,449
24,663	322,863	-0,282	-0,380
25,677	-50,401	-0,374	-0,124
26,692	101,885	-0,279	-0,230
27,707	-4,622	-0,401	-0,195
28,721	-46,286	-0,270	-0,093
29,736	249,187	-0,312	-0,374
30,750	145,985	-0,280	-0,265
31,765	8,901	-0,433	-0,230
32,780	194,707	-0,320	-0,343
33,794	32,995	-0,360	-0,220
34,809	146,687	-0,287	-0,272
35,823	187,468	-0,280	-0,296
36,838	127,985	-0,282	-0,254
37,853	94,457	-0,483	-0,387
38,867	77,728	-0,359	-0,270
39,882	85,217	-0,389	-0,301
40,896	-0,665	-0,337	-0,168
41,911	6,329	-0,411	-0,214
42,926	145,066	-0,318	-0,300
43,940	31,432	-0,398	-0,241
44,955	395,777	-0,240	-0,355
45,969	351,581	-0,266	-0,372
46,984	102,832	-0,327	-0,270
47,999	-32,151	-0,358	-0,140
49,013	130,778	-0,243	-0,220
50,028	-65,477	-0,408	-0,115
51,042	165,961	-0,313	-0,312
52,057	89,021	-0,389	-0,305
53,071	-36,208	-0,380	-0,144
54,086	217,827	-0,325	-0,366
55,101	441,947	-0,206	-0,319
56,115	79,022	-0,267	-0,201
57,130	-17,250	-0,384	-0,170
58,144	31,374	-0,306	-0,185
59,159	139,295	-0,351	-0,325
60,174	156,035	-0,328	-0,319
61,188	57,667	-0,399	-0,274
62,203	18,070	-0,454	-0,255
63,217	-28,800	-0,367	-0,148
64,232	-7,406	-0,412	-0,196
65,247	137,642	-0,251	-0,232
66,261	8,776	-0,413	-0,218
67,276	5,730	-0,416	-0,216
68,290	123,988	-0,275	-0,243
69,305	-32,330	-0,423	-0,166
70,320	231,568	-0,262	-0,303
71,334	128,868	-0,337	-0,302
72,349	-45,713	-0,322	-0,112
73,363	199,728	-0,313	-0,338
74,378	7,707	-0,302	-0,159
75,393	23,692	-0,326	-0,189
76,407	82,850	-0,185	-0,141
77,422	17,912	-0,333	-0,186
78,436	67,613	-0,273	-0,196
79,451	2,188	-0,393	-0,199
80,466	76,562	-0,318	-0,237
81,480	116,713	-0,344	-0,296
82,495	-49,400	-0,435	-0,145
83,509	-84,224	-0,350	-0,077
84,524	12,753	-0,261	-0,141
85,539	65,536	-0,157	-0,111
86,553	-8,378	-0,310	-0,146
87,568	6,904	-0,262	-0,137
88,582	199,033	-0,291	-0,314
89,597	166,028	-0,249	-0,248
90,611	1,429	-0,390	-0,196
91,626	325,258	-0,170	-0,229
92,641	-53,153	-0,207	-0,066
93,655	51,805	-0,240	-0,160
94,670	-6,192	-0,432	-0,206
95,684	-40,858	-0,349	-0,126
96,699	800,000	-0,100	-0,209
97,714	0,562	-0,324	-0,162
98,728	301,602	-0,238	-0,310
99,743	278,208	-0,155	-0,195
100,757	345,931	-0,175	-0,243
101,772	87,742	-0,262	-0,204
102,787	32,048	-0,291	-0,176
103,801	277,600	-0,205	-0,257
104,816	-22,957	-0,374	-0,157
105,830	154,171	-0,354	-0,341
106,845	-55,421	-0,232	-0,073
107,860	159,382	-0,234	-0,229
108,874	22,099	-0,296	-0,169
109,889	138,054	-0,189	-0,174
110,903	6,200	-0,308	-0,160
111,918	285,016	-0,278	-0,352
112,933	259,749	-0,168	-0,204
113,947	19,686	-0,152	-0,086
114,962	-38,789	-0,289	-0,106
115,976	636,157	-0,112	-0,200
116,991	55,650	-0,268	-0,182
118,006	118,301	-0,321	-0,277
119,020	12,278	-0,332	-0,179
120,035	-59,705	-0,264	-0,079
121,049	-174,059	-0,246	-0,005
122,064	-32,946	-0,246	-0,095
123,079	221,546	-0,168	-0,189
124,093	218,316	-0,229	-0,256
125,108	-110,325	-0,379	-0,055
126,122	201,966	-0,202	-0,218
127,137	800,000	-0,085	-0,227
128,151	-200,000	-0,075	-0,233
129,166	-68,597	-0,240	-0,065
130,181	65,659	-0,264	-0,187
131,195	204,284	-0,206	-0,223
132,210	132,882	-0,347	-0,313
133,224	627,366	-0,160	-0,284
134,239	78,018	-0,286	-0,213
135,254	480,682	-0,111	-0,176
136,268	7,666	-0,313	-0,164
137,283	210,504	-0,193	-0,213
138,297	120,726	-0,180	-0,156
139,312	-7,082	-0,297	-0,140
140,327	55,781	-0,171	-0,116
141,341	109,104	-0,289	-0,242
142,356	3,896	-0,308	-0,157
143,370	-116,886	-0,254	-0,032
144,385	44,123	-0,291	-0,186
145,400	276,517	-0,185	-0,230
146,414	139,484	-0,332	-0,306
147,429	252,551	-0,234	-0,280
148,443	126,444	-0,197	-0,174
149,458	84,718	-0,202	-0,154
150,473	221,803	-0,210	-0,236
151,487	-41,088	-0,185	-0,066
152,502	188,348	-0,277	-0,290
153,516	159,249	-0,186	-0,181
154,531	134,319	-0,230	-0,209
155,546	-176,192	-0,158	0,003
156,560	-162,054	-0,209	0,007
157,575	33,751	-0,162	-0,098
158,589	-52,934	-0,349	-0,111
159,604	169,684	-0,146	-0,146
160,619	193,914	-0,219	-0,232
161,633	-38,992	-0,390	-0,143
162,648	200,178	-0,255	-0,274
163,662	74,167	-0,304	-0,223
164,677	298,061	-0,101	-0,130
165,692	18,478	-0,207	-0,115
166,706	131,533	-0,320	-0,287
167,721	800,000	-0,091	-0,202
168,735	150,903	-0,251	-0,239
169,750	-200,000	-0,030	-0,166
170,764	51,214	-0,108	-0,071
171,779	22,383	-0,359	-0,204
172,794	-174,947	-0,228	-0,004
173,808	73,245	-0,218	-0,159
174,823	520,549	-0,152	-0,249
175,837	105,970	-0,310	-0,256
176,852	-11,740	-0,247	-0,112
177,867	268,977	-0,155	-0,190
178,881	95,070	-0,251	-0,199
179,896	-200,000	-0,026	-0,122
180,910	61,862	-0,308	-0,214
181,925	392,910	-0,104	-0,152
182,940	7,592	-0,275	-0,143
183,954	668,570	-0,094	-0,170
184,969	195,885	-0,118	-0,125
185,983	606,372	-0,094	-0,164
186,998	67,219	-0,229	-0,162
188,013	-1,467	-0,080	-0,039
189,027	43,901	-0,148	-0,094
190,042	-29,611	-0,320	-0,127
191,056	800,000	-0,163	-0,329
192,071	-13,106	-0,170	-0,077
193,086	153,970	-0,167	-0,160
194,100	171,813	-0,192	-0,192
195,115	13,471	-0,267	-0,144
196,129	55,740	-0,255	-0,172
197,144	82,313	-0,200	-0,151
198,159	157,181	-0,240	-0,231
199,173	153,714	-0,178	-0,170
200,188	-27,930	-0,118	-0,047
201,202	166,011	-0,169	-0,166
202,217	-139,482	-0,290	-0,021
203,232	106,545	-0,161	-0,133
204,246	562,732	-0,165	-0,279
205,261	181,617	-0,189	-0,194
206,275	4,019	-0,184	-0,093
207,290	269,206	-0,174	-0,213
208,304	77,989	-0,167	-0,124
209,319	2,558	-0,196	-0,098
210,334	800,000	-0,124	-0,247
211,348	277,072	-0,233	-0,289
212,363	309,924	-0,164	-0,214
213,377	735,830	-0,163	-0,306
214,392	62,581	-0,089	-0,062
215,407	-42,443	-0,305	-0,108
216,421	-103,611	-0,075	0,012
217,436	-44,647	-0,221	-0,076
218,450	800,000	-0,099	-0,297
219,465	-85,042	-0,273	-0,059
220,480	123,366	-0,273	-0,238
221,494	-200,000	-0,032	-0,126
222,509	160,704	-0,250	-0,243
223,523	38,161	-0,163	-0,101
224,538	-170,828	-0,265	0,006
225,553	3,446	-0,227	-0,114
226,567	87,594	-0,226	-0,174
227,582	377,079	-0,127	-0,180
228,596	112,691	-0,214	-0,180
229,611	-149,240	-0,182	0,010
230,626	-47,748	-0,170	-0,057
231,640	47,874	-0,146	-0,095
232,655	800,000	-0,103	-0,226
233,669	79,359	-0,221	-0,165
234,684	-200,000	-0,032	-0,137
235,699	-11,725	-0,140	-0,064
236,713	36,055	-0,123	-0,075
237,728	127,028	-0,095	-0,084
238,742	-54,379	-0,200	-0,063
239,757	76,450	-0,179	-0,132
240,772	571,307	-0,093	-0,158
241,786	800,000	-0,084	-0,246
242,801	325,583	-0,130	-0,173
243,815	-106,610	-0,190	-0,029
244,830	390,813	-0,118	-0,171
245,844	670,301	-0,070	-0,127
246,859	156,932	-0,238	-0,228
247,874	129,708	-0,195	-0,173
248,888	-38,694	-0,175	-0,064
249,903	-53,745	-0,253	-0,079
250,917	-37,997	-0,219	-0,080
251,932	-15,959	-0,225	-0,099
252,947	14,841	-0,117	-0,063
253,961	-120,323	-0,219	0,026
254,976	-18,976	-0,358	-0,154
255,990	303,573	-0,279	-0,359
257,005	800,000	-0,128	-0,255
258,020	800,000	-0,113	-0,220
259,034	-23,292	-0,120	-0,050
260,049	487,589	-0,164	-0,261
261,063	-44,083	-0,142	-0,049
262,078	-6,458	-0,228	-0,107
263,093	800,000	-0,040	-0,113
264,107	41,745	-0,177	-0,111
265,122	20,424	-0,161	-0,090
266,136	49,353	-0,170	-0,110
267,151	219,206	-0,082	-0,091
268,166	471,181	-0,130	-0,202
269,180	-27,268	-0,320	-0,128
270,195	-7,719	-0,090	-0,042
271,209	220,711	-0,117	-0,130
272,224	60,767	-0,208	-0,143
273,239	77,609	-0,103	-0,076
274,253	-6,434	-0,116	-0,054
275,268	-81,862	-0,137	-0,031
276,282	-15,991	-0,154	-0,067
277,297	416,300	-0,104	-0,153
278,312	105,129	-0,112	-0,091
279,326	-139,208	-0,179	-0,013
280,341	-200,000	0,030	-0,194
281,355	152,364	-0,110	-0,104
282,370	-66,452	-0,108	-0,030
283,384	-105,326	-0,224	-0,035
284,399	123,906	-0,198	-0,171
285,414	243,137	-0,180	-0,209
286,428	4,051	-0,228	-0,115
287,443	18,988	-0,178	-0,098
288,457	147,745	-0,113	-0,105
289,472	180,026	-0,100	-0,101
290,487	285,630	-0,107	-0,133
291,501	97,334	-0,185	-0,147
292,516	-158,706	-0,119	0,005
293,530	-112,389	-0,099	-0,014
294,545	110,112	-0,068	-0,056
295,560	-60,690	-0,157	-0,046
296,574	-16,607	-0,103	0,045
297,589	-93,678	-0,239	-0,045
298,603	-64,000	-0,167	-0,047
299,618	-64,984	-0,197	-0,055
300,633	-41,431	-0,155	-0,055
301,647	-9,103	-0,134	0,061
302,662	-181,757	-0,111	-0,001
303,676	18,470	-0,124	-0,068
304,691	39,809	-0,149	-0,092
305,706	-200,000	0,005	-0,136
306,720	3,263	-0,210	-0,105
307,735	-122,364	-0,201	0,022
308,749	21,134	-0,120	-0,067
309,764	31,443	-0,198	-0,117
310,779	147,332	-0,196	-0,182
311,793	194,945	-0,068	-0,071
312,808	-18,955	-0,180	-0,077
313,822	-64,816	-0,287	-0,079
314,837	282,595	-0,119	-0,148
315,852	271,038	-0,104	-0,127
316,866	108,389	-0,096	-0,079
317,881	96,873	-0,149	-0,118
318,895	-35,333	-0,107	-0,040
319,910	-58,525	-0,116	-0,034
320,925	-28,361	-0,209	-0,083
321,939	215,235	-0,192	-0,210
322,954	-144,815	-0,067	-0,004
323,968	800,000	0,021	-0,042
324,983	-114,162	-0,022	0,003
325,997	-100,174	-0,178	-0,030
327,012	-200,000	-0,072	-0,231
328,027	215,330	-0,171	-0,187
329,041	-200,000	-0,041	-0,204
330,056	253,120	-0,085	0,100
331,070	59,491	-0,159	-0,108
332,085	-182,635	-0,152	0,002
333,100	-35,961	-0,140	-0,052
334,114	-27,263	-0,184	-0,073
335,129	349,793	-0,089	-0,122
336,143	800,000	-0,081	-0,198
337,158	800,000	-0,062	-0,156
338,173	-200,000	-0,011	-0,118
339,187	52,421	-0,174	-0,114
340,202	51,913	-0,110	0,072
341,216	-120,974	-0,144	0,016
342,231	-36,717	-0,255	-0,093
343,246	66,973	-0,245	-0,172
344,260	129,173	-0,223	-0,195
345,275	-83,272	-0,139	0,031
346,289	-10,674	-0,152	-0,069
347,304	-92,035	-0,223	-0,043
348,319	103,453	-0,149	-0,120
349,333	79,349	-0,108	-0,079
350,348	77,845	-0,167	-0,122
351,362	51,092	-0,144	-0,094
352,377	25,401	-0,088	-0,050
353,392	37,738	-0,126	-0,077
354,406	-57,397	-0,204	-0,061
355,421	210,495	1314,125	1418,778
356,435	162,043	1474,802	1419,273
