DTS Sentinel unit serial number:	SN410029Multiplexer serial number:	ORYXHardware model number:	OX2-SRSoftware version number:	ORYX F/W v4,00 Oryx Data Collector v3.7.2.0data status	okinstallation	B3 Nyhavnadifferential loss correction	single-endedforward channel	channel 1reverse channel	N/Adate	2023/12/02time	02:47:30forward acquisition time	300,00reverse acquisition time	0,00gamma	499,1914k internal	0,3194k external	0,3194temperature offset calibration	1,0000default loss term (dB/km)	0,3820temperature slope calibration	1,0000multiplexer offset coefficient	1,0000multiplexer slope coefficient	1,0000fibre end	0,00T internal ref (°C)	16,66T ext. ref 1 (°C)	1,80T ext. ref 2 (°C)	1,79length (m)	temperature (°C)	Stokes	anti-Stokes-744,400	-86,882	-0,256	-0,057
-743,385	-200,000	-0,080	0,278
-742,371	96,095	-0,135	-0,112
-741,356	-200,000	0,006	0,327
-740,342	249,089	-0,130	-0,161
-739,327	800,000	-0,120	0,370
-738,312	233,628	-0,270	-0,324
-737,298	-200,000	-0,055	0,213
-736,283	-200,000	-0,138	-0,451
-735,269	-200,000	0,062	0,273
-734,254	479,692	-0,169	-0,281
-733,239	800,000	-0,117	0,237
-732,225	528,070	-0,053	-0,091
-731,210	-200,000	-0,024	0,171
-730,196	-200,000	-0,039	0,152
-729,181	-5,857	-0,056	0,028
-728,167	-164,782	-0,157	0,005
-727,152	800,000	-0,013	-0,027
-726,137	-20,636	-0,081	0,036
-725,123	-63,979	-0,107	-0,032
-724,108	95,505	-0,135	-0,112
-723,094	237,955	-0,081	0,098
-722,079	442,028	-0,079	-0,127
-721,064	-3,726	0,041	-0,021
-720,050	71,116	-0,058	-0,044
-719,035	-200,000	-0,001	0,055
-718,021	800,000	-0,038	-0,093
-717,006	45,143	-0,149	-0,100
-715,991	-200,000	-0,038	-0,188
-714,977	648,552	-0,109	-0,204
-713,962	-126,851	-0,167	-0,018
-712,948	-74,353	-0,209	0,055
-711,933	84,565	-0,030	-0,024
-710,918	800,000	-0,026	0,070
-709,904	-200,000	-0,004	-0,062
-708,889	-49,541	-0,016	-0,005
-707,875	-191,462	-0,143	-0,001
-706,860	378,607	0,092	0,137
-705,845	450,813	-0,081	-0,130
-704,831	214,581	0,056	-0,065
-703,816	800,000	-0,039	0,090
-702,802	-200,000	0,006	0,050
-701,787	30,143	0,036	-0,022
-700,772	-200,000	-0,008	-0,040
-699,758	800,000	0,022	-0,064
-698,743	-67,841	0,087	-0,024
-697,729	800,000	-0,075	-0,175
-696,714	-74,595	-0,036	-0,009
-695,699	234,946	-0,014	0,017
-694,685	800,000	0,059	-0,159
-693,670	-17,762	0,113	-0,051
-692,656	-116,983	-0,089	0,012
-691,641	-89,299	0,034	0,007
-690,627	501,232	-0,045	-0,076
-689,612	-200,000	0,004	0,027
-688,597	8,657	-0,122	-0,067
-687,583	106,295	0,028	0,024
-686,568	384,996	0,053	0,080
-685,554	-45,234	-0,075	0,027
-684,539	72,391	-0,084	0,063
-683,524	235,213	-0,070	0,084
-682,510	-13,376	0,052	-0,024
-681,495	156,249	-0,075	0,075
-680,481	-91,176	-0,122	0,025
-679,466	-200,000	0,027	-0,099
-678,451	-200,000	-0,001	-0,099
-677,437	800,000	0,020	0,040
-676,422	-200,000	-0,005	0,233
-675,408	20,036	-0,059	0,035
-674,393	800,000	0,094	0,211
-673,378	-200,000	-0,006	0,088
-672,364	56,047	-0,160	-0,112
-671,349	36,739	-0,064	-0,041
-670,335	-200,000	-0,031	0,112
-669,320	659,710	-0,066	0,125
-668,305	528,979	0,030	-0,052
-667,291	168,660	-0,049	0,051
-666,276	113,654	0,015	0,013
-665,262	800,000	0,062	-0,125
-664,247	-132,846	-0,103	-0,009
-663,232	-200,000	0,010	-0,113
-662,218	-200,000	-0,016	0,079
-661,203	800,000	0,051	0,139
-660,189	-59,999	-0,083	0,026
-659,174	-200,000	-0,007	-0,077
-658,159	800,000	-0,066	-0,145
-657,145	-38,558	0,070	0,027
-656,130	-56,206	-0,103	0,033
-655,116	45,701	0,081	-0,054
-654,101	14,709	0,162	-0,092
-653,086	164,858	0,114	0,117
-652,072	79,411	-0,064	0,050
-651,057	800,000	-0,037	0,074
-650,043	-50,401	-0,155	-0,053
-649,028	127,380	-0,113	-0,104
-648,014	-138,517	-0,131	-0,010
-646,999	-200,000	0,006	-0,067
-645,984	336,529	0,055	0,077
-644,970	800,000	-0,034	0,085
-643,955	119,853	-0,076	0,069
-642,941	144,593	-0,093	-0,090
-641,926	-200,000	-0,002	-0,017
-640,911	285,409	0,066	0,086
-639,897	202,849	0,042	0,047
-638,882	23,839	-0,088	0,052
-637,868	98,178	-0,033	-0,027
-636,853	600,167	-0,030	-0,055
-635,838	-152,097	-0,101	0,005
-634,824	38,396	0,045	0,029
-633,809	536,476	-0,029	0,050
-632,795	149,263	-0,041	-0,040
-631,780	800,000	0,072	0,148
-630,765	29,275	-0,258	0,159
-629,751	-47,604	-0,072	-0,025
-628,736	-72,155	0,093	-0,025
-627,722	77,394	-0,050	0,039
-626,707	-200,000	-0,004	0,145
-625,692	567,003	0,053	0,094
-624,678	368,203	-0,064	0,094
-623,663	-200,000	-0,027	0,096
-622,649	-128,478	-0,164	0,017
-621,634	-10,562	-0,099	-0,048
-620,619	789,593	-0,083	0,167
-619,605	-200,000	-0,003	0,018
-618,590	800,000	0,027	0,062
-617,576	-43,774	-0,086	-0,031
-616,561	-136,852	0,018	0,001
-615,546	800,000	0,046	-0,122
-614,532	-73,283	0,126	0,033
-613,517	121,198	-0,064	-0,058
-612,503	-200,000	0,007	-0,031
-611,488	-27,089	-0,071	-0,030
-610,474	-200,000	0,065	0,000
-609,459	-147,446	-0,146	-0,009
-608,444	-146,538	0,089	-0,006
-607,430	225,732	-0,032	-0,038
-606,415	-200,000	-0,008	-0,100
-605,401	47,335	0,087	0,058
-604,386	76,121	-0,098	-0,075
-603,371	54,999	0,084	0,059
-602,357	240,624	-0,044	-0,053
-601,342	-200,000	0,005	-0,049
-600,328	281,648	0,060	-0,078
-599,313	238,390	-0,032	0,039
-598,298	-17,611	-0,078	-0,035
-597,284	-200,000	-0,005	-0,073
-596,269	-89,547	0,072	-0,015
-595,255	327,067	-0,048	-0,067
-594,240	-12,320	-0,073	0,034
-593,225	10,588	-0,121	-0,066
-592,211	197,098	0,092	-0,102
-591,196	50,005	0,025	-0,017
-590,182	800,000	-0,042	-0,100
-589,167	-78,210	0,159	-0,039
-588,152	-41,620	-0,041	0,015
-587,138	53,311	-0,144	0,100
-586,123	800,000	-0,032	-0,085
-585,109	800,000	-0,029	-0,085
-584,094	-200,000	-0,005	0,051
-583,079	162,590	0,024	-0,024
-582,065	417,139	-0,018	0,028
-581,050	344,145	0,004	0,006
-580,036	-30,840	0,094	-0,038
-579,021	38,152	-0,169	0,109
-578,006	111,188	-0,071	0,062
-576,992	-103,077	0,066	0,011
-575,977	-200,000	0,010	-0,048
-574,963	28,618	0,110	-0,067
-573,948	-200,000	-0,017	0,084
-572,934	-200,000	-0,004	0,132
-571,919	175,963	-0,034	-0,036
-570,904	-200,000	-0,102	-0,000
-569,890	103,891	0,168	-0,143
-568,875	-158,195	0,056	-0,002
-567,861	800,000	-0,033	0,097
-566,846	-19,846	0,038	-0,017
-565,831	155,516	-0,101	-0,101
-564,817	-200,000	-0,001	0,035
-563,802	-30,936	-0,075	0,031
-562,788	543,532	-0,046	0,080
-561,773	-146,056	0,147	0,009
-560,758	-29,652	0,156	-0,064
-559,744	-200,000	-0,003	0,056
-558,729	-35,592	-0,132	-0,051
-557,715	-200,000	0,010	-0,034
-556,700	-183,927	-0,087	0,001
-555,685	18,265	-0,035	0,020
-554,671	4,263	-0,087	-0,046
-553,656	-200,000	-0,013	0,069
-552,642	26,979	0,100	-0,061
-551,627	-53,031	0,067	-0,022
-550,612	-200,000	0,019	-0,086
-549,598	740,062	-0,043	-0,084
-548,583	23,122	0,025	-0,015
-547,569	-25,179	0,122	-0,052
-546,554	-67,759	0,101	0,028
-545,539	-200,000	0,003	0,085
-544,525	-200,000	-0,018	0,139
-543,510	-200,000	0,034	-0,161
-542,496	-74,510	0,112	-0,029
-541,481	-200,000	0,001	-0,016
-540,466	126,019	0,047	-0,043
-539,452	-200,000	0,002	-0,065
-538,437	50,967	-0,082	0,056
-537,423	800,000	-0,039	0,123
-536,408	800,000	-0,016	0,049
-535,393	800,000	-0,030	-0,068
-534,379	320,630	-0,059	0,081
-533,364	800,000	-0,036	-0,074
-532,350	25,275	-0,157	-0,094
-531,335	441,946	-0,078	0,123
-530,321	-19,012	0,042	0,019
-529,306	-107,909	-0,222	0,035
-528,291	764,036	0,023	0,045
-527,277	-87,526	0,023	-0,005
-526,262	-200,000	-0,010	-0,060
-525,248	-84,729	0,003	0,001
-524,233	106,811	0,077	-0,066
-523,218	800,000	-0,035	-0,072
-522,204	325,753	-0,016	-0,022
-521,189	169,623	-0,025	0,026
-520,175	800,000	-0,039	-0,111
-519,160	136,567	-0,085	-0,080
-518,145	-24,987	0,045	0,019
-517,131	169,154	0,039	0,040
-516,116	43,384	0,036	0,024
-515,102	-122,937	-0,081	-0,009
-514,087	-200,000	0,010	-0,107
-513,072	-113,994	0,072	-0,010
-512,058	800,000	-0,027	0,056
-511,043	406,066	-0,036	0,055
-510,029	-60,615	0,134	-0,041
-509,014	3,814	-0,088	0,046
-507,999	286,998	-0,047	-0,061
-506,985	135,358	-0,097	0,091
-505,970	-129,844	0,119	0,012
-504,956	-200,000	0,005	-0,122
-503,941	-200,000	-0,013	0,085
-502,926	800,000	-0,014	0,033
-501,912	800,000	-0,017	-0,045
-500,897	-200,000	0,029	0,094
-499,883	-123,745	0,071	-0,008
-498,868	47,790	0,017	-0,011
-497,853	227,836	0,055	0,065
-496,839	-200,000	0,024	-0,083
-495,824	-200,000	-0,042	0,179
-494,810	-176,679	0,200	-0,004
-493,795	-200,000	0,029	0,151
-492,781	800,000	0,010	-0,021
-491,766	30,963	-0,098	-0,060
-490,751	-200,000	-0,016	-0,214
-489,737	800,000	-0,033	0,096
-488,722	-176,390	-0,067	-0,001
-487,708	-200,000	0,025	-0,121
-486,693	281,769	0,082	-0,107
-485,678	238,923	-0,049	-0,059
-484,664	800,000	0,042	-0,123
-483,649	195,771	-0,042	-0,046
-482,635	-145,331	0,095	0,006
-481,620	800,000	0,049	0,111
-480,605	-200,000	0,005	0,054
-479,591	-76,948	0,101	0,025
-478,576	-200,000	0,016	0,090
-477,562	136,998	-0,060	0,057
-476,547	-132,100	0,032	0,003
-475,532	121,362	-0,137	0,123
-474,518	800,000	0,084	0,172
-473,503	600,792	-0,045	-0,080
-472,489	60,384	0,109	0,078
-471,474	-200,000	-0,012	0,095
-470,459	-200,000	-0,017	-0,076
-469,445	-58,501	-0,063	0,020
-468,430	223,567	0,007	-0,009
-467,416	-57,644	0,100	-0,031
-466,401	-87,622	0,094	0,020
-465,386	-200,000	0,010	0,092
-464,372	-106,343	-0,075	-0,012
-463,357	61,431	-0,013	0,009
-462,343	-200,000	-0,026	-0,084
-461,328	373,451	0,076	-0,112
-460,313	351,786	-0,071	-0,102
-459,299	800,000	-0,009	-0,026
-458,284	20,951	-0,046	-0,027
-457,270	-200,000	-0,025	0,106
-456,255	-54,177	0,133	0,043
-455,241	-112,951	-0,020	0,003
-454,226	-200,000	-0,029	-0,105
-453,211	324,525	-0,013	0,019
-452,197	223,327	0,055	0,064
-451,182	300,164	0,043	-0,058
-450,168	-67,679	-0,132	0,037
-449,153	800,000	0,035	-0,097
-448,138	669,105	-0,055	0,104
-447,124	182,275	-0,022	-0,024
-446,109	-200,000	-0,004	-0,107
-445,095	787,907	0,017	-0,033
-444,080	207,469	0,085	0,096
-443,065	168,976	-0,088	-0,090
-442,051	345,732	-0,075	-0,106
-441,036	800,000	-0,031	-0,070
-440,022	-200,000	0,047	-0,203
-439,007	-200,000	-0,013	-0,063
-437,992	214,093	0,051	-0,058
-436,978	-200,000	0,024	0,165
-435,963	608,383	0,067	0,121
-434,949	313,877	-0,046	-0,062
-433,934	-84,156	-0,140	-0,032
-432,919	-200,000	-0,001	0,051
-431,905	104,215	-0,033	0,028
-430,890	-200,000	-0,002	-0,078
-429,876	-200,000	-0,010	-0,051
-428,861	-200,000	0,008	-0,078
-427,846	-38,860	0,032	-0,012
-426,832	-200,000	-0,011	0,097
-425,817	-182,914	0,081	-0,001
-424,803	-95,112	-0,091	0,018
-423,788	-99,126	-0,030	-0,005
-422,773	31,707	0,125	0,077
-421,759	-200,000	-0,005	-0,112
-420,744	800,000	-0,045	0,104
-419,730	122,464	0,079	0,071
-418,715	-200,000	0,005	-0,090
-417,701	154,942	0,139	-0,137
-416,686	82,222	-0,090	-0,070
-415,671	311,191	0,011	-0,015
-414,657	800,000	-0,030	0,092
-413,642	442,719	-0,033	-0,052
-412,628	152,422	-0,120	-0,118
-411,613	-121,250	0,039	-0,005
-410,598	-110,233	0,110	0,016
-409,584	-200,000	0,001	0,003
-408,569	425,093	0,101	0,157
-407,555	-40,953	0,112	-0,041
-406,540	-200,000	-0,011	-0,096
-405,525	800,000	0,036	-0,098
-404,511	-133,796	0,145	-0,013
-403,496	-200,000	0,019	-0,135
-402,482	-101,158	0,176	-0,031
-401,467	281,747	0,109	-0,141
-400,452	-117,911	-0,073	0,009
-399,438	-41,525	-0,038	0,014
-398,423	360,355	0,057	-0,082
-397,409	522,243	0,075	-0,128
-396,394	142,912	-0,044	-0,042
-395,379	-200,000	0,049	0,185
-394,365	21,800	0,060	0,035
-393,350	-200,000	-0,010	0,098
-392,336	85,512	-0,028	-0,022
-391,321	-31,804	0,086	-0,034
-390,306	-183,657	0,104	0,001
-389,292	205,671	-0,052	0,059
-388,277	388,782	0,039	0,058
-387,263	-200,000	-0,020	0,129
-386,248	64,550	0,121	0,088
-385,233	165,913	-0,040	0,041
-384,219	-97,802	0,067	0,012
-383,204	239,074	-0,071	0,085
-382,190	313,271	0,070	-0,095
-381,175	224,229	0,062	-0,073
-380,160	-200,000	0,002	0,012
-379,146	-126,664	0,127	0,013
-378,131	-200,000	0,002	0,041
-377,117	-200,000	0,022	0,132
-376,102	-29,427	0,003	0,001
-375,088	123,929	-0,088	-0,079
-374,073	-200,000	-0,006	-0,158
-373,058	-48,848	0,111	0,038
-372,044	-40,013	0,130	0,048
-371,029	333,779	-0,017	0,024
-370,015	-200,000	0,001	-0,056
-369,000	-200,000	-0,003	-0,020
-367,985	83,432	0,094	0,074
-366,971	228,224	-0,058	0,068
-365,956	77,905	-0,037	0,028
-364,942	529,501	0,022	0,038
-363,927	290,063	-0,042	0,054
-362,912	-84,822	-0,127	0,028
-361,898	-200,000	0,008	0,151
-360,883	300,196	-0,050	-0,066
-359,869	-16,935	-0,089	-0,040
-358,854	-56,563	-0,063	-0,020
-357,839	-200,000	0,014	0,071
-356,825	143,330	0,100	0,096
-355,810	-200,000	-0,016	0,174
-354,796	26,037	-0,139	-0,083
-353,781	235,341	0,125	-0,149
-352,766	57,466	-0,051	-0,036
-351,752	185,890	0,019	-0,020
-350,737	-77,967	0,220	0,054
-349,723	254,133	-0,038	-0,047
-348,708	-200,000	0,000	0,093
-347,693	-200,000	-0,001	-0,083
-346,679	81,722	-0,037	0,029
-345,664	596,500	-0,069	-0,123
-344,650	73,194	0,114	0,086
-343,635	-200,000	-0,004	-0,035
-342,620	-108,897	0,103	0,016
-341,606	800,000	0,023	0,058
-340,591	-65,928	-0,134	0,038
-339,577	343,187	-0,057	0,080
-338,562	800,000	-0,031	-0,067
-337,548	-50,982	0,083	-0,028
-336,533	-200,000	0,040	0,170
-335,518	-25,647	-0,093	-0,039
-334,504	-200,000	-0,002	0,143
-333,489	539,486	-0,052	0,090
-332,475	33,159	0,010	0,006
-331,460	118,135	-0,024	0,021
-330,445	-200,000	0,010	0,038
-329,431	593,591	0,086	-0,154
-328,416	800,000	-0,024	-0,061
-327,402	-59,128	0,035	0,011
-326,387	800,000	0,027	0,069
-325,372	137,460	-0,090	-0,084
-324,358	271,101	0,099	-0,125
-323,343	616,738	-0,049	0,089
-322,329	800,000	-0,021	-0,056
-321,314	-23,341	0,258	0,111
-320,299	764,838	-0,071	0,138
-319,285	800,000	-0,051	0,141
-318,270	637,521	-0,038	-0,069
-317,256	800,000	-0,060	-0,121
-316,241	-39,806	0,063	-0,024
-315,226	-200,000	-0,017	-0,179
-314,212	346,319	0,066	-0,093
-313,197	-15,966	0,148	0,067
-312,183	-2,054	-0,086	-0,043
-311,168	-200,000	-0,026	-0,157
-310,153	-63,637	-0,052	0,015
-309,139	-200,000	-0,006	0,081
-308,124	-180,363	0,129	-0,002
-307,110	18,261	0,030	-0,017
-306,095	-200,000	-0,024	0,203
-305,080	34,244	-0,019	0,012
-304,066	-71,888	0,075	0,020
-303,051	2,129	0,072	-0,037
-302,037	768,218	-0,011	0,021
-301,022	297,387	0,030	0,039
-300,008	52,988	0,065	-0,044
-298,993	23,313	0,117	0,069
-297,978	690,509	-0,135	0,255
-296,964	-122,991	0,058	-0,007
-295,949	305,605	-0,031	0,041
-294,935	424,926	-0,068	-0,105
-293,920	800,000	-0,016	-0,046
-292,905	800,000	0,048	0,104
-291,891	-46,404	0,046	-0,016
-290,876	-200,000	0,032	-0,110
-289,862	-140,968	0,101	-0,007
-288,847	-200,000	0,011	-0,070
-287,832	672,738	0,035	-0,065
-286,818	800,000	-0,047	-0,125
-285,803	732,882	-0,062	-0,119
-284,789	-33,718	0,171	0,067
-283,774	800,000	0,022	-0,064
-282,759	76,818	0,049	-0,037
-281,745	-200,000	0,012	-0,053
-280,730	27,274	-0,103	0,062
-279,716	11,160	0,081	-0,044
-278,701	165,874	-0,049	0,050
-277,686	265,645	0,076	0,095
-276,672	-174,111	0,151	0,003
-275,657	77,270	-0,051	0,039
-274,643	207,702	-0,125	-0,140
-273,628	-64,336	-0,035	0,010
-272,613	705,323	0,015	-0,028
-271,599	800,000	-0,040	-0,091
-270,584	63,552	0,058	0,041
-269,570	-200,000	-0,002	-0,032
-268,555	360,024	-0,027	-0,039
-267,540	-200,000	0,003	0,038
-266,526	0,618	-0,154	0,079
-265,511	-200,000	-0,035	-0,115
-264,497	81,000	-0,071	0,055
-263,482	-200,000	0,047	0,180
-262,467	-200,000	-0,007	-0,142
-261,453	800,000	0,020	0,044
-260,438	800,000	-0,039	-0,106
-259,424	800,000	0,037	0,086
-258,409	-200,000	0,002	0,097
-257,395	-200,000	-0,004	-0,099
-256,380	65,661	0,135	-0,098
-255,365	42,239	-0,074	0,048
-254,351	-96,707	0,106	-0,020
-253,336	-200,000	0,026	0,134
-252,322	3,375	-0,055	-0,029
-251,307	-92,085	-0,053	0,011
-250,292	6,540	-0,153	-0,081
-249,278	-200,000	-0,000	0,143
-248,263	528,845	0,051	-0,087
-247,249	120,735	-0,082	0,073
-246,234	-42,484	0,070	-0,025
-245,219	-200,000	0,019	0,063
-244,205	182,736	-0,085	-0,090
-243,190	-93,857	0,047	-0,009
-242,176	-51,481	0,090	-0,030
-241,161	-105,284	0,089	0,014
-240,146	296,920	-0,107	0,140
-239,132	202,697	-0,032	0,035
-238,117	-83,170	-0,084	-0,019
-237,103	120,592	0,103	-0,091
-236,088	-55,956	0,024	0,008
-235,073	-200,000	0,005	0,032
-234,059	-9,612	0,042	-0,020
-233,044	367,623	-0,038	-0,055
-232,030	210,468	-0,045	-0,050
-231,015	-200,000	0,000	-0,030
-230,000	-50,853	-0,084	0,028
-228,986	434,776	0,021	-0,032
-227,971	-200,000	-0,000	-0,057
-226,957	113,094	0,080	0,069
-225,942	800,000	0,069	0,165
-224,927	800,000	-0,050	0,099
-223,913	163,936	0,012	-0,012
-222,898	190,478	-0,105	-0,113
-221,884	417,271	-0,081	0,123
-220,869	60,501	0,092	0,065
-219,855	-94,956	0,125	-0,024
-218,840	63,906	-0,124	0,089
-217,825	501,041	0,054	-0,089
-216,811	-4,599	-0,031	-0,015
-215,796	198,080	-0,070	0,077
-214,782	800,000	-0,008	0,020
-213,767	-163,199	0,130	0,004
-212,752	544,670	0,048	0,081
-211,738	147,004	-0,104	0,100
-210,723	-116,220	0,117	0,015
-209,709	-200,000	-0,060	0,193
-208,694	51,452	-0,009	-0,006
-207,679	264,672	0,040	0,050
-206,665	-191,584	-0,227	0,002
-205,650	-45,774	0,113	0,040
-204,636	-200,000	0,011	0,058
-203,621	-200,000	-0,002	0,009
-202,606	-180,928	-0,072	-0,001
-201,592	283,379	-0,071	-0,091
-200,577	246,429	-0,027	0,032
-199,563	259,905	-0,017	0,021
-198,548	800,000	0,012	-0,034
-197,533	-60,406	0,073	-0,022
-196,519	85,301	-0,021	0,016
-195,504	-78,109	-0,085	0,021
-194,490	689,809	-0,047	-0,088
-193,475	-200,000	-0,021	-0,164
-192,460	129,121	0,031	0,028
-191,446	508,026	0,058	0,096
-190,431	-200,000	0,063	-0,208
-189,417	-200,000	-0,002	-0,076
-188,402	322,037	-0,044	0,060
-187,387	8,270	-0,051	-0,027
-186,373	257,030	0,089	-0,109
-185,358	472,046	-0,052	-0,084
-184,344	116,578	-0,072	-0,063
-183,329	-200,000	0,002	0,064
-182,315	-186,175	0,164	-0,002
-181,300	238,029	-0,100	0,118
-180,285	-108,912	-0,103	0,016
-179,271	-200,000	0,013	-0,061
-178,256	364,274	-0,053	-0,077
-177,242	335,433	0,061	0,084
-176,227	-85,964	0,031	0,007
-175,212	127,809	-0,102	0,093
-174,198	38,052	-0,100	-0,063
-173,183	320,196	0,023	0,031
-172,169	84,813	0,080	0,062
-171,154	-4,793	-0,033	0,016
-170,139	-103,563	0,135	0,022
-169,125	24,272	0,107	0,063
-168,110	-107,084	-0,162	0,025
-167,096	-53,140	0,066	-0,021
-166,081	-200,000	-0,003	-0,109
-165,066	225,818	-0,105	-0,121
-164,052	127,615	0,042	-0,038
-163,037	-29,584	0,027	0,011
-162,023	158,646	-0,068	0,068
-161,008	145,532	-0,085	0,082
-159,993	-95,811	0,066	-0,012
-158,979	-67,150	0,025	-0,007
-157,964	-36,281	-0,057	0,022
-156,950	540,367	-0,025	0,043
-155,935	224,787	0,035	-0,041
-154,920	586,829	0,032	-0,055
-153,906	55,617	-0,078	0,053
-152,891	374,080	-0,065	-0,094
-151,877	-200,000	0,022	-0,136
-150,862	-200,000	-0,011	-0,159
-149,847	705,748	-0,081	-0,152
-148,833	98,543	-0,151	-0,124
-147,818	140,299	0,032	0,030
-146,804	322,252	0,097	-0,132
-145,789	-200,000	0,024	-0,095
-144,775	-200,000	0,001	-0,032
-143,760	-200,000	-0,004	-0,183
-142,745	-6,848	0,094	-0,045
-141,731	359,654	0,082	-0,117
-140,716	-138,880	-0,100	0,008
-139,702	-200,000	0,024	-0,082
-138,687	38,995	-0,098	0,062
-137,672	-8,549	0,073	0,035
-136,658	3,886	-0,072	0,038
-135,643	-200,000	-0,020	0,066
-134,629	32,807	0,040	-0,024
-133,614	5,362	-0,187	-0,098
-132,599	-87,990	-0,089	0,019
-131,585	-200,000	0,024	0,114
-130,570	-26,708	0,097	-0,040
-129,556	-200,000	0,012	-0,120
-128,541	35,097	-0,098	-0,061
-127,526	800,000	0,017	-0,051
-126,512	-149,970	-0,122	-0,007
-125,497	-200,000	-0,001	0,135
-124,483	-3,014	0,041	-0,020
-123,468	70,706	0,071	0,052
-122,453	-5,123	-0,085	0,041
-121,439	407,374	-0,047	-0,071
-120,424	-140,270	-0,079	-0,006
-119,410	-57,772	0,070	0,022
-118,395	-200,000	0,010	0,051
-117,380	103,728	0,058	-0,049
-116,366	-200,000	0,017	0,101
-115,351	-200,000	0,013	-0,076
-114,337	-200,000	-0,016	-0,114
-113,322	91,669	-0,036	-0,029
-112,307	-96,055	0,124	-0,023
-111,293	21,412	0,176	0,102
-110,278	800,000	0,057	0,155
-109,264	-200,000	-0,002	0,101
-108,249	-200,000	-0,018	0,168
-107,234	-89,360	-0,108	0,022
-106,220	119,708	-0,046	-0,041
-105,205	132,572	0,027	-0,025
-104,191	-97,711	-0,044	0,008
-103,176	612,036	0,091	0,162
-102,162	-54,756	0,094	0,030
-101,147	-194,717	0,171	0,001
-100,132	106,064	-0,098	0,082
-99,118	284,718	-0,101	-0,129
-98,103	22,674	-0,047	-0,027
-97,089	-200,000	0,007	-0,036
-96,074	250,165	-0,018	-0,022
-95,059	-77,684	0,172	0,042
-94,045	-101,320	-0,061	-0,011
-93,030	161,471	-0,135	-0,135
-92,016	-18,744	-0,053	-0,023
-91,001	-11,622	-0,187	-0,087
-89,986	-97,912	-0,126	0,023
-88,972	800,000	-0,038	-0,096
-87,957	325,155	0,082	0,111
-86,943	43,598	0,158	-0,103
-85,928	-100,004	-0,158	0,028
-84,913	68,436	0,119	-0,087
-83,899	800,000	-0,034	-0,107
-82,884	145,745	-0,042	0,040
-81,870	-60,309	0,051	-0,015
-80,855	-200,000	0,010	0,051
-79,840	566,214	0,051	0,089
-78,826	719,887	-0,066	0,125
-77,811	344,891	-0,137	-0,191
-76,797	800,000	-0,036	0,104
-75,782	-200,000	0,008	0,101
-74,767	-75,853	-0,109	-0,027
-73,753	300,001	0,019	0,025
-72,738	800,000	-0,073	-0,179
-71,724	800,000	-0,057	-0,135
-70,709	-121,642	0,042	0,005
-69,694	800,000	0,010	-0,030
-68,680	-200,000	-0,025	0,108
-67,665	111,339	0,085	-0,073
-66,651	-75,732	0,187	0,047
-65,636	-108,447	-0,016	-0,002
-64,622	82,326	0,085	-0,065
-63,607	-103,615	-0,111	-0,018
-62,592	-57,152	-0,036	-0,011
-61,578	199,964	0,046	-0,050
-60,563	243,159	0,070	0,083
-59,549	3,466	0,077	-0,040
-58,534	-78,712	-1,379	-0,331
-57,519	333,809	-1,556	-2,141
-56,505	-200,000	-0,348	-4,274
-55,490	63,403	0,897	0,638
-54,476	800,000	4,649	11,048
-53,461	-200,000	17,109	267,727
-52,446	800,000	714,532	2177,731
-51,432	551,782	1628,963	2786,013
-50,417	81,388	1655,092	1268,212
-49,403	24,452	1529,338	895,098
-48,388	18,475	1452,898	821,588
-47,373	18,550	1442,296	815,917
-46,359	18,309	1433,101	809,538
-45,344	16,828	1428,236	799,732
-44,330	16,674	1426,690	798,101
-43,315	16,759	1424,823	797,431
-42,300	16,797	1423,031	796,573
-41,286	16,805	1421,998	796,004
-40,271	16,747	1420,642	794,940
-39,257	16,736	1419,418	794,171
-38,242	16,800	1418,065	793,681
-37,227	16,783	1416,928	792,937
-36,213	16,772	1415,850	792,247
-35,198	16,769	1414,511	791,455
-34,184	16,776	1413,460	790,866
-33,169	16,706	1412,414	789,924
-32,154	16,735	1411,481	789,507
-31,140	16,789	1409,954	788,874
-30,125	16,768	1408,861	788,132
-29,111	16,780	1407,679	787,493
-28,096	16,719	1406,769	786,668
-27,082	16,675	1405,593	785,777
-26,067	16,706	1404,261	785,144
-25,052	16,715	1403,108	784,509
-24,038	16,682	1402,251	783,844
-23,023	16,632	1401,283	783,043
-22,009	16,629	1400,358	782,478
-20,994	16,634	1399,482	781,980
-19,979	16,630	1398,571	781,422
-18,965	16,602	1397,655	780,748
-17,950	16,631	1396,589	780,258
-16,936	16,644	1395,579	779,724
-15,921	16,610	1394,390	778,869
-14,906	16,582	1393,556	778,244
-13,892	16,581	1392,724	777,742
-12,877	16,611	1391,710	777,287
-11,863	16,616	1390,756	776,745
-10,848	16,583	1389,955	776,116
-9,833	16,534	1388,921	775,281
-8,819	16,550	1388,202	774,922
-7,804	16,486	1387,177	774,023
-6,790	16,506	1385,946	773,399
-5,775	16,487	1385,134	772,830
-4,760	16,485	1384,288	772,315
-3,746	16,430	1383,360	771,517
-2,731	16,453	1382,748	771,249
-1,717	16,381	1381,701	770,302
-0,702	16,471	1379,717	769,577
0,313	20,229	1301,795	743,447
1,327	36,726	707,640	442,407
2,342	56,300	125,855	86,579
3,356	3,443	16,666	8,582
4,371	-8,736	3,088	1,463
5,386	-63,872	0,612	0,176
6,400	-200,000	0,039	0,147
7,415	-125,991	-0,375	-0,039
8,429	67,472	-0,305	-0,220
9,444	138,763	-0,304	-0,283
10,459	57,163	-0,379	-0,262
11,473	-15,420	-0,385	-0,173
12,488	19,264	-0,233	-0,132
13,502	-23,696	-0,327	-0,138
14,517	276,903	-0,236	-0,298
15,531	342,039	-0,289	-0,401
16,546	77,067	-0,398	-0,299
17,561	60,868	-0,393	-0,276
18,575	108,776	-0,177	-0,150
19,590	62,438	-0,276	-0,195
20,604	79,958	-0,272	-0,207
21,619	166,694	-0,391	-0,393
22,634	44,115	-0,447	-0,290
23,648	220,827	-0,395	-0,449
24,663	-13,739	-0,513	-0,234
25,677	138,244	-0,386	-0,359
26,692	167,688	-0,312	-0,314
27,707	71,185	-0,400	-0,293
28,721	162,620	-0,325	-0,323
29,736	242,131	-0,312	-0,370
30,750	119,998	-0,346	-0,303
31,765	150,047	-0,319	-0,306
32,780	-11,983	-0,413	-0,191
33,794	-60,955	-0,325	-0,096
34,809	78,958	-0,371	-0,281
35,823	93,247	-0,426	-0,340
36,838	46,512	-0,331	-0,217
37,853	29,871	-0,397	-0,239
38,867	46,078	-0,398	-0,260
39,882	254,284	-0,274	-0,332
40,896	47,877	-0,344	-0,227
41,911	-9,348	-0,383	-0,180
42,926	10,627	-0,388	-0,209
43,940	72,197	-0,285	-0,209
44,955	98,809	-0,474	-0,387
45,969	66,162	-0,480	-0,344
46,984	89,419	-0,287	-0,226
47,999	141,987	-0,279	-0,262
49,013	103,231	-0,220	-0,182
50,028	-50,137	-0,310	-0,103
51,042	200,300	-0,338	-0,367
52,057	54,094	-0,278	-0,188
53,071	146,536	-0,255	-0,242
54,086	140,342	-0,334	-0,311
55,101	31,002	-0,250	-0,151
56,115	69,043	-0,356	-0,258
57,130	56,690	-0,306	-0,210
58,144	90,003	-0,365	-0,287
59,159	109,798	-0,329	-0,278
60,174	24,948	-0,427	-0,249
61,188	2,659	-0,405	-0,206
62,203	-78,791	-0,340	-0,081
63,217	35,552	-0,260	-0,161
64,232	-3,279	-0,295	-0,144
65,247	74,171	-0,371	-0,274
66,261	23,493	-0,357	-0,207
67,276	63,044	-0,358	-0,252
68,290	152,459	-0,322	-0,310
69,305	107,338	-0,234	-0,196
70,320	82,247	-0,203	-0,155
71,334	-65,154	-0,369	-0,104
72,349	111,218	-0,324	-0,275
73,363	95,991	-0,360	-0,290
74,378	205,364	-0,332	-0,363
75,393	-14,978	-0,415	-0,187
76,407	43,331	-0,254	-0,163
77,422	-49,312	-0,315	-0,105
78,436	134,226	-0,157	-0,144
79,451	327,010	-0,233	-0,315
80,466	69,305	-0,246	-0,178
81,480	26,079	-0,215	-0,126
82,495	52,074	-0,309	-0,207
83,509	91,012	-0,302	-0,238
84,524	-52,969	-0,243	-0,078
85,539	-40,605	-0,263	-0,096
86,553	69,457	-0,294	-0,213
87,568	-11,725	-0,281	-0,130
88,582	324,484	-0,152	-0,205
89,597	107,801	-0,169	-0,142
90,611	-168,487	-0,297	0,008
91,626	-103,894	-0,282	-0,046
92,641	56,813	-0,154	-0,105
93,655	253,364	-0,200	-0,241
94,670	-56,080	-0,396	-0,123
95,684	256,469	-0,179	-0,217
96,699	-200,000	-0,065	-0,348
97,714	38,753	-0,284	-0,178
98,728	800,000	-0,075	-0,221
99,743	-134,252	-0,318	-0,027
100,757	46,941	-0,320	-0,209
101,772	-34,817	-0,274	-0,105
102,787	192,525	-0,291	-0,309
103,801	158,656	-0,246	-0,241
104,816	252,757	-0,171	-0,205
105,830	115,166	-0,298	-0,255
106,845	313,347	-0,116	-0,154
107,860	112,872	-0,266	-0,226
108,874	511,093	-0,216	-0,355
109,889	117,404	-0,276	-0,238
110,903	31,901	-0,327	-0,197
111,918	46,922	-0,196	-0,128
112,933	316,315	-0,198	-0,263
113,947	506,539	-0,151	-0,247
114,962	-82,769	-0,279	-0,063
115,976	341,552	-0,201	-0,276
116,991	33,601	-0,158	-0,096
118,006	20,963	-0,338	-0,192
119,020	55,057	-0,245	-0,166
120,035	101,868	-0,283	-0,231
121,049	125,844	-0,196	-0,174
122,064	136,317	-0,205	-0,188
123,079	181,420	-0,230	-0,238
124,093	6,653	-0,402	-0,209
125,108	224,862	-0,188	-0,214
126,122	291,146	-0,206	-0,263
127,137	-29,526	-0,386	-0,154
128,151	80,291	-0,180	-0,135
129,166	244,944	-0,215	-0,254
130,181	-11,109	-0,239	-0,110
131,195	600,156	-0,174	-0,305
132,210	223,277	-0,232	-0,262
133,224	427,340	-0,238	-0,362
134,239	172,130	-0,273	-0,276
135,254	221,274	-0,195	-0,220
136,268	26,657	-0,265	-0,155
137,283	-49,952	-0,333	-0,110
138,297	95,607	-0,171	-0,136
139,312	234,007	-0,193	-0,223
140,327	-13,203	-0,321	-0,145
141,341	263,357	-0,146	-0,179
142,356	-23,570	-0,284	-0,119
143,370	-55,818	-0,145	-0,045
144,385	146,495	-0,154	-0,145
145,400	133,733	-0,283	-0,257
146,414	-20,937	-0,277	-0,118
147,429	-34,392	-0,264	-0,101
148,443	1,853	-0,264	-0,133
149,458	356,950	-0,152	-0,212
150,473	134,275	-0,168	-0,152
151,487	-35,432	-0,181	-0,069
152,502	-86,288	-0,219	-0,047
153,516	301,554	-0,186	-0,241
154,531	35,908	-0,361	-0,221
155,546	14,386	-0,214	-0,117
156,560	-113,544	-0,185	-0,025
157,575	85,472	-0,153	-0,117
158,589	-121,585	-0,274	-0,031
159,604	117,693	-0,205	-0,177
160,619	55,594	-0,356	-0,240
161,633	-53,757	-0,163	-0,052
162,648	152,879	-0,190	-0,181
163,662	-5,856	-0,169	-0,081
164,677	38,431	-0,189	-0,117
165,692	-36,133	-0,230	-0,087
166,706	-46,114	-0,217	-0,074
167,721	-46,556	-0,334	-0,114
168,735	-4,364	-0,260	-0,125
169,750	41,165	-0,234	-0,147
170,764	800,000	-0,044	-0,090
171,779	-109,833	-0,300	-0,044
172,794	240,537	-0,218	-0,254
173,808	111,304	-0,171	-0,144
174,823	66,951	-0,189	-0,134
175,837	213,638	-0,271	-0,299
176,852	153,209	-0,252	-0,241
177,867	69,456	-0,277	-0,199
178,881	353,098	-0,174	-0,242
179,896	-95,685	-0,199	-0,037
180,910	80,310	-0,215	-0,161
181,925	-57,661	-0,371	-0,113
182,940	62,984	-0,237	-0,165
183,954	58,290	-0,225	-0,154
184,969	109,731	-0,203	-0,170
185,983	65,994	-0,145	-0,102
186,998	145,024	-0,225	-0,210
188,013	800,000	-0,166	-0,334
189,027	15,113	-0,343	-0,187
190,042	262,412	-0,178	-0,216
191,056	350,213	-0,240	-0,332
192,071	573,549	-0,088	-0,150
193,086	-90,573	-0,214	-0,043
194,100	-16,841	-0,290	-0,127
195,115	59,821	-0,262	-0,180
196,129	101,306	-0,266	-0,216
197,144	517,431	-0,205	-0,336
198,159	-101,401	-0,247	-0,042
199,173	9,814	-0,257	-0,135
200,188	-123,685	-0,125	-0,014
201,202	188,037	-0,164	-0,171
202,217	228,490	-0,073	-0,083
203,232	37,650	-0,242	-0,149
204,246	0,514	-0,249	-0,123
205,261	310,015	-0,157	-0,206
206,275	-16,996	-0,264	-0,116
207,290	800,000	-0,090	-0,181
208,304	-195,917	-0,190	-0,001
209,319	-99,333	-0,221	-0,038
210,334	107,012	-0,089	-0,074
211,348	-136,262	-0,267	-0,021
212,363	-153,756	-0,194	-0,009
213,377	-89,494	-0,255	-0,052
214,392	800,000	-0,081	-0,161
215,407	13,820	-0,157	-0,085
216,421	284,290	-0,142	-0,178
217,436	106,571	-0,215	-0,177
218,450	-68,053	-0,300	-0,081
219,465	434,305	-0,084	-0,127
220,480	83,843	-0,222	-0,169
221,494	56,338	-0,245	-0,166
222,509	-43,699	-0,068	0,024
223,523	531,613	-0,147	-0,243
224,538	-55,133	-0,179	-0,056
225,553	83,852	-0,194	-0,147
226,567	4,964	-0,311	-0,159
227,582	800,000	-0,089	-0,228
228,596	-200,000	-0,297	0,000
229,611	27,580	-0,093	-0,054
230,626	671,849	-0,118	-0,213
231,640	239,998	-0,186	-0,215
232,655	334,753	-0,199	-0,268
233,669	179,872	-0,151	-0,154
234,684	24,836	-0,211	-0,121
235,699	232,585	-0,184	-0,210
236,713	495,331	-0,127	-0,203
237,728	-113,533	-0,140	-0,019
238,742	77,375	-0,158	-0,117
239,757	-38,446	-0,190	-0,069
240,772	46,773	-0,276	-0,178
241,786	163,659	-0,303	-0,296
242,801	161,917	-0,230	-0,224
243,815	261,931	-0,177	-0,214
244,830	60,409	-0,152	-0,104
245,844	-30,700	-0,200	-0,078
246,859	180,883	-0,287	-0,293
247,874	-58,358	-0,236	-0,071
248,888	47,785	-0,248	-0,160
249,903	329,383	-0,118	-0,158
250,917	-155,600	-0,216	0,009
251,932	-3,883	-0,118	-0,057
252,947	-39,323	-0,203	-0,073
253,961	6,935	-0,342	-0,176
254,976	652,606	-0,119	-0,212
255,990	167,897	-0,144	-0,142
257,005	247,171	-0,072	-0,084
258,020	800,000	-0,054	-0,111
259,034	126,074	-0,051	-0,044
260,049	533,042	-0,096	-0,159
261,063	-90,534	-0,188	-0,037
262,078	-67,085	-0,295	-0,080
263,093	488,539	-0,140	-0,222
264,107	121,521	-0,165	-0,142
265,122	395,876	-0,123	-0,178
266,136	-56,008	-0,090	-0,027
267,151	16,828	-0,162	-0,088
268,166	330,928	-0,088	-0,118
269,180	-161,391	-0,254	0,009
270,195	255,540	-0,153	-0,182
271,209	-70,174	-0,240	-0,063
272,224	-37,269	-0,131	0,048
273,239	23,520	-0,108	-0,062
274,253	305,811	-0,135	-0,174
275,268	140,872	-0,148	-0,135
276,282	434,463	-0,170	-0,257
277,297	-110,357	-0,090	0,013
278,312	-51,850	-0,146	0,047
279,326	81,873	-0,043	-0,032
280,341	320,788	-0,095	-0,125
281,355	-157,817	-0,098	-0,004
282,370	-125,493	-0,265	-0,028
283,384	-148,288	-0,371	-0,021
284,399	4,119	-0,172	-0,087
285,414	75,342	-0,285	-0,208
286,428	70,539	-0,196	-0,140
287,443	-200,000	0,001	-0,185
288,457	297,712	-0,096	-0,122
289,472	204,211	-0,120	-0,129
290,487	121,085	-0,137	-0,118
291,501	403,545	-0,170	-0,248
292,516	364,686	-0,149	-0,208
293,530	-38,557	-0,150	-0,055
294,545	-191,701	-0,169	-0,001
295,560	800,000	-0,057	-0,171
296,574	800,000	-0,094	-0,217
297,589	-101,437	-0,175	0,029
298,603	496,472	-0,072	-0,114
299,618	37,121	-0,176	-0,108
300,633	-74,532	-0,060	-0,015
301,647	16,575	-0,149	-0,081
302,662	-123,266	-0,081	-0,009
303,676	56,766	-0,127	-0,085
304,691	110,770	-0,296	-0,246
305,706	58,324	-0,074	-0,050
306,720	-94,730	-0,183	-0,034
307,735	74,045	-0,169	-0,122
308,749	157,769	-0,076	-0,072
309,764	-74,095	-0,169	-0,042
310,779	-3,999	-0,198	-0,094
311,793	209,450	-0,157	-0,170
312,808	800,000	-0,128	-0,249
313,822	108,910	-0,236	-0,194
314,837	-121,839	-0,202	-0,023
315,852	-48,825	-0,246	-0,081
316,866	325,850	-0,140	-0,186
317,881	-33,431	-0,187	-0,071
318,895	-73,789	-0,271	-0,068
319,910	232,938	-0,109	-0,124
320,925	-28,654	-0,095	-0,038
321,939	-182,245	-0,263	0,003
322,954	25,636	-0,195	-0,111
323,968	-200,000	-0,011	-0,035
324,983	-24,402	-0,219	-0,090
325,997	-142,418	-0,164	-0,011
327,012	6,701	-0,239	-0,122
328,027	-116,342	-0,276	0,035
329,041	800,000	0,012	-0,027
330,056	-135,468	-0,183	0,015
331,070	318,917	-0,116	-0,152
332,085	800,000	-0,049	0,132
333,100	227,179	-0,019	-0,021
334,114	20,242	-0,180	-0,100
335,129	94,832	-0,178	-0,139
336,143	47,245	-0,044	-0,028
337,158	207,022	-0,059	-0,064
338,173	-67,840	-0,199	0,053
339,187	-200,000	-0,148	0,000
340,202	382,698	-0,095	-0,134
341,216	497,927	-0,111	-0,176
342,231	-96,523	-0,108	-0,019
343,246	96,596	-0,152	-0,120
344,260	377,945	-0,088	-0,124
345,275	277,226	-0,093	-0,114
346,289	-39,022	-0,186	-0,067
347,304	-52,934	-0,096	0,030
348,319	-91,343	-0,162	-0,032
349,333	-200,000	-0,040	-0,275
350,348	158,337	-0,168	-0,160
351,362	405,135	-0,077	-0,112
352,377	47,459	-0,095	-0,061
353,392	243,286	-0,147	-0,169
354,406	231,653	-0,062	-0,069
355,421	212,147	1313,090	1424,529
356,435	163,391	1473,646	1425,073
