DTS Sentinel unit serial number:	SN410029Multiplexer serial number:	ORYXHardware model number:	OX2-SRSoftware version number:	ORYX F/W v4,00 Oryx Data Collector v3.7.2.0data status	okinstallation	B3 Nyhavnadifferential loss correction	single-endedforward channel	channel 1reverse channel	N/Adate	2023/12/01time	03:32:30forward acquisition time	300,00reverse acquisition time	0,00gamma	499,1914k internal	0,3212k external	0,3212temperature offset calibration	1,0000default loss term (dB/km)	0,3820temperature slope calibration	1,0000multiplexer offset coefficient	1,0000multiplexer slope coefficient	1,0000fibre end	0,00T internal ref (°C)	8,29T ext. ref 1 (°C)	-6,98T ext. ref 2 (°C)	-7,11length (m)	temperature (°C)	Stokes	anti-Stokes-744,400	510,158	-0,141	-0,239
-743,385	369,759	-0,087	0,129
-742,371	288,433	-0,174	-0,229
-741,356	-200,000	-0,037	0,312
-740,342	47,202	-0,237	-0,160
-739,327	-200,000	-0,040	0,345
-738,312	180,499	-0,247	-0,263
-737,298	-200,000	0,043	0,151
-736,283	800,000	-0,115	-0,318
-735,269	-200,000	-0,038	0,299
-734,254	413,115	-0,097	-0,150
-733,239	-200,000	-0,169	0,000
-732,225	-200,000	-0,057	-0,195
-731,210	-200,000	0,002	0,010
-730,196	-43,627	0,043	0,016
-729,181	-200,000	-0,118	0,000
-728,167	198,919	0,015	-0,017
-727,152	-200,000	0,013	-0,084
-726,137	-32,419	-0,148	-0,059
-725,123	-9,735	-0,023	0,011
-724,108	-200,000	0,004	0,064
-723,094	71,183	0,056	-0,042
-722,079	302,559	-0,110	-0,148
-721,064	281,934	-0,111	0,145
-720,050	-200,000	0,038	0,147
-719,035	420,179	-0,097	0,151
-718,021	-200,000	0,011	-0,219
-717,006	-200,000	0,036	-0,120
-715,991	228,053	-0,103	-0,121
-714,977	-100,985	-0,133	-0,023
-713,962	800,000	-0,039	-0,078
-712,948	165,513	0,041	-0,042
-711,933	-200,000	0,009	-0,045
-710,918	194,653	-0,053	-0,058
-709,904	-200,000	-0,006	-0,094
-708,889	39,940	-0,107	-0,070
-707,875	3,645	0,094	-0,049
-706,860	800,000	0,025	0,059
-705,845	800,000	0,002	-0,005
-704,831	-36,926	-0,063	0,024
-703,816	-200,000	-0,004	-0,025
-702,802	-200,000	0,057	0,212
-701,787	-62,988	-0,091	-0,027
-700,772	800,000	-0,066	-0,164
-699,758	-200,000	-0,039	0,171
-698,743	623,219	-0,041	0,074
-697,729	396,605	0,053	0,081
-696,714	160,968	-0,026	0,026
-695,699	800,000	-0,033	0,069
-694,685	-115,756	0,034	-0,005
-693,670	-200,000	-0,013	-0,067
-692,656	398,145	0,039	0,060
-691,641	139,792	-0,025	-0,024
-690,627	-150,412	0,083	-0,005
-689,612	40,735	0,047	-0,031
-688,597	1,550	0,092	-0,048
-687,583	800,000	0,022	0,050
-686,568	-162,564	0,022	0,001
-685,554	800,000	-0,008	0,027
-684,539	74,617	-0,017	-0,013
-683,524	63,278	-0,015	0,011
-682,510	800,000	0,015	0,039
-681,495	-64,835	-0,116	0,034
-680,481	-111,738	-0,036	-0,005
-679,466	800,000	-0,052	0,130
-678,451	-200,000	0,015	0,059
-677,437	-200,000	-0,022	0,120
-676,422	-200,000	0,002	0,200
-675,408	271,609	0,015	-0,020
-674,393	504,070	-0,057	-0,096
-673,378	-41,454	-0,097	0,036
-672,364	352,329	-0,137	-0,197
-671,349	573,552	-0,078	-0,138
-670,335	-126,438	0,112	0,012
-669,320	166,932	-0,068	0,069
-668,305	-200,000	-0,005	0,144
-667,291	735,462	0,045	0,088
-666,276	-200,000	0,047	-0,199
-665,262	98,583	-0,173	-0,144
-664,247	-114,537	-0,071	0,010
-663,232	95,595	0,150	0,123
-662,218	146,978	0,084	0,081
-661,203	800,000	0,048	0,146
-660,189	-200,000	0,010	0,069
-659,174	185,414	-0,045	-0,049
-658,159	-97,328	-0,083	0,015
-657,145	424,518	-0,011	0,017
-656,130	-67,233	0,030	0,008
-655,116	-61,018	0,101	-0,031
-654,101	800,000	0,033	0,080
-653,086	204,014	-0,057	-0,064
-652,072	800,000	0,066	0,148
-651,057	-200,000	-0,006	-0,125
-650,043	62,114	-0,082	0,059
-649,028	-103,267	0,051	-0,009
-648,014	-117,932	-0,157	-0,020
-646,999	-200,000	-0,001	-0,101
-645,984	-22,091	-0,046	0,020
-644,970	-102,575	0,139	-0,024
-643,955	-39,895	0,065	-0,024
-642,941	-67,006	-0,118	0,033
-641,926	-200,000	0,018	0,128
-640,911	800,000	0,020	0,045
-639,897	-91,088	-0,068	-0,014
-638,882	51,206	0,053	-0,036
-637,868	51,265	0,114	0,078
-636,853	74,045	-0,091	-0,069
-635,838	-200,000	-0,073	-0,281
-634,824	12,906	0,074	-0,041
-633,809	14,882	0,072	0,041
-632,795	-109,431	0,135	-0,020
-631,780	78,037	0,038	0,029
-630,765	-126,104	0,034	-0,004
-629,751	800,000	-0,016	0,044
-628,736	138,800	-0,131	-0,125
-627,722	30,478	0,037	-0,023
-626,707	-15,080	0,046	0,021
-625,692	-200,000	-0,006	-0,023
-624,678	-63,491	0,069	-0,020
-623,663	-41,813	-0,148	0,054
-622,649	-200,000	0,014	-0,083
-621,634	304,682	-0,122	-0,163
-620,619	689,703	-0,013	-0,024
-619,605	-88,958	-0,113	0,024
-618,590	-25,114	-0,078	0,033
-617,576	165,663	-0,039	-0,040
-616,561	-200,000	0,002	0,069
-615,546	-142,979	-0,134	0,009
-614,532	49,738	-0,017	-0,012
-613,517	150,628	-0,036	-0,035
-612,503	-200,000	0,006	0,106
-611,488	-117,990	-0,114	-0,015
-610,474	-175,911	-0,013	-0,000
-609,459	-200,000	-0,004	-0,113
-608,444	-200,000	-0,007	0,062
-607,430	-200,000	0,015	-0,051
-606,415	67,860	-0,185	-0,136
-605,401	370,034	0,035	0,051
-604,386	-37,521	-0,060	-0,023
-603,371	68,004	0,117	0,086
-602,357	70,425	0,078	-0,058
-601,342	69,687	-0,026	-0,019
-600,328	152,895	0,097	-0,095
-599,313	91,774	-0,117	-0,095
-598,298	-19,027	-0,080	0,036
-597,284	-36,334	0,217	0,084
-596,269	31,755	0,035	0,022
-595,255	-24,913	-0,105	-0,045
-594,240	209,293	0,049	0,055
-593,225	800,000	0,039	-0,083
-592,211	65,930	-0,117	-0,085
-591,196	-89,540	0,075	0,016
-590,182	-143,925	-0,040	0,003
-589,167	-144,289	-0,007	0,000
-588,152	-66,477	0,189	0,054
-587,138	-200,000	-0,005	-0,064
-586,123	-14,194	0,107	-0,050
-585,109	-107,010	-0,050	-0,008
-584,094	-104,368	-0,076	0,012
-583,079	44,256	0,040	-0,027
-582,065	-200,000	0,001	0,088
-581,050	-200,000	0,012	0,090
-580,036	-172,761	0,116	0,003
-579,021	-22,262	-0,039	0,017
-578,006	-107,101	-0,100	-0,016
-576,992	336,485	-0,011	0,015
-575,977	800,000	0,030	-0,079
-574,963	-200,000	-0,012	0,141
-573,948	-200,000	-0,010	0,075
-572,934	-200,000	-0,027	0,145
-571,919	-99,679	-0,130	0,023
-570,904	-87,200	-0,065	0,014
-569,890	-200,000	0,008	-0,077
-568,875	189,299	-0,031	0,033
-567,861	800,000	-0,068	-0,146
-566,846	800,000	-0,043	0,109
-565,831	800,000	0,013	0,034
-564,817	625,982	-0,029	-0,052
-563,802	-153,581	-0,069	-0,003
-562,788	-88,989	-0,111	-0,023
-561,773	102,508	-0,025	0,021
-560,758	800,000	0,026	0,079
-559,744	27,255	0,118	0,071
-558,729	164,200	0,070	0,071
-557,715	-200,000	-0,042	-0,223
-556,700	800,000	0,010	0,028
-555,685	-23,783	-0,110	0,047
-554,671	109,712	-0,061	-0,052
-553,656	-110,976	0,017	0,003
-552,642	257,691	-0,054	0,067
-551,627	-200,000	-0,027	-0,095
-550,612	112,466	-0,037	0,032
-549,598	-28,227	-0,136	-0,056
-548,583	800,000	-0,017	-0,053
-547,569	24,798	0,035	-0,021
-546,554	800,000	0,006	0,012
-545,539	-99,378	0,076	0,014
-544,525	-13,516	0,050	0,023
-543,510	-200,000	0,001	0,127
-542,496	-135,966	-0,155	0,013
-541,481	-126,895	-0,088	0,009
-540,466	82,721	0,081	-0,063
-539,452	-200,000	-0,056	0,200
-538,437	175,760	0,069	-0,072
-537,423	800,000	-0,046	0,112
-536,408	-200,000	0,003	-0,033
-535,393	120,062	-0,098	0,088
-534,379	800,000	-0,039	0,094
-533,364	800,000	-0,011	0,030
-532,350	9,144	0,109	0,059
-531,335	800,000	-0,013	-0,029
-530,321	-99,722	0,109	-0,020
-529,306	440,927	-0,027	-0,042
-528,291	-59,466	-0,083	-0,025
-527,277	71,958	-0,038	-0,028
-526,262	800,000	0,062	-0,129
-525,248	759,778	-0,039	0,077
-524,233	-53,820	0,088	0,029
-523,218	548,219	0,031	0,053
-522,204	129,413	-0,065	0,060
-521,189	-41,563	0,038	0,014
-520,175	-117,597	-0,089	0,011
-519,160	800,000	0,004	-0,013
-518,145	290,846	0,010	-0,013
-517,131	88,369	-0,033	-0,027
-516,116	119,033	-0,148	0,132
-515,102	800,000	0,023	0,069
-514,087	-200,000	0,006	-0,106
-513,072	-89,840	-0,110	0,023
-512,058	-200,000	0,028	-0,114
-511,043	-200,000	0,005	-0,095
-510,029	184,226	0,059	0,063
-509,014	800,000	0,020	0,058
-507,999	116,039	0,017	0,015
-506,985	604,955	-0,079	-0,142
-505,970	-200,000	-0,011	0,090
-504,956	-200,000	-0,006	-0,073
-503,941	244,845	0,079	-0,096
-502,926	-143,229	-0,113	-0,008
-501,912	658,961	-0,084	0,155
-500,897	105,100	0,048	-0,041
-499,883	-47,497	-0,038	-0,013
-498,868	181,485	-0,083	-0,088
-497,853	122,641	-0,099	-0,089
-496,839	-37,443	-0,106	-0,040
-495,824	-199,231	0,142	-0,001
-494,810	-108,711	-0,045	0,007
-493,795	98,339	-0,028	0,023
-492,781	-58,144	-0,082	-0,026
-491,766	-200,000	-0,004	-0,030
-490,751	-200,000	-0,007	-0,207
-489,737	65,509	-0,086	-0,062
-488,722	-200,000	0,150	0,000
-487,708	28,964	0,072	-0,044
-486,693	800,000	0,013	-0,027
-485,678	-63,333	0,165	0,048
-484,664	-18,952	0,072	-0,032
-483,649	51,702	-0,063	-0,043
-482,635	-155,858	0,133	-0,006
-481,620	346,355	0,036	0,051
-480,605	17,048	-0,107	0,061
-479,591	-60,067	0,320	-0,097
-478,576	-126,192	0,044	0,005
-477,562	553,322	0,066	-0,114
-476,547	-200,000	-0,027	-0,124
-475,532	36,439	0,014	0,009
-474,518	800,000	-0,032	-0,068
-473,503	185,455	0,175	0,187
-472,489	338,610	0,052	0,073
-471,474	-100,525	0,164	0,029
-470,459	-68,083	-0,105	0,029
-469,445	-103,991	0,054	-0,009
-468,430	128,706	0,076	-0,070
-467,416	48,868	0,119	0,080
-466,401	765,595	0,049	0,095
-465,386	221,303	-0,045	0,052
-464,372	91,721	0,045	-0,037
-463,357	800,000	0,032	-0,071
-462,343	800,000	-0,047	-0,115
-461,328	-200,000	-0,009	-0,030
-460,313	800,000	0,092	-0,201
-459,299	800,000	0,027	-0,064
-458,284	-200,000	0,013	0,133
-457,270	287,503	-0,067	0,088
-456,255	-72,305	-0,108	0,029
-455,241	-118,937	-0,123	0,015
-454,226	363,118	0,039	-0,057
-453,211	-62,289	0,116	-0,035
-452,197	800,000	-0,041	-0,086
-451,182	11,424	0,142	-0,078
-450,168	8,383	-0,040	-0,021
-449,153	251,463	-0,024	-0,029
-448,138	-95,435	-0,061	-0,012
-447,124	-200,000	0,034	-0,117
-446,109	-158,660	-0,094	-0,004
-445,095	296,140	0,042	0,056
-444,080	150,614	0,170	0,166
-443,065	268,388	-0,032	0,040
-442,051	-59,648	0,056	0,017
-441,036	112,783	-0,056	0,048
-440,022	227,544	-0,053	0,062
-439,007	105,676	0,130	0,110
-437,992	-121,539	0,143	0,017
-436,978	-91,872	0,182	-0,037
-435,963	601,200	0,082	0,146
-434,949	60,258	-0,074	-0,052
-433,934	800,000	-0,042	0,127
-432,919	800,000	-0,020	-0,046
-431,905	180,126	-0,036	-0,038
-430,890	-200,000	-0,004	0,058
-429,876	722,083	0,082	0,157
-428,861	800,000	-0,058	-0,117
-427,846	-200,000	0,015	-0,083
-426,832	-38,985	-0,047	0,018
-425,817	800,000	0,016	0,042
-424,803	-192,903	0,118	-0,001
-423,788	535,212	0,060	-0,102
-422,773	-1,175	-0,216	0,109
-421,759	190,786	0,044	0,048
-420,744	-200,000	-0,002	0,022
-419,730	-200,000	-0,003	-0,117
-418,715	800,000	-0,028	-0,069
-417,701	-146,258	0,101	0,006
-416,686	-166,132	0,116	-0,003
-415,671	-135,618	0,099	0,008
-414,657	38,020	-0,057	-0,036
-413,642	-11,892	-0,190	-0,089
-412,628	56,592	0,048	-0,034
-411,613	130,821	-0,056	-0,052
-410,598	182,427	0,093	-0,098
-409,584	-40,744	0,039	0,014
-408,569	-200,000	-0,033	0,130
-407,555	19,042	-0,126	0,072
-406,540	285,998	-0,019	0,025
-405,525	-19,414	0,086	0,038
-404,511	103,850	0,087	-0,073
-403,496	-78,792	-0,092	-0,022
-402,482	321,781	0,063	0,086
-401,467	160,323	0,092	-0,092
-400,452	-184,991	0,031	0,000
-399,438	-200,000	-0,030	0,095
-398,423	-62,675	0,036	0,010
-397,409	-200,000	-0,045	-0,000
-396,394	110,974	-0,079	0,068
-395,379	-68,773	0,046	-0,013
-394,365	-200,000	0,015	-0,160
-393,350	203,618	0,054	0,060
-392,336	344,247	-0,023	-0,033
-391,321	-11,689	-0,076	-0,036
-390,306	51,178	-0,129	-0,087
-389,292	-200,000	-0,043	-0,141
-388,277	159,263	0,139	0,138
-387,263	800,000	0,079	0,173
-386,248	519,057	0,063	-0,106
-385,233	-200,000	-0,021	-0,066
-384,219	613,909	-0,024	0,044
-383,204	-140,847	0,169	-0,012
-382,190	-162,724	-0,179	-0,006
-381,175	704,647	0,032	0,062
-380,160	-162,658	0,142	0,005
-379,146	-200,000	-0,034	0,203
-378,131	-30,111	-0,014	0,006
-377,117	-93,996	-0,068	-0,013
-376,102	-82,264	-0,138	-0,032
-375,088	-35,395	0,019	-0,007
-374,073	126,790	0,037	0,034
-373,058	-200,000	-0,003	0,017
-372,044	20,119	0,025	-0,014
-371,029	-140,112	0,167	-0,012
-370,015	-130,082	0,091	0,009
-369,000	-41,245	0,028	0,010
-367,985	800,000	-0,022	-0,055
-366,971	800,000	-0,014	-0,039
-365,956	-118,254	0,049	0,006
-364,942	800,000	0,045	0,121
-363,927	58,116	0,139	-0,097
-362,912	800,000	-0,021	-0,054
-361,898	401,022	-0,055	-0,082
-360,883	265,184	0,078	-0,097
-359,869	800,000	-0,024	0,048
-358,854	-200,000	0,005	0,058
-357,839	-200,000	-0,014	-0,086
-356,825	800,000	-0,018	0,043
-355,810	92,735	-0,130	0,104
-354,796	223,259	0,054	-0,062
-353,781	52,945	-0,113	-0,077
-352,766	-200,000	-0,013	-0,210
-351,752	-78,960	0,103	0,025
-350,737	594,557	0,034	0,061
-349,723	-190,849	0,116	-0,001
-348,708	-36,124	0,082	0,031
-347,693	91,401	-0,037	0,029
-346,679	209,282	-0,136	0,152
-345,664	-114,744	0,076	-0,010
-344,650	395,135	-0,017	0,025
-343,635	153,949	0,059	0,058
-342,620	800,000	-0,070	-0,174
-341,606	-200,000	-0,004	0,051
-340,591	-94,248	0,020	-0,004
-339,577	122,536	-0,052	-0,046
-338,562	89,084	0,057	0,045
-337,548	800,000	-0,063	-0,131
-336,533	-200,000	0,026	-0,172
-335,518	73,347	-0,054	0,041
-334,504	63,471	-0,022	0,016
-333,489	-94,486	0,118	0,023
-332,475	-56,558	-0,038	0,012
-331,460	800,000	-0,080	-0,203
-330,445	-200,000	0,002	0,114
-329,431	132,375	0,234	0,215
-328,416	-97,443	0,105	-0,019
-327,402	-200,000	0,002	-0,018
-326,387	800,000	-0,038	0,099
-325,372	147,418	0,041	-0,039
-324,358	113,137	0,067	-0,058
-323,343	800,000	-0,011	-0,022
-322,329	42,054	0,022	0,014
-321,314	-200,000	0,004	0,020
-320,299	182,406	0,098	-0,103
-319,285	4,634	0,079	-0,041
-318,270	90,165	-0,020	-0,016
-317,256	-29,969	-0,163	-0,066
-316,241	-28,363	0,072	0,029
-315,226	102,378	-0,069	-0,058
-314,212	34,035	-0,074	-0,046
-313,197	-52,993	-0,121	-0,039
-312,183	800,000	-0,040	-0,108
-311,168	364,901	0,038	-0,055
-310,153	-17,851	-0,075	-0,033
-309,139	-60,256	0,012	-0,004
-308,124	-70,123	-0,117	-0,032
-307,110	-200,000	0,005	0,018
-306,095	-147,041	0,065	-0,004
-305,080	84,687	-0,080	-0,062
-304,066	-102,138	0,024	-0,004
-303,051	-73,037	-0,068	-0,018
-302,037	-200,000	-0,015	-0,155
-301,022	5,748	0,083	0,043
-300,008	-200,000	0,003	0,091
-298,993	-200,000	0,014	0,059
-297,978	326,843	0,103	-0,141
-296,964	141,722	-0,011	-0,010
-295,949	-112,267	-0,164	-0,023
-294,935	-140,818	0,109	-0,008
-293,920	-13,151	0,035	0,016
-292,905	-105,967	0,083	-0,013
-291,891	369,002	0,076	0,110
-290,876	577,408	-0,080	0,141
-289,862	463,924	0,045	-0,072
-288,847	14,077	0,032	0,018
-287,832	800,000	-0,021	-0,045
-286,818	445,960	-0,037	-0,058
-285,803	-200,000	-0,027	0,187
-284,789	-200,000	0,007	0,068
-283,774	227,154	-0,035	-0,041
-282,759	-200,000	-0,015	-0,053
-281,745	91,903	0,064	0,051
-280,730	-86,271	-0,091	0,020
-279,716	684,683	0,052	-0,097
-278,701	535,972	0,099	0,169
-277,686	-61,928	-0,038	-0,011
-276,672	796,944	-0,013	0,026
-275,657	-200,000	-0,004	0,013
-274,643	56,080	0,024	0,016
-273,628	103,764	-0,079	-0,066
-272,613	-23,640	0,147	-0,062
-271,599	412,048	-0,036	0,054
-270,584	-200,000	0,002	0,059
-269,570	-200,000	-0,026	-0,085
-268,555	308,566	0,021	-0,027
-267,540	-200,000	-0,015	0,061
-266,526	800,000	-0,016	-0,040
-265,511	369,178	0,065	-0,094
-264,497	544,441	0,081	0,139
-263,482	-50,794	-0,010	-0,003
-262,467	1,830	-0,043	0,022
-261,453	800,000	0,057	0,143
-260,438	-200,000	-0,010	-0,069
-259,424	202,935	0,027	-0,030
-258,409	-150,660	-0,107	-0,006
-257,395	800,000	0,010	0,026
-256,380	703,884	-0,024	0,045
-255,365	-55,776	0,068	-0,021
-254,351	78,454	-0,043	-0,032
-253,336	568,477	0,013	0,022
-252,322	2,829	-0,061	-0,032
-251,307	-200,000	-0,020	0,077
-250,292	507,450	0,043	-0,070
-249,278	400,713	0,094	0,141
-248,263	-158,799	-0,214	0,009
-247,249	800,000	0,035	0,093
-246,234	-36,210	-0,090	0,034
-245,219	208,897	-0,051	0,056
-244,205	93,278	0,118	-0,095
-243,190	-200,000	0,016	-0,093
-242,176	108,716	0,030	0,026
-241,161	120,520	0,113	0,100
-240,146	367,107	-0,080	-0,115
-239,132	800,000	0,046	0,143
-238,117	131,297	-0,067	-0,061
-237,103	-56,829	0,098	-0,031
-236,088	446,251	0,051	0,081
-235,073	-200,000	0,014	0,082
-234,059	-200,000	-0,010	0,046
-233,044	150,596	-0,031	-0,030
-232,030	780,688	-0,060	-0,117
-231,015	-76,438	-0,126	0,031
-230,000	-163,595	-0,095	0,003
-228,986	81,237	0,095	0,073
-227,971	800,000	-0,038	0,080
-226,957	106,494	-0,095	0,080
-225,942	17,004	0,108	-0,060
-224,927	800,000	0,016	0,049
-223,913	-36,138	-0,034	0,013
-222,898	8,665	-0,060	0,032
-221,884	-75,916	-0,052	0,013
-220,869	-200,000	0,009	-0,057
-219,855	-2,266	0,162	0,081
-218,840	53,355	0,045	-0,031
-217,825	-200,000	-0,002	0,008
-216,811	-96,189	0,132	0,025
-215,796	-200,000	-0,002	-0,058
-214,782	226,519	-0,063	-0,073
-213,767	259,791	0,085	-0,105
-212,752	-153,292	0,117	0,006
-211,738	-110,333	-0,107	0,016
-210,723	-93,162	0,083	0,016
-209,709	-200,000	0,004	-0,021
-208,694	692,799	-0,073	-0,136
-207,679	800,000	0,043	-0,115
-206,665	296,233	-0,034	-0,045
-205,650	441,845	0,019	0,029
-204,636	-200,000	0,009	0,044
-203,621	800,000	0,031	0,061
-202,606	800,000	0,020	-0,053
-201,592	42,644	-0,038	-0,025
-200,577	800,000	-0,070	0,172
-199,563	354,108	-0,014	-0,020
-198,548	47,387	0,101	0,067
-197,533	-67,585	-0,146	0,040
-196,519	337,604	0,108	-0,149
-195,504	6,997	-0,071	0,037
-194,490	-63,557	0,053	-0,015
-193,475	327,567	-0,051	-0,070
-192,460	800,000	0,029	-0,060
-191,446	537,396	-0,027	-0,046
-190,431	8,546	-0,061	-0,032
-189,417	56,758	-0,047	-0,032
-188,402	-62,826	-0,113	-0,033
-187,387	-200,000	0,003	0,033
-186,373	800,000	0,029	0,059
-185,358	-83,458	-0,120	-0,027
-184,344	-28,371	-0,010	-0,004
-183,329	39,792	-0,066	-0,042
-182,315	-200,000	0,006	0,046
-181,300	64,291	-0,159	0,114
-180,285	14,091	-0,122	0,067
-179,271	38,975	-0,111	0,070
-178,256	800,000	-0,049	0,105
-177,242	-50,048	0,085	0,029
-176,227	800,000	0,012	0,036
-175,212	800,000	-0,060	0,169
-174,198	-112,261	-0,106	0,015
-173,183	-200,000	-0,007	0,027
-172,169	377,580	-0,111	-0,161
-171,154	-130,067	0,164	0,016
-170,139	800,000	-0,056	-0,123
-169,125	800,000	0,008	0,023
-168,110	800,000	-0,047	0,120
-167,096	-31,529	-0,031	0,012
-166,081	-200,000	0,031	0,101
-165,066	-134,998	0,114	-0,010
-164,052	391,814	-0,056	0,083
-163,037	-200,000	0,001	0,136
-162,023	-40,684	0,058	0,021
-161,008	800,000	-0,026	-0,062
-159,993	-200,000	-0,010	-0,037
-158,979	-200,000	-0,026	0,089
-157,964	544,840	0,025	0,043
-156,950	-97,882	0,085	0,015
-155,935	800,000	-0,099	0,198
-154,920	-34,702	0,160	0,062
-153,906	482,506	-0,056	0,091
-152,891	-118,168	-0,030	0,004
-151,877	310,774	-0,073	-0,098
-150,862	43,324	0,015	-0,010
-149,847	757,470	-0,047	-0,091
-148,833	-70,390	0,148	-0,039
-147,818	529,682	0,064	-0,108
-146,804	428,022	0,016	-0,024
-145,789	-200,000	0,034	-0,113
-144,775	254,189	0,016	-0,019
-143,760	-132,211	-0,149	0,013
-142,745	57,882	0,024	0,017
-141,731	-45,204	-0,102	0,036
-140,716	-25,216	0,155	-0,065
-139,702	430,116	0,050	-0,077
-138,687	153,121	0,048	-0,046
-137,672	-123,403	-0,129	0,014
-136,658	-200,000	0,003	-0,044
-135,643	800,000	0,032	0,068
-134,629	324,324	0,071	0,096
-133,614	272,518	0,101	0,126
-132,599	-52,674	-0,196	0,064
-131,585	-52,379	-0,104	0,034
-130,570	159,444	0,041	0,040
-129,556	316,664	-0,069	0,093
-128,541	-81,539	-0,036	-0,008
-127,526	-200,000	-0,022	-0,092
-126,512	800,000	-0,034	0,086
-125,497	-110,842	0,155	-0,022
-124,483	-192,158	-0,179	-0,001
-123,468	-70,448	0,046	-0,012
-122,453	126,109	-0,151	0,135
-121,439	241,950	0,066	0,078
-120,424	-200,000	-0,012	-0,050
-119,410	-93,371	-0,137	-0,027
-118,395	800,000	0,033	-0,104
-117,380	106,142	-0,026	-0,022
-116,366	-200,000	0,027	0,164
-115,351	-200,000	0,011	-0,058
-114,337	464,045	-0,025	-0,039
-113,322	-115,913	0,112	-0,015
-112,307	-21,423	0,013	0,005
-111,293	-68,279	0,058	0,016
-110,278	48,925	0,098	0,065
-109,264	183,941	-0,047	0,049
-108,249	-200,000	-0,001	0,051
-107,234	-34,179	-0,072	-0,028
-106,220	168,070	-0,074	0,074
-105,205	-146,947	0,132	-0,008
-104,191	-114,318	0,052	-0,007
-103,176	-200,000	-0,003	0,084
-102,162	683,034	-0,067	0,125
-101,147	-86,495	-0,096	-0,021
-100,132	-19,170	0,008	-0,003
-99,118	-148,043	-0,107	-0,006
-98,103	-143,640	0,139	0,009
-97,089	800,000	0,073	0,200
-96,074	-196,165	-0,048	0,000
-95,059	88,176	-0,026	0,020
-94,045	-200,000	0,001	0,055
-93,030	140,896	-0,091	0,085
-92,016	-56,855	-0,102	0,032
-91,001	-119,764	0,121	-0,015
-89,986	277,418	-0,021	-0,026
-88,972	-200,000	-0,010	0,070
-87,957	-200,000	0,004	0,047
-86,943	-200,000	0,014	0,060
-85,928	236,532	-0,174	-0,204
-84,913	-71,415	-0,028	-0,007
-83,899	-1,827	0,122	0,060
-82,884	132,974	-0,093	0,085
-81,870	107,495	0,035	0,030
-80,855	-195,878	-0,037	0,000
-79,840	-89,691	0,074	-0,015
-78,826	-200,000	0,035	-0,117
-77,811	800,000	0,023	-0,059
-76,797	-62,120	-0,124	-0,036
-75,782	-133,258	-0,020	0,002
-74,767	420,278	0,036	0,055
-73,753	800,000	-0,028	0,085
-72,738	25,031	-0,064	-0,037
-71,724	271,564	-0,086	-0,107
-70,709	-129,368	-0,142	-0,014
-69,694	156,968	-0,103	0,100
-68,680	178,851	0,121	0,125
-67,665	-55,378	-0,023	-0,007
-66,651	26,051	0,072	0,042
-65,636	203,730	-0,009	0,010
-64,622	-50,620	-0,071	-0,023
-63,607	-200,000	0,005	0,047
-62,592	800,000	-0,021	-0,048
-61,578	-120,599	0,159	0,019
-60,563	800,000	0,022	-0,061
-59,549	-49,719	-0,122	0,041
-58,534	61,667	-2,118	-1,485
-57,519	477,760	-1,131	-1,813
-56,505	-200,000	-0,375	-4,470
-55,490	599,819	0,859	1,511
-54,476	800,000	5,335	12,227
-53,461	-200,000	22,293	346,335
-52,446	800,000	757,325	2302,984
-51,432	537,119	1646,106	2769,020
-50,417	68,685	1645,074	1189,553
-49,403	15,970	1521,929	843,221
-48,388	10,148	1447,543	774,019
-47,373	19,266	1439,723	813,284
-46,359	13,628	1428,445	780,252
-45,344	8,475	1424,411	753,630
-44,330	8,383	1422,708	752,261
-43,315	8,386	1420,914	751,295
-42,300	8,360	1419,207	750,240
-41,286	8,407	1417,764	749,668
-40,271	8,381	1416,732	748,971
-39,257	8,392	1415,379	748,277
-38,242	8,419	1414,179	747,740
-37,227	8,373	1413,214	746,985
-36,213	8,366	1411,888	746,221
-35,198	8,401	1410,664	745,709
-34,184	8,438	1409,500	745,240
-33,169	8,327	1408,503	744,160
-32,154	8,373	1407,377	743,755
-31,140	8,369	1406,301	743,135
-30,125	8,370	1405,098	742,474
-29,111	8,362	1403,843	741,747
-28,096	8,363	1402,654	741,092
-27,082	8,280	1401,602	740,119
-26,067	8,302	1400,372	739,543
-25,052	8,346	1399,052	739,020
-24,038	8,332	1398,328	738,544
-23,023	8,338	1397,558	738,137
-22,009	8,327	1396,273	737,377
-20,994	8,296	1395,316	736,698
-19,979	8,306	1394,360	736,209
-18,965	8,253	1393,402	735,432
-17,950	8,237	1392,588	734,897
-16,936	8,246	1391,702	734,441
-15,921	8,191	1390,681	733,622
-14,906	8,245	1389,647	733,295
-13,892	8,274	1388,686	732,892
-12,877	8,267	1388,022	732,483
-11,863	8,243	1387,213	731,915
-10,848	8,181	1386,492	731,219
-9,833	8,163	1385,502	730,583
-8,819	8,170	1384,444	730,031
-7,804	8,148	1383,513	729,407
-6,790	8,108	1382,658	728,747
-5,775	8,108	1381,650	728,184
-4,760	8,124	1380,610	727,683
-3,746	8,168	1379,603	727,324
-2,731	8,165	1378,867	726,892
-1,717	8,162	1377,943	726,364
-0,702	8,117	1376,147	725,184
0,313	12,138	1287,130	696,504
1,327	28,102	678,990	403,085
2,342	43,859	116,812	75,292
3,356	-1,674	16,523	8,177
4,371	-4,030	3,961	1,929
5,386	-16,615	1,219	0,542
6,400	800,000	0,299	0,672
7,415	-45,229	-0,161	-0,056
8,429	104,132	-0,349	-0,289
9,444	64,558	-0,353	-0,250
10,459	-101,884	-0,272	-0,046
11,473	-13,500	-0,269	-0,122
12,488	-144,235	-0,303	-0,020
13,502	-84,298	-0,230	-0,051
14,517	-107,154	-0,304	-0,047
15,531	522,120	-0,172	-0,286
16,546	-30,557	-0,477	-0,189
17,561	72,634	-0,262	-0,192
18,575	-168,875	-0,139	-0,004
19,590	58,578	-0,198	-0,136
20,604	-34,797	-0,359	-0,137
21,619	121,936	-0,331	-0,290
22,634	5,859	-0,594	-0,309
23,648	87,453	-0,365	-0,284
24,663	208,151	-0,383	-0,421
25,677	44,994	-0,373	-0,241
26,692	-58,443	-0,365	-0,111
27,707	84,334	-0,277	-0,213
28,721	277,748	-0,231	-0,290
29,736	72,563	-0,431	-0,316
30,750	166,315	-0,365	-0,364
31,765	18,532	-0,342	-0,192
32,780	-42,342	-0,312	-0,111
33,794	96,888	-0,220	-0,177
34,809	93,557	-0,382	-0,304
35,823	172,747	-0,331	-0,335
36,838	48,554	-0,424	-0,279
37,853	8,671	-0,410	-0,216
38,867	22,065	-0,410	-0,234
39,882	800,000	-0,194	-0,415
40,896	95,936	-0,289	-0,232
41,911	155,526	-0,386	-0,373
42,926	-67,018	-0,384	-0,106
43,940	-39,807	-0,501	-0,183
44,955	125,000	-0,348	-0,308
45,969	-13,263	-0,325	-0,148
46,984	148,545	-0,342	-0,325
47,999	65,979	-0,305	-0,217
49,013	339,408	-0,245	-0,337
50,028	11,285	-0,254	-0,136
51,042	32,324	-0,437	-0,264
52,057	40,223	-0,234	-0,147
53,071	191,388	-0,196	-0,208
54,086	-28,962	-0,309	-0,124
55,101	19,693	-0,292	-0,165
56,115	75,874	-0,364	-0,270
57,130	-9,919	-0,480	-0,223
58,144	-42,802	-0,389	-0,138
59,159	53,174	-0,397	-0,267
60,174	78,960	-0,353	-0,265
61,188	42,303	-0,319	-0,203
62,203	-23,955	-0,475	-0,198
63,217	81,492	-0,365	-0,277
64,232	-35,361	-0,271	-0,103
65,247	83,213	-0,290	-0,222
66,261	-15,714	-0,444	-0,198
67,276	-19,766	-0,428	-0,185
68,290	-70,313	-0,403	-0,106
69,305	-93,448	-0,258	-0,050
70,320	800,000	-0,136	-0,320
71,334	152,230	-0,155	-0,148
72,349	-1,881	-0,233	-0,114
73,363	28,110	-0,362	-0,214
74,378	54,121	-0,349	-0,235
75,393	-16,519	-0,289	-0,128
76,407	199,399	-0,225	-0,242
77,422	-66,545	-0,282	-0,078
78,436	86,806	-0,202	-0,156
79,451	69,328	-0,235	-0,169
80,466	19,200	-0,329	-0,184
81,480	74,167	-0,295	-0,217
82,495	-68,088	-0,348	-0,094
83,509	-70,106	-0,204	-0,054
84,524	-155,894	-0,296	-0,013
85,539	114,824	-0,273	-0,233
86,553	-91,098	-0,291	-0,058
87,568	69,576	-0,270	-0,194
88,582	365,015	-0,219	-0,310
89,597	30,097	-0,337	-0,201
90,611	106,080	-0,301	-0,249
91,626	-60,639	-0,337	-0,099
92,641	-49,249	-0,223	-0,074
93,655	135,872	-0,253	-0,230
94,670	111,317	-0,271	-0,228
95,684	-0,007	-0,262	-0,130
96,699	151,593	-0,288	-0,275
97,714	4,498	-0,261	-0,134
98,728	255,730	-0,161	-0,194
99,743	-101,731	-0,338	0,057
100,757	-116,123	-0,329	-0,042
101,772	-31,200	-0,423	-0,166
102,787	28,045	-0,350	-0,206
103,801	112,790	-0,234	-0,198
104,816	210,575	-0,190	-0,209
105,830	71,319	-0,311	-0,225
106,845	-110,312	-0,307	-0,044
107,860	368,818	-0,133	-0,189
108,874	-1,078	-0,159	-0,078
109,889	58,827	-0,209	-0,143
110,903	76,918	-0,186	-0,138
111,918	-41,266	-0,247	-0,088
112,933	-14,211	-0,160	-0,072
113,947	-1,447	-0,280	-0,137
114,962	87,239	-0,220	-0,170
115,976	5,597	-0,356	-0,183
116,991	762,697	-0,141	-0,268
118,006	-61,769	-0,225	-0,065
119,020	-89,486	-0,360	-0,073
120,035	-98,594	-0,347	-0,061
121,049	151,323	-0,140	-0,133
122,064	-30,532	-0,461	-0,182
123,079	267,922	-0,143	-0,175
124,093	476,126	-0,161	-0,255
125,108	99,966	-0,266	-0,215
126,122	471,176	-0,148	-0,233
127,137	249,173	-0,203	-0,241
128,151	55,672	-0,199	-0,134
129,166	219,971	-0,150	-0,168
130,181	-128,756	-0,274	-0,027
131,195	10,167	-0,209	-0,110
132,210	51,507	-0,275	-0,182
133,224	175,674	-0,206	-0,208
134,239	187,762	-0,191	-0,199
135,254	394,055	-0,109	-0,159
136,268	-24,008	-0,141	-0,058
137,283	-64,560	-0,196	-0,055
138,297	230,887	-0,141	-0,161
139,312	295,509	-0,252	-0,323
140,327	21,682	-0,204	-0,115
141,341	800,000	-0,146	-0,294
142,356	-13,454	-0,138	-0,062
143,370	2,808	-0,223	-0,113
144,385	-52,147	-0,307	-0,099
145,400	-141,342	-0,267	0,019
146,414	38,027	-0,279	-0,172
147,429	-23,121	-0,360	-0,150
148,443	102,887	-0,162	-0,132
149,458	-73,731	-0,152	0,038
150,473	-101,268	-0,127	-0,021
151,487	24,489	-0,263	-0,151
152,502	316,406	-0,126	-0,166
153,516	410,621	-0,128	-0,189
154,531	800,000	-0,052	-0,114
155,546	423,180	-0,127	-0,191
156,560	165,765	-0,065	0,064
157,575	355,498	-0,093	-0,129
158,589	143,657	-0,227	-0,211
159,604	-23,705	-0,267	-0,111
160,619	276,040	-0,246	-0,304
161,633	12,297	-0,308	-0,165
162,648	-16,013	-0,281	-0,124
163,662	-81,736	-0,199	-0,045
164,677	-75,475	-0,171	-0,042
165,692	90,066	-0,191	-0,148
166,706	43,270	-0,199	-0,126
167,721	-2,817	-0,177	-0,086
168,735	190,987	-0,265	-0,277
169,750	-0,926	-0,259	-0,127
170,764	-106,589	-0,180	-0,028
171,779	64,992	-0,199	-0,140
172,794	28,378	-0,253	-0,148
173,808	-99,128	-0,157	-0,027
174,823	55,526	-0,171	-0,115
175,837	308,910	-0,181	-0,236
176,852	-28,755	-0,173	-0,069
177,867	-66,242	-0,305	-0,084
178,881	-49,042	-0,108	-0,036
179,896	194,245	-0,160	-0,169
180,910	103,629	-0,229	-0,187
181,925	-55,711	-0,300	-0,092
182,940	-63,820	-0,116	-0,033
183,954	-66,658	-0,274	-0,075
184,969	-142,500	-0,247	-0,017
185,983	-144,232	-0,328	-0,021
186,998	236,894	-0,212	-0,244
188,013	176,253	-0,181	-0,182
189,027	358,127	-0,168	-0,233
190,042	73,593	-0,271	-0,196
191,056	219,412	-0,201	-0,223
192,071	45,199	-0,173	-0,110
193,086	177,666	-0,140	-0,142
194,100	800,000	-0,119	-0,247
195,115	122,676	-0,106	-0,092
196,129	213,001	-0,191	-0,209
197,144	75,201	-0,222	-0,162
198,159	23,661	-0,245	-0,140
199,173	-81,143	-0,139	0,031
200,188	99,576	-0,237	-0,190
201,202	157,872	-0,086	-0,083
202,217	-62,061	-0,225	-0,065
203,232	32,999	-0,187	-0,112
204,246	67,377	-0,232	-0,164
205,261	248,106	-0,134	-0,158
206,275	146,509	-0,218	-0,203
207,290	71,331	-0,198	-0,142
208,304	-44,919	-0,170	-0,058
209,319	-120,264	-0,213	-0,025
210,334	-43,708	-0,216	-0,075
211,348	119,446	-0,182	-0,156
212,363	85,686	-0,178	-0,136
213,377	21,318	-0,108	-0,061
214,392	-12,801	-0,226	-0,101
215,407	20,915	-0,151	-0,084
216,421	-38,026	-0,212	-0,077
217,436	182,298	-0,115	-0,118
218,450	-126,665	-0,167	0,017
219,465	-84,436	-0,214	-0,046
220,480	-41,899	-0,236	-0,083
221,494	430,967	-0,118	-0,177
222,509	-85,376	-0,194	-0,042
223,523	77,491	-0,170	-0,125
224,538	-19,926	-0,233	-0,099
225,553	131,755	-0,156	-0,139
226,567	77,821	-0,243	-0,179
227,582	46,379	-0,183	-0,117
228,596	800,000	-0,052	-0,155
229,611	48,984	-0,162	-0,105
230,626	519,093	-0,122	-0,198
231,640	-95,700	-0,219	-0,040
232,655	579,509	-0,115	-0,195
233,669	58,547	-0,173	-0,117
234,684	-22,414	-0,174	0,072
235,699	-38,476	-0,203	-0,074
236,713	357,927	-0,086	-0,119
237,728	-78,720	-0,197	0,046
238,742	113,417	-0,208	-0,174
239,757	85,410	-0,194	-0,147
240,772	190,680	-0,252	-0,262
241,786	31,252	-0,165	-0,097
242,801	43,913	-0,040	-0,025
243,815	15,753	-0,221	-0,119
244,830	-33,845	-0,229	-0,087
245,844	193,341	-0,138	-0,144
246,859	50,679	-0,223	-0,145
247,874	0,638	-0,156	-0,077
248,888	-52,920	-0,278	-0,088
249,903	247,571	-0,155	-0,181
250,917	-145,866	-0,145	-0,009
251,932	-72,914	-0,119	-0,030
252,947	-18,225	-0,187	-0,080
253,961	114,327	-0,122	-0,103
254,976	282,256	-0,135	-0,168
255,990	99,408	-0,112	-0,089
257,005	203,729	-0,111	-0,119
258,020	-51,247	-0,180	0,058
259,034	-127,613	-0,116	0,011
260,049	-200,000	-0,110	0,000
261,063	-119,732	-0,256	-0,030
262,078	-12,900	-0,211	-0,094
263,093	120,751	-0,240	-0,205
264,107	6,344	-0,091	-0,046
265,122	279,803	-0,034	-0,042
266,136	-2,653	-0,215	-0,103
267,151	-75,337	-0,252	-0,062
268,166	-61,301	-0,214	0,062
269,180	-149,592	-0,157	-0,008
270,195	248,892	-0,175	-0,204
271,209	387,158	-0,059	-0,084
272,224	-200,000	-0,096	0,000
273,239	521,750	-0,057	-0,093
274,253	459,127	-0,139	-0,214
275,268	34,130	-0,223	-0,133
276,282	207,069	-0,194	-0,208
277,297	419,269	-0,191	-0,282
278,312	215,553	-0,158	-0,173
279,326	-59,397	-0,157	-0,046
280,341	44,195	-0,137	-0,087
281,355	-36,104	-0,138	-0,051
282,370	800,000	-0,111	-0,245
283,384	469,552	-0,114	-0,177
284,399	214,861	-0,101	-0,111
285,414	78,228	-0,019	-0,014
286,428	-200,000	-0,036	-0,199
287,443	-195,387	-0,085	-0,000
288,457	82,033	-0,111	-0,083
289,472	64,315	-0,156	-0,108
290,487	564,501	-0,117	-0,196
291,501	500,135	-0,113	-0,180
292,516	-24,260	-0,150	-0,061
293,530	-200,000	-0,003	-0,150
294,545	404,813	-0,086	-0,124
295,560	308,293	-0,160	-0,206
296,574	69,938	-0,179	-0,127
297,589	-140,037	-0,221	-0,016
298,603	800,000	-0,082	-0,205
299,618	321,827	-0,157	-0,206
300,633	50,850	-0,065	-0,042
301,647	25,310	-0,194	-0,111
302,662	90,301	0,030	0,023
303,676	29,219	-0,156	-0,090
304,691	148,432	-0,057	-0,053
305,706	-72,075	-0,192	-0,049
306,720	131,540	-0,202	-0,178
307,735	1,289	-0,199	-0,098
308,749	430,802	-0,079	-0,118
309,764	616,852	-0,049	0,085
310,779	92,899	-0,148	-0,115
311,793	89,064	-0,134	-0,102
312,808	800,000	-0,080	-0,170
313,822	97,462	-0,165	-0,130
314,837	116,391	-0,128	-0,108
315,852	607,485	-0,061	0,105
316,866	50,690	-0,103	-0,067
317,881	-20,341	-0,121	-0,051
318,895	160,993	-0,151	-0,145
319,910	800,000	-0,090	-0,174
320,925	106,604	-0,164	-0,133
321,939	-55,830	-0,263	-0,080
322,954	86,404	-0,158	-0,119
323,968	-38,599	-0,131	-0,047
324,983	136,839	-0,154	-0,138
325,997	244,880	-0,088	-0,102
327,012	133,477	-0,144	-0,128
328,027	72,447	-0,089	-0,063
329,041	-105,132	-0,137	-0,021
330,056	210,756	-0,179	-0,193
331,070	-128,196	-0,234	0,023
332,085	-200,000	0,003	-0,087
333,100	57,885	-0,211	-0,141
334,114	-57,184	-0,154	-0,046
335,129	86,565	-0,139	-0,105
336,143	-200,000	0,016	-0,059
337,158	46,613	-0,046	-0,029
338,173	66,466	-0,042	0,029
339,187	-50,914	-0,113	0,036
340,202	76,417	-0,133	-0,096
341,216	-86,198	-0,095	0,020
342,231	-69,549	-0,187	-0,049
343,246	608,350	-0,090	-0,155
344,260	21,159	-0,243	-0,134
345,275	-200,000	-0,044	-0,161
346,289	487,784	-0,057	-0,089
347,304	17,008	-0,145	-0,078
348,319	-11,869	-0,123	-0,055
349,333	275,024	-0,125	-0,152
350,348	-51,097	-0,164	-0,052
351,362	166,779	-0,144	-0,140
352,377	118,167	-0,098	-0,083
353,392	104,349	-0,104	-0,084
354,406	-116,767	-0,160	-0,020
355,421	207,459	1311,019	1400,168
356,435	159,592	1471,236	1400,615
