DTS Sentinel unit serial number:	SN410029Multiplexer serial number:	ORYXHardware model number:	OX2-SRSoftware version number:	ORYX F/W v4,00 Oryx Data Collector v3.7.2.0data status	okinstallation	B3 Nyhavnadifferential loss correction	single-endedforward channel	channel 1reverse channel	N/Adate	2023/12/04time	17:47:30forward acquisition time	300,00reverse acquisition time	0,00gamma	499,1914k internal	0,3200k external	0,3200temperature offset calibration	1,0000default loss term (dB/km)	0,3820temperature slope calibration	1,0000multiplexer offset coefficient	1,0000multiplexer slope coefficient	1,0000fibre end	0,00T internal ref (°C)	15,05T ext. ref 1 (°C)	-0,04T ext. ref 2 (°C)	-0,05length (m)	temperature (°C)	Stokes	anti-Stokes-744,400	24,971	-0,235	-0,141
-743,385	-200,000	-0,089	0,329
-742,371	-93,657	-0,165	-0,033
-741,356	-200,000	0,109	0,501
-740,342	272,357	-0,140	-0,180
-739,327	-200,000	0,024	0,180
-738,312	166,354	-0,307	-0,317
-737,298	-200,000	-0,032	0,206
-736,283	270,921	-0,162	-0,208
-735,269	800,000	0,100	0,228
-734,254	658,211	-0,142	-0,267
-733,239	55,321	-0,178	0,125
-732,225	800,000	-0,111	-0,321
-731,210	800,000	0,066	0,175
-730,196	-91,993	0,033	0,007
-729,181	-200,000	0,006	0,157
-728,167	-47,353	-0,126	-0,044
-727,152	343,676	-0,042	0,060
-726,137	-9,221	0,056	-0,027
-725,123	198,583	-0,021	-0,023
-724,108	-20,787	-0,166	0,074
-723,094	481,413	-0,044	-0,073
-722,079	736,034	-0,042	-0,082
-721,064	605,687	-0,027	-0,050
-720,050	-147,229	-0,024	-0,001
-719,035	195,069	-0,070	-0,077
-718,021	800,000	-0,015	-0,042
-717,006	-200,000	-0,027	-0,091
-715,991	152,339	-0,142	-0,141
-714,977	349,218	0,029	-0,041
-713,962	170,882	-0,087	-0,091
-712,948	-200,000	0,000	-0,020
-711,933	-79,783	-0,057	0,014
-710,918	257,368	0,055	-0,069
-709,904	48,231	-0,102	0,069
-708,889	-72,780	0,037	0,010
-707,875	369,167	-0,117	-0,173
-706,860	26,989	0,063	0,039
-705,845	-106,141	0,052	0,008
-704,831	-200,000	-0,007	0,097
-703,816	60,369	-0,082	-0,059
-702,802	-200,000	-0,013	0,110
-701,787	493,821	-0,025	-0,041
-700,772	379,218	-0,079	-0,117
-699,758	2,769	-0,109	-0,057
-698,743	-159,532	0,153	-0,006
-697,729	321,654	0,042	0,058
-696,714	259,280	-0,064	0,081
-695,699	-200,000	0,002	-0,025
-694,685	423,603	-0,047	-0,073
-693,670	800,000	-0,025	-0,051
-692,656	800,000	-0,056	-0,117
-691,641	-200,000	-0,011	0,076
-690,627	4,151	-0,081	0,043
-689,612	-55,292	0,047	0,015
-688,597	-200,000	-0,007	-0,062
-687,583	-46,545	-0,082	-0,029
-686,568	305,875	0,001	0,002
-685,554	-18,448	-0,103	-0,046
-684,539	-3,751	0,061	0,030
-683,524	-76,930	0,136	0,034
-682,510	-58,516	0,205	-0,064
-681,495	-39,123	-0,086	0,032
-680,481	-200,000	0,015	-0,089
-679,466	-200,000	-0,037	-0,224
-678,451	129,764	0,087	-0,081
-677,437	50,765	0,056	-0,038
-676,422	-200,000	-0,030	0,137
-675,408	-128,671	0,015	0,001
-674,393	262,105	-0,060	-0,075
-673,378	8,219	-0,104	-0,057
-672,364	27,018	0,060	-0,037
-671,349	-200,000	0,038	-0,153
-670,335	150,722	-0,071	-0,070
-669,320	-85,144	-0,067	-0,015
-668,305	105,301	-0,090	0,077
-667,291	-200,000	-0,016	-0,080
-666,276	320,162	-0,026	-0,036
-665,262	781,759	0,015	-0,030
-664,247	540,273	-0,070	-0,121
-663,232	138,575	0,019	0,018
-662,218	-66,751	0,056	0,016
-661,203	-144,527	-0,081	-0,005
-660,189	800,000	0,043	0,094
-659,174	-125,358	-0,110	0,012
-658,159	-1,856	-0,124	-0,063
-657,145	-200,000	-0,012	-0,092
-656,130	-78,939	-0,084	0,020
-655,116	-147,674	0,071	0,004
-654,101	148,031	0,019	-0,018
-653,086	532,763	0,080	0,138
-652,072	-23,821	-0,108	0,047
-651,057	-200,000	0,004	-0,048
-650,043	-200,000	-0,020	-0,179
-649,028	362,419	-0,064	0,094
-648,014	-106,256	0,067	0,011
-646,999	-112,546	0,078	0,011
-645,984	90,225	-0,062	0,050
-644,970	-12,322	-0,031	-0,015
-643,955	-89,925	-0,072	-0,015
-642,941	347,456	0,051	-0,072
-641,926	-47,783	0,090	-0,031
-640,911	-200,000	-0,023	0,179
-639,897	-110,040	0,097	-0,014
-638,882	-93,432	0,035	0,007
-637,868	-200,000	-0,030	-0,160
-636,853	-46,318	-0,022	0,008
-635,838	61,701	0,019	-0,014
-634,824	205,415	0,050	-0,057
-633,809	-200,000	-0,002	-0,094
-632,795	72,006	-0,051	0,039
-631,780	55,588	-0,018	0,013
-630,765	-200,000	-0,007	-0,089
-629,751	800,000	0,016	-0,046
-628,736	-90,948	-0,147	0,030
-627,722	-128,257	0,091	-0,009
-626,707	-17,834	0,063	0,029
-625,692	-79,008	0,129	0,031
-624,678	-200,000	0,006	-0,061
-623,663	264,431	-0,059	0,075
-622,649	22,395	-0,067	0,040
-621,634	-185,191	-0,081	-0,001
-620,619	56,315	0,056	-0,039
-619,605	-200,000	0,017	-0,116
-618,590	30,127	0,056	0,034
-617,576	-6,390	-0,085	-0,042
-616,561	-200,000	0,012	-0,180
-615,546	701,711	-0,025	-0,049
-614,532	-200,000	-0,026	-0,103
-613,517	95,630	-0,037	-0,031
-612,503	-200,000	-0,006	-0,080
-611,488	-26,643	0,142	-0,060
-610,474	-200,000	-0,075	0,000
-609,459	40,324	0,027	0,017
-608,444	-12,551	0,089	0,042
-607,430	-200,000	0,001	-0,054
-606,415	-162,025	0,167	-0,006
-605,401	116,871	-0,089	0,079
-604,386	334,013	-0,030	0,042
-603,371	-200,000	0,010	-0,056
-602,357	-200,000	0,011	-0,076
-601,342	-76,491	-0,066	-0,017
-600,328	524,086	0,066	-0,112
-599,313	248,561	-0,016	-0,019
-598,298	-50,150	-0,080	-0,027
-597,284	800,000	0,033	0,106
-596,269	289,235	0,062	0,081
-595,255	-79,816	0,161	0,039
-594,240	-107,778	-0,137	0,021
-593,225	-200,000	0,011	-0,055
-592,211	231,352	0,053	-0,063
-591,196	34,600	-0,121	-0,076
-590,182	368,430	0,014	-0,020
-589,167	140,573	0,032	0,030
-588,152	-107,944	-0,062	0,010
-587,138	325,190	0,073	-0,101
-586,123	-51,634	-0,055	0,019
-585,109	2,572	-0,101	0,053
-584,094	800,000	0,018	-0,041
-583,079	-30,495	-0,094	-0,038
-582,065	-200,000	0,002	0,019
-581,050	-78,118	0,096	-0,024
-580,036	-166,665	-0,049	-0,001
-579,021	800,000	0,058	0,174
-578,006	-121,097	0,056	0,007
-576,992	800,000	-0,045	0,119
-575,977	108,979	0,073	-0,063
-574,963	192,933	-0,053	0,058
-573,948	252,500	0,039	0,048
-572,934	-200,000	-0,003	-0,029
-571,919	-88,275	-0,023	0,005
-570,904	800,000	-0,061	-0,128
-569,890	-200,000	0,013	-0,178
-568,875	-200,000	-0,013	-0,048
-567,861	-200,000	0,012	-0,111
-566,846	-200,000	0,035	0,111
-565,831	-36,859	-0,079	-0,030
-564,817	1,368	0,073	0,038
-563,802	36,165	-0,051	0,033
-562,788	397,179	-0,045	-0,068
-561,773	78,884	-0,053	-0,041
-560,758	-59,263	0,053	0,016
-559,744	-200,000	-0,034	0,164
-558,729	22,611	0,067	0,039
-557,715	552,237	0,051	-0,089
-556,700	56,266	-0,042	-0,029
-555,685	-200,000	0,002	-0,047
-554,671	800,000	0,069	0,141
-553,656	-200,000	-0,003	-0,011
-552,642	800,000	-0,035	0,082
-551,627	800,000	0,040	-0,090
-550,612	98,222	0,033	0,028
-549,598	-200,000	-0,016	0,129
-548,583	-144,768	-0,092	0,006
-547,569	434,180	-0,063	0,099
-546,554	107,874	0,025	-0,022
-545,539	406,640	0,032	0,049
-544,525	-162,964	-0,023	-0,001
-543,510	438,528	0,047	-0,074
-542,496	-51,885	-0,169	-0,056
-541,481	-200,000	0,001	-0,148
-540,466	-111,014	0,144	-0,021
-539,452	21,991	-0,063	0,037
-538,437	-3,338	0,080	-0,040
-537,423	-200,000	0,020	-0,079
-536,408	88,434	-0,072	-0,057
-535,393	101,898	0,032	0,027
-534,379	-98,735	0,043	0,008
-533,364	-200,000	0,029	-0,102
-532,350	30,603	-0,071	-0,043
-531,335	-128,510	-0,136	0,014
-530,321	-32,965	0,062	-0,025
-529,306	-200,000	0,004	0,085
-528,291	-200,000	-0,008	-0,113
-527,277	202,950	-0,080	-0,090
-526,262	-95,978	-0,132	-0,025
-525,248	-70,605	0,088	0,024
-524,233	800,000	-0,058	0,129
-523,218	-200,000	0,029	0,135
-522,204	-200,000	0,006	0,045
-521,189	-12,048	-0,093	-0,044
-520,175	139,792	0,061	-0,058
-519,160	-200,000	-0,018	0,136
-518,145	800,000	0,051	0,118
-517,131	185,332	-0,091	0,098
-516,116	800,000	-0,026	-0,079
-515,102	-141,115	-0,087	0,006
-514,087	-200,000	-0,007	0,119
-513,072	-59,163	-0,026	0,008
-512,058	-200,000	0,033	-0,106
-511,043	-122,772	0,030	0,003
-510,029	40,748	0,134	0,087
-509,014	-200,000	-0,013	0,060
-507,999	472,700	0,012	0,020
-506,985	-92,775	-0,074	-0,015
-505,970	-200,000	-0,000	0,057
-504,956	-200,000	0,027	-0,086
-503,941	-38,846	0,053	-0,020
-502,926	-65,516	0,206	-0,059
-501,912	-21,505	0,017	0,007
-500,897	-28,714	0,087	0,036
-499,883	-200,000	-0,033	-0,167
-498,868	-9,494	-0,086	-0,041
-497,853	66,785	-0,132	-0,097
-496,839	-107,009	-0,130	-0,020
-495,824	129,357	0,019	-0,017
-494,810	-81,657	0,202	-0,047
-493,795	239,030	0,038	0,045
-492,781	-140,332	0,074	0,005
-491,766	-36,267	-0,054	-0,021
-490,751	97,322	0,078	0,065
-489,737	630,859	0,054	-0,099
-488,722	69,679	0,036	0,027
-487,708	-88,461	0,074	0,016
-486,693	-99,802	-0,135	0,024
-485,678	-3,404	0,054	0,027
-484,664	94,333	0,146	-0,119
-483,649	-200,000	-0,009	-0,032
-482,635	-31,763	-0,062	-0,025
-481,620	-196,205	0,138	-0,001
-480,605	329,844	0,022	0,030
-479,591	-11,176	0,042	0,020
-478,576	800,000	-0,061	0,121
-477,562	-65,275	-0,141	0,041
-476,547	800,000	0,063	-0,176
-475,532	-200,000	-0,005	-0,077
-474,518	113,601	0,074	0,065
-473,503	38,797	-0,058	0,037
-472,489	800,000	0,115	0,242
-471,474	-23,754	-0,102	0,044
-470,459	22,536	-0,090	0,053
-469,445	-64,034	0,047	-0,014
-468,430	124,979	0,082	0,074
-467,416	-200,000	-0,011	-0,059
-466,401	-200,000	-0,026	-0,105
-465,386	-200,000	-0,030	0,119
-464,372	800,000	-0,022	-0,058
-463,357	-65,664	0,103	-0,029
-462,343	55,649	-0,125	-0,087
-461,328	65,028	0,073	0,053
-460,313	-200,000	-0,024	0,171
-459,299	206,653	0,041	-0,046
-458,284	-200,000	-0,015	-0,049
-457,270	800,000	0,007	-0,015
-456,255	-58,041	-0,066	-0,020
-455,241	-128,690	-0,111	-0,011
-454,226	-200,000	-0,013	0,059
-453,211	-31,048	0,059	-0,024
-452,197	-200,000	0,017	0,053
-451,182	359,375	0,098	0,141
-450,168	-64,186	-0,071	0,021
-449,153	48,075	-0,058	0,039
-448,138	337,204	0,039	-0,054
-447,124	-90,091	-0,112	0,023
-446,109	-200,000	-0,001	0,012
-445,095	800,000	0,035	-0,098
-444,080	-39,477	-0,033	-0,012
-443,065	-95,756	-0,103	-0,020
-442,051	-93,385	0,112	0,022
-441,036	-7,857	0,087	-0,042
-440,022	800,000	0,024	-0,072
-439,007	685,340	0,045	0,086
-437,992	556,971	0,046	-0,080
-436,978	137,530	-0,039	0,037
-435,963	-200,000	-0,038	-0,193
-434,949	-82,425	0,101	0,023
-433,934	51,695	-0,104	0,071
-432,919	25,475	0,028	0,017
-431,905	-200,000	-0,017	0,000
-430,890	800,000	0,033	0,101
-429,876	381,493	-0,056	0,083
-428,861	-37,517	-0,089	0,034
-427,846	-29,475	0,097	0,039
-426,832	284,974	-0,028	0,036
-425,817	-119,503	-0,118	-0,015
-424,803	213,133	0,017	0,019
-423,788	-178,844	-0,120	0,002
-422,773	-84,608	0,117	0,026
-421,759	-200,000	-0,003	0,062
-420,744	800,000	-0,027	-0,073
-419,730	349,272	0,095	-0,135
-418,715	400,014	-0,101	-0,152
-417,701	772,467	-0,045	-0,089
-416,686	-200,000	0,011	0,092
-415,671	285,750	0,096	0,125
-414,657	-200,000	0,024	-0,083
-413,642	20,536	-0,068	-0,040
-412,628	581,790	-0,028	-0,050
-411,613	-200,000	-0,008	0,108
-410,598	-200,000	0,009	0,086
-409,584	-142,087	-0,139	-0,010
-408,569	120,138	0,022	0,020
-407,555	-79,865	0,129	-0,031
-406,540	-22,917	0,073	-0,031
-405,525	800,000	-0,032	-0,065
-404,511	-200,000	0,004	-0,039
-403,496	-156,005	0,062	0,003
-402,482	800,000	0,075	-0,151
-401,467	53,402	-0,093	0,064
-400,452	800,000	-0,012	0,036
-399,438	-27,754	0,050	0,021
-398,423	165,525	0,055	0,055
-397,409	800,000	-0,074	-0,156
-396,394	167,672	0,093	-0,095
-395,379	343,824	-0,111	-0,157
-394,365	-200,000	-0,024	0,130
-393,350	304,826	0,115	0,154
-392,336	321,451	0,032	0,044
-391,321	114,231	-0,143	-0,125
-390,306	26,866	0,039	-0,023
-389,292	800,000	0,036	0,090
-388,277	708,705	0,041	-0,078
-387,263	-63,182	0,118	0,035
-386,248	110,406	0,035	0,030
-385,233	-119,510	-0,063	0,008
-384,219	96,629	0,092	0,076
-383,204	568,205	0,069	0,120
-382,190	800,000	-0,033	0,088
-381,175	800,000	0,028	0,058
-380,160	68,313	0,044	-0,032
-379,146	347,703	0,092	0,131
-378,131	-164,707	-0,115	0,004
-377,117	331,037	-0,070	0,097
-376,102	29,732	-0,096	-0,058
-375,088	-127,700	-0,127	-0,013
-374,073	136,415	-0,069	0,065
-373,058	-131,461	0,113	-0,011
-372,044	492,389	-0,057	0,095
-371,029	-36,379	-0,023	-0,009
-370,015	165,956	-0,084	-0,085
-369,000	169,585	0,029	0,029
-367,985	596,030	-0,058	-0,103
-366,971	800,000	0,012	-0,029
-365,956	-42,085	0,082	-0,030
-364,942	-36,164	0,189	0,073
-363,927	679,824	0,014	0,026
-362,912	49,733	-0,028	-0,019
-361,898	222,292	-0,058	-0,067
-360,883	-143,350	-0,242	0,016
-359,869	76,189	-0,042	-0,032
-358,854	800,000	-0,053	-0,116
-357,839	800,000	-0,019	0,040
-356,825	366,084	-0,009	-0,013
-355,810	-175,651	-0,178	-0,003
-354,796	-200,000	0,022	-0,113
-353,781	275,145	-0,040	0,051
-352,766	-200,000	0,026	-0,114
-351,752	-200,000	0,002	-0,034
-350,737	-200,000	-0,008	0,087
-349,723	15,432	0,011	-0,006
-348,708	-200,000	0,021	-0,074
-347,693	70,584	0,061	-0,045
-346,679	-4,226	-0,077	-0,038
-345,664	-6,725	-0,039	0,019
-344,650	133,898	0,044	0,041
-343,635	83,293	0,093	0,073
-342,620	-200,000	0,010	0,069
-341,606	-163,420	0,085	-0,003
-340,591	800,000	-0,041	-0,108
-339,577	179,720	-0,071	-0,075
-338,562	36,495	-0,054	0,034
-337,548	-200,000	0,001	-0,067
-336,533	-142,266	-0,044	0,003
-335,518	-134,197	-0,071	-0,006
-334,504	-168,295	0,053	-0,001
-333,489	330,142	-0,067	0,093
-332,475	40,545	-0,049	0,031
-331,460	-200,000	0,001	0,011
-330,445	214,849	-0,013	-0,015
-329,431	460,416	0,031	0,050
-328,416	394,609	0,088	0,132
-327,402	201,354	-0,013	-0,014
-326,387	-26,339	-0,032	-0,013
-325,372	-200,000	0,002	0,069
-324,358	-200,000	0,002	-0,059
-323,343	159,500	-0,061	-0,061
-322,329	800,000	-0,034	-0,072
-321,314	18,541	-0,129	0,074
-320,299	-200,000	-0,021	0,135
-319,285	18,511	-0,058	0,033
-318,270	-168,311	-0,194	0,005
-317,256	-159,826	-0,084	-0,003
-316,241	-79,917	-0,126	-0,030
-315,226	227,158	-0,037	-0,044
-314,212	385,532	0,050	-0,075
-313,197	-200,000	0,018	0,191
-312,183	257,763	0,085	0,105
-311,168	-141,522	0,078	-0,006
-310,153	-12,615	0,071	-0,033
-309,139	169,010	-0,057	-0,058
-308,124	549,425	0,028	0,048
-307,110	-200,000	0,026	0,130
-306,095	14,773	0,061	0,034
-305,080	-35,377	0,087	-0,034
-304,066	-124,424	-0,056	-0,006
-303,051	29,151	-0,050	0,031
-302,037	800,000	0,071	-0,149
-301,022	313,505	-0,011	-0,014
-300,008	800,000	0,017	-0,041
-298,993	190,295	-0,059	0,063
-297,978	-80,571	-0,103	0,024
-296,964	-39,283	-0,124	0,046
-295,949	85,843	0,141	-0,111
-294,935	60,152	-0,119	-0,084
-293,920	66,154	0,061	-0,044
-292,905	-79,063	0,203	-0,049
-291,891	-98,797	-0,079	-0,014
-290,876	-200,000	0,013	-0,130
-289,862	-43,236	0,052	0,019
-288,847	407,108	-0,075	0,113
-287,832	346,258	0,105	-0,147
-286,818	307,401	-0,078	-0,104
-285,803	13,806	-0,030	0,017
-284,789	-200,000	0,010	0,039
-283,774	-200,000	0,008	0,100
-282,759	430,125	0,050	0,078
-281,745	-5,323	-0,021	-0,011
-280,730	-5,438	-0,089	0,043
-279,716	-200,000	-0,023	-0,115
-278,701	-63,456	0,134	-0,039
-277,686	-200,000	-0,030	0,141
-276,672	800,000	0,031	0,077
-275,657	-200,000	0,004	-0,042
-274,643	-200,000	-0,024	-0,131
-273,628	800,000	-0,044	-0,124
-272,613	-48,377	-0,111	0,038
-271,599	-200,000	0,008	0,121
-270,584	-132,491	-0,126	-0,011
-269,570	-16,711	0,097	0,044
-268,555	48,738	0,084	-0,056
-267,540	-200,000	-0,015	0,056
-266,526	800,000	0,009	-0,020
-265,511	800,000	0,024	0,051
-264,497	272,749	-0,089	0,113
-263,482	91,718	0,096	0,077
-262,467	336,396	-0,051	0,071
-261,453	-200,000	0,015	0,096
-260,438	-200,000	-0,020	0,090
-259,424	-79,936	-0,107	-0,025
-258,409	800,000	-0,010	-0,023
-257,395	-65,588	-0,116	0,033
-256,380	323,819	-0,064	-0,087
-255,365	-4,142	-0,020	0,010
-254,351	-113,028	0,074	0,010
-253,336	-48,594	-0,018	-0,006
-252,322	-200,000	0,025	-0,086
-251,307	501,854	0,113	-0,188
-250,292	107,604	-0,093	0,079
-249,278	26,223	-0,025	-0,015
-248,263	55,921	-0,036	-0,025
-247,249	-200,000	0,114	-0,000
-246,234	-200,000	0,023	0,123
-245,219	-200,000	-0,018	0,107
-244,205	-115,053	-0,052	-0,007
-243,190	-128,834	0,187	-0,019
-242,176	286,332	-0,023	0,030
-241,161	109,104	0,098	0,084
-240,146	221,770	0,090	-0,103
-239,132	273,267	-0,073	-0,092
-238,117	-200,000	0,009	-0,069
-237,103	178,511	0,034	0,036
-236,088	248,177	0,023	-0,028
-235,073	512,628	0,044	0,074
-234,059	-200,000	-0,002	-0,028
-233,044	260,689	-0,035	0,043
-232,030	-146,391	0,053	-0,003
-231,015	-13,617	0,062	0,028
-230,000	438,702	-0,043	0,067
-228,986	800,000	-0,052	-0,114
-227,971	-200,000	0,014	-0,120
-226,957	-141,412	-0,069	-0,005
-225,942	254,953	0,081	-0,100
-224,927	-200,000	-0,001	-0,058
-223,913	270,207	-0,025	-0,031
-222,898	-95,432	-0,125	0,024
-221,884	229,125	0,028	0,033
-220,869	-200,000	0,010	-0,108
-219,855	385,548	0,023	-0,033
-218,840	48,249	0,082	-0,055
-217,825	457,698	-0,021	0,033
-216,811	-78,124	0,072	-0,017
-215,796	-200,000	-0,040	0,148
-214,782	34,676	-0,018	0,011
-213,767	150,358	0,051	0,049
-212,752	-200,000	0,033	0,181
-211,738	-68,162	0,127	0,035
-210,723	-200,000	-0,135	0,000
-209,709	648,216	0,023	-0,041
-208,694	-200,000	-0,000	-0,073
-207,679	209,815	0,040	-0,045
-206,665	226,455	0,036	-0,041
-205,650	-72,934	0,137	0,036
-204,636	113,387	-0,023	0,020
-203,621	-200,000	-0,018	0,082
-202,606	5,263	-0,075	-0,039
-201,592	-191,790	-0,066	-0,000
-200,577	800,000	0,054	0,121
-199,563	-96,625	0,052	-0,010
-198,548	147,085	0,095	0,091
-197,533	3,408	-0,100	0,051
-196,519	-160,243	-0,042	0,002
-195,504	81,608	0,059	-0,045
-194,490	800,000	-0,009	-0,018
-193,475	-200,000	-0,003	-0,099
-192,460	126,104	-0,017	-0,015
-191,446	-200,000	-0,013	-0,097
-190,431	-121,175	0,060	-0,007
-189,417	800,000	-0,057	-0,127
-188,402	-200,000	0,013	0,051
-187,387	-5,083	-0,112	0,055
-186,373	57,836	-0,074	-0,051
-185,358	109,205	0,054	0,046
-184,344	-15,822	-0,097	0,044
-183,329	-115,322	0,040	-0,005
-182,315	107,874	0,070	0,059
-181,300	-200,000	0,002	-0,037
-180,285	-113,970	-0,045	0,006
-179,271	-109,834	0,072	-0,011
-178,256	55,316	-0,049	-0,034
-177,242	-200,000	-0,010	0,031
-176,227	181,487	0,035	0,037
-175,212	178,007	-0,102	0,106
-174,198	-133,454	0,125	-0,011
-173,183	800,000	0,040	-0,101
-172,169	-46,647	0,094	0,033
-171,154	474,171	0,023	-0,037
-170,139	-200,000	0,009	0,048
-169,125	-200,000	0,001	0,028
-168,110	-117,965	-0,041	-0,005
-167,096	-75,075	0,127	0,032
-166,081	-200,000	-0,006	0,050
-165,066	47,561	0,020	0,013
-164,052	-55,649	0,185	0,058
-163,037	800,000	0,035	0,094
-162,023	-55,604	0,086	0,027
-161,008	170,576	-0,073	-0,075
-159,993	-75,441	-0,086	-0,022
-158,979	-132,577	-0,036	0,003
-157,964	413,822	-0,043	0,066
-156,950	-84,189	-0,011	0,002
-155,935	800,000	-0,017	-0,042
-154,920	-200,000	0,001	0,024
-153,906	800,000	-0,018	0,049
-152,891	130,451	0,145	0,132
-151,877	211,660	0,024	-0,027
-150,862	-15,297	-0,156	-0,071
-149,847	800,000	-0,068	0,167
-148,833	-143,438	0,145	0,010
-147,818	-200,000	0,073	-0,000
-146,804	64,873	-0,100	-0,072
-145,789	-125,037	-0,029	-0,003
-144,775	82,955	-0,050	-0,039
-143,760	-115,504	-0,146	0,019
-142,745	75,500	-0,149	0,112
-141,731	395,854	-0,067	-0,099
-140,716	-171,265	-0,092	0,002
-139,702	-20,375	0,072	0,031
-138,687	50,317	0,134	0,090
-137,672	358,438	-0,108	-0,154
-136,658	126,744	-0,073	-0,066
-135,643	-103,311	0,026	0,004
-134,629	-200,000	-0,008	-0,055
-133,614	38,005	0,133	0,084
-132,599	-200,000	0,051	0,181
-131,585	521,133	-0,071	0,119
-130,570	-125,080	-0,054	-0,006
-129,556	531,264	0,075	-0,126
-128,541	-88,926	0,104	-0,022
-127,526	-200,000	0,007	-0,046
-126,512	-2,113	-0,063	0,031
-125,497	-69,234	0,026	-0,007
-124,483	110,409	0,033	-0,028
-123,468	-39,790	0,071	0,026
-122,453	381,387	-0,034	0,049
-121,439	244,116	0,078	0,093
-120,424	-200,000	0,028	0,170
-119,410	-105,483	-0,115	0,018
-118,395	-40,950	0,116	-0,042
-117,380	361,828	0,067	0,096
-116,366	-200,000	-0,048	-0,162
-115,351	190,618	0,070	-0,075
-114,337	800,000	-0,001	-0,003
-113,322	800,000	-0,023	-0,059
-112,307	-200,000	0,004	0,036
-111,293	-200,000	0,025	-0,113
-110,278	523,893	0,007	0,012
-109,264	-166,469	0,066	0,002
-108,249	30,527	-0,039	-0,023
-107,234	-200,000	-0,039	-0,134
-106,220	-200,000	-0,001	0,023
-105,205	-172,216	-0,066	0,001
-104,191	209,054	0,034	-0,038
-103,176	-133,205	-0,121	-0,011
-102,162	35,957	-0,054	-0,034
-101,147	-143,989	0,065	-0,004
-100,132	-200,000	-0,006	-0,076
-99,118	94,428	-0,090	-0,073
-98,103	-200,000	0,006	0,115
-97,089	-83,582	-0,083	-0,019
-96,074	-116,194	0,054	0,007
-95,059	19,282	0,108	0,061
-94,045	50,772	-0,150	-0,101
-93,030	800,000	0,039	-0,107
-92,016	-39,668	-0,098	0,036
-91,001	-200,000	-0,017	-0,060
-89,986	240,052	-0,080	-0,095
-88,972	-200,000	0,013	0,117
-87,957	449,322	-0,058	0,090
-86,943	-94,094	-0,086	-0,017
-85,928	-60,112	-0,148	0,044
-84,913	-97,093	-0,096	-0,018
-83,899	0,725	-0,068	-0,034
-82,884	-153,578	0,111	-0,005
-81,870	-200,000	-0,006	0,052
-80,855	-200,000	-0,004	0,060
-79,840	-200,000	-0,001	0,087
-78,826	-33,606	-0,099	-0,038
-77,811	100,486	0,025	-0,020
-76,797	-200,000	0,001	-0,093
-75,782	0,777	0,059	-0,030
-74,767	-200,000	-0,012	0,053
-73,753	158,193	-0,120	0,118
-72,738	-200,000	-0,016	0,174
-71,724	34,105	0,075	0,046
-70,709	37,931	-0,058	-0,036
-69,694	-105,242	-0,060	-0,010
-68,680	-200,000	0,009	0,049
-67,665	-200,000	-0,021	0,143
-66,651	39,868	-0,083	0,052
-65,636	690,302	-0,040	-0,075
-64,622	47,811	-0,109	0,072
-63,607	233,077	0,110	-0,128
-62,592	-18,102	0,049	-0,022
-61,578	-200,000	0,007	-0,066
-60,563	11,553	-0,064	-0,035
-59,549	-86,396	-0,077	-0,017
-58,534	-57,695	-1,565	-0,482
-57,519	361,985	-1,478	-2,105
-56,505	-200,000	-0,436	-4,540
-55,490	155,246	0,905	0,883
-54,476	800,000	4,900	11,458
-53,461	-200,000	18,291	287,323
-52,446	800,000	727,469	2226,995
-51,432	553,988	1643,339	2809,620
-50,417	79,246	1665,219	1262,622
-49,403	22,910	1539,196	891,278
-48,388	16,876	1462,489	817,635
-47,373	17,834	1452,438	816,597
-46,359	17,235	1442,959	808,372
-45,344	15,189	1438,163	795,886
-44,330	15,079	1436,347	794,320
-43,315	15,050	1434,530	793,148
-42,300	15,164	1432,824	792,717
-41,286	15,163	1431,663	792,037
-40,271	15,126	1430,492	791,181
-39,257	15,112	1429,327	790,438
-38,242	15,150	1427,931	789,816
-37,227	15,163	1426,819	789,230
-36,213	15,171	1425,457	788,483
-35,198	15,170	1424,256	787,785
-34,184	15,173	1423,309	787,244
-33,169	15,089	1422,162	786,181
-32,154	15,161	1421,241	785,980
-31,140	15,163	1419,720	785,116
-30,125	15,172	1418,641	784,534
-29,111	15,189	1417,424	783,907
-28,096	15,137	1416,319	783,023
-27,082	15,072	1415,272	782,106
-26,067	15,057	1414,154	781,389
-25,052	15,041	1413,174	780,738
-24,038	15,105	1412,022	780,371
-23,023	15,052	1411,179	779,626
-22,009	15,079	1409,974	779,055
-20,994	15,027	1409,257	778,386
-19,979	15,035	1408,179	777,800
-18,965	15,000	1407,269	777,101
-17,950	15,019	1406,449	776,704
-16,936	15,004	1405,477	776,068
-15,921	14,987	1404,236	775,273
-14,906	15,022	1403,432	774,961
-13,892	14,981	1402,626	774,294
-12,877	14,958	1401,638	773,612
-11,863	15,011	1400,537	773,220
-10,848	14,995	1399,587	772,592
-9,833	14,938	1398,804	771,862
-8,819	14,898	1398,022	771,213
-7,804	14,879	1397,202	770,642
-6,790	14,916	1395,986	770,111
-5,775	14,915	1394,958	769,513
-4,760	14,924	1394,280	769,150
-3,746	14,871	1393,410	768,394
-2,731	14,886	1392,611	767,993
-1,717	14,860	1391,591	767,277
-0,702	14,837	1389,834	766,173
0,313	18,578	1308,969	738,928
1,327	34,804	707,087	436,781
2,342	53,629	124,691	84,555
3,356	4,204	16,623	8,585
4,371	-0,623	3,225	1,613
5,386	110,263	0,394	0,334
6,400	126,861	0,086	0,077
7,415	-30,890	-0,262	-0,104
8,429	30,519	-0,360	-0,217
9,444	305,039	-0,240	-0,316
10,459	-31,784	-0,306	-0,121
11,473	103,636	-0,266	-0,221
12,488	-21,469	-0,243	-0,105
13,502	10,983	-0,316	-0,170
14,517	28,479	-0,294	-0,175
15,531	122,165	-0,224	-0,198
16,546	49,841	-0,384	-0,255
17,561	316,738	-0,301	-0,403
18,575	10,016	-0,199	-0,107
19,590	292,153	-0,238	-0,307
20,604	73,243	-0,131	-0,097
21,619	32,531	-0,508	-0,309
22,634	43,686	-0,464	-0,299
23,648	109,953	-0,366	-0,310
24,663	-23,308	-0,439	-0,186
25,677	421,925	-0,254	-0,386
26,692	22,765	-0,382	-0,221
27,707	-29,308	-0,318	-0,128
28,721	236,808	-0,212	-0,248
29,736	-30,889	-0,280	-0,111
30,750	-4,441	-0,395	-0,192
31,765	88,572	-0,280	-0,219
32,780	236,920	-0,313	-0,367
33,794	168,131	-0,373	-0,375
34,809	382,765	-0,285	-0,415
35,823	20,965	-0,465	-0,265
36,838	48,473	-0,381	-0,252
37,853	71,100	-0,352	-0,257
38,867	193,318	-0,374	-0,399
39,882	16,187	-0,326	-0,181
40,896	-9,346	-0,398	-0,187
41,911	61,680	-0,345	-0,242
42,926	189,332	-0,379	-0,401
43,940	50,604	-0,418	-0,278
44,955	-22,600	-0,407	-0,173
45,969	40,301	-0,397	-0,252
46,984	115,039	-0,319	-0,274
47,999	234,143	-0,208	-0,242
49,013	-60,570	-0,330	-0,098
50,028	-5,828	-0,294	-0,141
51,042	7,486	-0,428	-0,225
52,057	106,003	-0,231	-0,192
53,071	120,150	-0,236	-0,206
54,086	96,420	-0,323	-0,260
55,101	17,812	-0,371	-0,207
56,115	-50,648	-0,374	-0,123
57,130	69,466	-0,231	-0,167
58,144	135,426	-0,363	-0,332
59,159	7,968	-0,429	-0,226
60,174	110,341	-0,337	-0,285
61,188	68,223	-0,465	-0,335
62,203	0,193	-0,329	-0,165
63,217	33,891	-0,347	-0,212
64,232	233,609	-0,306	-0,356
65,247	45,427	-0,399	-0,259
66,261	-30,053	-0,462	-0,184
67,276	98,927	-0,381	-0,310
68,290	676,469	-0,145	-0,266
69,305	91,126	-0,262	-0,207
70,320	-135,211	-0,369	-0,031
71,334	13,019	-0,253	-0,138
72,349	-9,167	-0,408	-0,191
73,363	-40,720	-0,482	-0,175
74,378	11,131	-0,384	-0,206
75,393	100,061	-0,223	-0,182
76,407	-7,726	-0,322	-0,152
77,422	211,077	-0,234	-0,259
78,436	-111,191	-0,270	-0,038
79,451	-30,203	-0,334	-0,133
80,466	219,430	-0,274	-0,308
81,480	-31,234	-0,260	-0,103
82,495	143,791	-0,283	-0,265
83,509	81,226	-0,314	-0,238
84,524	130,912	-0,308	-0,278
85,539	-14,229	-0,178	-0,080
86,553	25,856	-0,290	-0,169
87,568	256,991	-0,238	-0,288
88,582	23,244	-0,394	-0,227
89,597	187,384	-0,317	-0,332
90,611	575,503	-0,148	-0,254
91,626	36,600	-0,245	-0,152
92,641	178,698	-0,167	-0,171
93,655	-8,578	-0,321	-0,151
94,670	41,841	-0,308	-0,195
95,684	-30,843	-0,282	-0,111
96,699	-73,684	-0,396	-0,100
97,714	340,607	-0,163	-0,224
98,728	141,596	-0,150	-0,140
99,743	-115,783	-0,238	-0,031
100,757	9,585	-0,238	-0,126
101,772	9,559	-0,229	-0,122
102,787	179,991	-0,250	-0,257
103,801	-32,407	-0,239	-0,093
104,816	381,747	-0,113	-0,164
105,830	122,516	-0,234	-0,205
106,845	-53,534	-0,282	-0,090
107,860	37,480	-0,221	-0,137
108,874	-15,155	-0,289	-0,129
109,889	382,355	-0,192	-0,277
110,903	97,923	-0,370	-0,298
111,918	50,406	-0,351	-0,232
112,933	-200,000	-0,089	-0,313
113,947	-16,561	-0,245	-0,108
114,962	-76,276	-0,225	-0,055
115,976	-58,241	-0,271	-0,082
116,991	116,146	-0,244	-0,209
118,006	-55,670	-0,346	-0,108
119,020	381,274	-0,109	-0,158
120,035	189,742	-0,178	-0,187
121,049	91,188	-0,228	-0,179
122,064	11,755	-0,258	-0,138
123,079	109,111	-0,234	-0,196
124,093	21,170	-0,227	-0,129
125,108	3,640	-0,305	-0,155
126,122	86,150	-0,324	-0,250
127,137	510,678	-0,136	-0,223
128,151	474,843	-0,123	-0,196
129,166	377,849	-0,175	-0,252
130,181	13,214	-0,211	-0,114
131,195	112,271	-0,365	-0,309
132,210	680,720	-0,070	-0,127
133,224	-21,997	-0,256	-0,108
134,239	164,715	-0,198	-0,196
135,254	26,868	-0,072	-0,042
136,268	-17,598	-0,116	-0,051
137,283	-19,581	-0,244	-0,105
138,297	86,777	-0,155	-0,119
139,312	115,603	-0,168	-0,144
140,327	57,849	-0,282	-0,192
141,341	800,000	-0,130	-0,296
142,356	800,000	-0,074	-0,178
143,370	-137,725	-0,321	-0,025
144,385	24,146	-0,309	-0,178
145,400	257,366	-0,268	-0,323
146,414	175,241	-0,282	-0,286
147,429	47,810	-0,340	-0,221
148,443	47,405	-0,255	-0,166
149,458	800,000	-0,041	-0,086
150,473	66,453	-0,127	-0,090
151,487	80,031	-0,219	-0,164
152,502	-67,570	-0,269	-0,073
153,516	-78,849	-0,346	-0,082
154,531	240,105	-0,207	-0,241
155,546	163,475	-0,201	-0,197
156,560	-102,643	-0,269	-0,044
157,575	-153,234	-0,241	0,012
158,589	191,139	-0,139	-0,146
159,604	723,733	-0,119	-0,222
160,619	-82,078	-0,225	-0,051
161,633	25,468	-0,383	-0,222
162,648	35,771	-0,406	-0,249
163,662	96,372	-0,253	-0,202
164,677	-55,501	-0,322	-0,100
165,692	51,651	-0,272	-0,180
166,706	67,856	-0,332	-0,236
167,721	100,382	-0,176	-0,143
168,735	-51,864	-0,397	-0,128
169,750	90,749	-0,185	-0,145
170,764	493,466	-0,122	-0,196
171,779	170,120	-0,220	-0,219
172,794	-107,612	-0,262	0,039
173,808	38,389	-0,113	-0,070
174,823	-72,475	-0,268	-0,069
175,837	56,400	-0,188	-0,127
176,852	458,965	-0,126	-0,196
177,867	231,952	-0,194	-0,222
178,881	-74,411	-0,323	-0,081
179,896	173,101	-0,190	-0,191
180,910	-4,932	-0,246	-0,118
181,925	94,167	-0,108	-0,085
182,940	28,698	-0,379	-0,223
183,954	242,639	-0,168	-0,197
184,969	70,818	-0,270	-0,194
185,983	79,122	-0,144	-0,107
186,998	800,000	-0,102	-0,206
188,013	-29,771	-0,202	-0,080
189,027	18,154	-0,341	-0,189
190,042	217,294	-0,208	-0,231
191,056	247,965	-0,169	-0,200
192,071	-153,698	-0,110	0,005
193,086	800,000	-0,099	-0,223
194,100	129,188	-0,215	-0,191
195,115	18,650	-0,272	-0,151
196,129	-77,908	-0,213	-0,051
197,144	-49,339	-0,254	-0,084
198,159	-200,000	-0,054	-0,173
199,173	80,304	-0,246	-0,184
200,188	-20,007	-0,237	-0,101
201,202	69,298	-0,159	-0,114
202,217	-30,356	-0,287	-0,113
203,232	74,328	-0,212	-0,154
204,246	374,222	-0,218	-0,309
205,261	116,332	-0,302	-0,257
206,275	154,244	-0,127	-0,122
207,290	62,028	-0,206	-0,142
208,304	-86,878	-0,120	-0,025
209,319	234,411	-0,180	-0,207
210,334	-25,580	-0,269	-0,110
211,348	64,935	-0,358	-0,251
212,363	800,000	-0,110	-0,267
213,377	-149,298	-0,225	-0,012
214,392	136,711	0,063	-0,057
215,407	130,982	-0,194	-0,173
216,421	8,831	-0,211	-0,110
217,436	170,662	-0,271	-0,269
218,450	129,288	-0,276	-0,245
219,465	107,927	-0,139	-0,115
220,480	549,891	-0,073	-0,122
221,494	-43,262	-0,152	-0,053
222,509	159,457	-0,221	-0,214
223,523	180,706	-0,082	-0,084
224,538	42,818	-0,173	-0,109
225,553	254,362	-0,144	-0,171
226,567	64,113	-0,233	-0,162
227,582	69,463	-0,204	-0,146
228,596	6,718	-0,174	-0,090
229,611	118,895	-0,155	-0,133
230,626	-110,980	-0,223	-0,031
231,640	1,920	-0,128	-0,064
232,655	800,000	-0,149	-0,294
233,669	686,627	-0,135	-0,245
234,684	178,395	-0,044	-0,045
235,699	220,346	-0,207	-0,231
236,713	55,349	-0,083	-0,056
237,728	-104,627	-0,313	-0,050
238,742	-136,734	-0,184	-0,014
239,757	560,953	-0,186	-0,313
240,772	-102,731	-0,257	-0,042
241,786	800,000	-0,042	-0,119
242,801	800,000	-0,112	-0,217
243,815	-51,055	-0,176	-0,057
244,830	-74,087	-0,240	-0,060
245,844	10,169	-0,242	-0,127
246,859	34,802	-0,201	-0,122
247,874	-23,610	-0,211	-0,087
248,888	38,274	-0,141	-0,087
249,903	61,742	-0,199	-0,137
250,917	59,694	-0,204	-0,139
251,932	-144,921	-0,125	-0,008
252,947	243,354	-0,087	-0,102
253,961	464,309	-0,161	-0,249
254,976	83,074	-0,196	-0,147
255,990	745,735	-0,092	-0,172
257,005	292,330	-0,123	-0,156
258,020	-4,095	-0,149	-0,071
259,034	-19,756	-0,200	-0,085
260,049	-115,803	-0,133	-0,017
261,063	30,343	-0,206	-0,122
262,078	207,656	-0,153	-0,165
263,093	-94,451	-0,246	-0,046
264,107	-8,617	-0,275	-0,127
265,122	-140,098	-0,125	0,009
266,136	301,891	0,027	-0,035
267,151	-39,376	-0,238	-0,086
268,166	321,921	-0,126	-0,166
269,180	2,577	-0,199	-0,099
270,195	-67,162	-0,253	-0,068
271,209	-90,302	-0,166	-0,033
272,224	171,237	-0,164	-0,163
273,239	-37,910	-0,126	0,046
274,253	-108,561	-0,196	0,029
275,268	130,710	-0,312	-0,277
276,282	800,000	-0,101	-0,208
277,297	163,532	-0,221	-0,215
278,312	43,322	-0,156	-0,098
279,326	-24,832	-0,141	-0,057
280,341	-200,000	-0,009	-0,195
281,355	0,580	-0,198	-0,097
282,370	26,075	-0,167	-0,096
283,384	-102,832	-0,130	-0,021
284,399	116,445	-0,120	-0,101
285,414	-175,269	-0,144	0,003
286,428	72,605	-0,124	-0,089
287,443	-186,476	-0,088	0,001
288,457	69,358	-0,143	-0,102
289,472	-2,916	-0,141	-0,068
290,487	93,977	-0,253	-0,198
291,501	135,288	-0,182	-0,164
292,516	293,442	-0,152	-0,192
293,530	-21,186	-0,159	-0,067
294,545	196,441	-0,104	-0,109
295,560	4,677	-0,215	-0,109
296,574	57,884	-0,119	-0,080
297,589	171,238	-0,082	-0,081
298,603	-112,346	-0,213	-0,029
299,618	147,743	-0,162	-0,150
300,633	-80,397	-0,221	-0,051
301,647	624,929	-0,020	0,034
302,662	800,000	-0,031	-0,075
303,676	800,000	-0,093	-0,180
304,691	52,894	-0,168	-0,111
305,706	-94,047	-0,218	-0,041
306,720	413,081	-0,165	-0,242
307,735	16,736	-0,168	-0,091
308,749	-54,920	-0,099	-0,031
309,764	276,937	-0,101	-0,124
310,779	24,713	-0,233	-0,133
311,793	10,574	-0,203	-0,106
312,808	800,000	-0,099	-0,224
313,822	16,899	-0,148	-0,081
314,837	162,926	-0,083	-0,080
315,852	83,601	-0,120	0,090
316,866	-175,736	-0,098	-0,002
317,881	241,804	-0,086	-0,099
318,895	62,568	-0,134	-0,092
319,910	134,117	-0,149	-0,133
320,925	23,692	-0,249	-0,141
321,939	-87,908	-0,100	-0,021
322,954	800,000	-0,137	-0,279
323,968	-73,705	-0,186	-0,046
324,983	-58,419	-0,041	-0,012
325,997	-29,520	-0,123	0,048
327,012	124,326	-0,154	-0,133
328,027	501,771	-0,129	-0,206
329,041	236,189	-0,168	-0,191
330,056	-20,707	-0,087	-0,037
331,070	201,726	-0,183	-0,194
332,085	214,199	-0,178	-0,194
333,100	-89,856	-0,152	-0,030
334,114	410,937	-0,070	-0,102
335,129	95,433	-0,150	-0,117
336,143	9,998	-0,145	-0,075
337,158	800,000	-0,044	-0,119
338,173	343,181	-0,113	-0,153
339,187	450,875	-0,036	-0,054
340,202	-0,865	-0,156	-0,076
341,216	265,214	-0,216	-0,259
342,231	20,150	-0,194	-0,107
343,246	-131,598	-0,115	-0,010
344,260	177,301	-0,167	-0,167
345,275	-191,669	-0,109	0,001
346,289	800,000	-0,044	-0,089
347,304	-33,993	-0,106	0,040
348,319	222,577	-0,164	-0,181
349,333	800,000	-0,124	-0,277
350,348	800,000	-0,043	-0,106
351,362	66,075	-0,126	-0,087
352,377	88,429	-0,125	-0,095
353,392	115,551	-0,185	0,155
354,406	-200,000	-0,030	0,118
355,421	208,510	1316,201	1414,078
356,435	160,445	1477,108	1414,587
