DTS Sentinel unit serial number:	SN410029Multiplexer serial number:	ORYXHardware model number:	OX2-SRSoftware version number:	ORYX F/W v4,00 Oryx Data Collector v3.7.2.0data status	okinstallation	B3 Nyhavnadifferential loss correction	single-endedforward channel	channel 1reverse channel	N/Adate	2023/12/05time	06:42:30forward acquisition time	300,00reverse acquisition time	0,00gamma	499,1914k internal	0,3201k external	0,3201temperature offset calibration	1,0000default loss term (dB/km)	0,3820temperature slope calibration	1,0000multiplexer offset coefficient	1,0000multiplexer slope coefficient	1,0000fibre end	0,00T internal ref (°C)	13,94T ext. ref 1 (°C)	-0,89T ext. ref 2 (°C)	-0,91length (m)	temperature (°C)	Stokes	anti-Stokes-744,400	104,792	-0,150	-0,128
-743,385	-200,000	-0,031	0,242
-742,371	-200,000	0,012	-0,212
-741,356	-200,000	-0,025	0,350
-740,342	11,966	-0,170	-0,095
-739,327	745,170	0,098	0,192
-738,312	145,223	-0,287	-0,280
-737,298	-200,000	-0,071	0,347
-736,283	593,522	-0,161	-0,291
-735,269	-200,000	0,027	0,408
-734,254	15,565	-0,165	-0,094
-733,239	70,641	-0,207	0,156
-732,225	800,000	-0,106	-0,251
-731,210	-200,000	-0,004	0,121
-730,196	303,131	-0,079	0,107
-729,181	800,000	0,043	-0,109
-728,167	-80,608	0,053	0,013
-727,152	-139,383	-0,097	-0,007
-726,137	-200,000	0,003	-0,033
-725,123	30,025	-0,056	0,034
-724,108	-200,000	-0,012	-0,106
-723,094	-200,000	-0,004	-0,082
-722,079	-30,207	-0,193	0,079
-721,064	-200,000	-0,003	0,107
-720,050	749,039	-0,008	-0,016
-719,035	380,120	0,035	0,052
-718,021	-73,459	-0,024	0,006
-717,006	-118,615	-0,049	-0,006
-715,991	-25,692	-0,143	-0,061
-714,977	-12,349	-0,049	-0,023
-713,962	-56,058	0,040	0,013
-712,948	7,677	0,131	-0,071
-711,933	-149,709	-0,099	0,006
-710,918	-151,971	0,087	0,005
-709,904	61,153	0,012	0,009
-708,889	-125,259	0,089	-0,010
-707,875	-32,480	-0,017	-0,007
-706,860	-200,000	-0,008	-0,028
-705,845	274,441	0,076	0,097
-704,831	-47,545	0,063	0,022
-703,816	-100,731	0,098	-0,017
-702,802	-200,000	-0,005	-0,084
-701,787	175,309	0,056	-0,059
-700,772	120,625	0,104	-0,094
-699,758	-60,939	-0,100	0,031
-698,743	130,200	0,127	0,118
-697,729	643,231	0,022	-0,041
-696,714	-200,000	0,001	-0,054
-695,699	36,801	-0,085	0,054
-694,685	156,129	0,082	0,082
-693,670	-18,263	-0,018	-0,008
-692,656	-66,020	-0,141	-0,041
-691,641	174,822	0,075	0,079
-690,627	606,394	-0,017	-0,031
-689,612	302,446	-0,014	0,019
-688,597	-65,495	0,062	0,018
-687,583	49,032	-0,116	-0,079
-686,568	-49,628	-0,023	-0,008
-685,554	-200,000	-0,012	0,068
-684,539	302,524	0,065	-0,087
-683,524	-148,292	0,085	-0,005
-682,510	-200,000	0,030	0,132
-681,495	-103,495	-0,143	-0,024
-680,481	414,896	0,017	0,027
-679,466	64,059	0,010	-0,008
-678,451	80,599	-0,112	-0,088
-677,437	219,122	-0,061	0,071
-676,422	-200,000	-0,012	0,143
-675,408	171,652	-0,048	-0,050
-674,393	-63,568	-0,123	0,036
-673,378	260,896	-0,026	0,033
-672,364	-7,949	-0,102	-0,050
-671,349	65,162	-0,070	0,051
-670,335	800,000	-0,039	0,121
-669,320	-53,205	-0,032	-0,011
-668,305	226,710	0,086	0,101
-667,291	-38,659	-0,087	-0,033
-666,276	-178,826	-0,074	0,001
-665,262	122,883	-0,101	-0,091
-664,247	-200,000	-0,012	-0,048
-663,232	-17,722	0,091	0,041
-662,218	800,000	-0,044	0,124
-661,203	202,753	0,070	0,079
-660,189	-200,000	-0,036	-0,184
-659,174	0,009	-0,087	0,045
-658,159	-200,000	0,043	-0,172
-657,145	49,103	-0,077	-0,053
-656,130	-149,884	0,087	0,005
-655,116	-200,000	-0,008	0,129
-654,101	800,000	0,070	0,157
-653,086	67,958	-0,073	-0,054
-652,072	800,000	-0,017	-0,051
-651,057	454,382	-0,023	0,037
-650,043	-200,000	-0,011	0,054
-649,028	-200,000	-0,054	0,000
-648,014	-200,000	0,007	-0,034
-646,999	744,996	-0,017	-0,033
-645,984	800,000	-0,032	0,071
-644,970	200,107	-0,033	0,037
-643,955	235,513	-0,115	-0,138
-642,941	-25,280	-0,207	-0,088
-641,926	520,877	-0,027	-0,047
-640,911	-200,000	-0,011	0,066
-639,897	-200,000	-0,000	-0,043
-638,882	-177,632	-0,035	0,001
-637,868	131,876	-0,063	0,059
-636,853	-200,000	0,019	-0,103
-635,838	-10,347	-0,157	-0,075
-634,824	108,763	-0,118	-0,102
-633,809	275,953	0,084	0,108
-632,795	-108,502	0,100	0,015
-631,780	-58,797	0,172	0,053
-630,765	204,540	0,022	0,024
-629,751	-45,072	-0,100	-0,036
-628,736	-137,256	-0,114	-0,009
-627,722	-200,000	0,007	-0,042
-626,707	-200,000	-0,015	0,080
-625,692	-200,000	0,019	0,073
-624,678	-110,083	-0,029	0,004
-623,663	522,773	0,006	0,011
-622,649	-99,806	-0,027	0,005
-621,634	-200,000	-0,020	-0,084
-620,619	16,383	-0,026	0,015
-619,605	511,891	0,056	-0,095
-618,590	-158,790	0,095	0,004
-617,576	469,212	0,096	0,157
-616,561	-83,943	0,040	-0,009
-615,546	295,249	-0,107	-0,142
-614,532	-103,034	-0,040	0,007
-613,517	-57,559	-0,050	0,016
-612,503	165,765	-0,071	-0,072
-611,488	-21,237	0,090	-0,040
-610,474	237,638	0,033	-0,040
-609,459	-200,000	0,001	0,033
-608,444	-24,762	-0,042	-0,018
-607,430	-0,516	-0,131	0,067
-606,415	28,762	-0,061	-0,037
-605,401	800,000	0,028	-0,057
-604,386	167,861	0,036	-0,037
-603,371	-200,000	0,039	-0,132
-602,357	165,195	0,052	0,054
-601,342	-200,000	0,012	0,105
-600,328	-154,080	-0,071	0,003
-599,313	-37,208	-0,039	0,015
-598,298	-200,000	-0,001	-0,040
-597,284	10,341	0,101	-0,055
-596,269	14,673	0,097	0,055
-595,255	-27,008	0,101	0,042
-594,240	159,458	-0,093	-0,094
-593,225	149,223	-0,044	-0,043
-592,211	182,669	-0,032	-0,034
-591,196	800,000	-0,028	-0,065
-590,182	800,000	-0,038	-0,096
-589,167	-200,000	-0,032	0,149
-588,152	-200,000	-0,006	-0,106
-587,138	-53,466	0,135	0,045
-586,123	-94,325	-0,266	0,052
-585,109	258,478	-0,069	-0,087
-584,094	800,000	0,011	-0,024
-583,079	-31,314	0,044	-0,018
-582,065	-200,000	-0,034	0,136
-581,050	-200,000	-0,003	-0,011
-580,036	800,000	-0,053	-0,147
-579,021	-200,000	-0,000	0,043
-578,006	-123,918	-0,163	0,018
-576,992	85,742	0,032	0,026
-575,977	51,816	0,050	0,034
-574,963	560,459	-0,017	0,030
-573,948	557,896	0,040	-0,070
-572,934	174,778	-0,120	0,125
-571,919	-146,012	-0,188	0,012
-570,904	487,363	0,049	-0,081
-569,890	622,669	0,029	0,053
-568,875	-92,396	-0,087	-0,017
-567,861	70,694	0,052	-0,039
-566,846	-138,319	-0,121	-0,009
-565,831	-174,228	0,135	0,003
-564,817	-200,000	0,027	-0,090
-563,802	161,152	-0,074	-0,074
-562,788	-196,344	0,043	-0,000
-561,773	1,248	0,165	-0,086
-560,758	-86,750	-0,119	-0,026
-559,744	59,039	0,113	-0,080
-558,729	25,077	0,075	0,045
-557,715	-153,480	-0,093	-0,005
-556,700	-6,080	-0,034	0,017
-555,685	-200,000	-0,022	-0,089
-554,671	-13,638	0,101	0,047
-553,656	-13,295	-0,027	-0,013
-552,642	-54,512	0,062	0,020
-551,627	-92,484	-0,087	0,017
-550,612	-200,000	0,036	-0,118
-549,598	88,695	-0,074	0,059
-548,583	788,525	0,015	0,030
-547,569	-162,111	-0,081	0,003
-546,554	-104,198	-0,077	0,013
-545,539	-62,777	0,102	0,030
-544,525	407,437	-0,021	-0,032
-543,510	-98,652	-0,091	-0,017
-542,496	-200,000	0,011	-0,102
-541,481	-200,000	-0,023	0,130
-540,466	5,987	-0,090	-0,048
-539,452	-23,804	0,037	-0,016
-538,437	4,543	-0,083	0,044
-537,423	-200,000	-0,009	0,062
-536,408	-200,000	-0,009	0,039
-535,393	9,092	0,023	-0,012
-534,379	-26,404	-0,097	0,041
-533,364	341,526	-0,090	0,128
-532,350	295,733	0,029	0,039
-531,335	-200,000	0,003	0,191
-530,321	-0,767	0,012	-0,006
-529,306	-15,539	0,075	-0,035
-528,291	-200,000	0,004	-0,028
-527,277	800,000	-0,015	-0,034
-526,262	47,572	-0,109	0,073
-525,248	162,394	0,070	-0,071
-524,233	113,607	0,104	0,091
-523,218	-200,000	0,001	0,063
-522,204	65,567	-0,034	-0,025
-521,189	800,000	0,058	-0,126
-520,175	33,942	0,053	-0,033
-519,160	-87,489	-0,092	-0,020
-518,145	-200,000	0,025	0,083
-517,131	8,884	-0,057	0,031
-516,116	791,864	0,056	0,111
-515,102	468,197	-0,018	0,030
-514,087	-200,000	0,034	0,124
-513,072	126,556	0,035	0,032
-512,058	106,088	0,110	-0,094
-511,043	-167,677	-0,129	-0,004
-510,029	-178,594	0,114	0,002
-509,014	-125,607	0,106	-0,011
-507,999	240,690	0,043	0,051
-506,985	-200,000	0,005	-0,053
-505,970	295,830	-0,099	-0,131
-504,956	5,985	0,041	0,022
-503,941	15,425	-0,014	0,008
-502,926	155,728	0,131	0,130
-501,912	-73,599	0,096	-0,025
-500,897	-37,073	-0,149	-0,057
-499,883	-200,000	-0,008	-0,129
-498,868	-200,000	0,018	-0,153
-497,853	113,001	-0,083	-0,072
-496,839	770,360	-0,016	-0,032
-495,824	12,365	0,097	-0,054
-494,810	73,275	0,142	0,107
-493,795	-200,000	0,001	0,143
-492,781	-50,092	-0,124	0,042
-491,766	-200,000	0,020	0,067
-490,751	379,012	-0,016	-0,024
-489,737	164,798	0,041	0,042
-488,722	-0,905	-0,031	0,016
-487,708	-90,591	0,057	0,012
-486,693	147,554	-0,131	0,127
-485,678	-200,000	-0,007	0,079
-484,664	800,000	-0,067	-0,191
-483,649	-200,000	0,010	-0,068
-482,635	-73,069	-0,125	0,033
-481,620	800,000	0,031	0,075
-480,605	-74,857	0,134	0,034
-479,591	-113,861	0,050	-0,007
-478,576	-111,950	-0,052	0,007
-477,562	-40,696	-0,087	-0,032
-476,547	-200,000	-0,017	-0,079
-475,532	800,000	0,033	-0,084
-474,518	-200,000	0,011	0,167
-473,503	-200,000	0,001	0,043
-472,489	716,348	0,037	-0,071
-471,474	-115,104	-0,145	-0,020
-470,459	-44,375	0,083	-0,030
-469,445	113,701	-0,047	0,041
-468,430	800,000	-0,057	-0,125
-467,416	250,088	-0,059	-0,072
-466,401	371,681	0,046	0,067
-465,386	-200,000	0,010	0,165
-464,372	-200,000	-0,004	-0,064
-463,357	159,760	-0,071	0,071
-462,343	221,306	-0,047	0,054
-461,328	139,972	-0,036	0,034
-460,313	17,065	-0,204	0,116
-459,299	553,278	0,025	-0,043
-458,284	495,520	-0,098	0,162
-457,270	181,825	0,058	0,062
-456,255	-200,000	-0,008	-0,050
-455,241	-106,529	-0,095	-0,015
-454,226	-200,000	0,010	0,035
-453,211	84,825	0,056	-0,044
-452,197	139,660	0,047	0,045
-451,182	800,000	0,048	0,099
-450,168	-124,879	0,155	0,017
-449,153	800,000	0,013	-0,038
-448,138	302,127	-0,080	0,106
-447,124	800,000	-0,019	0,038
-446,109	21,716	-0,130	-0,076
-445,095	-105,124	0,151	-0,025
-444,080	-200,000	-0,038	0,149
-443,065	-200,000	0,006	0,111
-442,051	-200,000	-0,005	-0,038
-441,036	800,000	0,045	-0,129
-440,022	158,908	0,037	-0,037
-439,007	-200,000	-0,007	0,087
-437,992	62,442	0,121	0,087
-436,978	415,581	-0,034	-0,053
-435,963	303,504	0,047	0,062
-434,949	-200,000	-0,005	0,021
-433,934	-200,000	0,036	-0,125
-432,919	-200,000	-0,010	-0,041
-431,905	-129,604	-0,179	0,018
-430,890	-200,000	-0,016	0,065
-429,876	-200,000	0,022	-0,105
-428,861	-94,675	-0,162	-0,031
-427,846	278,552	0,050	0,065
-426,832	-200,000	-0,023	-0,185
-425,817	800,000	-0,048	-0,116
-424,803	-125,950	0,029	-0,003
-423,788	212,641	0,105	-0,120
-422,773	-200,000	0,024	0,122
-421,759	-77,591	0,115	-0,028
-420,744	-200,000	-0,003	-0,109
-419,730	-200,000	-0,006	0,032
-418,715	59,402	0,035	-0,024
-417,701	-200,000	-0,017	-0,111
-416,686	800,000	0,056	0,140
-415,671	-136,599	0,108	0,009
-414,657	491,843	0,038	0,063
-413,642	800,000	-0,029	0,075
-412,628	-191,097	0,028	-0,000
-411,613	-200,000	-0,040	-0,157
-410,598	-200,000	0,020	-0,164
-409,584	86,623	0,051	-0,041
-408,569	-200,000	0,045	0,147
-407,555	187,208	0,062	-0,066
-406,540	445,676	-0,038	-0,060
-405,525	-93,892	0,092	-0,018
-404,511	62,131	0,157	0,112
-403,496	48,966	-0,068	-0,046
-402,482	-200,000	0,030	0,184
-401,467	-117,918	0,118	-0,015
-400,452	-200,000	-0,012	0,071
-399,438	241,259	0,044	0,052
-398,423	-200,000	0,009	-0,130
-397,409	316,548	-0,043	-0,059
-396,394	-10,109	-0,107	-0,051
-395,379	-175,112	0,192	0,004
-394,365	262,793	-0,046	-0,057
-393,350	-171,415	0,154	-0,004
-392,336	-200,000	0,012	-0,044
-391,321	-200,000	0,007	-0,024
-390,306	-200,000	0,012	-0,077
-389,292	-49,528	-0,086	0,029
-388,277	-200,000	0,013	-0,100
-387,263	32,297	-0,093	0,057
-386,248	-23,663	0,051	0,022
-385,233	116,136	0,092	0,081
-384,219	-17,077	-0,088	0,040
-383,204	-200,000	0,017	-0,108
-382,190	741,695	-0,008	0,015
-381,175	-28,235	-0,034	-0,014
-380,160	-30,450	0,082	0,033
-379,146	-143,252	0,169	-0,011
-378,131	-200,000	0,030	0,141
-377,117	800,000	-0,060	0,125
-376,102	-200,000	0,038	0,140
-375,088	-0,381	-0,110	0,056
-374,073	675,997	-0,024	0,045
-373,058	-200,000	0,013	0,160
-372,044	-200,000	-0,005	-0,092
-371,029	-47,119	-0,137	-0,048
-370,015	374,818	0,123	-0,180
-369,000	422,916	-0,057	-0,089
-367,985	498,039	0,021	0,034
-366,971	800,000	-0,016	-0,040
-365,956	-200,000	0,034	-0,182
-364,942	97,954	0,089	0,073
-363,927	365,419	-0,042	0,061
-362,912	800,000	-0,053	0,144
-361,898	126,632	0,051	-0,046
-360,883	-86,217	-0,051	0,011
-359,869	115,376	0,069	-0,060
-358,854	237,813	-0,029	-0,034
-357,839	-200,000	0,001	-0,009
-356,825	-200,000	0,006	0,035
-355,810	-200,000	-0,036	-0,116
-354,796	88,645	-0,055	-0,044
-353,781	-200,000	0,000	-0,167
-352,766	-131,642	0,064	-0,006
-351,752	95,676	0,075	-0,061
-350,737	-200,000	-0,008	0,120
-349,723	-161,009	0,047	0,002
-348,708	8,807	0,075	0,041
-347,693	242,495	-0,098	0,117
-346,679	-72,662	0,047	-0,012
-345,664	-145,423	0,097	0,006
-344,650	-166,380	0,050	0,001
-343,635	-41,660	0,080	0,029
-342,620	-36,223	-0,023	0,009
-341,606	35,688	-0,103	0,064
-340,591	-116,159	0,031	-0,004
-339,577	-200,000	-0,004	-0,023
-338,562	-200,000	-0,007	-0,179
-337,548	-147,596	-0,124	0,007
-336,533	-1,868	0,148	-0,074
-335,518	-200,000	0,001	-0,009
-334,504	-200,000	-0,003	-0,076
-333,489	425,523	0,025	0,038
-332,475	82,304	0,009	-0,007
-331,460	263,802	-0,089	-0,111
-330,445	-200,000	-0,003	-0,029
-329,431	356,354	-0,079	0,113
-328,416	355,491	0,040	0,057
-327,402	-58,041	-0,102	0,032
-326,387	182,068	0,064	0,068
-325,372	-200,000	0,000	0,014
-324,358	800,000	-0,038	-0,109
-323,343	52,004	0,072	-0,049
-322,329	-95,138	-0,080	0,015
-321,314	-26,086	0,151	0,063
-320,299	-200,000	-0,026	0,129
-319,285	531,429	0,084	0,143
-318,270	391,825	-0,031	-0,047
-317,256	-64,151	-0,137	-0,040
-316,241	419,243	-0,028	-0,043
-315,226	16,744	0,081	-0,046
-314,212	-200,000	0,004	-0,012
-313,197	-32,149	0,040	-0,016
-312,183	800,000	0,009	-0,024
-311,168	39,375	-0,063	-0,040
-310,153	-200,000	0,058	-0,207
-309,139	-68,577	-0,263	-0,072
-308,124	-55,828	0,166	-0,053
-307,110	176,926	0,020	0,020
-306,095	800,000	0,119	0,249
-305,080	-200,000	0,002	0,056
-304,066	337,996	0,083	0,116
-303,051	39,516	-0,086	-0,055
-302,037	181,150	-0,029	-0,031
-301,022	53,030	0,104	-0,071
-300,008	-36,205	0,051	0,020
-298,993	800,000	-0,038	0,109
-297,978	94,655	0,126	0,102
-296,964	-83,925	0,091	-0,021
-295,949	-200,000	0,000	-0,047
-294,935	615,727	-0,039	-0,071
-293,920	42,661	0,059	-0,038
-292,905	-200,000	-0,021	-0,067
-291,891	-59,038	0,086	0,026
-290,876	96,840	-0,101	0,083
-289,862	-67,727	-0,067	0,019
-288,847	0,337	-0,086	-0,044
-287,832	800,000	-0,048	-0,133
-286,818	-55,148	-0,072	-0,023
-285,803	-64,018	0,040	0,012
-284,789	-200,000	-0,047	0,214
-283,774	-200,000	0,008	0,033
-282,759	794,210	-0,030	-0,060
-281,745	-200,000	0,006	0,026
-280,730	28,219	-0,077	0,046
-279,716	-200,000	-0,007	-0,055
-278,701	-48,887	0,114	0,039
-277,686	644,158	-0,057	-0,104
-276,672	800,000	-0,018	-0,040
-275,657	27,123	0,052	-0,031
-274,643	157,511	-0,073	0,072
-273,628	-132,853	-0,052	-0,005
-272,613	95,368	0,059	0,048
-271,599	-200,000	0,027	0,101
-270,584	800,000	-0,058	0,127
-269,570	800,000	-0,067	0,137
-268,555	296,252	0,118	0,154
-267,540	62,894	0,116	-0,083
-266,526	-144,349	0,051	-0,003
-265,511	66,237	0,083	-0,060
-264,497	426,919	-0,016	0,024
-263,482	-32,617	-0,101	-0,040
-262,467	-40,859	-0,027	-0,010
-261,453	-131,689	0,074	0,007
-260,438	-194,431	0,041	0,000
-259,424	-43,024	0,053	0,019
-258,409	-27,666	0,089	-0,037
-257,395	-200,000	-0,012	-0,059
-256,380	156,976	0,090	-0,089
-255,365	478,696	0,046	0,075
-254,351	-200,000	0,002	-0,030
-253,336	-200,000	0,002	0,009
-252,322	-11,091	-0,159	-0,074
-251,307	-200,000	0,015	0,062
-250,292	169,769	0,017	-0,017
-249,278	-130,052	0,088	0,008
-248,263	-51,989	0,096	-0,032
-247,249	-106,469	-0,163	-0,026
-246,234	134,374	-0,084	0,078
-245,219	-80,320	-0,104	-0,025
-244,205	-115,531	-0,099	0,013
-243,190	-200,000	0,003	-0,013
-242,176	-95,926	0,139	0,026
-241,161	-200,000	-0,007	0,064
-240,146	125,293	0,066	0,060
-239,132	-114,358	0,021	-0,003
-238,117	-200,000	0,014	0,146
-237,103	-200,000	-0,002	-0,085
-236,088	-48,154	-0,137	-0,047
-235,073	15,946	0,227	0,127
-234,059	-8,750	0,107	0,051
-233,044	89,087	-0,015	-0,012
-232,030	-200,000	0,015	-0,080
-231,015	58,569	0,100	-0,070
-230,000	214,923	-0,003	0,003
-228,986	39,591	-0,030	0,019
-227,971	25,641	-0,080	0,048
-226,957	-72,772	-0,193	0,050
-225,942	348,602	0,067	-0,095
-224,927	-23,990	0,140	0,059
-223,913	217,193	-0,081	0,092
-222,898	800,000	-0,024	0,067
-221,884	257,315	0,036	0,045
-220,869	-96,656	0,133	-0,025
-219,855	-8,844	0,089	-0,043
-218,840	-200,000	0,013	0,123
-217,825	-44,034	0,090	-0,032
-216,811	800,000	0,059	0,121
-215,796	799,466	-0,069	-0,136
-214,782	56,973	-0,030	-0,021
-213,767	-164,294	0,107	-0,003
-212,752	-105,715	0,187	0,030
-211,738	-121,242	-0,132	-0,016
-210,723	21,095	-0,092	0,053
-209,709	488,458	-0,042	-0,068
-208,694	128,760	-0,047	-0,043
-207,679	-115,673	0,086	0,011
-206,665	-200,000	-0,040	-0,161
-205,650	74,643	-0,031	0,023
-204,636	-128,735	0,185	-0,018
-203,621	-200,000	-0,000	0,032
-202,606	156,992	-0,072	-0,071
-201,592	-200,000	-0,006	-0,157
-200,577	-200,000	-0,007	-0,130
-199,563	-27,253	-0,116	-0,048
-198,548	142,809	0,138	0,131
-197,533	422,425	-0,024	-0,036
-196,519	491,573	0,043	0,071
-195,504	-71,192	-0,165	-0,044
-194,490	800,000	0,012	0,032
-193,475	323,788	0,150	-0,204
-192,460	-200,000	-0,036	0,133
-191,446	-11,274	-0,120	0,056
-190,431	-200,000	-0,040	-0,153
-189,417	-20,214	0,072	0,031
-188,402	42,920	-0,031	-0,020
-187,387	-200,000	-0,009	0,053
-186,373	1,575	-0,023	-0,012
-185,358	205,217	-0,039	-0,043
-184,344	399,779	0,098	0,146
-183,329	402,962	-0,041	0,061
-182,315	50,517	-0,010	-0,007
-181,300	-1,692	-0,057	-0,028
-180,285	-29,667	-0,096	0,039
-179,271	65,766	0,030	0,022
-178,256	800,000	0,047	-0,116
-177,242	34,495	0,127	0,079
-176,227	800,000	0,018	0,044
-175,212	170,822	-0,057	0,058
-174,198	309,667	0,034	0,045
-173,183	715,238	0,039	-0,073
-172,169	-200,000	-0,036	-0,184
-171,154	-200,000	0,018	-0,146
-170,139	-200,000	0,007	0,056
-169,125	-200,000	-0,000	0,168
-168,110	43,281	-0,091	-0,059
-167,096	-185,127	-0,041	0,000
-166,081	-36,488	-0,135	-0,052
-165,066	800,000	0,009	0,028
-164,052	800,000	-0,081	0,171
-163,037	270,921	-0,049	0,062
-162,023	165,694	-0,070	0,071
-161,008	526,342	-0,022	-0,037
-159,993	-200,000	0,004	0,020
-158,979	-200,000	-0,026	-0,124
-157,964	11,804	-0,072	-0,039
-156,950	32,169	-0,070	0,043
-155,935	-70,420	0,097	0,026
-154,920	-43,672	0,186	-0,066
-153,906	-200,000	-0,001	0,079
-152,891	-103,687	0,094	0,016
-151,877	72,265	0,058	0,043
-150,862	-73,898	0,017	-0,004
-149,847	76,168	0,042	0,032
-148,833	497,011	-0,008	0,013
-147,818	113,847	0,144	0,125
-146,804	159,526	0,068	0,068
-145,789	-84,816	0,075	-0,017
-144,775	-200,000	-0,002	0,081
-143,760	800,000	0,020	0,041
-142,745	-110,147	-0,104	-0,015
-141,731	166,276	-0,063	0,064
-140,716	171,809	0,068	0,069
-139,702	-200,000	-0,009	0,040
-138,687	-52,203	-0,035	-0,011
-137,672	-200,000	0,013	-0,059
-136,658	-181,150	-0,148	-0,002
-135,643	621,360	0,079	-0,142
-134,629	-200,000	0,001	-0,163
-133,614	800,000	0,041	0,126
-132,599	-152,082	-0,074	-0,004
-131,585	-36,711	-0,027	0,010
-130,570	-200,000	0,049	-0,216
-129,556	-66,852	0,104	-0,029
-128,541	161,086	0,105	-0,104
-127,526	39,546	0,042	0,027
-126,512	-19,819	0,131	0,057
-125,497	-155,965	0,145	0,006
-124,483	-45,016	-0,072	-0,025
-123,468	239,407	-0,078	-0,092
-122,453	274,611	0,036	0,045
-121,439	-200,000	0,023	-0,088
-120,424	-200,000	0,003	0,072
-119,410	800,000	0,040	-0,113
-118,395	-10,797	0,067	0,031
-117,380	-200,000	0,001	0,012
-116,366	-84,631	-0,119	0,026
-115,351	-114,476	0,061	0,008
-114,337	-200,000	0,011	-0,072
-113,322	-84,857	-0,233	0,051
-112,307	-22,132	-0,150	0,064
-111,293	-43,938	0,107	0,038
-110,278	-200,000	0,004	0,092
-109,264	319,556	0,071	-0,096
-108,249	728,228	0,046	0,087
-107,234	-200,000	0,008	-0,118
-106,220	-50,848	-0,106	0,035
-105,205	-200,000	-0,006	0,073
-104,191	72,526	0,052	-0,039
-103,176	800,000	-0,004	0,012
-102,162	188,195	0,087	-0,092
-101,147	388,681	-0,016	0,024
-100,132	24,712	0,100	0,058
-99,118	-143,473	0,087	0,006
-98,103	-200,000	0,016	0,060
-97,089	82,375	0,052	-0,040
-96,074	135,439	0,194	0,179
-95,059	800,000	-0,039	0,077
-94,045	-19,740	0,001	-0,000
-93,030	750,861	0,096	-0,185
-92,016	523,932	0,034	-0,057
-91,001	512,961	-0,008	-0,013
-89,986	31,304	0,135	-0,082
-88,972	21,969	0,063	-0,036
-87,957	80,085	-0,051	0,039
-86,943	73,546	0,078	-0,058
-85,928	652,866	-0,069	-0,125
-84,913	11,280	-0,144	-0,078
-83,899	40,208	0,144	-0,092
-82,884	800,000	0,013	0,036
-81,870	2,740	0,170	-0,087
-80,855	-200,000	0,004	0,122
-79,840	421,073	0,036	0,055
-78,826	5,635	-0,028	-0,015
-77,811	-200,000	0,008	-0,058
-76,797	-120,955	-0,106	-0,012
-75,782	-167,931	0,032	0,001
-74,767	-200,000	-0,016	0,077
-73,753	-154,529	0,069	-0,003
-72,738	-200,000	-0,022	-0,114
-71,724	115,577	-0,129	-0,112
-70,709	255,119	0,023	0,029
-69,694	182,077	-0,071	-0,074
-68,680	295,406	-0,032	0,042
-67,665	-163,868	0,139	-0,005
-66,651	745,800	0,052	0,100
-65,636	-200,000	0,017	0,054
-64,622	-200,000	-0,015	-0,154
-63,607	-200,000	0,005	-0,201
-62,592	132,434	0,089	-0,081
-61,578	351,951	-0,019	0,026
-60,563	103,689	0,033	0,027
-59,549	6,362	-0,161	0,084
-58,534	-51,142	-1,528	-0,504
-57,519	388,418	-1,372	-2,017
-56,505	-200,000	-0,663	-4,709
-55,490	158,127	1,025	1,007
-54,476	800,000	4,998	11,518
-53,461	-200,000	18,880	310,405
-52,446	-200,000	738,252	2313,534
-51,432	573,172	1654,439	2866,926
-50,417	79,197	1670,942	1266,429
-49,403	21,972	1543,927	889,040
-48,388	15,820	1466,697	814,665
-47,373	17,780	1456,629	818,512
-46,359	16,826	1446,759	808,359
-45,344	14,026	1442,276	792,407
-44,330	13,975	1440,189	790,987
-43,315	14,010	1438,273	790,070
-42,300	14,003	1436,821	789,208
-41,286	14,058	1435,664	788,805
-40,271	13,993	1434,445	787,790
-39,257	13,918	1433,189	786,711
-38,242	14,045	1431,841	786,545
-37,227	14,035	1430,591	785,779
-36,213	14,063	1429,302	785,175
-35,198	14,069	1427,882	784,391
-34,184	14,096	1427,159	784,092
-33,169	13,972	1426,066	782,875
-32,154	14,081	1424,567	782,534
-31,140	14,076	1423,545	781,920
-30,125	14,119	1422,240	781,374
-29,111	14,072	1421,203	780,553
-28,096	14,044	1420,116	779,791
-27,082	13,963	1419,062	778,801
-26,067	13,959	1418,253	778,306
-25,052	13,973	1416,902	777,602
-24,038	13,906	1416,087	776,806
-23,023	13,907	1415,035	776,205
-22,009	13,941	1413,892	775,705
-20,994	13,906	1413,047	775,045
-19,979	13,935	1412,227	774,703
-18,965	13,902	1411,364	774,046
-17,950	13,891	1410,202	773,322
-16,936	13,907	1409,404	772,932
-15,921	13,877	1408,084	772,035
-14,906	13,854	1407,482	771,569
-13,892	13,903	1406,323	771,129
-12,877	13,855	1405,574	770,464
-11,863	13,880	1404,614	770,026
-10,848	13,869	1403,789	769,491
-9,833	13,812	1403,007	768,767
-8,819	13,801	1402,036	768,151
-7,804	13,795	1400,958	767,501
-6,790	13,766	1400,077	766,856
-5,775	13,818	1398,864	766,402
-4,760	13,786	1398,094	765,801
-3,746	13,763	1397,172	765,161
-2,731	13,790	1396,225	764,735
-1,717	13,750	1395,360	764,045
-0,702	13,783	1393,575	763,190
0,313	17,575	1311,106	735,616
1,327	33,754	705,777	433,464
2,342	51,881	123,997	83,378
3,356	3,411	16,647	8,552
4,371	-12,025	3,297	1,522
5,386	14,470	0,469	0,258
6,400	-200,000	-0,025	0,096
7,415	-109,888	-0,232	0,034
8,429	38,280	-0,361	-0,227
9,444	-93,212	-0,414	-0,081
10,459	166,171	-0,154	-0,154
11,473	-7,481	-0,374	-0,178
12,488	-53,136	-0,370	-0,119
13,502	109,879	-0,285	-0,242
14,517	-117,031	-0,365	-0,046
15,531	154,941	-0,340	-0,331
16,546	-2,989	-0,437	-0,215
17,561	213,118	-0,334	-0,373
18,575	-154,584	-0,279	0,013
19,590	-115,587	-0,262	-0,034
20,604	19,535	-0,330	-0,187
21,619	166,693	-0,336	-0,336
22,634	116,621	-0,459	-0,398
23,648	68,387	-0,456	-0,329
24,663	11,638	-0,467	-0,252
25,677	-46,325	-0,408	-0,141
26,692	380,952	-0,182	-0,264
27,707	273,546	-0,209	-0,261
28,721	99,486	-0,350	-0,286
29,736	176,566	-0,366	-0,376
30,750	69,018	-0,417	-0,302
31,765	81,997	-0,345	-0,264
32,780	95,306	-0,437	-0,351
33,794	80,932	-0,478	-0,363
34,809	62,138	-0,382	-0,268
35,823	167,024	-0,327	-0,328
36,838	141,976	-0,327	-0,306
37,853	121,232	-0,439	-0,385
38,867	-52,368	-0,314	-0,102
39,882	118,759	-0,231	-0,201
40,896	131,284	-0,296	-0,268
41,911	222,658	-0,270	-0,307
42,926	7,109	-0,407	-0,213
43,940	54,859	-0,308	-0,209
44,955	86,071	-0,284	-0,220
45,969	-109,294	-0,385	-0,057
46,984	98,381	-0,321	-0,260
47,999	9,140	-0,293	-0,155
49,013	3,570	-0,301	-0,154
50,028	-68,929	-0,236	-0,064
51,042	-56,517	-0,432	-0,134
52,057	-40,024	-0,475	-0,174
53,071	343,490	-0,299	-0,414
54,086	423,921	-0,215	-0,326
55,101	102,776	-0,309	-0,255
56,115	-149,973	-0,328	-0,018
57,130	180,705	-0,263	-0,273
58,144	133,958	-0,307	-0,280
59,159	-14,867	-0,442	-0,199
60,174	-8,404	-0,516	-0,243
61,188	381,972	-0,210	-0,304
62,203	207,976	-0,277	-0,305
63,217	61,477	-0,386	-0,270
64,232	160,952	-0,222	-0,218
65,247	42,274	-0,310	-0,198
66,261	74,531	-0,314	-0,232
67,276	104,123	-0,376	-0,311
68,290	25,686	-0,328	-0,192
69,305	84,711	-0,358	-0,275
70,320	-64,324	-0,312	0,089
71,334	12,723	-0,393	-0,213
72,349	27,147	-0,321	-0,189
73,363	-25,497	-0,351	-0,145
74,378	-48,708	-0,440	-0,148
75,393	152,615	-0,323	-0,311
76,407	120,900	-0,228	-0,199
77,422	-1,179	-0,338	-0,167
78,436	-9,086	-0,230	-0,108
79,451	-53,356	-0,337	-0,108
80,466	261,357	-0,215	-0,262
81,480	193,689	-0,308	-0,328
82,495	-22,760	-0,290	-0,122
83,509	-22,122	-0,217	-0,092
84,524	-4,119	-0,172	-0,084
85,539	-136,002	-0,142	-0,012
86,553	111,500	-0,267	-0,226
87,568	30,510	-0,395	-0,236
88,582	75,168	-0,218	-0,162
89,597	18,334	-0,263	-0,147
90,611	44,439	-0,326	-0,210
91,626	-92,105	-0,313	-0,061
92,641	64,709	-0,249	-0,176
93,655	81,422	-0,194	-0,147
94,670	139,054	-0,354	-0,326
95,684	75,342	-0,272	-0,201
96,699	52,261	-0,282	-0,188
97,714	800,000	-0,097	-0,274
98,728	62,829	-0,242	-0,170
99,743	46,370	-0,203	-0,132
100,757	-58,475	-0,397	-0,120
101,772	-47,714	-0,325	-0,110
102,787	186,633	-0,277	-0,290
103,801	181,058	-0,314	-0,324
104,816	98,223	-0,267	-0,215
105,830	61,029	-0,340	-0,236
106,845	-89,813	-0,237	-0,048
107,860	-108,312	-0,252	-0,038
108,874	205,440	-0,198	-0,216
109,889	384,227	-0,200	-0,289
110,903	285,337	-0,244	-0,309
111,918	88,341	-0,236	-0,184
112,933	443,737	-0,162	-0,249
113,947	40,860	-0,254	-0,160
114,962	-88,548	-0,354	-0,073
115,976	404,736	-0,167	-0,248
116,991	-118,727	-0,329	-0,040
118,006	132,060	-0,314	-0,283
119,020	439,136	-0,107	-0,164
120,035	61,657	-0,173	-0,120
121,049	78,330	-0,170	-0,127
122,064	0,344	-0,284	-0,142
123,079	29,104	-0,358	-0,212
124,093	-83,095	-0,443	-0,099
125,108	143,613	-0,273	-0,254
126,122	41,694	-0,257	-0,163
127,137	-25,115	-0,186	-0,077
128,151	-71,508	-0,344	-0,089
129,166	-40,623	-0,223	-0,081
130,181	-2,021	-0,297	-0,146
131,195	-4,732	-0,224	-0,108
132,210	199,335	-0,254	-0,273
133,224	170,534	-0,245	-0,246
134,239	142,525	-0,234	-0,218
135,254	-124,370	-0,325	-0,035
136,268	-64,277	-0,309	-0,087
137,283	139,954	-0,278	-0,256
138,297	-26,742	-0,264	-0,107
139,312	119,017	-0,246	-0,213
140,327	165,880	-0,237	-0,234
141,341	470,764	-0,125	-0,197
142,356	70,133	-0,171	-0,123
143,370	35,194	-0,343	-0,210
144,385	221,970	-0,146	-0,165
145,400	-111,070	-0,247	-0,035
146,414	57,394	-0,288	-0,196
147,429	-31,288	-0,185	-0,073
148,443	85,544	-0,266	-0,204
149,458	212,448	-0,217	-0,239
150,473	30,479	-0,297	-0,177
151,487	75,457	-0,287	-0,212
152,502	167,151	-0,240	-0,238
153,516	-4,523	-0,347	-0,167
154,531	148,980	-0,277	-0,262
155,546	577,314	-0,172	-0,294
156,560	0,276	-0,220	-0,109
157,575	47,556	-0,229	-0,149
158,589	49,317	-0,207	-0,135
159,604	5,108	-0,182	-0,093
160,619	71,667	-0,268	-0,194
161,633	-38,400	-0,342	-0,126
162,648	177,759	-0,131	-0,134
163,662	81,627	-0,187	-0,141
164,677	-157,916	-0,244	-0,010
165,692	-166,095	-0,308	-0,009
166,706	19,296	-0,240	-0,134
167,721	131,404	-0,311	-0,279
168,735	434,863	-0,150	-0,228
169,750	208,537	-0,236	-0,258
170,764	-190,373	-0,286	0,002
171,779	116,260	-0,219	-0,187
172,794	349,305	-0,155	-0,214
173,808	-24,243	-0,250	-0,104
174,823	68,500	-0,272	-0,194
175,837	78,205	-0,329	-0,245
176,852	62,974	-0,233	-0,162
177,867	-37,747	-0,214	-0,079
178,881	-126,542	-0,221	0,023
179,896	83,112	-0,203	-0,154
180,910	12,417	-0,282	-0,151
181,925	800,000	-0,093	-0,189
182,940	127,841	-0,205	-0,182
183,954	359,407	-0,164	-0,228
184,969	45,808	-0,105	-0,067
185,983	-32,445	-0,238	-0,092
186,998	-7,962	-0,317	-0,149
188,013	-19,279	-0,261	-0,112
189,027	147,591	-0,249	-0,234
190,042	782,568	-0,108	-0,206
191,056	-52,539	-0,217	-0,069
192,071	21,847	-0,212	-0,120
193,086	41,342	-0,297	-0,187
194,100	304,638	-0,167	-0,216
195,115	300,821	-0,154	-0,198
196,129	43,465	-0,117	-0,074
197,144	5,133	-0,260	-0,133
198,159	415,554	-0,207	-0,308
199,173	133,246	-0,114	-0,102
200,188	224,948	-0,146	-0,165
201,202	-37,199	-0,123	-0,046
202,217	-134,607	-0,158	0,013
203,232	230,411	-0,178	-0,203
204,246	-15,419	-0,181	-0,080
205,261	38,782	-0,268	-0,166
206,275	151,277	-0,179	-0,170
207,290	-10,560	-0,131	0,060
208,304	117,696	-0,153	-0,131
209,319	91,725	-0,189	-0,147
210,334	-33,302	-0,302	-0,116
211,348	164,720	-0,281	-0,276
212,363	84,908	-0,211	-0,160
213,377	189,961	-0,177	-0,185
214,392	191,102	-0,183	-0,192
215,407	-26,613	-0,127	-0,051
216,421	-30,371	-0,219	0,086
217,436	69,322	-0,245	-0,175
218,450	90,385	-0,193	-0,150
219,465	272,144	-0,189	-0,232
220,480	-121,238	-0,218	0,025
221,494	-15,256	-0,255	-0,113
222,509	791,906	-0,132	-0,252
223,523	-200,000	-0,074	-0,230
224,538	31,715	-0,240	-0,143
225,553	40,578	-0,209	-0,130
226,567	23,962	-0,188	-0,107
227,582	365,370	-0,113	-0,159
228,596	61,442	-0,124	-0,086
229,611	81,661	-0,135	-0,101
230,626	-92,288	-0,149	-0,029
231,640	470,907	-0,147	-0,230
232,655	135,122	-0,198	-0,178
233,669	129,549	-0,244	-0,216
234,684	412,327	-0,157	-0,232
235,699	171,875	-0,117	-0,117
236,713	85,938	-0,050	-0,038
237,728	-106,608	-0,227	-0,035
238,742	50,844	-0,280	-0,184
239,757	126,971	-0,176	-0,155
240,772	101,314	-0,174	-0,140
241,786	48,065	-0,189	-0,122
242,801	290,474	-0,219	-0,276
243,815	57,281	-0,135	-0,091
244,830	-138,787	-0,187	-0,014
245,844	22,350	-0,192	-0,108
246,859	129,670	-0,060	0,053
247,874	130,575	-0,167	-0,149
248,888	197,864	-0,123	-0,131
249,903	-120,043	-0,136	0,016
250,917	-30,153	-0,233	-0,091
251,932	329,803	-0,220	-0,294
252,947	39,941	-0,178	-0,111
253,961	60,322	-0,321	-0,219
254,976	-149,852	-0,146	-0,008
255,990	41,284	-0,233	-0,146
257,005	53,846	-0,210	-0,139
258,020	-34,951	-0,240	-0,090
259,034	7,273	-0,134	-0,069
260,049	649,588	-0,140	-0,248
261,063	221,071	-0,132	-0,147
262,078	-122,405	-0,187	-0,021
263,093	800,000	-0,027	-0,052
264,107	49,540	-0,166	-0,108
265,122	-69,318	-0,222	-0,059
266,136	79,999	-0,104	-0,077
267,151	239,116	-0,134	-0,154
268,166	-58,870	-0,199	-0,059
269,180	55,121	-0,271	-0,181
270,195	800,000	-0,077	-0,165
271,209	730,414	-0,085	-0,158
272,224	9,105	-0,162	-0,084
273,239	-85,379	-0,121	0,026
274,253	-50,591	-0,262	-0,085
275,268	110,424	-0,236	-0,196
276,282	800,000	-0,105	-0,249
277,297	77,296	-0,095	-0,070
278,312	-69,774	-0,296	-0,078
279,326	307,865	-0,149	-0,192
280,341	-44,465	-0,184	0,063
281,355	174,353	-0,060	-0,060
282,370	-32,737	-0,258	-0,099
283,384	88,662	-0,249	-0,191
284,399	-4,730	-0,145	-0,069
285,414	-94,160	-0,277	-0,052
286,428	54,122	-0,113	-0,075
287,443	-61,887	-0,180	-0,052
288,457	-44,327	-0,135	-0,046
289,472	192,856	-0,077	-0,080
290,487	175,922	-0,106	-0,106
291,501	157,091	-0,203	-0,194
292,516	-103,720	-0,107	-0,017
293,530	336,527	-0,133	-0,179
294,545	82,760	-0,258	-0,193
295,560	21,541	-0,159	-0,089
296,574	223,083	-0,152	-0,169
297,589	800,000	-0,057	-0,134
298,603	-34,408	-0,277	-0,104
299,618	800,000	-0,086	-0,239
300,633	-100,137	-0,140	0,024
301,647	60,739	-0,099	-0,068
302,662	34,659	-0,107	-0,064
303,676	-85,380	-0,155	-0,033
304,691	-151,632	-0,210	-0,011
305,706	800,000	-0,014	-0,039
306,720	340,249	-0,101	-0,136
307,735	171,342	-0,154	-0,152
308,749	800,000	-0,123	-0,269
309,764	800,000	-0,043	-0,099
310,779	-160,939	-0,062	-0,002
311,793	9,482	-0,069	-0,036
312,808	-79,199	-0,221	-0,051
313,822	315,800	-0,082	-0,107
314,837	131,498	-0,136	-0,120
315,852	-200,000	-0,009	-0,053
316,866	166,816	-0,092	-0,090
317,881	-135,247	-0,107	-0,009
318,895	91,282	-0,141	-0,109
319,910	631,577	-0,099	-0,173
320,925	252,555	-0,068	-0,080
321,939	81,632	-0,146	-0,109
322,954	800,000	-0,085	-0,170
323,968	800,000	-0,023	-0,065
324,983	-124,512	-0,079	0,008
325,997	-32,149	-0,191	-0,073
327,012	-200,000	-0,101	-0,348
328,027	74,709	-0,248	-0,179
329,041	-200,000	-0,019	-0,094
330,056	800,000	-0,055	-0,148
331,070	800,000	0,033	-0,093
332,085	-82,509	-0,155	-0,034
333,100	343,353	-0,136	-0,183
334,114	211,891	-0,150	-0,162
335,129	99,940	-0,193	-0,154
336,143	800,000	-0,112	-0,214
337,158	-141,955	-0,076	-0,005
338,173	670,942	-0,078	-0,139
339,187	800,000	-0,065	0,157
340,202	326,849	-0,035	0,046
341,216	-180,867	-0,115	-0,002
342,231	-200,000	0,014	-0,166
343,246	800,000	-0,025	-0,069
344,260	2,096	-0,132	0,065
345,275	-79,976	-0,112	0,026
346,289	101,158	-0,160	-0,128
347,304	28,692	-0,103	-0,060
348,319	800,000	-0,068	-0,141
349,333	800,000	-0,045	-0,089
350,348	49,208	-0,227	-0,146
351,362	231,740	-0,182	-0,206
352,377	-200,000	-0,023	-0,151
353,392	8,428	-0,040	-0,021
354,406	34,770	-0,110	-0,066
355,421	209,562	1313,902	1414,487
356,435	161,290	1474,537	1414,976
