DTS Sentinel unit serial number:	SN410029Multiplexer serial number:	ORYXHardware model number:	OX2-SRSoftware version number:	ORYX F/W v4,00 Oryx Data Collector v3.7.2.0data status	okinstallation	B3 Nyhavnadifferential loss correction	single-endedforward channel	channel 1reverse channel	N/Adate	2023/11/29time	01:02:30forward acquisition time	300,00reverse acquisition time	0,00gamma	499,1914k internal	0,3212k external	0,3212temperature offset calibration	1,0000default loss term (dB/km)	0,3820temperature slope calibration	1,0000multiplexer offset coefficient	1,0000multiplexer slope coefficient	1,0000fibre end	0,00T internal ref (°C)	9,34T ext. ref 1 (°C)	-4,97T ext. ref 2 (°C)	-5,11length (m)	temperature (°C)	Stokes	anti-Stokes-744,400	198,463	-0,208	-0,231
-743,385	-200,000	0,015	0,283
-742,371	-94,551	-0,238	-0,047
-741,356	630,138	0,117	0,215
-740,342	32,001	-0,278	-0,173
-739,327	459,978	-0,210	0,339
-738,312	97,859	-0,213	-0,178
-737,298	800,000	-0,082	0,262
-736,283	800,000	-0,105	-0,253
-735,269	-200,000	0,023	0,253
-734,254	278,217	-0,232	-0,300
-733,239	-116,948	-0,118	0,016
-732,225	-200,000	0,028	-0,186
-731,210	-200,000	0,010	0,122
-730,196	203,057	-0,135	0,152
-729,181	417,677	-0,044	-0,069
-728,167	-200,000	-0,008	-0,124
-727,152	-200,000	-0,024	0,130
-726,137	173,970	-0,134	-0,141
-725,123	-66,972	0,015	-0,004
-724,108	-79,149	-0,113	-0,028
-723,094	-126,604	-0,060	0,006
-722,079	800,000	0,034	-0,101
-721,064	800,000	0,036	0,076
-720,050	-200,000	0,009	-0,035
-719,035	-54,353	-0,109	-0,036
-718,021	-200,000	-0,014	-0,069
-717,006	61,928	0,017	-0,012
-715,991	67,125	-0,175	-0,129
-714,977	-200,000	0,035	-0,146
-713,962	76,733	-0,107	-0,082
-712,948	-90,163	0,019	-0,004
-711,933	-8,929	-0,056	0,027
-710,918	55,762	-0,024	0,016
-709,904	634,622	-0,031	-0,058
-708,889	-68,610	0,061	0,017
-707,875	-200,000	0,013	0,062
-706,860	-109,639	0,170	-0,026
-705,845	0,614	-0,067	-0,035
-704,831	-36,828	-0,172	0,066
-703,816	-75,556	-0,093	0,024
-702,802	186,890	0,018	-0,019
-701,787	-200,000	0,014	-0,124
-700,772	800,000	-0,031	-0,095
-699,758	55,623	0,085	-0,060
-698,743	-200,000	0,021	0,080
-697,729	372,178	-0,049	-0,072
-696,714	-64,915	-0,132	0,038
-695,699	-141,597	-0,080	-0,006
-694,685	401,302	0,021	-0,032
-693,670	-200,000	0,010	-0,090
-692,656	800,000	0,054	0,115
-691,641	-200,000	0,026	-0,103
-690,627	640,772	-0,027	0,051
-689,612	800,000	-0,037	-0,116
-688,597	-52,630	-0,126	-0,042
-687,583	8,534	-0,103	0,056
-686,568	-200,000	0,005	-0,048
-685,554	800,000	-0,061	0,162
-684,539	-14,640	-0,053	0,025
-683,524	85,627	0,168	0,134
-682,510	233,030	0,061	0,072
-681,495	-200,000	0,022	-0,080
-680,481	-200,000	-0,008	0,069
-679,466	328,944	-0,078	-0,109
-678,451	-0,474	0,030	-0,016
-677,437	800,000	0,048	-0,103
-676,422	800,000	-0,014	-0,033
-675,408	-200,000	-0,007	-0,036
-674,393	157,967	0,102	0,102
-673,378	499,996	0,020	0,034
-672,364	237,744	-0,052	-0,062
-671,349	274,126	-0,084	-0,107
-670,335	-84,559	-0,073	-0,016
-669,320	800,000	0,037	0,085
-668,305	374,994	0,022	0,032
-667,291	-200,000	-0,001	-0,016
-666,276	-23,548	-0,053	-0,023
-665,262	99,165	-0,114	0,096
-664,247	-200,000	-0,008	-0,128
-663,232	-24,634	0,058	-0,025
-662,218	697,919	0,059	0,113
-661,203	562,318	-0,097	0,171
-660,189	713,778	0,055	-0,106
-659,174	-88,155	0,026	-0,006
-658,159	800,000	-0,073	-0,184
-657,145	-125,843	0,128	-0,014
-656,130	-200,000	0,013	-0,077
-655,116	-200,000	-0,016	0,073
-654,101	510,794	-0,005	-0,009
-653,086	157,727	0,109	-0,109
-652,072	-200,000	-0,005	-0,032
-651,057	691,191	0,020	-0,037
-650,043	136,936	0,011	-0,011
-649,028	800,000	-0,046	0,104
-648,014	269,851	-0,072	-0,092
-646,999	-67,313	-0,080	0,023
-645,984	437,730	0,050	0,079
-644,970	504,104	-0,117	-0,197
-643,955	-200,000	-0,026	0,114
-642,941	-31,075	-0,070	0,029
-641,926	81,742	0,037	0,029
-640,911	87,231	-0,079	-0,063
-639,897	74,738	0,114	0,087
-638,882	172,212	-0,077	0,080
-637,868	800,000	0,048	-0,114
-636,853	255,024	0,084	-0,104
-635,838	-200,000	0,008	-0,073
-634,824	365,643	-0,011	-0,016
-633,809	68,654	0,021	0,016
-632,795	374,317	0,049	-0,073
-631,780	283,026	0,131	0,171
-630,765	73,198	-0,057	0,043
-629,751	-100,618	-0,051	0,009
-628,736	24,773	-0,037	0,022
-627,722	-200,000	-0,017	-0,130
-626,707	-200,000	0,011	0,069
-625,692	3,332	0,131	-0,069
-624,678	-185,628	-0,057	0,001
-623,663	800,000	0,053	0,152
-622,649	-125,264	-0,094	0,010
-621,634	229,937	-0,082	-0,097
-620,619	-200,000	-0,014	0,069
-619,605	48,184	0,112	0,075
-618,590	666,748	0,063	0,119
-617,576	105,966	0,073	-0,062
-616,561	-93,181	-0,117	0,023
-615,546	-134,045	-0,131	-0,011
-614,532	-31,597	0,030	-0,012
-613,517	-200,000	0,014	-0,088
-612,503	-39,684	0,158	-0,059
-611,488	-200,000	0,051	-0,162
-610,474	-200,000	0,010	-0,033
-609,459	59,389	-0,041	0,029
-608,444	495,171	-0,066	0,109
-607,430	-200,000	0,035	-0,131
-606,415	-43,358	-0,028	0,010
-605,401	73,899	-0,071	0,053
-604,386	-139,643	-0,077	0,006
-603,371	-44,900	0,061	0,022
-602,357	-104,911	-0,153	0,025
-601,342	-200,000	-0,019	-0,094
-600,328	-17,454	-0,187	0,085
-599,313	-12,692	-0,034	-0,016
-598,298	521,537	0,057	-0,096
-597,284	-119,768	-0,123	0,015
-596,269	-134,889	0,055	0,005
-595,255	177,328	-0,053	0,056
-594,240	800,000	0,026	-0,075
-593,225	800,000	0,026	-0,067
-592,211	-95,637	-0,106	0,020
-591,196	-135,068	0,156	-0,013
-590,182	-13,366	-0,034	0,016
-589,167	800,000	-0,069	-0,151
-588,152	-45,339	0,154	-0,055
-587,138	-98,292	0,065	0,012
-586,123	728,026	-0,037	-0,071
-585,109	95,791	-0,038	-0,031
-584,094	-95,690	-0,116	-0,022
-583,079	-156,553	-0,024	0,001
-582,065	-89,862	-0,185	-0,039
-581,050	351,410	0,048	-0,068
-580,036	13,438	-0,070	0,039
-579,021	317,273	0,078	0,107
-578,006	-30,076	-0,100	-0,041
-576,992	-200,000	0,012	-0,125
-575,977	800,000	-0,021	0,058
-574,963	-200,000	-0,004	-0,023
-573,948	412,528	-0,063	0,097
-572,934	-47,772	-0,090	0,031
-571,919	-45,710	-0,141	-0,050
-570,904	264,242	0,062	-0,078
-569,890	800,000	-0,035	-0,074
-568,875	-200,000	0,010	0,037
-567,861	113,791	0,033	0,029
-566,846	-58,339	-0,070	0,022
-565,831	-7,483	-0,120	0,058
-564,817	65,551	0,079	-0,058
-563,802	-200,000	0,011	-0,072
-562,788	-200,000	0,019	0,082
-561,773	800,000	-0,055	0,148
-560,758	-115,776	-0,018	0,002
-559,744	-100,827	-0,072	0,013
-558,729	-69,706	-0,100	0,027
-557,715	164,368	0,082	0,083
-556,700	-200,000	0,004	0,021
-555,685	-173,679	-0,147	0,003
-554,671	-200,000	0,018	-0,061
-553,656	-124,764	0,136	-0,015
-552,642	311,361	0,060	-0,081
-551,627	-57,412	0,044	0,014
-550,612	-200,000	-0,023	-0,083
-549,598	97,625	-0,082	-0,068
-548,583	638,511	-0,079	-0,145
-547,569	238,290	-0,062	-0,075
-546,554	-42,656	0,023	0,008
-545,539	-200,000	0,011	0,155
-544,525	46,216	-0,094	0,062
-543,510	-168,038	-0,060	-0,002
-542,496	-200,000	-0,003	0,062
-541,481	19,746	0,014	-0,008
-540,466	106,852	0,079	0,068
-539,452	-83,041	-0,051	0,012
-538,437	-200,000	0,020	-0,076
-537,423	126,132	0,081	-0,073
-536,408	-24,485	-0,219	-0,093
-535,393	241,470	-0,063	0,076
-534,379	-200,000	-0,015	-0,055
-533,364	-81,455	-0,126	0,030
-532,350	12,199	0,092	0,051
-531,335	-17,004	-0,086	0,039
-530,321	-200,000	-0,005	0,137
-529,306	-200,000	-0,022	0,083
-528,291	-200,000	-0,004	-0,018
-527,277	-200,000	-0,007	-0,072
-526,262	-200,000	0,010	0,033
-525,248	102,908	0,131	-0,110
-524,233	-200,000	0,014	0,091
-523,218	490,709	-0,075	-0,124
-522,204	-3,985	-0,095	-0,047
-521,189	-200,000	0,000	-0,017
-520,175	263,745	-0,088	0,110
-519,160	727,837	-0,037	-0,071
-518,145	-109,320	-0,065	-0,010
-517,131	-65,133	0,096	-0,028
-516,116	-65,767	-0,016	-0,004
-515,102	-145,915	0,111	-0,007
-514,087	86,665	-0,121	-0,096
-513,072	110,319	-0,033	-0,028
-512,058	800,000	0,030	-0,084
-511,043	-104,585	-0,035	0,006
-510,029	-200,000	-0,012	0,102
-509,014	800,000	-0,039	-0,082
-507,999	97,769	0,120	-0,099
-506,985	-54,748	0,037	-0,012
-505,970	435,396	0,072	-0,113
-504,956	323,903	-0,095	-0,131
-503,941	65,222	0,079	0,057
-502,926	800,000	0,019	0,041
-501,912	-200,000	-0,019	0,147
-500,897	-200,000	-0,014	-0,086
-499,883	101,226	0,095	-0,079
-498,868	-200,000	0,001	-0,152
-497,853	-115,820	-0,086	-0,011
-496,839	800,000	0,060	0,125
-495,824	-200,000	0,004	-0,030
-494,810	83,058	-0,136	-0,106
-493,795	195,122	0,111	0,121
-492,781	13,154	-0,087	-0,048
-491,766	-200,000	-0,001	-0,226
-490,751	-65,113	0,099	0,028
-489,737	800,000	0,016	0,045
-488,722	253,809	0,049	0,060
-487,708	-200,000	0,005	-0,072
-486,693	252,517	0,070	0,085
-485,678	-8,560	-0,096	-0,046
-484,664	-200,000	-0,002	-0,150
-483,649	11,392	-0,022	0,012
-482,635	-48,896	0,194	0,066
-481,620	716,404	0,026	0,049
-480,605	111,781	-0,106	0,092
-479,591	23,124	0,133	0,078
-478,576	-200,000	-0,001	-0,081
-477,562	353,323	-0,102	-0,146
-476,547	-200,000	0,002	-0,012
-475,532	164,730	0,188	-0,190
-474,518	12,738	-0,075	-0,042
-473,503	-200,000	-0,000	0,003
-472,489	-200,000	0,016	-0,056
-471,474	-200,000	0,005	0,052
-470,459	67,266	-0,026	0,019
-469,445	305,908	0,034	-0,046
-468,430	800,000	0,045	-0,101
-467,416	-5,958	-0,099	0,048
-466,401	-42,828	0,142	-0,052
-465,386	220,985	-0,067	0,077
-464,372	706,256	0,025	-0,048
-463,357	-119,935	0,042	0,005
-462,343	-200,000	-0,007	0,042
-461,328	800,000	-0,063	-0,193
-460,313	262,789	0,093	0,116
-459,299	-35,976	-0,037	0,014
-458,284	-70,311	0,197	0,053
-457,270	-90,177	-0,026	0,005
-456,255	256,991	0,026	0,033
-455,241	185,007	-0,095	-0,101
-454,226	-200,000	-0,017	-0,083
-453,211	199,106	0,012	0,014
-452,197	-18,844	0,022	0,010
-451,182	-167,388	0,024	-0,001
-450,168	-55,011	0,070	-0,022
-449,153	656,771	-0,058	-0,108
-448,138	-33,295	-0,142	-0,056
-447,124	-200,000	-0,025	-0,115
-446,109	208,172	-0,043	-0,049
-445,095	-72,623	0,181	0,048
-444,080	318,136	-0,056	0,076
-443,065	-2,165	-0,106	0,053
-442,051	20,991	-0,078	0,045
-441,036	-200,000	0,023	0,082
-440,022	64,811	-0,091	-0,066
-439,007	103,150	-0,077	-0,065
-437,992	-200,000	-0,008	0,173
-436,978	313,221	0,020	0,027
-435,963	-200,000	0,010	-0,101
-434,949	4,123	-0,095	0,050
-433,934	800,000	0,037	-0,087
-432,919	-61,533	0,071	-0,021
-431,905	-200,000	-0,008	-0,089
-430,890	56,233	0,063	0,044
-429,876	-67,752	-0,125	-0,035
-428,861	-9,538	0,061	-0,029
-427,846	-200,000	-0,038	-0,153
-426,832	-65,095	-0,101	-0,029
-425,817	2,091	0,063	0,033
-424,803	-200,000	0,072	-0,238
-423,788	800,000	0,069	-0,152
-422,773	147,702	-0,022	0,022
-421,759	-65,446	0,054	0,015
-420,744	399,681	0,042	0,064
-419,730	399,786	-0,049	-0,073
-418,715	398,764	-0,056	-0,084
-417,701	-85,448	-0,069	-0,015
-416,686	-107,824	0,111	0,017
-415,671	3,349	-0,076	0,040
-414,657	82,172	0,145	0,113
-413,642	97,110	-0,053	-0,043
-412,628	593,150	0,037	-0,065
-411,613	130,286	-0,090	-0,082
-410,598	2,262	0,106	-0,054
-409,584	40,910	0,163	0,105
-408,569	-200,000	0,007	-0,062
-407,555	800,000	-0,021	0,056
-406,540	-200,000	0,029	0,123
-405,525	800,000	0,007	-0,021
-404,511	-200,000	-0,003	-0,051
-403,496	-25,682	0,035	-0,015
-402,482	-9,556	0,085	0,040
-401,467	597,530	0,061	0,108
-400,452	-35,620	-0,105	0,040
-399,438	323,904	0,018	-0,024
-398,423	42,662	-0,057	-0,037
-397,409	-35,817	0,101	-0,039
-396,394	387,828	-0,084	-0,125
-395,379	227,941	-0,071	0,083
-394,365	292,642	-0,063	0,083
-393,350	-130,238	0,115	0,011
-392,336	800,000	-0,100	0,236
-391,321	800,000	0,079	-0,162
-390,306	359,036	-0,075	-0,107
-389,292	-184,781	0,045	0,001
-388,277	-200,000	0,014	-0,057
-387,263	-200,000	0,014	0,046
-386,248	76,686	0,097	-0,073
-385,233	-200,000	0,028	-0,127
-384,219	800,000	0,006	0,018
-383,204	-131,486	-0,144	0,013
-382,190	-200,000	0,012	-0,093
-381,175	800,000	0,028	0,083
-380,160	800,000	0,015	-0,045
-379,146	407,386	0,076	-0,115
-378,131	800,000	-0,009	0,022
-377,117	-200,000	-0,010	0,068
-376,102	-200,000	-0,015	0,082
-375,088	-200,000	0,001	0,034
-374,073	438,037	-0,081	-0,127
-373,058	-200,000	0,002	-0,022
-372,044	4,032	-0,044	-0,023
-371,029	-36,731	-0,031	0,012
-370,015	800,000	0,011	-0,028
-369,000	-200,000	-0,004	0,034
-367,985	-144,641	-0,073	0,005
-366,971	78,423	0,048	0,037
-365,956	800,000	0,068	0,202
-364,942	160,031	-0,112	0,112
-363,927	-200,000	0,024	0,110
-362,912	28,613	0,055	0,033
-361,898	800,000	-0,029	0,066
-360,883	800,000	-0,032	-0,073
-359,869	65,109	0,081	0,058
-358,854	234,930	0,047	0,055
-357,839	30,345	0,107	-0,065
-356,825	-200,000	-0,012	0,093
-355,810	-200,000	-0,017	0,069
-354,796	-200,000	0,033	0,107
-353,781	106,396	-0,096	-0,081
-352,766	800,000	-0,018	0,044
-351,752	317,462	0,083	0,112
-350,737	-200,000	-0,001	-0,023
-349,723	800,000	0,024	-0,064
-348,708	-174,335	0,120	-0,002
-347,693	800,000	-0,066	-0,132
-346,679	-9,650	0,164	-0,078
-345,664	-32,514	-0,080	0,032
-344,650	-34,924	0,018	-0,007
-343,635	77,911	0,048	0,037
-342,620	-163,463	-0,077	0,003
-341,606	800,000	0,072	0,158
-340,591	-10,290	-0,048	0,023
-339,577	104,600	-0,118	-0,099
-338,562	-136,983	-0,186	0,015
-337,548	208,916	0,083	-0,093
-336,533	-41,574	0,067	0,024
-335,518	-200,000	-0,007	0,152
-334,504	800,000	-0,029	0,088
-333,489	-80,033	-0,074	0,018
-332,475	-7,123	-0,093	0,045
-331,460	-36,266	-0,129	-0,049
-330,445	27,967	0,075	-0,045
-329,431	-103,540	0,120	-0,020
-328,416	800,000	-0,090	0,266
-327,402	369,736	0,041	0,059
-326,387	-200,000	0,028	0,095
-325,372	7,716	0,072	0,038
-324,358	80,375	-0,154	-0,118
-323,343	800,000	-0,004	-0,009
-322,329	298,597	0,116	-0,152
-321,314	-42,808	0,093	-0,034
-320,299	314,186	0,090	-0,121
-319,285	183,418	-0,025	0,027
-318,270	782,192	0,025	0,048
-317,256	96,399	-0,102	0,083
-316,241	-4,625	0,101	0,050
-315,226	42,205	0,077	0,050
-314,212	-131,726	-0,031	0,003
-313,197	-200,000	0,006	0,090
-312,183	-117,196	0,111	0,014
-311,168	-34,442	-0,065	-0,025
-310,153	697,599	-0,043	-0,081
-309,139	-200,000	0,035	-0,123
-308,124	800,000	-0,016	-0,040
-307,110	-100,794	0,040	0,007
-306,095	-200,000	0,042	0,162
-305,080	748,636	0,057	0,109
-304,066	-200,000	0,004	-0,105
-303,051	800,000	0,045	-0,141
-302,037	254,599	-0,112	-0,137
-301,022	123,672	-0,047	0,042
-300,008	262,926	-0,021	-0,027
-298,993	30,664	0,065	0,039
-297,978	-76,747	0,143	0,035
-296,964	-144,487	-0,089	-0,006
-295,949	-21,865	-0,146	0,063
-294,935	32,992	-0,054	-0,033
-293,920	-73,097	0,102	0,027
-292,905	-200,000	-0,006	-0,043
-291,891	116,723	0,110	0,096
-290,876	76,897	-0,096	0,072
-289,862	-68,734	0,084	0,023
-288,847	78,103	-0,087	-0,066
-287,832	68,046	-0,103	-0,075
-286,818	-147,184	0,091	-0,005
-285,803	-200,000	-0,019	-0,066
-284,789	-200,000	0,030	0,144
-283,774	-69,726	-0,059	0,016
-282,759	81,560	-0,031	-0,024
-281,745	527,482	-0,092	-0,155
-280,730	118,135	-0,169	-0,148
-279,716	148,421	0,052	0,050
-278,701	197,278	0,107	0,116
-277,686	-47,010	0,169	0,058
-276,672	310,377	-0,058	-0,077
-275,657	-76,176	0,062	-0,015
-274,643	-81,039	0,066	-0,015
-273,628	76,820	-0,019	0,014
-272,613	-200,000	-0,017	0,075
-271,599	98,824	0,113	0,092
-270,584	90,138	0,020	0,016
-269,570	-121,909	0,008	-0,001
-268,555	-132,263	0,053	0,005
-267,540	80,684	0,028	0,021
-266,526	-109,415	-0,096	-0,014
-265,511	127,319	0,099	-0,089
-264,497	213,415	0,041	0,046
-263,482	-105,725	0,171	0,027
-262,467	431,917	0,038	-0,059
-261,453	800,000	0,009	-0,019
-260,438	-104,006	-0,087	0,014
-259,424	800,000	-0,042	-0,119
-258,409	523,894	0,019	-0,032
-257,395	-200,000	-0,008	0,075
-256,380	-111,690	0,096	-0,014
-255,365	-200,000	0,023	-0,102
-254,351	647,698	0,057	0,104
-253,336	-129,526	0,025	-0,002
-252,322	-200,000	0,016	-0,096
-251,307	800,000	0,053	-0,157
-250,292	99,380	-0,112	-0,092
-249,278	387,445	-0,032	0,047
-248,263	39,173	0,051	0,033
-247,249	800,000	0,059	0,155
-246,234	-103,191	-0,170	-0,028
-245,219	-150,852	-0,019	-0,001
-244,205	-200,000	0,003	0,031
-243,190	800,000	-0,001	0,003
-242,176	-45,493	-0,036	0,013
-241,161	-45,284	-0,072	0,025
-240,146	-130,307	0,187	0,018
-239,132	-20,756	-0,070	-0,030
-238,117	177,334	-0,044	-0,045
-237,103	-200,000	0,012	0,088
-236,088	-96,639	0,012	0,002
-235,073	569,768	0,078	0,136
-234,059	487,488	0,055	0,089
-233,044	432,679	0,030	0,046
-232,030	-122,538	0,128	-0,015
-231,015	757,161	-0,017	0,034
-230,000	-200,000	-0,052	-0,166
-228,986	217,517	0,044	0,050
-227,971	253,047	-0,116	0,141
-226,957	800,000	0,049	0,145
-225,942	57,365	-0,057	0,040
-224,927	800,000	-0,067	0,134
-223,913	-150,555	-0,100	-0,005
-222,898	283,043	-0,093	-0,119
-221,884	-200,000	-0,001	-0,029
-220,869	-4,884	-0,081	0,040
-219,855	800,000	0,014	-0,036
-218,840	-200,000	-0,001	0,039
-217,825	-23,793	-0,139	0,059
-216,811	-200,000	-0,001	-0,024
-215,796	-55,033	-0,100	0,032
-214,782	102,327	0,042	-0,035
-213,767	105,719	0,122	0,102
-212,752	-26,957	-0,146	-0,060
-211,738	138,932	0,090	0,084
-210,723	22,586	-0,112	0,065
-209,709	-200,000	-0,006	0,061
-208,694	57,295	-0,094	-0,065
-207,679	55,822	-0,061	-0,042
-206,665	-139,409	0,138	0,010
-205,650	800,000	-0,080	0,164
-204,636	390,980	0,057	0,084
-203,621	800,000	0,047	0,104
-202,606	26,909	0,013	-0,008
-201,592	-200,000	-0,008	-0,028
-200,577	158,099	0,132	-0,130
-199,563	-200,000	0,021	-0,119
-198,548	484,503	0,040	0,064
-197,533	187,218	0,130	0,138
-196,519	-200,000	0,007	0,132
-195,504	-112,638	-0,100	0,014
-194,490	137,198	0,072	-0,067
-193,475	6,963	-0,144	-0,076
-192,460	800,000	0,026	-0,065
-191,446	461,203	0,055	0,087
-190,431	-39,556	0,183	0,067
-189,417	800,000	-0,040	-0,103
-188,402	-48,560	0,177	-0,060
-187,387	-131,736	-0,108	-0,010
-186,373	-74,070	0,176	-0,045
-185,358	-15,926	0,189	-0,085
-184,344	-65,059	-0,147	0,042
-183,329	245,069	0,033	0,039
-182,315	-200,000	-0,020	0,071
-181,300	-200,000	-0,006	0,049
-180,285	153,536	-0,093	-0,090
-179,271	-44,927	-0,071	-0,025
-178,256	-200,000	0,008	0,027
-177,242	-83,026	-0,101	-0,023
-176,227	-158,028	-0,041	0,002
-175,212	4,865	0,033	0,017
-174,198	-76,779	0,144	0,035
-173,183	800,000	0,018	-0,049
-172,169	171,305	0,063	0,064
-171,154	-200,000	0,006	0,088
-170,139	-155,063	0,091	-0,004
-169,125	-200,000	-0,035	0,157
-168,110	-99,007	0,125	-0,022
-167,096	-200,000	-0,019	0,101
-166,081	800,000	0,042	-0,085
-165,066	-200,000	-0,049	0,159
-164,052	-3,841	0,074	-0,036
-163,037	-200,000	-0,016	0,089
-162,023	-200,000	-0,008	0,192
-161,008	298,696	0,101	0,132
-159,993	687,568	-0,050	0,093
-158,979	-11,457	0,102	-0,047
-157,964	-16,846	0,041	-0,018
-156,950	-200,000	-0,009	-0,036
-155,935	-200,000	-0,003	-0,028
-154,920	-200,000	0,022	0,138
-153,906	88,545	0,021	0,016
-152,891	14,685	0,045	0,025
-151,877	-185,658	-0,059	0,001
-150,862	-200,000	-0,007	0,031
-149,847	800,000	-0,013	0,030
-148,833	-37,880	0,051	-0,019
-147,818	800,000	-0,049	0,127
-146,804	800,000	-0,020	-0,046
-145,789	247,340	0,025	0,030
-144,775	-200,000	0,011	0,093
-143,760	-143,065	0,023	-0,002
-142,745	-146,978	-0,135	0,008
-141,731	174,515	-0,095	0,097
-140,716	37,539	-0,096	0,060
-139,702	50,488	-0,091	0,061
-138,687	-114,836	-0,027	0,004
-137,672	-122,054	-0,081	0,009
-136,658	285,829	-0,046	-0,059
-135,643	508,872	-0,020	-0,032
-134,629	167,540	-0,155	-0,156
-133,614	421,702	0,057	0,087
-132,599	-54,802	0,099	0,031
-131,585	800,000	-0,015	0,039
-130,570	-200,000	-0,009	0,029
-129,556	258,438	-0,110	-0,135
-128,541	-74,248	-0,052	-0,013
-127,526	-41,852	0,075	0,027
-126,512	3,789	0,045	-0,023
-125,497	13,699	0,035	-0,019
-124,483	107,716	0,139	0,117
-123,468	-200,000	-0,005	-0,049
-122,453	-54,669	0,068	0,022
-121,439	332,703	0,113	-0,154
-120,424	-200,000	-0,005	0,018
-119,410	76,843	-0,049	0,037
-118,395	433,216	0,028	-0,044
-117,380	275,405	0,075	0,095
-116,366	-103,650	-0,090	0,015
-115,351	326,513	0,091	0,124
-114,337	-69,329	0,103	-0,028
-113,322	-200,000	0,038	-0,130
-112,307	-146,657	0,081	-0,005
-111,293	800,000	0,058	0,137
-110,278	1,567	0,108	-0,055
-109,264	-200,000	-0,024	-0,110
-108,249	-50,526	-0,115	-0,038
-107,234	-56,877	0,027	-0,008
-106,220	162,133	-0,031	-0,031
-105,205	-200,000	0,055	-0,195
-104,191	-14,361	0,131	0,059
-103,176	658,516	-0,020	0,036
-102,162	-110,086	0,071	0,010
-101,147	800,000	-0,017	0,041
-100,132	47,544	-0,052	-0,034
-99,118	-134,569	-0,092	0,008
-98,103	-200,000	0,010	-0,040
-97,089	-200,000	-0,013	0,089
-96,074	63,426	0,025	-0,018
-95,059	45,923	0,065	-0,043
-94,045	238,293	-0,042	0,050
-93,030	-144,614	-0,126	0,008
-92,016	152,598	0,110	-0,106
-91,001	-200,000	-0,001	0,054
-89,986	-29,881	0,022	0,009
-88,972	-70,630	-0,042	-0,011
-87,957	-200,000	0,013	0,088
-86,943	188,678	-0,033	0,035
-85,928	-200,000	0,030	0,167
-84,913	-200,000	-0,011	0,133
-83,899	-136,959	0,020	0,002
-82,884	-146,122	0,145	-0,009
-81,870	-62,289	0,073	0,021
-80,855	-200,000	-0,036	0,156
-79,840	-83,249	-0,021	0,005
-78,826	526,884	-0,020	-0,034
-77,811	-7,198	-0,050	-0,024
-76,797	800,000	0,057	0,120
-75,782	-200,000	-0,005	0,018
-74,767	554,289	0,072	0,124
-73,753	-200,000	-0,002	-0,023
-72,738	-88,539	0,030	0,006
-71,724	391,638	-0,034	0,050
-70,709	214,325	-0,099	0,111
-69,694	556,921	-0,009	0,016
-68,680	-200,000	-0,012	-0,050
-67,665	-200,000	0,046	0,172
-66,651	197,307	0,076	0,082
-65,636	-138,501	-0,033	0,003
-64,622	-76,166	-0,032	-0,008
-63,607	800,000	-0,015	-0,035
-62,592	-12,008	-0,039	-0,018
-61,578	653,080	-0,036	0,066
-60,563	14,396	0,073	0,040
-59,549	130,355	0,084	0,076
-58,534	61,249	-1,905	-1,334
-57,519	415,854	-1,324	-1,998
-56,505	-200,000	-0,232	-4,266
-55,490	759,270	0,908	1,744
-54,476	800,000	5,125	11,233
-53,461	-200,000	21,657	341,260
-52,446	800,000	762,110	2331,171
-51,432	543,651	1659,299	2804,872
-50,417	70,913	1655,479	1208,396
-49,403	17,123	1528,880	852,863
-48,388	11,139	1453,104	781,743
-47,373	19,208	1444,652	815,758
-46,359	14,664	1433,553	787,925
-45,344	9,478	1429,407	761,010
-44,330	9,375	1427,660	759,558
-43,315	9,336	1426,111	758,518
-42,300	9,366	1424,160	757,594
-41,286	9,416	1422,884	757,121
-40,271	9,350	1421,682	756,142
-39,257	9,372	1420,554	755,614
-38,242	9,416	1419,264	755,107
-37,227	9,417	1418,146	754,483
-36,213	9,436	1416,863	753,863
-35,198	9,412	1415,735	753,122
-34,184	9,425	1414,827	752,669
-33,169	9,406	1413,516	751,849
-32,154	9,420	1412,545	751,370
-31,140	9,401	1411,417	750,651
-30,125	9,436	1410,246	750,162
-29,111	9,393	1409,051	749,296
-28,096	9,414	1407,704	748,646
-27,082	9,357	1406,553	747,740
-26,067	9,322	1405,441	746,953
-25,052	9,383	1404,554	746,738
-24,038	9,429	1403,457	746,342
-23,023	9,384	1402,646	745,669
-22,009	9,387	1401,492	745,043
-20,994	9,380	1400,550	744,479
-19,979	9,374	1399,682	743,961
-18,965	9,384	1398,761	743,487
-17,950	9,398	1397,563	742,887
-16,936	9,324	1397,063	742,248
-15,921	9,248	1396,003	741,301
-14,906	9,282	1395,011	740,902
-13,892	9,377	1393,955	740,752
-12,877	9,314	1393,349	740,109
-11,863	9,284	1392,398	739,438
-10,848	9,231	1391,650	738,766
-9,833	9,221	1390,548	738,103
-8,819	9,131	1389,840	737,284
-7,804	9,177	1388,767	736,895
-6,790	9,204	1387,617	736,383
-5,775	9,182	1386,634	735,729
-4,760	9,191	1385,699	735,246
-3,746	9,219	1384,877	734,910
-2,731	9,181	1383,958	734,217
-1,717	9,215	1382,925	733,798
-0,702	9,224	1381,198	732,893
0,313	13,374	1293,833	705,405
1,327	29,904	685,335	410,863
2,342	46,635	118,183	77,221
3,356	1,805	16,330	8,272
4,371	0,759	3,692	1,857
5,386	-19,253	1,149	0,501
6,400	370,496	0,379	0,544
7,415	-150,993	-0,271	-0,014
8,429	-37,621	-0,283	-0,106
9,444	136,155	-0,265	-0,243
10,459	172,964	-0,204	-0,207
11,473	14,153	-0,281	-0,154
12,488	-68,588	-0,289	-0,078
13,502	-76,212	-0,375	-0,092
14,517	51,219	-0,210	-0,140
15,531	28,044	-0,407	-0,241
16,546	84,828	-0,283	-0,218
17,561	10,477	-0,358	-0,192
18,575	185,686	-0,168	-0,176
19,590	90,296	-0,260	-0,205
20,604	91,053	-0,129	-0,101
21,619	64,131	-0,474	-0,335
22,634	7,887	-0,539	-0,283
23,648	342,033	-0,332	-0,458
24,663	79,106	-0,340	-0,256
25,677	-23,689	-0,341	-0,143
26,692	146,451	-0,196	-0,185
27,707	63,313	-0,310	-0,218
28,721	26,471	-0,430	-0,252
29,736	-7,838	-0,401	-0,190
30,750	-40,595	-0,460	-0,167
31,765	225,633	-0,301	-0,343
32,780	60,260	-0,376	-0,261
33,794	-58,836	-0,335	-0,101
34,809	-25,863	-0,292	-0,120
35,823	-33,919	-0,302	-0,116
36,838	126,041	-0,366	-0,326
37,853	163,327	-0,311	-0,308
38,867	27,889	-0,401	-0,237
39,882	192,474	-0,198	-0,211
40,896	136,555	-0,362	-0,332
41,911	-50,139	-0,380	-0,126
42,926	102,834	-0,347	-0,285
43,940	59,917	-0,383	-0,266
44,955	-48,237	-0,456	-0,154
45,969	-12,696	-0,397	-0,181
46,984	66,050	-0,294	-0,209
47,999	156,129	-0,282	-0,273
49,013	109,981	-0,299	-0,252
50,028	-35,720	-0,401	-0,152
51,042	203,927	-0,275	-0,300
52,057	85,679	-0,391	-0,301
53,071	39,284	-0,450	-0,282
54,086	83,699	-0,320	-0,245
55,101	261,934	-0,262	-0,319
56,115	70,664	-0,271	-0,197
57,130	-57,235	-0,367	-0,113
58,144	23,770	-0,369	-0,212
59,159	83,516	-0,415	-0,317
60,174	239,480	-0,221	-0,258
61,188	116,839	-0,308	-0,265
62,203	-55,914	-0,254	-0,079
63,217	-133,585	-0,410	-0,035
64,232	26,839	-0,371	-0,217
65,247	19,596	-0,259	-0,146
66,261	72,445	-0,233	-0,170
67,276	1,327	-0,360	-0,181
68,290	185,945	-0,297	-0,310
69,305	57,032	-0,335	-0,229
70,320	67,965	-0,207	-0,148
71,334	19,265	-0,337	-0,189
72,349	-13,232	-0,360	-0,163
73,363	24,304	-0,386	-0,223
74,378	101,017	-0,252	-0,206
75,393	117,849	-0,204	-0,176
76,407	61,382	-0,326	-0,227
77,422	101,618	-0,188	-0,153
78,436	800,000	-0,059	-0,124
79,451	42,357	-0,181	-0,115
80,466	178,123	-0,251	-0,257
81,480	71,116	-0,322	-0,234
82,495	169,474	-0,335	-0,335
83,509	0,707	-0,202	-0,101
84,524	-16,726	-0,173	-0,077
85,539	-5,790	-0,266	-0,127
86,553	-19,712	-0,245	-0,106
87,568	-88,174	-0,351	-0,073
88,582	-63,748	-0,184	-0,052
89,597	-68,447	-0,363	-0,098
90,611	-38,032	-0,260	-0,096
91,626	-5,827	-0,241	-0,115
92,641	1,449	-0,290	-0,145
93,655	142,053	-0,252	-0,234
94,670	28,550	-0,240	-0,142
95,684	24,796	-0,425	-0,246
96,699	106,190	-0,259	-0,214
97,714	53,889	-0,223	-0,150
98,728	48,955	-0,248	-0,163
99,743	71,351	-0,218	-0,158
100,757	86,025	-0,308	-0,236
101,772	-73,473	-0,254	-0,064
102,787	118,847	-0,237	-0,205
103,801	85,649	-0,140	-0,107
104,816	155,794	-0,280	-0,270
105,830	160,071	-0,275	-0,268
106,845	-23,713	-0,151	-0,063
107,860	2,901	-0,277	-0,140
108,874	74,471	-0,229	-0,168
109,889	-54,784	-0,362	-0,114
110,903	87,101	-0,276	-0,213
111,918	-23,203	-0,321	-0,134
112,933	-98,965	-0,261	0,046
113,947	-145,155	-0,214	0,013
114,962	-75,020	-0,290	-0,072
115,976	-9,729	-0,323	-0,150
116,991	11,044	-0,296	-0,158
118,006	206,889	-0,285	-0,310
119,020	29,903	-0,229	-0,136
120,035	148,179	-0,167	-0,157
121,049	174,567	-0,140	-0,142
122,064	67,607	-0,134	-0,095
123,079	-12,457	-0,191	-0,087
124,093	-14,849	-0,319	-0,142
125,108	-90,859	-0,297	-0,059
126,122	16,182	-0,274	-0,150
127,137	459,964	-0,206	-0,321
128,151	8,821	-0,148	-0,077
129,166	129,166	-0,257	-0,229
130,181	14,574	-0,229	-0,124
131,195	-42,967	-0,162	-0,057
132,210	-20,259	-0,278	-0,119
133,224	59,618	-0,264	-0,181
134,239	18,677	-0,260	-0,145
135,254	296,861	-0,170	-0,218
136,268	-94,187	-0,267	-0,050
137,283	215,912	-0,210	-0,233
138,297	-43,206	-0,231	-0,081
139,312	59,407	-0,258	-0,177
140,327	29,803	-0,227	-0,135
141,341	800,000	-0,161	-0,349
142,356	36,312	-0,188	-0,115
143,370	68,431	-0,245	-0,175
144,385	176,684	-0,110	-0,111
145,400	75,545	-0,373	-0,274
146,414	6,091	-0,361	-0,186
147,429	9,163	-0,366	-0,192
148,443	70,097	-0,237	-0,170
149,458	800,000	-0,187	-0,396
150,473	100,159	-0,182	-0,147
151,487	152,560	-0,228	-0,217
152,502	102,675	-0,184	-0,150
153,516	-21,814	-0,323	-0,136
154,531	138,821	-0,232	-0,212
155,546	6,149	-0,333	-0,171
156,560	283,341	-0,168	-0,211
157,575	62,386	-0,129	-0,089
158,589	19,278	-0,227	-0,126
159,604	64,145	-0,294	-0,206
160,619	110,097	-0,339	-0,282
161,633	237,648	-0,224	-0,259
162,648	-50,318	-0,317	-0,103
163,662	-2,612	-0,300	-0,145
164,677	176,880	-0,195	-0,197
165,692	387,477	-0,129	-0,187
166,706	160,891	-0,134	-0,130
167,721	286,088	-0,234	-0,294
168,735	134,102	-0,275	-0,248
169,750	247,607	-0,231	-0,271
170,764	204,014	-0,139	-0,149
171,779	-6,219	-0,196	-0,093
172,794	30,875	-0,248	-0,147
173,808	17,137	-0,343	-0,188
174,823	21,156	-0,374	-0,210
175,837	-29,891	-0,229	-0,090
176,852	67,781	-0,282	-0,200
177,867	126,388	-0,183	-0,161
178,881	141,798	-0,131	-0,120
179,896	34,154	-0,156	-0,094
180,910	74,085	-0,171	-0,125
181,925	24,557	-0,270	-0,155
182,940	25,075	-0,356	-0,205
183,954	48,043	-0,168	-0,109
184,969	108,130	-0,169	-0,139
185,983	-31,646	-0,204	-0,079
186,998	294,948	-0,113	-0,144
188,013	-68,308	-0,266	-0,071
189,027	94,920	-0,246	-0,194
190,042	-117,622	-0,318	-0,039
191,056	47,059	-0,217	-0,140
192,071	-93,364	-0,165	0,031
193,086	-134,039	-0,234	0,020
194,100	3,627	-0,316	-0,159
195,115	547,924	-0,158	-0,263
196,129	-4,546	-0,268	-0,128
197,144	-122,157	-0,230	-0,026
198,159	252,331	-0,254	-0,301
199,173	-200,000	-0,082	-0,263
200,188	252,705	-0,149	-0,177
201,202	82,578	-0,193	-0,145
202,217	47,878	-0,167	-0,108
203,232	194,805	-0,186	-0,196
204,246	-23,957	-0,286	-0,118
205,261	-200,000	-0,042	-0,150
206,275	800,000	-0,145	-0,287
207,290	27,814	-0,149	-0,087
208,304	-21,161	-0,089	-0,038
209,319	31,367	-0,223	-0,132
210,334	123,992	-0,219	-0,190
211,348	435,444	-0,155	-0,234
212,363	11,387	-0,231	-0,122
213,377	-47,640	-0,167	-0,056
214,392	-8,009	-0,155	-0,072
215,407	107,653	-0,218	-0,180
216,421	49,468	-0,117	-0,076
217,436	212,263	-0,152	-0,166
218,450	328,933	-0,118	-0,157
219,465	173,397	-0,205	-0,205
220,480	32,845	-0,200	-0,119
221,494	171,328	-0,107	-0,106
222,509	290,171	-0,171	-0,216
223,523	28,289	-0,185	-0,108
224,538	204,948	-0,099	-0,107
225,553	123,622	-0,188	-0,163
226,567	175,322	-0,191	-0,191
227,582	34,107	-0,210	-0,126
228,596	-29,806	-0,231	-0,091
229,611	-38,871	-0,214	-0,078
230,626	-168,876	-0,133	-0,003
231,640	391,152	-0,123	-0,177
232,655	245,190	-0,075	-0,088
233,669	-88,484	-0,231	-0,047
234,684	54,987	-0,288	-0,192
235,699	196,908	-0,215	-0,226
236,713	-123,260	-0,291	-0,032
237,728	56,545	-0,251	-0,168
238,742	319,028	-0,175	-0,230
239,757	19,418	-0,254	-0,141
240,772	228,884	-0,137	-0,154
241,786	239,571	-0,161	-0,185
242,801	84,124	-0,154	-0,116
243,815	-43,389	-0,147	-0,051
244,830	10,807	-0,121	-0,064
245,844	-42,350	-0,308	-0,108
246,859	241,925	-0,171	-0,197
247,874	264,843	-0,115	-0,138
248,888	158,777	-0,152	-0,145
249,903	363,068	-0,155	-0,216
250,917	-79,823	-0,153	0,035
251,932	-48,971	-0,229	-0,075
252,947	133,198	-0,225	-0,201
253,961	249,943	-0,194	-0,228
254,976	4,634	-0,274	-0,138
255,990	13,141	-0,230	-0,122
257,005	616,943	-0,079	-0,138
258,020	84,743	-0,201	-0,152
259,034	-200,000	-0,023	-0,113
260,049	-32,044	-0,107	-0,041
261,063	-138,559	-0,129	-0,010
262,078	183,700	-0,194	-0,198
263,093	49,920	-0,235	-0,153
264,107	-87,872	-0,115	0,024
265,122	-134,254	-0,046	0,004
266,136	267,052	-0,060	-0,073
267,151	2,752	-0,077	-0,038
268,166	-37,306	-0,172	-0,063
269,180	360,303	-0,119	-0,165
270,195	224,562	-0,178	-0,199
271,209	-19,285	-0,159	-0,068
272,224	-200,000	-0,001	-0,070
273,239	3,436	-0,109	0,054
274,253	139,814	-0,169	-0,153
275,268	206,235	-0,160	-0,172
276,282	28,349	-0,201	-0,117
277,297	800,000	-0,122	-0,293
278,312	41,667	-0,161	-0,100
279,326	620,961	-0,019	-0,034
280,341	-165,161	-0,234	0,007
281,355	118,261	-0,166	-0,141
282,370	329,383	-0,218	-0,289
283,384	239,564	-0,244	-0,280
284,399	292,174	-0,133	-0,167
285,414	555,321	-0,066	-0,110
286,428	183,140	-0,136	-0,138
287,443	-105,332	-0,136	-0,021
288,457	316,176	-0,110	-0,143
289,472	636,181	-0,081	-0,143
290,487	800,000	-0,061	-0,118
291,501	496,606	-0,100	-0,158
292,516	800,000	-0,033	-0,086
293,530	208,005	-0,184	-0,197
294,545	0,336	-0,122	-0,060
295,560	370,849	-0,126	-0,177
296,574	190,680	-0,167	-0,173
297,589	727,717	-0,080	-0,148
298,603	800,000	-0,173	-0,331
299,618	227,768	-0,196	-0,220
300,633	31,267	-0,171	-0,100
301,647	149,648	-0,058	-0,054
302,662	134,198	-0,088	-0,079
303,676	-66,022	-0,165	-0,045
304,691	493,288	-0,116	-0,183
305,706	-5,721	-0,175	-0,082
306,720	61,339	-0,147	-0,100
307,735	-200,000	-0,031	-0,330
308,749	552,071	-0,089	-0,148
309,764	35,889	-0,160	-0,096
310,779	-200,000	-0,035	-0,178
311,793	3,455	-0,203	-0,101
312,808	800,000	-0,084	-0,242
313,822	169,470	-0,182	-0,178
314,837	306,333	-0,122	-0,156
315,852	-13,556	-0,082	-0,036
316,866	-92,504	-0,195	-0,037
317,881	1,546	-0,064	-0,031
318,895	91,707	-0,067	-0,052
319,910	42,143	-0,196	-0,122
320,925	303,022	-0,074	-0,095
321,939	64,589	-0,205	-0,141
322,954	-200,000	0,044	-0,286
323,968	-7,570	-0,020	0,009
324,983	-3,310	-0,203	-0,097
325,997	170,881	-0,183	-0,180
327,012	96,094	-0,200	-0,156
328,027	-200,000	-0,035	-0,115
329,041	163,519	-0,148	-0,142
330,056	-200,000	-0,042	-0,157
331,070	190,750	-0,026	-0,026
332,085	-71,724	-0,118	0,030
333,100	26,536	-0,194	-0,111
334,114	184,302	-0,099	-0,101
335,129	75,192	-0,143	-0,103
336,143	476,481	-0,106	-0,165
337,158	-57,269	-0,169	-0,051
338,173	-200,000	0,012	-0,047
339,187	-121,349	-0,153	0,017
340,202	139,612	-0,213	-0,192
341,216	167,547	-0,185	-0,180
342,231	83,354	-0,230	-0,172
343,246	429,206	-0,110	-0,163
344,260	-200,000	-0,032	-0,110
345,275	499,564	-0,064	-0,101
346,289	108,981	-0,104	-0,085
347,304	-43,032	-0,179	-0,062
348,319	51,285	-0,088	-0,057
349,333	-93,787	-0,228	-0,042
350,348	-84,047	-0,102	-0,022
351,362	396,126	-0,112	-0,160
352,377	71,180	0,057	0,040
353,392	-0,854	-0,141	-0,068
354,406	800,000	-0,039	-0,093
355,421	206,263	1307,366	1392,592
356,435	158,626	1467,157	1393,068
