DTS Sentinel unit serial number:	SN410029Multiplexer serial number:	ORYXHardware model number:	OX2-SRSoftware version number:	ORYX F/W v4,00 Oryx Data Collector v3.7.2.0data status	okinstallation	B3 Nyhavnadifferential loss correction	single-endedforward channel	channel 1reverse channel	N/Adate	2023/12/01time	16:17:30forward acquisition time	300,00reverse acquisition time	0,00gamma	499,1914k internal	0,3207k external	0,3207temperature offset calibration	1,0000default loss term (dB/km)	0,3820temperature slope calibration	1,0000multiplexer offset coefficient	1,0000multiplexer slope coefficient	1,0000fibre end	0,00T internal ref (°C)	13,02T ext. ref 1 (°C)	-0,52T ext. ref 2 (°C)	-0,54length (m)	temperature (°C)	Stokes	anti-Stokes-744,400	195,494	-0,184	-0,203
-743,385	333,810	0,181	0,255
-742,371	79,607	-0,225	-0,175
-741,356	800,000	0,093	0,199
-740,342	175,073	-0,156	-0,164
-739,327	-200,000	-0,027	0,335
-738,312	368,853	-0,158	-0,233
-737,298	-200,000	-0,033	0,219
-736,283	800,000	-0,140	-0,313
-735,269	-200,000	0,089	0,354
-734,254	161,057	-0,193	-0,196
-733,239	120,717	-0,147	0,132
-732,225	89,472	-0,171	-0,139
-731,210	43,623	0,230	0,153
-730,196	101,415	0,063	-0,053
-729,181	65,880	0,030	-0,022
-728,167	296,345	-0,016	0,022
-727,152	800,000	0,038	0,094
-726,137	-200,000	0,010	-0,118
-725,123	185,807	-0,014	0,015
-724,108	57,409	-0,098	-0,070
-723,094	800,000	-0,057	-0,164
-722,079	800,000	0,017	0,046
-721,064	-15,517	-0,033	-0,015
-720,050	-34,962	0,093	0,037
-719,035	-49,262	-0,153	0,053
-718,021	6,654	-0,104	0,056
-717,006	-200,000	-0,024	-0,102
-715,991	751,681	-0,071	-0,140
-714,977	-200,000	-0,015	-0,100
-713,962	47,814	-0,017	-0,012
-712,948	92,559	-0,079	0,064
-711,933	-200,000	-0,007	-0,034
-710,918	27,966	-0,105	0,064
-709,904	60,026	-0,059	-0,042
-708,889	180,388	0,061	-0,065
-707,875	95,807	-0,110	-0,091
-706,860	15,911	0,128	-0,073
-705,845	199,071	-0,030	0,033
-704,831	104,781	0,068	0,058
-703,816	-200,000	-0,034	0,161
-702,802	260,275	-0,087	0,110
-701,787	65,069	0,009	0,007
-700,772	183,020	0,060	-0,064
-699,758	-34,040	-0,115	0,046
-698,743	419,795	0,048	-0,075
-697,729	-119,903	-0,046	-0,006
-696,714	-52,154	0,107	0,036
-695,699	-122,621	-0,208	-0,024
-694,685	182,388	0,085	-0,091
-693,670	800,000	0,049	-0,113
-692,656	200,079	-0,067	-0,074
-691,641	-146,292	0,064	0,004
-690,627	800,000	-0,073	0,228
-689,612	-200,000	-0,222	0,000
-688,597	-109,779	0,065	0,010
-687,583	-12,055	-0,115	-0,055
-686,568	800,000	0,007	-0,021
-685,554	800,000	-0,021	0,054
-684,539	-143,581	-0,052	-0,004
-683,524	-200,000	0,008	-0,107
-682,510	800,000	-0,016	0,033
-681,495	-53,220	0,147	0,048
-680,481	-143,657	-0,247	0,017
-679,466	-3,721	-0,069	-0,034
-678,451	481,811	0,028	-0,046
-677,437	-107,944	-0,166	0,026
-676,422	800,000	-0,055	-0,122
-675,408	-4,440	0,081	-0,040
-674,393	-84,873	0,013	0,003
-673,378	800,000	-0,026	-0,079
-672,364	126,032	-0,162	-0,148
-671,349	-60,661	-0,092	0,028
-670,335	125,418	0,037	0,033
-669,320	-200,000	0,010	0,062
-668,305	-72,365	-0,026	-0,007
-667,291	107,361	0,088	0,076
-666,276	-34,929	-0,057	0,023
-665,262	547,175	-0,053	-0,092
-664,247	800,000	0,073	-0,150
-663,232	-53,806	-0,037	-0,012
-662,218	451,518	0,026	-0,042
-661,203	8,524	-0,104	0,056
-660,189	-200,000	0,006	-0,030
-659,174	259,192	-0,054	-0,067
-658,159	75,073	-0,105	0,080
-657,145	316,685	-0,056	0,077
-656,130	-200,000	0,017	0,178
-655,116	319,743	0,035	-0,048
-654,101	213,167	0,073	-0,084
-653,086	800,000	0,058	0,146
-652,072	-160,148	0,050	-0,002
-651,057	58,705	-0,054	-0,038
-650,043	-134,555	0,127	0,011
-649,028	800,000	0,062	0,127
-648,014	-80,686	0,075	-0,018
-646,999	313,957	-0,116	-0,159
-645,984	-200,000	0,003	-0,100
-644,970	776,440	0,011	-0,021
-643,955	132,672	-0,140	0,131
-642,941	658,359	-0,052	-0,097
-641,926	191,462	0,047	-0,052
-640,911	-200,000	-0,008	-0,025
-639,897	-68,280	-0,125	-0,035
-638,882	-17,381	-0,045	-0,021
-637,868	800,000	-0,025	0,059
-636,853	-96,254	-0,099	-0,019
-635,838	-163,904	-0,039	0,001
-634,824	-34,415	-0,068	-0,027
-633,809	696,864	0,042	-0,080
-632,795	376,312	-0,053	0,078
-631,780	243,279	-0,068	0,082
-630,765	-9,825	0,036	0,017
-629,751	-200,000	-0,005	-0,061
-628,736	-23,194	0,033	-0,014
-627,722	-200,000	-0,001	-0,033
-626,707	-71,577	-0,034	0,009
-625,692	-18,044	0,029	-0,013
-624,678	22,170	0,110	-0,065
-623,663	-200,000	-0,003	0,050
-622,649	-147,357	-0,050	-0,003
-621,634	61,142	0,031	0,022
-620,619	800,000	0,036	-0,108
-619,605	389,174	0,009	0,014
-618,590	-90,373	0,161	-0,033
-617,576	-24,537	-0,077	-0,033
-616,561	315,294	-0,092	-0,125
-615,546	-97,197	0,071	0,013
-614,532	-19,063	0,132	-0,059
-613,517	88,258	0,048	0,038
-612,503	-118,715	-0,059	-0,007
-611,488	-200,000	0,014	0,111
-610,474	321,154	0,082	0,113
-609,459	167,058	-0,068	0,070
-608,444	-200,000	0,005	-0,070
-607,430	-200,000	0,019	-0,111
-606,415	-200,000	0,012	0,134
-605,401	42,331	-0,096	-0,063
-604,386	-31,546	0,025	0,010
-603,371	800,000	-0,023	-0,062
-602,357	129,081	-0,082	0,075
-601,342	-107,383	-0,114	-0,018
-600,328	-160,552	0,080	-0,003
-599,313	193,854	0,096	-0,105
-598,298	-200,000	-0,017	0,102
-597,284	29,271	0,054	0,033
-596,269	86,054	-0,095	0,075
-595,255	800,000	0,034	0,104
-594,240	124,982	-0,033	-0,030
-593,225	459,088	-0,048	-0,078
-592,211	800,000	0,027	-0,076
-591,196	495,654	-0,012	-0,021
-590,182	-0,296	0,091	0,047
-589,167	800,000	0,025	-0,079
-588,152	650,763	-0,096	-0,179
-587,138	739,090	0,017	-0,033
-586,123	800,000	-0,041	0,094
-585,109	106,225	-0,064	-0,054
-584,094	-10,175	-0,062	-0,030
-583,079	233,140	0,124	0,148
-582,065	-200,000	0,024	-0,090
-581,050	-95,827	0,026	0,005
-580,036	-200,000	-0,007	0,025
-579,021	465,563	0,047	-0,076
-578,006	-200,000	0,014	-0,073
-576,992	-161,915	0,105	-0,004
-575,977	0,641	0,039	0,020
-574,963	-78,237	-0,078	-0,019
-573,948	800,000	0,028	0,085
-572,934	-200,000	0,014	0,114
-571,919	212,140	0,081	-0,093
-570,904	85,595	-0,047	0,037
-569,890	-89,727	-0,041	-0,009
-568,875	-200,000	0,011	0,131
-567,861	789,089	0,038	0,075
-566,846	-50,469	-0,023	-0,008
-565,831	159,435	0,061	-0,061
-564,817	-32,096	0,172	0,069
-563,802	-200,000	0,013	0,044
-562,788	800,000	-0,070	-0,173
-561,773	-92,364	-0,104	0,021
-560,758	-182,935	0,086	-0,001
-559,744	800,000	-0,062	0,126
-558,729	-141,231	-0,066	0,005
-557,715	-131,429	-0,079	0,007
-556,700	-47,429	-0,171	-0,060
-555,685	-65,296	0,059	0,017
-554,671	800,000	-0,030	0,080
-553,656	320,699	0,088	0,121
-552,642	-85,096	0,070	-0,016
-551,627	20,517	-0,088	-0,051
-550,612	-200,000	-0,009	-0,093
-549,598	91,107	0,094	-0,076
-548,583	-200,000	-0,004	-0,048
-547,569	-57,905	0,130	-0,041
-546,554	-108,871	-0,106	0,016
-545,539	-143,171	0,062	-0,004
-544,525	-200,000	-0,014	-0,054
-543,510	-99,987	-0,082	0,015
-542,496	249,959	0,006	0,007
-541,481	-149,072	-0,087	0,005
-540,466	-200,000	-0,007	0,092
-539,452	130,212	0,030	0,028
-538,437	-200,000	-0,021	0,135
-537,423	800,000	0,044	0,125
-536,408	107,744	-0,073	-0,063
-535,393	80,185	-0,068	0,052
-534,379	-27,936	-0,079	-0,033
-533,364	-200,000	0,021	0,069
-532,350	57,830	-0,080	0,056
-531,335	800,000	0,016	0,044
-530,321	-200,000	-0,009	-0,174
-529,306	-200,000	0,015	-0,175
-528,291	-200,000	0,005	0,075
-527,277	-200,000	0,017	-0,083
-526,262	772,546	-0,033	-0,064
-525,248	800,000	-0,017	0,039
-524,233	-83,412	0,084	0,019
-523,218	-200,000	0,011	0,179
-522,204	800,000	0,040	0,096
-521,189	800,000	0,045	0,092
-520,175	800,000	-0,018	-0,048
-519,160	142,661	-0,088	-0,084
-518,145	97,335	-0,039	0,033
-517,131	-23,172	0,066	-0,028
-516,116	230,704	0,075	0,088
-515,102	-114,869	0,055	0,007
-514,087	-200,000	-0,014	0,071
-513,072	509,561	-0,097	-0,163
-512,058	-25,756	0,091	0,038
-511,043	275,743	0,087	-0,111
-510,029	18,752	0,065	-0,037
-509,014	-74,959	0,130	0,033
-507,999	-111,391	0,072	-0,010
-506,985	-121,158	-0,153	-0,018
-505,970	-58,852	-0,065	-0,020
-504,956	203,297	-0,108	-0,120
-503,941	374,858	0,005	-0,008
-502,926	-200,000	-0,002	0,027
-501,912	55,039	-0,079	0,055
-500,897	603,557	-0,035	-0,063
-499,883	63,222	-0,122	-0,088
-498,868	-200,000	-0,000	0,009
-497,853	-200,000	-0,018	-0,074
-496,839	-200,000	0,009	0,029
-495,824	-95,877	0,037	0,007
-494,810	23,874	0,043	0,025
-493,795	216,207	-0,131	0,150
-492,781	662,257	0,074	-0,137
-491,766	-168,468	-0,060	0,002
-490,751	70,093	-0,114	0,085
-489,737	-200,000	-0,009	-0,035
-488,722	-81,057	0,077	-0,018
-487,708	192,992	0,074	-0,080
-486,693	105,493	0,044	0,037
-485,678	104,090	0,060	0,051
-484,664	518,719	-0,066	-0,112
-483,649	-200,000	-0,013	-0,134
-482,635	698,953	0,028	-0,054
-481,620	371,425	-0,095	0,139
-480,605	-159,244	0,057	-0,002
-479,591	800,000	-0,050	0,156
-478,576	468,419	0,046	-0,074
-477,562	16,909	0,113	0,064
-476,547	-14,004	-0,209	-0,096
-475,532	-89,479	0,135	0,028
-474,518	-57,670	-0,219	0,069
-473,503	553,470	0,099	0,172
-472,489	736,613	-0,072	0,139
-471,474	-76,270	0,061	0,015
-470,459	-200,000	0,001	0,046
-469,445	-37,089	-0,069	-0,027
-468,430	-200,000	-0,029	-0,161
-467,416	412,075	-0,040	-0,062
-466,401	113,017	0,119	-0,104
-465,386	285,072	0,067	-0,087
-464,372	800,000	0,027	-0,061
-463,357	-82,601	-0,019	0,004
-462,343	-16,455	-0,232	-0,105
-461,328	-200,000	-0,011	0,083
-460,313	-200,000	-0,002	-0,094
-459,299	235,807	-0,045	-0,054
-458,284	762,832	0,081	0,158
-457,270	800,000	-0,026	0,071
-456,255	-200,000	0,013	0,104
-455,241	130,996	0,071	0,065
-454,226	234,252	0,053	-0,062
-453,211	83,691	0,041	-0,032
-452,197	175,925	-0,073	0,076
-451,182	800,000	-0,020	-0,062
-450,168	327,821	0,015	-0,021
-449,153	629,283	-0,048	-0,088
-448,138	37,243	0,123	0,078
-447,124	800,000	0,018	-0,042
-446,109	162,088	0,055	-0,056
-445,095	-200,000	0,012	0,089
-444,080	15,160	0,086	-0,048
-443,065	-200,000	0,015	-0,049
-442,051	-200,000	0,016	-0,098
-441,036	675,812	-0,054	-0,102
-440,022	800,000	-0,045	-0,134
-439,007	15,047	-0,070	-0,039
-437,992	800,000	0,074	0,171
-436,978	98,184	0,063	-0,052
-435,963	-128,338	0,107	0,011
-434,949	483,678	0,050	0,082
-433,934	14,563	-0,112	0,063
-432,919	-13,904	-0,110	-0,051
-431,905	391,034	-0,039	-0,058
-430,890	800,000	-0,024	-0,073
-429,876	90,172	0,090	0,072
-428,861	90,269	0,128	0,102
-427,846	70,010	-0,044	0,033
-426,832	800,000	0,038	-0,101
-425,817	-67,157	0,131	-0,037
-424,803	110,641	-0,059	-0,051
-423,788	-200,000	0,010	0,036
-422,773	-73,875	-0,140	0,036
-421,759	-200,000	-0,002	0,065
-420,744	-76,409	0,050	-0,013
-419,730	-120,382	-0,099	-0,012
-418,715	800,000	-0,050	0,115
-417,701	800,000	-0,035	0,085
-416,686	80,193	0,030	-0,023
-415,671	-86,057	-0,038	-0,008
-414,657	-146,309	0,087	-0,005
-413,642	-200,000	0,006	0,041
-412,628	800,000	0,034	0,092
-411,613	-41,991	-0,075	-0,027
-410,598	356,991	-0,015	0,021
-409,584	45,101	0,022	0,014
-408,569	200,593	0,019	0,021
-407,555	321,365	0,073	-0,100
-406,540	-200,000	0,007	-0,046
-405,525	-122,784	-0,032	-0,004
-404,511	288,750	-0,029	0,037
-403,496	9,725	-0,053	-0,029
-402,482	34,477	0,058	0,036
-401,467	-200,000	0,013	-0,112
-400,452	615,644	-0,038	-0,068
-399,438	130,087	-0,131	0,120
-398,423	-54,245	-0,067	0,022
-397,409	480,418	0,025	-0,040
-396,394	-200,000	-0,003	-0,207
-395,379	-43,469	-0,077	0,028
-394,365	800,000	0,037	0,083
-393,350	-46,633	0,097	-0,034
-392,336	106,995	0,086	0,073
-391,321	-57,626	0,032	0,010
-390,306	-117,606	0,108	-0,014
-389,292	-38,605	-0,125	0,047
-388,277	-146,526	-0,123	0,008
-387,263	-43,183	0,090	0,032
-386,248	17,442	-0,041	-0,023
-385,233	-59,507	0,046	-0,014
-384,219	-32,876	-0,105	0,042
-383,204	-112,943	-0,098	0,014
-382,190	-57,576	-0,064	-0,020
-381,175	-119,293	0,059	-0,007
-380,160	5,207	-0,047	0,025
-379,146	292,054	0,090	0,118
-378,131	70,496	0,052	0,039
-377,117	-200,000	0,026	0,154
-376,102	-200,000	-0,001	-0,099
-375,088	-200,000	0,002	-0,160
-374,073	-200,000	-0,006	-0,093
-373,058	18,383	-0,047	-0,027
-372,044	-117,117	0,158	-0,020
-371,029	210,970	0,096	0,108
-370,015	51,203	0,111	0,075
-369,000	-200,000	0,006	-0,081
-367,985	182,261	-0,059	0,062
-366,971	800,000	-0,038	0,102
-365,956	-200,000	-0,004	0,023
-364,942	-120,919	0,095	-0,011
-363,927	800,000	0,060	0,132
-362,912	59,015	-0,042	0,029
-361,898	-35,978	-0,088	0,034
-360,883	-74,042	0,016	-0,004
-359,869	22,278	0,065	0,038
-358,854	126,652	0,105	-0,095
-357,839	-200,000	-0,019	0,118
-356,825	117,752	0,046	-0,040
-355,810	6,914	-0,077	0,041
-354,796	-102,480	0,144	0,024
-353,781	238,103	-0,049	-0,058
-352,766	-200,000	-0,004	0,133
-351,752	37,236	-0,045	0,029
-350,737	748,736	0,069	0,134
-349,723	-127,787	0,066	0,007
-348,708	46,614	0,031	0,020
-347,693	800,000	-0,070	-0,144
-346,679	146,424	-0,055	0,053
-345,664	800,000	-0,053	0,115
-344,650	376,647	0,035	-0,051
-343,635	-51,173	0,020	0,007
-342,620	800,000	-0,045	0,095
-341,606	142,472	0,037	-0,035
-340,591	-200,000	0,013	0,077
-339,577	-200,000	-0,015	0,168
-338,562	475,899	-0,069	0,112
-337,548	193,685	0,078	0,084
-336,533	-200,000	-0,008	0,025
-335,518	-119,399	0,086	-0,011
-334,504	230,277	0,057	0,067
-333,489	171,421	-0,083	0,086
-332,475	176,409	-0,088	-0,091
-331,460	117,179	-0,019	0,017
-330,445	-49,472	-0,129	-0,044
-329,431	-185,656	-0,031	-0,000
-328,416	-200,000	0,017	-0,075
-327,402	114,031	-0,094	-0,081
-326,387	-200,000	0,013	0,067
-325,372	-87,097	0,029	-0,006
-324,358	695,115	-0,011	-0,020
-323,343	92,812	-0,078	-0,063
-322,329	800,000	0,039	0,082
-321,314	147,777	-0,125	0,120
-320,299	-200,000	-0,009	0,073
-319,285	178,098	0,022	-0,023
-318,270	61,145	-0,145	0,103
-317,256	374,274	-0,022	-0,032
-316,241	44,267	-0,147	-0,096
-315,226	800,000	-0,046	0,092
-314,212	-118,255	-0,085	0,011
-313,197	800,000	0,012	0,030
-312,183	425,787	-0,101	-0,155
-311,168	-200,000	0,009	0,027
-310,153	-109,625	-0,107	-0,016
-309,139	-200,000	0,039	0,125
-308,124	-18,774	-0,030	-0,013
-307,110	-200,000	-0,013	0,172
-306,095	11,258	-0,020	0,011
-305,080	800,000	0,045	-0,127
-304,066	-10,647	0,142	-0,067
-303,051	-200,000	-0,069	-0,226
-302,037	13,729	-0,094	-0,052
-301,022	-56,302	0,203	0,064
-300,008	-159,005	0,106	0,004
-298,993	-110,832	0,086	-0,013
-297,978	41,653	0,061	0,039
-296,964	-200,000	-0,019	-0,113
-295,949	290,171	-0,044	-0,058
-294,935	-200,000	-0,039	-0,182
-293,920	-170,200	0,109	0,003
-292,905	-200,000	-0,016	-0,106
-291,891	-200,000	0,017	0,110
-290,876	-40,872	-0,166	-0,061
-289,862	-200,000	0,010	0,104
-288,847	800,000	-0,082	-0,178
-287,832	-200,000	0,015	0,054
-286,818	103,276	0,106	0,089
-285,803	800,000	-0,084	0,201
-284,789	-200,000	-0,011	0,037
-283,774	-200,000	-0,004	-0,016
-282,759	725,592	0,031	0,058
-281,745	-200,000	0,012	-0,069
-280,730	327,591	-0,042	-0,057
-279,716	771,778	-0,060	-0,117
-278,701	-72,570	-0,015	0,004
-277,686	-113,234	0,199	-0,028
-276,672	239,227	-0,077	-0,092
-275,657	-70,285	0,194	-0,052
-274,643	-200,000	-0,005	-0,042
-273,628	-50,338	-0,040	-0,014
-272,613	81,459	-0,081	0,062
-271,599	52,197	0,130	-0,088
-270,584	616,990	0,031	-0,056
-269,570	-200,000	0,044	0,150
-268,555	664,617	-0,027	0,049
-267,540	195,464	-0,153	-0,166
-266,526	58,084	0,012	-0,009
-265,511	800,000	0,058	0,144
-264,497	800,000	0,049	0,103
-263,482	-128,666	0,013	0,001
-262,467	152,285	-0,011	0,010
-261,453	-59,045	0,052	0,016
-260,438	204,777	-0,064	0,071
-259,424	134,136	-0,084	-0,077
-258,409	-76,887	-0,025	0,006
-257,395	-73,130	-0,060	0,016
-256,380	-200,000	0,035	0,114
-255,365	-200,000	0,023	0,124
-254,351	435,014	0,087	-0,135
-253,336	388,248	-0,029	-0,043
-252,322	71,752	0,026	-0,019
-251,307	-123,581	0,025	0,003
-250,292	-200,000	-0,019	-0,098
-249,278	-200,000	-0,017	-0,063
-248,263	-200,000	-0,005	0,183
-247,249	-200,000	0,035	0,163
-246,234	137,246	-0,082	-0,076
-245,219	-200,000	0,006	-0,045
-244,205	-200,000	-0,014	-0,129
-243,190	384,613	-0,036	-0,052
-242,176	-200,000	0,011	0,128
-241,161	-20,941	0,072	-0,031
-240,146	177,713	-0,043	-0,044
-239,132	-122,186	-0,083	-0,010
-238,117	-130,348	-0,060	-0,006
-237,103	32,545	-0,084	0,052
-236,088	-200,000	0,021	0,159
-235,073	-82,603	0,035	0,008
-234,059	242,462	0,031	0,037
-233,044	-109,176	0,114	0,017
-232,030	-75,948	0,080	0,020
-231,015	800,000	-0,066	-0,171
-230,000	-200,000	-0,016	-0,050
-228,986	-200,000	0,040	-0,222
-227,971	-200,000	-0,005	0,044
-226,957	4,128	-0,073	0,038
-225,942	-148,073	0,121	0,007
-224,927	-138,418	-0,211	-0,016
-223,913	388,046	-0,099	-0,146
-222,898	210,068	0,087	-0,098
-221,884	-118,383	-0,069	-0,009
-220,869	45,482	0,060	-0,039
-219,855	728,007	0,022	0,041
-218,840	-162,869	0,086	0,003
-217,825	-22,817	0,073	-0,031
-216,811	800,000	-0,023	-0,072
-215,796	-200,000	0,036	-0,126
-214,782	-43,968	0,044	0,016
-213,767	-29,618	0,104	0,042
-212,752	-200,000	-0,004	0,062
-211,738	72,542	0,018	-0,013
-210,723	148,358	-0,050	0,048
-209,709	-22,382	0,021	0,009
-208,694	-200,000	-0,001	-0,231
-207,679	-133,739	-0,032	0,003
-206,665	39,499	0,143	0,091
-205,650	200,781	0,024	-0,026
-204,636	12,157	-0,036	0,020
-203,621	-154,782	-0,079	0,004
-202,606	89,640	-0,098	-0,078
-201,592	-61,198	-0,045	-0,013
-200,577	-93,583	0,080	-0,016
-199,563	502,810	-0,082	-0,135
-198,548	133,415	0,024	0,022
-197,533	113,063	0,007	-0,006
-196,519	-42,652	-0,087	0,031
-195,504	470,554	-0,076	0,121
-194,490	59,724	-0,047	-0,033
-193,475	53,032	0,108	-0,074
-192,460	-200,000	-0,030	-0,153
-191,446	-35,882	0,194	-0,074
-190,431	589,367	0,078	0,137
-189,417	800,000	0,029	-0,075
-188,402	-84,935	0,114	0,025
-187,387	-136,555	0,095	0,008
-186,373	-9,024	-0,143	-0,068
-185,358	396,350	-0,068	-0,102
-184,344	416,805	-0,072	0,110
-183,329	800,000	-0,014	-0,037
-182,315	47,956	0,127	0,084
-181,300	-200,000	-0,048	0,164
-180,285	-200,000	0,005	-0,040
-179,271	-70,959	0,072	-0,019
-178,256	-200,000	0,007	0,074
-177,242	28,537	0,087	0,052
-176,227	-200,000	0,004	-0,018
-175,212	-156,236	0,108	0,005
-174,198	-142,866	-0,072	-0,005
-173,183	204,737	0,015	0,017
-172,169	-200,000	-0,005	0,021
-171,154	224,291	0,019	-0,021
-170,139	800,000	0,077	0,159
-169,125	63,600	0,174	0,124
-168,110	800,000	-0,044	0,095
-167,096	-49,535	0,060	0,020
-166,081	37,749	-0,045	0,028
-165,066	466,481	-0,059	0,094
-164,052	-60,264	-0,035	0,011
-163,037	217,059	0,050	-0,056
-162,023	800,000	0,054	0,149
-161,008	-38,231	0,055	-0,021
-159,993	516,356	0,057	-0,095
-158,979	468,216	0,065	-0,104
-157,964	124,866	-0,070	-0,063
-156,950	-200,000	-0,006	-0,059
-155,935	-200,000	0,001	-0,011
-154,920	-200,000	-0,022	-0,108
-153,906	94,660	0,031	0,025
-152,891	58,765	-0,022	0,015
-151,877	42,149	0,077	-0,050
-150,862	50,962	-0,105	0,071
-149,847	111,777	-0,008	0,007
-148,833	-178,496	0,007	-0,000
-147,818	443,991	-0,006	0,009
-146,804	-108,064	0,196	-0,030
-145,789	11,916	-0,146	-0,079
-144,775	-200,000	-0,024	0,089
-143,760	92,056	-0,058	-0,046
-142,745	800,000	-0,032	-0,073
-141,731	636,746	0,015	-0,027
-140,716	-68,571	0,186	0,051
-139,702	-200,000	0,001	0,082
-138,687	407,148	0,059	0,088
-137,672	-200,000	-0,008	0,101
-136,658	-200,000	0,008	0,045
-135,643	115,651	-0,026	0,023
-134,629	359,804	0,024	0,034
-133,614	-114,346	0,041	0,006
-132,599	136,962	0,012	-0,011
-131,585	144,885	0,106	0,100
-130,570	504,148	0,056	-0,093
-129,556	-133,620	-0,199	-0,017
-128,541	-64,646	-0,063	-0,018
-127,526	-200,000	0,010	-0,054
-126,512	106,676	0,057	-0,048
-125,497	-200,000	0,027	0,089
-124,483	-94,028	-0,038	0,007
-123,468	373,038	-0,063	0,090
-122,453	346,839	0,031	-0,044
-121,439	-200,000	0,010	0,042
-120,424	800,000	0,014	-0,041
-119,410	800,000	0,040	0,112
-118,395	-200,000	-0,017	0,054
-117,380	167,781	-0,062	0,063
-116,366	79,610	0,091	-0,069
-115,351	-98,259	0,062	0,011
-114,337	472,089	-0,067	-0,107
-113,322	800,000	-0,009	-0,027
-112,307	231,676	-0,056	-0,066
-111,293	-91,439	0,100	-0,020
-110,278	800,000	-0,012	0,034
-109,264	303,537	0,008	0,011
-108,249	-200,000	-0,041	-0,164
-107,234	217,318	0,049	0,056
-106,220	800,000	0,020	-0,056
-105,205	320,704	-0,028	0,037
-104,191	-200,000	0,017	0,227
-103,176	657,403	0,062	0,113
-102,162	-200,000	0,034	0,114
-101,147	-106,163	-0,035	-0,006
-100,132	800,000	0,040	-0,117
-99,118	222,504	-0,053	-0,061
-98,103	259,001	0,072	-0,089
-97,089	455,117	0,071	0,112
-96,074	-200,000	-0,034	0,125
-95,059	126,831	0,045	0,040
-94,045	147,921	-0,035	-0,034
-93,030	27,200	0,019	-0,011
-92,016	123,828	-0,020	0,018
-91,001	174,770	0,052	0,054
-89,986	-200,000	-0,009	0,126
-88,972	140,083	0,104	0,097
-87,957	800,000	-0,039	0,116
-86,943	-86,143	0,062	-0,013
-85,928	-7,023	-0,073	-0,035
-84,913	150,910	-0,030	-0,029
-83,899	-200,000	-0,022	0,126
-82,884	48,819	0,041	0,027
-81,870	310,086	0,036	0,047
-80,855	800,000	-0,040	0,120
-79,840	-128,822	-0,110	0,011
-78,826	800,000	-0,019	0,049
-77,811	175,152	0,007	0,008
-76,797	-162,612	-0,079	-0,003
-75,782	-200,000	-0,009	-0,039
-74,767	-200,000	-0,001	-0,023
-73,753	387,361	0,042	-0,061
-72,738	179,824	-0,069	0,071
-71,724	-150,601	-0,130	-0,007
-70,709	163,613	-0,080	0,080
-69,694	800,000	0,035	0,103
-68,680	-200,000	-0,006	-0,025
-67,665	-63,560	0,095	0,027
-66,651	-200,000	-0,008	0,103
-65,636	800,000	0,073	0,177
-64,622	734,537	-0,102	0,194
-63,607	25,907	-0,026	-0,015
-62,592	108,413	0,100	-0,084
-61,578	-91,636	-0,038	-0,008
-60,563	224,666	0,144	0,165
-59,549	232,976	-0,092	0,107
-58,534	-15,110	-1,668	-0,752
-57,519	350,115	-1,490	-2,088
-56,505	-200,000	-0,516	-4,412
-55,490	632,308	0,774	1,391
-54,476	800,000	4,910	11,256
-53,461	-200,000	19,250	323,682
-52,446	-200,000	739,108	2334,442
-51,432	573,856	1651,349	2857,754
-50,417	77,925	1666,770	1254,525
-49,403	21,035	1540,160	880,513
-48,388	14,891	1462,490	806,356
-47,373	18,194	1452,962	816,966
-46,359	16,723	1442,961	804,282
-45,344	13,161	1437,904	784,445
-44,330	13,002	1436,389	782,832
-43,315	13,062	1434,470	782,040
-42,300	13,064	1432,661	781,029
-41,286	13,101	1431,396	780,485
-40,271	13,038	1430,428	779,627
-39,257	13,029	1428,950	778,751
-38,242	13,086	1427,742	778,329
-37,227	13,107	1426,509	777,728
-36,213	13,118	1425,233	777,054
-35,198	13,115	1424,041	776,359
-34,184	13,110	1423,203	775,844
-33,169	13,060	1421,841	774,838
-32,154	13,163	1420,452	774,533
-31,140	13,154	1419,326	773,848
-30,125	13,142	1418,508	773,314
-29,111	13,136	1417,058	772,466
-28,096	13,122	1416,064	771,826
-27,082	13,073	1415,032	771,003
-26,067	13,033	1413,952	770,196
-25,052	13,025	1412,884	769,548
-24,038	13,011	1411,859	768,893
-23,023	13,037	1410,923	768,472
-22,009	13,037	1410,020	767,950
-20,994	13,010	1409,025	767,252
-19,979	12,978	1408,267	766,660
-18,965	12,974	1407,253	766,057
-17,950	12,993	1406,404	765,653
-16,936	13,007	1405,372	765,127
-15,921	12,979	1404,224	764,343
-14,906	12,977	1403,328	763,815
-13,892	12,970	1402,385	763,237
-12,877	12,978	1401,506	762,768
-11,863	12,935	1400,711	762,103
-10,848	12,928	1399,869	761,585
-9,833	12,923	1398,853	760,977
-8,819	12,867	1398,164	760,310
-7,804	12,881	1397,212	759,830
-6,790	12,839	1396,293	759,107
-5,775	12,881	1395,122	758,634
-4,760	12,837	1394,243	757,923
-3,746	12,868	1393,121	757,424
-2,731	12,850	1392,560	757,005
-1,717	12,856	1391,544	756,450
-0,702	12,817	1389,771	755,276
0,313	16,869	1306,474	728,640
1,327	33,461	700,869	429,005
2,342	51,570	122,705	82,239
3,356	1,245	16,597	8,390
4,371	-0,232	3,300	1,652
5,386	79,761	0,552	0,418
6,400	-200,000	0,012	0,338
7,415	60,824	-0,160	-0,112
8,429	49,856	-0,340	-0,226
9,444	82,991	-0,335	-0,257
10,459	119,860	-0,346	-0,302
11,473	286,133	-0,133	-0,169
12,488	333,189	-0,230	-0,314
13,502	146,580	-0,230	-0,218
14,517	-41,273	-0,324	-0,117
15,531	35,873	-0,478	-0,296
16,546	33,808	-0,385	-0,236
17,561	87,511	-0,339	-0,265
18,575	-74,759	-0,238	-0,060
19,590	398,343	-0,196	-0,290
20,604	0,779	-0,233	-0,117
21,619	48,566	-0,432	-0,285
22,634	133,394	-0,336	-0,307
23,648	54,034	-0,442	-0,299
24,663	265,578	-0,364	-0,448
25,677	100,300	-0,251	-0,205
26,692	168,165	-0,219	-0,220
27,707	-83,211	-0,326	-0,073
28,721	193,280	-0,236	-0,252
29,736	20,191	-0,424	-0,240
30,750	103,971	-0,410	-0,339
31,765	-15,775	-0,335	-0,150
32,780	179,411	-0,275	-0,284
33,794	113,619	-0,367	-0,314
34,809	11,237	-0,333	-0,179
35,823	-6,152	-0,529	-0,254
36,838	57,649	-0,346	-0,238
37,853	537,882	-0,193	-0,325
38,867	27,609	-0,479	-0,283
39,882	-0,773	-0,361	-0,179
40,896	217,266	-0,196	-0,220
41,911	44,703	-0,430	-0,278
42,926	-2,886	-0,422	-0,207
43,940	109,736	-0,408	-0,344
44,955	78,536	-0,496	-0,373
45,969	251,049	-0,276	-0,330
46,984	346,857	-0,262	-0,364
47,999	22,729	-0,377	-0,217
49,013	-38,115	-0,315	-0,117
50,028	800,000	-0,158	-0,311
51,042	130,854	-0,372	-0,336
52,057	158,457	-0,292	-0,285
53,071	163,547	-0,283	-0,280
54,086	191,910	-0,251	-0,266
55,101	-14,019	-0,473	-0,214
56,115	-30,808	-0,264	-0,105
57,130	33,005	-0,320	-0,194
58,144	35,848	-0,289	-0,178
59,159	130,929	-0,458	-0,413
60,174	63,846	-0,440	-0,310
61,188	532,412	-0,225	-0,376
62,203	-109,208	-0,302	-0,045
63,217	57,378	-0,302	-0,207
64,232	34,252	-0,284	-0,173
65,247	90,266	-0,332	-0,261
66,261	310,930	-0,292	-0,385
67,276	299,371	-0,269	-0,348
68,290	-75,678	-0,324	-0,080
69,305	5,704	-0,298	-0,154
70,320	108,795	-0,284	-0,238
71,334	-56,772	-0,432	-0,133
72,349	157,041	-0,278	-0,270
73,363	168,535	-0,444	-0,444
74,378	73,729	-0,355	-0,261
75,393	3,657	-0,364	-0,186
76,407	169,813	-0,193	-0,193
77,422	102,355	-0,236	-0,194
78,436	-147,957	-0,305	-0,017
79,451	16,358	-0,268	-0,148
80,466	-24,095	-0,375	-0,156
81,480	-57,579	-0,452	-0,138
82,495	26,488	-0,361	-0,211
83,509	333,412	-0,203	-0,275
84,524	-46,881	-0,309	-0,105
85,539	265,468	-0,201	-0,246
86,553	99,805	-0,290	-0,235
87,568	-31,326	-0,386	-0,152
88,582	90,815	-0,298	-0,234
89,597	-16,604	-0,411	-0,182
90,611	-68,128	-0,260	-0,071
91,626	527,519	-0,158	-0,262
92,641	52,739	-0,254	-0,170
93,655	183,501	-0,220	-0,228
94,670	21,990	-0,316	-0,180
95,684	129,828	-0,214	-0,192
96,699	48,036	-0,293	-0,191
97,714	260,211	-0,285	-0,346
98,728	-48,843	-0,235	-0,079
99,743	-77,078	-0,230	-0,056
100,757	-146,616	-0,376	0,022
101,772	-37,956	-0,321	-0,119
102,787	10,992	-0,339	-0,181
103,801	61,877	-0,239	-0,166
104,816	159,828	-0,256	-0,250
105,830	-50,352	-0,299	-0,098
106,845	3,542	-0,282	-0,144
107,860	85,026	-0,196	-0,150
108,874	450,799	-0,199	-0,308
109,889	61,679	-0,235	-0,164
110,903	-41,422	-0,283	-0,101
111,918	102,010	-0,308	-0,251
112,933	-121,323	-0,296	-0,034
113,947	26,885	-0,307	-0,179
114,962	-192,494	-0,187	-0,001
115,976	226,758	-0,267	-0,303
116,991	165,057	-0,266	-0,263
118,006	-48,166	-0,317	-0,106
119,020	183,584	-0,228	-0,236
120,035	-19,064	-0,349	-0,151
121,049	-23,033	-0,160	-0,067
122,064	327,687	-0,123	-0,166
123,079	303,398	-0,282	-0,366
124,093	324,001	-0,239	-0,320
125,108	345,554	-0,206	-0,284
126,122	164,653	-0,222	-0,219
127,137	230,092	-0,128	-0,146
128,151	33,330	-0,211	-0,128
129,166	380,771	-0,122	-0,176
130,181	86,245	-0,221	-0,170
131,195	120,086	-0,201	-0,174
132,210	103,069	-0,310	-0,253
133,224	163,209	-0,233	-0,229
134,239	-15,414	-0,309	-0,137
135,254	222,960	-0,079	-0,089
136,268	-66,023	-0,224	-0,062
137,283	60,573	-0,223	-0,154
138,297	48,291	-0,273	-0,178
139,312	334,064	-0,236	-0,319
140,327	472,893	-0,156	-0,247
141,341	124,622	-0,270	-0,237
142,356	-33,671	-0,277	-0,106
143,370	163,308	-0,192	-0,188
144,385	-21,180	-0,312	-0,133
145,400	71,788	-0,231	-0,167
146,414	269,942	-0,218	-0,268
147,429	45,273	-0,185	-0,119
148,443	-89,449	-0,200	-0,041
149,458	-62,537	-0,244	-0,070
150,473	-59,074	-0,310	-0,093
151,487	6,232	-0,271	-0,140
152,502	-26,819	-0,386	-0,157
153,516	142,895	-0,282	-0,261
154,531	514,409	-0,214	-0,350
155,546	800,000	-0,118	-0,280
156,560	63,402	-0,233	-0,162
157,575	-165,295	-0,180	-0,005
158,589	340,474	-0,157	-0,215
159,604	533,456	-0,149	-0,247
160,619	62,072	-0,218	-0,151
161,633	58,617	-0,277	-0,189
162,648	-7,078	-0,227	-0,107
163,662	29,778	-0,317	-0,188
164,677	406,349	-0,111	-0,163
165,692	-34,847	-0,210	-0,079
166,706	-122,389	-0,351	-0,039
167,721	-51,589	-0,236	-0,076
168,735	38,092	-0,145	-0,090
169,750	83,333	-0,282	-0,214
170,764	-13,909	-0,144	-0,065
171,779	-32,518	-0,149	-0,057
172,794	-99,828	-0,241	0,041
173,808	201,760	-0,113	-0,121
174,823	-8,728	-0,322	-0,150
175,837	185,486	-0,240	-0,248
176,852	254,886	-0,159	-0,190
177,867	87,525	-0,236	-0,182
178,881	-90,014	-0,240	-0,048
179,896	215,064	-0,163	-0,180
180,910	-114,156	-0,240	-0,032
181,925	20,252	-0,258	-0,145
182,940	-29,476	-0,316	-0,125
183,954	14,487	-0,221	-0,120
184,969	-46,413	-0,273	-0,093
185,983	-133,710	-0,184	-0,016
186,998	169,767	-0,289	-0,287
188,013	-79,220	-0,285	-0,067
189,027	-110,023	-0,261	-0,037
190,042	59,527	-0,319	-0,218
191,056	261,709	-0,255	-0,307
192,071	295,463	-0,100	-0,127
193,086	217,468	-0,157	-0,174
194,100	-49,600	-0,241	-0,079
195,115	35,114	-0,156	-0,094
196,129	170,050	-0,222	-0,221
197,144	205,099	-0,257	-0,277
198,159	-16,659	-0,286	-0,125
199,173	2,187	-0,137	-0,068
200,188	-200,000	-0,042	-0,202
201,202	182,957	-0,189	-0,194
202,217	333,278	-0,179	-0,241
203,232	15,688	-0,200	-0,109
204,246	228,342	-0,205	-0,232
205,261	398,943	-0,202	-0,295
206,275	188,112	-0,203	-0,211
207,290	-200,000	-0,066	-0,218
208,304	286,397	-0,127	-0,159
209,319	290,763	-0,075	-0,095
210,334	94,373	-0,247	-0,194
211,348	669,449	-0,110	-0,199
212,363	264,181	-0,180	-0,218
213,377	564,803	-0,105	-0,176
214,392	96,031	-0,159	-0,126
215,407	97,750	-0,097	-0,078
216,421	784,088	-0,100	-0,191
217,436	21,812	-0,220	-0,124
218,450	-91,276	-0,151	-0,030
219,465	253,280	-0,141	-0,167
220,480	-200,000	0,001	-0,191
221,494	45,922	-0,108	0,069
222,509	-97,431	-0,186	-0,033
223,523	186,529	-0,255	-0,263
224,538	352,366	-0,165	-0,228
225,553	113,490	-0,229	-0,192
226,567	-108,226	-0,229	-0,034
227,582	-73,698	-0,155	-0,039
228,596	-120,145	-0,300	-0,035
229,611	36,905	-0,146	-0,089
230,626	-72,512	-0,290	-0,074
231,640	332,066	-0,167	-0,224
232,655	-38,953	-0,308	-0,112
233,669	98,431	-0,260	-0,207
234,684	701,972	-0,129	-0,236
235,699	83,378	-0,193	-0,145
236,713	103,470	-0,127	-0,103
237,728	-117,462	-0,186	-0,023
238,742	-51,984	-0,206	-0,066
239,757	255,881	-0,146	-0,174
240,772	23,605	-0,199	-0,113
241,786	800,000	-0,107	-0,224
242,801	800,000	-0,114	-0,249
243,815	55,453	-0,166	-0,111
244,830	-123,038	-0,100	0,011
245,844	-13,479	-0,183	-0,082
246,859	800,000	-0,120	-0,250
247,874	53,281	-0,280	-0,185
248,888	117,868	-0,130	-0,111
249,903	121,335	-0,179	-0,154
250,917	272,082	-0,097	-0,118
251,932	-151,655	-0,261	-0,013
252,947	-35,328	-0,216	-0,081
253,961	-154,504	-0,133	0,006
254,976	-175,673	-0,255	0,005
255,990	144,002	-0,275	-0,253
257,005	-74,226	-0,315	-0,078
258,020	110,202	-0,203	-0,169
259,034	10,058	-0,176	-0,092
260,049	-96,828	-0,162	-0,029
261,063	-120,299	-0,188	-0,022
262,078	441,972	-0,048	-0,072
263,093	377,270	-0,076	-0,107
264,107	283,482	-0,081	-0,101
265,122	-103,040	-0,175	-0,028
266,136	75,513	-0,039	-0,029
267,151	631,916	-0,089	-0,156
268,166	227,249	-0,169	-0,190
269,180	-44,068	-0,239	-0,082
270,195	138,523	-0,226	-0,204
271,209	-27,537	-0,181	-0,072
272,224	41,207	-0,151	-0,094
273,239	-87,240	-0,086	0,018
274,253	-115,344	-0,110	-0,014
275,268	800,000	-0,057	-0,123
276,282	131,265	-0,240	-0,212
277,297	-95,624	-0,240	-0,044
278,312	2,900	-0,237	-0,118
279,326	567,033	-0,096	-0,161
280,341	-118,055	-0,081	0,010
281,355	615,705	-0,106	-0,184
282,370	-110,184	-0,181	0,026
283,384	-94,562	-0,161	-0,030
284,399	-22,218	-0,054	0,023
285,414	-200,000	0,030	-0,123
286,428	-2,069	-0,216	-0,104
287,443	-101,984	-0,176	-0,029
288,457	-54,341	-0,169	0,053
289,472	107,749	-0,126	-0,104
290,487	-92,238	-0,089	0,017
291,501	113,983	-0,151	-0,126
292,516	-84,585	-0,236	-0,051
293,530	511,275	-0,078	-0,125
294,545	800,000	-0,056	-0,110
295,560	36,985	-0,077	-0,047
296,574	-72,941	-0,116	0,029
297,589	83,180	-0,126	-0,094
298,603	31,951	-0,220	-0,130
299,618	208,661	-0,175	-0,188
300,633	-49,907	-0,222	-0,072
301,647	141,957	-0,083	-0,075
302,662	87,783	-0,141	-0,107
303,676	70,197	-0,194	-0,138
304,691	61,584	-0,131	-0,090
305,706	800,000	-0,043	-0,114
306,720	592,303	-0,077	-0,131
307,735	-200,000	0,015	-0,112
308,749	-78,973	-0,138	-0,032
309,764	800,000	-0,026	0,063
310,779	-61,383	-0,115	-0,033
311,793	800,000	-0,056	-0,144
312,808	800,000	-0,032	-0,080
313,822	47,001	-0,154	-0,098
314,837	310,886	-0,172	-0,221
315,852	-200,000	-0,014	-0,097
316,866	-117,768	-0,260	-0,032
317,881	42,721	-0,127	0,079
318,895	472,389	-0,153	-0,238
319,910	504,180	-0,057	-0,091
320,925	-30,800	-0,086	0,033
321,939	-68,389	-0,188	-0,050
322,954	462,710	-0,102	-0,157
323,968	67,026	-0,175	-0,122
324,983	189,189	-0,162	-0,167
325,997	-26,103	-0,173	-0,070
327,012	61,075	-0,181	-0,123
328,027	800,000	-0,072	-0,155
329,041	235,039	-0,095	-0,108
330,056	-147,555	-0,178	0,010
331,070	800,000	0,033	-0,068
332,085	320,633	-0,070	-0,091
333,100	-17,049	-0,156	-0,067
334,114	-83,169	-0,170	-0,037
335,129	62,654	-0,196	-0,134
336,143	277,616	-0,076	-0,093
337,158	103,472	-0,132	-0,106
338,173	-7,304	-0,118	0,055
339,187	252,698	-0,084	-0,099
340,202	81,137	-0,166	-0,123
341,216	91,459	-0,128	-0,098
342,231	316,566	-0,125	-0,163
343,246	78,786	-0,082	-0,060
344,260	800,000	-0,073	0,147
345,275	-32,645	-0,085	0,032
346,289	199,653	-0,062	-0,066
347,304	800,000	-0,032	-0,074
348,319	796,245	-0,110	-0,208
349,333	665,893	-0,111	-0,198
350,348	110,293	-0,144	-0,118
351,362	-200,000	-0,042	-0,154
352,377	49,616	-0,111	0,071
353,392	-40,371	-0,172	-0,061
354,406	98,241	-0,162	0,127
355,421	208,796	1314,224	1409,953
356,435	160,675	1474,899	1410,463
