DTS Sentinel unit serial number:	SN410029Multiplexer serial number:	ORYXHardware model number:	OX2-SRSoftware version number:	ORYX F/W v4,00 Oryx Data Collector v3.7.2.0data status	okinstallation	B3 Nyhavnadifferential loss correction	single-endedforward channel	channel 1reverse channel	N/Adate	2023/12/05time	01:47:30forward acquisition time	300,00reverse acquisition time	0,00gamma	499,1914k internal	0,3200k external	0,3200temperature offset calibration	1,0000default loss term (dB/km)	0,3820temperature slope calibration	1,0000multiplexer offset coefficient	1,0000multiplexer slope coefficient	1,0000fibre end	0,00T internal ref (°C)	13,82T ext. ref 1 (°C)	-0,86T ext. ref 2 (°C)	-0,90length (m)	temperature (°C)	Stokes	anti-Stokes-744,400	363,464	-0,204	-0,299
-743,385	-200,000	-0,062	0,257
-742,371	-28,586	-0,290	-0,121
-741,356	800,000	0,101	0,271
-740,342	153,247	-0,174	-0,174
-739,327	-200,000	0,006	0,476
-738,312	707,905	-0,194	-0,375
-737,298	-200,000	-0,039	0,299
-736,283	61,799	-0,296	-0,214
-735,269	800,000	0,073	0,231
-734,254	291,174	-0,168	-0,222
-733,239	284,882	-0,137	0,180
-732,225	213,419	-0,077	-0,089
-731,210	194,285	0,065	0,071
-730,196	447,537	0,012	0,019
-729,181	-86,110	0,007	0,002
-728,167	800,000	0,033	-0,076
-727,152	-200,000	0,045	-0,195
-726,137	-18,855	-0,119	0,054
-725,123	330,078	-0,028	0,039
-724,108	-122,728	-0,156	-0,018
-723,094	-30,280	-0,129	-0,053
-722,079	800,000	0,058	0,140
-721,064	117,841	-0,060	0,054
-720,050	26,418	0,033	-0,020
-719,035	-165,643	-0,070	0,002
-718,021	121,533	-0,038	-0,035
-717,006	-4,946	-0,062	0,031
-715,991	251,194	-0,120	-0,149
-714,977	30,207	-0,085	0,052
-713,962	-62,704	0,036	0,011
-712,948	430,398	-0,037	-0,059
-711,933	-200,000	0,006	-0,101
-710,918	-16,790	-0,083	0,038
-709,904	-24,027	-0,016	0,007
-708,889	48,455	-0,131	-0,089
-707,875	-46,314	-0,110	-0,039
-706,860	-76,851	0,119	0,030
-705,845	62,055	-0,097	0,070
-704,831	-148,733	0,085	0,005
-703,816	108,426	-0,140	-0,121
-702,802	77,206	-0,120	-0,093
-701,787	-200,000	-0,026	-0,093
-700,772	171,628	-0,054	0,056
-699,758	50,701	0,031	-0,021
-698,743	-30,252	0,066	-0,027
-697,729	511,872	0,005	0,008
-696,714	-88,348	-0,145	0,031
-695,699	-138,054	-0,102	-0,008
-694,685	34,582	0,031	-0,019
-693,670	-116,654	0,017	0,002
-692,656	-200,000	0,001	-0,066
-691,641	-200,000	-0,017	0,070
-690,627	-200,000	0,028	0,118
-689,612	-81,024	0,145	0,035
-688,597	-57,604	-0,043	0,014
-687,583	800,000	-0,005	0,012
-686,568	-200,000	0,016	-0,085
-685,554	800,000	-0,057	0,132
-684,539	-153,978	-0,011	-0,001
-683,524	-200,000	0,013	-0,045
-682,510	800,000	-0,010	-0,025
-681,495	-200,000	0,002	0,025
-680,481	-3,098	-0,073	-0,037
-679,466	-107,060	-0,054	-0,009
-678,451	800,000	-0,014	-0,035
-677,437	800,000	-0,031	-0,074
-676,422	-200,000	-0,012	-0,079
-675,408	757,181	-0,032	-0,063
-674,393	32,058	-0,070	-0,044
-673,378	88,225	-0,098	-0,079
-672,364	-57,458	0,048	-0,015
-671,349	-103,303	-0,070	-0,012
-670,335	-200,000	0,008	-0,078
-669,320	108,788	-0,013	0,011
-668,305	-149,483	-0,059	-0,003
-667,291	175,505	-0,102	-0,107
-666,276	502,434	0,052	-0,087
-665,262	47,926	-0,075	-0,051
-664,247	317,064	-0,108	-0,148
-663,232	46,756	0,037	-0,025
-662,218	800,000	-0,085	-0,179
-661,203	69,042	-0,071	0,053
-660,189	233,754	-0,077	-0,092
-659,174	-3,472	-0,013	-0,007
-658,159	800,000	0,051	-0,123
-657,145	86,137	-0,083	-0,066
-656,130	91,921	0,050	0,041
-655,116	800,000	-0,033	0,092
-654,101	222,193	0,105	0,122
-653,086	-124,077	-0,062	0,007
-652,072	800,000	0,020	-0,053
-651,057	800,000	-0,060	-0,166
-650,043	800,000	-0,039	0,080
-649,028	712,836	0,040	0,077
-648,014	25,976	-0,114	0,068
-646,999	-26,215	0,088	-0,037
-645,984	800,000	0,047	-0,143
-644,970	131,630	-0,083	-0,078
-643,955	160,172	-0,118	-0,119
-642,941	30,966	-0,122	-0,075
-641,926	28,347	-0,058	-0,035
-640,911	-200,000	0,003	-0,098
-639,897	800,000	-0,022	0,066
-638,882	-200,000	0,006	0,067
-637,868	182,427	0,092	-0,099
-636,853	800,000	0,047	-0,129
-635,838	800,000	-0,065	-0,150
-634,824	-2,118	0,097	-0,049
-633,809	58,405	0,132	-0,094
-632,795	-13,667	-0,049	0,023
-631,780	172,418	0,040	0,042
-630,765	99,901	0,084	0,070
-629,751	-200,000	0,005	-0,084
-628,736	447,757	0,013	-0,020
-627,722	-66,533	0,094	0,027
-626,707	-117,578	-0,109	0,014
-625,692	68,364	0,038	0,028
-624,678	800,000	0,055	-0,155
-623,663	-200,000	0,001	0,029
-622,649	-69,581	-0,108	0,030
-621,634	-112,043	0,094	0,014
-620,619	313,399	-0,026	-0,035
-619,605	-18,865	-0,046	0,021
-618,590	-82,566	0,077	0,018
-617,576	-200,000	-0,019	0,169
-616,561	91,311	0,004	-0,003
-615,546	201,776	-0,072	-0,080
-614,532	-129,190	-0,142	0,014
-613,517	800,000	0,033	0,093
-612,503	-200,000	-0,001	0,045
-611,488	800,000	0,081	-0,185
-610,474	800,000	-0,051	-0,140
-609,459	-126,009	0,127	0,014
-608,444	-159,530	-0,076	0,003
-607,430	-200,000	0,000	-0,109
-606,415	-97,753	0,074	0,014
-605,401	135,834	0,049	-0,046
-604,386	12,021	-0,049	0,027
-603,371	581,519	-0,082	0,146
-602,357	-200,000	0,026	0,112
-601,342	423,344	-0,072	-0,113
-600,328	-200,000	0,032	-0,192
-599,313	-26,960	-0,109	-0,046
-598,298	-200,000	-0,010	-0,091
-597,284	-61,126	0,021	0,006
-596,269	-74,120	0,044	0,011
-595,255	-200,000	-0,046	0,000
-594,240	215,579	-0,141	-0,162
-593,225	27,582	-0,163	0,099
-592,211	-38,086	-0,055	-0,021
-591,196	-200,000	-0,004	0,064
-590,182	800,000	0,063	0,148
-589,167	12,606	-0,121	-0,067
-588,152	-137,674	-0,115	-0,009
-587,138	82,372	0,070	-0,055
-586,123	598,452	0,023	-0,041
-585,109	-66,997	0,102	-0,029
-584,094	-200,000	0,009	-0,172
-583,079	344,864	0,041	-0,059
-582,065	-153,078	0,015	-0,001
-581,050	303,160	0,020	0,027
-580,036	148,075	0,105	0,102
-579,021	93,663	0,136	0,111
-578,006	-83,792	-0,154	-0,035
-576,992	82,920	0,085	0,066
-575,977	53,181	-0,072	0,050
-574,963	-200,000	0,002	0,081
-573,948	-70,820	0,183	-0,049
-572,934	-16,067	0,061	-0,028
-571,919	-200,000	0,002	0,068
-570,904	259,620	-0,105	-0,132
-569,890	169,189	0,008	-0,009
-568,875	-200,000	0,007	0,045
-567,861	400,329	-0,024	-0,036
-566,846	800,000	-0,024	-0,048
-565,831	-73,233	0,046	-0,012
-564,817	-200,000	0,011	0,071
-563,802	178,853	0,092	0,097
-562,788	-200,000	0,019	-0,118
-561,773	71,471	0,113	-0,085
-560,758	-200,000	0,016	0,114
-559,744	487,089	-0,007	0,011
-558,729	-200,000	0,005	0,062
-557,715	75,591	-0,120	0,091
-556,700	800,000	-0,038	0,111
-555,685	-200,000	0,009	-0,147
-554,671	-126,756	0,071	0,007
-553,656	800,000	-0,043	0,136
-552,642	-134,957	0,121	-0,010
-551,627	128,221	0,073	-0,067
-550,612	-10,997	-0,109	-0,052
-549,598	-200,000	0,021	-0,167
-548,583	-200,000	0,000	0,038
-547,569	-126,861	-0,075	-0,008
-546,554	77,142	0,057	0,044
-545,539	-200,000	0,004	0,014
-544,525	-200,000	0,006	0,100
-543,510	3,400	-0,137	0,072
-542,496	23,795	-0,086	0,051
-541,481	420,807	-0,016	-0,025
-540,466	8,978	0,211	-0,114
-539,452	264,762	0,031	0,038
-538,437	-37,615	0,052	0,020
-537,423	-58,372	-0,097	-0,030
-536,408	800,000	0,066	0,173
-535,393	256,067	-0,033	0,040
-534,379	-38,720	-0,098	-0,037
-533,364	-32,466	-0,046	0,018
-532,350	288,873	-0,027	-0,035
-531,335	-200,000	-0,023	0,151
-530,321	172,883	-0,010	0,011
-529,306	800,000	0,065	0,147
-528,291	572,893	0,012	0,022
-527,277	-200,000	0,007	0,106
-526,262	194,720	0,031	-0,034
-525,248	-37,738	-0,083	-0,032
-524,233	-200,000	-0,000	-0,087
-523,218	-49,716	0,119	0,040
-522,204	-3,655	-0,033	0,016
-521,189	-110,359	0,020	0,003
-520,175	83,171	-0,138	0,109
-519,160	-37,185	-0,049	-0,019
-518,145	343,086	0,089	-0,126
-517,131	-200,000	0,022	0,091
-516,116	800,000	-0,025	-0,050
-515,102	800,000	-0,044	0,126
-514,087	3,769	-0,036	0,019
-513,072	-200,000	0,017	-0,087
-512,058	119,413	-0,082	-0,073
-511,043	160,450	0,056	0,056
-510,029	191,241	0,109	-0,118
-509,014	-84,617	0,085	0,019
-507,999	800,000	-0,057	-0,121
-506,985	-126,719	-0,086	0,009
-505,970	162,440	0,074	0,075
-504,956	800,000	-0,065	-0,165
-503,941	-200,000	-0,093	-0,000
-502,926	-9,008	0,189	-0,091
-501,912	65,136	-0,071	0,052
-500,897	-137,403	0,067	0,005
-499,883	-200,000	-0,018	-0,096
-498,868	510,720	0,049	0,083
-497,853	-200,000	0,008	-0,098
-496,839	108,966	0,051	0,044
-495,824	800,000	0,039	-0,110
-494,810	41,409	0,115	0,075
-493,795	144,156	-0,076	-0,073
-492,781	-70,255	-0,186	-0,050
-491,766	-123,368	-0,129	0,015
-490,751	-17,495	-0,047	-0,021
-489,737	800,000	-0,022	-0,054
-488,722	22,546	0,137	-0,081
-487,708	-200,000	0,001	0,094
-486,693	800,000	0,016	0,033
-485,678	492,486	-0,054	-0,090
-484,664	289,120	0,015	-0,019
-483,649	-200,000	0,002	-0,033
-482,635	800,000	0,053	0,121
-481,620	449,674	0,071	0,113
-480,605	-200,000	-0,008	-0,054
-479,591	95,493	-0,074	0,061
-478,576	-200,000	-0,021	-0,100
-477,562	367,477	-0,076	-0,111
-476,547	800,000	0,025	-0,068
-475,532	165,925	-0,050	-0,051
-474,518	-112,733	0,182	0,026
-473,503	-141,191	0,169	-0,012
-472,489	-127,538	0,150	-0,015
-471,474	313,374	-0,090	0,121
-470,459	-134,838	0,074	-0,006
-469,445	-102,445	-0,170	-0,029
-468,430	-91,941	0,031	0,006
-467,416	-200,000	-0,019	0,083
-466,401	91,978	-0,033	0,027
-465,386	159,974	0,124	0,124
-464,372	-6,081	-0,085	0,042
-463,357	-29,577	-0,114	-0,046
-462,343	69,042	-0,079	-0,058
-461,328	-85,886	-0,066	0,015
-460,313	-200,000	-0,004	-0,122
-459,299	367,962	0,086	0,126
-458,284	-200,000	-0,023	0,123
-457,270	-37,714	0,053	-0,020
-456,255	91,170	-0,147	0,118
-455,241	-166,004	-0,072	-0,002
-454,226	800,000	0,050	-0,102
-453,211	-21,043	-0,078	0,034
-452,197	8,720	-0,135	-0,073
-451,182	800,000	-0,051	-0,102
-450,168	-16,230	-0,038	-0,017
-449,153	78,058	-0,063	0,048
-448,138	-14,263	-0,075	-0,035
-447,124	-98,055	-0,206	0,038
-446,109	-116,186	0,081	0,011
-445,095	-200,000	0,010	-0,074
-444,080	-192,150	0,112	0,001
-443,065	-200,000	-0,012	-0,056
-442,051	-200,000	-0,004	0,053
-441,036	800,000	-0,041	0,086
-440,022	17,619	-0,091	-0,052
-439,007	-200,000	-0,063	-0,229
-437,992	-24,359	0,120	0,051
-436,978	178,979	0,058	-0,061
-435,963	341,016	-0,036	-0,051
-434,949	-200,000	-0,007	-0,044
-433,934	-10,673	-0,122	-0,058
-432,919	463,387	-0,056	-0,090
-431,905	22,727	0,133	0,078
-430,890	-200,000	0,002	0,054
-429,876	-135,611	-0,040	0,003
-428,861	408,013	-0,066	-0,100
-427,846	-200,000	-0,013	0,092
-426,832	32,370	0,013	-0,008
-425,817	654,150	-0,049	-0,091
-424,803	-200,000	0,005	-0,024
-423,788	-200,000	-0,020	0,126
-422,773	208,095	-0,030	-0,033
-421,759	120,119	-0,063	0,056
-420,744	-200,000	-0,037	0,137
-419,730	-67,670	0,157	0,044
-418,715	370,521	0,026	0,038
-417,701	-127,669	0,037	0,004
-416,686	-200,000	0,015	0,066
-415,671	-112,238	0,097	-0,014
-414,657	377,130	-0,030	-0,045
-413,642	-200,000	-0,001	0,055
-412,628	673,415	0,088	-0,164
-411,613	-200,000	-0,013	-0,173
-410,598	800,000	0,036	-0,085
-409,584	-200,000	0,003	0,012
-408,569	529,598	0,080	0,136
-407,555	-46,331	-0,201	0,071
-406,540	38,961	0,089	0,057
-405,525	-200,000	-0,012	0,059
-404,511	107,358	-0,044	0,038
-403,496	800,000	-0,012	-0,025
-402,482	477,019	0,054	-0,088
-401,467	-95,229	0,046	0,009
-400,452	-44,861	-0,023	0,008
-399,438	-200,000	-0,007	0,023
-398,423	527,036	0,039	0,066
-397,409	-20,518	-0,064	0,028
-396,394	-140,437	-0,043	-0,003
-395,379	-42,630	-0,065	0,024
-394,365	593,695	-0,013	0,023
-393,350	-134,137	-0,089	0,008
-392,336	-200,000	-0,043	0,144
-391,321	800,000	0,015	0,032
-390,306	459,341	-0,025	-0,041
-389,292	800,000	0,055	-0,144
-388,277	800,000	-0,075	0,202
-387,263	133,054	0,147	0,136
-386,248	-200,000	-0,032	0,172
-385,233	-81,767	0,060	-0,014
-384,219	-200,000	-0,018	-0,129
-383,204	-33,883	-0,118	-0,047
-382,190	-195,801	0,067	-0,000
-381,175	230,482	-0,053	-0,062
-380,160	800,000	-0,042	0,093
-379,146	-34,599	0,116	0,045
-378,131	-78,493	0,130	-0,032
-377,117	-20,274	-0,086	0,038
-376,102	800,000	-0,039	-0,103
-375,088	-44,568	-0,136	0,048
-374,073	-152,840	0,106	0,005
-373,058	33,576	-0,033	-0,020
-372,044	800,000	0,062	0,131
-371,029	342,449	-0,064	0,090
-370,015	2,013	0,159	0,082
-369,000	526,650	-0,030	-0,050
-367,985	-41,821	-0,081	0,029
-366,971	-22,024	-0,133	-0,058
-365,956	-128,550	0,094	-0,009
-364,942	800,000	0,028	-0,059
-363,927	-200,000	-0,011	-0,066
-362,912	-68,036	-0,093	0,026
-361,898	-135,793	0,140	-0,012
-360,883	132,867	-0,093	-0,086
-359,869	148,630	-0,090	-0,087
-358,854	-200,000	0,025	-0,096
-357,839	-200,000	-0,018	-0,140
-356,825	685,299	-0,005	0,010
-355,810	39,160	-0,015	0,010
-354,796	67,504	0,055	-0,040
-353,781	800,000	0,011	-0,033
-352,766	-79,679	0,055	-0,013
-351,752	588,572	-0,048	-0,086
-350,737	-200,000	0,004	-0,091
-349,723	-148,222	0,133	0,008
-348,708	-200,000	0,010	0,062
-347,693	7,831	0,060	0,032
-346,679	800,000	-0,048	-0,145
-345,664	-97,853	-0,071	-0,013
-344,650	73,575	-0,120	0,090
-343,635	-108,008	0,123	-0,019
-342,620	685,925	0,029	-0,054
-341,606	-150,892	0,129	0,007
-340,591	194,981	-0,054	-0,059
-339,577	-200,000	-0,038	0,141
-338,562	158,118	0,044	0,044
-337,548	311,085	-0,037	0,050
-336,533	-200,000	0,044	0,150
-335,518	-200,000	-0,014	0,101
-334,504	-200,000	-0,005	-0,044
-333,489	108,894	-0,095	-0,081
-332,475	70,388	-0,076	0,056
-331,460	-81,156	-0,047	0,011
-330,445	746,030	-0,058	0,112
-329,431	-200,000	0,003	-0,025
-328,416	-200,000	-0,002	0,065
-327,402	-200,000	0,041	0,139
-326,387	-200,000	-0,021	0,092
-325,372	-200,000	-0,001	-0,022
-324,358	62,439	0,125	-0,089
-323,343	-121,291	0,071	0,008
-322,329	320,281	0,045	0,062
-321,314	800,000	-0,026	0,076
-320,299	334,576	0,048	-0,067
-319,285	11,561	0,095	0,052
-318,270	294,320	-0,042	-0,055
-317,256	-200,000	-0,018	-0,122
-316,241	-159,472	-0,141	-0,006
-315,226	800,000	-0,021	-0,061
-314,212	-200,000	0,003	0,044
-313,197	112,136	0,092	0,079
-312,183	-47,388	-0,038	0,013
-311,168	325,157	-0,023	0,032
-310,153	3,462	0,009	0,005
-309,139	218,337	-0,023	-0,026
-308,124	344,403	-0,090	0,127
-307,110	-200,000	-0,042	-0,139
-306,095	108,276	-0,068	-0,058
-305,080	18,660	0,089	0,051
-304,066	-200,000	-0,026	-0,130
-303,051	689,423	0,039	0,074
-302,037	-200,000	0,032	0,147
-301,022	-200,000	-0,010	0,062
-300,008	169,330	0,137	0,140
-298,993	800,000	-0,073	0,173
-297,978	800,000	0,061	0,150
-296,964	73,350	0,054	-0,040
-295,949	-105,029	0,094	-0,015
-294,935	-64,829	-0,084	0,024
-293,920	-200,000	0,024	-0,078
-292,905	-200,000	-0,032	0,107
-291,891	89,329	0,072	-0,058
-290,876	419,257	0,050	0,077
-289,862	492,151	-0,089	0,147
-288,847	132,910	0,067	-0,062
-287,832	100,765	0,025	0,020
-286,818	-84,821	0,159	0,035
-285,803	-132,861	0,121	-0,011
-284,789	-200,000	-0,038	-0,000
-283,774	538,300	0,099	0,169
-282,759	-6,926	-0,011	0,005
-281,745	-44,757	0,041	0,015
-280,730	132,251	0,073	-0,068
-279,716	65,299	0,073	-0,052
-278,701	-104,801	0,222	-0,036
-277,686	86,180	0,015	-0,012
-276,672	-200,000	0,031	0,122
-275,657	223,318	0,062	0,072
-274,643	-164,739	0,117	-0,004
-273,628	-14,104	-0,084	-0,038
-272,613	55,498	-0,211	-0,146
-271,599	-110,556	-0,062	-0,009
-270,584	800,000	0,050	-0,144
-269,570	800,000	0,115	-0,228
-268,555	474,151	0,050	-0,080
-267,540	169,556	-0,039	0,040
-266,526	-200,000	0,001	-0,029
-265,511	16,589	0,055	0,031
-264,497	-66,393	-0,165	0,046
-263,482	-31,776	0,122	0,049
-262,467	-146,651	0,121	-0,007
-261,453	-13,452	-0,014	-0,007
-260,438	800,000	0,027	0,055
-259,424	498,516	0,041	-0,068
-258,409	-26,618	-0,126	0,052
-257,395	-1,612	0,095	0,048
-256,380	-159,787	0,082	-0,003
-255,365	99,598	0,013	-0,010
-254,351	-200,000	-0,004	0,029
-253,336	184,153	0,029	0,030
-252,322	124,842	-0,082	-0,074
-251,307	-200,000	-0,005	-0,086
-250,292	-64,665	-0,109	0,031
-249,278	613,935	0,074	0,132
-248,263	-200,000	-0,010	0,060
-247,249	339,929	0,096	0,134
-246,234	-9,441	-0,125	-0,059
-245,219	-200,000	0,020	-0,086
-244,205	-200,000	-0,009	0,112
-243,190	-200,000	0,027	0,129
-242,176	299,478	-0,033	0,043
-241,161	6,644	0,092	0,049
-240,146	-200,000	-0,003	-0,058
-239,132	-200,000	-0,009	-0,088
-238,117	144,212	-0,102	-0,097
-237,103	-11,431	-0,132	0,062
-236,088	3,758	-0,020	-0,010
-235,073	800,000	0,040	-0,091
-234,059	-61,534	0,201	-0,060
-233,044	94,339	-0,076	0,061
-232,030	321,454	0,079	0,107
-231,015	48,825	0,118	-0,079
-230,000	-200,000	-0,007	-0,073
-228,986	-164,495	0,078	0,002
-227,971	-47,549	0,109	-0,037
-226,957	373,101	0,079	0,115
-225,942	-200,000	-0,016	0,229
-224,927	-200,000	-0,022	-0,109
-223,913	155,646	-0,044	0,044
-222,898	87,145	0,077	-0,061
-221,884	276,889	-0,048	-0,060
-220,869	-19,142	0,108	-0,048
-219,855	-32,754	0,092	0,036
-218,840	18,255	-0,047	-0,027
-217,825	53,808	0,093	-0,063
-216,811	-200,000	-0,025	-0,195
-215,796	165,275	-0,040	0,040
-214,782	797,263	-0,081	-0,160
-213,767	800,000	-0,021	0,051
-212,752	-42,395	0,128	-0,046
-211,738	-200,000	0,009	-0,125
-210,723	-200,000	-0,008	-0,031
-209,709	-72,717	-0,105	0,027
-208,694	-23,586	-0,118	-0,050
-207,679	800,000	0,025	0,056
-206,665	-200,000	-0,003	0,213
-205,650	271,785	0,039	0,049
-204,636	70,644	-0,082	-0,061
-203,621	-200,000	0,010	0,049
-202,606	-7,605	-0,141	0,068
-201,592	800,000	-0,044	-0,128
-200,577	657,896	0,063	0,117
-199,563	800,000	-0,037	0,104
-198,548	-200,000	0,010	0,069
-197,533	22,990	0,036	0,021
-196,519	420,100	-0,074	0,114
-195,504	198,423	-0,046	-0,051
-194,490	377,458	-0,086	-0,125
-193,475	75,498	0,106	-0,080
-192,460	284,131	0,071	0,091
-191,446	337,020	-0,067	0,092
-190,431	-23,443	0,182	-0,078
-189,417	157,324	-0,024	0,024
-188,402	-200,000	0,012	0,114
-187,387	726,469	-0,050	0,096
-186,373	-200,000	-0,029	-0,240
-185,358	-96,349	0,057	-0,011
-184,344	800,000	0,022	-0,064
-183,329	800,000	-0,062	0,149
-182,315	-150,335	0,134	0,007
-181,300	-200,000	-0,017	-0,091
-180,285	198,936	-0,053	-0,058
-179,271	-200,000	-0,019	-0,157
-178,256	-200,000	-0,008	-0,111
-177,242	194,341	0,018	-0,019
-176,227	307,810	-0,048	0,064
-175,212	13,725	0,061	0,034
-174,198	800,000	-0,030	0,086
-173,183	773,286	-0,088	-0,171
-172,169	39,180	-0,103	0,066
-171,154	-42,224	0,060	-0,022
-170,139	215,483	-0,032	0,036
-169,125	800,000	-0,048	0,111
-168,110	-200,000	-0,022	-0,095
-167,096	-92,905	0,017	0,003
-166,081	-147,458	-0,068	-0,004
-165,066	21,864	-0,036	0,021
-164,052	-200,000	-0,003	-0,015
-163,037	-200,000	-0,002	0,034
-162,023	189,942	0,034	0,036
-161,008	-200,000	-0,033	0,112
-159,993	697,698	0,076	0,142
-158,979	204,632	0,025	-0,028
-157,964	22,541	-0,132	0,077
-156,950	140,345	-0,069	-0,064
-155,935	-77,933	-0,167	-0,041
-154,920	-200,000	0,008	0,045
-153,906	800,000	-0,033	-0,075
-152,891	-200,000	0,011	-0,064
-151,877	383,328	0,013	0,019
-150,862	800,000	-0,077	-0,230
-149,847	35,643	-0,101	-0,063
-148,833	-200,000	0,029	0,236
-147,818	-200,000	0,005	-0,181
-146,804	-50,845	0,115	-0,038
-145,789	167,934	-0,188	-0,191
-144,775	-9,468	-0,080	-0,038
-143,760	278,702	-0,055	-0,069
-142,745	-184,958	0,041	-0,000
-141,731	-23,773	0,095	0,040
-140,716	-200,000	-0,022	0,083
-139,702	-200,000	-0,018	-0,140
-138,687	-200,000	0,048	-0,163
-137,672	703,670	0,064	-0,120
-136,658	-200,000	-0,011	-0,062
-135,643	189,803	-0,096	-0,103
-134,629	-178,624	-0,067	0,001
-133,614	-200,000	0,013	0,147
-132,599	24,616	0,047	-0,028
-131,585	-124,498	0,024	-0,003
-130,570	25,628	-0,080	0,047
-129,556	-41,448	-0,103	-0,037
-128,541	621,885	0,061	-0,110
-127,526	265,186	0,016	-0,019
-126,512	-200,000	-0,011	0,120
-125,497	-200,000	-0,012	0,053
-124,483	-200,000	-0,026	0,141
-123,468	293,429	0,025	-0,033
-122,453	800,000	-0,008	-0,019
-121,439	-200,000	-0,028	0,093
-120,424	-62,698	-0,070	-0,021
-119,410	53,076	0,217	0,147
-118,395	0,275	0,075	0,038
-117,380	22,704	0,106	0,062
-116,366	143,526	-0,042	-0,040
-115,351	270,731	0,049	0,061
-114,337	-200,000	0,002	-0,127
-113,322	531,048	0,049	-0,083
-112,307	33,398	-0,094	-0,058
-111,293	800,000	-0,028	0,073
-110,278	-200,000	0,018	0,067
-109,264	-163,740	-0,205	-0,007
-108,249	287,801	0,067	-0,086
-107,234	800,000	-0,028	-0,060
-106,220	68,876	-0,085	-0,062
-105,205	365,862	0,019	0,027
-104,191	800,000	0,021	-0,058
-103,176	23,384	0,235	0,137
-102,162	-56,896	-0,076	0,024
-101,147	438,178	0,021	-0,033
-100,132	-128,791	-0,230	-0,023
-99,118	431,291	0,079	-0,122
-98,103	-200,000	0,016	-0,223
-97,089	800,000	0,034	-0,077
-96,074	-200,000	-0,005	0,024
-95,059	-200,000	0,012	0,086
-94,045	800,000	0,032	-0,087
-93,030	58,232	-0,087	0,061
-92,016	88,743	0,026	0,021
-91,001	-21,907	0,038	-0,016
-89,986	-32,443	-0,062	-0,025
-88,972	-126,954	0,021	0,002
-87,957	87,784	-0,078	-0,062
-86,943	21,009	0,031	-0,018
-85,928	-200,000	0,015	-0,116
-84,913	156,037	-0,081	-0,079
-83,899	-200,000	-0,019	0,200
-82,884	-19,713	-0,018	0,008
-81,870	-200,000	-0,030	0,125
-80,855	-200,000	-0,003	-0,011
-79,840	-200,000	0,020	-0,111
-78,826	518,679	-0,057	-0,095
-77,811	800,000	-0,021	-0,045
-76,797	-200,000	-0,017	-0,095
-75,782	49,948	0,112	-0,075
-74,767	-38,722	-0,087	0,032
-73,753	696,104	0,040	0,076
-72,738	-65,018	-0,058	0,016
-71,724	-200,000	0,015	0,052
-70,709	800,000	0,036	-0,098
-69,694	528,364	-0,015	-0,026
-68,680	92,256	-0,098	0,078
-67,665	258,573	0,062	0,076
-66,651	399,857	0,041	0,062
-65,636	-148,618	0,091	-0,005
-64,622	800,000	0,007	-0,017
-63,607	800,000	-0,046	0,109
-62,592	149,315	0,111	0,106
-61,578	531,010	-0,086	0,144
-60,563	659,001	-0,015	0,028
-59,549	800,000	0,101	0,245
-58,534	-30,324	-1,565	-0,627
-57,519	431,090	-1,334	-2,054
-56,505	-200,000	-0,499	-4,669
-55,490	251,503	1,008	1,217
-54,476	800,000	5,024	11,474
-53,461	-200,000	18,880	312,452
-52,446	-200,000	738,635	2321,744
-51,432	574,705	1655,271	2871,932
-50,417	79,164	1671,449	1266,867
-49,403	21,825	1544,290	888,659
-48,388	15,766	1466,631	814,511
-47,373	17,817	1456,874	818,974
-46,359	16,817	1446,857	808,511
-45,344	13,973	1442,298	792,307
-44,330	13,861	1440,391	790,692
-43,315	13,861	1438,729	789,745
-42,300	13,902	1436,975	788,948
-41,286	13,932	1435,707	788,365
-40,271	13,842	1434,661	787,328
-39,257	13,888	1433,173	786,701
-38,242	13,935	1431,771	786,123
-37,227	13,942	1430,751	785,563
-36,213	13,897	1429,522	784,644
-35,198	13,943	1428,359	784,195
-34,184	13,990	1427,313	783,812
-33,169	13,905	1426,009	782,660
-32,154	13,943	1424,865	782,184
-31,140	13,936	1423,416	781,325
-30,125	13,985	1422,374	780,950
-29,111	13,946	1421,223	780,104
-28,096	13,890	1420,256	779,280
-27,082	13,909	1419,078	778,693
-26,067	13,839	1418,098	777,792
-25,052	13,842	1417,123	777,239
-24,038	13,836	1415,875	776,497
-23,023	13,833	1415,055	776,003
-22,009	13,848	1414,075	775,507
-20,994	13,786	1413,199	774,702
-19,979	13,806	1412,220	774,227
-18,965	13,775	1411,486	773,651
-17,950	13,785	1410,533	773,144
-16,936	13,807	1409,463	772,629
-15,921	13,760	1408,472	771,834
-14,906	13,770	1407,411	771,271
-13,892	13,745	1406,510	770,630
-12,877	13,747	1405,671	770,149
-11,863	13,779	1404,599	769,680
-10,848	13,751	1403,819	769,092
-9,833	13,681	1403,093	768,339
-8,819	13,691	1402,221	767,874
-7,804	13,686	1401,089	767,202
-6,790	13,669	1400,074	766,538
-5,775	13,641	1399,116	765,851
-4,760	13,652	1398,115	765,326
-3,746	13,644	1397,423	764,876
-2,731	13,651	1396,647	764,454
-1,717	13,637	1395,589	763,778
-0,702	13,620	1393,683	762,628
0,313	17,349	1311,651	735,067
1,327	33,547	705,755	433,051
2,342	51,399	123,793	83,067
3,356	3,577	16,617	8,547
4,371	4,304	3,264	1,686
5,386	-49,620	0,563	0,188
6,400	-200,000	-0,009	0,295
7,415	58,129	-0,196	-0,135
8,429	163,171	-0,289	-0,287
9,444	133,391	-0,321	-0,294
10,459	-22,431	-0,295	-0,126
11,473	-32,328	-0,362	-0,142
12,488	800,000	-0,105	-0,278
13,502	-76,503	-0,350	-0,086
14,517	-93,590	-0,397	-0,077
15,531	59,201	-0,233	-0,162
16,546	0,799	-0,396	-0,200
17,561	16,164	-0,399	-0,222
18,575	7,634	-0,195	-0,103
19,590	200,558	-0,153	-0,167
20,604	123,651	-0,240	-0,213
21,619	130,664	-0,438	-0,397
22,634	166,080	-0,386	-0,386
23,648	33,650	-0,426	-0,261
24,663	112,411	-0,379	-0,324
25,677	150,985	-0,332	-0,319
26,692	96,364	-0,380	-0,307
27,707	91,106	-0,370	-0,293
28,721	414,725	-0,310	-0,467
29,736	101,123	-0,395	-0,324
30,750	176,266	-0,436	-0,447
31,765	124,462	-0,396	-0,351
32,780	158,519	-0,297	-0,291
33,794	83,337	-0,322	-0,247
34,809	73,860	-0,337	-0,249
35,823	82,344	-0,353	-0,270
36,838	-39,238	-0,465	-0,171
37,853	-8,155	-0,422	-0,200
38,867	130,861	-0,280	-0,253
39,882	60,738	-0,406	-0,284
40,896	99,618	-0,352	-0,287
41,911	15,569	-0,493	-0,272
42,926	65,702	-0,400	-0,286
43,940	114,066	-0,294	-0,252
44,955	114,059	-0,375	-0,321
45,969	21,511	-0,446	-0,255
46,984	247,578	-0,280	-0,335
47,999	78,288	-0,339	-0,255
49,013	17,302	-0,371	-0,207
50,028	-51,712	-0,487	-0,159
51,042	48,938	-0,426	-0,281
52,057	251,759	-0,286	-0,344
53,071	47,594	-0,400	-0,263
54,086	591,981	-0,128	-0,223
55,101	-78,970	-0,385	-0,091
56,115	-86,656	-0,286	0,061
57,130	206,886	-0,285	-0,313
58,144	22,833	-0,378	-0,218
59,159	183,729	-0,234	-0,244
60,174	227,415	-0,318	-0,364
61,188	161,010	-0,304	-0,299
62,203	60,061	-0,348	-0,242
63,217	158,055	-0,307	-0,300
64,232	14,457	-0,273	-0,150
65,247	-4,406	-0,208	-0,101
66,261	41,619	-0,343	-0,218
67,276	92,689	-0,424	-0,337
68,290	48,410	-0,299	-0,197
69,305	93,649	-0,244	-0,194
70,320	-128,361	-0,406	-0,040
71,334	51,358	-0,337	-0,225
72,349	1,927	-0,313	-0,158
73,363	-11,360	-0,400	-0,185
74,378	-24,053	-0,358	-0,150
75,393	237,506	-0,381	-0,445
76,407	65,481	-0,277	-0,197
77,422	-80,450	-0,244	-0,057
78,436	141,969	-0,311	-0,290
79,451	4,420	-0,325	-0,167
80,466	-13,025	-0,316	-0,144
81,480	125,672	-0,226	-0,201
82,495	51,916	-0,370	-0,247
83,509	31,118	-0,239	-0,144
84,524	-32,557	-0,347	-0,135
85,539	-183,226	-0,313	0,004
86,553	87,040	-0,157	-0,122
87,568	173,965	-0,201	-0,204
88,582	130,469	-0,353	-0,318
89,597	87,049	-0,277	-0,215
90,611	-22,704	-0,331	-0,140
91,626	183,423	-0,230	-0,239
92,641	21,462	-0,230	-0,131
93,655	84,285	-0,186	-0,142
94,670	127,838	-0,293	-0,262
95,684	-155,373	-0,394	0,018
96,699	94,986	-0,261	-0,209
97,714	244,507	-0,158	-0,187
98,728	-136,726	-0,168	-0,013
99,743	161,680	-0,254	-0,250
100,757	-24,941	-0,206	-0,085
101,772	-12,760	-0,266	-0,121
102,787	138,178	-0,297	-0,273
103,801	122,305	-0,220	-0,193
104,816	336,089	-0,176	-0,240
105,830	468,581	-0,158	-0,249
106,845	123,651	-0,280	-0,247
107,860	1,797	-0,170	-0,086
108,874	-61,270	-0,268	-0,079
109,889	498,925	-0,229	-0,371
110,903	-41,389	-0,413	-0,148
111,918	-84,774	-0,300	-0,066
112,933	-53,282	-0,219	-0,070
113,947	-42,395	-0,128	-0,046
114,962	-20,840	-0,348	-0,149
115,976	84,170	-0,211	-0,162
116,991	119,173	-0,189	-0,164
118,006	-8,344	-0,342	-0,161
119,020	-200,000	-0,059	-0,327
120,035	75,073	-0,311	-0,229
121,049	-101,183	-0,245	-0,042
122,064	54,060	-0,212	-0,142
123,079	37,340	-0,238	-0,147
124,093	40,660	-0,257	-0,162
125,108	13,116	-0,367	-0,198
126,122	36,367	-0,192	-0,118
127,137	-45,636	-0,197	-0,068
128,151	144,478	-0,210	-0,196
129,166	-93,567	-0,313	-0,060
130,181	352,600	-0,134	-0,186
131,195	66,589	-0,297	-0,211
132,210	800,000	-0,080	-0,205
133,224	98,750	-0,265	-0,214
134,239	100,146	-0,213	-0,173
135,254	41,632	-0,255	-0,161
136,268	-117,203	-0,236	-0,030
137,283	-151,101	-0,192	0,010
138,297	67,400	-0,310	-0,221
139,312	125,604	-0,201	-0,178
140,327	77,190	-0,329	-0,244
141,341	7,017	-0,296	-0,154
142,356	114,048	-0,205	-0,174
143,370	261,576	-0,213	-0,258
144,385	287,178	-0,248	-0,314
145,400	39,361	-0,221	-0,138
146,414	176,500	-0,371	-0,377
147,429	-200,000	-0,074	-0,274
148,443	569,398	-0,157	-0,268
149,458	-83,973	-0,318	-0,070
150,473	-200,000	-0,249	-0,000
151,487	160,546	-0,232	-0,226
152,502	12,357	-0,323	-0,173
153,516	361,173	-0,289	-0,405
154,531	67,265	-0,205	-0,145
155,546	-4,731	-0,252	-0,121
156,560	-42,791	-0,300	-0,106
157,575	106,950	-0,217	-0,180
158,589	800,000	-0,088	-0,179
159,604	660,129	-0,168	-0,304
160,619	800,000	-0,132	-0,335
161,633	-13,017	-0,147	-0,066
162,648	-8,996	-0,200	-0,093
163,662	4,026	-0,120	-0,061
164,677	94,832	-0,212	-0,168
165,692	262,938	-0,093	-0,113
166,706	241,483	-0,127	-0,148
167,721	-8,963	-0,336	-0,156
168,735	177,537	-0,151	-0,154
169,750	-94,452	-0,375	-0,071
170,764	47,845	-0,253	-0,164
171,779	-55,491	-0,101	-0,031
172,794	236,345	-0,136	-0,157
173,808	-76,447	-0,322	-0,078
174,823	96,294	-0,330	-0,263
175,837	185,476	-0,296	-0,306
176,852	46,323	-0,303	-0,195
177,867	186,199	-0,159	-0,165
178,881	-14,570	-0,265	-0,118
179,896	219,891	-0,167	-0,186
180,910	-27,605	-0,174	-0,070
181,925	14,819	-0,291	-0,158
182,940	18,672	-0,294	-0,164
183,954	151,371	-0,310	-0,294
184,969	51,476	-0,172	-0,114
185,983	277,105	-0,105	-0,131
186,998	458,372	-0,168	-0,262
188,013	163,138	-0,237	-0,232
189,027	-20,910	-0,255	-0,108
190,042	-200,000	-0,038	-0,268
191,056	35,425	-0,236	-0,144
192,071	41,976	-0,222	-0,140
193,086	74,573	-0,141	-0,103
194,100	-114,894	-0,225	-0,029
195,115	7,791	-0,222	-0,115
196,129	63,326	-0,278	-0,194
197,144	166,136	-0,166	-0,164
198,159	152,465	-0,214	-0,204
199,173	207,369	-0,217	-0,235
200,188	-76,663	-0,233	-0,056
201,202	-56,286	-0,070	0,021
202,217	-48,371	-0,217	-0,072
203,232	-26,860	-0,243	-0,098
204,246	116,489	-0,192	-0,164
205,261	-121,615	-0,242	-0,028
206,275	-174,569	-0,346	-0,007
207,290	105,348	-0,153	-0,126
208,304	122,148	-0,197	-0,171
209,319	443,533	-0,137	-0,210
210,334	-21,140	-0,319	-0,135
211,348	49,221	-0,197	-0,129
212,363	229,667	-0,242	-0,275
213,377	296,316	-0,221	-0,282
214,392	75,793	-0,073	-0,054
215,407	-77,874	-0,252	0,060
216,421	13,338	-0,203	-0,109
217,436	69,907	-0,229	-0,164
218,450	95,729	-0,251	-0,199
219,465	28,634	-0,304	-0,178
220,480	100,157	-0,294	-0,237
221,494	272,861	-0,198	-0,243
222,509	51,922	-0,244	-0,161
223,523	-30,212	-0,086	-0,034
224,538	800,000	-0,102	-0,240
225,553	98,176	-0,203	-0,162
226,567	-170,755	-0,236	-0,006
227,582	417,006	-0,121	-0,179
228,596	-102,399	-0,151	0,025
229,611	34,945	-0,206	-0,125
230,626	800,000	-0,117	-0,258
231,640	203,327	-0,075	-0,080
232,655	777,353	-0,133	-0,253
233,669	-27,914	-0,203	-0,081
234,684	-134,962	-0,221	-0,018
235,699	551,327	-0,096	-0,160
236,713	8,538	-0,104	-0,054
237,728	-139,250	-0,107	-0,008
238,742	-15,916	-0,210	-0,092
239,757	44,311	-0,287	-0,183
240,772	-58,548	-0,240	-0,072
241,786	70,324	-0,318	-0,228
242,801	376,643	-0,132	-0,187
243,815	172,423	-0,139	-0,139
244,830	207,425	-0,133	-0,144
245,844	211,175	-0,154	-0,168
246,859	156,195	-0,236	-0,226
247,874	50,746	-0,325	-0,213
248,888	48,653	-0,154	-0,100
249,903	61,934	-0,229	-0,158
250,917	154,401	-0,126	-0,120
251,932	218,498	-0,129	-0,142
252,947	316,255	-0,126	-0,164
253,961	35,836	-0,325	-0,197
254,976	40,389	-0,236	-0,147
255,990	50,248	-0,226	-0,147
257,005	233,452	-0,154	-0,175
258,020	57,605	-0,119	-0,080
259,034	272,119	-0,152	-0,185
260,049	-200,000	-0,218	-0,000
261,063	-9,222	-0,162	-0,075
262,078	178,428	-0,191	-0,193
263,093	6,282	-0,183	-0,094
264,107	-112,208	-0,179	-0,025
265,122	448,238	-0,124	-0,190
266,136	168,879	-0,074	-0,073
267,151	-101,322	-0,173	-0,029
268,166	-50,704	-0,140	-0,045
269,180	-18,151	-0,214	-0,092
270,195	167,354	-0,217	-0,213
271,209	-200,000	0,034	-0,121
272,224	25,535	-0,188	-0,108
273,239	-47,229	-0,099	-0,033
274,253	291,040	-0,128	-0,161
275,268	236,243	-0,226	-0,258
276,282	-46,407	-0,182	-0,061
277,297	800,000	-0,084	-0,202
278,312	-12,780	-0,157	-0,070
279,326	-51,744	-0,138	-0,044
280,341	64,168	-0,178	-0,124
281,355	31,642	-0,233	-0,138
282,370	-24,507	-0,264	-0,108
283,384	101,691	-0,227	-0,183
284,399	23,118	-0,251	-0,142
285,414	-4,614	-0,246	-0,117
286,428	-113,688	-0,244	-0,033
287,443	539,595	-0,113	-0,187
288,457	34,479	-0,152	-0,091
289,472	4,105	-0,174	-0,088
290,487	-26,002	-0,148	-0,060
291,501	53,602	-0,175	-0,116
292,516	-80,599	-0,191	-0,044
293,530	201,078	-0,073	0,077
294,545	58,763	-0,181	-0,123
295,560	109,332	-0,161	0,133
296,574	800,000	-0,087	-0,181
297,589	-86,517	-0,250	-0,052
298,603	-188,927	-0,225	0,002
299,618	-70,395	-0,244	-0,063
300,633	261,618	-0,179	-0,214
301,647	15,025	-0,068	-0,037
302,662	-200,000	0,008	-0,046
303,676	-95,217	-0,238	-0,044
304,691	339,713	-0,132	-0,178
305,706	156,799	-0,221	-0,210
306,720	-200,000	-0,012	-0,098
307,735	179,071	-0,103	0,104
308,749	85,188	-0,171	-0,129
309,764	-15,914	-0,086	0,037
310,779	275,271	-0,114	-0,139
311,793	453,460	-0,067	-0,102
312,808	-162,989	-0,185	0,006
313,822	-23,211	-0,155	-0,064
314,837	305,838	-0,164	-0,210
315,852	150,450	-0,125	-0,117
316,866	800,000	-0,063	-0,131
317,881	171,016	-0,145	-0,143
318,895	-55,102	-0,218	-0,067
319,910	-200,000	-0,003	-0,072
320,925	-176,587	-0,131	0,002
321,939	800,000	-0,059	-0,159
322,954	-89,548	-0,176	-0,035
323,968	-13,943	-0,100	0,044
324,983	8,968	-0,207	-0,107
325,997	188,944	-0,080	-0,082
327,012	181,164	-0,142	-0,143
328,027	-54,314	-0,217	-0,067
329,041	303,684	0,054	-0,069
330,056	-186,706	-0,207	-0,002
331,070	453,245	-0,040	-0,061
332,085	-45,245	-0,119	0,040
333,100	264,176	-0,068	-0,081
334,114	-145,988	-0,175	-0,010
335,129	-200,000	-0,018	-0,107
336,143	72,102	-0,162	-0,116
337,158	614,761	-0,127	-0,220
338,173	-30,243	-0,088	-0,034
339,187	-200,000	-0,003	-0,068
340,202	30,632	-0,195	-0,115
341,216	55,473	-0,201	-0,133
342,231	3,378	-0,069	-0,034
343,246	-15,825	-0,070	-0,031
344,260	71,597	-0,206	-0,147
345,275	734,680	-0,092	-0,171
346,289	196,095	-0,040	0,042
347,304	240,679	-0,074	-0,085
348,319	800,000	-0,053	-0,146
349,333	281,611	-0,157	-0,194
350,348	-61,723	-0,138	0,039
351,362	-109,012	-0,110	-0,016
352,377	155,494	-0,104	-0,099
353,392	257,354	-0,158	-0,187
354,406	-200,000	-0,011	-0,229
355,421	207,757	1314,602	1410,003
356,435	159,831	1475,298	1410,487
