DTS Sentinel unit serial number:	SN410029Multiplexer serial number:	ORYXHardware model number:	OX2-SRSoftware version number:	ORYX F/W v4,00 Oryx Data Collector v3.7.2.0data status	okinstallation	B3 Nyhavnadifferential loss correction	single-endedforward channel	channel 1reverse channel	N/Adate	2023/12/01time	14:57:30forward acquisition time	300,00reverse acquisition time	0,00gamma	499,1914k internal	0,3211k external	0,3211temperature offset calibration	1,0000default loss term (dB/km)	0,3820temperature slope calibration	1,0000multiplexer offset coefficient	1,0000multiplexer slope coefficient	1,0000fibre end	0,00T internal ref (°C)	11,36T ext. ref 1 (°C)	-2,05T ext. ref 2 (°C)	-2,13length (m)	temperature (°C)	Stokes	anti-Stokes-744,400	800,000	-0,186	-0,378
-743,385	-200,000	0,046	0,221
-742,371	166,289	-0,230	-0,236
-741,356	348,675	0,154	0,222
-740,342	144,562	-0,255	-0,247
-739,327	-200,000	-0,060	0,291
-738,312	258,448	-0,226	-0,283
-737,298	255,131	-0,208	0,259
-736,283	87,879	-0,208	-0,167
-735,269	-200,000	0,073	0,245
-734,254	373,781	-0,148	-0,219
-733,239	-101,137	-0,283	0,050
-732,225	-200,000	-0,017	-0,061
-731,210	629,487	0,087	0,160
-730,196	-200,000	-0,010	-0,166
-729,181	192,992	0,126	0,138
-728,167	224,482	-0,049	0,058
-727,152	-200,000	0,002	-0,061
-726,137	-0,196	0,168	-0,086
-725,123	-112,171	-0,185	-0,027
-724,108	93,182	-0,045	-0,037
-723,094	-200,000	-0,004	-0,060
-722,079	-164,332	-0,146	-0,005
-721,064	748,952	-0,025	-0,050
-720,050	-160,223	-0,042	0,002
-719,035	70,037	-0,133	0,099
-718,021	-51,125	0,023	-0,008
-717,006	-200,000	0,008	-0,050
-715,991	-200,000	-0,003	-0,040
-714,977	-56,542	0,087	0,028
-713,962	-200,000	-0,009	-0,119
-712,948	127,247	-0,005	-0,005
-711,933	54,434	-0,075	0,052
-710,918	274,304	0,080	0,102
-709,904	4,840	-0,076	0,040
-708,889	18,615	-0,154	-0,089
-707,875	800,000	0,007	-0,016
-706,860	-200,000	-0,026	-0,181
-705,845	-75,924	0,085	-0,022
-704,831	-82,399	0,155	0,036
-703,816	356,006	-0,074	-0,106
-702,802	-200,000	0,018	-0,113
-701,787	-40,415	0,111	-0,041
-700,772	800,000	-0,084	-0,254
-699,758	46,239	0,031	-0,021
-698,743	135,437	0,123	-0,116
-697,729	582,188	0,026	0,046
-696,714	518,884	-0,036	0,060
-695,699	-44,209	-0,097	-0,035
-694,685	-200,000	-0,009	-0,100
-693,670	800,000	-0,014	-0,034
-692,656	480,151	-0,037	-0,061
-691,641	800,000	0,008	-0,018
-690,627	16,492	-0,077	-0,044
-689,612	-172,398	0,163	0,004
-688,597	800,000	-0,098	0,222
-687,583	435,805	-0,095	-0,150
-686,568	300,556	-0,072	-0,096
-685,554	800,000	0,056	-0,131
-684,539	745,894	-0,053	0,104
-683,524	-200,000	-0,008	0,194
-682,510	-140,344	-0,052	-0,004
-681,495	67,448	-0,134	0,098
-680,481	618,577	0,073	-0,133
-679,466	100,445	0,038	0,032
-678,451	-92,691	0,004	0,001
-677,437	800,000	0,030	0,061
-676,422	182,331	-0,046	0,049
-675,408	290,445	0,037	0,049
-674,393	-200,000	-0,033	-0,144
-673,378	-200,000	0,043	-0,158
-672,364	-27,280	-0,051	-0,021
-671,349	-46,465	-0,094	-0,033
-670,335	-41,055	-0,014	-0,005
-669,320	800,000	0,007	0,021
-668,305	252,612	-0,060	0,075
-667,291	-100,838	0,089	-0,016
-666,276	800,000	0,039	-0,087
-665,262	40,705	-0,047	-0,031
-664,247	-200,000	-0,007	-0,103
-663,232	55,686	-0,030	0,021
-662,218	-85,378	0,138	0,031
-661,203	-200,000	0,007	0,096
-660,189	800,000	0,018	0,050
-659,174	-200,000	-0,023	-0,129
-658,159	-200,000	-0,011	-0,039
-657,145	176,909	0,074	0,078
-656,130	-200,000	0,030	0,098
-655,116	81,980	0,168	0,131
-654,101	119,747	-0,150	0,134
-653,086	232,101	-0,042	-0,050
-652,072	-148,341	0,218	-0,013
-651,057	800,000	0,017	0,044
-650,043	253,016	-0,034	-0,042
-649,028	800,000	0,027	0,078
-648,014	20,753	-0,076	0,044
-646,999	-56,709	0,100	-0,032
-645,984	-77,570	0,036	0,009
-644,970	-200,000	-0,001	-0,035
-643,955	-61,865	0,082	0,025
-642,941	-200,000	-0,008	-0,157
-641,926	-103,448	0,061	0,010
-640,911	358,147	0,011	-0,016
-639,897	-86,962	-0,059	0,013
-638,882	198,785	-0,064	-0,071
-637,868	265,411	-0,074	-0,094
-636,853	-101,930	-0,061	-0,010
-635,838	-200,000	-0,040	-0,154
-634,824	-200,000	-0,018	0,109
-633,809	111,728	-0,038	-0,033
-632,795	-200,000	-0,009	0,065
-631,780	-200,000	0,013	0,058
-630,765	366,979	0,032	-0,046
-629,751	-200,000	-0,003	0,079
-628,736	-200,000	0,008	0,097
-627,722	-200,000	0,007	-0,052
-626,707	90,758	0,075	0,061
-625,692	164,280	0,057	-0,058
-624,678	800,000	-0,028	0,057
-623,663	-200,000	0,004	0,015
-622,649	575,041	0,053	0,095
-621,634	800,000	-0,050	-0,143
-620,619	-55,610	-0,132	0,042
-619,605	-92,712	-0,049	0,010
-618,590	-137,553	-0,063	0,005
-617,576	800,000	-0,061	0,136
-616,561	680,123	0,017	0,032
-615,546	666,864	-0,042	0,078
-614,532	-200,000	-0,012	-0,045
-613,517	-200,000	-0,025	-0,112
-612,503	-200,000	0,005	-0,106
-611,488	-170,183	0,101	0,003
-610,474	-45,178	0,111	-0,040
-609,459	-118,804	-0,062	-0,008
-608,444	-200,000	-0,025	0,085
-607,430	800,000	-0,030	-0,083
-606,415	-200,000	-0,017	-0,156
-605,401	134,106	-0,087	0,081
-604,386	527,367	-0,023	0,039
-603,371	557,354	-0,058	0,101
-602,357	523,096	0,034	-0,059
-601,342	-200,000	-0,008	-0,041
-600,328	-24,129	-0,060	-0,026
-599,313	93,085	0,041	-0,033
-598,298	129,093	0,075	-0,069
-597,284	-200,000	-0,022	0,071
-596,269	-100,989	0,113	-0,020
-595,255	-110,340	0,064	0,010
-594,240	-166,633	0,044	-0,001
-593,225	-63,519	-0,111	-0,033
-592,211	32,364	0,110	-0,068
-591,196	607,039	-0,009	-0,016
-590,182	-136,315	0,064	0,005
-589,167	62,179	-0,030	-0,021
-588,152	-200,000	0,031	-0,120
-587,138	-200,000	-0,011	-0,097
-586,123	-69,024	-0,038	0,010
-585,109	531,669	0,069	-0,118
-584,094	-65,530	-0,111	-0,032
-583,079	-108,605	0,105	-0,016
-582,065	132,803	-0,066	0,061
-581,050	-200,000	0,007	-0,077
-580,036	54,476	-0,016	0,011
-579,021	-200,000	0,016	-0,122
-578,006	-50,318	-0,072	-0,024
-576,992	-51,190	0,174	0,058
-575,977	427,848	-0,070	0,109
-574,963	-144,462	-0,073	0,005
-573,948	-34,936	-0,113	-0,044
-572,934	-200,000	0,000	0,021
-571,919	800,000	0,033	-0,070
-570,904	-9,009	-0,108	-0,052
-569,890	121,488	-0,014	0,013
-568,875	142,990	0,048	-0,046
-567,861	559,340	0,058	-0,102
-566,846	170,421	0,036	-0,037
-565,831	92,311	-0,067	-0,054
-564,817	13,653	-0,125	-0,070
-563,802	105,940	-0,021	-0,018
-562,788	286,731	-0,011	0,014
-561,773	43,909	0,123	-0,081
-560,758	-200,000	-0,003	-0,091
-559,744	88,619	0,075	0,060
-558,729	780,323	0,072	0,142
-557,715	-200,000	0,031	-0,106
-556,700	196,726	0,032	0,035
-555,685	-200,000	0,001	-0,026
-554,671	800,000	0,011	-0,033
-553,656	60,753	-0,056	-0,040
-552,642	-200,000	0,002	0,027
-551,627	800,000	-0,048	0,137
-550,612	800,000	-0,054	0,154
-549,598	-200,000	-0,031	-0,157
-548,583	-200,000	-0,014	-0,061
-547,569	306,603	0,026	-0,035
-546,554	-145,067	-0,023	-0,001
-545,539	46,752	0,105	-0,070
-544,525	-200,000	0,030	0,107
-543,510	800,000	-0,044	0,139
-542,496	-200,000	-0,025	-0,166
-541,481	-200,000	-0,059	-0,196
-540,466	171,266	0,031	-0,032
-539,452	8,676	0,137	0,074
-538,437	-83,441	-0,068	-0,016
-537,423	-200,000	0,010	-0,033
-536,408	121,723	0,032	-0,029
-535,393	319,790	-0,045	-0,061
-534,379	-200,000	-0,031	-0,149
-533,364	-200,000	0,008	0,033
-532,350	-200,000	-0,009	0,070
-531,335	-94,920	0,034	-0,007
-530,321	800,000	0,034	0,068
-529,306	-95,187	-0,108	-0,021
-528,291	-4,808	0,097	-0,048
-527,277	8,406	0,044	-0,024
-526,262	56,671	0,115	0,080
-525,248	-31,730	0,192	-0,077
-524,233	39,257	0,055	0,035
-523,218	-156,038	0,053	-0,002
-522,204	-200,000	0,010	0,102
-521,189	-66,374	0,079	0,022
-520,175	110,290	-0,073	0,063
-519,160	7,561	-0,068	0,036
-518,145	-200,000	0,012	0,049
-517,131	800,000	0,053	0,162
-516,116	141,487	0,011	0,011
-515,102	175,185	0,120	-0,125
-514,087	791,234	-0,048	-0,095
-513,072	-200,000	-0,001	-0,021
-512,058	214,118	-0,072	-0,082
-511,043	-200,000	0,019	-0,116
-510,029	-200,000	-0,013	0,152
-509,014	-200,000	0,009	0,142
-507,999	-200,000	0,006	-0,069
-506,985	-84,620	-0,106	-0,024
-505,970	321,448	-0,048	-0,065
-504,956	-30,610	0,142	-0,058
-503,941	42,864	-0,058	-0,038
-502,926	215,034	-0,159	-0,181
-501,912	26,914	0,077	0,046
-500,897	-23,088	-0,014	-0,006
-499,883	517,517	-0,046	-0,078
-498,868	205,813	-0,123	-0,137
-497,853	-200,000	-0,002	0,009
-496,839	-17,210	-0,086	-0,039
-495,824	-18,468	0,096	0,043
-494,810	-200,000	-0,017	-0,070
-493,795	141,139	-0,015	-0,014
-492,781	27,912	0,113	-0,068
-491,766	-200,000	0,016	-0,122
-490,751	119,954	-0,075	-0,067
-489,737	-165,935	0,049	-0,001
-488,722	107,071	-0,152	-0,130
-487,708	-74,845	-0,073	0,019
-486,693	245,439	0,095	-0,115
-485,678	391,735	0,055	-0,082
-484,664	-20,649	0,026	-0,011
-483,649	800,000	0,024	-0,052
-482,635	800,000	-0,020	0,046
-481,620	-200,000	0,001	0,044
-480,605	126,080	0,120	0,109
-479,591	260,065	-0,051	0,063
-478,576	-200,000	-0,005	0,094
-477,562	-163,776	-0,079	0,003
-476,547	-68,483	-0,139	0,039
-475,532	-200,000	0,007	-0,108
-474,518	-200,000	0,008	0,127
-473,503	144,617	0,181	0,174
-472,489	154,020	0,099	0,097
-471,474	800,000	0,025	0,058
-470,459	-200,000	0,020	-0,066
-469,445	106,567	-0,097	-0,082
-468,430	-200,000	-0,013	-0,171
-467,416	-74,129	0,078	-0,020
-466,401	-200,000	-0,012	0,060
-465,386	800,000	-0,020	0,043
-464,372	48,743	0,040	0,027
-463,357	800,000	0,016	0,046
-462,343	83,311	-0,036	0,028
-461,328	-120,590	0,065	-0,008
-460,313	338,808	-0,005	-0,008
-459,299	-200,000	-0,014	0,088
-458,284	-200,000	-0,016	0,096
-457,270	-200,000	0,000	-0,003
-456,255	-200,000	-0,011	-0,063
-455,241	146,714	-0,087	-0,084
-454,226	223,506	0,052	-0,061
-453,211	-115,493	-0,093	-0,012
-452,197	-118,004	0,014	-0,002
-451,182	-2,044	-0,023	0,012
-450,168	46,696	-0,124	0,082
-449,153	-11,679	0,075	-0,035
-448,138	-200,000	-0,007	0,044
-447,124	73,418	-0,060	-0,045
-446,109	442,515	0,091	0,144
-445,095	396,767	0,146	0,219
-444,080	-108,244	-0,066	-0,010
-443,065	215,302	0,118	0,134
-442,051	558,562	-0,070	0,122
-441,036	-200,000	-0,013	-0,073
-440,022	99,546	-0,101	-0,083
-439,007	-200,000	0,037	0,136
-437,992	142,176	0,049	-0,047
-436,978	-43,909	0,115	-0,041
-435,963	800,000	0,056	-0,131
-434,949	-200,000	0,012	-0,063
-433,934	-200,000	0,011	0,044
-432,919	399,931	0,057	-0,086
-431,905	76,730	-0,076	0,057
-430,890	-46,145	0,045	0,016
-429,876	-63,705	0,068	0,020
-428,861	95,870	-0,086	0,070
-427,846	309,256	-0,005	0,006
-426,832	148,408	-0,094	0,091
-425,817	800,000	0,068	-0,163
-424,803	-200,000	-0,012	0,074
-423,788	-2,359	-0,045	0,023
-422,773	-8,927	0,070	-0,034
-421,759	481,838	0,044	0,072
-420,744	-200,000	-0,014	0,046
-419,730	-102,428	0,016	-0,003
-418,715	5,531	0,047	0,025
-417,701	-72,716	-0,035	0,009
-416,686	25,160	-0,048	0,029
-415,671	800,000	-0,058	0,128
-414,657	-80,398	-0,109	-0,026
-413,642	800,000	0,023	-0,053
-412,628	-93,858	0,053	0,010
-411,613	-113,543	-0,034	0,005
-410,598	319,690	-0,063	-0,086
-409,584	21,542	-0,068	0,040
-408,569	218,101	0,119	0,136
-407,555	759,131	0,055	0,107
-406,540	-108,554	0,082	-0,012
-405,525	-200,000	-0,013	0,131
-404,511	279,762	-0,100	-0,128
-403,496	-105,794	-0,021	0,003
-402,482	-106,679	-0,009	-0,001
-401,467	-103,003	0,076	0,013
-400,452	-10,356	-0,032	-0,015
-399,438	47,684	0,068	-0,046
-398,423	-140,298	-0,176	0,013
-397,409	-50,233	-0,038	0,013
-396,394	-160,046	-0,101	-0,004
-395,379	186,556	-0,064	0,068
-394,365	-200,000	0,019	-0,073
-393,350	610,800	0,060	0,107
-392,336	-200,000	-0,021	-0,078
-391,321	344,033	-0,032	-0,045
-390,306	19,902	-0,120	0,069
-389,292	-87,317	-0,045	0,010
-388,277	-129,065	0,082	0,008
-387,263	64,128	0,049	0,035
-386,248	-128,540	-0,127	0,013
-385,233	-48,276	0,089	0,031
-384,219	-72,531	0,033	0,009
-383,204	-84,912	-0,129	-0,029
-382,190	195,092	0,026	0,028
-381,175	800,000	-0,006	-0,018
-380,160	-200,000	0,016	-0,149
-379,146	800,000	-0,055	0,131
-378,131	-200,000	0,028	0,140
-377,117	-200,000	-0,011	-0,040
-376,102	-67,140	-0,019	-0,005
-375,088	-72,849	-0,108	0,028
-374,073	-200,000	-0,002	-0,103
-373,058	-200,000	0,003	-0,012
-372,044	271,821	0,078	-0,098
-371,029	272,957	0,016	-0,020
-370,015	-200,000	0,009	0,031
-369,000	56,402	-0,072	-0,050
-367,985	-200,000	-0,001	-0,058
-366,971	90,738	-0,055	0,044
-365,956	101,997	0,059	-0,049
-364,942	16,525	0,073	-0,041
-363,927	234,379	0,138	0,163
-362,912	-90,572	-0,019	0,004
-361,898	-79,489	0,078	-0,019
-360,883	-117,410	-0,148	-0,019
-359,869	-200,000	-0,005	-0,053
-358,854	122,776	0,076	0,068
-357,839	211,671	0,075	0,084
-356,825	-200,000	-0,012	0,040
-355,810	26,391	-0,048	0,029
-354,796	-200,000	0,038	-0,131
-353,781	113,252	-0,189	-0,164
-352,766	422,554	0,028	-0,044
-351,752	417,676	0,039	0,059
-350,737	723,428	0,016	0,031
-349,723	-12,922	0,071	-0,033
-348,708	535,388	0,050	0,085
-347,693	324,435	0,050	0,068
-346,679	-200,000	-0,003	-0,083
-345,664	-88,642	-0,024	0,005
-344,650	13,249	0,111	0,061
-343,635	49,158	0,064	0,043
-342,620	29,783	-0,019	0,012
-341,606	-200,000	0,034	0,191
-340,591	-43,398	-0,097	-0,035
-339,577	800,000	-0,054	-0,121
-338,562	-80,016	-0,085	0,020
-337,548	-200,000	0,001	0,086
-336,533	-200,000	0,015	-0,127
-335,518	739,038	0,024	0,047
-334,504	72,776	-0,138	0,103
-333,489	701,873	0,059	-0,111
-332,475	-148,862	-0,112	-0,006
-331,460	-73,061	-0,067	0,017
-330,445	-68,746	-0,024	-0,007
-329,431	-94,837	0,058	-0,011
-328,416	-200,000	-0,006	0,066
-327,402	-200,000	0,024	0,093
-326,387	150,793	-0,028	-0,027
-325,372	-99,410	-0,135	-0,024
-324,358	653,273	0,069	-0,127
-323,343	-142,733	-0,060	0,004
-322,329	579,695	0,105	0,183
-321,314	-152,293	0,053	-0,003
-320,299	100,606	0,097	0,080
-319,285	800,000	-0,049	0,134
-318,270	261,816	-0,022	-0,027
-317,256	-108,575	-0,094	-0,014
-316,241	16,742	-0,043	0,024
-315,226	30,429	-0,044	0,027
-314,212	-147,706	0,185	-0,011
-313,197	466,004	-0,068	0,110
-312,183	150,535	-0,086	-0,083
-311,168	23,723	-0,074	-0,043
-310,153	-200,000	-0,025	-0,174
-309,139	-200,000	-0,022	-0,088
-308,124	800,000	0,008	-0,024
-307,110	-45,768	0,083	-0,029
-306,095	-69,800	-0,134	-0,036
-305,080	-104,748	-0,092	0,015
-304,066	-200,000	0,011	-0,039
-303,051	111,566	-0,054	0,047
-302,037	800,000	-0,060	-0,137
-301,022	-182,344	0,048	-0,001
-300,008	-101,522	0,126	0,022
-298,993	800,000	-0,015	-0,034
-297,978	-142,742	0,150	-0,010
-296,964	-118,920	-0,033	0,004
-295,949	-43,804	-0,057	0,020
-294,935	-123,992	0,116	-0,013
-293,920	191,225	0,123	-0,132
-292,905	-200,000	-0,016	-0,077
-291,891	-200,000	-0,000	0,076
-290,876	800,000	0,050	0,128
-289,862	800,000	-0,059	0,119
-288,847	800,000	0,039	-0,082
-287,832	56,255	0,108	-0,074
-286,818	79,000	0,046	0,035
-285,803	-88,714	0,041	0,009
-284,789	-200,000	0,041	0,164
-283,774	173,684	0,070	0,072
-282,759	-107,972	-0,130	0,020
-281,745	800,000	-0,043	-0,089
-280,730	-100,728	0,152	0,026
-279,716	404,559	-0,076	-0,114
-278,701	-200,000	0,031	-0,156
-277,686	44,427	0,043	-0,028
-276,672	800,000	0,063	0,184
-275,657	-100,982	0,188	0,033
-274,643	88,088	-0,091	0,072
-273,628	350,000	-0,027	-0,038
-272,613	-105,592	-0,087	-0,014
-271,599	-37,548	0,067	-0,025
-270,584	345,047	-0,034	0,048
-269,570	69,867	0,061	0,045
-268,555	114,580	0,047	0,041
-267,540	278,143	-0,016	-0,021
-266,526	-98,851	-0,236	-0,042
-265,511	142,938	-0,094	0,089
-264,497	-102,284	-0,119	-0,020
-263,482	-200,000	0,002	0,014
-262,467	-1,799	-0,068	0,034
-261,453	-200,000	-0,018	0,250
-260,438	-81,214	-0,029	-0,007
-259,424	-200,000	-0,003	0,031
-258,409	-200,000	0,035	0,169
-257,395	132,875	-0,152	0,140
-256,380	149,436	-0,073	0,070
-255,365	63,821	0,054	-0,038
-254,351	153,575	0,043	0,042
-253,336	-143,017	-0,185	0,013
-252,322	155,374	-0,042	-0,042
-251,307	-57,732	-0,108	-0,033
-250,292	48,891	0,045	-0,030
-249,278	-74,852	0,088	0,022
-248,263	-200,000	0,000	0,040
-247,249	800,000	0,030	0,087
-246,234	87,296	0,085	0,067
-245,219	71,285	-0,031	-0,023
-244,205	23,510	0,042	0,025
-243,190	800,000	0,040	-0,082
-242,176	78,921	-0,104	-0,079
-241,161	800,000	0,107	0,243
-240,146	-200,000	-0,008	0,034
-239,132	124,733	0,054	0,048
-238,117	-134,141	-0,022	-0,002
-237,103	-48,912	-0,028	0,010
-236,088	-200,000	0,042	-0,171
-235,073	55,832	0,054	-0,037
-234,059	242,142	0,046	0,055
-233,044	-7,772	-0,094	-0,045
-232,030	484,985	0,044	-0,072
-231,015	-27,040	-0,064	0,026
-230,000	-130,972	-0,025	-0,002
-228,986	453,334	-0,008	-0,012
-227,971	114,359	0,065	0,056
-226,957	285,250	0,057	0,074
-225,942	-97,153	0,080	-0,015
-224,927	161,047	-0,045	-0,045
-223,913	-32,491	0,062	-0,024
-222,898	518,252	-0,020	0,034
-221,884	-89,411	0,063	-0,013
-220,869	491,913	-0,028	0,045
-219,855	223,413	0,058	-0,067
-218,840	-34,721	0,061	-0,024
-217,825	483,488	-0,033	0,054
-216,811	-58,873	-0,106	-0,032
-215,796	-200,000	0,021	-0,078
-214,782	518,219	0,029	-0,049
-213,767	165,686	0,092	-0,093
-212,752	-158,322	-0,146	-0,006
-211,738	43,179	-0,034	0,022
-210,723	-6,321	0,042	-0,020
-209,709	-200,000	0,027	-0,090
-208,694	-200,000	0,017	-0,065
-207,679	-200,000	-0,016	-0,166
-206,665	109,265	-0,054	0,046
-205,650	-125,422	0,114	0,012
-204,636	-46,698	-0,065	-0,022
-203,621	374,556	-0,036	-0,051
-202,606	800,000	0,048	-0,109
-201,592	800,000	-0,060	-0,144
-200,577	-66,144	0,144	0,040
-199,563	4,399	0,099	0,051
-198,548	28,560	0,067	0,040
-197,533	169,212	0,110	0,112
-196,519	-67,533	0,134	0,037
-195,504	-189,612	-0,132	-0,001
-194,490	337,698	0,057	-0,079
-193,475	325,964	0,070	0,095
-192,460	16,602	-0,029	0,016
-191,446	800,000	0,041	0,103
-190,431	-200,000	-0,003	0,069
-189,417	401,506	0,062	0,093
-188,402	800,000	-0,040	0,107
-187,387	126,558	-0,083	-0,074
-186,373	-151,043	0,130	0,007
-185,358	-200,000	0,002	-0,027
-184,344	800,000	-0,057	0,143
-183,329	708,750	-0,059	0,110
-182,315	-200,000	0,017	0,113
-181,300	-152,671	-0,271	-0,013
-180,285	-3,599	-0,073	-0,036
-179,271	-200,000	-0,025	-0,239
-178,256	-200,000	-0,037	-0,150
-177,242	178,528	0,071	0,073
-176,227	-139,371	-0,107	-0,008
-175,212	-200,000	-0,019	0,074
-174,198	-200,000	-0,011	0,036
-173,183	-200,000	-0,009	-0,080
-172,169	-59,283	-0,049	-0,015
-171,154	7,876	0,109	-0,058
-170,139	222,166	-0,031	0,036
-169,125	-52,677	0,113	0,037
-168,110	800,000	-0,037	0,093
-167,096	800,000	-0,065	-0,157
-166,081	800,000	-0,019	0,042
-165,066	173,418	0,114	-0,116
-164,052	-200,000	0,007	-0,032
-163,037	-2,029	-0,109	-0,054
-162,023	-144,289	-0,055	-0,004
-161,008	250,786	0,144	0,174
-159,993	597,673	0,073	0,129
-158,979	-35,435	-0,174	0,067
-157,964	684,440	0,048	-0,090
-156,950	123,655	-0,031	0,027
-155,935	-162,829	0,124	0,004
-154,920	-110,600	0,131	-0,019
-153,906	-200,000	-0,008	0,128
-152,891	300,659	-0,027	0,035
-151,877	-125,403	0,073	-0,008
-150,862	-200,000	-0,016	-0,051
-149,847	-11,241	0,111	-0,052
-148,833	-78,233	0,070	0,017
-147,818	-147,677	0,052	0,003
-146,804	613,341	-0,047	-0,084
-145,789	-64,105	0,115	-0,033
-144,775	-7,453	-0,168	-0,080
-143,760	314,039	-0,039	-0,052
-142,745	156,504	-0,017	0,017
-141,731	-37,547	0,022	-0,008
-140,716	800,000	0,027	-0,062
-139,702	-130,797	-0,083	0,008
-138,687	-29,945	0,120	0,048
-137,672	800,000	0,033	-0,080
-136,658	18,994	0,049	0,028
-135,643	-105,294	-0,163	0,026
-134,629	-200,000	0,017	-0,139
-133,614	800,000	0,038	0,091
-132,599	-24,264	0,065	-0,027
-131,585	-200,000	-0,033	0,148
-130,570	800,000	-0,019	-0,058
-129,556	-3,998	-0,073	-0,036
-128,541	-200,000	-0,007	0,100
-127,526	-200,000	0,028	0,088
-126,512	149,059	0,064	0,061
-125,497	800,000	0,076	0,168
-124,483	800,000	0,060	0,132
-123,468	4,491	-0,053	-0,028
-122,453	800,000	-0,047	0,094
-121,439	800,000	-0,034	-0,073
-120,424	89,804	-0,084	-0,066
-119,410	-4,781	0,127	0,062
-118,395	-88,607	-0,053	-0,011
-117,380	-140,515	0,072	0,005
-116,366	-48,378	-0,028	-0,010
-115,351	-200,000	-0,021	-0,148
-114,337	-37,991	-0,127	0,048
-113,322	-109,775	-0,067	-0,010
-112,307	-142,506	0,093	-0,006
-111,293	-117,092	-0,128	0,016
-110,278	213,798	0,085	0,096
-109,264	-200,000	-0,026	0,153
-108,249	567,959	-0,088	0,152
-107,234	-12,155	0,099	0,046
-106,220	-200,000	-0,016	-0,092
-105,205	51,624	0,105	-0,070
-104,191	22,295	0,067	0,038
-103,176	41,619	-0,052	-0,033
-102,162	71,075	0,045	0,033
-101,147	800,000	0,052	-0,137
-100,132	-172,143	-0,129	-0,003
-99,118	800,000	-0,041	-0,093
-98,103	-200,000	0,028	0,113
-97,089	117,797	0,132	0,115
-96,074	32,999	0,048	0,029
-95,059	532,296	0,027	-0,046
-94,045	47,600	-0,130	0,086
-93,030	10,474	-0,000	0,000
-92,016	-25,885	-0,017	-0,007
-91,001	-0,646	-0,096	-0,048
-89,986	379,956	0,109	-0,159
-88,972	47,738	-0,055	-0,036
-87,957	66,487	-0,087	0,063
-86,943	195,270	-0,107	0,115
-85,928	-78,861	-0,039	-0,009
-84,913	-30,176	-0,040	-0,016
-83,899	-52,490	0,048	0,016
-82,884	-135,003	-0,062	0,005
-81,870	-51,833	0,074	-0,024
-80,855	-90,931	-0,119	0,024
-79,840	800,000	-0,053	-0,140
-78,826	154,738	-0,048	-0,046
-77,811	-65,321	-0,099	-0,028
-76,797	-134,561	0,141	-0,012
-75,782	34,445	-0,087	0,054
-74,767	-200,000	-0,029	0,105
-73,753	-200,000	-0,035	0,174
-72,738	316,519	-0,092	0,123
-71,724	-13,929	-0,128	0,058
-70,709	13,052	-0,063	-0,034
-69,694	29,050	0,121	-0,072
-68,680	-6,670	-0,166	-0,079
-67,665	255,734	0,028	-0,034
-66,651	5,394	-0,020	-0,011
-65,636	800,000	-0,029	0,071
-64,622	297,223	0,046	-0,060
-63,607	-200,000	0,010	-0,074
-62,592	577,662	0,114	-0,198
-61,578	397,578	-0,069	0,102
-60,563	800,000	0,028	0,065
-59,549	210,413	0,067	0,074
-58,534	9,200	-1,873	-0,996
-57,519	406,869	-1,380	-2,064
-56,505	-200,000	-0,353	-4,533
-55,490	570,446	0,841	1,451
-54,476	800,000	5,003	11,107
-53,461	-200,000	20,342	328,903
-52,446	800,000	753,382	2313,994
-51,432	550,849	1659,108	2820,335
-50,417	74,028	1665,084	1231,670
-49,403	19,250	1538,154	869,072
-48,388	13,183	1461,038	796,144
-47,373	18,873	1451,437	818,210
-46,359	16,110	1441,189	799,242
-45,344	11,442	1436,685	774,477
-44,330	11,372	1434,679	773,031
-43,315	11,351	1432,960	771,976
-42,300	11,388	1431,060	771,096
-41,286	11,429	1429,803	770,580
-40,271	11,372	1428,500	769,580
-39,257	11,373	1427,245	768,875
-38,242	11,429	1425,880	768,378
-37,227	11,379	1425,056	767,663
-36,213	11,389	1423,717	766,959
-35,198	11,458	1422,556	766,629
-34,184	11,483	1421,855	766,341
-33,169	11,411	1420,152	765,051
-32,154	11,475	1419,388	764,913
-31,140	11,488	1417,790	764,081
-30,125	11,528	1416,878	763,746
-29,111	11,513	1415,669	762,993
-28,096	11,445	1414,592	762,066
-27,082	11,382	1413,605	761,206
-26,067	11,394	1412,538	760,661
-25,052	11,395	1411,439	760,040
-24,038	11,409	1410,432	759,534
-23,023	11,396	1409,279	758,825
-22,009	11,367	1408,395	758,183
-20,994	11,368	1407,308	757,571
-19,979	11,371	1406,402	757,067
-18,965	11,362	1405,431	756,474
-17,950	11,338	1404,613	755,890
-16,936	11,299	1403,996	755,345
-15,921	11,273	1402,815	754,561
-14,906	11,322	1401,671	754,141
-13,892	11,315	1400,949	753,690
-12,877	11,264	1400,350	753,105
-11,863	11,300	1399,145	752,593
-10,848	11,276	1398,310	752,003
-9,833	11,221	1397,485	751,272
-8,819	11,207	1396,669	750,741
-7,804	11,190	1395,713	750,119
-6,790	11,223	1394,674	749,682
-5,775	11,212	1393,637	749,043
-4,760	11,230	1392,438	748,455
-3,746	11,180	1391,697	747,794
-2,731	11,192	1390,882	747,381
-1,717	11,149	1389,996	746,678
-0,702	11,181	1388,238	745,852
0,313	15,258	1303,005	718,735
1,327	31,563	695,336	420,728
2,342	48,785	121,048	79,944
3,356	1,766	16,534	8,375
4,371	2,334	3,328	1,692
5,386	-58,201	0,797	0,243
6,400	800,000	0,173	0,370
7,415	-89,680	-0,264	-0,054
8,429	101,017	-0,252	-0,206
9,444	387,151	-0,215	-0,315
10,459	-46,881	-0,365	-0,125
11,473	-9,038	-0,426	-0,200
12,488	135,045	-0,202	-0,185
13,502	-73,040	-0,501	-0,129
14,517	43,256	-0,289	-0,186
15,531	-43,512	-0,383	-0,136
16,546	75,489	-0,200	-0,149
17,561	33,132	-0,303	-0,184
18,575	-125,334	-0,321	-0,034
19,590	340,276	-0,167	-0,230
20,604	31,479	-0,261	-0,157
21,619	15,227	-0,288	-0,159
22,634	53,658	-0,396	-0,267
23,648	92,547	-0,485	-0,385
24,663	114,444	-0,369	-0,317
25,677	94,989	-0,326	-0,261
26,692	547,194	-0,227	-0,384
27,707	-16,560	-0,368	-0,163
28,721	-29,016	-0,401	-0,161
29,736	41,752	-0,394	-0,251
30,750	205,973	-0,349	-0,382
31,765	54,454	-0,399	-0,270
32,780	-200,000	-0,373	0,000
33,794	106,734	-0,330	-0,275
34,809	9,995	-0,437	-0,233
35,823	64,028	-0,285	-0,201
36,838	63,373	-0,456	-0,321
37,853	138,953	-0,387	-0,357
38,867	19,295	-0,328	-0,185
39,882	39,940	-0,426	-0,269
40,896	164,369	-0,361	-0,358
41,911	119,395	-0,292	-0,254
42,926	129,118	-0,362	-0,325
43,940	49,678	-0,400	-0,264
44,955	56,983	-0,353	-0,242
45,969	334,525	-0,241	-0,329
46,984	175,638	-0,340	-0,347
47,999	107,047	-0,322	-0,268
49,013	138,810	-0,268	-0,248
50,028	63,657	-0,267	-0,188
51,042	102,743	-0,374	-0,307
52,057	17,565	-0,402	-0,224
53,071	91,176	-0,337	-0,265
54,086	46,768	-0,304	-0,198
55,101	192,682	-0,250	-0,265
56,115	204,023	-0,323	-0,351
57,130	-27,315	-0,378	-0,154
58,144	26,696	-0,329	-0,193
59,159	17,472	-0,324	-0,180
60,174	527,831	-0,255	-0,423
61,188	-1,442	-0,277	-0,137
62,203	313,586	-0,264	-0,349
63,217	42,283	-0,202	-0,128
64,232	23,881	-0,265	-0,153
65,247	485,498	-0,276	-0,442
66,261	-12,554	-0,327	-0,149
67,276	-7,437	-0,272	-0,129
68,290	29,406	-0,295	-0,175
69,305	55,916	-0,273	-0,185
70,320	1,548	-0,244	-0,123
71,334	225,352	-0,214	-0,243
72,349	26,321	-0,291	-0,170
73,363	-24,037	-0,352	-0,147
74,378	104,074	-0,253	-0,209
75,393	14,453	-0,232	-0,126
76,407	-95,082	-0,272	-0,051
77,422	69,002	-0,373	-0,268
78,436	34,289	-0,312	-0,190
79,451	132,229	-0,279	-0,252
80,466	109,428	-0,387	-0,324
81,480	5,126	-0,361	-0,186
82,495	96,033	-0,216	-0,173
83,509	132,216	-0,138	-0,125
84,524	-24,060	-0,192	-0,080
85,539	97,249	-0,214	-0,172
86,553	128,640	-0,217	-0,194
87,568	58,436	-0,328	-0,225
88,582	158,648	-0,300	-0,292
89,597	-121,401	-0,417	-0,048
90,611	-83,714	-0,255	-0,057
91,626	-8,633	-0,334	-0,156
92,641	87,311	-0,235	-0,182
93,655	216,120	-0,200	-0,222
94,670	41,745	-0,283	-0,179
95,684	118,051	-0,332	-0,286
96,699	4,161	-0,252	-0,129
97,714	147,875	-0,202	-0,190
98,728	-46,536	-0,389	-0,133
99,743	95,525	-0,225	-0,179
100,757	-43,315	-0,373	-0,131
101,772	166,594	-0,284	-0,282
102,787	24,585	-0,282	-0,163
103,801	-10,490	-0,275	-0,127
104,816	494,041	-0,128	-0,207
105,830	-66,853	-0,261	-0,072
106,845	285,828	-0,247	-0,312
107,860	106,013	-0,266	-0,220
108,874	20,359	-0,402	-0,226
109,889	370,011	-0,174	-0,246
110,903	93,110	-0,195	-0,154
111,918	107,942	-0,260	-0,216
112,933	114,072	-0,213	-0,181
113,947	-129,840	-0,319	-0,030
114,962	-37,322	-0,290	-0,108
115,976	192,636	-0,224	-0,236
116,991	186,609	-0,290	-0,302
118,006	138,996	-0,160	-0,147
119,020	147,401	-0,186	-0,175
120,035	116,187	-0,296	-0,253
121,049	205,278	-0,169	-0,184
122,064	18,105	-0,259	-0,144
123,079	-53,290	-0,291	-0,093
124,093	268,562	-0,247	-0,302
125,108	191,353	-0,265	-0,278
126,122	-121,008	-0,260	-0,030
127,137	-54,198	-0,317	-0,100
128,151	100,760	-0,206	-0,167
129,166	102,359	-0,287	-0,234
130,181	61,951	-0,253	-0,176
131,195	353,920	-0,193	-0,267
132,210	45,089	-0,299	-0,192
133,224	169,368	-0,263	-0,262
134,239	49,527	-0,192	-0,126
135,254	-44,902	-0,213	-0,073
136,268	177,266	-0,193	-0,196
137,283	12,664	-0,262	-0,141
138,297	85,146	-0,223	-0,170
139,312	2,689	-0,306	-0,154
140,327	234,726	-0,202	-0,233
141,341	219,154	-0,220	-0,245
142,356	180,763	-0,171	-0,176
143,370	109,403	-0,083	-0,069
144,385	149,650	-0,107	-0,101
145,400	-23,868	-0,223	-0,092
146,414	5,711	-0,210	-0,108
147,429	131,419	-0,223	-0,200
148,443	57,781	-0,313	-0,213
149,458	62,783	-0,276	-0,192
150,473	27,928	-0,205	-0,120
151,487	-32,093	-0,371	-0,144
152,502	268,117	-0,182	-0,222
153,516	104,946	-0,344	-0,282
154,531	362,183	-0,167	-0,233
155,546	-45,881	-0,185	-0,063
156,560	166,673	-0,173	-0,170
157,575	-0,983	-0,383	-0,188
158,589	29,736	-0,185	-0,109
159,604	171,905	-0,209	-0,209
160,619	-37,318	-0,197	-0,073
161,633	185,351	-0,195	-0,202
162,648	20,812	-0,244	-0,137
163,662	-139,853	-0,268	0,019
164,677	260,743	-0,185	-0,223
165,692	800,000	-0,095	-0,240
166,706	124,053	-0,203	-0,177
167,721	75,968	-0,196	-0,144
168,735	180,873	-0,186	-0,190
169,750	99,868	-0,186	-0,150
170,764	154,269	-0,186	-0,177
171,779	115,251	-0,220	-0,187
172,794	71,592	-0,188	-0,135
173,808	-58,792	-0,253	-0,076
174,823	152,312	-0,164	-0,155
175,837	-62,784	-0,177	-0,051
176,852	-63,437	-0,268	-0,076
177,867	218,992	-0,197	-0,220
178,881	18,428	-0,217	-0,120
179,896	-134,208	-0,169	-0,014
180,910	-5,932	-0,254	-0,120
181,925	333,608	-0,202	-0,271
182,940	111,483	-0,180	-0,151
183,954	15,287	-0,307	-0,166
184,969	-85,858	-0,193	-0,041
185,983	-42,627	-0,184	-0,065
186,998	50,017	-0,178	-0,116
188,013	352,310	-0,131	-0,181
189,027	-10,778	-0,130	-0,060
190,042	240,143	-0,167	-0,193
191,056	6,640	-0,207	-0,107
192,071	117,309	-0,179	-0,153
193,086	-45,750	-0,186	-0,063
194,100	101,415	-0,172	-0,139
195,115	68,574	-0,116	-0,083
196,129	306,446	-0,196	-0,254
197,144	682,770	-0,158	-0,287
198,159	75,236	-0,228	-0,167
199,173	158,926	-0,141	-0,136
200,188	8,636	-0,155	-0,081
201,202	37,925	-0,164	-0,101
202,217	87,293	-0,166	-0,127
203,232	65,925	-0,132	-0,093
204,246	83,513	-0,258	-0,194
205,261	29,488	-0,246	-0,145
206,275	-65,268	-0,250	-0,069
207,290	7,637	-0,239	-0,123
208,304	247,932	-0,124	-0,146
209,319	1,803	-0,245	-0,122
210,334	43,884	-0,343	-0,217
211,348	215,672	-0,189	-0,208
212,363	-28,152	-0,303	-0,121
213,377	209,084	-0,144	-0,156
214,392	800,000	-0,176	-0,355
215,407	175,281	-0,107	-0,107
216,421	-34,765	-0,148	-0,056
217,436	107,065	-0,232	-0,190
218,450	-86,150	-0,203	-0,043
219,465	226,407	-0,199	-0,224
220,480	-57,610	-0,283	-0,085
221,494	36,173	-0,140	-0,085
222,509	-8,732	-0,214	-0,099
223,523	37,207	-0,227	-0,139
224,538	275,922	-0,157	-0,193
225,553	0,793	-0,318	-0,157
226,567	-14,151	-0,161	-0,071
227,582	359,423	-0,125	-0,174
228,596	-22,126	-0,239	-0,100
229,611	107,130	-0,256	-0,210
230,626	-112,011	-0,312	-0,043
231,640	220,220	-0,154	-0,171
232,655	62,360	-0,264	-0,182
233,669	-147,256	-0,202	-0,012
234,684	268,214	-0,155	-0,188
235,699	413,566	-0,167	-0,247
236,713	-172,485	-0,208	0,004
237,728	-153,724	-0,190	-0,009
238,742	150,340	-0,059	-0,055
239,757	-40,496	-0,265	-0,095
240,772	13,651	-0,229	-0,122
241,786	174,236	-0,262	-0,262
242,801	8,227	-0,262	-0,135
243,815	43,358	-0,238	-0,150
244,830	-63,779	-0,205	0,058
245,844	-17,893	-0,147	-0,063
246,859	-163,646	-0,276	-0,009
247,874	55,942	-0,259	-0,173
248,888	800,000	-0,067	-0,154
249,903	115,850	-0,070	-0,060
250,917	-9,520	-0,153	-0,070
251,932	46,080	-0,162	-0,103
252,947	130,992	-0,146	-0,130
253,961	730,866	-0,180	-0,334
254,976	60,695	-0,246	-0,168
255,990	-73,893	-0,208	-0,052
257,005	82,486	-0,188	-0,140
258,020	-66,500	-0,208	-0,056
259,034	120,935	-0,190	-0,163
260,049	7,420	-0,219	-0,112
261,063	-96,484	-0,215	-0,039
262,078	-21,231	-0,305	-0,128
263,093	154,666	-0,223	-0,211
264,107	28,227	-0,189	-0,110
265,122	128,737	-0,160	-0,140
266,136	25,694	-0,254	-0,145
267,151	-200,000	-0,013	-0,265
268,166	800,000	-0,102	-0,241
269,180	-36,391	-0,258	-0,095
270,195	379,755	-0,125	-0,177
271,209	-200,000	-0,043	-0,203
272,224	390,748	-0,194	-0,279
273,239	800,000	-0,133	-0,257
274,253	407,233	-0,129	-0,188
275,268	210,076	-0,157	-0,170
276,282	97,338	-0,229	-0,181
277,297	261,179	-0,163	-0,195
278,312	6,979	-0,156	-0,080
279,326	2,376	-0,151	-0,075
280,341	-200,000	-0,001	-0,053
281,355	110,910	-0,098	-0,081
282,370	133,405	-0,145	-0,129
283,384	-40,545	-0,223	-0,079
284,399	541,768	-0,058	-0,095
285,414	106,385	-0,123	-0,100
286,428	105,129	-0,194	-0,157
287,443	358,291	-0,143	-0,197
288,457	-51,218	-0,116	-0,037
289,472	-132,591	-0,154	0,013
290,487	-139,830	-0,137	-0,010
291,501	-22,434	-0,165	-0,068
292,516	108,065	-0,258	-0,211
293,530	107,753	-0,152	-0,125
294,545	44,453	-0,064	-0,040
295,560	185,075	-0,209	-0,213
296,574	24,276	-0,200	-0,113
297,589	216,497	-0,114	-0,125
298,603	495,088	-0,154	-0,243
299,618	82,862	-0,174	-0,130
300,633	-31,665	-0,116	-0,044
301,647	-51,359	-0,160	0,051
302,662	129,145	-0,076	-0,067
303,676	108,497	-0,137	-0,112
304,691	72,534	-0,248	-0,178
305,706	400,348	-0,103	-0,148
306,720	354,150	-0,110	-0,150
307,735	134,179	-0,160	-0,142
308,749	162,550	-0,093	-0,089
309,764	-95,559	-0,148	0,027
310,779	-10,849	-0,153	-0,069
311,793	44,707	-0,156	-0,098
312,808	-200,000	-0,050	-0,273
313,822	72,966	-0,112	-0,080
314,837	800,000	-0,075	-0,147
315,852	305,493	-0,087	-0,111
316,866	-87,760	-0,233	-0,048
317,881	143,136	-0,132	-0,121
318,895	-129,850	-0,134	-0,012
319,910	71,352	-0,082	-0,058
320,925	294,335	-0,210	-0,264
321,939	53,849	-0,188	-0,124
322,954	160,318	-0,077	-0,074
323,968	24,524	-0,083	-0,047
324,983	77,203	-0,108	-0,079
325,997	-6,720	-0,154	-0,072
327,012	283,399	-0,218	-0,269
328,027	121,988	-0,112	-0,096
329,041	55,810	-0,107	-0,071
330,056	-101,466	-0,149	-0,025
331,070	-200,000	-0,038	-0,130
332,085	-37,377	-0,124	-0,045
333,100	30,818	-0,297	-0,174
334,114	43,856	-0,171	-0,107
335,129	-10,371	-0,224	-0,102
336,143	204,268	-0,137	-0,145
337,158	653,253	-0,058	-0,102
338,173	800,000	-0,103	-0,277
339,187	12,370	-0,135	-0,071
340,202	-200,000	-0,037	-0,115
341,216	800,000	-0,101	-0,248
342,231	174,270	-0,164	-0,162
343,246	-200,000	-0,190	0,000
344,260	-65,676	-0,219	-0,060
345,275	231,008	-0,119	-0,134
346,289	-41,548	-0,126	-0,044
347,304	198,659	-0,067	0,071
348,319	-44,553	-0,072	0,025
349,333	9,441	-0,126	-0,065
350,348	-94,943	-0,175	-0,032
351,362	-151,004	-0,196	-0,010
352,377	-110,747	-0,103	-0,014
353,392	97,348	-0,222	-0,174
354,406	-200,000	-0,012	-0,138
355,421	208,722	1313,818	1407,306
356,435	160,624	1474,385	1407,793
