DTS Sentinel unit serial number:	SN410029Multiplexer serial number:	ORYXHardware model number:	OX2-SRSoftware version number:	ORYX F/W v4,00 Oryx Data Collector v3.7.2.0data status	okinstallation	B3 Nyhavnadifferential loss correction	single-endedforward channel	channel 1reverse channel	N/Adate	2023/12/02time	16:57:30forward acquisition time	300,00reverse acquisition time	0,00gamma	499,1914k internal	0,3198k external	0,3198temperature offset calibration	1,0000default loss term (dB/km)	0,3820temperature slope calibration	1,0000multiplexer offset coefficient	1,0000multiplexer slope coefficient	1,0000fibre end	0,00T internal ref (°C)	14,03T ext. ref 1 (°C)	-1,47T ext. ref 2 (°C)	-1,49length (m)	temperature (°C)	Stokes	anti-Stokes-744,400	92,598	-0,178	-0,146
-743,385	-200,000	-0,077	0,260
-742,371	-77,091	-0,167	-0,042
-741,356	800,000	0,070	0,218
-740,342	265,833	-0,138	-0,176
-739,327	-200,000	-0,071	0,362
-738,312	141,909	-0,275	-0,265
-737,298	800,000	0,120	0,340
-736,283	209,539	-0,186	-0,213
-735,269	800,000	0,107	0,239
-734,254	-25,087	-0,317	-0,136
-733,239	-104,577	-0,232	0,039
-732,225	440,937	-0,123	-0,196
-731,210	-96,894	0,122	0,023
-730,196	-45,291	0,136	0,049
-729,181	235,919	0,029	-0,035
-728,167	-200,000	-0,008	-0,083
-727,152	197,961	0,102	-0,113
-726,137	7,098	0,071	-0,038
-725,123	-200,000	0,001	0,135
-724,108	7,445	-0,040	-0,022
-723,094	-55,516	0,036	0,012
-722,079	-200,000	-0,002	-0,136
-721,064	-200,000	-0,009	-0,047
-720,050	-8,374	-0,127	-0,062
-719,035	-200,000	0,004	0,148
-718,021	418,793	-0,005	-0,008
-717,006	174,512	-0,074	0,078
-715,991	-49,356	-0,170	-0,059
-714,977	-200,000	0,012	-0,135
-713,962	306,701	0,029	-0,039
-712,948	236,535	-0,113	-0,136
-711,933	-79,655	0,072	0,018
-710,918	478,558	-0,034	-0,057
-709,904	800,000	-0,004	-0,009
-708,889	-200,000	-0,008	-0,138
-707,875	-31,871	-0,173	0,070
-706,860	60,011	-0,062	-0,044
-705,845	49,296	-0,076	0,052
-704,831	800,000	0,018	0,052
-703,816	-38,178	-0,191	0,073
-702,802	90,709	-0,078	0,063
-701,787	800,000	-0,021	-0,061
-700,772	-58,205	0,041	-0,013
-699,758	65,382	0,127	0,093
-698,743	51,819	-0,078	-0,054
-697,729	-114,569	-0,103	-0,014
-696,714	12,162	0,068	-0,038
-695,699	-79,917	-0,095	0,023
-694,685	171,932	-0,084	-0,088
-693,670	199,171	-0,096	-0,108
-692,656	-200,000	0,005	-0,183
-691,641	800,000	-0,045	-0,093
-690,627	38,215	0,083	0,054
-689,612	-10,523	-0,106	-0,051
-688,597	-200,000	-0,001	-0,010
-687,583	-125,796	-0,110	0,012
-686,568	-200,000	-0,028	-0,128
-685,554	42,519	-0,106	0,070
-684,539	428,102	0,102	-0,161
-683,524	-73,765	0,058	-0,015
-682,510	282,956	0,052	-0,068
-681,495	263,825	-0,038	-0,049
-680,481	-69,542	-0,040	0,011
-679,466	-35,997	0,068	0,027
-678,451	-200,000	0,004	-0,111
-677,437	36,196	-0,071	0,045
-676,422	198,399	0,045	0,050
-675,408	33,279	-0,084	0,053
-674,393	800,000	0,036	-0,112
-673,378	-200,000	0,043	-0,158
-672,364	-200,000	-0,016	-0,154
-671,349	152,347	-0,057	-0,056
-670,335	800,000	-0,012	0,035
-669,320	-93,702	0,055	-0,011
-668,305	-34,167	0,084	-0,033
-667,291	800,000	-0,054	-0,110
-666,276	190,174	0,144	-0,158
-665,262	-200,000	0,007	0,027
-664,247	-59,553	-0,063	-0,020
-663,232	-172,754	0,084	0,002
-662,218	54,087	-0,032	0,023
-661,203	-33,913	0,052	-0,021
-660,189	-15,752	-0,079	-0,036
-659,174	-109,841	-0,184	0,028
-658,159	-200,000	-0,021	-0,179
-657,145	-200,000	-0,006	0,101
-656,130	-200,000	-0,018	0,142
-655,116	-200,000	0,011	0,140
-654,101	-200,000	-0,004	0,101
-653,086	-55,986	-0,053	0,017
-652,072	800,000	-0,031	-0,090
-651,057	27,361	-0,069	-0,042
-650,043	0,730	-0,046	0,024
-649,028	446,682	0,017	-0,027
-648,014	75,938	-0,020	-0,015
-646,999	245,953	-0,066	0,080
-645,984	469,300	0,040	0,065
-644,970	47,412	-0,159	0,107
-643,955	-101,390	-0,169	-0,030
-642,941	374,071	-0,042	0,062
-641,926	23,936	0,047	0,028
-640,911	478,428	-0,035	0,057
-639,897	-91,833	0,127	-0,026
-638,882	-49,786	-0,075	-0,026
-637,868	-12,920	-0,047	0,022
-636,853	155,406	-0,182	-0,182
-635,838	-86,347	-0,230	0,051
-634,824	131,998	-0,041	-0,039
-633,809	55,435	-0,024	-0,017
-632,795	-140,023	-0,012	0,001
-631,780	172,136	-0,078	-0,082
-630,765	710,781	-0,010	-0,019
-629,751	-200,000	-0,050	-0,235
-628,736	175,124	-0,093	-0,098
-627,722	10,298	0,141	0,078
-626,707	-200,000	0,011	-0,040
-625,692	800,000	0,026	0,060
-624,678	423,280	0,068	0,106
-623,663	800,000	-0,003	-0,006
-622,649	-200,000	0,004	-0,149
-621,634	800,000	-0,039	-0,093
-620,619	97,369	0,036	0,030
-619,605	-67,876	-0,079	0,022
-618,590	-200,000	-0,013	-0,099
-617,576	800,000	-0,036	0,074
-616,561	-4,081	-0,055	0,027
-615,546	-127,795	0,047	0,005
-614,532	185,897	0,015	-0,016
-613,517	241,378	-0,068	-0,083
-612,503	-31,680	0,030	-0,012
-611,488	-10,916	0,050	0,024
-610,474	4,555	-0,076	0,041
-609,459	42,446	0,062	0,041
-608,444	218,868	-0,011	-0,013
-607,430	-200,000	-0,017	0,058
-606,415	800,000	0,029	-0,067
-605,401	-96,007	-0,057	-0,011
-604,386	105,738	0,092	-0,078
-603,371	671,846	0,034	0,064
-602,357	395,014	-0,011	-0,017
-601,342	-147,540	-0,111	0,007
-600,328	-200,000	0,010	0,150
-599,313	413,628	-0,063	-0,097
-598,298	121,376	-0,058	0,053
-597,284	-113,840	0,213	0,030
-596,269	-200,000	-0,005	0,102
-595,255	-200,000	0,013	-0,057
-594,240	-200,000	-0,000	-0,242
-593,225	155,535	-0,029	-0,029
-592,211	-200,000	0,011	-0,046
-591,196	-12,063	-0,080	-0,038
-590,182	800,000	-0,034	0,095
-589,167	25,025	0,020	-0,012
-588,152	58,989	0,114	0,081
-587,138	800,000	-0,013	-0,039
-586,123	259,639	0,018	-0,023
-585,109	-64,615	-0,095	0,028
-584,094	-43,109	0,096	-0,035
-583,079	800,000	0,026	0,053
-582,065	352,808	-0,093	-0,134
-581,050	414,341	0,040	0,062
-580,036	-193,146	-0,083	-0,001
-579,021	-89,868	-0,129	0,027
-578,006	-126,329	-0,032	-0,003
-576,992	-200,000	-0,007	-0,057
-575,977	168,069	0,101	-0,104
-574,963	-3,466	-0,060	-0,030
-573,948	111,276	0,130	-0,113
-572,934	800,000	-0,047	-0,105
-571,919	-200,000	0,001	0,061
-570,904	-56,997	-0,154	0,049
-569,890	-53,414	0,118	-0,039
-568,875	-36,057	0,056	-0,022
-567,861	119,967	-0,038	-0,034
-566,846	684,925	-0,063	0,120
-565,831	-79,228	-0,113	-0,027
-564,817	800,000	0,046	0,102
-563,802	-128,295	-0,088	0,009
-562,788	-132,158	-0,150	-0,014
-561,773	67,145	0,115	-0,084
-560,758	275,272	0,071	-0,091
-559,744	19,214	-0,113	0,065
-558,729	-33,790	0,060	0,024
-557,715	-100,519	-0,252	-0,045
-556,700	800,000	-0,107	-0,268
-555,685	-200,000	0,015	0,058
-554,671	-200,000	-0,004	-0,083
-553,656	-74,922	-0,056	0,014
-552,642	442,906	0,086	0,136
-551,627	800,000	-0,042	0,133
-550,612	504,033	0,093	0,156
-549,598	800,000	-0,034	0,078
-548,583	116,106	-0,032	0,028
-547,569	-13,420	0,153	0,071
-546,554	-63,005	0,140	0,042
-545,539	-6,055	-0,100	0,049
-544,525	800,000	-0,057	0,140
-543,510	800,000	-0,036	0,085
-542,496	204,202	-0,066	-0,074
-541,481	-200,000	0,030	-0,113
-540,466	-147,066	-0,043	-0,003
-539,452	185,075	-0,080	0,086
-538,437	156,007	0,039	-0,039
-537,423	178,206	0,085	0,090
-536,408	9,858	-0,051	-0,028
-535,393	-200,000	-0,002	-0,089
-534,379	-155,540	-0,020	-0,001
-533,364	-2,630	0,011	-0,006
-532,350	147,515	0,041	-0,040
-531,335	-200,000	-0,002	-0,128
-530,321	-81,669	0,067	-0,016
-529,306	18,930	-0,152	0,088
-528,291	-200,000	-0,016	0,064
-527,277	-23,374	0,119	-0,051
-526,262	800,000	-0,043	0,098
-525,248	-150,871	0,152	-0,008
-524,233	-200,000	0,009	0,089
-523,218	54,455	-0,068	-0,047
-522,204	123,411	-0,093	0,084
-521,189	-200,000	0,026	0,157
-520,175	-200,000	0,002	0,048
-519,160	-198,549	-0,088	0,000
-518,145	-150,559	0,049	0,003
-517,131	-200,000	0,024	0,122
-516,116	-200,000	0,022	0,078
-515,102	-200,000	-0,013	0,053
-514,087	-10,373	0,078	-0,037
-513,072	306,592	0,055	-0,074
-512,058	800,000	0,043	-0,090
-511,043	317,549	0,075	-0,102
-510,029	-200,000	0,059	0,224
-509,014	585,975	0,021	0,037
-507,999	3,181	-0,074	-0,039
-506,985	800,000	0,028	-0,066
-505,970	123,568	-0,092	-0,083
-504,956	4,640	-0,122	-0,065
-503,941	-200,000	0,008	-0,029
-502,926	220,859	0,038	-0,044
-501,912	459,067	-0,038	0,061
-500,897	90,906	0,056	0,045
-499,883	-200,000	0,044	-0,151
-498,868	-200,000	-0,011	-0,105
-497,853	114,075	0,075	-0,066
-496,839	-113,655	0,089	0,012
-495,824	800,000	0,031	0,095
-494,810	369,964	0,076	0,112
-493,795	-65,727	-0,025	-0,007
-492,781	-47,285	-0,071	-0,025
-491,766	11,790	0,043	-0,024
-490,751	321,095	-0,023	-0,031
-489,737	232,129	0,024	0,029
-488,722	-200,000	0,005	-0,067
-487,708	-121,943	0,108	0,013
-486,693	-153,109	0,111	0,006
-485,678	-64,393	-0,059	-0,017
-484,664	186,351	-0,098	0,106
-483,649	-140,510	-0,233	-0,017
-482,635	-200,000	-0,004	-0,058
-481,620	-200,000	0,009	-0,077
-480,605	800,000	-0,011	0,033
-479,591	430,134	0,072	-0,112
-478,576	219,381	-0,066	-0,076
-477,562	724,119	0,053	-0,102
-476,547	-75,909	-0,042	-0,011
-475,532	216,310	0,096	-0,110
-474,518	-119,782	0,027	-0,003
-473,503	-200,000	0,028	0,235
-472,489	272,069	0,080	0,101
-471,474	-200,000	0,008	0,110
-470,459	-70,200	0,123	0,033
-469,445	-6,231	-0,131	-0,064
-468,430	114,972	-0,053	0,047
-467,416	284,141	0,091	0,118
-466,401	24,794	-0,072	-0,043
-465,386	800,000	0,028	0,058
-464,372	800,000	-0,029	0,058
-463,357	-200,000	-0,024	-0,131
-462,343	562,687	-0,026	0,045
-461,328	800,000	0,030	0,065
-460,313	261,076	-0,077	-0,096
-459,299	-40,412	0,027	-0,010
-458,284	-0,766	0,106	-0,054
-457,270	800,000	-0,046	0,109
-456,255	-124,846	-0,054	-0,006
-455,241	-200,000	0,013	0,085
-454,226	364,026	0,034	0,049
-453,211	-200,000	-0,020	0,112
-452,197	106,159	0,142	0,121
-451,182	800,000	0,058	-0,148
-450,168	392,553	-0,041	0,062
-449,153	-200,000	0,005	0,113
-448,138	-85,093	-0,054	-0,012
-447,124	-200,000	0,001	0,077
-446,109	-200,000	0,017	0,083
-445,095	-200,000	0,119	0,000
-444,080	-200,000	0,012	0,111
-443,065	24,020	-0,034	-0,020
-442,051	-70,735	0,058	-0,016
-441,036	410,001	0,025	-0,038
-440,022	-200,000	-0,005	0,056
-439,007	-61,060	-0,089	0,027
-437,992	88,128	0,048	-0,038
-436,978	24,026	0,103	-0,061
-435,963	50,316	-0,021	-0,014
-434,949	113,842	0,105	0,092
-433,934	333,670	0,100	-0,140
-432,919	800,000	-0,019	0,058
-431,905	386,266	-0,026	-0,038
-430,890	800,000	0,021	0,067
-429,876	-200,000	-0,002	-0,034
-428,861	-111,299	0,120	0,017
-427,846	247,510	0,035	0,042
-426,832	300,692	-0,083	-0,111
-425,817	-200,000	0,034	-0,118
-424,803	-120,583	0,121	-0,015
-423,788	-200,000	0,013	-0,092
-422,773	-111,308	0,201	0,029
-421,759	7,436	0,048	0,026
-420,744	132,132	-0,029	-0,027
-419,730	3,682	-0,130	-0,068
-418,715	100,764	0,070	-0,059
-417,701	-132,845	-0,117	-0,011
-416,686	44,551	0,075	-0,049
-415,671	-100,962	-0,068	-0,012
-414,657	475,472	-0,021	-0,034
-413,642	-103,460	-0,143	0,024
-412,628	-200,000	-0,016	-0,087
-411,613	-200,000	0,002	0,014
-410,598	-65,355	0,121	0,035
-409,584	-186,848	0,097	-0,001
-408,569	56,509	0,183	0,128
-407,555	202,707	-0,019	0,022
-406,540	489,434	0,046	0,075
-405,525	88,930	-0,065	-0,052
-404,511	110,009	-0,032	-0,027
-403,496	-128,286	0,039	-0,004
-402,482	67,732	0,139	0,102
-401,467	27,290	0,059	0,036
-400,452	-200,000	0,019	0,072
-399,438	-16,702	0,078	-0,035
-398,423	-122,057	-0,097	0,011
-397,409	118,143	-0,050	0,044
-396,394	-9,879	-0,019	-0,009
-395,379	-103,594	-0,101	-0,017
-394,365	298,266	0,025	-0,033
-393,350	-200,000	0,006	0,021
-392,336	-200,000	0,001	0,085
-391,321	301,119	-0,069	0,092
-390,306	-200,000	-0,017	-0,172
-389,292	-177,012	0,069	0,001
-388,277	-141,274	-0,049	-0,004
-387,263	521,583	0,064	0,108
-386,248	-123,793	-0,063	-0,007
-385,233	-200,000	0,020	-0,082
-384,219	-44,081	0,175	-0,063
-383,204	-125,275	0,069	0,007
-382,190	800,000	-0,005	0,014
-381,175	293,457	-0,004	-0,006
-380,160	-50,982	0,081	0,027
-379,146	430,265	0,055	-0,085
-378,131	800,000	0,034	-0,079
-377,117	-5,681	0,192	-0,094
-376,102	-107,422	-0,124	-0,019
-375,088	800,000	-0,011	-0,023
-374,073	740,350	-0,047	0,091
-373,058	102,235	0,063	0,053
-372,044	-132,874	-0,155	-0,014
-371,029	239,181	0,033	0,039
-370,015	16,629	0,118	-0,067
-369,000	-200,000	-0,025	-0,091
-367,985	-84,628	-0,169	0,038
-366,971	-200,000	0,018	0,074
-365,956	333,729	-0,060	-0,083
-364,942	57,474	0,015	0,011
-363,927	191,066	-0,023	0,025
-362,912	800,000	-0,086	-0,206
-361,898	564,149	0,017	-0,030
-360,883	-200,000	0,002	-0,049
-359,869	-200,000	0,016	-0,063
-358,854	-107,193	-0,101	-0,016
-357,839	665,481	0,060	0,112
-356,825	-70,438	0,133	-0,036
-355,810	-200,000	0,021	0,129
-354,796	-200,000	-0,035	-0,169
-353,781	47,897	-0,059	0,039
-352,766	34,166	-0,122	-0,076
-351,752	-53,315	0,072	0,024
-350,737	-200,000	0,007	-0,058
-349,723	-200,000	-0,019	0,091
-348,708	-200,000	-0,009	0,154
-347,693	-88,935	-0,084	0,018
-346,679	74,871	-0,096	0,072
-345,664	-92,572	-0,068	-0,014
-344,650	-200,000	0,008	0,180
-343,635	-104,155	0,138	-0,023
-342,620	472,884	0,025	-0,040
-341,606	182,791	-0,030	0,032
-340,591	-30,126	-0,141	0,057
-339,577	-99,100	-0,120	0,022
-338,562	-200,000	0,012	-0,057
-337,548	96,078	0,039	-0,032
-336,533	518,410	-0,005	-0,008
-335,518	97,326	0,082	-0,068
-334,504	99,384	-0,077	0,064
-333,489	-200,000	0,001	-0,032
-332,475	14,712	-0,017	-0,009
-331,460	-200,000	-0,002	-0,117
-330,445	382,145	-0,055	-0,081
-329,431	615,083	0,028	0,050
-328,416	-77,261	0,060	0,015
-327,402	-200,000	-0,017	0,175
-326,387	-200,000	-0,003	-0,044
-325,372	-125,425	-0,130	0,014
-324,358	-200,000	-0,107	0,000
-323,343	-200,000	-0,003	-0,060
-322,329	-200,000	0,019	0,068
-321,314	633,636	0,045	0,081
-320,299	-108,749	0,083	0,013
-319,285	-107,008	-0,073	-0,011
-318,270	298,364	0,039	0,051
-317,256	58,582	0,078	0,054
-316,241	-85,470	0,029	-0,006
-315,226	-41,788	0,102	-0,037
-314,212	-200,000	0,028	-0,154
-313,197	104,742	0,075	0,064
-312,183	-200,000	-0,017	-0,111
-311,168	41,824	0,130	-0,084
-310,153	-17,521	-0,047	0,021
-309,139	282,430	0,021	-0,027
-308,124	-132,987	-0,047	-0,004
-307,110	-200,000	-0,005	0,172
-306,095	800,000	0,071	0,215
-305,080	-67,605	0,101	0,028
-304,066	-75,317	0,113	0,029
-303,051	99,864	-0,036	-0,030
-302,037	482,248	-0,099	0,162
-301,022	-200,000	0,014	0,061
-300,008	-34,819	0,046	-0,018
-298,993	-98,896	0,024	-0,004
-297,978	368,146	0,053	0,077
-296,964	-200,000	0,027	-0,088
-295,949	-27,108	-0,053	0,022
-294,935	103,851	0,008	-0,006
-293,920	-200,000	0,003	0,027
-292,905	55,647	0,023	0,016
-291,891	-4,500	0,131	-0,065
-290,876	76,981	0,030	0,023
-289,862	208,296	-0,030	0,033
-288,847	24,715	0,094	0,056
-287,832	-42,340	-0,062	0,023
-286,818	-73,252	-0,111	-0,029
-285,803	800,000	0,034	-0,075
-284,789	9,846	-0,058	-0,031
-283,774	-200,000	0,008	-0,048
-282,759	233,979	-0,013	0,016
-281,745	30,442	0,046	0,028
-280,730	587,723	0,049	0,086
-279,716	-1,827	0,105	0,053
-278,701	800,000	0,026	-0,072
-277,686	-200,000	-0,023	0,118
-276,672	-114,446	0,058	-0,008
-275,657	26,007	0,048	0,028
-274,643	-200,000	0,014	-0,085
-273,628	52,566	-0,100	0,068
-272,613	35,536	0,091	0,057
-271,599	-200,000	0,018	-0,102
-270,584	-200,000	0,005	-0,091
-269,570	15,814	0,102	0,057
-268,555	-32,400	-0,018	0,007
-267,540	66,432	-0,056	-0,041
-266,526	-107,438	-0,172	0,027
-265,511	479,529	-0,047	-0,076
-264,497	-200,000	-0,014	-0,133
-263,482	-77,663	0,075	-0,018
-262,467	-58,708	-0,100	-0,031
-261,453	800,000	0,084	0,167
-260,438	234,810	-0,034	-0,040
-259,424	35,027	-0,085	-0,053
-258,409	413,588	0,081	-0,123
-257,395	0,430	0,067	0,034
-256,380	209,446	0,136	0,153
-255,365	237,321	-0,040	-0,048
-254,351	-68,194	0,064	0,018
-253,336	50,648	-0,085	0,057
-252,322	-8,820	-0,043	0,020
-251,307	-19,207	0,046	-0,020
-250,292	21,802	0,139	-0,081
-249,278	-200,000	0,003	-0,042
-248,263	-200,000	-0,024	0,097
-247,249	-37,936	0,034	0,013
-246,234	143,005	-0,032	-0,030
-245,219	-200,000	0,000	-0,086
-244,205	211,753	0,027	-0,031
-243,190	-200,000	0,002	-0,102
-242,176	81,028	0,166	-0,128
-241,161	800,000	-0,042	0,128
-240,146	239,239	-0,078	0,093
-239,132	800,000	-0,052	0,135
-238,117	-176,488	-0,159	-0,003
-237,103	-200,000	-0,014	0,091
-236,088	13,630	0,090	-0,050
-235,073	-200,000	0,024	-0,090
-234,059	-59,479	-0,043	0,013
-233,044	118,406	-0,068	0,060
-232,030	-128,162	-0,077	0,008
-231,015	-200,000	0,017	-0,075
-230,000	-61,256	-0,117	0,035
-228,986	-200,000	0,021	0,252
-227,971	800,000	-0,017	-0,034
-226,957	-200,000	0,022	0,114
-225,942	-133,270	0,026	-0,002
-224,927	-39,761	-0,033	0,012
-223,913	-200,000	-0,001	-0,084
-222,898	-200,000	0,021	-0,126
-221,884	40,823	-0,171	-0,110
-220,869	-142,549	0,106	-0,007
-219,855	286,715	0,066	0,085
-218,840	49,600	-0,092	-0,062
-217,825	142,853	0,022	-0,020
-216,811	-200,000	-0,029	0,108
-215,796	-200,000	0,023	-0,100
-214,782	-45,045	-0,073	0,026
-213,767	5,315	0,056	0,030
-212,752	733,824	0,032	0,061
-211,738	800,000	-0,053	-0,130
-210,723	-50,840	0,098	0,033
-209,709	-154,404	-0,155	0,007
-208,694	-200,000	-0,030	-0,136
-207,679	-200,000	-0,010	0,064
-206,665	42,511	-0,177	-0,115
-205,650	122,433	0,082	0,074
-204,636	627,719	-0,074	0,135
-203,621	51,307	-0,169	0,114
-202,606	-3,284	-0,113	-0,056
-201,592	-200,000	-0,000	-0,108
-200,577	800,000	-0,032	-0,080
-199,563	-200,000	-0,001	-0,097
-198,548	32,819	-0,034	-0,021
-197,533	324,619	-0,037	-0,051
-196,519	95,839	-0,080	-0,065
-195,504	282,567	-0,015	0,019
-194,490	-200,000	0,018	-0,128
-193,475	-124,445	-0,151	-0,017
-192,460	144,231	0,116	0,111
-191,446	26,240	-0,010	0,006
-190,431	177,597	0,055	-0,057
-189,417	-200,000	0,009	0,030
-188,402	800,000	0,011	-0,029
-187,387	800,000	0,035	0,091
-186,373	38,298	-0,097	0,062
-185,358	317,552	0,094	-0,127
-184,344	-200,000	-0,003	0,089
-183,329	800,000	0,057	0,178
-182,315	377,992	0,047	0,068
-181,300	-143,336	-0,102	0,007
-180,285	228,975	0,066	-0,077
-179,271	-200,000	-0,014	-0,184
-178,256	-47,714	0,146	0,050
-177,242	485,579	0,079	-0,129
-176,227	800,000	0,009	0,025
-175,212	-20,222	-0,038	0,016
-174,198	572,630	0,013	0,022
-173,183	-80,692	-0,115	0,027
-172,169	-200,000	-0,038	-0,155
-171,154	-200,000	-0,010	-0,100
-170,139	-35,123	0,076	-0,029
-169,125	-106,854	-0,055	0,009
-168,110	140,922	0,135	0,127
-167,096	549,250	-0,021	-0,037
-166,081	800,000	-0,010	0,021
-165,066	-200,000	-0,030	-0,188
-164,052	-123,045	0,086	-0,010
-163,037	-200,000	0,031	0,217
-162,023	-125,287	0,119	0,013
-161,008	257,458	-0,032	-0,039
-159,993	292,208	-0,059	0,077
-158,979	176,544	-0,136	0,141
-157,964	-64,970	0,129	-0,037
-156,950	-200,000	0,015	-0,123
-155,935	187,402	-0,023	-0,025
-154,920	154,747	0,056	0,054
-153,906	57,607	0,153	-0,106
-152,891	-200,000	-0,015	-0,111
-151,877	-20,929	-0,051	0,022
-150,862	200,739	0,118	-0,129
-149,847	-200,000	0,019	-0,168
-148,833	-197,105	0,037	0,000
-147,818	702,978	-0,021	-0,039
-146,804	110,027	-0,049	-0,042
-145,789	7,270	-0,043	0,023
-144,775	-5,743	-0,075	0,036
-143,760	542,708	0,048	-0,082
-142,745	31,637	0,008	-0,005
-141,731	-200,000	0,005	0,038
-140,716	-78,674	0,011	0,003
-139,702	18,995	0,103	0,059
-138,687	450,737	-0,018	0,029
-137,672	-97,901	-0,080	-0,015
-136,658	-200,000	0,023	-0,122
-135,643	-28,293	0,108	-0,044
-134,629	800,000	0,053	-0,146
-133,614	-200,000	0,028	0,125
-132,599	-11,843	-0,046	0,021
-131,585	374,256	-0,030	-0,044
-130,570	375,898	-0,048	0,070
-129,556	800,000	-0,012	0,033
-128,541	800,000	-0,013	-0,027
-127,526	-109,305	-0,130	0,019
-126,512	67,079	0,053	-0,039
-125,497	-200,000	0,003	-0,050
-124,483	48,664	0,049	-0,032
-123,468	-4,363	-0,140	-0,069
-122,453	369,811	-0,054	-0,078
-121,439	-200,000	-0,020	-0,180
-120,424	-41,995	0,147	-0,053
-119,410	100,301	0,046	0,038
-118,395	800,000	0,016	0,039
-117,380	400,338	-0,081	0,121
-116,366	-2,834	0,050	-0,025
-115,351	-11,549	-0,088	-0,041
-114,337	-100,349	0,152	-0,027
-113,322	142,484	-0,131	-0,123
-112,307	190,379	-0,056	0,060
-111,293	800,000	0,015	-0,030
-110,278	10,832	0,083	0,045
-109,264	432,004	0,016	0,024
-108,249	46,530	-0,090	-0,059
-107,234	358,099	-0,136	-0,193
-106,220	140,168	0,014	0,013
-105,205	41,950	0,114	-0,074
-104,191	42,098	0,046	0,030
-103,176	419,242	0,060	-0,092
-102,162	31,476	-0,149	-0,091
-101,147	-200,000	-0,012	-0,055
-100,132	610,834	0,024	0,043
-99,118	800,000	0,023	0,061
-98,103	-108,859	-0,102	-0,015
-97,089	263,023	0,042	-0,052
-96,074	800,000	-0,020	-0,045
-95,059	194,476	0,039	-0,042
-94,045	220,422	0,082	-0,094
-93,030	628,828	-0,057	-0,103
-92,016	147,706	0,073	-0,070
-91,001	-71,053	-0,041	0,011
-89,986	93,134	0,149	0,119
-88,972	179,508	0,071	0,074
-87,957	205,138	-0,051	0,056
-86,943	-71,617	0,040	-0,010
-85,928	-200,000	0,036	-0,117
-84,913	305,271	0,073	-0,096
-83,899	37,191	-0,132	-0,083
-82,884	-200,000	0,003	0,069
-81,870	92,254	0,131	0,105
-80,855	-18,913	0,070	0,031
-79,840	171,036	-0,044	0,045
-78,826	460,689	-0,066	-0,105
-77,811	794,111	-0,028	0,055
-76,797	21,955	0,094	-0,054
-75,782	88,013	0,072	-0,057
-74,767	-200,000	-0,003	0,143
-73,753	-200,000	-0,002	0,031
-72,738	539,519	-0,056	-0,095
-71,724	-167,813	-0,156	-0,004
-70,709	252,930	-0,159	-0,192
-69,694	-200,000	-0,006	-0,084
-68,680	-68,210	-0,154	0,042
-67,665	43,585	0,143	-0,093
-66,651	-200,000	-0,043	0,163
-65,636	-33,753	-0,163	0,063
-64,622	50,490	-0,111	0,074
-63,607	800,000	0,014	-0,037
-62,592	-77,407	-0,176	-0,043
-61,578	-200,000	-0,001	0,017
-60,563	149,829	0,092	-0,089
-59,549	-200,000	0,019	0,071
-58,534	-24,151	-1,587	-0,669
-57,519	376,741	-1,432	-2,079
-56,505	-200,000	-0,635	-4,439
-55,490	203,226	0,913	1,002
-54,476	800,000	4,952	11,411
-53,461	-200,000	18,923	308,171
-52,446	800,000	738,597	2304,889
-51,432	568,923	1654,436	2860,848
-50,417	78,799	1670,018	1264,786
-49,403	21,965	1542,842	889,141
-48,388	15,937	1465,549	815,297
-47,373	17,865	1455,624	819,057
-46,359	16,885	1445,990	808,902
-45,344	14,158	1441,350	793,210
-44,330	14,103	1439,181	791,722
-43,315	14,105	1437,535	790,794
-42,300	14,172	1435,544	789,986
-41,286	14,096	1434,875	789,226
-40,271	14,098	1433,351	788,365
-39,257	14,151	1431,979	787,830
-38,242	14,131	1430,756	787,031
-37,227	14,132	1429,918	786,547
-36,213	14,136	1428,303	785,644
-35,198	14,133	1427,127	784,955
-34,184	14,188	1426,187	784,666
-33,169	14,128	1424,839	783,609
-32,154	14,142	1423,811	783,080
-31,140	14,169	1422,504	782,457
-30,125	14,152	1421,365	781,717
-29,111	14,161	1420,135	781,053
-28,096	14,146	1419,075	780,368
-27,082	14,061	1418,197	779,455
-26,067	14,013	1417,380	778,746
-25,052	14,084	1416,004	778,294
-24,038	14,084	1414,882	777,648
-23,023	14,002	1414,014	776,754
-22,009	14,018	1413,019	776,253
-20,994	14,021	1412,270	775,821
-19,979	14,025	1411,300	775,279
-18,965	14,010	1410,194	774,570
-17,950	14,018	1409,346	774,112
-16,936	13,982	1408,426	773,408
-15,921	13,955	1407,396	772,684
-14,906	13,962	1406,623	772,261
-13,892	13,972	1405,697	771,768
-12,877	13,956	1404,754	771,144
-11,863	13,936	1403,689	770,436
-10,848	13,955	1402,930	770,081
-9,833	13,891	1401,955	769,214
-8,819	13,897	1400,952	768,661
-7,804	13,940	1399,967	768,291
-6,790	13,884	1398,967	767,453
-5,775	13,875	1397,920	766,805
-4,760	13,847	1397,160	766,226
-3,746	13,846	1396,246	765,691
-2,731	13,851	1395,521	765,288
-1,717	13,873	1394,608	764,855
-0,702	13,843	1392,752	763,669
0,313	17,627	1310,740	736,264
1,327	33,884	705,423	433,917
2,342	52,111	123,803	83,410
3,356	2,252	16,646	8,494
4,371	-8,247	3,211	1,525
5,386	-24,215	0,650	0,274
6,400	-200,000	-0,047	0,188
7,415	240,027	-0,237	-0,279
8,429	4,157	-0,297	-0,153
9,444	57,122	-0,320	-0,220
10,459	-4,479	-0,262	-0,128
11,473	-67,515	-0,398	-0,110
12,488	138,023	-0,219	-0,203
13,502	131,134	-0,363	-0,330
14,517	-63,305	-0,357	-0,103
15,531	136,204	-0,388	-0,357
16,546	75,518	-0,312	-0,233
17,561	142,710	-0,345	-0,324
18,575	78,943	-0,219	-0,166
19,590	-200,000	-0,105	-0,330
20,604	-51,211	-0,254	-0,084
21,619	24,769	-0,489	-0,286
22,634	131,601	-0,456	-0,414
23,648	66,207	-0,475	-0,340
24,663	119,701	-0,382	-0,335
25,677	51,603	-0,356	-0,239
26,692	304,404	-0,220	-0,290
27,707	-35,337	-0,430	-0,164
28,721	28,759	-0,305	-0,182
29,736	28,500	-0,453	-0,270
30,750	76,387	-0,456	-0,341
31,765	79,338	-0,465	-0,352
32,780	94,779	-0,352	-0,282
33,794	81,937	-0,331	-0,253
34,809	139,300	-0,313	-0,291
35,823	151,867	-0,307	-0,296
36,838	-43,860	-0,436	-0,154
37,853	89,055	-0,437	-0,343
38,867	125,259	-0,342	-0,304
39,882	-16,074	-0,413	-0,185
40,896	-25,218	-0,346	-0,144
41,911	-7,711	-0,329	-0,156
42,926	-24,216	-0,419	-0,176
43,940	125,433	-0,374	-0,333
44,955	121,959	-0,399	-0,351
45,969	-33,928	-0,268	-0,104
46,984	20,243	-0,378	-0,215
47,999	54,440	-0,387	-0,262
49,013	1,528	-0,354	-0,179
50,028	-19,087	-0,284	-0,124
51,042	-21,149	-0,370	-0,159
52,057	142,456	-0,339	-0,318
53,071	139,163	-0,319	-0,296
54,086	50,640	-0,319	-0,212
55,101	367,066	-0,176	-0,251
56,115	-41,165	-0,352	-0,127
57,130	22,574	-0,363	-0,209
58,144	-40,837	-0,309	-0,112
59,159	99,578	-0,357	-0,291
60,174	194,397	-0,370	-0,396
61,188	92,448	-0,363	-0,289
62,203	0,122	-0,383	-0,192
63,217	107,844	-0,338	-0,284
64,232	3,305	-0,274	-0,140
65,247	0,082	-0,386	-0,193
66,261	78,069	-0,320	-0,240
67,276	-6,571	-0,372	-0,178
68,290	34,818	-0,295	-0,181
69,305	62,719	-0,356	-0,250
70,320	336,415	-0,226	-0,310
71,334	194,406	-0,267	-0,285
72,349	-21,534	-0,380	-0,162
73,363	12,018	-0,447	-0,241
74,378	-35,335	-0,380	-0,145
75,393	14,911	-0,431	-0,237
76,407	37,997	-0,364	-0,228
77,422	5,306	-0,253	-0,131
78,436	66,215	-0,259	-0,185
79,451	-34,892	-0,267	-0,102
80,466	154,228	-0,300	-0,290
81,480	284,956	-0,239	-0,303
82,495	37,203	-0,307	-0,191
83,509	90,522	-0,383	-0,301
84,524	406,654	-0,198	-0,295
85,539	18,116	-0,297	-0,166
86,553	268,390	-0,186	-0,229
87,568	-10,083	-0,285	-0,132
88,582	96,221	-0,205	-0,164
89,597	-1,347	-0,429	-0,212
90,611	162,325	-0,216	-0,213
91,626	222,114	-0,191	-0,216
92,641	18,632	-0,237	-0,133
93,655	84,995	-0,198	-0,152
94,670	126,103	-0,303	-0,269
95,684	69,009	-0,350	-0,252
96,699	109,370	-0,312	-0,262
97,714	279,983	-0,250	-0,314
98,728	-115,829	-0,232	-0,030
99,743	215,611	-0,221	-0,247
100,757	63,803	-0,445	-0,314
101,772	57,249	-0,295	-0,202
102,787	57,853	-0,289	-0,198
103,801	24,464	-0,299	-0,173
104,816	128,833	-0,194	-0,173
105,830	-68,101	-0,321	-0,087
106,845	59,865	-0,220	-0,152
107,860	61,006	-0,144	-0,100
108,874	35,754	-0,325	-0,200
109,889	-18,158	-0,237	-0,104
110,903	30,424	-0,279	-0,167
111,918	163,276	-0,216	-0,213
112,933	152,812	-0,207	-0,198
113,947	142,030	-0,226	-0,210
114,962	3,604	-0,212	-0,108
115,976	-118,365	-0,397	0,049
116,991	335,228	-0,189	-0,257
118,006	124,307	-0,278	-0,245
119,020	23,339	-0,280	-0,161
120,035	57,921	-0,226	-0,155
121,049	-80,400	-0,261	-0,061
122,064	800,000	-0,057	-0,140
123,079	230,666	-0,135	-0,155
124,093	317,137	-0,215	-0,286
125,108	-57,591	-0,319	-0,097
126,122	227,538	-0,298	-0,340
127,137	-69,087	-0,302	-0,081
128,151	-38,168	-0,210	-0,078
129,166	-23,626	-0,242	-0,101
130,181	-33,446	-0,366	-0,141
131,195	214,245	-0,271	-0,301
132,210	103,772	-0,315	-0,259
133,224	54,505	-0,274	-0,184
134,239	49,795	-0,205	-0,135
135,254	213,623	-0,199	-0,220
136,268	-118,049	-0,306	-0,038
137,283	125,839	-0,279	-0,247
138,297	800,000	-0,166	-0,331
139,312	250,464	-0,220	-0,262
140,327	191,001	-0,232	-0,244
141,341	28,965	-0,267	-0,158
142,356	361,313	-0,098	-0,138
143,370	63,143	-0,324	-0,227
144,385	-24,374	-0,272	-0,113
145,400	-200,000	-0,031	-0,200
146,414	418,983	-0,171	-0,256
147,429	111,785	-0,348	-0,294
148,443	81,348	-0,249	-0,188
149,458	437,180	-0,067	-0,103
150,473	111,037	-0,231	-0,194
151,487	41,496	-0,290	-0,183
152,502	98,824	-0,226	-0,182
153,516	127,015	-0,218	-0,193
154,531	-22,513	-0,401	-0,169
155,546	27,189	-0,268	-0,157
156,560	90,554	-0,255	-0,200
157,575	-99,023	-0,258	-0,045
158,589	142,347	-0,219	-0,203
159,604	222,849	-0,188	-0,212
160,619	35,760	-0,331	-0,203
161,633	-2,806	-0,197	-0,096
162,648	171,401	-0,289	-0,290
163,662	124,536	-0,141	-0,124
164,677	199,509	-0,235	-0,252
165,692	265,574	-0,126	-0,154
166,706	68,098	-0,278	-0,198
167,721	510,298	-0,143	-0,233
168,735	254,020	-0,198	-0,237
169,750	62,886	-0,148	-0,104
170,764	357,088	-0,204	-0,285
171,779	-82,543	-0,248	-0,056
172,794	185,931	-0,167	-0,173
173,808	-54,329	-0,192	-0,061
174,823	-58,618	-0,307	-0,092
175,837	137,394	-0,210	-0,192
176,852	44,729	-0,299	-0,191
177,867	98,931	-0,200	-0,161
178,881	188,587	-0,194	-0,203
179,896	243,609	-0,202	-0,237
180,910	800,000	-0,135	-0,268
181,925	800,000	-0,130	-0,348
182,940	-66,378	-0,116	-0,032
183,954	153,262	-0,257	-0,246
184,969	158,872	-0,226	-0,219
185,983	-178,892	-0,206	-0,003
186,998	111,656	-0,160	-0,134
188,013	232,733	-0,205	-0,235
189,027	203,922	-0,125	-0,135
190,042	195,268	-0,233	-0,247
191,056	-53,269	-0,354	-0,113
192,071	40,854	-0,249	-0,156
193,086	-37,684	-0,157	-0,058
194,100	-18,550	-0,098	-0,042
195,115	107,109	-0,179	-0,148
196,129	34,469	-0,235	-0,143
197,144	204,784	-0,236	-0,256
198,159	-75,746	-0,298	-0,073
199,173	58,642	-0,220	-0,150
200,188	423,887	-0,169	-0,253
201,202	-23,412	-0,247	-0,103
202,217	106,029	-0,182	-0,150
203,232	28,326	-0,240	-0,141
204,246	91,826	-0,252	-0,197
205,261	29,091	-0,209	-0,123
206,275	-10,770	-0,195	-0,089
207,290	72,041	-0,165	-0,120
208,304	-95,468	-0,104	-0,019
209,319	145,240	-0,228	-0,212
210,334	95,932	-0,248	-0,197
211,348	142,762	-0,230	-0,213
212,363	262,577	-0,127	-0,154
213,377	-71,922	-0,260	-0,067
214,392	8,653	-0,176	-0,092
215,407	68,318	-0,165	-0,117
216,421	311,113	-0,171	-0,223
217,436	138,796	-0,297	-0,271
218,450	46,737	-0,241	-0,155
219,465	517,711	-0,167	-0,272
220,480	588,372	-0,159	-0,273
221,494	23,541	-0,218	-0,124
222,509	800,000	-0,008	0,018
223,523	226,762	-0,107	-0,121
224,538	226,823	-0,134	-0,151
225,553	129,153	-0,192	-0,170
226,567	-74,881	-0,258	-0,064
227,582	-4,672	-0,297	-0,142
228,596	69,227	-0,145	-0,104
229,611	739,399	-0,070	-0,131
230,626	46,221	-0,191	-0,123
231,640	170,004	-0,246	-0,245
232,655	153,384	-0,245	-0,233
233,669	-9,945	-0,246	-0,113
234,684	153,497	-0,193	-0,183
235,699	69,470	-0,103	-0,073
236,713	-16,892	-0,190	-0,083
237,728	-172,449	-0,106	0,002
238,742	-200,000	-0,026	-0,212
239,757	-16,133	-0,191	-0,084
240,772	88,674	-0,126	-0,097
241,786	219,713	-0,124	-0,138
242,801	-114,023	-0,277	-0,037
243,815	53,458	-0,138	-0,092
244,830	236,093	-0,074	-0,085
245,844	113,958	-0,153	-0,129
246,859	646,138	-0,124	-0,220
247,874	422,054	-0,157	-0,234
248,888	52,281	-0,125	-0,082
249,903	5,642	-0,136	-0,070
250,917	774,933	-0,142	-0,270
251,932	201,553	-0,146	-0,156
252,947	1,270	-0,288	-0,143
253,961	443,819	-0,099	-0,151
254,976	29,109	-0,173	-0,102
255,990	-53,125	-0,207	-0,066
257,005	-116,234	-0,183	-0,023
258,020	-200,000	-0,068	-0,223
259,034	-200,000	-0,036	-0,152
260,049	67,239	-0,186	-0,131
261,063	-70,675	-0,148	0,038
262,078	456,979	-0,175	-0,270
263,093	436,043	-0,111	-0,168
264,107	6,938	-0,147	-0,075
265,122	-138,949	-0,308	-0,023
266,136	-27,781	-0,121	-0,048
267,151	655,624	-0,061	-0,108
268,166	203,503	-0,131	-0,140
269,180	107,585	-0,251	-0,206
270,195	686,012	-0,122	-0,221
271,209	504,399	-0,119	-0,192
272,224	-18,930	-0,113	0,049
273,239	79,828	-0,179	-0,133
274,253	-21,063	-0,266	-0,112
275,268	-66,960	-0,133	-0,036
276,282	-75,390	-0,301	-0,074
277,297	291,660	-0,138	-0,174
278,312	-29,539	-0,145	-0,057
279,326	200,064	-0,124	-0,132
280,341	199,176	-0,182	-0,193
281,355	-200,000	0,008	-0,192
282,370	-99,458	-0,106	-0,018
283,384	800,000	-0,060	-0,183
284,399	-112,688	-0,229	-0,031
285,414	40,770	-0,290	-0,181
286,428	39,476	-0,251	-0,155
287,443	236,655	-0,136	-0,155
288,457	-68,701	-0,170	-0,045
289,472	543,255	-0,103	-0,170
290,487	56,548	-0,147	-0,098
291,501	645,484	-0,121	-0,214
292,516	800,000	-0,093	-0,197
293,530	86,265	-0,088	-0,067
294,545	-130,146	-0,137	0,013
295,560	-87,228	-0,183	-0,038
296,574	404,688	-0,182	-0,265
297,589	124,804	-0,077	-0,067
298,603	273,528	-0,034	-0,042
299,618	-91,348	-0,144	-0,028
300,633	105,101	-0,156	-0,127
301,647	-33,410	-0,149	-0,056
302,662	-30,173	-0,160	-0,063
303,676	147,637	-0,203	-0,189
304,691	-175,675	-0,287	0,005
305,706	143,769	-0,128	-0,117
306,720	217,830	-0,118	-0,130
307,735	800,000	-0,049	-0,121
308,749	-87,108	-0,160	-0,033
309,764	-119,032	-0,164	0,020
310,779	51,013	-0,091	-0,059
311,793	45,667	-0,157	-0,100
312,808	37,032	-0,142	-0,086
313,822	89,581	-0,133	-0,102
314,837	800,000	-0,139	-0,273
315,852	311,102	-0,089	-0,115
316,866	5,419	-0,145	-0,074
317,881	6,443	-0,072	-0,037
318,895	-200,000	-0,010	-0,217
319,910	-72,982	-0,220	-0,055
320,925	-120,691	-0,298	-0,034
321,939	198,978	-0,162	-0,171
322,954	-55,941	-0,129	0,039
323,968	-150,821	-0,129	-0,007
324,983	-25,762	-0,141	0,057
325,997	-97,804	-0,315	-0,056
327,012	558,711	-0,127	-0,212
328,027	265,348	-0,132	-0,159
329,041	40,320	-0,162	-0,100
330,056	-200,000	-0,018	-0,093
331,070	800,000	-0,034	-0,086
332,085	15,229	-0,116	-0,063
333,100	207,428	-0,120	-0,129
334,114	-69,036	-0,157	-0,041
335,129	54,144	-0,162	-0,107
336,143	791,025	-0,085	-0,161
337,158	-119,446	-0,174	-0,020
338,173	295,842	-0,064	0,080
339,187	-63,092	-0,016	-0,004
340,202	216,236	-0,102	-0,111
341,216	3,488	-0,195	-0,097
342,231	77,380	-0,145	-0,106
343,246	211,212	-0,146	-0,158
344,260	800,000	-0,045	0,115
345,275	19,167	-0,132	-0,073
346,289	-198,516	-0,099	-0,000
347,304	145,515	-0,057	-0,053
348,319	-4,968	-0,185	-0,087
349,333	104,061	-0,139	-0,112
350,348	-68,705	-0,176	-0,046
351,362	194,726	-0,110	-0,115
352,377	-162,704	-0,185	-0,006
353,392	107,131	-0,161	-0,131
354,406	-34,889	-0,199	0,074
355,421	207,376	1314,707	1409,914
356,435	159,514	1475,457	1410,404
