DTS Sentinel unit serial number:	SN410029Multiplexer serial number:	ORYXHardware model number:	OX2-SRSoftware version number:	ORYX F/W v4,00 Oryx Data Collector v3.7.2.0data status	okinstallation	B3 Nyhavnadifferential loss correction	single-endedforward channel	channel 1reverse channel	N/Adate	2023/11/28time	22:17:30forward acquisition time	300,00reverse acquisition time	0,00gamma	499,1914k internal	0,3212k external	0,3212temperature offset calibration	1,0000default loss term (dB/km)	0,3820temperature slope calibration	1,0000multiplexer offset coefficient	1,0000multiplexer slope coefficient	1,0000fibre end	0,00T internal ref (°C)	8,56T ext. ref 1 (°C)	-6,04T ext. ref 2 (°C)	-6,20length (m)	temperature (°C)	Stokes	anti-Stokes-744,400	74,220	-0,227	-0,172
-743,385	800,000	-0,069	0,181
-742,371	281,317	-0,210	-0,273
-741,356	-200,000	-0,034	0,327
-740,342	377,843	-0,191	-0,284
-739,327	800,000	-0,126	0,259
-738,312	365,755	-0,143	-0,210
-737,298	-200,000	-0,033	0,172
-736,283	-21,195	-0,233	-0,103
-735,269	800,000	0,134	0,312
-734,254	63,171	-0,306	-0,222
-733,239	10,223	-0,182	0,100
-732,225	169,606	-0,132	-0,137
-731,210	73,858	0,089	0,068
-730,196	559,234	0,050	0,088
-729,181	-115,412	-0,056	0,008
-728,167	2,119	-0,088	-0,046
-727,152	-91,816	0,197	0,040
-726,137	-200,000	-0,024	-0,092
-725,123	-126,036	0,050	-0,005
-724,108	141,019	-0,101	-0,096
-723,094	143,763	0,026	-0,025
-722,079	-90,091	-0,088	-0,018
-721,064	-85,418	-0,036	-0,008
-720,050	-200,000	0,012	-0,142
-719,035	231,275	0,061	0,073
-718,021	-146,698	-0,085	0,005
-717,006	98,773	-0,051	-0,042
-715,991	-32,445	-0,012	-0,005
-714,977	-12,425	-0,038	0,018
-713,962	40,129	-0,057	0,037
-712,948	273,371	0,043	0,056
-711,933	76,560	0,046	-0,035
-710,918	42,495	-0,095	-0,062
-709,904	741,374	-0,055	-0,107
-708,889	57,455	-0,066	-0,047
-707,875	262,797	0,015	-0,019
-706,860	800,000	0,025	0,062
-705,845	-15,869	0,176	0,081
-704,831	-200,000	-0,028	-0,125
-703,816	211,601	0,047	0,054
-702,802	540,170	0,068	0,117
-701,787	291,413	0,038	-0,051
-700,772	61,327	0,021	-0,015
-699,758	-200,000	0,001	0,002
-698,743	91,555	0,096	0,078
-697,729	-200,000	0,018	-0,128
-696,714	321,851	-0,061	0,084
-695,699	-200,000	0,004	0,056
-694,685	220,125	-0,057	-0,066
-693,670	-0,216	-0,089	-0,046
-692,656	108,149	-0,055	-0,048
-691,641	-200,000	0,006	0,097
-690,627	-200,000	0,022	0,105
-689,612	-200,000	0,007	-0,105
-688,597	-200,000	-0,015	-0,065
-687,583	51,193	-0,096	-0,066
-686,568	-9,663	0,049	-0,024
-685,554	-200,000	0,001	-0,045
-684,539	745,536	0,024	-0,046
-683,524	140,944	0,115	-0,110
-682,510	378,690	0,069	-0,102
-681,495	-200,000	-0,009	0,081
-680,481	-86,450	-0,019	-0,004
-679,466	-200,000	0,007	-0,088
-678,451	279,689	0,036	0,047
-677,437	196,820	-0,048	-0,053
-676,422	-116,845	-0,137	-0,018
-675,408	86,930	0,025	0,020
-674,393	-20,105	-0,135	-0,060
-673,378	14,600	0,017	0,009
-672,364	-75,019	-0,068	-0,017
-671,349	-178,800	-0,112	0,002
-670,335	-200,000	0,039	-0,140
-669,320	406,682	-0,013	-0,020
-668,305	-200,000	-0,004	0,179
-667,291	709,404	0,020	0,038
-666,276	158,841	-0,038	-0,038
-665,262	-68,311	-0,046	0,013
-664,247	-94,912	-0,101	0,020
-663,232	406,046	-0,011	0,017
-662,218	340,237	0,042	-0,060
-661,203	-141,211	0,112	-0,008
-660,189	69,933	-0,043	-0,032
-659,174	-91,061	0,065	-0,013
-658,159	-52,682	-0,074	-0,024
-657,145	48,521	-0,140	0,095
-656,130	-144,164	0,042	0,003
-655,116	73,704	-0,027	-0,021
-654,101	132,827	-0,067	0,062
-653,086	245,684	-0,061	0,074
-652,072	-200,000	-0,004	-0,032
-651,057	-190,360	-0,023	0,000
-650,043	800,000	-0,031	0,067
-649,028	-68,477	0,115	-0,032
-648,014	412,865	-0,039	0,060
-646,999	-200,000	0,001	-0,088
-645,984	376,411	0,077	0,114
-644,970	136,402	0,062	0,058
-643,955	251,681	0,069	-0,085
-642,941	800,000	-0,034	0,107
-641,926	140,772	-0,023	0,022
-640,911	800,000	0,054	0,116
-639,897	796,626	0,105	0,210
-638,882	800,000	0,052	0,104
-637,868	757,660	-0,025	0,049
-636,853	-104,745	-0,150	0,025
-635,838	800,000	0,066	-0,149
-634,824	440,372	-0,021	-0,033
-633,809	-21,780	-0,040	0,017
-632,795	-56,223	0,135	-0,043
-631,780	-25,005	0,052	0,022
-630,765	-24,083	-0,103	0,044
-629,751	377,562	-0,056	-0,083
-628,736	-5,539	-0,110	-0,054
-627,722	-200,000	0,002	-0,087
-626,707	145,419	0,087	0,085
-625,692	745,331	0,014	0,026
-624,678	-200,000	-0,000	0,013
-623,663	-152,124	-0,097	-0,005
-622,649	-200,000	-0,003	0,078
-621,634	32,917	-0,130	-0,081
-620,619	-200,000	-0,013	0,127
-619,605	-200,000	0,000	-0,004
-618,590	327,941	0,048	-0,067
-617,576	106,697	0,108	0,093
-616,561	800,000	0,023	0,052
-615,546	-21,108	-0,072	0,032
-614,532	800,000	-0,010	-0,027
-613,517	800,000	-0,042	-0,133
-612,503	83,774	0,068	0,054
-611,488	-31,799	-0,113	0,045
-610,474	174,091	-0,066	0,069
-609,459	800,000	-0,015	0,045
-608,444	-39,761	-0,116	-0,043
-607,430	-78,322	-0,082	0,020
-606,415	-1,896	-0,124	-0,062
-605,401	21,751	0,070	-0,041
-604,386	11,549	0,090	0,050
-603,371	131,171	0,011	-0,010
-602,357	22,566	-0,055	-0,032
-601,342	-200,000	-0,021	0,075
-600,328	800,000	-0,035	-0,100
-599,313	652,494	-0,067	-0,125
-598,298	-122,834	0,085	0,010
-597,284	-200,000	0,046	0,173
-596,269	-120,439	-0,088	-0,011
-595,255	240,559	0,007	0,008
-594,240	-47,611	0,060	0,021
-593,225	304,089	0,036	0,048
-592,211	-55,901	-0,143	0,046
-591,196	-200,000	-0,012	0,058
-590,182	-200,000	0,009	0,156
-589,167	215,474	0,078	0,089
-588,152	-200,000	0,006	0,083
-587,138	800,000	-0,087	-0,181
-586,123	800,000	-0,060	-0,122
-585,109	35,463	-0,127	0,080
-584,094	-81,512	0,018	0,004
-583,079	-28,121	0,018	0,007
-582,065	-62,452	0,050	0,015
-581,050	625,920	0,060	0,109
-580,036	-200,000	0,004	-0,051
-579,021	-51,864	-0,063	0,021
-578,006	-200,000	-0,006	-0,039
-576,992	274,754	0,071	-0,091
-575,977	-200,000	0,041	-0,134
-574,963	125,673	0,106	0,096
-573,948	-93,248	0,110	-0,022
-572,934	191,434	-0,090	-0,098
-571,919	58,074	0,103	0,073
-570,904	-111,011	-0,077	-0,011
-569,890	84,429	-0,092	-0,073
-568,875	800,000	-0,045	0,117
-567,861	50,055	-0,063	-0,043
-566,846	-200,000	0,016	-0,103
-565,831	800,000	0,047	0,122
-564,817	359,597	0,016	0,023
-563,802	800,000	-0,075	-0,162
-562,788	137,243	0,135	-0,127
-561,773	-200,000	-0,035	-0,124
-560,758	-158,790	0,064	0,003
-559,744	222,651	0,043	0,050
-558,729	-200,000	-0,014	-0,053
-557,715	36,064	0,115	0,072
-556,700	23,923	-0,048	0,028
-555,685	218,150	-0,048	-0,055
-554,671	-30,464	-0,108	0,044
-553,656	800,000	0,027	-0,081
-552,642	36,289	0,027	0,017
-551,627	328,860	0,101	-0,140
-550,612	-136,050	-0,075	0,006
-549,598	-66,800	-0,026	-0,007
-548,583	92,983	0,080	0,065
-547,569	-30,536	0,043	-0,017
-546,554	68,116	-0,057	-0,042
-545,539	-15,833	0,122	-0,056
-544,525	-30,988	0,083	0,033
-543,510	-18,938	-0,088	-0,039
-542,496	-200,000	0,007	-0,108
-541,481	93,227	-0,153	-0,124
-540,466	-24,235	0,160	-0,069
-539,452	800,000	0,025	0,062
-538,437	-26,727	0,230	0,097
-537,423	54,429	0,056	0,039
-536,408	37,498	-0,112	0,071
-535,393	-200,000	0,010	-0,074
-534,379	-200,000	-0,006	-0,061
-533,364	15,212	0,041	0,023
-532,350	550,169	-0,034	0,059
-531,335	9,181	-0,028	0,015
-530,321	-41,935	-0,065	0,024
-529,306	41,990	-0,108	0,070
-528,291	800,000	-0,129	-0,258
-527,277	154,307	-0,039	0,039
-526,262	212,014	-0,026	-0,030
-525,248	234,116	-0,077	0,092
-524,233	-132,529	0,042	0,004
-523,218	84,126	-0,062	0,049
-522,204	-200,000	0,003	0,044
-521,189	335,160	0,063	0,088
-520,175	-108,162	-0,146	0,022
-519,160	-97,102	-0,075	0,014
-518,145	122,667	0,129	-0,116
-517,131	528,718	-0,017	0,030
-516,116	-58,993	0,095	-0,029
-515,102	-130,257	-0,087	-0,008
-514,087	800,000	-0,019	-0,047
-513,072	141,162	-0,087	-0,083
-512,058	-200,000	0,005	-0,121
-511,043	-200,000	-0,017	-0,144
-510,029	167,209	0,033	0,034
-509,014	-53,072	0,068	0,022
-507,999	140,352	0,066	0,063
-506,985	-58,501	-0,077	-0,024
-505,970	-200,000	0,019	-0,176
-504,956	-200,000	-0,004	-0,185
-503,941	-123,347	0,089	-0,010
-502,926	43,542	0,078	-0,051
-501,912	-200,000	-0,008	0,079
-500,897	535,420	0,018	0,031
-499,883	-200,000	-0,006	0,030
-498,868	84,996	0,037	0,029
-497,853	161,084	-0,059	0,059
-496,839	439,830	-0,050	-0,079
-495,824	-7,981	0,153	-0,074
-494,810	400,205	0,079	-0,119
-493,795	-76,243	-0,055	-0,014
-492,781	-55,637	0,091	-0,029
-491,766	359,825	-0,127	-0,184
-490,751	248,113	-0,073	-0,089
-489,737	-45,129	0,057	0,020
-488,722	-200,000	0,004	0,094
-487,708	800,000	-0,047	0,138
-486,693	-121,991	0,097	0,011
-485,678	-200,000	-0,001	0,039
-484,664	194,502	-0,043	-0,047
-483,649	800,000	-0,020	0,058
-482,635	-111,398	-0,144	0,021
-481,620	-25,408	0,061	-0,026
-480,605	-148,876	0,059	-0,003
-479,591	139,464	-0,031	0,029
-478,576	-200,000	0,072	0,000
-477,562	313,058	0,029	-0,040
-476,547	-200,000	-0,015	-0,184
-475,532	-200,000	-0,011	-0,101
-474,518	-200,000	0,002	0,077
-473,503	-200,000	0,044	0,000
-472,489	-27,676	0,006	0,002
-471,474	-35,135	-0,072	0,028
-470,459	-200,000	0,006	0,040
-469,445	79,302	0,086	-0,066
-468,430	180,753	0,033	-0,035
-467,416	-106,445	0,141	-0,022
-466,401	58,150	0,040	-0,028
-465,386	-100,446	-0,100	0,018
-464,372	800,000	-0,007	0,017
-463,357	72,833	-0,035	-0,026
-462,343	-143,369	-0,023	-0,002
-461,328	8,245	0,063	-0,034
-460,313	348,835	0,067	0,096
-459,299	252,655	0,043	0,053
-458,284	122,963	0,075	-0,067
-457,270	800,000	-0,012	-0,030
-456,255	18,534	-0,008	-0,004
-455,241	-4,892	0,117	0,058
-454,226	-200,000	0,047	-0,153
-453,211	800,000	-0,024	-0,061
-452,197	143,446	0,069	0,066
-451,182	182,640	-0,057	-0,060
-450,168	478,774	0,027	0,044
-449,153	453,164	-0,028	-0,044
-448,138	46,967	-0,113	-0,075
-447,124	151,614	-0,090	-0,088
-446,109	-138,990	0,202	-0,015
-445,095	-8,598	0,026	0,012
-444,080	-82,953	0,111	0,025
-443,065	800,000	0,041	-0,114
-442,051	-36,103	-0,075	-0,029
-441,036	22,806	-0,059	0,035
-440,022	-77,179	0,093	-0,023
-439,007	37,475	0,031	0,020
-437,992	189,548	-0,020	-0,022
-436,978	-200,000	0,008	0,040
-435,963	-200,000	0,003	-0,082
-434,949	-112,083	0,051	0,007
-433,934	800,000	0,027	0,060
-432,919	195,672	-0,030	0,033
-431,905	800,000	0,052	-0,116
-430,890	-96,241	0,066	0,013
-429,876	800,000	-0,015	0,047
-428,861	-14,144	0,178	0,082
-427,846	306,283	0,023	-0,031
-426,832	98,987	-0,107	-0,088
-425,817	800,000	-0,049	-0,119
-424,803	185,124	-0,137	-0,146
-423,788	136,921	0,107	0,100
-422,773	800,000	0,054	0,119
-421,759	-89,318	0,138	-0,029
-420,744	85,316	0,088	0,069
-419,730	-118,849	-0,152	0,019
-418,715	-200,000	-0,005	-0,093
-417,701	103,075	-0,202	0,169
-416,686	-200,000	-0,007	0,065
-415,671	657,764	0,017	-0,031
-414,657	13,355	0,121	0,067
-413,642	800,000	0,049	0,117
-412,628	252,059	-0,039	0,048
-411,613	-142,959	0,132	-0,009
-410,598	800,000	-0,030	-0,063
-409,584	420,848	0,069	0,106
-408,569	-127,988	0,099	-0,010
-407,555	182,855	-0,084	0,089
-406,540	557,942	0,073	0,127
-405,525	-79,773	-0,034	0,008
-404,511	-200,000	-0,036	-0,185
-403,496	53,769	-0,014	-0,009
-402,482	-135,528	0,175	-0,015
-401,467	3,341	0,144	-0,075
-400,452	120,852	-0,030	0,027
-399,438	800,000	-0,037	0,099
-398,423	-106,634	-0,085	-0,013
-397,409	-9,217	0,036	-0,017
-396,394	345,874	-0,039	-0,055
-395,379	322,422	0,079	0,108
-394,365	-200,000	0,000	-0,031
-393,350	223,969	-0,035	0,040
-392,336	413,469	0,044	-0,068
-391,321	77,480	-0,081	-0,061
-390,306	800,000	-0,064	-0,153
-389,292	16,667	-0,140	0,079
-388,277	61,895	0,062	0,044
-387,263	-121,309	0,050	0,006
-386,248	47,161	-0,065	-0,043
-385,233	-32,204	0,056	-0,022
-384,219	800,000	-0,060	0,143
-383,204	-70,254	0,094	0,025
-382,190	800,000	0,040	-0,111
-381,175	-200,000	0,024	-0,146
-380,160	-0,795	-0,114	-0,058
-379,146	-200,000	-0,032	0,147
-378,131	-136,026	0,069	0,006
-377,117	-132,993	-0,062	-0,006
-376,102	681,088	-0,052	-0,097
-375,088	413,164	0,022	-0,033
-374,073	-75,352	0,034	0,009
-373,058	-200,000	-0,044	0,210
-372,044	-45,651	-0,153	-0,054
-371,029	800,000	0,100	0,204
-370,015	61,199	-0,136	0,096
-369,000	-75,336	-0,049	0,012
-367,985	208,524	-0,084	0,094
-366,971	-76,151	0,120	0,030
-365,956	-94,798	0,136	0,026
-364,942	800,000	0,028	0,083
-363,927	324,906	0,020	0,027
-362,912	-200,000	0,009	0,102
-361,898	-34,247	0,079	0,031
-360,883	800,000	-0,064	0,130
-359,869	-200,000	-0,007	0,031
-358,854	-169,982	0,128	0,003
-357,839	-200,000	-0,027	0,171
-356,825	-188,044	-0,137	-0,001
-355,810	44,939	0,064	0,042
-354,796	618,634	0,010	0,018
-353,781	116,919	0,070	0,061
-352,766	-22,492	-0,138	0,060
-351,752	213,063	0,035	0,040
-350,737	368,444	-0,059	0,086
-349,723	-200,000	-0,012	0,190
-348,708	1,420	-0,182	0,093
-347,693	-40,505	-0,046	0,017
-346,679	221,003	-0,066	0,076
-345,664	-74,893	-0,110	0,028
-344,650	-27,437	0,075	0,031
-343,635	348,196	-0,067	0,095
-342,620	605,643	-0,014	-0,025
-341,606	120,401	0,085	0,075
-340,591	-189,496	0,098	-0,001
-339,577	-119,046	0,125	0,015
-338,562	-106,677	-0,012	0,002
-337,548	77,529	-0,084	-0,064
-336,533	-200,000	0,011	-0,039
-335,518	-54,254	0,099	0,032
-334,504	84,983	0,022	-0,017
-333,489	635,010	-0,014	0,026
-332,475	581,509	0,075	-0,131
-331,460	-65,582	0,142	-0,040
-330,445	-132,078	-0,113	0,010
-329,431	-200,000	0,029	0,127
-328,416	571,132	0,040	0,069
-327,402	300,667	0,064	-0,084
-326,387	-81,441	0,112	0,026
-325,372	320,830	-0,049	-0,067
-324,358	178,106	-0,031	-0,033
-323,343	-108,164	-0,101	0,015
-322,329	26,658	0,096	0,057
-321,314	145,403	-0,052	0,050
-320,299	-64,582	-0,114	0,033
-319,285	-25,994	0,104	-0,044
-318,270	800,000	-0,055	-0,166
-317,256	138,546	0,071	-0,067
-316,241	151,837	-0,022	0,022
-315,226	-168,220	0,049	-0,001
-314,212	-200,000	0,002	-0,124
-313,197	-9,754	-0,026	0,012
-312,183	-29,669	-0,061	-0,025
-311,168	-102,370	0,056	-0,010
-310,153	-81,746	0,052	-0,012
-309,139	413,752	0,054	0,082
-308,124	800,000	-0,033	-0,099
-307,110	187,094	0,056	-0,059
-306,095	-200,000	-0,035	-0,175
-305,080	-200,000	0,004	0,015
-304,066	-200,000	-0,015	0,191
-303,051	-140,193	-0,093	-0,007
-302,037	-108,066	-0,039	0,006
-301,022	-200,000	-0,033	-0,106
-300,008	411,859	-0,089	0,136
-298,993	-200,000	0,001	0,069
-297,978	800,000	0,071	-0,185
-296,964	-200,000	0,017	0,098
-295,949	-200,000	-0,029	-0,108
-294,935	166,437	-0,103	-0,104
-293,920	-200,000	0,018	-0,101
-292,905	84,595	0,138	-0,108
-291,891	248,203	0,049	-0,060
-290,876	47,150	0,105	0,070
-289,862	-200,000	0,016	0,067
-288,847	9,944	-0,040	-0,022
-287,832	122,125	-0,084	0,074
-286,818	-139,077	-0,122	0,009
-285,803	17,340	0,063	-0,035
-284,789	800,000	0,048	0,119
-283,774	38,411	-0,070	0,044
-282,759	-200,000	0,001	0,119
-281,745	800,000	-0,014	-0,036
-280,730	156,167	-0,070	-0,069
-279,716	408,103	-0,040	-0,060
-278,701	800,000	0,031	0,081
-277,686	-125,385	0,119	0,013
-276,672	-200,000	0,010	0,053
-275,657	282,452	-0,121	-0,155
-274,643	800,000	-0,036	-0,112
-273,628	-45,039	-0,116	-0,041
-272,613	-74,716	0,163	-0,041
-271,599	469,296	-0,027	-0,044
-270,584	42,318	0,115	-0,074
-269,570	381,393	-0,032	0,047
-268,555	800,000	0,052	0,139
-267,540	53,062	-0,017	0,011
-266,526	34,066	-0,025	0,015
-265,511	-12,110	0,055	0,025
-264,497	-71,634	0,023	0,006
-263,482	32,912	0,033	-0,021
-262,467	-57,167	0,050	-0,016
-261,453	-34,078	-0,021	0,008
-260,438	800,000	-0,095	0,209
-259,424	133,249	-0,120	0,111
-258,409	-27,328	0,053	0,022
-257,395	467,001	0,025	-0,040
-256,380	38,818	-0,084	-0,053
-255,365	228,516	0,091	0,105
-254,351	515,261	0,021	0,035
-253,336	-200,000	-0,010	0,058
-252,322	71,984	0,087	0,064
-251,307	239,973	-0,009	-0,010
-250,292	-46,601	-0,070	0,024
-249,278	-9,016	-0,099	0,047
-248,263	-71,700	-0,037	-0,010
-247,249	-105,068	0,031	0,005
-246,234	173,213	-0,049	-0,050
-245,219	249,295	0,066	-0,080
-244,205	-9,946	-0,039	0,018
-243,190	-200,000	0,007	-0,076
-242,176	-0,866	0,035	0,017
-241,161	-200,000	0,012	0,054
-240,146	-200,000	0,032	0,123
-239,132	-93,957	-0,148	0,029
-238,117	221,361	-0,141	-0,161
-237,103	-143,727	0,039	0,003
-236,088	204,389	-0,057	-0,063
-235,073	800,000	-0,016	-0,033
-234,059	-121,965	0,062	-0,007
-233,044	489,352	0,029	0,047
-232,030	287,808	-0,032	-0,042
-231,015	355,884	-0,032	0,046
-230,000	-94,230	-0,157	-0,030
-228,986	-53,814	0,105	-0,034
-227,971	113,297	-0,063	-0,054
-226,957	213,508	-0,025	0,029
-225,942	64,650	0,078	0,056
-224,927	-200,000	0,046	-0,181
-223,913	81,244	0,070	-0,054
-222,898	800,000	0,060	-0,147
-221,884	2,615	0,070	-0,036
-220,869	233,103	0,038	0,044
-219,855	-200,000	0,005	0,074
-218,840	-73,036	-0,148	0,038
-217,825	92,310	-0,033	-0,026
-216,811	84,985	-0,048	0,037
-215,796	-112,322	-0,072	0,010
-214,782	352,415	-0,044	-0,062
-213,767	800,000	0,048	0,124
-212,752	-70,178	0,195	0,052
-211,738	-1,823	-0,078	0,039
-210,723	276,045	-0,008	0,010
-209,709	800,000	-0,014	-0,033
-208,694	-136,022	0,182	0,015
-207,679	-15,521	-0,089	-0,040
-206,665	-200,000	0,008	0,166
-205,650	430,694	-0,016	-0,025
-204,636	97,003	-0,049	-0,040
-203,621	-140,382	0,154	-0,011
-202,606	-15,393	-0,088	-0,040
-201,592	-84,303	-0,153	0,034
-200,577	45,406	-0,080	-0,052
-199,563	-200,000	-0,006	-0,172
-198,548	214,477	0,120	0,135
-197,533	800,000	-0,042	0,114
-196,519	93,299	0,100	-0,080
-195,504	117,364	-0,083	0,072
-194,490	53,514	-0,152	0,103
-193,475	335,068	-0,069	0,096
-192,460	-23,314	-0,074	0,031
-191,446	130,828	-0,092	-0,084
-190,431	800,000	0,039	-0,086
-189,417	65,553	-0,030	-0,021
-188,402	-126,958	-0,101	0,010
-187,387	195,703	0,025	-0,027
-186,373	800,000	-0,062	-0,172
-185,358	800,000	-0,032	0,097
-184,344	-67,584	0,049	-0,014
-183,329	-136,736	0,087	0,007
-182,315	68,613	-0,042	0,031
-181,300	800,000	-0,037	0,107
-180,285	187,961	-0,072	-0,076
-179,271	351,774	-0,040	-0,056
-178,256	800,000	0,035	-0,088
-177,242	800,000	-0,016	-0,034
-176,227	375,109	0,087	0,126
-175,212	-200,000	0,010	-0,043
-174,198	-17,507	0,097	0,043
-173,183	663,363	-0,023	-0,042
-172,169	800,000	0,019	-0,058
-171,154	81,959	0,075	0,057
-170,139	-200,000	0,037	0,123
-169,125	-104,368	-0,031	-0,005
-168,110	-200,000	-0,007	-0,049
-167,096	800,000	0,013	-0,035
-166,081	81,214	-0,122	-0,093
-165,066	-200,000	-0,014	-0,096
-164,052	12,494	-0,087	-0,047
-163,037	-200,000	-0,038	0,141
-162,023	-200,000	0,039	0,192
-161,008	75,720	0,071	-0,053
-159,993	747,846	0,033	-0,063
-158,979	800,000	-0,064	-0,127
-157,964	-145,704	0,064	0,004
-156,950	25,137	-0,074	-0,043
-155,935	-200,000	0,006	-0,067
-154,920	181,286	-0,068	-0,070
-153,906	-199,158	0,010	0,000
-152,891	-200,000	-0,016	-0,071
-151,877	-200,000	-0,001	-0,023
-150,862	-200,000	0,007	-0,038
-149,847	-200,000	-0,013	0,101
-148,833	-200,000	-0,006	0,043
-147,818	29,651	0,070	0,042
-146,804	-80,164	0,063	0,015
-145,789	-200,000	-0,007	-0,058
-144,775	-39,069	0,010	0,004
-143,760	-108,463	-0,162	-0,024
-142,745	-67,249	-0,132	-0,036
-141,731	58,188	0,026	-0,018
-140,716	-118,029	0,076	0,009
-139,702	-200,000	0,002	-0,079
-138,687	300,658	0,026	-0,034
-137,672	-49,928	-0,099	-0,033
-136,658	-200,000	0,001	0,028
-135,643	-111,184	-0,134	-0,019
-134,629	-149,686	0,067	-0,004
-133,614	-76,420	0,039	-0,010
-132,599	35,474	-0,128	-0,079
-131,585	-161,649	0,090	0,003
-130,570	165,920	-0,010	0,010
-129,556	116,033	-0,049	0,043
-128,541	14,548	-0,069	-0,038
-127,526	434,719	-0,028	0,043
-126,512	63,412	0,187	0,133
-125,497	-95,722	0,050	0,009
-124,483	800,000	-0,029	0,067
-123,468	-200,000	0,007	-0,073
-122,453	134,859	0,059	-0,054
-121,439	-200,000	0,003	0,028
-120,424	48,975	-0,136	-0,090
-119,410	-200,000	0,017	0,058
-118,395	-89,317	0,147	0,030
-117,380	-18,363	-0,044	0,020
-116,366	226,320	0,082	-0,095
-115,351	-48,445	-0,114	-0,038
-114,337	45,057	-0,041	-0,027
-113,322	-2,435	0,097	-0,048
-112,307	137,096	0,074	0,069
-111,293	-200,000	-0,021	-0,084
-110,278	-70,672	0,126	0,034
-109,264	-11,865	-0,085	0,039
-108,249	54,228	0,085	0,058
-107,234	306,936	0,136	-0,180
-106,220	-138,944	-0,097	-0,007
-105,205	138,244	0,133	0,123
-104,191	2,819	0,071	-0,036
-103,176	32,713	0,075	-0,046
-102,162	-40,253	-0,208	0,076
-101,147	-33,287	-0,077	0,030
-100,132	800,000	0,013	0,032
-99,118	800,000	0,061	0,155
-98,103	-168,023	0,005	-0,000
-97,089	-142,719	-0,063	-0,004
-96,074	-112,021	0,115	0,016
-95,059	75,702	-0,118	-0,088
-94,045	557,732	-0,025	0,042
-93,030	-200,000	-0,006	0,026
-92,016	800,000	0,039	-0,118
-91,001	800,000	0,011	0,035
-89,986	221,791	0,089	0,101
-88,972	-200,000	-0,032	0,144
-87,957	253,447	-0,029	-0,035
-86,943	788,367	-0,030	-0,059
-85,928	50,142	0,059	-0,039
-84,913	250,412	-0,080	-0,096
-83,899	-200,000	-0,032	-0,106
-82,884	-200,000	0,014	-0,074
-81,870	800,000	0,009	0,019
-80,855	199,257	-0,023	-0,025
-79,840	-111,632	-0,073	-0,010
-78,826	641,041	0,049	-0,088
-77,811	79,126	0,112	-0,085
-76,797	-79,101	0,158	-0,038
-75,782	109,339	0,051	-0,043
-74,767	-200,000	0,021	0,092
-73,753	216,032	0,051	-0,058
-72,738	24,100	0,135	-0,078
-71,724	-59,434	-0,167	0,050
-70,709	81,207	0,055	-0,042
-69,694	188,333	-0,119	-0,126
-68,680	131,717	-0,033	0,030
-67,665	800,000	-0,058	-0,130
-66,651	8,719	0,036	-0,019
-65,636	427,865	0,054	0,083
-64,622	-140,185	-0,063	0,005
-63,607	-200,000	-0,031	-0,117
-62,592	-200,000	-0,002	0,014
-61,578	-200,000	-0,010	0,052
-60,563	800,000	0,005	-0,014
-59,549	-200,000	0,006	0,111
-58,534	49,696	-2,273	-1,509
-57,519	565,439	-1,064	-1,828
-56,505	-200,000	-0,299	-4,362
-55,490	763,871	0,848	1,632
-54,476	800,000	5,221	11,155
-53,461	-200,000	21,993	340,713
-52,446	800,000	757,057	2297,464
-51,432	534,534	1648,078	2766,921
-50,417	68,750	1646,232	1190,741
-49,403	16,245	1521,570	844,418
-48,388	10,414	1446,421	774,708
-47,373	19,153	1438,674	812,168
-46,359	13,855	1427,348	780,739
-45,344	8,724	1423,297	754,231
-44,330	8,657	1421,518	752,942
-43,315	8,620	1419,777	751,815
-42,300	8,626	1418,002	750,870
-41,286	8,686	1416,352	750,251
-40,271	8,616	1415,313	749,343
-39,257	8,642	1414,096	748,791
-38,242	8,689	1413,068	748,437
-37,227	8,658	1411,887	747,636
-36,213	8,621	1410,648	746,774
-35,198	8,683	1409,466	746,413
-34,184	8,689	1408,430	745,863
-33,169	8,595	1407,078	744,676
-32,154	8,647	1406,412	744,538
-31,140	8,597	1404,885	743,466
-30,125	8,675	1403,663	743,156
-29,111	8,670	1402,610	742,544
-28,096	8,609	1401,396	741,585
-27,082	8,549	1400,450	740,776
-26,067	8,541	1399,124	740,010
-25,052	8,582	1398,179	739,670
-24,038	8,617	1397,140	739,255
-23,023	8,597	1396,194	738,634
-22,009	8,559	1395,154	737,874
-20,994	8,555	1394,215	737,332
-19,979	8,602	1393,155	736,958
-18,965	8,539	1392,318	736,197
-17,950	8,534	1391,378	735,647
-16,936	8,514	1390,376	734,994
-15,921	8,453	1389,495	734,219
-14,906	8,473	1388,580	733,797
-13,892	8,559	1387,400	733,541
-12,877	8,539	1386,999	733,209
-11,863	8,460	1386,230	732,407
-10,848	8,495	1385,158	731,973
-9,833	8,460	1384,234	731,293
-8,819	8,393	1383,586	730,618
-7,804	8,424	1382,497	730,155
-6,790	8,408	1381,313	729,426
-5,775	8,414	1380,333	728,906
-4,760	8,418	1379,637	728,532
-3,746	8,429	1378,513	727,956
-2,731	8,426	1377,328	727,290
-1,717	8,385	1376,612	726,693
-0,702	8,424	1374,898	725,938
0,313	12,482	1286,765	697,791
1,327	28,364	679,876	404,199
2,342	44,281	116,838	75,469
3,356	-1,109	16,544	8,219
4,371	3,526	3,721	1,906
5,386	-9,618	1,402	0,656
6,400	800,000	0,259	0,690
7,415	92,766	-0,290	-0,231
8,429	30,289	-0,317	-0,191
9,444	-116,096	-0,289	-0,037
10,459	101,475	-0,204	-0,167
11,473	44,922	-0,206	-0,134
12,488	116,739	-0,129	-0,112
13,502	-83,312	-0,389	-0,087
14,517	-102,077	-0,278	-0,047
15,531	5,057	-0,351	-0,182
16,546	145,486	-0,287	-0,271
17,561	125,251	-0,221	-0,197
18,575	15,084	-0,239	-0,132
19,590	219,608	-0,199	-0,225
20,604	9,252	-0,232	-0,123
21,619	92,424	-0,430	-0,341
22,634	77,368	-0,492	-0,368
23,648	192,504	-0,260	-0,276
24,663	108,855	-0,440	-0,370
25,677	58,138	-0,302	-0,208
26,692	11,598	-0,377	-0,203
27,707	114,095	-0,329	-0,281
28,721	288,937	-0,224	-0,286
29,736	277,979	-0,344	-0,432
30,750	26,384	-0,489	-0,287
31,765	50,607	-0,325	-0,216
32,780	95,097	-0,195	-0,156
33,794	-33,223	-0,275	-0,106
34,809	93,933	-0,254	-0,203
35,823	-40,468	-0,474	-0,172
36,838	249,240	-0,338	-0,404
37,853	55,846	-0,406	-0,276
38,867	233,925	-0,326	-0,378
39,882	178,819	-0,296	-0,305
40,896	37,442	-0,368	-0,229
41,911	27,040	-0,295	-0,174
42,926	-10,440	-0,232	-0,108
43,940	-36,390	-0,425	-0,160
44,955	30,813	-0,397	-0,238
45,969	217,102	-0,381	-0,427
46,984	4,104	-0,307	-0,157
47,999	161,148	-0,291	-0,286
49,013	85,542	-0,335	-0,258
50,028	39,029	-0,257	-0,161
51,042	80,730	-0,297	-0,224
52,057	216,683	-0,256	-0,287
53,071	74,240	-0,317	-0,233
54,086	-73,596	-0,347	-0,088
55,101	-168,296	-0,380	-0,010
56,115	255,073	-0,314	-0,378
57,130	-9,587	-0,327	-0,153
58,144	67,733	-0,382	-0,274
59,159	249,533	-0,362	-0,431
60,174	85,260	-0,409	-0,315
61,188	128,421	-0,265	-0,236
62,203	110,690	-0,311	-0,262
63,217	61,717	-0,295	-0,206
64,232	12,606	-0,319	-0,172
65,247	-23,804	-0,396	-0,166
66,261	-28,625	-0,238	-0,096
67,276	67,351	-0,369	-0,263
68,290	-34,397	-0,285	-0,109
69,305	364,727	-0,214	-0,303
70,320	142,221	-0,172	-0,160
71,334	68,315	-0,242	-0,174
72,349	-103,693	-0,404	0,066
73,363	68,754	-0,373	-0,268
74,378	50,991	-0,350	-0,232
75,393	-10,743	-0,326	-0,150
76,407	14,548	-0,306	-0,167
77,422	104,064	-0,257	-0,211
78,436	147,705	-0,180	-0,170
79,451	224,572	-0,164	-0,186
80,466	-17,175	-0,390	-0,171
81,480	-7,015	-0,349	-0,165
82,495	-84,840	-0,346	-0,075
83,509	-18,098	-0,349	-0,152
84,524	22,080	-0,320	-0,182
85,539	35,252	-0,260	-0,159
86,553	34,352	-0,282	-0,172
87,568	126,902	-0,257	-0,228
88,582	-14,629	-0,427	-0,191
89,597	-0,851	-0,366	-0,181
90,611	137,172	-0,268	-0,246
91,626	194,597	-0,169	-0,180
92,641	-17,273	-0,401	-0,176
93,655	244,481	-0,200	-0,235
94,670	108,910	-0,332	-0,278
95,684	800,000	-0,130	-0,281
96,699	5,272	-0,261	-0,134
97,714	291,255	-0,251	-0,320
98,728	134,284	-0,274	-0,248
99,743	121,926	-0,229	-0,199
100,757	177,471	-0,225	-0,230
101,772	358,548	-0,197	-0,276
102,787	64,854	-0,363	-0,256
103,801	324,515	-0,135	-0,180
104,816	77,782	-0,322	-0,239
105,830	-3,099	-0,222	-0,108
106,845	95,434	-0,139	-0,110
107,860	25,771	-0,291	-0,169
108,874	771,622	-0,161	-0,309
109,889	-61,753	-0,342	-0,099
110,903	417,462	-0,130	-0,195
111,918	139,307	-0,152	-0,139
112,933	800,000	-0,160	-0,311
113,947	-198,175	-0,146	-0,001
114,962	-43,120	-0,221	-0,078
115,976	16,747	-0,245	-0,135
116,991	179,742	-0,294	-0,301
118,006	191,229	-0,244	-0,256
119,020	0,682	-0,301	-0,150
120,035	25,307	-0,237	-0,137
121,049	351,047	-0,174	-0,241
122,064	36,789	-0,296	-0,182
123,079	1,816	-0,206	-0,103
124,093	112,746	-0,253	-0,213
125,108	20,036	-0,224	-0,126
126,122	132,588	-0,275	-0,247
127,137	570,811	-0,110	-0,188
128,151	89,140	-0,209	-0,162
129,166	14,300	-0,235	-0,128
130,181	57,388	-0,254	-0,172
131,195	270,571	-0,204	-0,250
132,210	-67,647	-0,337	-0,091
133,224	90,438	-0,295	-0,230
134,239	192,325	-0,209	-0,220
135,254	800,000	-0,073	-0,208
136,268	-1,340	-0,233	-0,114
137,283	444,536	-0,082	-0,125
138,297	-65,607	-0,367	-0,102
139,312	311,452	-0,164	-0,215
140,327	212,742	-0,235	-0,259
141,341	-7,369	-0,201	-0,095
142,356	101,995	-0,338	-0,275
143,370	204,470	-0,250	-0,270
144,385	260,152	-0,242	-0,292
145,400	8,713	-0,290	-0,152
146,414	501,318	-0,193	-0,311
147,429	262,838	-0,281	-0,341
148,443	125,340	-0,158	-0,139
149,458	-77,601	-0,229	-0,055
150,473	17,718	-0,165	-0,091
151,487	-164,085	-0,235	0,007
152,502	68,522	-0,246	-0,175
153,516	25,651	-0,373	-0,216
154,531	151,467	-0,306	-0,290
155,546	-200,000	-0,068	-0,267
156,560	107,369	-0,280	-0,232
157,575	-46,626	-0,141	-0,048
158,589	47,839	-0,133	-0,086
159,604	-155,573	-0,276	-0,012
160,619	131,343	-0,166	-0,149
161,633	114,320	-0,328	-0,278
162,648	321,480	-0,139	-0,184
163,662	147,819	-0,213	-0,200
164,677	379,068	-0,180	-0,258
165,692	-1,549	-0,223	-0,109
166,706	-79,220	-0,219	-0,051
167,721	93,187	-0,180	-0,142
168,735	87,326	-0,250	-0,192
169,750	57,558	-0,365	-0,248
170,764	-95,259	-0,191	0,035
171,779	21,219	-0,239	-0,134
172,794	232,253	-0,230	-0,263
173,808	241,433	-0,209	-0,242
174,823	-61,876	-0,333	-0,096
175,837	-80,671	-0,306	-0,070
176,852	90,070	-0,202	-0,156
177,867	66,451	-0,307	-0,216
178,881	-128,991	-0,151	0,015
179,896	291,132	-0,158	-0,199
180,910	604,020	-0,165	-0,287
181,925	81,000	-0,303	-0,227
182,940	57,640	-0,246	-0,166
183,954	95,144	-0,154	-0,122
184,969	75,379	-0,265	-0,194
185,983	-82,609	-0,181	-0,040
186,998	121,931	-0,187	-0,162
188,013	99,937	-0,193	-0,155
189,027	148,144	-0,237	-0,222
190,042	122,867	-0,294	-0,255
191,056	106,046	-0,195	-0,160
192,071	141,471	-0,169	-0,155
193,086	428,895	-0,105	-0,159
194,100	257,217	-0,190	-0,227
195,115	-47,400	-0,125	-0,042
196,129	-21,663	-0,193	-0,081
197,144	-200,000	-0,029	-0,165
198,159	39,264	-0,168	-0,104
199,173	236,190	-0,177	-0,204
200,188	-7,603	-0,249	-0,116
201,202	-97,191	-0,212	-0,038
202,217	-25,953	-0,333	-0,135
203,232	800,000	-0,170	-0,340
204,246	352,009	-0,153	-0,211
205,261	-75,167	-0,284	-0,070
206,275	-10,781	-0,193	-0,088
207,290	91,238	-0,223	-0,173
208,304	40,180	-0,180	-0,112
209,319	83,919	-0,152	-0,115
210,334	-40,701	-0,255	-0,091
211,348	221,865	-0,157	-0,175
212,363	251,635	-0,207	-0,244
213,377	155,521	-0,198	-0,189
214,392	625,676	-0,074	-0,131
215,407	158,712	-0,112	-0,107
216,421	318,955	-0,069	-0,091
217,436	-64,282	-0,206	-0,058
218,450	-63,502	-0,205	-0,058
219,465	-13,859	-0,202	-0,090
220,480	607,259	-0,101	-0,175
221,494	187,262	-0,078	-0,080
222,509	338,465	-0,172	-0,232
223,523	524,494	-0,114	-0,186
224,538	79,547	-0,172	-0,128
225,553	291,666	-0,222	-0,280
226,567	-21,839	-0,189	-0,079
227,582	-4,199	-0,233	-0,111
228,596	-200,000	-0,018	-0,103
229,611	-200,000	-0,052	-0,225
230,626	214,588	-0,091	-0,100
231,640	12,494	-0,213	-0,113
232,655	-186,385	-0,259	-0,003
233,669	-5,932	-0,217	-0,102
234,684	68,135	-0,237	-0,167
235,699	800,000	-0,108	-0,226
236,713	173,386	-0,084	-0,084
237,728	-40,935	-0,245	-0,087
238,742	295,965	-0,109	-0,139
239,757	0,878	-0,280	-0,138
240,772	-13,606	-0,151	-0,067
241,786	27,837	-0,167	-0,097
242,801	83,046	-0,124	-0,093
243,815	-88,629	-0,181	-0,037
244,830	94,501	-0,189	-0,148
245,844	800,000	-0,079	-0,231
246,859	221,068	-0,186	-0,207
247,874	166,272	-0,226	-0,221
248,888	122,666	-0,277	-0,239
249,903	405,840	-0,089	-0,131
250,917	77,845	-0,146	-0,108
251,932	28,680	-0,182	-0,106
252,947	26,264	-0,146	-0,084
253,961	139,024	-0,123	-0,111
254,976	35,853	-0,224	-0,135
255,990	22,193	-0,228	-0,128
257,005	608,887	-0,100	-0,172
258,020	-159,433	-0,256	0,010
259,034	-200,000	-0,015	-0,094
260,049	-76,668	-0,145	-0,035
261,063	287,933	-0,196	-0,246
262,078	-37,478	-0,254	-0,093
263,093	99,093	-0,150	-0,120
264,107	134,536	-0,112	-0,100
265,122	176,914	-0,226	-0,227
266,136	-86,400	-0,072	-0,015
267,151	-49,712	-0,183	0,060
268,166	-22,533	-0,215	-0,089
269,180	67,373	-0,232	-0,163
270,195	156,902	-0,201	-0,191
271,209	34,398	-0,146	-0,087
272,224	342,613	-0,118	-0,160
273,239	-91,300	-0,203	-0,040
274,253	-68,599	-0,188	-0,050
275,268	292,686	-0,138	-0,173
276,282	22,334	-0,257	-0,144
277,297	-54,903	-0,238	-0,074
278,312	72,982	-0,211	-0,151
279,326	287,274	-0,105	-0,131
280,341	73,227	-0,105	-0,075
281,355	800,000	-0,081	-0,228
282,370	237,286	-0,191	-0,218
283,384	-58,393	-0,145	-0,043
284,399	131,826	-0,105	-0,093
285,414	-200,000	-0,039	-0,123
286,428	135,221	-0,171	-0,152
287,443	24,418	-0,161	-0,092
288,457	-50,191	-0,290	-0,094
289,472	246,689	-0,091	-0,106
290,487	-153,485	-0,200	0,009
291,501	53,779	-0,234	-0,154
292,516	-119,884	-0,112	-0,013
293,530	-57,300	-0,152	-0,046
294,545	-56,296	-0,145	-0,044
295,560	-200,000	0,016	-0,185
296,574	-100,289	-0,172	0,029
297,589	169,838	-0,121	-0,119
298,603	-96,791	-0,253	-0,045
299,618	-4,182	-0,114	-0,054
300,633	231,883	-0,157	-0,177
301,647	217,208	-0,167	-0,183
302,662	-63,553	-0,218	0,061
303,676	-83,062	-0,131	-0,029
304,691	645,657	-0,105	-0,185
305,706	45,471	-0,146	-0,092
306,720	-80,806	-0,230	-0,052
307,735	216,205	-0,086	-0,094
308,749	-30,529	-0,106	-0,041
309,764	36,589	-0,103	-0,063
310,779	-200,000	-0,059	-0,192
311,793	419,225	-0,145	-0,214
312,808	800,000	-0,107	-0,240
313,822	-60,982	-0,264	-0,076
314,837	72,810	-0,108	-0,077
315,852	-35,711	-0,144	-0,053
316,866	-200,000	-0,025	-0,159
317,881	-63,752	-0,174	-0,049
318,895	231,046	-0,145	-0,163
319,910	51,263	-0,232	-0,151
320,925	667,090	-0,097	-0,172
321,939	-69,940	-0,102	-0,027
322,954	28,541	-0,171	-0,099
323,968	-30,752	0,050	-0,019
324,983	800,000	-0,074	-0,151
325,997	-74,851	-0,138	-0,034
327,012	-78,989	-0,219	-0,051
328,027	-19,112	-0,195	-0,083
329,041	-25,170	-0,254	-0,103
330,056	-120,576	-0,170	-0,019
331,070	159,086	-0,148	-0,141
332,085	28,643	-0,179	-0,104
333,100	-119,766	-0,123	-0,014
334,114	-44,058	-0,202	-0,069
335,129	199,986	-0,172	-0,182
336,143	-31,466	-0,189	-0,072
337,158	356,302	-0,145	-0,198
338,173	-3,893	-0,196	-0,093
339,187	-98,650	-0,106	-0,018
340,202	-182,673	-0,162	-0,002
341,216	800,000	-0,109	-0,210
342,231	460,994	-0,197	-0,302
343,246	595,439	-0,179	-0,305
344,260	405,817	-0,074	-0,107
345,275	32,617	-0,119	-0,070
346,289	-88,292	-0,148	-0,030
347,304	-200,000	-0,014	-0,053
348,319	631,060	-0,048	-0,083
349,333	-4,901	-0,157	-0,074
350,348	65,956	-0,149	-0,103
351,362	-200,000	0,018	-0,067
352,377	373,074	-0,069	-0,097
353,392	-200,000	-0,039	-0,153
354,406	-98,305	-0,137	-0,024
355,421	207,713	1305,529	1395,091
356,435	159,802	1465,091	1395,567
