DTS Sentinel unit serial number:	SN410029Multiplexer serial number:	ORYXHardware model number:	OX2-SRSoftware version number:	ORYX F/W v4,00 Oryx Data Collector v3.7.2.0data status	okinstallation	B3 Nyhavnadifferential loss correction	single-endedforward channel	channel 1reverse channel	N/Adate	2023/12/03time	00:32:30forward acquisition time	300,00reverse acquisition time	0,00gamma	499,1914k internal	0,3201k external	0,3201temperature offset calibration	1,0000default loss term (dB/km)	0,3820temperature slope calibration	1,0000multiplexer offset coefficient	1,0000multiplexer slope coefficient	1,0000fibre end	0,00T internal ref (°C)	13,31T ext. ref 1 (°C)	-1,63T ext. ref 2 (°C)	-1,63length (m)	temperature (°C)	Stokes	anti-Stokes-744,400	800,000	-0,117	-0,268
-743,385	-200,000	0,026	0,288
-742,371	1,304	-0,138	-0,072
-741,356	-200,000	0,056	0,274
-740,342	128,300	-0,245	-0,227
-739,327	-200,000	-0,027	0,426
-738,312	800,000	-0,109	-0,223
-737,298	-200,000	-0,063	0,206
-736,283	39,507	-0,209	-0,136
-735,269	-200,000	0,005	0,343
-734,254	8,707	-0,164	-0,090
-733,239	-127,052	-0,220	-0,023
-732,225	307,380	-0,200	-0,271
-731,210	-44,162	-0,050	0,018
-730,196	-63,876	0,190	0,056
-729,181	800,000	0,012	0,024
-728,167	-124,015	0,089	-0,010
-727,152	178,087	-0,040	-0,043
-726,137	-137,344	0,028	-0,002
-725,123	-97,096	-0,093	-0,017
-724,108	275,690	-0,106	-0,137
-723,094	-200,000	-0,019	0,085
-722,079	22,539	-0,158	0,094
-721,064	800,000	-0,044	0,110
-720,050	-200,000	-0,001	-0,081
-719,035	-200,000	-0,019	0,080
-718,021	5,001	-0,063	0,034
-717,006	-200,000	-0,018	0,163
-715,991	493,752	-0,057	-0,096
-714,977	-31,439	0,075	0,030
-713,962	-32,674	-0,052	-0,021
-712,948	-200,000	0,022	-0,113
-711,933	385,700	0,127	-0,191
-710,918	-56,617	0,091	0,029
-709,904	-122,004	-0,161	0,019
-708,889	-200,000	0,026	-0,144
-707,875	-61,745	-0,055	-0,017
-706,860	83,011	0,127	0,100
-705,845	-72,916	-0,034	0,009
-704,831	787,960	0,079	0,159
-703,816	-146,164	-0,047	0,003
-702,802	800,000	-0,044	-0,098
-701,787	149,688	-0,113	-0,111
-700,772	-193,138	-0,090	0,001
-699,758	-37,619	0,093	0,036
-698,743	309,419	0,137	0,186
-697,729	-200,000	-0,001	0,081
-696,714	-153,023	-0,082	0,004
-695,699	553,644	-0,047	-0,082
-694,685	-200,000	-0,004	0,076
-693,670	80,328	-0,067	-0,052
-692,656	122,109	0,113	-0,103
-691,641	800,000	0,014	-0,037
-690,627	109,670	-0,044	0,038
-689,612	119,978	-0,058	-0,052
-688,597	132,264	0,066	-0,061
-687,583	-200,000	-0,009	-0,105
-686,568	717,541	-0,002	-0,004
-685,554	-200,000	-0,005	0,017
-684,539	-133,665	-0,055	0,005
-683,524	-200,000	0,010	-0,109
-682,510	-59,564	-0,015	0,005
-681,495	-200,000	-0,032	-0,178
-680,481	-123,597	0,031	-0,004
-679,466	-143,266	-0,090	-0,006
-678,451	68,251	0,104	0,077
-677,437	178,766	0,068	0,072
-676,422	800,000	0,036	0,080
-675,408	-46,353	-0,062	-0,022
-674,393	-65,479	-0,027	-0,008
-673,378	-200,000	0,005	-0,088
-672,364	-153,047	-0,079	-0,004
-671,349	-94,993	-0,174	-0,034
-670,335	11,732	0,113	0,063
-669,320	143,940	0,036	0,034
-668,305	154,118	-0,086	0,085
-667,291	800,000	-0,054	0,130
-666,276	604,659	-0,068	0,124
-665,262	278,637	-0,036	-0,047
-664,247	800,000	-0,048	0,119
-663,232	-162,720	-0,132	0,005
-662,218	800,000	0,048	-0,111
-661,203	8,782	-0,086	0,047
-660,189	244,928	0,068	0,084
-659,174	-200,000	-0,026	-0,131
-658,159	265,031	-0,062	-0,079
-657,145	238,280	0,052	0,063
-656,130	800,000	-0,073	-0,150
-655,116	-131,773	0,057	-0,005
-654,101	760,209	0,061	0,121
-653,086	-200,000	-0,038	-0,198
-652,072	-200,000	0,023	-0,080
-651,057	80,317	-0,083	0,065
-650,043	-78,413	-0,022	-0,005
-649,028	800,000	-0,056	0,128
-648,014	-56,223	0,070	0,022
-646,999	179,461	0,105	-0,112
-645,984	-200,000	0,008	0,071
-644,970	446,372	-0,029	0,046
-643,955	144,845	-0,157	-0,152
-642,941	-66,287	-0,157	-0,045
-641,926	-105,885	-0,108	0,017
-640,911	120,459	0,075	-0,068
-639,897	-76,803	0,051	-0,013
-638,882	236,877	-0,065	0,078
-637,868	800,000	-0,062	-0,134
-636,853	164,426	-0,137	-0,140
-635,838	67,235	-0,059	-0,043
-634,824	136,721	-0,080	0,076
-633,809	-19,480	0,060	0,027
-632,795	774,443	0,052	0,103
-631,780	800,000	-0,027	0,062
-630,765	-140,921	0,045	0,003
-629,751	-200,000	-0,021	-0,216
-628,736	800,000	-0,054	-0,138
-627,722	800,000	0,048	-0,099
-626,707	799,256	0,044	-0,087
-625,692	125,447	-0,040	0,036
-624,678	800,000	0,062	0,137
-623,663	14,797	0,084	0,047
-622,649	-141,005	-0,151	-0,011
-621,634	-23,398	-0,075	0,033
-620,619	-200,000	0,015	-0,056
-619,605	161,202	0,118	-0,120
-618,590	562,573	-0,036	-0,063
-617,576	-8,660	0,025	0,012
-616,561	-200,000	-0,020	0,256
-615,546	-30,144	0,061	0,025
-614,532	120,433	-0,074	-0,066
-613,517	-63,184	0,002	0,001
-612,503	-107,706	-0,030	-0,005
-611,488	-200,000	-0,031	-0,138
-610,474	-47,656	0,080	-0,028
-609,459	36,044	0,048	0,030
-608,444	-16,806	-0,128	-0,058
-607,430	186,626	-0,036	-0,038
-606,415	19,785	-0,106	-0,062
-605,401	-152,427	0,021	-0,001
-604,386	287,767	0,078	0,103
-603,371	-144,645	0,158	0,010
-602,357	800,000	0,032	-0,065
-601,342	-184,704	-0,060	0,001
-600,328	-200,000	0,003	-0,110
-599,313	409,031	-0,031	-0,048
-598,298	58,120	0,079	0,056
-597,284	-129,667	0,109	0,011
-596,269	-146,060	0,138	-0,009
-595,255	40,203	-0,053	0,035
-594,240	-200,000	-0,007	0,033
-593,225	-200,000	-0,040	0,153
-592,211	-66,300	-0,264	-0,075
-591,196	-200,000	0,029	0,112
-590,182	-200,000	-0,002	-0,134
-589,167	19,247	0,115	0,067
-588,152	800,000	0,050	0,142
-587,138	647,084	-0,025	-0,046
-586,123	166,791	-0,049	-0,050
-585,109	-127,632	-0,071	-0,007
-584,094	-44,658	-0,039	-0,014
-583,079	-110,954	-0,077	0,011
-582,065	-38,162	0,051	0,019
-581,050	478,003	0,087	0,142
-580,036	-19,747	0,123	-0,055
-579,021	-200,000	-0,019	0,062
-578,006	-61,380	-0,037	0,011
-576,992	290,986	0,038	0,050
-575,977	-150,716	-0,063	-0,003
-574,963	-124,355	-0,042	-0,005
-573,948	275,740	0,114	0,146
-572,934	-128,041	0,054	0,006
-571,919	53,050	0,039	-0,027
-570,904	-62,847	-0,068	0,020
-569,890	-9,343	0,133	-0,064
-568,875	-93,797	0,071	-0,014
-567,861	-200,000	-0,023	0,086
-566,846	414,141	0,023	-0,036
-565,831	-95,029	0,041	0,008
-564,817	-200,000	0,032	0,113
-563,802	-14,014	-0,094	-0,044
-562,788	91,922	-0,146	-0,118
-561,773	170,051	0,026	-0,027
-560,758	-28,216	0,071	0,029
-559,744	-200,000	0,001	-0,050
-558,729	-143,487	-0,047	0,003
-557,715	8,702	-0,065	-0,035
-556,700	-200,000	-0,021	-0,076
-555,685	-90,510	-0,055	-0,011
-554,671	-121,960	0,044	0,005
-553,656	46,572	0,058	-0,039
-552,642	800,000	0,085	0,180
-551,627	-93,573	-0,122	0,024
-550,612	211,082	0,070	-0,080
-549,598	674,028	-0,041	0,077
-548,583	143,226	0,046	0,045
-547,569	-24,355	0,183	-0,078
-546,554	-200,000	-0,029	-0,107
-545,539	258,317	0,086	0,108
-544,525	-200,000	0,031	-0,121
-543,510	-1,729	-0,156	0,079
-542,496	379,431	-0,035	-0,052
-541,481	-70,196	-0,158	0,043
-540,466	-105,398	0,062	-0,010
-539,452	-200,000	-0,026	0,195
-538,437	-102,108	0,115	0,020
-537,423	-200,000	-0,016	0,055
-536,408	203,252	0,122	-0,136
-535,393	800,000	0,046	-0,128
-534,379	172,870	-0,085	0,088
-533,364	-78,983	0,087	0,021
-532,350	72,808	0,068	0,051
-531,335	623,611	0,048	0,088
-530,321	739,200	0,069	-0,134
-529,306	800,000	0,028	0,060
-528,291	138,364	-0,048	0,045
-527,277	-57,361	-0,066	-0,021
-526,262	-6,446	0,051	-0,025
-525,248	298,460	-0,090	0,119
-524,233	279,964	-0,069	0,089
-523,218	800,000	0,015	-0,045
-522,204	121,716	0,077	0,069
-521,189	772,310	0,044	-0,086
-520,175	-200,000	-0,007	0,089
-519,160	1,854	-0,061	0,032
-518,145	39,125	0,035	0,022
-517,131	-34,372	-0,080	0,031
-516,116	-200,000	-0,030	0,130
-515,102	-169,341	-0,048	0,001
-514,087	-82,464	0,088	-0,020
-513,072	-200,000	-0,012	-0,170
-512,058	-139,336	0,042	-0,003
-511,043	-200,000	0,003	-0,119
-510,029	-200,000	-0,009	0,082
-509,014	-145,142	0,155	-0,010
-507,999	455,659	-0,025	0,041
-506,985	-200,000	0,017	-0,092
-505,970	627,464	0,021	-0,039
-504,956	-113,130	-0,050	0,007
-503,941	-154,262	0,074	-0,004
-502,926	-130,768	-0,026	0,002
-501,912	71,329	0,127	0,095
-500,897	38,182	0,088	0,056
-499,883	-115,003	-0,134	-0,018
-498,868	-92,603	-0,092	0,018
-497,853	-85,558	-0,164	-0,036
-496,839	-200,000	0,002	0,040
-495,824	-66,617	-0,041	-0,012
-494,810	284,299	0,020	0,026
-493,795	-67,744	-0,024	0,007
-492,781	-178,213	-0,121	0,002
-491,766	-49,960	-0,059	-0,020
-490,751	118,204	-0,048	0,043
-489,737	-134,245	-0,088	0,008
-488,722	-91,508	0,148	-0,030
-487,708	514,770	-0,027	-0,046
-486,693	75,424	-0,191	-0,145
-485,678	-200,000	-0,010	-0,077
-484,664	567,041	-0,086	-0,151
-483,649	-87,625	-0,098	-0,021
-482,635	14,158	-0,030	-0,017
-481,620	-29,130	0,077	-0,032
-480,605	-74,925	0,028	-0,007
-479,591	-117,083	0,031	0,004
-478,576	360,333	0,052	0,075
-477,562	-200,000	0,007	-0,078
-476,547	146,758	0,043	0,041
-475,532	271,538	0,060	0,076
-474,518	-23,428	0,075	0,032
-473,503	65,492	0,048	0,035
-472,489	800,000	-0,015	-0,036
-471,474	-200,000	0,004	0,062
-470,459	-200,000	-0,002	0,088
-469,445	800,000	-0,033	0,074
-468,430	-200,000	0,004	0,037
-467,416	-7,877	-0,075	0,036
-466,401	-0,279	0,213	0,109
-465,386	173,009	-0,090	0,093
-464,372	-198,365	-0,070	0,000
-463,357	800,000	-0,019	0,040
-462,343	800,000	-0,028	-0,061
-461,328	21,391	-0,083	-0,049
-460,313	294,204	0,064	0,085
-459,299	-86,371	-0,033	-0,007
-458,284	800,000	-0,048	0,104
-457,270	97,720	-0,178	0,147
-456,255	2,625	0,099	0,051
-455,241	-200,000	-0,008	-0,039
-454,226	-91,604	-0,045	-0,009
-453,211	189,333	0,047	0,051
-452,197	800,000	-0,020	-0,051
-451,182	-200,000	0,011	0,112
-450,168	72,726	-0,098	-0,074
-449,153	-200,000	0,016	-0,055
-448,138	800,000	-0,019	0,042
-447,124	32,686	-0,063	0,039
-446,109	526,676	-0,067	-0,115
-445,095	103,880	0,059	0,050
-444,080	508,786	-0,048	0,080
-443,065	800,000	0,033	0,098
-442,051	604,697	-0,050	0,090
-441,036	-200,000	-0,006	-0,064
-440,022	800,000	0,063	-0,137
-439,007	588,784	-0,076	-0,136
-437,992	18,724	0,065	-0,037
-436,978	-30,603	0,072	0,029
-435,963	88,448	-0,035	0,028
-434,949	-22,235	-0,037	0,016
-433,934	-7,197	0,142	0,069
-432,919	-43,098	-0,038	-0,014
-431,905	-52,470	-0,137	-0,045
-430,890	-124,754	0,098	-0,011
-429,876	84,512	0,056	0,044
-428,861	-200,000	-0,013	0,168
-427,846	-156,987	-0,034	-0,001
-426,832	124,154	-0,136	-0,123
-425,817	-200,000	-0,024	-0,118
-424,803	-77,572	-0,091	0,022
-423,788	-200,000	0,017	-0,069
-422,773	-200,000	-0,012	-0,066
-421,759	-200,000	0,004	0,056
-420,744	-67,149	0,134	-0,038
-419,730	607,224	-0,052	0,093
-418,715	-200,000	-0,012	-0,039
-417,701	800,000	-0,032	-0,070
-416,686	800,000	-0,038	0,086
-415,671	-112,014	-0,096	0,014
-414,657	-31,516	-0,117	-0,047
-413,642	212,140	-0,047	-0,053
-412,628	-200,000	-0,008	-0,186
-411,613	-49,803	-0,060	-0,020
-410,598	-61,572	0,073	0,022
-409,584	-65,025	-0,094	-0,027
-408,569	-56,732	0,104	0,033
-407,555	800,000	0,037	0,113
-406,540	-121,404	0,084	-0,010
-405,525	-11,536	-0,072	-0,034
-404,511	372,384	-0,065	0,095
-403,496	-159,048	0,094	0,004
-402,482	638,979	-0,057	0,104
-401,467	761,336	0,039	0,076
-400,452	157,664	-0,062	-0,062
-399,438	-200,000	0,025	0,098
-398,423	-26,521	0,056	0,023
-397,409	-93,015	0,103	-0,020
-396,394	90,732	0,042	-0,034
-395,379	141,901	-0,047	-0,045
-394,365	-120,641	0,056	-0,007
-393,350	-29,697	0,067	0,027
-392,336	487,682	-0,056	0,091
-391,321	-75,667	0,114	0,029
-390,306	-43,619	-0,047	0,017
-389,292	-23,224	-0,066	-0,028
-388,277	-29,795	0,115	0,047
-387,263	800,000	-0,025	0,060
-386,248	186,967	0,067	0,071
-385,233	800,000	0,033	-0,096
-384,219	-35,452	0,062	-0,024
-383,204	-94,191	-0,138	-0,027
-382,190	156,748	0,115	-0,114
-381,175	-117,133	-0,103	0,013
-380,160	36,627	0,085	-0,053
-379,146	-200,000	0,015	-0,062
-378,131	-9,203	0,050	0,024
-377,117	800,000	-0,050	-0,115
-376,102	-75,318	-0,050	-0,013
-375,088	-200,000	-0,004	0,095
-374,073	76,576	-0,090	-0,068
-373,058	-81,479	0,077	-0,018
-372,044	-200,000	-0,110	-0,000
-371,029	337,156	0,022	0,031
-370,015	9,968	0,112	0,061
-369,000	385,667	-0,051	0,075
-367,985	-46,702	0,040	-0,014
-366,971	15,091	-0,004	-0,002
-365,956	39,297	-0,029	-0,019
-364,942	-200,000	0,009	-0,095
-363,927	800,000	0,011	0,023
-362,912	749,738	0,069	-0,134
-361,898	800,000	0,019	0,044
-360,883	99,695	-0,042	0,035
-359,869	-200,000	-0,013	-0,124
-358,854	75,008	0,157	-0,119
-357,839	615,682	0,008	-0,015
-356,825	800,000	-0,022	-0,052
-355,810	748,373	-0,061	0,118
-354,796	467,152	0,054	0,087
-353,781	800,000	-0,023	-0,057
-352,766	-77,076	0,220	0,054
-351,752	800,000	0,013	0,037
-350,737	-42,073	0,099	0,036
-349,723	740,675	-0,065	0,126
-348,708	800,000	0,051	0,103
-347,693	465,764	-0,036	0,057
-346,679	-75,551	-0,085	0,021
-345,664	-137,416	0,055	-0,004
-344,650	-103,150	0,107	0,018
-343,635	-5,911	0,057	-0,028
-342,620	-104,861	0,143	-0,023
-341,606	-0,463	0,060	0,030
-340,591	-200,000	0,005	-0,051
-339,577	-26,167	-0,146	-0,061
-338,562	11,513	-0,053	-0,029
-337,548	468,257	0,009	0,014
-336,533	44,546	-0,065	-0,043
-335,518	265,814	-0,020	0,025
-334,504	-142,247	0,174	0,012
-333,489	-168,228	-0,067	-0,002
-332,475	-200,000	0,001	-0,032
-331,460	-80,279	-0,159	-0,038
-330,445	21,567	0,121	-0,070
-329,431	-200,000	-0,003	-0,059
-328,416	151,188	0,049	0,048
-327,402	102,939	-0,064	0,053
-326,387	-3,734	0,128	0,063
-325,372	343,824	-0,044	-0,061
-324,358	216,991	-0,047	-0,054
-323,343	151,957	-0,119	-0,116
-322,329	-200,000	0,004	0,019
-321,314	71,505	0,102	0,076
-320,299	716,667	0,096	0,182
-319,285	-92,498	0,164	0,033
-318,270	6,072	-0,145	0,077
-317,256	-200,000	-0,007	0,063
-316,241	241,226	0,043	-0,051
-315,226	-184,112	0,077	0,001
-314,212	-115,950	0,144	0,019
-313,197	128,126	0,044	0,040
-312,183	-200,000	-0,002	-0,022
-311,168	-57,224	-0,033	-0,010
-310,153	306,861	-0,055	-0,073
-309,139	128,992	-0,076	0,069
-308,124	-200,000	-0,024	0,255
-307,110	-125,524	0,184	-0,020
-306,095	800,000	0,039	0,087
-305,080	800,000	0,056	0,160
-304,066	-36,586	-0,016	-0,006
-303,051	-200,000	-0,008	-0,097
-302,037	296,916	0,068	-0,089
-301,022	-41,042	-0,075	-0,028
-300,008	-200,000	0,003	0,178
-298,993	-16,841	0,073	0,033
-297,978	-200,000	-0,026	-0,116
-296,964	39,514	-0,048	0,030
-295,949	0,806	0,125	-0,064
-294,935	139,973	0,038	-0,036
-293,920	-76,863	0,051	-0,013
-292,905	-200,000	0,017	0,063
-291,891	133,868	0,060	0,056
-290,876	241,936	-0,052	0,063
-289,862	-102,144	-0,064	0,011
-288,847	-154,573	-0,033	0,002
-287,832	169,452	-0,096	-0,098
-286,818	-200,000	0,002	-0,079
-285,803	-200,000	0,017	0,060
-284,789	800,000	-0,015	0,043
-283,774	-124,177	0,015	-0,002
-282,759	119,738	-0,031	-0,028
-281,745	-200,000	-0,006	-0,175
-280,730	-4,989	-0,068	-0,033
-279,716	-200,000	-0,010	-0,071
-278,701	-200,000	0,001	-0,136
-277,686	444,317	0,040	0,064
-276,672	800,000	0,048	-0,107
-275,657	100,544	0,046	0,038
-274,643	-152,880	-0,085	0,004
-273,628	-200,000	-0,001	-0,012
-272,613	191,113	0,094	-0,101
-271,599	20,461	0,080	-0,046
-270,584	-200,000	-0,018	0,061
-269,570	146,652	-0,065	0,062
-268,555	298,500	-0,052	-0,068
-267,540	-200,000	-0,003	0,074
-266,526	-169,200	-0,091	-0,002
-265,511	359,298	-0,087	-0,125
-264,497	107,015	0,036	-0,030
-263,482	-70,182	-0,118	-0,032
-262,467	34,485	0,142	0,088
-261,453	122,657	-0,044	0,040
-260,438	-131,874	0,085	0,008
-259,424	251,791	-0,074	0,089
-258,409	280,014	-0,104	-0,133
-257,395	-26,024	0,129	-0,054
-256,380	446,405	0,034	0,054
-255,365	-200,000	0,009	0,201
-254,351	592,365	0,044	0,078
-253,336	239,185	0,053	0,063
-252,322	-200,000	-0,004	-0,097
-251,307	-200,000	0,009	-0,042
-250,292	-200,000	0,032	0,117
-249,278	800,000	0,031	0,066
-248,263	563,303	0,054	0,094
-247,249	126,167	0,039	0,036
-246,234	-200,000	-0,007	-0,118
-245,219	88,234	-0,094	-0,075
-244,205	173,005	-0,039	0,040
-243,190	800,000	0,076	-0,160
-242,176	-156,886	0,170	-0,007
-241,161	323,739	-0,062	0,085
-240,146	-200,000	0,012	0,113
-239,132	-186,336	-0,101	-0,001
-238,117	800,000	-0,036	-0,102
-237,103	-61,581	0,042	0,012
-236,088	703,098	0,047	0,089
-235,073	322,018	-0,040	0,054
-234,059	800,000	0,049	-0,120
-233,044	-200,000	-0,010	0,080
-232,030	10,020	0,067	0,036
-231,015	111,267	0,093	-0,080
-230,000	432,395	-0,068	-0,106
-228,986	-58,481	0,097	-0,030
-227,971	-200,000	-0,007	-0,042
-226,957	65,315	0,123	0,089
-225,942	800,000	0,045	0,122
-224,927	-47,447	-0,077	0,027
-223,913	-200,000	-0,002	-0,229
-222,898	-26,004	-0,069	0,029
-221,884	-200,000	0,001	-0,055
-220,869	486,430	-0,026	-0,042
-219,855	-28,554	-0,090	0,037
-218,840	122,623	0,032	-0,028
-217,825	521,416	-0,050	0,083
-216,811	707,750	0,029	-0,055
-215,796	-96,892	-0,120	-0,022
-214,782	-116,532	0,121	0,016
-213,767	-200,000	0,012	0,048
-212,752	800,000	-0,032	0,080
-211,738	800,000	-0,022	-0,063
-210,723	382,758	-0,079	-0,116
-209,709	-54,891	-0,017	-0,005
-208,694	-200,000	-0,003	-0,093
-207,679	359,594	0,076	-0,109
-206,665	-2,051	0,022	-0,011
-205,650	-48,255	0,036	-0,012
-204,636	-60,794	0,058	0,017
-203,621	231,523	0,051	0,060
-202,606	68,983	0,084	0,061
-201,592	-200,000	-0,012	-0,087
-200,577	9,393	-0,111	-0,059
-199,563	800,000	0,042	-0,112
-198,548	-16,075	-0,088	-0,040
-197,533	149,484	-0,054	0,052
-196,519	-38,008	0,120	-0,045
-195,504	254,026	0,050	-0,061
-194,490	398,681	-0,054	-0,081
-193,475	2,442	-0,161	-0,083
-192,460	-200,000	-0,024	-0,079
-191,446	-200,000	-0,009	0,073
-190,431	575,768	0,033	-0,057
-189,417	82,419	-0,037	0,029
-188,402	-200,000	0,013	0,134
-187,387	188,634	-0,072	-0,077
-186,373	-33,380	0,070	-0,027
-185,358	251,846	-0,014	-0,017
-184,344	-66,013	-0,101	0,028
-183,329	-26,636	0,055	0,023
-182,315	-200,000	0,012	-0,044
-181,300	748,021	-0,063	0,121
-180,285	-80,113	-0,006	-0,001
-179,271	-114,729	-0,126	-0,017
-178,256	58,707	-0,062	-0,043
-177,242	17,097	-0,044	-0,025
-176,227	-200,000	-0,002	0,055
-175,212	548,425	-0,028	-0,049
-174,198	-200,000	0,006	-0,057
-173,183	-200,000	-0,010	0,035
-172,169	-162,624	-0,159	0,005
-171,154	99,781	0,050	0,041
-170,139	-106,966	0,087	-0,014
-169,125	182,818	0,009	0,009
-168,110	-200,000	-0,018	0,098
-167,096	269,912	-0,107	0,134
-166,081	659,063	-0,039	-0,071
-165,066	27,942	0,090	0,054
-164,052	233,340	-0,077	-0,091
-163,037	-200,000	-0,005	-0,099
-162,023	-17,078	-0,070	0,031
-161,008	206,265	0,067	-0,074
-159,993	60,333	-0,037	-0,026
-158,979	-200,000	-0,013	-0,100
-157,964	-200,000	-0,028	0,118
-156,950	564,773	-0,010	0,018
-155,935	-33,469	0,059	0,023
-154,920	788,880	0,036	0,070
-153,906	-200,000	0,013	-0,078
-152,891	-200,000	-0,022	-0,069
-151,877	654,105	-0,026	-0,047
-150,862	800,000	-0,047	-0,122
-149,847	323,348	-0,141	0,192
-148,833	-26,088	0,103	0,043
-147,818	-43,971	-0,211	-0,075
-146,804	25,253	0,108	0,064
-145,789	-35,061	0,048	-0,019
-144,775	319,623	-0,026	0,035
-143,760	157,886	-0,103	-0,102
-142,745	794,842	0,054	-0,106
-141,731	135,202	-0,095	-0,088
-140,716	52,378	0,067	0,045
-139,702	800,000	-0,049	0,129
-138,687	-162,898	-0,111	-0,004
-137,672	406,615	0,069	-0,103
-136,658	215,979	0,099	-0,111
-135,643	-200,000	-0,029	-0,100
-134,629	51,721	-0,066	-0,045
-133,614	15,435	0,145	0,080
-132,599	7,032	0,141	0,074
-131,585	160,778	-0,070	0,070
-130,570	-200,000	-0,022	-0,166
-129,556	-58,967	-0,023	0,007
-128,541	800,000	0,030	0,071
-127,526	-200,000	0,018	-0,096
-126,512	666,148	0,057	0,104
-125,497	-56,355	0,013	-0,004
-124,483	-8,861	0,034	0,016
-123,468	-200,000	0,009	-0,069
-122,453	-165,343	-0,153	0,005
-121,439	-200,000	-0,010	-0,106
-120,424	125,305	0,084	0,076
-119,410	-200,000	-0,008	0,095
-118,395	19,907	0,126	-0,072
-117,380	-200,000	0,010	0,113
-116,366	119,239	0,213	0,187
-115,351	406,232	-0,087	0,131
-114,337	-104,997	-0,074	0,012
-113,322	139,121	0,032	-0,030
-112,307	90,314	0,024	-0,019
-111,293	162,589	-0,036	-0,036
-110,278	-120,641	0,124	0,015
-109,264	800,000	-0,074	0,187
-108,249	433,218	0,102	0,158
-107,234	-127,821	-0,084	0,008
-106,220	-200,000	0,023	-0,190
-105,205	-21,974	-0,103	0,044
-104,191	47,610	0,090	0,059
-103,176	-17,146	0,111	-0,049
-102,162	-98,943	-0,058	-0,010
-101,147	-200,000	-0,036	0,163
-100,132	-1,181	0,065	0,033
-99,118	733,196	-0,052	-0,099
-98,103	800,000	-0,092	-0,189
-97,089	800,000	-0,021	-0,050
-96,074	800,000	0,068	0,135
-95,059	430,678	0,044	-0,068
-94,045	-166,639	-0,147	0,004
-93,030	217,102	-0,064	-0,073
-92,016	-132,687	-0,221	0,020
-91,001	800,000	0,054	-0,112
-89,986	-63,015	-0,070	0,020
-88,972	-81,117	0,036	0,008
-87,957	477,366	-0,057	0,092
-86,943	-200,000	-0,017	-0,075
-85,928	366,261	0,003	-0,004
-84,913	521,748	-0,027	0,046
-83,899	800,000	0,051	0,113
-82,884	-200,000	-0,004	0,071
-81,870	386,414	0,110	0,162
-80,855	493,563	0,047	-0,076
-79,840	27,115	0,040	-0,024
-78,826	800,000	-0,024	-0,075
-77,811	-200,000	0,012	-0,052
-76,797	65,387	0,028	-0,020
-75,782	-82,064	0,110	-0,025
-74,767	111,840	0,054	-0,046
-73,753	595,532	0,027	-0,048
-72,738	-70,197	-0,059	0,016
-71,724	-200,000	-0,016	-0,107
-70,709	800,000	-0,047	-0,092
-69,694	38,449	-0,059	-0,037
-68,680	-4,445	-0,057	-0,028
-67,665	517,296	-0,097	0,162
-66,651	-42,292	0,084	0,030
-65,636	800,000	0,043	0,107
-64,622	-128,297	-0,081	0,008
-63,607	-67,627	0,091	-0,025
-62,592	222,971	-0,039	-0,045
-61,578	220,411	-0,070	0,079
-60,563	72,393	0,103	0,076
-59,549	-200,000	0,010	0,043
-58,534	-6,111	-1,556	-0,750
-57,519	422,114	-1,406	-2,144
-56,505	-200,000	-0,567	-4,636
-55,490	229,573	0,933	1,080
-54,476	800,000	4,949	11,524
-53,461	-200,000	19,286	320,026
-52,446	-200,000	740,721	2334,866
-51,432	573,776	1655,537	2869,650
-50,417	78,261	1671,077	1261,590
-49,403	21,311	1544,163	885,689
-48,388	15,201	1466,324	811,336
-47,373	17,934	1456,804	819,243
-46,359	16,703	1446,426	807,472
-45,344	13,491	1441,688	789,413
-44,330	13,366	1439,949	787,831
-43,315	13,374	1438,208	786,887
-42,300	13,411	1436,412	786,050
-41,286	13,362	1435,394	785,229
-40,271	13,358	1433,891	784,356
-39,257	13,351	1432,708	783,641
-38,242	13,424	1431,360	783,222
-37,227	13,383	1430,260	782,393
-36,213	13,439	1428,933	781,902
-35,198	13,390	1427,695	780,961
-34,184	13,476	1426,644	780,765
-33,169	13,402	1425,317	779,657
-32,154	13,418	1424,521	779,267
-31,140	13,450	1423,142	778,631
-30,125	13,435	1422,022	777,917
-29,111	13,453	1420,795	777,300
-28,096	13,427	1419,733	776,564
-27,082	13,341	1418,653	775,538
-26,067	13,301	1417,793	774,846
-25,052	13,335	1416,502	774,272
-24,038	13,302	1415,657	773,623
-23,023	13,325	1414,448	773,043
-22,009	13,299	1413,588	772,416
-20,994	13,287	1412,752	771,875
-19,979	13,311	1411,738	771,403
-18,965	13,304	1410,754	770,801
-17,950	13,273	1409,889	770,153
-16,936	13,250	1409,041	769,553
-15,921	13,243	1407,668	768,739
-14,906	13,257	1406,912	768,360
-13,892	13,260	1406,025	767,860
-12,877	13,276	1405,219	767,464
-11,863	13,228	1404,256	766,681
-10,848	13,245	1403,341	766,234
-9,833	13,222	1402,333	765,545
-8,819	13,182	1401,539	764,895
-7,804	13,120	1400,906	764,231
-6,790	13,161	1399,713	763,739
-5,775	13,188	1398,366	763,100
-4,760	13,190	1397,608	762,666
-3,746	13,186	1396,585	762,058
-2,731	13,179	1395,987	761,668
-1,717	13,094	1395,063	760,743
-0,702	13,117	1393,346	759,882
0,313	17,025	1309,999	732,508
1,327	33,295	703,761	431,118
2,342	51,250	123,327	82,670
3,356	0,448	16,627	8,375
4,371	6,993	3,339	1,755
5,386	1,228	0,560	0,283
6,400	800,000	0,081	0,161
7,415	127,513	-0,326	-0,293
8,429	76,380	-0,315	-0,236
9,444	-16,574	-0,118	-0,053
10,459	72,045	-0,343	-0,252
11,473	56,131	-0,276	-0,189
12,488	-61,465	-0,286	-0,084
13,502	185,415	-0,203	-0,213
14,517	20,405	-0,387	-0,221
15,531	0,782	-0,513	-0,259
16,546	201,909	-0,272	-0,297
17,561	43,180	-0,366	-0,236
18,575	454,069	-0,162	-0,254
19,590	51,553	-0,399	-0,268
20,604	35,553	-0,285	-0,177
21,619	168,186	-0,337	-0,339
22,634	-10,198	-0,437	-0,204
23,648	37,631	-0,442	-0,276
24,663	54,166	-0,460	-0,312
25,677	240,699	-0,224	-0,264
26,692	19,059	-0,399	-0,225
27,707	14,411	-0,323	-0,178
28,721	54,820	-0,426	-0,289
29,736	171,568	-0,374	-0,379
30,750	-18,476	-0,531	-0,233
31,765	79,519	-0,358	-0,271
32,780	191,536	-0,352	-0,375
33,794	-17,951	-0,360	-0,159
34,809	29,667	-0,325	-0,195
35,823	-47,682	-0,412	-0,140
36,838	310,109	-0,185	-0,245
37,853	74,400	-0,396	-0,293
38,867	176,675	-0,348	-0,357
39,882	100,322	-0,333	-0,272
40,896	3,309	-0,435	-0,222
41,911	96,758	-0,258	-0,208
42,926	115,027	-0,347	-0,298
43,940	10,899	-0,521	-0,280
44,955	101,393	-0,347	-0,285
45,969	39,082	-0,367	-0,231
46,984	178,948	-0,407	-0,419
47,999	25,672	-0,268	-0,157
49,013	259,311	-0,261	-0,318
50,028	-11,006	-0,325	-0,151
51,042	26,223	-0,400	-0,235
52,057	542,701	-0,144	-0,242
53,071	18,012	-0,358	-0,200
54,086	-33,174	-0,350	-0,136
55,101	-4,274	-0,262	-0,127
56,115	99,184	-0,364	-0,296
57,130	202,404	-0,315	-0,342
58,144	57,188	-0,332	-0,228
59,159	40,163	-0,385	-0,243
60,174	256,135	-0,287	-0,347
61,188	146,363	-0,361	-0,341
62,203	-33,912	-0,269	-0,104
63,217	40,396	-0,290	-0,183
64,232	386,009	-0,232	-0,338
65,247	2,485	-0,389	-0,198
66,261	73,005	-0,216	-0,159
67,276	72,196	-0,342	-0,251
68,290	-63,965	-0,304	-0,087
69,305	800,000	-0,110	-0,261
70,320	3,227	-0,326	-0,166
71,334	-75,669	-0,455	-0,113
72,349	73,328	-0,355	-0,261
73,363	114,759	-0,292	-0,250
74,378	273,033	-0,208	-0,259
75,393	8,025	-0,201	-0,106
76,407	-126,705	-0,424	-0,043
77,422	-1,072	-0,218	-0,108
78,436	-91,663	-0,301	-0,060
79,451	-65,565	-0,311	-0,087
80,466	172,341	-0,300	-0,303
81,480	-39,489	-0,421	-0,154
82,495	367,113	-0,226	-0,321
83,509	170,919	-0,221	-0,222
84,524	55,510	-0,413	-0,280
85,539	-96,545	-0,307	-0,056
86,553	108,553	-0,236	-0,198
87,568	33,968	-0,355	-0,217
88,582	172,179	-0,224	-0,226
89,597	64,493	-0,249	-0,176
90,611	90,909	-0,293	-0,231
91,626	-21,007	-0,323	-0,138
92,641	67,381	-0,191	-0,136
93,655	-182,328	-0,369	-0,005
94,670	-7,584	-0,317	-0,150
95,684	395,448	-0,202	-0,296
96,699	451,684	-0,253	-0,393
97,714	-61,921	-0,361	-0,105
98,728	130,969	-0,305	-0,275
99,743	31,426	-0,238	-0,143
100,757	81,278	-0,298	-0,226
101,772	109,630	-0,336	-0,282
102,787	8,859	-0,274	-0,144
103,801	55,300	-0,233	-0,158
104,816	171,341	-0,248	-0,250
105,830	285,032	-0,183	-0,232
106,845	-17,045	-0,290	-0,128
107,860	-90,708	-0,334	-0,067
108,874	-98,602	-0,348	-0,062
109,889	-28,922	-0,414	-0,166
110,903	27,271	-0,305	-0,179
111,918	33,452	-0,257	-0,156
112,933	280,726	-0,174	-0,218
113,947	-20,440	-0,292	-0,125
114,962	216,856	-0,231	-0,258
115,976	127,817	-0,348	-0,310
116,991	-81,092	-0,380	-0,087
118,006	232,613	-0,263	-0,303
119,020	-46,750	-0,275	-0,094
120,035	7,425	-0,248	-0,129
121,049	41,134	-0,173	-0,109
122,064	-34,829	-0,326	-0,124
123,079	366,157	-0,220	-0,311
124,093	101,885	-0,248	-0,203
125,108	520,447	-0,145	-0,239
126,122	157,920	-0,300	-0,291
127,137	-11,968	-0,157	-0,072
128,151	120,412	-0,269	-0,234
129,166	-37,697	-0,273	-0,101
130,181	277,265	-0,221	-0,275
131,195	-54,725	-0,349	-0,110
132,210	67,301	-0,238	-0,170
133,224	294,693	-0,198	-0,254
134,239	99,787	-0,315	-0,255
135,254	99,850	-0,256	-0,207
136,268	71,836	-0,296	-0,215
137,283	-70,381	-0,257	-0,068
138,297	-69,969	-0,287	-0,076
139,312	217,751	-0,203	-0,226
140,327	28,767	-0,332	-0,196
141,341	55,562	-0,190	-0,128
142,356	171,755	-0,215	-0,216
143,370	94,218	-0,197	-0,156
144,385	-64,835	-0,362	-0,102
145,400	78,880	-0,269	-0,201
146,414	150,762	-0,268	-0,254
147,429	167,221	-0,365	-0,363
148,443	-64,455	-0,274	-0,077
149,458	-107,162	-0,215	-0,033
150,473	210,345	-0,151	-0,165
151,487	-40,087	-0,330	-0,120
152,502	20,250	-0,276	-0,155
153,516	85,947	-0,231	-0,178
154,531	4,337	-0,296	-0,151
155,546	365,302	-0,189	-0,267
156,560	83,151	-0,259	-0,197
157,575	372,663	-0,106	-0,151
158,589	50,639	-0,212	-0,140
159,604	62,737	-0,323	-0,225
160,619	113,850	-0,232	-0,197
161,633	115,413	-0,268	-0,228
162,648	159,948	-0,202	-0,197
163,662	134,458	-0,248	-0,224
164,677	146,180	-0,146	-0,136
165,692	-45,400	-0,260	-0,089
166,706	48,315	-0,254	-0,165
167,721	347,518	-0,197	-0,271
168,735	24,479	-0,306	-0,176
169,750	154,913	-0,244	-0,234
170,764	154,523	-0,193	-0,185
171,779	40,217	-0,160	-0,100
172,794	-71,863	-0,168	-0,043
173,808	-5,601	-0,096	-0,046
174,823	-90,225	-0,231	-0,046
175,837	453,862	-0,154	-0,238
176,852	17,022	-0,213	-0,117
177,867	-112,650	-0,307	0,042
178,881	312,146	-0,129	-0,170
179,896	-107,879	-0,163	-0,024
180,910	147,381	-0,274	-0,257
181,925	193,073	-0,148	-0,156
182,940	90,502	-0,304	-0,236
183,954	33,804	-0,312	-0,188
184,969	83,494	-0,197	-0,150
185,983	278,112	-0,156	-0,193
186,998	295,051	-0,260	-0,332
188,013	125,898	-0,147	-0,129
189,027	-11,974	-0,198	-0,090
190,042	-62,478	-0,210	-0,060
191,056	-151,946	-0,286	-0,014
192,071	-200,000	-0,030	-0,098
193,086	685,084	-0,102	-0,186
194,100	48,585	-0,186	-0,121
195,115	232,492	-0,153	-0,175
196,129	280,126	-0,188	-0,234
197,144	78,018	-0,280	-0,207
198,159	97,461	-0,213	-0,170
199,173	-39,228	-0,186	-0,067
200,188	22,528	-0,183	-0,104
201,202	309,774	-0,117	-0,153
202,217	236,916	-0,161	-0,186
203,232	38,538	-0,188	-0,116
204,246	126,809	-0,214	-0,188
205,261	504,989	-0,194	-0,313
206,275	-70,747	-0,122	-0,032
207,290	101,620	-0,133	-0,107
208,304	37,875	-0,173	-0,107
209,319	486,410	-0,136	-0,216
210,334	22,481	-0,246	-0,139
211,348	-16,716	-0,276	-0,121
212,363	436,587	-0,114	-0,173
213,377	129,351	-0,137	-0,121
214,392	-28,269	-0,266	-0,106
215,407	-30,277	-0,145	-0,057
216,421	-39,362	-0,323	-0,117
217,436	-111,656	-0,246	0,034
218,450	224,120	-0,250	-0,281
219,465	500,004	-0,101	-0,163
220,480	-38,902	-0,232	-0,085
221,494	151,771	-0,253	-0,239
222,509	35,567	-0,110	-0,067
223,523	416,021	-0,119	-0,176
224,538	586,568	-0,142	-0,243
225,553	21,534	-0,366	-0,206
226,567	89,651	-0,261	-0,202
227,582	155,856	-0,176	-0,169
228,596	115,099	-0,193	-0,164
229,611	4,126	-0,125	-0,063
230,626	800,000	-0,077	-0,204
231,640	-31,492	-0,187	-0,072
232,655	148,347	-0,213	-0,199
233,669	169,201	-0,264	-0,261
234,684	274,384	-0,151	-0,186
235,699	118,526	-0,228	-0,195
236,713	55,093	-0,110	0,074
237,728	-61,216	-0,115	-0,033
238,742	-53,594	-0,286	-0,090
239,757	190,953	-0,051	-0,054
240,772	4,900	-0,235	-0,119
241,786	144,766	-0,239	-0,222
242,801	32,914	-0,172	-0,103
243,815	26,658	-0,157	-0,091
244,830	-153,284	-0,214	0,010
245,844	-200,000	-0,017	-0,152
246,859	41,781	-0,204	-0,128
247,874	434,162	-0,198	-0,298
248,888	298,022	-0,146	-0,187
249,903	100,904	-0,169	-0,136
250,917	160,631	-0,173	-0,168
251,932	-61,192	-0,119	0,035
252,947	310,417	-0,109	-0,141
253,961	67,355	-0,188	-0,132
254,976	295,321	-0,124	-0,158
255,990	50,568	-0,080	-0,052
257,005	230,249	-0,125	-0,142
258,020	316,157	-0,171	-0,224
259,034	551,900	-0,168	-0,280
260,049	138,272	-0,164	-0,149
261,063	166,079	-0,188	-0,184
262,078	69,095	-0,172	-0,122
263,093	800,000	-0,063	-0,148
264,107	-200,000	-0,026	-0,140
265,122	-111,870	-0,198	-0,027
266,136	-24,388	-0,125	-0,051
267,151	-200,000	-0,016	0,054
268,166	-93,596	-0,299	-0,057
269,180	-68,082	-0,278	-0,074
270,195	-62,140	-0,253	-0,073
271,209	0,406	-0,167	0,082
272,224	-49,655	-0,205	0,067
273,239	232,621	0,028	0,032
274,253	-125,853	-0,121	0,012
275,268	-5,782	-0,210	-0,099
276,282	-71,870	-0,069	-0,018
277,297	278,271	-0,109	-0,134
278,312	47,834	-0,196	-0,126
279,326	121,300	-0,058	0,050
280,341	309,903	-0,112	-0,145
281,355	-200,000	-0,021	-0,150
282,370	160,025	-0,079	-0,076
283,384	-200,000	-0,074	-0,331
284,399	561,318	-0,149	-0,249
285,414	164,224	-0,173	-0,168
286,428	-112,379	-0,179	-0,024
287,443	-11,795	-0,218	-0,098
288,457	7,350	-0,306	-0,157
289,472	193,428	-0,049	-0,051
290,487	167,591	-0,187	-0,184
291,501	116,061	-0,217	-0,184
292,516	-51,040	-0,125	-0,040
293,530	12,596	-0,137	-0,072
294,545	542,911	-0,086	-0,142
295,560	147,565	-0,113	-0,105
296,574	22,950	-0,208	-0,117
297,589	-1,370	-0,087	-0,042
298,603	208,029	-0,078	-0,084
299,618	233,962	-0,228	-0,259
300,633	587,322	-0,170	-0,289
301,647	-200,000	-0,022	-0,119
302,662	126,166	-0,170	-0,148
303,676	187,760	-0,083	-0,086
304,691	270,794	-0,090	-0,109
305,706	-58,867	-0,249	-0,074
306,720	215,465	-0,158	-0,173
307,735	150,807	-0,052	-0,049
308,749	337,735	-0,116	-0,156
309,764	234,831	-0,053	-0,061
310,779	-127,345	-0,170	-0,017
311,793	-29,908	-0,201	-0,078
312,808	112,768	-0,164	-0,137
313,822	-14,113	-0,103	-0,046
314,837	361,014	-0,140	-0,193
315,852	89,824	-0,055	-0,043
316,866	9,262	-0,098	-0,051
317,881	1,557	-0,187	-0,092
318,895	22,700	-0,102	-0,057
319,910	369,590	-0,102	-0,143
320,925	-176,334	-0,232	0,004
321,939	-193,458	-0,220	-0,001
322,954	-113,419	-0,124	-0,017
323,968	-141,861	-0,169	0,011
324,983	84,677	-0,138	-0,103
325,997	36,400	-0,209	-0,127
327,012	24,748	-0,201	-0,114
328,027	679,205	-0,139	-0,249
329,041	-24,382	-0,235	-0,096
330,056	-200,000	-0,010	-0,030
331,070	-200,000	-0,015	-0,123
332,085	269,059	-0,147	-0,177
333,100	-83,225	-0,198	-0,043
334,114	-200,000	0,004	-0,037
335,129	36,568	-0,251	-0,152
336,143	-77,406	-0,141	-0,033
337,158	-21,124	-0,102	0,043
338,173	-200,000	-0,023	-0,109
339,187	7,187	-0,155	-0,079
340,202	-166,580	-0,169	-0,005
341,216	-88,069	-0,156	0,032
342,231	327,351	-0,180	-0,238
343,246	800,000	-0,110	-0,222
344,260	-200,000	-0,013	-0,067
345,275	-79,417	-0,215	-0,050
346,289	-200,000	-0,029	-0,146
347,304	211,237	-0,124	-0,134
348,319	423,391	-0,190	-0,281
349,333	800,000	-0,106	-0,264
350,348	800,000	-0,055	-0,130
351,362	16,567	-0,180	-0,097
352,377	-21,798	-0,181	-0,075
353,392	190,575	-0,222	-0,229
354,406	361,436	-0,100	-0,138
355,421	210,822	1312,505	1416,601
356,435	162,312	1472,967	1417,096
