DTS Sentinel unit serial number:	SN410029Multiplexer serial number:	ORYXHardware model number:	OX2-SRSoftware version number:	ORYX F/W v4,00 Oryx Data Collector v3.7.2.0data status	okinstallation	B3 Nyhavnadifferential loss correction	single-endedforward channel	channel 1reverse channel	N/Adate	2023/12/05time	02:17:30forward acquisition time	300,00reverse acquisition time	0,00gamma	499,1914k internal	0,3201k external	0,3201temperature offset calibration	1,0000default loss term (dB/km)	0,3820temperature slope calibration	1,0000multiplexer offset coefficient	1,0000multiplexer slope coefficient	1,0000fibre end	0,00T internal ref (°C)	13,92T ext. ref 1 (°C)	-0,66T ext. ref 2 (°C)	-0,67length (m)	temperature (°C)	Stokes	anti-Stokes-744,400	800,000	-0,128	-0,344
-743,385	-200,000	-0,051	0,214
-742,371	-200,000	-0,001	-0,039
-741,356	800,000	-0,073	0,148
-740,342	763,878	-0,158	-0,313
-739,327	800,000	0,090	0,208
-738,312	800,000	-0,124	-0,289
-737,298	-18,345	0,095	0,043
-736,283	800,000	-0,080	-0,190
-735,269	-200,000	-0,047	0,278
-734,254	33,587	-0,305	-0,193
-733,239	142,974	-0,128	0,123
-732,225	131,229	-0,236	-0,221
-731,210	498,041	0,050	0,084
-730,196	-86,112	0,056	0,012
-729,181	224,149	-0,085	-0,100
-728,167	-64,059	-0,144	-0,042
-727,152	800,000	0,038	-0,117
-726,137	151,849	-0,078	-0,078
-725,123	-200,000	-0,018	-0,093
-724,108	146,217	0,067	0,065
-723,094	-200,000	0,024	-0,087
-722,079	-112,675	0,095	0,014
-721,064	-158,141	-0,111	0,005
-720,050	32,183	0,152	0,095
-719,035	116,222	0,047	-0,041
-718,021	-200,000	-0,004	0,042
-717,006	-51,214	-0,167	-0,056
-715,991	410,804	0,083	-0,128
-714,977	226,306	-0,055	-0,064
-713,962	66,443	-0,104	-0,077
-712,948	569,945	0,009	-0,017
-711,933	220,055	0,022	-0,026
-710,918	144,846	0,032	0,031
-709,904	-200,000	0,003	0,010
-708,889	-200,000	-0,008	-0,140
-707,875	-200,000	0,017	-0,201
-706,860	-200,000	-0,017	-0,142
-705,845	-200,000	0,008	0,048
-704,831	800,000	-0,063	0,201
-703,816	-200,000	0,016	-0,146
-702,802	142,611	-0,089	0,086
-701,787	-144,512	-0,090	0,006
-700,772	327,788	-0,061	-0,086
-699,758	51,306	-0,074	0,051
-698,743	-200,000	0,005	-0,130
-697,729	253,572	-0,049	-0,061
-696,714	-23,120	-0,066	0,029
-695,699	25,246	-0,051	-0,031
-694,685	209,380	-0,054	-0,061
-693,670	-200,000	-0,044	-0,184
-692,656	180,010	0,067	-0,072
-691,641	-66,162	0,032	-0,009
-690,627	323,921	0,048	-0,067
-689,612	-129,001	0,070	-0,007
-688,597	800,000	-0,047	-0,113
-687,583	174,466	-0,098	-0,103
-686,568	-144,952	-0,205	-0,013
-685,554	-200,000	0,022	-0,180
-684,539	-11,546	-0,028	-0,013
-683,524	-84,377	-0,041	-0,009
-682,510	800,000	0,089	0,186
-681,495	50,644	-0,052	0,035
-680,481	-200,000	0,003	0,026
-679,466	-195,806	-0,143	-0,001
-678,451	-200,000	0,024	-0,104
-677,437	-27,731	-0,043	-0,018
-676,422	-200,000	0,010	0,051
-675,408	-200,000	-0,006	0,022
-674,393	-200,000	-0,011	0,122
-673,378	-200,000	-0,010	-0,074
-672,364	699,838	-0,055	-0,106
-671,349	-200,000	0,008	0,155
-670,335	17,949	0,051	0,029
-669,320	111,303	0,128	0,112
-668,305	-200,000	-0,030	0,111
-667,291	421,565	-0,014	0,022
-666,276	800,000	-0,062	-0,185
-665,262	-61,458	-0,066	0,020
-664,247	93,143	-0,085	-0,070
-663,232	-41,920	-0,128	-0,047
-662,218	-78,829	-0,062	0,015
-661,203	105,793	-0,112	0,096
-660,189	-18,009	0,105	0,048
-659,174	-200,000	0,007	-0,073
-658,159	800,000	-0,041	0,129
-657,145	-200,000	0,017	0,063
-656,130	-44,032	0,072	-0,026
-655,116	88,588	0,195	0,157
-654,101	800,000	-0,024	0,058
-653,086	203,616	-0,179	0,201
-652,072	-153,011	0,056	0,003
-651,057	-48,216	0,047	0,016
-650,043	-200,000	-0,004	0,014
-649,028	-146,628	0,035	0,002
-648,014	-112,465	-0,075	-0,011
-646,999	-82,123	-0,066	0,015
-645,984	-200,000	0,021	-0,079
-644,970	163,427	-0,087	-0,089
-643,955	-200,000	-0,031	-0,166
-642,941	88,992	0,117	0,095
-641,926	800,000	-0,067	0,155
-640,911	-13,076	-0,062	0,029
-639,897	-52,287	-0,026	0,009
-638,882	-200,000	0,005	0,026
-637,868	32,717	-0,080	-0,050
-636,853	-11,592	-0,140	-0,066
-635,838	-200,000	0,023	-0,110
-634,824	427,701	-0,091	-0,143
-633,809	-125,767	-0,140	0,015
-632,795	134,253	0,023	0,021
-631,780	470,438	-0,011	0,018
-630,765	-142,973	-0,071	0,005
-629,751	11,041	-0,097	-0,054
-628,736	221,060	-0,075	-0,088
-627,722	13,183	0,120	0,067
-626,707	148,605	0,059	-0,057
-625,692	495,483	-0,090	0,150
-624,678	390,418	0,007	-0,010
-623,663	173,801	-0,059	-0,062
-622,649	211,790	0,085	-0,097
-621,634	-30,338	-0,061	0,025
-620,619	-200,000	-0,006	0,019
-619,605	-200,000	-0,002	0,070
-618,590	800,000	-0,044	0,100
-617,576	-50,127	0,090	-0,031
-616,561	-185,253	-0,066	-0,001
-615,546	8,617	-0,108	-0,058
-614,532	800,000	-0,005	-0,013
-613,517	462,581	-0,053	-0,086
-612,503	-200,000	0,002	0,038
-611,488	92,906	-0,028	-0,022
-610,474	417,769	-0,052	0,080
-609,459	547,380	0,028	0,049
-608,444	800,000	0,041	-0,097
-607,430	504,479	0,094	0,159
-606,415	103,459	-0,053	-0,045
-605,401	-200,000	-0,001	-0,078
-604,386	76,342	-0,038	0,029
-603,371	800,000	0,097	-0,237
-602,357	-200,000	-0,007	0,028
-601,342	-200,000	-0,003	0,048
-600,328	-45,409	0,098	-0,035
-599,313	-82,597	-0,039	-0,009
-598,298	135,215	0,039	-0,037
-597,284	800,000	-0,009	0,021
-596,269	-200,000	0,006	-0,065
-595,255	0,893	-0,122	0,063
-594,240	107,383	-0,173	0,149
-593,225	422,529	-0,041	0,064
-592,211	103,033	-0,021	-0,018
-591,196	-200,000	-0,004	-0,091
-590,182	9,222	0,069	0,038
-589,167	800,000	-0,019	-0,041
-588,152	-200,000	0,019	0,070
-587,138	-200,000	-0,017	-0,078
-586,123	667,857	0,052	-0,097
-585,109	-145,206	-0,064	0,004
-584,094	800,000	0,050	0,108
-583,079	-4,003	0,043	0,022
-582,065	-52,576	0,033	0,011
-581,050	135,813	-0,008	-0,008
-580,036	-200,000	-0,026	0,086
-579,021	-6,468	-0,146	0,072
-578,006	-29,675	-0,137	-0,056
-576,992	-200,000	-0,038	-0,203
-575,977	-200,000	0,021	-0,176
-574,963	21,404	0,031	-0,018
-573,948	74,337	0,072	0,055
-572,934	87,212	-0,036	0,029
-571,919	800,000	-0,008	-0,016
-570,904	258,868	-0,030	-0,038
-569,890	-200,000	-0,008	0,096
-568,875	-34,449	0,053	-0,021
-567,861	245,776	-0,067	-0,082
-566,846	-149,381	0,071	-0,004
-565,831	167,859	-0,067	0,069
-564,817	47,835	0,050	-0,034
-563,802	-104,098	-0,074	0,012
-562,788	3,505	-0,083	0,044
-561,773	683,104	-0,042	0,080
-560,758	-200,000	0,004	0,163
-559,744	-200,000	-0,028	0,129
-558,729	-200,000	0,022	0,086
-557,715	-200,000	0,001	0,106
-556,700	150,166	-0,080	-0,079
-555,685	13,637	-0,056	-0,031
-554,671	4,893	-0,113	0,060
-553,656	363,300	-0,121	0,176
-552,642	800,000	-0,041	0,088
-551,627	-90,266	0,147	0,031
-550,612	376,560	-0,109	-0,161
-549,598	204,127	0,014	0,015
-548,583	-114,048	0,078	-0,011
-547,569	-45,951	0,072	-0,026
-546,554	800,000	-0,016	-0,048
-545,539	-200,000	0,020	-0,080
-544,525	-200,000	0,038	0,128
-543,510	334,892	-0,081	-0,113
-542,496	-34,856	0,054	-0,021
-541,481	-60,570	-0,097	-0,029
-540,466	724,812	0,065	0,125
-539,452	142,411	-0,096	-0,092
-538,437	245,019	0,049	0,059
-537,423	669,160	0,039	0,073
-536,408	88,481	-0,051	-0,041
-535,393	-27,733	-0,137	-0,057
-534,379	-6,151	-0,101	-0,049
-533,364	-200,000	0,035	-0,196
-532,350	415,215	-0,023	-0,036
-531,335	11,229	-0,055	0,030
-530,321	-7,534	-0,066	0,032
-529,306	800,000	0,047	-0,114
-528,291	177,006	-0,054	-0,057
-527,277	87,904	-0,064	0,051
-526,262	-97,465	-0,065	-0,012
-525,248	190,766	0,044	0,048
-524,233	-10,485	0,127	0,060
-523,218	-200,000	-0,013	-0,065
-522,204	43,498	-0,014	0,009
-521,189	-200,000	0,008	-0,053
-520,175	198,739	-0,082	0,091
-519,160	800,000	0,016	-0,046
-518,145	476,956	-0,114	0,187
-517,131	-200,000	-0,004	0,128
-516,116	680,838	-0,054	0,103
-515,102	209,528	-0,019	-0,021
-514,087	-200,000	0,003	0,031
-513,072	21,387	-0,061	-0,036
-512,058	6,961	0,018	-0,010
-511,043	-137,856	-0,210	-0,017
-510,029	-33,774	0,156	0,062
-509,014	800,000	0,054	0,133
-507,999	800,000	-0,093	-0,195
-506,985	336,560	0,049	0,069
-505,970	145,519	-0,163	-0,157
-504,956	136,569	-0,070	-0,066
-503,941	-44,377	0,046	-0,017
-502,926	24,646	0,098	0,058
-501,912	223,880	0,100	0,117
-500,897	50,034	0,026	-0,017
-499,883	800,000	-0,030	0,087
-498,868	-200,000	-0,012	-0,104
-497,853	-13,070	-0,140	0,065
-496,839	177,417	-0,091	0,096
-495,824	120,429	-0,039	0,035
-494,810	-200,000	-0,007	0,060
-493,795	-200,000	-0,010	-0,134
-492,781	130,497	0,028	0,026
-491,766	-76,899	-0,121	-0,030
-490,751	800,000	-0,030	0,087
-489,737	-43,359	0,129	0,047
-488,722	-200,000	0,027	0,106
-487,708	83,621	-0,133	-0,105
-486,693	423,784	0,065	0,101
-485,678	-200,000	0,002	0,119
-484,664	-200,000	0,027	-0,104
-483,649	-200,000	-0,013	0,068
-482,635	-80,962	-0,085	0,020
-481,620	-200,000	0,015	0,050
-480,605	-200,000	0,001	-0,045
-479,591	800,000	0,030	-0,083
-478,576	-200,000	0,004	-0,042
-477,562	-12,499	0,111	-0,052
-476,547	742,473	0,015	-0,029
-475,532	800,000	-0,097	-0,202
-474,518	800,000	0,028	0,082
-473,503	-200,000	0,016	0,075
-472,489	-200,000	-0,025	-0,098
-471,474	-31,131	-0,060	-0,024
-470,459	-200,000	0,014	-0,101
-469,445	439,584	-0,065	-0,103
-468,430	278,919	-0,090	-0,116
-467,416	152,009	0,056	-0,055
-466,401	12,016	-0,141	0,078
-465,386	-19,822	0,096	-0,042
-464,372	800,000	-0,035	-0,078
-463,357	-20,781	0,041	-0,018
-462,343	-80,172	-0,098	0,023
-461,328	-200,000	-0,049	-0,167
-460,313	183,765	0,035	0,037
-459,299	-200,000	-0,050	0,165
-458,284	347,437	0,057	-0,082
-457,270	-0,746	0,018	-0,009
-456,255	201,364	-0,006	-0,006
-455,241	-200,000	-0,008	-0,028
-454,226	-200,000	0,018	-0,139
-453,211	50,767	0,058	-0,039
-452,197	-78,339	0,018	-0,004
-451,182	800,000	0,031	-0,074
-450,168	103,115	-0,032	-0,027
-449,153	154,481	-0,014	-0,014
-448,138	-33,804	-0,001	-0,000
-447,124	-200,000	0,004	0,015
-446,109	-200,000	-0,002	0,022
-445,095	29,245	-0,123	0,075
-444,080	134,315	-0,072	-0,067
-443,065	-200,000	0,018	0,109
-442,051	88,002	0,106	0,085
-441,036	800,000	-0,063	-0,169
-440,022	-200,000	0,000	0,007
-439,007	36,638	0,084	0,053
-437,992	-34,272	-0,100	0,039
-436,978	-200,000	0,119	0,000
-435,963	-200,000	0,011	0,111
-434,949	250,660	-0,037	0,045
-433,934	-200,000	-0,010	-0,086
-432,919	-111,762	-0,023	-0,003
-431,905	-200,000	-0,003	0,049
-430,890	-200,000	0,006	-0,116
-429,876	-3,417	0,020	0,010
-428,861	-200,000	-0,035	0,149
-427,846	-200,000	-0,010	0,077
-426,832	-69,178	0,066	0,018
-425,817	485,771	0,099	-0,162
-424,803	155,790	-0,087	-0,086
-423,788	800,000	0,051	-0,111
-422,773	-200,000	0,009	-0,058
-421,759	-200,000	0,018	-0,078
-420,744	-36,212	0,083	0,032
-419,730	116,936	-0,009	-0,008
-418,715	-200,000	0,011	0,114
-417,701	8,885	-0,076	0,041
-416,686	800,000	0,031	0,096
-415,671	168,706	0,029	-0,029
-414,657	218,795	0,053	-0,061
-413,642	0,150	-0,130	0,066
-412,628	164,746	0,052	-0,052
-411,613	-200,000	-0,020	-0,111
-410,598	545,043	-0,072	0,125
-409,584	303,070	-0,018	-0,024
-408,569	-21,375	0,073	-0,032
-407,555	188,915	-0,041	-0,044
-406,540	800,000	0,054	-0,115
-405,525	-102,515	0,032	-0,005
-404,511	-19,595	-0,032	-0,014
-403,496	-200,000	-0,021	-0,083
-402,482	-74,928	-0,118	-0,030
-401,467	-200,000	0,021	-0,083
-400,452	104,878	0,038	0,032
-399,438	390,431	0,016	0,023
-398,423	-104,630	-0,037	0,006
-397,409	-55,568	-0,160	-0,051
-396,394	398,784	0,045	-0,067
-395,379	-43,963	-0,057	0,020
-394,365	179,260	0,020	0,021
-393,350	238,253	0,075	0,090
-392,336	115,936	0,087	0,077
-391,321	61,073	0,046	0,032
-390,306	-47,748	0,117	-0,041
-389,292	257,639	-0,111	0,137
-388,277	-126,391	0,097	-0,010
-387,263	168,867	-0,048	0,049
-386,248	800,000	0,036	0,085
-385,233	5,769	0,141	-0,074
-384,219	800,000	0,028	0,080
-383,204	-161,836	0,164	0,006
-382,190	240,812	-0,055	0,065
-381,175	800,000	0,008	-0,017
-380,160	-200,000	0,002	-0,012
-379,146	189,830	-0,069	0,075
-378,131	135,767	0,094	0,088
-377,117	-200,000	0,001	0,083
-376,102	800,000	0,037	-0,107
-375,088	93,557	0,047	0,038
-374,073	7,371	0,093	0,050
-373,058	800,000	-0,031	0,067
-372,044	800,000	0,068	0,173
-371,029	-83,911	0,125	-0,028
-370,015	-200,000	0,001	-0,037
-369,000	-127,719	0,119	-0,012
-367,985	800,000	-0,020	-0,055
-366,971	40,137	-0,131	0,084
-365,956	151,315	0,129	0,126
-364,942	-200,000	-0,014	0,118
-363,927	795,679	-0,015	0,030
-362,912	-71,354	0,082	-0,022
-361,898	783,435	-0,009	0,018
-360,883	14,543	0,019	0,011
-359,869	-60,941	0,109	-0,033
-358,854	275,843	0,055	0,070
-357,839	-200,000	0,023	0,090
-356,825	-200,000	0,008	0,113
-355,810	164,147	-0,014	0,014
-354,796	-200,000	-0,014	0,052
-353,781	-56,111	-0,106	0,034
-352,766	639,186	0,047	-0,087
-351,752	220,523	0,089	-0,102
-350,737	57,674	0,073	0,051
-349,723	-200,000	0,011	0,135
-348,708	800,000	-0,037	0,084
-347,693	12,875	-0,068	0,037
-346,679	444,115	0,030	-0,047
-345,664	89,457	-0,131	-0,104
-344,650	-80,894	0,052	-0,012
-343,635	-200,000	0,054	0,212
-342,620	-170,478	0,166	-0,004
-341,606	800,000	0,019	0,051
-340,591	-97,592	0,088	0,016
-339,577	697,271	-0,053	-0,101
-338,562	800,000	-0,096	-0,220
-337,548	-200,000	0,038	-0,157
-336,533	22,375	0,024	-0,014
-335,518	84,505	0,209	-0,164
-334,504	-44,000	-0,006	-0,002
-333,489	175,669	-0,092	-0,096
-332,475	210,143	0,099	-0,111
-331,460	-109,416	-0,112	-0,017
-330,445	-200,000	-0,013	-0,077
-329,431	110,746	0,052	0,044
-328,416	-61,281	0,097	0,029
-327,402	160,380	0,044	0,044
-326,387	45,029	-0,095	0,062
-325,372	800,000	0,060	-0,153
-324,358	-39,139	-0,088	-0,033
-323,343	308,698	0,008	0,011
-322,329	-36,114	0,105	-0,040
-321,314	800,000	-0,013	0,038
-320,299	800,000	-0,022	0,054
-319,285	20,867	-0,048	0,028
-318,270	-200,000	-0,006	-0,131
-317,256	-88,560	0,209	-0,044
-316,241	9,419	0,093	0,050
-315,226	171,918	0,066	-0,068
-314,212	507,062	-0,068	0,114
-313,197	30,087	0,030	-0,018
-312,183	97,498	-0,033	-0,027
-311,168	-200,000	-0,001	-0,016
-310,153	360,548	-0,125	-0,180
-309,139	-200,000	-0,001	-0,024
-308,124	248,019	0,113	-0,137
-307,110	-103,623	0,053	0,009
-306,095	301,769	0,033	-0,043
-305,080	415,576	0,055	0,084
-304,066	-48,403	-0,063	0,022
-303,051	75,967	-0,054	0,041
-302,037	800,000	0,021	0,045
-301,022	-200,000	-0,016	0,111
-300,008	800,000	0,022	-0,057
-298,993	-200,000	-0,011	0,118
-297,978	-200,000	-0,023	0,077
-296,964	-87,190	-0,051	-0,011
-295,949	74,202	-0,037	0,028
-294,935	109,221	-0,038	-0,032
-293,920	-85,835	0,072	0,016
-292,905	244,537	0,028	-0,034
-291,891	225,699	0,063	0,073
-290,876	108,815	0,065	0,056
-289,862	214,897	-0,079	-0,089
-288,847	231,118	0,059	-0,069
-287,832	98,915	-0,123	-0,101
-286,818	-200,000	-0,013	0,126
-285,803	654,517	0,054	-0,099
-284,789	105,399	0,030	-0,025
-283,774	800,000	-0,042	0,122
-282,759	297,504	-0,054	-0,071
-281,745	-41,020	-0,050	-0,018
-280,730	-133,795	-0,143	-0,013
-279,716	18,373	-0,105	0,060
-278,701	78,558	0,051	-0,039
-277,686	-54,098	0,060	0,019
-276,672	704,290	-0,014	0,027
-275,657	400,248	0,061	-0,092
-274,643	511,133	0,005	-0,008
-273,628	579,800	-0,055	0,097
-272,613	95,198	0,008	-0,006
-271,599	-156,833	0,087	-0,004
-270,584	-22,160	-0,156	0,067
-269,570	-200,000	-0,009	0,178
-268,555	357,317	0,110	0,157
-267,540	-111,058	0,080	-0,012
-266,526	259,435	0,003	0,004
-265,511	-200,000	-0,008	-0,040
-264,497	-46,227	0,103	0,036
-263,482	-200,000	-0,003	0,054
-262,467	212,965	-0,037	0,042
-261,453	124,170	0,056	-0,050
-260,438	21,164	-0,087	-0,050
-259,424	68,826	0,070	-0,051
-258,409	88,368	-0,013	0,010
-257,395	-110,321	0,027	0,004
-256,380	-200,000	0,018	0,071
-255,365	-157,470	0,126	0,005
-254,351	746,650	0,040	-0,078
-253,336	-200,000	-0,016	-0,146
-252,322	800,000	-0,039	-0,089
-251,307	-200,000	-0,011	-0,043
-250,292	-200,000	0,017	-0,088
-249,278	33,919	0,033	0,020
-248,263	-104,676	0,138	-0,022
-247,249	-200,000	0,017	-0,088
-246,234	401,502	0,075	-0,112
-245,219	-184,999	-0,046	-0,001
-244,205	-11,037	-0,064	-0,030
-243,190	153,408	0,089	0,087
-242,176	-200,000	0,009	0,057
-241,161	800,000	-0,076	0,210
-240,146	800,000	0,014	0,032
-239,132	171,791	-0,032	0,033
-238,117	24,301	-0,081	-0,048
-237,103	240,335	-0,051	-0,061
-236,088	11,340	0,031	-0,017
-235,073	216,357	-0,032	0,037
-234,059	125,487	0,117	0,105
-233,044	-200,000	-0,014	0,073
-232,030	800,000	-0,016	-0,050
-231,015	800,000	0,064	-0,133
-230,000	-186,038	-0,105	0,001
-228,986	800,000	-0,008	-0,017
-227,971	-111,088	-0,040	-0,006
-226,957	-83,226	0,067	-0,015
-225,942	-122,315	-0,092	-0,011
-224,927	294,062	0,061	-0,080
-223,913	207,320	-0,067	-0,075
-222,898	-200,000	0,008	-0,105
-221,884	-200,000	0,001	-0,031
-220,869	800,000	0,025	0,055
-219,855	507,176	0,091	0,150
-218,840	-200,000	-0,002	0,049
-217,825	730,994	-0,098	-0,187
-216,811	314,003	-0,035	-0,047
-215,796	-157,295	0,031	-0,001
-214,782	66,589	-0,023	0,017
-213,767	56,681	0,048	-0,033
-212,752	11,897	0,091	0,050
-211,738	-5,489	-0,087	0,043
-210,723	111,422	0,037	0,031
-209,709	-200,000	-0,015	-0,081
-208,694	158,553	0,040	0,040
-207,679	-200,000	0,013	0,166
-206,665	171,863	0,007	-0,007
-205,650	141,228	0,108	0,102
-204,636	-200,000	-0,027	0,092
-203,621	-194,070	0,056	0,000
-202,606	-117,813	0,040	0,005
-201,592	-200,000	0,008	-0,061
-200,577	208,353	-0,051	-0,056
-199,563	800,000	0,019	-0,050
-198,548	800,000	0,034	0,076
-197,533	-200,000	0,003	0,043
-196,519	-38,495	-0,029	-0,011
-195,504	136,318	0,020	0,019
-194,490	-200,000	0,003	-0,074
-193,475	-135,639	-0,034	0,003
-192,460	-200,000	0,004	0,072
-191,446	443,475	0,097	-0,152
-190,431	-200,000	-0,009	0,037
-189,417	452,293	0,080	0,127
-188,402	800,000	-0,032	0,083
-187,387	-69,392	-0,008	0,002
-186,373	213,279	0,024	0,027
-185,358	429,352	0,044	-0,068
-184,344	152,579	-0,073	0,071
-183,329	102,213	0,040	0,033
-182,315	-200,000	0,013	0,050
-181,300	-200,000	-0,037	-0,149
-180,285	468,973	-0,039	-0,062
-179,271	151,880	0,071	-0,069
-178,256	8,645	-0,031	0,017
-177,242	-33,051	0,143	0,056
-176,227	205,794	0,055	-0,061
-175,212	-200,000	-0,014	0,068
-174,198	-200,000	0,016	0,065
-173,183	252,452	0,027	0,033
-172,169	21,480	0,064	-0,037
-171,154	241,334	-0,131	0,156
-170,139	662,212	0,070	0,128
-169,125	58,102	0,062	-0,043
-168,110	-200,000	-0,009	0,046
-167,096	-88,631	0,124	-0,026
-166,081	200,849	0,048	-0,053
-165,066	370,390	-0,049	-0,071
-164,052	-161,942	0,198	-0,007
-163,037	15,133	-0,015	-0,008
-162,023	742,984	-0,038	-0,073
-161,008	290,842	-0,056	0,072
-159,993	800,000	0,011	0,027
-158,979	800,000	0,035	0,088
-157,964	44,005	0,120	-0,078
-156,950	-14,644	-0,131	-0,059
-155,935	18,770	0,071	0,041
-154,920	-200,000	-0,014	-0,086
-153,906	-200,000	0,007	0,058
-152,891	30,158	0,090	0,055
-151,877	800,000	0,044	-0,112
-150,862	-200,000	0,019	-0,114
-149,847	-200,000	-0,005	-0,104
-148,833	-26,639	0,059	-0,024
-147,818	-63,923	0,061	0,018
-146,804	548,982	0,057	0,098
-145,789	-200,000	0,002	-0,056
-144,775	218,249	-0,093	-0,106
-143,760	-200,000	0,014	0,075
-142,745	9,866	0,101	-0,055
-141,731	20,741	-0,079	-0,046
-140,716	-122,390	0,069	-0,008
-139,702	-200,000	-0,009	0,135
-138,687	324,853	-0,003	0,004
-137,672	-118,619	-0,073	-0,009
-136,658	147,789	-0,184	0,177
-135,643	-58,414	-0,073	0,022
-134,629	-61,403	0,097	0,029
-133,614	401,371	-0,066	0,099
-132,599	62,962	0,122	0,087
-131,585	15,958	-0,174	0,097
-130,570	-180,200	0,015	-0,000
-129,556	800,000	-0,064	-0,138
-128,541	-79,165	-0,071	-0,017
-127,526	800,000	-0,029	0,058
-126,512	-19,792	-0,059	-0,026
-125,497	11,573	0,145	-0,079
-124,483	-163,624	-0,059	0,002
-123,468	417,929	-0,012	-0,018
-122,453	-122,371	-0,085	0,010
-121,439	136,640	0,104	-0,097
-120,424	800,000	-0,040	-0,080
-119,410	-71,887	-0,038	0,010
-118,395	-200,000	0,002	-0,027
-117,380	800,000	0,063	0,165
-116,366	800,000	-0,029	-0,071
-115,351	800,000	0,016	-0,040
-114,337	-200,000	0,022	-0,089
-113,322	655,887	0,022	0,041
-112,307	139,975	-0,016	-0,015
-111,293	700,659	-0,029	0,055
-110,278	-130,328	0,031	-0,003
-109,264	23,886	-0,043	0,025
-108,249	800,000	-0,051	0,102
-107,234	495,137	0,027	-0,043
-106,220	-133,178	-0,059	-0,005
-105,205	800,000	-0,042	0,114
-104,191	800,000	0,062	0,131
-103,176	159,696	0,023	-0,023
-102,162	800,000	0,065	-0,166
-101,147	-121,399	-0,058	0,007
-100,132	-200,000	-0,012	-0,098
-99,118	198,911	0,036	0,039
-98,103	340,519	0,055	0,076
-97,089	-89,890	0,029	-0,006
-96,074	65,164	-0,120	-0,086
-95,059	146,889	0,053	-0,050
-94,045	733,084	-0,065	0,124
-93,030	221,641	0,043	-0,049
-92,016	-115,896	-0,086	-0,011
-91,001	185,940	-0,028	0,030
-89,986	0,861	0,074	-0,038
-88,972	94,869	0,164	0,132
-87,957	-5,712	-0,101	0,049
-86,943	-134,196	0,097	0,008
-85,928	81,477	-0,048	-0,037
-84,913	-200,000	-0,001	-0,114
-83,899	-93,116	-0,092	0,018
-82,884	279,630	0,011	-0,015
-81,870	269,204	-0,088	-0,110
-80,855	-67,064	0,058	0,016
-79,840	-64,217	-0,087	-0,025
-78,826	-175,695	-0,129	0,002
-77,811	94,187	0,046	0,037
-76,797	-200,000	0,020	0,082
-75,782	69,244	0,092	0,067
-74,767	117,005	-0,079	0,069
-73,753	279,878	0,032	0,041
-72,738	-73,840	-0,108	0,028
-71,724	-200,000	0,003	0,157
-70,709	800,000	0,043	-0,086
-69,694	-200,000	0,009	0,045
-68,680	800,000	-0,011	-0,025
-67,665	232,985	0,095	0,111
-66,651	-200,000	0,023	0,087
-65,636	-41,186	-0,161	-0,059
-64,622	102,937	-0,140	0,116
-63,607	-117,406	0,129	0,016
-62,592	-200,000	0,009	0,036
-61,578	-200,000	0,010	0,064
-60,563	800,000	-0,026	-0,073
-59,549	800,000	-0,083	0,177
-58,534	-65,697	-1,537	-0,433
-57,519	425,841	-1,397	-2,139
-56,505	-200,000	-0,590	-4,628
-55,490	160,259	0,985	0,974
-54,476	800,000	5,031	11,412
-53,461	-200,000	18,957	309,390
-52,446	-200,000	737,945	2312,667
-51,432	573,182	1654,192	2866,668
-50,417	79,228	1670,719	1266,484
-49,403	21,926	1543,393	888,547
-48,388	15,797	1466,249	814,348
-47,373	17,730	1456,414	818,192
-46,359	16,812	1446,311	808,082
-45,344	14,052	1441,797	792,313
-44,330	13,981	1439,791	790,837
-43,315	13,936	1438,025	789,620
-42,300	13,962	1436,548	788,902
-41,286	14,000	1435,382	788,410
-40,271	13,949	1433,878	787,312
-39,257	13,953	1432,672	786,636
-38,242	14,010	1431,362	786,160
-37,227	14,060	1430,223	785,742
-36,213	14,016	1428,848	784,745
-35,198	14,039	1427,674	784,175
-34,184	14,054	1426,772	783,724
-33,169	14,003	1425,338	782,660
-32,154	14,063	1424,295	782,340
-31,140	14,028	1423,051	781,464
-30,125	14,097	1421,863	781,105
-29,111	14,019	1420,894	780,172
-28,096	13,977	1419,736	779,309
-27,082	13,952	1418,753	778,619
-26,067	13,937	1417,464	777,813
-25,052	14,009	1416,268	777,461
-24,038	13,932	1415,565	776,684
-23,023	13,954	1414,531	776,186
-22,009	13,929	1413,543	775,499
-20,994	13,924	1412,590	774,922
-19,979	13,874	1412,047	774,356
-18,965	13,883	1410,798	773,685
-17,950	13,887	1409,781	773,115
-16,936	13,864	1409,024	772,559
-15,921	13,883	1407,818	771,959
-14,906	13,851	1406,761	771,197
-13,892	13,892	1405,923	770,901
-12,877	13,827	1405,221	770,179
-11,863	13,853	1404,175	769,700
-10,848	13,817	1403,450	769,103
-9,833	13,830	1402,417	768,568
-8,819	13,773	1401,424	767,727
-7,804	13,778	1400,643	767,293
-6,790	13,766	1399,524	766,594
-5,775	13,745	1398,632	765,977
-4,760	13,756	1397,638	765,450
-3,746	13,755	1396,735	764,921
-2,731	13,742	1395,953	764,402
-1,717	13,765	1394,859	763,882
-0,702	13,775	1393,203	762,990
0,313	17,558	1311,142	735,601
1,327	33,778	705,775	433,542
2,342	52,178	123,969	83,481
3,356	3,667	16,651	8,568
4,371	9,552	3,166	1,692
5,386	-60,433	0,466	0,139
6,400	-200,000	-0,008	0,136
7,415	-12,299	-0,216	-0,099
8,429	65,491	-0,293	-0,210
9,444	7,896	-0,387	-0,204
10,459	-139,655	-0,292	-0,022
11,473	33,238	-0,239	-0,146
12,488	3,605	-0,344	-0,177
13,502	72,063	-0,293	-0,215
14,517	42,262	-0,380	-0,244
15,531	112,279	-0,383	-0,327
16,546	99,697	-0,214	-0,175
17,561	125,999	-0,366	-0,327
18,575	-104,959	-0,215	0,034
19,590	172,452	-0,199	-0,203
20,604	640,919	-0,068	-0,122
21,619	139,723	-0,363	-0,338
22,634	120,037	-0,360	-0,316
23,648	116,278	-0,380	-0,329
24,663	203,873	-0,310	-0,340
25,677	-45,058	-0,389	-0,136
26,692	188,895	-0,340	-0,360
27,707	-105,151	-0,432	-0,069
28,721	66,837	-0,311	-0,223
29,736	-6,016	-0,526	-0,253
30,750	105,811	-0,344	-0,287
31,765	41,199	-0,340	-0,217
32,780	39,923	-0,375	-0,237
33,794	27,765	-0,383	-0,227
34,809	-11,420	-0,307	-0,142
35,823	178,590	-0,310	-0,320
36,838	167,446	-0,405	-0,406
37,853	106,086	-0,366	-0,306
38,867	89,063	-0,395	-0,310
39,882	28,882	-0,483	-0,288
40,896	14,567	-0,338	-0,186
41,911	125,097	-0,234	-0,208
42,926	35,007	-0,361	-0,222
43,940	43,076	-0,542	-0,348
44,955	49,798	-0,330	-0,219
45,969	104,789	-0,369	-0,306
46,984	26,195	-0,406	-0,238
47,999	229,280	-0,263	-0,303
49,013	160,938	-0,297	-0,293
50,028	-103,533	-0,355	-0,058
51,042	711,255	-0,130	-0,244
52,057	67,544	-0,381	-0,274
53,071	31,071	-0,342	-0,206
54,086	38,587	-0,463	-0,290
55,101	17,748	-0,296	-0,165
56,115	-0,996	-0,377	-0,187
57,130	15,621	-0,385	-0,213
58,144	103,672	-0,270	-0,223
59,159	54,224	-0,390	-0,264
60,174	49,793	-0,362	-0,240
61,188	309,591	-0,221	-0,291
62,203	350,319	-0,186	-0,259
63,217	74,332	-0,258	-0,191
64,232	60,991	-0,342	-0,239
65,247	7,190	-0,310	-0,162
66,261	219,934	-0,219	-0,248
67,276	54,849	-0,347	-0,235
68,290	-65,917	-0,385	-0,107
69,305	91,197	-0,245	-0,193
70,320	-50,840	-0,326	-0,107
71,334	-65,014	-0,386	-0,109
72,349	23,117	-0,305	-0,176
73,363	126,675	-0,337	-0,300
74,378	109,163	-0,307	-0,258
75,393	-74,846	-0,288	-0,072
76,407	143,034	-0,249	-0,233
77,422	80,557	-0,311	-0,235
78,436	62,920	-0,322	-0,226
79,451	-39,192	-0,337	-0,124
80,466	5,131	-0,388	-0,200
81,480	-30,603	-0,367	-0,145
82,495	-38,949	-0,275	-0,101
83,509	-36,879	-0,345	-0,129
84,524	-60,366	-0,343	-0,102
85,539	-38,108	-0,424	-0,157
86,553	-59,458	-0,322	-0,096
87,568	199,109	-0,260	-0,280
88,582	123,040	-0,251	-0,221
89,597	94,150	-0,272	-0,217
90,611	-64,157	-0,334	-0,095
91,626	572,296	-0,222	-0,381
92,641	107,854	-0,260	-0,218
93,655	117,228	-0,314	-0,271
94,670	52,678	-0,378	-0,253
95,684	95,585	-0,213	-0,171
96,699	-33,144	-0,415	-0,161
97,714	-62,873	-0,332	-0,096
98,728	128,173	-0,191	-0,171
99,743	-13,808	-0,207	-0,094
100,757	-93,915	-0,361	-0,069
101,772	157,859	-0,210	-0,205
102,787	-104,772	-0,275	-0,044
103,801	200,515	-0,272	-0,293
104,816	29,073	-0,325	-0,193
105,830	-138,445	-0,318	-0,024
106,845	-2,747	-0,212	-0,103
107,860	63,204	-0,308	-0,216
108,874	209,542	-0,278	-0,306
109,889	-61,858	-0,351	-0,102
110,903	-9,120	-0,264	-0,123
111,918	47,777	-0,244	-0,159
112,933	113,373	-0,188	-0,160
113,947	53,900	-0,200	-0,135
114,962	139,942	-0,189	-0,175
115,976	-34,024	-0,274	-0,105
116,991	239,434	-0,172	-0,201
118,006	3,603	-0,266	-0,136
119,020	-110,612	-0,254	-0,036
120,035	800,000	-0,125	-0,259
121,049	102,760	-0,300	-0,245
122,064	40,741	-0,312	-0,196
123,079	400,965	-0,139	-0,204
124,093	449,486	-0,156	-0,241
125,108	250,906	-0,198	-0,236
126,122	146,159	-0,205	-0,193
127,137	26,450	-0,217	-0,127
128,151	-79,789	-0,238	-0,056
129,166	-108,668	-0,201	-0,030
130,181	71,540	-0,161	-0,117
131,195	180,571	-0,126	-0,129
132,210	-20,161	-0,300	-0,129
133,224	32,609	-0,173	-0,105
134,239	-101,439	-0,197	0,033
135,254	-40,243	-0,205	-0,074
136,268	34,906	-0,182	-0,111
137,283	31,876	-0,345	-0,207
138,297	-60,121	-0,195	-0,058
139,312	79,720	-0,275	-0,206
140,327	139,236	-0,253	-0,233
141,341	41,319	-0,264	-0,167
142,356	346,447	-0,117	-0,161
143,370	35,703	-0,289	-0,177
144,385	-3,445	-0,314	-0,152
145,400	4,712	-0,217	-0,111
146,414	-63,275	-0,293	-0,084
147,429	-101,974	-0,223	-0,037
148,443	-55,425	-0,080	-0,025
149,458	-24,772	-0,224	-0,092
150,473	442,390	-0,165	-0,254
151,487	-66,390	-0,230	-0,064
152,502	608,507	-0,167	-0,291
153,516	161,334	-0,280	-0,273
154,531	56,488	-0,209	-0,142
155,546	4,349	-0,161	-0,082
156,560	-102,296	-0,240	-0,040
157,575	-67,543	-0,216	-0,059
158,589	309,297	-0,136	-0,178
159,604	-63,677	-0,379	-0,108
160,619	-13,631	-0,245	-0,110
161,633	60,323	-0,328	-0,226
162,648	-22,186	-0,344	-0,145
163,662	-36,801	-0,343	-0,128
164,677	-15,910	-0,232	-0,103
165,692	-108,804	-0,462	-0,068
166,706	-38,400	-0,283	-0,104
167,721	43,043	-0,300	-0,191
168,735	157,216	-0,206	-0,199
169,750	280,475	-0,208	-0,260
170,764	-39,462	-0,223	-0,081
171,779	461,129	-0,172	-0,269
172,794	123,029	-0,229	-0,200
173,808	-60,565	-0,316	-0,093
174,823	63,391	-0,248	-0,173
175,837	138,579	-0,181	-0,166
176,852	83,107	-0,171	-0,130
177,867	227,028	-0,186	-0,211
178,881	-102,576	-0,274	-0,045
179,896	303,187	-0,221	-0,286
180,910	99,694	-0,215	-0,173
181,925	15,427	-0,209	-0,114
182,940	-19,957	-0,279	-0,119
183,954	286,646	-0,216	-0,272
184,969	193,438	-0,202	-0,213
185,983	102,456	-0,135	-0,110
186,998	-65,249	-0,351	-0,098
188,013	267,271	-0,304	-0,371
189,027	152,469	-0,190	-0,181
190,042	-40,333	-0,255	-0,092
191,056	538,559	-0,125	-0,208
192,071	23,988	-0,052	-0,030
193,086	78,305	-0,170	-0,126
194,100	-200,000	-0,012	-0,125
195,115	-107,879	-0,296	-0,044
196,129	93,688	-0,198	-0,156
197,144	425,772	-0,181	-0,272
198,159	138,109	-0,190	-0,173
199,173	117,254	-0,190	-0,163
200,188	216,758	-0,139	-0,154
201,202	-131,141	-0,194	0,018
202,217	-180,867	-0,212	0,003
203,232	90,229	-0,233	-0,181
204,246	267,003	-0,201	-0,245
205,261	47,207	-0,215	-0,139
206,275	164,768	-0,123	-0,121
207,290	328,341	-0,082	-0,110
208,304	154,296	-0,148	-0,142
209,319	93,567	-0,085	-0,067
210,334	10,524	-0,247	-0,130
211,348	-19,761	-0,237	-0,101
212,363	184,983	-0,197	-0,203
213,377	310,359	-0,174	-0,227
214,392	-44,652	-0,150	-0,052
215,407	-80,319	-0,189	0,044
216,421	23,060	-0,163	-0,093
217,436	89,976	-0,181	-0,140
218,450	178,812	-0,151	-0,154
219,465	11,885	-0,307	-0,163
220,480	24,970	-0,148	-0,085
221,494	-110,176	-0,153	0,022
222,509	800,000	-0,108	-0,230
223,523	59,239	-0,131	-0,090
224,538	-69,641	-0,313	-0,083
225,553	281,183	-0,215	-0,268
226,567	150,020	-0,162	-0,152
227,582	85,132	-0,265	-0,202
228,596	762,648	-0,103	-0,195
229,611	2,114	-0,173	-0,086
230,626	-200,000	-0,211	-0,001
231,640	417,249	-0,136	-0,202
232,655	40,876	-0,239	-0,149
233,669	-94,701	-0,154	-0,029
234,684	-22,828	-0,322	-0,134
235,699	-88,580	-0,132	0,027
236,713	349,877	-0,143	-0,196
237,728	226,033	-0,128	-0,144
238,742	-6,401	-0,183	-0,086
239,757	57,270	-0,255	-0,172
240,772	246,454	-0,220	-0,258
241,786	-10,295	-0,238	-0,109
242,801	617,256	-0,080	-0,139
243,815	-12,162	-0,138	-0,062
244,830	-200,000	-0,072	-0,234
245,844	563,740	-0,102	-0,172
246,859	123,894	-0,202	-0,176
247,874	509,587	-0,190	-0,308
248,888	58,427	-0,254	-0,172
249,903	291,952	-0,121	-0,153
250,917	73,657	-0,226	-0,164
251,932	-48,194	-0,170	-0,056
252,947	23,849	-0,188	-0,107
253,961	702,078	-0,093	-0,170
254,976	85,430	-0,202	-0,154
255,990	92,754	-0,295	-0,231
257,005	438,255	-0,180	-0,273
258,020	76,836	-0,122	-0,090
259,034	111,166	-0,111	-0,092
260,049	12,275	-0,220	-0,117
261,063	273,627	-0,220	-0,270
262,078	162,071	-0,172	-0,167
263,093	465,650	-0,100	-0,156
264,107	-193,574	-0,231	0,001
265,122	-30,063	-0,239	-0,094
266,136	201,254	-0,129	-0,137
267,151	-30,942	-0,248	-0,096
268,166	-135,097	-0,261	-0,021
269,180	10,654	-0,307	-0,162
270,195	60,290	-0,228	-0,155
271,209	160,221	-0,053	-0,051
272,224	-118,996	-0,220	-0,026
273,239	-37,979	-0,183	-0,067
274,253	-107,494	-0,163	-0,024
275,268	-34,858	-0,249	-0,093
276,282	74,253	-0,101	-0,073
277,297	120,786	-0,135	-0,116
278,312	364,615	-0,135	-0,188
279,326	543,825	-0,116	-0,192
280,341	-47,768	-0,186	-0,062
281,355	714,113	-0,116	-0,213
282,370	10,732	-0,219	-0,115
283,384	-118,514	-0,195	-0,024
284,399	154,540	-0,229	-0,217
285,414	40,049	-0,206	-0,128
286,428	515,128	-0,051	-0,082
287,443	-86,766	-0,249	0,052
288,457	-14,370	-0,174	0,077
289,472	216,845	-0,098	-0,107
290,487	-146,876	-0,191	0,011
291,501	-77,562	-0,234	-0,056
292,516	-35,943	-0,180	-0,067
293,530	800,000	-0,066	-0,185
294,545	-79,558	-0,104	-0,024
295,560	800,000	-0,112	-0,230
296,574	-75,161	-0,157	0,038
297,589	636,170	-0,052	-0,092
298,603	121,943	-0,156	-0,134
299,618	800,000	-0,122	-0,250
300,633	800,000	-0,085	-0,188
301,647	-160,852	-0,176	-0,006
302,662	-78,913	-0,290	-0,068
303,676	-22,265	-0,120	-0,050
304,691	45,116	-0,176	-0,112
305,706	621,114	-0,092	-0,159
306,720	-64,281	-0,158	-0,044
307,735	800,000	-0,044	-0,111
308,749	16,608	-0,165	-0,090
309,764	631,514	-0,059	-0,104
310,779	-200,000	-0,027	-0,195
311,793	-109,308	-0,141	0,020
312,808	-78,283	-0,193	-0,045
313,822	34,493	-0,094	-0,057
314,837	-200,000	-0,016	-0,099
315,852	-200,000	-0,057	-0,184
316,866	-99,985	-0,095	0,016
317,881	-111,579	-0,179	0,025
318,895	-119,430	-0,056	-0,007
319,910	-16,780	-0,155	-0,067
320,925	741,559	-0,173	-0,321
321,939	-79,684	-0,209	-0,048
322,954	420,575	-0,105	-0,156
323,968	-106,446	-0,116	-0,018
324,983	337,784	-0,084	-0,113
325,997	800,000	-0,049	-0,100
327,012	31,252	-0,262	-0,154
328,027	-78,919	-0,219	0,051
329,041	50,322	-0,155	-0,101
330,056	773,755	-0,076	-0,144
331,070	-68,053	-0,114	-0,030
332,085	-174,983	-0,155	-0,003
333,100	91,112	-0,165	-0,127
334,114	208,801	-0,181	-0,195
335,129	203,084	-0,137	-0,145
336,143	639,190	-0,096	-0,169
337,158	127,003	-0,102	-0,089
338,173	111,545	-0,048	-0,040
339,187	63,493	-0,104	-0,072
340,202	-97,196	-0,145	-0,026
341,216	-90,122	-0,135	-0,027
342,231	24,490	-0,140	-0,079
343,246	800,000	-0,081	-0,196
344,260	-7,754	-0,108	-0,050
345,275	116,031	-0,044	0,037
346,289	18,879	-0,108	-0,059
347,304	-130,591	-0,153	-0,014
348,319	383,355	-0,189	-0,268
349,333	-37,297	-0,112	-0,041
350,348	220,886	-0,089	-0,098
351,362	-13,328	-0,077	-0,034
352,377	-150,582	-0,157	-0,008
353,392	445,281	-0,078	-0,118
354,406	-174,172	-0,199	-0,004
355,421	207,843	1315,532	1411,092
356,435	159,894	1476,366	1411,569
