DTS Sentinel unit serial number:	SN410029Multiplexer serial number:	ORYXHardware model number:	OX2-SRSoftware version number:	ORYX F/W v4,00 Oryx Data Collector v3.7.2.0data status	okinstallation	B3 Nyhavnadifferential loss correction	single-endedforward channel	channel 1reverse channel	N/Adate	2023/12/01time	08:02:30forward acquisition time	300,00reverse acquisition time	0,00gamma	499,1914k internal	0,3213k external	0,3213temperature offset calibration	1,0000default loss term (dB/km)	0,3820temperature slope calibration	1,0000multiplexer offset coefficient	1,0000multiplexer slope coefficient	1,0000fibre end	0,00T internal ref (°C)	8,06T ext. ref 1 (°C)	-6,51T ext. ref 2 (°C)	-6,65length (m)	temperature (°C)	Stokes	anti-Stokes-744,400	672,359	-0,180	-0,340
-743,385	800,000	-0,107	0,306
-742,371	159,267	-0,145	-0,146
-741,356	-200,000	0,020	0,253
-740,342	407,390	-0,175	-0,268
-739,327	800,000	-0,067	0,181
-738,312	127,427	-0,188	-0,173
-737,298	291,114	-0,120	0,158
-736,283	50,221	-0,160	-0,109
-735,269	-200,000	0,002	0,321
-734,254	-27,588	-0,179	-0,075
-733,239	-78,247	-0,314	0,078
-732,225	-200,000	-0,027	-0,144
-731,210	800,000	0,117	0,275
-730,196	4,263	-0,101	-0,053
-729,181	788,275	-0,026	-0,053
-728,167	191,696	0,009	0,010
-727,152	16,150	-0,119	-0,068
-726,137	800,000	0,042	0,134
-725,123	213,515	0,043	-0,049
-724,108	112,458	-0,098	-0,086
-723,094	-37,481	-0,072	-0,028
-722,079	-139,497	-0,160	0,012
-721,064	-110,432	0,072	-0,011
-720,050	800,000	0,029	-0,083
-719,035	78,837	-0,007	0,005
-718,021	800,000	0,019	0,052
-717,006	-200,000	0,001	-0,110
-715,991	-16,935	-0,061	0,028
-714,977	5,062	-0,144	-0,077
-713,962	132,944	0,076	-0,071
-712,948	-200,000	0,023	0,085
-711,933	330,307	-0,033	0,046
-710,918	-71,591	0,102	-0,027
-709,904	-101,234	-0,129	-0,023
-708,889	-49,863	-0,063	-0,021
-707,875	-159,737	-0,164	-0,006
-706,860	-200,000	0,011	0,111
-705,845	-200,000	0,008	-0,050
-704,831	-64,218	-0,055	-0,016
-703,816	233,103	0,025	0,030
-702,802	-200,000	-0,003	0,024
-701,787	-200,000	-0,017	-0,132
-700,772	-105,449	-0,150	0,024
-699,758	-110,822	0,202	0,030
-698,743	353,959	-0,078	-0,113
-697,729	-94,290	0,181	0,035
-696,714	-200,000	0,007	0,086
-695,699	182,872	-0,154	0,164
-694,685	-200,000	-0,045	-0,181
-693,670	800,000	-0,027	-0,057
-692,656	-142,933	-0,047	0,003
-691,641	5,911	0,092	0,049
-690,627	169,689	0,074	0,076
-689,612	-152,250	-0,071	0,004
-688,597	800,000	0,040	-0,099
-687,583	800,000	-0,039	-0,118
-686,568	-200,000	-0,011	-0,059
-685,554	-126,914	0,167	0,018
-684,539	800,000	-0,087	0,200
-683,524	62,651	-0,061	0,044
-682,510	721,754	-0,023	0,044
-681,495	118,826	-0,070	-0,063
-680,481	-200,000	-0,038	-0,167
-679,466	-200,000	0,005	0,137
-678,451	-86,837	-0,201	-0,044
-677,437	800,000	-0,047	-0,137
-676,422	247,274	0,063	0,077
-675,408	-200,000	0,029	0,117
-674,393	83,781	0,075	-0,059
-673,378	800,000	-0,023	-0,070
-672,364	-140,932	-0,198	-0,014
-671,349	96,488	-0,134	-0,111
-670,335	-200,000	0,009	-0,071
-669,320	-200,000	0,011	0,109
-668,305	-98,556	0,066	-0,012
-667,291	-39,833	0,020	-0,008
-666,276	-200,000	-0,009	-0,041
-665,262	732,305	-0,093	-0,180
-664,247	800,000	-0,030	0,075
-663,232	-119,209	-0,035	0,004
-662,218	800,000	0,015	0,037
-661,203	-200,000	-0,033	0,202
-660,189	-81,817	-0,125	-0,029
-659,174	-169,863	0,050	0,001
-658,159	237,746	-0,093	-0,111
-657,145	70,544	-0,053	0,040
-656,130	-124,015	0,045	-0,005
-655,116	-200,000	0,024	-0,119
-654,101	673,112	-0,054	-0,102
-653,086	-70,493	-0,109	0,030
-652,072	-200,000	-0,010	0,048
-651,057	20,029	-0,126	-0,073
-650,043	800,000	-0,037	-0,090
-649,028	800,000	0,011	0,030
-648,014	228,077	0,107	0,126
-646,999	800,000	-0,043	0,098
-645,984	-200,000	-0,021	0,080
-644,970	-200,000	-0,014	-0,132
-643,955	30,220	-0,064	-0,039
-642,941	-200,000	-0,002	-0,096
-641,926	105,092	0,142	-0,121
-640,911	140,167	0,069	0,066
-639,897	800,000	-0,075	0,183
-638,882	54,334	-0,076	-0,053
-637,868	269,194	-0,068	0,087
-636,853	800,000	-0,039	0,112
-635,838	303,253	-0,030	0,040
-634,824	293,787	-0,017	0,023
-633,809	800,000	0,026	0,060
-632,795	56,458	0,106	0,074
-631,780	-200,000	0,011	0,214
-630,765	-88,134	0,018	-0,004
-629,751	-200,000	0,003	-0,061
-628,736	-200,000	-0,003	-0,064
-627,722	8,566	-0,026	0,014
-626,707	-200,000	0,008	0,142
-625,692	519,236	0,119	0,201
-624,678	-63,569	-0,074	-0,022
-623,663	-83,404	-0,060	-0,014
-622,649	-200,000	-0,021	-0,188
-621,634	-200,000	-0,010	-0,077
-620,619	-106,086	0,123	-0,020
-619,605	656,854	-0,031	-0,057
-618,590	-200,000	0,004	0,064
-617,576	-119,416	0,178	0,022
-616,561	-138,265	-0,060	0,005
-615,546	8,610	-0,049	-0,027
-614,532	268,812	-0,144	-0,183
-613,517	-200,000	0,004	-0,113
-612,503	-200,000	-0,005	-0,049
-611,488	76,825	0,056	-0,043
-610,474	800,000	-0,036	0,083
-609,459	591,288	-0,025	-0,044
-608,444	0,134	-0,175	-0,090
-607,430	10,835	0,041	-0,022
-606,415	171,197	-0,090	0,093
-605,401	-12,045	-0,076	-0,036
-604,386	-148,929	0,115	0,007
-603,371	265,329	-0,046	-0,058
-602,357	800,000	-0,081	-0,174
-601,342	800,000	0,023	-0,072
-600,328	-200,000	-0,005	-0,028
-599,313	800,000	0,057	-0,133
-598,298	126,581	0,072	-0,065
-597,284	-50,484	0,075	-0,025
-596,269	87,767	-0,046	0,037
-595,255	-200,000	0,011	0,102
-594,240	-16,729	-0,016	-0,007
-593,225	800,000	-0,007	0,018
-592,211	75,503	0,032	-0,024
-591,196	36,746	-0,074	-0,047
-590,182	-200,000	-0,018	0,081
-589,167	800,000	-0,078	0,247
-588,152	127,530	-0,073	-0,067
-587,138	624,841	-0,019	-0,034
-586,123	-79,252	-0,157	0,038
-585,109	-200,000	0,007	-0,103
-584,094	254,275	-0,049	0,061
-583,079	-161,842	-0,091	0,003
-582,065	18,614	0,097	0,055
-581,050	-200,000	0,018	0,068
-580,036	753,811	-0,013	-0,025
-579,021	111,360	-0,069	-0,060
-578,006	367,144	0,068	-0,099
-576,992	364,316	0,054	-0,079
-575,977	800,000	-0,038	0,106
-574,963	-200,000	-0,016	-0,073
-573,948	-37,602	-0,040	0,015
-572,934	-200,000	-0,011	0,064
-571,919	-200,000	-0,030	-0,183
-570,904	-173,006	0,129	-0,003
-569,890	631,459	0,058	-0,106
-568,875	-132,817	0,117	0,011
-567,861	-200,000	-0,003	-0,103
-566,846	153,154	-0,088	0,087
-565,831	-200,000	-0,000	-0,021
-564,817	-14,321	0,081	-0,037
-563,802	78,386	-0,173	-0,133
-562,788	-20,001	-0,074	-0,033
-561,773	298,519	-0,044	0,058
-560,758	800,000	-0,021	0,064
-559,744	78,550	-0,142	0,109
-558,729	36,011	-0,047	0,030
-557,715	-200,000	0,008	-0,077
-556,700	-200,000	-0,022	-0,093
-555,685	582,911	0,023	0,041
-554,671	-200,000	0,012	0,091
-553,656	-200,000	0,009	0,108
-552,642	-200,000	0,066	0,223
-551,627	-91,016	0,094	-0,019
-550,612	800,000	-0,011	0,024
-549,598	-86,588	0,080	0,018
-548,583	528,058	0,024	0,041
-547,569	124,624	0,028	0,025
-546,554	90,464	0,074	0,060
-545,539	150,864	0,079	-0,077
-544,525	-200,000	-0,015	0,065
-543,510	800,000	-0,047	0,119
-542,496	800,000	0,021	-0,058
-541,481	-200,000	-0,019	-0,163
-540,466	144,385	-0,117	0,112
-539,452	311,521	0,094	0,127
-538,437	66,314	0,065	-0,048
-537,423	-17,259	-0,109	0,049
-536,408	473,405	-0,018	-0,029
-535,393	640,240	-0,035	-0,065
-534,379	-38,999	0,092	-0,035
-533,364	-167,824	0,057	0,002
-532,350	-6,135	0,053	0,026
-531,335	12,806	-0,018	0,010
-530,321	52,974	-0,036	0,025
-529,306	308,579	-0,027	0,037
-528,291	800,000	0,037	0,083
-527,277	-200,000	-0,031	-0,154
-526,262	-200,000	0,003	0,051
-525,248	600,123	0,049	0,088
-524,233	137,594	0,029	-0,027
-523,218	-200,000	-0,027	0,166
-522,204	226,555	-0,083	0,097
-521,189	-20,177	-0,126	-0,056
-520,175	-200,000	0,039	-0,138
-519,160	-152,355	-0,156	0,008
-518,145	-61,116	0,086	-0,026
-517,131	196,792	0,084	0,092
-516,116	-200,000	0,003	0,046
-515,102	-200,000	-0,028	-0,159
-514,087	-2,247	-0,182	-0,091
-513,072	211,213	0,014	-0,016
-512,058	-200,000	-0,019	-0,118
-511,043	800,000	-0,044	-0,090
-510,029	-200,000	0,018	-0,098
-509,014	584,096	0,068	0,120
-507,999	-12,605	-0,099	-0,046
-506,985	197,852	0,036	-0,040
-505,970	456,802	-0,063	0,100
-504,956	-153,898	0,024	0,001
-503,941	16,131	0,009	-0,005
-502,926	-200,000	0,001	0,100
-501,912	-11,548	0,102	-0,048
-500,897	-13,050	-0,095	0,044
-499,883	-133,846	0,080	0,007
-498,868	-200,000	0,009	0,046
-497,853	-85,187	-0,124	0,028
-496,839	121,569	0,104	-0,093
-495,824	70,961	-0,112	0,083
-494,810	-200,000	0,002	-0,059
-493,795	545,801	-0,042	0,072
-492,781	103,497	0,013	0,011
-491,766	-27,352	0,053	-0,022
-490,751	-74,335	-0,150	-0,039
-489,737	57,937	-0,016	0,011
-488,722	-103,690	0,158	-0,026
-487,708	-200,000	-0,012	-0,109
-486,693	227,666	-0,035	0,041
-485,678	-200,000	0,009	0,060
-484,664	-200,000	0,000	-0,040
-483,649	800,000	0,060	-0,133
-482,635	53,503	0,065	0,045
-481,620	178,802	-0,122	-0,128
-480,605	14,973	0,091	-0,051
-479,591	118,487	-0,053	0,047
-478,576	-200,000	0,019	0,065
-477,562	-161,426	-0,065	-0,002
-476,547	524,427	0,047	-0,080
-475,532	-161,559	0,071	-0,003
-474,518	-98,845	0,102	0,018
-473,503	-118,269	0,087	-0,011
-472,489	231,855	0,035	-0,042
-471,474	-149,841	-0,075	0,004
-470,459	-200,000	-0,044	-0,222
-469,445	800,000	-0,050	-0,119
-468,430	-200,000	-0,002	-0,022
-467,416	52,733	0,068	-0,047
-466,401	800,000	-0,018	-0,055
-465,386	22,495	0,110	-0,064
-464,372	365,268	-0,013	0,020
-463,357	-27,344	-0,146	-0,060
-462,343	-76,342	-0,061	0,015
-461,328	-78,688	-0,056	-0,014
-460,313	76,192	0,055	0,041
-459,299	-200,000	-0,014	0,055
-458,284	274,299	-0,029	0,037
-457,270	-62,818	-0,115	-0,034
-456,255	-34,535	-0,039	-0,015
-455,241	396,168	-0,060	0,090
-454,226	-200,000	0,005	0,050
-453,211	-113,663	0,182	-0,025
-452,197	-200,000	-0,007	-0,076
-451,182	-188,882	0,027	0,000
-450,168	-31,588	-0,077	-0,031
-449,153	-49,976	-0,034	0,011
-448,138	-34,730	0,096	0,038
-447,124	484,382	-0,083	-0,136
-446,109	25,229	0,117	-0,070
-445,095	-200,000	0,043	0,190
-444,080	-200,000	-0,008	0,097
-443,065	447,176	0,022	-0,035
-442,051	-121,014	-0,119	-0,014
-441,036	800,000	0,053	-0,111
-440,022	-52,743	0,036	0,012
-439,007	-52,834	-0,107	0,035
-437,992	800,000	0,028	0,079
-436,978	133,539	0,113	0,104
-435,963	228,305	-0,031	0,036
-434,949	-159,189	0,062	-0,002
-433,934	55,484	-0,046	-0,032
-432,919	337,917	0,085	0,119
-431,905	-16,889	-0,114	-0,051
-430,890	-200,000	-0,024	0,120
-429,876	728,841	0,039	0,075
-428,861	-67,392	0,131	-0,037
-427,846	140,070	-0,072	0,068
-426,832	800,000	-0,001	0,003
-425,817	-200,000	-0,036	-0,165
-424,803	23,481	-0,079	0,047
-423,788	780,059	0,023	-0,046
-422,773	-200,000	-0,007	0,199
-421,759	-180,982	-0,079	-0,001
-420,744	-104,115	0,055	-0,009
-419,730	-13,829	0,066	-0,030
-418,715	800,000	-0,036	-0,088
-417,701	-73,928	0,038	-0,010
-416,686	-200,000	-0,005	0,044
-415,671	4,474	0,078	0,041
-414,657	800,000	-0,040	0,119
-413,642	-134,705	-0,046	0,004
-412,628	-108,988	0,109	0,016
-411,613	476,731	-0,082	0,132
-410,598	800,000	0,020	0,044
-409,584	-200,000	-0,017	-0,088
-408,569	85,057	0,073	-0,057
-407,555	-66,542	0,094	-0,026
-406,540	-200,000	0,006	-0,073
-405,525	253,869	-0,040	-0,049
-404,511	-59,817	-0,054	0,016
-403,496	13,027	0,039	-0,022
-402,482	-17,684	-0,039	0,017
-401,467	800,000	0,034	0,084
-400,452	117,513	0,106	0,093
-399,438	-200,000	-0,001	0,113
-398,423	-200,000	-0,001	-0,097
-397,409	-122,326	0,092	0,011
-396,394	800,000	-0,066	-0,134
-395,379	-200,000	-0,033	-0,122
-394,365	-47,603	0,118	0,041
-393,350	800,000	0,097	0,199
-392,336	-65,944	0,021	0,006
-391,321	-14,669	0,063	0,029
-390,306	225,335	-0,126	-0,146
-389,292	111,931	-0,047	-0,041
-388,277	686,212	-0,010	-0,019
-387,263	76,945	-0,087	0,066
-386,248	275,958	-0,044	0,056
-385,233	-124,196	0,097	-0,011
-384,219	-11,155	0,060	-0,028
-383,204	-200,000	0,008	-0,054
-382,190	-97,315	-0,176	0,033
-381,175	-119,168	0,076	0,009
-380,160	-21,499	0,094	0,041
-379,146	-34,039	0,077	0,030
-378,131	749,362	0,028	0,054
-377,117	57,785	-0,083	-0,058
-376,102	-200,000	0,016	-0,053
-375,088	212,181	0,032	0,036
-374,073	316,734	-0,018	0,024
-373,058	-200,000	-0,025	0,107
-372,044	-200,000	0,002	-0,125
-371,029	98,176	0,034	-0,028
-370,015	42,267	0,086	0,056
-369,000	-200,000	0,004	0,036
-367,985	800,000	-0,038	-0,103
-366,971	-157,028	0,093	0,004
-365,956	-59,786	-0,036	0,011
-364,942	-113,690	-0,093	0,013
-363,927	73,881	0,067	0,050
-362,912	-200,000	0,016	0,155
-361,898	237,962	0,092	-0,109
-360,883	676,487	0,006	0,011
-359,869	240,807	0,108	-0,129
-358,854	228,843	-0,058	0,067
-357,839	-200,000	0,004	0,093
-356,825	81,522	-0,062	-0,048
-355,810	621,520	-0,062	-0,112
-354,796	-70,138	0,060	0,016
-353,781	-97,701	-0,030	0,006
-352,766	519,857	-0,037	-0,063
-351,752	-15,593	-0,109	-0,049
-350,737	-114,918	0,079	0,011
-349,723	-200,000	0,049	0,228
-348,708	-147,331	0,176	-0,011
-347,693	-172,876	-0,110	0,002
-346,679	800,000	-0,031	0,062
-345,664	338,252	0,099	-0,138
-344,650	266,286	-0,097	0,121
-343,635	85,784	0,082	-0,064
-342,620	-200,000	-0,005	0,113
-341,606	-94,836	0,027	-0,005
-340,591	-41,961	0,064	0,023
-339,577	202,846	-0,080	-0,088
-338,562	47,768	-0,102	0,068
-337,548	199,539	0,035	-0,039
-336,533	800,000	-0,011	-0,033
-335,518	-200,000	0,001	0,105
-334,504	-36,501	0,038	-0,015
-333,489	327,214	-0,036	0,049
-332,475	-200,000	0,002	-0,121
-331,460	723,366	-0,018	0,034
-330,445	47,479	0,026	0,018
-329,431	-18,145	-0,085	0,038
-328,416	250,871	0,092	0,111
-327,402	-101,986	0,092	0,016
-326,387	-200,000	0,004	-0,016
-325,372	-200,000	0,009	-0,086
-324,358	800,000	-0,013	0,039
-323,343	237,655	-0,112	0,132
-322,329	-74,824	0,147	0,037
-321,314	-200,000	0,000	0,005
-320,299	53,371	0,103	0,071
-319,285	-131,736	-0,048	-0,004
-318,270	-200,000	-0,026	0,108
-317,256	306,082	-0,113	0,150
-316,241	-74,976	-0,111	0,028
-315,226	800,000	0,049	0,112
-314,212	-109,655	0,130	-0,019
-313,197	62,613	-0,062	-0,044
-312,183	-51,779	0,064	0,021
-311,168	-200,000	0,003	-0,038
-310,153	62,362	-0,097	-0,069
-309,139	360,857	-0,106	-0,152
-308,124	127,988	0,079	0,071
-307,110	-200,000	0,001	0,045
-306,095	550,585	-0,035	-0,060
-305,080	800,000	0,027	0,058
-304,066	84,239	0,093	0,072
-303,051	-103,827	-0,132	-0,022
-302,037	-77,198	-0,047	-0,011
-301,022	26,176	-0,104	-0,062
-300,008	0,925	0,131	-0,067
-298,993	-200,000	-0,002	0,036
-297,978	-200,000	-0,041	0,174
-296,964	100,935	0,031	0,025
-295,949	181,973	-0,148	-0,156
-294,935	680,232	0,070	-0,130
-293,920	-200,000	-0,005	-0,034
-292,905	-200,000	0,006	-0,107
-291,891	-200,000	0,026	-0,085
-290,876	26,494	-0,049	-0,029
-289,862	-13,475	-0,078	-0,036
-288,847	-46,513	-0,214	-0,074
-287,832	-200,000	-0,005	-0,033
-286,818	28,333	0,047	0,028
-285,803	-138,484	0,089	-0,007
-284,789	800,000	-0,033	0,083
-283,774	790,278	0,083	0,163
-282,759	-57,095	-0,071	0,022
-281,745	-200,000	-0,052	-0,179
-280,730	-200,000	0,005	-0,128
-279,716	800,000	-0,008	-0,016
-278,701	-22,205	0,132	0,057
-277,686	116,460	-0,090	-0,079
-276,672	153,843	-0,050	0,048
-275,657	-200,000	-0,009	-0,065
-274,643	30,203	0,021	-0,013
-273,628	-200,000	-0,018	-0,164
-272,613	285,310	0,024	-0,031
-271,599	-32,064	0,093	0,037
-270,584	-88,128	-0,045	-0,010
-269,570	268,274	-0,027	-0,033
-268,555	546,289	0,038	0,065
-267,540	-200,000	-0,015	0,153
-266,526	41,319	-0,101	-0,065
-265,511	268,353	-0,056	-0,070
-264,497	318,161	0,024	0,033
-263,482	-163,001	0,089	0,003
-262,467	-132,988	-0,003	-0,000
-261,453	-200,000	-0,005	-0,145
-260,438	-74,733	0,064	0,016
-259,424	213,975	0,021	-0,023
-258,409	800,000	0,042	-0,132
-257,395	35,025	0,119	0,074
-256,380	250,030	0,071	-0,086
-255,365	-200,000	-0,015	0,218
-254,351	-73,371	-0,021	-0,005
-253,336	133,988	-0,066	0,061
-252,322	800,000	-0,068	0,145
-251,307	90,904	-0,074	-0,059
-250,292	-200,000	-0,009	-0,069
-249,278	471,689	0,066	0,107
-248,263	156,062	0,067	-0,066
-247,249	-19,837	-0,087	0,038
-246,234	1,803	-0,028	-0,014
-245,219	-47,989	0,059	0,020
-244,205	-200,000	0,006	-0,117
-243,190	-200,000	-0,007	-0,166
-242,176	114,173	0,091	0,078
-241,161	-22,668	-0,023	0,010
-240,146	132,368	0,163	-0,150
-239,132	-200,000	0,023	-0,078
-238,117	-200,000	0,051	-0,162
-237,103	-9,574	-0,047	-0,022
-236,088	304,956	0,077	0,102
-235,073	-200,000	-0,038	0,128
-234,059	586,519	-0,035	-0,061
-233,044	-84,135	0,018	0,004
-232,030	-14,452	-0,030	0,014
-231,015	23,566	0,064	-0,037
-230,000	-39,311	-0,146	-0,054
-228,986	-124,170	-0,063	-0,007
-227,971	43,663	-0,128	0,083
-226,957	-200,000	-0,026	0,085
-225,942	-94,957	-0,029	-0,005
-224,927	277,703	-0,085	0,108
-223,913	-200,000	-0,020	-0,108
-222,898	800,000	0,016	0,049
-221,884	189,752	-0,055	-0,059
-220,869	-13,503	-0,095	-0,044
-219,855	165,760	0,132	0,133
-218,840	60,161	-0,077	-0,054
-217,825	800,000	0,059	0,128
-216,811	-27,544	-0,108	0,044
-215,796	204,073	0,027	-0,029
-214,782	-58,823	-0,061	-0,019
-213,767	800,000	0,038	0,096
-212,752	-40,181	0,131	0,048
-211,738	467,022	0,037	-0,059
-210,723	-200,000	0,024	-0,130
-209,709	-200,000	0,003	-0,122
-208,694	210,118	-0,033	-0,037
-207,679	69,486	0,046	-0,033
-206,665	-8,084	-0,051	-0,024
-205,650	-47,276	0,103	0,035
-204,636	66,391	0,063	0,045
-203,621	257,957	0,040	0,049
-202,606	-200,000	-0,018	-0,175
-201,592	-51,575	-0,057	-0,019
-200,577	-200,000	0,019	0,163
-199,563	93,758	0,051	-0,041
-198,548	167,007	0,101	-0,102
-197,533	-200,000	0,037	0,118
-196,519	-169,329	-0,124	-0,003
-195,504	800,000	-0,029	0,078
-194,490	106,720	0,059	-0,050
-193,475	259,460	-0,060	-0,074
-192,460	-106,123	-0,073	0,012
-191,446	-12,453	0,152	0,070
-190,431	-200,000	-0,039	0,193
-189,417	256,619	0,130	0,159
-188,402	347,229	0,020	0,028
-187,387	-85,327	-0,075	0,016
-186,373	-48,592	-0,160	-0,054
-185,358	34,133	0,122	0,075
-184,344	800,000	-0,013	-0,027
-183,329	-200,000	0,011	0,101
-182,315	800,000	-0,011	0,032
-181,300	-157,510	-0,126	-0,005
-180,285	-200,000	-0,032	-0,175
-179,271	-200,000	-0,019	-0,069
-178,256	687,990	0,083	0,154
-177,242	-127,089	-0,092	0,009
-176,227	-196,967	0,138	0,001
-175,212	800,000	0,067	-0,133
-174,198	-77,603	0,089	-0,022
-173,183	17,439	-0,150	-0,084
-172,169	-113,270	-0,067	0,009
-171,154	170,720	0,061	-0,062
-170,139	513,441	0,030	0,050
-169,125	622,537	0,070	0,125
-168,110	543,703	-0,013	0,022
-167,096	-200,000	0,007	-0,029
-166,081	88,635	-0,035	-0,027
-165,066	-20,209	-0,069	0,030
-164,052	800,000	0,043	-0,087
-163,037	-21,469	0,065	0,028
-162,023	-8,818	0,060	0,028
-161,008	800,000	-0,017	0,036
-159,993	49,120	0,101	0,067
-158,979	76,591	-0,070	-0,052
-157,964	-89,555	0,067	0,014
-156,950	-113,838	-0,064	0,009
-155,935	616,781	0,039	-0,070
-154,920	97,563	-0,012	-0,010
-153,906	-35,859	0,111	-0,042
-152,891	259,564	0,036	-0,044
-151,877	211,958	0,009	0,010
-150,862	139,997	-0,036	-0,034
-149,847	117,935	0,040	-0,035
-148,833	160,387	-0,019	0,019
-147,818	-200,000	0,009	-0,099
-146,804	-200,000	-0,012	0,150
-145,789	800,000	-0,036	0,110
-144,775	38,088	-0,092	0,058
-143,760	-50,138	0,026	0,009
-142,745	-142,089	-0,145	-0,010
-141,731	376,512	0,057	-0,083
-140,716	4,183	0,122	0,063
-139,702	261,026	-0,046	-0,057
-138,687	134,751	-0,025	0,023
-137,672	487,465	-0,032	0,052
-136,658	-32,275	0,046	-0,018
-135,643	-149,917	-0,132	-0,007
-134,629	800,000	-0,025	-0,050
-133,614	800,000	-0,024	0,054
-132,599	-100,600	0,070	0,012
-131,585	800,000	0,018	0,050
-130,570	-54,269	-0,038	0,012
-129,556	-40,724	-0,095	-0,035
-128,541	800,000	-0,012	-0,027
-127,526	-94,200	-0,059	0,011
-126,512	140,495	0,124	0,116
-125,497	167,683	0,052	-0,052
-124,483	188,286	0,041	0,044
-123,468	800,000	0,089	0,174
-122,453	-200,000	-0,007	0,053
-121,439	252,380	0,021	0,025
-120,424	-92,963	0,011	0,002
-119,410	347,388	-0,086	0,120
-118,395	800,000	-0,021	0,055
-117,380	199,215	0,050	0,054
-116,366	-120,655	-0,084	0,010
-115,351	142,383	0,057	-0,053
-114,337	104,191	0,067	-0,055
-113,322	800,000	-0,031	-0,096
-112,307	-200,000	-0,028	-0,101
-111,293	147,093	-0,040	0,038
-110,278	-200,000	0,027	-0,124
-109,264	-200,000	-0,025	0,177
-108,249	-125,735	0,067	0,007
-107,234	191,221	-0,092	-0,098
-106,220	-200,000	0,006	-0,102
-105,205	-200,000	0,008	-0,076
-104,191	-94,050	0,133	0,026
-103,176	-200,000	0,012	-0,096
-102,162	-26,577	0,116	-0,048
-101,147	-200,000	-0,014	-0,048
-100,132	60,854	-0,112	-0,078
-99,118	303,297	-0,019	0,025
-98,103	-108,619	0,051	0,008
-97,089	800,000	0,054	0,165
-96,074	-124,683	0,068	-0,007
-95,059	-200,000	-0,004	0,073
-94,045	5,301	0,149	0,077
-93,030	238,155	-0,063	-0,074
-92,016	241,536	-0,064	-0,075
-91,001	88,487	0,152	-0,119
-89,986	26,629	-0,095	-0,056
-88,972	108,092	0,028	0,023
-87,957	-78,177	0,034	-0,008
-86,943	-200,000	0,012	-0,077
-85,928	321,033	0,077	0,104
-84,913	-200,000	0,046	0,143
-83,899	-200,000	0,006	0,102
-82,884	3,229	0,059	0,030
-81,870	-89,345	0,117	0,024
-80,855	-158,196	0,053	0,002
-79,840	149,444	-0,045	0,043
-78,826	-85,266	-0,121	0,026
-77,811	-21,815	-0,049	0,021
-76,797	264,429	-0,050	-0,061
-75,782	800,000	0,013	-0,037
-74,767	-27,808	-0,038	0,015
-73,753	151,733	0,008	0,007
-72,738	123,006	-0,031	-0,028
-71,724	-61,034	0,093	-0,028
-70,709	-73,012	-0,042	-0,011
-69,694	-200,000	0,029	-0,106
-68,680	-200,000	-0,032	-0,124
-67,665	-143,071	-0,058	0,004
-66,651	-200,000	-0,004	0,024
-65,636	39,898	0,051	-0,032
-64,622	3,543	-0,074	0,038
-63,607	800,000	-0,072	-0,175
-62,592	-139,769	0,064	0,005
-61,578	-140,599	-0,115	-0,008
-60,563	192,581	0,027	0,029
-59,549	-99,682	-0,099	-0,017
-58,534	98,306	-2,016	-1,638
-57,519	540,866	-1,086	-1,832
-56,505	-200,000	-0,322	-4,491
-55,490	504,894	1,066	1,748
-54,476	800,000	5,305	11,514
-53,461	-200,000	22,562	346,454
-52,446	800,000	757,446	2295,328
-51,432	533,890	1644,446	2758,708
-50,417	68,131	1642,996	1184,933
-49,403	15,740	1520,292	840,940
-48,388	9,928	1446,178	772,028
-47,373	19,303	1438,852	812,759
-46,359	13,450	1427,384	778,628
-45,344	8,209	1423,259	751,566
-44,330	8,205	1421,479	750,576
-43,315	8,147	1419,775	749,370
-42,300	8,194	1417,803	748,523
-41,286	8,206	1416,526	747,876
-40,271	8,141	1415,372	746,929
-39,257	8,163	1414,227	746,401
-38,242	8,161	1413,208	745,824
-37,227	8,165	1412,014	745,181
-36,213	8,182	1410,702	744,541
-35,198	8,182	1409,284	743,759
-34,184	8,199	1408,414	743,354
-33,169	8,099	1407,146	742,186
-32,154	8,181	1406,372	742,131
-31,140	8,138	1404,970	741,163
-30,125	8,165	1403,866	740,677
-29,111	8,135	1402,847	739,968
-28,096	8,150	1401,412	739,254
-27,082	8,104	1400,280	738,411
-26,067	8,043	1399,466	737,670
-25,052	8,131	1398,288	737,427
-24,038	8,153	1397,228	736,940
-23,023	8,091	1396,193	736,078
-22,009	8,067	1395,375	735,509
-20,994	8,066	1394,241	734,877
-19,979	8,076	1393,379	734,438
-18,965	8,050	1392,380	733,763
-17,950	8,015	1391,529	733,123
-16,936	7,961	1390,877	732,501
-15,921	7,995	1389,556	731,933
-14,906	8,045	1388,553	731,605
-13,892	8,041	1387,865	731,195
-12,877	8,000	1386,897	730,467
-11,863	8,001	1386,155	730,053
-10,848	7,939	1385,299	729,289
-9,833	7,947	1384,349	728,794
-8,819	7,935	1383,401	728,212
-7,804	7,893	1382,493	727,510
-6,790	7,868	1381,506	726,848
-5,775	7,910	1380,404	726,435
-4,760	7,939	1379,500	726,063
-3,746	7,989	1378,465	725,718
-2,731	7,951	1377,680	725,102
-1,717	7,943	1376,715	724,527
-0,702	7,920	1374,878	723,429
0,313	11,873	1285,364	694,241
1,327	27,509	677,353	400,697
2,342	42,597	116,517	74,612
3,356	0,016	16,585	8,300
4,371	4,353	3,941	2,029
5,386	-32,970	1,393	0,542
6,400	800,000	0,315	0,877
7,415	114,812	-0,129	-0,111
8,429	-47,468	-0,342	-0,116
9,444	-17,577	-0,381	-0,168
10,459	78,288	-0,191	-0,144
11,473	22,864	-0,189	-0,109
12,488	88,052	-0,180	-0,141
13,502	-8,750	-0,376	-0,177
14,517	-67,414	-0,446	-0,123
15,531	-17,659	-0,237	-0,104
16,546	-23,215	-0,268	-0,113
17,561	374,082	-0,191	-0,275
18,575	48,277	-0,103	-0,067
19,590	-58,549	-0,379	-0,115
20,604	141,235	-0,182	-0,170
21,619	-35,790	-0,447	-0,170
22,634	97,279	-0,489	-0,395
23,648	248,806	-0,301	-0,360
24,663	685,196	-0,207	-0,381
25,677	-8,285	-0,374	-0,176
26,692	-37,641	-0,378	-0,141
27,707	99,341	-0,333	-0,271
28,721	83,700	-0,340	-0,261
29,736	-17,386	-0,427	-0,188
30,750	70,388	-0,362	-0,263
31,765	59,917	-0,386	-0,268
32,780	71,959	-0,368	-0,269
33,794	132,684	-0,206	-0,187
34,809	258,701	-0,272	-0,330
35,823	-6,242	-0,428	-0,205
36,838	-14,004	-0,383	-0,173
37,853	18,573	-0,410	-0,230
38,867	165,719	-0,436	-0,433
39,882	376,030	-0,254	-0,365
40,896	263,391	-0,242	-0,296
41,911	94,003	-0,256	-0,204
42,926	-3,453	-0,409	-0,199
43,940	102,900	-0,413	-0,339
44,955	60,030	-0,357	-0,247
45,969	93,844	-0,332	-0,264
46,984	364,110	-0,268	-0,379
47,999	80,760	-0,344	-0,260
49,013	213,139	-0,258	-0,287
50,028	370,485	-0,170	-0,242
51,042	135,037	-0,281	-0,256
52,057	195,610	-0,296	-0,316
53,071	13,056	-0,382	-0,207
54,086	249,920	-0,230	-0,274
55,101	100,374	-0,252	-0,205
56,115	68,374	-0,341	-0,245
57,130	-142,049	-0,443	-0,030
58,144	2,364	-0,301	-0,152
59,159	38,597	-0,280	-0,175
60,174	59,700	-0,446	-0,308
61,188	313,633	-0,298	-0,394
62,203	92,924	-0,335	-0,265
63,217	48,392	-0,240	-0,157
64,232	-47,371	-0,246	-0,083
65,247	-91,474	-0,351	-0,070
66,261	77,993	-0,387	-0,289
67,276	59,928	-0,250	-0,173
68,290	33,846	-0,394	-0,240
69,305	-108,961	-0,340	-0,050
70,320	-51,729	-0,276	-0,090
71,334	-33,775	-0,242	-0,093
72,349	17,909	-0,234	-0,130
73,363	114,733	-0,328	-0,280
74,378	48,604	-0,273	-0,179
75,393	260,004	-0,250	-0,303
76,407	800,000	-0,155	-0,325
77,422	2,191	-0,450	-0,227
78,436	50,225	-0,149	-0,098
79,451	-15,859	-0,370	-0,164
80,466	165,461	-0,291	-0,288
81,480	-35,113	-0,383	-0,146
82,495	-66,725	-0,209	-0,058
83,509	-25,718	-0,196	-0,080
84,524	-110,648	-0,219	-0,031
85,539	36,494	-0,352	-0,217
86,553	240,836	-0,194	-0,227
87,568	274,640	-0,185	-0,230
88,582	45,416	-0,251	-0,161
89,597	30,582	-0,281	-0,168
90,611	-40,565	-0,228	-0,082
91,626	-7,039	-0,356	-0,168
92,641	599,676	-0,144	-0,250
93,655	146,971	-0,229	-0,215
94,670	-34,582	-0,427	-0,163
95,684	-33,119	-0,391	-0,151
96,699	55,166	-0,306	-0,206
97,714	-34,926	-0,277	-0,105
98,728	421,062	-0,130	-0,196
99,743	659,742	-0,126	-0,228
100,757	-40,601	-0,286	-0,103
101,772	90,049	-0,258	-0,202
102,787	-2,020	-0,340	-0,166
103,801	269,262	-0,125	-0,153
104,816	146,989	-0,323	-0,303
105,830	-71,205	-0,278	-0,072
106,845	-166,225	-0,253	-0,007
107,860	238,819	-0,216	-0,251
108,874	139,325	-0,167	-0,153
109,889	41,283	-0,282	-0,177
110,903	43,534	-0,217	-0,138
111,918	91,874	-0,193	-0,151
112,933	167,050	-0,262	-0,259
113,947	-15,952	-0,136	-0,060
114,962	54,807	-0,200	-0,135
115,976	55,804	-0,210	-0,142
116,991	203,340	-0,190	-0,205
118,006	47,247	-0,195	-0,127
119,020	800,000	-0,130	-0,286
120,035	-7,457	-0,275	-0,129
121,049	168,315	-0,184	-0,183
122,064	-150,200	-0,216	-0,011
123,079	162,745	-0,237	-0,232
124,093	237,010	-0,198	-0,229
125,108	28,912	-0,309	-0,182
126,122	-81,731	-0,386	-0,088
127,137	-181,768	-0,264	-0,003
128,151	177,714	-0,162	-0,164
129,166	156,210	-0,169	-0,163
130,181	106,723	-0,182	-0,150
131,195	-26,097	-0,192	-0,078
132,210	58,751	-0,386	-0,264
133,224	47,035	-0,355	-0,230
134,239	800,000	-0,182	-0,371
135,254	170,276	-0,257	-0,256
136,268	-53,910	-0,165	-0,052
137,283	7,515	-0,245	-0,127
138,297	151,137	-0,302	-0,287
139,312	85,054	-0,268	-0,204
140,327	17,342	-0,290	-0,160
141,341	-122,669	-0,089	-0,010
142,356	741,183	-0,144	-0,270
143,370	-92,054	-0,337	0,066
144,385	-44,863	-0,189	-0,065
145,400	177,636	-0,186	-0,189
146,414	-18,633	-0,291	-0,126
147,429	168,802	-0,151	-0,150
148,443	6,017	-0,344	-0,177
149,458	357,534	-0,186	-0,259
150,473	197,681	-0,142	-0,151
151,487	-110,531	-0,193	-0,028
152,502	219,622	-0,197	-0,220
153,516	71,632	-0,182	-0,132
154,531	15,441	-0,264	-0,144
155,546	186,394	-0,318	-0,329
156,560	2,029	-0,149	-0,075
157,575	-9,972	-0,167	-0,077
158,589	-74,451	-0,242	-0,060
159,604	44,791	-0,155	-0,099
160,619	170,481	-0,193	-0,192
161,633	35,904	-0,273	-0,167
162,648	375,415	-0,064	-0,090
163,662	279,993	-0,245	-0,305
164,677	212,278	-0,228	-0,250
165,692	707,731	-0,067	-0,124
166,706	18,813	-0,271	-0,150
167,721	-117,595	-0,284	-0,035
168,735	440,409	-0,128	-0,194
169,750	61,933	-0,325	-0,225
170,764	15,445	-0,253	-0,137
171,779	419,417	-0,105	-0,156
172,794	-200,000	-0,025	-0,104
173,808	39,402	-0,177	-0,110
174,823	81,951	-0,319	-0,239
175,837	91,670	-0,273	-0,213
176,852	68,967	-0,302	-0,215
177,867	-2,796	-0,211	-0,102
178,881	-174,580	-0,143	0,003
179,896	-93,465	-0,260	0,050
180,910	156,741	-0,181	-0,173
181,925	109,193	-0,266	-0,221
182,940	25,389	-0,201	-0,116
183,954	433,787	-0,178	-0,269
184,969	-185,441	-0,143	0,001
185,983	269,372	-0,133	-0,162
186,998	455,399	-0,091	-0,141
188,013	-9,467	-0,267	-0,123
189,027	-10,079	-0,254	-0,117
190,042	439,628	-0,176	-0,268
191,056	332,443	-0,216	-0,289
192,071	-14,518	-0,188	-0,083
193,086	104,804	-0,200	-0,164
194,100	800,000	-0,135	-0,300
195,115	135,010	-0,220	-0,198
196,129	-80,695	-0,217	-0,050
197,144	592,676	-0,202	-0,347
198,159	-74,502	-0,280	-0,069
199,173	503,028	-0,031	-0,050
200,188	62,644	-0,158	-0,109
201,202	-91,273	-0,091	-0,018
202,217	52,422	-0,250	-0,165
203,232	88,524	-0,190	-0,146
204,246	-40,291	-0,265	-0,095
205,261	-59,592	-0,119	-0,035
206,275	-84,568	-0,232	-0,050
207,290	-24,503	-0,117	-0,048
208,304	660,281	-0,097	-0,174
209,319	-39,382	-0,078	-0,028
210,334	128,757	-0,138	-0,122
211,348	-1,452	-0,201	-0,098
212,363	-74,537	-0,250	-0,062
213,377	157,759	-0,178	-0,171
214,392	124,593	-0,213	-0,185
215,407	-31,136	-0,114	-0,044
216,421	-75,013	-0,221	-0,054
217,436	447,539	-0,141	-0,216
218,450	95,141	-0,225	-0,177
219,465	161,630	-0,182	-0,176
220,480	125,407	-0,177	-0,154
221,494	181,439	-0,090	-0,092
222,509	327,345	-0,101	-0,135
223,523	800,000	-0,106	-0,226
224,538	108,705	-0,208	-0,172
225,553	800,000	-0,092	-0,211
226,567	-44,435	-0,210	-0,072
227,582	29,956	-0,246	-0,144
228,596	380,671	-0,103	-0,147
229,611	-81,201	-0,159	0,036
230,626	-72,090	-0,189	-0,048
231,640	-174,044	-0,162	0,003
232,655	157,713	-0,162	-0,156
233,669	20,623	-0,172	-0,096
234,684	175,840	-0,152	-0,153
235,699	-74,715	-0,151	-0,037
236,713	226,550	-0,102	-0,114
237,728	22,624	-0,225	-0,127
238,742	352,664	-0,206	-0,283
239,757	72,360	-0,188	-0,135
240,772	-30,420	-0,275	-0,107
241,786	7,167	-0,273	-0,140
242,801	683,729	-0,091	-0,164
243,815	115,345	-0,133	-0,112
244,830	243,277	-0,092	-0,106
245,844	310,570	-0,097	-0,126
246,859	471,635	-0,156	-0,244
247,874	278,260	-0,185	-0,228
248,888	11,588	-0,284	-0,150
249,903	262,036	-0,151	-0,181
250,917	-200,000	-0,037	-0,238
251,932	296,494	-0,119	-0,151
252,947	54,350	-0,215	-0,143
253,961	129,132	-0,160	-0,141
254,976	32,892	-0,116	-0,069
255,990	-95,576	-0,252	-0,046
257,005	39,390	-0,168	-0,104
258,020	800,000	-0,038	-0,085
259,034	800,000	-0,053	-0,142
260,049	17,426	-0,163	0,089
261,063	11,338	-0,309	-0,162
262,078	-132,333	-0,110	-0,010
263,093	73,326	-0,140	-0,101
264,107	-74,737	-0,174	-0,043
265,122	235,548	-0,173	-0,197
266,136	-78,965	-0,202	-0,047
267,151	-61,879	-0,158	0,045
268,166	300,899	-0,059	-0,076
269,180	135,910	-0,205	-0,184
270,195	-93,973	-0,272	-0,051
271,209	-200,000	-0,010	-0,173
272,224	-200,000	-0,008	-0,044
273,239	-62,709	-0,185	-0,052
274,253	6,670	-0,174	-0,089
275,268	-200,000	-0,046	-0,224
276,282	-36,250	-0,237	-0,087
277,297	261,030	-0,185	-0,221
278,312	-45,838	-0,240	-0,081
279,326	-28,475	-0,170	-0,067
280,341	397,493	-0,088	-0,127
281,355	6,238	-0,242	-0,123
282,370	389,241	-0,112	-0,160
283,384	266,189	-0,135	-0,163
284,399	-28,032	-0,227	-0,090
285,414	97,441	-0,236	-0,186
286,428	139,900	-0,082	-0,074
287,443	543,004	-0,073	-0,121
288,457	-107,948	-0,252	-0,037
289,472	800,000	-0,113	-0,258
290,487	156,773	-0,117	-0,111
291,501	377,576	-0,090	-0,127
292,516	-18,236	-0,176	-0,076
293,530	-27,486	-0,187	-0,074
294,545	-200,000	-0,024	-0,120
295,560	-156,387	-0,207	-0,009
296,574	367,880	-0,104	-0,144
297,589	545,781	-0,083	-0,137
298,603	746,974	-0,103	-0,192
299,618	115,624	-0,158	-0,133
300,633	-14,506	-0,210	-0,092
301,647	7,228	-0,199	-0,102
302,662	276,296	-0,062	-0,075
303,676	327,217	-0,083	-0,109
304,691	54,499	-0,148	-0,098
305,706	-200,000	-0,082	-0,275
306,720	800,000	-0,086	-0,174
307,735	-102,909	-0,058	0,009
308,749	-28,736	-0,090	-0,035
309,764	-200,000	-0,022	-0,100
310,779	-93,418	-0,110	-0,021
311,793	-146,079	-0,101	-0,006
312,808	-200,000	-0,065	-0,269
313,822	132,239	-0,232	-0,205
314,837	800,000	-0,072	-0,159
315,852	67,404	-0,170	-0,119
316,866	71,496	-0,142	-0,101
317,881	35,974	-0,130	-0,079
318,895	25,363	-0,192	-0,109
319,910	63,101	-0,145	-0,099
320,925	-35,296	-0,158	-0,059
321,939	509,963	-0,143	-0,228
322,954	342,027	-0,096	-0,129
323,968	150,557	-0,122	-0,114
324,983	-11,804	-0,111	-0,050
325,997	136,475	-0,165	-0,148
327,012	42,502	-0,167	-0,104
328,027	800,000	-0,103	-0,212
329,041	800,000	-0,107	-0,287
330,056	50,292	-0,163	-0,105
331,070	-9,449	-0,154	-0,070
332,085	-77,907	-0,228	-0,053
333,100	-200,000	0,009	-0,132
334,114	-90,370	-0,167	-0,033
335,129	505,978	-0,107	-0,171
336,143	243,451	-0,029	-0,033
337,158	168,819	-0,138	-0,135
338,173	-43,445	-0,080	-0,028
339,187	-118,948	-0,103	-0,012
340,202	-76,824	-0,118	0,028
341,216	109,307	-0,175	-0,144
342,231	800,000	-0,073	-0,187
343,246	68,216	-0,163	-0,114
344,260	398,054	-0,119	-0,170
345,275	198,201	-0,071	0,074
346,289	342,404	-0,094	-0,126
347,304	794,460	-0,069	-0,131
348,319	103,573	-0,054	-0,043
349,333	-4,875	-0,096	-0,045
350,348	-111,624	-0,212	-0,029
351,362	-74,878	-0,116	0,028
352,377	-130,879	-0,085	-0,008
353,392	-137,609	-0,166	-0,013
354,406	800,000	-0,068	-0,158
355,421	207,849	1309,877	1399,768
356,435	159,910	1469,930	1400,198
