DTS Sentinel unit serial number:	SN410029Multiplexer serial number:	ORYXHardware model number:	OX2-SRSoftware version number:	ORYX F/W v4,00 Oryx Data Collector v3.7.2.0data status	okinstallation	B3 Nyhavnadifferential loss correction	single-endedforward channel	channel 1reverse channel	N/Adate	2023/12/01time	04:12:30forward acquisition time	300,00reverse acquisition time	0,00gamma	499,1914k internal	0,3212k external	0,3212temperature offset calibration	1,0000default loss term (dB/km)	0,3820temperature slope calibration	1,0000multiplexer offset coefficient	1,0000multiplexer slope coefficient	1,0000fibre end	0,00T internal ref (°C)	8,13T ext. ref 1 (°C)	-6,89T ext. ref 2 (°C)	-7,05length (m)	temperature (°C)	Stokes	anti-Stokes-744,400	129,914	-0,232	-0,215
-743,385	-200,000	-0,002	0,306
-742,371	265,304	-0,213	-0,269
-741,356	-200,000	0,001	0,271
-740,342	7,608	-0,125	-0,068
-739,327	-200,000	-0,004	0,298
-738,312	-200,000	-0,082	-0,285
-737,298	445,606	-0,127	0,202
-736,283	800,000	-0,110	-0,227
-735,269	-200,000	0,038	0,233
-734,254	312,161	-0,220	-0,300
-733,239	101,170	-0,212	0,179
-732,225	800,000	-0,062	-0,158
-731,210	-80,609	0,187	0,045
-730,196	-200,000	0,014	-0,083
-729,181	-200,000	0,018	-0,061
-728,167	-6,984	0,050	-0,025
-727,152	-14,219	0,076	-0,035
-726,137	-20,362	-0,094	0,042
-725,123	24,837	-0,041	-0,025
-724,108	-96,748	-0,188	-0,036
-723,094	-200,000	0,009	-0,055
-722,079	111,385	0,055	-0,048
-721,064	328,524	-0,011	0,015
-720,050	166,468	0,103	-0,106
-719,035	372,249	-0,040	-0,058
-718,021	-106,880	-0,065	0,010
-717,006	800,000	0,013	-0,030
-715,991	353,888	-0,107	-0,154
-714,977	506,261	-0,047	-0,079
-713,962	800,000	-0,003	0,010
-712,948	-51,873	-0,086	0,029
-711,933	-148,427	0,087	-0,005
-710,918	-149,208	0,109	0,006
-709,904	-46,987	-0,137	-0,048
-708,889	-127,848	0,017	-0,002
-707,875	-200,000	-0,034	0,117
-706,860	-200,000	-0,004	-0,107
-705,845	800,000	0,077	0,161
-704,831	331,569	-0,085	0,119
-703,816	800,000	-0,024	0,067
-702,802	800,000	0,038	-0,104
-701,787	-112,292	-0,122	0,017
-700,772	0,015	-0,115	-0,059
-699,758	-82,438	-0,051	0,012
-698,743	489,908	-0,045	0,074
-697,729	-200,000	0,002	0,022
-696,714	38,080	-0,146	0,094
-695,699	-28,370	0,104	0,043
-694,685	79,245	-0,097	-0,075
-693,670	800,000	-0,038	-0,104
-692,656	-43,223	0,062	-0,023
-691,641	-200,000	-0,003	0,126
-690,627	20,241	-0,058	0,034
-689,612	19,603	-0,103	0,060
-688,597	625,194	-0,064	-0,118
-687,583	142,832	-0,117	-0,113
-686,568	-123,756	-0,068	0,008
-685,554	6,014	0,051	-0,027
-684,539	74,599	0,055	-0,042
-683,524	-200,000	-0,003	0,025
-682,510	-62,714	0,125	-0,037
-681,495	-200,000	-0,005	0,029
-680,481	-61,254	-0,071	-0,021
-679,466	232,639	0,055	-0,066
-678,451	-52,803	-0,092	-0,030
-677,437	515,151	0,030	0,051
-676,422	145,050	-0,016	-0,016
-675,408	-200,000	0,002	-0,093
-674,393	-162,661	0,066	-0,002
-673,378	800,000	-0,032	0,073
-672,364	-200,000	-0,009	0,066
-671,349	800,000	-0,040	0,114
-670,335	-30,977	-0,136	0,055
-669,320	305,122	-0,028	0,038
-668,305	-200,000	0,017	0,118
-667,291	-200,000	-0,030	-0,110
-666,276	-112,437	0,081	0,012
-665,262	1,062	-0,040	-0,021
-664,247	602,341	-0,057	-0,103
-663,232	204,071	0,019	-0,021
-662,218	-62,947	0,209	-0,062
-661,203	-134,776	0,067	0,006
-660,189	344,987	0,081	0,115
-659,174	123,675	-0,067	-0,060
-658,159	-54,680	-0,129	-0,042
-657,145	-81,793	-0,100	-0,024
-656,130	21,522	-0,200	-0,117
-655,116	-16,030	0,037	-0,017
-654,101	96,424	0,046	0,038
-653,086	800,000	-0,052	-0,162
-652,072	-200,000	-0,036	-0,139
-651,057	-72,245	-0,219	-0,058
-650,043	-47,962	-0,045	0,016
-649,028	800,000	-0,038	0,093
-648,014	176,848	0,061	0,064
-646,999	45,058	-0,072	-0,048
-645,984	681,192	-0,089	-0,168
-644,970	485,559	-0,074	-0,122
-643,955	-188,066	0,088	-0,001
-642,941	-8,863	0,026	0,012
-641,926	159,292	-0,075	0,075
-640,911	-102,313	-0,095	-0,016
-639,897	-21,351	0,091	-0,040
-638,882	-72,152	0,123	0,033
-637,868	-143,052	-0,180	-0,012
-636,853	81,247	0,073	0,057
-635,838	24,817	-0,040	-0,024
-634,824	-64,066	-0,157	0,046
-633,809	40,969	-0,015	-0,009
-632,795	-200,000	0,007	0,061
-631,780	320,524	0,039	-0,053
-630,765	62,766	-0,136	0,098
-629,751	570,020	-0,118	-0,208
-628,736	-187,535	-0,138	0,001
-627,722	304,796	-0,089	-0,119
-626,707	-200,000	0,011	0,037
-625,692	-88,857	0,100	0,021
-624,678	60,793	-0,004	-0,003
-623,663	357,319	-0,039	0,057
-622,649	524,454	-0,065	-0,110
-621,634	-200,000	-0,045	-0,226
-620,619	800,000	-0,021	-0,054
-619,605	-149,899	0,052	0,003
-618,590	59,869	0,076	-0,054
-617,576	118,239	0,033	-0,029
-616,561	-40,677	-0,037	-0,014
-615,546	-200,000	-0,018	-0,074
-614,532	53,432	-0,171	-0,118
-613,517	446,634	-0,055	0,087
-612,503	535,909	0,088	0,152
-611,488	-127,964	0,123	-0,013
-610,474	209,351	0,030	-0,034
-609,459	175,443	-0,041	0,043
-608,444	800,000	0,028	-0,073
-607,430	487,128	-0,076	-0,125
-606,415	-118,349	-0,134	0,017
-605,401	-104,699	0,170	-0,028
-604,386	143,156	0,022	-0,021
-603,371	-200,000	-0,056	-0,230
-602,357	800,000	0,020	0,044
-601,342	-101,163	0,034	0,006
-600,328	224,385	-0,099	0,115
-599,313	103,275	0,146	-0,124
-598,298	-23,817	-0,020	-0,008
-597,284	133,737	-0,076	-0,071
-596,269	-200,000	-0,039	0,289
-595,255	-200,000	0,036	0,130
-594,240	16,996	-0,147	-0,083
-593,225	208,498	0,056	-0,063
-592,211	800,000	-0,030	-0,089
-591,196	161,293	0,140	-0,141
-590,182	-36,719	0,077	-0,030
-589,167	-200,000	0,007	-0,042
-588,152	800,000	-0,039	-0,097
-587,138	-50,646	-0,157	-0,053
-586,123	231,311	-0,037	0,044
-585,109	-200,000	-0,018	0,122
-584,094	150,848	0,097	-0,095
-583,079	-104,426	0,040	-0,007
-582,065	-42,749	0,073	0,026
-581,050	-200,000	0,047	0,000
-580,036	-33,246	-0,034	0,013
-579,021	-109,679	-0,100	0,015
-578,006	196,914	-0,028	0,031
-576,992	800,000	0,018	-0,044
-575,977	296,032	0,065	0,086
-574,963	-112,431	-0,051	0,007
-573,948	89,524	0,045	0,036
-572,934	-18,413	0,087	-0,039
-571,919	790,938	-0,068	-0,136
-570,904	-93,775	-0,080	-0,016
-569,890	290,261	0,080	-0,105
-568,875	323,995	0,087	-0,120
-567,861	-200,000	0,025	0,128
-566,846	-72,188	0,107	0,028
-565,831	-50,111	-0,141	0,048
-564,817	452,271	0,034	-0,054
-563,802	44,616	0,106	-0,070
-562,788	-29,178	-0,079	0,032
-561,773	-15,435	-0,173	-0,079
-560,758	-200,000	-0,010	-0,097
-559,744	-67,918	0,146	0,041
-558,729	-135,168	-0,156	-0,013
-557,715	195,924	0,057	0,062
-556,700	-73,863	-0,051	-0,013
-555,685	-200,000	-0,002	-0,033
-554,671	349,351	-0,022	-0,031
-553,656	-158,101	0,151	-0,006
-552,642	-200,000	-0,002	0,120
-551,627	-200,000	0,011	-0,075
-550,612	374,901	-0,039	0,057
-549,598	-200,000	0,046	-0,162
-548,583	-18,416	-0,169	-0,076
-547,569	351,399	0,075	-0,108
-546,554	172,115	-0,006	-0,007
-545,539	-2,392	-0,098	-0,049
-544,525	-200,000	0,003	0,116
-543,510	800,000	0,044	-0,087
-542,496	-200,000	0,049	-0,208
-541,481	677,418	-0,048	-0,090
-540,466	-200,000	0,028	0,124
-539,452	800,000	0,037	0,111
-538,437	-24,060	0,143	0,061
-537,423	416,670	-0,112	0,172
-536,408	-175,749	0,019	-0,000
-535,393	800,000	-0,063	-0,161
-534,379	-200,000	0,065	-0,254
-533,364	26,076	0,064	-0,038
-532,350	254,618	0,108	0,133
-531,335	-200,000	0,001	0,082
-530,321	336,675	0,038	0,053
-529,306	800,000	-0,049	0,107
-528,291	-50,650	-0,216	-0,073
-527,277	-200,000	0,006	-0,028
-526,262	-77,543	-0,055	0,014
-525,248	747,812	-0,047	-0,091
-524,233	562,901	-0,047	0,082
-523,218	9,676	0,152	0,083
-522,204	84,229	-0,039	-0,031
-521,189	-132,065	0,096	-0,009
-520,175	-200,000	-0,005	-0,017
-519,160	-36,700	-0,045	0,017
-518,145	226,717	0,111	0,130
-517,131	-94,961	-0,112	-0,021
-516,116	-4,955	0,050	0,025
-515,102	306,330	0,040	0,054
-514,087	-67,859	-0,071	-0,020
-513,072	83,250	0,044	-0,034
-512,058	294,777	0,075	0,099
-511,043	115,879	0,032	0,029
-510,029	-200,000	-0,013	0,199
-509,014	-87,782	-0,100	-0,021
-507,999	112,588	0,088	0,076
-506,985	-102,681	-0,190	-0,032
-505,970	-200,000	0,007	-0,038
-504,956	-200,000	0,008	0,135
-503,941	-200,000	0,014	-0,060
-502,926	50,667	0,064	0,044
-501,912	-11,717	-0,062	0,029
-500,897	-200,000	-0,002	-0,077
-499,883	64,821	0,061	0,044
-498,868	-200,000	-0,004	0,098
-497,853	-200,000	0,002	0,026
-496,839	-200,000	-0,019	0,068
-495,824	-200,000	-0,037	0,167
-494,810	800,000	0,022	-0,046
-493,795	-200,000	0,004	0,092
-492,781	-174,373	-0,070	-0,001
-491,766	-153,958	-0,052	-0,003
-490,751	-62,415	-0,135	-0,040
-489,737	800,000	-0,044	-0,098
-488,722	-23,250	0,105	0,045
-487,708	-200,000	-0,025	0,126
-486,693	49,877	0,104	-0,070
-485,678	654,078	0,044	-0,081
-484,664	131,989	-0,083	-0,077
-483,649	144,272	-0,080	-0,076
-482,635	-31,489	0,058	-0,023
-481,620	-80,181	0,088	0,021
-480,605	-72,613	0,120	-0,032
-479,591	-200,000	0,004	-0,055
-478,576	-200,000	0,003	0,051
-477,562	41,604	-0,035	-0,022
-476,547	-200,000	0,036	-0,236
-475,532	800,000	0,028	-0,089
-474,518	-200,000	0,049	-0,160
-473,503	98,294	0,042	0,035
-472,489	800,000	-0,026	-0,068
-471,474	230,057	0,046	-0,054
-470,459	800,000	-0,055	-0,155
-469,445	110,073	-0,045	0,038
-468,430	-121,600	-0,033	0,004
-467,416	511,158	0,062	0,103
-466,401	-10,782	-0,019	-0,009
-465,386	-60,805	0,077	0,023
-464,372	-124,349	-0,071	0,008
-463,357	5,113	-0,078	0,041
-462,343	800,000	0,067	-0,141
-461,328	576,202	0,030	-0,053
-460,313	-200,000	0,032	0,184
-459,299	86,888	0,157	0,124
-458,284	-200,000	0,026	0,121
-457,270	99,884	-0,053	0,044
-456,255	-200,000	-0,041	-0,138
-455,241	-200,000	-0,004	-0,097
-454,226	54,316	0,076	0,052
-453,211	-139,241	0,069	0,005
-452,197	-139,336	-0,147	-0,011
-451,182	-71,081	0,212	-0,057
-450,168	-62,938	0,088	-0,026
-449,153	800,000	-0,066	-0,199
-448,138	-18,565	-0,006	0,003
-447,124	-200,000	-0,041	0,153
-446,109	-92,425	-0,115	-0,023
-445,095	25,838	0,042	-0,025
-444,080	132,357	-0,066	0,061
-443,065	800,000	0,006	0,016
-442,051	269,313	-0,026	-0,033
-441,036	20,902	-0,087	-0,050
-440,022	361,869	0,055	-0,080
-439,007	800,000	-0,057	-0,161
-437,992	41,598	0,084	0,054
-436,978	-71,805	0,157	0,042
-435,963	-200,000	0,007	0,080
-434,949	-33,561	-0,064	-0,025
-433,934	-7,477	-0,036	-0,018
-432,919	285,030	0,052	0,067
-431,905	-200,000	0,029	-0,162
-430,890	65,031	-0,040	-0,029
-429,876	36,189	0,201	0,127
-428,861	800,000	-0,027	-0,061
-427,846	-200,000	0,012	-0,076
-426,832	562,003	0,058	-0,101
-425,817	-200,000	-0,016	-0,213
-424,803	-106,398	-0,068	-0,011
-423,788	800,000	-0,042	-0,093
-422,773	26,928	0,150	0,090
-421,759	-200,000	-0,015	0,060
-420,744	245,082	0,084	0,101
-419,730	675,777	0,024	0,045
-418,715	123,926	-0,135	-0,122
-417,701	-0,960	0,040	0,020
-416,686	-200,000	0,011	-0,097
-415,671	-200,000	0,024	-0,084
-414,657	120,859	-0,056	0,049
-413,642	125,723	0,100	-0,090
-412,628	-130,320	0,086	0,008
-411,613	705,082	-0,068	-0,129
-410,598	-166,249	-0,115	0,003
-409,584	86,007	0,099	0,078
-408,569	800,000	0,038	-0,116
-407,555	-200,000	0,026	0,090
-406,540	22,042	-0,089	0,052
-405,525	-200,000	-0,044	-0,176
-404,511	-200,000	0,001	-0,021
-403,496	-200,000	0,011	-0,069
-402,482	600,424	-0,018	0,033
-401,467	14,278	0,197	-0,109
-400,452	73,128	-0,031	-0,023
-399,438	-200,000	-0,008	0,126
-398,423	47,715	0,034	0,023
-397,409	-77,734	-0,059	0,014
-396,394	-134,462	-0,111	0,010
-395,379	-200,000	0,022	0,117
-394,365	-200,000	0,021	0,076
-393,350	778,727	0,017	0,033
-392,336	-2,945	0,023	-0,011
-391,321	-200,000	0,028	-0,095
-390,306	-200,000	0,015	-0,081
-389,292	-200,000	-0,015	0,083
-388,277	-25,137	0,100	0,042
-387,263	216,534	0,017	-0,019
-386,248	-66,863	0,142	0,040
-385,233	286,504	0,029	-0,037
-384,219	-200,000	-0,017	0,064
-383,204	-54,112	0,133	-0,043
-382,190	-45,563	0,065	-0,023
-381,175	-84,558	-0,038	-0,009
-380,160	-13,137	0,097	-0,045
-379,146	-13,674	0,088	-0,041
-378,131	800,000	0,032	0,088
-377,117	-200,000	-0,007	0,092
-376,102	-200,000	-0,031	0,101
-375,088	-63,812	0,079	0,023
-374,073	-200,000	-0,000	0,067
-373,058	-72,623	-0,076	0,020
-372,044	167,956	0,057	0,058
-371,029	104,437	0,083	-0,070
-370,015	-200,000	0,002	0,034
-369,000	476,522	-0,060	0,098
-367,985	433,107	0,035	0,055
-366,971	795,813	0,049	-0,096
-365,956	-200,000	0,008	0,028
-364,942	33,439	-0,042	-0,026
-363,927	800,000	-0,016	-0,047
-362,912	317,612	0,047	0,064
-361,898	-88,597	0,046	-0,010
-360,883	-200,000	0,000	0,037
-359,869	-200,000	0,004	0,049
-358,854	272,932	0,108	0,136
-357,839	-114,475	0,055	0,008
-356,825	-150,279	0,152	-0,008
-355,810	758,560	-0,068	0,132
-354,796	555,140	-0,043	-0,074
-353,781	-200,000	-0,029	-0,101
-352,766	-95,299	-0,157	-0,030
-351,752	57,120	0,036	0,025
-350,737	218,863	0,076	0,087
-349,723	90,167	0,027	-0,022
-348,708	634,885	0,060	0,109
-347,693	800,000	-0,017	-0,048
-346,679	-66,180	-0,104	0,029
-345,664	-109,459	-0,157	-0,023
-344,650	800,000	-0,036	0,074
-343,635	63,783	0,055	0,039
-342,620	714,480	-0,019	0,036
-341,606	38,868	0,108	-0,068
-340,591	300,395	-0,073	-0,096
-339,577	36,276	-0,117	-0,074
-338,562	-68,914	-0,161	-0,044
-337,548	-15,985	0,129	0,058
-336,533	82,365	-0,069	0,053
-335,518	499,295	-0,076	-0,125
-334,504	-200,000	-0,025	0,122
-333,489	84,310	0,120	0,094
-332,475	-122,685	0,038	-0,004
-331,460	-145,211	-0,102	-0,007
-330,445	800,000	-0,042	-0,092
-329,431	-106,830	-0,107	-0,017
-328,416	-140,038	0,087	0,006
-327,402	-200,000	-0,004	0,048
-326,387	-200,000	-0,001	-0,083
-325,372	-37,988	-0,028	-0,011
-324,358	-0,409	-0,016	-0,008
-323,343	-200,000	0,030	0,123
-322,329	-200,000	0,014	-0,093
-321,314	-200,000	0,017	0,091
-320,299	129,267	-0,060	0,055
-319,285	33,619	-0,110	0,068
-318,270	-102,911	-0,230	0,039
-317,256	-94,555	-0,148	-0,028
-316,241	-112,152	0,140	-0,020
-315,226	-200,000	0,012	0,145
-314,212	-200,000	-0,006	-0,047
-313,197	554,568	0,051	0,089
-312,183	92,027	0,125	-0,100
-311,168	800,000	-0,073	-0,228
-310,153	-18,379	-0,140	0,062
-309,139	147,812	-0,017	-0,016
-308,124	40,079	-0,070	-0,045
-307,110	447,732	0,036	0,057
-306,095	800,000	0,039	0,093
-305,080	-78,466	0,138	0,033
-304,066	-200,000	-0,015	0,090
-303,051	-23,975	-0,130	-0,055
-302,037	59,280	0,065	-0,046
-301,022	-200,000	0,023	0,085
-300,008	-87,488	0,054	-0,011
-298,993	213,627	0,126	0,142
-297,978	-200,000	-0,033	0,119
-296,964	-119,449	0,084	0,010
-295,949	172,449	0,096	-0,098
-294,935	-101,742	0,061	-0,010
-293,920	473,868	-0,036	-0,058
-292,905	800,000	-0,028	-0,086
-291,891	-62,392	0,095	0,028
-290,876	-170,917	0,116	0,003
-289,862	-52,418	-0,078	-0,025
-288,847	-0,226	-0,114	0,058
-287,832	-3,759	0,113	-0,056
-286,818	153,428	-0,057	-0,055
-285,803	800,000	0,045	0,101
-284,789	-74,402	0,140	0,036
-283,774	-200,000	0,010	0,074
-282,759	-200,000	0,011	-0,036
-281,745	-8,373	-0,051	0,025
-280,730	321,097	0,025	-0,034
-279,716	-166,115	0,066	-0,002
-278,701	-67,774	-0,131	-0,036
-277,686	-115,342	-0,081	-0,011
-276,672	-200,000	0,007	0,025
-275,657	280,982	0,054	-0,069
-274,643	94,980	-0,124	0,100
-273,628	87,541	-0,163	-0,129
-272,613	-200,000	-0,015	-0,107
-271,599	-67,803	-0,109	-0,030
-270,584	-139,007	-0,101	-0,008
-269,570	800,000	0,021	-0,042
-268,555	149,313	0,131	0,126
-267,540	369,529	-0,057	-0,083
-266,526	-34,252	-0,129	-0,050
-265,511	680,585	0,003	0,005
-264,497	62,287	-0,047	0,033
-263,482	154,785	0,130	0,127
-262,467	89,796	0,070	0,056
-261,453	-160,361	-0,158	0,006
-260,438	-200,000	-0,002	0,092
-259,424	-200,000	0,058	0,228
-258,409	800,000	0,058	-0,117
-257,395	54,003	0,089	-0,061
-256,380	-200,000	-0,007	0,082
-255,365	430,385	0,100	0,155
-254,351	322,674	0,028	0,038
-253,336	-200,000	-0,051	0,161
-252,322	-200,000	-0,011	-0,111
-251,307	-34,997	-0,121	-0,047
-250,292	-59,697	0,024	-0,007
-249,278	381,786	0,018	-0,026
-248,263	246,274	0,094	0,112
-247,249	160,966	-0,081	-0,081
-246,234	800,000	-0,063	-0,131
-245,219	-85,601	-0,057	-0,013
-244,205	20,773	-0,114	0,065
-243,190	245,318	0,072	-0,087
-242,176	215,638	-0,077	0,087
-241,161	-184,633	0,069	-0,001
-240,146	202,499	-0,094	-0,104
-239,132	-49,694	0,033	0,011
-238,117	-8,808	-0,122	0,058
-237,103	437,853	-0,055	-0,086
-236,088	-171,220	0,117	-0,003
-235,073	-47,559	0,037	-0,013
-234,059	6,776	0,081	-0,043
-233,044	86,350	0,136	0,106
-232,030	-87,364	0,171	0,037
-231,015	-63,047	0,091	0,026
-230,000	1,492	-0,180	-0,092
-228,986	27,541	0,043	-0,025
-227,971	-92,693	-0,047	0,009
-226,957	-59,781	-0,044	0,013
-225,942	-200,000	-0,029	0,133
-224,927	-127,436	0,009	-0,001
-223,913	-200,000	-0,022	-0,119
-222,898	22,799	-0,112	0,065
-221,884	44,082	0,119	0,078
-220,869	-122,579	0,024	-0,003
-219,855	1,678	0,163	0,083
-218,840	800,000	-0,019	0,041
-217,825	58,363	0,065	0,045
-216,811	285,860	-0,075	0,096
-215,796	-200,000	0,035	0,205
-214,782	-120,982	-0,192	0,023
-213,767	800,000	0,039	-0,100
-212,752	-128,353	0,061	-0,006
-211,738	664,186	0,049	0,090
-210,723	227,501	-0,062	0,071
-209,709	-130,565	-0,233	0,022
-208,694	-28,772	0,108	-0,044
-207,679	274,656	-0,038	-0,048
-206,665	-24,628	0,078	-0,033
-205,650	165,966	0,054	-0,054
-204,636	-34,721	0,129	0,050
-203,621	9,291	-0,082	-0,044
-202,606	-200,000	0,022	0,078
-201,592	-46,607	-0,188	-0,065
-200,577	10,026	-0,073	-0,039
-199,563	212,118	-0,076	-0,085
-198,548	61,905	0,216	0,152
-197,533	-200,000	-0,034	0,106
-196,519	800,000	-0,016	0,046
-195,504	-62,626	0,041	-0,012
-194,490	452,811	0,069	-0,109
-193,475	-81,271	0,059	0,014
-192,460	63,362	0,045	0,032
-191,446	-58,825	0,134	0,041
-190,431	572,942	0,017	-0,029
-189,417	-200,000	0,009	0,228
-188,402	184,601	-0,096	0,101
-187,387	77,878	-0,187	-0,141
-186,373	5,432	-0,100	0,052
-185,358	52,496	0,041	0,028
-184,344	586,309	0,049	0,086
-183,329	343,908	0,016	-0,022
-182,315	101,773	0,068	0,056
-181,300	78,641	-0,049	-0,037
-180,285	314,951	-0,102	-0,136
-179,271	266,515	-0,040	-0,050
-178,256	-200,000	0,017	0,079
-177,242	-6,759	0,025	-0,012
-176,227	800,000	0,056	0,148
-175,212	617,454	-0,043	0,077
-174,198	395,338	-0,065	0,096
-173,183	314,306	-0,046	-0,062
-172,169	326,766	-0,028	-0,039
-171,154	-3,399	-0,069	-0,034
-170,139	270,815	0,016	-0,020
-169,125	-87,389	0,081	0,017
-168,110	149,612	-0,052	0,050
-167,096	469,910	0,059	0,094
-166,081	-200,000	-0,004	-0,094
-165,066	456,743	-0,079	-0,124
-164,052	652,280	0,032	0,059
-163,037	800,000	-0,033	0,095
-162,023	644,220	0,040	0,072
-161,008	472,736	0,058	0,093
-159,993	-200,000	0,004	-0,032
-158,979	104,585	-0,152	-0,127
-157,964	22,405	-0,081	-0,047
-156,950	-200,000	0,022	-0,104
-155,935	-152,790	-0,135	0,007
-154,920	-200,000	0,026	0,100
-153,906	46,425	0,135	0,088
-152,891	72,841	0,064	0,047
-151,877	238,589	-0,057	-0,067
-150,862	800,000	-0,028	-0,079
-149,847	493,182	0,011	-0,018
-148,833	-4,310	-0,087	0,043
-147,818	161,199	-0,030	-0,030
-146,804	800,000	0,074	0,154
-145,789	2,820	0,158	0,081
-144,775	-158,825	-0,096	-0,004
-143,760	-200,000	0,002	0,023
-142,745	-200,000	-0,012	-0,084
-141,731	201,834	0,080	-0,088
-140,716	-200,000	0,007	0,052
-139,702	548,530	0,046	-0,079
-138,687	-90,951	-0,182	-0,037
-137,672	-59,161	0,074	-0,022
-136,658	-200,000	-0,016	-0,096
-135,643	-200,000	-0,002	0,025
-134,629	-83,401	-0,061	0,014
-133,614	50,549	0,024	0,016
-132,599	-114,691	-0,173	-0,023
-131,585	176,665	0,035	0,036
-130,570	800,000	-0,075	0,216
-129,556	378,293	0,064	0,093
-128,541	73,363	-0,106	-0,079
-127,526	253,371	-0,003	0,003
-126,512	10,858	-0,063	0,034
-125,497	-49,710	0,107	0,036
-124,483	-34,137	-0,099	0,038
-123,468	800,000	-0,003	-0,010
-122,453	-91,962	0,032	-0,006
-121,439	-49,872	-0,099	-0,033
-120,424	-77,731	-0,056	-0,014
-119,410	-200,000	-0,008	-0,083
-118,395	265,602	-0,085	-0,105
-117,380	163,507	0,056	0,056
-116,366	-200,000	-0,026	-0,092
-115,351	800,000	0,017	-0,051
-114,337	51,351	-0,070	-0,047
-113,322	409,292	0,054	-0,081
-112,307	800,000	0,071	0,162
-111,293	800,000	0,043	0,114
-110,278	-200,000	0,004	-0,015
-109,264	-28,598	0,076	0,031
-108,249	-63,733	0,168	-0,048
-107,234	-200,000	-0,007	-0,063
-106,220	157,341	0,087	0,085
-105,205	-200,000	-0,024	0,084
-104,191	196,771	0,048	0,052
-103,176	266,239	-0,084	0,104
-102,162	1,413	0,046	0,023
-101,147	800,000	0,034	0,092
-100,132	-191,037	-0,202	-0,001
-99,118	-104,386	-0,024	-0,004
-98,103	175,026	0,069	-0,071
-97,089	800,000	-0,010	0,021
-96,074	800,000	0,047	0,102
-95,059	800,000	-0,023	0,070
-94,045	-115,413	0,087	0,012
-93,030	-158,083	-0,120	-0,005
-92,016	800,000	-0,018	-0,039
-91,001	-200,000	-0,012	0,067
-89,986	-178,448	-0,043	-0,001
-88,972	-22,773	0,074	-0,031
-87,957	800,000	-0,006	0,019
-86,943	79,989	-0,141	0,107
-85,928	-200,000	0,007	0,083
-84,913	-73,071	-0,058	-0,015
-83,899	-48,211	0,053	0,018
-82,884	-69,428	-0,156	-0,042
-81,870	-108,350	-0,043	0,007
-80,855	28,819	0,038	0,022
-79,840	-200,000	0,002	-0,011
-78,826	-200,000	-0,019	-0,151
-77,811	58,221	0,027	0,019
-76,797	-53,017	-0,099	0,032
-75,782	134,809	0,079	0,073
-74,767	37,670	0,098	-0,061
-73,753	139,145	0,045	-0,041
-72,738	-200,000	-0,023	0,084
-71,724	522,255	0,077	-0,127
-70,709	-33,587	-0,078	0,030
-69,694	-33,294	0,025	0,010
-68,680	-125,473	0,026	0,003
-67,665	105,559	-0,061	0,051
-66,651	220,222	0,025	0,028
-65,636	-67,564	-0,073	-0,020
-64,622	-157,342	-0,111	0,005
-63,607	51,590	-0,094	-0,063
-62,592	236,085	-0,070	-0,082
-61,578	-178,003	-0,037	0,001
-60,563	340,635	-0,068	0,094
-59,549	338,439	0,032	0,044
-58,534	49,718	-2,128	-1,413
-57,519	405,115	-1,125	-1,679
-56,505	-200,000	-0,455	-4,531
-55,490	442,599	1,018	1,579
-54,476	800,000	5,402	11,719
-53,461	-200,000	22,357	346,785
-52,446	800,000	756,966	2297,206
-51,432	535,127	1643,847	2760,772
-50,417	68,259	1642,832	1185,665
-49,403	15,747	1520,127	841,021
-48,388	9,939	1446,164	772,206
-47,373	19,267	1438,550	812,552
-46,359	13,468	1427,090	778,684
-45,344	8,303	1423,155	752,077
-44,330	8,252	1421,099	750,721
-43,315	8,188	1419,509	749,550
-42,300	8,180	1417,565	748,455
-41,286	8,263	1416,254	748,126
-40,271	8,212	1415,134	747,262
-39,257	8,211	1414,101	746,682
-38,242	8,246	1412,792	746,126
-37,227	8,181	1411,857	745,297
-36,213	8,204	1410,366	744,590
-35,198	8,257	1409,158	744,173
-34,184	8,238	1408,537	743,723
-33,169	8,146	1407,071	742,491
-32,154	8,194	1406,042	742,139
-31,140	8,213	1404,766	741,529
-30,125	8,233	1403,471	740,907
-29,111	8,238	1402,327	740,298
-28,096	8,170	1401,418	739,474
-27,082	8,160	1400,097	738,699
-26,067	8,145	1399,209	738,131
-25,052	8,162	1398,034	737,562
-24,038	8,192	1396,910	737,079
-23,023	8,146	1396,051	736,382
-22,009	8,168	1394,940	735,868
-20,994	8,144	1393,964	735,214
-19,979	8,134	1393,091	734,679
-18,965	8,162	1392,004	734,204
-17,950	8,085	1391,128	733,357
-16,936	8,084	1390,346	732,909
-15,921	8,070	1389,461	732,351
-14,906	8,104	1388,328	731,880
-13,892	8,104	1387,445	731,388
-12,877	8,115	1386,579	730,952
-11,863	8,081	1385,898	730,405
-10,848	8,093	1384,948	729,932
-9,833	8,016	1384,015	729,057
-8,819	7,965	1383,196	728,364
-7,804	7,981	1382,151	727,858
-6,790	7,985	1381,203	727,349
-5,775	7,980	1380,310	726,826
-4,760	7,973	1379,335	726,250
-3,746	7,980	1378,439	725,781
-2,731	8,039	1377,544	725,552
-1,717	8,025	1376,499	724,909
-0,702	7,950	1375,029	723,764
0,313	11,921	1285,446	694,607
1,327	27,611	677,479	401,065
2,342	43,005	116,442	74,729
3,356	1,368	16,451	8,309
4,371	7,879	3,887	2,048
5,386	14,846	1,351	0,743
6,400	505,440	0,367	0,602
7,415	135,456	-0,107	-0,098
8,429	-63,982	-0,293	-0,084
9,444	97,045	-0,203	-0,164
10,459	-139,184	-0,201	-0,015
11,473	-64,694	-0,422	-0,120
12,488	9,345	-0,320	-0,170
13,502	-39,612	-0,368	-0,135
14,517	-16,162	-0,283	-0,126
15,531	43,448	-0,396	-0,254
16,546	176,016	-0,358	-0,367
17,561	34,505	-0,402	-0,247
18,575	-58,822	-0,232	0,070
19,590	37,074	-0,163	-0,101
20,604	131,801	-0,148	-0,134
21,619	49,410	-0,503	-0,333
22,634	104,210	-0,419	-0,347
23,648	-66,570	-0,600	-0,166
24,663	117,766	-0,292	-0,253
25,677	-170,472	-0,312	-0,007
26,692	35,077	-0,322	-0,198
27,707	24,115	-0,299	-0,173
28,721	149,603	-0,316	-0,301
29,736	78,086	-0,373	-0,280
30,750	-42,167	-0,430	-0,154
31,765	131,706	-0,285	-0,257
32,780	97,668	-0,309	-0,249
33,794	-63,033	-0,309	-0,089
34,809	21,074	-0,370	-0,210
35,823	102,064	-0,283	-0,232
36,838	33,953	-0,418	-0,255
37,853	71,223	-0,383	-0,279
38,867	50,774	-0,479	-0,318
39,882	402,727	-0,177	-0,262
40,896	89,392	-0,391	-0,306
41,911	90,769	-0,341	-0,268
42,926	55,759	-0,206	-0,140
43,940	24,323	-0,435	-0,252
44,955	159,667	-0,360	-0,353
45,969	91,505	-0,402	-0,317
46,984	83,893	-0,264	-0,202
47,999	131,094	-0,283	-0,255
49,013	-112,706	-0,273	-0,038
50,028	48,939	-0,228	-0,150
51,042	44,151	-0,268	-0,172
52,057	77,382	-0,311	-0,232
53,071	-20,306	-0,348	-0,150
54,086	6,598	-0,446	-0,232
55,101	143,545	-0,303	-0,283
56,115	-58,883	-0,411	-0,124
57,130	-49,086	-0,397	-0,133
58,144	-14,535	-0,330	-0,148
59,159	168,236	-0,251	-0,251
60,174	43,231	-0,432	-0,276
61,188	67,154	-0,310	-0,222
62,203	3,273	-0,302	-0,154
63,217	40,392	-0,324	-0,204
64,232	-7,189	-0,266	-0,126
65,247	156,581	-0,388	-0,376
66,261	-24,706	-0,489	-0,203
67,276	124,063	-0,299	-0,264
68,290	31,075	-0,360	-0,216
69,305	46,420	-0,197	-0,128
70,320	249,174	-0,275	-0,327
71,334	129,741	-0,262	-0,235
72,349	80,760	-0,214	-0,161
73,363	101,878	-0,259	-0,212
74,378	65,889	-0,364	-0,258
75,393	-17,955	-0,403	-0,176
76,407	-29,278	-0,288	-0,115
77,422	52,465	-0,293	-0,195
78,436	71,202	-0,199	-0,145
79,451	86,953	-0,304	-0,235
80,466	2,880	-0,421	-0,213
81,480	-4,075	-0,341	-0,165
82,495	-60,941	-0,331	-0,097
83,509	0,237	-0,259	-0,129
84,524	21,217	-0,318	-0,180
85,539	577,331	-0,093	-0,160
86,553	-47,074	-0,373	-0,127
87,568	-20,743	-0,370	-0,158
88,582	42,251	-0,333	-0,211
89,597	92,961	-0,280	-0,221
90,611	-57,918	-0,400	-0,122
91,626	69,377	-0,248	-0,178
92,641	-19,229	-0,296	-0,128
93,655	-114,830	-0,367	-0,048
94,670	-34,561	-0,279	-0,106
95,684	117,355	-0,264	-0,227
96,699	216,339	-0,261	-0,291
97,714	-52,197	-0,272	-0,088
98,728	115,326	-0,235	-0,200
99,743	80,472	-0,156	-0,117
100,757	-81,845	-0,333	-0,076
101,772	22,905	-0,249	-0,143
102,787	10,106	-0,355	-0,188
103,801	-5,752	-0,394	-0,188
104,816	51,788	-0,229	-0,152
105,830	-9,823	-0,351	-0,163
106,845	-73,366	-0,286	-0,073
107,860	-17,378	-0,274	-0,120
108,874	330,377	-0,201	-0,271
109,889	109,209	-0,284	-0,237
110,903	-19,553	-0,312	-0,134
111,918	-35,397	-0,311	-0,118
112,933	-101,143	-0,212	0,036
113,947	334,885	-0,144	-0,195
114,962	-84,429	-0,305	-0,067
115,976	-49,561	-0,413	-0,136
116,991	-61,709	-0,267	-0,078
118,006	77,887	-0,259	-0,192
119,020	449,300	-0,131	-0,203
120,035	0,240	-0,217	-0,108
121,049	136,166	-0,164	-0,149
122,064	224,838	-0,113	-0,128
123,079	-49,351	-0,263	-0,087
124,093	151,854	-0,311	-0,296
125,108	8,717	-0,215	-0,113
126,122	175,987	-0,199	-0,202
127,137	-115,066	-0,192	0,025
128,151	138,663	-0,212	-0,194
129,166	134,192	-0,167	-0,151
130,181	49,832	-0,275	-0,180
131,195	-65,489	-0,254	-0,071
132,210	21,745	-0,268	-0,152
133,224	22,879	-0,129	-0,073
134,239	-11,566	-0,286	-0,131
135,254	-4,524	-0,223	-0,107
136,268	60,119	-0,168	-0,116
137,283	-65,831	-0,280	-0,078
138,297	215,734	-0,307	-0,341
139,312	116,457	-0,185	-0,158
140,327	41,170	-0,209	-0,131
141,341	-29,993	-0,154	-0,061
142,356	800,000	-0,076	-0,153
143,370	305,492	-0,114	-0,148
144,385	-72,066	-0,225	-0,058
145,400	-31,475	-0,242	-0,094
146,414	-3,179	-0,206	-0,100
147,429	-69,494	-0,224	-0,059
148,443	-15,892	-0,310	-0,137
149,458	161,459	-0,172	-0,168
150,473	4,046	-0,217	-0,110
151,487	94,288	-0,179	-0,141
152,502	267,898	-0,277	-0,338
153,516	-19,808	-0,318	-0,136
154,531	110,793	-0,302	-0,252
155,546	176,174	-0,273	-0,276
156,560	-13,027	-0,122	-0,055
157,575	-3,968	-0,261	-0,126
158,589	21,647	-0,314	-0,177
159,604	574,829	-0,151	-0,257
160,619	138,809	-0,355	-0,325
161,633	768,141	-0,156	-0,296
162,648	8,362	-0,270	-0,141
163,662	68,877	-0,114	0,081
164,677	-116,190	-0,203	-0,026
165,692	-89,770	-0,191	-0,038
166,706	-70,631	-0,392	-0,102
167,721	16,143	-0,289	-0,158
168,735	107,218	-0,198	-0,163
169,750	259,986	-0,193	-0,233
170,764	-56,160	-0,302	-0,093
171,779	-173,068	-0,219	-0,005
172,794	-58,515	-0,295	-0,088
173,808	-0,839	-0,358	-0,176
174,823	219,983	-0,214	-0,238
175,837	430,414	-0,160	-0,241
176,852	602,203	-0,116	-0,201
177,867	132,262	-0,142	-0,127
178,881	112,547	-0,175	-0,147
179,896	52,471	-0,173	-0,115
180,910	-17,101	-0,256	-0,112
181,925	95,681	-0,243	-0,192
182,940	6,090	-0,167	-0,086
183,954	-45,997	-0,318	-0,108
184,969	92,477	-0,118	-0,092
185,983	-122,371	-0,225	0,025
186,998	-183,630	-0,213	0,002
188,013	47,862	-0,227	-0,147
189,027	-6,040	-0,285	-0,135
190,042	36,796	-0,151	-0,092
191,056	-51,070	-0,243	-0,079
192,071	392,827	-0,191	-0,276
193,086	-78,058	-0,205	-0,049
194,100	15,259	-0,343	-0,186
195,115	35,900	-0,233	-0,141
196,129	-38,462	-0,189	-0,069
197,144	-23,607	-0,359	-0,148
198,159	15,354	-0,341	-0,185
199,173	235,840	-0,160	-0,184
200,188	37,887	-0,129	-0,079
201,202	-51,419	-0,266	-0,086
202,217	800,000	-0,081	-0,167
203,232	92,615	-0,220	-0,172
204,246	800,000	-0,123	-0,241
205,261	-29,314	-0,292	-0,115
206,275	169,821	-0,202	-0,201
207,290	-200,000	0,029	-0,162
208,304	35,448	-0,222	-0,134
209,319	-154,451	-0,104	-0,005
210,334	225,858	-0,126	-0,141
211,348	184,566	-0,228	-0,234
212,363	540,327	-0,147	-0,244
213,377	29,542	-0,241	-0,142
214,392	-10,024	-0,214	-0,098
215,407	4,739	-0,213	-0,108
216,421	83,505	-0,080	0,060
217,436	37,220	-0,111	-0,068
218,450	34,794	-0,260	-0,157
219,465	-161,158	-0,205	-0,007
220,480	1,143	-0,257	-0,127
221,494	171,085	-0,304	-0,302
222,509	-156,539	-0,057	-0,002
223,523	51,580	-0,167	-0,110
224,538	-86,529	-0,100	-0,021
225,553	244,500	-0,228	-0,265
226,567	167,405	-0,244	-0,240
227,582	113,404	-0,219	-0,184
228,596	-70,423	-0,174	-0,045
229,611	251,320	-0,108	-0,127
230,626	800,000	-0,084	-0,245
231,640	62,405	-0,194	-0,133
232,655	29,116	-0,276	-0,162
233,669	-94,550	-0,268	-0,050
234,684	60,894	-0,177	-0,121
235,699	-200,000	0,023	-0,202
236,713	206,047	-0,093	0,100
237,728	94,245	-0,184	-0,145
238,742	-156,111	-0,198	0,008
239,757	38,704	-0,292	-0,179
240,772	24,160	-0,204	-0,116
241,786	-65,072	-0,173	-0,048
242,801	800,000	-0,080	-0,163
243,815	-29,056	-0,161	-0,064
244,830	157,740	-0,123	-0,118
245,844	-33,739	-0,181	-0,069
246,859	-77,471	-0,156	-0,037
247,874	-61,182	-0,271	-0,078
248,888	152,153	-0,178	-0,168
249,903	89,469	-0,080	0,061
250,917	-14,872	-0,125	-0,055
251,932	-37,370	-0,221	-0,081
252,947	-119,993	-0,262	-0,031
253,961	69,843	-0,202	-0,143
254,976	14,434	-0,259	-0,139
255,990	-1,759	-0,228	-0,110
257,005	800,000	-0,058	-0,131
258,020	-95,358	-0,136	0,025
259,034	-83,814	-0,110	-0,024
260,049	200,317	-0,126	-0,133
261,063	-145,483	-0,162	0,010
262,078	140,394	-0,238	-0,216
263,093	85,994	-0,187	-0,142
264,107	150,926	-0,134	-0,126
265,122	-52,734	-0,187	-0,059
266,136	219,065	-0,151	-0,167
267,151	36,091	-0,168	-0,102
268,166	101,033	-0,182	-0,145
269,180	170,792	-0,194	-0,191
270,195	6,059	-0,291	-0,148
271,209	376,830	-0,120	-0,169
272,224	-54,526	-0,276	-0,085
273,239	-187,024	-0,109	-0,001
274,253	-21,165	-0,355	-0,149
275,268	-54,205	-0,121	-0,038
276,282	106,762	-0,155	-0,126
277,297	63,082	-0,246	-0,169
278,312	172,718	-0,257	-0,255
279,326	522,482	-0,024	-0,039
280,341	-192,075	-0,183	0,001
281,355	226,838	-0,102	-0,114
282,370	-38,692	-0,197	-0,071
283,384	-81,850	-0,300	-0,067
284,399	229,541	-0,072	-0,081
285,414	-27,562	-0,253	-0,101
286,428	-200,000	-0,013	-0,228
287,443	106,333	-0,130	-0,106
288,457	-160,684	-0,280	0,010
289,472	-89,597	-0,077	-0,015
290,487	55,937	-0,235	-0,157
291,501	143,004	-0,229	-0,209
292,516	-4,710	-0,154	-0,073
293,530	-161,409	-0,203	-0,007
294,545	207,423	-0,112	-0,120
295,560	85,344	-0,087	-0,065
296,574	800,000	-0,099	-0,228
297,589	445,174	-0,074	-0,111
298,603	43,270	-0,111	-0,069
299,618	-94,165	-0,228	-0,043
300,633	21,405	-0,080	-0,045
301,647	-64,644	-0,182	-0,050
302,662	-200,000	-0,041	-0,174
303,676	100,068	-0,166	-0,132
304,691	184,800	-0,132	-0,134
305,706	800,000	-0,124	-0,240
306,720	-85,706	-0,177	-0,037
307,735	381,153	-0,084	-0,119
308,749	-172,284	-0,081	-0,002
309,764	178,825	-0,092	-0,092
310,779	-134,360	-0,086	-0,007
311,793	711,691	-0,114	-0,207
312,808	108,680	-0,234	-0,191
313,822	-93,755	-0,107	-0,020
314,837	719,237	-0,116	-0,212
315,852	-26,135	-0,092	-0,037
316,866	-54,198	-0,190	-0,059
317,881	800,000	-0,054	-0,119
318,895	200,620	-0,120	-0,127
319,910	800,000	-0,091	-0,207
320,925	26,567	-0,189	-0,108
321,939	291,782	-0,141	-0,177
322,954	-35,112	-0,147	-0,055
323,968	-66,080	-0,194	0,053
324,983	-85,019	-0,185	-0,039
325,997	96,221	-0,139	-0,109
327,012	95,795	-0,243	-0,190
328,027	195,866	-0,147	-0,153
329,041	-7,619	-0,191	-0,088
330,056	158,180	-0,123	-0,117
331,070	-200,000	0,004	-0,201
332,085	85,852	-0,113	0,085
333,100	713,711	-0,121	-0,221
334,114	-25,261	-0,120	-0,048
335,129	-8,060	-0,175	-0,081
336,143	111,781	-0,166	-0,137
337,158	387,530	-0,074	-0,105
338,173	-200,000	-0,047	-0,252
339,187	88,528	-0,138	-0,105
340,202	-200,000	0,008	-0,095
341,216	181,548	-0,129	-0,130
342,231	-97,425	-0,150	0,027
343,246	82,246	-0,264	-0,196
344,260	312,307	-0,159	-0,205
345,275	-146,045	-0,210	0,013
346,289	399,931	-0,057	-0,082
347,304	234,520	-0,141	-0,159
348,319	623,053	-0,081	-0,140
349,333	-118,179	-0,273	-0,033
350,348	-137,331	-0,156	0,012
351,362	193,879	-0,152	-0,157
352,377	-154,105	-0,201	0,009
353,392	20,653	-0,113	-0,062
354,406	-80,964	-0,225	-0,050
355,421	207,003	1309,158	1396,674
356,435	159,219	1469,160	1397,122
