DTS Sentinel unit serial number:	SN410029Multiplexer serial number:	ORYXHardware model number:	OX2-SRSoftware version number:	ORYX F/W v4,00 Oryx Data Collector v3.7.2.0data status	okinstallation	B3 Nyhavnadifferential loss correction	single-endedforward channel	channel 1reverse channel	N/Adate	2023/11/30time	00:17:30forward acquisition time	300,00reverse acquisition time	0,00gamma	499,1914k internal	0,3210k external	0,3210temperature offset calibration	1,0000default loss term (dB/km)	0,3820temperature slope calibration	1,0000multiplexer offset coefficient	1,0000multiplexer slope coefficient	1,0000fibre end	0,00T internal ref (°C)	10,87T ext. ref 1 (°C)	-4,30T ext. ref 2 (°C)	-4,42length (m)	temperature (°C)	Stokes	anti-Stokes-744,400	252,107	-0,243	-0,301
-743,385	800,000	0,055	0,166
-742,371	-9,059	-0,219	-0,106
-741,356	800,000	0,097	0,292
-740,342	119,366	-0,158	-0,142
-739,327	800,000	0,069	0,190
-738,312	125,842	-0,324	-0,297
-737,298	543,200	-0,172	0,298
-736,283	800,000	-0,083	-0,260
-735,269	-200,000	0,068	0,226
-734,254	719,905	-0,174	-0,336
-733,239	-16,347	-0,204	0,094
-732,225	-88,317	-0,191	-0,041
-731,210	-200,000	0,002	0,327
-730,196	210,185	-0,114	-0,129
-729,181	114,307	-0,090	0,080
-728,167	800,000	-0,033	-0,085
-727,152	-200,000	-0,047	-0,172
-726,137	30,309	-0,137	-0,085
-725,123	649,369	-0,073	-0,136
-724,108	-200,000	-0,016	-0,239
-723,094	-200,000	0,024	-0,091
-722,079	-198,956	0,059	0,000
-721,064	-73,485	-0,098	0,026
-720,050	53,590	0,038	0,026
-719,035	800,000	0,033	0,097
-718,021	12,084	-0,086	-0,048
-717,006	-173,958	-0,095	0,002
-715,991	-12,250	-0,165	-0,078
-714,977	800,000	0,064	-0,155
-713,962	800,000	0,024	-0,072
-712,948	-43,462	-0,138	0,050
-711,933	800,000	0,013	0,026
-710,918	800,000	-0,003	-0,006
-709,904	-200,000	-0,014	0,068
-708,889	-35,407	-0,034	-0,013
-707,875	-200,000	0,012	-0,045
-706,860	74,072	0,163	0,124
-705,845	-200,000	0,005	0,075
-704,831	410,466	-0,061	0,093
-703,816	-200,000	0,015	-0,087
-702,802	-78,013	-0,055	-0,014
-701,787	-200,000	-0,001	-0,119
-700,772	117,773	0,047	-0,042
-699,758	-90,443	0,150	0,031
-698,743	448,558	0,054	0,086
-697,729	70,786	0,030	-0,022
-696,714	800,000	0,046	0,116
-695,699	800,000	-0,059	-0,139
-694,685	135,692	0,089	-0,084
-693,670	370,663	-0,056	-0,082
-692,656	2,195	-0,032	0,017
-691,641	247,703	0,076	-0,093
-690,627	36,298	0,088	-0,056
-689,612	-200,000	-0,034	-0,124
-688,597	-200,000	-0,011	0,083
-687,583	33,545	-0,043	-0,027
-686,568	-200,000	0,011	0,086
-685,554	-24,746	-0,112	-0,048
-684,539	-200,000	-0,007	-0,113
-683,524	-104,745	0,110	-0,018
-682,510	234,006	-0,034	-0,041
-681,495	444,430	0,013	-0,020
-680,481	63,273	-0,063	-0,046
-679,466	609,886	0,109	-0,197
-678,451	-113,787	0,226	-0,032
-677,437	199,138	0,036	-0,040
-676,422	-200,000	0,003	-0,028
-675,408	-20,897	-0,235	-0,104
-674,393	-200,000	-0,003	0,025
-673,378	-200,000	-0,008	-0,106
-672,364	800,000	-0,085	-0,177
-671,349	534,973	-0,034	0,058
-670,335	28,492	0,091	-0,055
-669,320	37,536	-0,070	0,045
-668,305	58,364	0,128	0,091
-667,291	52,267	-0,083	-0,057
-666,276	-19,523	-0,151	-0,067
-665,262	393,603	-0,045	0,068
-664,247	-142,432	-0,084	0,006
-663,232	-67,223	-0,157	0,044
-662,218	159,264	-0,027	0,027
-661,203	-134,118	-0,118	0,010
-660,189	55,378	0,134	0,094
-659,174	-17,506	-0,083	-0,038
-658,159	171,390	-0,150	-0,155
-657,145	-8,343	0,089	0,043
-656,130	-200,000	-0,044	-0,175
-655,116	-200,000	0,006	0,087
-654,101	-91,244	-0,116	0,024
-653,086	-200,000	0,033	0,144
-652,072	727,935	-0,070	0,135
-651,057	-200,000	-0,006	-0,035
-650,043	-53,218	-0,048	0,016
-649,028	-200,000	-0,007	-0,044
-648,014	72,192	0,049	-0,037
-646,999	305,530	0,039	-0,052
-645,984	-200,000	0,009	0,108
-644,970	32,609	-0,113	-0,070
-643,955	208,179	-0,040	0,045
-642,941	800,000	0,074	-0,151
-641,926	366,867	-0,038	-0,056
-640,911	549,105	0,018	-0,032
-639,897	59,622	-0,053	0,038
-638,882	199,366	-0,087	0,097
-637,868	63,005	-0,035	-0,026
-636,853	-42,725	-0,061	-0,022
-635,838	800,000	-0,037	-0,091
-634,824	800,000	0,027	-0,065
-633,809	-162,741	0,046	-0,002
-632,795	-53,399	-0,100	-0,033
-631,780	27,710	0,136	-0,082
-630,765	-200,000	-0,023	-0,158
-629,751	-139,721	-0,048	-0,004
-628,736	-27,272	-0,131	0,055
-627,722	-87,285	-0,136	0,030
-626,707	-62,699	-0,082	0,024
-625,692	11,775	0,132	-0,073
-624,678	16,466	0,096	-0,055
-623,663	220,978	0,041	0,048
-622,649	50,823	-0,044	0,030
-621,634	-42,947	-0,113	-0,041
-620,619	371,285	0,085	-0,125
-619,605	518,142	0,011	-0,019
-618,590	93,519	0,060	0,049
-617,576	-200,000	-0,030	0,121
-616,561	-51,835	-0,114	0,038
-615,546	-65,081	0,054	-0,016
-614,532	323,382	-0,030	0,041
-613,517	-15,571	-0,153	-0,070
-612,503	461,443	-0,067	0,107
-611,488	556,460	-0,030	-0,052
-610,474	363,859	0,142	0,207
-609,459	32,272	-0,089	0,056
-608,444	800,000	-0,035	-0,074
-607,430	-200,000	-0,065	-0,211
-606,415	800,000	0,067	-0,165
-605,401	22,802	0,044	0,026
-604,386	-200,000	-0,026	0,156
-603,371	41,878	-0,147	-0,096
-602,357	-0,358	0,022	0,011
-601,342	-86,992	-0,077	-0,017
-600,328	-28,012	-0,099	-0,041
-599,313	604,042	-0,018	-0,033
-598,298	289,969	-0,015	0,020
-597,284	-102,452	0,063	-0,011
-596,269	-200,000	0,025	-0,149
-595,255	-200,000	-0,018	-0,131
-594,240	5,042	-0,031	0,017
-593,225	181,998	-0,050	-0,053
-592,211	-200,000	-0,021	-0,119
-591,196	664,892	0,045	-0,083
-590,182	200,850	-0,040	-0,044
-589,167	-141,494	0,142	0,010
-588,152	-200,000	-0,021	0,075
-587,138	-129,795	-0,039	0,004
-586,123	10,242	0,079	-0,043
-585,109	-200,000	-0,020	-0,139
-584,094	58,330	0,067	-0,048
-583,079	-32,670	0,029	0,011
-582,065	-200,000	0,015	-0,054
-581,050	-200,000	-0,030	0,122
-580,036	-31,930	0,220	-0,088
-579,021	-200,000	-0,004	0,107
-578,006	-200,000	-0,006	-0,057
-576,992	670,758	-0,045	-0,085
-575,977	800,000	-0,014	0,034
-574,963	595,550	0,075	0,135
-573,948	11,138	0,266	0,146
-572,934	-200,000	-0,031	0,119
-571,919	763,852	0,079	-0,156
-570,904	800,000	0,033	-0,098
-569,890	800,000	0,031	0,097
-568,875	538,135	0,047	0,081
-567,861	631,861	0,074	0,136
-566,846	68,591	0,116	-0,086
-565,831	197,840	-0,126	-0,139
-564,817	-200,000	0,061	-0,217
-563,802	-200,000	0,021	-0,069
-562,788	312,404	0,009	0,013
-561,773	109,622	-0,080	-0,069
-560,758	-190,013	0,073	0,001
-559,744	-37,910	-0,125	0,048
-558,729	363,060	0,115	-0,167
-557,715	-81,865	0,062	0,015
-556,700	229,863	-0,058	-0,068
-555,685	-200,000	-0,018	-0,190
-554,671	-117,568	0,121	0,016
-553,656	-200,000	0,020	0,101
-552,642	650,877	-0,052	0,096
-551,627	-200,000	-0,004	-0,092
-550,612	-11,811	-0,094	0,044
-549,598	-200,000	-0,020	-0,097
-548,583	800,000	0,064	-0,138
-547,569	-74,543	-0,066	0,017
-546,554	-132,334	0,071	0,007
-545,539	-200,000	-0,015	0,105
-544,525	-114,168	-0,040	-0,005
-543,510	291,387	-0,020	0,027
-542,496	226,908	0,048	0,056
-541,481	-149,342	-0,167	0,009
-540,466	-200,000	0,004	-0,015
-539,452	800,000	0,049	-0,106
-538,437	78,841	0,054	-0,041
-537,423	-110,241	-0,043	-0,006
-536,408	54,719	0,033	0,023
-535,393	-20,163	-0,065	-0,029
-534,379	22,838	0,129	0,076
-533,364	-200,000	0,005	0,024
-532,350	-200,000	-0,011	-0,056
-531,335	-51,489	-0,078	-0,026
-530,321	81,729	-0,043	-0,034
-529,306	131,101	-0,068	-0,063
-528,291	-200,000	-0,002	-0,139
-527,277	325,321	-0,065	-0,089
-526,262	211,564	-0,023	0,026
-525,248	800,000	0,023	-0,069
-524,233	42,778	0,038	-0,025
-523,218	-142,887	0,057	0,004
-522,204	242,787	0,037	0,045
-521,189	-200,000	0,010	-0,038
-520,175	800,000	0,034	-0,099
-519,160	-200,000	-0,001	0,077
-518,145	-200,000	-0,004	-0,043
-517,131	113,219	-0,051	-0,044
-516,116	-200,000	-0,010	0,137
-515,102	-59,844	-0,089	-0,027
-514,087	240,185	-0,035	0,042
-513,072	-101,749	-0,209	0,036
-512,058	-72,032	0,119	0,032
-511,043	225,105	-0,052	0,061
-510,029	-96,692	0,147	-0,028
-509,014	-65,771	0,044	0,013
-507,999	288,085	-0,086	0,112
-506,985	503,602	0,079	0,132
-505,970	-200,000	-0,011	-0,050
-504,956	237,429	0,038	-0,045
-503,941	-97,731	0,007	0,001
-502,926	197,048	0,146	0,160
-501,912	-200,000	0,033	0,119
-500,897	-96,283	-0,109	-0,021
-499,883	-27,894	-0,035	-0,014
-498,868	-81,208	-0,103	-0,024
-497,853	-200,000	0,007	-0,093
-496,839	497,254	-0,066	0,110
-495,824	465,510	-0,058	0,093
-494,810	-25,484	0,226	-0,095
-493,795	41,429	-0,075	0,049
-492,781	625,352	0,031	-0,056
-491,766	-200,000	-0,017	-0,093
-490,751	481,942	-0,035	-0,057
-489,737	4,037	-0,068	-0,036
-488,722	-200,000	-0,019	-0,063
-487,708	-37,127	0,074	0,028
-486,693	-200,000	-0,040	0,166
-485,678	191,352	0,032	0,034
-484,664	25,746	0,022	-0,013
-483,649	47,735	-0,074	-0,050
-482,635	103,930	-0,111	0,093
-481,620	800,000	0,019	0,061
-480,605	276,253	-0,006	-0,008
-479,591	134,254	-0,094	0,088
-478,576	-115,880	0,123	0,016
-477,562	-135,753	-0,016	0,001
-476,547	-128,562	0,111	-0,011
-475,532	800,000	0,028	0,058
-474,518	92,693	0,040	-0,032
-473,503	-200,000	0,009	-0,043
-472,489	66,138	0,095	0,069
-471,474	800,000	0,025	0,064
-470,459	704,498	-0,041	-0,078
-469,445	-200,000	-0,034	-0,162
-468,430	8,095	0,138	0,074
-467,416	800,000	-0,056	0,122
-466,401	-94,726	0,183	-0,035
-465,386	151,797	-0,075	-0,074
-464,372	800,000	0,060	0,164
-463,357	52,264	-0,058	0,040
-462,343	800,000	-0,065	-0,163
-461,328	-39,741	-0,055	0,021
-460,313	56,305	0,103	-0,071
-459,299	83,075	-0,038	0,030
-458,284	-10,589	-0,019	-0,009
-457,270	645,340	-0,024	-0,044
-456,255	-200,000	0,002	0,188
-455,241	8,861	-0,132	-0,071
-454,226	-200,000	0,028	-0,093
-453,211	-200,000	-0,005	-0,030
-452,197	-200,000	0,014	-0,064
-451,182	241,945	0,020	-0,024
-450,168	-27,016	-0,030	0,012
-449,153	17,314	0,085	-0,048
-448,138	-41,246	-0,098	-0,036
-447,124	-15,272	0,148	-0,068
-446,109	-0,878	0,065	-0,033
-445,095	-130,221	0,027	-0,003
-444,080	-139,324	0,163	-0,012
-443,065	800,000	-0,076	0,155
-442,051	303,649	0,083	0,110
-441,036	-200,000	0,020	0,080
-440,022	-200,000	-0,003	0,084
-439,007	-53,456	-0,174	-0,057
-437,992	-65,240	0,076	-0,022
-436,978	110,410	-0,091	0,079
-435,963	-119,744	0,058	0,007
-434,949	387,164	-0,025	-0,037
-433,934	-200,000	0,014	0,081
-432,919	-200,000	-0,032	0,132
-431,905	-200,000	0,019	-0,128
-430,890	5,875	-0,082	-0,044
-429,876	800,000	-0,012	0,035
-428,861	-200,000	0,018	0,114
-427,846	-5,576	-0,063	0,031
-426,832	-200,000	-0,034	-0,148
-425,817	-200,000	0,000	-0,008
-424,803	-200,000	0,007	0,091
-423,788	108,454	0,057	0,049
-422,773	6,924	-0,033	-0,018
-421,759	-200,000	-0,029	0,096
-420,744	-123,498	0,111	-0,012
-419,730	48,999	-0,147	-0,099
-418,715	-25,579	-0,016	0,007
-417,701	88,672	-0,033	0,027
-416,686	212,915	-0,038	0,043
-415,671	800,000	0,038	0,114
-414,657	567,753	-0,006	0,011
-413,642	110,087	0,054	0,047
-412,628	-200,000	0,016	0,057
-411,613	79,499	0,072	-0,055
-410,598	800,000	-0,072	-0,167
-409,584	145,898	0,070	0,067
-408,569	203,588	0,060	0,067
-407,555	223,880	-0,074	0,086
-406,540	39,310	0,135	0,086
-405,525	-200,000	0,000	-0,050
-404,511	-200,000	0,025	-0,165
-403,496	-16,362	-0,238	0,107
-402,482	202,021	0,026	0,028
-401,467	-200,000	0,001	-0,023
-400,452	-200,000	0,018	0,093
-399,438	-200,000	0,042	0,143
-398,423	-200,000	0,000	0,090
-397,409	-200,000	-0,062	-0,206
-396,394	-116,360	-0,101	-0,013
-395,379	-200,000	-0,031	-0,107
-394,365	800,000	0,018	0,048
-393,350	410,131	0,089	0,136
-392,336	-200,000	0,004	0,127
-391,321	-200,000	-0,025	-0,092
-390,306	124,593	-0,024	-0,021
-389,292	-162,304	-0,167	-0,006
-388,277	33,918	0,085	-0,053
-387,263	-10,729	-0,120	0,057
-386,248	-39,743	0,100	0,037
-385,233	130,874	-0,046	0,042
-384,219	-200,000	-0,058	-0,202
-383,204	-200,000	-0,004	0,113
-382,190	-73,812	-0,162	0,042
-381,175	800,000	0,008	0,022
-380,160	115,356	-0,117	0,102
-379,146	108,098	0,135	0,115
-378,131	800,000	0,045	0,108
-377,117	800,000	0,033	0,078
-376,102	-200,000	0,000	-0,020
-375,088	-200,000	-0,016	-0,201
-374,073	-200,000	-0,001	0,060
-373,058	209,251	0,093	0,104
-372,044	-94,514	0,058	0,011
-371,029	387,019	-0,038	-0,056
-370,015	236,740	0,155	-0,183
-369,000	166,985	0,037	-0,038
-367,985	-22,033	0,013	-0,006
-366,971	-61,639	-0,146	-0,043
-365,956	46,343	0,152	-0,101
-364,942	-85,147	-0,082	-0,018
-363,927	56,618	-0,122	0,084
-362,912	800,000	-0,014	0,032
-361,898	-147,353	-0,119	-0,007
-360,883	249,433	-0,052	0,063
-359,869	-6,073	0,128	-0,062
-358,854	197,549	0,044	-0,048
-357,839	43,611	-0,048	-0,032
-356,825	800,000	-0,021	0,060
-355,810	-88,996	0,099	-0,021
-354,796	38,461	-0,237	-0,151
-353,781	-95,332	-0,088	0,017
-352,766	314,076	-0,004	-0,005
-351,752	-200,000	-0,007	-0,093
-350,737	-71,481	0,029	0,008
-349,723	-62,351	-0,081	0,024
-348,708	800,000	0,004	-0,009
-347,693	25,599	0,114	-0,068
-346,679	-51,576	-0,090	0,030
-345,664	686,177	0,034	0,064
-344,650	-200,000	0,010	0,036
-343,635	-200,000	-0,002	0,139
-342,620	-49,973	0,049	0,017
-341,606	102,241	0,092	0,076
-340,591	-116,767	-0,040	0,005
-339,577	254,948	-0,123	-0,150
-338,562	-177,200	-0,056	-0,001
-337,548	91,536	0,043	-0,034
-336,533	177,980	0,049	-0,051
-335,518	-200,000	0,011	-0,049
-334,504	-100,932	0,126	-0,022
-333,489	800,000	-0,054	0,126
-332,475	441,767	-0,064	0,101
-331,460	-200,000	0,007	-0,046
-330,445	106,916	0,074	-0,063
-329,431	-200,000	-0,006	0,103
-328,416	99,795	0,048	0,039
-327,402	-200,000	-0,022	0,088
-326,387	-200,000	-0,061	-0,223
-325,372	-200,000	-0,000	-0,073
-324,358	-42,830	0,115	-0,041
-323,343	-200,000	-0,000	-0,122
-322,329	-54,506	0,106	-0,034
-321,314	-109,672	0,031	0,005
-320,299	-85,639	-0,104	0,023
-319,285	-34,458	0,081	0,031
-318,270	-79,017	-0,127	0,031
-317,256	-200,000	-0,022	-0,145
-316,241	291,269	-0,032	0,041
-315,226	316,082	0,033	0,044
-314,212	148,420	0,064	0,062
-313,197	-200,000	-0,006	0,148
-312,183	-200,000	0,004	0,082
-311,168	-88,016	-0,164	-0,035
-310,153	39,903	0,073	0,047
-309,139	279,671	0,049	0,062
-308,124	8,804	-0,056	-0,030
-307,110	164,766	-0,016	-0,016
-306,095	-102,073	0,056	-0,010
-305,080	-200,000	0,025	0,156
-304,066	-167,279	-0,249	-0,007
-303,051	-200,000	-0,003	-0,018
-302,037	736,585	-0,034	0,066
-301,022	-200,000	0,008	-0,054
-300,008	-143,411	0,103	0,007
-298,993	378,687	0,055	-0,080
-297,978	-144,125	0,086	0,006
-296,964	-31,141	0,039	0,015
-295,949	62,669	-0,040	0,028
-294,935	-200,000	0,010	0,063
-293,920	800,000	0,025	0,071
-292,905	656,467	0,021	-0,038
-291,891	556,884	0,035	0,060
-290,876	-200,000	-0,051	0,185
-289,862	43,850	0,026	0,017
-288,847	-200,000	0,006	-0,130
-287,832	800,000	0,016	-0,034
-286,818	260,551	0,059	0,073
-285,803	-200,000	-0,030	0,190
-284,789	-200,000	-0,020	0,099
-283,774	800,000	0,052	0,110
-282,759	-42,782	-0,070	0,025
-281,745	800,000	0,021	0,060
-280,730	5,929	-0,107	-0,056
-279,716	-200,000	0,056	0,000
-278,701	-200,000	0,025	0,150
-277,686	-200,000	0,012	0,142
-276,672	-177,730	0,017	-0,000
-275,657	-31,977	-0,054	-0,021
-274,643	179,124	-0,094	-0,098
-273,628	-5,787	0,060	0,029
-272,613	-200,000	0,009	-0,156
-271,599	207,131	0,090	0,100
-270,584	307,012	0,037	-0,049
-269,570	-18,416	0,027	-0,012
-268,555	-200,000	-0,001	-0,050
-267,540	-200,000	0,043	-0,188
-266,526	-46,245	-0,064	-0,022
-265,511	-131,088	0,163	-0,015
-264,497	800,000	0,063	-0,137
-263,482	-200,000	-0,006	-0,069
-262,467	39,774	0,150	0,095
-261,453	-42,962	0,112	0,040
-260,438	-200,000	0,001	-0,026
-259,424	-56,096	-0,063	0,020
-258,409	23,887	-0,093	-0,054
-257,395	50,325	-0,032	-0,021
-256,380	161,675	0,051	-0,050
-255,365	-200,000	0,037	0,178
-254,351	207,626	-0,057	-0,063
-253,336	800,000	-0,012	-0,026
-252,322	218,473	-0,034	-0,038
-251,307	-200,000	-0,030	-0,120
-250,292	-50,910	0,040	-0,013
-249,278	-91,161	0,175	0,035
-248,263	800,000	0,046	0,135
-247,249	-86,537	-0,077	-0,017
-246,234	-25,301	-0,106	-0,044
-245,219	68,015	-0,093	-0,067
-244,205	17,274	0,111	-0,062
-243,190	800,000	0,014	-0,029
-242,176	420,479	-0,081	0,124
-241,161	-75,954	0,141	0,035
-240,146	227,986	0,039	-0,045
-239,132	369,683	-0,054	-0,078
-238,117	200,561	-0,079	-0,086
-237,103	-200,000	-0,008	-0,094
-236,088	203,487	-0,106	0,117
-235,073	303,879	0,078	0,103
-234,059	242,726	-0,047	0,056
-233,044	70,131	-0,063	-0,046
-232,030	-200,000	-0,010	0,033
-231,015	-200,000	-0,026	0,086
-230,000	-74,720	-0,139	0,035
-228,986	-200,000	-0,006	0,051
-227,971	257,411	-0,035	-0,043
-226,957	-200,000	0,018	-0,067
-225,942	-150,051	0,108	0,006
-224,927	-143,494	-0,037	-0,002
-223,913	334,443	0,083	-0,115
-222,898	-200,000	0,022	-0,094
-221,884	-173,393	-0,004	0,000
-220,869	-200,000	-0,007	-0,096
-219,855	72,448	0,074	0,055
-218,840	-111,059	-0,058	-0,008
-217,825	-28,797	0,087	-0,035
-216,811	-200,000	-0,007	0,141
-215,796	-82,752	-0,192	0,044
-214,782	-200,000	0,007	-0,057
-213,767	236,749	0,120	-0,142
-212,752	-152,823	-0,109	-0,005
-211,738	-200,000	-0,039	0,140
-210,723	800,000	-0,035	-0,083
-209,709	-74,809	0,121	0,031
-208,694	-76,777	-0,025	0,006
-207,679	13,502	0,049	0,027
-206,665	42,230	0,094	0,060
-205,650	254,495	0,101	0,123
-204,636	-25,656	0,083	0,035
-203,621	39,652	-0,037	0,023
-202,606	-200,000	-0,015	-0,158
-201,592	-42,645	-0,133	-0,048
-200,577	119,029	-0,113	-0,099
-199,563	52,609	-0,119	0,080
-198,548	-72,628	0,166	0,043
-197,533	-43,071	0,042	-0,015
-196,519	92,582	0,036	-0,028
-195,504	556,327	0,029	-0,049
-194,490	530,104	-0,050	-0,084
-193,475	419,758	-0,014	-0,021
-192,460	569,711	0,041	0,071
-191,446	-200,000	0,056	0,235
-190,431	509,609	-0,014	0,024
-189,417	106,936	0,086	0,073
-188,402	800,000	0,030	0,084
-187,387	231,288	0,032	-0,037
-186,373	-1,880	-0,052	-0,026
-185,358	128,238	0,055	-0,050
-184,344	81,947	-0,049	0,037
-183,329	-28,365	0,162	0,066
-182,315	-200,000	-0,009	-0,038
-181,300	63,546	-0,072	0,051
-180,285	800,000	-0,051	0,128
-179,271	107,238	0,046	-0,039
-178,256	-76,174	-0,028	-0,007
-177,242	800,000	0,042	0,085
-176,227	246,417	0,115	0,137
-175,212	800,000	-0,035	0,098
-174,198	-95,869	-0,120	-0,022
-173,183	118,348	-0,070	-0,061
-172,169	95,811	-0,045	-0,036
-171,154	-106,343	0,062	-0,010
-170,139	83,273	0,041	0,032
-169,125	226,488	0,022	-0,025
-168,110	-32,839	0,094	0,037
-167,096	-200,000	-0,012	0,140
-166,081	800,000	-0,060	-0,170
-165,066	147,414	-0,039	-0,037
-164,052	677,750	-0,070	-0,129
-163,037	1,718	-0,082	0,042
-162,023	297,723	0,045	0,058
-161,008	-200,000	0,005	0,103
-159,993	80,256	0,079	-0,060
-158,979	-94,933	-0,097	0,018
-157,964	-93,279	-0,096	0,019
-156,950	-37,639	0,045	0,017
-155,935	-200,000	-0,013	0,151
-154,920	511,175	0,067	-0,111
-153,906	-23,377	-0,015	-0,006
-152,891	644,152	0,057	-0,103
-151,877	-128,385	0,125	0,012
-150,862	164,297	-0,084	0,084
-149,847	458,672	0,042	-0,067
-148,833	-28,959	0,077	-0,031
-147,818	684,039	0,124	0,230
-146,804	800,000	0,070	0,156
-145,789	-152,125	-0,085	-0,004
-144,775	-71,665	-0,050	0,013
-143,760	371,734	0,093	-0,134
-142,745	-46,918	-0,074	-0,025
-141,731	607,032	-0,063	-0,112
-140,716	14,288	-0,087	0,048
-139,702	328,365	-0,050	-0,069
-138,687	800,000	0,010	0,021
-137,672	-53,378	-0,111	0,036
-136,658	-41,668	-0,159	0,058
-135,643	-95,442	-0,145	-0,027
-134,629	-34,826	0,062	0,024
-133,614	-18,304	0,058	0,026
-132,599	800,000	0,061	0,137
-131,585	76,503	0,157	0,118
-130,570	161,590	0,045	-0,045
-129,556	202,186	-0,157	-0,172
-128,541	458,721	0,073	-0,115
-127,526	-200,000	-0,022	-0,078
-126,512	-200,000	0,026	0,161
-125,497	-200,000	0,014	-0,062
-124,483	-200,000	-0,005	-0,029
-123,468	100,447	-0,058	0,047
-122,453	146,726	0,028	-0,027
-121,439	64,407	-0,089	-0,063
-120,424	800,000	-0,016	0,035
-119,410	-200,000	0,012	0,085
-118,395	691,676	-0,024	0,046
-117,380	110,039	0,104	-0,089
-116,366	408,297	0,078	-0,117
-115,351	-200,000	-0,014	-0,192
-114,337	-186,946	-0,132	-0,001
-113,322	132,369	-0,130	-0,118
-112,307	158,385	0,145	-0,142
-111,293	-52,543	0,119	0,039
-110,278	-47,056	0,057	-0,020
-109,264	-42,317	0,117	0,042
-108,249	-45,735	-0,063	-0,022
-107,234	-200,000	0,030	-0,141
-106,220	-42,999	0,097	-0,035
-105,205	-200,000	0,002	-0,019
-104,191	115,926	-0,094	0,081
-103,176	-200,000	-0,009	-0,049
-102,162	305,197	-0,024	-0,032
-101,147	-200,000	0,033	0,209
-100,132	-41,188	-0,089	-0,032
-99,118	-102,213	0,062	0,010
-98,103	-167,725	0,089	-0,002
-97,089	177,222	0,100	0,103
-96,074	800,000	-0,043	0,100
-95,059	103,074	-0,053	0,044
-94,045	-195,390	-0,134	0,001
-93,030	-200,000	-0,015	-0,144
-92,016	108,024	-0,050	-0,042
-91,001	-0,602	-0,075	0,037
-89,986	531,422	0,039	0,065
-88,972	132,024	-0,039	-0,036
-87,957	17,265	-0,024	0,014
-86,943	-80,428	-0,051	0,012
-85,928	-67,692	0,023	-0,006
-84,913	-200,000	-0,052	-0,174
-83,899	43,628	-0,034	-0,022
-82,884	30,426	-0,014	-0,008
-81,870	800,000	0,029	0,076
-80,855	234,273	0,064	-0,075
-79,840	175,904	-0,122	-0,125
-78,826	26,803	-0,066	0,039
-77,811	-53,731	0,114	-0,037
-76,797	-94,272	-0,126	0,024
-75,782	238,718	-0,035	0,041
-74,767	47,486	0,058	-0,038
-73,753	99,759	0,045	-0,037
-72,738	-200,000	0,001	0,090
-71,724	248,183	-0,052	-0,062
-70,709	-123,554	0,046	0,005
-69,694	12,491	-0,076	0,041
-68,680	52,050	0,154	-0,104
-67,665	-200,000	0,028	0,122
-66,651	-82,553	-0,131	-0,030
-65,636	800,000	0,011	-0,025
-64,622	83,473	0,048	0,037
-63,607	113,045	-0,119	-0,101
-62,592	56,139	-0,072	-0,050
-61,578	6,855	0,110	0,057
-60,563	-104,899	0,073	0,012
-59,549	395,478	-0,071	0,105
-58,534	40,016	-1,881	-1,191
-57,519	551,898	-1,252	-2,132
-56,505	-200,000	-0,306	-4,314
-55,490	493,486	0,887	1,442
-54,476	800,000	5,038	11,113
-53,461	-200,000	20,775	328,724
-52,446	800,000	757,322	2322,763
-51,432	550,485	1662,372	2825,944
-50,417	73,516	1664,058	1228,654
-49,403	18,691	1537,534	866,137
-48,388	12,666	1460,283	793,457
-47,373	18,948	1450,987	818,548
-46,359	15,876	1440,052	797,728
-45,344	11,011	1435,952	772,247
-44,330	10,919	1434,089	770,778
-43,315	10,898	1432,329	769,700
-42,300	10,911	1430,493	768,745
-41,286	10,946	1429,216	768,194
-40,271	10,898	1428,020	767,291
-39,257	10,887	1426,896	766,608
-38,242	10,953	1425,784	766,290
-37,227	10,977	1424,419	765,640
-36,213	10,935	1423,546	764,942
-35,198	10,953	1422,153	764,247
-34,184	10,971	1421,478	763,940
-33,169	10,898	1420,060	762,802
-32,154	10,949	1419,155	762,528
-31,140	10,999	1417,542	761,865
-30,125	10,991	1416,483	761,230
-29,111	11,004	1415,461	760,709
-28,096	10,970	1414,482	759,995
-27,082	10,915	1413,071	758,948
-26,067	10,928	1412,064	758,436
-25,052	10,912	1411,038	757,783
-24,038	10,927	1410,015	757,275
-23,023	10,900	1409,008	756,574
-22,009	10,901	1408,073	756,050
-20,994	10,902	1407,158	755,533
-19,979	10,887	1406,213	754,922
-18,965	10,848	1405,069	754,099
-17,950	10,855	1404,244	753,657
-16,936	10,815	1403,555	753,073
-15,921	10,788	1402,659	752,437
-14,906	10,784	1401,581	751,810
-13,892	10,849	1400,372	751,433
-12,877	10,835	1399,806	751,034
-11,863	10,791	1398,956	750,343
-10,848	10,774	1398,111	749,781
-9,833	10,718	1397,222	749,015
-8,819	10,731	1396,443	748,629
-7,804	10,668	1395,600	747,856
-6,790	10,747	1394,390	747,544
-5,775	10,721	1393,218	746,765
-4,760	10,756	1392,470	746,494
-3,746	10,749	1391,323	745,816
-2,731	10,702	1390,635	745,204
-1,717	10,666	1389,960	744,645
-0,702	10,685	1387,949	743,625
0,313	14,727	1301,738	715,954
1,327	31,065	693,214	418,441
2,342	48,466	120,216	79,296
3,356	3,370	16,454	8,425
4,371	-7,066	3,372	1,608
5,386	-62,863	0,914	0,265
6,400	800,000	0,180	0,454
7,415	145,041	-0,207	-0,196
8,429	-120,106	-0,336	-0,040
9,444	-69,478	-0,336	-0,090
10,459	40,536	-0,337	-0,214
11,473	27,794	-0,316	-0,187
12,488	-41,146	-0,353	-0,128
13,502	-118,510	-0,181	-0,022
14,517	128,850	-0,277	-0,249
15,531	144,484	-0,371	-0,349
16,546	57,856	-0,426	-0,293
17,561	-40,461	-0,265	-0,097
18,575	80,683	-0,300	-0,228
19,590	123,804	-0,207	-0,183
20,604	39,401	-0,416	-0,262
21,619	96,497	-0,461	-0,371
22,634	51,570	-0,517	-0,345
23,648	56,698	-0,442	-0,302
24,663	30,636	-0,397	-0,238
25,677	83,369	-0,304	-0,233
26,692	129,648	-0,336	-0,303
27,707	108,510	-0,216	-0,181
28,721	-45,401	-0,483	-0,168
29,736	129,818	-0,298	-0,268
30,750	44,597	-0,598	-0,386
31,765	63,258	-0,345	-0,243
32,780	-43,217	-0,277	-0,098
33,794	28,880	-0,295	-0,175
34,809	31,525	-0,319	-0,193
35,823	-24,299	-0,428	-0,179
36,838	262,460	-0,224	-0,273
37,853	6,002	-0,341	-0,177
38,867	-17,031	-0,535	-0,237
39,882	91,510	-0,365	-0,288
40,896	225,134	-0,205	-0,233
41,911	-40,018	-0,464	-0,169
42,926	87,096	-0,391	-0,304
43,940	102,207	-0,286	-0,235
44,955	84,225	-0,432	-0,332
45,969	57,542	-0,339	-0,233
46,984	121,941	-0,219	-0,192
47,999	-14,086	-0,351	-0,159
49,013	-27,188	-0,271	-0,110
50,028	46,945	-0,268	-0,175
51,042	69,997	-0,351	-0,254
52,057	77,197	-0,289	-0,216
53,071	60,697	-0,300	-0,208
54,086	10,747	-0,422	-0,225
55,101	94,031	-0,171	-0,136
56,115	-41,183	-0,277	-0,100
57,130	99,429	-0,345	-0,280
58,144	89,163	-0,304	-0,237
59,159	35,943	-0,281	-0,173
60,174	109,711	-0,347	-0,292
61,188	-35,664	-0,401	-0,152
62,203	70,256	-0,313	-0,227
63,217	-55,192	-0,247	-0,077
64,232	84,077	-0,387	-0,296
65,247	206,265	-0,365	-0,399
66,261	152,785	-0,287	-0,276
67,276	7,999	-0,299	-0,157
68,290	175,110	-0,185	-0,188
69,305	85,956	-0,270	-0,208
70,320	95,876	-0,203	-0,162
71,334	60,401	-0,351	-0,243
72,349	-1,507	-0,295	-0,145
73,363	91,630	-0,293	-0,231
74,378	-22,410	-0,347	-0,147
75,393	-35,013	-0,292	-0,111
76,407	-85,261	-0,272	-0,059
77,422	-48,699	-0,277	-0,093
78,436	-94,613	-0,217	-0,041
79,451	-35,446	-0,279	-0,106
80,466	97,203	-0,341	-0,274
81,480	242,351	-0,307	-0,361
82,495	162,037	-0,283	-0,278
83,509	-139,970	-0,327	-0,024
84,524	71,970	-0,095	-0,069
85,539	66,598	-0,237	-0,169
86,553	-35,810	-0,296	-0,112
87,568	214,070	-0,216	-0,240
88,582	93,474	-0,357	-0,283
89,597	14,389	-0,371	-0,202
90,611	13,966	-0,343	-0,186
91,626	49,623	-0,218	-0,143
92,641	20,369	-0,249	-0,140
93,655	48,577	-0,177	-0,116
94,670	-142,013	-0,330	-0,023
95,684	139,598	-0,328	-0,303
96,699	14,399	-0,213	-0,116
97,714	-5,645	-0,295	-0,141
98,728	-26,024	-0,305	-0,125
99,743	119,114	-0,247	-0,213
100,757	59,110	-0,166	-0,114
101,772	105,892	-0,311	-0,258
102,787	-9,371	-0,307	-0,143
103,801	105,146	-0,284	-0,235
104,816	313,032	-0,193	-0,254
105,830	5,100	-0,267	-0,137
106,845	124,146	-0,228	-0,201
107,860	-6,794	-0,389	-0,184
108,874	160,160	-0,213	-0,208
109,889	115,832	-0,331	-0,283
110,903	143,196	-0,242	-0,225
111,918	-4,476	-0,313	-0,151
112,933	49,365	-0,208	-0,136
113,947	-74,144	-0,232	-0,058
114,962	85,903	-0,268	-0,206
115,976	2,542	-0,244	-0,123
116,991	130,450	-0,242	-0,217
118,006	347,748	-0,157	-0,216
119,020	-80,629	-0,202	-0,047
120,035	95,878	-0,180	-0,143
121,049	269,077	-0,160	-0,196
122,064	42,687	-0,220	-0,140
123,079	-45,770	-0,232	-0,080
124,093	17,776	-0,245	-0,136
125,108	295,645	-0,192	-0,246
126,122	118,389	-0,195	-0,168
127,137	-13,482	-0,336	-0,151
128,151	76,776	-0,309	-0,229
129,166	215,273	-0,185	-0,204
130,181	118,243	-0,213	-0,183
131,195	-85,199	-0,201	-0,043
132,210	-45,636	-0,385	-0,132
133,224	234,538	-0,213	-0,246
134,239	5,591	-0,274	-0,141
135,254	272,970	-0,180	-0,222
136,268	128,784	-0,184	-0,164
137,283	53,608	-0,372	-0,248
138,297	7,365	-0,283	-0,147
139,312	258,337	-0,152	-0,183
140,327	-57,754	-0,305	-0,092
141,341	173,664	-0,226	-0,227
142,356	48,156	-0,279	-0,182
143,370	-2,256	-0,279	-0,136
144,385	56,445	-0,195	-0,132
145,400	40,299	-0,214	-0,134
146,414	311,037	-0,240	-0,314
147,429	108,778	-0,280	-0,233
148,443	78,339	-0,254	-0,188
149,458	100,935	-0,236	-0,191
150,473	-44,216	-0,215	-0,075
151,487	-26,899	-0,159	-0,064
152,502	-4,248	-0,362	-0,174
153,516	216,694	-0,289	-0,320
154,531	75,532	-0,252	-0,185
155,546	-27,635	-0,309	-0,124
156,560	800,000	-0,103	-0,205
157,575	60,618	-0,135	-0,093
158,589	-51,350	-0,292	-0,094
159,604	502,313	-0,121	-0,195
160,619	100,707	-0,291	-0,235
161,633	181,519	-0,195	-0,200
162,648	-18,194	-0,253	-0,109
163,662	-5,268	-0,276	-0,132
164,677	64,680	-0,151	-0,106
165,692	129,621	-0,178	0,159
166,706	344,503	-0,078	-0,106
167,721	-112,123	-0,279	-0,039
168,735	58,115	-0,252	-0,171
169,750	31,937	-0,233	-0,139
170,764	467,883	-0,162	-0,254
171,779	157,870	-0,217	-0,209
172,794	43,563	-0,209	-0,133
173,808	21,931	-0,176	-0,100
174,823	99,081	-0,139	-0,112
175,837	24,247	-0,190	-0,109
176,852	187,300	-0,148	-0,154
177,867	120,752	-0,141	-0,122
178,881	265,340	-0,128	-0,156
179,896	-127,315	-0,227	0,023
180,910	-27,775	-0,294	-0,118
181,925	-28,944	-0,241	-0,096
182,940	186,210	-0,159	-0,165
183,954	-113,067	-0,294	-0,040
184,969	11,573	-0,259	-0,138
185,983	-45,651	-0,150	0,051
186,998	260,484	-0,164	-0,197
188,013	165,502	-0,260	-0,256
189,027	282,781	-0,163	-0,203
190,042	48,524	-0,170	-0,111
191,056	123,126	-0,235	-0,205
192,071	-24,076	-0,314	-0,129
193,086	-91,930	-0,206	-0,040
194,100	-90,588	-0,111	-0,022
195,115	288,248	-0,136	-0,171
196,129	148,531	-0,177	-0,166
197,144	143,821	-0,291	-0,269
198,159	304,945	-0,109	-0,141
199,173	361,084	-0,153	-0,213
200,188	51,819	-0,231	-0,152
201,202	-15,022	-0,222	-0,098
202,217	508,417	-0,121	-0,195
203,232	80,599	-0,184	-0,137
204,246	-196,026	-0,130	-0,001
205,261	-30,200	-0,321	-0,126
206,275	-26,398	-0,249	-0,101
207,290	205,249	-0,072	-0,078
208,304	-117,237	-0,104	-0,013
209,319	164,547	-0,116	-0,114
210,334	262,929	-0,194	-0,234
211,348	532,691	-0,059	-0,096
212,363	129,942	-0,238	-0,211
213,377	54,587	-0,222	-0,148
214,392	-22,031	-0,187	-0,078
215,407	-103,394	-0,027	-0,004
216,421	-189,676	-0,284	0,002
217,436	16,902	-0,199	-0,109
218,450	191,259	-0,150	-0,156
219,465	462,143	-0,165	-0,256
220,480	-109,707	-0,303	-0,044
221,494	800,000	-0,062	-0,154
222,509	-77,586	-0,221	0,053
223,523	529,544	-0,082	-0,134
224,538	-38,490	-0,172	-0,063
225,553	81,899	-0,238	-0,178
226,567	326,605	-0,200	-0,266
227,582	630,177	-0,159	-0,280
228,596	196,422	-0,216	-0,228
229,611	-56,090	-0,186	-0,057
230,626	-107,388	-0,151	-0,023
231,640	46,203	-0,155	-0,099
232,655	-200,000	-0,101	0,000
233,669	410,045	-0,172	-0,252
234,684	5,319	-0,194	-0,099
235,699	-19,822	-0,206	-0,087
236,713	378,690	-0,163	-0,231
237,728	81,072	-0,068	-0,051
238,742	-200,000	-0,057	-0,241
239,757	361,445	-0,101	-0,141
240,772	-13,261	-0,217	-0,097
241,786	336,724	-0,173	-0,233
242,801	283,963	-0,183	-0,228
243,815	33,990	-0,176	-0,106
244,830	-129,176	-0,147	-0,014
245,844	401,167	-0,193	-0,281
246,859	198,589	-0,152	-0,161
247,874	219,537	-0,144	-0,159
248,888	37,149	-0,207	-0,126
249,903	-11,468	-0,167	-0,075
250,917	77,178	-0,312	-0,228
251,932	322,083	-0,092	-0,122
252,947	800,000	-0,061	-0,123
253,961	-183,853	-0,248	0,003
254,976	-76,575	-0,198	-0,048
255,990	103,335	-0,095	-0,077
257,005	80,343	-0,104	-0,077
258,020	-39,766	-0,232	-0,083
259,034	-135,223	-0,119	0,010
260,049	-19,393	-0,278	-0,118
261,063	-25,715	-0,111	-0,045
262,078	216,489	-0,224	-0,246
263,093	334,695	-0,232	-0,311
264,107	-24,690	-0,148	-0,060
265,122	102,113	-0,175	-0,140
266,136	6,036	-0,168	-0,086
267,151	-62,298	-0,157	-0,045
268,166	147,863	-0,141	-0,131
269,180	-47,548	-0,194	-0,065
270,195	800,000	-0,088	-0,238
271,209	42,935	-0,179	-0,112
272,224	429,587	-0,151	-0,225
273,239	-99,927	-0,057	0,010
274,253	15,666	-0,119	0,064
275,268	-118,428	-0,169	-0,020
276,282	146,155	-0,213	-0,197
277,297	-9,321	-0,311	-0,143
278,312	254,004	-0,137	-0,162
279,326	-12,797	-0,254	-0,114
280,341	213,424	-0,051	-0,056
281,355	-68,756	-0,224	-0,059
282,370	155,250	-0,194	-0,183
283,384	11,703	-0,310	-0,163
284,399	194,007	-0,125	-0,131
285,414	-67,423	-0,156	-0,042
286,428	-140,708	-0,159	0,011
287,443	800,000	-0,045	0,099
288,457	-72,124	-0,123	0,031
289,472	-29,048	-0,192	-0,075
290,487	281,510	-0,188	-0,232
291,501	-36,447	-0,177	-0,065
292,516	680,903	-0,126	-0,226
293,530	176,325	-0,151	-0,151
294,545	-31,821	-0,150	-0,057
295,560	-118,812	-0,137	0,016
296,574	12,825	-0,109	0,058
297,589	136,713	-0,137	-0,123
298,603	800,000	-0,182	-0,351
299,618	124,167	-0,096	-0,083
300,633	-133,984	-0,176	0,015
301,647	177,065	-0,160	-0,160
302,662	72,691	-0,135	-0,097
303,676	-190,161	-0,127	-0,001
304,691	210,588	-0,151	-0,163
305,706	121,719	-0,077	-0,066
306,720	170,483	-0,231	-0,228
307,735	-99,974	-0,122	-0,021
308,749	-108,468	-0,192	0,028
309,764	-64,338	-0,164	-0,046
310,779	162,030	-0,221	-0,213
311,793	143,703	-0,208	-0,191
312,808	800,000	-0,085	-0,231
313,822	-116,697	-0,177	-0,022
314,837	80,069	-0,175	-0,129
315,852	338,177	-0,118	-0,158
316,866	273,288	-0,093	-0,112
317,881	-17,836	-0,092	-0,039
318,895	222,250	-0,087	-0,096
319,910	30,634	-0,117	-0,069
320,925	-48,585	-0,173	-0,057
321,939	684,445	-0,075	-0,135
322,954	278,189	-0,121	-0,148
323,968	-200,000	0,000	-0,023
324,983	86,733	-0,126	-0,095
325,997	227,796	-0,080	-0,089
327,012	25,651	-0,196	-0,112
328,027	162,677	-0,065	0,063
329,041	800,000	-0,078	-0,208
330,056	130,284	-0,172	-0,151
331,070	522,404	-0,024	-0,039
332,085	-78,723	-0,082	0,019
333,100	800,000	-0,040	-0,091
334,114	204,936	-0,129	-0,138
335,129	42,282	-0,126	-0,078
336,143	-15,646	-0,222	-0,097
337,158	-7,584	-0,078	0,036
338,173	-85,068	-0,122	-0,026
339,187	-28,351	-0,089	0,035
340,202	293,300	-0,187	-0,234
341,216	-144,977	-0,146	-0,009
342,231	-20,090	-0,135	-0,057
343,246	306,768	-0,148	-0,189
344,260	170,490	-0,115	-0,113
345,275	-166,248	-0,214	0,006
346,289	-107,362	-0,103	-0,015
347,304	92,337	-0,182	-0,141
348,319	391,339	-0,122	-0,174
349,333	331,437	-0,188	-0,249
350,348	55,649	-0,127	-0,084
351,362	93,498	-0,229	-0,178
352,377	188,295	-0,026	-0,026
353,392	335,956	-0,101	-0,135
354,406	800,000	-0,067	-0,162
355,421	205,615	1315,230	1399,782
356,435	158,103	1475,987	1400,278
