DTS Sentinel unit serial number:	SN410029Multiplexer serial number:	ORYXHardware model number:	OX2-SRSoftware version number:	ORYX F/W v4,00 Oryx Data Collector v3.7.2.0data status	okinstallation	B3 Nyhavnadifferential loss correction	single-endedforward channel	channel 1reverse channel	N/Adate	2023/12/04time	21:32:30forward acquisition time	300,00reverse acquisition time	0,00gamma	499,1914k internal	0,3200k external	0,3200temperature offset calibration	1,0000default loss term (dB/km)	0,3820temperature slope calibration	1,0000multiplexer offset coefficient	1,0000multiplexer slope coefficient	1,0000fibre end	0,00T internal ref (°C)	14,55T ext. ref 1 (°C)	-0,28T ext. ref 2 (°C)	-0,29length (m)	temperature (°C)	Stokes	anti-Stokes-744,400	42,148	-0,186	-0,123
-743,385	-200,000	0,064	0,267
-742,371	349,660	-0,161	-0,232
-741,356	800,000	0,155	0,434
-740,342	404,194	-0,130	-0,200
-739,327	-200,000	0,020	0,259
-738,312	58,787	-0,245	-0,175
-737,298	-200,000	-0,087	0,352
-736,283	800,000	-0,091	-0,287
-735,269	-200,000	0,014	0,274
-734,254	76,848	-0,327	-0,252
-733,239	220,138	-0,156	0,182
-732,225	800,000	-0,068	-0,173
-731,210	160,982	0,111	0,112
-730,196	-54,877	-0,096	-0,031
-729,181	16,146	-0,051	0,029
-728,167	-82,239	-0,123	-0,029
-727,152	656,949	-0,049	0,091
-726,137	118,374	-0,068	0,061
-725,123	794,836	-0,046	-0,093
-724,108	-200,000	-0,003	-0,102
-723,094	46,838	-0,135	0,091
-722,079	-188,057	-0,144	0,001
-721,064	64,654	0,129	0,094
-720,050	800,000	0,038	-0,085
-719,035	800,000	0,033	-0,086
-718,021	-54,765	-0,094	0,031
-717,006	392,385	-0,062	-0,094
-715,991	800,000	0,030	-0,080
-714,977	97,765	-0,060	-0,050
-713,962	-152,257	-0,113	0,006
-712,948	-88,783	-0,020	-0,004
-711,933	-200,000	0,007	-0,063
-710,918	-59,008	0,019	0,006
-709,904	88,061	-0,022	-0,018
-708,889	314,366	-0,108	-0,148
-707,875	177,231	0,079	-0,083
-706,860	-200,000	-0,019	-0,090
-705,845	92,898	0,131	0,107
-704,831	-54,540	0,073	-0,024
-703,816	-200,000	-0,000	-0,024
-702,802	-41,553	-0,075	0,028
-701,787	442,661	-0,100	-0,160
-700,772	-32,468	-0,062	0,025
-699,758	800,000	0,028	0,073
-698,743	244,534	0,051	0,062
-697,729	157,268	0,084	0,084
-696,714	-144,319	-0,135	-0,009
-695,699	-40,253	-0,089	-0,034
-694,685	800,000	0,039	-0,102
-693,670	-107,401	0,111	0,018
-692,656	-200,000	-0,010	-0,078
-691,641	-200,000	0,035	0,132
-690,627	-200,000	-0,035	0,230
-689,612	436,671	0,031	-0,049
-688,597	-40,472	0,020	0,008
-687,583	-79,073	-0,173	-0,042
-686,568	-200,000	0,002	-0,102
-685,554	800,000	-0,015	0,039
-684,539	270,257	-0,112	-0,144
-683,524	87,318	0,063	0,050
-682,510	3,586	-0,069	-0,036
-681,495	66,700	0,006	-0,005
-680,481	800,000	0,021	-0,060
-679,466	-67,167	-0,195	-0,055
-678,451	-200,000	0,017	0,057
-677,437	-200,000	0,010	-0,038
-676,422	-200,000	-0,046	0,152
-675,408	-200,000	0,001	-0,087
-674,393	-27,637	-0,120	0,050
-673,378	66,134	-0,075	0,055
-672,364	-14,020	0,023	-0,011
-671,349	-200,000	0,004	-0,098
-670,335	78,163	0,171	-0,133
-669,320	-52,201	0,080	0,027
-668,305	214,189	0,016	-0,019
-667,291	800,000	-0,025	-0,077
-666,276	-63,862	-0,148	0,044
-665,262	395,425	0,056	0,084
-664,247	-200,000	0,004	0,076
-663,232	-42,598	0,044	0,016
-662,218	-200,000	0,015	0,051
-661,203	179,804	-0,077	0,082
-660,189	-91,536	-0,170	-0,035
-659,174	-54,497	-0,117	-0,038
-658,159	-64,506	-0,101	-0,030
-657,145	-200,000	-0,022	-0,102
-656,130	132,179	-0,025	0,024
-655,116	196,202	0,069	-0,076
-654,101	800,000	-0,027	0,080
-653,086	77,837	-0,028	0,022
-652,072	-143,834	-0,085	0,006
-651,057	-104,411	-0,030	0,005
-650,043	-200,000	0,015	-0,108
-649,028	800,000	0,041	0,102
-648,014	-161,300	0,086	-0,003
-646,999	230,296	0,052	-0,062
-645,984	-26,919	0,019	0,008
-644,970	7,799	0,093	0,050
-643,955	-200,000	-0,084	-0,272
-642,941	-48,981	0,035	-0,012
-641,926	-148,754	-0,024	0,001
-640,911	76,725	0,059	0,045
-639,897	431,006	0,016	0,025
-638,882	12,269	-0,041	-0,023
-637,868	-52,074	0,093	-0,031
-636,853	-200,000	-0,019	-0,220
-635,838	800,000	-0,040	0,100
-634,824	126,752	-0,015	-0,013
-633,809	-200,000	-0,005	0,057
-632,795	-190,191	-0,155	0,001
-631,780	-54,388	-0,120	0,039
-630,765	14,954	-0,125	-0,070
-629,751	662,482	0,024	0,045
-628,736	-131,434	0,059	-0,006
-627,722	-66,879	-0,128	0,036
-626,707	123,544	0,027	0,025
-625,692	-200,000	-0,002	0,010
-624,678	3,259	0,176	0,092
-623,663	596,347	0,054	-0,097
-622,649	800,000	-0,077	-0,168
-621,634	-200,000	-0,021	-0,076
-620,619	171,169	-0,023	0,024
-619,605	-200,000	0,025	-0,154
-618,590	337,924	-0,120	-0,169
-617,576	638,461	0,025	0,047
-616,561	450,805	0,026	-0,042
-615,546	800,000	0,045	0,107
-614,532	71,700	-0,068	-0,051
-613,517	-101,667	-0,075	-0,013
-612,503	-39,166	0,116	-0,044
-611,488	390,873	-0,048	0,072
-610,474	338,602	0,120	0,169
-609,459	-69,140	-0,027	-0,007
-608,444	220,521	0,047	0,055
-607,430	-200,000	-0,057	-0,206
-606,415	18,763	-0,057	0,033
-605,401	-200,000	0,026	0,115
-604,386	400,983	0,044	0,067
-603,371	190,272	0,033	0,036
-602,357	-200,000	0,016	-0,055
-601,342	-200,000	-0,008	0,027
-600,328	800,000	-0,033	-0,096
-599,313	800,000	0,044	-0,096
-598,298	75,881	-0,028	-0,021
-597,284	114,533	-0,064	-0,056
-596,269	4,193	0,175	-0,093
-595,255	115,181	0,049	-0,044
-594,240	-200,000	-0,008	0,100
-593,225	209,116	-0,046	0,053
-592,211	89,657	-0,083	0,067
-591,196	169,004	0,137	0,141
-590,182	98,063	0,046	0,038
-589,167	109,174	-0,093	-0,080
-588,152	758,302	0,018	-0,035
-587,138	41,384	0,126	0,082
-586,123	190,298	-0,059	-0,065
-585,109	20,290	-0,092	-0,053
-584,094	-200,000	-0,014	0,059
-583,079	-200,000	-0,028	0,111
-582,065	264,560	0,036	0,046
-581,050	504,594	0,070	0,118
-580,036	-200,000	-0,024	-0,088
-579,021	-2,753	-0,090	-0,045
-578,006	-47,852	-0,121	0,042
-576,992	-95,552	0,042	-0,008
-575,977	327,298	-0,042	0,059
-574,963	344,614	-0,067	0,095
-573,948	-101,614	-0,144	0,025
-572,934	-3,136	0,043	0,022
-571,919	-200,000	-0,016	0,072
-570,904	-28,992	-0,038	0,016
-569,890	-35,977	-0,082	-0,032
-568,875	-51,516	0,130	0,044
-567,861	40,111	0,101	0,065
-566,846	-139,800	0,067	0,005
-565,831	236,165	0,061	0,073
-564,817	101,266	0,032	-0,027
-563,802	-41,605	-0,048	-0,018
-562,788	800,000	-0,017	-0,043
-561,773	111,640	-0,023	0,020
-560,758	800,000	0,071	0,156
-559,744	-8,514	-0,149	0,072
-558,729	-70,142	0,027	-0,007
-557,715	-76,170	-0,133	-0,034
-556,700	476,229	0,046	0,075
-555,685	-144,488	-0,047	-0,003
-554,671	-200,000	-0,004	-0,022
-553,656	-200,000	0,008	0,051
-552,642	145,079	-0,064	-0,062
-551,627	103,207	0,081	-0,068
-550,612	525,733	0,045	-0,077
-549,598	800,000	-0,011	-0,036
-548,583	40,811	-0,123	-0,080
-547,569	688,473	-0,034	0,065
-546,554	351,140	-0,020	0,029
-545,539	108,253	-0,054	-0,047
-544,525	800,000	0,047	0,136
-543,510	800,000	0,058	0,164
-542,496	-57,726	-0,126	0,040
-541,481	96,461	0,040	-0,033
-540,466	84,802	-0,056	-0,044
-539,452	72,985	0,078	0,059
-538,437	-200,000	0,016	-0,134
-537,423	204,567	0,061	-0,068
-536,408	304,081	-0,046	-0,062
-535,393	800,000	-0,067	-0,139
-534,379	32,242	0,092	-0,057
-533,364	800,000	-0,055	-0,157
-532,350	-168,812	0,068	0,002
-531,335	-32,004	0,030	0,012
-530,321	800,000	0,041	-0,103
-529,306	351,446	-0,106	0,151
-528,291	-54,134	-0,116	-0,038
-527,277	237,563	-0,108	-0,129
-526,262	800,000	-0,014	0,039
-525,248	293,880	0,025	-0,032
-524,233	-33,475	-0,200	-0,079
-523,218	-200,000	0,016	0,064
-522,204	-76,136	-0,107	-0,027
-521,189	280,554	-0,029	0,038
-520,175	383,009	-0,068	-0,101
-519,160	800,000	-0,044	-0,109
-518,145	2,352	0,118	-0,061
-517,131	179,121	-0,053	0,056
-516,116	-200,000	0,026	0,106
-515,102	158,962	-0,051	0,051
-514,087	800,000	-0,059	-0,164
-513,072	511,675	-0,055	-0,092
-512,058	200,751	-0,062	-0,069
-511,043	19,415	0,050	-0,029
-510,029	-200,000	0,003	0,040
-509,014	-200,000	-0,010	0,148
-507,999	-8,453	0,123	0,059
-506,985	800,000	0,021	-0,053
-505,970	-13,496	0,111	0,052
-504,956	-200,000	0,013	-0,102
-503,941	-166,448	0,063	-0,002
-502,926	122,403	-0,068	0,061
-501,912	581,820	0,015	0,027
-500,897	39,415	0,086	-0,055
-499,883	233,541	0,082	-0,098
-498,868	560,887	-0,089	-0,155
-497,853	-94,707	-0,036	-0,007
-496,839	191,463	-0,074	-0,080
-495,824	-188,264	-0,136	-0,001
-494,810	176,153	0,013	-0,014
-493,795	75,762	-0,049	-0,037
-492,781	92,996	-0,088	0,072
-491,766	-200,000	-0,015	-0,074
-490,751	-76,132	-0,141	-0,036
-489,737	-200,000	0,012	-0,042
-488,722	149,418	0,053	0,052
-487,708	-200,000	0,030	0,149
-486,693	33,914	-0,073	0,046
-485,678	-118,119	-0,120	0,015
-484,664	-114,916	-0,110	0,015
-483,649	45,373	-0,054	0,036
-482,635	-8,898	-0,023	-0,011
-481,620	-200,000	0,016	-0,067
-480,605	-73,919	0,018	-0,005
-479,591	32,575	0,070	0,044
-478,576	-200,000	0,022	-0,109
-477,562	800,000	0,021	-0,059
-476,547	-136,247	0,044	-0,004
-475,532	210,957	-0,054	-0,061
-474,518	577,513	0,056	0,099
-473,503	370,625	-0,021	0,031
-472,489	-23,280	0,150	0,065
-471,474	-200,000	-0,030	0,125
-470,459	800,000	-0,039	-0,112
-469,445	-200,000	-0,003	-0,050
-468,430	57,772	-0,105	-0,074
-467,416	657,647	-0,030	-0,056
-466,401	-151,891	-0,094	-0,005
-465,386	-200,000	-0,005	0,100
-464,372	129,055	0,056	-0,051
-463,357	-27,345	-0,057	-0,024
-462,343	-200,000	0,014	-0,181
-461,328	800,000	0,015	0,044
-460,313	36,379	-0,056	-0,036
-459,299	-41,641	0,133	0,049
-458,284	323,118	-0,089	0,122
-457,270	176,256	0,068	0,071
-456,255	344,474	-0,043	-0,061
-455,241	600,278	-0,089	-0,160
-454,226	-89,085	0,113	0,024
-453,211	-200,000	-0,022	-0,148
-452,197	-85,476	0,089	-0,020
-451,182	-200,000	-0,013	0,068
-450,168	-69,537	0,043	0,012
-449,153	38,029	0,024	-0,015
-448,138	138,421	-0,158	-0,149
-447,124	800,000	-0,047	-0,110
-446,109	-52,658	-0,015	-0,005
-445,095	-200,000	0,003	-0,162
-444,080	-103,112	0,173	0,029
-443,065	-41,385	-0,142	0,052
-442,051	48,228	0,018	-0,012
-441,036	-138,380	-0,041	0,003
-440,022	-136,828	0,065	0,005
-439,007	-115,549	0,123	0,016
-437,992	-200,000	-0,003	-0,028
-436,978	135,144	-0,095	0,088
-435,963	275,349	0,054	0,069
-434,949	341,723	0,028	0,039
-433,934	-141,091	-0,092	-0,007
-432,919	598,801	-0,067	0,119
-431,905	-172,756	-0,084	0,002
-430,890	800,000	-0,017	0,038
-429,876	800,000	0,040	0,087
-428,861	35,312	0,068	0,043
-427,846	-200,000	-0,001	0,034
-426,832	116,290	-0,107	0,094
-425,817	800,000	0,036	0,114
-424,803	69,343	-0,076	0,056
-423,788	-200,000	-0,020	0,117
-422,773	108,360	0,032	0,027
-421,759	-11,870	0,092	-0,043
-420,744	-26,717	-0,050	-0,021
-419,730	156,252	-0,131	-0,130
-418,715	51,680	-0,066	-0,045
-417,701	-131,926	0,100	-0,009
-416,686	-200,000	-0,005	-0,045
-415,671	-71,796	0,102	0,027
-414,657	-89,630	0,157	-0,033
-413,642	173,000	0,052	0,054
-412,628	2,710	0,033	0,017
-411,613	130,270	-0,059	-0,055
-410,598	458,527	-0,036	0,058
-409,584	-131,057	-0,030	0,003
-408,569	-103,096	0,166	-0,028
-407,555	673,276	0,039	0,073
-406,540	552,696	0,058	0,101
-405,525	145,000	-0,051	0,049
-404,511	234,154	0,090	-0,107
-403,496	-200,000	-0,017	-0,098
-402,482	-200,000	-0,012	0,131
-401,467	28,080	-0,032	-0,020
-400,452	29,949	-0,056	0,034
-399,438	-62,417	-0,033	-0,010
-398,423	-150,247	-0,108	0,006
-397,409	-200,000	0,026	-0,155
-396,394	-200,000	0,015	-0,065
-395,379	-86,960	-0,122	-0,027
-394,365	63,976	0,122	-0,088
-393,350	-61,996	0,106	0,032
-392,336	-106,681	-0,077	0,012
-391,321	253,493	0,025	0,031
-390,306	-200,000	-0,015	0,074
-389,292	-200,000	0,006	0,157
-388,277	-200,000	-0,004	0,113
-387,263	65,940	0,064	0,047
-386,248	36,630	-0,042	0,026
-385,233	-140,325	0,073	0,005
-384,219	-200,000	0,060	-0,224
-383,204	118,163	0,176	-0,155
-382,190	-133,181	-0,044	0,004
-381,175	-200,000	-0,006	0,030
-380,160	-47,363	0,096	0,033
-379,146	-151,730	0,175	0,009
-378,131	-200,000	-0,002	0,024
-377,117	141,512	0,070	-0,066
-376,102	800,000	-0,008	0,016
-375,088	-44,766	0,068	-0,024
-374,073	-46,183	0,059	-0,021
-373,058	800,000	-0,030	0,071
-372,044	425,729	-0,047	0,072
-371,029	-118,808	-0,148	0,018
-370,015	117,481	-0,080	-0,071
-369,000	26,628	-0,081	0,048
-367,985	-118,359	-0,088	-0,011
-366,971	490,435	-0,063	-0,103
-365,956	596,550	-0,041	0,073
-364,942	800,000	-0,044	-0,138
-363,927	-164,174	0,094	-0,003
-362,912	572,815	-0,022	0,039
-361,898	-50,749	-0,129	0,043
-360,883	800,000	0,018	-0,038
-359,869	-200,000	0,008	0,099
-358,854	-200,000	0,005	0,062
-357,839	734,668	0,044	-0,085
-356,825	-200,000	-0,025	0,093
-355,810	52,385	0,047	-0,032
-354,796	75,382	0,128	-0,097
-353,781	800,000	-0,050	-0,144
-352,766	-200,000	0,022	-0,079
-351,752	252,608	0,070	0,086
-350,737	270,913	0,044	0,056
-349,723	-200,000	-0,021	0,136
-348,708	122,980	0,113	-0,102
-347,693	-83,705	-0,101	-0,023
-346,679	581,145	-0,044	-0,077
-345,664	-200,000	-0,001	0,011
-344,650	800,000	-0,045	0,112
-343,635	-100,477	0,089	0,016
-342,620	417,278	0,032	0,048
-341,606	68,588	0,123	0,090
-340,591	800,000	-0,035	-0,078
-339,577	36,908	0,046	0,029
-338,562	800,000	0,059	-0,134
-337,548	-55,987	-0,083	0,026
-336,533	134,454	0,176	-0,164
-335,518	168,084	0,074	-0,075
-334,504	340,288	-0,036	0,051
-333,489	134,185	0,029	-0,027
-332,475	107,047	0,098	-0,083
-331,460	440,304	0,020	0,031
-330,445	-200,000	-0,007	-0,088
-329,431	164,032	0,074	0,074
-328,416	800,000	0,038	0,110
-327,402	-100,440	0,096	-0,017
-326,387	245,202	-0,050	0,060
-325,372	0,162	-0,032	-0,016
-324,358	-62,741	-0,133	-0,039
-323,343	-200,000	0,033	-0,106
-322,329	36,577	0,157	0,099
-321,314	431,323	0,038	0,060
-320,299	-103,342	0,089	0,015
-319,285	-31,303	0,032	0,013
-318,270	-63,976	0,084	-0,024
-317,256	-200,000	0,013	-0,197
-316,241	-57,541	-0,056	-0,017
-315,226	30,345	0,061	0,037
-314,212	317,288	0,086	0,116
-313,197	-132,960	0,118	0,011
-312,183	-200,000	0,002	-0,010
-311,168	800,000	0,068	-0,152
-310,153	65,689	-0,117	0,085
-309,139	-102,974	-0,105	-0,018
-308,124	299,345	-0,091	-0,121
-307,110	208,822	-0,021	-0,023
-306,095	800,000	0,049	0,149
-305,080	-106,947	-0,152	0,024
-304,066	-34,501	-0,036	0,014
-303,051	800,000	-0,091	-0,230
-302,037	800,000	-0,009	0,021
-301,022	-86,322	-0,025	0,005
-300,008	800,000	0,047	0,114
-298,993	242,573	0,122	0,146
-297,978	-77,706	-0,145	-0,036
-296,964	233,607	-0,043	0,050
-295,949	-110,121	-0,070	-0,010
-294,935	-200,000	-0,034	-0,131
-293,920	431,517	0,058	-0,091
-292,905	-40,282	0,082	-0,030
-291,891	-200,000	-0,006	-0,025
-290,876	-53,881	0,138	0,045
-289,862	-31,089	0,063	0,025
-288,847	126,359	0,020	-0,018
-287,832	-200,000	0,029	-0,095
-286,818	-74,172	0,050	0,013
-285,803	171,133	0,026	0,026
-284,789	187,228	-0,084	-0,090
-283,774	31,278	0,146	0,089
-282,759	-200,000	0,013	0,064
-281,745	-113,823	-0,092	-0,013
-280,730	542,698	-0,047	0,080
-279,716	284,534	-0,014	-0,018
-278,701	-111,009	0,018	-0,003
-277,686	-200,000	0,118	-0,000
-276,672	493,592	0,044	-0,073
-275,657	640,748	0,038	-0,070
-274,643	800,000	-0,055	-0,126
-273,628	-113,558	-0,019	0,003
-272,613	-200,000	0,006	-0,165
-271,599	-185,009	0,081	0,001
-270,584	-200,000	0,034	0,136
-269,570	-200,000	0,002	0,124
-268,555	-200,000	-0,052	0,177
-267,540	-147,133	-0,129	-0,008
-266,526	-200,000	0,003	0,166
-265,511	-116,880	-0,027	0,003
-264,497	-200,000	0,003	-0,023
-263,482	31,765	0,032	0,020
-262,467	63,078	0,046	-0,033
-261,453	65,629	-0,144	0,104
-260,438	-200,000	-0,001	-0,055
-259,424	524,115	0,026	0,043
-258,409	412,517	0,020	-0,031
-257,395	81,986	-0,140	0,108
-256,380	-25,556	0,087	0,037
-255,365	315,459	0,128	0,173
-254,351	-200,000	-0,015	0,096
-253,336	-140,638	0,100	0,007
-252,322	-200,000	0,047	-0,200
-251,307	800,000	-0,036	-0,098
-250,292	800,000	0,033	-0,094
-249,278	432,598	0,063	0,098
-248,263	-154,469	0,108	0,005
-247,249	800,000	0,051	0,133
-246,234	301,015	-0,035	0,046
-245,219	203,920	-0,098	-0,108
-244,205	-52,207	0,035	0,012
-243,190	800,000	0,032	-0,094
-242,176	-200,000	0,020	0,170
-241,161	-200,000	0,013	0,108
-240,146	-65,192	-0,087	0,025
-239,132	78,439	-0,018	-0,014
-238,117	-54,312	-0,080	0,026
-237,103	800,000	0,065	-0,132
-236,088	-154,153	-0,153	-0,007
-235,073	-200,000	0,007	0,050
-234,059	-103,843	0,033	0,005
-233,044	-32,831	-0,142	-0,056
-232,030	423,766	0,058	-0,090
-231,015	-38,340	-0,107	-0,040
-230,000	192,415	0,075	-0,080
-228,986	800,000	-0,026	0,066
-227,971	-200,000	0,048	0,167
-226,957	-200,000	0,022	0,151
-225,942	366,450	0,015	0,021
-224,927	47,467	-0,004	-0,002
-223,913	-44,062	-0,046	-0,017
-222,898	800,000	-0,033	-0,086
-221,884	359,082	0,045	-0,065
-220,869	-133,613	-0,078	-0,007
-219,855	424,150	0,113	0,174
-218,840	-59,755	0,099	0,030
-217,825	314,398	0,052	0,070
-216,811	616,812	0,053	0,095
-215,796	-200,000	-0,020	0,163
-214,782	64,207	0,132	0,095
-213,767	-200,000	0,006	-0,056
-212,752	-80,691	0,122	0,029
-211,738	-157,554	0,173	-0,007
-210,723	800,000	-0,033	0,065
-209,709	46,850	-0,088	-0,058
-208,694	-60,214	-0,218	-0,066
-207,679	-95,871	-0,068	-0,013
-206,665	-21,024	-0,085	0,037
-205,650	-48,110	-0,058	0,020
-204,636	732,127	-0,067	-0,127
-203,621	125,869	0,014	0,013
-202,606	80,101	-0,056	-0,043
-201,592	16,105	-0,070	-0,039
-200,577	-74,262	-0,106	0,027
-199,563	-20,951	-0,047	0,021
-198,548	-55,992	0,044	0,014
-197,533	289,776	-0,095	0,123
-196,519	-200,000	-0,000	0,144
-195,504	96,795	-0,076	-0,062
-194,490	394,609	0,014	0,020
-193,475	-200,000	-0,009	-0,040
-192,460	343,629	-0,017	0,024
-191,446	207,160	0,087	0,097
-190,431	-200,000	-0,005	-0,059
-189,417	-200,000	0,025	0,105
-188,402	91,177	-0,124	0,099
-187,387	462,392	-0,097	-0,154
-186,373	-165,258	-0,134	0,004
-185,358	800,000	-0,030	0,066
-184,344	-83,828	0,115	-0,026
-183,329	-200,000	0,013	0,068
-182,315	-79,512	0,044	0,010
-181,300	219,940	-0,018	-0,020
-180,285	-44,751	-0,094	0,033
-179,271	115,422	-0,071	0,061
-178,256	67,265	0,053	0,039
-177,242	-49,528	0,038	-0,013
-176,227	119,458	0,096	0,085
-175,212	-39,848	-0,069	0,026
-174,198	13,700	0,140	0,077
-173,183	265,097	0,054	-0,067
-172,169	-107,357	0,108	-0,017
-171,154	45,114	-0,126	-0,082
-170,139	800,000	0,029	-0,058
-169,125	308,504	-0,096	0,127
-168,110	11,910	0,017	0,009
-167,096	105,865	0,053	-0,044
-166,081	-50,313	-0,023	0,008
-165,066	-47,662	0,043	-0,015
-164,052	-200,000	0,000	-0,109
-163,037	10,850	0,082	0,044
-162,023	362,212	0,065	0,093
-161,008	-65,580	0,114	-0,032
-159,993	530,293	-0,038	-0,064
-158,979	595,545	-0,048	-0,085
-157,964	800,000	0,034	-0,094
-156,950	-93,709	-0,104	0,020
-155,935	534,115	-0,034	-0,057
-154,920	-101,281	0,053	-0,009
-153,906	-9,585	0,153	0,072
-152,891	3,059	0,096	-0,049
-151,877	313,494	0,049	-0,065
-150,862	800,000	-0,015	-0,032
-149,847	-200,000	0,005	0,022
-148,833	22,361	0,028	-0,016
-147,818	598,507	-0,067	0,119
-146,804	-200,000	-0,017	0,070
-145,789	-200,000	0,011	0,076
-144,775	-200,000	-0,001	0,040
-143,760	166,321	-0,085	-0,086
-142,745	105,039	-0,065	-0,054
-141,731	-200,000	-0,001	0,064
-140,716	800,000	-0,026	0,061
-139,702	-200,000	-0,007	0,108
-138,687	-49,038	0,049	0,017
-137,672	-166,506	0,053	0,002
-136,658	800,000	-0,043	-0,096
-135,643	-86,170	-0,206	-0,045
-134,629	-112,451	0,027	-0,004
-133,614	-13,576	-0,152	-0,070
-132,599	152,409	0,046	-0,044
-131,585	-120,235	0,031	0,004
-130,570	-200,000	0,035	0,130
-129,556	800,000	-0,036	0,083
-128,541	-200,000	0,000	-0,017
-127,526	800,000	-0,038	-0,098
-126,512	800,000	0,030	-0,073
-125,497	-64,142	0,222	0,064
-124,483	-200,000	-0,005	0,071
-123,468	-17,302	-0,066	0,029
-122,453	800,000	-0,036	0,085
-121,439	800,000	-0,061	-0,174
-120,424	411,645	-0,053	0,081
-119,410	-57,504	0,068	-0,021
-118,395	-45,276	0,117	-0,041
-117,380	139,620	0,120	-0,113
-116,366	600,327	0,031	0,055
-115,351	94,336	-0,025	-0,020
-114,337	-26,800	-0,097	-0,040
-113,322	141,599	0,068	-0,063
-112,307	52,789	0,056	0,038
-111,293	-200,000	-0,014	0,088
-110,278	-200,000	-0,018	-0,058
-109,264	286,267	-0,010	-0,013
-108,249	-86,590	-0,084	0,018
-107,234	80,391	-0,110	-0,084
-106,220	-23,227	-0,036	0,015
-105,205	116,295	0,067	-0,058
-104,191	181,297	0,035	-0,037
-103,176	119,001	0,051	0,045
-102,162	-68,423	0,033	0,009
-101,147	21,360	-0,023	0,013
-100,132	192,313	-0,053	-0,057
-99,118	297,708	0,072	-0,093
-98,103	85,797	-0,110	0,086
-97,089	-71,297	-0,070	-0,018
-96,074	10,268	0,112	-0,060
-95,059	-200,000	0,027	-0,096
-94,045	-200,000	0,005	0,062
-93,030	-146,976	0,101	-0,006
-92,016	232,159	-0,051	-0,060
-91,001	20,974	0,077	-0,044
-89,986	-146,567	-0,015	-0,001
-88,972	219,066	0,058	-0,066
-87,957	800,000	0,043	0,123
-86,943	800,000	0,014	-0,031
-85,928	12,579	-0,106	-0,058
-84,913	464,370	0,043	-0,069
-83,899	31,054	0,035	-0,021
-82,884	-200,000	0,014	-0,069
-81,870	119,380	0,119	-0,105
-80,855	399,077	0,013	-0,019
-79,840	438,813	0,051	-0,079
-78,826	800,000	0,052	-0,139
-77,811	-200,000	-0,001	-0,083
-76,797	-200,000	-0,024	-0,103
-75,782	149,533	0,032	-0,030
-74,767	-159,908	0,096	-0,004
-73,753	-200,000	-0,006	0,086
-72,738	246,646	0,066	0,079
-71,724	-200,000	0,014	0,062
-70,709	92,049	-0,070	-0,056
-69,694	-137,671	0,111	0,009
-68,680	154,609	0,055	-0,053
-67,665	-78,499	-0,059	-0,014
-66,651	-81,738	0,060	0,014
-65,636	-200,000	0,011	0,181
-64,622	191,282	-0,021	0,023
-63,607	-200,000	0,018	0,062
-62,592	86,665	0,045	-0,035
-61,578	558,107	0,032	-0,054
-60,563	-200,000	0,000	-0,078
-59,549	248,892	0,064	0,077
-58,534	-12,369	-1,439	-0,663
-57,519	381,076	-1,483	-2,163
-56,505	-200,000	-0,529	-4,461
-55,490	80,196	0,997	0,759
-54,476	800,000	4,901	11,305
-53,461	-200,000	18,464	296,612
-52,446	800,000	731,240	2255,519
-51,432	558,255	1647,413	2825,061
-50,417	78,878	1667,743	1262,547
-49,403	22,485	1540,717	889,916
-48,388	16,441	1463,960	816,270
-47,373	17,816	1453,909	817,263
-46,359	17,023	1444,312	808,037
-45,344	14,674	1439,594	794,138
-44,330	14,647	1437,833	793,008
-43,315	14,600	1436,091	791,788
-42,300	14,653	1434,254	790,997
-41,286	14,644	1433,485	790,501
-40,271	14,592	1431,957	789,380
-39,257	14,633	1430,834	788,924
-38,242	14,669	1429,363	788,251
-37,227	14,719	1428,106	787,765
-36,213	14,659	1426,851	786,755
-35,198	14,636	1425,647	785,954
-34,184	14,708	1424,649	785,713
-33,169	14,608	1423,428	784,535
-32,154	14,677	1422,440	784,287
-31,140	14,692	1421,164	783,623
-30,125	14,728	1419,974	783,102
-29,111	14,639	1419,026	782,129
-28,096	14,640	1417,771	781,410
-27,082	14,605	1416,823	780,695
-26,067	14,563	1415,674	779,831
-25,052	14,592	1414,521	779,304
-24,038	14,578	1413,757	778,783
-23,023	14,567	1412,650	778,090
-22,009	14,543	1411,726	777,440
-20,994	14,507	1410,681	776,667
-19,979	14,513	1409,959	776,263
-18,965	14,481	1408,998	775,556
-17,950	14,483	1408,021	774,996
-16,936	14,506	1406,968	774,491
-15,921	14,473	1405,890	773,715
-14,906	14,475	1404,960	773,184
-13,892	14,513	1403,989	772,794
-12,877	14,498	1403,319	772,325
-11,863	14,482	1402,274	771,643
-10,848	14,531	1401,295	771,303
-9,833	14,423	1400,660	770,421
-8,819	14,398	1399,712	769,754
-7,804	14,398	1398,684	769,157
-6,790	14,400	1397,576	768,527
-5,775	14,405	1396,539	767,946
-4,760	14,396	1395,715	767,423
-3,746	14,346	1395,069	766,805
-2,731	14,411	1394,175	766,586
-1,717	14,372	1393,236	765,855
-0,702	14,382	1391,439	764,884
0,313	18,207	1309,845	737,748
1,327	34,697	705,715	435,648
2,342	53,157	124,262	84,071
3,356	3,638	16,553	8,517
4,371	-3,564	3,150	1,545
5,386	-17,340	0,609	0,270
6,400	800,000	0,051	0,116
7,415	-16,617	-0,306	-0,136
8,429	121,038	-0,212	-0,186
9,444	104,677	-0,299	-0,249
10,459	44,184	-0,319	-0,207
11,473	-6,270	-0,290	-0,139
12,488	-74,463	-0,289	-0,073
13,502	-53,148	-0,353	-0,114
14,517	33,493	-0,286	-0,175
15,531	-70,130	-0,438	-0,117
16,546	58,506	-0,321	-0,222
17,561	164,174	-0,438	-0,436
18,575	-70,615	-0,271	-0,072
19,590	-149,755	-0,307	-0,017
20,604	17,371	-0,223	-0,125
21,619	33,568	-0,464	-0,284
22,634	240,806	-0,386	-0,456
23,648	148,263	-0,380	-0,363
24,663	14,088	-0,492	-0,270
25,677	3,809	-0,264	-0,136
26,692	18,088	-0,423	-0,238
27,707	26,616	-0,362	-0,213
28,721	268,290	-0,252	-0,313
29,736	8,485	-0,426	-0,225
30,750	10,621	-0,376	-0,202
31,765	60,499	-0,393	-0,274
32,780	105,126	-0,392	-0,327
33,794	153,479	-0,325	-0,314
34,809	10,834	-0,387	-0,208
35,823	63,290	-0,321	-0,227
36,838	23,481	-0,390	-0,226
37,853	54,965	-0,399	-0,271
38,867	35,502	-0,423	-0,261
39,882	-55,794	-0,412	-0,129
40,896	115,607	-0,352	-0,303
41,911	-2,546	-0,297	-0,146
42,926	145,313	-0,328	-0,310
43,940	45,442	-0,344	-0,223
44,955	43,814	-0,434	-0,279
45,969	314,810	-0,284	-0,378
46,984	73,315	-0,279	-0,206
47,999	44,785	-0,429	-0,278
49,013	54,135	-0,231	-0,156
50,028	128,975	-0,287	-0,258
51,042	246,313	-0,227	-0,271
52,057	96,795	-0,253	-0,204
53,071	152,429	-0,308	-0,297
54,086	54,126	-0,336	-0,227
55,101	-17,747	-0,368	-0,162
56,115	31,703	-0,404	-0,244
57,130	140,684	-0,243	-0,226
58,144	190,510	-0,393	-0,416
59,159	41,233	-0,362	-0,230
60,174	137,605	-0,277	-0,255
61,188	192,742	-0,269	-0,286
62,203	60,407	-0,251	-0,175
63,217	10,902	-0,339	-0,182
64,232	102,869	-0,318	-0,262
65,247	261,391	-0,246	-0,300
66,261	74,955	-0,360	-0,267
67,276	43,340	-0,320	-0,205
68,290	119,806	-0,329	-0,287
69,305	146,168	-0,242	-0,228
70,320	92,639	-0,259	-0,206
71,334	61,339	-0,138	-0,096
72,349	-30,188	-0,245	-0,097
73,363	62,511	-0,417	-0,292
74,378	44,516	-0,428	-0,276
75,393	84,642	-0,364	-0,280
76,407	342,530	-0,229	-0,316
77,422	39,342	-0,200	-0,126
78,436	91,477	-0,304	-0,240
79,451	66,897	-0,311	-0,222
80,466	46,029	-0,339	-0,220
81,480	9,635	-0,319	-0,169
82,495	115,646	-0,328	-0,282
83,509	7,034	-0,230	-0,120
84,524	-51,639	-0,073	-0,024
85,539	46,231	-0,265	-0,172
86,553	-15,190	-0,273	-0,122
87,568	126,635	-0,281	-0,250
88,582	13,500	-0,368	-0,200
89,597	-13,263	-0,350	-0,159
90,611	38,835	-0,203	-0,127
91,626	58,055	-0,388	-0,267
92,641	68,232	-0,281	-0,201
93,655	162,631	-0,259	-0,255
94,670	75,077	-0,290	-0,214
95,684	-22,579	-0,357	-0,151
96,699	48,629	-0,322	-0,212
97,714	96,590	-0,289	-0,232
98,728	31,316	-0,283	-0,170
99,743	157,871	-0,158	-0,154
100,757	800,000	-0,103	-0,277
101,772	-29,970	-0,373	-0,148
102,787	-11,236	-0,162	-0,075
103,801	91,946	-0,298	-0,235
104,816	-4,604	-0,290	-0,140
105,830	84,583	-0,297	-0,228
106,845	72,480	-0,268	-0,195
107,860	107,323	-0,224	-0,186
108,874	119,420	-0,218	-0,189
109,889	-41,862	-0,356	-0,127
110,903	640,707	-0,169	-0,302
111,918	467,635	-0,157	-0,248
112,933	-109,301	-0,345	-0,051
113,947	61,956	-0,162	-0,113
114,962	-153,141	-0,378	-0,018
115,976	199,093	-0,299	-0,321
116,991	29,633	-0,324	-0,193
118,006	120,665	-0,278	-0,242
119,020	84,662	-0,243	-0,186
120,035	105,288	-0,260	-0,215
121,049	99,066	-0,235	-0,190
122,064	-36,043	-0,237	-0,089
123,079	61,072	-0,205	-0,142
124,093	-76,409	-0,383	-0,094
125,108	-20,022	-0,341	-0,147
126,122	27,753	-0,271	-0,159
127,137	110,237	-0,227	-0,191
128,151	208,655	-0,148	-0,162
129,166	85,408	-0,267	-0,205
130,181	505,624	-0,164	-0,267
131,195	-8,845	-0,203	-0,095
132,210	78,343	-0,362	-0,270
133,224	765,409	-0,121	-0,232
134,239	90,028	-0,271	-0,212
135,254	259,951	-0,137	-0,166
136,268	390,048	-0,198	-0,288
137,283	103,949	-0,229	-0,188
138,297	534,989	-0,138	-0,229
139,312	73,865	-0,267	-0,195
140,327	-144,451	-0,179	-0,011
141,341	-4,683	-0,167	-0,080
142,356	327,907	-0,156	-0,210
143,370	182,214	-0,141	-0,145
144,385	187,030	-0,185	-0,193
145,400	154,748	-0,154	-0,148
146,414	19,577	-0,264	-0,148
147,429	-62,851	-0,163	-0,047
148,443	254,575	-0,187	-0,225
149,458	800,000	-0,102	-0,265
150,473	66,426	-0,271	-0,192
151,487	639,197	-0,154	-0,275
152,502	-54,826	-0,353	-0,110
153,516	89,588	-0,325	-0,253
154,531	254,291	-0,278	-0,333
155,546	506,002	-0,092	-0,150
156,560	111,052	-0,175	-0,147
157,575	-52,107	-0,212	-0,068
158,589	693,731	-0,088	-0,162
159,604	-34,924	-0,356	-0,135
160,619	102,160	-0,223	-0,182
161,633	-28,899	-0,287	-0,115
162,648	-25,537	-0,235	-0,096
163,662	-16,403	-0,154	-0,068
164,677	75,496	-0,206	-0,151
165,692	-32,443	-0,246	-0,095
166,706	215,699	-0,228	-0,253
167,721	37,636	-0,264	-0,163
168,735	797,666	-0,138	-0,267
169,750	-2,392	-0,260	-0,127
170,764	-132,411	-0,342	0,030
171,779	503,626	-0,192	-0,311
172,794	96,172	-0,292	-0,232
173,808	15,493	-0,156	-0,085
174,823	124,834	-0,208	-0,183
175,837	7,385	-0,216	-0,112
176,852	-87,467	-0,301	-0,063
177,867	284,987	-0,113	-0,142
178,881	519,646	-0,175	-0,287
179,896	-33,710	-0,224	-0,086
180,910	61,181	-0,305	-0,211
181,925	63,714	-0,297	-0,207
182,940	434,753	-0,100	-0,152
183,954	46,070	-0,272	-0,175
184,969	-117,728	-0,241	-0,030
185,983	228,372	-0,131	-0,149
186,998	189,523	-0,243	-0,254
188,013	-128,879	-0,181	-0,018
189,027	800,000	-0,117	-0,248
190,042	97,965	-0,223	-0,179
191,056	155,385	-0,220	-0,211
192,071	-63,216	-0,282	-0,080
193,086	210,296	-0,119	-0,130
194,100	38,323	-0,183	-0,113
195,115	136,842	-0,227	-0,206
196,129	164,692	-0,267	-0,262
197,144	56,029	-0,268	-0,181
198,159	14,544	-0,183	-0,099
199,173	267,298	-0,123	-0,150
200,188	1,333	-0,194	-0,096
201,202	148,038	-0,132	-0,124
202,217	33,217	-0,347	-0,209
203,232	12,536	-0,240	-0,129
204,246	55,847	-0,282	-0,190
205,261	194,392	-0,185	-0,195
206,275	32,749	-0,264	-0,158
207,290	297,501	-0,122	-0,156
208,304	46,081	-0,127	-0,082
209,319	588,120	-0,138	-0,238
210,334	800,000	-0,120	-0,288
211,348	363,390	-0,140	-0,196
212,363	159,215	-0,190	-0,184
213,377	33,364	-0,202	-0,122
214,392	-99,442	-0,268	-0,046
215,407	327,625	-0,154	-0,205
216,421	-108,886	-0,205	-0,030
217,436	122,745	-0,097	-0,085
218,450	782,580	-0,100	-0,192
219,465	81,946	-0,274	-0,206
220,480	158,371	-0,215	-0,208
221,494	346,386	-0,167	-0,228
222,509	-77,353	-0,183	-0,044
223,523	-135,450	-0,156	0,013
224,538	-48,470	-0,257	-0,085
225,553	23,188	-0,184	-0,104
226,567	419,276	-0,153	-0,227
227,582	293,018	-0,242	-0,306
228,596	198,131	-0,151	-0,160
229,611	331,950	-0,063	-0,085
230,626	-113,223	-0,102	-0,014
231,640	184,734	-0,192	-0,198
232,655	108,945	-0,211	-0,175
233,669	800,000	-0,132	-0,265
234,684	-8,030	-0,171	-0,080
235,699	800,000	-0,113	-0,272
236,713	-14,150	-0,162	-0,072
237,728	-26,865	-0,223	-0,090
238,742	31,211	-0,097	-0,057
239,757	336,083	-0,122	-0,165
240,772	-5,915	-0,342	-0,162
241,786	199,717	-0,189	-0,201
242,801	800,000	-0,080	-0,195
243,815	177,859	-0,233	-0,236
244,830	37,573	-0,190	-0,116
245,844	322,000	-0,164	-0,217
246,859	24,658	-0,307	-0,176
247,874	-16,025	-0,275	-0,121
248,888	24,954	-0,188	-0,108
249,903	98,114	-0,251	-0,200
250,917	-90,840	-0,190	-0,037
251,932	37,802	-0,130	-0,080
252,947	-200,000	-0,064	-0,225
253,961	196,099	-0,154	-0,162
254,976	146,815	-0,156	-0,145
255,990	64,527	-0,224	-0,156
257,005	257,683	-0,131	-0,156
258,020	800,000	-0,045	-0,129
259,034	344,079	-0,088	-0,120
260,049	-93,896	-0,152	-0,029
261,063	-49,166	-0,105	-0,034
262,078	6,272	-0,131	-0,067
263,093	143,040	-0,172	-0,158
264,107	35,309	-0,237	-0,143
265,122	-29,733	-0,077	-0,030
266,136	800,000	-0,060	-0,174
267,151	558,433	-0,106	-0,177
268,166	-38,374	-0,209	-0,076
269,180	-85,523	-0,196	-0,042
270,195	57,162	-0,244	-0,164
271,209	-56,385	-0,167	-0,051
272,224	-52,338	-0,175	-0,056
273,239	800,000	-0,083	-0,198
274,253	800,000	-0,080	-0,178
275,268	-79,439	-0,276	-0,064
276,282	-200,000	-0,039	-0,199
277,297	179,070	-0,145	-0,147
278,312	135,301	-0,153	-0,138
279,326	65,155	-0,169	-0,118
280,341	408,099	-0,157	-0,230
281,355	-45,891	-0,162	-0,055
282,370	112,570	-0,144	-0,120
283,384	167,998	-0,222	-0,218
284,399	-49,349	-0,270	-0,088
285,414	2,174	-0,115	-0,057
286,428	32,011	-0,206	-0,122
287,443	-10,560	-0,137	0,062
288,457	-9,652	-0,152	-0,070
289,472	155,227	-0,173	-0,164
290,487	54,814	-0,169	-0,112
291,501	91,128	-0,131	-0,101
292,516	-40,800	-0,170	-0,060
293,530	67,253	-0,186	-0,131
294,545	-67,272	-0,150	-0,040
295,560	683,965	-0,039	-0,070
296,574	282,213	-0,089	0,111
297,589	-179,509	-0,229	-0,003
298,603	80,154	-0,207	-0,153
299,618	283,375	-0,132	-0,164
300,633	-33,820	-0,181	-0,069
301,647	250,356	-0,079	-0,093
302,662	-108,617	-0,198	-0,029
303,676	-138,854	-0,171	0,013
304,691	-110,223	-0,150	-0,021
305,706	194,094	-0,081	-0,085
306,720	37,328	-0,183	-0,111
307,735	-82,749	-0,105	-0,023
308,749	396,585	-0,136	-0,196
309,764	-162,982	-0,144	0,005
310,779	800,000	-0,063	-0,146
311,793	-110,821	-0,229	-0,032
312,808	497,960	-0,132	-0,210
313,822	800,000	-0,122	-0,254
314,837	38,828	-0,190	-0,117
315,852	94,067	-0,154	-0,120
316,866	109,957	-0,121	-0,100
317,881	245,145	-0,105	-0,121
318,895	-200,000	0,037	-0,154
319,910	-141,609	-0,218	0,015
320,925	129,724	-0,121	-0,106
321,939	-18,351	-0,157	-0,067
322,954	-116,181	-0,165	-0,021
323,968	-150,513	-0,156	0,008
324,983	-132,207	-0,186	0,016
325,997	-102,867	-0,096	-0,016
327,012	-93,750	-0,124	-0,023
328,027	-181,867	-0,192	0,002
329,041	800,000	-0,044	-0,094
330,056	-200,000	-0,001	-0,125
331,070	125,423	-0,133	-0,115
332,085	56,222	-0,143	-0,095
333,100	-60,937	-0,142	-0,041
334,114	487,674	-0,090	-0,142
335,129	2,806	-0,049	-0,024
336,143	682,677	-0,100	-0,180
337,158	-200,000	0,019	-0,114
338,173	485,269	-0,058	-0,091
339,187	-177,038	-0,232	0,004
340,202	-170,593	-0,115	0,003
341,216	-84,736	-0,187	-0,040
342,231	800,000	0,022	-0,066
343,246	19,820	-0,057	-0,031
344,260	800,000	-0,042	-0,101
345,275	-20,118	-0,111	-0,047
346,289	-106,328	-0,174	0,026
347,304	-105,707	-0,108	0,017
348,319	-51,555	-0,213	-0,068
349,333	-200,000	-0,065	-0,243
350,348	-13,267	-0,168	-0,075
351,362	344,426	-0,084	-0,113
352,377	-116,994	-0,136	-0,017
353,392	329,515	-0,010	-0,013
354,406	-84,838	-0,115	-0,025
355,421	209,428	1315,542	1416,028
356,435	161,185	1476,383	1416,535
