DTS Sentinel unit serial number:	SN410029Multiplexer serial number:	ORYXHardware model number:	OX2-SRSoftware version number:	ORYX F/W v4,00 Oryx Data Collector v3.7.2.0data status	okinstallation	B3 Nyhavnadifferential loss correction	single-endedforward channel	channel 1reverse channel	N/Adate	2023/12/01time	16:42:30forward acquisition time	300,00reverse acquisition time	0,00gamma	499,1914k internal	0,3206k external	0,3206temperature offset calibration	1,0000default loss term (dB/km)	0,3820temperature slope calibration	1,0000multiplexer offset coefficient	1,0000multiplexer slope coefficient	1,0000fibre end	0,00T internal ref (°C)	13,45T ext. ref 1 (°C)	-0,17T ext. ref 2 (°C)	-0,19length (m)	temperature (°C)	Stokes	anti-Stokes-744,400	59,411	-0,285	-0,204
-743,385	-200,000	-0,028	0,221
-742,371	220,087	-0,155	-0,180
-741,356	-200,000	-0,055	0,424
-740,342	-60,759	-0,186	0,057
-739,327	-200,000	0,023	0,243
-738,312	562,922	-0,184	-0,324
-737,298	-200,000	0,017	0,329
-736,283	227,657	-0,306	-0,362
-735,269	-200,000	0,076	0,323
-734,254	4,955	-0,244	-0,130
-733,239	-6,627	-0,207	0,102
-732,225	206,487	-0,203	-0,230
-731,210	203,736	0,109	0,122
-730,196	800,000	0,010	-0,031
-729,181	-125,936	-0,249	-0,027
-728,167	-162,554	0,160	-0,006
-727,152	233,925	-0,103	0,123
-726,137	-200,000	-0,024	-0,077
-725,123	187,485	-0,065	-0,071
-724,108	800,000	-0,102	-0,223
-723,094	-200,000	-0,037	-0,322
-722,079	-64,414	-0,081	-0,024
-721,064	289,891	0,089	-0,117
-720,050	-95,337	0,140	-0,027
-719,035	-148,794	-0,082	0,005
-718,021	118,683	0,056	-0,050
-717,006	-200,000	0,000	-0,018
-715,991	57,286	-0,066	-0,046
-714,977	38,024	-0,072	-0,046
-713,962	584,068	-0,048	-0,085
-712,948	291,268	-0,023	-0,031
-711,933	2,419	0,017	0,009
-710,918	-91,188	-0,145	0,030
-709,904	800,000	0,037	-0,107
-708,889	161,801	0,058	-0,059
-707,875	-200,000	-0,008	-0,030
-706,860	73,524	0,122	-0,093
-705,845	139,307	-0,079	0,075
-704,831	-60,364	-0,073	0,022
-703,816	-145,037	0,043	-0,003
-702,802	172,458	0,092	-0,096
-701,787	434,693	0,086	0,136
-700,772	61,401	0,150	-0,108
-699,758	221,724	0,052	-0,061
-698,743	-53,654	0,084	-0,028
-697,729	-200,000	-0,041	-0,177
-696,714	-200,000	-0,036	0,172
-695,699	16,740	-0,043	-0,025
-694,685	800,000	-0,081	-0,198
-693,670	800,000	0,053	-0,108
-692,656	130,282	-0,079	-0,073
-691,641	800,000	-0,027	-0,076
-690,627	265,950	0,071	0,090
-689,612	-101,688	0,020	-0,003
-688,597	-1,727	0,098	-0,050
-687,583	2,602	-0,122	-0,064
-686,568	-200,000	0,023	-0,160
-685,554	112,172	0,050	-0,044
-684,539	-200,000	0,000	0,010
-683,524	-200,000	0,001	0,125
-682,510	-200,000	-0,001	0,014
-681,495	110,615	-0,069	0,060
-680,481	-64,261	-0,135	0,040
-679,466	-8,388	-0,093	-0,045
-678,451	-200,000	-0,047	-0,151
-677,437	618,505	0,036	-0,066
-676,422	-89,496	0,043	-0,009
-675,408	57,273	-0,046	0,032
-674,393	800,000	0,027	0,056
-673,378	-200,000	0,013	-0,045
-672,364	-61,369	-0,194	-0,059
-671,349	402,624	0,052	-0,079
-670,335	-79,188	0,038	-0,009
-669,320	-100,721	0,066	0,012
-668,305	-200,000	0,134	-0,000
-667,291	-200,000	-0,012	-0,087
-666,276	-200,000	0,006	-0,078
-665,262	280,295	-0,044	0,057
-664,247	-117,376	0,149	0,019
-663,232	9,183	-0,050	-0,027
-662,218	-200,000	0,029	0,174
-661,203	800,000	0,119	0,254
-660,189	131,750	-0,050	0,047
-659,174	-200,000	0,005	-0,118
-658,159	53,349	-0,096	-0,067
-657,145	-29,935	-0,156	-0,064
-656,130	361,918	0,066	0,097
-655,116	64,353	-0,072	0,052
-654,101	211,396	0,038	0,043
-653,086	43,905	0,071	-0,047
-652,072	110,873	0,064	-0,055
-651,057	34,652	-0,186	-0,117
-650,043	-200,000	-0,026	-0,187
-649,028	800,000	-0,029	-0,065
-648,014	800,000	-0,028	-0,071
-646,999	124,445	-0,033	0,030
-645,984	-200,000	0,004	0,032
-644,970	-200,000	-0,002	-0,012
-643,955	-113,349	-0,118	0,017
-642,941	34,161	-0,174	-0,109
-641,926	-60,558	-0,096	-0,029
-640,911	165,976	0,062	0,063
-639,897	800,000	0,014	0,042
-638,882	-37,322	-0,093	0,036
-637,868	161,356	0,089	0,090
-636,853	-98,352	0,029	-0,005
-635,838	148,141	0,032	0,031
-634,824	-48,935	-0,060	-0,021
-633,809	-200,000	-0,002	-0,026
-632,795	-110,349	0,029	0,004
-631,780	-200,000	-0,030	0,128
-630,765	-200,000	0,023	-0,092
-629,751	-137,583	-0,037	-0,003
-628,736	147,276	-0,021	-0,021
-627,722	-200,000	0,008	-0,035
-626,707	-135,236	0,104	-0,009
-625,692	-7,942	0,030	0,015
-624,678	800,000	0,039	-0,091
-623,663	481,794	-0,055	0,090
-622,649	259,172	0,060	-0,075
-621,634	-200,000	-0,002	-0,026
-620,619	800,000	0,029	0,074
-619,605	-130,403	-0,153	0,015
-618,590	-200,000	-0,014	0,115
-617,576	-59,998	0,077	0,024
-616,561	-27,221	-0,068	-0,028
-615,546	-200,000	0,020	-0,102
-614,532	79,551	0,071	-0,055
-613,517	-106,317	-0,194	0,031
-612,503	-90,831	-0,111	0,023
-611,488	462,091	-0,078	0,126
-610,474	194,350	-0,030	0,033
-609,459	-150,288	-0,071	-0,004
-608,444	-200,000	0,006	0,085
-607,430	-36,221	0,031	0,012
-606,415	82,751	-0,146	-0,115
-605,401	-9,096	0,065	-0,032
-604,386	260,542	-0,041	-0,051
-603,371	-200,000	-0,002	-0,035
-602,357	495,817	0,080	-0,134
-601,342	362,242	-0,056	-0,081
-600,328	-10,877	-0,121	-0,057
-599,313	-200,000	-0,010	0,115
-598,298	-100,765	0,053	-0,009
-597,284	-200,000	-0,005	0,046
-596,269	-68,176	0,129	0,036
-595,255	-3,424	0,071	0,036
-594,240	-14,816	-0,116	0,053
-593,225	-200,000	-0,007	-0,040
-592,211	800,000	-0,053	-0,155
-591,196	-200,000	0,027	-0,146
-590,182	323,680	0,049	0,067
-589,167	800,000	0,046	0,096
-588,152	97,438	-0,026	0,021
-587,138	-173,943	-0,150	-0,003
-586,123	6,797	-0,078	-0,042
-585,109	800,000	0,052	-0,122
-584,094	-125,500	-0,098	-0,011
-583,079	177,853	0,048	-0,051
-582,065	-20,235	0,071	0,032
-581,050	-166,896	-0,070	-0,002
-580,036	141,258	-0,094	0,090
-579,021	55,087	-0,128	-0,089
-578,006	800,000	0,023	-0,063
-576,992	227,188	-0,036	-0,042
-575,977	-200,000	0,016	0,075
-574,963	120,587	-0,068	0,061
-573,948	800,000	-0,024	0,072
-572,934	54,439	-0,063	0,044
-571,919	-200,000	-0,001	0,141
-570,904	554,981	-0,069	-0,121
-569,890	85,288	-0,086	-0,068
-568,875	-200,000	0,006	0,045
-567,861	233,286	0,051	-0,060
-566,846	156,844	0,049	-0,049
-565,831	570,965	0,028	-0,049
-564,817	800,000	-0,043	0,104
-563,802	800,000	-0,047	0,135
-562,788	800,000	0,024	0,055
-561,773	637,866	-0,018	-0,034
-560,758	164,929	0,093	0,094
-559,744	14,493	-0,069	-0,039
-558,729	-153,968	0,024	-0,001
-557,715	164,162	-0,038	0,039
-556,700	127,616	-0,049	-0,045
-555,685	800,000	-0,012	-0,026
-554,671	82,125	-0,064	0,050
-553,656	96,202	0,103	0,085
-552,642	-200,000	-0,007	0,122
-551,627	736,776	0,020	0,038
-550,612	800,000	0,059	-0,164
-549,598	136,919	-0,091	-0,086
-548,583	800,000	-0,038	-0,082
-547,569	-49,621	-0,037	-0,013
-546,554	-200,000	0,006	-0,033
-545,539	102,262	-0,033	-0,028
-544,525	45,236	0,095	0,063
-543,510	173,489	0,051	-0,053
-542,496	-200,000	-0,037	-0,191
-541,481	800,000	-0,030	-0,064
-540,466	-40,098	0,012	-0,005
-539,452	800,000	0,022	-0,054
-538,437	83,398	0,118	0,093
-537,423	-98,348	-0,095	-0,017
-536,408	322,102	0,043	-0,060
-535,393	232,196	-0,090	-0,106
-534,379	-132,092	0,049	0,005
-533,364	-200,000	0,041	-0,000
-532,350	-200,000	0,016	-0,076
-531,335	404,873	-0,020	0,031
-530,321	322,280	-0,079	0,109
-529,306	800,000	-0,034	-0,104
-528,291	-200,000	0,046	-0,176
-527,277	115,372	-0,051	0,045
-526,262	-200,000	-0,009	0,152
-525,248	-87,771	-0,141	-0,030
-524,233	-99,332	-0,083	-0,015
-523,218	201,334	0,131	0,145
-522,204	-200,000	-0,013	-0,075
-521,189	-80,970	0,103	0,024
-520,175	800,000	-0,026	-0,080
-519,160	72,398	-0,028	0,021
-518,145	800,000	-0,013	-0,028
-517,131	-1,766	0,194	0,098
-516,116	36,336	0,106	0,067
-515,102	-26,491	-0,047	-0,020
-514,087	-108,054	0,101	-0,016
-513,072	209,731	-0,065	-0,073
-512,058	-200,000	0,001	-0,121
-511,043	-117,916	0,076	0,010
-510,029	-62,342	0,075	-0,022
-509,014	569,465	-0,020	-0,035
-507,999	-200,000	-0,041	-0,141
-506,985	80,242	0,078	-0,060
-505,970	-69,763	-0,085	-0,023
-504,956	82,928	0,009	-0,007
-503,941	169,339	0,062	0,064
-502,926	560,787	-0,019	0,033
-501,912	28,503	0,052	-0,032
-500,897	-136,271	0,050	0,004
-499,883	800,000	-0,033	-0,088
-498,868	-108,797	0,043	0,006
-497,853	800,000	0,034	-0,103
-496,839	41,649	-0,032	0,021
-495,824	63,492	0,089	0,064
-494,810	-200,000	-0,002	0,013
-493,795	-200,000	-0,005	-0,034
-492,781	-89,574	0,068	-0,014
-491,766	18,312	0,116	0,066
-490,751	100,475	-0,090	-0,075
-489,737	-200,000	0,022	-0,079
-488,722	41,519	-0,077	0,050
-487,708	71,216	0,084	0,063
-486,693	-105,898	0,110	0,018
-485,678	104,919	0,046	-0,039
-484,664	-200,000	0,021	0,111
-483,649	442,065	-0,066	-0,104
-482,635	-40,077	-0,111	0,041
-481,620	168,005	0,037	0,038
-480,605	36,372	0,047	0,030
-479,591	-62,621	-0,031	0,009
-478,576	414,845	-0,010	0,015
-477,562	-200,000	0,004	-0,034
-476,547	800,000	0,073	-0,206
-475,532	-161,856	0,018	-0,001
-474,518	361,279	0,076	0,109
-473,503	-5,841	0,071	0,035
-472,489	-200,000	0,009	-0,038
-471,474	97,181	0,064	0,053
-470,459	-200,000	0,028	0,153
-469,445	389,423	-0,036	0,054
-468,430	-1,729	-0,037	-0,019
-467,416	537,021	0,071	0,121
-466,401	127,521	0,096	-0,088
-465,386	-72,117	-0,056	-0,015
-464,372	800,000	0,047	0,130
-463,357	-139,736	0,128	0,010
-462,343	-200,000	0,005	-0,022
-461,328	-200,000	-0,013	-0,126
-460,313	-200,000	0,010	0,063
-459,299	-200,000	-0,023	0,154
-458,284	800,000	-0,056	0,127
-457,270	-200,000	0,013	-0,139
-456,255	201,217	0,068	-0,075
-455,241	290,566	-0,016	0,021
-454,226	374,528	-0,037	0,054
-453,211	-149,232	-0,084	0,005
-452,197	-200,000	-0,033	0,197
-451,182	-84,854	0,184	0,041
-450,168	444,827	0,033	0,052
-449,153	800,000	0,025	-0,064
-448,138	366,815	-0,062	0,091
-447,124	-200,000	0,034	-0,124
-446,109	-200,000	-0,003	-0,030
-445,095	-200,000	0,012	-0,116
-444,080	279,446	0,027	0,035
-443,065	37,334	0,150	0,095
-442,051	800,000	0,013	0,032
-441,036	800,000	0,014	0,038
-440,022	-79,605	-0,120	0,029
-439,007	17,706	-0,085	0,048
-437,992	-96,714	0,130	0,024
-436,978	-200,000	-0,038	0,200
-435,963	553,485	0,070	0,122
-434,949	-156,909	-0,035	0,002
-433,934	-200,000	-0,009	0,072
-432,919	-200,000	-0,030	-0,130
-431,905	521,897	-0,050	0,085
-430,890	48,653	0,071	-0,047
-429,876	-151,194	-0,025	-0,001
-428,861	800,000	-0,016	-0,034
-427,846	-92,457	-0,033	-0,007
-426,832	-200,000	-0,005	0,022
-425,817	800,000	0,026	0,080
-424,803	-200,000	-0,037	0,273
-423,788	125,057	-0,091	0,083
-422,773	-200,000	0,004	0,060
-421,759	412,600	0,055	-0,084
-420,744	3,613	-0,080	-0,042
-419,730	-45,081	-0,077	-0,027
-418,715	-200,000	-0,017	-0,142
-417,701	97,310	-0,059	0,049
-416,686	-4,640	0,079	0,039
-415,671	-200,000	0,055	0,182
-414,657	282,708	0,094	0,122
-413,642	42,882	-0,041	0,027
-412,628	402,282	-0,037	-0,056
-411,613	-200,000	-0,038	-0,155
-410,598	-200,000	-0,005	0,068
-409,584	8,093	0,012	-0,006
-408,569	462,937	0,010	0,016
-407,555	800,000	0,028	0,065
-406,540	800,000	-0,038	0,090
-405,525	164,162	-0,040	-0,040
-404,511	-104,612	-0,154	-0,025
-403,496	783,015	0,077	-0,152
-402,482	432,406	0,079	-0,124
-401,467	-36,394	-0,088	0,034
-400,452	800,000	0,016	0,038
-399,438	800,000	-0,082	0,186
-398,423	180,533	-0,027	-0,028
-397,409	800,000	0,052	-0,119
-396,394	-200,000	-0,019	-0,090
-395,379	191,684	-0,072	0,078
-394,365	133,063	-0,033	0,031
-393,350	-90,346	0,015	-0,003
-392,336	-200,000	0,017	0,125
-391,321	191,754	0,022	0,023
-390,306	-73,049	-0,117	-0,031
-389,292	511,091	0,009	0,015
-388,277	-200,000	0,037	-0,154
-387,263	118,711	0,063	0,056
-386,248	-57,862	0,061	0,019
-385,233	-200,000	0,004	-0,059
-384,219	241,043	-0,054	-0,065
-383,204	154,084	0,137	0,135
-382,190	-25,193	-0,121	-0,051
-381,175	-200,000	0,005	-0,053
-380,160	-131,159	-0,110	0,010
-379,146	-200,000	0,025	-0,087
-378,131	-144,395	0,091	0,006
-377,117	-200,000	0,007	-0,128
-376,102	-131,987	0,064	0,006
-375,088	5,733	-0,117	0,062
-374,073	563,842	-0,087	-0,151
-373,058	-139,210	0,199	-0,015
-372,044	246,523	-0,044	-0,053
-371,029	-200,000	0,002	0,040
-370,015	767,105	-0,005	-0,009
-369,000	-124,564	0,090	0,010
-367,985	-3,624	-0,168	-0,083
-366,971	241,798	-0,109	-0,131
-365,956	-127,188	0,079	-0,008
-364,942	-39,811	0,109	0,041
-363,927	59,709	0,082	0,058
-362,912	-49,101	0,114	-0,039
-361,898	-200,000	0,007	-0,056
-360,883	182,600	-0,080	-0,085
-359,869	-60,733	-0,005	0,002
-358,854	-200,000	0,002	0,041
-357,839	-103,302	0,121	-0,020
-356,825	800,000	0,026	0,071
-355,810	-104,276	0,071	0,012
-354,796	-36,981	-0,028	0,011
-353,781	-122,349	-0,132	-0,015
-352,766	-200,000	0,056	0,000
-351,752	387,896	0,067	0,100
-350,737	319,453	0,010	-0,014
-349,723	-200,000	0,020	0,150
-348,708	-52,477	-0,048	-0,016
-347,693	800,000	-0,022	-0,049
-346,679	87,774	-0,051	-0,041
-345,664	1,862	-0,092	-0,047
-344,650	170,189	0,109	-0,112
-343,635	-13,000	0,111	-0,051
-342,620	31,922	0,030	0,019
-341,606	27,014	0,089	-0,053
-340,591	-200,000	0,011	0,078
-339,577	-200,000	0,002	0,117
-338,562	-200,000	0,012	0,090
-337,548	-200,000	0,033	0,119
-336,533	800,000	0,028	0,056
-335,518	321,819	0,023	0,031
-334,504	-200,000	0,013	-0,078
-333,489	-0,089	-0,086	0,044
-332,475	517,802	-0,055	0,093
-331,460	-15,971	-0,019	0,009
-330,445	135,484	-0,090	-0,083
-329,431	-85,966	-0,038	0,008
-328,416	227,491	0,106	-0,124
-327,402	-84,441	0,061	-0,014
-326,387	25,368	-0,065	0,038
-325,372	-124,319	0,044	-0,005
-324,358	121,903	0,033	-0,029
-323,343	-126,624	-0,066	-0,007
-322,329	305,568	0,076	-0,101
-321,314	-124,117	0,096	-0,011
-320,299	539,574	0,036	0,061
-319,285	9,725	-0,074	-0,040
-318,270	-85,969	-0,054	-0,012
-317,256	-35,621	0,020	0,008
-316,241	204,816	-0,052	-0,058
-315,226	129,711	0,041	0,037
-314,212	1,831	0,049	0,025
-313,197	-152,402	0,082	0,004
-312,183	70,617	0,138	0,102
-311,168	-43,055	0,087	-0,031
-310,153	-94,579	-0,053	-0,010
-309,139	-200,000	-0,005	0,042
-308,124	-9,878	0,172	0,081
-307,110	-200,000	0,017	0,095
-306,095	-200,000	-0,000	-0,076
-305,080	-200,000	0,026	-0,094
-304,066	-23,380	0,038	-0,016
-303,051	-200,000	-0,020	-0,072
-302,037	536,400	-0,036	0,061
-301,022	800,000	0,020	0,062
-300,008	-36,768	0,052	-0,020
-298,993	55,767	0,039	0,027
-297,978	102,928	-0,122	0,102
-296,964	118,887	0,094	0,083
-295,949	-18,587	-0,096	-0,043
-294,935	16,699	-0,061	-0,034
-293,920	-200,000	-0,065	0,208
-292,905	5,023	0,072	-0,038
-291,891	72,136	-0,036	-0,026
-290,876	-200,000	-0,013	0,048
-289,862	110,547	0,089	0,077
-288,847	-200,000	-0,001	-0,164
-287,832	8,310	-0,079	-0,042
-286,818	-200,000	-0,000	0,075
-285,803	-200,000	-0,018	-0,069
-284,789	-200,000	-0,013	0,063
-283,774	-200,000	-0,041	0,130
-282,759	-166,451	-0,096	0,003
-281,745	-139,443	-0,072	-0,005
-280,730	-200,000	0,017	-0,056
-279,716	533,270	-0,020	0,034
-278,701	56,959	0,071	0,049
-277,686	800,000	0,054	0,159
-276,672	-200,000	0,025	0,134
-275,657	42,663	-0,157	0,102
-274,643	27,472	-0,055	-0,033
-273,628	-88,152	0,109	-0,023
-272,613	228,073	0,068	0,079
-271,599	800,000	-0,021	0,042
-270,584	-95,227	0,057	0,011
-269,570	-200,000	0,004	0,022
-268,555	392,216	0,042	-0,062
-267,540	-200,000	-0,054	-0,247
-266,526	425,555	-0,086	-0,132
-265,511	-200,000	-0,012	0,134
-264,497	339,496	0,020	-0,028
-263,482	59,772	-0,047	-0,033
-262,467	280,840	0,010	0,012
-261,453	800,000	-0,017	0,049
-260,438	12,529	-0,118	0,065
-259,424	-52,179	-0,100	-0,033
-258,409	446,528	0,036	-0,057
-257,395	197,820	0,119	0,130
-256,380	-119,922	-0,078	0,009
-255,365	-200,000	-0,003	-0,035
-254,351	-100,766	0,108	0,019
-253,336	80,642	-0,104	-0,080
-252,322	-131,486	-0,169	-0,016
-251,307	-200,000	0,009	-0,098
-250,292	800,000	-0,085	0,213
-249,278	-200,000	-0,007	-0,024
-248,263	623,316	-0,025	0,046
-247,249	507,934	0,090	0,149
-246,234	39,349	-0,066	-0,042
-245,219	800,000	0,086	-0,176
-244,205	-145,316	-0,138	-0,009
-243,190	800,000	0,019	0,050
-242,176	-153,054	-0,068	-0,003
-241,161	800,000	-0,046	-0,113
-240,146	96,543	0,114	0,093
-239,132	138,697	-0,096	-0,090
-238,117	112,003	-0,086	0,074
-237,103	-200,000	0,015	-0,080
-236,088	424,264	-0,047	-0,073
-235,073	512,993	-0,027	-0,045
-234,059	-142,032	-0,094	-0,007
-233,044	-200,000	-0,005	-0,052
-232,030	-104,105	-0,123	0,020
-231,015	124,384	0,066	-0,059
-230,000	594,068	0,042	-0,074
-228,986	-200,000	-0,076	-0,000
-227,971	-92,187	0,046	-0,009
-226,957	259,113	-0,065	0,080
-225,942	-1,877	0,018	-0,009
-224,927	-31,525	-0,037	-0,015
-223,913	129,632	-0,061	-0,056
-222,898	-41,778	0,131	0,048
-221,884	-117,867	0,079	0,010
-220,869	32,556	0,100	-0,061
-219,855	138,310	-0,055	0,051
-218,840	-200,000	-0,001	0,165
-217,825	-127,159	0,051	0,005
-216,811	-152,423	-0,118	-0,006
-215,796	-200,000	-0,009	-0,153
-214,782	800,000	-0,049	-0,107
-213,767	499,470	-0,028	-0,046
-212,752	800,000	0,027	-0,058
-211,738	205,777	0,091	0,100
-210,723	-200,000	-0,000	-0,082
-209,709	94,316	0,144	-0,116
-208,694	-200,000	-0,034	-0,209
-207,679	-200,000	0,003	0,071
-206,665	-151,201	-0,091	-0,005
-205,650	793,090	0,098	0,193
-204,636	26,557	-0,045	0,027
-203,621	152,734	0,044	-0,043
-202,606	-106,217	-0,033	0,005
-201,592	202,211	0,124	0,136
-200,577	15,172	-0,149	-0,083
-199,563	-27,907	-0,036	0,015
-198,548	-117,885	0,054	0,007
-197,533	-118,528	0,086	-0,011
-196,519	-34,435	0,063	-0,024
-195,504	338,724	-0,045	0,062
-194,490	-200,000	-0,027	-0,126
-193,475	-46,733	-0,191	-0,066
-192,460	-2,778	0,135	-0,067
-191,446	46,547	-0,085	0,056
-190,431	32,588	0,134	-0,082
-189,417	43,892	0,025	-0,016
-188,402	250,781	0,047	0,057
-187,387	40,247	-0,061	0,039
-186,373	86,682	-0,048	-0,038
-185,358	-7,129	-0,095	0,046
-184,344	8,681	0,066	-0,035
-183,329	14,869	-0,057	-0,032
-182,315	-200,000	-0,043	0,213
-181,300	-128,351	0,049	0,005
-180,285	75,308	-0,049	-0,037
-179,271	-57,848	0,189	0,058
-178,256	57,603	-0,029	0,020
-177,242	-200,000	0,020	0,097
-176,227	-22,694	0,083	0,036
-175,212	136,582	0,034	0,032
-174,198	-200,000	0,015	-0,057
-173,183	-93,794	0,063	-0,012
-172,169	-200,000	-0,025	0,000
-171,154	800,000	-0,059	-0,120
-170,139	-92,789	0,111	-0,022
-169,125	-200,000	-0,006	0,047
-168,110	800,000	0,035	-0,097
-167,096	-58,102	0,044	-0,014
-166,081	-121,644	0,061	0,007
-165,066	55,738	-0,035	-0,024
-164,052	-13,737	0,132	-0,060
-163,037	-200,000	-0,018	-0,123
-162,023	-58,213	0,159	-0,049
-161,008	800,000	0,041	0,114
-159,993	800,000	0,026	-0,068
-158,979	458,246	-0,097	-0,153
-157,964	613,309	-0,034	-0,060
-156,950	-200,000	-0,007	-0,042
-155,935	47,275	-0,012	0,008
-154,920	-73,812	0,103	0,026
-153,906	-200,000	-0,017	0,129
-152,891	-75,561	-0,090	0,022
-151,877	-200,000	-0,034	0,142
-150,862	691,423	-0,124	-0,232
-149,847	226,625	0,056	0,065
-148,833	-200,000	-0,014	-0,046
-147,818	-200,000	0,003	-0,033
-146,804	-114,642	0,020	0,003
-145,789	800,000	0,076	0,163
-144,775	-200,000	-0,032	-0,211
-143,760	800,000	-0,012	0,033
-142,745	-75,056	-0,035	0,009
-141,731	60,837	-0,030	-0,021
-140,716	-200,000	-0,027	-0,144
-139,702	4,745	0,185	0,096
-138,687	43,266	0,093	0,060
-137,672	-160,862	-0,121	0,004
-136,658	30,670	-0,143	-0,086
-135,643	-176,240	0,095	0,002
-134,629	106,150	0,147	-0,123
-133,614	800,000	-0,040	0,112
-132,599	252,095	0,063	0,076
-131,585	239,740	-0,106	0,125
-130,570	71,814	-0,108	0,080
-129,556	-200,000	0,007	-0,056
-128,541	800,000	0,042	-0,098
-127,526	95,751	0,091	0,074
-126,512	292,399	0,082	-0,106
-125,497	800,000	0,017	-0,045
-124,483	-17,412	0,055	0,025
-123,468	-200,000	-0,002	0,020
-122,453	60,790	-0,105	-0,074
-121,439	47,068	0,085	0,056
-120,424	52,379	0,089	0,060
-119,410	50,194	0,098	-0,065
-118,395	200,102	0,037	0,041
-117,380	147,929	0,140	0,134
-116,366	157,949	-0,131	0,128
-115,351	397,959	-0,047	0,071
-114,337	265,637	-0,091	0,112
-113,322	-200,000	0,008	-0,087
-112,307	187,385	-0,063	-0,067
-111,293	94,102	0,066	0,053
-110,278	-200,000	-0,022	0,076
-109,264	-200,000	-0,013	0,053
-108,249	-200,000	-0,029	-0,097
-107,234	-200,000	0,011	-0,051
-106,220	800,000	0,048	-0,100
-105,205	20,787	0,081	0,046
-104,191	95,649	0,111	0,090
-103,176	-200,000	0,011	0,081
-102,162	-200,000	-0,072	0,000
-101,147	-200,000	-0,006	0,147
-100,132	-28,372	0,045	-0,018
-99,118	224,216	-0,034	-0,039
-98,103	-25,242	0,063	0,026
-97,089	-200,000	0,006	0,137
-96,074	68,509	-0,043	0,031
-95,059	-45,134	0,142	-0,050
-94,045	74,671	-0,080	0,060
-93,030	-200,000	-0,025	-0,084
-92,016	293,092	0,062	0,080
-91,001	-52,292	0,064	0,021
-89,986	-200,000	-0,024	-0,081
-88,972	-200,000	0,022	0,080
-87,957	16,650	0,083	-0,046
-86,943	-200,000	0,008	-0,058
-85,928	-129,358	-0,127	-0,012
-84,913	-200,000	0,000	-0,082
-83,899	291,778	-0,054	-0,070
-82,884	149,503	-0,029	-0,028
-81,870	14,793	0,027	0,015
-80,855	46,949	-0,086	0,056
-79,840	800,000	0,008	-0,023
-78,826	119,881	-0,150	-0,131
-77,811	21,890	-0,112	0,064
-76,797	338,105	0,083	0,114
-75,782	-200,000	0,041	0,202
-74,767	99,336	0,166	0,136
-73,753	270,988	0,054	0,067
-72,738	-182,751	0,017	0,000
-71,724	800,000	-0,059	-0,150
-70,709	136,454	-0,021	-0,020
-69,694	64,591	0,020	0,014
-68,680	-1,862	0,144	0,071
-67,665	800,000	-0,005	-0,012
-66,651	756,744	-0,040	0,076
-65,636	-81,955	0,125	0,029
-64,622	-200,000	-0,019	-0,089
-63,607	-200,000	-0,017	-0,132
-62,592	49,728	0,070	-0,047
-61,578	-200,000	0,002	0,050
-60,563	103,045	0,075	0,062
-59,549	-200,000	0,053	0,169
-58,534	-42,967	-1,648	-0,588
-57,519	355,821	-1,385	-1,955
-56,505	-200,000	-0,417	-4,427
-55,490	252,273	0,792	0,956
-54,476	800,000	5,042	11,380
-53,461	-200,000	18,980	315,743
-52,446	-200,000	737,213	2318,582
-51,432	573,526	1650,771	2856,899
-50,417	78,473	1666,487	1257,447
-49,403	21,375	1539,787	882,275
-48,388	15,322	1462,262	808,546
-47,373	18,031	1452,314	816,047
-46,359	16,796	1442,311	804,498
-45,344	13,583	1437,827	786,639
-44,330	13,518	1435,834	785,208
-43,315	13,501	1434,061	784,127
-42,300	13,488	1432,573	783,223
-41,286	13,491	1431,264	782,487
-40,271	13,512	1429,910	781,819
-39,257	13,448	1428,908	780,936
-38,242	13,540	1427,331	780,477
-37,227	13,545	1426,303	779,906
-36,213	13,559	1424,983	779,224
-35,198	13,526	1423,714	778,342
-34,184	13,553	1423,083	778,094
-33,169	13,485	1421,620	776,940
-32,154	13,575	1420,363	776,646
-31,140	13,544	1419,225	775,848
-30,125	13,614	1417,996	775,474
-29,111	13,580	1417,015	774,750
-28,096	13,564	1415,989	774,083
-27,082	13,498	1414,767	773,072
-26,067	13,535	1413,597	772,577
-25,052	13,511	1412,550	771,860
-24,038	13,418	1411,876	771,023
-23,023	13,434	1410,753	770,455
-22,009	13,444	1409,644	769,865
-20,994	13,432	1408,906	769,379
-19,979	13,412	1407,947	768,728
-18,965	13,412	1407,080	768,227
-17,950	13,400	1405,905	767,500
-16,936	13,410	1405,164	767,110
-15,921	13,395	1404,150	766,454
-14,906	13,404	1402,918	765,794
-13,892	13,414	1402,048	765,338
-12,877	13,395	1401,386	764,855
-11,863	13,379	1400,337	764,177
-10,848	13,404	1399,438	763,773
-9,833	13,355	1398,579	763,047
-8,819	13,330	1397,710	762,428
-7,804	13,276	1396,974	761,745
-6,790	13,265	1395,855	761,055
-5,775	13,279	1394,763	760,494
-4,760	13,305	1393,939	760,135
-3,746	13,277	1393,026	759,478
-2,731	13,274	1392,201	758,980
-1,717	13,233	1391,349	758,298
-0,702	13,223	1389,693	757,321
0,313	17,183	1307,046	730,524
1,327	33,430	702,511	430,060
2,342	51,272	123,287	82,536
3,356	6,219	16,601	8,671
4,371	22,651	3,116	1,797
5,386	22,986	0,646	0,374
6,400	-200,000	-0,040	0,246
7,415	162,034	-0,249	-0,247
8,429	-39,675	-0,236	-0,087
9,444	127,837	-0,310	-0,278
10,459	-75,092	-0,346	-0,087
11,473	-10,967	-0,299	-0,139
12,488	538,713	-0,144	-0,242
13,502	109,149	-0,239	-0,202
14,517	63,258	-0,291	-0,206
15,531	13,902	-0,471	-0,258
16,546	325,816	-0,211	-0,286
17,561	363,066	-0,277	-0,393
18,575	-7,470	-0,195	-0,093
19,590	280,632	-0,256	-0,324
20,604	14,941	-0,286	-0,157
21,619	94,701	-0,476	-0,381
22,634	182,357	-0,419	-0,436
23,648	70,282	-0,364	-0,265
24,663	-21,182	-0,448	-0,192
25,677	25,002	-0,299	-0,175
26,692	-99,489	-0,353	-0,062
27,707	11,121	-0,439	-0,236
28,721	18,450	-0,411	-0,231
29,736	205,257	-0,370	-0,405
30,750	36,812	-0,409	-0,254
31,765	194,966	-0,363	-0,388
32,780	189,028	-0,325	-0,343
33,794	228,218	-0,295	-0,339
34,809	17,700	-0,361	-0,202
35,823	74,794	-0,383	-0,284
36,838	14,943	-0,412	-0,226
37,853	196,806	-0,273	-0,293
38,867	105,987	-0,399	-0,332
39,882	102,709	-0,334	-0,275
40,896	77,249	-0,352	-0,263
41,911	50,313	-0,460	-0,306
42,926	68,998	-0,381	-0,275
43,940	133,422	-0,417	-0,380
44,955	7,160	-0,295	-0,154
45,969	136,677	-0,423	-0,389
46,984	126,004	-0,346	-0,308
47,999	208,373	-0,291	-0,320
49,013	67,438	-0,277	-0,199
50,028	24,217	-0,288	-0,167
51,042	44,142	-0,360	-0,232
52,057	100,771	-0,421	-0,344
53,071	79,359	-0,254	-0,191
54,086	128,111	-0,348	-0,312
55,101	-47,612	-0,460	-0,156
56,115	97,482	-0,289	-0,233
57,130	65,732	-0,379	-0,270
58,144	52,972	-0,380	-0,255
59,159	98,055	-0,330	-0,267
60,174	-28,963	-0,397	-0,159
61,188	45,979	-0,385	-0,250
62,203	-43,639	-0,316	-0,111
63,217	105,224	-0,394	-0,326
64,232	177,819	-0,303	-0,310
65,247	284,769	-0,280	-0,355
66,261	-8,632	-0,435	-0,204
67,276	31,892	-0,373	-0,225
68,290	140,175	-0,245	-0,227
69,305	75,735	-0,313	-0,232
70,320	49,106	-0,248	-0,164
71,334	62,979	-0,280	-0,197
72,349	-80,414	-0,365	-0,085
73,363	58,564	-0,246	-0,169
74,378	98,906	-0,288	-0,233
75,393	181,552	-0,255	-0,264
76,407	37,853	-0,404	-0,252
77,422	115,148	-0,270	-0,231
78,436	265,875	-0,143	-0,175
79,451	-81,230	-0,235	-0,054
80,466	52,841	-0,360	-0,241
81,480	61,875	-0,340	-0,237
82,495	10,902	-0,280	-0,150
83,509	645,939	-0,164	-0,294
84,524	112,486	-0,191	-0,162
85,539	99,467	-0,241	-0,196
86,553	146,280	-0,176	-0,166
87,568	81,827	-0,293	-0,223
88,582	121,732	-0,302	-0,264
89,597	66,470	-0,305	-0,217
90,611	99,214	-0,242	-0,196
91,626	76,646	-0,275	-0,204
92,641	130,458	-0,220	-0,197
93,655	102,719	-0,258	-0,212
94,670	59,050	-0,195	-0,134
95,684	142,689	-0,248	-0,231
96,699	-47,862	-0,372	-0,126
97,714	-107,197	-0,279	-0,043
98,728	-46,965	-0,287	-0,097
99,743	-115,099	-0,225	-0,030
100,757	7,786	-0,250	-0,131
101,772	-84,158	-0,421	-0,093
102,787	74,548	-0,310	-0,228
103,801	163,279	-0,255	-0,252
104,816	73,614	-0,273	-0,200
105,830	375,003	-0,120	-0,172
106,845	175,961	-0,273	-0,278
107,860	21,683	-0,189	-0,107
108,874	-138,994	-0,258	-0,019
109,889	206,881	-0,273	-0,298
110,903	237,109	-0,211	-0,245
111,918	-63,578	-0,369	-0,105
112,933	-113,954	-0,186	-0,025
113,947	92,057	-0,118	-0,093
114,962	183,947	-0,301	-0,311
115,976	214,248	-0,280	-0,311
116,991	29,726	-0,345	-0,205
118,006	-0,944	-0,318	-0,157
119,020	147,428	-0,232	-0,219
120,035	172,267	-0,204	-0,205
121,049	-5,817	-0,273	-0,130
122,064	125,546	-0,126	-0,111
123,079	172,393	-0,162	-0,163
124,093	205,329	-0,235	-0,256
125,108	137,577	-0,215	-0,197
126,122	-3,204	-0,255	-0,124
127,137	-90,061	-0,292	-0,059
128,151	52,200	-0,211	-0,140
129,166	24,580	-0,131	-0,075
130,181	113,239	-0,256	-0,217
131,195	164,775	-0,243	-0,239
132,210	40,443	-0,360	-0,226
133,224	87,173	-0,311	-0,240
134,239	800,000	-0,060	-0,117
135,254	601,211	-0,071	-0,124
136,268	-86,226	-0,223	-0,048
137,283	311,712	-0,168	-0,220
138,297	53,042	-0,358	-0,239
139,312	50,851	-0,211	-0,139
140,327	-38,914	-0,310	-0,113
141,341	-40,503	-0,191	-0,069
142,356	-24,215	-0,181	-0,075
143,370	53,611	-0,202	-0,135
144,385	-165,469	-0,217	-0,006
145,400	220,482	-0,178	-0,200
146,414	266,464	-0,184	-0,224
147,429	342,130	-0,116	-0,158
148,443	-17,793	-0,277	-0,121
149,458	245,570	-0,177	-0,209
150,473	313,075	-0,171	-0,225
151,487	-13,732	-0,206	-0,093
152,502	337,407	-0,195	-0,265
153,516	-200,000	-0,078	-0,301
154,531	191,831	-0,220	-0,231
155,546	59,046	-0,265	-0,182
156,560	304,548	-0,166	-0,216
157,575	41,657	-0,279	-0,176
158,589	-200,000	-0,035	-0,187
159,604	74,690	-0,175	-0,128
160,619	64,227	-0,218	-0,153
161,633	137,874	-0,233	-0,213
162,648	2,760	-0,256	-0,129
163,662	127,114	-0,253	-0,224
164,677	128,244	-0,248	-0,220
165,692	-43,702	-0,391	-0,137
166,706	45,514	-0,265	-0,170
167,721	103,341	-0,271	-0,221
168,735	-200,000	-0,061	-0,283
169,750	-155,934	-0,345	-0,015
170,764	-149,922	-0,095	-0,005
171,779	114,264	-0,184	-0,156
172,794	126,376	-0,156	-0,138
173,808	49,608	-0,264	-0,173
174,823	308,585	-0,145	-0,189
175,837	387,727	-0,165	-0,238
176,852	-25,818	-0,254	-0,104
177,867	29,262	-0,253	-0,149
178,881	-1,058	-0,243	-0,119
179,896	2,110	-0,347	-0,174
180,910	268,695	-0,131	-0,161
181,925	21,351	-0,383	-0,216
182,940	401,981	-0,149	-0,218
183,954	262,729	-0,165	-0,200
184,969	534,812	-0,165	-0,273
185,983	-142,539	-0,269	0,018
186,998	270,397	-0,127	-0,155
188,013	800,000	-0,123	-0,243
189,027	-136,549	-0,170	-0,013
190,042	29,066	-0,258	-0,152
191,056	330,809	-0,162	-0,217
192,071	271,020	-0,212	-0,259
193,086	13,242	-0,266	-0,143
194,100	136,251	-0,179	-0,162
195,115	373,670	-0,149	-0,212
196,129	271,430	-0,174	-0,213
197,144	3,448	-0,323	-0,163
198,159	23,856	-0,245	-0,140
199,173	-107,224	-0,114	-0,017
200,188	222,951	-0,142	-0,159
201,202	189,019	-0,140	-0,146
202,217	77,333	-0,253	-0,187
203,232	164,332	-0,139	-0,136
204,246	129,218	-0,228	-0,202
205,261	800,000	-0,109	-0,295
206,275	83,823	-0,286	-0,216
207,290	214,352	-0,147	-0,162
208,304	-26,554	-0,196	-0,079
209,319	800,000	-0,111	-0,247
210,334	155,502	-0,205	-0,196
211,348	-56,432	-0,217	-0,066
212,363	-48,623	-0,179	-0,059
213,377	800,000	-0,064	-0,139
214,392	80,418	-0,224	-0,167
215,407	19,862	-0,217	-0,121
216,421	105,636	-0,150	-0,123
217,436	375,530	-0,188	-0,266
218,450	113,701	-0,224	-0,188
219,465	86,561	-0,152	-0,116
220,480	167,790	-0,225	-0,222
221,494	113,344	-0,165	-0,139
222,509	-73,199	-0,205	-0,052
223,523	800,000	-0,146	-0,283
224,538	137,635	-0,173	-0,157
225,553	-12,534	-0,256	-0,115
226,567	186,865	-0,236	-0,244
227,582	-100,527	-0,153	-0,026
228,596	64,582	-0,146	-0,102
229,611	-12,513	-0,182	-0,082
230,626	-44,940	-0,227	-0,078
231,640	315,325	-0,157	-0,205
232,655	48,761	-0,145	-0,094
233,669	500,279	-0,128	-0,205
234,684	-24,374	-0,254	-0,105
235,699	-13,346	-0,130	-0,058
236,713	-200,000	0,028	-0,149
237,728	-61,475	-0,144	-0,041
238,742	310,824	-0,147	-0,190
239,757	394,591	-0,124	-0,179
240,772	-34,664	-0,250	-0,094
241,786	111,227	-0,151	-0,125
242,801	60,080	-0,159	-0,108
243,815	-83,551	-0,186	0,041
244,830	-85,358	-0,247	-0,053
245,844	-175,301	-0,215	-0,004
246,859	146,867	-0,261	-0,243
247,874	-65,773	-0,204	0,056
248,888	271,002	-0,129	-0,158
249,903	-77,539	-0,120	-0,029
250,917	-14,765	-0,132	-0,059
251,932	201,381	-0,210	-0,224
252,947	800,000	-0,034	-0,082
253,961	254,604	-0,065	-0,077
254,976	-38,986	-0,187	0,068
255,990	56,291	-0,296	-0,198
257,005	-36,459	-0,175	-0,065
258,020	93,372	-0,156	-0,122
259,034	201,183	-0,133	-0,142
260,049	-82,173	-0,249	-0,056
261,063	293,624	-0,168	-0,212
262,078	391,753	-0,188	-0,271
263,093	107,868	-0,153	-0,126
264,107	468,053	-0,110	-0,170
265,122	-95,828	-0,131	0,024
266,136	106,540	-0,199	-0,163
267,151	-53,647	-0,113	0,035
268,166	163,928	-0,023	-0,023
269,180	40,040	-0,244	-0,151
270,195	-7,098	-0,277	-0,129
271,209	1,002	-0,245	-0,121
272,224	-68,852	-0,125	-0,033
273,239	-1,616	-0,148	-0,072
274,253	-93,836	-0,233	-0,044
275,268	234,556	-0,128	-0,146
276,282	480,845	-0,192	-0,301
277,297	18,577	-0,251	-0,138
278,312	-200,000	0,038	-0,134
279,326	-67,000	-0,206	-0,056
280,341	219,396	-0,075	-0,083
281,355	-66,096	-0,089	-0,024
282,370	59,530	-0,187	-0,127
283,384	-165,458	-0,048	0,001
284,399	800,000	-0,052	-0,109
285,414	800,000	-0,051	-0,110
286,428	562,022	-0,086	-0,144
287,443	-31,040	-0,153	-0,059
288,457	7,761	-0,094	0,048
289,472	-41,050	-0,140	-0,049
290,487	260,264	-0,166	-0,198
291,501	786,435	-0,115	-0,219
292,516	-137,705	-0,195	-0,015
293,530	87,837	-0,128	-0,098
294,545	460,702	-0,094	-0,145
295,560	202,593	-0,082	0,087
296,574	800,000	-0,075	-0,199
297,589	60,186	-0,157	-0,107
298,603	-119,109	-0,178	-0,021
299,618	-64,524	-0,244	-0,068
300,633	47,660	-0,093	-0,060
301,647	344,631	-0,067	-0,091
302,662	96,254	-0,179	-0,140
303,676	-21,711	-0,183	0,076
304,691	35,787	-0,093	-0,056
305,706	82,247	-0,200	-0,149
306,720	136,979	-0,148	-0,133
307,735	101,348	-0,228	-0,183
308,749	21,960	-0,065	-0,037
309,764	268,236	-0,159	-0,192
310,779	-97,994	-0,208	-0,036
311,793	200,949	-0,096	-0,102
312,808	64,969	-0,258	-0,179
313,822	800,000	-0,098	-0,224
314,837	608,583	-0,116	-0,200
315,852	107,498	-0,157	-0,128
316,866	692,747	-0,078	-0,141
317,881	-22,935	0,021	0,009
318,895	-161,176	-0,203	-0,007
319,910	113,812	-0,130	-0,109
320,925	4,842	-0,175	-0,088
321,939	166,524	-0,178	-0,174
322,954	-139,274	-0,153	-0,011
323,968	25,473	-0,063	0,036
324,983	138,540	-0,173	-0,156
325,997	800,000	-0,071	-0,138
327,012	-21,672	-0,259	-0,108
328,027	158,330	-0,172	-0,164
329,041	-14,495	-0,130	-0,057
330,056	627,509	-0,104	-0,182
331,070	92,265	-0,041	-0,032
332,085	254,531	-0,111	-0,130
333,100	-134,949	-0,133	-0,011
334,114	517,525	-0,093	-0,151
335,129	-26,492	-0,225	-0,090
336,143	-193,512	-0,153	0,001
337,158	-88,127	-0,117	-0,024
338,173	-200,000	-0,001	-0,144
339,187	-200,000	-0,002	-0,111
340,202	217,263	-0,034	0,037
341,216	-79,264	-0,231	-0,053
342,231	16,785	-0,207	-0,112
343,246	800,000	-0,074	-0,161
344,260	-187,037	-0,081	-0,001
345,275	800,000	0,061	-0,164
346,289	104,597	-0,095	-0,077
347,304	-26,300	-0,104	-0,042
348,319	-13,675	-0,078	0,034
349,333	48,698	-0,168	-0,107
350,348	-28,195	-0,154	-0,061
351,362	-200,000	0,041	-0,142
352,377	-63,286	-0,055	-0,016
353,392	52,698	-0,157	-0,103
354,406	231,028	-0,172	-0,194
355,421	209,466	1312,807	1410,857
356,435	161,216	1473,313	1411,366
