DTS Sentinel unit serial number:	SN410029Multiplexer serial number:	ORYXHardware model number:	OX2-SRSoftware version number:	ORYX F/W v4,00 Oryx Data Collector v3.7.2.0data status	okinstallation	B3 Nyhavnadifferential loss correction	single-endedforward channel	channel 1reverse channel	N/Adate	2023/12/01time	18:57:30forward acquisition time	300,00reverse acquisition time	0,00gamma	499,1914k internal	0,3201k external	0,3201temperature offset calibration	1,0000default loss term (dB/km)	0,3820temperature slope calibration	1,0000multiplexer offset coefficient	1,0000multiplexer slope coefficient	1,0000fibre end	0,00T internal ref (°C)	15,17T ext. ref 1 (°C)	1,10T ext. ref 2 (°C)	1,09length (m)	temperature (°C)	Stokes	anti-Stokes-744,400	268,787	-0,230	-0,294
-743,385	800,000	0,179	0,366
-742,371	209,299	-0,160	-0,182
-741,356	800,000	0,142	0,318
-740,342	162,201	-0,136	-0,139
-739,327	-200,000	0,050	0,285
-738,312	287,446	-0,224	-0,296
-737,298	631,986	0,162	0,299
-736,283	296,446	-0,193	-0,258
-735,269	-200,000	-0,015	0,218
-734,254	227,476	-0,245	-0,290
-733,239	51,133	-0,189	0,130
-732,225	332,832	-0,154	-0,217
-731,210	154,054	-0,034	-0,033
-730,196	-60,826	0,035	0,011
-729,181	140,171	-0,028	-0,027
-728,167	249,835	-0,090	-0,111
-727,152	800,000	0,081	-0,184
-726,137	42,373	0,054	-0,036
-725,123	-200,000	-0,002	0,024
-724,108	-34,491	-0,119	-0,047
-723,094	-200,000	-0,034	-0,183
-722,079	4,262	-0,044	0,023
-721,064	213,125	-0,063	0,072
-720,050	241,628	0,036	0,043
-719,035	-200,000	-0,012	0,098
-718,021	-46,043	-0,162	-0,058
-717,006	-200,000	0,007	-0,133
-715,991	211,083	-0,094	-0,107
-714,977	-103,829	0,042	0,007
-713,962	32,770	0,074	-0,046
-712,948	800,000	0,073	0,152
-711,933	-70,513	-0,139	-0,038
-710,918	-21,961	-0,036	-0,016
-709,904	10,936	0,066	-0,036
-708,889	261,759	0,062	-0,078
-707,875	-49,410	0,129	-0,045
-706,860	-200,000	-0,013	0,046
-705,845	-53,352	0,179	-0,059
-704,831	148,593	-0,046	-0,045
-703,816	11,193	-0,119	-0,066
-702,802	-200,000	-0,013	-0,139
-701,787	313,927	-0,099	-0,136
-700,772	-200,000	0,001	-0,116
-699,758	52,414	-0,041	-0,028
-698,743	-200,000	0,023	-0,089
-697,729	-82,733	0,064	-0,015
-696,714	395,980	-0,013	-0,020
-695,699	22,469	-0,082	0,049
-694,685	-194,288	-0,132	0,001
-693,670	339,909	-0,101	-0,143
-692,656	-137,966	-0,080	0,006
-691,641	-90,138	-0,038	-0,008
-690,627	-41,700	-0,054	-0,020
-689,612	245,868	0,085	-0,104
-688,597	61,366	-0,091	0,066
-687,583	104,646	-0,053	-0,045
-686,568	445,404	-0,097	-0,155
-685,554	-200,000	0,005	-0,080
-684,539	-200,000	-0,009	0,057
-683,524	19,830	0,120	-0,070
-682,510	800,000	0,018	-0,044
-681,495	111,910	0,097	-0,085
-680,481	259,691	-0,119	-0,149
-679,466	800,000	-0,035	-0,087
-678,451	7,716	-0,105	-0,057
-677,437	800,000	0,023	-0,067
-676,422	-147,837	0,056	0,003
-675,408	324,954	0,095	0,131
-674,393	-80,503	-0,101	-0,024
-673,378	416,359	-0,003	0,005
-672,364	-124,564	0,145	-0,016
-671,349	-70,639	0,125	-0,034
-670,335	273,163	-0,078	0,100
-669,320	-200,000	-0,003	0,057
-668,305	-200,000	-0,009	0,147
-667,291	291,622	-0,104	-0,138
-666,276	-200,000	-0,001	-0,025
-665,262	-200,000	-0,038	-0,156
-664,247	800,000	-0,036	-0,087
-663,232	800,000	-0,040	-0,110
-662,218	-40,943	0,107	0,040
-661,203	295,899	-0,023	-0,031
-660,189	126,205	0,081	0,074
-659,174	-85,072	-0,144	-0,032
-658,159	-200,000	-0,000	-0,019
-657,145	221,708	-0,036	-0,042
-656,130	-128,687	-0,161	-0,016
-655,116	-200,000	0,005	0,072
-654,101	388,009	0,042	0,063
-653,086	333,916	-0,106	-0,149
-652,072	466,831	-0,050	0,081
-651,057	-28,800	-0,163	-0,068
-650,043	-71,546	-0,054	0,015
-649,028	329,848	0,055	-0,077
-648,014	-200,000	-0,019	0,186
-646,999	-200,000	0,004	0,161
-645,984	800,000	-0,037	-0,080
-644,970	-200,000	-0,019	0,073
-643,955	72,108	-0,090	0,068
-642,941	-157,444	0,033	0,001
-641,926	800,000	0,030	0,079
-640,911	-200,000	-0,013	-0,053
-639,897	222,471	0,072	0,084
-638,882	82,063	-0,076	-0,060
-637,868	-200,000	-0,002	-0,009
-636,853	-3,018	-0,059	-0,030
-635,838	800,000	-0,035	-0,107
-634,824	-145,186	-0,097	0,006
-633,809	-170,451	0,057	-0,001
-632,795	-200,000	0,021	0,081
-631,780	676,694	-0,041	0,077
-630,765	-200,000	-0,028	-0,123
-629,751	2,516	-0,079	0,041
-628,736	738,706	-0,020	-0,040
-627,722	215,435	-0,015	0,017
-626,707	-200,000	0,010	0,042
-625,692	-200,000	0,000	0,049
-624,678	1,763	-0,115	0,060
-623,663	-79,749	-0,039	-0,009
-622,649	247,188	-0,028	0,035
-621,634	-84,630	-0,081	0,018
-620,619	-200,000	-0,015	-0,088
-619,605	7,582	0,066	-0,036
-618,590	-200,000	0,000	0,004
-617,576	263,198	0,105	0,132
-616,561	7,787	0,139	-0,075
-615,546	93,054	-0,173	-0,141
-614,532	-200,000	-0,044	-0,170
-613,517	219,041	-0,064	-0,074
-612,503	-200,000	0,010	0,084
-611,488	-111,322	0,092	0,013
-610,474	245,077	-0,034	0,041
-609,459	294,979	0,072	-0,095
-608,444	800,000	-0,043	-0,132
-607,430	800,000	0,059	-0,123
-606,415	-200,000	0,013	-0,055
-605,401	794,193	-0,065	-0,130
-604,386	-65,232	-0,050	0,014
-603,371	396,021	0,030	0,045
-602,357	-200,000	-0,027	-0,100
-601,342	-2,957	-0,053	-0,027
-600,328	-200,000	-0,042	-0,182
-599,313	439,444	0,031	-0,050
-598,298	198,124	-0,102	-0,113
-597,284	800,000	0,017	0,050
-596,269	125,665	-0,055	0,050
-595,255	-60,013	0,027	-0,008
-594,240	-200,000	0,030	-0,113
-593,225	361,772	-0,036	-0,052
-592,211	101,623	-0,073	0,061
-591,196	-12,695	0,203	-0,095
-590,182	800,000	0,038	0,099
-589,167	13,397	0,037	-0,021
-588,152	-106,443	-0,062	0,010
-587,138	93,076	-0,099	0,081
-586,123	35,733	-0,081	-0,051
-585,109	800,000	-0,016	-0,045
-584,094	-127,320	-0,014	0,001
-583,079	-89,431	0,083	0,017
-582,065	-200,000	0,053	-0,178
-581,050	-118,277	0,133	0,017
-580,036	43,664	0,113	0,075
-579,021	-200,000	0,012	-0,073
-578,006	406,088	-0,013	0,019
-576,992	-200,000	0,025	-0,090
-575,977	-5,994	-0,029	0,014
-574,963	-200,000	0,030	0,120
-573,948	618,638	0,056	0,102
-572,934	30,641	-0,114	0,070
-571,919	-200,000	0,004	-0,084
-570,904	225,934	-0,113	-0,133
-569,890	800,000	0,008	0,016
-568,875	25,806	0,082	0,049
-567,861	21,110	0,020	-0,012
-566,846	-200,000	0,002	0,089
-565,831	162,927	-0,134	0,136
-564,817	-200,000	-0,009	-0,040
-563,802	-130,570	-0,068	0,006
-562,788	-123,799	-0,170	0,019
-561,773	-127,909	0,097	-0,010
-560,758	800,000	-0,037	0,118
-559,744	-49,730	0,166	-0,057
-558,729	800,000	-0,015	0,037
-557,715	9,023	0,059	0,032
-556,700	13,907	-0,176	0,099
-555,685	220,613	-0,046	0,053
-554,671	33,753	0,093	-0,058
-553,656	-44,278	0,069	-0,025
-552,642	-200,000	0,014	0,056
-551,627	-52,713	-0,080	0,026
-550,612	506,720	-0,045	-0,076
-549,598	392,563	-0,013	-0,019
-548,583	-172,956	0,025	0,001
-547,569	148,693	-0,051	0,049
-546,554	623,616	0,064	-0,116
-545,539	-29,606	0,084	-0,034
-544,525	-137,941	-0,012	-0,001
-543,510	89,796	-0,154	0,124
-542,496	95,992	-0,159	-0,131
-541,481	100,400	0,024	-0,020
-540,466	55,011	0,192	-0,134
-539,452	-200,000	0,001	0,094
-538,437	169,257	-0,040	-0,041
-537,423	-102,936	0,112	0,019
-536,408	168,893	-0,132	0,135
-535,393	131,071	-0,093	0,086
-534,379	800,000	-0,052	-0,131
-533,364	-30,273	0,014	-0,006
-532,350	-200,000	0,009	-0,132
-531,335	-200,000	-0,006	0,090
-530,321	-146,284	-0,062	-0,004
-529,306	-47,044	0,081	-0,028
-528,291	569,439	0,045	-0,080
-527,277	-200,000	0,039	-0,181
-526,262	-83,226	-0,017	-0,004
-525,248	-200,000	-0,023	0,101
-524,233	-133,304	0,173	0,016
-523,218	269,188	0,031	0,039
-522,204	-200,000	0,015	-0,110
-521,189	759,967	0,033	0,064
-520,175	-64,880	0,036	0,010
-519,160	-48,476	0,079	-0,027
-518,145	5,162	-0,097	-0,052
-517,131	-200,000	-0,004	-0,025
-516,116	-150,545	0,177	0,010
-515,102	25,357	-0,098	-0,059
-514,087	-111,039	-0,072	-0,011
-513,072	604,191	0,015	-0,028
-512,058	-200,000	-0,009	0,067
-511,043	-200,000	0,018	0,114
-510,029	-200,000	0,009	0,031
-509,014	25,543	-0,093	0,056
-507,999	-31,313	-0,097	0,039
-506,985	-74,041	0,115	-0,030
-505,970	-49,771	-0,077	-0,026
-504,956	800,000	0,023	-0,061
-503,941	-81,585	0,060	0,014
-502,926	-34,158	0,080	0,032
-501,912	270,032	0,061	0,077
-500,897	-200,000	0,027	0,147
-499,883	-101,963	0,090	-0,016
-498,868	800,000	-0,027	-0,078
-497,853	183,497	-0,081	-0,086
-496,839	204,271	0,069	-0,077
-495,824	45,735	0,117	-0,078
-494,810	800,000	0,037	-0,086
-493,795	800,000	-0,013	0,031
-492,781	88,587	-0,020	0,016
-491,766	-200,000	-0,022	0,126
-490,751	174,927	0,058	0,061
-489,737	-85,552	0,103	-0,023
-488,722	-200,000	-0,022	-0,145
-487,708	116,968	0,059	0,052
-486,693	796,034	0,031	0,062
-485,678	-157,707	-0,062	-0,003
-484,664	32,183	-0,053	-0,033
-483,649	-68,588	0,036	-0,010
-482,635	106,297	-0,060	0,052
-481,620	-200,000	0,001	-0,079
-480,605	-183,086	0,033	-0,000
-479,591	-200,000	0,008	-0,091
-478,576	-150,223	-0,150	0,008
-477,562	207,592	0,039	0,043
-476,547	-18,613	-0,134	-0,060
-475,532	-155,384	0,026	0,001
-474,518	800,000	-0,019	0,054
-473,503	-200,000	0,049	0,183
-472,489	-54,650	0,073	-0,024
-471,474	-45,528	-0,150	0,053
-470,459	-200,000	-0,008	-0,053
-469,445	-1,978	0,100	0,050
-468,430	-67,768	0,102	0,029
-467,416	89,780	0,091	-0,073
-466,401	-44,228	-0,089	0,032
-465,386	-33,161	-0,107	0,042
-464,372	-100,270	-0,062	-0,011
-463,357	800,000	0,045	0,119
-462,343	67,470	0,133	0,098
-461,328	62,290	0,103	-0,074
-460,313	38,612	0,086	0,055
-459,299	-200,000	-0,004	-0,019
-458,284	112,203	0,039	-0,034
-457,270	15,807	0,066	0,037
-456,255	143,424	0,071	-0,068
-455,241	-29,312	-0,167	-0,068
-454,226	-98,536	-0,057	-0,010
-453,211	142,107	0,079	0,075
-452,197	-196,118	0,174	-0,001
-451,182	87,994	-0,099	0,079
-450,168	274,973	-0,037	-0,047
-449,153	188,359	-0,080	-0,086
-448,138	219,283	-0,118	-0,136
-447,124	-19,465	-0,104	-0,046
-446,109	165,287	0,069	0,070
-445,095	-200,000	-0,011	-0,076
-444,080	-12,559	0,250	0,117
-443,065	-200,000	-0,017	0,137
-442,051	-21,305	0,038	0,017
-441,036	92,634	-0,095	0,077
-440,022	324,890	-0,041	-0,056
-439,007	65,790	0,041	-0,029
-437,992	176,776	0,033	-0,035
-436,978	800,000	-0,008	0,017
-435,963	-127,083	-0,093	-0,010
-434,949	31,152	0,105	0,065
-433,934	-10,027	-0,034	0,016
-432,919	194,485	-0,079	-0,086
-431,905	-118,942	-0,074	0,009
-430,890	-13,255	0,158	-0,073
-429,876	-24,126	0,098	-0,042
-428,861	-200,000	0,034	0,143
-427,846	-149,940	-0,104	0,006
-426,832	187,045	0,033	-0,035
-425,817	800,000	-0,038	-0,114
-424,803	151,395	0,057	-0,056
-423,788	211,827	0,153	-0,173
-422,773	-34,150	-0,050	0,020
-421,759	34,151	0,101	0,063
-420,744	-25,521	0,065	0,027
-419,730	-25,774	0,032	0,013
-418,715	-200,000	-0,017	-0,160
-417,701	19,541	0,082	-0,047
-416,686	-200,000	-0,012	0,046
-415,671	112,805	0,117	-0,101
-414,657	353,588	-0,078	-0,112
-413,642	8,743	-0,186	-0,100
-412,628	-200,000	-0,040	-0,175
-411,613	399,505	-0,090	-0,136
-410,598	-32,178	-0,055	0,022
-409,584	-169,041	-0,102	-0,003
-408,569	800,000	0,045	-0,129
-407,555	121,230	-0,029	-0,026
-406,540	-200,000	0,023	-0,089
-405,525	800,000	0,044	0,094
-404,511	-126,125	-0,136	0,014
-403,496	-80,198	0,094	-0,022
-402,482	87,943	0,042	0,033
-401,467	371,530	0,121	-0,177
-400,452	-191,556	-0,062	-0,000
-399,438	-200,000	0,025	0,106
-398,423	35,757	-0,054	0,034
-397,409	-11,512	-0,083	-0,039
-396,394	800,000	0,053	-0,118
-395,379	-121,687	-0,044	0,005
-394,365	-200,000	0,010	0,056
-393,350	143,640	-0,001	0,001
-392,336	-71,723	-0,080	-0,021
-391,321	53,751	-0,047	0,032
-390,306	-200,000	-0,007	-0,082
-389,292	-200,000	-0,008	0,032
-388,277	700,412	-0,033	0,062
-387,263	242,479	0,019	0,023
-386,248	-200,000	0,003	-0,069
-385,233	800,000	-0,029	-0,072
-384,219	-140,694	-0,157	-0,011
-383,204	157,852	0,052	-0,052
-382,190	295,321	-0,101	0,132
-381,175	-200,000	0,001	-0,117
-380,160	-200,000	-0,019	-0,083
-379,146	66,541	0,158	-0,115
-378,131	140,070	-0,045	0,043
-377,117	3,355	-0,030	-0,015
-376,102	-44,643	-0,092	0,033
-375,088	-200,000	0,011	0,046
-374,073	-46,494	0,062	0,022
-373,058	-48,354	-0,113	-0,039
-372,044	532,808	0,083	0,142
-371,029	-200,000	-0,043	0,194
-370,015	-69,306	-0,122	0,033
-369,000	-88,517	-0,063	-0,013
-367,985	-109,460	-0,135	0,020
-366,971	-167,806	-0,024	0,001
-365,956	-71,297	-0,066	0,018
-364,942	800,000	0,084	0,219
-363,927	800,000	-0,059	0,154
-362,912	-63,366	0,077	0,022
-361,898	-60,949	0,083	-0,025
-360,883	2,298	-0,218	0,113
-359,869	134,044	0,174	-0,161
-358,854	49,694	0,071	-0,048
-357,839	-200,000	-0,005	-0,033
-356,825	-200,000	0,011	0,154
-355,810	15,526	0,045	-0,025
-354,796	-200,000	0,000	0,017
-353,781	61,289	-0,099	-0,070
-352,766	-200,000	-0,001	0,005
-351,752	800,000	-0,029	0,071
-350,737	-200,000	-0,033	-0,121
-349,723	-89,203	0,114	-0,024
-348,708	-200,000	-0,002	-0,117
-347,693	800,000	-0,033	-0,102
-346,679	-200,000	0,031	0,150
-345,664	-200,000	0,003	-0,055
-344,650	-13,982	0,101	-0,047
-343,635	169,487	0,068	-0,069
-342,620	27,374	0,147	0,088
-341,606	-200,000	0,012	0,049
-340,591	26,026	0,034	-0,021
-339,577	72,157	-0,174	-0,130
-338,562	149,291	0,120	-0,116
-337,548	-200,000	0,005	-0,133
-336,533	-200,000	-0,015	0,116
-335,518	-200,000	0,023	0,280
-334,504	-55,168	0,116	-0,037
-333,489	800,000	0,034	0,106
-332,475	-200,000	0,052	0,172
-331,460	11,983	-0,087	-0,048
-330,445	182,451	-0,068	0,072
-329,431	-7,633	0,049	0,024
-328,416	800,000	-0,021	0,056
-327,402	720,302	-0,059	0,113
-326,387	405,771	0,077	0,116
-325,372	-200,000	0,015	-0,061
-324,358	371,301	0,032	0,047
-323,343	800,000	0,034	0,083
-322,329	266,436	0,110	0,137
-321,314	-200,000	0,013	0,048
-320,299	-14,985	0,024	-0,011
-319,285	90,283	0,076	-0,061
-318,270	190,859	0,015	0,016
-317,256	-200,000	-0,008	0,030
-316,241	-34,374	-0,089	-0,035
-315,226	294,940	0,071	-0,093
-314,212	162,012	-0,067	0,067
-313,197	266,724	-0,095	0,120
-312,183	510,683	0,017	0,028
-311,168	800,000	0,012	0,035
-310,153	-200,000	0,008	-0,029
-309,139	-104,120	0,065	-0,011
-308,124	412,360	0,048	0,074
-307,110	488,076	0,131	0,215
-306,095	237,606	0,060	0,071
-305,080	37,124	-0,210	-0,133
-304,066	-200,000	0,032	0,139
-303,051	495,141	-0,031	-0,050
-302,037	215,227	-0,027	-0,031
-301,022	-200,000	-0,017	0,059
-300,008	-58,385	-0,062	0,019
-298,993	-111,484	0,116	-0,017
-297,978	424,202	-0,088	-0,136
-296,964	220,019	0,045	0,052
-295,949	-200,000	0,055	-0,200
-294,935	-200,000	0,000	0,062
-293,920	-1,999	-0,021	-0,010
-292,905	-62,981	-0,141	0,041
-291,891	20,251	0,073	-0,042
-290,876	-200,000	0,008	-0,088
-289,862	335,891	0,049	-0,068
-288,847	77,148	-0,071	-0,054
-287,832	-200,000	-0,042	-0,213
-286,818	14,302	0,064	-0,036
-285,803	456,828	0,058	0,092
-284,789	-200,000	0,061	0,253
-283,774	-200,000	-0,022	-0,089
-282,759	343,269	-0,026	-0,036
-281,745	175,709	-0,042	-0,043
-280,730	519,234	-0,098	-0,164
-279,716	-41,704	-0,045	-0,016
-278,701	800,000	0,032	-0,081
-277,686	-88,821	0,092	0,019
-276,672	800,000	0,076	0,193
-275,657	-200,000	-0,024	0,100
-274,643	196,701	0,103	-0,113
-273,628	-200,000	-0,014	-0,045
-272,613	-200,000	0,015	0,072
-271,599	401,907	-0,070	-0,105
-270,584	629,867	-0,060	0,109
-269,570	8,266	0,065	0,035
-268,555	-141,816	-0,049	0,003
-267,540	-168,963	-0,277	0,007
-266,526	161,566	0,085	-0,085
-265,511	-200,000	0,022	-0,070
-264,497	-200,000	-0,002	0,017
-263,482	800,000	-0,047	0,104
-262,467	-200,000	0,022	0,136
-261,453	-23,688	-0,118	-0,050
-260,438	-54,001	-0,069	0,022
-259,424	56,567	0,048	-0,033
-258,409	46,340	0,068	0,045
-257,395	712,439	0,043	0,081
-256,380	277,228	0,018	-0,023
-255,365	-200,000	-0,005	0,089
-254,351	181,208	0,015	-0,015
-253,336	-13,577	0,078	-0,036
-252,322	-85,925	0,092	0,020
-251,307	800,000	-0,043	-0,087
-250,292	218,790	0,013	-0,015
-249,278	10,405	0,047	-0,025
-248,263	377,303	-0,037	0,055
-247,249	86,195	-0,055	-0,043
-246,234	127,283	0,053	0,048
-245,219	-200,000	0,013	-0,138
-244,205	-200,000	-0,007	-0,076
-243,190	800,000	0,073	0,204
-242,176	-200,000	0,007	0,157
-241,161	467,204	0,045	0,073
-240,146	-128,422	0,107	0,011
-239,132	39,874	-0,050	0,032
-238,117	-200,000	0,002	0,053
-237,103	-139,746	0,068	-0,005
-236,088	103,341	-0,096	-0,080
-235,073	479,235	-0,044	0,071
-234,059	800,000	-0,014	-0,039
-233,044	-200,000	0,037	0,137
-232,030	-151,525	0,098	0,005
-231,015	800,000	-0,064	-0,155
-230,000	-69,406	0,018	0,005
-228,986	-200,000	0,007	-0,048
-227,971	-23,728	-0,016	0,007
-226,957	800,000	-0,039	0,110
-225,942	-125,730	0,116	0,012
-224,927	544,545	0,046	0,078
-223,913	-200,000	-0,006	-0,032
-222,898	30,361	-0,214	0,130
-221,884	17,590	0,241	0,136
-220,869	800,000	0,049	0,097
-219,855	-200,000	0,013	-0,088
-218,840	35,475	0,067	-0,042
-217,825	-200,000	0,027	-0,151
-216,811	-183,174	-0,037	0,000
-215,796	303,636	-0,004	0,005
-214,782	393,482	-0,064	-0,095
-213,767	-108,288	0,219	-0,033
-212,752	141,176	-0,060	-0,056
-211,738	-15,954	-0,040	0,018
-210,723	-91,460	0,050	-0,010
-209,709	-35,069	-0,097	-0,038
-208,694	800,000	-0,046	-0,137
-207,679	800,000	-0,024	-0,072
-206,665	597,721	-0,046	0,081
-205,650	178,258	0,047	0,049
-204,636	-72,679	-0,007	-0,002
-203,621	422,504	-0,047	-0,072
-202,606	-56,340	-0,118	-0,037
-201,592	-200,000	-0,008	-0,030
-200,577	3,063	-0,096	-0,049
-199,563	40,661	0,202	-0,130
-198,548	305,945	-0,020	-0,027
-197,533	-15,298	-0,040	0,018
-196,519	141,948	0,017	-0,016
-195,504	300,991	-0,112	-0,147
-194,490	239,594	0,060	-0,071
-193,475	213,148	-0,104	-0,117
-192,460	100,226	-0,078	0,064
-191,446	800,000	-0,024	0,060
-190,431	-101,727	-0,101	0,017
-189,417	67,729	-0,103	0,075
-188,402	277,294	-0,094	0,119
-187,387	-200,000	0,011	0,125
-186,373	-200,000	-0,006	-0,068
-185,358	488,796	-0,008	0,013
-184,344	-153,853	-0,086	0,004
-183,329	56,758	0,033	0,023
-182,315	-200,000	0,007	0,031
-181,300	-10,940	-0,082	-0,039
-180,285	-0,886	-0,056	-0,028
-179,271	800,000	0,044	0,099
-178,256	15,409	-0,172	0,096
-177,242	-200,000	0,006	0,130
-176,227	-200,000	-0,028	0,113
-175,212	-112,496	0,194	-0,027
-174,198	35,419	0,120	0,075
-173,183	800,000	-0,036	0,090
-172,169	28,613	0,060	-0,036
-171,154	-106,137	-0,163	-0,026
-170,139	54,552	0,051	-0,035
-169,125	-83,942	0,076	0,017
-168,110	-44,498	-0,093	-0,033
-167,096	-85,331	-0,004	0,001
-166,081	658,237	0,024	-0,044
-165,066	151,560	-0,087	0,084
-164,052	800,000	0,020	0,048
-163,037	-200,000	-0,001	0,049
-162,023	-69,292	0,137	0,037
-161,008	91,586	0,037	0,030
-159,993	-117,845	0,223	0,028
-158,979	-104,299	0,044	0,007
-157,964	-13,885	-0,092	-0,042
-156,950	17,811	0,022	-0,012
-155,935	-148,232	0,118	0,007
-154,920	800,000	-0,024	0,059
-153,906	-200,000	-0,012	0,104
-152,891	800,000	-0,024	-0,056
-151,877	226,918	-0,067	-0,077
-150,862	-21,047	0,125	-0,054
-149,847	134,133	-0,119	-0,109
-148,833	-61,594	0,126	-0,037
-147,818	-200,000	-0,014	0,132
-146,804	274,676	-0,032	0,040
-145,789	-200,000	0,055	0,193
-144,775	-200,000	0,000	-0,087
-143,760	701,895	0,049	0,091
-142,745	14,236	-0,039	0,022
-141,731	800,000	0,040	-0,083
-140,716	317,216	0,030	-0,041
-139,702	223,118	0,024	-0,027
-138,687	800,000	0,066	0,136
-137,672	430,275	-0,054	0,083
-136,658	313,798	-0,063	-0,084
-135,643	-141,439	0,058	0,004
-134,629	368,378	-0,014	0,020
-133,614	800,000	0,024	0,054
-132,599	-2,416	0,030	-0,015
-131,585	133,794	-0,035	0,032
-130,570	-3,084	-0,023	-0,011
-129,556	800,000	-0,036	-0,074
-128,541	49,665	-0,113	-0,075
-127,526	-200,000	0,000	0,079
-126,512	-200,000	-0,021	0,094
-125,497	90,240	0,128	-0,102
-124,483	273,126	0,034	0,042
-123,468	-200,000	-0,011	0,174
-122,453	33,044	-0,115	-0,071
-121,439	800,000	0,027	-0,068
-120,424	-200,000	0,037	0,162
-119,410	-200,000	0,028	0,095
-118,395	-200,000	0,027	0,123
-117,380	23,904	0,086	0,050
-116,366	-54,381	-0,102	0,033
-115,351	-200,000	0,017	0,086
-114,337	355,372	-0,058	-0,082
-113,322	84,691	0,040	-0,031
-112,307	-153,961	0,059	0,003
-111,293	19,108	0,122	0,069
-110,278	-12,804	-0,093	0,043
-109,264	102,280	0,059	0,049
-108,249	-104,346	-0,123	-0,020
-107,234	399,245	-0,093	-0,139
-106,220	289,526	0,020	0,026
-105,205	-200,000	0,008	-0,084
-104,191	800,000	-0,008	0,020
-103,176	-200,000	0,008	0,040
-102,162	-79,285	0,130	-0,031
-101,147	-15,208	-0,070	-0,032
-100,132	-200,000	-0,010	0,125
-99,118	283,087	0,033	-0,043
-98,103	72,745	-0,049	-0,036
-97,089	800,000	0,034	0,080
-96,074	-160,099	0,023	-0,001
-95,059	378,102	-0,011	-0,017
-94,045	599,183	0,051	0,090
-93,030	50,567	0,063	-0,042
-92,016	23,273	-0,091	-0,053
-91,001	76,562	-0,078	-0,059
-89,986	109,649	-0,091	-0,077
-88,972	91,474	0,112	-0,089
-87,957	320,326	-0,035	0,047
-86,943	151,549	0,037	-0,036
-85,928	-200,000	0,007	0,067
-84,913	-200,000	-0,004	-0,030
-83,899	-144,506	-0,022	-0,001
-82,884	-200,000	0,003	0,089
-81,870	-74,779	0,097	0,025
-80,855	179,040	-0,034	0,035
-79,840	579,378	-0,032	-0,055
-78,826	344,592	-0,043	-0,060
-77,811	-200,000	0,018	0,066
-76,797	14,324	0,073	-0,040
-75,782	-200,000	0,000	-0,069
-74,767	-37,716	0,055	0,021
-73,753	-200,000	-0,006	-0,064
-72,738	-62,190	0,053	0,016
-71,724	-54,855	-0,194	-0,062
-70,709	-53,592	-0,066	-0,021
-69,694	-200,000	-0,027	0,113
-68,680	-99,641	-0,152	-0,027
-67,665	-51,462	0,146	0,048
-66,651	447,856	0,095	0,149
-65,636	-200,000	0,012	0,105
-64,622	255,757	-0,010	-0,012
-63,607	761,655	-0,108	-0,208
-62,592	800,000	0,034	0,078
-61,578	124,845	0,071	0,064
-60,563	91,943	-0,075	-0,059
-59,549	800,000	0,028	0,075
-58,534	-38,281	-1,507	-0,563
-57,519	431,130	-1,512	-2,327
-56,505	-200,000	-0,403	-4,535
-55,490	207,944	0,785	0,869
-54,476	800,000	4,886	11,312
-53,461	-200,000	18,056	286,252
-52,446	800,000	724,202	2225,279
-51,432	557,722	1638,573	2808,448
-50,417	79,789	1661,173	1262,016
-49,403	23,045	1535,457	889,597
-48,388	16,999	1459,107	816,156
-47,373	17,902	1448,825	814,709
-46,359	17,349	1439,303	806,687
-45,344	15,290	1434,747	794,296
-44,330	15,229	1432,627	792,801
-43,315	15,226	1430,930	791,816
-42,300	15,243	1429,348	790,989
-41,286	15,288	1428,134	790,502
-40,271	15,273	1426,855	789,692
-39,257	15,240	1425,847	788,946
-38,242	15,272	1424,418	788,274
-37,227	15,336	1423,120	787,825
-36,213	15,287	1421,732	786,794
-35,198	15,255	1420,717	786,054
-34,184	15,320	1419,898	785,875
-33,169	15,237	1418,557	784,709
-32,154	15,249	1417,613	784,215
-31,140	15,332	1416,081	783,722
-30,125	15,316	1414,949	782,991
-29,111	15,284	1414,059	782,317
-28,096	15,273	1412,862	781,572
-27,082	15,237	1411,684	780,722
-26,067	15,231	1410,534	780,028
-25,052	15,258	1409,323	779,451
-24,038	15,178	1408,813	778,766
-23,023	15,179	1407,549	778,038
-22,009	15,150	1406,572	777,332
-20,994	15,129	1405,731	776,740
-19,979	15,123	1404,640	776,078
-18,965	15,130	1403,752	775,591
-17,950	15,131	1403,039	775,169
-16,936	15,140	1401,985	774,599
-15,921	15,064	1400,891	773,611
-14,906	15,123	1399,620	773,151
-13,892	15,100	1398,906	772,620
-12,877	15,066	1398,098	771,983
-11,863	15,111	1396,929	771,519
-10,848	15,081	1396,209	770,949
-9,833	15,027	1395,448	770,250
-8,819	15,047	1394,192	769,617
-7,804	15,037	1393,292	769,042
-6,790	14,970	1392,541	768,292
-5,775	14,964	1391,538	767,679
-4,760	15,008	1390,584	767,325
-3,746	15,009	1389,717	766,822
-2,731	15,048	1388,829	766,480
-1,717	14,992	1387,888	765,670
-0,702	14,977	1386,153	764,616
0,313	18,945	1305,908	738,620
1,327	35,413	706,535	437,741
2,342	54,414	124,714	84,862
3,356	2,019	16,661	8,481
4,371	12,317	3,226	1,753
5,386	6,732	0,579	0,304
6,400	-200,000	0,010	0,106
7,415	34,403	-0,297	-0,183
8,429	53,393	-0,296	-0,200
9,444	-27,095	-0,372	-0,153
10,459	145,336	-0,304	-0,288
11,473	38,501	-0,305	-0,192
12,488	36,106	-0,334	-0,208
13,502	-4,628	-0,286	-0,139
14,517	-6,951	-0,277	-0,133
15,531	78,602	-0,339	-0,256
16,546	82,911	-0,363	-0,279
17,561	17,563	-0,530	-0,297
18,575	-146,622	-0,199	0,012
19,590	-5,280	-0,254	-0,123
20,604	-106,634	-0,209	-0,033
21,619	126,110	-0,405	-0,362
22,634	229,216	-0,332	-0,383
23,648	132,164	-0,298	-0,271
24,663	59,569	-0,380	-0,264
25,677	141,095	-0,308	-0,288
26,692	256,831	-0,247	-0,300
27,707	54,868	-0,287	-0,195
28,721	-0,013	-0,356	-0,178
29,736	208,007	-0,452	-0,499
30,750	96,389	-0,517	-0,417
31,765	800,000	-0,156	-0,348
32,780	26,802	-0,389	-0,229
33,794	166,491	-0,358	-0,358
34,809	70,699	-0,373	-0,272
35,823	265,196	-0,331	-0,407
36,838	139,245	-0,306	-0,284
37,853	149,367	-0,334	-0,320
38,867	138,381	-0,293	-0,271
39,882	56,660	-0,449	-0,308
40,896	191,075	-0,228	-0,242
41,911	11,786	-0,403	-0,218
42,926	52,297	-0,358	-0,240
43,940	27,650	-0,580	-0,344
44,955	107,947	-0,408	-0,342
45,969	116,513	-0,330	-0,285
46,984	15,241	-0,341	-0,188
47,999	800,000	-0,130	-0,310
49,013	-1,245	-0,381	-0,189
50,028	122,686	-0,281	-0,247
51,042	84,602	-0,352	-0,271
52,057	73,243	-0,299	-0,220
53,071	67,988	-0,325	-0,234
54,086	68,051	-0,489	-0,352
55,101	10,061	-0,329	-0,176
56,115	62,055	-0,272	-0,191
57,130	24,808	-0,358	-0,208
58,144	-56,173	-0,449	-0,140
59,159	21,382	-0,421	-0,240
60,174	34,084	-0,393	-0,241
61,188	132,736	-0,402	-0,365
62,203	312,021	-0,289	-0,382
63,217	108,348	-0,327	-0,275
64,232	116,452	-0,355	-0,306
65,247	77,077	-0,345	-0,258
66,261	192,656	-0,366	-0,390
67,276	-20,265	-0,372	-0,160
68,290	15,364	-0,420	-0,231
69,305	135,892	-0,302	-0,277
70,320	176,814	-0,196	-0,200
71,334	189,171	-0,236	-0,249
72,349	101,924	-0,267	-0,219
73,363	214,865	-0,296	-0,331
74,378	92,487	-0,283	-0,224
75,393	88,543	-0,328	-0,256
76,407	448,533	-0,191	-0,297
77,422	-15,882	-0,207	-0,092
78,436	105,939	-0,341	-0,284
79,451	57,610	-0,376	-0,258
80,466	84,242	-0,363	-0,279
81,480	108,447	-0,341	-0,286
82,495	170,523	-0,256	-0,258
83,509	66,437	-0,244	-0,174
84,524	6,165	-0,397	-0,206
85,539	158,367	-0,147	-0,144
86,553	-43,405	-0,333	-0,118
87,568	93,365	-0,233	-0,185
88,582	-14,210	-0,361	-0,163
89,597	65,634	-0,307	-0,218
90,611	119,424	-0,213	-0,185
91,626	-56,129	-0,368	-0,114
92,641	4,180	-0,330	-0,169
93,655	-10,714	-0,290	-0,134
94,670	54,825	-0,393	-0,266
95,684	484,853	-0,231	-0,371
96,699	70,897	-0,358	-0,260
97,714	16,964	-0,412	-0,228
98,728	-27,306	-0,233	-0,095
99,743	-18,963	-0,286	-0,124
100,757	120,589	-0,270	-0,236
101,772	-56,313	-0,265	-0,082
102,787	82,020	-0,317	-0,241
103,801	-15,626	-0,347	-0,155
104,816	117,128	-0,263	-0,226
105,830	-85,470	-0,302	-0,065
106,845	-185,574	-0,167	0,002
107,860	97,587	-0,228	-0,183
108,874	159,827	-0,314	-0,307
109,889	235,399	-0,233	-0,270
110,903	111,097	-0,286	-0,241
111,918	10,399	-0,232	-0,124
112,933	154,209	-0,255	-0,245
113,947	398,265	-0,171	-0,252
114,962	175,118	-0,205	-0,208
115,976	367,971	-0,248	-0,352
116,991	45,912	-0,209	-0,135
118,006	78,249	-0,297	-0,222
119,020	653,791	-0,205	-0,370
120,035	13,935	-0,228	-0,124
121,049	46,251	-0,254	-0,164
122,064	-93,507	-0,062	0,012
123,079	161,578	-0,255	-0,250
124,093	8,789	-0,239	-0,126
125,108	-15,029	-0,310	-0,139
126,122	149,465	-0,281	-0,267
127,137	111,005	-0,269	-0,227
128,151	296,897	-0,210	-0,270
129,166	101,558	-0,223	-0,182
130,181	84,340	-0,310	-0,237
131,195	-60,752	-0,410	-0,121
132,210	2,350	-0,326	-0,164
133,224	-12,417	-0,367	-0,167
134,239	26,099	-0,249	-0,145
135,254	165,246	-0,316	-0,312
136,268	39,845	-0,249	-0,156
137,283	132,479	-0,232	-0,209
138,297	60,072	-0,333	-0,230
139,312	352,580	-0,243	-0,338
140,327	-28,280	-0,328	-0,132
141,341	800,000	-0,136	-0,313
142,356	484,288	-0,161	-0,257
143,370	-66,947	-0,200	-0,055
144,385	69,599	-0,220	-0,158
145,400	148,529	-0,267	-0,252
146,414	468,698	-0,186	-0,292
147,429	189,154	-0,197	-0,206
148,443	219,561	-0,242	-0,270
149,458	30,002	-0,306	-0,182
150,473	0,824	-0,199	-0,099
151,487	-32,333	-0,261	-0,101
152,502	17,900	-0,248	-0,138
153,516	18,861	-0,253	-0,141
154,531	334,462	-0,217	-0,294
155,546	70,686	-0,238	-0,172
156,560	8,332	-0,255	-0,134
157,575	29,857	-0,306	-0,182
158,589	78,406	-0,166	-0,124
159,604	81,268	-0,179	-0,135
160,619	344,932	-0,222	-0,305
161,633	163,064	-0,242	-0,237
162,648	5,611	-0,242	-0,124
163,662	6,051	-0,175	-0,090
164,677	-7,156	-0,249	-0,117
165,692	237,198	-0,273	-0,316
166,706	131,591	-0,367	-0,329
167,721	396,062	-0,230	-0,336
168,735	28,178	-0,254	-0,149
169,750	353,138	-0,075	-0,104
170,764	717,965	-0,135	-0,251
171,779	800,000	-0,125	-0,278
172,794	54,291	-0,174	-0,117
173,808	-42,649	-0,188	-0,066
174,823	726,768	-0,180	-0,336
175,837	81,339	-0,443	-0,333
176,852	150,594	-0,263	-0,249
177,867	40,325	-0,359	-0,225
178,881	559,641	-0,125	-0,211
179,896	120,880	-0,226	-0,195
180,910	348,368	-0,218	-0,300
181,925	213,964	-0,204	-0,225
182,940	261,015	-0,137	-0,165
183,954	-32,041	-0,258	-0,100
184,969	-12,731	-0,286	-0,129
185,983	-198,012	-0,163	-0,001
186,998	229,959	-0,174	-0,199
188,013	800,000	-0,101	-0,264
189,027	76,004	-0,212	-0,156
190,042	-0,679	-0,291	-0,143
191,056	-34,662	-0,276	-0,105
192,071	82,110	-0,177	-0,133
193,086	658,770	-0,089	-0,159
194,100	589,388	-0,090	-0,155
195,115	40,578	-0,170	-0,106
196,129	320,901	-0,228	-0,302
197,144	800,000	-0,084	-0,198
198,159	27,238	-0,245	-0,143
199,173	379,490	-0,122	-0,175
200,188	276,775	-0,160	-0,198
201,202	416,806	-0,156	-0,233
202,217	-130,145	-0,197	0,018
203,232	-53,254	-0,182	-0,058
204,246	800,000	-0,086	-0,214
205,261	86,056	-0,281	-0,215
206,275	-200,000	-0,045	-0,140
207,290	192,377	-0,214	-0,225
208,304	38,580	-0,193	-0,120
209,319	149,869	-0,154	-0,145
210,334	-78,181	-0,143	-0,034
211,348	62,533	-0,244	-0,169
212,363	-200,000	0,002	-0,259
213,377	60,376	-0,245	-0,168
214,392	81,654	-0,178	-0,134
215,407	16,938	-0,280	-0,154
216,421	-11,147	-0,166	-0,076
217,436	192,122	-0,185	-0,194
218,450	207,371	-0,136	-0,147
219,465	191,983	-0,226	-0,237
220,480	-52,737	-0,238	-0,076
221,494	800,000	-0,059	-0,129
222,509	-17,552	-0,236	-0,103
223,523	-41,815	-0,117	-0,041
224,538	-94,522	-0,189	-0,035
225,553	-50,523	-0,256	-0,083
226,567	127,338	-0,214	-0,188
227,582	-200,000	-0,069	-0,298
228,596	727,162	-0,098	-0,183
229,611	273,552	-0,089	-0,110
230,626	46,000	-0,185	-0,119
231,640	27,682	-0,199	-0,116
232,655	348,990	-0,219	-0,300
233,669	109,829	-0,228	-0,190
234,684	39,533	-0,343	-0,212
235,699	-179,851	-0,254	0,004
236,713	-20,345	-0,124	-0,053
237,728	148,133	-0,133	-0,124
238,742	29,613	-0,203	-0,120
239,757	-73,435	-0,223	-0,056
240,772	76,450	-0,216	-0,158
241,786	-200,000	-0,042	-0,129
242,801	567,091	-0,090	-0,152
243,815	416,715	-0,111	-0,164
244,830	114,669	-0,120	-0,101
245,844	183,090	-0,118	-0,121
246,859	175,110	-0,112	-0,112
247,874	211,849	-0,171	-0,186
248,888	48,893	-0,166	-0,107
249,903	329,432	-0,109	-0,145
250,917	72,555	-0,167	-0,120
251,932	-84,135	-0,073	-0,016
252,947	-72,090	-0,192	-0,049
253,961	-81,051	-0,231	-0,053
254,976	267,020	-0,239	-0,290
255,990	646,678	-0,095	-0,169
257,005	78,189	-0,183	-0,135
258,020	-35,973	-0,231	-0,086
259,034	-120,492	-0,108	0,013
260,049	54,025	-0,127	-0,084
261,063	91,068	-0,153	-0,118
262,078	572,432	-0,211	-0,356
263,093	85,680	-0,173	-0,131
264,107	-107,790	-0,255	-0,038
265,122	201,977	-0,192	-0,205
266,136	5,631	-0,185	-0,094
267,151	196,207	-0,099	-0,104
268,166	800,000	-0,069	-0,174
269,180	155,652	-0,175	-0,166
270,195	162,424	-0,150	-0,145
271,209	170,682	-0,105	-0,104
272,224	-200,000	-0,012	-0,265
273,239	225,207	-0,146	-0,164
274,253	-200,000	-0,035	-0,217
275,268	156,102	-0,121	-0,116
276,282	380,129	-0,080	-0,114
277,297	-75,287	-0,254	-0,062
278,312	-15,529	-0,194	-0,085
279,326	221,965	-0,120	-0,134
280,341	-94,875	-0,215	-0,040
281,355	325,811	-0,111	-0,148
282,370	128,988	-0,106	-0,094
283,384	-200,000	-0,066	-0,242
284,399	357,787	-0,137	-0,189
285,414	800,000	-0,048	-0,138
286,428	-25,003	-0,084	-0,034
287,443	2,723	-0,075	-0,037
288,457	447,808	-0,081	-0,123
289,472	-138,443	-0,250	-0,019
290,487	1,109	-0,274	-0,135
291,501	84,206	-0,068	-0,051
292,516	-134,411	-0,242	0,020
293,530	-33,503	-0,124	-0,047
294,545	-106,972	-0,207	-0,031
295,560	-20,917	-0,177	-0,074
296,574	17,404	-0,134	-0,073
297,589	800,000	-0,022	-0,044
298,603	58,568	-0,195	-0,132
299,618	219,095	-0,136	-0,150
300,633	16,079	-0,078	-0,042
301,647	-49,279	-0,179	-0,059
302,662	245,670	-0,132	-0,153
303,676	139,377	-0,096	-0,087
304,691	800,000	0,012	-0,033
305,706	261,411	-0,124	-0,149
306,720	78,480	-0,179	-0,132
307,735	-59,051	-0,098	-0,029
308,749	158,705	-0,095	-0,091
309,764	134,665	-0,106	-0,094
310,779	-155,027	-0,199	-0,009
311,793	-16,693	-0,135	-0,059
312,808	166,902	-0,160	-0,157
313,822	800,000	-0,039	-0,081
314,837	800,000	-0,113	-0,254
315,852	-97,318	-0,197	-0,035
316,866	-96,390	-0,231	0,042
317,881	74,689	-0,217	-0,157
318,895	800,000	-0,093	-0,222
319,910	27,541	-0,144	0,083
320,925	62,879	-0,242	-0,167
321,939	660,236	-0,105	-0,186
322,954	800,000	-0,052	-0,152
323,968	99,420	-0,070	-0,056
324,983	88,204	-0,203	-0,155
325,997	-69,809	-0,143	0,037
327,012	33,591	-0,179	-0,107
328,027	101,189	-0,214	-0,171
329,041	19,634	-0,111	-0,061
330,056	-4,158	-0,154	-0,073
331,070	171,741	-0,163	-0,161
332,085	800,000	-0,034	-0,102
333,100	800,000	-0,132	-0,269
334,114	206,264	-0,195	-0,209
335,129	-0,900	-0,193	-0,094
336,143	171,204	-0,165	-0,162
337,158	133,143	-0,079	-0,070
338,173	20,948	-0,221	0,123
339,187	298,805	-0,077	-0,097
340,202	83,267	-0,192	-0,144
341,216	-24,593	-0,059	-0,024
342,231	193,053	-0,168	-0,175
343,246	340,611	-0,153	-0,206
344,260	95,048	-0,124	0,097
345,275	-200,000	-0,045	-0,142
346,289	334,727	-0,132	-0,176
347,304	21,706	-0,145	-0,081
348,319	198,257	-0,186	-0,196
349,333	800,000	-0,071	-0,164
350,348	242,885	-0,145	-0,167
351,362	257,646	-0,171	-0,203
352,377	315,336	-0,074	-0,096
353,392	239,548	-0,078	-0,089
354,406	-132,995	-0,090	0,008
355,421	208,561	1314,615	1412,211
356,435	160,487	1475,352	1412,745
