DTS Sentinel unit serial number:	SN410029Multiplexer serial number:	ORYXHardware model number:	OX2-SRSoftware version number:	ORYX F/W v4,00 Oryx Data Collector v3.7.2.0data status	okinstallation	B3 Nyhavnadifferential loss correction	single-endedforward channel	channel 1reverse channel	N/Adate	2023/12/02time	00:17:30forward acquisition time	300,00reverse acquisition time	0,00gamma	499,1914k internal	0,3196k external	0,3196temperature offset calibration	1,0000default loss term (dB/km)	0,3820temperature slope calibration	1,0000multiplexer offset coefficient	1,0000multiplexer slope coefficient	1,0000fibre end	0,00T internal ref (°C)	16,13T ext. ref 1 (°C)	1,70T ext. ref 2 (°C)	1,69length (m)	temperature (°C)	Stokes	anti-Stokes-744,400	-200,000	-0,028	-0,222
-743,385	800,000	-0,091	0,236
-742,371	229,123	-0,205	-0,244
-741,356	-200,000	0,043	0,404
-740,342	235,165	-0,222	-0,268
-739,327	-200,000	0,072	0,241
-738,312	291,617	-0,198	-0,263
-737,298	-200,000	0,004	0,299
-736,283	45,985	-0,226	-0,152
-735,269	-200,000	-0,001	0,297
-734,254	441,980	-0,155	-0,249
-733,239	366,646	-0,088	0,130
-732,225	149,618	-0,225	-0,222
-731,210	-200,000	0,034	0,115
-730,196	101,956	-0,044	-0,037
-729,181	57,634	0,107	-0,076
-728,167	-50,534	-0,027	0,009
-727,152	31,971	0,111	0,069
-726,137	8,880	-0,094	-0,052
-725,123	-200,000	-0,023	0,125
-724,108	-89,308	-0,296	-0,063
-723,094	-81,686	-0,062	-0,015
-722,079	-75,072	0,128	-0,033
-721,064	-64,890	-0,155	0,045
-720,050	550,398	-0,032	0,056
-719,035	10,712	-0,097	0,054
-718,021	-11,092	-0,110	-0,052
-717,006	107,122	-0,054	-0,046
-715,991	-200,000	-0,015	-0,161
-714,977	27,870	-0,052	0,032
-713,962	800,000	-0,018	-0,047
-712,948	73,866	0,086	0,066
-711,933	429,577	-0,074	0,117
-710,918	-200,000	-0,006	-0,030
-709,904	254,999	-0,063	-0,078
-708,889	-77,255	-0,239	-0,060
-707,875	-68,161	-0,100	-0,028
-706,860	-3,485	-0,168	-0,085
-705,845	-200,000	-0,015	-0,102
-704,831	-45,442	0,045	-0,016
-703,816	31,478	-0,120	-0,075
-702,802	800,000	-0,039	-0,085
-701,787	-200,000	-0,042	-0,201
-700,772	214,844	-0,073	-0,085
-699,758	17,566	0,076	0,044
-698,743	14,891	0,048	-0,027
-697,729	-200,000	0,005	0,094
-696,714	97,819	0,006	-0,005
-695,699	97,514	-0,057	-0,047
-694,685	18,527	-0,123	0,072
-693,670	-200,000	0,015	0,071
-692,656	192,934	-0,101	-0,111
-691,641	-39,415	-0,043	-0,016
-690,627	511,386	-0,025	0,042
-689,612	-200,000	0,005	0,034
-688,597	-200,000	0,001	-0,006
-687,583	-112,519	-0,042	-0,006
-686,568	13,417	-0,099	0,055
-685,554	-200,000	0,013	0,050
-684,539	498,970	0,052	0,087
-683,524	-76,067	0,074	-0,019
-682,510	-185,382	-0,090	-0,001
-681,495	201,604	0,039	-0,044
-680,481	14,370	0,105	-0,059
-679,466	-163,447	-0,046	0,002
-678,451	-133,442	-0,163	-0,015
-677,437	-200,000	-0,010	0,042
-676,422	32,547	-0,046	0,029
-675,408	-200,000	-0,023	0,091
-674,393	312,034	0,024	-0,033
-673,378	-63,511	-0,143	-0,043
-672,364	-75,533	-0,075	-0,019
-671,349	-165,109	-0,149	0,005
-670,335	800,000	0,035	0,102
-669,320	-200,000	0,011	0,075
-668,305	41,096	-0,061	0,040
-667,291	82,091	-0,121	0,096
-666,276	-135,460	0,101	-0,009
-665,262	-200,000	-0,039	-0,130
-664,247	-200,000	-0,004	-0,081
-663,232	-108,743	0,091	0,014
-662,218	-158,802	-0,048	-0,002
-661,203	-200,000	-0,007	-0,101
-660,189	142,624	-0,038	-0,036
-659,174	-200,000	-0,025	-0,088
-658,159	157,877	-0,073	0,073
-657,145	-65,600	-0,117	-0,034
-656,130	800,000	-0,003	-0,010
-655,116	99,559	-0,089	-0,075
-654,101	148,041	0,047	0,046
-653,086	796,413	-0,001	0,001
-652,072	-123,248	0,055	0,006
-651,057	-108,677	-0,091	0,014
-650,043	-200,000	0,006	-0,025
-649,028	136,307	-0,136	0,129
-648,014	-200,000	0,018	0,119
-646,999	503,037	0,015	0,025
-645,984	7,899	-0,166	0,090
-644,970	-200,000	0,009	0,090
-643,955	654,170	-0,047	-0,088
-642,941	51,919	0,029	0,020
-641,926	230,625	-0,027	-0,032
-640,911	-200,000	0,027	-0,149
-639,897	-200,000	0,001	-0,024
-638,882	-14,474	0,020	-0,009
-637,868	-200,000	0,011	-0,073
-636,853	-200,000	-0,008	-0,060
-635,838	-129,356	-0,050	-0,005
-634,824	-138,578	0,087	0,007
-633,809	-200,000	-0,018	0,135
-632,795	-99,693	-0,014	-0,002
-631,780	-120,478	-0,056	-0,007
-630,765	69,629	-0,041	-0,031
-629,751	482,448	0,034	0,057
-628,736	-124,597	-0,123	-0,014
-627,722	-200,000	0,036	-0,121
-626,707	244,413	0,076	0,093
-625,692	-200,000	-0,004	0,078
-624,678	466,565	-0,067	0,110
-623,663	100,923	0,061	0,052
-622,649	800,000	-0,102	-0,248
-621,634	20,683	-0,111	-0,065
-620,619	-177,389	-0,165	-0,003
-619,605	137,084	0,091	0,086
-618,590	49,855	-0,146	0,099
-617,576	200,678	-0,042	0,046
-616,561	-127,535	-0,040	0,004
-615,546	144,414	-0,039	0,038
-614,532	-200,000	-0,011	-0,087
-613,517	-26,011	-0,083	0,035
-612,503	-200,000	-0,003	0,083
-611,488	-37,858	0,130	-0,050
-610,474	800,000	-0,027	-0,073
-609,459	129,971	0,023	-0,022
-608,444	31,635	0,088	0,055
-607,430	652,656	0,104	-0,195
-606,415	-37,951	-0,100	0,038
-605,401	-51,544	0,055	-0,018
-604,386	-48,723	0,111	-0,038
-603,371	-200,000	0,008	-0,034
-602,357	-200,000	-0,005	-0,078
-601,342	36,815	-0,094	-0,060
-600,328	-7,567	-0,052	0,025
-599,313	176,636	0,066	-0,070
-598,298	232,231	0,105	-0,125
-597,284	157,660	0,038	-0,038
-596,269	94,597	0,053	0,043
-595,255	800,000	0,056	0,161
-594,240	381,109	0,044	-0,066
-593,225	-200,000	0,001	0,056
-592,211	-28,971	-0,012	0,005
-591,196	-173,082	-0,105	-0,002
-590,182	149,498	-0,062	0,061
-589,167	-200,000	0,041	0,301
-588,152	301,142	-0,075	-0,101
-587,138	-72,242	-0,059	-0,016
-586,123	524,853	-0,035	0,060
-585,109	19,357	-0,085	0,049
-584,094	-200,000	-0,021	-0,090
-583,079	-70,299	-0,006	0,002
-582,065	800,000	-0,078	0,177
-581,050	44,526	-0,086	-0,057
-580,036	-200,000	0,010	-0,116
-579,021	355,377	-0,068	0,098
-578,006	-200,000	0,032	0,105
-576,992	-107,857	0,118	-0,018
-575,977	800,000	0,044	-0,125
-574,963	54,704	0,045	-0,031
-573,948	243,740	-0,081	0,099
-572,934	467,263	0,058	0,094
-571,919	-200,000	0,032	-0,126
-570,904	257,812	-0,062	-0,077
-569,890	-200,000	-0,053	-0,191
-568,875	33,637	-0,049	0,031
-567,861	-56,360	-0,134	0,043
-566,846	-200,000	0,026	0,155
-565,831	584,651	0,028	-0,050
-564,817	-116,929	-0,045	-0,006
-563,802	-27,068	-0,216	-0,091
-562,788	282,284	-0,080	-0,104
-561,773	-142,007	0,071	-0,005
-560,758	-164,452	0,177	-0,006
-559,744	-63,960	-0,069	0,020
-558,729	234,743	-0,080	0,096
-557,715	800,000	-0,049	-0,133
-556,700	277,432	-0,095	-0,123
-555,685	397,942	0,063	0,095
-554,671	-51,678	-0,116	-0,039
-553,656	-200,000	0,017	0,120
-552,642	800,000	-0,017	0,046
-551,627	-200,000	-0,014	0,077
-550,612	-200,000	0,022	-0,136
-549,598	219,716	-0,065	-0,075
-548,583	800,000	0,030	-0,091
-547,569	800,000	0,032	-0,071
-546,554	60,637	0,111	-0,079
-545,539	20,474	0,090	-0,052
-544,525	-68,257	-0,008	0,002
-543,510	-200,000	-0,003	-0,089
-542,496	114,661	-0,056	-0,050
-541,481	12,337	0,067	-0,037
-540,466	229,615	0,048	-0,056
-539,452	698,479	-0,018	0,034
-538,437	-81,823	-0,040	0,009
-537,423	27,094	-0,028	0,017
-536,408	-127,798	-0,111	0,011
-535,393	-200,000	-0,039	0,185
-534,379	-200,000	0,008	0,068
-533,364	-58,520	0,128	-0,040
-532,350	-200,000	0,008	0,073
-531,335	556,634	-0,034	0,059
-530,321	-200,000	-0,001	-0,084
-529,306	175,809	-0,042	-0,045
-528,291	48,754	0,074	0,050
-527,277	-200,000	-0,013	-0,055
-526,262	-200,000	0,001	0,095
-525,248	-200,000	0,031	-0,161
-524,233	-169,563	0,134	0,003
-523,218	282,623	-0,060	0,078
-522,204	23,408	-0,114	0,068
-521,189	-168,399	-0,006	0,000
-520,175	-13,354	0,076	0,036
-519,160	-200,000	-0,010	0,122
-518,145	-126,345	0,070	0,007
-517,131	38,428	-0,095	0,061
-516,116	20,075	0,071	0,041
-515,102	62,987	-0,048	0,035
-514,087	10,951	-0,097	0,053
-513,072	377,891	-0,049	-0,073
-512,058	93,417	-0,047	-0,039
-511,043	26,579	0,131	0,079
-510,029	334,484	0,107	0,150
-509,014	-200,000	-0,008	0,080
-507,999	194,092	-0,041	-0,045
-506,985	146,221	0,103	-0,100
-505,970	227,874	0,060	-0,071
-504,956	45,003	-0,036	0,024
-503,941	670,847	0,045	-0,085
-502,926	104,934	-0,056	-0,047
-501,912	-1,191	-0,023	0,012
-500,897	339,856	0,109	-0,154
-499,883	-200,000	-0,007	-0,067
-498,868	63,732	-0,023	0,016
-497,853	-200,000	0,022	-0,106
-496,839	-200,000	0,033	0,115
-495,824	-140,207	-0,052	-0,004
-494,810	-200,000	-0,009	0,134
-493,795	120,473	0,098	0,087
-492,781	1,551	0,062	0,032
-491,766	340,474	-0,079	-0,111
-490,751	300,692	-0,060	-0,080
-489,737	152,065	0,039	-0,039
-488,722	50,633	0,017	-0,012
-487,708	676,040	-0,024	-0,046
-486,693	-126,787	-0,099	0,010
-485,678	-50,697	-0,096	0,032
-484,664	-60,152	-0,094	-0,029
-483,649	-200,000	0,027	-0,135
-482,635	119,467	0,071	0,063
-481,620	-200,000	-0,015	0,128
-480,605	-200,000	-0,038	0,144
-479,591	-42,141	-0,053	-0,019
-478,576	-200,000	-0,019	0,072
-477,562	-40,206	0,043	0,016
-476,547	-138,841	-0,036	-0,003
-475,532	-200,000	-0,001	-0,036
-474,518	349,504	0,074	0,106
-473,503	85,294	0,087	0,068
-472,489	-166,975	0,166	0,005
-471,474	7,723	-0,071	-0,038
-470,459	180,142	-0,023	0,024
-469,445	-111,117	0,042	-0,006
-468,430	151,647	-0,061	0,059
-467,416	-200,000	0,018	0,069
-466,401	48,518	-0,060	-0,040
-465,386	539,943	0,067	-0,116
-464,372	70,376	-0,056	-0,041
-463,357	800,000	0,017	0,042
-462,343	800,000	-0,037	0,077
-461,328	-101,570	0,068	0,012
-460,313	57,527	0,074	-0,052
-459,299	303,403	0,104	-0,139
-458,284	-200,000	0,017	0,076
-457,270	28,283	-0,056	0,034
-456,255	262,108	-0,078	0,097
-455,241	800,000	-0,023	-0,066
-454,226	-110,323	0,026	-0,004
-453,211	-200,000	0,010	-0,108
-452,197	23,113	0,076	0,045
-451,182	63,339	-0,025	-0,018
-450,168	-3,833	0,028	0,014
-449,153	-96,610	-0,112	-0,021
-448,138	-9,142	-0,057	-0,027
-447,124	-19,516	0,104	0,046
-446,109	-200,000	-0,013	0,058
-445,095	-200,000	-0,009	0,095
-444,080	-200,000	-0,022	0,079
-443,065	-61,469	-0,003	0,001
-442,051	-46,859	0,135	-0,047
-441,036	171,145	-0,019	-0,019
-440,022	-200,000	-0,015	0,070
-439,007	158,707	0,078	-0,079
-437,992	88,543	-0,067	0,053
-436,978	800,000	-0,057	0,139
-435,963	-20,116	0,059	-0,026
-434,949	2,142	-0,184	0,095
-433,934	229,244	-0,040	-0,047
-432,919	-200,000	-0,009	0,041
-431,905	800,000	-0,028	-0,085
-430,890	-48,390	-0,036	0,012
-429,876	306,601	-0,006	0,008
-428,861	215,781	-0,091	0,104
-427,846	-11,335	-0,039	0,019
-426,832	-16,481	-0,054	-0,025
-425,817	41,484	-0,117	-0,076
-424,803	282,250	-0,010	0,013
-423,788	-90,100	-0,142	0,029
-422,773	-200,000	0,012	-0,043
-421,759	16,010	0,040	0,023
-420,744	129,508	0,089	-0,082
-419,730	270,740	0,054	-0,069
-418,715	-200,000	-0,002	0,068
-417,701	-179,082	0,079	-0,001
-416,686	8,679	0,135	-0,073
-415,671	677,869	0,041	0,077
-414,657	-200,000	0,004	0,069
-413,642	800,000	0,019	0,056
-412,628	218,105	-0,027	-0,031
-411,613	800,000	-0,003	0,007
-410,598	-39,047	-0,080	0,030
-409,584	300,933	0,040	0,053
-408,569	-2,675	0,119	0,060
-407,555	50,943	0,091	0,062
-406,540	-200,000	0,004	-0,059
-405,525	-82,226	-0,087	-0,020
-404,511	-44,431	-0,103	0,037
-403,496	268,342	0,106	-0,133
-402,482	64,639	-0,059	-0,043
-401,467	-132,763	-0,113	-0,010
-400,452	800,000	0,067	0,145
-399,438	-61,850	0,148	-0,044
-398,423	-200,000	0,005	0,027
-397,409	-200,000	0,002	0,031
-396,394	-200,000	0,003	0,020
-395,379	800,000	-0,046	0,098
-394,365	15,311	0,146	-0,082
-393,350	273,364	0,070	0,089
-392,336	289,991	-0,011	-0,014
-391,321	-200,000	-0,005	0,025
-390,306	104,273	0,090	-0,076
-389,292	-77,816	-0,047	0,012
-388,277	800,000	0,015	-0,032
-387,263	-79,296	0,098	-0,024
-386,248	-200,000	-0,010	0,150
-385,233	-83,832	0,181	0,041
-384,219	186,055	0,063	-0,067
-383,204	498,755	0,031	0,051
-382,190	162,250	-0,152	-0,153
-381,175	417,984	-0,064	0,098
-380,160	297,961	0,129	0,170
-379,146	721,908	0,035	0,068
-378,131	800,000	0,022	0,065
-377,117	-200,000	-0,010	0,035
-376,102	147,319	0,022	-0,021
-375,088	445,258	0,069	-0,109
-374,073	-17,571	-0,203	-0,091
-373,058	800,000	-0,029	0,087
-372,044	-200,000	0,013	0,083
-371,029	-200,000	0,007	-0,032
-370,015	-200,000	-0,006	0,044
-369,000	104,901	0,139	-0,118
-367,985	-110,038	-0,134	-0,020
-366,971	32,036	0,042	-0,026
-365,956	-116,507	0,110	-0,014
-364,942	634,218	0,034	-0,062
-363,927	129,152	0,009	0,008
-362,912	800,000	-0,033	-0,065
-361,898	12,328	-0,056	0,031
-360,883	-82,578	-0,087	-0,020
-359,869	461,985	0,043	-0,069
-358,854	106,954	0,092	-0,079
-357,839	800,000	-0,019	-0,059
-356,825	335,319	0,023	0,032
-355,810	-145,997	0,076	-0,005
-354,796	-92,408	0,068	0,014
-353,781	800,000	0,019	-0,055
-352,766	-200,000	-0,012	-0,191
-351,752	231,262	-0,058	0,068
-350,737	105,639	0,015	-0,013
-349,723	-200,000	-0,027	0,165
-348,708	-77,545	-0,096	0,024
-347,693	514,685	0,033	0,056
-346,679	800,000	-0,030	0,079
-345,664	-49,158	0,108	0,037
-344,650	405,695	0,023	-0,035
-343,635	-123,415	0,096	0,011
-342,620	217,553	-0,017	-0,020
-341,606	-124,432	0,157	-0,017
-340,591	-26,759	-0,047	0,019
-339,577	-82,130	-0,087	-0,020
-338,562	-200,000	0,030	-0,105
-337,548	-43,023	0,058	0,021
-336,533	-96,267	0,082	0,015
-335,518	-166,030	0,090	-0,003
-334,504	425,443	-0,015	0,023
-333,489	-135,809	-0,084	-0,007
-332,475	73,644	-0,162	0,122
-331,460	-152,828	-0,154	-0,008
-330,445	800,000	0,072	-0,164
-329,431	-44,707	0,052	-0,018
-328,416	141,381	-0,140	0,133
-327,402	226,768	-0,078	-0,091
-326,387	-7,073	0,098	-0,048
-325,372	92,983	0,031	0,025
-324,358	282,234	-0,014	-0,019
-323,343	-148,442	0,067	-0,004
-322,329	168,172	0,117	0,119
-321,314	318,793	0,036	0,048
-320,299	-200,000	0,095	0,000
-319,285	97,399	-0,154	0,127
-318,270	800,000	-0,071	0,159
-317,256	-200,000	0,017	0,084
-316,241	44,896	-0,086	-0,057
-315,226	81,240	0,123	-0,095
-314,212	-77,420	0,078	0,019
-313,197	800,000	-0,038	0,094
-312,183	427,785	-0,020	0,031
-311,168	84,359	-0,015	-0,011
-310,153	-200,000	0,027	-0,139
-309,139	453,550	-0,028	-0,045
-308,124	800,000	0,043	-0,103
-307,110	198,634	0,023	0,026
-306,095	-141,577	0,174	-0,012
-305,080	-64,796	0,025	0,007
-304,066	-200,000	0,000	0,029
-303,051	-95,262	0,054	-0,010
-302,037	-160,384	-0,158	0,006
-301,022	164,636	0,044	-0,044
-300,008	339,869	0,089	-0,125
-298,993	-172,241	0,057	0,001
-297,978	-106,271	0,087	-0,014
-296,964	109,043	0,109	-0,093
-295,949	-200,000	0,002	0,122
-294,935	567,939	-0,069	-0,121
-293,920	-200,000	0,007	-0,023
-292,905	-12,258	0,074	0,034
-291,891	-200,000	0,006	0,044
-290,876	-200,000	-0,007	-0,023
-289,862	28,988	-0,016	-0,010
-288,847	-200,000	-0,027	-0,108
-287,832	800,000	0,067	-0,166
-286,818	-126,302	-0,123	-0,013
-285,803	800,000	0,039	0,079
-284,789	208,166	0,150	0,168
-283,774	-200,000	-0,019	-0,079
-282,759	-200,000	-0,011	-0,064
-281,745	137,382	0,126	-0,118
-280,730	-200,000	0,009	0,084
-279,716	800,000	0,020	-0,051
-278,701	156,506	-0,048	-0,047
-277,686	-113,333	0,191	-0,027
-276,672	800,000	0,026	-0,072
-275,657	-200,000	-0,018	-0,072
-274,643	800,000	0,019	-0,060
-273,628	-200,000	0,004	0,045
-272,613	800,000	0,012	0,031
-271,599	-200,000	0,001	-0,093
-270,584	260,634	-0,101	0,126
-269,570	-200,000	-0,025	0,274
-268,555	71,577	-0,048	0,036
-267,540	362,261	-0,042	0,061
-266,526	-200,000	-0,001	-0,066
-265,511	641,982	-0,034	-0,061
-264,497	800,000	0,074	-0,163
-263,482	168,283	0,084	-0,086
-262,467	-60,969	-0,052	0,016
-261,453	-26,289	0,056	0,024
-260,438	-76,756	-0,140	-0,035
-259,424	397,418	-0,033	-0,050
-258,409	-61,435	-0,086	-0,026
-257,395	-200,000	0,011	0,056
-256,380	800,000	-0,018	0,047
-255,365	-200,000	-0,011	0,040
-254,351	-92,935	-0,113	-0,022
-253,336	61,193	-0,090	0,064
-252,322	362,352	-0,044	-0,063
-251,307	-200,000	0,019	-0,114
-250,292	-200,000	-0,007	-0,112
-249,278	-200,000	-0,015	-0,105
-248,263	800,000	0,027	0,073
-247,249	-200,000	-0,001	-0,043
-246,234	800,000	-0,016	0,042
-245,219	438,815	-0,046	-0,073
-244,205	800,000	-0,045	0,132
-243,190	-200,000	0,013	0,064
-242,176	800,000	-0,020	0,046
-241,161	-200,000	-0,002	0,133
-240,146	-200,000	0,003	-0,022
-239,132	123,306	0,007	0,006
-238,117	235,994	-0,131	-0,156
-237,103	-76,148	-0,073	0,018
-236,088	800,000	-0,028	0,064
-235,073	-23,452	-0,057	0,024
-234,059	800,000	-0,022	0,064
-233,044	-30,978	0,187	0,075
-232,030	-200,000	0,011	0,151
-231,015	-200,000	-0,011	0,043
-230,000	-200,000	-0,025	-0,110
-228,986	20,950	0,036	0,021
-227,971	-46,602	0,099	-0,034
-226,957	-200,000	-0,023	-0,075
-225,942	-200,000	-0,019	-0,062
-224,927	179,413	0,072	-0,075
-223,913	-200,000	-0,047	-0,184
-222,898	490,381	0,051	-0,084
-221,884	-126,205	-0,194	0,021
-220,869	-200,000	0,002	-0,051
-219,855	111,597	0,067	0,057
-218,840	800,000	0,026	-0,062
-217,825	-200,000	-0,058	-0,209
-216,811	-200,000	0,003	-0,041
-215,796	-200,000	0,008	0,097
-214,782	-200,000	-0,006	0,118
-213,767	-168,953	0,112	-0,003
-212,752	377,656	0,043	-0,063
-211,738	32,278	0,045	-0,028
-210,723	-200,000	-0,010	0,053
-209,709	230,948	0,093	0,109
-208,694	-200,000	0,007	0,025
-207,679	-62,960	0,028	-0,008
-206,665	515,687	-0,063	-0,105
-205,650	14,345	0,078	0,043
-204,636	12,058	-0,137	0,075
-203,621	236,433	0,050	0,060
-202,606	541,445	-0,079	-0,134
-201,592	800,000	0,058	-0,133
-200,577	-200,000	-0,015	-0,055
-199,563	459,909	0,046	-0,073
-198,548	800,000	0,009	0,026
-197,533	179,508	0,103	0,108
-196,519	-87,060	0,180	-0,039
-195,504	-15,117	0,006	0,003
-194,490	-75,188	0,075	0,019
-193,475	152,372	-0,135	0,131
-192,460	106,437	-0,119	0,101
-191,446	3,067	0,137	0,071
-190,431	121,675	0,051	-0,045
-189,417	-200,000	-0,041	0,152
-188,402	-38,967	0,068	0,025
-187,387	241,528	-0,055	0,065
-186,373	48,368	-0,064	-0,042
-185,358	800,000	-0,035	-0,070
-184,344	800,000	0,022	0,057
-183,329	-200,000	0,017	-0,059
-182,315	-96,228	-0,021	-0,004
-181,300	-14,921	-0,033	0,015
-180,285	127,377	-0,137	-0,124
-179,271	-200,000	-0,053	-0,167
-178,256	-117,971	0,155	-0,020
-177,242	-27,584	0,108	-0,044
-176,227	-61,328	0,010	-0,003
-175,212	-94,169	0,086	0,017
-174,198	-200,000	-0,000	0,135
-173,183	-200,000	-0,025	-0,088
-172,169	-13,747	-0,098	0,045
-171,154	-200,000	0,016	-0,072
-170,139	97,124	0,018	0,015
-169,125	291,505	-0,021	-0,027
-168,110	-200,000	0,022	-0,079
-167,096	-200,000	-0,039	-0,169
-166,081	-106,432	-0,056	0,009
-165,066	61,312	-0,115	0,082
-164,052	-121,435	-0,116	0,014
-163,037	796,243	0,067	0,132
-162,023	-200,000	0,031	0,140
-161,008	-24,629	-0,042	-0,018
-159,993	-26,453	0,109	0,045
-158,979	800,000	-0,025	0,052
-157,964	-65,247	-0,103	-0,029
-156,950	-10,411	0,171	-0,081
-155,935	20,028	-0,087	0,050
-154,920	135,911	-0,062	0,057
-153,906	-70,085	-0,054	-0,015
-152,891	800,000	0,008	-0,022
-151,877	-31,888	0,046	0,018
-150,862	581,223	0,040	-0,071
-149,847	-60,085	-0,116	-0,035
-148,833	15,807	0,074	-0,041
-147,818	32,098	0,037	-0,023
-146,804	292,251	0,047	0,061
-145,789	-200,000	0,038	0,171
-144,775	260,223	0,073	-0,090
-143,760	87,026	-0,105	-0,082
-142,745	-89,845	-0,220	-0,045
-141,731	136,497	-0,089	-0,083
-140,716	118,678	0,054	0,048
-139,702	69,411	0,036	-0,026
-138,687	17,975	-0,164	0,093
-137,672	-200,000	-0,009	0,052
-136,658	275,546	0,005	0,007
-135,643	113,210	0,046	-0,040
-134,629	-142,348	0,061	0,004
-133,614	-200,000	0,022	0,114
-132,599	-16,778	-0,056	0,025
-131,585	340,327	0,041	0,057
-130,570	-4,736	0,037	-0,018
-129,556	800,000	-0,010	-0,031
-128,541	-200,000	-0,007	-0,045
-127,526	-200,000	0,017	0,057
-126,512	-34,153	0,109	-0,042
-125,497	287,599	0,027	0,035
-124,483	-53,927	0,097	-0,031
-123,468	347,169	0,071	-0,099
-122,453	310,914	-0,069	-0,092
-121,439	-200,000	-0,011	-0,075
-120,424	-200,000	0,010	-0,040
-119,410	-108,552	-0,068	-0,010
-118,395	-25,949	-0,061	-0,025
-117,380	800,000	0,026	-0,061
-116,366	93,773	-0,035	0,028
-115,351	-200,000	0,042	-0,164
-114,337	763,487	-0,029	-0,056
-113,322	69,447	-0,044	0,032
-112,307	57,801	-0,017	0,012
-111,293	604,689	-0,048	0,086
-110,278	51,634	-0,061	-0,041
-109,264	-47,708	0,064	-0,022
-108,249	-104,704	0,074	-0,012
-107,234	391,985	-0,062	-0,092
-106,220	619,487	-0,049	-0,089
-105,205	-42,255	0,082	-0,029
-104,191	-26,711	0,123	0,051
-103,176	-97,927	-0,079	-0,014
-102,162	-29,423	0,099	-0,040
-101,147	81,029	-0,077	-0,059
-100,132	622,959	0,022	-0,040
-99,118	-200,000	-0,027	-0,133
-98,103	-94,339	-0,112	0,021
-97,089	-200,000	0,003	-0,041
-96,074	-85,749	0,031	-0,007
-95,059	-200,000	-0,010	-0,115
-94,045	-200,000	0,007	0,060
-93,030	613,099	-0,022	-0,039
-92,016	-96,409	-0,116	0,022
-91,001	64,840	-0,057	0,041
-89,986	81,809	0,060	0,046
-88,972	-135,911	0,128	0,011
-87,957	-200,000	0,038	0,175
-86,943	800,000	-0,047	0,125
-85,928	-134,726	-0,100	-0,009
-84,913	211,064	-0,067	-0,075
-83,899	-200,000	0,017	0,081
-82,884	141,213	0,052	-0,049
-81,870	-200,000	0,014	0,207
-80,855	-200,000	0,008	-0,071
-79,840	-120,645	-0,045	0,005
-78,826	207,974	-0,109	-0,121
-77,811	34,566	-0,049	-0,030
-76,797	-200,000	0,018	0,076
-75,782	-200,000	0,009	0,064
-74,767	106,849	0,106	0,090
-73,753	-200,000	0,008	-0,030
-72,738	-200,000	0,003	-0,067
-71,724	-76,083	0,140	0,035
-70,709	-155,577	0,085	0,004
-69,694	-89,406	-0,084	-0,017
-68,680	-117,451	-0,149	-0,019
-67,665	800,000	0,020	0,054
-66,651	-200,000	0,023	0,121
-65,636	-200,000	-0,025	0,098
-64,622	-115,260	0,112	-0,015
-63,607	310,814	-0,026	-0,035
-62,592	-86,595	0,070	-0,015
-61,578	-6,968	0,140	-0,067
-60,563	-127,880	0,106	-0,011
-59,549	405,002	-0,022	0,032
-58,534	-101,284	-1,292	-0,222
-57,519	293,661	-1,659	-2,154
-56,505	-200,000	-0,547	-4,340
-55,490	176,159	0,830	0,856
-54,476	800,000	4,828	11,244
-53,461	-200,000	17,605	277,227
-52,446	800,000	719,034	2208,371
-51,432	557,732	1633,213	2803,881
-50,417	81,052	1657,250	1267,479
-49,403	23,974	1531,310	893,345
-48,388	17,931	1454,792	819,583
-47,373	18,324	1444,203	815,470
-46,359	17,963	1434,989	808,512
-45,344	16,251	1430,304	797,710
-44,330	16,164	1428,462	796,238
-43,315	16,232	1426,531	795,451
-42,300	16,215	1424,916	794,440
-41,286	16,254	1423,715	793,924
-40,271	16,235	1422,532	793,143
-39,257	16,207	1421,176	792,224
-38,242	16,312	1419,705	791,864
-37,227	16,276	1418,603	791,049
-36,213	16,224	1417,497	790,157
-35,198	16,239	1416,221	789,486
-34,184	16,260	1415,181	788,970
-33,169	16,148	1414,046	787,782
-32,154	16,206	1413,027	787,455
-31,140	16,259	1411,705	786,935
-30,125	16,329	1410,302	786,450
-29,111	16,254	1409,274	785,496
-28,096	16,214	1408,283	784,724
-27,082	16,117	1407,375	783,735
-26,067	16,176	1406,090	783,260
-25,052	16,200	1404,975	782,721
-24,038	16,151	1404,066	781,958
-23,023	16,111	1403,070	781,184
-22,009	16,120	1401,868	780,527
-20,994	16,104	1401,170	780,030
-19,979	16,112	1400,159	779,476
-18,965	16,043	1399,351	778,672
-17,950	16,106	1398,243	778,317
-16,936	16,121	1397,117	777,730
-15,921	16,072	1395,846	776,767
-14,906	16,096	1394,977	776,362
-13,892	16,103	1394,030	775,838
-12,877	16,094	1393,277	775,344
-11,863	16,042	1392,272	774,514
-10,848	16,058	1391,451	774,100
-9,833	16,048	1390,381	773,429
-8,819	16,001	1389,698	772,803
-7,804	15,989	1388,559	772,084
-6,790	15,970	1387,550	771,403
-5,775	15,959	1386,497	770,734
-4,760	15,942	1385,914	770,305
-3,746	15,968	1385,012	769,893
-2,731	15,942	1384,277	769,331
-1,717	15,922	1383,307	768,670
-0,702	15,964	1381,191	767,659
0,313	19,708	1302,461	741,175
1,327	36,066	707,102	440,313
2,342	54,660	125,552	85,671
3,356	3,329	16,461	8,465
4,371	2,638	3,108	1,591
5,386	-31,263	0,565	0,224
6,400	-200,000	0,021	0,106
7,415	25,980	-0,317	-0,187
8,429	162,053	-0,257	-0,256
9,444	79,873	-0,419	-0,318
10,459	181,828	-0,211	-0,220
11,473	31,632	-0,271	-0,165
12,488	67,556	-0,203	-0,146
13,502	138,563	-0,148	-0,137
14,517	52,048	-0,271	-0,183
15,531	144,221	-0,342	-0,323
16,546	-15,200	-0,395	-0,178
17,561	170,524	-0,381	-0,387
18,575	171,480	-0,150	-0,153
19,590	60,789	-0,267	-0,187
20,604	-13,044	-0,200	-0,092
21,619	72,032	-0,546	-0,402
22,634	176,557	-0,465	-0,479
23,648	74,253	-0,273	-0,202
24,663	45,977	-0,455	-0,297
25,677	260,280	-0,302	-0,370
26,692	165,082	-0,342	-0,342
27,707	46,030	-0,360	-0,235
28,721	213,862	-0,291	-0,326
29,736	19,075	-0,538	-0,304
30,750	137,690	-0,389	-0,361
31,765	182,167	-0,241	-0,252
32,780	82,222	-0,357	-0,273
33,794	269,717	-0,285	-0,355
34,809	11,393	-0,355	-0,192
35,823	70,227	-0,355	-0,259
36,838	48,782	-0,452	-0,299
37,853	133,287	-0,355	-0,324
38,867	93,144	-0,352	-0,281
39,882	66,743	-0,349	-0,251
40,896	271,072	-0,259	-0,323
41,911	-1,737	-0,334	-0,165
42,926	57,381	-0,479	-0,330
43,940	45,356	-0,458	-0,298
44,955	145,296	-0,388	-0,366
45,969	21,129	-0,391	-0,223
46,984	168,995	-0,267	-0,269
47,999	59,297	-0,320	-0,222
49,013	128,622	-0,481	-0,432
50,028	94,092	-0,303	-0,242
51,042	123,878	-0,315	-0,279
52,057	118,384	-0,332	-0,289
53,071	39,778	-0,448	-0,283
54,086	102,796	-0,382	-0,315
55,101	101,767	-0,309	-0,255
56,115	138,730	-0,355	-0,329
57,130	93,205	-0,355	-0,283
58,144	83,278	-0,318	-0,244
59,159	195,173	-0,318	-0,341
60,174	39,981	-0,361	-0,228
61,188	81,941	-0,322	-0,246
62,203	114,109	-0,352	-0,302
63,217	114,539	-0,281	-0,241
64,232	27,227	-0,327	-0,193
65,247	89,791	-0,302	-0,238
66,261	183,749	-0,352	-0,367
67,276	-33,705	-0,441	-0,171
68,290	38,101	-0,402	-0,251
69,305	12,589	-0,278	-0,151
70,320	116,530	-0,332	-0,287
71,334	223,339	-0,192	-0,219
72,349	-24,439	-0,364	-0,152
73,363	127,543	-0,363	-0,324
74,378	165,229	-0,347	-0,345
75,393	-29,455	-0,316	-0,127
76,407	30,768	-0,331	-0,199
77,422	491,417	-0,193	-0,312
78,436	19,824	-0,257	-0,145
79,451	-16,158	-0,378	-0,169
80,466	199,385	-0,323	-0,349
81,480	-130,519	-0,380	-0,036
82,495	94,718	-0,356	-0,284
83,509	12,496	-0,267	-0,145
84,524	204,189	-0,228	-0,249
85,539	54,912	-0,320	-0,217
86,553	-21,660	-0,354	-0,151
87,568	-11,387	-0,236	-0,109
88,582	99,569	-0,321	-0,261
89,597	0,686	-0,257	-0,129
90,611	169,951	-0,225	-0,227
91,626	338,299	-0,213	-0,292
92,641	-16,684	-0,324	-0,144
93,655	-54,658	-0,283	-0,089
94,670	74,052	-0,336	-0,248
95,684	109,245	-0,195	-0,164
96,699	41,882	-0,265	-0,168
97,714	34,522	-0,296	-0,181
98,728	164,554	-0,208	-0,206
99,743	73,065	-0,266	-0,195
100,757	296,050	-0,259	-0,334
101,772	76,596	-0,318	-0,237
102,787	336,970	-0,225	-0,307
103,801	315,941	-0,242	-0,322
104,816	-39,984	-0,315	-0,115
105,830	205,189	-0,252	-0,275
106,845	-51,283	-0,302	-0,099
107,860	798,337	-0,139	-0,270
108,874	21,656	-0,184	-0,105
109,889	232,361	-0,209	-0,241
110,903	7,977	-0,298	-0,156
111,918	305,782	-0,203	-0,266
112,933	731,900	-0,128	-0,241
113,947	-151,227	-0,319	-0,016
114,962	56,269	-0,229	-0,156
115,976	46,948	-0,242	-0,158
116,991	9,046	-0,213	-0,113
118,006	40,072	-0,247	-0,156
119,020	20,982	-0,366	-0,207
120,035	2,884	-0,237	-0,120
121,049	104,132	-0,246	-0,203
122,064	112,187	-0,265	-0,225
123,079	37,750	-0,220	-0,137
124,093	112,626	-0,290	-0,246
125,108	800,000	-0,174	-0,345
126,122	84,341	-0,219	-0,168
127,137	-168,021	-0,206	-0,006
128,151	-133,053	-0,241	-0,021
129,166	65,714	-0,198	-0,141
130,181	74,864	-0,283	-0,209
131,195	28,283	-0,305	-0,180
132,210	27,597	-0,335	-0,197
133,224	93,349	-0,210	-0,166
134,239	-200,000	-0,062	-0,203
135,254	3,061	-0,265	-0,134
136,268	23,914	-0,260	-0,150
137,283	85,867	-0,151	-0,116
138,297	140,323	-0,228	-0,211
139,312	-12,104	-0,372	-0,170
140,327	141,872	-0,268	-0,249
141,341	120,036	-0,238	-0,207
142,356	47,894	-0,293	-0,191
143,370	113,322	-0,161	-0,137
144,385	52,859	-0,247	-0,165
145,400	-17,269	-0,151	-0,066
146,414	168,265	-0,255	-0,254
147,429	257,105	-0,250	-0,301
148,443	212,743	-0,191	-0,211
149,458	76,803	-0,151	-0,112
150,473	-200,000	-0,046	-0,159
151,487	24,799	-0,303	-0,175
152,502	51,220	-0,301	-0,199
153,516	177,990	-0,345	-0,352
154,531	100,138	-0,246	-0,199
155,546	449,732	-0,147	-0,228
156,560	124,374	-0,114	-0,100
157,575	371,915	-0,177	-0,252
158,589	139,419	-0,167	-0,154
159,604	182,051	-0,193	-0,199
160,619	87,559	-0,277	-0,214
161,633	120,117	-0,268	-0,233
162,648	44,960	-0,201	-0,129
163,662	-60,367	-0,278	-0,082
164,677	-29,189	-0,362	-0,144
165,692	362,047	-0,138	-0,194
166,706	4,631	-0,254	-0,130
167,721	-56,076	-0,202	-0,062
168,735	275,619	-0,172	-0,213
169,750	-87,944	-0,224	-0,047
170,764	-51,270	-0,285	-0,093
171,779	-67,056	-0,231	-0,063
172,794	151,919	-0,116	-0,111
173,808	-128,127	-0,083	0,008
174,823	199,484	-0,252	-0,270
175,837	68,982	-0,281	-0,201
176,852	111,808	-0,219	-0,184
177,867	31,347	-0,224	-0,134
178,881	-36,215	-0,229	-0,086
179,896	-157,933	-0,101	0,004
180,910	207,651	-0,226	-0,246
181,925	-48,142	-0,218	-0,073
182,940	367,414	-0,155	-0,218
183,954	37,587	-0,356	-0,220
184,969	70,143	-0,234	-0,168
185,983	28,253	-0,309	-0,181
186,998	11,446	-0,192	-0,102
188,013	-14,927	-0,280	-0,125
189,027	40,703	-0,278	-0,174
190,042	348,735	-0,174	-0,240
191,056	119,647	-0,186	-0,161
192,071	423,220	-0,237	-0,356
193,086	-25,469	-0,098	-0,040
194,100	158,307	-0,214	-0,207
195,115	102,832	-0,209	-0,171
196,129	149,664	-0,169	-0,160
197,144	299,315	-0,170	-0,219
198,159	31,813	-0,323	-0,194
199,173	145,644	-0,160	-0,150
200,188	169,213	-0,217	-0,216
201,202	307,603	-0,173	-0,225
202,217	-32,401	-0,233	-0,090
203,232	52,565	-0,267	-0,177
204,246	55,893	-0,212	-0,143
205,261	-99,313	-0,205	-0,036
206,275	-66,497	-0,202	-0,056
207,290	-14,898	-0,221	-0,098
208,304	-48,646	-0,148	0,049
209,319	-150,903	-0,185	-0,010
210,334	26,516	-0,218	-0,127
211,348	230,495	-0,238	-0,271
212,363	309,176	-0,178	-0,232
213,377	-64,925	-0,240	-0,067
214,392	800,000	-0,075	-0,183
215,407	42,932	-0,167	-0,106
216,421	52,473	-0,257	-0,171
217,436	216,378	-0,200	-0,221
218,450	-87,537	-0,235	-0,049
219,465	275,150	-0,198	-0,244
220,480	-19,969	-0,303	-0,129
221,494	67,783	-0,121	-0,086
222,509	135,566	-0,138	-0,125
223,523	-59,528	-0,108	-0,032
224,538	50,909	-0,230	-0,151
225,553	3,196	-0,191	-0,096
226,567	-45,392	-0,150	-0,051
227,582	-93,100	-0,203	-0,039
228,596	-0,001	-0,210	-0,104
229,611	200,399	-0,132	-0,141
230,626	232,977	-0,105	-0,120
231,640	-98,613	-0,179	-0,031
232,655	102,293	-0,203	-0,165
233,669	27,361	-0,222	-0,129
234,684	151,770	-0,167	-0,158
235,699	150,029	-0,146	-0,137
236,713	118,999	-0,098	0,084
237,728	84,711	-0,103	-0,078
238,742	66,868	-0,278	-0,196
239,757	475,726	-0,104	-0,164
240,772	-131,061	-0,299	-0,027
241,786	-19,773	-0,200	-0,086
242,801	224,193	-0,212	-0,238
243,815	-0,340	-0,114	0,056
244,830	82,738	-0,212	-0,159
245,844	-5,115	-0,242	-0,115
246,859	95,694	-0,139	-0,110
247,874	99,446	-0,192	-0,154
248,888	800,000	-0,089	-0,261
249,903	-93,211	-0,145	-0,028
250,917	-50,234	-0,207	-0,068
251,932	388,187	-0,176	-0,253
252,947	-200,000	-0,027	-0,128
253,961	800,000	-0,066	-0,196
254,976	-40,442	-0,241	-0,086
255,990	36,478	-0,212	-0,129
257,005	-63,200	-0,296	-0,084
258,020	204,982	-0,147	-0,158
259,034	800,000	-0,112	-0,221
260,049	800,000	-0,057	-0,159
261,063	800,000	-0,081	-0,221
262,078	13,537	-0,205	-0,110
263,093	70,370	-0,133	-0,095
264,107	-6,460	-0,314	-0,147
265,122	51,161	-0,228	-0,150
266,136	47,520	-0,215	-0,139
267,151	-36,357	-0,150	-0,056
268,166	136,434	-0,167	-0,151
269,180	-33,541	-0,127	-0,048
270,195	-157,778	-0,186	-0,008
271,209	-21,512	-0,163	-0,068
272,224	-1,505	-0,127	-0,062
273,239	25,251	-0,175	-0,100
274,253	-68,039	-0,199	-0,053
275,268	-200,000	-0,049	-0,317
276,282	4,122	-0,162	-0,082
277,297	481,018	-0,135	-0,213
278,312	800,000	-0,072	-0,141
279,326	-200,000	-0,009	-0,094
280,341	154,069	-0,179	-0,170
281,355	553,989	-0,071	-0,119
282,370	-200,000	-0,095	-0,336
283,384	-200,000	-0,030	-0,177
284,399	800,000	-0,073	-0,166
285,414	73,723	-0,241	-0,174
286,428	326,407	-0,149	-0,197
287,443	145,905	-0,223	-0,207
288,457	60,392	-0,148	-0,101
289,472	48,508	-0,218	-0,141
290,487	6,972	-0,239	-0,123
291,501	156,154	-0,238	-0,227
292,516	105,437	-0,181	-0,148
293,530	-129,797	-0,186	-0,017
294,545	116,166	-0,011	0,010
295,560	-200,000	-0,017	-0,192
296,574	92,805	-0,193	-0,150
297,589	-79,653	-0,318	-0,073
298,603	32,043	-0,160	-0,095
299,618	800,000	-0,059	-0,163
300,633	-28,211	-0,129	-0,051
301,647	-54,831	-0,109	-0,034
302,662	397,253	-0,067	-0,097
303,676	171,396	-0,054	-0,053
304,691	410,505	-0,097	-0,142
305,706	-88,705	-0,157	-0,032
306,720	198,540	-0,099	-0,104
307,735	565,897	-0,084	-0,141
308,749	53,871	0,017	0,011
309,764	51,847	-0,059	-0,039
310,779	270,137	-0,078	-0,095
311,793	-200,000	-0,057	-0,255
312,808	266,711	-0,186	-0,225
313,822	144,459	-0,156	-0,144
314,837	425,170	-0,201	-0,299
315,852	95,851	-0,060	-0,048
316,866	392,844	-0,157	-0,226
317,881	-11,462	-0,069	-0,031
318,895	-76,698	-0,081	-0,019
319,910	-29,579	-0,120	-0,047
320,925	-78,952	0,033	0,008
321,939	-140,063	-0,101	0,007
322,954	-41,145	-0,046	0,016
323,968	68,083	-0,113	-0,080
324,983	-170,811	-0,077	-0,002
325,997	162,803	-0,122	-0,118
327,012	-104,940	-0,210	-0,033
328,027	68,380	-0,182	-0,128
329,041	419,428	-0,110	-0,163
330,056	-56,176	-0,076	-0,023
331,070	55,158	-0,152	0,101
332,085	-200,000	-0,017	-0,083
333,100	-58,086	-0,187	-0,056
334,114	24,575	-0,170	-0,096
335,129	800,000	-0,086	-0,175
336,143	800,000	-0,085	-0,208
337,158	-116,310	-0,157	-0,020
338,173	21,367	-0,187	-0,105
339,187	-29,857	-0,102	-0,040
340,202	86,900	-0,122	-0,093
341,216	-70,702	-0,089	-0,023
342,231	-200,000	-0,020	-0,066
343,246	494,484	-0,159	-0,252
344,260	-106,993	-0,146	-0,022
345,275	-200,000	-0,015	-0,102
346,289	774,802	-0,086	-0,161
347,304	16,482	-0,235	-0,128
348,319	195,957	-0,142	-0,149
349,333	-74,664	-0,080	-0,020
350,348	-3,579	-0,140	-0,067
351,362	40,065	-0,216	-0,133
352,377	-58,820	-0,102	-0,030
353,392	-103,674	-0,083	-0,013
354,406	-152,527	-0,114	0,005
355,421	210,305	1312,704	1417,766
356,435	161,898	1473,220	1418,309
