DTS Sentinel unit serial number:	SN410029Multiplexer serial number:	ORYXHardware model number:	OX2-SRSoftware version number:	ORYX F/W v4,00 Oryx Data Collector v3.7.2.0data status	okinstallation	B3 Nyhavnadifferential loss correction	single-endedforward channel	channel 1reverse channel	N/Adate	2023/12/04time	16:37:30forward acquisition time	300,00reverse acquisition time	0,00gamma	499,1914k internal	0,3199k external	0,3199temperature offset calibration	1,0000default loss term (dB/km)	0,3820temperature slope calibration	1,0000multiplexer offset coefficient	1,0000multiplexer slope coefficient	1,0000fibre end	0,00T internal ref (°C)	15,19T ext. ref 1 (°C)	0,19T ext. ref 2 (°C)	0,18length (m)	temperature (°C)	Stokes	anti-Stokes-744,400	184,245	-0,255	-0,275
-743,385	800,000	-0,062	0,176
-742,371	65,869	-0,180	-0,133
-741,356	-200,000	-0,011	0,374
-740,342	206,706	-0,113	-0,128
-739,327	-200,000	-0,040	0,182
-738,312	349,535	-0,249	-0,359
-737,298	327,271	-0,090	0,127
-736,283	64,869	-0,270	-0,198
-735,269	-200,000	-0,003	0,234
-734,254	36,284	-0,215	-0,137
-733,239	-69,893	-0,232	-0,064
-732,225	-200,000	-0,017	-0,241
-731,210	100,828	0,132	0,112
-730,196	739,410	-0,043	0,083
-729,181	800,000	-0,023	0,073
-728,167	-90,809	0,081	0,017
-727,152	359,279	0,074	-0,108
-726,137	304,823	0,041	-0,056
-725,123	162,561	-0,110	-0,112
-724,108	-200,000	-0,023	-0,086
-723,094	-46,281	-0,158	-0,056
-722,079	-38,119	-0,172	0,066
-721,064	-50,576	-0,197	-0,067
-720,050	151,766	0,037	-0,037
-719,035	-67,228	-0,155	0,044
-718,021	-200,000	-0,003	-0,038
-717,006	277,001	-0,055	-0,071
-715,991	19,353	-0,051	-0,030
-714,977	800,000	-0,018	-0,044
-713,962	257,771	-0,084	-0,105
-712,948	800,000	-0,041	0,101
-711,933	133,109	0,050	-0,047
-710,918	-200,000	0,009	-0,150
-709,904	800,000	0,074	-0,157
-708,889	800,000	-0,051	-0,139
-707,875	-14,816	-0,116	-0,054
-706,860	81,839	-0,079	-0,062
-705,845	637,648	-0,087	-0,161
-704,831	-170,499	0,130	0,003
-703,816	-76,431	0,091	0,023
-702,802	-200,000	0,022	-0,088
-701,787	485,987	0,066	-0,109
-700,772	-200,000	-0,003	0,027
-699,758	-32,555	-0,022	0,009
-698,743	-200,000	0,002	0,013
-697,729	800,000	-0,030	-0,080
-696,714	-70,458	0,066	0,018
-695,699	-200,000	0,015	-0,072
-694,685	115,637	-0,133	-0,118
-693,670	131,251	-0,209	-0,195
-692,656	800,000	0,048	-0,142
-691,641	-200,000	-0,002	0,059
-690,627	-6,766	0,048	-0,024
-689,612	527,623	0,013	-0,023
-688,597	-200,000	-0,040	-0,137
-687,583	-200,000	-0,001	-0,036
-686,568	-167,888	-0,148	-0,004
-685,554	-200,000	0,008	-0,040
-684,539	800,000	0,046	-0,096
-683,524	-43,735	0,078	0,028
-682,510	32,529	-0,043	-0,027
-681,495	-2,256	-0,007	0,003
-680,481	-200,000	-0,025	-0,086
-679,466	-200,000	-0,013	-0,062
-678,451	-63,207	0,032	-0,009
-677,437	41,214	0,033	-0,022
-676,422	368,316	0,050	0,073
-675,408	-200,000	-0,027	0,160
-674,393	302,758	0,055	-0,074
-673,378	-38,649	-0,113	-0,043
-672,364	-160,782	-0,100	0,004
-671,349	411,826	-0,065	-0,101
-670,335	-200,000	0,011	-0,068
-669,320	-156,523	0,046	0,002
-668,305	789,865	0,013	0,026
-667,291	-200,000	-0,012	-0,161
-666,276	-97,513	-0,109	0,020
-665,262	800,000	-0,032	-0,091
-664,247	-200,000	-0,006	0,041
-663,232	-200,000	0,021	0,073
-662,218	126,573	-0,033	0,030
-661,203	-200,000	-0,015	-0,087
-660,189	105,030	-0,071	-0,061
-659,174	378,418	0,027	-0,040
-658,159	-72,728	-0,056	-0,015
-657,145	67,244	-0,119	0,088
-656,130	-77,994	0,021	-0,005
-655,116	800,000	0,030	0,081
-654,101	458,356	0,043	-0,069
-653,086	800,000	-0,012	-0,033
-652,072	800,000	-0,011	-0,034
-651,057	-200,000	-0,040	-0,228
-650,043	16,972	-0,128	-0,073
-649,028	-192,189	-0,096	-0,001
-648,014	454,476	0,017	0,027
-646,999	20,854	0,165	-0,096
-645,984	-200,000	-0,009	-0,068
-644,970	-200,000	-0,012	0,145
-643,955	121,620	-0,083	-0,075
-642,941	19,147	-0,099	0,057
-641,926	800,000	-0,040	0,119
-640,911	245,550	-0,052	-0,064
-639,897	42,710	0,073	-0,048
-638,882	-200,000	-0,013	-0,107
-637,868	800,000	-0,041	0,101
-636,853	243,007	-0,098	-0,119
-635,838	-48,899	-0,130	0,045
-634,824	-36,821	0,172	0,067
-633,809	-118,209	-0,062	0,008
-632,795	195,944	-0,086	0,095
-631,780	-200,000	0,007	0,028
-630,765	57,442	-0,117	-0,083
-629,751	16,286	-0,104	-0,059
-628,736	116,613	-0,106	-0,094
-627,722	-27,529	-0,101	-0,042
-626,707	62,135	0,064	-0,046
-625,692	107,075	0,085	0,074
-624,678	-200,000	0,011	-0,047
-623,663	-6,979	0,080	0,039
-622,649	181,419	-0,026	-0,028
-621,634	800,000	0,023	0,060
-620,619	246,837	-0,046	0,056
-619,605	60,559	0,125	-0,089
-618,590	-200,000	-0,038	0,129
-617,576	27,213	0,113	-0,068
-616,561	125,917	0,083	0,076
-615,546	126,356	-0,080	-0,073
-614,532	409,230	0,113	-0,174
-613,517	351,758	-0,035	-0,050
-612,503	-200,000	-0,007	0,027
-611,488	-59,135	0,034	-0,010
-610,474	-200,000	0,036	0,115
-609,459	-100,966	-0,114	0,020
-608,444	-200,000	0,004	0,081
-607,430	615,422	-0,056	0,103
-606,415	-55,494	-0,070	-0,023
-605,401	238,537	0,053	-0,064
-604,386	-200,000	0,001	-0,025
-603,371	-200,000	0,046	-0,180
-602,357	212,874	-0,052	-0,059
-601,342	82,385	-0,086	0,068
-600,328	644,358	-0,012	0,022
-599,313	-27,374	-0,102	-0,043
-598,298	-200,000	-0,039	-0,170
-597,284	78,668	0,049	0,038
-596,269	503,993	-0,170	0,286
-595,255	-37,461	0,058	-0,022
-594,240	-8,005	-0,062	0,030
-593,225	191,383	-0,108	-0,118
-592,211	177,612	-0,015	0,016
-591,196	-21,574	0,147	-0,065
-590,182	-200,000	0,029	-0,104
-589,167	326,308	-0,026	0,036
-588,152	-200,000	0,011	0,060
-587,138	213,646	-0,094	0,107
-586,123	-125,690	0,064	0,007
-585,109	141,929	0,029	-0,028
-584,094	235,891	-0,051	-0,061
-583,079	-200,000	-0,016	0,067
-582,065	-127,406	0,047	-0,005
-581,050	295,867	-0,050	-0,066
-580,036	-30,385	0,018	-0,007
-579,021	453,225	0,004	-0,006
-578,006	-200,000	-0,021	-0,102
-576,992	-0,475	0,020	0,010
-575,977	541,162	-0,067	-0,116
-574,963	800,000	0,044	0,104
-573,948	176,110	0,113	0,119
-572,934	-95,077	0,070	-0,014
-571,919	434,584	0,056	0,088
-570,904	47,562	-0,023	-0,015
-569,890	-42,920	0,023	-0,008
-568,875	-200,000	-0,001	-0,087
-567,861	-52,659	-0,065	0,022
-566,846	800,000	-0,034	0,100
-565,831	-200,000	0,025	0,084
-564,817	35,051	-0,138	-0,087
-563,802	60,128	-0,048	-0,034
-562,788	264,631	0,048	-0,061
-561,773	-76,761	-0,043	-0,011
-560,758	4,788	0,201	0,106
-559,744	-26,567	-0,058	0,024
-558,729	154,639	0,064	-0,063
-557,715	800,000	0,046	-0,119
-556,700	-200,000	0,001	0,042
-555,685	-200,000	-0,002	-0,180
-554,671	78,244	0,010	0,008
-553,656	800,000	-0,033	-0,074
-552,642	-151,133	-0,029	-0,002
-551,627	345,026	0,050	0,072
-550,612	-50,681	0,099	0,033
-549,598	-200,000	0,023	0,097
-548,583	39,999	0,041	-0,027
-547,569	-200,000	-0,014	0,088
-546,554	445,738	0,005	0,007
-545,539	-200,000	0,010	-0,065
-544,525	552,745	0,065	0,113
-543,510	-128,099	0,052	-0,005
-542,496	-24,077	-0,101	-0,043
-541,481	121,021	0,068	0,061
-540,466	-10,341	-0,109	-0,052
-539,452	-28,858	0,052	-0,021
-538,437	141,927	0,049	0,047
-537,423	-54,874	0,101	0,033
-536,408	-60,446	0,012	0,004
-535,393	-92,895	-0,023	-0,005
-534,379	-200,000	0,011	-0,079
-533,364	516,461	0,093	0,158
-532,350	800,000	0,020	0,060
-531,335	480,423	0,049	0,081
-530,321	800,000	-0,080	0,187
-529,306	-200,000	-0,003	0,096
-528,291	-158,522	0,044	0,002
-527,277	800,000	0,034	-0,105
-526,262	599,671	-0,037	-0,067
-525,248	-48,746	-0,071	-0,024
-524,233	102,346	0,057	0,048
-523,218	211,689	0,034	-0,038
-522,204	-23,693	-0,151	-0,065
-521,189	384,685	0,055	-0,081
-520,175	-91,462	-0,095	-0,019
-519,160	-200,000	-0,014	-0,047
-518,145	800,000	0,037	0,105
-517,131	-200,000	-0,026	0,129
-516,116	341,427	-0,097	-0,137
-515,102	-200,000	0,004	0,030
-514,087	-200,000	-0,027	-0,155
-513,072	-54,613	0,059	0,019
-512,058	15,538	0,069	0,039
-511,043	-200,000	0,010	-0,049
-510,029	-93,260	0,093	-0,018
-509,014	-200,000	0,017	0,151
-507,999	187,602	0,026	0,028
-506,985	96,034	-0,025	0,020
-505,970	-200,000	-0,012	-0,114
-504,956	12,035	-0,099	-0,055
-503,941	11,119	-0,051	0,028
-502,926	-5,072	0,067	-0,033
-501,912	609,163	-0,026	0,047
-500,897	170,452	0,013	-0,014
-499,883	334,960	0,108	-0,151
-498,868	92,101	0,090	0,073
-497,853	-6,606	0,084	-0,041
-496,839	134,532	-0,060	-0,056
-495,824	343,376	0,013	0,018
-494,810	97,643	-0,052	-0,043
-493,795	-200,000	0,018	0,083
-492,781	-77,904	-0,059	0,014
-491,766	-13,940	0,047	0,022
-490,751	-107,046	0,124	0,020
-489,737	238,509	-0,040	0,048
-488,722	63,190	-0,041	-0,030
-487,708	-200,000	0,004	0,106
-486,693	800,000	-0,022	-0,060
-485,678	-200,000	0,004	0,154
-484,664	586,070	0,113	-0,201
-483,649	354,880	0,090	-0,129
-482,635	-21,762	0,068	0,030
-481,620	800,000	0,019	0,062
-480,605	-124,483	-0,088	0,010
-479,591	-115,680	0,062	0,008
-478,576	-200,000	-0,026	-0,146
-477,562	-12,928	-0,100	0,047
-476,547	800,000	-0,022	-0,066
-475,532	423,900	-0,070	-0,108
-474,518	-200,000	0,010	0,039
-473,503	-123,628	-0,110	0,012
-472,489	800,000	0,006	0,013
-471,474	-200,000	-0,012	-0,047
-470,459	-46,558	-0,060	-0,021
-469,445	414,093	-0,059	-0,091
-468,430	285,647	0,034	-0,044
-467,416	-200,000	0,000	0,122
-466,401	-121,713	-0,051	0,006
-465,386	-57,556	0,027	0,009
-464,372	-23,172	-0,073	-0,032
-463,357	24,887	-0,019	0,011
-462,343	-43,735	-0,164	0,059
-461,328	566,858	-0,022	-0,039
-460,313	-16,329	0,092	0,042
-459,299	-200,000	-0,032	-0,160
-458,284	309,369	-0,032	-0,043
-457,270	48,375	0,018	0,012
-456,255	39,235	-0,134	-0,086
-455,241	343,410	-0,041	-0,058
-454,226	-80,503	-0,075	-0,018
-453,211	-39,642	-0,022	0,008
-452,197	800,000	0,063	0,168
-451,182	58,408	0,093	0,066
-450,168	414,313	-0,063	0,097
-449,153	-120,279	-0,092	-0,011
-448,138	118,033	0,032	-0,029
-447,124	-23,091	-0,173	-0,075
-446,109	-24,998	0,093	0,040
-445,095	80,564	0,028	0,022
-444,080	800,000	0,040	-0,100
-443,065	-129,141	-0,105	-0,010
-442,051	-27,808	-0,027	-0,011
-441,036	323,490	-0,005	0,008
-440,022	-123,057	-0,088	0,010
-439,007	-200,000	-0,021	0,068
-437,992	264,989	-0,089	0,112
-436,978	-82,315	-0,066	0,015
-435,963	-105,364	0,132	-0,021
-434,949	-107,594	-0,093	0,014
-433,934	800,000	-0,019	-0,053
-432,919	-200,000	0,013	-0,077
-431,905	-165,403	-0,094	-0,003
-430,890	800,000	0,041	0,087
-429,876	800,000	-0,020	0,063
-428,861	8,388	0,138	-0,074
-427,846	800,000	0,012	-0,036
-426,832	-200,000	0,011	-0,063
-425,817	-121,236	0,143	0,017
-424,803	459,781	-0,040	0,065
-423,788	800,000	0,042	-0,110
-422,773	-150,109	0,118	-0,006
-421,759	-99,727	0,042	0,007
-420,744	800,000	-0,022	0,050
-419,730	-200,000	0,004	0,040
-418,715	-200,000	0,051	0,000
-417,701	218,441	0,100	-0,115
-416,686	-200,000	-0,028	-0,113
-415,671	800,000	0,058	0,121
-414,657	56,539	0,024	-0,017
-413,642	540,999	0,046	-0,079
-412,628	-37,415	-0,086	0,033
-411,613	126,385	-0,085	-0,077
-410,598	-16,562	0,123	-0,056
-409,584	-200,000	0,008	-0,040
-408,569	-70,853	0,047	0,013
-407,555	-38,079	0,042	0,016
-406,540	-77,648	-0,062	0,015
-405,525	-126,984	-0,074	-0,008
-404,511	-33,017	0,086	-0,034
-403,496	-200,000	0,015	-0,125
-402,482	54,086	0,077	-0,053
-401,467	800,000	0,031	0,089
-400,452	653,790	0,005	0,009
-399,438	36,238	0,099	-0,063
-398,423	-200,000	0,008	-0,108
-397,409	800,000	-0,084	-0,233
-396,394	322,437	-0,073	-0,100
-395,379	113,327	0,087	-0,076
-394,365	800,000	-0,042	0,106
-393,350	800,000	-0,049	0,128
-392,336	642,378	0,026	0,047
-391,321	-81,881	-0,069	0,016
-390,306	800,000	-0,071	0,180
-389,292	-200,000	0,019	-0,103
-388,277	69,794	-0,040	0,029
-387,263	-46,526	-0,111	0,039
-386,248	66,071	0,036	0,026
-385,233	10,976	0,146	-0,080
-384,219	224,474	-0,035	-0,041
-383,204	-200,000	0,010	-0,128
-382,190	-73,939	-0,087	0,023
-381,175	-200,000	0,056	-0,191
-380,160	-137,644	0,039	0,003
-379,146	800,000	-0,036	0,109
-378,131	121,698	-0,074	0,066
-377,117	285,624	0,035	-0,045
-376,102	-200,000	0,007	-0,058
-375,088	-170,890	-0,027	-0,001
-374,073	61,802	-0,021	0,015
-373,058	78,119	-0,103	-0,079
-372,044	-63,794	-0,065	-0,019
-371,029	145,163	0,073	-0,070
-370,015	24,050	0,111	0,065
-369,000	-160,650	0,150	0,006
-367,985	-200,000	-0,006	-0,062
-366,971	32,892	0,115	-0,071
-365,956	-200,000	0,026	0,087
-364,942	800,000	0,057	0,121
-363,927	40,888	-0,043	0,028
-362,912	1,596	0,179	0,092
-361,898	-23,798	-0,047	-0,020
-360,883	-98,078	0,070	0,013
-359,869	165,588	-0,067	0,068
-358,854	-6,573	0,060	-0,029
-357,839	-126,781	0,185	-0,019
-356,825	-69,928	-0,087	0,024
-355,810	-28,357	0,067	0,028
-354,796	585,769	0,042	0,075
-353,781	227,463	-0,038	-0,045
-352,766	-25,775	0,099	-0,041
-351,752	-92,242	0,161	0,032
-350,737	-1,711	0,129	0,065
-349,723	-13,266	-0,067	-0,031
-348,708	170,208	-0,028	-0,029
-347,693	313,057	-0,040	-0,053
-346,679	-200,000	0,005	0,112
-345,664	79,598	-0,028	0,021
-344,650	23,124	0,026	-0,015
-343,635	-114,996	0,042	0,006
-342,620	448,037	0,060	0,095
-341,606	800,000	0,030	0,069
-340,591	131,289	-0,063	-0,058
-339,577	56,214	0,045	-0,031
-338,562	-37,520	-0,046	-0,017
-337,548	800,000	-0,006	0,018
-336,533	420,154	-0,075	-0,116
-335,518	-200,000	-0,010	0,057
-334,504	178,777	-0,054	0,057
-333,489	413,969	0,079	-0,121
-332,475	800,000	-0,037	-0,101
-331,460	305,366	0,031	-0,041
-330,445	-62,782	-0,112	0,033
-329,431	12,115	0,083	-0,046
-328,416	800,000	0,059	0,160
-327,402	297,054	0,057	-0,074
-326,387	-0,221	-0,085	-0,043
-325,372	-200,000	-0,000	-0,081
-324,358	-28,674	-0,063	0,026
-323,343	562,131	0,034	0,059
-322,329	-200,000	-0,003	0,019
-321,314	446,486	0,107	0,170
-320,299	-200,000	0,001	0,130
-319,285	-84,897	-0,018	-0,004
-318,270	76,021	-0,153	0,116
-317,256	119,400	-0,076	0,067
-316,241	166,691	0,042	0,043
-315,226	166,371	-0,039	-0,040
-314,212	333,672	0,047	-0,065
-313,197	-101,823	-0,023	0,004
-312,183	-75,706	0,079	0,020
-311,168	-79,034	-0,129	-0,031
-310,153	-160,330	-0,111	0,004
-309,139	800,000	-0,036	-0,107
-308,124	-200,000	0,019	-0,069
-307,110	445,130	-0,050	0,079
-306,095	136,180	0,042	0,039
-305,080	-84,074	-0,061	-0,014
-304,066	800,000	-0,021	0,063
-303,051	252,900	-0,136	-0,166
-302,037	-58,299	0,097	0,030
-301,022	800,000	-0,033	-0,095
-300,008	-28,407	-0,130	-0,053
-298,993	-200,000	-0,021	0,180
-297,978	-37,471	-0,013	-0,005
-296,964	-200,000	-0,003	-0,072
-295,949	413,450	0,034	0,052
-294,935	-81,690	0,122	-0,028
-293,920	-200,000	-0,023	-0,184
-292,905	-24,565	0,095	-0,040
-291,891	89,546	-0,025	0,020
-290,876	-109,064	0,057	0,009
-289,862	68,447	-0,127	-0,093
-288,847	-200,000	0,012	-0,090
-287,832	800,000	-0,052	-0,114
-286,818	-192,194	0,225	0,001
-285,803	231,829	-0,047	-0,055
-284,789	-88,129	0,048	0,010
-283,774	-200,000	-0,006	0,077
-282,759	205,850	-0,115	-0,128
-281,745	-83,202	0,049	-0,011
-280,730	437,603	0,036	-0,057
-279,716	800,000	-0,019	-0,048
-278,701	-7,368	-0,056	-0,027
-277,686	88,502	-0,061	0,048
-276,672	45,096	0,015	0,010
-275,657	12,460	0,021	-0,011
-274,643	325,892	0,045	-0,061
-273,628	-194,665	-0,060	0,000
-272,613	-80,455	0,105	-0,025
-271,599	-200,000	0,021	0,116
-270,584	-200,000	0,034	0,156
-269,570	-200,000	0,005	-0,046
-268,555	142,581	-0,055	0,052
-267,540	-90,390	-0,040	0,008
-266,526	800,000	0,034	0,088
-265,511	264,326	-0,136	0,170
-264,497	-77,254	0,085	-0,021
-263,482	-127,430	0,090	0,009
-262,467	-39,579	0,064	0,024
-261,453	-18,863	-0,186	0,082
-260,438	274,654	-0,051	-0,064
-259,424	-18,078	0,158	0,070
-258,409	-200,000	0,003	0,030
-257,395	-0,302	0,047	0,024
-256,380	-200,000	-0,050	0,160
-255,365	-200,000	-0,002	-0,038
-254,351	153,385	0,026	0,026
-253,336	-200,000	-0,021	-0,104
-252,322	354,031	-0,051	-0,072
-251,307	800,000	0,035	-0,071
-250,292	-118,105	-0,054	0,007
-249,278	-144,818	0,253	-0,016
-248,263	-200,000	0,019	0,192
-247,249	39,557	-0,137	0,088
-246,234	69,631	-0,092	-0,067
-245,219	-200,000	0,028	-0,095
-244,205	-52,310	-0,095	0,031
-243,190	-155,911	-0,167	-0,007
-242,176	499,778	0,057	-0,093
-241,161	-51,313	0,128	0,043
-240,146	-200,000	0,004	0,159
-239,132	2,710	0,161	0,083
-238,117	157,924	0,086	0,085
-237,103	-138,495	-0,119	-0,009
-236,088	-200,000	-0,004	0,017
-235,073	121,721	0,132	0,118
-234,059	84,325	0,078	0,060
-233,044	16,911	-0,062	0,035
-232,030	188,095	0,048	0,051
-231,015	-200,000	-0,003	-0,077
-230,000	180,267	0,062	-0,064
-228,986	176,252	-0,064	0,066
-227,971	-176,025	0,192	0,004
-226,957	-200,000	-0,004	-0,042
-225,942	393,274	0,100	0,150
-224,927	490,984	0,024	-0,039
-223,913	322,612	-0,095	0,129
-222,898	5,279	-0,038	0,020
-221,884	-117,896	0,110	-0,014
-220,869	-200,000	-0,010	0,031
-219,855	278,032	-0,062	-0,079
-218,840	270,456	0,093	0,116
-217,825	800,000	-0,098	0,197
-216,811	-200,000	0,017	0,080
-215,796	468,911	-0,051	-0,083
-214,782	-200,000	-0,045	-0,145
-213,767	800,000	0,014	-0,029
-212,752	674,258	0,089	0,165
-211,738	-60,485	-0,094	0,028
-210,723	74,177	-0,082	0,061
-209,709	-200,000	0,013	-0,115
-208,694	-200,000	-0,003	-0,145
-207,679	87,968	0,046	-0,037
-206,665	-5,766	-0,036	0,017
-205,650	514,124	-0,011	-0,019
-204,636	549,186	-0,094	0,161
-203,621	244,204	0,084	0,100
-202,606	-99,606	-0,077	0,014
-201,592	41,285	-0,114	-0,073
-200,577	-200,000	-0,002	-0,061
-199,563	-200,000	-0,018	-0,121
-198,548	-19,906	0,022	0,010
-197,533	33,751	0,150	-0,093
-196,519	355,299	-0,075	0,106
-195,504	56,583	0,162	-0,112
-194,490	-200,000	-0,005	-0,187
-193,475	53,742	-0,102	0,070
-192,460	64,503	0,114	0,082
-191,446	-117,193	-0,109	0,014
-190,431	260,165	0,033	-0,041
-189,417	-200,000	0,025	0,082
-188,402	-200,000	0,013	0,052
-187,387	168,045	-0,072	-0,073
-186,373	304,028	0,063	0,083
-185,358	251,673	0,081	0,098
-184,344	800,000	-0,034	0,101
-183,329	67,596	-0,046	-0,034
-182,315	-155,061	-0,078	-0,004
-181,300	220,451	0,037	0,042
-180,285	-113,745	0,065	-0,009
-179,271	800,000	-0,041	-0,121
-178,256	99,713	-0,050	0,041
-177,242	122,172	0,094	0,083
-176,227	-116,489	-0,039	0,005
-175,212	-96,303	-0,096	0,018
-174,198	-114,591	0,116	-0,016
-173,183	-53,940	-0,086	-0,028
-172,169	-56,972	0,182	-0,057
-171,154	800,000	-0,019	0,039
-170,139	728,919	0,059	-0,113
-169,125	800,000	-0,042	-0,114
-168,110	-120,565	0,044	-0,005
-167,096	206,027	-0,075	-0,083
-166,081	59,365	-0,071	-0,050
-165,066	270,097	-0,067	-0,084
-164,052	66,526	0,023	-0,017
-163,037	-200,000	-0,031	0,161
-162,023	800,000	0,024	0,048
-161,008	-200,000	0,016	0,103
-159,993	-171,642	-0,155	0,004
-158,979	292,078	0,068	0,088
-157,964	-38,452	-0,141	0,053
-156,950	-67,808	0,064	0,018
-155,935	793,051	-0,013	0,026
-154,920	-13,047	-0,043	-0,020
-153,906	-200,000	0,014	0,097
-152,891	274,252	-0,026	-0,033
-151,877	-59,815	-0,113	-0,034
-150,862	800,000	0,056	-0,113
-149,847	-74,249	0,078	-0,020
-148,833	-105,376	-0,099	-0,016
-147,818	230,751	0,024	-0,028
-146,804	520,258	0,058	0,097
-145,789	-200,000	0,012	0,230
-144,775	-63,569	-0,158	0,046
-143,760	-12,733	-0,091	-0,042
-142,745	-158,166	0,119	0,005
-141,731	-200,000	-0,002	0,006
-140,716	-42,483	-0,070	0,025
-139,702	-36,967	0,058	0,022
-138,687	-200,000	-0,036	0,161
-137,672	-53,346	-0,190	-0,061
-136,658	-50,189	0,043	0,014
-135,643	20,165	-0,035	-0,020
-134,629	102,695	-0,025	-0,021
-133,614	800,000	0,012	0,027
-132,599	-149,462	-0,033	-0,002
-131,585	-156,129	0,079	0,003
-130,570	800,000	0,043	-0,136
-129,556	-200,000	0,014	-0,085
-128,541	-102,764	-0,110	-0,018
-127,526	-200,000	-0,007	-0,058
-126,512	301,261	0,124	0,163
-125,497	800,000	0,046	0,109
-124,483	-200,000	-0,003	-0,109
-123,468	-200,000	-0,023	-0,133
-122,453	38,524	-0,079	-0,050
-121,439	800,000	0,039	0,083
-120,424	-200,000	-0,001	-0,084
-119,410	-61,056	0,110	-0,033
-118,395	-200,000	-0,018	-0,096
-117,380	800,000	-0,047	0,104
-116,366	64,094	0,108	0,077
-115,351	800,000	-0,040	0,087
-114,337	-21,234	-0,215	-0,093
-113,322	201,319	0,066	0,073
-112,307	533,221	-0,076	-0,128
-111,293	-200,000	0,017	-0,117
-110,278	-160,892	-0,065	-0,002
-109,264	-13,176	0,076	0,035
-108,249	6,570	-0,092	-0,049
-107,234	-91,230	-0,139	0,028
-106,220	800,000	0,005	-0,013
-105,205	-200,000	0,012	-0,096
-104,191	-21,748	0,113	0,048
-103,176	46,644	0,085	-0,056
-102,162	-200,000	0,006	-0,052
-101,147	295,971	0,046	0,060
-100,132	-200,000	-0,042	-0,133
-99,118	-200,000	-0,001	-0,040
-98,103	-123,954	0,077	0,009
-97,089	-200,000	0,002	0,012
-96,074	800,000	0,030	0,094
-95,059	34,510	-0,056	-0,035
-94,045	800,000	-0,026	0,078
-93,030	178,975	-0,059	0,061
-92,016	168,313	-0,082	-0,083
-91,001	-192,536	-0,084	-0,001
-89,986	609,678	0,080	-0,143
-88,972	319,733	-0,042	-0,056
-87,957	23,111	0,093	-0,054
-86,943	-200,000	-0,002	-0,017
-85,928	-115,182	0,086	-0,011
-84,913	-155,092	-0,040	-0,002
-83,899	668,148	0,023	-0,042
-82,884	-75,060	0,113	-0,029
-81,870	-200,000	-0,036	0,119
-80,855	800,000	-0,043	0,118
-79,840	-200,000	0,028	0,108
-78,826	-187,703	-0,238	-0,002
-77,811	800,000	-0,068	-0,209
-76,797	423,100	0,052	0,080
-75,782	141,636	0,079	-0,074
-74,767	-52,554	0,150	0,049
-73,753	187,834	0,037	0,039
-72,738	-60,320	0,056	-0,017
-71,724	-104,158	-0,055	0,009
-70,709	-143,346	-0,123	-0,008
-69,694	80,102	0,039	-0,030
-68,680	-54,740	0,170	0,054
-67,665	-178,601	0,015	-0,000
-66,651	6,210	-0,117	0,061
-65,636	-19,647	0,272	-0,119
-64,622	800,000	0,027	0,058
-63,607	474,046	-0,020	-0,032
-62,592	43,536	0,052	-0,034
-61,578	800,000	0,043	0,119
-60,563	-100,976	0,065	-0,011
-59,549	800,000	0,034	0,074
-58,534	-55,699	-1,436	-0,452
-57,519	315,862	-1,614	-2,163
-56,505	-200,000	-0,565	-4,565
-55,490	118,094	1,050	0,917
-54,476	800,000	4,777	11,315
-53,461	-200,000	18,085	287,768
-52,446	800,000	727,021	2226,319
-51,432	553,865	1642,651	2809,021
-50,417	79,542	1665,128	1264,426
-49,403	23,041	1539,081	892,138
-48,388	16,994	1462,469	818,437
-47,373	17,967	1452,224	817,359
-46,359	17,399	1442,740	809,273
-45,344	15,327	1437,917	796,643
-44,330	15,269	1436,017	795,283
-43,315	15,276	1434,306	794,334
-42,300	15,186	1432,929	793,114
-41,286	15,301	1431,484	792,828
-40,271	15,220	1430,417	791,820
-39,257	15,252	1429,035	791,176
-38,242	15,311	1427,522	790,585
-37,227	15,322	1426,435	790,008
-36,213	15,318	1425,191	789,268
-35,198	15,294	1424,093	788,514
-34,184	15,300	1423,144	787,986
-33,169	15,250	1421,861	787,009
-32,154	15,293	1421,076	786,744
-31,140	15,276	1419,696	785,869
-30,125	15,325	1418,432	785,370
-29,111	15,342	1417,283	784,784
-28,096	15,300	1416,233	783,973
-27,082	15,249	1415,141	783,098
-26,067	15,246	1413,982	782,408
-25,052	15,226	1413,029	781,760
-24,038	15,244	1411,732	781,092
-23,023	15,228	1410,952	780,557
-22,009	15,158	1410,033	779,690
-20,994	15,183	1409,028	779,220
-19,979	15,186	1408,121	778,703
-18,965	15,137	1407,133	777,896
-17,950	15,134	1406,163	777,314
-16,936	15,160	1405,206	776,874
-15,921	15,163	1404,036	776,212
-14,906	15,133	1403,183	775,571
-13,892	15,124	1402,332	775,029
-12,877	15,120	1401,212	774,358
-11,863	15,088	1400,509	773,788
-10,848	15,084	1399,652	773,266
-9,833	15,099	1398,464	772,647
-8,819	15,039	1397,692	771,914
-7,804	14,985	1396,847	771,166
-6,790	15,027	1395,832	770,770
-5,775	15,019	1394,767	770,114
-4,760	14,990	1393,967	769,508
-3,746	15,012	1393,235	769,175
-2,731	15,003	1392,208	768,536
-1,717	15,010	1391,407	768,096
-0,702	15,018	1389,438	767,016
0,313	18,842	1308,948	740,280
1,327	35,288	707,666	438,380
2,342	54,084	125,145	85,069
3,356	4,159	16,618	8,583
4,371	9,211	3,135	1,672
5,386	-59,474	0,681	0,206
6,400	-200,000	0,025	0,087
7,415	39,157	-0,309	-0,195
8,429	53,374	-0,236	-0,160
9,444	135,590	-0,231	-0,213
10,459	94,779	-0,228	-0,183
11,473	12,304	-0,404	-0,219
12,488	32,089	-0,303	-0,184
13,502	172,189	-0,283	-0,288
14,517	148,270	-0,206	-0,197
15,531	215,951	-0,336	-0,378
16,546	178,368	-0,337	-0,349
17,561	79,853	-0,420	-0,319
18,575	-147,132	-0,254	-0,015
19,590	194,813	-0,213	-0,228
20,604	-63,803	-0,202	-0,058
21,619	187,005	-0,394	-0,415
22,634	84,319	-0,408	-0,315
23,648	69,879	-0,582	-0,424
24,663	101,047	-0,333	-0,274
25,677	467,131	-0,233	-0,370
26,692	124,797	-0,213	-0,189
27,707	49,995	-0,244	-0,162
28,721	32,824	-0,390	-0,238
29,736	213,472	-0,388	-0,433
30,750	113,223	-0,439	-0,376
31,765	121,463	-0,362	-0,319
32,780	46,147	-0,384	-0,251
33,794	30,544	-0,314	-0,189
34,809	212,691	-0,309	-0,345
35,823	-16,266	-0,483	-0,215
36,838	164,573	-0,339	-0,338
37,853	44,704	-0,459	-0,297
38,867	213,086	-0,311	-0,347
39,882	2,450	-0,373	-0,190
40,896	66,202	-0,454	-0,325
41,911	-62,537	-0,324	-0,094
42,926	107,672	-0,378	-0,317
43,940	79,227	-0,418	-0,316
44,955	30,711	-0,361	-0,217
45,969	52,165	-0,448	-0,300
46,984	14,487	-0,348	-0,191
47,999	60,902	-0,211	-0,147
49,013	189,754	-0,216	-0,228
50,028	-4,787	-0,433	-0,210
51,042	59,192	-0,409	-0,283
52,057	40,404	-0,299	-0,189
53,071	167,776	-0,329	-0,330
54,086	53,120	-0,252	-0,170
55,101	48,788	-0,459	-0,303
56,115	5,022	-0,348	-0,180
57,130	24,717	-0,499	-0,290
58,144	215,770	-0,318	-0,356
59,159	141,419	-0,336	-0,314
60,174	1,645	-0,330	-0,167
61,188	181,968	-0,334	-0,347
62,203	49,496	-0,443	-0,293
63,217	116,031	-0,308	-0,266
64,232	113,827	-0,219	-0,187
65,247	-30,925	-0,382	-0,151
66,261	44,004	-0,375	-0,242
67,276	79,122	-0,288	-0,217
68,290	-14,809	-0,356	-0,160
69,305	-3,803	-0,400	-0,195
70,320	62,673	-0,343	-0,241
71,334	87,626	-0,337	-0,262
72,349	200,477	-0,294	-0,318
73,363	93,542	-0,269	-0,214
74,378	86,557	-0,249	-0,193
75,393	61,102	-0,322	-0,224
76,407	110,171	-0,243	-0,205
77,422	150,231	-0,270	-0,258
78,436	605,256	-0,109	-0,192
79,451	47,593	-0,355	-0,232
80,466	-23,880	-0,258	-0,108
81,480	-20,095	-0,391	-0,169
82,495	121,995	-0,308	-0,270
83,509	206,753	-0,185	-0,202
84,524	19,877	-0,224	-0,127
85,539	17,918	-0,285	-0,159
86,553	-106,565	-0,229	-0,035
87,568	-137,620	-0,339	-0,026
88,582	61,682	-0,345	-0,241
89,597	276,601	-0,192	-0,240
90,611	9,852	-0,184	-0,098
91,626	13,116	-0,192	-0,104
92,641	32,025	-0,335	-0,202
93,655	-48,521	-0,402	-0,135
94,670	-4,550	-0,273	-0,132
95,684	175,125	-0,208	-0,212
96,699	56,916	-0,310	-0,212
97,714	315,637	-0,191	-0,254
98,728	-16,941	-0,271	-0,119
99,743	22,502	-0,303	-0,173
100,757	-39,722	-0,289	-0,106
101,772	37,699	-0,286	-0,178
102,787	185,679	-0,236	-0,246
103,801	153,276	-0,274	-0,264
104,816	100,025	-0,243	-0,198
105,830	314,398	-0,199	-0,264
106,845	409,759	-0,148	-0,220
107,860	201,540	-0,191	-0,207
108,874	107,500	-0,169	-0,141
109,889	14,381	-0,262	-0,143
110,903	102,442	-0,239	-0,196
111,918	135,895	-0,173	-0,158
112,933	-129,262	-0,369	-0,036
113,947	-14,019	-0,205	-0,092
114,962	17,129	-0,287	-0,159
115,976	98,506	-0,228	-0,184
116,991	174,247	-0,216	-0,219
118,006	188,486	-0,285	-0,299
119,020	251,967	-0,120	-0,143
120,035	-36,837	-0,225	-0,084
121,049	82,783	-0,245	-0,187
122,064	-86,600	-0,231	-0,049
123,079	48,372	-0,280	-0,183
124,093	-8,704	-0,198	-0,093
125,108	298,461	-0,235	-0,304
126,122	12,759	-0,290	-0,156
127,137	-43,546	-0,300	-0,105
128,151	16,301	-0,207	-0,114
129,166	147,855	-0,186	-0,176
130,181	76,383	-0,264	-0,196
131,195	88,763	-0,235	-0,183
132,210	800,000	-0,148	-0,291
133,224	73,069	-0,229	-0,167
134,239	80,049	-0,277	-0,208
135,254	191,801	-0,187	-0,198
136,268	-118,295	-0,389	-0,048
137,283	-135,727	-0,309	0,025
138,297	224,277	-0,229	-0,259
139,312	79,052	-0,383	-0,286
140,327	-95,983	-0,367	-0,068
141,341	-4,788	-0,209	-0,100
142,356	18,667	-0,257	-0,143
143,370	-44,175	-0,354	-0,123
144,385	95,280	-0,227	-0,181
145,400	-7,207	-0,361	-0,171
146,414	156,508	-0,218	-0,211
147,429	153,048	-0,216	-0,207
148,443	30,572	-0,229	-0,137
149,458	800,000	-0,089	-0,201
150,473	72,547	-0,337	-0,245
151,487	-58,532	-0,347	-0,105
152,502	-7,253	-0,395	-0,187
153,516	395,194	-0,267	-0,391
154,531	-5,087	-0,406	-0,194
155,546	-39,238	-0,217	-0,079
156,560	5,772	-0,330	-0,170
157,575	716,406	-0,176	-0,328
158,589	538,412	-0,119	-0,198
159,604	339,742	-0,159	-0,217
160,619	196,624	-0,224	-0,239
161,633	330,501	-0,174	-0,235
162,648	229,219	-0,225	-0,257
163,662	-73,219	-0,227	-0,058
164,677	106,381	-0,207	-0,172
165,692	65,333	-0,256	-0,180
166,706	349,305	-0,212	-0,293
167,721	151,986	-0,197	-0,188
168,735	163,238	-0,200	-0,196
169,750	203,861	-0,162	-0,176
170,764	800,000	-0,056	-0,123
171,779	204,142	-0,215	-0,233
172,794	43,373	-0,142	-0,090
173,808	116,225	-0,150	-0,128
174,823	-80,654	-0,286	-0,066
175,837	96,369	-0,200	-0,160
176,852	695,003	-0,125	-0,230
177,867	225,302	-0,188	-0,213
178,881	89,144	-0,203	-0,158
179,896	95,289	-0,248	-0,197
180,910	796,396	-0,135	-0,260
181,925	50,465	-0,223	-0,146
182,940	364,427	-0,167	-0,234
183,954	22,473	-0,220	-0,125
184,969	197,799	-0,127	-0,135
185,983	203,046	-0,085	-0,091
186,998	414,501	-0,072	-0,106
188,013	-9,379	-0,237	-0,110
189,027	203,288	-0,261	-0,281
190,042	111,359	-0,176	-0,148
191,056	101,105	-0,189	-0,153
192,071	125,433	-0,140	-0,123
193,086	246,741	-0,195	-0,229
194,100	365,383	-0,119	-0,167
195,115	211,901	-0,238	-0,261
196,129	88,161	-0,209	-0,161
197,144	228,674	-0,220	-0,250
198,159	-19,260	-0,174	-0,075
199,173	125,010	-0,239	-0,210
200,188	63,864	-0,204	-0,142
201,202	-200,000	-0,025	-0,126
202,217	240,188	-0,173	-0,201
203,232	41,503	-0,152	-0,096
204,246	-34,233	-0,361	-0,137
205,261	188,536	-0,256	-0,267
206,275	150,694	-0,198	-0,187
207,290	619,294	-0,093	-0,163
208,304	-20,288	-0,169	-0,072
209,319	-113,787	-0,219	-0,029
210,334	70,295	-0,220	-0,158
211,348	3,339	-0,271	-0,137
212,363	251,532	-0,175	-0,208
213,377	498,080	-0,070	-0,112
214,392	215,829	-0,172	-0,190
215,407	712,401	-0,058	-0,108
216,421	94,139	-0,086	-0,068
217,436	127,112	-0,210	-0,185
218,450	742,593	-0,111	-0,209
219,465	800,000	-0,098	-0,223
220,480	800,000	-0,084	-0,227
221,494	4,526	-0,228	-0,116
222,509	140,420	-0,160	-0,147
223,523	49,725	-0,155	-0,101
224,538	414,759	-0,104	-0,154
225,553	366,580	-0,117	-0,164
226,567	-73,404	-0,275	-0,069
227,582	8,686	-0,164	-0,086
228,596	610,937	-0,110	-0,192
229,611	-200,000	-0,049	-0,207
230,626	-150,127	-0,206	0,011
231,640	-200,000	0,003	-0,211
232,655	100,566	-0,193	-0,155
233,669	169,701	-0,186	-0,184
234,684	150,735	-0,160	-0,151
235,699	8,402	-0,158	-0,082
236,713	-49,098	-0,158	0,052
237,728	4,667	-0,148	-0,075
238,742	96,319	-0,222	-0,176
239,757	-51,419	-0,311	-0,100
240,772	75,229	-0,312	-0,228
241,786	126,764	-0,186	-0,163
242,801	10,295	-0,172	-0,091
243,815	-31,905	-0,090	-0,035
244,830	-48,923	-0,185	-0,061
245,844	-53,593	-0,321	-0,101
246,859	603,428	-0,112	-0,194
247,874	-8,282	-0,234	-0,109
248,888	-56,423	-0,168	-0,051
249,903	394,187	-0,153	-0,222
250,917	153,208	-0,188	-0,178
251,932	-11,224	-0,149	-0,068
252,947	51,455	-0,162	-0,106
253,961	22,807	-0,221	-0,125
254,976	28,501	-0,233	-0,136
255,990	136,231	-0,228	-0,206
257,005	268,173	-0,126	-0,153
258,020	-153,024	-0,097	-0,005
259,034	-79,980	-0,150	-0,035
260,049	-98,748	-0,126	-0,022
261,063	52,279	-0,226	-0,149
262,078	41,979	-0,187	-0,117
263,093	-52,145	-0,282	-0,090
264,107	93,944	-0,175	-0,137
265,122	346,972	-0,111	-0,151
266,136	209,847	-0,180	-0,195
267,151	-80,386	-0,260	0,060
268,166	-5,520	-0,183	-0,087
269,180	498,449	-0,180	-0,287
270,195	-32,792	-0,230	-0,088
271,209	48,912	-0,179	-0,116
272,224	10,759	-0,300	-0,158
273,239	-107,665	-0,257	-0,038
274,253	24,721	-0,215	-0,123
275,268	800,000	-0,025	-0,049
276,282	215,871	-0,133	-0,146
277,297	-112,296	-0,174	0,024
278,312	14,194	-0,223	-0,120
279,326	-200,000	-0,038	-0,141
280,341	-148,713	-0,061	0,003
281,355	38,585	-0,176	-0,108
282,370	-164,691	-0,166	0,005
283,384	381,444	-0,134	-0,190
284,399	-12,271	-0,291	-0,131
285,414	517,672	-0,181	-0,294
286,428	40,369	-0,155	-0,096
287,443	-119,554	-0,156	0,018
288,457	-200,000	-0,076	-0,000
289,472	800,000	-0,056	-0,164
290,487	67,567	-0,186	-0,131
291,501	-21,191	-0,218	-0,091
292,516	176,934	-0,044	-0,044
293,530	557,295	-0,057	-0,095
294,545	-93,791	-0,101	-0,019
295,560	-191,123	-0,044	0,000
296,574	800,000	-0,099	-0,195
297,589	-53,020	-0,266	-0,084
298,603	-96,869	-0,293	-0,053
299,618	651,020	-0,131	-0,232
300,633	800,000	-0,089	-0,207
301,647	189,544	-0,069	-0,071
302,662	-86,901	-0,104	-0,022
303,676	-43,652	-0,138	-0,048
304,691	484,498	-0,043	-0,068
305,706	48,264	-0,148	-0,096
306,720	475,665	-0,067	-0,104
307,735	233,592	-0,086	-0,098
308,749	800,000	-0,094	-0,206
309,764	505,051	-0,101	-0,162
310,779	143,107	-0,024	-0,022
311,793	-126,603	-0,170	0,017
312,808	210,004	-0,150	-0,162
313,822	257,433	-0,071	0,085
314,837	800,000	-0,074	-0,170
315,852	507,047	-0,131	-0,210
316,866	800,000	-0,029	-0,080
317,881	-200,000	-0,034	-0,264
318,895	800,000	-0,079	-0,186
319,910	310,654	-0,109	-0,142
320,925	90,465	-0,145	-0,111
321,939	73,156	-0,156	-0,112
322,954	21,593	-0,056	-0,032
323,968	-8,430	-0,114	-0,053
324,983	304,403	-0,130	-0,167
325,997	9,118	-0,152	-0,079
327,012	153,130	-0,083	-0,078
328,027	254,006	-0,191	-0,225
329,041	195,888	-0,119	-0,124
330,056	27,031	-0,107	0,062
331,070	309,406	-0,068	-0,087
332,085	800,000	-0,060	-0,155
333,100	800,000	-0,046	-0,108
334,114	45,216	-0,123	-0,078
335,129	-200,000	-0,006	-0,114
336,143	125,753	-0,104	-0,090
337,158	322,429	-0,084	-0,110
338,173	-200,000	-0,014	-0,054
339,187	-1,952	-0,155	-0,075
340,202	59,797	-0,128	-0,087
341,216	83,771	-0,151	-0,113
342,231	150,095	-0,265	-0,247
343,246	800,000	-0,153	-0,312
344,260	800,000	0,043	-0,098
345,275	-20,632	-0,185	-0,078
346,289	30,919	-0,101	-0,059
347,304	800,000	-0,051	-0,142
348,319	-30,294	-0,183	-0,071
349,333	800,000	0,058	-0,150
350,348	-200,000	-0,018	-0,128
351,362	-47,754	-0,113	-0,037
352,377	-89,166	-0,069	-0,014
353,392	800,000	0,045	-0,114
354,406	226,487	-0,034	0,038
355,421	207,752	1320,858	1417,184
356,435	159,828	1482,334	1417,684
