DTS Sentinel unit serial number:	SN410029Multiplexer serial number:	ORYXHardware model number:	OX2-SRSoftware version number:	ORYX F/W v4,00 Oryx Data Collector v3.7.2.0data status	okinstallation	B3 Nyhavnadifferential loss correction	single-endedforward channel	channel 1reverse channel	N/Adate	2023/11/29time	15:52:30forward acquisition time	300,00reverse acquisition time	0,00gamma	499,1914k internal	0,3210k external	0,3210temperature offset calibration	1,0000default loss term (dB/km)	0,3820temperature slope calibration	1,0000multiplexer offset coefficient	1,0000multiplexer slope coefficient	1,0000fibre end	0,00T internal ref (°C)	11,37T ext. ref 1 (°C)	-3,30T ext. ref 2 (°C)	-3,44length (m)	temperature (°C)	Stokes	anti-Stokes-744,400	395,355	-0,173	-0,263
-743,385	701,152	0,139	0,267
-742,371	352,909	-0,212	-0,306
-741,356	-200,000	0,035	0,156
-740,342	65,325	-0,202	-0,148
-739,327	-200,000	-0,032	0,299
-738,312	-200,000	-0,061	-0,274
-737,298	800,000	-0,133	0,361
-736,283	163,340	-0,244	-0,248
-735,269	-200,000	-0,105	0,476
-734,254	14,608	-0,380	-0,215
-733,239	-11,560	-0,218	0,103
-732,225	521,118	-0,113	-0,193
-731,210	107,187	0,119	0,102
-730,196	179,321	-0,059	-0,062
-729,181	188,511	0,052	-0,056
-728,167	639,654	-0,047	0,088
-727,152	192,369	-0,034	0,037
-726,137	-200,000	0,003	0,095
-725,123	168,268	-0,065	-0,068
-724,108	69,156	-0,084	-0,062
-723,094	100,342	-0,100	-0,084
-722,079	-200,000	-0,024	-0,103
-721,064	-194,711	-0,041	-0,000
-720,050	-53,592	0,129	0,042
-719,035	426,367	0,045	-0,070
-718,021	257,983	-0,052	0,065
-717,006	437,697	-0,084	-0,133
-715,991	-200,000	0,006	-0,147
-714,977	552,177	-0,004	0,008
-713,962	325,730	-0,046	-0,065
-712,948	450,762	0,061	0,098
-711,933	-112,577	0,048	0,007
-710,918	50,315	0,064	0,044
-709,904	800,000	0,030	-0,090
-708,889	8,069	-0,109	0,059
-707,875	318,599	0,053	-0,073
-706,860	-115,114	-0,049	-0,007
-705,845	144,819	0,008	-0,008
-704,831	9,573	-0,014	-0,008
-703,816	-3,421	-0,076	-0,038
-702,802	207,857	0,024	0,027
-701,787	28,420	-0,087	-0,053
-700,772	-200,000	-0,036	-0,116
-699,758	-200,000	-0,056	0,191
-698,743	800,000	-0,038	0,106
-697,729	-200,000	0,003	0,048
-696,714	-59,825	-0,036	0,011
-695,699	800,000	0,036	-0,079
-694,685	-115,214	0,052	0,007
-693,670	127,371	0,058	-0,053
-692,656	-200,000	0,010	-0,133
-691,641	585,448	-0,044	-0,079
-690,627	4,667	-0,109	0,058
-689,612	799,921	-0,071	-0,143
-688,597	-200,000	-0,015	-0,102
-687,583	-200,000	-0,001	-0,015
-686,568	143,996	-0,107	-0,103
-685,554	800,000	0,037	0,106
-684,539	-200,000	0,006	-0,051
-683,524	22,499	0,090	0,053
-682,510	458,711	0,059	-0,095
-681,495	-200,000	-0,002	-0,059
-680,481	319,964	-0,043	-0,059
-679,466	-200,000	0,015	-0,052
-678,451	477,647	-0,039	-0,064
-677,437	-73,960	0,049	0,013
-676,422	687,765	-0,036	0,069
-675,408	105,718	-0,079	0,068
-674,393	239,630	0,047	0,057
-673,378	-200,000	0,020	-0,119
-672,364	210,968	0,022	0,025
-671,349	-200,000	-0,029	-0,201
-670,335	345,408	0,012	-0,017
-669,320	-158,969	0,052	0,002
-668,305	-55,439	-0,018	0,006
-667,291	121,869	-0,034	0,031
-666,276	-200,000	-0,020	0,071
-665,262	-133,635	-0,170	-0,015
-664,247	-200,000	-0,004	0,045
-663,232	292,602	-0,016	0,021
-662,218	-100,202	0,088	-0,016
-661,203	800,000	-0,048	0,125
-660,189	348,926	-0,022	-0,032
-659,174	-149,377	-0,173	-0,010
-658,159	559,447	0,015	-0,026
-657,145	776,949	-0,057	-0,113
-656,130	146,948	0,110	-0,107
-655,116	659,107	-0,064	-0,120
-654,101	203,439	-0,072	0,081
-653,086	-200,000	0,055	-0,240
-652,072	30,834	0,038	-0,023
-651,057	-51,615	0,080	-0,027
-650,043	3,396	0,028	0,015
-649,028	226,308	-0,042	-0,049
-648,014	336,897	-0,066	-0,092
-646,999	-109,372	0,029	-0,004
-645,984	71,964	-0,080	0,060
-644,970	-200,000	-0,039	-0,142
-643,955	-141,259	-0,220	0,016
-642,941	208,296	-0,095	0,107
-641,926	91,158	0,054	0,044
-640,911	-200,000	0,004	0,018
-639,897	800,000	-0,061	0,164
-638,882	181,706	0,069	0,074
-637,868	-158,700	-0,095	0,004
-636,853	249,249	0,106	-0,130
-635,838	800,000	0,005	0,013
-634,824	-200,000	0,001	-0,121
-633,809	800,000	-0,032	-0,068
-632,795	144,229	0,044	0,043
-631,780	227,935	-0,069	0,081
-630,765	184,637	-0,042	-0,045
-629,751	-200,000	-0,038	0,153
-628,736	-52,938	-0,052	0,017
-627,722	86,960	0,037	-0,029
-626,707	92,725	-0,065	0,053
-625,692	-67,840	0,125	-0,035
-624,678	-81,251	-0,034	-0,008
-623,663	216,549	0,015	-0,017
-622,649	294,950	-0,099	-0,131
-621,634	-60,784	-0,055	0,017
-620,619	800,000	0,027	-0,081
-619,605	-192,959	0,036	-0,000
-618,590	-200,000	0,004	-0,120
-617,576	-42,522	-0,081	-0,030
-616,561	-200,000	0,015	-0,069
-615,546	-200,000	-0,021	0,068
-614,532	800,000	-0,084	-0,191
-613,517	-104,811	-0,078	-0,013
-612,503	267,619	-0,048	0,060
-611,488	-7,694	0,135	0,065
-610,474	-193,960	-0,042	0,000
-609,459	800,000	-0,010	-0,022
-608,444	-187,491	-0,118	0,001
-607,430	-175,079	0,144	-0,003
-606,415	253,923	-0,068	-0,084
-605,401	115,261	-0,135	-0,119
-604,386	-18,938	0,137	0,061
-603,371	482,279	-0,078	0,128
-602,357	-200,000	0,011	0,047
-601,342	129,609	-0,126	-0,117
-600,328	-200,000	0,015	0,063
-599,313	589,291	-0,049	0,088
-598,298	39,491	0,049	0,031
-597,284	-200,000	-0,004	-0,102
-596,269	800,000	0,032	0,067
-595,255	-200,000	-0,005	-0,077
-594,240	-137,003	-0,164	-0,013
-593,225	-200,000	-0,007	0,098
-592,211	-200,000	-0,001	-0,036
-591,196	-67,224	-0,200	0,056
-590,182	-200,000	-0,009	0,049
-589,167	299,067	-0,068	-0,090
-588,152	-133,558	-0,075	0,007
-587,138	800,000	0,052	0,164
-586,123	-200,000	0,040	-0,149
-585,109	212,109	0,055	-0,063
-584,094	-200,000	-0,005	0,058
-583,079	800,000	-0,035	0,088
-582,065	233,903	-0,112	-0,133
-581,050	58,449	0,033	0,023
-580,036	655,945	-0,064	-0,119
-579,021	187,002	0,048	-0,051
-578,006	-200,000	0,021	-0,083
-576,992	50,567	0,106	-0,072
-575,977	-79,733	0,110	-0,026
-574,963	143,090	0,089	0,086
-573,948	-93,389	0,071	0,014
-572,934	-67,303	0,120	-0,034
-571,919	-120,756	-0,040	-0,005
-570,904	-126,007	-0,093	-0,010
-569,890	-151,745	0,094	0,005
-568,875	230,704	0,055	0,066
-567,861	800,000	0,024	-0,071
-566,846	-200,000	-0,001	0,019
-565,831	178,863	-0,009	-0,010
-564,817	323,000	-0,021	0,029
-563,802	-53,961	0,061	0,020
-562,788	-31,340	-0,032	0,013
-561,773	-200,000	0,045	0,152
-560,758	-116,605	-0,067	0,009
-559,744	-19,201	-0,125	0,056
-558,729	13,534	0,083	-0,046
-557,715	106,336	-0,044	-0,037
-556,700	-171,856	-0,103	0,002
-555,685	520,598	0,038	-0,065
-554,671	-105,353	0,108	-0,018
-553,656	800,000	0,098	0,264
-552,642	218,270	0,085	0,098
-551,627	243,928	0,053	-0,064
-550,612	-200,000	-0,014	0,114
-549,598	75,864	0,047	-0,035
-548,583	800,000	0,033	0,079
-547,569	316,087	0,033	0,046
-546,554	25,106	-0,137	-0,081
-545,539	800,000	-0,017	0,052
-544,525	-200,000	-0,009	0,063
-543,510	483,903	-0,023	-0,038
-542,496	-200,000	-0,008	-0,116
-541,481	-200,000	-0,014	-0,184
-540,466	-200,000	-0,026	-0,176
-539,452	-29,792	0,032	-0,013
-538,437	-170,319	0,075	-0,002
-537,423	397,485	0,033	0,050
-536,408	800,000	0,020	0,045
-535,393	-64,677	-0,061	-0,018
-534,379	422,970	0,042	0,065
-533,364	-129,788	0,061	0,006
-532,350	76,010	0,096	0,073
-531,335	800,000	0,024	0,050
-530,321	160,586	0,142	-0,143
-529,306	-56,134	-0,182	-0,058
-528,291	119,241	-0,043	-0,038
-527,277	423,652	-0,039	-0,061
-526,262	232,641	0,123	-0,146
-525,248	-200,000	0,004	0,140
-524,233	-150,194	0,090	0,005
-523,218	-200,000	-0,033	0,166
-522,204	49,086	0,028	0,019
-521,189	144,986	-0,087	-0,083
-520,175	-27,822	-0,101	0,042
-519,160	119,599	-0,022	0,020
-518,145	-200,000	-0,013	-0,045
-517,131	-200,000	-0,007	-0,056
-516,116	11,713	-0,150	0,082
-515,102	-94,717	-0,031	-0,006
-514,087	117,792	0,062	0,055
-513,072	0,352	0,082	0,042
-512,058	-200,000	0,013	-0,079
-511,043	52,264	-0,035	-0,024
-510,029	144,675	0,099	0,095
-509,014	47,498	-0,018	-0,012
-507,999	126,393	-0,090	-0,082
-506,985	-200,000	-0,014	-0,113
-505,970	205,700	-0,040	-0,045
-504,956	-200,000	0,006	0,055
-503,941	-108,009	0,029	0,004
-502,926	429,279	0,088	0,137
-501,912	-16,066	-0,053	0,024
-500,897	-79,728	0,068	0,016
-499,883	-135,416	-0,129	-0,011
-498,868	-95,823	-0,120	-0,023
-497,853	115,559	-0,034	0,030
-496,839	263,754	0,108	0,135
-495,824	197,178	0,047	-0,051
-494,810	-9,138	0,027	-0,013
-493,795	101,907	0,067	-0,056
-492,781	-44,532	0,147	0,053
-491,766	33,685	-0,085	-0,053
-490,751	-200,000	-0,029	-0,136
-489,737	-200,000	0,014	-0,102
-488,722	-97,511	0,155	-0,029
-487,708	81,266	-0,092	0,071
-486,693	518,485	-0,029	0,048
-485,678	416,284	0,010	-0,015
-484,664	221,213	-0,016	0,019
-483,649	365,821	-0,061	-0,089
-482,635	800,000	-0,010	0,019
-481,620	-200,000	-0,015	-0,152
-480,605	-200,000	-0,029	0,123
-479,591	256,123	0,013	-0,017
-478,576	-50,858	0,134	-0,045
-477,562	800,000	-0,042	-0,088
-476,547	-29,887	0,071	-0,029
-475,532	-98,654	-0,118	0,021
-474,518	-200,000	-0,001	0,028
-473,503	177,122	0,113	0,118
-472,489	-65,517	-0,107	0,031
-471,474	-125,192	-0,160	-0,017
-470,459	-200,000	-0,002	-0,074
-469,445	65,122	-0,061	-0,044
-468,430	278,239	-0,018	-0,023
-467,416	800,000	0,101	0,245
-466,401	374,409	-0,064	0,093
-465,386	-200,000	-0,005	-0,134
-464,372	75,032	0,057	0,043
-463,357	459,611	-0,033	-0,053
-462,343	-200,000	0,029	-0,102
-461,328	131,917	0,045	-0,041
-460,313	420,742	-0,026	-0,040
-459,299	-200,000	0,003	0,154
-458,284	800,000	-0,063	0,167
-457,270	800,000	-0,035	0,088
-456,255	14,295	0,098	-0,055
-455,241	521,507	0,099	-0,167
-454,226	-120,675	-0,143	-0,017
-453,211	7,900	0,084	0,045
-452,197	-171,463	0,211	-0,005
-451,182	-42,428	0,169	0,061
-450,168	800,000	0,012	0,031
-449,153	558,248	0,028	-0,048
-448,138	50,487	-0,094	-0,064
-447,124	206,918	-0,043	-0,048
-446,109	-200,000	0,006	-0,103
-445,095	44,357	-0,100	0,066
-444,080	13,746	0,133	0,074
-443,065	-200,000	-0,034	-0,139
-442,051	37,452	-0,094	-0,059
-441,036	205,085	-0,078	0,087
-440,022	-200,000	0,018	-0,177
-439,007	-166,526	-0,081	-0,002
-437,992	-200,000	0,019	-0,082
-436,978	35,265	-0,078	0,049
-435,963	800,000	0,037	-0,078
-434,949	-136,406	0,033	0,003
-433,934	-200,000	0,046	-0,241
-432,919	-200,000	-0,029	-0,108
-431,905	14,468	-0,214	-0,119
-430,890	800,000	-0,028	0,087
-429,876	201,668	-0,080	0,088
-428,861	-200,000	0,001	-0,088
-427,846	800,000	-0,032	-0,077
-426,832	-200,000	-0,008	0,048
-425,817	-200,000	-0,007	0,107
-424,803	-53,659	0,114	0,037
-423,788	-12,207	0,058	0,027
-422,773	12,444	0,111	0,061
-421,759	36,469	0,151	0,095
-420,744	208,198	-0,049	0,055
-419,730	-192,950	0,039	0,000
-418,715	-157,903	0,065	-0,003
-417,701	800,000	-0,042	-0,086
-416,686	-132,197	0,061	-0,006
-415,671	152,726	-0,064	-0,063
-414,657	-174,750	-0,103	0,002
-413,642	-200,000	0,023	-0,106
-412,628	285,029	0,053	-0,069
-411,613	-93,680	0,033	-0,006
-410,598	49,126	0,098	-0,066
-409,584	800,000	0,025	-0,068
-408,569	1,922	0,087	0,045
-407,555	-200,000	0,027	0,171
-406,540	46,352	0,048	-0,032
-405,525	98,327	-0,028	-0,023
-404,511	-200,000	-0,013	-0,129
-403,496	-200,000	-0,024	0,144
-402,482	-59,353	-0,068	0,021
-401,467	-67,925	-0,104	0,029
-400,452	-24,206	0,065	0,028
-399,438	-90,193	-0,083	-0,017
-398,423	67,526	0,042	-0,031
-397,409	800,000	-0,040	-0,112
-396,394	184,624	0,109	-0,116
-395,379	-99,747	0,062	0,011
-394,365	800,000	0,058	0,117
-393,350	72,122	0,059	0,044
-392,336	-200,000	-0,008	0,066
-391,321	398,728	-0,028	-0,043
-390,306	82,638	0,098	0,076
-389,292	39,913	-0,028	-0,018
-388,277	-122,172	-0,049	-0,006
-387,263	54,867	-0,032	-0,022
-386,248	-200,000	-0,007	-0,102
-385,233	-18,293	-0,030	-0,013
-384,219	224,345	-0,016	0,018
-383,204	-69,259	-0,082	0,022
-382,190	-4,211	0,047	-0,023
-381,175	-161,489	0,016	0,001
-380,160	-30,309	0,087	-0,035
-379,146	-14,648	0,125	0,057
-378,131	800,000	0,061	0,124
-377,117	800,000	-0,034	0,095
-376,102	-200,000	-0,020	-0,079
-375,088	271,423	-0,088	-0,111
-374,073	800,000	0,015	-0,044
-373,058	202,850	0,079	0,087
-372,044	302,636	-0,015	0,020
-371,029	-36,379	0,085	0,033
-370,015	-88,265	0,228	0,048
-369,000	-200,000	-0,004	-0,028
-367,985	132,050	-0,080	-0,074
-366,971	623,845	-0,027	0,049
-365,956	-85,857	-0,187	0,041
-364,942	166,958	-0,066	0,067
-363,927	-9,784	0,043	-0,020
-362,912	-180,205	0,068	0,001
-361,898	-91,150	-0,057	0,012
-360,883	-44,156	-0,172	0,061
-359,869	345,158	0,055	0,078
-358,854	-200,000	0,017	0,063
-357,839	-115,221	0,141	0,019
-356,825	382,049	0,030	0,045
-355,810	84,240	-0,032	0,025
-354,796	27,542	0,088	-0,053
-353,781	800,000	0,050	0,101
-352,766	800,000	0,023	0,054
-351,752	518,393	0,103	0,173
-350,737	-200,000	0,015	0,092
-349,723	748,496	-0,047	0,091
-348,708	800,000	0,024	0,050
-347,693	-66,699	0,016	-0,005
-346,679	433,310	-0,085	-0,132
-345,664	141,642	0,131	-0,124
-344,650	208,998	0,043	-0,048
-343,635	-200,000	0,001	0,082
-342,620	182,807	-0,034	0,036
-341,606	252,817	0,075	0,091
-340,591	800,000	-0,050	0,115
-339,577	-200,000	-0,011	-0,165
-338,562	800,000	0,011	-0,024
-337,548	-200,000	-0,007	-0,133
-336,533	304,552	0,052	0,069
-335,518	-190,594	-0,117	-0,001
-334,504	-115,578	-0,044	-0,006
-333,489	624,011	-0,045	-0,082
-332,475	-58,382	0,055	-0,017
-331,460	800,000	0,044	-0,092
-330,445	-85,905	-0,033	0,007
-329,431	800,000	0,025	0,072
-328,416	4,596	0,108	0,056
-327,402	158,639	-0,055	0,055
-326,387	180,221	-0,047	-0,049
-325,372	-200,000	-0,015	-0,071
-324,358	8,683	0,112	0,060
-323,343	-200,000	-0,010	-0,083
-322,329	-200,000	0,001	0,081
-321,314	-55,553	0,044	0,014
-320,299	668,315	0,090	0,167
-319,285	12,575	0,097	0,053
-318,270	-14,221	0,030	0,014
-317,256	-86,599	0,057	0,012
-316,241	139,590	-0,025	0,023
-315,226	800,000	-0,017	0,040
-314,212	479,790	0,061	0,099
-313,197	35,090	-0,098	0,061
-312,183	800,000	0,039	0,091
-311,168	-130,726	-0,129	0,012
-310,153	-68,687	0,156	-0,043
-309,139	800,000	-0,030	-0,073
-308,124	-200,000	-0,014	-0,095
-307,110	-200,000	0,013	0,110
-306,095	23,034	-0,038	0,022
-305,080	276,454	0,045	0,057
-304,066	-136,867	0,029	-0,002
-303,051	58,687	0,050	-0,035
-302,037	-162,656	-0,056	-0,002
-301,022	-200,000	-0,009	-0,119
-300,008	27,986	0,090	0,054
-298,993	-200,000	-0,028	0,124
-297,978	-200,000	0,011	0,092
-296,964	-26,057	0,056	0,023
-295,949	581,389	-0,085	0,150
-294,935	-200,000	0,023	-0,141
-293,920	-200,000	-0,006	0,057
-292,905	487,949	0,025	-0,040
-291,891	-200,000	-0,001	-0,058
-290,876	41,822	-0,123	-0,079
-289,862	800,000	0,028	0,070
-288,847	-166,665	0,074	0,002
-287,832	-143,125	-0,029	0,002
-286,818	30,173	0,147	0,089
-285,803	-200,000	-0,015	-0,059
-284,789	-54,658	0,120	-0,038
-283,774	88,519	0,082	0,065
-282,759	555,272	-0,070	-0,120
-281,745	321,183	-0,089	-0,121
-280,730	-125,132	-0,034	0,004
-279,716	33,677	-0,093	-0,057
-278,701	28,164	0,012	-0,007
-277,686	-181,534	0,173	-0,002
-276,672	302,816	-0,053	0,070
-275,657	9,188	0,136	-0,073
-274,643	110,363	-0,080	-0,068
-273,628	60,722	0,025	-0,017
-272,613	800,000	0,045	0,121
-271,599	39,599	0,103	0,066
-270,584	-2,399	0,108	0,054
-269,570	-200,000	0,011	-0,128
-268,555	22,421	0,070	0,040
-267,540	157,128	-0,076	-0,075
-266,526	-200,000	0,002	-0,012
-265,511	60,069	0,123	0,086
-264,497	6,659	0,019	0,010
-263,482	-200,000	0,014	0,109
-262,467	215,545	0,108	0,123
-261,453	-1,264	-0,069	-0,035
-260,438	68,602	-0,141	-0,103
-259,424	399,501	-0,094	-0,140
-258,409	800,000	-0,042	-0,110
-257,395	-109,653	0,118	-0,018
-256,380	800,000	0,022	0,054
-255,365	-56,235	0,123	0,039
-254,351	528,382	-0,032	0,055
-253,336	-200,000	-0,014	-0,106
-252,322	484,441	0,098	0,159
-251,307	-200,000	-0,032	-0,115
-250,292	800,000	0,012	-0,037
-249,278	800,000	-0,018	-0,037
-248,263	800,000	-0,018	0,046
-247,249	121,022	0,104	0,092
-246,234	-80,893	-0,077	0,018
-245,219	149,373	-0,022	-0,021
-244,205	439,913	-0,087	0,136
-243,190	758,070	-0,063	0,122
-242,176	-78,055	0,087	0,021
-241,161	277,496	-0,081	0,102
-240,146	-14,765	-0,012	-0,005
-239,132	483,008	-0,067	-0,109
-238,117	37,165	-0,106	0,067
-237,103	639,171	-0,055	-0,100
-236,088	210,183	-0,057	-0,064
-235,073	-139,420	-0,164	-0,012
-234,059	-24,096	0,126	0,053
-233,044	-200,000	0,016	0,076
-232,030	247,605	0,067	-0,081
-231,015	111,504	-0,054	-0,046
-230,000	374,262	0,042	-0,061
-228,986	800,000	0,033	-0,091
-227,971	-111,511	0,031	0,004
-226,957	800,000	-0,043	0,105
-225,942	30,481	-0,116	0,070
-224,927	303,812	0,101	0,133
-223,913	15,709	-0,067	0,038
-222,898	-200,000	-0,011	-0,070
-221,884	2,210	0,078	-0,040
-220,869	80,733	0,132	0,101
-219,855	-8,539	0,038	0,018
-218,840	527,705	0,053	0,089
-217,825	60,307	-0,090	0,063
-216,811	-63,271	-0,124	-0,036
-215,796	187,418	-0,127	-0,135
-214,782	-200,000	-0,008	0,065
-213,767	265,114	0,079	0,098
-212,752	31,409	-0,044	-0,027
-211,738	73,356	-0,011	0,008
-210,723	800,000	0,049	-0,149
-209,709	-116,779	0,047	0,006
-208,694	82,017	0,046	-0,036
-207,679	-129,692	-0,020	0,002
-206,665	134,045	0,078	0,072
-205,650	-200,000	0,005	0,023
-204,636	-43,420	-0,047	-0,017
-203,621	-9,557	0,054	0,025
-202,606	-200,000	-0,007	-0,073
-201,592	-200,000	0,015	-0,134
-200,577	351,411	0,017	-0,024
-199,563	-23,473	0,158	-0,067
-198,548	203,895	0,084	0,092
-197,533	218,118	0,028	0,032
-196,519	-200,000	-0,001	0,018
-195,504	232,939	-0,111	-0,130
-194,490	23,494	-0,125	-0,073
-193,475	-117,929	-0,104	-0,013
-192,460	266,870	-0,047	0,058
-191,446	-200,000	0,013	0,183
-190,431	282,672	-0,029	0,038
-189,417	800,000	0,019	0,057
-188,402	-160,191	-0,122	-0,005
-187,387	-200,000	0,014	-0,087
-186,373	-58,357	-0,038	0,012
-185,358	565,494	0,030	-0,052
-184,344	207,690	-0,082	-0,090
-183,329	188,264	0,092	0,098
-182,315	-12,083	-0,060	0,028
-181,300	-200,000	0,011	-0,169
-180,285	29,719	-0,028	-0,017
-179,271	-200,000	0,017	-0,112
-178,256	367,172	-0,036	-0,052
-177,242	800,000	-0,025	0,052
-176,227	-64,552	0,144	0,041
-175,212	13,027	-0,022	-0,012
-174,198	354,658	-0,070	0,099
-173,183	532,057	-0,066	-0,112
-172,169	128,169	-0,194	0,175
-171,154	-200,000	-0,039	-0,204
-170,139	-26,036	-0,151	-0,063
-169,125	-50,841	-0,030	0,010
-168,110	-5,907	0,114	0,055
-167,096	-200,000	-0,004	0,127
-166,081	-200,000	0,006	-0,102
-165,066	-200,000	-0,001	-0,167
-164,052	-200,000	-0,021	-0,074
-163,037	105,709	-0,139	0,117
-162,023	158,455	0,069	0,068
-161,008	-200,000	-0,029	0,118
-159,993	800,000	0,030	0,078
-158,979	-200,000	0,016	0,129
-157,964	-4,457	0,044	0,021
-156,950	125,152	-0,151	-0,135
-155,935	396,392	0,038	-0,056
-154,920	-65,617	-0,033	0,009
-153,906	592,672	0,040	0,070
-152,891	275,453	-0,104	-0,131
-151,877	22,897	-0,038	-0,022
-150,862	314,036	-0,079	-0,106
-149,847	800,000	-0,037	-0,095
-148,833	-67,480	0,068	-0,019
-147,818	192,147	-0,020	-0,021
-146,804	-58,968	0,081	0,025
-145,789	34,183	-0,039	-0,024
-144,775	-81,800	0,023	-0,005
-143,760	-73,988	-0,131	-0,033
-142,745	-200,000	0,013	0,131
-141,731	800,000	-0,016	-0,043
-140,716	184,043	0,209	0,219
-139,702	800,000	0,048	0,117
-138,687	151,542	-0,135	0,131
-137,672	-200,000	-0,016	-0,099
-136,658	79,877	-0,051	-0,039
-135,643	-200,000	-0,009	-0,126
-134,629	252,933	-0,095	0,115
-133,614	-200,000	-0,018	0,127
-132,599	60,502	0,099	0,069
-131,585	592,905	0,057	-0,101
-130,570	541,892	-0,032	0,054
-129,556	-57,822	-0,110	-0,034
-128,541	-200,000	0,006	0,111
-127,526	-131,178	0,054	-0,005
-126,512	-1,654	0,031	-0,016
-125,497	351,620	0,027	0,038
-124,483	800,000	0,013	0,032
-123,468	334,367	-0,048	0,066
-122,453	66,676	-0,102	-0,073
-121,439	-96,844	0,062	-0,011
-120,424	800,000	-0,046	-0,126
-119,410	39,451	0,014	0,009
-118,395	116,455	0,094	0,082
-117,380	-200,000	0,023	0,088
-116,366	-200,000	0,031	0,162
-115,351	31,752	-0,054	-0,033
-114,337	414,863	-0,063	-0,096
-113,322	-88,795	-0,055	0,011
-112,307	800,000	-0,047	0,122
-111,293	415,761	0,037	-0,056
-110,278	135,434	-0,062	0,057
-109,264	679,130	-0,017	0,032
-108,249	800,000	0,055	-0,149
-107,234	100,623	-0,198	-0,163
-106,220	-200,000	-0,018	-0,083
-105,205	800,000	-0,052	-0,140
-104,191	296,236	0,012	0,015
-103,176	800,000	-0,011	0,025
-102,162	411,073	-0,041	0,061
-101,147	76,759	-0,059	-0,044
-100,132	800,000	-0,047	-0,123
-99,118	-55,640	-0,067	-0,021
-98,103	-200,000	0,016	-0,067
-97,089	87,471	0,087	0,068
-96,074	267,458	0,065	0,081
-95,059	35,955	-0,080	-0,049
-94,045	103,559	0,080	-0,066
-93,030	-200,000	0,011	0,071
-92,016	-125,053	-0,041	0,004
-91,001	-200,000	-0,019	-0,077
-89,986	597,343	-0,056	0,099
-88,972	-200,000	-0,003	0,131
-87,957	-200,000	-0,011	-0,067
-86,943	-200,000	-0,010	0,061
-85,928	-87,105	-0,112	-0,024
-84,913	352,928	-0,074	0,104
-83,899	-76,437	-0,031	-0,008
-82,884	741,846	-0,041	0,078
-81,870	-175,414	0,068	0,001
-80,855	800,000	-0,021	0,059
-79,840	-20,447	0,046	0,020
-78,826	800,000	0,035	0,104
-77,811	95,455	0,032	-0,026
-76,797	693,036	0,062	-0,115
-75,782	800,000	-0,035	-0,083
-74,767	800,000	-0,030	0,075
-73,753	215,712	0,019	-0,022
-72,738	-8,088	0,079	-0,038
-71,724	-116,732	-0,108	0,014
-70,709	-27,846	-0,134	-0,055
-69,694	-124,387	-0,043	0,005
-68,680	591,462	0,027	-0,047
-67,665	-87,505	0,122	-0,026
-66,651	-136,239	0,038	-0,003
-65,636	19,687	0,063	-0,036
-64,622	1,645	-0,104	0,053
-63,607	800,000	0,077	-0,176
-62,592	58,545	-0,044	0,031
-61,578	-200,000	0,008	0,125
-60,563	99,389	0,141	0,115
-59,549	-200,000	-0,061	0,198
-58,534	18,588	-1,846	-1,040
-57,519	492,837	-1,305	-2,121
-56,505	-200,000	-0,259	-4,237
-55,490	474,871	0,819	1,310
-54,476	800,000	5,232	11,549
-53,461	-200,000	20,395	326,512
-52,446	800,000	752,240	2310,556
-51,432	550,493	1657,586	2818,467
-50,417	73,963	1663,482	1230,791
-49,403	19,206	1536,793	868,531
-48,388	13,199	1459,262	795,664
-47,373	18,746	1449,765	817,083
-46,359	16,149	1439,084	798,672
-45,344	11,488	1434,928	774,147
-44,330	11,412	1433,117	772,780
-43,315	11,453	1431,179	771,900
-42,300	11,403	1429,451	770,698
-41,286	11,445	1428,154	770,166
-40,271	11,377	1427,021	769,204
-39,257	11,377	1425,652	768,434
-38,242	11,433	1424,461	768,028
-37,227	11,417	1423,493	767,398
-36,213	11,433	1422,092	766,691
-35,198	11,477	1420,712	766,121
-34,184	11,430	1420,232	765,611
-33,169	11,479	1418,395	764,820
-32,154	11,501	1417,553	764,441
-31,140	11,479	1416,432	763,704
-30,125	11,482	1415,325	763,092
-29,111	11,487	1414,061	762,399
-28,096	11,487	1412,971	761,784
-27,082	11,441	1411,906	760,966
-26,067	11,389	1410,932	760,165
-25,052	11,452	1409,682	759,756
-24,038	11,400	1408,791	759,000
-23,023	11,411	1407,914	758,552
-22,009	11,396	1406,836	757,871
-20,994	11,419	1405,766	757,369
-19,979	11,413	1404,912	756,850
-18,965	11,355	1404,071	756,098
-17,950	11,353	1403,100	755,537
-16,936	11,314	1402,400	754,947
-15,921	11,316	1401,270	754,319
-14,906	11,278	1400,407	753,647
-13,892	11,315	1399,452	753,278
-12,877	11,312	1398,567	752,756
-11,863	11,327	1397,567	752,259
-10,848	11,306	1396,743	751,688
-9,833	11,266	1395,881	751,009
-8,819	11,240	1394,908	750,332
-7,804	11,219	1394,042	749,739
-6,790	11,230	1393,180	749,296
-5,775	11,269	1391,948	748,786
-4,760	11,210	1391,388	748,185
-3,746	11,210	1390,338	747,588
-2,731	11,245	1389,342	747,184
-1,717	11,181	1388,724	746,527
-0,702	11,190	1386,732	745,471
0,313	15,182	1301,834	718,135
1,327	31,528	694,438	420,323
2,342	49,483	120,648	79,989
3,356	1,718	16,524	8,372
4,371	-0,563	3,419	1,706
5,386	5,106	0,859	0,445
6,400	800,000	0,175	0,476
7,415	-104,956	-0,224	-0,036
8,429	19,873	-0,260	-0,147
9,444	68,525	-0,277	-0,200
10,459	93,476	-0,190	-0,152
11,473	-62,953	-0,374	-0,108
12,488	1,423	-0,351	-0,177
13,502	135,297	-0,342	-0,313
14,517	50,165	-0,374	-0,248
15,531	33,411	-0,290	-0,177
16,546	24,772	-0,391	-0,228
17,561	10,603	-0,285	-0,153
18,575	89,527	-0,098	-0,077
19,590	800,000	-0,091	-0,184
20,604	122,086	-0,319	-0,281
21,619	73,141	-0,344	-0,253
22,634	41,905	-0,419	-0,267
23,648	153,784	-0,361	-0,348
24,663	161,636	-0,386	-0,381
25,677	200,907	-0,262	-0,285
26,692	216,603	-0,253	-0,284
27,707	37,154	-0,317	-0,197
28,721	136,221	-0,308	-0,282
29,736	52,064	-0,471	-0,316
30,750	109,258	-0,323	-0,272
31,765	52,373	-0,296	-0,199
32,780	388,051	-0,267	-0,390
33,794	11,601	-0,282	-0,152
34,809	85,693	-0,267	-0,206
35,823	107,825	-0,324	-0,271
36,838	57,285	-0,384	-0,263
37,853	290,269	-0,378	-0,483
38,867	109,793	-0,391	-0,329
39,882	160,992	-0,284	-0,279
40,896	63,629	-0,360	-0,254
41,911	-72,380	-0,391	-0,101
42,926	122,394	-0,267	-0,235
43,940	-19,842	-0,207	-0,089
44,955	132,537	-0,291	-0,263
45,969	35,314	-0,445	-0,273
46,984	-5,031	-0,355	-0,171
47,999	128,959	-0,249	-0,223
49,013	28,290	-0,288	-0,171
50,028	-7,784	-0,410	-0,194
51,042	256,679	-0,321	-0,388
52,057	107,377	-0,429	-0,359
53,071	115,003	-0,399	-0,342
54,086	133,425	-0,330	-0,299
55,101	-43,807	-0,379	-0,133
56,115	327,808	-0,245	-0,332
57,130	1,805	-0,236	-0,119
58,144	-29,932	-0,479	-0,191
59,159	78,340	-0,399	-0,299
60,174	102,509	-0,403	-0,331
61,188	352,602	-0,258	-0,359
62,203	-83,570	-0,246	-0,055
63,217	-27,366	-0,245	-0,100
64,232	23,904	-0,293	-0,169
65,247	23,303	-0,375	-0,216
66,261	68,458	-0,406	-0,292
67,276	205,615	-0,320	-0,349
68,290	26,812	-0,323	-0,189
69,305	102,484	-0,349	-0,286
70,320	140,531	-0,221	-0,205
71,334	-35,887	-0,454	-0,172
72,349	37,322	-0,326	-0,202
73,363	96,794	-0,286	-0,230
74,378	44,826	-0,412	-0,265
75,393	-42,320	-0,393	-0,140
76,407	46,958	-0,333	-0,217
77,422	-200,000	-0,218	-0,000
78,436	66,871	-0,299	-0,213
79,451	246,827	-0,186	-0,221
80,466	16,410	-0,325	-0,179
81,480	22,815	-0,449	-0,257
82,495	141,912	-0,266	-0,247
83,509	33,314	-0,299	-0,182
84,524	653,988	-0,149	-0,269
85,539	524,640	-0,134	-0,221
86,553	52,884	-0,306	-0,205
87,568	-20,770	-0,220	-0,094
88,582	-29,921	-0,338	-0,134
89,597	93,872	-0,270	-0,215
90,611	-21,858	-0,312	-0,132
91,626	330,057	-0,181	-0,244
92,641	-61,011	-0,318	-0,094
93,655	-17,005	-0,394	-0,173
94,670	-112,981	-0,439	-0,060
95,684	79,431	-0,274	-0,205
96,699	304,082	-0,255	-0,332
97,714	162,469	-0,215	-0,211
98,728	-48,393	-0,315	-0,105
99,743	246,833	-0,175	-0,207
100,757	2,779	-0,327	-0,166
101,772	-66,887	-0,317	-0,087
102,787	74,382	-0,315	-0,231
103,801	28,380	-0,248	-0,147
104,816	50,633	-0,231	-0,153
105,830	-11,262	-0,224	-0,103
106,845	18,618	-0,310	-0,173
107,860	30,688	-0,255	-0,152
108,874	19,899	-0,312	-0,175
109,889	32,985	-0,149	-0,090
110,903	251,586	-0,205	-0,244
111,918	237,461	-0,141	-0,163
112,933	179,465	-0,237	-0,242
113,947	-120,698	-0,260	-0,030
114,962	-5,379	-0,293	-0,140
115,976	-97,098	-0,341	-0,062
116,991	222,983	-0,142	-0,161
118,006	240,270	-0,179	-0,208
119,020	97,618	-0,310	-0,248
120,035	16,686	-0,317	-0,174
121,049	81,434	-0,212	-0,160
122,064	59,545	-0,199	-0,137
123,079	177,422	-0,254	-0,258
124,093	-25,639	-0,347	-0,142
125,108	220,776	-0,129	-0,145
126,122	124,370	-0,204	-0,179
127,137	1,674	-0,255	-0,128
128,151	99,155	-0,090	-0,073
129,166	233,346	-0,300	-0,345
130,181	203,469	-0,304	-0,329
131,195	-44,453	-0,304	-0,106
132,210	254,800	-0,211	-0,253
133,224	162,128	-0,331	-0,324
134,239	274,428	-0,082	-0,102
135,254	146,500	-0,195	-0,183
136,268	6,810	-0,299	-0,155
137,283	-0,670	-0,268	-0,132
138,297	-4,125	-0,345	-0,166
139,312	-99,923	-0,305	-0,053
140,327	800,000	-0,071	-0,166
141,341	285,594	-0,208	-0,262
142,356	54,277	-0,212	-0,142
143,370	-41,069	-0,233	-0,083
144,385	153,646	-0,149	-0,142
145,400	23,132	-0,273	-0,156
146,414	161,430	-0,203	-0,197
147,429	-53,335	-0,291	-0,092
148,443	-6,482	-0,256	-0,121
149,458	386,252	-0,197	-0,284
150,473	9,229	-0,248	-0,130
151,487	177,408	-0,217	-0,220
152,502	791,365	-0,177	-0,340
153,516	-25,588	-0,329	-0,135
154,531	34,352	-0,173	-0,105
155,546	422,020	-0,123	-0,185
156,560	63,081	-0,303	-0,211
157,575	-69,392	-0,289	-0,077
158,589	56,778	-0,285	-0,193
159,604	10,181	-0,338	-0,178
160,619	81,270	-0,208	-0,157
161,633	95,389	-0,253	-0,201
162,648	266,674	-0,187	-0,228
163,662	482,717	-0,102	-0,162
164,677	46,170	-0,191	-0,123
165,692	57,170	-0,310	-0,210
166,706	26,619	-0,220	-0,128
167,721	7,545	-0,301	-0,156
168,735	111,432	-0,234	-0,196
169,750	-184,801	-0,219	0,002
170,764	88,342	-0,249	-0,192
171,779	800,000	-0,127	-0,251
172,794	62,711	-0,120	-0,083
173,808	39,114	-0,212	-0,132
174,823	139,685	-0,302	-0,276
175,837	423,579	-0,189	-0,284
176,852	245,923	-0,295	-0,345
177,867	-185,550	-0,243	-0,002
178,881	75,495	-0,233	-0,170
179,896	64,447	-0,294	-0,206
180,910	7,693	-0,197	-0,102
181,925	166,174	-0,216	-0,212
182,940	53,630	-0,240	-0,160
183,954	-62,683	-0,234	-0,067
184,969	-122,400	-0,226	-0,025
185,983	252,926	-0,112	-0,133
186,998	-2,775	-0,294	-0,142
188,013	-34,984	-0,168	-0,063
189,027	34,160	-0,214	-0,129
190,042	800,000	-0,065	-0,148
191,056	29,120	-0,153	-0,090
192,071	264,089	-0,180	-0,217
193,086	79,627	-0,058	-0,043
194,100	-87,289	-0,141	-0,029
195,115	-6,227	-0,209	-0,098
196,129	16,368	-0,256	-0,140
197,144	373,019	-0,090	-0,128
198,159	224,364	-0,203	-0,228
199,173	171,721	-0,152	-0,152
200,188	205,400	-0,203	-0,219
201,202	292,328	-0,172	-0,217
202,217	-16,627	-0,212	-0,093
203,232	-17,347	-0,234	-0,102
204,246	143,307	-0,198	-0,183
205,261	-43,012	-0,198	-0,069
206,275	110,070	-0,172	-0,143
207,290	355,676	-0,062	-0,086
208,304	29,663	-0,276	-0,162
209,319	-9,364	-0,152	-0,070
210,334	519,553	-0,128	-0,208
211,348	147,194	-0,205	-0,192
212,363	-87,507	-0,240	-0,050
213,377	691,027	-0,123	-0,225
214,392	127,281	-0,155	-0,136
215,407	22,321	-0,158	-0,089
216,421	800,000	-0,026	-0,052
217,436	-16,772	-0,314	-0,137
218,450	142,607	-0,194	-0,179
219,465	707,483	-0,196	-0,360
220,480	362,437	-0,155	-0,215
221,494	767,100	-0,129	-0,244
222,509	85,444	-0,174	-0,132
223,523	800,000	-0,107	-0,283
224,538	-75,558	-0,201	0,049
225,553	443,397	-0,137	-0,208
226,567	80,536	-0,235	-0,175
227,582	163,077	-0,140	-0,136
228,596	-103,983	-0,202	-0,032
229,611	-200,000	-0,042	-0,132
230,626	38,106	-0,224	-0,138
231,640	82,166	-0,223	-0,167
232,655	154,207	-0,251	-0,238
233,669	800,000	-0,080	-0,213
234,684	-60,141	-0,298	-0,087
235,699	-141,082	-0,143	0,010
236,713	-72,526	-0,092	-0,023
237,728	-14,032	-0,113	-0,050
238,742	-87,463	-0,307	-0,064
239,757	213,129	-0,194	-0,212
240,772	66,492	-0,253	-0,178
241,786	23,220	-0,258	-0,146
242,801	-43,152	-0,077	-0,027
243,815	86,535	-0,162	-0,123
244,830	23,358	-0,200	-0,113
245,844	159,805	-0,219	-0,211
246,859	-64,017	-0,232	-0,065
247,874	449,252	-0,101	-0,154
248,888	144,380	-0,196	-0,181
249,903	-200,000	-0,070	-0,307
250,917	-44,052	-0,217	-0,075
251,932	27,007	-0,048	-0,028
252,947	145,322	-0,133	-0,123
253,961	328,139	-0,171	-0,228
254,976	87,479	-0,169	-0,129
255,990	47,782	-0,294	-0,189
257,005	-200,000	0,009	-0,188
258,020	308,168	-0,146	-0,189
259,034	517,562	-0,105	-0,170
260,049	88,077	-0,212	-0,162
261,063	-143,288	-0,159	-0,010
262,078	15,404	-0,151	-0,081
263,093	-2,195	-0,294	-0,142
264,107	118,431	-0,123	-0,105
265,122	243,205	-0,108	-0,125
266,136	127,505	-0,098	-0,086
267,151	176,612	-0,084	-0,084
268,166	74,315	-0,233	-0,169
269,180	284,105	-0,205	-0,254
270,195	-73,887	-0,192	-0,048
271,209	128,806	-0,079	-0,069
272,224	-56,446	-0,092	-0,028
273,239	61,499	-0,211	-0,144
274,253	73,013	-0,180	-0,129
275,268	132,437	-0,148	-0,132
276,282	44,388	-0,272	-0,171
277,297	800,000	-0,104	-0,199
278,312	639,706	-0,154	-0,271
279,326	110,230	-0,136	-0,113
280,341	-155,905	-0,249	0,011
281,355	-46,203	-0,139	-0,047
282,370	127,548	-0,098	-0,086
283,384	123,310	-0,211	-0,182
284,399	482,161	-0,144	-0,226
285,414	35,365	-0,132	-0,080
286,428	581,821	-0,120	-0,204
287,443	131,950	-0,075	-0,067
288,457	-57,173	-0,183	0,055
289,472	-63,330	-0,252	-0,071
290,487	50,342	-0,080	-0,052
291,501	417,439	-0,142	-0,209
292,516	245,502	-0,098	-0,114
293,530	509,242	-0,090	0,144
294,545	800,000	-0,072	-0,176
295,560	108,852	-0,174	-0,143
296,574	2,611	-0,231	-0,115
297,589	357,463	-0,131	-0,180
298,603	32,131	-0,169	-0,100
299,618	800,000	-0,132	-0,281
300,633	439,087	-0,073	-0,110
301,647	93,535	-0,258	-0,201
302,662	48,692	-0,133	-0,086
303,676	51,121	-0,068	-0,045
304,691	180,957	-0,173	-0,175
305,706	-200,000	0,018	-0,152
306,720	-14,260	-0,205	-0,091
307,735	-92,381	-0,043	0,008
308,749	-140,657	-0,200	-0,014
309,764	-19,334	-0,097	-0,041
310,779	162,188	-0,224	-0,216
311,793	204,332	-0,097	-0,103
312,808	349,019	-0,050	-0,069
313,822	83,186	-0,177	-0,132
314,837	-74,923	-0,052	-0,013
315,852	-119,938	-0,147	-0,017
316,866	-49,050	-0,112	0,036
317,881	140,959	-0,172	-0,156
318,895	-52,643	-0,135	0,042
319,910	-101,687	-0,140	-0,023
320,925	-182,918	-0,124	-0,001
321,939	-45,393	-0,075	-0,025
322,954	-200,000	0,006	-0,034
323,968	-137,864	-0,152	-0,011
324,983	6,128	-0,292	-0,148
325,997	22,993	-0,117	0,065
327,012	800,000	-0,045	-0,128
328,027	242,567	-0,125	-0,144
329,041	366,744	-0,133	-0,184
330,056	189,921	-0,102	-0,106
331,070	110,589	-0,103	0,085
332,085	-55,565	-0,195	-0,060
333,100	-9,663	-0,128	-0,058
334,114	34,999	-0,252	-0,151
335,129	271,156	-0,114	-0,138
336,143	-12,833	-0,089	0,040
337,158	219,023	-0,130	0,142
338,173	71,077	-0,072	0,051
339,187	385,952	-0,079	-0,112
340,202	800,000	-0,095	-0,187
341,216	245,784	-0,126	-0,145
342,231	-200,000	0,006	-0,201
343,246	-17,325	-0,154	-0,066
344,260	16,694	-0,230	-0,124
345,275	-94,431	-0,137	0,025
346,289	-36,457	-0,110	-0,041
347,304	-23,786	-0,230	-0,094
348,319	-4,937	-0,217	-0,102
349,333	217,723	-0,091	-0,099
350,348	800,000	-0,087	-0,249
351,362	-62,995	-0,148	-0,042
352,377	19,790	-0,157	-0,086
353,392	-41,330	-0,131	-0,046
354,406	800,000	-0,059	-0,144
355,421	207,346	1309,326	1399,063
356,435	159,503	1469,375	1399,557
