DTS Sentinel unit serial number:	SN410029Multiplexer serial number:	ORYXHardware model number:	OX2-SRSoftware version number:	ORYX F/W v4,00 Oryx Data Collector v3.7.2.0data status	okinstallation	B3 Nyhavnadifferential loss correction	single-endedforward channel	channel 1reverse channel	N/Adate	2023/12/01time	16:57:30forward acquisition time	300,00reverse acquisition time	0,00gamma	499,1914k internal	0,3205k external	0,3205temperature offset calibration	1,0000default loss term (dB/km)	0,3820temperature slope calibration	1,0000multiplexer offset coefficient	1,0000multiplexer slope coefficient	1,0000fibre end	0,00T internal ref (°C)	13,71T ext. ref 1 (°C)	-0,00T ext. ref 2 (°C)	-0,01length (m)	temperature (°C)	Stokes	anti-Stokes-744,400	320,753	-0,258	-0,357
-743,385	759,330	-0,102	0,201
-742,371	800,000	-0,157	-0,366
-741,356	263,524	0,218	0,275
-740,342	131,323	-0,184	-0,172
-739,327	-200,000	-0,091	0,323
-738,312	143,278	-0,188	-0,181
-737,298	800,000	-0,052	0,122
-736,283	-200,000	-0,053	-0,234
-735,269	-200,000	0,086	0,334
-734,254	127,252	-0,101	-0,093
-733,239	-59,476	-0,286	0,089
-732,225	800,000	-0,113	-0,237
-731,210	-200,000	-0,007	0,122
-730,196	295,662	-0,080	-0,107
-729,181	408,178	-0,162	-0,250
-728,167	125,795	-0,088	-0,081
-727,152	305,931	-0,052	-0,070
-726,137	339,457	-0,070	-0,099
-725,123	777,144	-0,063	-0,125
-724,108	94,183	-0,131	-0,108
-723,094	-147,474	-0,127	0,008
-722,079	800,000	-0,073	-0,182
-721,064	-154,805	-0,123	-0,006
-720,050	-152,989	-0,100	-0,005
-719,035	372,239	0,030	0,044
-718,021	67,577	-0,111	-0,082
-717,006	-200,000	-0,028	-0,130
-715,991	-200,000	0,018	-0,136
-714,977	-200,000	-0,005	-0,175
-713,962	-119,505	-0,034	0,004
-712,948	800,000	0,040	-0,090
-711,933	251,877	-0,072	0,089
-710,918	117,789	0,077	-0,069
-709,904	-200,000	0,005	-0,021
-708,889	-82,327	-0,155	-0,036
-707,875	240,133	-0,048	-0,059
-706,860	-35,030	0,097	0,038
-705,845	156,451	0,032	0,032
-704,831	87,370	0,161	0,129
-703,816	45,302	0,013	-0,009
-702,802	265,256	-0,028	0,035
-701,787	786,119	-0,038	-0,075
-700,772	37,099	-0,038	-0,024
-699,758	152,644	-0,080	-0,080
-698,743	-91,812	0,094	0,019
-697,729	330,557	-0,038	-0,053
-696,714	224,338	0,044	-0,052
-695,699	164,049	-0,057	-0,058
-694,685	128,949	-0,069	0,064
-693,670	-195,449	-0,135	-0,001
-692,656	-200,000	-0,009	-0,131
-691,641	-105,094	-0,090	0,015
-690,627	17,808	0,168	0,097
-689,612	490,664	-0,043	0,071
-688,597	640,934	0,022	0,042
-687,583	-165,624	-0,128	-0,004
-686,568	-54,942	-0,162	-0,053
-685,554	176,564	-0,118	-0,124
-684,539	-76,280	0,282	-0,071
-683,524	-118,861	0,067	0,008
-682,510	-91,842	0,043	0,009
-681,495	348,428	-0,085	-0,122
-680,481	-30,959	-0,125	-0,051
-679,466	-78,324	0,051	-0,012
-678,451	-133,979	-0,118	-0,010
-677,437	565,552	-0,043	0,076
-676,422	-93,596	0,044	0,009
-675,408	103,776	0,041	0,035
-674,393	55,212	-0,083	0,058
-673,378	-20,125	-0,106	-0,047
-672,364	152,112	0,016	0,016
-671,349	800,000	-0,035	-0,090
-670,335	-137,332	0,021	0,002
-669,320	182,124	0,010	0,011
-668,305	-43,418	-0,082	-0,030
-667,291	123,566	0,031	0,028
-666,276	221,754	-0,057	-0,067
-665,262	35,911	0,078	0,050
-664,247	30,962	-0,095	-0,059
-663,232	-127,896	-0,058	0,006
-662,218	-36,444	-0,095	0,037
-661,203	296,507	-0,075	0,100
-660,189	135,466	-0,027	-0,025
-659,174	146,879	-0,118	-0,115
-658,159	64,711	-0,030	0,022
-657,145	-109,489	-0,192	-0,029
-656,130	-23,497	-0,114	-0,049
-655,116	-44,260	0,026	0,009
-654,101	800,000	-0,006	0,017
-653,086	-16,307	0,127	-0,058
-652,072	-136,198	-0,239	-0,020
-651,057	-200,000	0,006	0,053
-650,043	-200,000	0,013	-0,082
-649,028	800,000	-0,032	-0,077
-648,014	-26,413	0,135	0,057
-646,999	37,083	0,070	0,045
-645,984	800,000	-0,010	-0,024
-644,970	64,328	-0,041	-0,030
-643,955	800,000	0,025	-0,070
-642,941	681,913	-0,058	-0,109
-641,926	64,949	0,089	-0,065
-640,911	240,924	-0,065	0,079
-639,897	800,000	-0,042	0,116
-638,882	-158,314	0,072	0,003
-637,868	203,870	0,053	-0,060
-636,853	800,000	-0,014	0,041
-635,838	-200,000	0,002	-0,163
-634,824	-200,000	-0,021	0,142
-633,809	800,000	-0,039	-0,094
-632,795	222,961	-0,032	0,037
-631,780	-1,173	0,089	0,045
-630,765	-200,000	-0,002	-0,079
-629,751	-200,000	-0,007	-0,095
-628,736	-79,327	-0,073	0,018
-627,722	77,923	-0,059	-0,045
-626,707	-200,000	0,013	-0,123
-625,692	-200,000	-0,020	0,106
-624,678	-200,000	-0,002	0,034
-623,663	800,000	-0,026	-0,078
-622,649	-136,274	-0,163	-0,014
-621,634	197,686	-0,126	-0,139
-620,619	211,102	-0,078	-0,089
-619,605	-200,000	-0,021	0,075
-618,590	306,408	-0,039	0,053
-617,576	-200,000	0,004	0,142
-616,561	-200,000	0,007	-0,030
-615,546	-74,951	-0,100	0,026
-614,532	84,700	0,085	0,067
-613,517	-70,119	-0,104	-0,028
-612,503	-200,000	-0,004	-0,053
-611,488	434,618	0,058	-0,091
-610,474	106,582	-0,060	0,051
-609,459	800,000	-0,030	0,065
-608,444	339,384	-0,052	0,073
-607,430	-200,000	0,000	-0,027
-606,415	217,505	0,048	0,055
-605,401	-86,593	-0,116	-0,025
-604,386	-200,000	0,013	-0,129
-603,371	-33,910	-0,020	-0,008
-602,357	-87,210	0,073	-0,016
-601,342	-200,000	0,002	-0,235
-600,328	3,116	-0,159	-0,083
-599,313	19,120	-0,034	-0,020
-598,298	23,225	-0,134	0,079
-597,284	800,000	-0,015	-0,046
-596,269	62,032	0,088	-0,063
-595,255	-200,000	0,010	0,159
-594,240	800,000	0,022	-0,064
-593,225	13,152	-0,126	-0,070
-592,211	494,951	-0,025	-0,042
-591,196	-56,802	-0,038	0,012
-590,182	800,000	-0,035	-0,109
-589,167	-139,437	-0,045	0,003
-588,152	-200,000	0,008	0,062
-587,138	-87,324	-0,105	-0,023
-586,123	166,469	-0,056	-0,058
-585,109	-200,000	0,001	0,007
-584,094	283,184	-0,098	-0,127
-583,079	-200,000	-0,025	0,107
-582,065	534,134	-0,072	0,123
-581,050	-84,783	0,110	0,025
-580,036	63,072	0,031	-0,022
-579,021	231,329	0,069	-0,081
-578,006	-62,575	0,043	-0,013
-576,992	28,594	0,005	-0,003
-575,977	-200,000	0,006	0,034
-574,963	621,393	0,038	0,068
-573,948	296,693	0,018	0,024
-572,934	81,645	-0,109	-0,085
-571,919	-200,000	0,007	-0,093
-570,904	800,000	0,033	-0,089
-569,890	-140,542	-0,143	0,011
-568,875	-194,211	-0,134	0,001
-567,861	800,000	0,006	0,012
-566,846	-52,108	0,114	0,038
-565,831	800,000	-0,010	0,031
-564,817	-23,210	0,068	-0,030
-563,802	-200,000	0,025	-0,146
-562,788	800,000	-0,064	-0,179
-561,773	-200,000	-0,016	-0,127
-560,758	-123,301	0,121	0,014
-559,744	-11,791	0,117	0,055
-558,729	503,518	-0,051	-0,086
-557,715	-200,000	0,017	0,198
-556,700	335,873	-0,059	-0,083
-555,685	-61,630	-0,026	0,008
-554,671	-200,000	-0,001	-0,022
-553,656	-144,972	0,122	-0,008
-552,642	484,911	0,042	-0,069
-551,627	-91,000	0,217	-0,045
-550,612	288,174	0,011	-0,014
-549,598	6,833	-0,157	0,084
-548,583	-77,785	-0,093	-0,023
-547,569	-200,000	-0,018	0,065
-546,554	-150,841	0,131	0,007
-545,539	-114,787	0,124	-0,017
-544,525	318,358	-0,091	0,125
-543,510	800,000	-0,045	-0,108
-542,496	-200,000	-0,006	0,047
-541,481	-200,000	-0,001	0,034
-540,466	-56,545	0,084	-0,027
-539,452	-200,000	-0,003	-0,027
-538,437	800,000	0,046	0,143
-537,423	88,828	0,071	-0,057
-536,408	800,000	0,088	-0,186
-535,393	800,000	-0,099	-0,226
-534,379	290,380	-0,036	0,047
-533,364	-130,891	0,066	0,006
-532,350	-200,000	-0,008	0,108
-531,335	-108,912	0,158	0,024
-530,321	-21,765	-0,070	0,030
-529,306	-195,421	-0,074	0,000
-528,291	67,930	-0,121	0,089
-527,277	-13,254	-0,095	0,044
-526,262	246,600	-0,044	0,053
-525,248	327,746	0,023	-0,032
-524,233	653,494	0,015	-0,029
-523,218	-26,521	0,049	0,021
-522,204	800,000	-0,027	-0,076
-521,189	36,012	-0,017	-0,011
-520,175	800,000	0,013	-0,027
-519,160	-200,000	0,027	-0,095
-518,145	800,000	0,036	0,109
-517,131	563,796	0,008	0,013
-516,116	39,321	0,102	0,066
-515,102	515,320	-0,055	0,092
-514,087	-0,031	-0,042	-0,022
-513,072	800,000	0,016	-0,040
-512,058	125,004	-0,150	-0,136
-511,043	-27,905	0,183	0,076
-510,029	-81,313	0,093	-0,022
-509,014	800,000	0,062	-0,126
-507,999	-80,022	0,060	-0,014
-506,985	245,924	-0,102	-0,124
-505,970	658,593	-0,075	-0,139
-504,956	-200,000	0,002	0,103
-503,941	90,504	0,019	0,015
-502,926	-135,058	0,196	-0,017
-501,912	690,398	0,039	0,073
-500,897	35,184	0,098	-0,061
-499,883	535,024	0,030	-0,052
-498,868	-13,310	0,065	0,030
-497,853	-169,746	0,047	0,001
-496,839	-49,897	0,086	0,029
-495,824	-73,996	-0,169	0,044
-494,810	-55,563	-0,101	-0,032
-493,795	-22,259	-0,081	-0,035
-492,781	176,387	0,055	-0,058
-491,766	109,398	-0,073	-0,063
-490,751	309,101	0,053	-0,071
-489,737	245,972	-0,016	-0,019
-488,722	800,000	-0,029	0,061
-487,708	-16,766	0,156	-0,071
-486,693	-200,000	0,000	0,137
-485,678	184,064	-0,079	0,084
-484,664	-140,924	-0,223	0,016
-483,649	-200,000	-0,014	0,044
-482,635	119,428	0,095	0,084
-481,620	800,000	-0,019	0,053
-480,605	-143,127	-0,040	-0,003
-479,591	-0,243	0,132	0,067
-478,576	-200,000	-0,012	0,072
-477,562	-200,000	-0,021	0,070
-476,547	-181,781	0,084	-0,001
-475,532	-65,143	0,149	0,043
-474,518	-200,000	0,011	0,048
-473,503	-156,642	0,150	-0,007
-472,489	800,000	0,066	0,140
-471,474	325,368	0,089	0,123
-470,459	320,927	-0,024	-0,033
-469,445	800,000	0,015	0,033
-468,430	86,993	0,014	0,011
-467,416	17,336	0,076	0,043
-466,401	-200,000	-0,008	0,196
-465,386	564,153	0,055	0,096
-464,372	14,556	-0,037	-0,021
-463,357	800,000	-0,037	-0,109
-462,343	-83,070	-0,077	0,018
-461,328	-82,440	0,084	0,019
-460,313	-181,243	0,081	-0,001
-459,299	-52,683	0,010	-0,003
-458,284	142,808	0,078	0,074
-457,270	92,179	0,070	-0,057
-456,255	133,274	-0,102	0,095
-455,241	800,000	-0,056	0,150
-454,226	-180,900	0,080	0,001
-453,211	-63,997	0,022	0,006
-452,197	604,252	-0,039	0,070
-451,182	800,000	-0,001	-0,004
-450,168	-39,043	-0,043	-0,016
-449,153	-200,000	-0,001	0,034
-448,138	52,149	-0,068	-0,046
-447,124	-126,558	-0,060	0,006
-446,109	-200,000	0,003	0,102
-445,095	90,614	0,142	-0,114
-444,080	120,375	0,097	-0,086
-443,065	10,848	-0,074	0,041
-442,051	-40,232	0,048	0,018
-441,036	75,233	-0,113	-0,086
-440,022	800,000	-0,026	-0,068
-439,007	-200,000	-0,024	0,079
-437,992	450,340	-0,017	0,027
-436,978	-73,229	-0,053	0,014
-435,963	-66,548	0,065	0,018
-434,949	-200,000	-0,003	-0,127
-433,934	800,000	-0,063	-0,157
-432,919	10,731	0,116	-0,064
-431,905	-200,000	0,004	-0,092
-430,890	-35,890	0,111	0,043
-429,876	-0,622	0,022	-0,011
-428,861	-98,459	0,109	-0,020
-427,846	42,240	0,070	0,046
-426,832	282,024	0,036	-0,046
-425,817	-131,453	0,023	0,002
-424,803	-200,000	-0,003	-0,081
-423,788	-200,000	-0,043	0,138
-422,773	0,584	-0,065	-0,033
-421,759	-200,000	0,024	-0,081
-420,744	-200,000	-0,009	0,038
-419,730	-115,632	-0,101	-0,013
-418,715	-88,596	-0,171	-0,036
-417,701	800,000	0,012	-0,030
-416,686	-200,000	0,039	0,156
-415,671	459,209	0,045	0,073
-414,657	800,000	-0,009	-0,022
-413,642	177,606	0,025	-0,026
-412,628	5,271	-0,069	-0,036
-411,613	-11,015	-0,117	-0,055
-410,598	1,033	-0,197	-0,101
-409,584	229,743	-0,055	0,064
-408,569	800,000	0,031	-0,094
-407,555	621,142	0,081	0,147
-406,540	-120,353	-0,099	-0,012
-405,525	800,000	0,010	0,027
-404,511	800,000	-0,035	-0,075
-403,496	-37,320	0,037	-0,014
-402,482	53,260	0,144	0,099
-401,467	-200,000	0,008	0,042
-400,452	-200,000	-0,015	0,089
-399,438	0,336	-0,093	0,047
-398,423	57,688	-0,050	0,035
-397,409	97,767	0,029	0,024
-396,394	-43,852	0,028	-0,010
-395,379	800,000	0,028	-0,057
-394,365	393,663	0,066	-0,099
-393,350	-146,256	0,161	-0,010
-392,336	42,043	-0,021	0,013
-391,321	529,772	0,033	0,057
-390,306	65,839	0,021	0,015
-389,292	-4,998	0,052	-0,025
-388,277	-200,000	-0,044	0,171
-387,263	-2,473	-0,030	0,015
-386,248	81,086	-0,018	0,014
-385,233	800,000	0,024	0,073
-384,219	32,429	-0,064	0,039
-383,204	800,000	-0,033	-0,082
-382,190	90,663	-0,083	-0,067
-381,175	217,910	0,018	-0,020
-380,160	80,429	0,060	-0,046
-379,146	-99,455	0,113	-0,020
-378,131	-5,438	0,019	0,009
-377,117	34,344	0,049	0,031
-376,102	800,000	-0,017	0,044
-375,088	-200,000	-0,006	-0,041
-374,073	16,477	-0,091	0,051
-373,058	-200,000	-0,008	-0,041
-372,044	-150,374	0,052	-0,003
-371,029	785,744	-0,080	0,158
-370,015	241,967	-0,041	0,049
-369,000	31,134	-0,022	0,013
-367,985	-86,552	-0,131	-0,028
-366,971	-163,352	0,040	-0,001
-365,956	647,747	-0,031	0,058
-364,942	-24,629	-0,079	-0,033
-363,927	800,000	0,058	0,155
-362,912	-92,794	0,059	0,012
-361,898	-28,671	-0,112	0,046
-360,883	412,016	0,026	-0,040
-359,869	-200,000	0,010	0,039
-358,854	105,352	0,055	0,047
-357,839	800,000	-0,012	-0,033
-356,825	-41,625	0,047	0,017
-355,810	-137,083	-0,037	-0,003
-354,796	800,000	0,047	-0,104
-353,781	28,432	0,052	0,032
-352,766	-19,311	-0,033	-0,014
-351,752	135,827	0,063	-0,059
-350,737	94,027	0,047	0,038
-349,723	534,550	-0,056	0,096
-348,708	118,399	0,019	0,017
-347,693	4,861	-0,071	0,037
-346,679	0,483	0,081	0,041
-345,664	46,411	0,054	-0,036
-344,650	34,595	-0,042	0,026
-343,635	-93,055	-0,074	0,015
-342,620	-200,000	0,040	0,128
-341,606	354,648	0,048	0,068
-340,591	-169,939	-0,084	0,002
-339,577	800,000	0,049	-0,104
-338,562	797,695	-0,058	-0,114
-337,548	11,561	0,083	-0,046
-336,533	-200,000	-0,019	-0,113
-335,518	-200,000	-0,044	-0,148
-334,504	-200,000	0,019	-0,060
-333,489	-71,425	-0,143	0,038
-332,475	479,665	0,099	-0,162
-331,460	-111,200	0,114	-0,017
-330,445	145,204	0,074	-0,071
-329,431	-200,000	-0,007	-0,021
-328,416	-200,000	0,002	0,137
-327,402	429,987	-0,047	-0,072
-326,387	-200,000	0,012	0,068
-325,372	-83,969	0,092	0,021
-324,358	-63,631	-0,170	0,050
-323,343	404,504	0,117	0,177
-322,329	275,106	0,064	-0,081
-321,314	-200,000	0,038	-0,142
-320,299	-34,786	-0,105	0,041
-319,285	800,000	-0,018	0,040
-318,270	-200,000	-0,005	0,021
-317,256	42,393	0,063	0,041
-316,241	596,003	0,053	0,094
-315,226	537,792	-0,040	0,068
-314,212	791,979	-0,039	0,076
-313,197	800,000	-0,002	0,006
-312,183	-200,000	-0,041	-0,171
-311,168	189,527	-0,039	0,042
-310,153	-200,000	0,025	-0,128
-309,139	-112,968	0,052	-0,007
-308,124	-179,514	0,060	-0,001
-307,110	-200,000	-0,015	-0,102
-306,095	14,589	-0,086	-0,048
-305,080	-166,776	-0,011	-0,000
-304,066	228,611	-0,067	-0,079
-303,051	120,587	-0,064	-0,057
-302,037	92,289	-0,075	-0,061
-301,022	-200,000	-0,016	0,103
-300,008	-200,000	-0,033	-0,138
-298,993	608,302	0,047	0,085
-297,978	-200,000	-0,000	0,071
-296,964	-200,000	0,030	-0,102
-295,949	-200,000	-0,004	-0,105
-294,935	-5,112	0,015	-0,007
-293,920	133,191	0,045	0,042
-292,905	86,307	0,163	0,128
-291,891	-200,000	-0,041	0,166
-290,876	-200,000	0,002	-0,017
-289,862	-89,801	-0,064	0,013
-288,847	800,000	0,020	0,064
-287,832	-200,000	0,015	-0,098
-286,818	-200,000	0,026	0,091
-285,803	173,628	-0,027	0,027
-284,789	800,000	-0,077	0,156
-283,774	148,502	-0,109	0,106
-282,759	800,000	-0,037	0,089
-281,745	-22,609	0,084	0,036
-280,730	-200,000	0,000	-0,017
-279,716	800,000	-0,014	-0,036
-278,701	-73,940	0,115	0,029
-277,686	-200,000	-0,027	0,093
-276,672	-200,000	0,019	-0,084
-275,657	-200,000	0,013	0,066
-274,643	300,281	0,025	-0,033
-273,628	24,651	-0,061	0,036
-272,613	75,681	0,044	-0,033
-271,599	-200,000	0,002	0,131
-270,584	505,210	0,021	-0,035
-269,570	800,000	-0,038	-0,088
-268,555	54,520	-0,028	-0,019
-267,540	508,265	0,038	0,064
-266,526	59,395	-0,026	0,018
-265,511	-177,708	0,131	-0,002
-264,497	-98,364	0,050	0,009
-263,482	385,324	0,053	0,078
-262,467	67,293	0,020	0,015
-261,453	-200,000	-0,007	-0,056
-260,438	-200,000	0,005	-0,023
-259,424	102,331	0,031	-0,026
-258,409	-32,809	0,125	-0,049
-257,395	-200,000	0,007	0,089
-256,380	-200,000	0,012	0,045
-255,365	-100,760	0,053	0,009
-254,351	8,473	0,138	0,074
-253,336	35,600	-0,038	-0,024
-252,322	435,705	-0,006	0,010
-251,307	206,521	-0,155	-0,172
-250,292	-200,000	-0,001	-0,104
-249,278	403,275	-0,057	-0,086
-248,263	-39,653	-0,103	0,038
-247,249	322,211	-0,021	0,029
-246,234	-112,887	-0,094	-0,013
-245,219	278,222	-0,030	-0,038
-244,205	2,336	-0,032	0,016
-243,190	-200,000	0,017	0,098
-242,176	-200,000	-0,032	0,153
-241,161	32,605	-0,149	0,092
-240,146	174,763	0,080	0,082
-239,132	110,393	-0,090	0,077
-238,117	-127,986	-0,091	0,009
-237,103	403,303	-0,054	0,082
-236,088	-95,182	0,069	-0,013
-235,073	612,669	0,055	0,099
-234,059	800,000	0,011	0,027
-233,044	-83,700	0,033	0,007
-232,030	800,000	-0,087	-0,190
-231,015	621,152	-0,006	0,010
-230,000	424,058	0,044	-0,068
-228,986	-200,000	0,009	0,113
-227,971	481,166	-0,026	0,042
-226,957	-76,076	0,073	-0,018
-225,942	-200,000	0,002	0,021
-224,927	2,395	-0,089	0,046
-223,913	-68,729	-0,057	0,016
-222,898	-200,000	0,022	-0,106
-221,884	599,012	0,030	0,053
-220,869	-94,493	0,126	-0,024
-219,855	-200,000	-0,010	0,089
-218,840	-200,000	0,005	-0,061
-217,825	-200,000	-0,003	0,046
-216,811	-200,000	0,004	-0,223
-215,796	-200,000	-0,030	-0,144
-214,782	800,000	-0,024	-0,058
-213,767	-140,281	-0,029	-0,002
-212,752	668,494	0,025	0,047
-211,738	83,862	0,035	0,027
-210,723	-105,844	0,067	0,011
-209,709	-78,117	-0,041	0,010
-208,694	800,000	-0,088	-0,193
-207,679	539,327	0,097	-0,165
-206,665	582,454	-0,049	-0,087
-205,650	-0,143	0,042	0,021
-204,636	9,851	0,106	-0,057
-203,621	-152,728	-0,061	0,003
-202,606	14,762	-0,058	0,032
-201,592	57,462	0,048	-0,033
-200,577	-155,844	0,028	0,001
-199,563	-200,000	0,004	0,062
-198,548	71,556	0,022	0,016
-197,533	800,000	0,016	-0,039
-196,519	-95,607	-0,131	-0,025
-195,504	800,000	0,052	0,136
-194,490	-13,551	0,097	0,044
-193,475	-200,000	-0,003	0,045
-192,460	-139,320	0,061	-0,005
-191,446	-200,000	0,000	-0,066
-190,431	-200,000	0,014	0,051
-189,417	54,479	-0,068	-0,046
-188,402	-200,000	-0,045	-0,171
-187,387	-200,000	-0,020	-0,165
-186,373	-200,000	-0,017	-0,143
-185,358	341,542	0,048	0,067
-184,344	41,493	0,040	-0,026
-183,329	76,172	0,112	-0,085
-182,315	196,006	0,092	0,100
-181,300	747,469	-0,060	0,115
-180,285	-137,189	-0,156	0,012
-179,271	-200,000	-0,003	-0,009
-178,256	-118,090	0,076	0,010
-177,242	376,979	0,030	0,044
-176,227	107,967	-0,062	0,053
-175,212	800,000	0,055	-0,128
-174,198	800,000	-0,035	0,105
-173,183	36,812	-0,106	-0,067
-172,169	-155,692	0,066	-0,003
-171,154	-116,340	-0,060	-0,008
-170,139	800,000	0,022	-0,052
-169,125	143,080	0,158	0,150
-168,110	-163,494	0,077	0,003
-167,096	157,312	-0,071	0,070
-166,081	5,886	0,075	0,039
-165,066	45,934	-0,215	-0,141
-164,052	111,524	0,023	0,020
-163,037	-98,152	-0,037	-0,007
-162,023	69,763	-0,038	0,028
-161,008	66,338	0,046	-0,033
-159,993	10,506	-0,104	0,056
-158,979	490,116	0,060	0,098
-157,964	-200,000	-0,008	0,034
-156,950	-40,677	0,068	-0,025
-155,935	-149,722	-0,160	0,009
-154,920	125,625	0,068	0,061
-153,906	68,242	0,052	0,038
-152,891	-200,000	-0,043	0,000
-151,877	-129,206	-0,111	0,011
-150,862	-200,000	-0,009	-0,056
-149,847	-200,000	-0,013	-0,052
-148,833	70,133	-0,043	-0,032
-147,818	-200,000	-0,019	0,065
-146,804	664,333	0,018	0,033
-145,789	800,000	0,039	-0,090
-144,775	-16,199	-0,095	-0,042
-143,760	800,000	0,031	-0,096
-142,745	-63,218	-0,139	0,041
-141,731	358,373	0,109	-0,155
-140,716	304,848	0,101	0,133
-139,702	-51,987	-0,088	-0,029
-138,687	-200,000	0,041	0,150
-137,672	143,692	0,096	-0,091
-136,658	800,000	0,003	-0,010
-135,643	290,340	-0,048	-0,062
-134,629	243,554	-0,002	-0,002
-133,614	211,857	0,051	0,057
-132,599	800,000	0,007	-0,018
-131,585	-98,952	-0,028	0,005
-130,570	-172,032	-0,025	0,001
-129,556	-200,000	-0,018	-0,063
-128,541	492,553	-0,054	-0,088
-127,526	800,000	-0,039	-0,103
-126,512	182,802	-0,009	0,009
-125,497	71,240	0,091	0,067
-124,483	-49,507	-0,073	0,024
-123,468	50,605	0,017	-0,011
-122,453	-200,000	0,007	-0,058
-121,439	44,997	-0,127	-0,083
-120,424	-200,000	-0,027	-0,096
-119,410	800,000	-0,014	-0,043
-118,395	54,774	0,055	0,038
-117,380	427,109	-0,009	-0,014
-116,366	137,025	0,094	0,087
-115,351	-200,000	0,002	-0,068
-114,337	-63,735	-0,105	-0,030
-113,322	26,219	-0,040	-0,024
-112,307	-200,000	0,014	-0,045
-111,293	21,476	0,048	-0,027
-110,278	498,933	-0,072	0,118
-109,264	-94,347	-0,078	-0,015
-108,249	354,544	0,037	-0,053
-107,234	800,000	-0,056	0,144
-106,220	59,791	0,095	0,066
-105,205	141,975	0,046	0,043
-104,191	50,787	0,066	0,044
-103,176	57,431	-0,108	0,075
-102,162	-5,414	-0,096	-0,047
-101,147	800,000	-0,023	-0,069
-100,132	8,588	-0,066	-0,035
-99,118	-200,000	0,017	0,078
-98,103	-200,000	-0,031	-0,145
-97,089	-71,169	-0,019	0,005
-96,074	800,000	0,097	0,200
-95,059	800,000	-0,019	0,047
-94,045	228,855	0,061	-0,070
-93,030	-102,527	-0,051	-0,009
-92,016	616,954	0,074	-0,133
-91,001	-55,840	0,103	-0,032
-89,986	125,035	0,077	0,069
-88,972	5,204	0,059	0,031
-87,957	-27,479	-0,120	-0,049
-86,943	-200,000	0,012	0,130
-85,928	-11,631	-0,121	-0,056
-84,913	-11,451	-0,055	0,026
-83,899	-52,558	-0,081	-0,026
-82,884	-120,219	-0,102	0,012
-81,870	529,648	0,041	-0,068
-80,855	179,566	0,074	-0,076
-79,840	37,184	-0,172	0,108
-78,826	236,189	-0,073	-0,085
-77,811	-200,000	0,063	-0,242
-76,797	-181,973	-0,029	0,000
-75,782	-153,096	0,135	0,007
-74,767	267,674	0,082	0,102
-73,753	-32,067	-0,149	0,059
-72,738	-31,649	-0,011	0,004
-71,724	-200,000	0,020	-0,087
-70,709	415,871	-0,016	-0,024
-69,694	278,130	0,072	0,091
-68,680	120,590	-0,055	0,048
-67,665	-200,000	-0,005	0,120
-66,651	554,074	-0,039	-0,066
-65,636	19,489	-0,018	0,010
-64,622	-200,000	0,009	0,035
-63,607	-178,717	0,076	0,001
-62,592	-200,000	-0,014	-0,128
-61,578	-200,000	-0,008	0,131
-60,563	202,835	-0,052	-0,057
-59,549	-147,919	-0,093	0,005
-58,534	-41,624	-1,679	-0,607
-57,519	375,386	-1,456	-2,105
-56,505	-200,000	-0,426	-4,565
-55,490	175,933	0,862	0,885
-54,476	800,000	4,864	11,471
-53,461	-200,000	18,890	308,898
-52,446	800,000	736,618	2294,541
-51,432	566,669	1650,353	2842,709
-50,417	78,353	1666,883	1257,248
-49,403	21,680	1539,707	883,853
-48,388	15,538	1462,668	809,891
-47,373	17,954	1452,611	815,912
-46,359	16,856	1442,773	805,114
-45,344	13,820	1438,211	788,054
-44,330	13,756	1436,274	786,656
-43,315	13,761	1434,533	785,693
-42,300	13,751	1432,900	784,720
-41,286	13,787	1431,738	784,222
-40,271	13,757	1430,324	783,278
-39,257	13,707	1429,236	782,411
-38,242	13,844	1427,698	782,189
-37,227	13,808	1426,691	781,436
-36,213	13,799	1425,313	780,604
-35,198	13,782	1424,262	779,920
-34,184	13,839	1423,317	779,641
-33,169	13,773	1421,891	778,514
-32,154	13,828	1420,979	778,245
-31,140	13,813	1419,656	777,419
-30,125	13,832	1418,555	776,877
-29,111	13,829	1417,317	776,153
-28,096	13,781	1416,339	775,359
-27,082	13,724	1415,142	774,405
-26,067	13,773	1413,988	773,974
-25,052	13,745	1413,002	773,270
-24,038	13,733	1411,852	772,558
-23,023	13,709	1410,968	771,930
-22,009	13,756	1409,850	771,505
-20,994	13,663	1409,181	770,675
-19,979	13,659	1408,317	770,152
-18,965	13,699	1407,303	769,754
-17,950	13,701	1406,301	769,184
-16,936	13,671	1405,433	768,540
-15,921	13,659	1404,294	767,831
-14,906	13,646	1403,503	767,309
-13,892	13,634	1402,566	766,709
-12,877	13,624	1401,712	766,165
-11,863	13,666	1400,694	765,772
-10,848	13,618	1399,826	765,046
-9,833	13,589	1399,098	764,484
-8,819	13,599	1398,119	763,965
-7,804	13,546	1397,223	763,199
-6,790	13,546	1396,242	762,631
-5,775	13,561	1395,021	762,003
-4,760	13,530	1394,067	761,312
-3,746	13,530	1393,234	760,824
-2,731	13,570	1392,422	760,539
-1,717	13,492	1391,734	759,770
-0,702	13,500	1389,977	758,820
0,313	17,373	1307,776	731,814
1,327	33,408	703,657	430,748
2,342	51,168	123,561	82,685
3,356	0,865	16,659	8,403
4,371	2,153	3,199	1,627
5,386	20,624	0,501	0,286
6,400	-200,000	0,031	0,106
7,415	476,075	-0,247	-0,396
8,429	41,796	-0,282	-0,180
9,444	100,928	-0,311	-0,255
10,459	361,562	-0,196	-0,278
11,473	-51,652	-0,476	-0,156
12,488	800,000	-0,064	-0,169
13,502	236,409	-0,225	-0,264
14,517	40,774	-0,277	-0,176
15,531	89,809	-0,371	-0,292
16,546	302,171	-0,294	-0,385
17,561	128,638	-0,428	-0,385
18,575	-136,336	-0,216	-0,018
19,590	548,456	-0,222	-0,377
20,604	66,400	-0,268	-0,192
21,619	22,400	-0,529	-0,304
22,634	17,679	-0,390	-0,218
23,648	84,973	-0,439	-0,339
24,663	153,513	-0,451	-0,436
25,677	-37,817	-0,249	-0,093
26,692	163,653	-0,344	-0,342
27,707	241,714	-0,229	-0,271
28,721	124,062	-0,237	-0,210
29,736	145,940	-0,454	-0,430
30,750	192,480	-0,449	-0,479
31,765	190,379	-0,327	-0,346
32,780	-9,096	-0,450	-0,212
33,794	64,183	-0,366	-0,259
34,809	117,035	-0,285	-0,246
35,823	-111,000	-0,355	-0,051
36,838	189,517	-0,336	-0,355
37,853	20,591	-0,382	-0,217
38,867	16,881	-0,458	-0,254
39,882	67,034	-0,430	-0,308
40,896	44,501	-0,370	-0,239
41,911	89,250	-0,343	-0,269
42,926	14,340	-0,383	-0,210
43,940	90,399	-0,311	-0,245
44,955	94,926	-0,439	-0,352
45,969	54,317	-0,418	-0,283
46,984	109,301	-0,241	-0,203
47,999	298,841	-0,232	-0,301
49,013	171,241	-0,338	-0,341
50,028	-5,005	-0,281	-0,136
51,042	800,000	-0,148	-0,290
52,057	112,295	-0,420	-0,357
53,071	57,678	-0,333	-0,229
54,086	102,833	-0,263	-0,216
55,101	239,449	-0,282	-0,331
56,115	37,058	-0,338	-0,210
57,130	113,003	-0,337	-0,287
58,144	23,930	-0,517	-0,299
59,159	110,001	-0,326	-0,275
60,174	153,369	-0,339	-0,326
61,188	170,323	-0,360	-0,363
62,203	127,192	-0,314	-0,280
63,217	79,880	-0,328	-0,247
64,232	191,852	-0,299	-0,317
65,247	2,346	-0,342	-0,173
66,261	34,221	-0,386	-0,236
67,276	-32,447	-0,418	-0,163
68,290	120,480	-0,341	-0,298
69,305	-82,685	-0,496	-0,112
70,320	-6,644	-0,452	-0,215
71,334	455,579	-0,120	-0,188
72,349	295,656	-0,259	-0,334
73,363	-24,952	-0,295	-0,122
74,378	45,345	-0,348	-0,225
75,393	19,155	-0,390	-0,219
76,407	6,267	-0,380	-0,197
77,422	164,166	-0,320	-0,317
78,436	178,910	-0,244	-0,250
79,451	-81,251	-0,462	-0,106
80,466	176,644	-0,187	-0,191
81,480	137,265	-0,279	-0,256
82,495	-2,649	-0,356	-0,174
83,509	128,571	-0,244	-0,218
84,524	414,460	-0,154	-0,230
85,539	46,017	-0,270	-0,175
86,553	70,992	-0,262	-0,190
87,568	156,437	-0,236	-0,228
88,582	-75,169	-0,265	-0,066
89,597	-98,515	-0,296	-0,053
90,611	1,211	-0,259	-0,130
91,626	129,510	-0,198	-0,178
92,641	48,524	-0,230	-0,151
93,655	-5,174	-0,346	-0,166
94,670	353,662	-0,232	-0,324
95,684	566,745	-0,238	-0,406
96,699	35,853	-0,330	-0,203
97,714	161,799	-0,231	-0,227
98,728	-23,357	-0,284	-0,119
99,743	195,962	-0,243	-0,259
100,757	-56,628	-0,356	-0,110
101,772	115,385	-0,383	-0,327
102,787	81,410	-0,269	-0,204
103,801	202,837	-0,363	-0,393
104,816	651,279	-0,150	-0,270
105,830	76,998	-0,191	-0,142
106,845	-33,095	-0,346	-0,134
107,860	-12,436	-0,276	-0,126
108,874	80,823	-0,294	-0,222
109,889	73,572	-0,349	-0,256
110,903	127,599	-0,257	-0,228
111,918	-107,921	-0,291	-0,044
112,933	195,542	-0,223	-0,237
113,947	47,728	-0,222	-0,145
114,962	91,905	-0,216	-0,170
115,976	-70,724	-0,229	-0,060
116,991	44,988	-0,256	-0,165
118,006	-115,607	-0,295	-0,038
119,020	-60,347	-0,294	-0,087
120,035	-58,952	-0,150	-0,045
121,049	79,477	-0,204	-0,153
122,064	65,442	-0,293	-0,207
123,079	36,323	-0,294	-0,181
124,093	76,623	-0,212	-0,157
125,108	58,977	-0,291	-0,200
126,122	84,442	-0,277	-0,211
127,137	-21,090	-0,250	-0,106
128,151	717,640	-0,157	-0,292
129,166	69,992	-0,240	-0,173
130,181	269,412	-0,217	-0,267
131,195	800,000	-0,160	-0,337
132,210	-59,041	-0,301	-0,090
133,224	-97,848	-0,258	-0,046
134,239	75,085	-0,204	-0,150
135,254	167,006	-0,069	-0,068
136,268	800,000	-0,075	-0,209
137,283	82,836	-0,089	-0,067
138,297	34,266	-0,291	-0,177
139,312	434,013	-0,259	-0,395
140,327	73,682	-0,224	-0,164
141,341	-66,604	-0,118	-0,032
142,356	35,206	-0,189	-0,116
143,370	-26,362	-0,341	-0,139
144,385	45,549	-0,204	-0,131
145,400	220,001	-0,235	-0,263
146,414	800,000	-0,146	-0,369
147,429	194,319	-0,241	-0,255
148,443	-104,278	-0,238	-0,038
149,458	33,199	-0,271	-0,164
150,473	188,759	-0,158	-0,165
151,487	24,222	-0,252	-0,145
152,502	-25,080	-0,319	-0,131
153,516	-83,029	-0,260	-0,058
154,531	159,172	-0,221	-0,214
155,546	87,498	-0,207	-0,160
156,560	50,037	-0,266	-0,175
157,575	31,679	-0,187	-0,112
158,589	94,556	-0,230	-0,182
159,604	93,246	-0,255	-0,201
160,619	-35,338	-0,211	-0,080
161,633	0,441	-0,229	-0,114
162,648	-27,526	-0,246	-0,099
163,662	60,757	-0,250	-0,172
164,677	148,781	-0,226	-0,213
165,692	-31,087	-0,265	-0,104
166,706	56,224	-0,214	-0,145
167,721	116,580	-0,182	-0,155
168,735	150,854	-0,223	-0,211
169,750	-157,890	-0,249	0,010
170,764	-127,195	-0,147	-0,015
171,779	-17,725	-0,204	-0,089
172,794	-105,080	-0,357	-0,056
173,808	294,587	-0,234	-0,298
174,823	249,687	-0,283	-0,334
175,837	572,656	-0,151	-0,257
176,852	15,847	-0,255	-0,139
177,867	-130,404	-0,222	0,021
178,881	-135,474	-0,215	-0,018
179,896	13,509	-0,277	-0,149
180,910	-13,968	-0,262	-0,117
181,925	93,263	-0,258	-0,202
182,940	90,606	-0,324	-0,252
183,954	172,689	-0,151	-0,151
184,969	-125,576	-0,222	-0,023
185,983	99,260	-0,162	-0,130
186,998	244,758	-0,156	-0,183
188,013	151,350	-0,214	-0,202
189,027	77,344	-0,290	-0,214
190,042	31,167	-0,276	-0,164
191,056	190,588	-0,156	-0,163
192,071	-33,919	-0,301	-0,115
193,086	380,763	-0,159	-0,227
194,100	-14,505	-0,141	-0,063
195,115	109,587	-0,219	-0,182
196,129	383,042	-0,149	-0,213
197,144	10,392	-0,266	-0,140
198,159	-200,000	-0,087	-0,407
199,173	-200,000	-0,037	-0,184
200,188	164,044	-0,076	-0,074
201,202	287,401	-0,150	-0,189
202,217	53,860	-0,273	-0,182
203,232	94,809	-0,214	-0,168
204,246	18,682	-0,289	-0,160
205,261	274,366	-0,201	-0,248
206,275	55,439	-0,209	-0,140
207,290	-104,526	-0,194	-0,031
208,304	-43,132	-0,156	-0,054
209,319	-103,390	-0,159	-0,026
210,334	-52,347	-0,141	-0,045
211,348	300,038	-0,101	-0,129
212,363	-2,945	-0,195	-0,094
213,377	172,119	-0,147	-0,147
214,392	531,532	-0,068	-0,111
215,407	-200,000	-0,044	-0,136
216,421	-155,484	-0,152	-0,007
217,436	82,333	-0,166	-0,125
218,450	305,393	-0,111	-0,143
219,465	209,391	-0,099	-0,108
220,480	135,765	-0,233	-0,210
221,494	-5,246	-0,158	-0,075
222,509	-200,000	0,001	-0,071
223,523	-13,860	-0,162	-0,072
224,538	-104,433	-0,184	-0,029
225,553	249,954	-0,178	-0,209
226,567	171,529	-0,205	-0,204
227,582	-200,000	0,022	-0,396
228,596	800,000	-0,116	-0,246
229,611	-6,096	-0,193	-0,091
230,626	69,124	-0,121	-0,086
231,640	26,035	-0,145	0,084
232,655	-96,606	-0,233	-0,042
233,669	257,727	-0,205	-0,244
234,684	67,074	-0,146	-0,103
235,699	38,408	-0,220	-0,135
236,713	-139,611	-0,215	0,016
237,728	116,655	-0,180	-0,153
238,742	-46,910	-0,193	0,065
239,757	1,797	-0,244	-0,122
240,772	301,773	-0,155	-0,198
241,786	481,487	-0,103	-0,162
242,801	150,134	-0,191	-0,180
243,815	-105,955	-0,140	-0,022
244,830	84,054	-0,167	-0,126
245,844	452,717	-0,123	-0,189
246,859	473,067	-0,197	-0,308
247,874	629,724	-0,133	-0,233
248,888	159,637	-0,181	-0,174
249,903	192,608	-0,192	-0,201
250,917	283,545	-0,142	-0,177
251,932	168,647	-0,170	-0,167
252,947	39,615	-0,229	-0,142
253,961	800,000	-0,093	-0,244
254,976	88,030	-0,195	-0,149
255,990	121,349	-0,172	-0,148
257,005	109,844	-0,136	-0,113
258,020	-45,611	-0,209	-0,071
259,034	-84,029	-0,156	-0,034
260,049	-133,713	-0,313	0,027
261,063	268,220	-0,074	-0,090
262,078	-23,655	-0,260	-0,107
263,093	51,692	-0,211	-0,139
264,107	-16,311	-0,099	-0,043
265,122	13,199	-0,295	-0,157
266,136	-149,506	-0,294	-0,016
267,151	97,304	-0,224	-0,177
268,166	-200,000	-0,043	-0,173
269,180	58,050	-0,133	-0,090
270,195	-41,398	-0,211	-0,075
271,209	54,877	-0,180	-0,120
272,224	-119,265	-0,257	-0,030
273,239	196,038	-0,145	-0,152
274,253	-92,476	-0,136	-0,026
275,268	279,717	-0,152	-0,187
276,282	338,174	-0,203	-0,273
277,297	25,436	-0,279	-0,160
278,312	362,081	-0,173	-0,240
279,326	800,000	-0,089	-0,175
280,341	428,400	-0,115	-0,172
281,355	-23,030	-0,206	-0,085
282,370	386,518	-0,136	-0,194
283,384	-83,948	-0,223	-0,048
284,399	394,338	-0,195	-0,281
285,414	205,285	-0,138	-0,148
286,428	580,123	-0,066	-0,112
287,443	74,987	-0,079	0,057
288,457	-125,256	-0,018	-0,002
289,472	-42,809	-0,268	-0,093
290,487	800,000	-0,113	-0,248
291,501	358,475	-0,149	-0,206
292,516	-26,551	-0,209	-0,084
293,530	13,933	-0,135	-0,072
294,545	800,000	-0,019	0,058
295,560	-175,833	-0,173	-0,003
296,574	-125,633	-0,264	0,027
297,589	57,687	-0,128	0,086
298,603	123,841	-0,117	-0,101
299,618	259,469	-0,106	-0,126
300,633	-51,498	-0,117	-0,037
301,647	-15,011	-0,173	-0,076
302,662	149,539	-0,179	-0,167
303,676	546,054	-0,106	-0,175
304,691	50,059	-0,139	-0,090
305,706	-2,305	-0,103	-0,049
306,720	800,000	-0,064	-0,146
307,735	295,240	-0,131	-0,166
308,749	800,000	-0,070	-0,149
309,764	-99,767	-0,085	-0,015
310,779	239,435	-0,131	-0,150
311,793	800,000	-0,035	-0,099
312,808	-200,000	-0,014	-0,143
313,822	123,846	-0,160	-0,138
314,837	432,779	-0,130	-0,194
315,852	800,000	-0,048	-0,128
316,866	11,924	-0,075	-0,039
317,881	-129,057	-0,042	-0,004
318,895	153,755	-0,142	-0,133
319,910	207,305	-0,208	-0,223
320,925	378,178	-0,067	-0,094
321,939	4,665	-0,167	-0,084
322,954	-54,212	-0,214	-0,066
323,968	126,870	-0,130	-0,114
324,983	-79,660	-0,253	-0,058
325,997	800,000	-0,130	-0,253
327,012	207,784	-0,139	-0,150
328,027	14,376	-0,188	-0,100
329,041	71,473	-0,190	-0,135
330,056	90,542	-0,249	-0,191
331,070	-122,240	-0,069	0,008
332,085	193,572	-0,115	-0,120
333,100	500,695	-0,122	-0,195
334,114	-19,607	-0,133	-0,056
335,129	161,683	-0,130	-0,125
336,143	111,200	-0,076	0,063
337,158	-200,000	-0,024	-0,093
338,173	-27,263	-0,107	-0,043
339,187	5,410	-0,062	0,031
340,202	-47,406	-0,170	-0,056
341,216	735,769	-0,162	-0,298
342,231	178,175	-0,090	-0,090
343,246	83,416	-0,081	-0,061
344,260	92,183	-0,060	-0,046
345,275	56,541	-0,082	0,054
346,289	24,663	-0,125	-0,071
347,304	-66,466	-0,168	-0,046
348,319	141,990	-0,156	-0,142
349,333	114,961	-0,163	-0,137
350,348	800,000	-0,083	-0,193
351,362	176,252	-0,248	-0,247
352,377	20,148	-0,192	-0,106
353,392	-62,640	-0,218	-0,062
354,406	-21,099	-0,214	0,089
355,421	209,524	1312,561	1410,891
356,435	161,260	1473,046	1411,397
