DTS Sentinel unit serial number:	SN410029Multiplexer serial number:	ORYXHardware model number:	OX2-SRSoftware version number:	ORYX F/W v4,00 Oryx Data Collector v3.7.2.0data status	okinstallation	B3 Nyhavnadifferential loss correction	single-endedforward channel	channel 1reverse channel	N/Adate	2023/12/05time	06:27:30forward acquisition time	300,00reverse acquisition time	0,00gamma	499,1914k internal	0,3200k external	0,3200temperature offset calibration	1,0000default loss term (dB/km)	0,3820temperature slope calibration	1,0000multiplexer offset coefficient	1,0000multiplexer slope coefficient	1,0000fibre end	0,00T internal ref (°C)	13,93T ext. ref 1 (°C)	-0,99T ext. ref 2 (°C)	-1,02length (m)	temperature (°C)	Stokes	anti-Stokes-744,400	305,274	-0,221	-0,300
-743,385	-200,000	0,034	0,248
-742,371	23,539	-0,220	-0,131
-741,356	-200,000	0,038	0,506
-740,342	300,448	-0,171	-0,230
-739,327	-200,000	0,020	0,285
-738,312	307,236	-0,255	-0,346
-737,298	-200,000	-0,047	0,193
-736,283	53,667	-0,192	-0,134
-735,269	800,000	0,109	0,305
-734,254	-20,764	-0,196	-0,087
-733,239	179,651	-0,162	0,173
-732,225	-200,000	-0,054	-0,179
-731,210	-200,000	-0,004	0,149
-730,196	-200,000	-0,001	0,037
-729,181	175,106	-0,045	-0,047
-728,167	-200,000	-0,013	0,131
-727,152	-56,014	-0,220	-0,071
-726,137	-200,000	0,003	-0,163
-725,123	-70,426	-0,180	-0,049
-724,108	-200,000	0,002	-0,125
-723,094	-159,474	0,008	-0,000
-722,079	93,108	-0,065	-0,053
-721,064	800,000	0,046	-0,138
-720,050	-200,000	-0,015	-0,064
-719,035	-13,262	-0,088	0,041
-718,021	-200,000	-0,013	-0,093
-717,006	-200,000	-0,013	-0,116
-715,991	137,011	-0,061	-0,058
-714,977	-200,000	-0,011	-0,069
-713,962	160,934	-0,086	-0,087
-712,948	-147,772	-0,068	0,004
-711,933	551,365	0,036	0,063
-710,918	-200,000	0,010	-0,088
-709,904	59,132	0,056	-0,040
-708,889	-17,549	-0,044	0,020
-707,875	800,000	-0,044	-0,095
-706,860	-20,606	-0,080	-0,036
-705,845	-200,000	-0,035	0,183
-704,831	-200,000	-0,010	-0,032
-703,816	-61,593	-0,149	-0,045
-702,802	800,000	0,009	0,021
-701,787	-109,486	-0,140	0,021
-700,772	800,000	0,032	-0,070
-699,758	800,000	0,050	-0,144
-698,743	-12,902	0,145	-0,068
-697,729	285,785	-0,030	-0,040
-696,714	-160,326	0,095	0,004
-695,699	-6,851	-0,105	-0,051
-694,685	800,000	-0,023	0,069
-693,670	-61,525	0,071	-0,022
-692,656	416,353	0,078	-0,121
-691,641	-200,000	-0,007	0,024
-690,627	9,328	-0,079	0,043
-689,612	800,000	0,042	-0,095
-688,597	62,265	0,075	0,054
-687,583	474,163	-0,030	-0,050
-686,568	-142,457	-0,039	-0,003
-685,554	182,255	-0,069	-0,074
-684,539	-82,277	0,053	0,012
-683,524	-200,000	-0,028	-0,108
-682,510	800,000	-0,031	-0,095
-681,495	45,909	-0,129	-0,087
-680,481	27,024	-0,128	-0,077
-679,466	-126,045	-0,039	-0,004
-678,451	-19,896	0,066	0,029
-677,437	-25,260	-0,111	0,048
-676,422	800,000	0,027	-0,081
-675,408	236,420	-0,013	-0,015
-674,393	-122,161	-0,112	-0,013
-673,378	196,910	-0,071	-0,078
-672,364	259,405	-0,067	-0,084
-671,349	-197,331	-0,113	-0,001
-670,335	-71,926	0,101	0,027
-669,320	-200,000	0,001	-0,106
-668,305	-200,000	-0,028	-0,096
-667,291	-4,472	-0,158	0,079
-666,276	-12,273	-0,089	-0,042
-665,262	800,000	-0,031	-0,065
-664,247	-200,000	-0,012	0,055
-663,232	-200,000	-0,014	-0,229
-662,218	157,473	-0,083	-0,084
-661,203	-200,000	0,021	0,165
-660,189	-86,911	0,026	-0,006
-659,174	-200,000	0,009	-0,080
-658,159	-200,000	-0,038	-0,188
-657,145	-23,222	0,042	-0,018
-656,130	-115,093	0,067	0,009
-655,116	-200,000	-0,041	0,184
-654,101	-59,433	0,107	0,033
-653,086	-192,286	0,075	-0,001
-652,072	-54,023	0,071	0,023
-651,057	289,561	-0,069	-0,091
-650,043	88,594	0,048	0,039
-649,028	-133,804	0,065	-0,006
-648,014	624,996	0,042	0,077
-646,999	-54,880	-0,074	-0,024
-645,984	697,020	0,068	0,129
-644,970	68,359	-0,117	-0,087
-643,955	-186,848	-0,054	0,001
-642,941	-81,274	-0,143	0,034
-641,926	-38,343	0,067	0,026
-640,911	800,000	0,028	-0,073
-639,897	800,000	-0,023	0,046
-638,882	-124,635	-0,167	0,019
-637,868	362,895	-0,061	0,089
-636,853	-200,000	-0,005	-0,173
-635,838	21,860	-0,059	0,035
-634,824	184,786	-0,063	-0,067
-633,809	-142,374	0,086	-0,006
-632,795	-111,818	0,095	0,014
-631,780	-60,455	0,108	-0,033
-630,765	316,135	-0,084	-0,116
-629,751	508,106	0,054	-0,091
-628,736	198,094	-0,015	-0,017
-627,722	-200,000	-0,141	0,000
-626,707	-22,282	-0,020	0,009
-625,692	150,992	0,033	0,032
-624,678	322,834	0,031	0,042
-623,663	188,243	-0,024	0,026
-622,649	-191,599	0,056	-0,000
-621,634	57,138	-0,094	-0,067
-620,619	800,000	-0,063	-0,134
-619,605	320,651	-0,045	0,062
-618,590	108,323	-0,100	-0,086
-617,576	-60,706	0,072	0,022
-616,561	92,348	-0,045	0,037
-615,546	-200,000	0,009	0,078
-614,532	-200,000	0,014	-0,074
-613,517	30,579	0,085	-0,052
-612,503	800,000	0,028	-0,088
-611,488	-200,000	0,010	-0,048
-610,474	330,131	0,036	0,050
-609,459	202,979	0,004	0,005
-608,444	-200,000	0,017	0,068
-607,430	-71,166	-0,140	-0,038
-606,415	-84,325	-0,153	-0,035
-605,401	-0,952	-0,058	0,030
-604,386	203,353	0,072	0,081
-603,371	103,142	-0,092	0,078
-602,357	-200,000	-0,011	-0,082
-601,342	800,000	-0,040	-0,125
-600,328	-68,737	0,082	-0,023
-599,313	-124,607	-0,099	-0,011
-598,298	-61,840	0,051	0,015
-597,284	498,509	0,074	-0,124
-596,269	-149,379	0,167	0,009
-595,255	-118,363	-0,040	0,005
-594,240	191,995	-0,029	0,031
-593,225	800,000	-0,013	-0,028
-592,211	800,000	0,072	-0,194
-591,196	-107,080	-0,065	-0,010
-590,182	172,841	-0,052	-0,054
-589,167	65,258	0,136	0,099
-588,152	-33,015	-0,106	0,042
-587,138	-115,237	0,057	0,008
-586,123	800,000	-0,023	-0,055
-585,109	-200,000	-0,009	0,050
-584,094	-200,000	-0,018	-0,121
-583,079	-0,574	-0,006	0,003
-582,065	-179,321	0,046	-0,001
-581,050	19,128	0,011	0,007
-580,036	-200,000	-0,034	-0,161
-579,021	-200,000	0,015	-0,072
-578,006	-200,000	0,062	-0,240
-576,992	210,115	0,024	-0,028
-575,977	170,324	-0,066	-0,068
-574,963	-44,263	0,054	0,019
-573,948	-57,354	-0,094	0,030
-572,934	22,997	0,071	-0,042
-571,919	-99,235	-0,100	-0,018
-570,904	32,215	0,038	-0,023
-569,890	257,675	-0,056	0,070
-568,875	-200,000	0,009	0,030
-567,861	-200,000	0,024	-0,078
-566,846	375,820	-0,025	0,037
-565,831	-72,870	0,083	0,022
-564,817	207,867	-0,052	0,059
-563,802	-45,049	-0,054	0,019
-562,788	628,055	0,072	-0,132
-561,773	148,653	0,056	-0,055
-560,758	163,646	0,037	-0,037
-559,744	38,496	0,073	0,047
-558,729	-92,002	-0,096	0,020
-557,715	-62,571	0,016	0,005
-556,700	-200,000	0,000	-0,022
-555,685	-200,000	-0,006	-0,141
-554,671	-34,850	-0,048	-0,019
-553,656	-168,141	0,085	-0,002
-552,642	32,925	-0,037	-0,023
-551,627	-200,000	-0,022	-0,096
-550,612	800,000	-0,044	-0,095
-549,598	-180,059	0,046	0,001
-548,583	71,617	0,025	-0,018
-547,569	800,000	0,044	0,097
-546,554	-104,698	0,060	-0,010
-545,539	-200,000	0,017	-0,137
-544,525	79,076	-0,061	-0,047
-543,510	-72,425	0,071	0,019
-542,496	231,133	-0,013	-0,016
-541,481	-41,070	-0,118	0,044
-540,466	-116,005	0,071	0,009
-539,452	-129,827	0,179	0,018
-538,437	-200,000	-0,004	-0,085
-537,423	259,006	-0,062	-0,077
-536,408	-21,322	0,152	-0,067
-535,393	-200,000	0,017	-0,126
-534,379	-200,000	-0,005	0,027
-533,364	800,000	-0,056	0,121
-532,350	-200,000	0,005	-0,024
-531,335	474,458	-0,046	-0,076
-530,321	800,000	0,059	-0,174
-529,306	-200,000	-0,023	0,156
-528,291	800,000	-0,081	-0,183
-527,277	-12,656	-0,077	-0,036
-526,262	300,367	-0,066	-0,087
-525,248	800,000	-0,034	-0,078
-524,233	76,247	0,075	-0,057
-523,218	134,235	-0,122	-0,114
-522,204	180,431	0,098	-0,104
-521,189	7,872	0,102	0,055
-520,175	324,165	-0,051	-0,070
-519,160	-200,000	-0,007	-0,092
-518,145	-200,000	0,012	0,146
-517,131	103,816	0,137	0,116
-516,116	800,000	0,030	0,079
-515,102	800,000	0,047	0,131
-514,087	-200,000	0,006	0,123
-513,072	-200,000	-0,020	-0,066
-512,058	-200,000	0,026	-0,084
-511,043	-200,000	-0,045	0,262
-510,029	-79,135	0,082	0,020
-509,014	-67,996	-0,179	-0,050
-507,999	800,000	-0,055	0,119
-506,985	138,160	-0,100	-0,094
-505,970	129,613	-0,053	0,049
-504,956	-200,000	0,021	0,128
-503,941	-200,000	0,001	0,025
-502,926	-181,497	0,123	-0,002
-501,912	-200,000	0,004	0,114
-500,897	-69,550	0,024	0,007
-499,883	200,385	-0,014	-0,016
-498,868	-115,817	0,039	0,005
-497,853	156,211	-0,134	0,134
-496,839	-200,000	-0,010	0,082
-495,824	86,696	-0,044	-0,035
-494,810	-32,057	-0,038	-0,015
-493,795	800,000	0,008	0,024
-492,781	-167,881	0,087	0,002
-491,766	225,686	-0,036	0,042
-490,751	509,627	-0,042	0,071
-489,737	-15,920	0,019	-0,009
-488,722	270,560	0,052	0,066
-487,708	684,811	0,031	0,058
-486,693	-200,000	-0,002	0,043
-485,678	-200,000	0,019	-0,072
-484,664	53,476	0,057	-0,039
-483,649	-200,000	0,007	0,130
-482,635	264,210	0,062	0,078
-481,620	139,024	-0,054	0,052
-480,605	-200,000	-0,012	-0,087
-479,591	-144,712	0,131	0,009
-478,576	-40,003	0,061	-0,023
-477,562	-107,581	-0,194	0,030
-476,547	-200,000	0,021	-0,125
-475,532	-200,000	0,004	-0,049
-474,518	454,949	-0,036	0,058
-473,503	-200,000	0,037	0,152
-472,489	800,000	0,067	-0,160
-471,474	-67,477	-0,077	-0,022
-470,459	-200,000	-0,002	-0,107
-469,445	-70,584	-0,130	-0,035
-468,430	-98,346	0,097	0,018
-467,416	-200,000	-0,031	-0,103
-466,401	-200,000	-0,031	0,139
-465,386	-56,300	-0,070	0,022
-464,372	77,935	-0,041	-0,032
-463,357	-100,981	-0,041	0,007
-462,343	60,398	-0,140	-0,100
-461,328	-200,000	-0,020	-0,081
-460,313	-200,000	-0,061	0,224
-459,299	-200,000	0,018	-0,072
-458,284	204,892	0,097	0,108
-457,270	800,000	-0,021	-0,049
-456,255	243,169	-0,076	0,091
-455,241	-200,000	0,033	-0,164
-454,226	443,433	-0,115	-0,183
-453,211	-200,000	-0,005	-0,069
-452,197	304,316	-0,070	0,094
-451,182	170,416	-0,048	-0,049
-450,168	-200,000	-0,019	0,242
-449,153	-200,000	0,001	0,024
-448,138	105,497	-0,099	-0,084
-447,124	475,428	0,050	-0,082
-446,109	-200,000	-0,001	-0,023
-445,095	334,716	0,083	0,116
-444,080	-200,000	0,076	0,283
-443,065	151,899	0,053	0,052
-442,051	-89,697	-0,076	-0,016
-441,036	-42,383	-0,107	0,039
-440,022	-200,000	-0,029	-0,097
-439,007	800,000	-0,082	0,228
-437,992	10,024	0,121	0,066
-436,978	367,630	-0,102	0,149
-435,963	136,786	-0,139	0,131
-434,949	800,000	0,042	0,132
-433,934	605,160	0,060	0,108
-432,919	-183,976	-0,074	-0,001
-431,905	-45,907	0,173	-0,061
-430,890	-50,459	0,060	0,020
-429,876	-200,000	0,000	0,066
-428,861	-126,672	0,126	0,013
-427,846	-200,000	-0,032	0,103
-426,832	-33,755	0,090	0,036
-425,817	-129,917	-0,045	-0,004
-424,803	-200,000	0,012	-0,042
-423,788	-200,000	0,008	-0,069
-422,773	15,141	0,132	0,074
-421,759	-200,000	-0,011	0,153
-420,744	107,518	0,051	-0,043
-419,730	448,070	-0,021	0,033
-418,715	72,908	0,035	-0,027
-417,701	286,319	-0,105	-0,137
-416,686	-200,000	0,007	-0,131
-415,671	-200,000	0,001	0,031
-414,657	800,000	0,042	0,095
-413,642	-20,520	0,067	-0,030
-412,628	295,983	-0,098	-0,129
-411,613	5,173	-0,048	0,026
-410,598	79,367	0,087	-0,067
-409,584	224,481	-0,060	0,070
-408,569	274,448	-0,053	-0,068
-407,555	-200,000	-0,019	0,091
-406,540	-200,000	0,007	-0,104
-405,525	-59,153	-0,053	0,016
-404,511	-54,426	-0,101	0,033
-403,496	-166,984	-0,025	-0,001
-402,482	-200,000	0,015	0,070
-401,467	800,000	0,013	0,040
-400,452	-200,000	0,005	0,106
-399,438	284,592	0,074	0,096
-398,423	-93,421	-0,008	0,002
-397,409	562,343	-0,090	-0,157
-396,394	-89,146	-0,057	-0,012
-395,379	-200,000	-0,023	0,189
-394,365	20,397	0,035	0,021
-393,350	-200,000	0,004	-0,032
-392,336	800,000	0,005	-0,014
-391,321	-38,218	-0,168	0,064
-390,306	-200,000	-0,023	-0,157
-389,292	800,000	-0,051	-0,105
-388,277	-65,603	0,091	0,026
-387,263	30,181	0,057	-0,035
-386,248	478,693	0,057	-0,093
-385,233	-200,000	0,006	0,035
-384,219	156,059	0,098	-0,097
-383,204	-200,000	-0,027	0,097
-382,190	-69,074	0,087	0,024
-381,175	218,935	0,091	-0,104
-380,160	-91,691	0,117	-0,024
-379,146	-87,110	0,067	0,015
-378,131	800,000	0,055	0,136
-377,117	-200,000	0,008	-0,051
-376,102	800,000	0,019	-0,050
-375,088	-50,728	0,033	-0,011
-374,073	800,000	0,028	-0,060
-373,058	163,358	0,022	-0,022
-372,044	-51,965	0,092	-0,031
-371,029	201,855	-0,022	0,024
-370,015	-83,021	0,047	-0,011
-369,000	-200,000	0,014	0,138
-367,985	-182,003	-0,154	0,002
-366,971	171,880	-0,093	-0,096
-365,956	800,000	-0,031	-0,094
-364,942	800,000	0,025	0,051
-363,927	70,092	0,128	-0,094
-362,912	800,000	-0,033	-0,080
-361,898	-51,261	-0,079	-0,026
-360,883	71,381	0,039	-0,029
-359,869	437,931	-0,044	-0,069
-358,854	800,000	0,071	0,158
-357,839	-200,000	0,008	0,044
-356,825	-200,000	-0,011	0,107
-355,810	590,877	-0,028	-0,049
-354,796	195,074	-0,060	-0,065
-353,781	-51,906	-0,097	-0,032
-352,766	25,883	-0,039	0,023
-351,752	-104,231	0,135	-0,022
-350,737	800,000	-0,071	0,211
-349,723	-117,113	0,018	-0,002
-348,708	49,317	-0,023	0,016
-347,693	409,273	0,049	0,075
-346,679	50,998	-0,101	-0,069
-345,664	-120,216	-0,083	0,010
-344,650	-200,000	0,003	0,043
-343,635	332,640	-0,010	-0,014
-342,620	-81,179	0,112	0,026
-341,606	16,767	0,026	-0,015
-340,591	177,012	-0,008	0,008
-339,577	85,985	0,149	0,117
-338,562	-200,000	-0,036	-0,121
-337,548	448,347	-0,053	0,084
-336,533	33,942	0,108	-0,067
-335,518	427,296	0,121	0,188
-334,504	-38,628	0,041	-0,016
-333,489	164,403	-0,080	-0,081
-332,475	-200,000	-0,003	-0,108
-331,460	-142,546	-0,077	-0,005
-330,445	-200,000	0,017	0,066
-329,431	-86,321	0,080	0,017
-328,416	-200,000	-0,011	-0,051
-327,402	402,535	0,102	0,154
-326,387	-200,000	-0,019	-0,083
-325,372	-200,000	0,007	0,089
-324,358	799,457	0,016	0,032
-323,343	800,000	0,025	-0,064
-322,329	-104,099	-0,103	-0,017
-321,314	190,191	-0,035	-0,037
-320,299	800,000	0,035	0,088
-319,285	-200,000	0,028	0,124
-318,270	159,831	-0,109	0,109
-317,256	-90,996	-0,049	-0,010
-316,241	664,242	0,073	-0,135
-315,226	-200,000	-0,001	0,149
-314,212	-186,657	0,059	0,001
-313,197	683,062	0,078	-0,147
-312,183	7,299	-0,177	0,094
-311,168	-200,000	-0,011	-0,070
-310,153	-200,000	-0,010	-0,052
-309,139	800,000	-0,016	0,040
-308,124	-177,573	0,156	-0,003
-307,110	141,883	0,091	0,086
-306,095	-200,000	-0,016	-0,093
-305,080	-200,000	-0,010	-0,060
-304,066	800,000	0,044	0,123
-303,051	129,024	0,073	0,067
-302,037	89,577	0,048	-0,038
-301,022	373,698	-0,042	-0,061
-300,008	-200,000	0,012	0,054
-298,993	-200,000	0,012	0,042
-297,978	-3,490	0,102	0,051
-296,964	34,848	-0,029	0,018
-295,949	-29,560	-0,141	-0,058
-294,935	-13,765	0,140	-0,064
-293,920	-25,057	-0,086	-0,036
-292,905	-200,000	0,005	-0,026
-291,891	-200,000	0,012	0,165
-290,876	-135,966	-0,085	-0,007
-289,862	-138,799	0,092	0,007
-288,847	800,000	0,035	-0,076
-287,832	356,854	0,055	-0,078
-286,818	-200,000	0,010	-0,073
-285,803	800,000	0,024	-0,070
-284,789	-144,414	-0,046	0,003
-283,774	800,000	-0,036	0,074
-282,759	-200,000	0,001	-0,091
-281,745	165,358	-0,047	-0,047
-280,730	248,171	-0,062	0,075
-279,716	800,000	0,020	0,059
-278,701	-53,484	0,083	-0,027
-277,686	-200,000	0,002	0,166
-276,672	125,730	0,056	0,050
-275,657	35,621	0,089	0,055
-274,643	-0,557	0,019	-0,010
-273,628	-200,000	0,011	0,097
-272,613	488,540	-0,058	0,095
-271,599	18,231	0,187	0,106
-270,584	-200,000	0,005	0,084
-269,570	-73,536	-0,068	-0,017
-268,555	7,551	0,077	0,041
-267,540	384,292	-0,092	-0,136
-266,526	630,398	-0,054	-0,097
-265,511	544,907	-0,056	-0,096
-264,497	274,227	0,084	-0,106
-263,482	800,000	0,026	0,066
-262,467	-118,782	0,067	0,008
-261,453	-200,000	0,002	-0,040
-260,438	579,552	-0,084	-0,147
-259,424	-25,372	0,073	-0,031
-258,409	-200,000	-0,009	-0,118
-257,395	40,521	0,052	-0,033
-256,380	453,676	0,055	0,088
-255,365	190,328	0,098	0,105
-254,351	32,848	-0,035	0,021
-253,336	361,332	0,066	0,095
-252,322	-200,000	-0,016	-0,076
-251,307	-11,190	-0,111	0,052
-250,292	-200,000	-0,016	0,136
-249,278	41,654	0,157	0,101
-248,263	87,781	-0,042	-0,033
-247,249	-200,000	-0,034	0,117
-246,234	292,515	-0,040	-0,052
-245,219	-200,000	-0,006	-0,118
-244,205	-62,037	-0,065	0,019
-243,190	229,915	0,058	0,067
-242,176	-200,000	-0,012	0,146
-241,161	748,844	0,064	0,125
-240,146	-148,435	-0,122	0,007
-239,132	434,836	-0,025	0,038
-238,117	-71,151	-0,094	-0,025
-237,103	-200,000	-0,005	-0,077
-236,088	51,517	-0,106	0,072
-235,073	-30,600	-0,048	0,019
-234,059	165,863	-0,069	0,069
-233,044	-65,301	0,083	-0,024
-232,030	272,013	-0,050	0,062
-231,015	-98,381	-0,114	-0,021
-230,000	550,163	-0,061	-0,105
-228,986	429,241	-0,030	-0,047
-227,971	216,245	0,075	0,085
-226,957	-200,000	-0,014	0,046
-225,942	-200,000	0,023	-0,144
-224,927	527,117	-0,068	0,114
-223,913	-29,711	0,039	0,016
-222,898	-138,092	-0,100	-0,008
-221,884	257,463	-0,099	0,122
-220,869	-200,000	0,002	-0,043
-219,855	-38,635	0,035	-0,013
-218,840	-25,116	-0,013	0,006
-217,825	-200,000	-0,006	0,089
-216,811	-200,000	0,006	0,073
-215,796	465,612	-0,040	0,063
-214,782	289,979	-0,028	-0,036
-213,767	800,000	0,018	-0,050
-212,752	49,090	0,140	-0,094
-211,738	-200,000	-0,007	0,075
-210,723	800,000	0,031	-0,074
-209,709	17,598	-0,110	-0,062
-208,694	-200,000	-0,003	0,069
-207,679	-200,000	0,001	-0,131
-206,665	332,383	-0,082	-0,113
-205,650	129,182	-0,147	0,134
-204,636	800,000	0,023	0,054
-203,621	-200,000	0,017	0,077
-202,606	19,583	0,106	0,061
-201,592	-200,000	0,003	-0,141
-200,577	-41,831	-0,074	-0,027
-199,563	-61,127	-0,053	-0,016
-198,548	-179,030	0,115	-0,002
-197,533	225,148	0,026	0,030
-196,519	541,877	-0,059	0,101
-195,504	-200,000	-0,007	-0,040
-194,490	532,349	-0,061	-0,104
-193,475	800,000	0,061	-0,128
-192,460	667,863	0,060	-0,111
-191,446	-21,955	0,058	0,025
-190,431	-200,000	0,010	-0,072
-189,417	-41,128	0,061	0,022
-188,402	121,827	-0,066	0,059
-187,387	260,178	-0,006	-0,008
-186,373	200,044	-0,058	-0,063
-185,358	-200,000	-0,011	-0,200
-184,344	-138,523	0,038	0,003
-183,329	-52,474	0,150	0,049
-182,315	-68,658	-0,045	-0,012
-181,300	-150,525	-0,099	0,005
-180,285	-41,076	0,088	-0,032
-179,271	4,880	-0,083	-0,044
-178,256	800,000	0,040	-0,086
-177,242	800,000	-0,055	-0,153
-176,227	75,951	0,060	-0,045
-175,212	800,000	0,037	0,109
-174,198	334,164	0,108	-0,150
-173,183	800,000	0,060	-0,123
-172,169	10,750	-0,032	-0,017
-171,154	-200,000	0,012	0,114
-170,139	-200,000	0,021	-0,091
-169,125	-43,292	-0,065	0,023
-168,110	-60,899	0,051	0,015
-167,096	162,123	0,059	0,059
-166,081	-178,211	0,128	0,002
-165,066	-181,646	-0,049	-0,001
-164,052	119,941	0,168	0,148
-163,037	222,750	0,047	0,054
-162,023	-200,000	-0,006	-0,051
-161,008	595,613	0,041	-0,072
-159,993	160,464	-0,056	0,056
-158,979	-39,131	-0,080	0,030
-157,964	491,051	0,049	-0,080
-156,950	505,625	-0,110	0,183
-155,935	-79,846	-0,024	-0,006
-154,920	151,410	-0,095	0,092
-153,906	-77,503	0,069	0,017
-152,891	20,137	0,089	0,051
-151,877	-9,845	-0,113	-0,053
-150,862	230,422	-0,086	-0,100
-149,847	22,587	-0,127	-0,074
-148,833	-200,000	0,010	0,041
-147,818	-90,471	-0,087	0,018
-146,804	303,389	0,068	-0,089
-145,789	-65,174	0,110	-0,031
-144,775	800,000	0,059	-0,136
-143,760	-200,000	0,006	-0,098
-142,745	-41,491	-0,077	-0,028
-141,731	152,347	-0,083	0,081
-140,716	-94,754	0,176	0,034
-139,702	-97,965	0,056	-0,010
-138,687	736,102	-0,103	0,197
-137,672	763,141	-0,067	0,130
-136,658	22,200	0,093	-0,054
-135,643	9,326	0,023	-0,012
-134,629	-200,000	0,009	-0,080
-133,614	-200,000	-0,003	0,018
-132,599	155,359	0,026	-0,025
-131,585	-94,147	-0,074	0,014
-130,570	178,462	-0,043	0,045
-129,556	-20,073	-0,150	-0,066
-128,541	0,746	-0,100	-0,051
-127,526	-200,000	0,026	0,123
-126,512	-200,000	-0,001	-0,063
-125,497	224,795	-0,030	0,034
-124,483	-200,000	0,039	-0,177
-123,468	218,121	0,024	-0,027
-122,453	-93,785	-0,036	-0,007
-121,439	-64,492	-0,023	0,007
-120,424	250,944	0,048	-0,058
-119,410	545,398	0,045	-0,076
-118,395	300,046	0,078	0,102
-117,380	-200,000	-0,015	0,091
-116,366	-82,088	0,140	0,032
-115,351	-139,949	0,025	0,002
-114,337	522,867	0,036	0,060
-113,322	364,412	0,029	-0,041
-112,307	201,751	0,086	-0,094
-111,293	-200,000	-0,009	0,174
-110,278	301,244	0,041	-0,054
-109,264	-200,000	-0,013	0,141
-108,249	-200,000	-0,000	-0,015
-107,234	-200,000	0,020	-0,114
-106,220	440,161	0,023	0,036
-105,205	800,000	0,027	-0,058
-104,191	478,164	0,075	0,121
-103,176	19,227	-0,023	0,013
-102,162	-28,693	-0,199	0,081
-101,147	281,657	-0,056	-0,071
-100,132	401,523	0,037	-0,056
-99,118	-26,114	0,131	0,054
-98,103	119,029	0,084	0,073
-97,089	800,000	0,055	0,143
-96,074	-199,201	-0,091	-0,000
-95,059	-114,493	-0,073	-0,010
-94,045	-51,118	0,067	-0,022
-93,030	-21,515	-0,127	-0,055
-92,016	800,000	0,063	0,136
-91,001	5,671	-0,052	0,027
-89,986	3,650	0,068	-0,035
-88,972	238,270	-0,097	0,114
-87,957	-200,000	0,010	0,048
-86,943	-25,374	-0,064	0,027
-85,928	82,388	-0,119	0,091
-84,913	-200,000	-0,003	0,021
-83,899	-41,447	-0,115	-0,042
-82,884	415,638	0,053	0,081
-81,870	800,000	-0,049	0,107
-80,855	-200,000	-0,018	-0,107
-79,840	-133,995	0,079	-0,007
-78,826	-72,936	0,125	-0,032
-77,811	-200,000	0,002	-0,084
-76,797	506,027	0,073	0,121
-75,782	-200,000	0,027	0,091
-74,767	145,576	0,091	0,087
-73,753	-200,000	-0,026	-0,149
-72,738	-200,000	-0,006	-0,122
-71,724	-11,257	0,082	-0,038
-70,709	-200,000	0,011	-0,045
-69,694	-200,000	0,006	0,049
-68,680	800,000	0,013	0,038
-67,665	-106,643	0,084	-0,013
-66,651	542,233	0,037	-0,062
-65,636	12,769	-0,101	-0,055
-64,622	-69,470	0,056	-0,015
-63,607	-200,000	0,019	0,107
-62,592	800,000	-0,024	-0,062
-61,578	264,588	-0,075	-0,092
-60,563	800,000	-0,018	0,041
-59,549	-114,596	-0,015	-0,002
-58,534	-30,842	-1,560	-0,621
-57,519	393,880	-1,402	-2,075
-56,505	-200,000	-0,557	-4,624
-55,490	171,505	1,072	1,091
-54,476	800,000	4,927	11,525
-53,461	-200,000	18,838	310,280
-52,446	-200,000	737,940	2315,231
-51,432	573,682	1655,076	2869,378
-50,417	79,147	1671,838	1267,001
-49,403	21,928	1544,405	889,194
-48,388	15,740	1467,143	814,617
-47,373	17,862	1457,182	819,312
-46,359	16,825	1447,314	808,758
-45,344	14,054	1442,755	792,897
-44,330	13,943	1440,889	791,310
-43,315	13,957	1439,152	790,388
-42,300	14,013	1437,243	789,579
-41,286	14,048	1436,027	789,044
-40,271	13,954	1434,707	787,842
-39,257	13,936	1433,600	787,117
-38,242	14,061	1431,947	786,774
-37,227	14,056	1430,965	786,175
-36,213	14,006	1429,849	785,295
-35,198	14,045	1428,544	784,734
-34,184	14,062	1427,595	784,260
-33,169	14,047	1426,331	783,462
-32,154	14,100	1425,212	783,071
-31,140	14,018	1423,988	781,980
-30,125	14,038	1422,967	781,482
-29,111	14,031	1421,654	780,698
-28,096	14,013	1420,696	780,056
-27,082	13,969	1419,592	779,211
-26,067	13,932	1418,479	778,391
-25,052	14,005	1417,312	778,064
-24,038	13,921	1416,558	777,223
-23,023	13,928	1415,398	776,591
-22,009	13,911	1414,483	775,978
-20,994	13,960	1413,455	775,612
-19,979	13,926	1412,621	774,965
-18,965	13,884	1411,689	774,226
-17,950	13,875	1410,690	773,605
-16,936	13,888	1409,856	773,177
-15,921	13,880	1408,749	772,505
-14,906	13,884	1407,867	772,005
-13,892	13,849	1406,983	771,330
-12,877	13,825	1406,096	770,699
-11,863	13,862	1405,017	770,249
-10,848	13,867	1404,192	769,792
-9,833	13,850	1403,317	769,203
-8,819	13,804	1402,542	768,530
-7,804	13,773	1401,474	767,771
-6,790	13,786	1400,505	767,269
-5,775	13,808	1399,493	766,787
-4,760	13,783	1398,566	766,135
-3,746	13,798	1397,444	765,558
-2,731	13,758	1396,816	765,000
-1,717	13,780	1395,682	764,450
-0,702	13,751	1394,136	763,436
0,313	17,563	1311,944	736,117
1,327	33,801	706,026	433,777
2,342	52,075	123,918	83,412
3,356	1,472	16,598	8,419
4,371	-4,720	3,219	1,566
5,386	-33,439	0,581	0,226
6,400	-200,000	0,077	0,266
7,415	-35,583	-0,151	-0,058
8,429	310,010	-0,230	-0,305
9,444	-104,172	-0,342	-0,056
10,459	299,571	-0,146	-0,191
11,473	10,575	-0,278	-0,149
12,488	-98,333	-0,281	-0,050
13,502	91,071	-0,295	-0,234
14,517	-15,280	-0,452	-0,204
15,531	-29,437	-0,352	-0,142
16,546	91,996	-0,336	-0,267
17,561	97,356	-0,352	-0,285
18,575	-35,352	-0,273	-0,104
19,590	-19,869	-0,221	-0,096
20,604	39,869	-0,350	-0,222
21,619	14,890	-0,349	-0,192
22,634	54,816	-0,437	-0,297
23,648	43,579	-0,429	-0,276
24,663	12,605	-0,493	-0,268
25,677	117,919	-0,295	-0,256
26,692	465,190	-0,234	-0,371
27,707	198,918	-0,285	-0,308
28,721	18,769	-0,439	-0,247
29,736	194,347	-0,350	-0,375
30,750	105,556	-0,414	-0,345
31,765	49,234	-0,416	-0,276
32,780	32,719	-0,421	-0,256
33,794	106,305	-0,303	-0,253
34,809	111,561	-0,302	-0,257
35,823	94,099	-0,355	-0,284
36,838	-68,825	-0,523	-0,142
37,853	71,463	-0,337	-0,247
38,867	226,870	-0,284	-0,326
39,882	226,737	-0,210	-0,241
40,896	62,697	-0,320	-0,225
41,911	210,275	-0,263	-0,292
42,926	39,561	-0,377	-0,238
43,940	105,351	-0,369	-0,307
44,955	-20,948	-0,368	-0,158
45,969	60,156	-0,322	-0,224
46,984	0,378	-0,409	-0,205
47,999	43,871	-0,281	-0,181
49,013	-2,251	-0,230	-0,114
50,028	34,261	-0,273	-0,167
51,042	63,110	-0,388	-0,274
52,057	13,948	-0,384	-0,210
53,071	44,015	-0,415	-0,267
54,086	333,797	-0,184	-0,251
55,101	-1,080	-0,468	-0,232
56,115	587,968	-0,110	-0,192
57,130	1,834	-0,418	-0,211
58,144	45,472	-0,331	-0,214
59,159	62,348	-0,452	-0,317
60,174	65,355	-0,420	-0,299
61,188	202,822	-0,261	-0,284
62,203	101,884	-0,313	-0,257
63,217	30,625	-0,341	-0,205
64,232	-4,379	-0,247	-0,120
65,247	101,902	-0,382	-0,313
66,261	270,299	-0,260	-0,322
67,276	175,917	-0,232	-0,237
68,290	-32,162	-0,317	-0,124
69,305	26,706	-0,240	-0,141
70,320	-14,253	-0,298	-0,135
71,334	51,192	-0,247	-0,165
72,349	125,903	-0,282	-0,251
73,363	65,031	-0,278	-0,197
74,378	-5,706	-0,529	-0,254
75,393	-113,552	-0,355	-0,048
76,407	180,017	-0,201	-0,207
77,422	55,673	-0,362	-0,246
78,436	-48,832	-0,378	-0,127
79,451	-80,218	-0,316	-0,074
80,466	26,177	-0,300	-0,175
81,480	56,057	-0,324	-0,221
82,495	-12,571	-0,276	-0,126
83,509	10,919	-0,258	-0,138
84,524	112,734	-0,190	-0,162
85,539	11,545	-0,276	-0,148
86,553	-32,876	-0,236	-0,091
87,568	61,483	-0,249	-0,173
88,582	3,817	-0,376	-0,192
89,597	187,861	-0,295	-0,310
90,611	-44,926	-0,231	-0,080
91,626	-61,182	-0,270	-0,079
92,641	-20,718	-0,418	-0,179
93,655	-63,261	-0,369	-0,106
94,670	180,020	-0,270	-0,278
95,684	1,544	-0,333	-0,168
96,699	135,764	-0,231	-0,211
97,714	112,394	-0,219	-0,186
98,728	-77,745	-0,218	-0,052
99,743	-22,717	-0,207	-0,088
100,757	56,376	-0,216	-0,147
101,772	177,711	-0,268	-0,274
102,787	19,483	-0,403	-0,227
103,801	217,525	-0,247	-0,277
104,816	65,180	-0,280	-0,199
105,830	33,767	-0,214	-0,131
106,845	-32,991	-0,325	-0,126
107,860	19,699	-0,265	-0,149
108,874	178,278	-0,206	-0,211
109,889	-98,292	-0,416	-0,074
110,903	-4,373	-0,432	-0,208
111,918	7,207	-0,339	-0,177
112,933	-22,932	-0,275	-0,116
113,947	63,643	-0,215	-0,151
114,962	28,600	-0,291	-0,172
115,976	111,785	-0,198	-0,168
116,991	134,266	-0,219	-0,199
118,006	225,643	-0,213	-0,242
119,020	11,313	-0,268	-0,143
120,035	-70,428	-0,293	-0,077
121,049	152,935	-0,202	-0,194
122,064	-40,850	-0,276	-0,100
123,079	55,220	-0,240	-0,162
124,093	32,933	-0,319	-0,193
125,108	202,597	-0,252	-0,272
126,122	171,997	-0,161	-0,162
127,137	-42,210	-0,207	-0,074
128,151	36,401	-0,174	-0,107
129,166	800,000	-0,084	-0,258
130,181	102,569	-0,269	-0,220
131,195	29,420	-0,387	-0,229
132,210	67,373	-0,295	-0,210
133,224	-31,266	-0,243	-0,095
134,239	-44,316	-0,224	-0,078
135,254	-68,972	-0,273	-0,073
136,268	-8,089	-0,306	-0,144
137,283	-35,830	-0,266	-0,100
138,297	208,816	-0,132	-0,145
139,312	800,000	-0,109	-0,278
140,327	44,445	-0,264	-0,169
141,341	-79,211	-0,146	0,034
142,356	72,034	-0,235	-0,171
143,370	-97,283	-0,193	-0,035
144,385	537,625	-0,222	-0,370
145,400	277,303	-0,231	-0,288
146,414	253,883	-0,204	-0,244
147,429	208,705	-0,240	-0,263
148,443	46,813	-0,257	-0,167
149,458	-127,977	-0,184	-0,018
150,473	193,220	-0,174	-0,184
151,487	324,701	-0,201	-0,269
152,502	275,367	-0,254	-0,315
153,516	243,249	-0,176	-0,206
154,531	230,348	-0,184	-0,210
155,546	-3,417	-0,233	-0,113
156,560	800,000	-0,104	-0,264
157,575	-97,563	-0,175	-0,031
158,589	-2,092	-0,209	-0,102
159,604	39,458	-0,152	-0,095
160,619	27,892	-0,274	-0,161
161,633	328,838	-0,157	-0,211
162,648	-200,000	-0,041	-0,203
163,662	-34,232	-0,325	-0,124
164,677	-7,801	-0,231	-0,108
165,692	100,524	-0,239	-0,193
166,706	195,814	-0,155	-0,165
167,721	56,604	-0,308	-0,209
168,735	384,832	-0,159	-0,229
169,750	19,903	-0,224	-0,125
170,764	91,131	-0,263	-0,206
171,779	158,783	-0,126	-0,122
172,794	80,348	-0,164	-0,123
173,808	196,281	-0,190	-0,202
174,823	-41,143	-0,310	-0,111
175,837	574,890	-0,103	-0,176
176,852	-129,751	-0,302	-0,029
177,867	-66,080	-0,216	0,060
178,881	57,142	-0,176	-0,119
179,896	31,648	-0,225	-0,134
180,910	-101,356	-0,284	-0,048
181,925	211,054	-0,202	-0,221
182,940	192,880	-0,175	-0,184
183,954	-110,645	-0,184	-0,026
184,969	45,606	-0,228	-0,147
185,983	92,417	-0,231	-0,182
186,998	-178,716	-0,199	-0,003
188,013	12,939	-0,142	-0,076
189,027	152,815	-0,210	-0,200
190,042	164,726	-0,187	-0,183
191,056	137,305	-0,234	-0,213
192,071	223,622	-0,090	-0,102
193,086	19,957	-0,144	-0,081
194,100	-165,793	-0,158	-0,005
195,115	333,223	-0,193	-0,261
196,129	227,462	-0,247	-0,279
197,144	730,924	-0,172	-0,321
198,159	81,255	-0,147	-0,110
199,173	335,180	-0,225	-0,304
200,188	228,604	-0,108	-0,123
201,202	-85,670	-0,273	-0,058
202,217	-120,678	-0,178	0,021
203,232	61,061	-0,083	-0,057
204,246	209,600	-0,185	-0,202
205,261	49,038	-0,119	-0,077
206,275	-10,384	-0,205	-0,094
207,290	-167,040	-0,135	-0,004
208,304	145,054	-0,210	-0,195
209,319	12,328	-0,103	-0,055
210,334	-44,635	-0,135	-0,047
211,348	111,175	-0,168	-0,141
212,363	88,858	-0,240	-0,185
213,377	-116,854	-0,137	-0,017
214,392	154,253	-0,199	-0,190
215,407	-115,748	-0,118	-0,015
216,421	800,000	-0,104	-0,245
217,436	-1,902	-0,279	-0,136
218,450	286,678	-0,145	-0,183
219,465	101,365	-0,175	-0,141
220,480	-73,964	-0,143	-0,036
221,494	253,684	-0,088	-0,104
222,509	-3,700	-0,144	-0,069
223,523	375,076	-0,156	-0,222
224,538	103,579	-0,243	-0,198
225,553	39,678	-0,263	-0,163
226,567	220,522	-0,179	-0,199
227,582	-36,580	-0,207	-0,077
228,596	24,312	-0,120	-0,068
229,611	340,700	-0,115	-0,156
230,626	60,832	-0,240	-0,165
231,640	214,928	-0,191	-0,210
232,655	-61,079	-0,257	-0,075
233,669	350,604	-0,101	-0,139
234,684	98,152	-0,221	-0,177
235,699	-97,935	-0,191	-0,034
236,713	66,866	-0,106	-0,075
237,728	38,156	-0,057	-0,035
238,742	47,129	-0,114	-0,073
239,757	117,454	-0,157	-0,134
240,772	-125,751	-0,159	-0,016
241,786	0,552	-0,183	-0,090
242,801	208,090	-0,163	-0,177
243,815	55,970	-0,229	-0,154
244,830	-114,336	-0,224	0,030
245,844	19,246	-0,264	-0,147
246,859	129,573	-0,248	-0,220
247,874	334,747	-0,168	-0,226
248,888	81,903	-0,191	-0,143
249,903	206,604	-0,092	-0,100
250,917	414,351	-0,075	-0,111
251,932	-77,625	-0,159	-0,038
252,947	266,199	-0,146	-0,176
253,961	-126,249	-0,131	0,013
254,976	-128,490	-0,240	-0,023
255,990	707,768	-0,134	-0,246
257,005	91,096	-0,250	-0,194
258,020	-200,000	-0,051	-0,252
259,034	-25,265	-0,150	-0,061
260,049	368,489	-0,134	-0,188
261,063	-200,000	-0,046	-0,202
262,078	-155,564	-0,188	0,008
263,093	-9,277	-0,134	-0,062
264,107	190,875	-0,137	-0,142
265,122	-69,640	-0,199	-0,052
266,136	-101,678	-0,138	-0,023
267,151	136,336	-0,091	-0,082
268,166	-5,561	-0,109	-0,052
269,180	680,667	-0,066	-0,119
270,195	177,607	-0,289	-0,291
271,209	486,254	-0,168	-0,266
272,224	-88,110	-0,107	-0,022
273,239	89,948	-0,135	-0,104
274,253	-28,761	-0,131	-0,052
275,268	190,164	-0,066	-0,068
276,282	88,547	-0,115	-0,088
277,297	-172,964	-0,253	0,005
278,312	-103,868	-0,198	-0,032
279,326	100,080	-0,166	-0,133
280,341	348,144	-0,109	-0,149
281,355	-84,645	-0,267	-0,058
282,370	156,255	-0,200	-0,191
283,384	106,660	-0,111	-0,091
284,399	22,330	-0,254	-0,143
285,414	200,915	-0,214	-0,228
286,428	-200,000	-0,045	-0,258
287,443	800,000	-0,076	-0,151
288,457	32,623	-0,206	-0,123
289,472	-151,158	-0,134	-0,007
290,487	262,983	-0,098	-0,118
291,501	-21,350	-0,199	-0,084
292,516	91,690	-0,196	-0,152
293,530	-58,957	-0,168	0,050
294,545	267,397	-0,144	-0,175
295,560	-100,664	-0,154	-0,026
296,574	800,000	-0,055	-0,160
297,589	-79,559	-0,248	-0,057
298,603	143,000	-0,243	-0,223
299,618	2,884	-0,220	-0,110
300,633	101,089	-0,148	-0,119
301,647	120,898	-0,123	-0,106
302,662	-139,425	-0,111	-0,008
303,676	-90,465	-0,058	-0,011
304,691	269,850	-0,235	-0,285
305,706	321,821	-0,145	-0,191
306,720	59,255	-0,180	-0,122
307,735	19,344	-0,171	-0,095
308,749	20,932	-0,274	-0,153
309,764	126,207	-0,056	0,049
310,779	-128,564	-0,139	0,013
311,793	93,980	-0,078	-0,061
312,808	29,825	-0,177	-0,104
313,822	223,966	-0,057	-0,064
314,837	-68,872	-0,091	0,024
315,852	-97,129	-0,109	-0,019
316,866	800,000	-0,049	-0,124
317,881	567,263	-0,042	0,071
318,895	130,097	-0,107	-0,094
319,910	-56,445	-0,150	-0,045
320,925	-200,000	-0,020	-0,152
321,939	252,286	-0,160	-0,187
322,954	184,645	-0,045	-0,046
323,968	-66,066	-0,088	-0,024
324,983	250,503	-0,174	-0,203
325,997	480,719	-0,106	-0,165
327,012	8,660	-0,064	-0,033
328,027	358,630	-0,133	-0,183
329,041	90,474	-0,186	-0,143
330,056	-41,126	-0,080	-0,028
331,070	172,970	-0,086	-0,085
332,085	-200,000	-0,020	-0,074
333,100	-200,000	-0,046	-0,142
334,114	127,406	-0,113	-0,098
335,129	-85,565	-0,239	-0,051
336,143	-30,090	-0,099	-0,038
337,158	-141,620	-0,115	-0,008
338,173	-83,364	-0,130	-0,029
339,187	57,134	-0,138	-0,093
340,202	280,245	-0,159	-0,195
341,216	65,713	-0,161	-0,112
342,231	-200,000	-0,053	-0,160
343,246	11,771	-0,179	-0,094
344,260	118,400	-0,102	-0,086
345,275	59,041	-0,149	-0,101
346,289	-93,049	-0,114	-0,022
347,304	556,119	-0,097	-0,161
348,319	-16,132	-0,134	-0,058
349,333	355,910	-0,122	-0,167
350,348	105,382	-0,185	-0,150
351,362	70,042	-0,154	-0,109
352,377	227,691	-0,082	-0,092
353,392	78,813	-0,022	0,016
354,406	153,841	-0,086	0,081
355,421	210,329	1314,121	1417,209
356,435	161,912	1474,779	1417,699
