DTS Sentinel unit serial number:	SN410029Multiplexer serial number:	ORYXHardware model number:	OX2-SRSoftware version number:	ORYX F/W v4,00 Oryx Data Collector v3.7.2.0data status	okinstallation	B3 Nyhavnadifferential loss correction	single-endedforward channel	channel 1reverse channel	N/Adate	2023/12/03time	00:57:30forward acquisition time	300,00reverse acquisition time	0,00gamma	499,1914k internal	0,3201k external	0,3201temperature offset calibration	1,0000default loss term (dB/km)	0,3820temperature slope calibration	1,0000multiplexer offset coefficient	1,0000multiplexer slope coefficient	1,0000fibre end	0,00T internal ref (°C)	13,33T ext. ref 1 (°C)	-1,68T ext. ref 2 (°C)	-1,70length (m)	temperature (°C)	Stokes	anti-Stokes-744,400	482,841	-0,157	-0,261
-743,385	800,000	-0,128	0,287
-742,371	-200,000	-0,074	-0,314
-741,356	-200,000	-0,025	0,265
-740,342	293,699	-0,112	-0,149
-739,327	-200,000	0,005	0,445
-738,312	195,826	-0,242	-0,268
-737,298	-200,000	-0,025	0,306
-736,283	109,012	-0,291	-0,253
-735,269	-200,000	0,024	0,407
-734,254	-52,099	-0,310	-0,104
-733,239	371,189	-0,137	0,203
-732,225	728,842	-0,087	-0,170
-731,210	261,174	0,158	0,200
-730,196	-200,000	0,000	0,084
-729,181	-35,437	-0,134	-0,052
-728,167	180,811	-0,055	-0,058
-727,152	295,698	-0,028	0,037
-726,137	313,146	0,035	0,048
-725,123	347,774	-0,063	-0,091
-724,108	687,637	-0,082	-0,156
-723,094	-200,000	0,008	-0,146
-722,079	43,892	0,038	0,025
-721,064	-30,872	-0,105	0,043
-720,050	71,007	0,084	0,063
-719,035	207,242	0,085	0,096
-718,021	-136,470	-0,182	0,015
-717,006	350,597	-0,054	-0,078
-715,991	-200,000	-0,023	-0,094
-714,977	-200,000	-0,010	-0,059
-713,962	-200,000	0,010	-0,075
-712,948	-200,000	0,003	0,017
-711,933	-200,000	0,014	0,164
-710,918	202,469	-0,070	-0,078
-709,904	153,186	-0,049	0,049
-708,889	800,000	-0,050	-0,113
-707,875	607,368	-0,028	0,051
-706,860	271,307	0,055	0,070
-705,845	608,021	-0,040	-0,073
-704,831	30,707	-0,045	-0,028
-703,816	164,572	-0,068	-0,070
-702,802	-82,682	0,025	0,006
-701,787	27,435	0,139	-0,085
-700,772	287,449	-0,027	0,036
-699,758	-127,107	-0,059	-0,006
-698,743	-200,000	0,019	0,088
-697,729	-200,000	-0,008	0,026
-696,714	-200,000	0,002	-0,055
-695,699	-71,173	-0,088	-0,024
-694,685	-108,094	-0,096	0,015
-693,670	-28,409	-0,116	0,049
-692,656	800,000	-0,033	-0,090
-691,641	-92,010	0,060	-0,012
-690,627	-38,489	0,058	0,022
-689,612	124,301	-0,070	0,064
-688,597	-116,900	-0,161	0,021
-687,583	-200,000	-0,005	-0,076
-686,568	-11,245	-0,102	-0,049
-685,554	800,000	0,066	0,201
-684,539	-200,000	-0,002	0,137
-683,524	-139,909	0,117	-0,009
-682,510	-200,000	0,000	0,027
-681,495	-100,322	-0,105	-0,019
-680,481	171,875	-0,105	-0,109
-679,466	-22,507	-0,063	-0,028
-678,451	-200,000	-0,022	-0,075
-677,437	-200,000	-0,009	-0,155
-676,422	-200,000	0,026	-0,148
-675,408	-200,000	-0,016	-0,090
-674,393	800,000	0,050	0,117
-673,378	52,572	-0,052	-0,036
-672,364	-200,000	-0,015	-0,125
-671,349	54,100	0,045	-0,032
-670,335	779,644	0,054	-0,108
-669,320	-82,711	0,097	0,023
-668,305	-145,240	-0,049	-0,003
-667,291	45,665	0,011	0,008
-666,276	-6,695	0,114	-0,056
-665,262	185,121	-0,144	-0,155
-664,247	-152,133	-0,057	-0,003
-663,232	-200,000	-0,005	0,084
-662,218	-200,000	-0,011	0,057
-661,203	-40,767	-0,086	-0,032
-660,189	-43,550	-0,064	-0,023
-659,174	-5,793	0,131	-0,065
-658,159	485,129	0,055	-0,091
-657,145	72,091	0,087	-0,066
-656,130	-200,000	0,020	-0,064
-655,116	489,132	-0,072	0,119
-654,101	367,499	0,042	0,062
-653,086	-200,000	-0,009	0,077
-652,072	-200,000	-0,012	-0,063
-651,057	98,608	-0,106	-0,089
-650,043	-80,369	-0,093	0,022
-649,028	-57,842	-0,148	-0,047
-648,014	-41,460	-0,019	-0,007
-646,999	-200,000	-0,013	0,072
-645,984	293,311	-0,036	0,048
-644,970	-200,000	0,015	-0,125
-643,955	-31,480	-0,067	-0,027
-642,941	-75,888	-0,067	0,017
-641,926	65,431	-0,082	0,060
-640,911	-141,271	-0,120	-0,009
-639,897	0,612	-0,060	-0,031
-638,882	-32,975	0,136	-0,054
-637,868	-200,000	0,003	-0,034
-636,853	407,299	-0,064	0,098
-635,838	21,864	-0,039	-0,023
-634,824	-200,000	-0,002	-0,009
-633,809	184,247	-0,037	-0,040
-632,795	300,631	0,113	0,151
-631,780	-105,191	-0,148	0,024
-630,765	20,132	-0,017	0,010
-629,751	-200,000	0,001	0,075
-628,736	215,319	0,071	-0,082
-627,722	-13,689	-0,024	-0,011
-626,707	-95,374	-0,140	-0,027
-625,692	162,283	0,078	-0,079
-624,678	-200,000	0,028	0,158
-623,663	345,906	-0,037	-0,053
-622,649	-200,000	0,010	0,032
-621,634	-200,000	0,009	-0,147
-620,619	582,968	0,041	0,073
-619,605	-152,632	-0,072	0,004
-618,590	428,037	-0,082	-0,128
-617,576	800,000	0,024	0,065
-616,561	800,000	0,029	0,069
-615,546	383,137	-0,080	0,119
-614,532	-200,000	0,017	-0,138
-613,517	218,723	0,028	0,032
-612,503	-5,333	0,099	0,049
-611,488	735,828	-0,039	-0,077
-610,474	228,058	-0,129	0,152
-609,459	84,144	0,089	-0,071
-608,444	9,794	-0,140	-0,077
-607,430	-74,838	-0,174	-0,045
-606,415	-176,888	0,075	0,001
-605,401	35,089	0,061	-0,039
-604,386	167,408	0,039	0,040
-603,371	11,633	-0,075	-0,042
-602,357	11,895	-0,021	0,011
-601,342	-70,420	-0,071	0,019
-600,328	-200,000	-0,013	-0,073
-599,313	-43,727	-0,025	-0,009
-598,298	-200,000	0,014	0,070
-597,284	-33,067	0,124	-0,049
-596,269	87,409	0,114	0,091
-595,255	448,654	0,034	-0,055
-594,240	120,322	0,051	-0,046
-593,225	-200,000	0,009	-0,086
-592,211	151,144	-0,056	-0,056
-591,196	506,509	-0,038	-0,064
-590,182	800,000	-0,061	0,132
-589,167	-121,166	0,020	-0,002
-588,152	-134,528	-0,076	-0,007
-587,138	237,835	-0,033	-0,039
-586,123	-61,900	-0,095	0,029
-585,109	800,000	0,060	-0,157
-584,094	-35,320	-0,065	-0,025
-583,079	-113,758	0,130	-0,018
-582,065	-200,000	-0,021	0,161
-581,050	442,090	0,037	0,059
-580,036	783,601	-0,035	0,069
-579,021	-24,650	0,116	0,050
-578,006	102,401	-0,117	-0,099
-576,992	-200,000	-0,008	-0,030
-575,977	-200,000	-0,024	0,089
-574,963	-101,322	-0,057	-0,010
-573,948	279,664	0,040	0,052
-572,934	323,925	-0,045	-0,063
-571,919	-157,529	-0,146	-0,006
-570,904	-199,692	-0,114	0,000
-569,890	-14,523	-0,127	-0,059
-568,875	38,468	-0,086	-0,056
-567,861	800,000	-0,032	0,072
-566,846	232,205	0,049	0,059
-565,831	498,758	-0,007	-0,012
-564,817	-10,478	-0,078	-0,037
-563,802	-200,000	0,014	-0,128
-562,788	109,510	-0,009	0,008
-561,773	800,000	-0,033	-0,072
-560,758	-87,815	0,040	0,009
-559,744	-7,795	-0,063	-0,031
-558,729	135,511	0,054	0,051
-557,715	120,499	-0,114	-0,103
-556,700	800,000	-0,055	-0,150
-555,685	-200,000	-0,011	-0,100
-554,671	-200,000	0,023	-0,094
-553,656	800,000	0,088	0,191
-552,642	44,897	0,137	0,091
-551,627	31,490	-0,246	0,153
-550,612	216,046	0,046	-0,053
-549,598	-200,000	-0,021	0,000
-548,583	-88,094	0,041	0,009
-547,569	163,063	-0,035	-0,036
-546,554	-109,628	0,096	0,014
-545,539	-110,563	0,097	-0,014
-544,525	800,000	-0,036	0,080
-543,510	-159,578	-0,009	0,000
-542,496	800,000	-0,004	-0,009
-541,481	800,000	-0,057	-0,114
-540,466	13,582	-0,099	-0,055
-539,452	747,399	0,027	-0,053
-538,437	-6,395	0,069	0,034
-537,423	441,866	0,070	0,111
-536,408	-43,511	-0,111	0,040
-535,393	-200,000	0,013	-0,077
-534,379	-200,000	-0,013	-0,052
-533,364	-73,730	0,113	-0,030
-532,350	800,000	0,043	-0,103
-531,335	62,563	0,138	0,100
-530,321	-200,000	0,017	-0,075
-529,306	347,826	0,028	-0,039
-528,291	272,359	0,005	0,006
-527,277	-200,000	0,006	-0,094
-526,262	-27,009	-0,053	0,022
-525,248	243,346	-0,141	-0,171
-524,233	154,794	-0,043	0,043
-523,218	284,723	0,033	0,043
-522,204	-200,000	-0,013	0,145
-521,189	66,702	0,035	0,025
-520,175	800,000	-0,031	0,090
-519,160	144,036	0,021	-0,020
-518,145	-173,949	0,074	-0,002
-517,131	-28,505	-0,061	-0,025
-516,116	587,958	-0,002	-0,004
-515,102	441,781	-0,026	-0,042
-514,087	19,509	-0,107	-0,062
-513,072	-25,914	0,081	-0,034
-512,058	-117,834	-0,153	0,020
-511,043	146,933	0,064	0,062
-510,029	151,131	0,121	0,119
-509,014	800,000	0,007	-0,017
-507,999	-200,000	0,002	-0,052
-506,985	-68,263	-0,200	-0,056
-505,970	-200,000	0,008	0,168
-504,956	333,345	0,058	0,081
-503,941	800,000	-0,021	0,066
-502,926	-200,000	0,024	0,089
-501,912	-200,000	-0,018	0,059
-500,897	-87,428	-0,078	0,017
-499,883	478,394	-0,101	-0,165
-498,868	-200,000	-0,018	-0,197
-497,853	184,755	0,044	-0,047
-496,839	1,877	0,007	-0,003
-495,824	800,000	-0,043	0,087
-494,810	60,853	0,075	-0,054
-493,795	217,546	0,090	-0,104
-492,781	-200,000	-0,012	-0,100
-491,766	151,672	-0,038	0,037
-490,751	-81,215	-0,088	0,021
-489,737	1,975	0,062	0,032
-488,722	168,058	0,108	-0,110
-487,708	-2,011	0,058	0,029
-486,693	227,079	0,119	0,139
-485,678	800,000	-0,035	-0,098
-484,664	-90,565	0,060	-0,012
-483,649	-200,000	0,003	-0,069
-482,635	-200,000	-0,004	-0,048
-481,620	13,692	0,092	-0,051
-480,605	106,823	-0,066	0,056
-479,591	-200,000	0,009	0,094
-478,576	800,000	-0,034	-0,086
-477,562	268,217	-0,077	-0,097
-476,547	31,789	-0,088	-0,055
-475,532	-59,518	0,168	-0,052
-474,518	-200,000	-0,004	0,095
-473,503	-27,857	0,203	0,084
-472,489	-172,931	0,066	0,001
-471,474	298,975	0,096	-0,127
-470,459	258,817	-0,096	-0,119
-469,445	-200,000	0,015	-0,171
-468,430	232,267	-0,131	-0,155
-467,416	-110,149	0,061	-0,009
-466,401	738,440	0,069	0,134
-465,386	396,200	-0,041	0,062
-464,372	74,572	0,022	0,017
-463,357	800,000	-0,037	-0,101
-462,343	24,922	-0,035	0,021
-461,328	-200,000	-0,022	-0,093
-460,313	-94,878	0,040	-0,008
-459,299	508,507	0,085	0,142
-458,284	111,371	0,045	-0,039
-457,270	-128,088	0,047	-0,005
-456,255	-200,000	-0,017	0,093
-455,241	-200,000	-0,023	-0,265
-454,226	-51,012	-0,066	-0,022
-453,211	-62,591	0,136	-0,040
-452,197	-200,000	-0,023	-0,231
-451,182	-200,000	-0,019	0,077
-450,168	-78,658	0,050	-0,012
-449,153	101,663	-0,150	0,125
-448,138	800,000	-0,024	-0,067
-447,124	434,843	-0,034	0,054
-446,109	800,000	0,028	-0,079
-445,095	509,477	-0,081	0,135
-444,080	103,409	0,134	-0,113
-443,065	-148,453	-0,053	-0,003
-442,051	800,000	-0,012	0,029
-441,036	800,000	-0,015	0,033
-440,022	332,772	-0,049	-0,069
-439,007	473,263	0,034	0,056
-437,992	-55,687	0,076	0,024
-436,978	-200,000	0,014	0,298
-435,963	-200,000	0,015	0,143
-434,949	-200,000	-0,011	0,119
-433,934	-199,402	-0,099	0,000
-432,919	107,020	-0,082	-0,070
-431,905	800,000	0,062	-0,148
-430,890	483,171	0,099	-0,162
-429,876	-45,842	0,081	0,029
-428,861	335,525	-0,062	0,086
-427,846	3,822	-0,053	-0,027
-426,832	274,715	-0,046	-0,059
-425,817	-32,836	0,008	-0,003
-424,803	76,890	-0,081	0,062
-423,788	-64,049	-0,029	0,008
-422,773	415,236	0,013	-0,021
-421,759	-200,000	0,025	0,085
-420,744	-62,181	0,099	-0,029
-419,730	57,169	-0,115	-0,081
-418,715	-200,000	-0,031	-0,153
-417,701	19,790	0,031	0,018
-416,686	-18,342	-0,050	-0,022
-415,671	-32,370	0,098	0,039
-414,657	309,203	-0,039	0,052
-413,642	20,176	-0,101	-0,058
-412,628	-166,434	0,081	-0,002
-411,613	-200,000	0,009	0,029
-410,598	-200,000	-0,032	-0,117
-409,584	-66,805	0,089	0,025
-408,569	60,514	-0,111	-0,079
-407,555	-112,056	0,084	-0,012
-406,540	-200,000	0,010	0,000
-405,525	283,214	0,047	0,060
-404,511	800,000	0,024	-0,062
-403,496	370,203	-0,071	0,104
-402,482	-178,237	0,133	-0,002
-401,467	593,644	0,069	-0,124
-400,452	800,000	0,005	-0,013
-399,438	-97,364	-0,155	-0,029
-398,423	175,979	-0,037	0,039
-397,409	-66,986	-0,025	-0,007
-396,394	-157,119	0,101	-0,004
-395,379	-122,331	0,044	0,005
-394,365	36,644	0,033	0,021
-393,350	-48,753	-0,080	0,027
-392,336	362,503	-0,042	0,061
-391,321	326,019	-0,038	-0,052
-390,306	800,000	-0,060	0,138
-389,292	-200,000	0,005	-0,044
-388,277	-46,766	-0,177	-0,062
-387,263	-57,472	0,203	0,064
-386,248	-61,990	0,078	0,023
-385,233	-2,725	-0,120	0,060
-384,219	115,050	-0,065	-0,057
-383,204	41,689	-0,067	-0,043
-382,190	-67,204	0,082	-0,023
-381,175	-108,037	0,020	-0,003
-380,160	-200,000	-0,018	-0,071
-379,146	-120,830	0,008	0,001
-378,131	-200,000	0,011	0,132
-377,117	-190,865	-0,024	-0,000
-376,102	-200,000	0,033	-0,112
-375,088	-200,000	0,017	0,147
-374,073	800,000	0,015	-0,038
-373,058	800,000	-0,071	-0,173
-372,044	-29,629	0,136	0,055
-371,029	185,026	0,042	0,045
-370,015	78,519	0,025	-0,019
-369,000	36,718	-0,170	-0,107
-367,985	-34,047	0,094	-0,037
-366,971	-70,137	-0,114	-0,031
-365,956	-82,599	0,065	-0,015
-364,942	-150,065	-0,088	-0,005
-363,927	-200,000	0,022	-0,120
-362,912	291,562	-0,055	0,072
-361,898	-40,628	-0,076	0,028
-360,883	-200,000	-0,027	-0,104
-359,869	800,000	-0,026	0,072
-358,854	-109,874	-0,089	-0,013
-357,839	-200,000	0,000	0,054
-356,825	-68,979	0,057	0,016
-355,810	-200,000	-0,030	-0,140
-354,796	83,085	0,147	0,115
-353,781	800,000	-0,019	-0,052
-352,766	154,885	-0,082	-0,081
-351,752	-200,000	-0,010	-0,050
-350,737	800,000	0,028	0,062
-349,723	-200,000	-0,018	-0,238
-348,708	-46,709	0,221	-0,077
-347,693	-147,430	-0,063	0,004
-346,679	-106,407	-0,080	-0,013
-345,664	-6,745	-0,065	0,032
-344,650	-200,000	0,030	-0,114
-343,635	172,520	-0,090	-0,093
-342,620	-200,000	-0,011	-0,068
-341,606	-200,000	0,015	0,054
-340,591	800,000	0,044	-0,121
-339,577	-49,455	-0,031	0,011
-338,562	203,795	-0,041	-0,046
-337,548	135,637	-0,075	-0,069
-336,533	-163,330	0,115	-0,004
-335,518	-200,000	-0,012	0,092
-334,504	12,057	0,038	0,021
-333,489	305,088	0,012	0,016
-332,475	-200,000	0,044	-0,182
-331,460	-200,000	0,015	0,058
-330,445	418,782	0,052	0,079
-329,431	-200,000	-0,002	0,161
-328,416	228,686	0,080	0,094
-327,402	-200,000	0,006	0,079
-326,387	306,489	0,008	0,010
-325,372	155,002	-0,093	0,092
-324,358	23,619	-0,056	-0,033
-323,343	496,691	-0,027	0,045
-322,329	56,541	0,082	0,057
-321,314	-68,713	0,098	-0,027
-320,299	1,135	0,042	-0,022
-319,285	692,872	0,014	0,026
-318,270	-54,368	-0,156	-0,050
-317,256	473,295	-0,051	0,083
-316,241	318,932	0,027	0,037
-315,226	-169,182	0,097	-0,003
-314,212	-200,000	0,006	-0,054
-313,197	-132,016	0,067	0,006
-312,183	-148,578	-0,068	0,004
-311,168	-39,009	-0,104	0,039
-310,153	34,336	0,066	-0,041
-309,139	800,000	0,010	-0,027
-308,124	25,188	-0,011	0,007
-307,110	230,242	0,067	0,079
-306,095	74,698	0,166	0,125
-305,080	-57,951	0,043	0,013
-304,066	-200,000	-0,015	0,125
-303,051	176,947	0,084	0,087
-302,037	306,716	0,014	0,018
-301,022	-200,000	-0,017	-0,095
-300,008	326,342	0,085	0,117
-298,993	800,000	0,024	0,072
-297,978	-200,000	-0,003	0,068
-296,964	800,000	-0,007	0,016
-295,949	127,292	-0,066	-0,060
-294,935	-148,285	-0,058	-0,003
-293,920	68,830	0,073	-0,053
-292,905	-39,317	0,042	-0,016
-291,891	-49,053	0,090	0,031
-290,876	345,955	0,089	0,126
-289,862	-173,853	-0,179	0,004
-288,847	-146,429	0,057	-0,003
-287,832	113,164	-0,065	0,056
-286,818	231,917	-0,075	0,089
-285,803	-36,086	0,119	-0,046
-284,789	-200,000	0,004	0,050
-283,774	203,287	-0,067	-0,074
-282,759	800,000	0,054	-0,142
-281,745	35,093	0,099	0,062
-280,730	91,801	-0,109	-0,088
-279,716	-200,000	-0,009	-0,123
-278,701	-152,481	0,068	0,003
-277,686	61,074	-0,050	0,035
-276,672	243,832	-0,117	0,141
-275,657	742,710	0,064	0,123
-274,643	345,202	-0,058	0,081
-273,628	-200,000	0,020	-0,168
-272,613	-200,000	0,003	-0,024
-271,599	800,000	0,014	0,036
-270,584	800,000	0,036	0,099
-269,570	-36,816	-0,045	0,017
-268,555	107,791	0,024	-0,020
-267,540	159,554	-0,048	0,048
-266,526	520,338	0,028	-0,046
-265,511	-200,000	-0,010	-0,101
-264,497	-200,000	0,002	0,074
-263,482	800,000	-0,025	-0,054
-262,467	800,000	0,033	0,075
-261,453	-200,000	-0,025	0,096
-260,438	800,000	0,045	-0,098
-259,424	147,784	0,062	-0,060
-258,409	-7,777	-0,100	-0,048
-257,395	-138,417	0,017	0,001
-256,380	371,375	0,069	0,100
-255,365	-200,000	0,003	0,240
-254,351	800,000	0,024	-0,050
-253,336	-38,746	0,103	0,039
-252,322	-127,548	-0,182	0,019
-251,307	101,076	0,055	0,046
-250,292	-127,749	0,108	0,011
-249,278	-51,803	0,118	0,039
-248,263	-162,713	0,163	0,006
-247,249	-200,000	-0,018	0,074
-246,234	-200,000	0,013	0,161
-245,219	53,931	-0,085	-0,058
-244,205	-148,343	0,062	-0,004
-243,190	-132,612	0,013	-0,001
-242,176	-84,066	0,122	0,028
-241,161	-108,055	0,085	-0,013
-240,146	184,148	0,042	0,044
-239,132	-200,000	0,003	0,011
-238,117	-82,915	-0,134	0,031
-237,103	128,001	0,102	-0,092
-236,088	186,553	-0,079	-0,084
-235,073	84,583	0,052	0,041
-234,059	-91,183	0,044	-0,009
-233,044	-29,463	0,131	0,053
-232,030	6,295	-0,117	-0,062
-231,015	15,631	-0,096	-0,054
-230,000	203,670	0,007	0,008
-228,986	172,484	-0,026	0,027
-227,971	-78,630	0,091	0,022
-226,957	-200,000	0,018	0,166
-225,942	-200,000	-0,040	0,166
-224,927	-200,000	0,017	-0,061
-223,913	-8,268	-0,078	-0,037
-222,898	-200,000	-0,004	0,151
-221,884	-112,078	0,066	-0,009
-220,869	-200,000	-0,010	0,084
-219,855	272,551	0,096	0,121
-218,840	124,989	0,129	0,116
-217,825	-200,000	0,017	0,063
-216,811	-200,000	0,025	-0,089
-215,796	50,382	-0,095	0,064
-214,782	-124,751	-0,068	0,007
-213,767	144,811	0,101	0,096
-212,752	-143,452	0,082	-0,005
-211,738	800,000	-0,012	-0,025
-210,723	-200,000	0,019	-0,078
-209,709	597,954	0,013	-0,022
-208,694	711,005	0,024	-0,045
-207,679	248,662	0,072	-0,087
-206,665	-63,165	-0,151	0,044
-205,650	748,419	-0,033	0,063
-204,636	-128,090	0,070	-0,007
-203,621	-18,901	0,053	0,023
-202,606	800,000	-0,013	0,038
-201,592	139,172	-0,014	-0,013
-200,577	-62,570	-0,031	-0,009
-199,563	-200,000	-0,011	0,042
-198,548	14,405	-0,115	0,064
-197,533	308,599	0,066	0,088
-196,519	800,000	-0,021	0,062
-195,504	-139,143	-0,109	0,008
-194,490	66,803	-0,095	-0,069
-193,475	783,435	-0,037	-0,073
-192,460	243,074	0,060	0,072
-191,446	62,786	0,082	-0,058
-190,431	-40,801	0,114	-0,042
-189,417	420,467	-0,006	-0,008
-188,402	219,001	0,069	0,079
-187,387	142,058	-0,062	-0,058
-186,373	-200,000	0,000	0,032
-185,358	-75,921	0,030	-0,007
-184,344	-70,346	0,087	0,023
-183,329	146,903	0,050	-0,048
-182,315	57,061	0,035	0,025
-181,300	-10,406	-0,102	-0,048
-180,285	800,000	0,039	0,108
-179,271	122,576	-0,044	0,039
-178,256	-200,000	-0,044	-0,237
-177,242	-200,000	-0,006	-0,050
-176,227	20,656	0,081	-0,046
-175,212	-87,665	0,134	0,028
-174,198	800,000	-0,036	0,106
-173,183	762,322	0,030	0,058
-172,169	-200,000	0,026	-0,101
-171,154	800,000	-0,020	-0,053
-170,139	110,933	-0,078	0,067
-169,125	-200,000	-0,018	0,079
-168,110	-14,895	0,090	-0,041
-167,096	184,732	-0,041	-0,043
-166,081	222,766	-0,102	-0,118
-165,066	336,579	0,034	0,047
-164,052	800,000	0,035	0,080
-163,037	-200,000	-0,012	-0,039
-162,023	401,934	0,027	0,041
-161,008	800,000	0,028	-0,068
-159,993	-134,186	0,148	0,013
-158,979	-200,000	-0,013	0,063
-157,964	26,640	-0,085	0,051
-156,950	-107,375	0,091	-0,014
-155,935	659,191	0,086	0,157
-154,920	42,290	-0,155	-0,100
-153,906	-101,329	-0,054	0,009
-152,891	-200,000	0,007	0,055
-151,877	119,555	-0,101	0,089
-150,862	482,914	0,009	-0,015
-149,847	-25,669	-0,057	-0,024
-148,833	17,557	0,134	-0,076
-147,818	36,149	0,088	-0,055
-146,804	508,192	-0,042	0,069
-145,789	-95,480	0,105	-0,020
-144,775	-200,000	0,003	-0,017
-143,760	-28,164	-0,120	0,049
-142,745	320,606	0,076	0,103
-141,731	191,655	-0,028	-0,030
-140,716	-55,819	-0,099	-0,031
-139,702	73,434	-0,046	0,034
-138,687	-200,000	0,013	0,046
-137,672	348,164	-0,012	-0,017
-136,658	-104,748	-0,247	-0,040
-135,643	105,011	0,110	-0,092
-134,629	800,000	-0,033	-0,101
-133,614	66,590	0,073	-0,053
-132,599	72,687	0,024	0,018
-131,585	36,427	0,059	-0,037
-130,570	-200,000	0,008	0,131
-129,556	800,000	0,014	0,039
-128,541	381,725	-0,039	0,057
-127,526	-200,000	0,022	0,233
-126,512	-13,362	0,085	-0,039
-125,497	326,146	0,084	0,114
-124,483	409,204	-0,028	0,042
-123,468	800,000	-0,027	-0,079
-122,453	-163,487	0,084	0,003
-121,439	-108,462	0,070	0,011
-120,424	800,000	0,038	-0,086
-119,410	276,762	-0,027	-0,035
-118,395	428,637	0,092	0,142
-117,380	114,573	0,044	-0,038
-116,366	192,320	-0,074	0,080
-115,351	227,379	-0,059	0,068
-114,337	541,369	-0,074	-0,125
-113,322	-200,000	-0,013	-0,134
-112,307	-138,684	0,078	-0,006
-111,293	800,000	0,041	0,121
-110,278	-200,000	0,002	0,067
-109,264	-200,000	-0,023	0,220
-108,249	-93,565	-0,042	-0,008
-107,234	65,255	-0,051	-0,037
-106,220	800,000	-0,021	0,056
-105,205	-200,000	0,008	0,048
-104,191	-62,335	0,074	-0,022
-103,176	800,000	0,069	0,207
-102,162	-200,000	0,016	0,122
-101,147	-17,047	0,061	0,027
-100,132	-12,400	-0,094	-0,043
-99,118	-200,000	-0,031	-0,110
-98,103	-12,709	0,070	-0,032
-97,089	800,000	-0,032	0,075
-96,074	-62,727	-0,020	-0,006
-95,059	-105,684	0,040	0,006
-94,045	-200,000	0,000	-0,014
-93,030	-143,109	0,019	-0,001
-92,016	22,353	-0,056	-0,033
-91,001	800,000	-0,032	-0,084
-89,986	553,633	0,042	-0,072
-88,972	-1,027	-0,082	0,041
-87,957	225,676	-0,015	0,017
-86,943	-114,083	-0,098	0,013
-85,928	33,223	0,130	-0,079
-84,913	-22,676	-0,089	-0,038
-83,899	542,884	-0,039	0,067
-82,884	-75,714	-0,016	-0,004
-81,870	-113,980	-0,004	0,001
-80,855	197,303	0,080	0,086
-79,840	265,790	-0,034	0,042
-78,826	124,762	-0,146	-0,130
-77,811	162,063	-0,032	-0,032
-76,797	285,451	-0,019	-0,025
-75,782	5,705	0,072	-0,037
-74,767	-200,000	0,017	0,112
-73,753	-35,686	-0,086	0,033
-72,738	800,000	0,040	0,089
-71,724	355,963	0,099	-0,140
-70,709	109,880	-0,063	-0,053
-69,694	500,144	0,042	-0,068
-68,680	341,060	-0,014	0,020
-67,665	800,000	-0,024	0,069
-66,651	-200,000	-0,037	0,192
-65,636	-200,000	-0,076	0,000
-64,622	93,755	-0,069	-0,056
-63,607	180,623	-0,109	-0,113
-62,592	282,071	-0,052	-0,066
-61,578	-28,559	-0,090	0,036
-60,563	-81,317	0,194	0,045
-59,549	261,511	0,090	0,111
-58,534	-10,836	-1,573	-0,733
-57,519	429,060	-1,286	-1,975
-56,505	-200,000	-0,581	-4,447
-55,490	242,555	0,980	1,163
-54,476	800,000	4,990	11,324
-53,461	-200,000	19,233	320,025
-52,446	-200,000	740,698	2334,730
-51,432	573,566	1655,723	2869,813
-50,417	78,305	1671,159	1261,991
-49,403	21,321	1544,053	885,756
-48,388	15,193	1466,602	811,525
-47,373	17,944	1456,682	819,296
-46,359	16,628	1446,641	807,307
-45,344	13,458	1441,901	789,442
-44,330	13,336	1440,152	787,871
-43,315	13,366	1438,254	786,946
-42,300	13,379	1436,643	786,093
-41,286	13,372	1435,458	785,380
-40,271	13,390	1433,907	784,585
-39,257	13,354	1432,846	783,805
-38,242	13,356	1431,560	783,077
-37,227	13,463	1430,088	782,751
-36,213	13,406	1428,885	781,791
-35,198	13,424	1427,687	781,188
-34,184	13,417	1426,899	780,692
-33,169	13,366	1425,601	779,710
-32,154	13,490	1424,294	779,551
-31,140	13,442	1423,045	778,611
-30,125	13,475	1421,999	778,164
-29,111	13,447	1421,058	777,485
-28,096	13,386	1419,909	776,536
-27,082	13,340	1418,897	775,739
-26,067	13,354	1417,659	775,096
-25,052	13,394	1416,477	774,606
-24,038	13,351	1415,742	773,972
-23,023	13,356	1414,385	773,224
-22,009	13,340	1413,478	772,622
-20,994	13,324	1412,545	772,004
-19,979	13,292	1411,848	771,445
-18,965	13,307	1410,900	770,965
-17,950	13,298	1409,883	770,337
-16,936	13,296	1409,015	769,825
-15,921	13,281	1407,901	769,112
-14,906	13,250	1407,017	768,454
-13,892	13,307	1405,914	768,090
-12,877	13,246	1405,271	767,421
-11,863	13,266	1404,191	766,895
-10,848	13,241	1403,631	766,440
-9,833	13,245	1402,396	765,757
-8,819	13,237	1401,616	765,261
-7,804	13,236	1400,643	764,694
-6,790	13,178	1399,589	763,820
-5,775	13,132	1398,589	763,032
-4,760	13,203	1397,536	762,753
-3,746	13,138	1396,774	762,009
-2,731	13,137	1396,115	761,612
-1,717	13,129	1395,070	760,978
-0,702	13,122	1393,165	759,876
0,313	16,979	1310,008	732,382
1,327	33,138	703,865	430,859
2,342	51,330	123,328	82,710
3,356	2,170	16,519	8,417
4,371	-1,644	3,215	1,597
5,386	-31,690	0,675	0,267
6,400	444,701	0,110	0,171
7,415	-66,996	-0,323	-0,090
8,429	147,232	-0,251	-0,239
9,444	-94,454	-0,233	-0,045
10,459	-78,510	-0,444	-0,107
11,473	800,000	-0,110	-0,305
12,488	-56,370	-0,251	-0,078
13,502	-37,131	-0,230	-0,087
14,517	50,211	-0,232	-0,155
15,531	68,017	-0,234	-0,169
16,546	21,319	-0,450	-0,258
17,561	137,108	-0,348	-0,322
18,575	25,387	-0,210	-0,123
19,590	266,821	-0,291	-0,360
20,604	307,552	-0,257	-0,339
21,619	65,123	-0,414	-0,295
22,634	272,292	-0,391	-0,488
23,648	287,541	-0,378	-0,484
24,663	6,896	-0,440	-0,231
25,677	270,661	-0,286	-0,356
26,692	165,541	-0,379	-0,379
27,707	-31,662	-0,397	-0,157
28,721	135,799	-0,364	-0,335
29,736	15,300	-0,579	-0,319
30,750	118,843	-0,420	-0,366
31,765	124,642	-0,356	-0,316
32,780	236,370	-0,401	-0,469
33,794	1,827	-0,410	-0,208
34,809	7,379	-0,333	-0,175
35,823	62,365	-0,383	-0,269
36,838	-45,485	-0,373	-0,130
37,853	213,588	-0,395	-0,441
38,867	81,481	-0,329	-0,251
39,882	-19,669	-0,400	-0,174
40,896	15,138	-0,316	-0,174
41,911	-47,584	-0,220	-0,075
42,926	-39,308	-0,367	-0,135
43,940	11,845	-0,561	-0,303
44,955	-3,054	-0,432	-0,212
45,969	199,229	-0,282	-0,305
46,984	-10,722	-0,345	-0,160
47,999	9,333	-0,416	-0,221
49,013	162,628	-0,331	-0,327
50,028	-1,197	-0,383	-0,190
51,042	45,158	-0,366	-0,238
52,057	-18,057	-0,445	-0,196
53,071	330,131	-0,244	-0,331
54,086	207,982	-0,178	-0,197
55,101	92,809	-0,314	-0,249
56,115	253,156	-0,296	-0,356
57,130	24,911	-0,375	-0,218
58,144	-20,638	-0,447	-0,192
59,159	63,344	-0,277	-0,195
60,174	171,122	-0,254	-0,257
61,188	56,964	-0,372	-0,255
62,203	322,790	-0,284	-0,382
63,217	-32,802	-0,388	-0,151
64,232	15,170	-0,396	-0,218
65,247	800,000	-0,102	-0,277
66,261	-1,619	-0,309	-0,152
67,276	155,066	-0,290	-0,281
68,290	225,712	-0,362	-0,413
69,305	127,744	-0,265	-0,237
70,320	85,396	-0,304	-0,235
71,334	69,634	-0,267	-0,193
72,349	-12,711	-0,298	-0,136
73,363	40,651	-0,404	-0,255
74,378	75,153	-0,318	-0,235
75,393	-48,657	-0,274	-0,092
76,407	-65,860	-0,393	-0,110
77,422	2,490	-0,210	-0,107
78,436	2,589	-0,138	-0,070
79,451	61,890	-0,288	-0,202
80,466	33,022	-0,293	-0,178
81,480	-26,713	-0,452	-0,185
82,495	193,101	-0,259	-0,275
83,509	-28,489	-0,364	-0,147
84,524	-30,264	-0,325	-0,129
85,539	31,750	-0,172	-0,104
86,553	-27,061	-0,300	-0,122
87,568	107,423	-0,258	-0,215
88,582	90,273	-0,311	-0,244
89,597	27,517	-0,291	-0,171
90,611	-98,968	-0,362	-0,064
91,626	22,187	-0,275	-0,157
92,641	-46,300	-0,257	-0,088
93,655	800,000	-0,091	-0,222
94,670	-109,233	-0,315	-0,046
95,684	226,569	-0,167	-0,190
96,699	20,608	-0,434	-0,246
97,714	28,659	-0,212	-0,126
98,728	41,903	-0,207	-0,131
99,743	458,040	-0,172	-0,270
100,757	29,204	-0,395	-0,234
101,772	221,831	-0,267	-0,302
102,787	139,289	-0,213	-0,197
103,801	37,328	-0,367	-0,227
104,816	77,597	-0,235	-0,175
105,830	-172,240	-0,149	0,003
106,845	-25,167	-0,283	-0,117
107,860	380,738	-0,170	-0,246
108,874	70,061	-0,365	-0,264
109,889	-26,894	-0,389	-0,159
110,903	136,011	-0,257	-0,235
111,918	24,505	-0,233	-0,135
112,933	393,353	-0,158	-0,230
113,947	107,731	-0,207	-0,172
114,962	8,519	-0,192	-0,101
115,976	114,114	-0,154	-0,131
116,991	-18,144	-0,318	-0,139
118,006	166,046	-0,148	-0,146
119,020	-18,827	-0,328	-0,142
120,035	-48,827	-0,338	-0,113
121,049	19,455	-0,302	-0,170
122,064	205,457	-0,187	-0,204
123,079	-9,957	-0,414	-0,192
124,093	46,547	-0,293	-0,190
125,108	100,535	-0,247	-0,200
126,122	-1,881	-0,305	-0,150
127,137	137,505	-0,239	-0,219
128,151	-79,260	-0,116	-0,027
129,166	35,576	-0,252	-0,155
130,181	-8,796	-0,218	-0,102
131,195	-97,037	-0,266	-0,048
132,210	50,236	-0,305	-0,201
133,224	91,109	-0,214	-0,168
134,239	86,937	-0,178	-0,137
135,254	457,984	-0,113	-0,176
136,268	46,508	-0,361	-0,234
137,283	212,468	-0,181	-0,199
138,297	17,421	-0,236	-0,131
139,312	250,896	-0,176	-0,209
140,327	163,606	-0,282	-0,278
141,341	-77,948	-0,300	-0,072
142,356	267,436	-0,263	-0,322
143,370	45,693	-0,210	-0,135
144,385	318,624	-0,130	-0,172
145,400	6,760	-0,384	-0,199
146,414	96,048	-0,378	-0,301
147,429	369,545	-0,127	-0,180
148,443	51,283	-0,183	-0,121
149,458	-6,365	-0,300	-0,143
150,473	69,521	-0,230	-0,165
151,487	55,697	-0,286	-0,193
152,502	-35,942	-0,187	-0,070
153,516	78,753	-0,273	-0,204
154,531	174,784	-0,299	-0,303
155,546	6,309	-0,313	-0,162
156,560	-145,835	-0,279	-0,017
157,575	-71,182	-0,344	-0,089
158,589	160,354	-0,192	-0,187
159,604	73,017	-0,250	-0,182
160,619	93,383	-0,247	-0,195
161,633	-90,852	-0,297	-0,059
162,648	228,828	-0,136	-0,155
163,662	151,647	-0,244	-0,232
164,677	-20,885	-0,371	-0,158
165,692	50,002	-0,297	-0,195
166,706	287,766	-0,154	-0,195
167,721	-57,588	-0,303	-0,092
168,735	800,000	-0,184	-0,359
169,750	92,214	-0,181	-0,142
170,764	55,560	-0,181	-0,122
171,779	-53,230	-0,175	-0,056
172,794	44,803	-0,228	-0,146
173,808	1,992	-0,281	-0,141
174,823	34,658	-0,323	-0,196
175,837	110,951	-0,225	-0,188
176,852	254,363	-0,193	-0,230
177,867	-160,760	-0,191	-0,007
178,881	198,367	-0,120	-0,128
179,896	32,312	-0,244	-0,147
180,910	-57,867	-0,193	-0,058
181,925	204,092	-0,201	-0,217
182,940	37,992	-0,384	-0,238
183,954	5,015	-0,182	-0,093
184,969	101,897	-0,199	-0,162
185,983	-29,756	-0,216	-0,085
186,998	134,772	-0,151	-0,136
188,013	85,521	-0,247	-0,189
189,027	-29,053	-0,405	-0,161
190,042	-78,620	-0,238	-0,056
191,056	333,775	-0,176	-0,238
192,071	30,045	-0,152	-0,090
193,086	222,303	-0,131	-0,146
194,100	-153,388	-0,200	-0,010
195,115	94,456	-0,207	-0,163
196,129	-145,554	-0,183	-0,011
197,144	189,412	-0,230	-0,240
198,159	158,321	-0,185	-0,179
199,173	8,258	-0,242	-0,126
200,188	110,636	-0,121	-0,101
201,202	-187,875	-0,229	-0,002
202,217	32,711	-0,174	-0,104
203,232	32,386	-0,195	-0,117
204,246	-42,304	-0,229	-0,081
205,261	-56,169	-0,223	-0,069
206,275	-74,502	-0,112	-0,028
207,290	-188,664	-0,186	0,002
208,304	228,682	-0,173	-0,196
209,319	165,907	-0,226	-0,223
210,334	629,586	-0,121	-0,213
211,348	89,434	-0,255	-0,197
212,363	800,000	-0,145	-0,339
213,377	226,967	-0,163	-0,184
214,392	4,190	-0,298	-0,151
215,407	554,842	-0,070	-0,117
216,421	-79,519	-0,342	-0,080
217,436	36,617	-0,162	-0,099
218,450	5,045	-0,230	-0,117
219,465	122,036	-0,313	-0,272
220,480	19,492	-0,160	-0,089
221,494	58,345	-0,216	-0,147
222,509	324,613	-0,158	-0,210
223,523	-67,296	-0,217	-0,059
224,538	146,865	-0,205	-0,192
225,553	-4,311	-0,216	-0,103
226,567	82,202	-0,239	-0,179
227,582	120,810	-0,226	-0,195
228,596	500,925	-0,196	-0,315
229,611	14,497	-0,169	-0,091
230,626	48,707	-0,177	-0,115
231,640	83,828	-0,201	-0,152
232,655	494,248	-0,100	-0,159
233,669	248,838	-0,190	-0,223
234,684	344,752	-0,128	-0,174
235,699	452,060	-0,187	-0,287
236,713	781,919	-0,178	-0,340
237,728	630,984	-0,066	-0,117
238,742	-49,363	-0,237	-0,078
239,757	-3,124	-0,249	-0,120
240,772	182,332	-0,195	-0,200
241,786	800,000	-0,089	-0,241
242,801	98,094	-0,276	-0,220
243,815	-75,238	-0,192	-0,047
244,830	-87,700	-0,121	-0,025
245,844	175,044	-0,030	-0,030
246,859	-61,271	-0,286	-0,083
247,874	-169,439	-0,262	0,007
248,888	1,976	-0,121	-0,060
249,903	-200,000	-0,027	-0,097
250,917	436,924	-0,035	-0,054
251,932	800,000	-0,052	-0,138
252,947	507,095	-0,115	-0,185
253,961	106,944	-0,229	-0,188
254,976	9,465	-0,199	-0,104
255,990	476,414	-0,110	-0,173
257,005	12,475	-0,109	-0,058
258,020	-200,000	-0,030	-0,102
259,034	354,656	-0,166	-0,228
260,049	25,956	-0,253	-0,145
261,063	307,976	-0,127	-0,164
262,078	277,513	-0,200	-0,246
263,093	100,795	-0,194	-0,156
264,107	265,540	-0,167	-0,202
265,122	-59,711	-0,184	-0,054
266,136	-78,832	-0,212	-0,050
267,151	-82,797	-0,172	-0,038
268,166	-129,183	-0,104	-0,010
269,180	22,665	-0,214	-0,121
270,195	122,038	-0,295	-0,254
271,209	-200,000	-0,056	-0,265
272,224	128,659	-0,123	-0,108
273,239	-71,143	-0,132	0,034
274,253	57,984	-0,070	-0,047
275,268	601,208	-0,059	-0,102
276,282	-200,000	-0,009	-0,204
277,297	144,432	-0,124	-0,115
278,312	800,000	-0,082	-0,164
279,326	-200,000	-0,001	0,024
280,341	-200,000	-0,044	-0,143
281,355	-158,660	-0,075	-0,003
282,370	-20,236	-0,293	-0,124
283,384	27,327	-0,174	-0,101
284,399	55,859	-0,149	-0,100
285,414	-89,873	-0,246	-0,049
286,428	-50,391	-0,099	-0,032
287,443	-152,993	-0,076	0,004
288,457	-19,801	-0,162	-0,069
289,472	-103,150	-0,191	-0,031
290,487	800,000	-0,059	-0,118
291,501	-12,176	-0,209	-0,094
292,516	97,873	-0,207	-0,164
293,530	227,307	-0,126	-0,141
294,545	-130,560	-0,050	0,005
295,560	363,790	-0,085	-0,118
296,574	-129,583	-0,162	-0,015
297,589	-25,797	-0,268	-0,109
298,603	43,264	-0,218	-0,137
299,618	-25,598	-0,219	-0,089
300,633	114,626	-0,247	-0,207
301,647	-200,000	0,003	-0,083
302,662	-75,737	-0,146	-0,035
303,676	-22,544	-0,159	-0,066
304,691	247,915	-0,151	-0,176
305,706	-200,000	0,003	-0,108
306,720	579,113	-0,144	-0,244
307,735	255,445	-0,112	-0,133
308,749	800,000	-0,052	-0,151
309,764	-161,809	-0,215	-0,007
310,779	107,351	-0,112	-0,092
311,793	102,358	-0,188	-0,152
312,808	234,013	-0,151	-0,171
313,822	47,802	-0,190	-0,122
314,837	2,908	-0,252	-0,125
315,852	-73,870	-0,024	0,006
316,866	280,418	-0,009	0,011
317,881	159,473	-0,223	-0,213
318,895	207,093	-0,117	-0,126
319,910	-200,000	-0,053	-0,180
320,925	139,605	-0,235	-0,213
321,939	-40,603	-0,180	-0,064
322,954	101,925	-0,106	-0,085
323,968	243,405	-0,080	-0,093
324,983	800,000	-0,069	0,155
325,997	11,097	-0,149	-0,078
327,012	-200,000	-0,059	-0,305
328,027	143,739	-0,151	-0,138
329,041	86,382	-0,198	-0,150
330,056	-200,000	-0,026	-0,233
331,070	6,025	-0,122	-0,062
332,085	568,720	-0,113	-0,190
333,100	-159,035	-0,146	-0,006
334,114	47,485	-0,098	-0,063
335,129	3,962	-0,101	0,051
336,143	0,271	-0,110	-0,054
337,158	-44,537	-0,195	-0,066
338,173	800,000	-0,101	-0,200
339,187	-24,853	-0,028	0,011
340,202	-57,313	-0,093	0,028
341,216	95,169	-0,196	-0,153
342,231	-82,613	-0,217	-0,048
343,246	515,786	-0,116	-0,187
344,260	132,262	-0,094	-0,083
345,275	-33,784	-0,113	-0,042
346,289	-200,000	0,011	-0,051
347,304	-200,000	-0,004	-0,091
348,319	66,235	-0,142	-0,099
349,333	56,386	-0,117	-0,078
350,348	146,371	-0,088	-0,081
351,362	800,000	-0,066	-0,135
352,377	8,430	-0,140	-0,072
353,392	6,549	-0,181	0,092
354,406	114,875	-0,089	0,074
355,421	210,156	1312,926	1415,171
356,435	161,775	1473,425	1415,661
