DTS Sentinel unit serial number:	SN410029Multiplexer serial number:	ORYXHardware model number:	OX2-SRSoftware version number:	ORYX F/W v4,00 Oryx Data Collector v3.7.2.0data status	okinstallation	B3 Nyhavnadifferential loss correction	single-endedforward channel	channel 1reverse channel	N/Adate	2023/12/04time	00:32:30forward acquisition time	300,00reverse acquisition time	0,00gamma	499,1914k internal	0,3203k external	0,3203temperature offset calibration	1,0000default loss term (dB/km)	0,3820temperature slope calibration	1,0000multiplexer offset coefficient	1,0000multiplexer slope coefficient	1,0000fibre end	0,00T internal ref (°C)	12,66T ext. ref 1 (°C)	-2,62T ext. ref 2 (°C)	-2,65length (m)	temperature (°C)	Stokes	anti-Stokes-744,400	143,997	-0,193	-0,187
-743,385	-200,000	-0,012	0,339
-742,371	-7,524	-0,191	-0,093
-741,356	-200,000	-0,030	0,379
-740,342	-200,000	-0,077	-0,249
-739,327	-200,000	-0,030	0,275
-738,312	267,554	-0,162	-0,207
-737,298	-200,000	-0,008	0,360
-736,283	380,156	-0,192	-0,287
-735,269	-200,000	0,056	0,327
-734,254	122,059	-0,205	-0,186
-733,239	371,622	-0,131	0,194
-732,225	-200,000	-0,090	-0,308
-731,210	71,153	0,088	0,066
-730,196	-20,420	0,053	-0,024
-729,181	-4,847	-0,139	-0,069
-728,167	-200,000	0,012	-0,055
-727,152	800,000	-0,038	-0,097
-726,137	194,575	0,055	-0,060
-725,123	52,380	-0,004	0,003
-724,108	-200,000	0,025	-0,177
-723,094	202,345	-0,043	-0,049
-722,079	-20,513	-0,082	-0,036
-721,064	37,025	-0,079	-0,050
-720,050	107,629	-0,095	-0,082
-719,035	-94,449	0,112	0,022
-718,021	-10,073	-0,026	-0,012
-717,006	-62,226	-0,123	-0,037
-715,991	800,000	-0,027	-0,064
-714,977	220,706	0,055	-0,065
-713,962	-97,513	-0,099	-0,019
-712,948	-200,000	0,022	0,092
-711,933	-200,000	0,018	0,152
-710,918	590,468	-0,052	0,094
-709,904	64,541	-0,097	-0,071
-708,889	125,004	-0,092	-0,084
-707,875	800,000	-0,058	-0,148
-706,860	800,000	0,020	0,044
-705,845	342,740	-0,047	0,068
-704,831	-4,524	0,077	0,038
-703,816	416,400	-0,079	-0,123
-702,802	81,198	-0,192	-0,150
-701,787	-200,000	0,007	-0,071
-700,772	-200,000	0,008	-0,031
-699,758	-200,000	-0,006	-0,069
-698,743	213,060	0,115	-0,131
-697,729	727,538	-0,013	-0,025
-696,714	800,000	0,008	0,024
-695,699	-200,000	-0,006	-0,026
-694,685	493,620	0,036	0,060
-693,670	800,000	-0,026	-0,054
-692,656	-200,000	-0,028	0,109
-691,641	190,105	-0,141	0,154
-690,627	-200,000	0,001	-0,025
-689,612	800,000	0,019	0,040
-688,597	-145,729	-0,108	0,007
-687,583	50,104	-0,106	-0,073
-686,568	-200,000	-0,025	-0,103
-685,554	-28,918	-0,065	-0,027
-684,539	-126,253	0,077	-0,008
-683,524	-200,000	-0,010	-0,036
-682,510	73,178	0,058	0,044
-681,495	-9,907	0,028	-0,013
-680,481	217,269	-0,031	-0,036
-679,466	-200,000	-0,016	-0,070
-678,451	800,000	-0,061	-0,132
-677,437	-200,000	0,015	-0,080
-676,422	800,000	-0,038	-0,093
-675,408	238,965	0,092	-0,111
-674,393	-200,000	-0,025	-0,161
-673,378	22,165	-0,134	0,079
-672,364	-200,000	-0,002	0,035
-671,349	-60,300	0,118	-0,036
-670,335	7,169	0,166	-0,090
-669,320	-200,000	0,006	-0,102
-668,305	-72,339	-0,074	-0,020
-667,291	800,000	0,048	0,120
-666,276	-44,520	0,015	0,005
-665,262	800,000	-0,109	-0,244
-664,247	800,000	-0,048	-0,121
-663,232	-37,580	-0,044	-0,017
-662,218	292,327	-0,041	-0,054
-661,203	285,818	-0,026	0,035
-660,189	-200,000	-0,006	0,021
-659,174	-42,087	0,034	-0,013
-658,159	-132,124	0,096	0,009
-657,145	69,932	-0,055	-0,041
-656,130	-200,000	-0,051	-0,191
-655,116	-49,533	-0,064	0,022
-654,101	400,120	0,053	-0,080
-653,086	240,513	-0,073	0,089
-652,072	-117,834	-0,021	0,003
-651,057	119,360	0,080	-0,072
-650,043	800,000	-0,025	-0,057
-649,028	-200,000	0,025	0,124
-648,014	193,125	0,036	-0,040
-646,999	-10,077	-0,099	0,048
-645,984	94,006	0,062	0,051
-644,970	366,723	0,018	-0,027
-643,955	-200,000	-0,010	-0,067
-642,941	319,821	-0,048	-0,066
-641,926	14,391	-0,170	-0,096
-640,911	-123,985	0,031	0,003
-639,897	-71,681	0,150	-0,040
-638,882	-40,912	0,053	-0,020
-637,868	-200,000	0,002	0,045
-636,853	398,739	-0,082	0,125
-635,838	208,218	-0,042	-0,047
-634,824	-66,861	0,042	-0,012
-633,809	237,379	-0,065	-0,078
-632,795	23,494	-0,054	-0,032
-631,780	800,000	-0,036	0,110
-630,765	800,000	-0,012	0,025
-629,751	800,000	-0,101	-0,270
-628,736	-200,000	-0,023	-0,091
-627,722	-200,000	-0,020	0,083
-626,707	301,555	-0,024	-0,032
-625,692	36,851	-0,032	-0,021
-624,678	800,000	-0,056	0,137
-623,663	800,000	-0,065	0,152
-622,649	-46,619	-0,107	-0,038
-621,634	-72,462	0,079	-0,021
-620,619	233,969	-0,083	-0,099
-619,605	-41,849	0,121	-0,045
-618,590	75,163	0,077	-0,058
-617,576	800,000	-0,078	0,208
-616,561	-34,587	-0,079	-0,031
-615,546	800,000	-0,014	-0,033
-614,532	755,338	-0,051	-0,101
-613,517	-200,000	0,019	-0,153
-612,503	800,000	-0,050	0,125
-611,488	-75,198	0,077	-0,020
-610,474	-51,947	-0,135	-0,045
-609,459	-34,982	0,044	-0,017
-608,444	-126,742	-0,074	-0,008
-607,430	-4,239	0,054	-0,027
-606,415	-117,646	-0,191	-0,025
-605,401	-200,000	-0,023	-0,211
-604,386	-200,000	0,008	0,026
-603,371	-78,443	0,190	-0,047
-602,357	-83,089	-0,172	0,040
-601,342	-200,000	0,005	0,056
-600,328	-41,965	-0,076	-0,028
-599,313	137,551	0,092	-0,087
-598,298	66,889	-0,049	-0,036
-597,284	44,066	-0,009	-0,006
-596,269	59,025	0,088	0,062
-595,255	60,844	-0,068	-0,049
-594,240	-200,000	-0,003	-0,061
-593,225	783,038	-0,019	-0,037
-592,211	-101,752	0,028	-0,005
-591,196	-200,000	-0,023	-0,109
-590,182	-45,110	0,088	-0,031
-589,167	-24,553	0,160	-0,069
-588,152	75,294	0,132	0,100
-587,138	182,554	-0,119	-0,127
-586,123	26,297	-0,193	-0,116
-585,109	800,000	-0,043	0,087
-584,094	177,243	0,076	-0,080
-583,079	-200,000	-0,002	0,017
-582,065	264,805	-0,087	-0,109
-581,050	-200,000	-0,005	-0,076
-580,036	-109,483	-0,070	0,011
-579,021	127,654	-0,038	-0,035
-578,006	800,000	-0,039	-0,103
-576,992	-200,000	0,003	0,019
-575,977	-16,831	-0,161	0,073
-574,963	-200,000	-0,005	-0,046
-573,948	-128,340	0,133	-0,013
-572,934	-129,617	0,068	0,007
-571,919	-83,458	-0,093	0,021
-570,904	800,000	0,012	-0,034
-569,890	354,261	-0,096	-0,138
-568,875	78,005	0,199	-0,153
-567,861	-200,000	-0,004	-0,020
-566,846	-75,498	0,007	-0,002
-565,831	93,453	-0,011	0,009
-564,817	-77,195	-0,144	-0,036
-563,802	-114,562	-0,183	-0,025
-562,788	-26,432	0,109	-0,046
-561,773	800,000	0,005	0,013
-560,758	800,000	0,011	-0,026
-559,744	-84,700	0,055	0,012
-558,729	800,000	0,027	-0,080
-557,715	-60,369	-0,132	0,040
-556,700	257,374	0,059	0,073
-555,685	-127,716	-0,026	-0,003
-554,671	-200,000	-0,003	0,033
-553,656	800,000	0,037	0,112
-552,642	-19,209	0,101	0,045
-551,627	-200,000	-0,034	-0,148
-550,612	-200,000	-0,002	-0,037
-549,598	800,000	-0,103	-0,225
-548,583	-132,874	-0,159	0,014
-547,569	-2,649	0,130	0,065
-546,554	-16,448	0,082	-0,037
-545,539	-75,339	-0,039	0,010
-544,525	-119,138	-0,078	0,010
-543,510	-200,000	-0,002	0,053
-542,496	-66,039	-0,050	0,014
-541,481	710,890	-0,020	-0,039
-540,466	800,000	0,067	-0,148
-539,452	-200,000	-0,024	-0,104
-538,437	276,784	0,033	0,043
-537,423	5,011	-0,134	0,071
-536,408	-200,000	0,004	-0,119
-535,393	380,284	-0,042	-0,063
-534,379	-43,791	-0,185	-0,067
-533,364	800,000	0,057	-0,145
-532,350	-200,000	-0,027	0,181
-531,335	18,402	0,151	0,087
-530,321	28,655	-0,119	0,072
-529,306	6,977	0,070	-0,037
-528,291	-144,266	-0,165	-0,011
-527,277	779,112	0,082	-0,162
-526,262	258,670	-0,070	0,087
-525,248	800,000	0,079	0,203
-524,233	-200,000	-0,007	-0,062
-523,218	-162,211	0,084	-0,003
-522,204	193,131	-0,104	0,114
-521,189	-200,000	-0,004	-0,132
-520,175	-102,666	0,037	0,006
-519,160	-200,000	0,020	0,100
-518,145	800,000	-0,013	0,031
-517,131	-200,000	0,017	0,167
-516,116	15,612	-0,066	-0,038
-515,102	75,630	0,138	0,105
-514,087	7,118	0,049	0,026
-513,072	-200,000	0,018	-0,086
-512,058	-164,091	-0,082	0,003
-511,043	-28,191	0,051	0,021
-510,029	456,803	-0,020	-0,032
-509,014	800,000	0,036	0,096
-507,999	-62,407	0,080	-0,024
-506,985	-0,003	-0,089	-0,046
-505,970	-82,374	-0,115	-0,027
-504,956	-108,163	-0,023	0,003
-503,941	130,215	0,014	0,013
-502,926	378,574	0,075	0,110
-501,912	-200,000	-0,004	0,016
-500,897	461,609	-0,049	0,079
-499,883	75,150	0,081	-0,061
-498,868	239,801	-0,078	0,094
-497,853	-65,873	-0,125	-0,036
-496,839	67,075	0,056	0,041
-495,824	62,583	0,017	-0,013
-494,810	277,095	-0,042	-0,053
-493,795	69,817	-0,092	0,069
-492,781	-136,654	-0,031	0,003
-491,766	412,636	0,079	0,122
-490,751	-200,000	-0,022	-0,074
-489,737	-200,000	0,009	0,053
-488,722	-74,219	0,149	-0,039
-487,708	-84,739	0,079	0,018
-486,693	800,000	0,017	-0,048
-485,678	-102,224	-0,098	0,017
-484,664	6,952	-0,035	-0,019
-483,649	271,595	-0,124	-0,158
-482,635	-102,801	0,035	-0,006
-481,620	668,050	-0,028	0,052
-480,605	-142,086	0,118	-0,008
-479,591	241,817	-0,066	0,080
-478,576	-95,014	-0,187	-0,036
-477,562	308,488	0,124	0,167
-476,547	-131,980	0,135	-0,012
-475,532	800,000	-0,070	-0,150
-474,518	800,000	-0,069	0,191
-473,503	271,428	0,057	0,072
-472,489	-103,359	0,146	0,024
-471,474	-200,000	-0,020	0,134
-470,459	800,000	-0,057	-0,144
-469,445	-200,000	0,012	0,046
-468,430	115,387	-0,079	0,070
-467,416	-119,774	0,056	0,007
-466,401	800,000	0,024	0,062
-465,386	292,524	-0,024	0,032
-464,372	178,775	-0,112	0,118
-463,357	-44,641	0,080	0,029
-462,343	244,675	0,091	-0,110
-461,328	-200,000	0,030	-0,147
-460,313	-49,269	-0,038	-0,013
-459,299	800,000	-0,031	0,062
-458,284	-114,595	0,121	0,016
-457,270	478,222	-0,096	0,156
-456,255	159,524	0,028	-0,028
-455,241	655,820	-0,062	-0,115
-454,226	-38,983	-0,105	0,039
-453,211	77,566	-0,028	-0,021
-452,197	-190,505	0,105	0,001
-451,182	600,093	-0,073	0,131
-450,168	-168,311	-0,053	0,001
-449,153	-200,000	-0,001	0,042
-448,138	800,000	0,025	0,063
-447,124	-16,828	0,031	0,014
-446,109	-67,153	0,049	0,014
-445,095	-90,265	-0,060	-0,012
-444,080	-200,000	0,002	-0,030
-443,065	23,543	0,111	0,065
-442,051	-71,733	-0,150	-0,040
-441,036	352,376	0,031	-0,044
-440,022	462,227	-0,040	0,065
-439,007	157,384	0,044	0,043
-437,992	105,746	0,044	-0,038
-436,978	800,000	0,020	-0,058
-435,963	-111,948	-0,068	-0,010
-434,949	-200,000	-0,001	0,035
-433,934	337,073	-0,047	-0,066
-432,919	-25,593	-0,095	-0,040
-431,905	-57,951	0,123	0,038
-430,890	-3,198	0,060	-0,030
-429,876	36,485	0,091	0,057
-428,861	800,000	0,052	0,129
-427,846	-125,094	-0,082	0,009
-426,832	-200,000	-0,010	-0,098
-425,817	14,157	0,117	-0,065
-424,803	-45,396	0,158	-0,056
-423,788	800,000	-0,038	0,093
-422,773	800,000	0,031	0,069
-421,759	-200,000	-0,027	0,204
-420,744	-200,000	0,022	0,187
-419,730	800,000	-0,018	0,054
-418,715	540,131	-0,047	-0,081
-417,701	-200,000	-0,000	-0,094
-416,686	-22,468	-0,073	-0,032
-415,671	87,131	-0,049	0,039
-414,657	-47,998	-0,027	0,009
-413,642	800,000	-0,015	0,039
-412,628	-200,000	-0,021	0,072
-411,613	306,094	-0,012	-0,016
-410,598	206,187	-0,083	-0,092
-409,584	-200,000	-0,020	-0,093
-408,569	-200,000	0,002	0,087
-407,555	-43,008	0,081	0,029
-406,540	245,272	0,036	0,044
-405,525	483,783	-0,077	-0,126
-404,511	82,058	0,046	0,035
-403,496	-168,262	-0,046	-0,001
-402,482	-94,594	0,037	-0,007
-401,467	-27,438	0,147	-0,061
-400,452	690,526	0,056	0,106
-399,438	-200,000	0,028	0,182
-398,423	-200,000	0,009	-0,037
-397,409	-200,000	-0,004	-0,071
-396,394	-20,187	-0,135	-0,059
-395,379	-34,198	0,167	-0,065
-394,365	267,117	0,070	-0,088
-393,350	-57,153	0,023	-0,007
-392,336	391,175	0,087	0,130
-391,321	-7,404	0,057	-0,027
-390,306	-158,045	-0,144	-0,006
-389,292	-200,000	0,016	-0,147
-388,277	-36,512	-0,018	0,007
-387,263	800,000	0,066	0,134
-386,248	0,566	0,162	0,083
-385,233	646,525	0,079	-0,146
-384,219	-40,366	-0,049	0,018
-383,204	11,961	0,140	-0,077
-382,190	168,743	-0,046	0,047
-381,175	-70,752	0,069	-0,018
-380,160	337,272	0,035	0,049
-379,146	-104,905	0,099	0,016
-378,131	189,179	0,022	-0,024
-377,117	52,317	-0,125	0,085
-376,102	21,859	-0,068	0,039
-375,088	-54,736	-0,105	-0,034
-374,073	293,626	0,011	-0,014
-373,058	-44,115	0,045	-0,016
-372,044	394,069	0,033	-0,050
-371,029	-128,306	0,099	0,010
-370,015	729,638	0,072	-0,138
-369,000	-200,000	-0,014	-0,095
-367,985	173,614	-0,066	-0,069
-366,971	-9,129	0,022	-0,010
-365,956	-24,163	-0,013	-0,005
-364,942	108,921	0,089	0,077
-363,927	168,103	0,021	0,021
-362,912	179,920	-0,064	-0,067
-361,898	-36,423	0,175	-0,067
-360,883	269,677	-0,090	-0,113
-359,869	-51,607	-0,031	0,010
-358,854	189,830	-0,044	-0,048
-357,839	-79,802	0,089	0,021
-356,825	177,802	0,055	0,058
-355,810	-200,000	0,001	0,032
-354,796	800,000	0,058	-0,137
-353,781	-200,000	0,007	0,075
-352,766	266,163	0,074	-0,092
-351,752	-200,000	-0,016	-0,115
-350,737	-200,000	-0,024	-0,138
-349,723	-200,000	0,017	0,060
-348,708	-37,224	0,067	-0,026
-347,693	-130,776	-0,034	0,003
-346,679	-115,237	0,107	0,014
-345,664	156,811	-0,060	-0,059
-344,650	-121,234	0,054	-0,006
-343,635	-13,569	0,107	0,049
-342,620	-79,906	0,177	-0,042
-341,606	-86,408	0,012	-0,003
-340,591	-85,372	-0,149	-0,033
-339,577	-133,519	-0,103	0,009
-338,562	800,000	0,013	-0,035
-337,548	774,233	0,032	-0,062
-336,533	-200,000	0,004	-0,020
-335,518	375,378	0,052	0,077
-334,504	-127,781	0,076	-0,008
-333,489	-200,000	0,011	0,069
-332,475	-200,000	-0,015	-0,072
-331,460	245,606	-0,084	-0,102
-330,445	228,256	0,034	-0,040
-329,431	347,456	0,083	0,117
-328,416	-5,911	0,252	0,123
-327,402	512,071	0,039	0,066
-326,387	-16,010	0,042	0,019
-325,372	156,119	-0,097	-0,096
-324,358	800,000	-0,039	-0,104
-323,343	-200,000	0,012	-0,096
-322,329	478,508	0,028	0,046
-321,314	-200,000	-0,001	0,106
-320,299	-125,021	-0,139	-0,015
-319,285	-174,414	0,074	0,001
-318,270	299,557	-0,053	-0,070
-317,256	22,045	0,016	0,009
-316,241	150,267	-0,104	0,101
-315,226	139,570	-0,053	0,049
-314,212	-151,537	0,252	-0,013
-313,197	15,194	0,071	0,040
-312,183	53,997	0,056	0,038
-311,168	33,655	-0,082	-0,051
-310,153	-39,807	-0,079	-0,029
-309,139	-98,843	0,027	0,005
-308,124	-192,421	-0,072	0,000
-307,110	-200,000	-0,014	0,079
-306,095	-200,000	0,017	0,121
-305,080	-43,293	0,043	0,015
-304,066	-124,381	0,062	-0,007
-303,051	347,918	-0,059	-0,083
-302,037	-33,745	-0,024	-0,009
-301,022	101,370	-0,063	0,053
-300,008	-200,000	0,059	0,206
-298,993	-200,000	-0,018	-0,113
-297,978	-89,714	0,036	0,007
-296,964	-129,281	-0,089	0,009
-295,949	62,219	0,125	-0,089
-294,935	-48,772	0,092	0,031
-293,920	-19,048	0,091	0,040
-292,905	800,000	0,013	0,039
-291,891	-200,000	0,008	0,055
-290,876	800,000	0,027	0,055
-289,862	-200,000	-0,001	-0,100
-288,847	-75,743	-0,031	0,008
-287,832	274,082	-0,032	0,041
-286,818	-31,645	-0,120	-0,048
-285,803	-200,000	0,032	0,138
-284,789	800,000	0,021	0,058
-283,774	800,000	0,058	0,121
-282,759	30,077	0,134	0,081
-281,745	620,467	-0,038	-0,069
-280,730	-13,022	-0,176	-0,082
-279,716	800,000	0,024	-0,049
-278,701	800,000	-0,036	0,089
-277,686	-200,000	0,016	0,119
-276,672	509,298	0,085	0,142
-275,657	285,595	-0,060	0,078
-274,643	800,000	-0,067	-0,163
-273,628	653,437	-0,069	-0,127
-272,613	41,205	-0,060	-0,039
-271,599	239,272	0,072	0,085
-270,584	-200,000	-0,004	-0,062
-269,570	-42,270	-0,173	0,063
-268,555	12,799	0,155	0,085
-267,540	111,444	-0,064	0,055
-266,526	-200,000	0,007	-0,066
-265,511	533,293	-0,013	0,023
-264,497	21,047	0,057	0,033
-263,482	87,817	0,039	-0,031
-262,467	-4,759	0,064	0,031
-261,453	342,750	-0,044	0,061
-260,438	41,313	-0,101	0,065
-259,424	800,000	0,052	0,142
-258,409	403,040	0,044	-0,065
-257,395	405,556	-0,029	0,044
-256,380	-75,304	0,057	-0,014
-255,365	109,132	0,110	0,093
-254,351	-200,000	0,018	0,190
-253,336	-200,000	-0,007	0,026
-252,322	-200,000	-0,019	-0,078
-251,307	-135,274	0,094	0,008
-250,292	-114,446	-0,110	0,015
-249,278	35,810	0,144	-0,090
-248,263	800,000	0,032	0,085
-247,249	800,000	-0,078	0,206
-246,234	-200,000	-0,011	-0,079
-245,219	13,267	-0,048	0,026
-244,205	-200,000	-0,000	0,052
-243,190	131,643	0,033	0,030
-242,176	-200,000	-0,005	0,054
-241,161	-68,498	-0,053	-0,015
-240,146	800,000	0,057	0,169
-239,132	-5,315	-0,049	0,024
-238,117	800,000	-0,038	0,087
-237,103	-200,000	-0,024	-0,155
-236,088	761,319	0,035	0,069
-235,073	800,000	-0,090	0,216
-234,059	36,209	-0,070	0,044
-233,044	108,370	-0,025	0,021
-232,030	645,693	-0,081	0,148
-231,015	141,564	-0,058	-0,054
-230,000	-9,799	-0,141	-0,066
-228,986	-115,346	-0,069	-0,009
-227,971	-200,000	0,012	-0,089
-226,957	-200,000	-0,002	-0,096
-225,942	591,291	-0,041	-0,073
-224,927	-69,418	0,092	0,025
-223,913	-142,886	-0,037	-0,003
-222,898	96,535	0,105	-0,086
-221,884	-88,634	-0,043	-0,009
-220,869	-43,634	0,034	-0,012
-219,855	177,082	0,068	-0,070
-218,840	-7,237	-0,088	0,042
-217,825	286,091	-0,022	0,028
-216,811	99,552	-0,061	0,051
-215,796	-200,000	0,010	-0,135
-214,782	96,572	-0,032	-0,026
-213,767	-200,000	0,020	0,107
-212,752	326,922	0,049	0,067
-211,738	84,674	-0,031	-0,024
-210,723	188,981	-0,019	-0,021
-209,709	-107,091	-0,068	-0,011
-208,694	-184,610	-0,061	0,001
-207,679	-46,080	-0,025	-0,009
-206,665	-68,123	0,179	0,049
-205,650	11,848	0,022	0,012
-204,636	494,101	-0,016	0,026
-203,621	102,658	0,087	-0,072
-202,606	-200,000	0,004	-0,105
-201,592	-35,410	-0,014	0,005
-200,577	42,686	-0,156	-0,101
-199,563	-74,702	0,158	0,040
-198,548	358,141	-0,070	0,099
-197,533	135,014	0,030	0,028
-196,519	217,438	-0,093	0,106
-195,504	285,892	-0,120	-0,154
-194,490	800,000	-0,062	-0,129
-193,475	-130,619	0,086	-0,008
-192,460	45,836	0,035	-0,023
-191,446	792,963	0,045	0,089
-190,431	-52,842	0,050	-0,016
-189,417	800,000	0,025	0,064
-188,402	-48,576	-0,146	0,050
-187,387	75,391	-0,071	0,053
-186,373	-32,954	-0,076	-0,030
-185,358	800,000	0,049	-0,150
-184,344	-200,000	-0,018	0,057
-183,329	-200,000	0,012	0,049
-182,315	368,147	0,044	0,063
-181,300	-200,000	-0,001	-0,054
-180,285	-185,595	0,065	0,001
-179,271	241,727	-0,026	-0,030
-178,256	-52,037	0,046	0,015
-177,242	159,155	-0,058	-0,057
-176,227	194,207	0,166	0,179
-175,212	388,724	-0,064	0,094
-174,198	-160,328	-0,018	0,001
-173,183	2,244	-0,045	0,023
-172,169	-200,000	0,008	-0,116
-171,154	307,259	-0,056	-0,074
-170,139	800,000	0,030	-0,062
-169,125	-44,195	0,015	-0,005
-168,110	111,865	0,050	0,043
-167,096	10,958	0,065	-0,035
-166,081	-113,398	-0,223	-0,031
-165,066	467,005	-0,045	0,071
-164,052	285,691	-0,011	0,014
-163,037	-16,391	0,178	-0,080
-162,023	-89,399	0,089	0,019
-161,008	-112,157	0,129	-0,018
-159,993	242,249	-0,045	-0,054
-158,979	-90,714	0,063	0,013
-157,964	289,251	-0,038	-0,049
-156,950	-200,000	-0,017	0,060
-155,935	81,027	0,110	-0,084
-154,920	-200,000	0,011	-0,093
-153,906	39,866	-0,056	0,036
-152,891	-40,969	0,168	-0,061
-151,877	210,626	-0,053	-0,060
-150,862	65,058	-0,060	0,043
-149,847	162,692	-0,053	0,053
-148,833	-2,211	0,074	0,037
-147,818	673,678	-0,045	0,084
-146,804	111,613	0,100	0,086
-145,789	396,462	0,073	-0,109
-144,775	64,936	-0,047	-0,034
-143,760	-194,256	0,167	-0,001
-142,745	-200,000	0,007	0,105
-141,731	39,491	-0,089	-0,056
-140,716	-49,336	0,103	0,035
-139,702	213,863	0,092	-0,104
-138,687	-200,000	0,034	0,135
-137,672	-200,000	0,028	-0,102
-136,658	548,221	-0,031	-0,053
-135,643	-84,686	-0,048	0,011
-134,629	499,851	0,064	-0,105
-133,614	800,000	0,023	0,060
-132,599	-200,000	0,019	0,126
-131,585	-133,324	0,202	0,018
-130,570	-200,000	0,003	0,090
-129,556	514,274	-0,016	-0,026
-128,541	535,453	-0,029	0,049
-127,526	-115,134	-0,146	-0,019
-126,512	-200,000	0,027	-0,098
-125,497	616,347	0,060	0,107
-124,483	800,000	0,052	0,152
-123,468	122,871	-0,092	0,082
-122,453	353,153	-0,078	0,110
-121,439	8,930	-0,094	-0,050
-120,424	87,517	0,100	-0,079
-119,410	-64,494	-0,088	0,025
-118,395	72,685	0,122	0,090
-117,380	-173,796	0,038	0,001
-116,366	-68,276	-0,017	-0,005
-115,351	12,570	-0,114	-0,062
-114,337	-171,315	-0,129	0,003
-113,322	-154,956	0,075	-0,003
-112,307	-200,000	-0,029	0,101
-111,293	59,299	0,074	0,052
-110,278	-200,000	0,016	0,060
-109,264	-1,928	0,100	0,050
-108,249	-157,348	-0,181	-0,008
-107,234	800,000	0,070	-0,166
-106,220	89,636	-0,074	-0,058
-105,205	800,000	0,071	0,167
-104,191	800,000	0,019	0,051
-103,176	7,688	0,181	0,096
-102,162	800,000	-0,035	-0,105
-101,147	-161,890	0,039	-0,001
-100,132	289,287	0,037	0,048
-99,118	-77,001	-0,073	-0,018
-98,103	320,285	0,053	-0,072
-97,089	-30,646	-0,033	-0,013
-96,074	-200,000	-0,015	-0,080
-95,059	-149,625	-0,101	0,006
-94,045	-200,000	0,024	0,078
-93,030	81,135	-0,066	-0,051
-92,016	-200,000	-0,006	0,125
-91,001	-112,563	0,108	0,015
-89,986	-200,000	0,037	0,128
-88,972	800,000	-0,018	0,040
-87,957	-200,000	-0,012	0,061
-86,943	108,579	-0,030	-0,025
-85,928	107,980	0,075	-0,063
-84,913	-5,724	-0,156	-0,075
-83,899	59,625	0,110	-0,077
-82,884	40,607	-0,083	-0,053
-81,870	-200,000	0,028	0,152
-80,855	-200,000	0,008	-0,190
-79,840	-200,000	-0,018	0,100
-78,826	5,334	-0,184	-0,096
-77,811	-171,299	0,059	0,001
-76,797	-44,087	-0,010	0,003
-75,782	-65,383	-0,141	-0,040
-74,767	266,829	0,102	0,127
-73,753	-200,000	0,034	0,117
-72,738	192,587	0,091	-0,097
-71,724	-32,360	-0,145	0,057
-70,709	35,422	0,233	-0,144
-69,694	-200,000	-0,002	0,044
-68,680	-90,652	0,057	0,012
-67,665	-119,812	0,025	-0,003
-66,651	-200,000	-0,006	-0,058
-65,636	-98,528	-0,097	-0,017
-64,622	317,352	-0,049	0,066
-63,607	588,648	-0,083	0,146
-62,592	-8,565	-0,092	0,044
-61,578	-153,274	0,064	0,003
-60,563	-100,331	0,163	-0,028
-59,549	-120,211	-0,094	-0,011
-58,534	-15,243	-1,685	-0,760
-57,519	368,443	-1,409	-2,022
-56,505	-200,000	-0,625	-4,574
-55,490	259,336	0,907	1,109
-54,476	800,000	4,940	11,467
-53,461	-200,000	19,778	326,462
-52,446	800,000	747,116	2328,268
-51,432	561,337	1658,918	2848,739
-50,417	76,571	1671,344	1252,452
-49,403	20,555	1544,581	881,572
-48,388	14,526	1466,936	807,923
-47,373	18,213	1456,953	820,211
-46,359	16,537	1446,620	806,328
-45,344	12,759	1442,132	785,697
-44,330	12,644	1440,358	784,147
-43,315	12,694	1438,575	783,385
-42,300	12,694	1436,750	782,359
-41,286	12,731	1435,664	781,914
-40,271	12,703	1434,094	780,896
-39,257	12,663	1433,155	780,164
-38,242	12,758	1431,742	779,814
-37,227	12,759	1430,396	779,058
-36,213	12,728	1429,277	778,266
-35,198	12,748	1428,099	777,689
-34,184	12,787	1427,201	777,358
-33,169	12,724	1425,777	776,253
-32,154	12,746	1424,767	775,775
-31,140	12,775	1423,359	775,116
-30,125	12,769	1422,453	774,561
-29,111	12,750	1421,142	773,727
-28,096	12,769	1420,115	773,225
-27,082	12,711	1419,054	772,343
-26,067	12,642	1418,117	771,478
-25,052	12,725	1416,780	771,111
-24,038	12,679	1415,817	770,339
-23,023	12,626	1414,936	769,582
-22,009	12,656	1413,746	769,043
-20,994	12,680	1412,590	768,497
-19,979	12,657	1411,822	767,943
-18,965	12,633	1410,937	767,316
-17,950	12,665	1409,937	766,895
-16,936	12,627	1409,391	766,390
-15,921	12,615	1408,254	765,682
-14,906	12,628	1407,296	765,191
-13,892	12,624	1406,230	764,566
-12,877	12,633	1405,342	764,092
-11,863	12,629	1404,549	763,613
-10,848	12,569	1403,717	762,848
-9,833	12,529	1402,845	762,161
-8,819	12,486	1402,194	761,575
-7,804	12,500	1401,159	761,050
-6,790	12,507	1400,331	760,600
-5,775	12,459	1399,186	759,723
-4,760	12,499	1398,014	759,242
-3,746	12,486	1397,144	758,683
-2,731	12,449	1396,336	758,041
-1,717	12,485	1395,299	757,615
-0,702	12,448	1393,566	756,472
0,313	16,393	1309,424	729,028
1,327	32,836	701,462	428,417
2,342	50,864	122,484	81,907
3,356	-0,390	16,604	8,312
4,371	-7,487	3,296	1,571
5,386	-35,499	0,638	0,244
6,400	-200,000	0,059	0,359
7,415	306,012	-0,218	-0,287
8,429	134,239	-0,247	-0,227
9,444	52,093	-0,187	-0,126
10,459	84,455	-0,372	-0,287
11,473	239,595	-0,301	-0,355
12,488	95,791	-0,285	-0,229
13,502	464,954	-0,201	-0,319
14,517	164,437	-0,365	-0,363
15,531	-16,224	-0,421	-0,188
16,546	149,218	-0,192	-0,183
17,561	41,429	-0,430	-0,274
18,575	600,407	-0,109	-0,191
19,590	341,316	-0,171	-0,236
20,604	-37,242	-0,372	-0,140
21,619	117,291	-0,430	-0,373
22,634	145,776	-0,319	-0,302
23,648	-3,345	-0,478	-0,234
24,663	57,844	-0,486	-0,335
25,677	199,283	-0,234	-0,253
26,692	-1,767	-0,405	-0,201
27,707	54,817	-0,358	-0,244
28,721	113,381	-0,390	-0,334
29,736	-11,124	-0,481	-0,223
30,750	397,035	-0,289	-0,427
31,765	7,856	-0,365	-0,192
32,780	142,952	-0,303	-0,285
33,794	154,173	-0,290	-0,281
34,809	106,323	-0,257	-0,215
35,823	232,029	-0,259	-0,301
36,838	163,923	-0,296	-0,294
37,853	113,019	-0,398	-0,340
38,867	29,756	-0,396	-0,237
39,882	7,107	-0,384	-0,201
40,896	-20,709	-0,267	-0,115
41,911	-17,758	-0,311	-0,137
42,926	-51,086	-0,338	-0,111
43,940	-71,197	-0,499	-0,131
44,955	29,836	-0,415	-0,248
45,969	-7,105	-0,402	-0,191
46,984	81,473	-0,330	-0,251
47,999	31,341	-0,364	-0,220
49,013	42,903	-0,311	-0,199
50,028	-14,801	-0,432	-0,194
51,042	20,600	-0,231	-0,131
52,057	429,682	-0,201	-0,307
53,071	44,756	-0,296	-0,191
54,086	264,701	-0,262	-0,322
55,101	255,273	-0,178	-0,215
56,115	-12,409	-0,409	-0,187
57,130	168,683	-0,334	-0,335
58,144	58,528	-0,442	-0,305
59,159	-57,508	-0,421	-0,129
60,174	312,014	-0,308	-0,408
61,188	161,175	-0,344	-0,339
62,203	240,120	-0,215	-0,253
63,217	125,781	-0,230	-0,205
64,232	69,406	-0,342	-0,247
65,247	-144,631	-0,389	-0,025
66,261	91,457	-0,253	-0,200
67,276	52,121	-0,306	-0,205
68,290	193,686	-0,356	-0,379
69,305	26,808	-0,317	-0,186
70,320	27,814	-0,281	-0,166
71,334	140,814	-0,297	-0,276
72,349	173,028	-0,255	-0,259
73,363	-26,498	-0,428	-0,175
74,378	1,495	-0,267	-0,135
75,393	-29,993	-0,266	-0,106
76,407	-34,168	-0,266	-0,102
77,422	-85,908	-0,334	-0,072
78,436	-2,319	-0,389	-0,191
79,451	-43,921	-0,295	-0,104
80,466	47,826	-0,386	-0,252
81,480	0,773	-0,333	-0,167
82,495	6,096	-0,307	-0,159
83,509	373,106	-0,169	-0,242
84,524	148,782	-0,211	-0,201
85,539	35,123	-0,359	-0,220
86,553	58,314	-0,211	-0,145
87,568	57,449	-0,336	-0,230
88,582	338,363	-0,237	-0,325
89,597	286,839	-0,081	-0,103
90,611	-61,636	-0,188	-0,055
91,626	42,146	-0,240	-0,153
92,641	-119,913	-0,324	-0,039
93,655	82,882	-0,245	-0,187
94,670	180,244	-0,166	-0,171
95,684	111,575	-0,295	-0,249
96,699	119,688	-0,273	-0,237
97,714	298,687	-0,181	-0,235
98,728	443,802	-0,181	-0,279
99,743	58,418	-0,224	-0,154
100,757	-58,619	-0,284	-0,086
101,772	113,962	-0,177	-0,150
102,787	172,697	-0,206	-0,208
103,801	-85,754	-0,344	-0,074
104,816	800,000	-0,114	-0,222
105,830	630,442	-0,133	-0,237
106,845	-17,916	-0,144	-0,063
107,860	-89,086	-0,206	-0,042
108,874	136,353	-0,247	-0,226
109,889	227,716	-0,190	-0,217
110,903	246,540	-0,203	-0,240
111,918	18,525	-0,240	-0,134
112,933	-102,058	-0,279	-0,047
113,947	-140,694	-0,148	-0,011
114,962	-20,316	-0,261	-0,112
115,976	458,286	-0,142	-0,222
116,991	-34,969	-0,365	-0,139
118,006	156,915	-0,191	-0,185
119,020	37,419	-0,271	-0,168
120,035	402,730	-0,150	-0,221
121,049	396,567	-0,098	-0,143
122,064	277,362	-0,155	-0,193
123,079	-200,000	-0,083	-0,310
124,093	231,029	-0,198	-0,228
125,108	266,557	-0,212	-0,260
126,122	-200,000	0,019	-0,166
127,137	74,331	-0,149	-0,110
128,151	-21,038	-0,260	-0,111
129,166	-18,631	-0,194	-0,084
130,181	3,861	-0,252	-0,128
131,195	-152,432	-0,319	0,016
132,210	184,155	-0,281	-0,291
133,224	-88,724	-0,233	-0,048
134,239	-7,935	-0,292	-0,137
135,254	519,157	-0,086	-0,142
136,268	116,606	-0,173	-0,149
137,283	176,125	-0,194	-0,197
138,297	-50,152	-0,287	-0,094
139,312	-144,558	-0,181	-0,011
140,327	252,488	-0,213	-0,254
141,341	123,027	-0,174	-0,152
142,356	-123,777	-0,160	0,017
143,370	-163,614	-0,300	0,010
144,385	310,403	-0,231	-0,302
145,400	144,938	-0,295	-0,276
146,414	38,586	-0,407	-0,253
147,429	147,524	-0,258	-0,243
148,443	-1,539	-0,248	-0,122
149,458	-200,000	-0,047	-0,159
150,473	159,636	-0,239	-0,232
151,487	800,000	-0,050	-0,102
152,502	255,565	-0,162	-0,194
153,516	78,422	-0,333	-0,248
154,531	8,350	-0,329	-0,172
155,546	17,467	-0,208	-0,115
156,560	-107,687	-0,236	-0,036
157,575	-2,524	-0,225	-0,109
158,589	34,647	-0,301	-0,183
159,604	371,652	-0,129	-0,183
160,619	254,106	-0,179	-0,214
161,633	17,283	-0,241	-0,133
162,648	-87,828	-0,317	-0,066
163,662	273,378	-0,138	-0,171
164,677	-130,326	-0,227	0,021
165,692	38,056	-0,276	-0,171
166,706	152,688	-0,119	-0,113
167,721	-83,859	-0,185	-0,041
168,735	71,705	-0,208	-0,151
169,750	90,948	-0,227	-0,177
170,764	507,508	-0,152	-0,247
171,779	64,197	-0,267	-0,187
172,794	165,947	-0,206	-0,203
173,808	78,160	-0,170	-0,127
174,823	319,801	-0,139	-0,184
175,837	337,159	-0,276	-0,375
176,852	-200,000	-0,012	-0,250
177,867	-76,608	-0,261	-0,063
178,881	35,313	-0,106	-0,065
179,896	-39,562	-0,162	-0,059
180,910	83,468	-0,086	-0,065
181,925	8,943	-0,222	-0,116
182,940	-48,953	-0,296	-0,098
183,954	55,469	-0,176	-0,118
184,969	0,767	-0,097	-0,048
185,983	-81,994	-0,285	-0,064
186,998	-102,624	-0,253	-0,042
188,013	246,884	-0,115	-0,135
189,027	-47,692	-0,380	-0,128
190,042	9,765	-0,224	-0,118
191,056	525,744	-0,129	-0,212
192,071	2,868	-0,217	-0,109
193,086	16,693	-0,306	-0,168
194,100	54,578	-0,241	-0,161
195,115	259,583	-0,179	-0,215
196,129	178,750	-0,087	-0,089
197,144	262,095	-0,160	-0,193
198,159	33,513	-0,138	-0,083
199,173	85,824	-0,211	-0,161
200,188	236,934	-0,100	-0,115
201,202	800,000	-0,041	-0,102
202,217	800,000	-0,069	-0,182
203,232	71,195	-0,280	-0,201
204,246	419,474	-0,189	-0,282
205,261	289,953	-0,197	-0,249
206,275	609,994	-0,102	-0,177
207,290	177,027	-0,200	-0,203
208,304	-66,843	-0,264	-0,072
209,319	-56,272	-0,167	-0,051
210,334	-88,081	-0,273	-0,056
211,348	78,393	-0,206	-0,152
212,363	111,915	-0,188	-0,157
213,377	57,911	-0,178	-0,121
214,392	18,985	-0,103	-0,057
215,407	125,662	-0,147	-0,129
216,421	213,488	-0,100	-0,109
217,436	-99,067	-0,187	-0,033
218,450	101,023	-0,266	-0,214
219,465	-60,866	-0,334	-0,097
220,480	333,487	-0,051	-0,069
221,494	26,564	-0,196	-0,114
222,509	-71,606	-0,245	-0,063
223,523	306,218	-0,148	-0,192
224,538	437,448	-0,184	-0,278
225,553	200,750	-0,210	-0,224
226,567	366,923	-0,139	-0,195
227,582	146,591	-0,247	-0,230
228,596	800,000	-0,102	-0,227
229,611	-141,281	-0,108	0,007
230,626	157,782	-0,117	-0,113
231,640	-154,177	-0,308	0,014
232,655	-71,483	-0,109	-0,028
233,669	137,054	-0,294	-0,267
234,684	283,134	-0,180	-0,225
235,699	-200,000	-0,049	-0,244
236,713	-51,458	-0,161	-0,052
237,728	28,807	-0,113	-0,066
238,742	800,000	-0,081	-0,162
239,757	404,848	-0,121	-0,177
240,772	107,658	-0,146	-0,121
241,786	230,648	-0,098	-0,112
242,801	78,442	-0,156	-0,115
243,815	124,143	-0,160	-0,139
244,830	81,179	-0,204	-0,152
245,844	26,295	-0,254	-0,146
246,859	130,245	-0,163	-0,144
247,874	140,311	-0,245	-0,224
248,888	800,000	-0,136	-0,276
249,903	-200,000	-0,022	-0,180
250,917	-19,963	-0,145	-0,062
251,932	200,260	-0,156	-0,166
252,947	-59,615	-0,154	-0,046
253,961	38,087	-0,233	-0,143
254,976	12,027	-0,209	-0,111
255,990	566,342	-0,148	-0,249
257,005	16,576	-0,187	-0,102
258,020	59,051	-0,208	-0,141
259,034	-32,749	-0,186	-0,071
260,049	-15,612	-0,141	-0,062
261,063	18,673	-0,251	-0,139
262,078	-90,711	-0,186	-0,037
263,093	1,043	-0,312	-0,154
264,107	745,557	-0,105	-0,195
265,122	800,000	-0,075	-0,161
266,136	-40,230	-0,154	-0,055
267,151	-72,102	-0,120	-0,030
268,166	134,791	-0,114	-0,102
269,180	414,626	-0,166	-0,244
270,195	269,143	-0,169	-0,206
271,209	-38,761	-0,236	-0,085
272,224	14,617	-0,148	0,080
273,239	23,005	-0,092	0,052
274,253	789,683	-0,042	-0,081
275,268	-194,935	-0,161	0,001
276,282	144,121	-0,084	-0,077
277,297	800,000	-0,101	-0,219
278,312	155,018	-0,159	-0,151
279,326	10,749	-0,072	-0,038
280,341	-200,000	-0,073	-0,317
281,355	-65,641	-0,140	-0,038
282,370	-68,756	-0,195	-0,052
283,384	152,432	-0,172	-0,162
284,399	-26,814	-0,241	-0,097
285,414	-117,529	-0,154	0,019
286,428	126,287	-0,183	-0,159
287,443	337,716	-0,071	-0,095
288,457	46,252	-0,180	-0,115
289,472	174,550	-0,118	-0,118
290,487	150,772	-0,139	-0,130
291,501	682,478	-0,124	-0,223
292,516	375,121	-0,117	-0,164
293,530	-32,927	-0,134	-0,051
294,545	462,829	-0,155	-0,239
295,560	113,411	-0,153	-0,128
296,574	98,832	-0,145	-0,116
297,589	142,659	-0,095	-0,087
298,603	365,271	-0,166	-0,231
299,618	254,142	-0,048	-0,057
300,633	-41,554	-0,179	-0,063
301,647	-104,928	-0,207	-0,032
302,662	-74,727	-0,053	0,013
303,676	689,304	-0,149	-0,270
304,691	37,551	-0,177	-0,108
305,706	510,534	-0,154	-0,247
306,720	319,005	-0,171	-0,224
307,735	-122,135	-0,232	-0,026
308,749	-174,493	-0,164	0,003
309,764	419,464	-0,136	-0,201
310,779	800,000	0,025	-0,054
311,793	-97,507	-0,122	-0,022
312,808	278,901	-0,204	-0,251
313,822	21,032	-0,151	-0,084
314,837	327,759	-0,119	-0,158
315,852	800,000	-0,029	-0,085
316,866	-93,290	-0,097	0,018
317,881	277,072	-0,107	-0,131
318,895	40,480	-0,090	-0,056
319,910	-70,816	-0,178	-0,046
320,925	95,384	-0,191	-0,149
321,939	142,489	-0,094	-0,086
322,954	800,000	-0,037	-0,089
323,968	-115,985	-0,086	-0,011
324,983	-160,843	-0,190	-0,007
325,997	800,000	0,005	0,013
327,012	227,826	-0,188	-0,211
328,027	188,640	-0,070	0,072
329,041	179,804	-0,264	-0,266
330,056	22,229	0,049	0,027
331,070	176,652	-0,054	0,054
332,085	-200,000	0,017	0,087
333,100	176,356	-0,092	-0,092
334,114	454,379	-0,110	-0,168
335,129	69,366	-0,135	-0,095
336,143	503,906	-0,059	-0,093
337,158	-185,551	-0,113	-0,001
338,173	-200,000	-0,001	0,044
339,187	90,582	-0,065	-0,050
340,202	481,206	-0,092	-0,144
341,216	264,686	-0,172	-0,206
342,231	197,319	-0,224	-0,235
343,246	184,310	-0,188	-0,191
344,260	257,606	-0,159	-0,188
345,275	-38,800	-0,093	0,033
346,289	-41,198	-0,147	-0,052
347,304	16,082	-0,170	-0,092
348,319	61,974	-0,140	0,095
349,333	51,974	-0,152	-0,099
350,348	-64,546	-0,159	-0,044
351,362	-43,430	-0,052	-0,018
352,377	-140,524	-0,101	0,007
353,392	-105,334	-0,098	-0,015
354,406	-200,000	-0,008	-0,038
355,421	208,323	1312,805	1408,559
356,435	160,292	1473,272	1409,037
