DTS Sentinel unit serial number:	SN410029Multiplexer serial number:	ORYXHardware model number:	OX2-SRSoftware version number:	ORYX F/W v4,00 Oryx Data Collector v3.7.2.0data status	okinstallation	B3 Nyhavnadifferential loss correction	single-endedforward channel	channel 1reverse channel	N/Adate	2023/12/03time	20:27:30forward acquisition time	300,00reverse acquisition time	0,00gamma	499,1914k internal	0,3198k external	0,3198temperature offset calibration	1,0000default loss term (dB/km)	0,3820temperature slope calibration	1,0000multiplexer offset coefficient	1,0000multiplexer slope coefficient	1,0000fibre end	0,00T internal ref (°C)	13,96T ext. ref 1 (°C)	-1,41T ext. ref 2 (°C)	-1,42length (m)	temperature (°C)	Stokes	anti-Stokes-744,400	402,860	-0,149	-0,229
-743,385	-200,000	0,077	0,292
-742,371	17,205	-0,241	-0,139
-741,356	-200,000	0,033	0,480
-740,342	363,881	-0,149	-0,219
-739,327	-200,000	0,018	0,364
-738,312	-5,935	-0,264	-0,131
-737,298	800,000	0,122	0,325
-736,283	-78,431	-0,262	-0,065
-735,269	-200,000	0,027	0,434
-734,254	76,690	-0,321	-0,248
-733,239	-78,189	-0,222	-0,055
-732,225	455,056	-0,120	-0,195
-731,210	-64,538	0,175	0,051
-730,196	719,550	0,024	-0,046
-729,181	408,764	-0,019	0,029
-728,167	44,217	-0,123	-0,082
-727,152	-49,879	-0,199	-0,068
-726,137	-2,260	-0,071	-0,036
-725,123	-200,000	-0,006	0,041
-724,108	-128,505	0,038	-0,004
-723,094	255,598	-0,080	-0,099
-722,079	-115,065	-0,022	-0,003
-721,064	-200,000	0,002	0,037
-720,050	-101,273	0,076	-0,013
-719,035	468,303	-0,025	-0,040
-718,021	-200,000	-0,009	-0,052
-717,006	800,000	-0,038	-0,089
-715,991	669,466	-0,037	-0,070
-714,977	800,000	-0,025	-0,059
-713,962	792,407	0,050	-0,100
-712,948	-200,000	0,011	-0,054
-711,933	285,235	-0,019	0,025
-710,918	719,602	0,042	0,082
-709,904	-200,000	0,034	-0,183
-708,889	681,979	-0,028	-0,054
-707,875	-126,324	-0,214	-0,023
-706,860	240,188	-0,012	0,015
-705,845	427,100	-0,048	0,075
-704,831	25,027	0,047	0,028
-703,816	800,000	0,080	-0,169
-702,802	345,850	-0,059	-0,084
-701,787	-200,000	-0,008	-0,053
-700,772	-7,222	-0,060	0,029
-699,758	-200,000	0,003	-0,017
-698,743	471,278	0,063	0,104
-697,729	-82,143	0,102	-0,024
-696,714	-70,957	-0,130	-0,035
-695,699	-50,476	-0,117	-0,040
-694,685	6,879	-0,075	0,041
-693,670	-200,000	0,008	-0,085
-692,656	-16,055	0,138	-0,064
-691,641	330,794	-0,023	-0,032
-690,627	-97,665	0,032	-0,006
-689,612	-200,000	0,004	0,039
-688,597	82,694	-0,080	0,063
-687,583	-186,735	-0,075	0,001
-686,568	405,110	0,052	-0,080
-685,554	-200,000	-0,022	0,098
-684,539	-8,757	0,099	0,048
-683,524	-200,000	0,031	0,119
-682,510	281,539	0,037	0,048
-681,495	800,000	-0,057	0,163
-680,481	800,000	-0,077	-0,198
-679,466	-40,213	0,042	0,016
-678,451	773,597	0,074	-0,147
-677,437	714,290	-0,070	-0,136
-676,422	27,784	0,163	0,100
-675,408	-200,000	-0,002	-0,099
-674,393	-200,000	-0,016	-0,079
-673,378	-69,477	-0,024	-0,007
-672,364	8,728	0,043	-0,023
-671,349	800,000	-0,067	-0,154
-670,335	800,000	-0,008	0,017
-669,320	689,907	-0,052	0,100
-668,305	-55,191	0,053	-0,017
-667,291	23,981	-0,145	-0,087
-666,276	-132,807	0,087	-0,008
-665,262	-200,000	-0,005	0,038
-664,247	-6,108	-0,037	0,018
-663,232	480,663	0,056	-0,093
-662,218	36,878	-0,074	0,047
-661,203	-200,000	0,021	0,067
-660,189	113,952	-0,044	0,039
-659,174	-47,243	0,088	0,031
-658,159	81,306	-0,110	-0,086
-657,145	374,458	0,093	0,138
-656,130	5,853	-0,066	-0,035
-655,116	115,688	0,120	-0,106
-654,101	-200,000	0,013	0,156
-653,086	-77,197	0,077	-0,019
-652,072	5,327	-0,032	0,017
-651,057	-142,861	-0,017	-0,001
-650,043	33,087	-0,056	0,035
-649,028	-200,000	0,012	0,106
-648,014	800,000	-0,026	0,062
-646,999	-173,622	-0,045	0,001
-645,984	-82,997	-0,136	0,031
-644,970	152,756	0,042	-0,042
-643,955	672,716	0,078	-0,146
-642,941	-200,000	-0,024	-0,118
-641,926	111,436	0,015	0,013
-640,911	-53,731	0,051	-0,017
-639,897	136,486	0,030	0,028
-638,882	617,387	-0,030	0,055
-637,868	-7,505	0,068	-0,033
-636,853	800,000	-0,069	-0,150
-635,838	209,242	-0,014	-0,016
-634,824	-200,000	-0,013	0,047
-633,809	-128,966	-0,156	-0,016
-632,795	56,792	-0,029	-0,021
-631,780	-200,000	0,014	0,178
-630,765	-93,010	-0,066	0,013
-629,751	230,276	-0,141	-0,167
-628,736	-144,051	-0,026	0,002
-627,722	-200,000	0,005	-0,078
-626,707	-200,000	0,017	-0,087
-625,692	204,582	0,065	-0,073
-624,678	-62,398	-0,149	-0,045
-623,663	800,000	-0,015	0,034
-622,649	9,218	-0,064	-0,035
-621,634	-131,913	0,015	0,001
-620,619	201,058	-0,071	-0,079
-619,605	112,584	-0,049	0,043
-618,590	-200,000	0,026	-0,108
-617,576	58,963	0,012	0,008
-616,561	134,378	-0,093	0,087
-615,546	34,404	-0,100	0,063
-614,532	800,000	-0,064	-0,134
-613,517	-200,000	-0,000	-0,027
-612,503	134,845	-0,034	-0,032
-611,488	209,548	-0,077	-0,088
-610,474	283,658	0,001	-0,002
-609,459	800,000	-0,053	-0,137
-608,444	-99,804	-0,049	-0,009
-607,430	-34,121	0,039	-0,015
-606,415	-200,000	0,014	-0,124
-605,401	-89,538	0,141	-0,030
-604,386	-122,143	-0,059	-0,007
-603,371	763,521	-0,065	0,129
-602,357	800,000	-0,025	0,063
-601,342	800,000	-0,036	-0,112
-600,328	214,236	0,031	0,036
-599,313	800,000	0,039	-0,116
-598,298	-200,000	0,048	-0,178
-597,284	23,455	0,071	0,042
-596,269	800,000	-0,040	0,111
-595,255	599,744	0,049	-0,088
-594,240	-200,000	-0,005	0,029
-593,225	-86,110	-0,150	0,033
-592,211	-200,000	-0,014	-0,098
-591,196	191,482	-0,098	0,107
-590,182	-133,331	0,073	0,007
-589,167	-125,017	0,101	0,011
-588,152	-200,000	0,020	0,098
-587,138	-134,278	0,011	-0,001
-586,123	-200,000	0,011	0,072
-585,109	266,902	-0,064	-0,081
-584,094	-44,959	-0,057	-0,020
-583,079	-166,104	-0,043	0,001
-582,065	-5,218	0,068	0,034
-581,050	-158,126	0,091	0,004
-580,036	-200,000	0,005	-0,187
-579,021	-200,000	-0,005	-0,066
-578,006	-200,000	0,016	0,085
-576,992	573,421	0,022	0,039
-575,977	-200,000	0,011	0,226
-574,963	800,000	-0,031	-0,064
-573,948	168,017	-0,077	0,079
-572,934	-10,418	-0,123	0,059
-571,919	355,235	-0,029	0,042
-570,904	68,283	-0,084	-0,062
-569,890	625,133	0,084	-0,153
-568,875	800,000	0,071	0,151
-567,861	-200,000	0,016	0,052
-566,846	-67,148	0,034	-0,010
-565,831	272,739	-0,149	0,190
-564,817	800,000	0,049	-0,111
-563,802	800,000	-0,051	-0,106
-562,788	154,310	0,116	0,116
-561,773	65,357	-0,050	0,036
-560,758	-200,000	-0,008	0,059
-559,744	68,848	0,130	-0,097
-558,729	-109,152	0,051	0,008
-557,715	-34,589	-0,071	0,028
-556,700	556,416	0,050	-0,087
-555,685	76,762	-0,075	0,057
-554,671	39,944	0,097	0,063
-553,656	-35,316	0,122	0,048
-552,642	-200,000	0,003	0,117
-551,627	267,125	-0,020	0,026
-550,612	800,000	-0,015	0,033
-549,598	800,000	-0,019	-0,054
-548,583	111,419	-0,102	0,089
-547,569	-110,382	0,052	-0,008
-546,554	-105,564	-0,031	0,005
-545,539	-111,920	0,046	0,007
-544,525	157,603	0,005	-0,005
-543,510	521,840	-0,040	-0,067
-542,496	-200,000	-0,003	0,041
-541,481	85,956	-0,116	-0,092
-540,466	274,408	0,060	0,077
-539,452	-180,935	-0,075	0,001
-538,437	-6,948	0,101	0,049
-537,423	47,288	0,069	0,046
-536,408	223,684	-0,045	0,052
-535,393	-200,000	-0,020	-0,070
-534,379	20,306	-0,088	-0,051
-533,364	49,425	0,027	-0,018
-532,350	-88,470	-0,101	-0,022
-531,335	-68,169	0,184	0,051
-530,321	-42,860	-0,104	0,038
-529,306	-200,000	0,004	0,118
-528,291	322,582	0,063	-0,087
-527,277	187,420	0,075	0,081
-526,262	90,055	0,054	0,044
-525,248	43,547	0,088	0,058
-524,233	800,000	0,034	0,091
-523,218	216,745	0,046	-0,053
-522,204	-43,550	-0,052	-0,019
-521,189	428,594	-0,030	-0,047
-520,175	-107,714	-0,157	0,024
-519,160	-120,115	0,106	0,013
-518,145	74,814	0,030	-0,023
-517,131	30,242	0,101	-0,062
-516,116	157,788	0,057	0,057
-515,102	-127,836	-0,071	-0,007
-514,087	-200,000	-0,003	-0,049
-513,072	-200,000	-0,028	-0,151
-512,058	-200,000	0,015	-0,073
-511,043	75,214	-0,071	-0,054
-510,029	-76,547	0,036	-0,009
-509,014	74,431	0,086	0,065
-507,999	-78,005	-0,129	0,032
-506,985	764,203	0,067	0,132
-505,970	604,917	-0,078	-0,140
-504,956	-129,910	-0,147	0,014
-503,941	1,714	0,034	0,018
-502,926	-200,000	0,008	-0,029
-501,912	800,000	0,033	0,071
-500,897	322,571	0,018	-0,025
-499,883	381,748	-0,087	0,129
-498,868	272,824	-0,032	-0,041
-497,853	-90,702	0,077	-0,016
-496,839	168,698	0,090	-0,092
-495,824	-94,654	-0,022	0,004
-494,810	-27,405	0,048	-0,020
-493,795	-200,000	0,034	0,168
-492,781	-200,000	0,018	0,065
-491,766	800,000	-0,041	-0,106
-490,751	-200,000	-0,047	-0,187
-489,737	-200,000	0,002	0,141
-488,722	4,115	0,042	-0,022
-487,708	-200,000	-0,001	0,142
-486,693	800,000	0,021	-0,064
-485,678	83,213	-0,036	-0,028
-484,664	41,174	-0,098	-0,064
-483,649	800,000	-0,069	-0,143
-482,635	-111,649	0,081	-0,012
-481,620	-44,226	-0,172	-0,062
-480,605	0,427	0,226	0,116
-479,591	800,000	0,030	-0,061
-478,576	800,000	0,034	0,090
-477,562	90,858	0,060	-0,049
-476,547	-72,866	-0,053	-0,014
-475,532	-101,415	-0,121	0,021
-474,518	159,181	0,079	-0,079
-473,503	-16,983	0,167	0,076
-472,489	46,520	-0,058	-0,039
-471,474	800,000	0,048	-0,117
-470,459	-108,872	-0,089	0,014
-469,445	-50,353	-0,142	-0,048
-468,430	226,457	-0,065	-0,077
-467,416	-92,792	0,111	0,022
-466,401	50,582	-0,117	0,080
-465,386	-126,038	0,037	0,004
-464,372	-28,139	-0,014	0,006
-463,357	-200,000	-0,012	-0,089
-462,343	-200,000	0,002	-0,059
-461,328	800,000	0,008	-0,023
-460,313	-92,472	-0,103	0,021
-459,299	-4,877	0,095	0,047
-458,284	800,000	-0,016	-0,040
-457,270	-200,000	0,022	0,079
-456,255	-124,610	-0,083	0,009
-455,241	-28,021	-0,061	-0,025
-454,226	-12,885	-0,064	-0,030
-453,211	-10,417	-0,042	-0,020
-452,197	-200,000	0,010	0,057
-451,182	108,396	0,129	0,111
-450,168	7,698	-0,066	0,035
-449,153	-200,000	0,004	-0,043
-448,138	-200,000	0,011	-0,047
-447,124	524,862	0,025	0,042
-446,109	800,000	-0,033	0,096
-445,095	-88,555	0,073	0,015
-444,080	-135,538	-0,051	0,004
-443,065	-25,114	0,050	-0,021
-442,051	-66,916	-0,077	0,022
-441,036	-76,310	0,105	-0,026
-440,022	207,063	-0,137	-0,154
-439,007	-30,947	0,108	-0,044
-437,992	-131,327	0,046	-0,004
-436,978	-30,983	0,038	0,015
-435,963	-139,577	0,094	0,007
-434,949	783,273	0,010	-0,020
-433,934	-43,856	0,063	-0,023
-432,919	-200,000	0,001	0,026
-431,905	427,250	-0,051	-0,079
-430,890	232,433	0,098	0,115
-429,876	164,238	0,012	0,012
-428,861	56,857	-0,107	0,075
-427,846	-200,000	0,003	-0,070
-426,832	-169,842	0,124	-0,003
-425,817	538,523	-0,068	-0,117
-424,803	-137,417	0,013	-0,001
-423,788	100,798	-0,010	-0,009
-422,773	-56,308	0,175	0,056
-421,759	213,478	0,168	0,191
-420,744	109,389	0,104	0,089
-419,730	-200,000	-0,054	-0,174
-418,715	-123,058	-0,046	-0,005
-417,701	451,179	-0,040	-0,064
-416,686	-200,000	0,023	-0,075
-415,671	431,206	0,060	0,094
-414,657	-200,000	-0,004	0,087
-413,642	309,643	0,049	-0,066
-412,628	-20,134	-0,095	-0,042
-411,613	-200,000	0,002	-0,056
-410,598	800,000	-0,053	0,111
-409,584	20,820	-0,103	0,060
-408,569	-200,000	-0,005	0,042
-407,555	800,000	0,017	0,047
-406,540	800,000	0,057	0,126
-405,525	800,000	0,044	0,139
-404,511	-200,000	-0,012	-0,106
-403,496	7,259	0,146	-0,078
-402,482	95,295	0,153	0,125
-401,467	84,561	-0,033	0,026
-400,452	800,000	0,027	-0,072
-399,438	-98,400	-0,089	0,016
-398,423	336,934	0,063	-0,088
-397,409	-58,997	-0,051	0,016
-396,394	122,117	0,029	-0,026
-395,379	-12,162	-0,114	0,053
-394,365	-99,303	-0,066	0,012
-393,350	52,905	0,113	0,077
-392,336	-200,000	0,006	0,068
-391,321	99,241	-0,024	-0,020
-390,306	-84,887	-0,029	0,006
-389,292	800,000	0,047	0,097
-388,277	658,138	0,014	0,026
-387,263	-200,000	0,009	0,115
-386,248	-200,000	-0,005	0,087
-385,233	800,000	-0,019	0,048
-384,219	98,234	0,081	0,067
-383,204	-68,404	0,054	0,015
-382,190	192,579	-0,038	-0,041
-381,175	556,770	0,050	0,086
-380,160	-167,328	0,049	-0,001
-379,146	39,223	-0,075	0,048
-378,131	2,872	0,040	0,021
-377,117	-200,000	-0,011	0,160
-376,102	-90,502	0,075	-0,015
-375,088	630,031	-0,047	-0,085
-374,073	653,616	-0,014	0,027
-373,058	233,228	-0,014	0,016
-372,044	83,296	0,021	0,016
-371,029	800,000	0,037	0,084
-370,015	-80,956	0,174	0,041
-369,000	782,695	-0,064	-0,126
-367,985	38,985	-0,066	0,042
-366,971	800,000	-0,041	-0,098
-365,956	-148,658	-0,060	0,003
-364,942	800,000	-0,081	0,194
-363,927	553,683	0,115	0,200
-362,912	-67,732	0,153	0,043
-361,898	-42,517	-0,137	-0,050
-360,883	-128,172	-0,112	0,011
-359,869	-200,000	0,026	-0,114
-358,854	800,000	0,032	-0,076
-357,839	-200,000	0,009	-0,111
-356,825	363,452	0,087	0,126
-355,810	35,331	0,077	0,048
-354,796	-200,000	-0,022	-0,072
-353,781	130,947	0,058	0,053
-352,766	109,820	0,051	0,044
-351,752	11,978	0,087	-0,048
-350,737	118,931	-0,057	-0,051
-349,723	451,363	0,079	0,126
-348,708	-143,027	0,109	0,007
-347,693	-200,000	0,008	-0,114
-346,679	800,000	-0,018	-0,048
-345,664	47,563	-0,035	-0,024
-344,650	800,000	0,047	-0,111
-343,635	-74,729	0,090	-0,023
-342,620	-49,975	-0,055	0,019
-341,606	273,994	0,093	-0,119
-340,591	-200,000	-0,013	0,114
-339,577	19,534	-0,029	-0,017
-338,562	800,000	0,058	-0,159
-337,548	-21,801	0,121	-0,053
-336,533	247,865	0,070	0,084
-335,518	736,431	-0,077	0,148
-334,504	366,874	0,055	0,080
-333,489	-130,055	-0,034	0,003
-332,475	-54,405	-0,127	0,041
-331,460	452,178	-0,036	-0,057
-330,445	-87,747	0,071	0,015
-329,431	79,744	-0,042	0,032
-328,416	34,153	0,093	0,058
-327,402	-68,377	-0,045	-0,012
-326,387	800,000	-0,024	-0,061
-325,372	-6,075	0,035	-0,017
-324,358	10,336	-0,040	0,022
-323,343	-107,508	-0,113	0,018
-322,329	145,213	-0,049	-0,047
-321,314	164,832	0,106	0,107
-320,299	-200,000	0,033	-0,112
-319,285	-200,000	-0,014	-0,050
-318,270	-91,633	-0,029	-0,006
-317,256	-121,095	-0,174	-0,021
-316,241	-2,849	0,083	-0,042
-315,226	-200,000	0,037	-0,161
-314,212	469,588	-0,087	0,141
-313,197	376,232	0,079	-0,116
-312,183	707,440	-0,045	-0,086
-311,168	-91,256	-0,063	0,013
-310,153	800,000	-0,052	-0,122
-309,139	-101,828	-0,151	-0,026
-308,124	276,704	0,058	-0,074
-307,110	-104,655	-0,088	-0,014
-306,095	-44,854	0,056	0,020
-305,080	256,156	0,014	0,017
-304,066	-148,891	0,064	0,004
-303,051	86,559	-0,087	-0,069
-302,037	-194,698	0,022	-0,000
-301,022	32,689	0,047	0,029
-300,008	75,878	-0,026	0,020
-298,993	505,718	-0,023	-0,038
-297,978	-122,352	0,063	0,007
-296,964	-200,000	-0,027	-0,139
-295,949	24,112	-0,068	-0,040
-294,935	100,794	-0,115	-0,096
-293,920	182,917	0,064	0,067
-292,905	-200,000	-0,002	0,050
-291,891	147,120	-0,031	-0,030
-290,876	-90,913	0,087	0,018
-289,862	-200,000	0,005	0,070
-288,847	77,458	0,017	0,013
-287,832	258,848	0,031	0,039
-286,818	-200,000	-0,013	-0,050
-285,803	-78,612	0,004	-0,001
-284,789	32,984	-0,099	0,061
-283,774	-200,000	0,006	-0,077
-282,759	78,911	-0,103	0,079
-281,745	37,081	0,090	0,057
-280,730	81,877	0,157	-0,122
-279,716	-18,834	0,022	0,010
-278,701	238,975	-0,027	0,032
-277,686	-200,000	-0,011	0,063
-276,672	-200,000	-0,011	0,145
-275,657	800,000	-0,016	-0,037
-274,643	-200,000	0,016	-0,107
-273,628	-155,926	-0,082	-0,004
-272,613	143,555	-0,062	-0,059
-271,599	800,000	0,028	0,056
-270,584	-40,323	0,029	-0,011
-269,570	227,957	0,152	0,177
-268,555	156,856	0,082	-0,081
-267,540	-12,551	-0,076	0,035
-266,526	800,000	-0,018	-0,042
-265,511	403,783	0,013	-0,020
-264,497	-24,647	0,024	0,010
-263,482	-200,000	-0,029	0,105
-262,467	197,773	0,009	0,010
-261,453	433,184	-0,078	-0,121
-260,438	54,370	-0,136	-0,093
-259,424	67,493	0,028	0,020
-258,409	40,040	-0,144	-0,092
-257,395	-200,000	0,008	-0,034
-256,380	800,000	-0,056	0,149
-255,365	145,715	0,080	0,077
-254,351	218,987	0,076	0,087
-253,336	800,000	0,056	0,141
-252,322	800,000	-0,069	-0,153
-251,307	360,740	-0,081	-0,116
-250,292	-200,000	-0,009	0,047
-249,278	-33,079	-0,047	0,018
-248,263	-25,471	0,102	-0,043
-247,249	149,834	0,059	-0,057
-246,234	800,000	0,024	-0,056
-245,219	-200,000	0,001	-0,147
-244,205	-200,000	-0,011	0,052
-243,190	-106,265	0,161	-0,025
-242,176	244,218	0,031	-0,037
-241,161	106,579	0,007	0,006
-240,146	-200,000	-0,008	-0,026
-239,132	154,469	-0,081	-0,080
-238,117	326,023	-0,064	-0,087
-237,103	-133,942	0,056	-0,005
-236,088	52,764	-0,122	0,083
-235,073	-200,000	-0,015	0,099
-234,059	104,788	0,042	0,035
-233,044	-71,804	0,123	-0,033
-232,030	800,000	0,070	0,147
-231,015	558,716	-0,046	-0,080
-230,000	143,199	-0,084	-0,080
-228,986	17,398	0,086	0,048
-227,971	90,694	-0,031	-0,025
-226,957	-200,000	0,001	0,171
-225,942	-2,440	0,024	0,012
-224,927	227,786	0,113	0,132
-223,913	191,529	-0,031	0,034
-222,898	162,252	-0,038	0,038
-221,884	-200,000	0,004	-0,076
-220,869	-57,537	0,027	-0,009
-219,855	-52,211	0,127	-0,042
-218,840	-200,000	-0,024	0,140
-217,825	80,900	-0,060	0,046
-216,811	-49,526	0,064	-0,022
-215,796	-160,715	-0,087	-0,003
-214,782	356,733	0,074	-0,105
-213,767	-88,648	0,072	-0,015
-212,752	-21,393	-0,065	0,028
-211,738	-200,000	-0,048	0,173
-210,723	800,000	-0,048	-0,109
-209,709	-200,000	-0,000	-0,168
-208,694	-200,000	0,014	-0,090
-207,679	-63,460	-0,060	0,018
-206,665	800,000	-0,045	-0,105
-205,650	51,310	0,065	0,044
-204,636	464,394	-0,030	0,048
-203,621	-137,095	-0,194	0,016
-202,606	250,141	-0,064	-0,078
-201,592	-72,965	0,071	0,019
-200,577	-168,439	0,045	-0,001
-199,563	-200,000	0,011	0,111
-198,548	15,712	0,130	0,073
-197,533	-121,309	-0,089	-0,010
-196,519	165,437	0,104	-0,105
-195,504	-200,000	-0,012	0,057
-194,490	339,300	0,133	-0,185
-193,475	800,000	0,018	-0,050
-192,460	372,422	-0,017	-0,024
-191,446	166,743	0,039	-0,039
-190,431	-170,578	0,058	0,001
-189,417	152,931	-0,073	-0,071
-188,402	-92,333	0,114	0,023
-187,387	795,772	0,026	-0,051
-186,373	-68,765	-0,123	0,034
-185,358	-182,291	0,059	0,001
-184,344	252,400	-0,146	-0,178
-183,329	284,752	0,076	0,097
-182,315	133,057	0,030	-0,028
-181,300	-200,000	0,019	0,078
-180,285	-39,795	-0,053	0,020
-179,271	800,000	-0,014	-0,032
-178,256	800,000	0,056	0,129
-177,242	800,000	0,034	0,067
-176,227	220,305	0,047	0,054
-175,212	-155,403	0,074	-0,003
-174,198	164,495	-0,075	0,075
-173,183	-200,000	0,019	-0,112
-172,169	-200,000	0,019	-0,093
-171,154	800,000	-0,048	-0,136
-170,139	-200,000	-0,017	0,064
-169,125	-200,000	0,001	0,005
-168,110	109,409	-0,110	0,094
-167,096	-44,746	-0,166	0,059
-166,081	-200,000	-0,009	0,069
-165,066	580,342	-0,038	-0,067
-164,052	62,323	-0,091	0,065
-163,037	43,234	-0,066	0,043
-162,023	-200,000	-0,002	0,118
-161,008	-120,182	0,102	0,012
-159,993	579,978	-0,044	0,077
-158,979	461,657	-0,111	-0,176
-157,964	-87,576	0,075	0,016
-156,950	752,475	0,039	-0,075
-155,935	-200,000	-0,022	0,081
-154,920	392,755	0,081	0,120
-153,906	-200,000	-0,036	-0,130
-152,891	-200,000	0,013	0,067
-151,877	-200,000	-0,009	-0,055
-150,862	800,000	0,057	-0,139
-149,847	-133,714	0,100	-0,009
-148,833	-200,000	0,017	-0,123
-147,818	266,719	-0,029	0,036
-146,804	-200,000	0,028	0,108
-145,789	13,163	0,100	0,055
-144,775	-16,545	-0,047	0,021
-143,760	180,896	0,053	0,056
-142,745	-200,000	0,016	-0,093
-141,731	-122,810	0,097	0,011
-140,716	31,153	0,108	0,066
-139,702	800,000	-0,017	-0,037
-138,687	309,050	0,032	0,043
-137,672	109,992	-0,050	-0,042
-136,658	178,079	0,054	-0,056
-135,643	261,653	0,118	-0,146
-134,629	-186,016	0,106	0,001
-133,614	204,654	0,033	-0,036
-132,599	31,705	-0,030	-0,018
-131,585	-62,109	0,051	-0,015
-130,570	671,217	-0,040	-0,075
-129,556	-198,747	-0,115	-0,000
-128,541	46,212	-0,117	-0,077
-127,526	-200,000	0,020	-0,068
-126,512	-1,932	0,049	0,024
-125,497	13,833	-0,096	-0,053
-124,483	800,000	0,073	-0,145
-123,468	274,323	-0,029	0,037
-122,453	196,027	-0,051	0,055
-121,439	-96,148	-0,111	0,021
-120,424	144,994	0,043	0,041
-119,410	-200,000	-0,010	0,087
-118,395	121,896	-0,070	0,062
-117,380	800,000	-0,036	0,099
-116,366	-200,000	-0,022	0,094
-115,351	-192,576	-0,137	-0,001
-114,337	149,503	0,052	-0,050
-113,322	-32,094	0,155	-0,061
-112,307	283,236	-0,067	-0,085
-111,293	-2,375	0,050	0,025
-110,278	-84,710	0,081	-0,018
-109,264	-200,000	-0,018	-0,095
-108,249	-163,799	-0,102	-0,003
-107,234	28,684	0,056	-0,033
-106,220	-200,000	-0,016	-0,086
-105,205	-90,109	0,108	0,022
-104,191	-200,000	0,043	0,139
-103,176	439,210	0,040	0,062
-102,162	-200,000	0,023	-0,115
-101,147	354,519	-0,072	-0,101
-100,132	73,576	-0,026	0,020
-99,118	-200,000	-0,007	0,033
-98,103	-200,000	-0,020	-0,157
-97,089	-72,102	0,112	0,029
-96,074	-200,000	0,010	-0,061
-95,059	57,106	0,053	0,037
-94,045	-57,215	0,066	0,020
-93,030	-103,127	-0,159	-0,026
-92,016	-73,009	0,111	-0,029
-91,001	-77,554	-0,047	-0,012
-89,986	-178,961	-0,027	-0,000
-88,972	-102,652	-0,089	-0,015
-87,957	101,816	0,065	0,054
-86,943	786,457	0,023	-0,046
-85,928	-200,000	-0,004	-0,039
-84,913	276,150	-0,011	-0,014
-83,899	800,000	-0,033	-0,074
-82,884	474,118	0,054	0,087
-81,870	95,732	0,027	0,022
-80,855	800,000	0,018	-0,054
-79,840	470,919	-0,037	-0,060
-78,826	-200,000	-0,063	0,204
-77,811	-59,663	-0,095	-0,029
-76,797	-200,000	0,013	0,108
-75,782	580,290	-0,020	-0,034
-74,767	-123,075	-0,027	-0,003
-73,753	-101,827	0,104	-0,018
-72,738	-200,000	0,012	0,041
-71,724	609,233	-0,071	0,126
-70,709	189,119	-0,028	0,029
-69,694	-200,000	0,023	-0,150
-68,680	-83,796	0,061	-0,014
-67,665	374,273	-0,068	-0,098
-66,651	-52,754	0,054	0,018
-65,636	-200,000	0,000	0,006
-64,622	533,118	-0,031	-0,052
-63,607	-200,000	-0,025	0,000
-62,592	800,000	-0,070	-0,145
-61,578	308,468	0,025	-0,034
-60,563	-200,000	-0,006	0,090
-59,549	426,226	-0,062	0,096
-58,534	-50,190	-1,585	-0,528
-57,519	270,797	-1,669	-2,086
-56,505	-200,000	-0,508	-4,434
-55,490	264,535	0,936	1,158
-54,476	800,000	4,925	10,998
-53,461	-200,000	18,900	310,042
-52,446	-200,000	738,788	2313,774
-51,432	572,336	1654,642	2868,107
-50,417	78,948	1670,554	1265,970
-49,403	21,947	1543,279	889,318
-48,388	15,841	1465,994	815,086
-47,373	17,816	1456,036	819,069
-46,359	16,833	1446,429	808,910
-45,344	14,077	1441,534	792,935
-44,330	13,992	1439,704	791,493
-43,315	14,004	1438,057	790,611
-42,300	14,021	1436,190	789,635
-41,286	14,048	1435,029	789,096
-40,271	13,995	1433,809	788,141
-39,257	14,002	1432,562	787,457
-38,242	14,085	1431,182	787,063
-37,227	14,087	1430,027	786,407
-36,213	14,088	1428,850	785,731
-35,198	14,069	1427,707	784,981
-34,184	14,078	1426,588	784,378
-33,169	13,989	1425,490	783,319
-32,154	14,054	1424,274	782,931
-31,140	14,069	1422,795	782,158
-30,125	14,111	1421,748	781,747
-29,111	14,087	1420,676	781,016
-28,096	14,028	1419,664	780,149
-27,082	13,997	1418,547	779,358
-26,067	13,976	1417,314	778,549
-25,052	14,009	1416,227	778,077
-24,038	13,972	1415,443	777,442
-23,023	13,900	1414,654	776,637
-22,009	13,987	1413,312	776,282
-20,994	13,957	1412,477	775,650
-19,979	13,924	1411,616	774,992
-18,965	13,894	1410,808	774,375
-17,950	13,932	1409,583	773,852
-16,936	13,942	1408,755	773,414
-15,921	13,917	1407,515	772,586
-14,906	13,895	1406,816	772,068
-13,892	13,915	1405,852	771,601
-12,877	13,880	1404,887	770,875
-11,863	13,856	1404,084	770,296
-10,848	13,874	1403,148	769,836
-9,833	13,872	1402,333	769,345
-8,819	13,809	1401,500	768,564
-7,804	13,781	1400,546	767,881
-6,790	13,840	1399,236	767,405
-5,775	13,774	1398,509	766,671
-4,760	13,795	1397,741	766,317
-3,746	13,771	1396,597	765,547
-2,731	13,781	1395,957	765,214
-1,717	13,793	1394,853	764,634
-0,702	13,780	1393,222	763,649
0,313	17,625	1310,803	736,307
1,327	33,900	705,699	434,132
2,342	52,565	123,895	83,652
3,356	3,190	16,605	8,525
4,371	17,942	3,125	1,758
5,386	34,904	0,559	0,346
6,400	-200,000	0,042	0,179
7,415	-46,438	-0,257	-0,089
8,429	-37,083	-0,404	-0,153
9,444	168,500	-0,157	-0,159
10,459	250,732	-0,244	-0,293
11,473	171,173	-0,291	-0,295
12,488	47,432	-0,220	-0,145
13,502	-5,495	-0,249	-0,121
14,517	177,496	-0,254	-0,262
15,531	7,606	-0,497	-0,262
16,546	3,834	-0,410	-0,211
17,561	52,739	-0,455	-0,307
18,575	-88,171	-0,119	-0,025
19,590	253,673	-0,112	-0,135
20,604	-99,147	-0,258	0,046
21,619	33,532	-0,440	-0,269
22,634	167,796	-0,459	-0,462
23,648	-11,181	-0,526	-0,244
24,663	63,002	-0,406	-0,287
25,677	442,074	-0,216	-0,335
26,692	62,426	-0,331	-0,234
27,707	140,440	-0,358	-0,334
28,721	74,392	-0,398	-0,295
29,736	26,915	-0,432	-0,255
30,750	175,221	-0,237	-0,243
31,765	-4,649	-0,307	-0,149
32,780	103,976	-0,293	-0,243
33,794	239,522	-0,185	-0,217
34,809	187,003	-0,277	-0,292
35,823	471,249	-0,180	-0,287
36,838	39,524	-0,356	-0,225
37,853	-32,392	-0,389	-0,152
38,867	123,422	-0,399	-0,354
39,882	161,373	-0,385	-0,380
40,896	-27,162	-0,432	-0,177
41,911	71,578	-0,262	-0,192
42,926	-27,473	-0,356	-0,145
43,940	24,138	-0,374	-0,217
44,955	8,922	-0,312	-0,166
45,969	56,453	-0,409	-0,280
46,984	161,418	-0,277	-0,273
47,999	56,462	-0,390	-0,267
49,013	486,921	-0,148	-0,238
50,028	-48,247	-0,331	-0,112
51,042	101,787	-0,299	-0,246
52,057	86,138	-0,300	-0,233
53,071	11,630	-0,429	-0,231
54,086	134,312	-0,368	-0,336
55,101	167,693	-0,355	-0,356
56,115	119,840	-0,341	-0,298
57,130	9,487	-0,420	-0,224
58,144	31,403	-0,364	-0,220
59,159	86,945	-0,434	-0,338
60,174	-12,590	-0,495	-0,226
61,188	139,466	-0,365	-0,338
62,203	756,887	-0,190	-0,364
63,217	105,214	-0,161	-0,134
64,232	24,921	-0,333	-0,194
65,247	35,318	-0,404	-0,249
66,261	154,148	-0,310	-0,300
67,276	122,929	-0,334	-0,294
68,290	-15,902	-0,360	-0,161
69,305	121,759	-0,243	-0,213
70,320	59,603	-0,338	-0,234
71,334	145,877	-0,233	-0,220
72,349	21,902	-0,304	-0,174
73,363	115,383	-0,354	-0,304
74,378	279,820	-0,176	-0,222
75,393	283,197	-0,341	-0,432
76,407	-9,347	-0,332	-0,156
77,422	-106,156	-0,291	-0,045
78,436	-10,255	-0,375	-0,174
79,451	41,334	-0,408	-0,259
80,466	-5,660	-0,373	-0,179
81,480	57,877	-0,335	-0,230
82,495	50,678	-0,345	-0,229
83,509	38,453	-0,295	-0,184
84,524	44,498	-0,225	-0,145
85,539	-99,740	-0,412	-0,072
86,553	98,407	-0,194	-0,157
87,568	160,031	-0,170	-0,166
88,582	195,455	-0,289	-0,309
89,597	220,829	-0,188	-0,212
90,611	-57,077	-0,334	-0,103
91,626	-34,875	-0,228	-0,087
92,641	36,951	-0,276	-0,171
93,655	5,610	-0,320	-0,165
94,670	171,454	-0,260	-0,262
95,684	152,927	-0,307	-0,295
96,699	256,056	-0,199	-0,240
97,714	144,923	-0,269	-0,252
98,728	234,099	-0,090	-0,104
99,743	129,192	-0,197	-0,176
100,757	44,361	-0,346	-0,222
101,772	97,365	-0,353	-0,285
102,787	275,713	-0,216	-0,270
103,801	81,587	-0,277	-0,210
104,816	-7,413	-0,297	-0,141
105,830	196,834	-0,288	-0,309
106,845	43,628	-0,271	-0,174
107,860	217,483	-0,214	-0,239
108,874	400,983	-0,220	-0,324
109,889	68,867	-0,228	-0,164
110,903	89,485	-0,258	-0,201
111,918	37,639	-0,347	-0,215
112,933	-19,728	-0,235	-0,102
113,947	800,000	-0,130	-0,309
114,962	1,352	-0,316	-0,159
115,976	-82,247	-0,380	-0,086
116,991	186,319	-0,338	-0,353
118,006	227,305	-0,312	-0,356
119,020	-38,437	-0,351	-0,129
120,035	94,217	-0,211	-0,168
121,049	176,655	-0,120	-0,123
122,064	219,893	-0,211	-0,237
123,079	-35,095	-0,313	-0,119
124,093	64,680	-0,226	-0,159
125,108	165,155	-0,225	-0,223
126,122	-71,812	-0,293	-0,076
127,137	17,797	-0,227	-0,126
128,151	-68,480	-0,225	-0,061
129,166	24,594	-0,255	-0,147
130,181	231,965	-0,255	-0,293
131,195	-13,852	-0,300	-0,135
132,210	-184,007	-0,349	0,004
133,224	-6,675	-0,276	-0,131
134,239	116,838	-0,163	-0,140
135,254	-133,463	-0,235	-0,020
136,268	43,208	-0,218	-0,139
137,283	110,082	-0,247	-0,207
138,297	201,815	-0,312	-0,337
139,312	318,881	-0,220	-0,292
140,327	416,467	-0,179	-0,268
141,341	485,576	-0,199	-0,318
142,356	335,404	-0,223	-0,303
143,370	193,396	-0,152	-0,161
144,385	800,000	-0,055	-0,111
145,400	54,245	-0,228	-0,153
146,414	96,548	-0,287	-0,230
147,429	247,884	-0,180	-0,214
148,443	-28,741	-0,262	-0,105
149,458	56,244	-0,182	-0,124
150,473	-86,052	-0,371	-0,079
151,487	-50,655	-0,298	-0,098
152,502	7,277	-0,295	-0,153
153,516	295,750	-0,175	-0,224
154,531	295,973	-0,214	-0,275
155,546	60,699	-0,267	-0,184
156,560	35,947	-0,214	-0,131
157,575	39,812	-0,145	-0,091
158,589	800,000	-0,104	-0,220
159,604	-1,706	-0,239	-0,117
160,619	219,847	-0,268	-0,300
161,633	422,124	-0,105	-0,157
162,648	429,165	-0,130	-0,196
163,662	3,739	-0,165	-0,084
164,677	-7,179	-0,313	-0,148
165,692	-200,000	-0,010	-0,161
166,706	-4,107	-0,238	-0,115
167,721	43,288	-0,289	-0,184
168,735	71,380	-0,183	-0,133
169,750	357,362	-0,187	-0,260
170,764	62,127	-0,227	-0,158
171,779	68,275	-0,245	-0,175
172,794	224,135	-0,166	-0,188
173,808	209,353	-0,143	-0,157
174,823	134,198	-0,177	-0,160
175,837	78,674	-0,175	-0,130
176,852	127,172	-0,257	-0,227
177,867	88,687	-0,036	-0,028
178,881	179,191	-0,090	-0,092
179,896	-5,246	-0,191	-0,091
180,910	98,578	-0,262	-0,211
181,925	138,610	-0,306	-0,280
182,940	149,805	-0,339	-0,320
183,954	32,007	-0,316	-0,189
184,969	198,373	-0,134	-0,143
185,983	-49,219	-0,161	-0,053
186,998	-51,754	-0,253	-0,082
188,013	10,159	-0,303	-0,160
189,027	21,027	-0,287	-0,162
190,042	98,774	-0,175	-0,141
191,056	698,982	-0,121	-0,222
192,071	232,721	-0,065	-0,074
193,086	195,689	-0,121	-0,128
194,100	202,822	-0,167	-0,180
195,115	595,583	-0,175	-0,302
196,129	58,025	-0,154	-0,105
197,144	36,456	-0,271	-0,166
198,159	249,054	-0,208	-0,246
199,173	-43,776	-0,263	-0,092
200,188	-132,865	-0,222	-0,019
201,202	-100,462	-0,201	-0,034
202,217	12,286	-0,296	-0,158
203,232	-4,158	-0,265	-0,127
204,246	130,025	-0,181	-0,162
205,261	128,977	-0,267	-0,237
206,275	2,189	-0,249	-0,125
207,290	800,000	-0,043	-0,091
208,304	-84,413	-0,167	-0,036
209,319	-74,690	-0,303	-0,075
210,334	225,595	-0,158	-0,179
211,348	-7,379	-0,220	-0,103
212,363	134,162	-0,207	-0,187
213,377	-30,860	-0,236	-0,092
214,392	215,013	-0,128	-0,141
215,407	-6,376	-0,203	-0,096
216,421	-17,215	-0,059	-0,026
217,436	68,280	-0,282	-0,201
218,450	-74,751	-0,149	-0,037
219,465	-75,427	-0,283	-0,070
220,480	15,510	-0,266	-0,145
221,494	-9,897	-0,111	-0,051
222,509	800,000	-0,070	-0,147
223,523	-83,213	-0,248	-0,055
224,538	-133,019	-0,171	0,015
225,553	320,047	-0,163	-0,216
226,567	-11,025	-0,258	-0,118
227,582	-105,013	-0,152	-0,024
228,596	-97,831	-0,196	-0,035
229,611	531,920	-0,101	-0,167
230,626	-51,268	-0,173	0,056
231,640	169,225	-0,155	-0,153
232,655	228,011	-0,182	-0,206
233,669	615,148	-0,213	-0,373
234,684	594,258	-0,193	-0,332
235,699	-22,572	-0,195	-0,082
236,713	223,204	-0,096	-0,107
237,728	619,249	-0,111	-0,195
238,742	467,772	-0,100	-0,156
239,757	0,928	-0,282	-0,140
240,772	-95,856	-0,223	-0,041
241,786	185,963	-0,293	-0,302
242,801	69,196	-0,191	-0,136
243,815	-75,655	-0,102	-0,025
244,830	-122,987	-0,159	-0,017
245,844	169,438	-0,198	-0,196
246,859	163,578	-0,151	-0,148
247,874	70,796	-0,292	-0,209
248,888	87,099	-0,202	-0,155
249,903	-152,767	-0,290	0,014
250,917	127,963	-0,186	-0,164
251,932	-141,723	-0,200	0,014
252,947	332,313	-0,065	-0,087
253,961	-101,126	-0,177	-0,030
254,976	-35,194	-0,218	-0,082
255,990	38,212	-0,221	-0,136
257,005	800,000	-0,089	-0,205
258,020	39,329	-0,217	-0,134
259,034	800,000	-0,088	-0,210
260,049	157,129	-0,178	-0,170
261,063	50,811	-0,221	-0,145
262,078	380,119	-0,156	-0,222
263,093	38,516	-0,164	-0,101
264,107	140,320	-0,057	0,052
265,122	281,294	-0,061	-0,076
266,136	-1,904	-0,096	-0,046
267,151	-115,561	-0,221	0,028
268,166	123,371	-0,136	-0,118
269,180	214,752	-0,144	-0,158
270,195	-5,785	-0,204	-0,096
271,209	122,944	-0,222	-0,192
272,224	800,000	-0,095	-0,218
273,239	104,460	-0,071	-0,058
274,253	-88,573	-0,153	-0,031
275,268	19,882	-0,229	-0,127
276,282	-40,279	-0,160	-0,057
277,297	5,235	-0,158	-0,080
278,312	32,990	-0,204	-0,122
279,326	-120,248	-0,210	-0,025
280,341	86,663	-0,169	-0,129
281,355	-116,944	-0,186	0,023
282,370	-113,804	-0,110	-0,015
283,384	33,892	-0,166	-0,100
284,399	-122,636	-0,278	0,031
285,414	45,820	-0,148	-0,094
286,428	557,290	-0,097	-0,163
287,443	126,334	-0,144	-0,126
288,457	89,895	-0,111	-0,086
289,472	800,000	-0,027	-0,067
290,487	-46,383	-0,205	-0,069
291,501	549,664	-0,124	-0,205
292,516	238,697	-0,197	-0,226
293,530	219,267	-0,050	-0,056
294,545	424,840	-0,059	-0,088
295,560	410,999	-0,119	-0,175
296,574	187,056	-0,101	-0,104
297,589	204,647	-0,053	-0,057
298,603	-57,648	-0,192	-0,058
299,618	113,274	-0,110	-0,092
300,633	-65,679	-0,199	-0,055
301,647	257,196	-0,049	-0,059
302,662	210,918	-0,108	-0,118
303,676	-171,596	-0,106	-0,002
304,691	-93,520	-0,106	-0,020
305,706	97,331	-0,216	-0,171
306,720	-47,067	-0,230	-0,077
307,735	443,764	-0,050	-0,076
308,749	84,262	-0,207	-0,156
309,764	-200,000	-0,029	-0,208
310,779	38,381	-0,162	-0,099
311,793	-42,620	-0,119	-0,041
312,808	-149,962	-0,162	-0,009
313,822	65,521	-0,257	-0,179
314,837	800,000	-0,108	-0,212
315,852	-94,666	-0,207	0,038
316,866	195,611	0,045	-0,047
317,881	444,531	-0,093	-0,141
318,895	-151,671	-0,225	-0,011
319,910	-31,667	-0,227	-0,087
320,925	-36,938	-0,268	-0,099
321,939	-138,997	-0,175	-0,013
322,954	5,618	-0,118	0,060
323,968	-61,094	-0,056	-0,016
324,983	-106,606	-0,186	0,028
325,997	800,000	-0,081	-0,165
327,012	-17,803	-0,292	-0,126
328,027	0,818	-0,179	-0,088
329,041	67,057	-0,149	-0,105
330,056	479,442	-0,066	-0,103
331,070	-200,000	-0,042	-0,220
332,085	-147,018	-0,106	0,006
333,100	21,133	-0,226	-0,126
334,114	522,923	-0,103	-0,166
335,129	-23,838	-0,155	-0,064
336,143	657,338	-0,162	-0,287
337,158	-200,000	-0,029	-0,113
338,173	-120,096	-0,146	-0,017
339,187	-30,901	0,035	-0,014
340,202	-200,000	0,006	-0,186
341,216	7,391	-0,163	-0,084
342,231	31,553	-0,191	-0,113
343,246	50,015	-0,174	-0,112
344,260	239,321	-0,084	-0,096
345,275	-54,698	-0,181	-0,056
346,289	432,663	-0,069	-0,103
347,304	46,267	-0,119	-0,076
348,319	331,510	-0,115	-0,153
349,333	-49,376	-0,291	-0,095
350,348	24,368	-0,212	-0,120
351,362	284,888	-0,127	-0,157
352,377	-175,464	-0,089	0,002
353,392	552,788	-0,056	-0,092
354,406	800,000	-0,061	-0,175
355,421	209,363	1314,578	1415,845
356,435	161,131	1475,294	1416,342
