DTS Sentinel unit serial number:	SN410029Multiplexer serial number:	ORYXHardware model number:	OX2-SRSoftware version number:	ORYX F/W v4,00 Oryx Data Collector v3.7.2.0data status	okinstallation	B3 Nyhavnadifferential loss correction	single-endedforward channel	channel 1reverse channel	N/Adate	2023/11/29time	18:42:30forward acquisition time	300,00reverse acquisition time	0,00gamma	499,1914k internal	0,3209k external	0,3209temperature offset calibration	1,0000default loss term (dB/km)	0,3820temperature slope calibration	1,0000multiplexer offset coefficient	1,0000multiplexer slope coefficient	1,0000fibre end	0,00T internal ref (°C)	11,07T ext. ref 1 (°C)	-4,17T ext. ref 2 (°C)	-4,29length (m)	temperature (°C)	Stokes	anti-Stokes-744,400	122,637	-0,273	-0,248
-743,385	-200,000	-0,007	0,321
-742,371	-36,937	-0,236	-0,091
-741,356	800,000	0,102	0,262
-740,342	36,990	-0,226	-0,145
-739,327	-200,000	0,053	0,292
-738,312	47,953	-0,164	-0,111
-737,298	800,000	-0,097	0,277
-736,283	-200,000	-0,053	-0,206
-735,269	327,002	-0,117	0,163
-734,254	62,305	-0,241	-0,174
-733,239	39,381	-0,193	0,125
-732,225	-200,000	0,002	-0,185
-731,210	-115,583	0,053	-0,007
-730,196	-200,000	-0,027	-0,191
-729,181	70,830	-0,066	-0,049
-728,167	239,339	0,016	-0,019
-727,152	44,303	0,088	0,058
-726,137	-90,139	-0,178	0,037
-725,123	44,836	0,004	-0,003
-724,108	490,353	-0,024	0,041
-723,094	-200,000	-0,009	-0,135
-722,079	800,000	-0,025	-0,075
-721,064	26,007	-0,090	0,054
-720,050	-200,000	-0,026	-0,124
-719,035	-11,417	-0,077	-0,037
-718,021	87,599	0,045	0,036
-717,006	290,732	-0,074	0,098
-715,991	17,348	-0,192	-0,110
-714,977	-200,000	0,018	-0,120
-713,962	-144,546	-0,052	0,003
-712,948	-151,867	0,071	-0,004
-711,933	-200,000	-0,008	-0,032
-710,918	-14,747	-0,073	0,034
-709,904	800,000	0,051	-0,120
-708,889	800,000	-0,078	-0,160
-707,875	800,000	0,039	-0,120
-706,860	86,639	0,007	-0,006
-705,845	800,000	0,014	0,043
-704,831	-200,000	-0,013	-0,080
-703,816	37,745	-0,062	0,040
-702,802	356,029	-0,018	0,026
-701,787	406,346	0,057	-0,087
-700,772	-114,106	-0,040	-0,006
-699,758	596,636	-0,064	0,115
-698,743	800,000	0,018	-0,041
-697,729	147,668	-0,007	0,007
-696,714	94,835	-0,020	0,016
-695,699	-200,000	0,000	0,147
-694,685	641,790	0,060	-0,111
-693,670	-57,180	0,064	0,020
-692,656	474,183	0,027	0,044
-691,641	-200,000	0,031	0,133
-690,627	37,286	0,149	0,096
-689,612	-200,000	0,047	-0,162
-688,597	-65,041	0,027	-0,008
-687,583	3,942	-0,047	0,025
-686,568	-200,000	-0,016	-0,126
-685,554	-64,111	-0,040	-0,012
-684,539	36,966	-0,070	0,045
-683,524	800,000	0,048	0,108
-682,510	14,338	0,048	0,027
-681,495	361,189	0,036	-0,053
-680,481	-163,001	-0,043	0,001
-679,466	-1,418	-0,055	-0,028
-678,451	-70,885	-0,040	-0,011
-677,437	800,000	0,007	0,020
-676,422	-121,966	-0,047	-0,006
-675,408	-111,615	0,111	0,016
-674,393	315,944	-0,062	-0,085
-673,378	800,000	-0,049	0,111
-672,364	800,000	0,063	0,132
-671,349	178,789	-0,055	-0,059
-670,335	90,153	0,036	0,029
-669,320	-63,316	0,185	0,055
-668,305	-89,184	-0,080	-0,017
-667,291	-35,598	0,091	-0,036
-666,276	307,403	-0,030	0,040
-665,262	-24,236	-0,053	0,023
-664,247	-140,531	-0,091	0,007
-663,232	-200,000	-0,005	0,095
-662,218	800,000	0,045	0,090
-661,203	-80,273	-0,039	0,009
-660,189	-71,784	-0,113	-0,030
-659,174	56,377	0,088	0,062
-658,159	800,000	0,008	0,019
-657,145	800,000	-0,028	-0,067
-656,130	-200,000	0,038	0,122
-655,116	44,945	-0,185	-0,123
-654,101	-200,000	-0,030	-0,114
-653,086	-120,488	-0,119	-0,014
-652,072	176,725	-0,034	-0,035
-651,057	800,000	-0,066	0,166
-650,043	642,139	-0,110	-0,203
-649,028	703,325	0,068	-0,130
-648,014	120,387	0,118	-0,106
-646,999	800,000	-0,061	-0,124
-645,984	-200,000	0,023	0,090
-644,970	393,890	-0,070	-0,105
-643,955	-200,000	0,039	-0,128
-642,941	-200,000	-0,021	-0,222
-641,926	220,842	0,041	-0,048
-640,911	101,812	0,066	-0,056
-639,897	-112,806	-0,135	-0,019
-638,882	800,000	-0,018	0,053
-637,868	-69,825	-0,077	0,021
-636,853	-146,109	0,080	-0,005
-635,838	800,000	-0,042	-0,119
-634,824	263,668	-0,077	-0,097
-633,809	61,485	-0,014	0,010
-632,795	800,000	0,053	0,114
-631,780	-69,805	0,133	-0,036
-630,765	-191,397	0,103	0,001
-629,751	-129,198	-0,076	0,008
-628,736	-62,151	-0,040	0,012
-627,722	243,423	-0,045	0,055
-626,707	-200,000	-0,004	-0,029
-625,692	-200,000	0,022	0,077
-624,678	170,887	-0,049	0,051
-623,663	-62,073	-0,052	-0,016
-622,649	-200,000	0,025	-0,237
-621,634	-200,000	-0,001	-0,077
-620,619	164,984	-0,136	0,139
-619,605	379,883	-0,070	0,104
-618,590	185,368	0,088	-0,095
-617,576	-200,000	-0,025	0,154
-616,561	79,119	-0,021	-0,017
-615,546	-115,558	-0,086	-0,011
-614,532	-200,000	0,009	-0,269
-613,517	224,662	-0,128	-0,149
-612,503	15,045	0,130	-0,073
-611,488	-189,790	-0,023	0,000
-610,474	-156,981	0,158	-0,007
-609,459	227,226	0,097	0,114
-608,444	76,483	-0,089	-0,068
-607,430	800,000	-0,027	-0,069
-606,415	-200,000	-0,019	0,137
-605,401	800,000	0,023	-0,057
-604,386	521,872	0,014	-0,025
-603,371	-123,408	-0,041	0,005
-602,357	-12,518	-0,126	-0,059
-601,342	-200,000	-0,002	-0,107
-600,328	-42,591	-0,113	0,041
-599,313	24,457	-0,052	-0,031
-598,298	800,000	-0,034	-0,107
-597,284	-75,376	-0,047	-0,012
-596,269	555,639	0,037	-0,065
-595,255	-200,000	0,002	0,070
-594,240	-31,548	-0,196	-0,079
-593,225	67,523	0,036	0,026
-592,211	-128,842	-0,012	0,001
-591,196	800,000	0,017	0,037
-590,182	279,096	-0,051	0,066
-589,167	27,770	0,074	0,045
-588,152	208,514	0,124	0,141
-587,138	-26,560	0,013	-0,006
-586,123	-66,717	-0,148	0,042
-585,109	615,231	0,028	0,050
-584,094	36,017	0,022	-0,014
-583,079	248,270	0,050	-0,061
-582,065	-200,000	-0,028	-0,163
-581,050	-65,038	-0,126	-0,037
-580,036	-200,000	0,008	0,041
-579,021	-200,000	-0,026	0,097
-578,006	282,869	-0,092	-0,119
-576,992	-200,000	-0,002	0,014
-575,977	-24,186	0,115	0,049
-574,963	-28,343	0,061	0,025
-573,948	800,000	0,019	-0,040
-572,934	-200,000	-0,051	0,181
-571,919	75,482	-0,062	-0,047
-570,904	-200,000	-0,007	-0,128
-569,890	-108,088	-0,050	-0,008
-568,875	-148,897	0,082	-0,005
-567,861	-13,458	-0,127	-0,059
-566,846	-61,176	0,036	0,011
-565,831	800,000	-0,087	0,180
-564,817	-41,945	-0,125	-0,046
-563,802	212,324	-0,118	-0,134
-562,788	800,000	-0,027	-0,060
-561,773	-200,000	-0,009	-0,029
-560,758	132,208	-0,088	0,081
-559,744	-200,000	0,008	-0,030
-558,729	-115,837	0,100	-0,013
-557,715	379,507	0,050	-0,073
-556,700	38,815	-0,130	-0,083
-555,685	-67,262	-0,119	-0,034
-554,671	129,017	-0,044	0,041
-553,656	155,014	-0,013	-0,013
-552,642	-40,810	-0,024	0,009
-551,627	120,875	0,035	0,031
-550,612	27,001	-0,112	-0,068
-549,598	177,225	-0,017	-0,018
-548,583	725,086	0,011	-0,022
-547,569	180,331	-0,065	0,069
-546,554	800,000	0,028	0,080
-545,539	80,165	0,089	0,069
-544,525	116,052	0,053	0,047
-543,510	175,947	-0,125	-0,131
-542,496	21,353	0,048	-0,028
-541,481	-99,871	-0,100	0,018
-540,466	-86,800	-0,090	-0,020
-539,452	800,000	-0,028	-0,067
-538,437	104,866	-0,007	0,006
-537,423	-109,385	0,015	0,002
-536,408	800,000	0,009	-0,025
-535,393	-55,222	0,004	0,001
-534,379	528,152	-0,063	-0,108
-533,364	185,030	-0,071	-0,076
-532,350	-200,000	-0,006	0,048
-531,335	291,682	0,073	-0,095
-530,321	-197,902	-0,148	0,001
-529,306	61,588	-0,156	0,111
-528,291	166,821	-0,103	-0,105
-527,277	-200,000	0,008	0,055
-526,262	-200,000	0,001	-0,045
-525,248	462,710	0,035	0,056
-524,233	-200,000	0,020	0,080
-523,218	-200,000	0,003	0,054
-522,204	237,727	0,101	-0,121
-521,189	58,442	-0,067	-0,047
-520,175	-169,704	-0,082	-0,002
-519,160	305,992	0,071	-0,096
-518,145	736,761	-0,014	0,028
-517,131	739,229	-0,057	0,110
-516,116	535,001	0,076	0,130
-515,102	501,562	0,053	0,089
-514,087	-200,000	0,009	-0,041
-513,072	37,462	-0,047	0,030
-512,058	-200,000	0,003	-0,065
-511,043	-57,481	0,096	0,030
-510,029	75,048	0,132	-0,100
-509,014	-200,000	0,011	-0,062
-507,999	800,000	-0,008	0,022
-506,985	-200,000	-0,021	-0,161
-505,970	-200,000	0,014	-0,066
-504,956	69,984	-0,029	0,022
-503,941	-79,354	-0,035	0,009
-502,926	227,857	-0,063	0,074
-501,912	800,000	-0,016	0,049
-500,897	306,224	-0,055	0,074
-499,883	43,015	0,060	0,039
-498,868	420,915	-0,047	-0,072
-497,853	101,620	0,020	0,017
-496,839	87,567	0,120	0,095
-495,824	-200,000	0,026	-0,152
-494,810	-200,000	-0,021	0,131
-493,795	537,988	-0,045	0,078
-492,781	362,277	-0,109	-0,158
-491,766	-200,000	-0,002	-0,046
-490,751	800,000	0,009	-0,028
-489,737	-123,961	0,052	-0,006
-488,722	-34,492	-0,107	-0,042
-487,708	28,706	-0,017	-0,010
-486,693	-200,000	0,015	0,073
-485,678	-42,484	0,041	-0,015
-484,664	-200,000	0,006	-0,036
-483,649	-47,343	-0,131	-0,045
-482,635	582,528	-0,092	-0,163
-481,620	800,000	0,035	-0,081
-480,605	-69,104	0,031	-0,009
-479,591	21,469	-0,048	-0,028
-478,576	-162,018	0,048	0,002
-477,562	-116,074	0,093	0,012
-476,547	101,111	-0,057	0,048
-475,532	-200,000	-0,008	0,028
-474,518	98,042	-0,093	0,077
-473,503	-200,000	-0,018	0,174
-472,489	-200,000	0,026	-0,088
-471,474	-200,000	0,001	-0,099
-470,459	-86,019	-0,067	-0,015
-469,445	-152,973	0,060	0,003
-468,430	-54,898	-0,042	-0,014
-467,416	800,000	0,038	0,095
-466,401	-120,704	0,062	-0,007
-465,386	-43,220	0,217	0,078
-464,372	-200,000	-0,038	-0,120
-463,357	-52,121	0,094	0,031
-462,343	-200,000	0,023	0,119
-461,328	-200,000	0,009	-0,070
-460,313	124,376	-0,084	0,075
-459,299	-200,000	-0,041	0,146
-458,284	-102,282	-0,079	0,013
-457,270	-200,000	-0,164	-0,000
-456,255	800,000	0,053	0,114
-455,241	-61,599	0,109	0,033
-454,226	89,480	0,016	-0,013
-453,211	53,192	0,102	-0,070
-452,197	653,530	0,088	0,163
-451,182	177,896	0,117	0,122
-450,168	8,677	-0,091	0,049
-449,153	-37,869	-0,089	-0,034
-448,138	-64,604	0,067	-0,019
-447,124	48,921	-0,054	0,036
-446,109	-66,176	-0,044	0,013
-445,095	-10,573	0,057	0,027
-444,080	35,179	-0,104	0,065
-443,065	-200,000	0,006	0,077
-442,051	17,237	-0,044	-0,025
-441,036	610,408	-0,018	0,032
-440,022	-57,023	0,166	-0,052
-439,007	-76,341	0,048	0,012
-437,992	-200,000	-0,009	0,089
-436,978	-200,000	0,041	0,192
-435,963	-64,299	0,095	0,028
-434,949	-200,000	0,013	0,080
-433,934	307,374	-0,027	-0,036
-432,919	800,000	-0,048	-0,101
-431,905	800,000	-0,036	-0,112
-430,890	-87,886	0,049	-0,011
-429,876	50,143	0,046	-0,031
-428,861	-200,000	0,006	-0,083
-427,846	-84,563	-0,110	0,025
-426,832	-200,000	-0,002	0,048
-425,817	-200,000	0,039	-0,134
-424,803	-119,999	-0,074	0,009
-423,788	-24,144	-0,169	-0,072
-422,773	-200,000	-0,010	0,140
-421,759	25,469	0,171	0,102
-420,744	-88,342	-0,024	0,005
-419,730	-69,318	-0,026	0,007
-418,715	97,240	0,009	-0,008
-417,701	-116,380	-0,194	-0,025
-416,686	800,000	-0,072	0,167
-415,671	39,358	-0,081	0,052
-414,657	212,626	0,104	-0,117
-413,642	92,930	-0,090	-0,073
-412,628	132,979	0,044	-0,041
-411,613	-200,000	0,005	-0,080
-410,598	480,823	0,046	0,074
-409,584	205,616	-0,015	0,017
-408,569	312,697	0,096	0,130
-407,555	153,379	0,042	-0,041
-406,540	-56,213	0,097	-0,031
-405,525	694,985	0,086	-0,163
-404,511	800,000	-0,051	-0,148
-403,496	-149,301	-0,063	0,004
-402,482	-125,411	-0,169	-0,018
-401,467	757,384	0,038	0,074
-400,452	39,749	0,049	0,031
-399,438	36,698	0,105	0,066
-398,423	-200,000	-0,027	0,167
-397,409	-200,000	-0,002	-0,107
-396,394	-132,912	-0,079	0,007
-395,379	140,095	0,107	-0,101
-394,365	-120,516	0,029	-0,003
-393,350	-74,878	0,036	-0,009
-392,336	681,702	-0,064	-0,121
-391,321	1,993	0,050	0,026
-390,306	43,965	-0,081	-0,053
-389,292	108,376	-0,010	-0,009
-388,277	800,000	0,038	-0,116
-387,263	206,368	0,092	0,102
-386,248	-200,000	0,009	-0,053
-385,233	185,942	0,054	0,057
-384,219	800,000	0,033	0,078
-383,204	598,534	0,057	-0,102
-382,190	406,512	0,055	0,084
-381,175	18,974	-0,090	-0,052
-380,160	-200,000	-0,028	-0,146
-379,146	-26,683	0,086	0,036
-378,131	-200,000	0,002	-0,051
-377,117	194,828	-0,018	0,020
-376,102	13,708	-0,094	0,052
-375,088	-200,000	0,003	-0,079
-374,073	-20,135	-0,061	0,027
-373,058	-200,000	-0,007	-0,043
-372,044	268,542	0,088	0,111
-371,029	13,696	0,004	0,002
-370,015	234,378	-0,026	0,031
-369,000	-105,938	0,088	0,014
-367,985	-19,105	-0,120	-0,053
-366,971	222,333	0,057	-0,066
-365,956	-200,000	-0,001	0,047
-364,942	-200,000	-0,003	0,152
-363,927	-200,000	-0,024	0,093
-362,912	-188,155	0,015	-0,000
-361,898	100,776	-0,067	0,056
-360,883	472,542	-0,042	-0,068
-359,869	800,000	-0,033	-0,070
-358,854	42,725	0,074	0,048
-357,839	343,581	-0,050	-0,070
-356,825	-16,823	0,144	-0,065
-355,810	181,158	-0,030	-0,031
-354,796	-200,000	-0,018	-0,075
-353,781	-6,221	-0,142	-0,069
-352,766	462,712	0,046	0,074
-351,752	67,464	0,044	-0,032
-350,737	271,383	0,096	0,122
-349,723	-111,667	-0,030	-0,004
-348,708	-118,324	-0,157	-0,020
-347,693	-73,169	-0,219	-0,057
-346,679	-142,799	-0,181	0,012
-345,664	66,376	-0,021	-0,016
-344,650	-200,000	-0,019	0,110
-343,635	197,997	0,062	0,068
-342,620	-200,000	-0,009	-0,058
-341,606	66,821	-0,083	-0,060
-340,591	17,120	0,037	-0,021
-339,577	546,068	-0,087	-0,149
-338,562	14,975	0,012	-0,007
-337,548	-61,035	0,201	0,060
-336,533	175,474	0,090	0,093
-335,518	-200,000	0,017	0,107
-334,504	-200,000	0,002	0,133
-333,489	-157,651	-0,084	0,004
-332,475	178,798	-0,090	-0,094
-331,460	-200,000	0,012	-0,062
-330,445	286,443	0,026	-0,033
-329,431	-200,000	0,026	0,110
-328,416	37,638	0,011	0,007
-327,402	-200,000	-0,032	-0,134
-326,387	-179,654	-0,048	0,001
-325,372	186,941	0,054	-0,057
-324,358	193,327	0,049	-0,053
-323,343	-200,000	0,026	-0,086
-322,329	800,000	0,072	0,204
-321,314	84,473	0,080	0,062
-320,299	521,221	-0,056	0,094
-319,285	800,000	0,047	0,141
-318,270	422,809	-0,042	-0,065
-317,256	8,589	-0,161	0,086
-316,241	48,407	0,117	0,078
-315,226	60,748	-0,138	-0,097
-314,212	800,000	0,010	0,025
-313,197	800,000	0,002	0,006
-312,183	-52,852	-0,033	0,011
-311,168	-87,085	0,016	0,004
-310,153	242,348	-0,037	0,044
-309,139	-200,000	0,046	-0,146
-308,124	-200,000	0,027	0,148
-307,110	-200,000	-0,016	0,123
-306,095	178,545	0,109	0,114
-305,080	-71,939	0,102	0,027
-304,066	462,282	-0,011	-0,017
-303,051	363,194	-0,022	-0,031
-302,037	-200,000	-0,010	-0,062
-301,022	-72,317	0,098	0,026
-300,008	-81,211	0,060	0,014
-298,993	20,054	0,080	0,046
-297,978	-200,000	-0,033	0,130
-296,964	800,000	-0,047	-0,098
-295,949	800,000	0,055	-0,126
-294,935	290,032	-0,090	-0,117
-293,920	748,067	0,030	-0,057
-292,905	-200,000	0,035	-0,185
-291,891	-200,000	0,024	0,113
-290,876	-122,880	-0,047	-0,005
-289,862	439,676	0,064	-0,100
-288,847	-55,387	-0,136	-0,043
-287,832	-107,478	-0,071	-0,011
-286,818	-200,000	0,055	0,180
-285,803	-200,000	0,013	0,046
-284,789	6,107	0,050	0,026
-283,774	-200,000	0,041	0,143
-282,759	800,000	0,050	-0,130
-281,745	800,000	0,047	0,141
-280,730	-200,000	0,004	0,021
-279,716	280,456	-0,061	0,078
-278,701	-200,000	0,013	0,065
-277,686	-200,000	-0,010	0,059
-276,672	485,223	-0,017	0,028
-275,657	35,218	0,045	-0,028
-274,643	-200,000	-0,002	-0,034
-273,628	-110,812	0,149	-0,022
-272,613	-177,153	0,048	0,001
-271,599	447,075	0,054	0,085
-270,584	-41,498	0,095	0,035
-269,570	-200,000	-0,011	0,034
-268,555	-32,200	0,068	-0,027
-267,540	159,630	0,094	0,093
-266,526	-9,504	-0,074	0,035
-265,511	10,818	-0,093	0,050
-264,497	-200,000	-0,009	0,131
-263,482	-200,000	0,017	0,072
-262,467	55,187	-0,023	0,016
-261,453	232,604	0,075	-0,088
-260,438	-79,872	0,041	0,010
-259,424	-200,000	-0,004	-0,013
-258,409	268,132	-0,087	-0,109
-257,395	104,993	0,027	-0,023
-256,380	246,874	0,076	0,092
-255,365	-200,000	-0,009	0,061
-254,351	544,935	0,040	0,067
-253,336	78,962	0,082	-0,062
-252,322	-200,000	-0,036	-0,127
-251,307	-160,915	-0,010	-0,000
-250,292	512,155	0,025	-0,042
-249,278	66,596	-0,048	0,035
-248,263	-36,692	-0,117	-0,044
-247,249	427,966	0,022	0,033
-246,234	-200,000	-0,001	0,124
-245,219	-200,000	-0,004	0,031
-244,205	-7,370	0,096	-0,046
-243,190	-63,387	-0,145	0,042
-242,176	800,000	0,050	0,100
-241,161	800,000	0,009	0,019
-240,146	45,023	0,035	-0,023
-239,132	40,807	0,131	-0,084
-238,117	800,000	0,043	0,101
-237,103	-118,094	0,109	-0,014
-236,088	-89,511	0,091	-0,019
-235,073	-143,665	-0,059	-0,004
-234,059	-200,000	-0,006	0,154
-233,044	-5,791	0,114	-0,056
-232,030	248,319	-0,106	0,127
-231,015	800,000	-0,044	-0,093
-230,000	800,000	0,060	-0,177
-228,986	753,167	0,069	0,133
-227,971	-200,000	-0,041	-0,130
-226,957	800,000	-0,021	0,065
-225,942	-200,000	0,017	-0,123
-224,927	-200,000	0,005	-0,035
-223,913	-15,880	-0,070	-0,031
-222,898	-57,183	-0,094	0,029
-221,884	-22,511	0,048	-0,021
-220,869	800,000	0,045	0,131
-219,855	-10,907	0,056	0,026
-218,840	-200,000	0,014	-0,061
-217,825	-200,000	-0,006	0,062
-216,811	-64,137	-0,089	-0,026
-215,796	-91,092	0,094	0,019
-214,782	-34,390	0,065	0,025
-213,767	-138,271	0,084	-0,007
-212,752	-135,833	-0,066	0,005
-211,738	162,037	0,048	-0,048
-210,723	-4,999	0,031	-0,015
-209,709	3,216	0,062	0,032
-208,694	-54,770	-0,134	-0,043
-207,679	162,402	0,061	-0,061
-206,665	136,263	0,100	0,093
-205,650	469,018	-0,070	0,113
-204,636	-200,000	0,012	0,063
-203,621	320,635	0,127	0,172
-202,606	-136,902	0,039	0,003
-201,592	-200,000	0,031	0,097
-200,577	51,560	-0,061	0,041
-199,563	-81,666	0,056	0,013
-198,548	-200,000	0,000	0,080
-197,533	-82,360	-0,048	0,011
-196,519	-200,000	-0,011	0,088
-195,504	800,000	-0,029	-0,065
-194,490	800,000	0,054	-0,151
-193,475	75,712	-0,013	0,010
-192,460	-56,169	0,194	-0,061
-191,446	-131,087	0,084	0,008
-190,431	90,878	-0,088	0,070
-189,417	-133,642	0,136	-0,012
-188,402	252,845	-0,057	-0,069
-187,387	-200,000	-0,036	-0,156
-186,373	-102,067	0,098	0,017
-185,358	10,276	-0,054	0,029
-184,344	0,289	-0,057	-0,029
-183,329	-58,039	0,102	-0,031
-182,315	78,187	0,068	0,051
-181,300	-181,204	-0,045	0,001
-180,285	800,000	-0,045	0,097
-179,271	-200,000	0,024	-0,143
-178,256	-200,000	0,024	-0,085
-177,242	-200,000	0,002	-0,046
-176,227	97,377	0,154	0,125
-175,212	-200,000	-0,004	0,035
-174,198	-200,000	0,009	-0,112
-173,183	269,949	-0,045	-0,056
-172,169	-132,796	0,057	-0,005
-171,154	-200,000	-0,012	0,181
-170,139	188,814	0,053	0,057
-169,125	-58,442	-0,045	0,014
-168,110	170,174	-0,068	-0,069
-167,096	800,000	-0,009	0,022
-166,081	222,637	0,103	-0,118
-165,066	184,742	-0,099	-0,104
-164,052	126,433	-0,037	0,033
-163,037	-45,940	-0,042	0,015
-162,023	-200,000	-0,019	0,116
-161,008	-82,225	-0,035	0,008
-159,993	-16,827	0,029	0,013
-158,979	-48,193	0,056	-0,019
-157,964	82,297	-0,046	0,036
-156,950	800,000	0,031	-0,095
-155,935	-86,801	0,020	-0,004
-154,920	153,575	0,138	0,134
-153,906	-34,369	0,107	0,041
-152,891	512,870	0,048	-0,080
-151,877	800,000	0,057	-0,159
-150,862	-12,280	-0,081	-0,038
-149,847	800,000	0,019	-0,055
-148,833	-69,010	0,095	-0,026
-147,818	-46,520	0,029	-0,010
-146,804	-200,000	-0,023	0,078
-145,789	800,000	-0,059	0,133
-144,775	259,015	-0,065	0,080
-143,760	212,128	-0,106	-0,118
-142,745	200,365	0,105	-0,114
-141,731	-103,967	0,084	0,014
-140,716	-162,884	0,085	0,003
-139,702	484,643	0,003	-0,006
-138,687	-134,870	0,095	0,008
-137,672	-200,000	-0,007	0,023
-136,658	-200,000	0,003	-0,091
-135,643	466,221	-0,013	-0,020
-134,629	-200,000	0,009	0,084
-133,614	-112,517	0,048	0,007
-132,599	800,000	0,046	0,119
-131,585	-200,000	-0,002	-0,024
-130,570	74,776	-0,131	0,097
-129,556	800,000	0,051	0,129
-128,541	-56,657	-0,063	-0,020
-127,526	202,429	-0,050	-0,055
-126,512	123,394	0,027	0,024
-125,497	70,221	0,104	-0,076
-124,483	449,393	-0,034	-0,054
-123,468	-121,644	0,166	0,019
-122,453	-200,000	-0,014	0,067
-121,439	-16,991	-0,166	-0,074
-120,424	800,000	-0,033	-0,099
-119,410	149,452	0,093	0,089
-118,395	-4,776	0,203	0,099
-117,380	-147,812	-0,159	0,009
-116,366	800,000	-0,082	0,174
-115,351	622,241	0,014	-0,025
-114,337	77,926	0,015	-0,011
-113,322	800,000	-0,061	-0,135
-112,307	-200,000	0,004	0,059
-111,293	-161,449	0,099	0,004
-110,278	-200,000	0,005	0,015
-109,264	9,993	0,109	-0,059
-108,249	525,461	-0,037	-0,061
-107,234	-104,900	0,101	0,016
-106,220	67,835	0,059	0,043
-105,205	121,109	0,051	0,045
-104,191	27,222	-0,029	0,017
-103,176	125,759	0,033	0,030
-102,162	-200,000	-0,006	0,115
-101,147	-125,180	-0,071	-0,008
-100,132	-196,966	-0,066	0,000
-99,118	800,000	-0,046	-0,096
-98,103	800,000	0,018	-0,051
-97,089	698,442	0,044	0,082
-96,074	-200,000	0,017	0,084
-95,059	470,121	-0,028	0,045
-94,045	-124,755	-0,119	-0,013
-93,030	-200,000	-0,004	-0,105
-92,016	22,859	0,041	-0,024
-91,001	17,055	0,033	0,018
-89,986	800,000	0,023	0,057
-88,972	-200,000	-0,007	0,134
-87,957	357,302	0,080	0,113
-86,943	61,953	0,190	0,134
-85,928	-197,387	-0,068	0,000
-84,913	64,020	-0,140	-0,099
-83,899	-200,000	-0,009	-0,179
-82,884	-200,000	-0,004	0,046
-81,870	529,267	-0,044	-0,073
-80,855	-200,000	0,030	0,163
-79,840	800,000	-0,021	0,062
-78,826	43,173	-0,108	-0,070
-77,811	-77,452	-0,144	-0,035
-76,797	-200,000	0,020	0,089
-75,782	800,000	0,024	0,057
-74,767	100,058	0,021	-0,017
-73,753	-127,393	-0,124	0,013
-72,738	800,000	-0,051	0,113
-71,724	-200,000	0,005	0,039
-70,709	227,639	0,019	-0,022
-69,694	39,569	0,072	-0,046
-68,680	-9,773	0,043	0,020
-67,665	-200,000	-0,005	-0,026
-66,651	-200,000	0,001	0,155
-65,636	-200,000	-0,021	-0,075
-64,622	138,530	-0,071	0,066
-63,607	-200,000	0,020	-0,122
-62,592	323,379	-0,059	-0,079
-61,578	-200,000	0,004	0,036
-60,563	218,710	0,026	0,029
-59,549	164,097	-0,044	-0,044
-58,534	17,655	-1,894	-1,061
-57,519	355,043	-1,446	-2,036
-56,505	-200,000	-0,289	-4,279
-55,490	534,606	0,912	1,533
-54,476	800,000	4,963	11,263
-53,461	-200,000	20,707	329,230
-52,446	800,000	756,228	2321,438
-51,432	550,518	1661,724	2825,871
-50,417	73,668	1664,578	1230,237
-49,403	18,914	1537,533	867,567
-48,388	12,935	1460,583	795,192
-47,373	19,014	1451,126	819,225
-46,359	16,000	1440,489	798,830
-45,344	11,171	1436,514	773,576
-44,330	11,123	1434,429	772,196
-43,315	11,096	1432,469	770,980
-42,300	11,112	1430,924	770,193
-41,286	11,100	1429,692	769,442
-40,271	11,085	1428,384	768,639
-39,257	11,077	1427,237	767,950
-38,242	11,107	1426,050	767,425
-37,227	11,132	1424,972	766,931
-36,213	11,145	1423,602	766,226
-35,198	11,162	1422,584	765,728
-34,184	11,217	1421,645	765,451
-33,169	11,115	1420,154	764,137
-32,154	11,144	1419,203	763,730
-31,140	11,199	1417,625	763,110
-30,125	11,224	1416,820	762,768
-29,111	11,173	1415,829	761,962
-28,096	11,144	1414,659	761,165
-27,082	11,135	1413,630	760,541
-26,067	11,110	1412,488	759,778
-25,052	11,100	1411,333	759,080
-24,038	11,095	1410,289	758,465
-23,023	11,115	1409,165	757,925
-22,009	11,105	1408,304	757,386
-20,994	11,090	1407,150	756,662
-19,979	11,066	1406,397	756,118
-18,965	11,062	1405,442	755,552
-17,950	11,003	1404,711	754,856
-16,936	11,021	1403,919	754,485
-15,921	11,005	1402,767	753,758
-14,906	10,991	1401,820	753,156
-13,892	11,034	1400,836	752,799
-12,877	11,045	1400,054	752,401
-11,863	11,001	1399,258	751,735
-10,848	10,975	1398,216	751,026
-9,833	10,987	1397,212	750,515
-8,819	10,941	1396,613	749,948
-7,804	10,919	1395,695	749,323
-6,790	10,899	1394,845	748,746
-5,775	10,935	1393,520	748,170
-4,760	10,934	1392,665	747,677
-3,746	10,927	1391,896	747,204
-2,731	10,872	1390,952	746,413
-1,717	10,861	1390,152	745,904
-0,702	10,883	1388,167	744,909
0,313	14,851	1302,066	716,914
1,327	30,912	693,583	418,461
2,342	47,957	120,372	79,230
3,356	0,545	16,571	8,331
4,371	10,123	3,531	1,888
5,386	34,533	0,698	0,429
6,400	-200,000	0,057	0,423
7,415	-105,905	-0,251	0,039
8,429	158,021	-0,252	-0,247
9,444	22,712	-0,312	-0,180
10,459	438,133	-0,157	-0,242
11,473	-51,909	-0,313	-0,102
12,488	-120,726	-0,296	-0,035
13,502	-110,670	-0,340	-0,049
14,517	288,923	-0,113	-0,144
15,531	73,056	-0,347	-0,255
16,546	-50,233	-0,428	-0,142
17,561	32,263	-0,383	-0,233
18,575	-112,233	-0,251	-0,035
19,590	-131,340	-0,160	0,015
20,604	-19,374	-0,218	-0,095
21,619	-16,359	-0,500	-0,222
22,634	77,674	-0,490	-0,367
23,648	206,618	-0,393	-0,432
24,663	158,081	-0,406	-0,397
25,677	31,615	-0,396	-0,239
26,692	123,497	-0,243	-0,215
27,707	84,436	-0,303	-0,233
28,721	-12,797	-0,364	-0,166
29,736	145,841	-0,445	-0,420
30,750	-35,080	-0,539	-0,206
31,765	51,498	-0,332	-0,222
32,780	57,760	-0,311	-0,214
33,794	162,347	-0,328	-0,323
34,809	112,906	-0,331	-0,282
35,823	112,893	-0,351	-0,299
36,838	358,899	-0,312	-0,440
37,853	239,223	-0,288	-0,338
38,867	107,304	-0,324	-0,271
39,882	155,005	-0,369	-0,357
40,896	42,908	-0,233	-0,149
41,911	-32,138	-0,346	-0,136
42,926	7,578	-0,316	-0,166
43,940	0,407	-0,360	-0,180
44,955	201,490	-0,300	-0,325
45,969	224,834	-0,333	-0,379
46,984	-62,106	-0,377	-0,110
47,999	-37,919	-0,201	-0,075
49,013	-38,008	-0,394	-0,146
50,028	-43,508	-0,431	-0,152
51,042	263,924	-0,265	-0,324
52,057	121,622	-0,333	-0,291
53,071	51,852	-0,403	-0,269
54,086	-56,090	-0,320	-0,099
55,101	93,064	-0,222	-0,176
56,115	55,998	-0,326	-0,222
57,130	89,919	-0,259	-0,203
58,144	242,484	-0,339	-0,399
59,159	95,230	-0,351	-0,281
60,174	-51,680	-0,398	-0,130
61,188	371,035	-0,210	-0,301
62,203	68,477	-0,196	-0,141
63,217	35,982	-0,320	-0,197
64,232	-123,119	-0,331	-0,037
65,247	61,722	-0,280	-0,196
66,261	215,765	-0,323	-0,360
67,276	96,368	-0,353	-0,284
68,290	180,769	-0,219	-0,226
69,305	51,322	-0,304	-0,202
70,320	-105,750	-0,297	-0,047
71,334	140,824	-0,234	-0,217
72,349	-22,501	-0,332	-0,140
73,363	270,576	-0,274	-0,339
74,378	335,063	-0,300	-0,409
75,393	-8,274	-0,314	-0,148
76,407	-63,585	-0,319	-0,091
77,422	136,261	-0,229	-0,210
78,436	-49,028	-0,245	-0,082
79,451	49,767	-0,299	-0,197
80,466	135,770	-0,358	-0,327
81,480	95,928	-0,286	-0,228
82,495	175,013	-0,285	-0,290
83,509	-93,595	-0,303	-0,058
84,524	-106,297	-0,354	-0,055
85,539	-7,065	-0,357	-0,169
86,553	-23,504	-0,273	-0,114
87,568	55,900	-0,232	-0,157
88,582	79,615	-0,278	-0,209
89,597	-65,323	-0,306	-0,086
90,611	-45,372	-0,287	-0,099
91,626	-29,856	-0,314	-0,125
92,641	-44,653	-0,234	-0,081
93,655	103,187	-0,229	-0,188
94,670	60,188	-0,263	-0,182
95,684	-33,539	-0,284	-0,109
96,699	58,616	-0,317	-0,217
97,714	95,819	-0,267	-0,213
98,728	161,422	-0,193	-0,189
99,743	-11,742	-0,322	-0,147
100,757	22,712	-0,291	-0,166
101,772	341,206	-0,177	-0,243
102,787	199,901	-0,229	-0,246
103,801	153,579	-0,212	-0,204
104,816	82,260	-0,215	-0,163
105,830	-28,673	-0,379	-0,152
106,845	-117,298	-0,314	-0,039
107,860	124,958	-0,289	-0,255
108,874	37,367	-0,254	-0,157
109,889	117,521	-0,401	-0,345
110,903	25,035	-0,403	-0,233
111,918	311,672	-0,197	-0,259
112,933	800,000	-0,072	-0,172
113,947	339,216	-0,152	-0,207
114,962	8,656	-0,289	-0,152
115,976	-28,753	-0,185	-0,074
116,991	31,225	-0,246	-0,147
118,006	120,224	-0,206	-0,179
119,020	4,408	-0,365	-0,186
120,035	350,203	-0,210	-0,290
121,049	-53,074	-0,267	-0,085
122,064	-24,355	-0,250	-0,104
123,079	-61,588	-0,244	-0,071
124,093	-64,774	-0,378	-0,106
125,108	473,680	-0,141	-0,222
126,122	136,921	-0,266	-0,243
127,137	220,055	-0,200	-0,224
128,151	151,016	-0,209	-0,198
129,166	63,266	-0,251	-0,175
130,181	65,114	-0,182	-0,128
131,195	82,472	-0,249	-0,188
132,210	497,452	-0,225	-0,363
133,224	-167,328	-0,225	-0,006
134,239	-61,377	-0,180	-0,052
135,254	-89,079	-0,243	-0,050
136,268	-115,532	-0,150	-0,019
137,283	78,062	-0,204	-0,152
138,297	46,672	-0,282	-0,182
139,312	183,061	-0,192	-0,198
140,327	-88,800	-0,207	-0,043
141,341	-11,166	-0,202	-0,092
142,356	-32,405	-0,262	-0,101
143,370	-126,842	-0,263	0,027
144,385	-19,218	-0,286	-0,123
145,400	32,105	-0,241	-0,145
146,414	32,976	-0,252	-0,152
147,429	-1,790	-0,299	-0,146
148,443	121,216	-0,159	-0,138
149,458	160,376	-0,102	-0,099
150,473	58,049	-0,310	-0,211
151,487	86,617	-0,211	-0,162
152,502	-52,176	-0,245	-0,079
153,516	314,311	-0,186	-0,244
154,531	232,293	-0,126	-0,145
155,546	348,903	-0,136	-0,187
156,560	112,712	-0,189	-0,159
157,575	49,006	-0,197	-0,129
158,589	98,165	-0,180	-0,144
159,604	-0,545	-0,274	-0,135
160,619	77,590	-0,301	-0,223
161,633	-8,761	-0,259	-0,120
162,648	176,400	-0,138	-0,140
163,662	46,622	-0,225	-0,145
164,677	92,711	-0,200	-0,157
165,692	212,163	-0,177	-0,194
166,706	123,649	-0,155	-0,135
167,721	204,973	-0,248	-0,268
168,735	-200,000	-0,046	-0,271
169,750	31,455	-0,234	-0,139
170,764	-97,127	-0,187	-0,034
171,779	98,067	-0,184	-0,147
172,794	509,979	-0,218	-0,354
173,808	91,441	-0,280	-0,218
174,823	240,499	-0,182	-0,211
175,837	23,623	-0,153	-0,087
176,852	800,000	-0,112	-0,237
177,867	53,571	-0,325	-0,217
178,881	385,994	-0,155	-0,222
179,896	800,000	-0,068	-0,151
180,910	800,000	-0,073	-0,162
181,925	800,000	-0,101	-0,234
182,940	45,901	-0,207	-0,133
183,954	-3,311	-0,163	-0,079
184,969	-29,721	-0,202	-0,080
185,983	281,006	-0,191	-0,238
186,998	79,963	-0,110	-0,082
188,013	7,950	-0,145	-0,075
189,027	199,961	-0,192	-0,205
190,042	153,571	-0,221	-0,210
191,056	36,875	-0,249	-0,152
192,071	-200,000	-0,007	-0,201
193,086	148,336	-0,117	-0,110
194,100	209,526	-0,121	-0,132
195,115	232,076	-0,204	-0,233
196,129	368,552	-0,113	-0,158
197,144	121,519	-0,127	-0,110
198,159	117,052	-0,117	-0,099
199,173	800,000	-0,096	-0,231
200,188	-18,139	-0,197	-0,085
201,202	422,367	-0,122	-0,182
202,217	87,762	-0,175	-0,135
203,232	70,410	-0,124	-0,089
204,246	-65,644	-0,253	-0,070
205,261	39,732	-0,193	-0,120
206,275	67,977	-0,158	-0,112
207,290	329,924	-0,085	-0,114
208,304	26,394	-0,191	-0,110
209,319	-51,471	-0,164	-0,053
210,334	121,190	-0,182	-0,157
211,348	-4,516	-0,178	-0,085
212,363	0,587	-0,280	-0,138
213,377	-61,374	-0,229	-0,066
214,392	-48,692	-0,207	-0,068
215,407	-200,000	-0,020	-0,127
216,421	166,344	-0,210	-0,206
217,436	-19,472	-0,167	-0,071
218,450	-56,937	-0,271	-0,082
219,465	323,892	-0,140	-0,186
220,480	68,715	-0,193	-0,137
221,494	218,869	-0,120	-0,132
222,509	3,795	-0,076	-0,038
223,523	-67,118	-0,120	-0,032
224,538	4,178	-0,150	-0,076
225,553	7,108	-0,189	-0,097
226,567	86,673	-0,281	-0,214
227,582	82,190	-0,276	-0,207
228,596	140,770	-0,151	-0,138
229,611	442,145	-0,097	-0,148
230,626	-200,000	0,035	-0,251
231,640	118,723	-0,102	-0,087
232,655	23,293	-0,211	-0,119
233,669	800,000	-0,134	-0,263
234,684	72,286	-0,096	-0,069
235,699	-50,798	-0,297	-0,096
236,713	200,511	-0,097	-0,103
237,728	-200,000	-0,043	-0,217
238,742	-200,000	-0,186	0,001
239,757	568,210	-0,109	-0,184
240,772	800,000	-0,088	-0,217
241,786	122,922	-0,205	-0,177
242,801	-146,620	-0,227	-0,013
243,815	-56,797	-0,243	-0,074
244,830	-149,480	-0,147	-0,008
245,844	-58,466	-0,207	-0,062
246,859	-9,885	-0,107	-0,049
247,874	-80,275	-0,167	-0,038
248,888	800,000	-0,127	-0,263
249,903	800,000	-0,128	-0,269
250,917	130,022	-0,205	-0,181
251,932	202,979	-0,168	-0,179
252,947	-200,000	0,020	-0,094
253,961	-200,000	-0,009	-0,066
254,976	800,000	-0,071	-0,205
255,990	147,158	-0,199	-0,184
257,005	-87,458	-0,239	-0,050
258,020	27,331	-0,145	-0,084
259,034	-75,064	-0,142	-0,035
260,049	-161,456	-0,247	0,009
261,063	132,703	-0,116	-0,103
262,078	800,000	-0,124	-0,302
263,093	3,894	-0,092	-0,046
264,107	-7,085	-0,100	-0,047
265,122	327,043	-0,146	-0,194
266,136	11,434	-0,097	-0,051
267,151	74,860	-0,182	-0,132
268,166	-170,210	-0,221	0,005
269,180	-44,749	-0,274	-0,094
270,195	373,062	-0,176	-0,247
271,209	-87,724	-0,148	-0,031
272,224	-175,704	-0,189	0,003
273,239	-151,190	-0,194	-0,010
274,253	-85,508	-0,104	-0,022
275,268	-98,376	-0,147	0,026
276,282	378,000	-0,147	-0,207
277,297	-10,020	-0,164	-0,075
278,312	237,734	-0,175	-0,200
279,326	-117,441	-0,226	-0,028
280,341	-81,594	-0,088	-0,020
281,355	86,759	-0,167	-0,127
282,370	-148,665	-0,236	-0,013
283,384	800,000	-0,051	-0,154
284,399	237,136	-0,119	-0,136
285,414	200,641	-0,128	-0,135
286,428	82,885	-0,151	-0,113
287,443	-124,074	-0,140	-0,015
288,457	79,276	-0,174	-0,129
289,472	546,350	-0,118	-0,195
290,487	122,864	-0,166	-0,143
291,501	-3,820	-0,244	-0,116
292,516	761,771	-0,168	-0,315
293,530	47,191	-0,130	-0,083
294,545	-149,836	-0,146	0,008
295,560	-200,000	0,006	-0,065
296,574	-30,854	-0,115	-0,044
297,589	90,691	-0,169	-0,130
298,603	281,964	-0,122	-0,151
299,618	56,669	-0,165	-0,110
300,633	125,758	-0,187	-0,163
301,647	317,120	-0,083	-0,108
302,662	67,980	-0,216	-0,151
303,676	-200,000	-0,157	0,000
304,691	14,793	-0,177	-0,095
305,706	15,728	-0,158	-0,085
306,720	800,000	-0,098	-0,297
307,735	-41,136	-0,173	-0,061
308,749	83,884	-0,058	-0,043
309,764	102,901	-0,143	-0,115
310,779	189,223	-0,013	0,013
311,793	-141,639	-0,247	0,017
312,808	-114,528	-0,202	-0,026
313,822	-172,300	-0,198	-0,004
314,837	-200,000	-0,023	-0,152
315,852	-200,000	-0,058	-0,188
316,866	-200,000	-0,001	-0,079
317,881	-64,875	-0,156	-0,043
318,895	-36,742	-0,172	-0,063
319,910	800,000	-0,101	-0,242
320,925	-162,749	-0,063	-0,002
321,939	128,279	0,039	-0,034
322,954	800,000	-0,096	-0,214
323,968	368,314	-0,070	-0,097
324,983	703,091	-0,153	-0,278
325,997	539,906	-0,055	-0,091
327,012	20,810	-0,170	-0,094
328,027	329,891	0,125	-0,165
329,041	-200,000	-0,012	-0,101
330,056	148,779	-0,062	-0,058
331,070	77,857	-0,091	0,066
332,085	-200,000	-0,010	-0,189
333,100	237,773	-0,177	-0,201
334,114	800,000	-0,100	-0,250
335,129	259,702	-0,121	-0,143
336,143	148,148	-0,108	-0,099
337,158	-27,653	-0,160	0,063
338,173	-70,885	-0,152	-0,039
339,187	214,134	-0,174	-0,189
340,202	-16,415	-0,199	-0,086
341,216	85,260	-0,149	-0,112
342,231	-80,558	-0,163	0,037
343,246	800,000	-0,054	-0,109
344,260	-178,656	-0,150	-0,002
345,275	217,528	-0,058	-0,063
346,289	800,000	0,033	-0,068
347,304	509,645	-0,082	-0,131
348,319	-17,101	-0,220	-0,095
349,333	596,258	-0,066	-0,113
350,348	344,961	-0,072	-0,098
351,362	647,652	-0,057	-0,100
352,377	-60,235	-0,180	-0,052
353,392	439,030	-0,044	0,066
354,406	-200,000	-0,023	-0,177
355,421	207,708	1309,015	1399,982
356,435	159,801	1469,003	1400,470
