DTS Sentinel unit serial number:	SN410029Multiplexer serial number:	ORYXHardware model number:	OX2-SRSoftware version number:	ORYX F/W v4,00 Oryx Data Collector v3.7.2.0data status	okinstallation	B3 Nyhavnadifferential loss correction	single-endedforward channel	channel 1reverse channel	N/Adate	2023/12/03time	23:57:30forward acquisition time	300,00reverse acquisition time	0,00gamma	499,1914k internal	0,3202k external	0,3202temperature offset calibration	1,0000default loss term (dB/km)	0,3820temperature slope calibration	1,0000multiplexer offset coefficient	1,0000multiplexer slope coefficient	1,0000fibre end	0,00T internal ref (°C)	12,79T ext. ref 1 (°C)	-2,47T ext. ref 2 (°C)	-2,51length (m)	temperature (°C)	Stokes	anti-Stokes-744,400	382,163	-0,187	-0,280
-743,385	-200,000	0,003	0,197
-742,371	527,944	-0,163	-0,281
-741,356	575,101	0,122	0,217
-740,342	338,491	-0,181	-0,256
-739,327	800,000	-0,097	0,215
-738,312	356,830	-0,254	-0,369
-737,298	800,000	-0,119	0,330
-736,283	368,005	-0,207	-0,305
-735,269	-200,000	0,041	0,348
-734,254	82,176	-0,231	-0,182
-733,239	55,079	-0,123	0,086
-732,225	-200,000	-0,053	-0,212
-731,210	800,000	0,079	0,188
-730,196	375,666	0,058	-0,087
-729,181	-200,000	-0,001	0,016
-728,167	47,223	-0,081	-0,055
-727,152	800,000	-0,012	-0,025
-726,137	-200,000	-0,018	-0,091
-725,123	-5,700	-0,027	0,014
-724,108	-181,403	-0,119	0,002
-723,094	800,000	-0,037	0,080
-722,079	45,908	-0,091	-0,061
-721,064	-102,940	-0,021	-0,004
-720,050	0,685	-0,053	-0,027
-719,035	800,000	0,065	0,134
-718,021	-23,703	0,038	0,016
-717,006	212,622	-0,104	-0,119
-715,991	-200,000	0,005	-0,044
-714,977	800,000	-0,046	-0,097
-713,962	331,387	-0,026	-0,036
-712,948	598,712	0,046	0,083
-711,933	-64,483	-0,072	-0,021
-710,918	-200,000	-0,007	0,090
-709,904	-100,121	-0,088	-0,016
-708,889	242,376	-0,023	-0,028
-707,875	137,091	0,088	0,083
-706,860	547,798	-0,012	0,022
-705,845	222,194	0,029	0,033
-704,831	-117,699	0,022	-0,003
-703,816	-41,812	-0,078	-0,029
-702,802	199,618	0,063	-0,070
-701,787	800,000	-0,068	-0,193
-700,772	91,774	-0,038	-0,031
-699,758	529,250	0,062	0,107
-698,743	-111,917	-0,012	-0,002
-697,729	63,909	0,061	-0,045
-696,714	-200,000	-0,010	-0,059
-695,699	-71,135	-0,070	-0,019
-694,685	-200,000	-0,014	-0,083
-693,670	-200,000	-0,008	-0,044
-692,656	-29,647	0,177	-0,073
-691,641	-84,730	-0,097	0,022
-690,627	-60,129	0,207	0,064
-689,612	800,000	-0,061	-0,145
-688,597	325,005	-0,083	-0,115
-687,583	551,394	-0,047	-0,083
-686,568	102,563	0,098	-0,083
-685,554	293,624	-0,089	-0,119
-684,539	61,420	0,049	-0,035
-683,524	168,132	-0,088	-0,091
-682,510	-42,207	-0,117	-0,043
-681,495	126,730	-0,040	0,037
-680,481	800,000	-0,032	-0,097
-679,466	332,129	-0,059	-0,082
-678,451	-37,922	-0,047	0,018
-677,437	658,110	-0,042	0,078
-676,422	-82,507	0,025	0,006
-675,408	-200,000	-0,012	0,062
-674,393	-61,417	-0,032	0,010
-673,378	-128,385	-0,104	-0,011
-672,364	-200,000	0,031	-0,187
-671,349	-13,068	-0,041	-0,019
-670,335	800,000	-0,045	-0,130
-669,320	-81,524	-0,148	-0,035
-668,305	67,897	-0,067	-0,050
-667,291	-25,204	-0,069	-0,029
-666,276	-200,000	-0,002	-0,085
-665,262	650,227	-0,114	-0,212
-664,247	14,227	0,072	0,041
-663,232	-182,706	-0,045	0,001
-662,218	-200,000	0,017	-0,100
-661,203	-32,754	0,035	0,014
-660,189	-69,148	0,041	0,011
-659,174	320,349	-0,089	0,122
-658,159	170,192	-0,116	-0,121
-657,145	800,000	0,061	0,137
-656,130	135,036	-0,100	0,094
-655,116	7,810	0,073	-0,040
-654,101	-200,000	0,016	0,150
-653,086	-5,089	-0,090	-0,045
-652,072	-94,675	-0,102	-0,020
-651,057	354,818	-0,062	0,089
-650,043	681,830	-0,050	-0,094
-649,028	-200,000	-0,011	0,112
-648,014	-68,999	0,136	0,038
-646,999	-73,255	-0,124	0,033
-645,984	-200,000	-0,004	-0,063
-644,970	322,585	0,048	0,066
-643,955	550,790	-0,008	-0,014
-642,941	800,000	0,031	-0,071
-641,926	48,754	0,028	0,019
-640,911	800,000	0,034	-0,076
-639,897	-31,353	-0,093	0,038
-638,882	539,584	0,050	0,086
-637,868	-200,000	-0,027	-0,138
-636,853	310,207	0,009	0,013
-635,838	161,660	-0,068	0,069
-634,824	-200,000	0,033	0,000
-633,809	-65,169	0,082	-0,024
-632,795	642,653	-0,080	-0,148
-631,780	449,021	0,078	0,124
-630,765	-80,953	-0,049	-0,012
-629,751	126,732	0,057	-0,052
-628,736	-200,000	-0,027	0,141
-627,722	527,254	0,039	-0,067
-626,707	-7,364	-0,136	0,067
-625,692	105,415	0,094	-0,080
-624,678	323,301	0,079	-0,110
-623,663	-200,000	0,018	-0,087
-622,649	-84,223	0,023	0,005
-621,634	187,826	-0,104	-0,112
-620,619	610,675	0,068	-0,123
-619,605	431,436	0,028	-0,045
-618,590	-200,000	0,011	0,089
-617,576	-200,000	-0,004	-0,033
-616,561	-11,339	-0,083	0,039
-615,546	791,259	-0,025	0,050
-614,532	-77,981	-0,122	0,030
-613,517	788,355	-0,091	-0,183
-612,503	800,000	0,029	0,073
-611,488	70,981	-0,106	0,079
-610,474	800,000	0,024	-0,075
-609,459	439,380	0,085	0,135
-608,444	701,753	0,049	-0,093
-607,430	639,218	-0,099	-0,183
-606,415	125,506	-0,013	0,012
-605,401	219,007	0,064	0,074
-604,386	-200,000	0,014	0,127
-603,371	171,188	0,032	-0,033
-602,357	145,363	0,130	0,126
-601,342	-166,527	0,139	0,004
-600,328	-200,000	0,025	-0,123
-599,313	-200,000	-0,016	-0,053
-598,298	-17,491	-0,047	-0,021
-597,284	-200,000	0,024	0,184
-596,269	-123,346	-0,059	0,007
-595,255	-62,001	-0,064	-0,019
-594,240	125,668	0,050	-0,046
-593,225	800,000	-0,070	-0,155
-592,211	-200,000	0,007	-0,084
-591,196	584,573	0,043	-0,076
-590,182	362,291	-0,038	-0,055
-589,167	562,983	0,024	0,041
-588,152	-200,000	0,005	0,137
-587,138	58,886	-0,100	0,071
-586,123	-177,566	0,033	0,001
-585,109	131,522	-0,073	0,068
-584,094	-15,960	-0,103	-0,047
-583,079	-200,000	0,009	0,043
-582,065	-168,226	0,056	0,002
-581,050	77,247	-0,017	0,013
-580,036	-200,000	-0,038	0,160
-579,021	66,155	-0,054	0,040
-578,006	196,028	-0,051	0,056
-576,992	800,000	0,019	0,054
-575,977	-83,949	-0,059	-0,013
-574,963	1,247	-0,102	-0,053
-573,948	-200,000	0,002	0,095
-572,934	-83,194	-0,073	-0,017
-571,919	800,000	-0,056	-0,121
-570,904	-22,523	-0,171	0,075
-569,890	-129,283	-0,079	0,008
-568,875	368,677	-0,017	-0,025
-567,861	4,594	0,134	0,071
-566,846	-77,202	-0,036	0,009
-565,831	5,117	-0,059	-0,031
-564,817	119,392	0,069	-0,062
-563,802	340,883	0,061	0,086
-562,788	-74,392	-0,041	-0,011
-561,773	157,713	0,061	-0,061
-560,758	208,255	0,097	0,109
-559,744	-90,638	0,156	-0,032
-558,729	-143,716	-0,096	-0,006
-557,715	143,441	-0,082	0,079
-556,700	-200,000	0,005	0,020
-555,685	239,196	0,035	0,042
-554,671	364,945	0,078	0,114
-553,656	207,618	0,118	0,133
-552,642	395,418	0,065	0,098
-551,627	-200,000	-0,012	0,135
-550,612	-200,000	-0,016	-0,061
-549,598	168,248	0,069	0,071
-548,583	-200,000	-0,009	0,124
-547,569	424,591	0,008	-0,012
-546,554	800,000	-0,039	0,124
-545,539	44,938	0,099	0,066
-544,525	254,095	0,055	0,068
-543,510	80,526	-0,196	0,152
-542,496	250,916	-0,044	0,054
-541,481	800,000	0,023	-0,051
-540,466	12,790	-0,066	0,037
-539,452	297,979	0,107	0,142
-538,437	-161,553	-0,125	0,005
-537,423	197,514	-0,059	0,065
-536,408	50,662	0,044	-0,030
-535,393	-200,000	-0,011	-0,061
-534,379	278,672	-0,068	-0,088
-533,364	520,127	0,028	-0,047
-532,350	89,487	-0,039	0,031
-531,335	-200,000	-0,004	-0,036
-530,321	-85,483	0,080	-0,018
-529,306	-131,714	-0,108	0,010
-528,291	349,093	0,012	0,017
-527,277	800,000	0,028	0,067
-526,262	-3,553	-0,153	0,077
-525,248	800,000	-0,016	-0,047
-524,233	148,552	0,054	-0,053
-523,218	-116,245	0,129	0,017
-522,204	-200,000	0,003	0,046
-521,189	-117,609	-0,126	0,016
-520,175	-106,234	0,042	0,007
-519,160	-200,000	-0,001	0,099
-518,145	-200,000	0,000	0,054
-517,131	237,473	0,055	0,066
-516,116	530,196	0,053	0,091
-515,102	161,783	-0,101	-0,102
-514,087	800,000	0,017	-0,042
-513,072	-116,997	0,069	-0,009
-512,058	-200,000	0,020	-0,083
-511,043	-141,882	-0,065	-0,005
-510,029	36,788	0,141	0,089
-509,014	-200,000	0,010	-0,055
-507,999	-200,000	-0,027	-0,132
-506,985	223,837	-0,017	0,020
-505,970	-78,785	0,133	-0,032
-504,956	-200,000	-0,011	-0,131
-503,941	62,934	-0,049	-0,035
-502,926	-200,000	-0,016	0,095
-501,912	-24,097	0,057	-0,024
-500,897	0,591	0,037	-0,019
-499,883	-67,016	0,047	-0,013
-498,868	18,170	-0,072	0,042
-497,853	800,000	0,020	-0,057
-496,839	109,121	-0,029	-0,025
-495,824	391,522	0,045	0,068
-494,810	-200,000	-0,031	0,104
-493,795	371,178	-0,026	-0,039
-492,781	312,567	0,009	-0,012
-491,766	-87,396	0,100	-0,022
-490,751	-200,000	0,013	-0,134
-489,737	800,000	0,036	0,106
-488,722	-95,145	0,076	0,015
-487,708	236,566	0,011	-0,013
-486,693	-200,000	-0,002	-0,007
-485,678	-91,147	-0,105	0,022
-484,664	-200,000	0,007	-0,120
-483,649	800,000	0,006	0,014
-482,635	-78,807	-0,106	0,026
-481,620	648,196	0,077	0,142
-480,605	1,150	0,157	0,081
-479,591	-200,000	0,008	0,057
-478,576	370,259	-0,044	-0,064
-477,562	258,447	-0,110	-0,137
-476,547	55,376	0,006	-0,004
-475,532	-111,357	0,112	-0,016
-474,518	800,000	0,025	0,051
-473,503	33,483	-0,094	-0,058
-472,489	-76,237	-0,040	0,010
-471,474	-200,000	-0,014	0,090
-470,459	134,317	-0,009	0,008
-469,445	-193,696	-0,130	0,001
-468,430	-158,335	0,036	-0,001
-467,416	-200,000	0,030	0,129
-466,401	-200,000	0,016	-0,095
-465,386	764,642	0,043	-0,083
-464,372	-107,220	-0,110	0,017
-463,357	78,159	0,065	-0,050
-462,343	-200,000	0,028	-0,115
-461,328	-200,000	0,015	-0,047
-460,313	-81,874	-0,122	0,028
-459,299	27,130	0,076	0,046
-458,284	800,000	-0,024	0,059
-457,270	-145,172	0,086	0,006
-456,255	-200,000	0,027	-0,114
-455,241	661,399	0,052	-0,096
-454,226	6,247	-0,069	-0,037
-453,211	800,000	0,009	0,020
-452,197	21,113	-0,045	-0,026
-451,182	89,485	-0,020	-0,016
-450,168	-105,763	-0,051	-0,008
-449,153	800,000	-0,008	-0,021
-448,138	800,000	0,031	-0,069
-447,124	-200,000	0,025	-0,139
-446,109	-57,762	0,160	-0,050
-445,095	-200,000	0,019	-0,079
-444,080	401,804	-0,103	-0,156
-443,065	350,607	0,050	0,071
-442,051	208,437	0,030	-0,033
-441,036	530,877	-0,076	-0,130
-440,022	-116,647	0,022	0,003
-439,007	-110,037	-0,124	0,018
-437,992	-10,050	0,142	-0,068
-436,978	523,766	0,027	0,046
-435,963	-119,145	-0,003	0,000
-434,949	-18,976	-0,076	0,034
-433,934	-55,566	-0,150	-0,048
-432,919	-200,000	-0,028	0,108
-431,905	35,015	0,045	-0,028
-430,890	231,745	0,072	0,085
-429,876	-200,000	0,008	0,113
-428,861	409,157	0,015	0,023
-427,846	-15,184	0,091	-0,042
-426,832	800,000	0,021	0,062
-425,817	-200,000	-0,001	-0,118
-424,803	198,717	-0,042	0,046
-423,788	441,576	-0,016	-0,026
-422,773	7,832	0,090	-0,048
-421,759	-200,000	-0,018	0,083
-420,744	-200,000	-0,006	-0,032
-419,730	-200,000	0,006	0,031
-418,715	-48,746	-0,166	-0,057
-417,701	20,175	-0,098	0,057
-416,686	363,824	0,095	-0,138
-415,671	21,656	0,071	0,042
-414,657	-200,000	-0,015	0,082
-413,642	-200,000	0,011	0,113
-412,628	-200,000	-0,013	-0,072
-411,613	73,403	0,048	-0,036
-410,598	587,256	-0,047	0,084
-409,584	158,390	-0,164	0,163
-408,569	-14,931	0,070	-0,032
-407,555	-200,000	0,005	0,066
-406,540	277,939	-0,073	0,093
-405,525	800,000	-0,029	-0,089
-404,511	-11,446	-0,103	-0,048
-403,496	48,622	-0,082	-0,055
-402,482	-33,876	-0,114	0,045
-401,467	-57,911	-0,064	0,020
-400,452	-21,458	-0,117	-0,051
-399,438	21,025	-0,107	-0,062
-398,423	-13,021	0,033	0,015
-397,409	-200,000	-0,018	-0,076
-396,394	106,590	-0,122	-0,104
-395,379	-122,628	0,085	-0,010
-394,365	800,000	-0,016	-0,035
-393,350	0,829	0,114	0,058
-392,336	-200,000	-0,004	0,027
-391,321	800,000	0,044	0,138
-390,306	5,889	-0,054	-0,029
-389,292	-141,478	0,123	-0,009
-388,277	4,062	-0,026	0,014
-387,263	-80,118	0,073	0,017
-386,248	-200,000	-0,023	-0,147
-385,233	-75,471	0,036	-0,009
-384,219	-86,880	0,104	0,023
-383,204	-186,624	0,080	0,001
-382,190	230,481	0,070	0,082
-381,175	12,801	-0,071	-0,039
-380,160	-14,821	0,202	-0,093
-379,146	267,291	-0,039	-0,049
-378,131	-94,871	0,128	0,025
-377,117	-120,032	-0,138	-0,017
-376,102	7,025	-0,031	0,017
-375,088	370,739	-0,124	-0,180
-374,073	59,667	-0,017	0,012
-373,058	-78,072	0,134	-0,033
-372,044	-200,000	-0,054	0,000
-371,029	-132,246	0,095	0,009
-370,015	-67,413	-0,109	-0,030
-369,000	255,311	-0,084	0,103
-367,985	174,163	-0,058	-0,060
-366,971	88,700	-0,046	-0,036
-365,956	-131,732	0,140	-0,013
-364,942	-95,422	0,088	-0,017
-363,927	671,424	-0,020	0,038
-362,912	-200,000	0,007	-0,086
-361,898	-200,000	-0,005	0,106
-360,883	-200,000	-0,001	0,055
-359,869	-99,279	0,064	0,011
-358,854	-57,502	-0,106	-0,033
-357,839	800,000	-0,027	0,060
-356,825	800,000	-0,004	0,008
-355,810	-33,489	-0,036	-0,014
-354,796	800,000	-0,050	-0,123
-353,781	-200,000	0,005	-0,051
-352,766	-200,000	0,007	-0,151
-351,752	800,000	-0,042	-0,104
-350,737	217,271	-0,067	-0,076
-349,723	111,014	0,037	-0,032
-348,708	-200,000	0,007	0,068
-347,693	800,000	0,045	0,122
-346,679	158,348	-0,070	-0,070
-345,664	-9,660	0,050	-0,024
-344,650	-107,668	0,103	-0,016
-343,635	128,231	0,064	0,058
-342,620	-92,048	-0,085	0,017
-341,606	35,462	0,100	-0,062
-340,591	82,569	0,049	0,038
-339,577	-200,000	0,008	-0,097
-338,562	26,738	0,049	0,029
-337,548	800,000	0,055	-0,171
-336,533	-200,000	0,013	-0,091
-335,518	-133,971	0,142	-0,012
-334,504	346,002	0,077	-0,109
-333,489	-200,000	0,005	-0,023
-332,475	-14,251	0,100	-0,046
-331,460	45,956	-0,169	-0,111
-330,445	41,778	-0,097	-0,063
-329,431	-200,000	-0,001	-0,026
-328,416	248,578	0,079	-0,096
-327,402	407,784	-0,018	-0,028
-326,387	-113,049	0,026	0,004
-325,372	107,026	-0,107	-0,090
-324,358	-123,596	0,109	0,012
-323,343	325,521	0,131	-0,180
-322,329	-105,068	-0,088	0,014
-321,314	587,405	0,115	0,203
-320,299	-168,244	-0,033	0,001
-319,285	-200,000	-0,033	-0,144
-318,270	629,545	-0,025	-0,045
-317,256	-200,000	-0,014	0,076
-316,241	413,527	-0,080	0,123
-315,226	294,860	-0,030	0,039
-314,212	800,000	0,029	0,085
-313,197	800,000	-0,022	0,061
-312,183	-200,000	0,018	-0,064
-311,168	800,000	0,013	0,038
-310,153	800,000	-0,044	-0,093
-309,139	-200,000	0,008	0,043
-308,124	320,895	-0,062	0,084
-307,110	-83,012	0,147	0,034
-306,095	800,000	0,007	0,016
-305,080	454,821	-0,052	0,083
-304,066	301,278	0,022	-0,030
-303,051	-7,583	-0,064	0,031
-302,037	-200,000	0,026	-0,106
-301,022	408,680	0,046	-0,069
-300,008	800,000	-0,058	0,118
-298,993	-200,000	0,040	0,142
-297,978	114,034	-0,050	0,043
-296,964	405,113	-0,082	-0,124
-295,949	188,708	-0,035	-0,038
-294,935	800,000	0,042	0,084
-293,920	102,512	-0,045	0,037
-292,905	800,000	0,038	0,115
-291,891	800,000	-0,027	0,077
-290,876	144,045	0,064	-0,061
-289,862	-200,000	-0,011	0,072
-288,847	-200,000	-0,000	0,136
-287,832	698,081	-0,040	0,075
-286,818	800,000	-0,026	0,081
-285,803	-200,000	0,021	-0,068
-284,789	800,000	-0,052	-0,121
-283,774	-31,777	0,049	-0,020
-282,759	282,891	-0,065	0,083
-281,745	-47,475	-0,074	-0,026
-280,730	674,104	0,021	-0,039
-279,716	25,556	-0,055	0,032
-278,701	-64,610	-0,020	0,006
-277,686	-87,364	0,163	0,035
-276,672	757,540	0,038	0,073
-275,657	-28,856	-0,039	0,016
-274,643	-200,000	-0,030	-0,121
-273,628	186,913	0,029	-0,031
-272,613	-98,189	0,128	-0,023
-271,599	-200,000	0,006	-0,049
-270,584	-86,529	0,050	-0,011
-269,570	-15,544	0,086	0,039
-268,555	-92,929	-0,035	-0,007
-267,540	800,000	-0,018	-0,035
-266,526	-52,782	-0,171	-0,056
-265,511	-200,000	0,017	0,137
-264,497	492,284	0,027	-0,044
-263,482	-122,291	0,182	0,021
-262,467	104,528	-0,071	0,060
-261,453	48,469	-0,042	0,028
-260,438	554,359	-0,017	-0,029
-259,424	342,254	-0,059	0,083
-258,409	-127,046	-0,029	-0,003
-257,395	-125,810	0,074	-0,008
-256,380	171,123	0,092	0,095
-255,365	58,526	0,083	0,058
-254,351	21,013	-0,054	-0,031
-253,336	-200,000	-0,037	0,000
-252,322	-200,000	-0,004	-0,117
-251,307	-200,000	0,013	0,087
-250,292	-48,976	-0,035	0,012
-249,278	-62,123	0,025	-0,007
-248,263	-200,000	0,030	0,100
-247,249	-200,000	-0,015	0,100
-246,234	50,820	0,038	-0,025
-245,219	-104,056	0,106	-0,017
-244,205	-145,138	-0,071	-0,005
-243,190	-200,000	0,002	0,043
-242,176	-26,357	0,061	-0,026
-241,161	-200,000	0,003	0,051
-240,146	421,983	-0,055	0,084
-239,132	298,084	-0,030	-0,039
-238,117	34,475	-0,056	0,035
-237,103	304,133	-0,044	0,059
-236,088	-18,482	-0,123	0,054
-235,073	800,000	0,043	-0,095
-234,059	112,953	0,046	-0,040
-233,044	211,077	-0,043	0,048
-232,030	-200,000	0,019	0,104
-231,015	-94,275	0,053	0,010
-230,000	-200,000	-0,039	-0,145
-228,986	46,711	0,107	0,071
-227,971	-200,000	0,024	0,107
-226,957	80,386	0,096	-0,074
-225,942	-159,281	0,079	-0,003
-224,927	-124,462	0,055	-0,006
-223,913	279,051	-0,023	-0,029
-222,898	618,856	-0,060	-0,108
-221,884	-76,800	-0,145	0,036
-220,869	272,914	0,034	0,043
-219,855	226,485	0,106	0,123
-218,840	-130,624	0,083	-0,008
-217,825	-200,000	0,016	0,113
-216,811	280,128	0,063	-0,081
-215,796	294,261	-0,021	-0,027
-214,782	129,522	0,072	-0,065
-213,767	-200,000	-0,006	0,028
-212,752	9,042	0,135	0,072
-211,738	153,375	0,126	0,122
-210,723	63,149	-0,039	-0,028
-209,709	-127,065	-0,108	0,011
-208,694	-200,000	0,032	-0,148
-207,679	119,332	-0,054	0,047
-206,665	-200,000	0,003	-0,044
-205,650	-200,000	0,014	-0,050
-204,636	800,000	-0,017	-0,047
-203,621	-200,000	-0,026	-0,126
-202,606	-200,000	-0,000	-0,046
-201,592	-200,000	0,005	-0,042
-200,577	582,590	-0,064	0,111
-199,563	94,088	0,046	-0,037
-198,548	609,465	0,071	-0,127
-197,533	771,822	-0,085	0,166
-196,519	-200,000	0,002	0,215
-195,504	466,052	-0,030	-0,048
-194,490	81,004	-0,067	0,051
-193,475	800,000	0,037	-0,106
-192,460	220,494	-0,038	0,044
-191,446	126,252	0,046	-0,042
-190,431	-134,846	-0,069	0,006
-189,417	394,378	0,087	0,129
-188,402	-110,160	-0,154	-0,023
-187,387	-200,000	-0,045	-0,223
-186,373	-71,115	-0,126	-0,033
-185,358	800,000	-0,021	-0,050
-184,344	35,654	0,094	-0,059
-183,329	-200,000	-0,009	-0,072
-182,315	782,391	-0,034	-0,067
-181,300	305,792	-0,032	0,042
-180,285	800,000	0,034	-0,076
-179,271	353,719	-0,058	0,082
-178,256	210,020	-0,092	0,102
-177,242	-92,473	0,151	0,030
-176,227	645,837	0,038	0,069
-175,212	-24,691	0,110	0,046
-174,198	-200,000	0,015	-0,069
-173,183	-41,339	-0,077	-0,028
-172,169	132,950	-0,063	-0,058
-171,154	511,222	-0,031	-0,052
-170,139	-49,584	0,040	0,013
-169,125	24,819	-0,025	0,014
-168,110	455,770	0,029	0,045
-167,096	244,267	0,046	0,055
-166,081	-147,536	-0,226	-0,013
-165,066	-96,165	0,047	-0,009
-164,052	-200,000	-0,034	-0,141
-163,037	546,904	-0,092	-0,158
-162,023	615,378	0,033	0,059
-161,008	49,128	0,071	0,048
-159,993	226,347	-0,067	0,078
-158,979	-45,080	-0,058	-0,020
-157,964	-39,792	0,144	-0,053
-156,950	800,000	0,002	0,004
-155,935	-200,000	-0,003	-0,106
-154,920	-26,020	-0,024	-0,010
-153,906	-200,000	0,016	0,068
-152,891	-72,533	0,061	0,016
-151,877	56,099	0,064	0,044
-150,862	-2,346	-0,121	0,060
-149,847	-200,000	0,000	0,037
-148,833	-42,306	0,122	0,044
-147,818	628,520	-0,043	-0,077
-146,804	56,830	0,140	-0,097
-145,789	301,898	0,035	0,046
-144,775	-105,892	-0,089	0,014
-143,760	-42,801	0,040	-0,014
-142,745	-99,057	0,131	0,023
-141,731	283,041	0,062	-0,079
-140,716	19,492	0,224	0,127
-139,702	334,508	0,031	-0,043
-138,687	-160,342	-0,083	-0,003
-137,672	-200,000	0,006	-0,065
-136,658	78,440	-0,041	0,031
-135,643	-200,000	0,003	-0,064
-134,629	316,251	-0,077	-0,103
-133,614	-112,657	0,180	0,025
-132,599	-24,102	-0,130	0,055
-131,585	88,911	0,051	-0,040
-130,570	-200,000	0,019	0,107
-129,556	-200,000	-0,004	0,087
-128,541	-128,512	-0,077	0,008
-127,526	-16,059	0,112	-0,051
-126,512	-104,998	0,072	0,012
-125,497	-200,000	0,006	0,053
-124,483	-171,642	-0,070	-0,002
-123,468	-200,000	-0,009	0,221
-122,453	18,877	-0,090	0,051
-121,439	800,000	-0,022	-0,050
-120,424	-151,995	-0,095	-0,005
-119,410	800,000	-0,017	0,045
-118,395	276,061	-0,009	0,012
-117,380	22,650	0,013	0,008
-116,366	-78,049	-0,097	-0,023
-115,351	-114,503	0,138	0,019
-114,337	775,581	-0,041	0,079
-113,322	-200,000	0,010	-0,043
-112,307	-98,873	-0,146	-0,026
-111,293	-200,000	-0,007	0,075
-110,278	-99,641	-0,063	-0,011
-109,264	10,362	0,103	0,056
-108,249	-65,867	-0,157	-0,044
-107,234	707,249	0,050	-0,095
-106,220	800,000	-0,009	0,026
-105,205	-5,778	0,070	0,034
-104,191	41,378	-0,040	0,025
-103,176	-200,000	-0,017	0,055
-102,162	-155,450	-0,155	-0,007
-101,147	-18,844	-0,080	0,035
-100,132	-200,000	-0,001	-0,026
-99,118	-105,600	0,042	0,007
-98,103	-200,000	-0,005	-0,071
-97,089	-116,013	0,162	0,021
-96,074	116,705	0,053	-0,046
-95,059	-40,059	-0,089	-0,033
-94,045	186,966	-0,071	0,075
-93,030	-15,381	-0,121	-0,055
-92,016	800,000	-0,043	-0,097
-91,001	187,946	-0,085	-0,090
-89,986	800,000	-0,024	0,059
-88,972	-67,863	0,132	-0,036
-87,957	159,780	0,043	-0,042
-86,943	-200,000	-0,017	-0,193
-85,928	-38,501	0,069	-0,026
-84,913	-74,559	-0,025	-0,006
-83,899	-56,274	0,054	-0,017
-82,884	-121,958	0,020	-0,002
-81,870	800,000	-0,025	0,070
-80,855	261,733	-0,043	0,053
-79,840	-200,000	0,011	-0,141
-78,826	40,506	-0,057	0,036
-77,811	-146,995	-0,062	0,004
-76,797	68,323	0,060	-0,043
-75,782	-99,066	0,047	0,008
-74,767	800,000	0,038	0,094
-73,753	-4,215	0,067	-0,033
-72,738	400,082	0,049	0,074
-71,724	57,721	-0,081	-0,056
-70,709	-200,000	-0,001	-0,080
-69,694	-200,000	-0,016	0,055
-68,680	78,917	0,115	0,087
-67,665	-76,248	-0,023	-0,006
-66,651	-160,844	-0,169	0,006
-65,636	-3,513	0,089	-0,044
-64,622	-66,749	-0,135	0,038
-63,607	-200,000	0,010	-0,039
-62,592	800,000	-0,035	0,087
-61,578	147,973	0,091	0,087
-60,563	-0,884	0,107	0,053
-59,549	-200,000	0,021	0,101
-58,534	-2,129	-1,657	-0,821
-57,519	429,653	-1,358	-2,085
-56,505	-200,000	-0,720	-4,638
-55,490	358,705	1,008	1,429
-54,476	800,000	4,972	11,375
-53,461	-200,000	19,519	325,782
-52,446	-200,000	745,638	2332,714
-51,432	565,268	1657,675	2855,478
-50,417	76,977	1671,133	1254,755
-49,403	20,737	1544,216	882,564
-48,388	14,673	1466,755	808,790
-47,373	18,189	1457,085	820,421
-46,359	16,564	1446,739	806,771
-45,344	12,867	1442,211	786,500
-44,330	12,822	1440,120	785,112
-43,315	12,866	1438,497	784,408
-42,300	12,831	1436,717	783,241
-41,286	12,849	1435,468	782,613
-40,271	12,819	1434,043	781,662
-39,257	12,807	1433,077	781,048
-38,242	12,865	1431,726	780,558
-37,227	12,897	1430,403	779,957
-36,213	12,869	1429,063	779,062
-35,198	12,881	1427,821	778,411
-34,184	12,899	1427,134	778,092
-33,169	12,821	1425,622	776,868
-32,154	12,902	1424,412	776,557
-31,140	12,925	1423,205	775,978
-30,125	12,916	1422,319	775,422
-29,111	12,900	1421,034	774,617
-28,096	12,908	1419,977	774,047
-27,082	12,845	1418,735	773,042
-26,067	12,809	1417,861	772,367
-25,052	12,819	1416,703	771,750
-24,038	12,793	1415,726	771,065
-23,023	12,777	1414,784	770,448
-22,009	12,796	1413,684	769,908
-20,994	12,791	1412,876	769,411
-19,979	12,821	1411,949	769,018
-18,965	12,784	1410,966	768,277
-17,950	12,777	1409,876	767,619
-16,936	12,777	1409,076	767,154
-15,921	12,737	1407,877	766,283
-14,906	12,723	1407,167	765,805
-13,892	12,695	1406,158	765,094
-12,877	12,717	1405,508	764,809
-11,863	12,748	1404,353	764,296
-10,848	12,717	1403,641	763,733
-9,833	12,698	1402,782	763,146
-8,819	12,621	1401,975	762,322
-7,804	12,620	1401,135	761,829
-6,790	12,625	1400,019	761,214
-5,775	12,636	1398,849	760,599
-4,760	12,657	1397,717	760,053
-3,746	12,657	1396,803	759,526
-2,731	12,602	1396,261	758,946
-1,717	12,600	1395,292	758,379
-0,702	12,586	1393,427	757,271
0,313	16,469	1309,307	729,519
1,327	32,651	701,494	428,144
2,342	50,681	122,489	81,865
3,356	1,350	16,665	8,442
4,371	11,042	3,178	1,713
5,386	-3,962	0,489	0,239
6,400	-200,000	0,111	0,409
7,415	227,624	-0,210	-0,242
8,429	-47,669	-0,175	-0,060
9,444	50,330	-0,239	-0,159
10,459	-91,392	-0,327	-0,065
11,473	55,395	-0,179	-0,123
12,488	-62,667	-0,356	-0,104
13,502	146,375	-0,278	-0,263
14,517	42,847	-0,344	-0,221
15,531	50,446	-0,344	-0,229
16,546	126,290	-0,284	-0,254
17,561	236,058	-0,302	-0,353
18,575	143,586	-0,202	-0,190
19,590	86,408	-0,235	-0,183
20,604	-158,968	-0,273	-0,011
21,619	95,208	-0,410	-0,330
22,634	41,034	-0,466	-0,297
23,648	268,442	-0,353	-0,437
24,663	19,963	-0,442	-0,251
25,677	81,711	-0,353	-0,269
26,692	68,872	-0,321	-0,233
27,707	-52,915	-0,270	-0,087
28,721	67,973	-0,280	-0,202
29,736	-53,836	-0,393	-0,126
30,750	-27,876	-0,496	-0,202
31,765	14,141	-0,449	-0,246
32,780	204,756	-0,335	-0,367
33,794	-9,700	-0,466	-0,218
34,809	108,264	-0,226	-0,190
35,823	254,069	-0,227	-0,274
36,838	-12,964	-0,393	-0,180
37,853	167,335	-0,341	-0,342
38,867	18,252	-0,383	-0,215
39,882	151,005	-0,285	-0,273
40,896	20,689	-0,356	-0,203
41,911	117,454	-0,289	-0,250
42,926	-59,366	-0,522	-0,157
43,940	261,347	-0,288	-0,352
44,955	33,237	-0,362	-0,221
45,969	113,582	-0,348	-0,298
46,984	31,563	-0,318	-0,192
47,999	82,055	-0,205	-0,157
49,013	83,398	-0,448	-0,343
50,028	66,431	-0,387	-0,277
51,042	98,563	-0,361	-0,293
52,057	163,912	-0,325	-0,322
53,071	123,007	-0,236	-0,208
54,086	-13,249	-0,266	-0,121
55,101	94,893	-0,291	-0,233
56,115	-110,005	-0,367	-0,053
57,130	66,823	-0,262	-0,187
58,144	-10,642	-0,385	-0,179
59,159	-104,265	-0,439	-0,071
60,174	65,610	-0,371	-0,264
61,188	-89,279	-0,362	-0,074
62,203	154,283	-0,290	-0,280
63,217	-61,093	-0,239	-0,070
64,232	-20,686	-0,264	-0,113
65,247	73,812	-0,290	-0,214
66,261	49,458	-0,390	-0,258
67,276	189,499	-0,285	-0,301
68,290	-38,159	-0,370	-0,137
69,305	-57,067	-0,290	-0,089
70,320	-32,573	-0,351	-0,137
71,334	19,513	-0,302	-0,170
72,349	48,569	-0,291	-0,192
73,363	-69,070	-0,332	-0,089
74,378	330,810	-0,311	-0,422
75,393	45,004	-0,332	-0,214
76,407	800,000	-0,133	-0,331
77,422	7,391	-0,287	-0,150
78,436	642,170	-0,161	-0,289
79,451	6,135	-0,305	-0,158
80,466	84,822	-0,287	-0,221
81,480	36,012	-0,342	-0,211
82,495	104,464	-0,296	-0,245
83,509	208,868	-0,234	-0,258
84,524	422,990	-0,137	-0,207
85,539	22,748	-0,202	-0,116
86,553	107,867	-0,349	-0,291
87,568	66,331	-0,312	-0,222
88,582	46,354	-0,291	-0,189
89,597	800,000	-0,135	-0,338
90,611	74,836	-0,265	-0,195
91,626	219,575	-0,271	-0,305
92,641	-22,197	-0,277	-0,117
93,655	272,102	-0,212	-0,263
94,670	-14,957	-0,353	-0,158
95,684	149,559	-0,282	-0,268
96,699	104,150	-0,329	-0,271
97,714	27,772	-0,247	-0,146
98,728	64,000	-0,304	-0,214
99,743	-15,694	-0,291	-0,129
100,757	38,379	-0,255	-0,159
101,772	-47,973	-0,278	-0,094
102,787	88,859	-0,287	-0,224
103,801	203,957	-0,341	-0,371
104,816	93,883	-0,201	-0,159
105,830	293,715	-0,223	-0,286
106,845	88,032	-0,219	-0,170
107,860	319,442	-0,165	-0,219
108,874	-116,736	-0,270	-0,034
109,889	173,571	-0,239	-0,241
110,903	21,169	-0,278	-0,158
111,918	-57,967	-0,283	-0,086
112,933	-44,074	-0,266	-0,093
113,947	70,293	-0,258	-0,187
114,962	-43,648	-0,264	-0,093
115,976	236,920	-0,178	-0,207
116,991	-35,780	-0,361	-0,136
118,006	200,528	-0,244	-0,262
119,020	-89,040	-0,359	-0,074
120,035	209,333	-0,212	-0,233
121,049	-118,716	-0,239	-0,029
122,064	38,380	-0,212	-0,132
123,079	-114,847	-0,313	-0,041
124,093	177,371	-0,241	-0,246
125,108	20,844	-0,218	-0,124
126,122	164,740	-0,279	-0,275
127,137	32,519	-0,172	-0,104
128,151	377,408	-0,148	-0,213
129,166	143,405	-0,239	-0,222
130,181	7,540	-0,334	-0,174
131,195	47,076	-0,244	-0,159
132,210	122,528	-0,269	-0,235
133,224	-9,189	-0,214	-0,100
134,239	57,812	-0,222	-0,152
135,254	138,298	-0,176	-0,162
136,268	170,991	-0,147	-0,147
137,283	417,188	-0,148	-0,221
138,297	-11,417	-0,251	-0,115
139,312	155,784	-0,245	-0,236
140,327	64,944	-0,304	-0,214
141,341	-32,750	-0,264	-0,102
142,356	550,843	-0,197	-0,332
143,370	73,640	-0,201	-0,147
144,385	183,961	-0,204	-0,211
145,400	-43,490	-0,194	-0,068
146,414	45,392	-0,375	-0,241
147,429	800,000	-0,184	-0,380
148,443	-3,928	-0,263	-0,127
149,458	-49,103	-0,269	-0,089
150,473	-54,706	-0,207	-0,065
151,487	-4,941	-0,182	-0,087
152,502	53,236	-0,311	-0,208
153,516	8,261	-0,310	-0,162
154,531	-19,950	-0,258	-0,111
155,546	63,566	-0,144	-0,101
156,560	402,636	-0,165	-0,243
157,575	800,000	-0,095	-0,244
158,589	112,557	-0,140	-0,119
159,604	-200,000	-0,040	-0,251
160,619	213,540	-0,262	-0,289
161,633	134,548	-0,232	-0,210
162,648	153,239	-0,243	-0,232
163,662	49,958	-0,248	-0,163
164,677	62,409	-0,201	-0,140
165,692	155,899	-0,268	-0,258
166,706	28,489	-0,229	-0,135
167,721	76,424	-0,330	-0,243
168,735	203,218	-0,158	-0,170
169,750	62,186	-0,235	-0,163
170,764	709,647	-0,057	-0,105
171,779	-92,534	-0,268	-0,052
172,794	216,977	-0,208	-0,231
173,808	27,665	-0,196	-0,115
174,823	256,548	-0,167	-0,200
175,837	654,082	-0,176	-0,316
176,852	144,013	-0,211	-0,196
177,867	72,688	-0,261	-0,190
178,881	51,546	-0,295	-0,195
179,896	14,476	-0,209	-0,113
180,910	68,665	-0,258	-0,184
181,925	117,882	-0,286	-0,245
182,940	208,647	-0,232	-0,253
183,954	388,340	-0,121	-0,174
184,969	51,717	-0,197	-0,130
185,983	146,514	-0,156	-0,146
186,998	102,341	-0,233	-0,190
188,013	145,062	-0,198	-0,184
189,027	235,219	-0,207	-0,238
190,042	-163,059	-0,278	-0,009
191,056	-41,074	-0,271	-0,097
192,071	13,656	-0,357	-0,192
193,086	95,249	-0,297	-0,235
194,100	57,889	-0,099	-0,067
195,115	-39,933	-0,349	-0,126
196,129	105,994	-0,260	-0,214
197,144	50,780	-0,241	-0,159
198,159	384,199	-0,197	-0,283
199,173	-77,899	-0,212	-0,050
200,188	784,460	-0,070	-0,134
201,202	-107,455	-0,082	0,012
202,217	210,247	-0,163	-0,178
203,232	408,778	-0,172	-0,254
204,246	208,696	-0,253	-0,276
205,261	117,013	-0,158	-0,135
206,275	536,855	-0,122	-0,203
207,290	800,000	-0,051	-0,121
208,304	-127,670	-0,102	-0,010
209,319	353,478	-0,112	-0,155
210,334	367,797	-0,095	-0,134
211,348	153,425	-0,172	-0,164
212,363	47,749	-0,260	-0,168
213,377	11,109	-0,212	-0,112
214,392	152,864	-0,215	-0,204
215,407	385,640	-0,177	-0,254
216,421	216,285	-0,098	-0,108
217,436	156,542	-0,117	-0,112
218,450	31,680	-0,137	-0,082
219,465	27,780	-0,166	-0,097
220,480	108,098	-0,139	-0,115
221,494	197,321	-0,067	-0,071
222,509	-166,084	-0,146	0,004
223,523	5,929	-0,159	-0,081
224,538	69,391	-0,201	-0,143
225,553	143,737	-0,209	-0,193
226,567	-68,890	-0,306	-0,081
227,582	69,324	-0,204	-0,146
228,596	165,719	-0,228	-0,224
229,611	-140,611	-0,218	-0,015
230,626	109,915	-0,294	-0,244
231,640	-200,000	-0,009	-0,219
232,655	71,444	-0,265	-0,190
233,669	-45,543	-0,211	-0,072
234,684	227,188	-0,185	-0,209
235,699	50,121	-0,193	-0,126
236,713	-76,029	-0,237	-0,058
237,728	0,364	-0,270	-0,133
238,742	384,126	-0,091	-0,130
239,757	69,860	-0,197	-0,141
240,772	34,945	-0,203	-0,123
241,786	162,303	-0,228	-0,222
242,801	-93,949	-0,198	-0,037
243,815	60,604	-0,199	-0,136
244,830	-21,772	-0,260	-0,109
245,844	800,000	-0,052	-0,145
246,859	-132,084	-0,145	-0,013
247,874	225,064	-0,198	-0,222
248,888	264,487	-0,119	-0,144
249,903	156,037	-0,126	-0,120
250,917	-87,556	-0,256	-0,053
251,932	-114,343	-0,242	-0,032
252,947	209,925	-0,092	-0,100
253,961	-17,925	-0,266	-0,115
254,976	-3,942	-0,233	-0,111
255,990	-58,363	-0,264	-0,079
257,005	295,942	-0,153	-0,195
258,020	-15,183	-0,086	-0,038
259,034	128,991	-0,188	-0,166
260,049	130,906	-0,122	-0,108
261,063	109,524	-0,121	-0,101
262,078	-38,008	-0,316	-0,115
263,093	634,482	-0,162	-0,285
264,107	-12,325	-0,200	-0,090
265,122	800,000	-0,070	-0,180
266,136	184,980	-0,197	-0,202
267,151	57,730	-0,232	-0,156
268,166	66,937	-0,194	-0,136
269,180	-145,974	-0,204	-0,012
270,195	241,318	-0,100	-0,115
271,209	157,537	-0,150	-0,143
272,224	211,665	-0,063	-0,069
273,239	-21,822	-0,195	-0,082
274,253	-30,619	-0,146	-0,057
275,268	337,382	-0,132	-0,177
276,282	203,078	-0,147	-0,157
277,297	-1,744	-0,124	-0,060
278,312	7,409	-0,213	-0,109
279,326	-44,714	-0,184	0,063
280,341	8,272	-0,140	-0,073
281,355	193,368	-0,127	-0,132
282,370	72,717	-0,143	-0,103
283,384	213,251	-0,195	-0,213
284,399	175,126	-0,216	-0,216
285,414	-24,108	-0,202	-0,083
286,428	384,406	-0,122	-0,174
287,443	-5,904	-0,109	-0,051
288,457	-55,723	-0,155	-0,048
289,472	-74,324	-0,091	0,023
290,487	-63,139	-0,223	-0,063
291,501	370,045	-0,085	-0,119
292,516	71,097	-0,172	-0,123
293,530	84,828	-0,212	-0,160
294,545	466,172	-0,157	-0,243
295,560	664,919	-0,123	-0,220
296,574	-78,669	-0,170	-0,040
297,589	800,000	-0,072	-0,217
298,603	509,524	-0,093	-0,149
299,618	800,000	-0,107	-0,218
300,633	-41,538	-0,204	-0,072
301,647	242,261	-0,091	-0,105
302,662	11,809	-0,160	-0,085
303,676	-75,714	-0,239	-0,058
304,691	8,087	-0,139	-0,071
305,706	12,972	-0,314	-0,167
306,720	800,000	-0,085	-0,166
307,735	208,922	-0,086	-0,093
308,749	181,244	-0,091	-0,093
309,764	-200,000	-0,010	-0,136
310,779	357,708	-0,131	-0,181
311,793	402,621	-0,114	-0,165
312,808	681,141	-0,112	-0,201
313,822	232,902	-0,138	-0,157
314,837	-78,725	-0,188	-0,044
315,852	44,305	-0,150	-0,095
316,866	223,190	-0,053	-0,059
317,881	102,618	-0,185	-0,149
318,895	208,132	-0,174	-0,187
319,910	800,000	-0,131	-0,260
320,925	-200,000	-0,022	-0,114
321,939	3,082	-0,288	-0,144
322,954	424,931	-0,121	-0,179
323,968	74,544	-0,163	-0,118
324,983	-159,141	-0,070	-0,003
325,997	23,279	-0,085	-0,048
327,012	315,145	-0,238	-0,309
328,027	564,469	-0,135	-0,225
329,041	397,187	-0,065	-0,094
330,056	-200,000	0,012	-0,103
331,070	41,218	-0,224	-0,139
332,085	-184,635	-0,022	0,000
333,100	53,924	-0,215	-0,142
334,114	-121,604	-0,182	-0,021
335,129	61,284	-0,211	-0,144
336,143	327,750	-0,119	-0,157
337,158	-60,932	-0,150	-0,043
338,173	-121,141	-0,195	-0,022
339,187	-200,000	-0,009	0,033
340,202	489,505	-0,214	-0,337
341,216	108,352	-0,143	-0,117
342,231	160,104	-0,110	-0,106
343,246	35,967	-0,201	-0,121
344,260	800,000	-0,099	-0,202
345,275	800,000	-0,065	-0,154
346,289	-200,000	-0,060	-0,188
347,304	79,419	-0,093	-0,068
348,319	-50,207	-0,210	0,068
349,333	-131,977	-0,136	-0,012
350,348	149,510	-0,089	-0,083
351,362	24,780	-0,100	0,057
352,377	55,580	-0,139	-0,092
353,392	62,532	-0,112	-0,076
354,406	-33,271	0,069	-0,026
355,421	208,815	1312,816	1410,499
356,435	160,692	1473,277	1410,976
