DTS Sentinel unit serial number:	SN410029Multiplexer serial number:	ORYXHardware model number:	OX2-SRSoftware version number:	ORYX F/W v4,00 Oryx Data Collector v3.7.2.0data status	okinstallation	B3 Nyhavnadifferential loss correction	single-endedforward channel	channel 1reverse channel	N/Adate	2023/12/03time	11:37:30forward acquisition time	300,00reverse acquisition time	0,00gamma	499,1914k internal	0,3201k external	0,3201temperature offset calibration	1,0000default loss term (dB/km)	0,3820temperature slope calibration	1,0000multiplexer offset coefficient	1,0000multiplexer slope coefficient	1,0000fibre end	0,00T internal ref (°C)	13,56T ext. ref 1 (°C)	-1,10T ext. ref 2 (°C)	-1,11length (m)	temperature (°C)	Stokes	anti-Stokes-744,400	67,491	-0,292	-0,217
-743,385	-200,000	0,034	0,194
-742,371	-200,000	-0,012	-0,195
-741,356	-200,000	0,013	0,312
-740,342	22,071	-0,233	-0,138
-739,327	-200,000	0,058	0,263
-738,312	136,137	-0,179	-0,169
-737,298	-200,000	0,005	0,339
-736,283	84,306	-0,284	-0,225
-735,269	-200,000	0,062	0,352
-734,254	173,709	-0,204	-0,214
-733,239	-74,256	-0,144	0,038
-732,225	317,501	-0,302	-0,416
-731,210	-200,000	0,032	0,229
-730,196	-200,000	0,050	-0,175
-729,181	-71,044	-0,127	-0,034
-728,167	130,686	0,021	-0,020
-727,152	496,886	0,047	0,079
-726,137	49,517	-0,036	0,024
-725,123	41,310	-0,079	-0,052
-724,108	-200,000	-0,011	-0,038
-723,094	-128,068	-0,037	-0,004
-722,079	34,552	-0,109	-0,069
-721,064	-200,000	0,029	-0,145
-720,050	239,230	-0,064	-0,077
-719,035	-200,000	0,019	-0,100
-718,021	197,413	0,048	-0,053
-717,006	-25,494	-0,041	0,018
-715,991	-68,747	-0,090	0,025
-714,977	800,000	-0,049	0,100
-713,962	-200,000	-0,019	0,079
-712,948	135,429	0,085	0,080
-711,933	-162,533	-0,067	0,002
-710,918	44,200	0,052	0,035
-709,904	800,000	0,027	-0,069
-708,889	-31,487	0,092	-0,037
-707,875	122,221	-0,044	-0,040
-706,860	-77,863	0,075	0,019
-705,845	-200,000	0,014	-0,045
-704,831	142,270	-0,061	0,059
-703,816	-16,241	-0,175	-0,080
-702,802	-200,000	-0,003	-0,057
-701,787	378,605	-0,084	-0,126
-700,772	-18,571	0,176	0,079
-699,758	-200,000	-0,008	-0,057
-698,743	-62,656	0,126	-0,038
-697,729	-200,000	-0,020	0,073
-696,714	14,087	0,055	0,031
-695,699	-93,852	-0,099	-0,020
-694,685	800,000	-0,034	-0,105
-693,670	503,212	-0,049	-0,083
-692,656	3,347	0,165	-0,087
-691,641	250,756	-0,075	0,092
-690,627	800,000	0,004	0,008
-689,612	487,693	0,006	-0,009
-688,597	-200,000	-0,034	-0,122
-687,583	800,000	-0,043	-0,112
-686,568	-118,405	-0,038	-0,005
-685,554	540,408	0,074	0,128
-684,539	4,198	-0,020	-0,011
-683,524	457,773	-0,020	0,033
-682,510	98,500	-0,060	0,050
-681,495	178,950	-0,048	-0,051
-680,481	311,083	0,106	-0,144
-679,466	60,269	-0,072	-0,052
-678,451	-29,423	-0,071	0,029
-677,437	-39,387	0,096	0,036
-676,422	-10,018	-0,117	0,056
-675,408	124,678	-0,089	0,082
-674,393	5,438	0,145	0,078
-673,378	-119,233	-0,162	0,020
-672,364	-101,085	-0,128	-0,022
-671,349	800,000	0,018	-0,048
-670,335	-59,549	0,095	0,029
-669,320	-106,138	-0,087	0,014
-668,305	-66,376	0,108	-0,031
-667,291	-200,000	0,000	0,094
-666,276	-111,956	0,055	0,008
-665,262	-200,000	-0,015	-0,057
-664,247	-200,000	-0,004	-0,037
-663,232	350,493	-0,063	0,090
-662,218	286,839	-0,077	0,101
-661,203	800,000	-0,064	0,132
-660,189	138,720	-0,060	0,057
-659,174	-184,495	0,086	-0,001
-658,159	-102,561	-0,104	0,018
-657,145	676,238	-0,027	-0,051
-656,130	35,212	0,005	-0,003
-655,116	317,417	0,082	-0,113
-654,101	-97,594	-0,053	-0,010
-653,086	78,738	-0,128	0,099
-652,072	-200,000	-0,008	-0,071
-651,057	800,000	-0,091	-0,187
-650,043	-89,802	-0,062	-0,013
-649,028	-200,000	-0,019	-0,064
-648,014	93,768	0,050	0,041
-646,999	70,982	0,103	-0,077
-645,984	800,000	-0,032	-0,095
-644,970	800,000	0,024	0,073
-643,955	761,367	-0,069	-0,136
-642,941	447,196	-0,117	-0,187
-641,926	-200,000	0,032	-0,125
-640,911	-31,853	-0,044	-0,018
-639,897	282,695	0,019	0,024
-638,882	-144,418	0,007	-0,000
-637,868	11,887	0,039	-0,021
-636,853	440,122	0,016	-0,025
-635,838	-73,628	0,068	-0,018
-634,824	-200,000	0,001	-0,013
-633,809	-46,626	-0,131	0,046
-632,795	800,000	0,066	0,140
-631,780	800,000	-0,026	0,054
-630,765	267,032	-0,096	0,121
-629,751	568,155	-0,058	0,103
-628,736	-51,881	-0,106	-0,035
-627,722	68,786	-0,044	-0,033
-626,707	137,216	0,095	-0,090
-625,692	-79,604	-0,066	0,016
-624,678	800,000	-0,076	-0,205
-623,663	-110,179	-0,074	-0,011
-622,649	303,189	-0,027	0,036
-621,634	-200,000	-0,001	-0,095
-620,619	435,399	0,008	0,013
-619,605	412,482	-0,089	0,138
-618,590	17,216	0,167	0,096
-617,576	634,203	0,034	-0,062
-616,561	516,744	0,044	-0,075
-615,546	234,487	-0,025	-0,030
-614,532	-200,000	0,001	0,056
-613,517	444,166	0,014	-0,023
-612,503	800,000	0,021	0,047
-611,488	300,408	0,033	0,044
-610,474	601,562	0,066	-0,119
-609,459	800,000	-0,032	-0,090
-608,444	-41,760	0,056	-0,021
-607,430	800,000	0,003	0,008
-606,415	285,417	0,029	0,037
-605,401	800,000	0,019	-0,059
-604,386	800,000	0,033	0,099
-603,371	44,867	0,128	0,085
-602,357	-60,482	0,152	0,046
-601,342	-68,019	-0,136	-0,038
-600,328	-38,020	-0,083	-0,032
-599,313	145,636	-0,011	0,011
-598,298	-26,896	0,074	-0,031
-597,284	-200,000	0,005	-0,042
-596,269	554,819	-0,028	0,050
-595,255	800,000	0,013	-0,036
-594,240	-200,000	0,011	-0,077
-593,225	375,841	-0,014	-0,021
-592,211	180,404	-0,070	-0,075
-591,196	-177,686	0,088	0,002
-590,182	-200,000	-0,021	0,118
-589,167	4,287	-0,085	-0,045
-588,152	-200,000	0,025	-0,134
-587,138	153,069	0,061	0,060
-586,123	-200,000	0,040	0,142
-585,109	-95,781	0,093	-0,018
-584,094	-29,671	-0,123	-0,051
-583,079	-200,000	0,019	-0,099
-582,065	20,918	0,070	-0,041
-581,050	-133,638	0,092	0,008
-580,036	800,000	-0,003	-0,008
-579,021	-200,000	0,023	-0,161
-578,006	208,634	0,004	0,005
-576,992	-20,290	-0,093	0,041
-575,977	-83,906	-0,155	-0,035
-574,963	-200,000	-0,006	-0,063
-573,948	168,346	-0,041	0,042
-572,934	800,000	-0,022	-0,048
-571,919	173,648	-0,062	0,065
-570,904	-200,000	0,002	-0,114
-569,890	169,739	-0,008	-0,008
-568,875	398,227	-0,048	-0,073
-567,861	800,000	0,026	-0,060
-566,846	-200,000	0,028	0,138
-565,831	106,699	-0,050	0,043
-564,817	2,645	-0,121	-0,063
-563,802	-45,428	0,046	0,016
-562,788	226,474	-0,097	-0,114
-561,773	118,035	-0,109	0,097
-560,758	-111,136	0,103	0,015
-559,744	800,000	-0,017	0,044
-558,729	395,774	0,058	-0,087
-557,715	-99,673	-0,044	-0,008
-556,700	65,554	-0,114	-0,083
-555,685	-200,000	0,013	-0,063
-554,671	-200,000	-0,007	0,040
-553,656	-131,482	-0,145	-0,014
-552,642	-200,000	0,021	0,077
-551,627	400,171	0,053	0,081
-550,612	183,762	-0,139	-0,149
-549,598	667,619	-0,028	0,052
-548,583	54,635	0,122	0,085
-547,569	165,652	-0,152	-0,155
-546,554	-200,000	0,020	-0,121
-545,539	-93,366	0,090	-0,018
-544,525	-181,662	0,103	0,001
-543,510	224,849	0,092	0,108
-542,496	-200,000	-0,026	-0,133
-541,481	233,831	0,110	0,131
-540,466	-141,976	0,110	-0,008
-539,452	-200,000	-0,035	0,131
-538,437	17,750	0,035	0,020
-537,423	800,000	-0,012	-0,035
-536,408	800,000	0,047	0,095
-535,393	258,154	-0,029	-0,037
-534,379	215,452	0,058	-0,067
-533,364	103,486	-0,090	-0,076
-532,350	800,000	-0,032	0,079
-531,335	-66,463	0,108	-0,031
-530,321	800,000	-0,037	-0,086
-529,306	101,998	-0,020	0,017
-528,291	-200,000	0,023	-0,106
-527,277	800,000	-0,065	-0,134
-526,262	-200,000	-0,012	-0,115
-525,248	-18,654	0,069	-0,031
-524,233	-200,000	-0,004	-0,039
-523,218	800,000	-0,039	0,104
-522,204	-3,781	-0,017	0,009
-521,189	800,000	0,038	-0,088
-520,175	-103,123	-0,150	0,025
-519,160	471,570	0,045	-0,073
-518,145	186,055	0,050	-0,054
-517,131	334,031	-0,065	0,091
-516,116	-35,458	-0,059	-0,023
-515,102	-127,538	0,021	0,002
-514,087	26,608	-0,129	-0,078
-513,072	-79,190	-0,115	0,028
-512,058	30,444	-0,080	-0,049
-511,043	-200,000	-0,008	-0,048
-510,029	6,006	0,055	0,029
-509,014	-200,000	-0,002	-0,006
-507,999	-200,000	0,008	-0,050
-506,985	-47,010	-0,143	0,050
-505,970	800,000	0,029	-0,077
-504,956	193,334	-0,033	-0,036
-503,941	720,851	-0,048	-0,093
-502,926	251,584	0,055	0,068
-501,912	-200,000	0,041	0,182
-500,897	24,972	0,054	-0,032
-499,883	-151,064	-0,028	0,002
-498,868	269,976	-0,101	0,128
-497,853	-24,919	-0,088	-0,037
-496,839	103,840	0,085	-0,072
-495,824	75,530	0,147	-0,111
-494,810	146,082	-0,058	0,056
-493,795	21,184	-0,046	0,027
-492,781	-200,000	0,023	-0,106
-491,766	13,778	-0,046	0,026
-490,751	311,803	0,069	-0,094
-489,737	205,601	-0,022	-0,025
-488,722	-18,182	0,096	0,043
-487,708	-200,000	0,013	0,088
-486,693	83,597	0,044	0,034
-485,678	-84,261	0,082	0,019
-484,664	-88,434	-0,248	-0,053
-483,649	150,948	-0,048	-0,047
-482,635	27,819	0,071	-0,043
-481,620	800,000	0,020	0,062
-480,605	800,000	0,043	0,125
-479,591	-200,000	-0,009	-0,088
-478,576	143,691	0,089	-0,086
-477,562	95,279	0,096	-0,079
-476,547	463,856	-0,158	-0,255
-475,532	5,370	-0,009	-0,005
-474,518	-200,000	-0,039	0,143
-473,503	800,000	-0,067	0,213
-472,489	800,000	0,063	-0,129
-471,474	-200,000	0,017	0,152
-470,459	292,733	-0,123	-0,162
-469,445	-200,000	-0,008	0,145
-468,430	-11,150	-0,075	0,035
-467,416	280,905	0,077	-0,100
-466,401	-19,300	0,155	0,069
-465,386	67,359	0,100	0,074
-464,372	-200,000	0,004	-0,051
-463,357	800,000	0,040	-0,086
-462,343	-200,000	-0,002	-0,018
-461,328	306,090	0,053	0,071
-460,313	363,417	0,066	-0,095
-459,299	237,222	-0,073	0,087
-458,284	185,376	-0,049	0,052
-457,270	296,953	-0,043	-0,057
-456,255	50,582	0,069	-0,047
-455,241	44,914	0,032	0,021
-454,226	23,444	-0,033	-0,019
-453,211	185,041	-0,060	0,064
-452,197	716,823	0,055	-0,105
-451,182	-200,000	-0,035	0,196
-450,168	598,397	0,026	0,046
-449,153	710,647	0,030	0,058
-448,138	-107,504	-0,064	0,010
-447,124	-200,000	-0,034	0,154
-446,109	229,033	0,049	-0,057
-445,095	-117,684	-0,073	0,009
-444,080	195,657	0,071	0,078
-443,065	800,000	-0,030	0,081
-442,051	800,000	0,007	-0,018
-441,036	-93,649	0,055	-0,011
-440,022	-200,000	-0,002	-0,106
-439,007	800,000	-0,057	-0,122
-437,992	800,000	-0,061	0,176
-436,978	255,534	0,065	0,080
-435,963	177,972	0,121	0,127
-434,949	-200,000	0,005	-0,033
-433,934	470,707	-0,021	0,034
-432,919	172,735	-0,042	-0,044
-431,905	154,811	-0,078	-0,077
-430,890	-76,550	-0,034	0,009
-429,876	-200,000	-0,009	-0,067
-428,861	800,000	0,018	0,040
-427,846	97,353	-0,100	0,083
-426,832	-200,000	-0,023	-0,129
-425,817	-97,049	-0,090	0,017
-424,803	1,541	0,079	-0,041
-423,788	-87,354	0,098	-0,021
-422,773	365,737	0,055	-0,081
-421,759	48,178	0,032	-0,021
-420,744	-148,321	0,126	-0,007
-419,730	135,666	-0,036	-0,033
-418,715	-200,000	-0,012	0,060
-417,701	798,287	-0,022	-0,045
-416,686	-200,000	-0,017	-0,123
-415,671	74,353	0,149	0,112
-414,657	556,789	0,091	0,159
-413,642	464,888	0,085	0,136
-412,628	176,918	-0,037	0,039
-411,613	800,000	-0,010	0,030
-410,598	-200,000	-0,004	-0,095
-409,584	141,678	0,086	0,082
-408,569	39,509	0,075	0,048
-407,555	434,868	0,041	0,065
-406,540	800,000	0,066	0,145
-405,525	800,000	-0,045	-0,111
-404,511	-38,077	-0,060	0,023
-403,496	165,608	0,100	-0,102
-402,482	800,000	-0,028	0,064
-401,467	-200,000	-0,008	0,168
-400,452	49,037	0,097	0,065
-399,438	14,952	0,046	-0,026
-398,423	-200,000	0,008	-0,064
-397,409	24,809	-0,125	-0,074
-396,394	-200,000	-0,012	0,170
-395,379	-200,000	-0,005	0,092
-394,365	-200,000	0,001	0,095
-393,350	37,383	0,065	-0,041
-392,336	192,098	-0,028	0,031
-391,321	800,000	-0,044	0,106
-390,306	800,000	-0,045	0,135
-389,292	67,151	-0,159	-0,116
-388,277	179,475	-0,031	0,033
-387,263	50,962	0,002	-0,001
-386,248	41,281	0,099	0,064
-385,233	130,398	0,103	-0,095
-384,219	-38,723	0,122	-0,046
-383,204	-200,000	-0,003	0,016
-382,190	788,010	-0,007	0,013
-381,175	-200,000	0,021	0,071
-380,160	52,159	-0,049	0,033
-379,146	115,612	0,071	-0,062
-378,131	245,363	-0,043	0,052
-377,117	800,000	-0,047	0,103
-376,102	800,000	0,015	0,032
-375,088	-148,004	0,053	0,003
-374,073	-43,938	0,105	-0,037
-373,058	71,543	0,060	0,045
-372,044	-200,000	0,009	0,253
-371,029	207,859	0,084	0,094
-370,015	-200,000	-0,022	0,112
-369,000	530,720	-0,135	-0,230
-367,985	61,153	0,078	-0,055
-366,971	800,000	0,035	-0,083
-365,956	-64,891	0,089	-0,025
-364,942	-25,193	-0,114	0,048
-363,927	90,467	0,136	0,109
-362,912	-115,535	0,127	-0,017
-361,898	580,320	-0,042	-0,075
-360,883	-200,000	-0,020	-0,207
-359,869	-55,737	0,139	-0,044
-358,854	372,372	-0,057	-0,084
-357,839	30,060	0,062	0,038
-356,825	164,009	-0,116	-0,117
-355,810	11,849	-0,075	-0,041
-354,796	228,862	0,081	-0,095
-353,781	-200,000	0,007	0,035
-352,766	800,000	0,039	-0,089
-351,752	67,894	0,068	0,050
-350,737	411,728	-0,095	-0,145
-349,723	800,000	-0,031	0,091
-348,708	-200,000	-0,019	0,130
-347,693	222,575	0,067	0,077
-346,679	94,512	0,093	-0,076
-345,664	-200,000	-0,019	-0,104
-344,650	55,189	0,040	-0,028
-343,635	361,932	-0,069	0,099
-342,620	-109,364	-0,163	-0,025
-341,606	-87,362	0,152	-0,033
-340,591	354,478	-0,053	0,075
-339,577	-200,000	-0,013	-0,097
-338,562	-58,272	0,070	0,022
-337,548	182,128	-0,042	0,044
-336,533	-167,599	-0,015	0,000
-335,518	229,268	-0,042	0,050
-334,504	576,169	-0,087	0,153
-333,489	9,651	-0,063	-0,034
-332,475	91,465	-0,068	0,054
-331,460	-92,268	-0,078	-0,016
-330,445	220,579	0,040	0,046
-329,431	-200,000	0,014	0,050
-328,416	-200,000	0,034	0,127
-327,402	187,887	0,085	-0,091
-326,387	161,109	0,084	-0,084
-325,372	-200,000	-0,008	-0,101
-324,358	-200,000	-0,001	-0,067
-323,343	-200,000	-0,033	0,139
-322,329	800,000	0,023	0,064
-321,314	-122,889	0,016	-0,002
-320,299	-99,177	0,145	0,026
-319,285	-93,241	-0,049	-0,010
-318,270	-200,000	-0,015	0,117
-317,256	64,121	0,107	0,077
-316,241	-200,000	0,009	-0,044
-315,226	64,531	-0,007	-0,005
-314,212	445,249	-0,010	-0,016
-313,197	212,371	0,077	0,087
-312,183	-200,000	-0,035	-0,120
-311,168	241,503	0,043	-0,051
-310,153	47,126	-0,159	-0,106
-309,139	-200,000	0,003	0,016
-308,124	56,686	0,105	-0,073
-307,110	800,000	0,018	0,046
-306,095	-200,000	-0,009	0,067
-305,080	-71,443	-0,076	0,020
-304,066	25,735	0,059	0,035
-303,051	94,793	-0,084	0,068
-302,037	134,185	0,150	0,139
-301,022	-37,384	-0,086	-0,033
-300,008	14,964	0,099	-0,055
-298,993	69,245	0,035	-0,026
-297,978	-138,963	-0,080	0,006
-296,964	-200,000	0,007	-0,048
-295,949	-200,000	-0,022	0,000
-294,935	482,496	-0,023	0,037
-293,920	-200,000	0,034	0,112
-292,905	-200,000	-0,038	0,195
-291,891	2,382	-0,048	-0,025
-290,876	85,247	0,066	0,052
-289,862	-200,000	0,000	0,023
-288,847	171,143	-0,121	-0,124
-287,832	34,502	0,149	0,093
-286,818	-200,000	-0,001	-0,091
-285,803	-102,902	0,157	-0,026
-284,789	728,988	0,056	0,107
-283,774	-45,392	-0,106	0,037
-282,759	199,278	-0,055	-0,060
-281,745	-14,652	-0,034	0,016
-280,730	198,173	-0,082	-0,089
-279,716	36,216	0,069	-0,043
-278,701	800,000	0,017	0,046
-277,686	-200,000	-0,046	0,178
-276,672	216,610	-0,091	-0,103
-275,657	-124,437	0,202	0,022
-274,643	-118,119	-0,033	-0,004
-273,628	-145,534	-0,234	0,015
-272,613	181,850	0,056	-0,059
-271,599	-89,809	0,079	0,016
-270,584	-200,000	0,017	0,060
-269,570	404,757	-0,028	0,042
-268,555	219,787	-0,030	-0,034
-267,540	-200,000	-0,011	0,051
-266,526	9,620	-0,068	-0,037
-265,511	-178,776	-0,074	0,001
-264,497	59,677	0,139	-0,098
-263,482	150,999	0,054	-0,053
-262,467	800,000	0,055	0,145
-261,453	83,792	0,066	0,051
-260,438	-26,396	-0,159	0,066
-259,424	-183,019	-0,138	0,002
-258,409	465,816	-0,037	-0,059
-257,395	-200,000	-0,017	0,059
-256,380	800,000	0,028	0,084
-255,365	-5,167	-0,054	0,026
-254,351	-200,000	0,007	-0,038
-253,336	51,108	-0,029	0,020
-252,322	-59,156	-0,077	0,024
-251,307	96,959	-0,021	-0,017
-250,292	-200,000	-0,002	0,014
-249,278	-200,000	0,058	0,193
-248,263	-129,300	0,063	0,006
-247,249	-161,954	-0,070	0,002
-246,234	-127,309	-0,083	0,009
-245,219	10,713	-0,077	0,042
-244,205	91,413	-0,044	-0,035
-243,190	-13,625	-0,084	0,039
-242,176	260,520	-0,047	-0,058
-241,161	800,000	0,053	0,160
-240,146	123,472	-0,086	0,077
-239,132	225,987	-0,105	0,122
-238,117	158,965	0,169	-0,167
-237,103	-200,000	-0,015	-0,113
-236,088	149,597	-0,101	-0,097
-235,073	37,946	0,074	-0,047
-234,059	800,000	0,011	-0,034
-233,044	-200,000	-0,001	0,013
-232,030	10,890	0,041	-0,022
-231,015	-16,707	0,079	-0,036
-230,000	800,000	0,011	-0,030
-228,986	208,034	0,145	0,161
-227,971	-147,163	-0,074	-0,004
-226,957	800,000	-0,031	-0,071
-225,942	-200,000	-0,010	0,079
-224,927	108,098	-0,084	-0,072
-223,913	537,482	-0,087	-0,148
-222,898	783,966	0,019	-0,038
-221,884	-200,000	-0,013	-0,090
-220,869	-200,000	-0,016	0,057
-219,855	676,561	0,022	0,041
-218,840	-143,553	-0,108	0,007
-217,825	665,065	0,037	-0,068
-216,811	40,419	-0,055	0,036
-215,796	5,323	-0,061	-0,032
-214,782	-0,487	0,017	0,009
-213,767	299,057	0,032	0,042
-212,752	-55,707	0,019	0,006
-211,738	-200,000	-0,019	0,085
-210,723	-74,711	-0,057	-0,015
-209,709	49,084	-0,121	-0,081
-208,694	-135,448	-0,151	0,013
-207,679	206,412	0,051	0,056
-206,665	800,000	-0,064	-0,151
-205,650	-200,000	0,004	0,019
-204,636	-54,234	0,024	0,008
-203,621	490,616	0,047	0,077
-202,606	104,356	-0,018	-0,015
-201,592	27,982	-0,078	0,047
-200,577	-200,000	-0,035	0,131
-199,563	-3,424	0,117	0,058
-198,548	-83,446	0,184	-0,042
-197,533	-64,094	0,066	0,019
-196,519	288,360	0,055	-0,072
-195,504	219,562	-0,087	-0,099
-194,490	-87,643	0,090	0,019
-193,475	260,989	0,071	-0,088
-192,460	-200,000	0,005	-0,032
-191,446	751,800	-0,012	0,022
-190,431	-151,188	0,154	0,008
-189,417	-200,000	-0,011	0,044
-188,402	-49,350	-0,072	-0,024
-187,387	464,966	0,047	-0,075
-186,373	288,602	-0,053	-0,069
-185,358	-200,000	-0,020	0,072
-184,344	800,000	-0,013	0,033
-183,329	-133,664	0,058	-0,005
-182,315	516,259	-0,074	0,123
-181,300	-200,000	-0,002	-0,087
-180,285	-200,000	0,036	-0,117
-179,271	-70,492	-0,046	-0,012
-178,256	-32,399	0,239	-0,095
-177,242	9,061	0,092	0,049
-176,227	270,546	0,069	0,086
-175,212	-200,000	-0,011	0,102
-174,198	216,931	0,045	0,051
-173,183	800,000	-0,030	-0,089
-172,169	-163,382	-0,140	-0,005
-171,154	643,899	0,042	0,076
-170,139	112,040	-0,059	-0,050
-169,125	-200,000	-0,009	0,072
-168,110	357,946	-0,039	-0,055
-167,096	-200,000	0,006	0,112
-166,081	800,000	-0,055	-0,141
-165,066	-200,000	-0,025	-0,103
-164,052	-15,082	0,104	-0,047
-163,037	388,729	0,010	-0,015
-162,023	-99,854	-0,056	0,010
-161,008	-5,476	0,101	-0,049
-159,993	61,285	-0,105	0,074
-158,979	268,071	-0,047	-0,059
-157,964	-200,000	-0,008	0,064
-156,950	-52,469	-0,150	-0,049
-155,935	-94,065	0,093	0,018
-154,920	-24,434	0,102	-0,043
-153,906	197,404	0,016	0,017
-152,891	170,424	-0,075	0,076
-151,877	-200,000	-0,003	-0,157
-150,862	-12,545	-0,044	-0,020
-149,847	133,518	0,068	0,062
-148,833	800,000	-0,015	-0,040
-147,818	-200,000	-0,021	0,122
-146,804	-200,000	0,005	0,183
-145,789	-54,495	0,067	-0,022
-144,775	20,954	-0,076	0,044
-143,760	-71,745	-0,245	-0,064
-142,745	3,411	0,085	0,044
-141,731	172,947	-0,028	0,028
-140,716	800,000	0,042	0,084
-139,702	800,000	-0,015	-0,046
-138,687	0,190	0,054	0,027
-137,672	800,000	-0,029	0,067
-136,658	-200,000	-0,013	-0,115
-135,643	-52,108	-0,079	-0,026
-134,629	683,724	0,035	0,065
-133,614	-108,590	-0,004	-0,001
-132,599	31,534	0,091	-0,055
-131,585	-137,209	-0,045	-0,004
-130,570	-88,490	-0,115	0,024
-129,556	67,787	-0,016	-0,011
-128,541	-100,930	-0,081	-0,014
-127,526	389,884	-0,016	0,024
-126,512	706,692	0,028	0,052
-125,497	-200,000	0,001	0,100
-124,483	-21,723	0,129	0,056
-123,468	-110,879	-0,029	-0,004
-122,453	-5,962	0,057	0,028
-121,439	217,737	0,093	0,106
-120,424	19,733	0,134	-0,077
-119,410	178,937	0,046	0,048
-118,395	-59,798	0,080	0,024
-117,380	581,245	0,051	0,090
-116,366	456,992	0,082	0,130
-115,351	-128,504	0,019	-0,002
-114,337	-200,000	-0,023	-0,137
-113,322	276,804	0,033	0,042
-112,307	463,954	0,027	-0,044
-111,293	187,310	0,129	0,137
-110,278	40,255	0,076	-0,049
-109,264	412,176	-0,088	0,133
-108,249	-128,856	-0,082	-0,008
-107,234	-21,266	0,023	-0,010
-106,220	221,420	-0,036	0,041
-105,205	258,471	0,043	0,053
-104,191	-165,085	0,049	-0,002
-103,176	109,574	0,131	0,112
-102,162	63,355	0,167	0,118
-101,147	-200,000	-0,013	-0,042
-100,132	138,544	-0,144	-0,134
-99,118	582,909	0,043	-0,075
-98,103	8,483	-0,065	0,035
-97,089	-200,000	0,002	-0,030
-96,074	551,821	-0,038	0,066
-95,059	-200,000	-0,020	0,165
-94,045	615,357	-0,089	0,158
-93,030	-148,882	-0,035	-0,002
-92,016	45,953	-0,110	0,072
-91,001	55,812	0,054	0,037
-89,986	800,000	0,096	0,201
-88,972	-200,000	-0,012	0,090
-87,957	228,811	-0,032	0,037
-86,943	558,001	-0,059	0,102
-85,928	-168,889	0,103	0,003
-84,913	-200,000	0,004	-0,026
-83,899	800,000	0,031	-0,063
-82,884	-200,000	-0,000	-0,076
-81,870	800,000	0,051	0,117
-80,855	-150,755	0,129	-0,007
-79,840	800,000	-0,037	0,077
-78,826	33,386	0,060	0,037
-77,811	-102,601	-0,027	0,005
-76,797	127,379	-0,076	0,069
-75,782	-200,000	0,002	0,024
-74,767	-69,154	0,079	-0,022
-73,753	800,000	0,034	0,096
-72,738	800,000	0,027	-0,053
-71,724	81,621	0,065	-0,050
-70,709	-200,000	0,001	0,027
-69,694	800,000	0,013	0,031
-68,680	354,194	-0,055	-0,078
-67,665	800,000	0,025	-0,074
-66,651	-29,571	0,154	0,062
-65,636	-91,289	-0,078	0,016
-64,622	-168,050	-0,115	0,003
-63,607	699,975	0,062	-0,117
-62,592	70,829	-0,070	-0,052
-61,578	-166,150	0,169	-0,005
-60,563	-78,116	-0,120	0,029
-59,549	800,000	-0,026	-0,062
-58,534	-34,133	-1,565	-0,606
-57,519	460,678	-1,170	-1,853
-56,505	-200,000	-0,588	-4,512
-55,490	227,401	1,126	1,298
-54,476	800,000	4,833	11,008
-53,461	-200,000	19,168	316,581
-52,446	-200,000	739,727	2332,133
-51,432	576,170	1654,937	2874,017
-50,417	78,726	1670,642	1263,911
-49,403	21,590	1543,475	886,915
-48,388	15,424	1465,948	812,394
-47,373	17,909	1456,272	819,005
-46,359	16,714	1446,375	807,677
-45,344	13,714	1441,510	790,559
-44,330	13,609	1439,690	789,030
-43,315	13,608	1438,049	788,092
-42,300	13,598	1436,083	786,938
-41,286	13,611	1435,142	786,453
-40,271	13,596	1433,582	785,497
-39,257	13,591	1432,569	784,882
-38,242	13,591	1431,368	784,197
-37,227	13,610	1430,368	783,707
-36,213	13,649	1428,774	782,988
-35,198	13,672	1427,526	782,380
-34,184	13,667	1426,709	781,880
-33,169	13,621	1425,308	780,864
-32,154	13,681	1423,974	780,385
-31,140	13,659	1423,068	779,751
-30,125	13,710	1421,850	779,294
-29,111	13,690	1420,654	778,513
-28,096	13,665	1419,472	777,718
-27,082	13,599	1418,365	776,771
-26,067	13,625	1417,345	776,302
-25,052	13,586	1416,280	775,504
-24,038	13,585	1415,301	774,933
-23,023	13,532	1414,248	774,078
-22,009	13,540	1413,240	773,531
-20,994	13,542	1412,412	773,058
-19,979	13,552	1411,665	772,664
-18,965	13,532	1410,518	771,914
-17,950	13,563	1409,524	771,483
-16,936	13,603	1408,469	771,062
-15,921	13,511	1407,538	770,090
-14,906	13,516	1406,731	769,642
-13,892	13,534	1405,518	769,033
-12,877	13,518	1404,918	768,600
-11,863	13,467	1404,073	767,869
-10,848	13,496	1403,066	767,421
-9,833	13,469	1402,282	766,838
-8,819	13,446	1401,282	766,155
-7,804	13,411	1400,494	765,530
-6,790	13,380	1399,453	764,784
-5,775	13,447	1398,319	764,447
-4,760	13,450	1397,175	763,807
-3,746	13,425	1396,477	763,276
-2,731	13,378	1395,842	762,683
-1,717	13,373	1394,825	762,070
-0,702	13,371	1393,125	761,102
0,313	17,202	1310,435	733,685
1,327	33,455	704,280	431,897
2,342	51,530	123,388	82,839
3,356	2,241	16,715	8,522
4,371	23,452	3,058	1,775
5,386	47,166	0,561	0,369
6,400	800,000	0,069	0,169
7,415	747,549	-0,140	-0,268
8,429	39,397	-0,277	-0,175
9,444	-34,641	-0,431	-0,166
10,459	-2,585	-0,357	-0,176
11,473	202,344	-0,172	-0,188
12,488	280,171	-0,209	-0,264
13,502	-2,770	-0,262	-0,129
14,517	-65,590	-0,368	-0,104
15,531	41,563	-0,350	-0,224
16,546	73,089	-0,265	-0,195
17,561	280,797	-0,255	-0,323
18,575	9,569	-0,235	-0,125
19,590	344,155	-0,243	-0,337
20,604	-92,139	-0,179	0,035
21,619	107,327	-0,361	-0,303
22,634	-11,517	-0,375	-0,174
23,648	105,813	-0,352	-0,294
24,663	111,973	-0,405	-0,346
25,677	-74,565	-0,378	-0,095
26,692	132,127	-0,341	-0,310
27,707	11,211	-0,298	-0,161
28,721	-37,598	-0,469	-0,176
29,736	24,365	-0,335	-0,195
30,750	85,942	-0,542	-0,421
31,765	147,353	-0,342	-0,325
32,780	93,675	-0,375	-0,300
33,794	112,374	-0,292	-0,249
34,809	137,927	-0,224	-0,207
35,823	180,892	-0,353	-0,366
36,838	65,523	-0,402	-0,287
37,853	91,830	-0,453	-0,359
38,867	219,209	-0,258	-0,292
39,882	50,609	-0,379	-0,252
40,896	12,476	-0,442	-0,240
41,911	17,535	-0,306	-0,171
42,926	34,912	-0,478	-0,294
43,940	10,166	-0,369	-0,197
44,955	77,599	-0,480	-0,360
45,969	55,395	-0,328	-0,223
46,984	158,418	-0,420	-0,412
47,999	104,352	-0,288	-0,239
49,013	54,976	-0,323	-0,219
50,028	68,557	-0,201	-0,145
51,042	185,346	-0,298	-0,312
52,057	530,659	-0,224	-0,374
53,071	135,386	-0,328	-0,301
54,086	165,985	-0,290	-0,290
55,101	-0,096	-0,417	-0,208
56,115	47,088	-0,320	-0,209
57,130	485,526	-0,129	-0,208
58,144	-25,853	-0,402	-0,166
59,159	-15,877	-0,400	-0,179
60,174	123,750	-0,339	-0,300
61,188	-17,633	-0,286	-0,126
62,203	36,483	-0,301	-0,186
63,217	1,985	-0,371	-0,188
64,232	311,547	-0,229	-0,303
65,247	178,752	-0,341	-0,351
66,261	44,290	-0,353	-0,227
67,276	132,946	-0,349	-0,317
68,290	118,439	-0,269	-0,234
69,305	-55,895	-0,370	-0,116
70,320	-13,953	-0,385	-0,174
71,334	-72,807	-0,263	-0,068
72,349	-9,534	-0,395	-0,185
73,363	280,869	-0,293	-0,370
74,378	411,138	-0,222	-0,332
75,393	98,752	-0,292	-0,237
76,407	-33,234	-0,397	-0,154
77,422	-50,822	-0,307	-0,101
78,436	206,523	-0,349	-0,382
79,451	223,062	-0,194	-0,220
80,466	443,610	-0,158	-0,245
81,480	-103,785	-0,456	-0,074
82,495	-24,489	-0,369	-0,154
83,509	-31,995	-0,303	-0,118
84,524	-61,549	-0,373	-0,109
85,539	58,698	-0,289	-0,199
86,553	-66,286	-0,312	-0,087
87,568	7,718	-0,356	-0,187
88,582	7,216	-0,388	-0,203
89,597	70,989	-0,291	-0,212
90,611	116,531	-0,340	-0,293
91,626	22,895	-0,302	-0,173
92,641	-60,590	-0,362	-0,107
93,655	158,525	-0,253	-0,246
94,670	70,545	-0,424	-0,308
95,684	71,819	-0,347	-0,253
96,699	383,884	-0,176	-0,255
97,714	79,093	-0,294	-0,220
98,728	-76,215	-0,249	-0,061
99,743	37,151	-0,277	-0,172
100,757	49,136	-0,288	-0,190
101,772	6,867	-0,330	-0,172
102,787	39,117	-0,267	-0,167
103,801	-59,450	-0,187	-0,056
104,816	1,606	-0,296	-0,149
105,830	-7,541	-0,320	-0,151
106,845	-22,948	-0,287	-0,121
107,860	219,175	-0,224	-0,252
108,874	68,581	-0,341	-0,245
109,889	184,037	-0,230	-0,239
110,903	-1,518	-0,289	-0,142
111,918	108,300	-0,197	-0,165
112,933	-105,092	-0,308	-0,049
113,947	1,270	-0,191	-0,096
114,962	181,633	-0,170	-0,176
115,976	-53,292	-0,270	-0,086
116,991	118,592	-0,223	-0,192
118,006	264,278	-0,289	-0,353
119,020	-55,436	-0,329	-0,103
120,035	84,667	-0,178	-0,136
121,049	203,435	-0,229	-0,248
122,064	157,852	-0,218	-0,211
123,079	8,329	-0,251	-0,132
124,093	175,696	-0,246	-0,250
125,108	496,988	-0,135	-0,219
126,122	150,241	-0,199	-0,189
127,137	-6,098	-0,208	-0,099
128,151	37,885	-0,245	-0,152
129,166	-93,308	-0,181	-0,035
130,181	4,321	-0,228	-0,117
131,195	49,609	-0,286	-0,188
132,210	131,277	-0,220	-0,198
133,224	2,953	-0,194	-0,098
134,239	109,829	-0,208	-0,174
135,254	172,513	-0,123	-0,124
136,268	-51,423	-0,244	-0,079
137,283	188,842	-0,265	-0,278
138,297	140,028	-0,198	-0,183
139,312	164,995	-0,195	-0,192
140,327	243,920	-0,189	-0,222
141,341	-45,688	-0,354	-0,122
142,356	-35,400	-0,246	-0,093
143,370	47,615	-0,206	-0,134
144,385	-141,472	-0,202	-0,014
145,400	105,398	-0,238	-0,196
146,414	-3,078	-0,391	-0,190
147,429	186,349	-0,349	-0,363
148,443	136,896	-0,182	-0,166
149,458	128,782	-0,239	-0,213
150,473	800,000	-0,120	-0,276
151,487	-200,000	-0,081	-0,290
152,502	376,832	-0,222	-0,317
153,516	2,087	-0,240	-0,121
154,531	25,251	-0,224	-0,129
155,546	-118,633	-0,250	-0,030
156,560	194,189	-0,168	-0,178
157,575	593,923	-0,083	-0,143
158,589	800,000	-0,065	-0,126
159,604	10,385	-0,315	-0,167
160,619	52,860	-0,194	-0,129
161,633	-84,874	-0,324	-0,070
162,648	491,987	-0,103	-0,165
163,662	-97,381	-0,206	0,037
164,677	-72,476	-0,256	-0,065
165,692	149,849	-0,239	-0,226
166,706	19,754	-0,303	-0,170
167,721	130,127	-0,243	-0,217
168,735	-32,452	-0,274	-0,106
169,750	145,688	-0,216	-0,202
170,764	389,359	-0,138	-0,200
171,779	415,499	-0,104	-0,155
172,794	152,695	-0,060	-0,057
173,808	210,809	-0,201	-0,220
174,823	-32,233	-0,333	-0,129
175,837	-31,802	-0,263	-0,102
176,852	-12,443	-0,302	-0,137
177,867	336,894	-0,092	-0,125
178,881	-7,220	-0,187	-0,088
179,896	79,295	-0,237	-0,177
180,910	9,478	-0,225	-0,118
181,925	33,535	-0,191	-0,116
182,940	366,343	-0,172	-0,243
183,954	800,000	-0,131	-0,256
184,969	14,132	-0,179	-0,097
185,983	79,819	-0,060	0,045
186,998	-81,131	-0,141	-0,032
188,013	-31,624	-0,276	-0,107
189,027	334,095	-0,123	-0,167
190,042	231,844	-0,163	-0,186
191,056	113,415	-0,219	-0,185
192,071	-32,012	-0,150	-0,058
193,086	800,000	-0,070	-0,209
194,100	367,912	-0,184	-0,259
195,115	-39,248	-0,197	-0,072
196,129	-40,647	-0,224	-0,080
197,144	-80,224	-0,224	-0,052
198,159	-137,465	-0,188	-0,015
199,173	326,793	-0,110	-0,146
200,188	112,378	-0,110	-0,093
201,202	-21,399	-0,339	-0,143
202,217	-50,641	-0,179	-0,058
203,232	49,111	-0,258	-0,168
204,246	482,617	-0,133	-0,210
205,261	194,196	-0,126	-0,133
206,275	-41,006	-0,170	-0,061
207,290	-42,464	-0,205	-0,072
208,304	45,929	-0,141	-0,090
209,319	11,628	-0,139	-0,074
210,334	-0,856	-0,210	-0,103
211,348	-142,020	-0,195	-0,013
212,363	-53,960	-0,256	-0,080
213,377	-94,352	-0,243	-0,046
214,392	75,517	-0,161	-0,118
215,407	218,046	-0,107	-0,118
216,421	543,121	-0,069	-0,115
217,436	800,000	-0,094	-0,286
218,450	-200,000	-0,069	-0,298
219,465	411,639	-0,112	-0,166
220,480	-15,574	-0,395	-0,174
221,494	-38,592	-0,190	-0,069
222,509	-200,000	-0,042	-0,165
223,523	-164,024	-0,093	-0,003
224,538	543,815	-0,207	-0,345
225,553	-27,881	-0,235	-0,094
226,567	44,985	-0,283	-0,180
227,582	269,475	-0,121	-0,148
228,596	83,165	-0,162	-0,122
229,611	279,463	-0,121	-0,150
230,626	-53,584	-0,192	-0,060
231,640	-8,332	-0,198	-0,092
232,655	-48,389	-0,173	-0,058
233,669	226,910	-0,111	-0,125
234,684	-130,644	-0,207	0,019
235,699	-68,592	-0,217	-0,058
236,713	120,877	-0,194	-0,167
237,728	-81,839	-0,129	-0,029
238,742	-0,422	-0,157	-0,077
239,757	800,000	-0,078	-0,152
240,772	800,000	-0,095	-0,204
241,786	-90,316	-0,199	-0,040
242,801	-55,879	-0,159	0,049
243,815	-35,322	-0,205	-0,077
244,830	126,166	-0,249	-0,218
245,844	-77,929	-0,241	-0,057
246,859	-113,478	-0,207	-0,028
247,874	328,864	-0,216	-0,289
248,888	2,840	-0,259	-0,130
249,903	94,844	-0,165	-0,130
250,917	-42,307	-0,207	-0,073
251,932	-2,411	-0,134	-0,065
252,947	-13,500	-0,276	-0,123
253,961	-22,408	-0,104	-0,044
254,976	515,300	-0,124	-0,200
255,990	800,000	-0,143	-0,287
257,005	255,538	-0,235	-0,279
258,020	59,672	-0,228	-0,155
259,034	-6,052	-0,218	-0,103
260,049	305,123	-0,145	-0,187
261,063	141,419	-0,232	-0,212
262,078	-52,891	-0,261	-0,083
263,093	17,125	-0,322	-0,176
264,107	674,132	-0,150	-0,271
265,122	-25,849	-0,161	-0,065
266,136	319,766	-0,144	-0,190
267,151	-30,106	-0,147	-0,057
268,166	54,330	-0,271	-0,180
269,180	-70,127	-0,163	-0,042
270,195	-24,608	-0,212	-0,087
271,209	380,500	-0,084	-0,120
272,224	-200,000	-0,056	-0,242
273,239	800,000	-0,087	-0,179
274,253	36,281	-0,130	-0,079
275,268	-132,316	-0,242	-0,021
276,282	439,761	-0,185	-0,280
277,297	313,202	-0,147	-0,192
278,312	180,302	-0,194	-0,197
279,326	-18,936	-0,160	-0,068
280,341	312,783	-0,072	-0,093
281,355	319,937	-0,067	-0,088
282,370	-200,000	-0,007	-0,162
283,384	-200,000	-0,026	-0,131
284,399	477,351	-0,067	-0,105
285,414	163,092	-0,197	-0,192
286,428	288,613	-0,117	-0,147
287,443	-200,000	-0,032	-0,116
288,457	296,115	-0,058	-0,074
289,472	-76,286	-0,145	-0,035
290,487	276,569	-0,123	-0,151
291,501	337,180	-0,190	-0,256
292,516	103,650	-0,173	-0,140
293,530	241,649	-0,073	-0,085
294,545	257,744	-0,116	-0,138
295,560	60,095	-0,134	-0,091
296,574	-73,791	-0,202	-0,050
297,589	-44,028	-0,074	-0,025
298,603	494,163	-0,140	-0,222
299,618	293,544	-0,146	-0,184
300,633	-20,920	-0,216	-0,091
301,647	69,029	-0,178	-0,126
302,662	-200,000	-0,022	-0,099
303,676	-200,000	-0,010	0,029
304,691	800,000	-0,087	-0,248
305,706	9,567	-0,134	-0,070
306,720	700,482	-0,103	-0,188
307,735	135,682	-0,168	-0,150
308,749	-145,460	-0,267	0,016
309,764	293,896	-0,085	-0,108
310,779	-36,441	-0,206	-0,076
311,793	121,347	-0,125	-0,107
312,808	121,644	-0,274	-0,235
313,822	92,205	-0,155	-0,120
314,837	-56,343	-0,134	0,041
315,852	-83,417	-0,190	-0,041
316,866	162,447	-0,101	-0,097
317,881	115,353	-0,097	-0,081
318,895	22,632	-0,146	-0,082
319,910	309,269	-0,139	-0,179
320,925	189,308	-0,153	-0,158
321,939	-200,000	-0,054	-0,212
322,954	122,529	-0,122	-0,105
323,968	-200,000	-0,041	-0,346
324,983	-200,000	0,003	-0,182
325,997	-200,000	0,018	0,059
327,012	98,326	-0,150	-0,119
328,027	350,335	-0,078	-0,106
329,041	83,990	-0,083	-0,062
330,056	195,841	-0,090	-0,094
331,070	51,618	-0,124	-0,081
332,085	208,300	-0,162	-0,175
333,100	-57,134	-0,140	0,042
334,114	-39,261	-0,080	0,029
335,129	146,140	-0,129	-0,119
336,143	-87,852	-0,137	-0,028
337,158	-7,200	-0,106	0,049
338,173	49,152	-0,090	0,058
339,187	-131,148	-0,097	-0,009
340,202	103,775	-0,222	-0,179
341,216	614,718	-0,075	-0,130
342,231	519,272	-0,065	-0,106
343,246	-200,000	-0,103	-0,323
344,260	-200,000	0,021	-0,192
345,275	-200,000	0,005	-0,086
346,289	-200,000	-0,031	-0,151
347,304	15,805	-0,136	-0,073
348,319	-200,000	-0,035	-0,164
349,333	205,170	-0,094	-0,100
350,348	-123,242	-0,126	0,014
351,362	600,877	-0,073	-0,125
352,377	-11,289	-0,101	-0,045
353,392	-19,015	-0,067	-0,029
354,406	36,091	-0,080	0,048
355,421	208,350	1315,224	1412,352
356,435	160,305	1476,028	1412,839
