DTS Sentinel unit serial number:	SN410029Multiplexer serial number:	ORYXHardware model number:	OX2-SRSoftware version number:	ORYX F/W v4,00 Oryx Data Collector v3.7.2.0data status	okinstallation	B3 Nyhavnadifferential loss correction	single-endedforward channel	channel 1reverse channel	N/Adate	2023/12/02time	03:32:30forward acquisition time	300,00reverse acquisition time	0,00gamma	499,1914k internal	0,3194k external	0,3194temperature offset calibration	1,0000default loss term (dB/km)	0,3820temperature slope calibration	1,0000multiplexer offset coefficient	1,0000multiplexer slope coefficient	1,0000fibre end	0,00T internal ref (°C)	16,64T ext. ref 1 (°C)	1,66T ext. ref 2 (°C)	1,65length (m)	temperature (°C)	Stokes	anti-Stokes-744,400	795,898	-0,136	-0,274
-743,385	556,511	0,169	0,298
-742,371	800,000	-0,086	-0,245
-741,356	-200,000	-0,018	0,360
-740,342	800,000	-0,114	-0,274
-739,327	-200,000	0,015	0,236
-738,312	277,877	-0,199	-0,258
-737,298	800,000	0,112	0,350
-736,283	39,726	-0,291	-0,190
-735,269	-200,000	-0,015	0,502
-734,254	43,531	-0,260	-0,173
-733,239	-51,186	-0,123	0,042
-732,225	800,000	-0,155	-0,322
-731,210	387,823	0,074	0,112
-730,196	800,000	-0,033	0,074
-729,181	800,000	0,050	-0,148
-728,167	57,518	-0,058	0,041
-727,152	800,000	0,046	0,116
-726,137	-58,288	0,100	-0,031
-725,123	-200,000	-0,032	0,000
-724,108	-90,288	-0,173	0,036
-723,094	179,551	-0,102	-0,109
-722,079	11,860	0,038	0,021
-721,064	800,000	0,012	0,030
-720,050	29,353	-0,069	-0,043
-719,035	800,000	0,018	0,036
-718,021	-30,440	-0,159	0,065
-717,006	-200,000	0,022	0,082
-715,991	800,000	-0,018	-0,046
-714,977	-200,000	0,036	-0,122
-713,962	-29,104	-0,095	-0,040
-712,948	258,427	-0,066	-0,083
-711,933	-200,000	0,010	-0,121
-710,918	-200,000	0,015	-0,082
-709,904	-63,926	-0,040	0,012
-708,889	506,852	-0,085	0,144
-707,875	113,756	-0,102	-0,090
-706,860	-200,000	-0,001	-0,050
-705,845	706,720	-0,013	-0,026
-704,831	800,000	0,041	0,086
-703,816	-115,615	0,039	-0,005
-702,802	272,595	-0,047	0,060
-701,787	-200,000	-0,010	-0,159
-700,772	-45,959	-0,059	0,021
-699,758	126,607	-0,022	-0,021
-698,743	117,645	0,074	-0,066
-697,729	200,772	0,015	-0,017
-696,714	-200,000	-0,022	-0,076
-695,699	-200,000	0,004	-0,049
-694,685	180,907	-0,076	-0,081
-693,670	-200,000	-0,165	0,000
-692,656	217,157	-0,090	-0,105
-691,641	800,000	0,035	0,082
-690,627	-200,000	-0,065	0,000
-689,612	195,355	-0,050	-0,056
-688,597	-7,572	-0,162	0,080
-687,583	46,035	0,046	0,031
-686,568	-117,490	-0,060	-0,008
-685,554	-200,000	-0,019	-0,117
-684,539	-200,000	0,013	0,047
-683,524	467,632	-0,086	-0,140
-682,510	-107,255	0,101	-0,016
-681,495	134,128	-0,063	0,060
-680,481	-13,779	0,041	-0,019
-679,466	-93,726	-0,099	0,020
-678,451	-200,000	0,014	0,116
-677,437	-74,171	-0,105	-0,027
-676,422	339,144	0,035	0,049
-675,408	315,256	0,040	0,056
-674,393	-117,536	0,171	-0,022
-673,378	226,052	-0,054	0,064
-672,364	-0,612	-0,088	-0,045
-671,349	-21,633	0,144	-0,063
-670,335	-200,000	-0,029	-0,174
-669,320	194,888	-0,057	-0,063
-668,305	-124,101	-0,124	0,014
-667,291	-200,000	-0,032	0,106
-666,276	-112,843	0,080	0,011
-665,262	34,889	-0,126	-0,080
-664,247	149,186	-0,081	-0,080
-663,232	-1,505	-0,116	-0,059
-662,218	205,766	0,080	-0,091
-661,203	57,568	-0,052	-0,037
-660,189	-200,000	-0,005	-0,022
-659,174	33,944	-0,096	-0,061
-658,159	-200,000	0,018	-0,101
-657,145	-125,052	-0,108	0,012
-656,130	-23,613	0,081	0,035
-655,116	155,283	0,058	0,059
-654,101	63,700	0,057	0,041
-653,086	198,009	0,102	0,113
-652,072	22,568	0,041	-0,025
-651,057	84,320	0,064	-0,051
-650,043	-200,000	-0,002	-0,114
-649,028	18,809	-0,051	0,029
-648,014	409,739	-0,020	-0,031
-646,999	800,000	-0,036	-0,113
-645,984	-200,000	-0,002	0,017
-644,970	162,274	0,047	0,048
-643,955	-21,268	-0,034	-0,015
-642,941	563,134	-0,020	0,035
-641,926	800,000	0,064	-0,160
-640,911	-200,000	-0,007	0,102
-639,897	-200,000	0,028	-0,176
-638,882	145,259	-0,034	0,033
-637,868	348,042	-0,056	0,080
-636,853	-15,046	-0,153	0,071
-635,838	800,000	-0,035	-0,083
-634,824	-200,000	0,003	-0,013
-633,809	-53,994	-0,078	-0,026
-632,795	41,683	0,151	0,099
-631,780	231,927	0,097	0,116
-630,765	-48,830	-0,066	-0,023
-629,751	393,077	0,052	-0,078
-628,736	138,501	-0,084	0,080
-627,722	-49,439	0,136	0,047
-626,707	-149,273	-0,157	0,009
-625,692	268,083	-0,018	-0,023
-624,678	240,137	0,049	-0,060
-623,663	-55,662	0,124	0,040
-622,649	800,000	-0,032	-0,091
-621,634	514,294	0,025	0,043
-620,619	-125,050	-0,150	0,016
-619,605	117,443	0,119	-0,106
-618,590	691,451	-0,049	0,093
-617,576	-200,000	0,010	0,076
-616,561	26,844	-0,101	0,061
-615,546	-200,000	-0,046	-0,159
-614,532	800,000	0,056	-0,131
-613,517	367,088	-0,075	-0,110
-612,503	-200,000	0,003	0,050
-611,488	207,048	0,061	-0,069
-610,474	-11,209	0,122	-0,058
-609,459	-177,827	-0,109	0,002
-608,444	800,000	-0,017	-0,040
-607,430	22,631	-0,018	-0,011
-606,415	29,437	-0,137	-0,084
-605,401	387,669	-0,013	0,020
-604,386	-81,234	-0,107	-0,025
-603,371	-105,170	0,019	0,003
-602,357	-48,757	-0,062	0,021
-601,342	74,295	-0,129	-0,098
-600,328	-200,000	-0,011	-0,128
-599,313	-200,000	0,002	-0,047
-598,298	156,353	0,018	0,018
-597,284	800,000	0,040	-0,108
-596,269	-188,070	0,087	-0,001
-595,255	475,366	-0,019	0,030
-594,240	6,483	0,073	0,039
-593,225	-200,000	-0,002	-0,089
-592,211	-200,000	-0,013	-0,058
-591,196	412,744	0,055	-0,085
-590,182	201,514	-0,072	0,080
-589,167	163,162	0,109	0,111
-588,152	-43,494	-0,079	0,029
-587,138	-133,959	-0,027	0,002
-586,123	7,138	0,049	-0,026
-585,109	42,219	-0,033	0,022
-584,094	-106,382	0,062	-0,010
-583,079	146,120	0,051	0,049
-582,065	800,000	-0,032	-0,098
-581,050	377,754	0,062	-0,093
-580,036	21,897	0,041	0,024
-579,021	-114,518	-0,127	0,017
-578,006	-57,939	0,091	-0,029
-576,992	-200,000	-0,045	-0,151
-575,977	50,572	0,101	-0,069
-574,963	15,674	-0,100	0,057
-573,948	431,664	0,062	0,098
-572,934	420,318	0,077	0,121
-571,919	82,487	-0,201	-0,158
-570,904	-46,250	-0,110	0,039
-569,890	800,000	-0,019	-0,057
-568,875	290,376	-0,047	0,061
-567,861	-200,000	0,028	-0,099
-566,846	-200,000	-0,003	-0,059
-565,831	-56,069	-0,231	-0,074
-564,817	424,927	-0,038	-0,059
-563,802	800,000	-0,013	-0,037
-562,788	-94,849	-0,169	-0,033
-561,773	157,492	-0,012	0,012
-560,758	538,506	-0,022	0,037
-559,744	-200,000	0,025	0,122
-558,729	185,489	0,087	0,093
-557,715	115,343	-0,108	0,095
-556,700	-124,421	-0,095	-0,011
-555,685	-113,157	-0,106	0,015
-554,671	-36,996	0,089	-0,034
-553,656	-200,000	0,006	0,149
-552,642	-111,489	-0,075	-0,011
-551,627	-200,000	-0,006	-0,051
-550,612	236,808	-0,103	-0,124
-549,598	18,932	0,017	-0,010
-548,583	-195,597	-0,089	0,000
-547,569	-18,084	0,111	0,050
-546,554	-200,000	0,002	-0,049
-545,539	275,703	0,028	-0,036
-544,525	800,000	0,039	0,108
-543,510	-200,000	-0,007	-0,027
-542,496	129,585	-0,069	-0,064
-541,481	253,424	-0,056	-0,069
-540,466	800,000	0,026	-0,065
-539,452	189,105	0,050	-0,054
-538,437	-200,000	0,031	0,000
-537,423	800,000	0,023	-0,063
-536,408	-200,000	-0,016	0,074
-535,393	-200,000	-0,014	-0,111
-534,379	-10,287	-0,072	-0,034
-533,364	287,603	0,066	-0,086
-532,350	379,636	0,042	0,062
-531,335	398,392	-0,028	0,042
-530,321	-200,000	-0,017	-0,092
-529,306	-200,000	-0,026	-0,083
-528,291	-200,000	-0,006	-0,035
-527,277	92,465	0,060	-0,049
-526,262	-118,624	-0,114	0,014
-525,248	-200,000	0,016	0,053
-524,233	392,187	0,086	0,129
-523,218	292,966	0,080	0,106
-522,204	-69,668	-0,040	0,011
-521,189	613,621	0,033	-0,060
-520,175	-200,000	0,016	0,074
-519,160	-66,054	0,087	0,025
-518,145	310,887	0,056	0,076
-517,131	-200,000	-0,013	-0,057
-516,116	-26,462	0,018	0,007
-515,102	-200,000	-0,001	0,044
-514,087	-200,000	-0,028	-0,100
-513,072	71,608	0,158	-0,119
-512,058	-128,761	-0,061	-0,006
-511,043	45,202	-0,021	-0,014
-510,029	103,745	0,042	0,036
-509,014	66,121	-0,058	-0,043
-507,999	650,103	-0,058	0,107
-506,985	82,613	-0,044	0,035
-505,970	-200,000	-0,035	-0,136
-504,956	800,000	0,028	-0,072
-503,941	-200,000	0,000	0,076
-502,926	285,309	0,104	0,136
-501,912	282,672	0,049	0,063
-500,897	90,481	-0,128	-0,104
-499,883	-200,000	-0,021	0,128
-498,868	-84,684	-0,065	0,015
-497,853	-200,000	-0,053	-0,232
-496,839	26,264	0,021	-0,012
-495,824	37,762	-0,098	-0,062
-494,810	230,641	0,090	0,107
-493,795	-200,000	0,018	-0,061
-492,781	800,000	0,036	-0,106
-491,766	431,219	0,051	-0,080
-490,751	800,000	-0,033	-0,092
-489,737	-29,326	0,108	0,045
-488,722	49,416	0,029	0,020
-487,708	800,000	0,006	-0,012
-486,693	41,943	-0,017	-0,011
-485,678	41,446	0,106	0,069
-484,664	-23,469	-0,141	-0,061
-483,649	117,407	0,003	-0,003
-482,635	25,294	-0,069	-0,041
-481,620	655,240	-0,123	-0,229
-480,605	551,833	-0,064	0,111
-479,591	-59,429	0,164	0,050
-478,576	-200,000	-0,012	0,069
-477,562	174,855	0,044	-0,046
-476,547	-200,000	0,020	-0,103
-475,532	65,552	0,085	-0,062
-474,518	800,000	-0,063	0,146
-473,503	800,000	-0,033	0,087
-472,489	247,235	-0,145	0,177
-471,474	30,993	0,031	-0,019
-470,459	340,094	-0,070	-0,099
-469,445	-17,396	-0,099	0,045
-468,430	-200,000	0,016	0,091
-467,416	171,512	0,017	-0,017
-466,401	7,162	0,052	0,028
-465,386	500,122	0,063	0,105
-464,372	149,435	-0,046	0,044
-463,357	199,269	-0,017	0,018
-462,343	-88,579	-0,153	-0,033
-461,328	15,052	-0,156	-0,088
-460,313	259,494	0,094	0,117
-459,299	183,925	0,083	0,088
-458,284	-142,063	-0,050	0,004
-457,270	153,241	0,066	0,065
-456,255	-76,502	-0,072	-0,018
-455,241	-200,000	0,003	0,058
-454,226	-51,783	0,115	-0,038
-453,211	-126,684	0,123	-0,013
-452,197	-54,829	0,039	-0,013
-451,182	-200,000	0,014	0,071
-450,168	-200,000	0,017	-0,087
-449,153	-200,000	-0,018	0,142
-448,138	-36,621	-0,148	0,057
-447,124	62,133	0,021	0,015
-446,109	188,130	-0,059	0,063
-445,095	-102,515	0,155	0,026
-444,080	-85,697	0,141	0,031
-443,065	-200,000	-0,002	-0,144
-442,051	-62,106	-0,098	-0,029
-441,036	-118,429	0,085	-0,011
-440,022	64,879	0,059	-0,043
-439,007	19,613	-0,021	-0,012
-437,992	-200,000	-0,020	-0,180
-436,978	800,000	-0,002	-0,005
-435,963	91,046	0,070	0,057
-434,949	259,747	0,027	-0,033
-433,934	800,000	0,042	0,106
-432,919	-71,315	-0,046	0,012
-431,905	479,330	-0,015	-0,025
-430,890	800,000	-0,030	-0,084
-429,876	243,360	0,065	0,078
-428,861	800,000	-0,037	0,112
-427,846	800,000	-0,036	0,076
-426,832	423,067	0,045	-0,069
-425,817	211,275	-0,028	-0,032
-424,803	358,550	0,083	0,120
-423,788	-200,000	-0,002	0,029
-422,773	-130,202	0,140	-0,014
-421,759	487,064	-0,047	0,077
-420,744	119,786	0,035	-0,032
-419,730	-200,000	-0,004	-0,074
-418,715	169,194	-0,075	0,077
-417,701	133,906	-0,027	0,025
-416,686	-42,342	-0,083	0,030
-415,671	92,851	0,121	0,099
-414,657	-73,884	-0,135	-0,035
-413,642	149,949	0,093	-0,091
-412,628	800,000	-0,021	-0,042
-411,613	-94,459	-0,078	-0,015
-410,598	-200,000	-0,011	-0,036
-409,584	212,234	-0,059	-0,067
-408,569	800,000	0,031	-0,063
-407,555	502,017	0,053	0,088
-406,540	-57,851	0,056	0,018
-405,525	-200,000	0,002	-0,036
-404,511	443,606	-0,083	0,132
-403,496	800,000	0,029	-0,066
-402,482	-131,403	-0,049	-0,005
-401,467	800,000	-0,057	0,136
-400,452	118,757	-0,047	-0,041
-399,438	36,352	0,116	0,074
-398,423	-200,000	0,003	-0,028
-397,409	632,675	-0,034	0,062
-396,394	-200,000	-0,005	-0,113
-395,379	-12,010	0,108	0,051
-394,365	-44,955	0,086	0,031
-393,350	-34,897	-0,118	0,046
-392,336	-200,000	-0,033	0,155
-391,321	-200,000	-0,009	-0,139
-390,306	-200,000	0,006	-0,053
-389,292	39,283	0,142	-0,091
-388,277	-81,779	-0,068	0,016
-387,263	-68,209	0,168	-0,047
-386,248	800,000	0,014	0,030
-385,233	-119,767	0,035	-0,004
-384,219	-55,813	-0,149	-0,047
-383,204	-26,720	-0,024	-0,010
-382,190	-200,000	0,015	0,077
-381,175	-195,299	0,171	-0,001
-380,160	-12,307	0,098	-0,046
-379,146	-15,951	0,069	0,032
-378,131	235,434	0,029	0,035
-377,117	29,818	-0,030	-0,018
-376,102	18,081	-0,040	-0,023
-375,088	-62,863	-0,051	-0,015
-374,073	165,035	0,082	-0,083
-373,058	115,295	0,082	-0,072
-372,044	-200,000	-0,003	0,144
-371,029	-200,000	0,020	0,107
-370,015	-200,000	-0,004	-0,068
-369,000	27,781	-0,036	0,022
-367,985	-200,000	0,007	-0,052
-366,971	-200,000	0,022	0,074
-365,956	443,044	0,011	0,017
-364,942	-12,775	-0,048	-0,022
-363,927	12,140	0,150	0,083
-362,912	-190,581	-0,097	0,001
-361,898	-9,025	-0,099	0,047
-360,883	6,275	0,005	-0,003
-359,869	800,000	0,008	0,019
-358,854	148,933	0,100	-0,097
-357,839	14,114	-0,049	-0,028
-356,825	800,000	-0,035	0,095
-355,810	30,317	0,164	-0,101
-354,796	800,000	-0,051	-0,117
-353,781	-53,044	-0,108	-0,035
-352,766	125,162	-0,148	-0,134
-351,752	195,561	-0,009	-0,010
-350,737	-200,000	-0,009	-0,092
-349,723	800,000	0,039	-0,079
-348,708	117,173	-0,051	0,045
-347,693	-200,000	-0,004	-0,137
-346,679	-173,178	-0,097	-0,002
-345,664	48,032	0,023	-0,016
-344,650	28,704	-0,086	-0,052
-343,635	8,659	-0,055	-0,030
-342,620	540,221	-0,089	0,153
-341,606	-200,000	0,027	-0,112
-340,591	-9,303	-0,056	0,027
-339,577	-91,149	-0,054	-0,011
-338,562	-29,903	0,016	-0,007
-337,548	800,000	-0,034	-0,079
-336,533	127,027	0,079	0,072
-335,518	45,552	0,114	0,076
-334,504	29,167	0,120	0,073
-333,489	274,639	-0,089	0,113
-332,475	239,169	-0,085	-0,102
-331,460	51,405	0,115	0,078
-330,445	385,143	-0,081	-0,121
-329,431	-107,842	-0,048	0,007
-328,416	-58,079	0,048	-0,015
-327,402	-200,000	-0,004	0,104
-326,387	-200,000	0,004	0,014
-325,372	-172,134	-0,037	-0,001
-324,358	150,364	-0,097	-0,094
-323,343	800,000	-0,012	0,030
-322,329	7,365	-0,104	0,056
-321,314	288,795	0,071	-0,092
-320,299	84,473	-0,046	-0,036
-319,285	-112,273	-0,078	-0,011
-318,270	-90,899	-0,015	0,003
-317,256	78,229	-0,047	0,036
-316,241	84,848	-0,014	0,011
-315,226	236,488	0,151	0,180
-314,212	20,950	0,065	0,038
-313,197	-200,000	-0,055	-0,179
-312,183	-65,037	0,077	-0,022
-311,168	-43,546	-0,092	0,033
-310,153	-107,016	-0,089	-0,014
-309,139	244,503	-0,055	0,067
-308,124	256,596	0,033	-0,041
-307,110	-6,000	0,091	-0,044
-306,095	-120,392	-0,017	0,002
-305,080	39,806	0,070	-0,045
-304,066	55,278	0,063	0,043
-303,051	800,000	-0,022	0,052
-302,037	347,227	0,055	-0,077
-301,022	-146,513	-0,106	0,007
-300,008	71,598	0,177	0,131
-298,993	-29,806	-0,031	0,013
-297,978	-200,000	-0,004	0,022
-296,964	-16,728	-0,150	-0,068
-295,949	-200,000	0,005	-0,085
-294,935	800,000	0,009	0,018
-293,920	-200,000	0,107	0,000
-292,905	216,754	0,044	-0,050
-291,891	754,627	0,035	0,067
-290,876	96,541	0,038	-0,031
-289,862	-200,000	-0,003	-0,037
-288,847	204,753	0,074	-0,082
-287,832	160,850	-0,037	0,037
-286,818	-107,387	0,084	-0,013
-285,803	-81,412	0,023	-0,005
-284,789	523,560	-0,036	0,060
-283,774	-48,883	0,034	0,012
-282,759	-30,095	-0,110	0,045
-281,745	523,979	0,082	-0,139
-280,730	173,362	-0,065	-0,067
-279,716	105,702	0,127	-0,108
-278,701	-200,000	0,010	-0,118
-277,686	-200,000	0,029	0,208
-276,672	377,122	0,138	0,202
-275,657	10,175	-0,041	-0,022
-274,643	537,681	0,023	-0,040
-273,628	129,942	-0,085	-0,078
-272,613	-200,000	-0,018	-0,098
-271,599	800,000	0,061	-0,127
-270,584	-51,810	0,077	0,026
-269,570	-200,000	-0,006	0,109
-268,555	-200,000	-0,012	0,146
-267,540	120,382	0,095	0,084
-266,526	169,810	-0,112	0,114
-265,511	150,600	-0,046	0,045
-264,497	262,420	0,086	0,106
-263,482	-87,364	0,103	0,022
-262,467	103,422	-0,051	0,043
-261,453	-200,000	-0,001	0,022
-260,438	-200,000	0,036	-0,120
-259,424	239,380	0,049	-0,058
-258,409	-11,882	-0,093	0,044
-257,395	521,760	-0,090	-0,152
-256,380	71,310	0,055	0,041
-255,365	-200,000	-0,005	0,124
-254,351	-200,000	0,000	0,040
-253,336	-200,000	-0,003	0,100
-252,322	-0,941	0,064	-0,032
-251,307	59,302	-0,160	-0,112
-250,292	800,000	0,015	0,030
-249,278	738,023	0,009	0,018
-248,263	194,240	-0,032	-0,034
-247,249	800,000	-0,041	0,110
-246,234	800,000	-0,017	-0,042
-245,219	-137,554	0,081	-0,006
-244,205	43,413	0,057	-0,037
-243,190	192,481	-0,082	-0,088
-242,176	171,158	0,056	-0,058
-241,161	29,118	0,075	0,045
-240,146	-32,113	0,152	-0,060
-239,132	-96,887	0,036	0,007
-238,117	324,996	-0,078	-0,107
-237,103	51,133	0,110	0,074
-236,088	86,045	-0,190	0,149
-235,073	286,249	0,083	0,107
-234,059	-200,000	0,002	-0,032
-233,044	-11,800	0,046	-0,022
-232,030	551,457	-0,104	0,180
-231,015	-200,000	0,008	-0,086
-230,000	404,382	0,033	-0,050
-228,986	67,181	-0,017	0,013
-227,971	-200,000	-0,013	0,147
-226,957	-100,592	-0,086	0,015
-225,942	719,329	-0,038	0,072
-224,927	270,232	0,077	-0,097
-223,913	-200,000	-0,009	0,081
-222,898	800,000	0,017	-0,046
-221,884	800,000	0,049	-0,138
-220,869	-147,993	-0,124	-0,007
-219,855	77,643	-0,043	-0,032
-218,840	-122,969	-0,055	0,006
-217,825	-200,000	-0,002	-0,089
-216,811	82,480	0,063	-0,049
-215,796	800,000	-0,023	0,068
-214,782	-200,000	-0,011	0,088
-213,767	73,692	0,132	-0,099
-212,752	28,009	0,076	0,046
-211,738	197,158	-0,041	0,045
-210,723	145,115	0,090	0,086
-209,709	-63,970	-0,018	0,005
-208,694	317,539	-0,083	-0,112
-207,679	800,000	0,030	-0,083
-206,665	-124,058	-0,070	-0,008
-205,650	251,897	0,052	0,063
-204,636	-200,000	0,028	0,128
-203,621	800,000	-0,063	0,142
-202,606	800,000	0,032	0,090
-201,592	-51,933	0,083	-0,027
-200,577	243,629	0,050	0,061
-199,563	-36,841	-0,089	-0,034
-198,548	-200,000	0,029	0,110
-197,533	279,897	-0,024	0,031
-196,519	402,395	0,021	-0,032
-195,504	82,422	-0,105	0,081
-194,490	370,726	0,045	-0,066
-193,475	-111,092	-0,104	-0,015
-192,460	-128,579	0,118	0,012
-191,446	625,447	-0,044	0,079
-190,431	-119,017	-0,039	-0,005
-189,417	40,186	0,072	0,046
-188,402	661,594	-0,012	0,022
-187,387	16,055	0,017	-0,010
-186,373	-200,000	0,014	-0,104
-185,358	-112,367	0,136	-0,019
-184,344	-99,569	0,141	0,025
-183,329	-49,700	0,051	0,017
-182,315	800,000	0,046	0,107
-181,300	87,938	0,032	0,025
-180,285	-180,966	0,013	0,000
-179,271	73,434	0,022	0,017
-178,256	-200,000	-0,026	0,156
-177,242	146,923	0,056	0,053
-176,227	63,275	0,094	0,067
-175,212	-102,983	0,048	0,008
-174,198	-107,063	-0,120	0,019
-173,183	707,287	0,053	0,100
-172,169	130,083	-0,049	0,045
-171,154	138,466	-0,041	0,039
-170,139	15,920	0,107	-0,060
-169,125	-119,713	0,097	0,012
-168,110	-97,287	-0,060	-0,011
-167,096	-82,242	0,061	0,014
-166,081	-200,000	0,022	-0,095
-165,066	8,337	-0,034	0,018
-164,052	222,120	-0,018	-0,021
-163,037	298,920	-0,053	0,070
-162,023	-124,181	-0,029	-0,003
-161,008	-200,000	0,020	-0,107
-159,993	-64,611	0,085	0,024
-158,979	800,000	-0,051	0,106
-157,964	-200,000	0,015	-0,053
-156,950	21,237	-0,112	-0,065
-155,935	177,230	-0,053	-0,055
-154,920	36,477	0,088	0,055
-153,906	265,149	0,018	0,023
-152,891	418,639	-0,023	0,035
-151,877	207,415	0,124	0,139
-150,862	-200,000	-0,019	0,065
-149,847	267,758	0,048	-0,060
-148,833	-95,712	0,086	0,016
-147,818	257,969	-0,037	0,045
-146,804	13,320	0,113	0,062
-145,789	-122,336	-0,017	0,002
-144,775	-52,927	0,055	0,018
-143,760	-111,154	0,039	0,006
-142,745	-86,742	-0,017	0,004
-141,731	-134,634	-0,139	0,012
-140,716	-99,485	0,109	-0,019
-139,702	-166,659	0,066	0,002
-138,687	92,333	0,089	0,072
-137,672	-46,411	0,051	-0,018
-136,658	319,375	-0,079	0,107
-135,643	-98,243	0,027	0,005
-134,629	-165,800	0,022	0,001
-133,614	-200,000	-0,027	0,109
-132,599	800,000	-0,021	0,043
-131,585	-160,509	0,056	-0,002
-130,570	190,854	-0,032	-0,034
-129,556	800,000	-0,016	0,034
-128,541	-139,311	0,017	-0,001
-127,526	5,023	0,078	-0,041
-126,512	69,530	0,122	0,090
-125,497	-111,615	0,104	-0,015
-124,483	-200,000	0,008	-0,058
-123,468	279,177	-0,002	-0,003
-122,453	-191,858	-0,092	-0,001
-121,439	106,578	-0,090	-0,076
-120,424	-200,000	-0,007	-0,096
-119,410	-5,702	-0,118	0,057
-118,395	-200,000	0,028	-0,119
-117,380	-200,000	0,005	-0,026
-116,366	495,566	0,104	-0,170
-115,351	-200,000	0,034	-0,129
-114,337	-103,934	-0,118	-0,019
-113,322	-12,709	0,077	0,035
-112,307	-200,000	-0,002	-0,171
-111,293	166,002	0,068	-0,068
-110,278	-200,000	0,056	0,181
-109,264	192,501	-0,100	0,108
-108,249	800,000	-0,066	0,159
-107,234	-70,259	-0,162	-0,043
-106,220	800,000	-0,009	0,027
-105,205	488,832	0,036	0,059
-104,191	-54,326	0,047	0,015
-103,176	-200,000	0,023	0,127
-102,162	197,040	0,097	0,106
-101,147	-138,039	0,068	-0,005
-100,132	-21,446	0,142	-0,062
-99,118	634,662	-0,049	0,089
-98,103	-200,000	0,004	0,157
-97,089	580,036	-0,072	0,126
-96,074	-62,688	-0,048	-0,014
-95,059	-42,424	-0,047	0,017
-94,045	800,000	-0,025	-0,062
-93,030	-200,000	0,023	0,083
-92,016	6,673	-0,057	0,030
-91,001	-200,000	0,002	0,059
-89,986	95,925	0,093	0,076
-88,972	-200,000	0,007	-0,032
-87,957	-58,045	0,049	0,015
-86,943	800,000	0,024	0,050
-85,928	-116,070	0,142	-0,019
-84,913	-173,803	0,007	-0,000
-83,899	800,000	-0,030	0,070
-82,884	527,698	-0,118	0,199
-81,870	236,791	0,022	0,026
-80,855	-200,000	-0,025	0,212
-79,840	481,669	0,041	0,067
-78,826	275,537	-0,066	0,084
-77,811	-87,388	0,033	-0,007
-76,797	800,000	0,010	-0,029
-75,782	-200,000	0,031	0,126
-74,767	503,849	-0,064	0,105
-73,753	800,000	-0,041	-0,102
-72,738	144,188	-0,051	0,049
-71,724	800,000	-0,041	-0,127
-70,709	-200,000	-0,026	-0,131
-69,694	800,000	-0,046	-0,094
-68,680	-200,000	-0,000	-0,032
-67,665	800,000	-0,041	0,094
-66,651	776,229	0,071	0,139
-65,636	-200,000	-0,004	0,022
-64,622	39,994	0,076	-0,048
-63,607	-200,000	0,008	-0,117
-62,592	477,054	0,033	-0,053
-61,578	161,635	0,062	-0,062
-60,563	-151,222	0,053	0,003
-59,549	11,241	-0,063	0,034
-58,534	-106,059	-1,287	-0,203
-57,519	357,419	-1,643	-2,333
-56,505	-200,000	-0,468	-4,347
-55,490	90,163	0,913	0,724
-54,476	800,000	4,738	11,220
-53,461	-200,000	17,201	269,202
-52,446	800,000	714,738	2181,302
-51,432	552,361	1629,435	2788,081
-50,417	81,413	1655,544	1268,720
-49,403	24,457	1529,888	895,470
-48,388	18,433	1453,285	821,626
-47,373	18,567	1442,778	816,295
-46,359	18,314	1433,661	809,899
-45,344	16,853	1428,693	800,127
-44,330	16,686	1426,939	798,322
-43,315	16,708	1425,434	797,550
-42,300	16,723	1423,759	796,654
-41,286	16,776	1422,630	796,241
-40,271	16,715	1421,238	795,142
-39,257	16,669	1420,049	794,230
-38,242	16,759	1418,587	793,805
-37,227	16,809	1417,471	793,386
-36,213	16,778	1416,129	792,454
-35,198	16,774	1414,878	791,703
-34,184	16,760	1414,072	791,157
-33,169	16,702	1412,668	790,068
-32,154	16,761	1411,811	789,833
-31,140	16,765	1410,295	788,975
-30,125	16,788	1409,355	788,524
-29,111	16,804	1408,195	787,916
-28,096	16,714	1407,134	786,873
-27,082	16,669	1405,828	785,900
-26,067	16,672	1404,719	785,265
-25,052	16,697	1403,739	784,803
-24,038	16,652	1403,034	784,164
-23,023	16,663	1401,675	783,425
-22,009	16,619	1400,739	782,668
-20,994	16,592	1399,827	782,001
-19,979	16,606	1399,028	781,590
-18,965	16,563	1398,090	780,835
-17,950	16,628	1397,134	780,571
-16,936	16,578	1396,105	779,734
-15,921	16,565	1394,766	778,894
-14,906	16,597	1393,879	778,517
-13,892	16,579	1393,119	777,977
-12,877	16,628	1392,318	777,725
-11,863	16,568	1391,337	776,867
-10,848	16,562	1390,108	776,125
-9,833	16,589	1389,200	775,713
-8,819	16,518	1388,518	774,971
-7,804	16,488	1387,721	774,359
-6,790	16,462	1386,320	773,425
-5,775	16,457	1385,506	772,921
-4,760	16,399	1384,975	772,326
-3,746	16,462	1383,907	771,990
-2,731	16,436	1383,239	771,468
-1,717	16,450	1382,084	770,854
-0,702	16,421	1380,384	769,744
0,313	20,186	1302,271	743,556
1,327	36,678	707,932	442,492
2,342	56,275	125,796	86,530
3,356	3,792	16,664	8,601
4,371	1,994	3,098	1,580
5,386	30,105	0,504	0,304
6,400	-200,000	-0,027	0,144
7,415	-200,000	-0,058	-0,228
8,429	94,962	-0,215	-0,173
9,444	-13,995	-0,367	-0,167
10,459	91,388	-0,276	-0,220
11,473	-13,037	-0,433	-0,199
12,488	-67,642	-0,319	-0,088
13,502	-8,404	-0,253	-0,120
14,517	75,587	-0,269	-0,201
15,531	232,799	-0,292	-0,341
16,546	23,439	-0,423	-0,246
17,561	252,466	-0,168	-0,204
18,575	66,476	-0,202	-0,145
19,590	-11,276	-0,373	-0,173
20,604	-47,634	-0,260	-0,089
21,619	-9,219	-0,395	-0,186
22,634	-53,166	-0,504	-0,163
23,648	89,923	-0,470	-0,371
24,663	15,360	-0,386	-0,214
25,677	118,711	-0,277	-0,242
26,692	92,142	-0,287	-0,229
27,707	49,053	-0,445	-0,295
28,721	420,536	-0,203	-0,309
29,736	128,310	-0,353	-0,318
30,750	60,370	-0,412	-0,288
31,765	41,599	-0,387	-0,247
32,780	185,174	-0,350	-0,368
33,794	261,250	-0,250	-0,306
34,809	-13,911	-0,397	-0,180
35,823	-113,586	-0,456	-0,062
36,838	142,459	-0,381	-0,358
37,853	38,208	-0,541	-0,340
38,867	53,471	-0,338	-0,228
39,882	463,313	-0,201	-0,318
40,896	41,875	-0,353	-0,226
41,911	51,129	-0,317	-0,212
42,926	99,289	-0,308	-0,251
43,940	43,304	-0,278	-0,179
44,955	31,536	-0,420	-0,255
45,969	180,875	-0,298	-0,310
46,984	16,300	-0,406	-0,225
47,999	162,106	-0,305	-0,302
49,013	-20,409	-0,535	-0,231
50,028	-102,747	-0,292	-0,049
51,042	263,267	-0,288	-0,354
52,057	70,861	-0,327	-0,239
53,071	44,579	-0,350	-0,227
54,086	50,276	-0,357	-0,238
55,101	-25,559	-0,389	-0,161
56,115	214,248	-0,228	-0,256
57,130	32,139	-0,380	-0,231
58,144	227,647	-0,281	-0,323
59,159	0,455	-0,367	-0,185
60,174	41,661	-0,314	-0,201
61,188	30,563	-0,224	-0,135
62,203	108,297	-0,239	-0,201
63,217	14,042	-0,330	-0,181
64,232	48,668	-0,192	-0,127
65,247	104,775	-0,275	-0,228
66,261	169,807	-0,319	-0,322
67,276	74,417	-0,391	-0,289
68,290	30,383	-0,417	-0,251
69,305	291,499	-0,186	-0,238
70,320	-71,603	-0,270	-0,070
71,334	-39,036	-0,367	-0,136
72,349	-44,387	-0,377	-0,132
73,363	192,653	-0,192	-0,205
74,378	141,919	-0,315	-0,294
75,393	78,386	-0,333	-0,250
76,407	83,313	-0,390	-0,299
77,422	150,617	-0,346	-0,332
78,436	146,384	-0,224	-0,212
79,451	83,422	-0,271	-0,208
80,466	128,082	-0,286	-0,256
81,480	71,364	-0,406	-0,296
82,495	99,528	-0,262	-0,213
83,509	22,468	-0,275	-0,158
84,524	12,873	-0,194	-0,105
85,539	48,142	-0,258	-0,170
86,553	35,744	-0,280	-0,173
87,568	105,067	-0,281	-0,233
88,582	-1,289	-0,465	-0,230
89,597	-19,332	-0,174	-0,076
90,611	54,790	-0,152	-0,103
91,626	81,173	-0,221	-0,167
92,641	90,381	-0,129	-0,101
93,655	-62,808	-0,271	-0,079
94,670	-20,244	-0,177	-0,076
95,684	154,434	-0,344	-0,332
96,699	75,964	-0,277	-0,206
97,714	146,956	-0,234	-0,221
98,728	132,475	-0,213	-0,193
99,743	48,041	-0,221	-0,145
100,757	-73,294	-0,284	-0,072
101,772	33,194	-0,332	-0,202
102,787	41,463	-0,235	-0,149
103,801	188,178	-0,256	-0,270
104,816	71,564	-0,295	-0,215
105,830	800,000	-0,092	-0,226
106,845	-76,358	-0,181	-0,044
107,860	-56,115	-0,341	-0,106
108,874	187,856	-0,186	-0,195
109,889	-3,582	-0,392	-0,191
110,903	-25,772	-0,312	-0,129
111,918	-14,809	-0,161	-0,072
112,933	32,308	-0,172	-0,104
113,947	62,029	-0,284	-0,199
114,962	19,165	-0,275	-0,155
115,976	160,947	-0,210	-0,206
116,991	101,118	-0,187	-0,153
118,006	20,448	-0,238	-0,135
119,020	-34,945	-0,266	-0,101
120,035	-21,162	-0,277	-0,118
121,049	85,950	-0,166	-0,128
122,064	72,795	-0,226	-0,165
123,079	-36,681	-0,475	-0,178
124,093	38,788	-0,286	-0,179
125,108	-104,150	-0,388	-0,063
126,122	42,268	-0,312	-0,199
127,137	-137,701	-0,097	-0,008
128,151	-139,682	-0,281	-0,021
129,166	44,061	-0,210	-0,135
130,181	33,052	-0,277	-0,168
131,195	135,170	-0,076	-0,069
132,210	-1,092	-0,384	-0,190
133,224	633,030	-0,138	-0,247
134,239	-200,000	-0,077	-0,263
135,254	-145,826	-0,280	-0,017
136,268	-77,606	-0,350	-0,084
137,283	-200,000	-0,047	-0,273
138,297	44,520	-0,314	-0,202
139,312	17,988	-0,282	-0,157
140,327	26,050	-0,201	-0,117
141,341	59,728	-0,280	-0,193
142,356	39,577	-0,243	-0,152
143,370	340,584	-0,115	-0,158
144,385	123,600	-0,233	-0,204
145,400	800,000	-0,100	-0,209
146,414	8,975	-0,301	-0,159
147,429	206,077	-0,129	-0,140
148,443	82,060	-0,246	-0,187
149,458	-6,569	-0,126	-0,060
150,473	97,096	-0,286	-0,229
151,487	30,497	-0,250	-0,149
152,502	22,634	-0,202	-0,115
153,516	146,873	-0,232	-0,218
154,531	189,217	-0,270	-0,283
155,546	155,286	-0,221	-0,212
156,560	-42,127	-0,296	-0,105
157,575	442,359	-0,131	-0,201
158,589	-34,172	-0,305	-0,117
159,604	154,521	-0,168	-0,162
160,619	102,883	-0,234	-0,191
161,633	800,000	-0,165	-0,426
162,648	-53,541	-0,144	-0,046
163,662	-94,515	-0,188	-0,035
164,677	121,696	-0,081	-0,071
165,692	95,235	-0,244	-0,194
166,706	29,591	-0,204	-0,121
167,721	141,352	-0,220	-0,203
168,735	255,158	-0,154	-0,185
169,750	146,357	-0,199	-0,187
170,764	122,736	-0,226	-0,197
171,779	-10,475	-0,221	-0,102
172,794	800,000	-0,094	-0,220
173,808	-172,063	-0,243	-0,005
174,823	183,202	-0,242	-0,250
175,837	29,021	-0,293	-0,173
176,852	83,923	-0,241	-0,183
177,867	153,046	-0,150	-0,143
178,881	106,977	-0,150	-0,124
179,896	184,293	-0,103	-0,107
180,910	21,010	-0,262	-0,148
181,925	-8,224	-0,219	-0,103
182,940	88,680	-0,194	-0,151
183,954	12,564	-0,325	-0,174
184,969	35,589	-0,296	-0,181
185,983	191,535	-0,161	-0,170
186,998	-75,537	-0,208	-0,051
188,013	173,751	-0,214	-0,216
189,027	142,456	-0,291	-0,270
190,042	286,808	-0,178	-0,224
191,056	16,687	-0,251	-0,138
192,071	-56,683	-0,250	-0,077
193,086	726,802	-0,082	-0,154
194,100	-171,277	-0,204	0,005
195,115	800,000	-0,103	-0,258
196,129	92,327	-0,162	-0,127
197,144	102,387	-0,225	-0,183
198,159	19,762	-0,227	-0,127
199,173	-133,760	-0,090	-0,008
200,188	-125,056	-0,168	-0,018
201,202	74,794	-0,210	-0,154
202,217	-200,000	-0,040	-0,185
203,232	-138,360	-0,264	-0,020
204,246	351,048	-0,046	-0,064
205,261	71,414	-0,298	-0,215
206,275	139,664	-0,180	-0,165
207,290	113,261	-0,084	-0,071
208,304	-73,965	-0,080	0,020
209,319	-32,825	-0,290	-0,112
210,334	-15,785	-0,166	-0,073
211,348	-45,937	-0,242	-0,083
212,363	17,517	-0,263	-0,145
213,377	146,898	-0,184	-0,172
214,392	269,549	-0,094	-0,115
215,407	38,597	-0,197	-0,122
216,421	34,748	-0,160	0,097
217,436	-80,029	-0,261	-0,060
218,450	-10,949	-0,210	-0,096
219,465	51,015	-0,163	-0,107
220,480	128,555	-0,206	-0,182
221,494	97,215	-0,234	-0,186
222,509	247,309	-0,202	-0,238
223,523	-19,859	-0,135	-0,058
224,538	205,588	-0,097	-0,105
225,553	446,047	-0,236	-0,362
226,567	-35,193	-0,219	-0,082
227,582	112,212	-0,325	-0,273
228,596	50,770	-0,095	-0,063
229,611	800,000	-0,094	-0,217
230,626	114,127	-0,176	-0,149
231,640	35,414	-0,140	-0,085
232,655	241,692	-0,169	-0,196
233,669	40,489	-0,264	-0,165
234,684	26,120	-0,207	-0,120
235,699	227,669	-0,298	-0,338
236,713	212,321	-0,146	-0,160
237,728	800,000	-0,138	-0,269
238,742	41,909	-0,270	-0,170
239,757	70,690	-0,237	-0,170
240,772	53,482	-0,194	-0,129
241,786	-19,510	-0,198	-0,085
242,801	-200,000	-0,072	-0,227
243,815	369,118	-0,092	-0,130
244,830	-154,528	-0,197	0,009
245,844	60,581	-0,181	-0,124
246,859	-36,646	-0,212	-0,079
247,874	1,718	-0,095	-0,047
248,888	55,341	-0,219	-0,147
249,903	-200,000	-0,062	0,000
250,917	-25,528	-0,138	-0,056
251,932	287,908	-0,098	-0,123
252,947	-54,286	-0,082	0,026
253,961	60,987	-0,106	-0,073
254,976	-200,000	-0,049	-0,193
255,990	51,940	-0,270	-0,178
257,005	407,246	-0,204	-0,300
258,020	73,211	-0,159	-0,115
259,034	33,494	-0,140	-0,084
260,049	118,673	-0,125	-0,107
261,063	-89,837	-0,122	-0,025
262,078	58,769	-0,205	-0,139
263,093	71,288	-0,188	-0,135
264,107	-200,000	-0,019	-0,165
265,122	220,852	-0,188	-0,210
266,136	87,207	-0,076	-0,058
267,151	-99,677	-0,241	0,041
268,166	-20,978	-0,221	-0,094
269,180	335,398	-0,117	-0,157
270,195	49,298	-0,232	-0,151
271,209	-200,000	-0,045	-0,139
272,224	174,184	-0,154	-0,155
273,239	-14,634	-0,137	-0,061
274,253	152,967	-0,129	-0,122
275,268	-200,000	-0,031	-0,152
276,282	800,000	-0,064	-0,130
277,297	44,949	-0,254	-0,162
278,312	77,723	-0,166	-0,122
279,326	222,727	-0,157	-0,175
280,341	102,606	-0,243	-0,197
281,355	-72,950	-0,151	-0,038
282,370	-180,352	-0,109	-0,002
283,384	336,949	-0,172	-0,231
284,399	18,597	-0,210	-0,116
285,414	-57,897	-0,170	-0,051
286,428	-1,212	-0,181	-0,088
287,443	15,666	-0,035	-0,019
288,457	-200,000	-0,026	-0,112
289,472	408,584	-0,092	-0,136
290,487	452,603	-0,075	-0,116
291,501	-200,000	-0,022	-0,091
292,516	18,352	-0,200	-0,110
293,530	451,896	-0,075	-0,114
294,545	-39,584	-0,225	-0,081
295,560	-126,454	-0,100	0,010
296,574	-123,114	-0,177	0,019
297,589	-148,398	-0,218	-0,012
298,603	641,389	-0,073	-0,129
299,618	254,957	-0,071	-0,085
300,633	-102,127	-0,092	-0,015
301,647	-200,000	0,022	-0,157
302,662	731,134	-0,062	-0,114
303,676	88,735	-0,169	-0,130
304,691	-157,942	-0,273	-0,011
305,706	-180,307	-0,155	0,002
306,720	-67,553	-0,089	-0,024
307,735	173,419	-0,070	-0,070
308,749	-67,784	0,025	0,007
309,764	-41,858	-0,090	-0,032
310,779	-147,369	-0,189	0,011
311,793	16,285	-0,177	-0,096
312,808	-40,222	-0,208	-0,074
313,822	-30,096	-0,228	-0,089
314,837	136,984	-0,162	-0,146
315,852	800,000	-0,086	-0,189
316,866	-9,319	-0,213	-0,098
317,881	-105,657	-0,156	-0,024
318,895	-87,917	-0,135	-0,028
319,910	27,631	-0,229	-0,133
320,925	-82,432	-0,236	-0,052
321,939	-140,141	-0,217	0,015
322,954	-141,001	-0,268	0,019
323,968	53,738	-0,098	-0,065
324,983	-90,632	-0,174	-0,034
325,997	93,935	-0,150	-0,117
327,012	-153,325	-0,147	-0,007
328,027	-2,824	-0,184	-0,088
329,041	-50,183	-0,305	-0,099
330,056	-200,000	0,006	-0,031
331,070	800,000	-0,064	-0,131
332,085	603,529	-0,041	-0,071
333,100	800,000	-0,055	-0,113
334,114	800,000	-0,068	-0,196
335,129	101,875	-0,151	-0,121
336,143	-56,213	-0,114	-0,035
337,158	-16,346	-0,133	-0,058
338,173	3,623	-0,130	-0,065
339,187	38,941	-0,148	-0,091
340,202	-11,107	-0,079	-0,036
341,216	-123,073	-0,189	0,021
342,231	800,000	-0,013	-0,037
343,246	-37,371	-0,137	-0,050
344,260	-150,834	-0,082	-0,004
345,275	-60,556	-0,151	0,044
346,289	-19,362	-0,055	0,023
347,304	156,046	-0,086	-0,082
348,319	-124,828	-0,093	-0,010
349,333	436,691	-0,119	-0,178
350,348	-29,558	-0,200	-0,078
351,362	-200,000	-0,060	-0,202
352,377	-200,000	-0,001	0,026
353,392	83,095	-0,122	-0,091
354,406	-200,000	-0,041	-0,124
355,421	209,795	1314,812	1419,309
356,435	161,480	1475,597	1419,843
