DTS Sentinel unit serial number:	SN410029Multiplexer serial number:	ORYXHardware model number:	OX2-SRSoftware version number:	ORYX F/W v4,00 Oryx Data Collector v3.7.2.0data status	okinstallation	B3 Nyhavnadifferential loss correction	single-endedforward channel	channel 1reverse channel	N/Adate	2023/11/29time	22:32:30forward acquisition time	300,00reverse acquisition time	0,00gamma	499,1914k internal	0,3210k external	0,3210temperature offset calibration	1,0000default loss term (dB/km)	0,3820temperature slope calibration	1,0000multiplexer offset coefficient	1,0000multiplexer slope coefficient	1,0000fibre end	0,00T internal ref (°C)	10,81T ext. ref 1 (°C)	-4,13T ext. ref 2 (°C)	-4,22length (m)	temperature (°C)	Stokes	anti-Stokes-744,400	299,034	-0,118	-0,157
-743,385	-200,000	0,002	0,298
-742,371	-132,470	-0,235	-0,022
-741,356	378,954	0,155	0,231
-740,342	-81,780	-0,045	-0,011
-739,327	447,318	0,196	0,314
-738,312	299,314	-0,227	-0,304
-737,298	-200,000	-0,054	0,195
-736,283	491,908	-0,191	-0,318
-735,269	-200,000	-0,064	0,331
-734,254	286,996	-0,192	-0,252
-733,239	-62,405	-0,144	0,043
-732,225	372,756	-0,189	-0,280
-731,210	412,866	0,070	0,109
-730,196	-141,092	-0,042	0,003
-729,181	73,745	0,076	-0,058
-728,167	-70,504	-0,108	0,029
-727,152	-86,889	-0,053	0,012
-726,137	162,880	-0,135	-0,138
-725,123	-200,000	-0,023	-0,097
-724,108	133,581	-0,119	-0,112
-723,094	211,065	-0,040	0,046
-722,079	124,469	-0,039	-0,035
-721,064	-67,288	0,143	-0,041
-720,050	-91,734	0,018	-0,004
-719,035	30,136	-0,040	0,025
-718,021	211,587	-0,016	-0,018
-717,006	212,098	-0,029	-0,033
-715,991	-200,000	-0,051	-0,168
-714,977	33,717	0,087	-0,054
-713,962	-111,043	0,019	-0,003
-712,948	-163,244	0,025	-0,001
-711,933	-93,352	0,160	0,032
-710,918	24,230	-0,155	0,092
-709,904	-200,000	-0,008	-0,086
-708,889	48,636	-0,104	-0,071
-707,875	154,122	-0,070	-0,070
-706,860	-100,204	0,054	-0,010
-705,845	-33,784	0,011	-0,004
-704,831	14,939	-0,044	0,025
-703,816	800,000	-0,065	-0,131
-702,802	-200,000	-0,004	-0,032
-701,787	415,456	-0,054	-0,083
-700,772	-53,784	0,069	0,023
-699,758	-10,132	0,017	0,008
-698,743	-200,000	-0,020	0,079
-697,729	-137,237	0,036	0,003
-696,714	474,071	0,019	-0,031
-695,699	116,069	0,064	0,057
-694,685	-200,000	0,003	-0,113
-693,670	166,153	-0,088	-0,091
-692,656	135,228	-0,078	0,074
-691,641	-120,701	0,247	-0,030
-690,627	-62,532	-0,043	-0,013
-689,612	8,668	0,094	0,051
-688,597	80,083	-0,067	0,052
-687,583	-200,000	0,028	-0,134
-686,568	-200,000	-0,032	-0,104
-685,554	800,000	0,036	-0,088
-684,539	235,734	0,016	0,019
-683,524	-66,021	-0,061	0,018
-682,510	800,000	-0,046	0,097
-681,495	86,333	0,095	-0,076
-680,481	800,000	-0,045	-0,092
-679,466	56,097	-0,168	0,118
-678,451	-89,011	-0,052	-0,011
-677,437	-200,000	-0,003	0,019
-676,422	800,000	-0,035	0,077
-675,408	88,239	-0,055	0,044
-674,393	-85,434	-0,135	-0,030
-673,378	239,932	0,039	-0,047
-672,364	-82,998	0,052	-0,012
-671,349	54,682	-0,067	-0,047
-670,335	160,117	0,123	0,124
-669,320	53,330	-0,073	-0,051
-668,305	-50,003	-0,151	0,052
-667,291	-0,576	-0,059	-0,030
-666,276	189,251	-0,057	-0,062
-665,262	-200,000	-0,021	-0,116
-664,247	-10,739	-0,108	-0,052
-663,232	352,698	0,046	0,067
-662,218	-200,000	0,006	-0,081
-661,203	-200,000	-0,013	0,065
-660,189	800,000	0,023	0,071
-659,174	-41,594	0,093	0,035
-658,159	-45,639	-0,128	0,046
-657,145	-200,000	-0,007	0,033
-656,130	-73,055	-0,085	-0,022
-655,116	-200,000	0,009	-0,055
-654,101	-200,000	0,000	0,052
-653,086	513,725	0,038	0,064
-652,072	-97,238	0,106	0,020
-651,057	110,341	-0,103	0,090
-650,043	147,084	-0,076	-0,074
-649,028	81,723	0,013	-0,010
-648,014	-121,188	0,046	0,006
-646,999	101,103	-0,035	0,029
-645,984	-200,000	0,015	0,062
-644,970	94,536	-0,105	-0,086
-643,955	-8,876	-0,041	-0,020
-642,941	-200,000	0,003	0,033
-641,926	52,091	-0,111	-0,076
-640,911	275,901	0,006	-0,007
-639,897	-103,039	0,122	0,021
-638,882	-200,000	-0,024	0,092
-637,868	800,000	0,027	0,054
-636,853	-152,163	-0,138	0,007
-635,838	641,482	-0,015	0,028
-634,824	442,463	0,036	-0,057
-633,809	-200,000	0,005	-0,066
-632,795	-163,024	-0,190	-0,007
-631,780	-18,941	0,023	0,010
-630,765	-200,000	-0,013	-0,125
-629,751	-200,000	-0,027	-0,096
-628,736	-200,000	-0,000	0,052
-627,722	-53,687	0,035	0,011
-626,707	214,426	-0,030	0,035
-625,692	-118,238	0,085	0,011
-624,678	132,603	-0,044	-0,041
-623,663	-19,252	-0,042	-0,019
-622,649	-105,534	0,161	-0,026
-621,634	-200,000	0,013	0,055
-620,619	800,000	0,067	-0,161
-619,605	-200,000	0,008	0,060
-618,590	-38,772	-0,095	0,036
-617,576	-84,100	0,071	0,016
-616,561	329,697	-0,066	0,092
-615,546	459,948	0,014	0,022
-614,532	-31,232	-0,048	0,019
-613,517	39,500	-0,116	-0,075
-612,503	-163,869	0,022	0,001
-611,488	-128,471	0,054	0,005
-610,474	800,000	-0,029	0,063
-609,459	-171,119	-0,062	-0,001
-608,444	118,810	0,073	-0,065
-607,430	-88,786	-0,088	0,019
-606,415	-80,490	-0,056	0,013
-605,401	-200,000	0,004	0,040
-604,386	-19,980	0,046	-0,020
-603,371	25,917	-0,059	-0,035
-602,357	-43,523	-0,137	-0,050
-601,342	-92,476	0,071	0,014
-600,328	654,698	0,047	-0,088
-599,313	190,272	-0,022	-0,023
-598,298	677,007	0,095	-0,178
-597,284	-11,533	0,058	-0,027
-596,269	-197,626	0,083	-0,000
-595,255	-17,201	-0,063	-0,029
-594,240	-200,000	-0,009	-0,032
-593,225	5,015	0,132	-0,070
-592,211	-200,000	0,036	-0,177
-591,196	-200,000	0,016	-0,052
-590,182	336,332	-0,052	0,074
-589,167	-154,995	0,052	0,002
-588,152	-65,822	-0,207	0,059
-587,138	-200,000	-0,006	-0,084
-586,123	439,662	-0,024	-0,038
-585,109	-200,000	0,005	-0,035
-584,094	222,629	-0,040	-0,046
-583,079	234,731	-0,108	-0,129
-582,065	117,023	-0,017	0,015
-581,050	160,699	0,127	0,127
-580,036	-59,608	-0,167	-0,051
-579,021	162,367	0,039	0,040
-578,006	800,000	-0,045	-0,093
-576,992	-53,200	-0,117	-0,039
-575,977	-104,082	0,112	0,019
-574,963	-200,000	-0,014	0,130
-573,948	136,940	0,071	0,067
-572,934	-200,000	-0,018	-0,126
-571,919	-50,662	-0,131	-0,044
-570,904	-200,000	-0,000	-0,080
-569,890	669,505	-0,052	-0,097
-568,875	-121,087	-0,145	-0,017
-567,861	63,203	-0,011	0,008
-566,846	-200,000	-0,019	0,067
-565,831	-21,309	0,031	0,014
-564,817	603,567	0,038	0,068
-563,802	460,077	0,040	-0,065
-562,788	-24,548	-0,143	-0,061
-561,773	-28,745	-0,131	0,054
-560,758	185,578	0,056	-0,060
-559,744	-119,998	-0,091	0,011
-558,729	-35,694	-0,100	0,039
-557,715	800,000	0,026	-0,067
-556,700	-200,000	0,027	0,119
-555,685	134,693	-0,113	0,106
-554,671	-200,000	0,000	0,072
-553,656	-85,910	0,102	0,023
-552,642	-200,000	-0,003	0,076
-551,627	-12,468	0,083	0,039
-550,612	-16,452	0,036	0,017
-549,598	238,284	-0,120	-0,144
-548,583	84,839	0,052	-0,041
-547,569	800,000	0,032	0,079
-546,554	-80,015	0,121	-0,029
-545,539	107,221	0,048	-0,041
-544,525	596,096	-0,013	0,023
-543,510	-200,000	0,006	-0,021
-542,496	448,556	0,004	0,007
-541,481	-54,284	-0,068	-0,022
-540,466	-110,931	-0,119	-0,017
-539,452	118,495	0,102	0,091
-538,437	-200,000	-0,000	-0,027
-537,423	406,860	0,076	-0,117
-536,408	-200,000	-0,015	0,064
-535,393	-68,153	-0,048	0,013
-534,379	800,000	0,036	-0,083
-533,364	800,000	-0,040	0,087
-532,350	-5,616	0,042	0,021
-531,335	-76,585	-0,036	0,009
-530,321	-178,126	-0,132	0,002
-529,306	418,745	-0,085	0,131
-528,291	-149,366	-0,266	-0,015
-527,277	-200,000	0,015	-0,142
-526,262	-200,000	0,004	-0,076
-525,248	-2,769	0,072	0,036
-524,233	36,753	0,119	0,075
-523,218	71,875	0,098	-0,074
-522,204	-81,502	-0,042	0,010
-521,189	228,434	0,064	-0,076
-520,175	11,123	0,010	0,006
-519,160	84,431	-0,052	-0,041
-518,145	88,846	0,029	-0,023
-517,131	800,000	0,056	-0,132
-516,116	800,000	-0,050	-0,100
-515,102	225,795	-0,012	-0,014
-514,087	800,000	-0,026	-0,063
-513,072	238,105	-0,056	-0,067
-512,058	51,688	-0,049	-0,033
-511,043	154,322	0,181	-0,179
-510,029	138,439	0,081	-0,077
-509,014	-200,000	0,030	0,157
-507,999	-117,146	0,058	-0,008
-506,985	-200,000	-0,004	0,129
-505,970	-200,000	0,000	-0,020
-504,956	-200,000	-0,009	-0,063
-503,941	149,019	0,052	-0,051
-502,926	105,718	0,090	0,076
-501,912	-200,000	0,017	0,080
-500,897	-200,000	0,006	0,057
-499,883	60,766	-0,044	0,032
-498,868	-200,000	0,006	-0,039
-497,853	-200,000	0,014	0,184
-496,839	-114,232	-0,040	-0,006
-495,824	23,922	0,088	0,052
-494,810	152,296	0,055	-0,054
-493,795	601,065	0,023	0,041
-492,781	701,092	0,054	-0,103
-491,766	-117,157	0,092	0,012
-490,751	-200,000	-0,024	0,197
-489,737	800,000	0,056	0,144
-488,722	-200,000	-0,015	0,049
-487,708	225,432	0,046	-0,054
-486,693	613,329	-0,065	0,118
-485,678	756,152	0,033	-0,064
-484,664	179,539	0,041	0,043
-483,649	-92,991	-0,087	-0,017
-482,635	-200,000	-0,009	-0,043
-481,620	-200,000	0,016	-0,090
-480,605	-200,000	0,007	0,071
-479,591	-200,000	0,002	0,121
-478,576	-86,412	-0,106	-0,023
-477,562	440,747	0,047	-0,074
-476,547	-97,332	-0,130	-0,024
-475,532	-200,000	0,016	-0,063
-474,518	103,606	0,049	0,042
-473,503	55,085	0,131	0,090
-472,489	536,554	-0,032	0,055
-471,474	333,944	0,082	-0,114
-470,459	240,774	-0,039	-0,046
-469,445	-200,000	0,002	0,021
-468,430	-53,535	-0,102	0,033
-467,416	-146,244	0,054	0,003
-466,401	-200,000	0,039	0,164
-465,386	579,945	-0,088	0,155
-464,372	-39,157	-0,125	0,047
-463,357	301,823	-0,024	0,032
-462,343	-11,091	-0,025	-0,012
-461,328	-58,505	-0,093	-0,029
-460,313	-200,000	-0,007	-0,045
-459,299	577,761	-0,055	0,096
-458,284	-187,814	0,068	0,001
-457,270	-112,506	0,085	-0,012
-456,255	800,000	-0,055	-0,142
-455,241	-200,000	-0,006	-0,051
-454,226	-200,000	-0,004	-0,046
-453,211	-200,000	0,016	-0,096
-452,197	800,000	-0,031	0,077
-451,182	-200,000	0,000	0,025
-450,168	-94,763	0,119	0,023
-449,153	-85,026	0,044	-0,010
-448,138	417,405	-0,103	-0,158
-447,124	-200,000	-0,003	-0,021
-446,109	-130,768	0,067	0,006
-445,095	44,536	0,084	-0,055
-444,080	101,128	-0,056	0,046
-443,065	-57,442	-0,010	-0,003
-442,051	800,000	0,028	-0,085
-441,036	-88,393	-0,134	0,029
-440,022	140,488	0,033	0,031
-439,007	-147,437	-0,050	-0,003
-437,992	-17,585	0,097	0,044
-436,978	133,595	-0,106	0,099
-435,963	800,000	-0,048	0,134
-434,949	176,473	-0,021	0,022
-433,934	-200,000	0,008	-0,072
-432,919	-85,842	0,121	-0,027
-431,905	800,000	-0,048	-0,138
-430,890	-148,617	0,137	-0,008
-429,876	-2,158	-0,095	0,048
-428,861	229,061	0,075	0,088
-427,846	-200,000	-0,043	0,142
-426,832	800,000	-0,045	-0,104
-425,817	117,048	0,013	-0,012
-424,803	110,516	-0,085	-0,073
-423,788	-86,927	0,090	0,020
-422,773	800,000	-0,022	-0,054
-421,759	105,359	0,098	0,083
-420,744	-34,723	0,044	0,017
-419,730	101,283	-0,058	0,048
-418,715	-44,295	-0,090	-0,032
-417,701	800,000	-0,046	0,099
-416,686	-200,000	0,003	-0,027
-415,671	-200,000	0,022	0,288
-414,657	-92,594	0,222	0,044
-413,642	-99,605	-0,258	-0,046
-412,628	-55,805	0,058	-0,019
-411,613	-200,000	0,012	0,056
-410,598	28,586	0,049	0,030
-409,584	-200,000	-0,009	0,120
-408,569	267,763	0,033	0,042
-407,555	-200,000	0,008	0,046
-406,540	-200,000	0,022	-0,082
-405,525	-147,979	-0,129	0,008
-404,511	280,262	0,088	-0,113
-403,496	74,570	0,046	-0,035
-402,482	80,480	-0,067	-0,052
-401,467	201,455	0,081	0,089
-400,452	88,375	-0,166	0,132
-399,438	-54,464	0,078	0,025
-398,423	623,541	-0,050	0,090
-397,409	-200,000	0,002	0,057
-396,394	-152,614	-0,125	0,006
-395,379	-131,970	-0,050	0,005
-394,365	-91,326	0,069	0,014
-393,350	-200,000	0,016	0,069
-392,336	-200,000	0,004	0,127
-391,321	-120,471	0,065	-0,008
-390,306	-200,000	-0,041	0,141
-389,292	105,904	0,079	0,067
-388,277	691,940	-0,046	0,086
-387,263	-200,000	0,011	0,137
-386,248	-150,930	0,042	-0,002
-385,233	-200,000	0,018	0,063
-384,219	-200,000	-0,012	0,062
-383,204	519,272	-0,018	-0,030
-382,190	800,000	-0,049	0,155
-381,175	17,169	-0,089	0,050
-380,160	-115,476	-0,063	-0,008
-379,146	-200,000	0,019	0,063
-378,131	17,853	-0,116	0,066
-377,117	-72,857	0,070	0,018
-376,102	220,233	-0,081	-0,093
-375,088	62,864	-0,047	-0,034
-374,073	-200,000	0,028	-0,104
-373,058	-32,084	0,067	0,027
-372,044	23,600	0,052	-0,031
-371,029	800,000	0,027	-0,077
-370,015	-38,422	-0,090	0,034
-369,000	46,328	0,111	-0,073
-367,985	499,553	0,024	-0,039
-366,971	-200,000	0,010	0,042
-365,956	119,597	0,130	0,115
-364,942	-67,962	0,067	0,019
-363,927	30,180	0,092	-0,056
-362,912	-95,519	-0,055	-0,010
-361,898	-37,060	0,020	-0,008
-360,883	-152,503	0,081	0,004
-359,869	-126,067	-0,158	0,017
-358,854	31,607	0,067	0,041
-357,839	-200,000	0,017	0,072
-356,825	-200,000	-0,007	-0,086
-355,810	-200,000	-0,004	-0,071
-354,796	90,267	-0,058	-0,046
-353,781	334,523	-0,084	-0,116
-352,766	-189,559	-0,036	0,000
-351,752	10,188	-0,094	0,051
-350,737	-200,000	0,002	0,101
-349,723	47,509	0,028	0,019
-348,708	800,000	-0,037	0,085
-347,693	-200,000	0,022	0,089
-346,679	-35,227	-0,037	0,014
-345,664	-200,000	0,009	0,046
-344,650	-200,000	0,004	-0,136
-343,635	800,000	-0,040	-0,124
-342,620	-53,236	0,010	-0,003
-341,606	58,764	0,136	-0,095
-340,591	-55,289	-0,210	0,067
-339,577	-200,000	0,004	-0,045
-338,562	-15,154	0,115	-0,052
-337,548	-15,264	-0,111	-0,050
-336,533	800,000	-0,045	-0,092
-335,518	-200,000	0,006	0,100
-334,504	57,321	0,161	0,112
-333,489	45,338	-0,050	0,033
-332,475	-200,000	0,011	0,074
-331,460	230,951	0,044	0,052
-330,445	61,361	0,157	-0,111
-329,431	-126,804	0,123	0,013
-328,416	284,432	-0,038	0,049
-327,402	-83,432	0,063	0,014
-326,387	219,291	0,070	-0,080
-325,372	177,507	0,056	0,058
-324,358	-92,185	-0,042	-0,008
-323,343	67,155	-0,078	-0,057
-322,329	243,361	0,103	0,124
-321,314	-97,580	0,113	0,021
-320,299	182,593	-0,032	0,033
-319,285	124,992	-0,107	-0,096
-318,270	-200,000	0,018	-0,156
-317,256	800,000	-0,053	-0,149
-316,241	-200,000	-0,022	0,182
-315,226	478,621	0,040	0,065
-314,212	-3,400	0,068	0,034
-313,197	-200,000	0,002	0,019
-312,183	-166,875	0,129	-0,004
-311,168	-200,000	-0,020	-0,109
-310,153	138,421	-0,083	-0,077
-309,139	40,668	-0,147	-0,094
-308,124	-200,000	0,034	-0,129
-307,110	203,468	-0,057	-0,063
-306,095	621,484	-0,035	0,063
-305,080	17,462	0,068	-0,038
-304,066	800,000	-0,029	0,089
-303,051	793,475	-0,043	0,085
-302,037	-200,000	-0,031	-0,122
-301,022	1,056	0,063	0,032
-300,008	-200,000	0,020	-0,066
-298,993	800,000	0,020	-0,051
-297,978	140,059	0,019	-0,018
-296,964	-200,000	-0,002	-0,009
-295,949	-200,000	0,017	-0,083
-294,935	-200,000	0,016	0,085
-293,920	-100,844	0,067	-0,012
-292,905	-49,572	-0,150	0,051
-291,891	105,830	0,045	0,038
-290,876	800,000	-0,043	0,136
-289,862	484,885	-0,039	0,063
-288,847	476,558	-0,081	-0,131
-287,832	135,330	-0,134	-0,124
-286,818	146,680	0,104	-0,099
-285,803	-200,000	0,014	-0,063
-284,789	8,096	-0,136	0,073
-283,774	119,788	0,137	0,121
-282,759	-200,000	-0,024	-0,135
-281,745	-200,000	-0,025	-0,094
-280,730	-137,454	0,088	-0,007
-279,716	-110,592	-0,056	0,008
-278,701	99,970	0,038	0,031
-277,686	-77,281	0,033	0,008
-276,672	-200,000	0,014	0,067
-275,657	150,511	0,009	-0,009
-274,643	268,837	-0,058	-0,073
-273,628	-77,698	0,128	0,031
-272,613	311,659	0,069	-0,092
-271,599	154,993	-0,073	-0,072
-270,584	-200,000	-0,012	0,145
-269,570	-116,302	0,179	-0,023
-268,555	-200,000	0,010	0,136
-267,540	-200,000	-0,119	-0,000
-266,526	-35,599	-0,054	-0,021
-265,511	45,558	-0,102	-0,067
-264,497	-200,000	-0,003	0,088
-263,482	-149,640	0,072	0,004
-262,467	800,000	0,053	0,112
-261,453	-200,000	0,009	0,050
-260,438	-53,102	-0,104	-0,034
-259,424	-200,000	0,009	-0,090
-258,409	375,266	-0,041	0,060
-257,395	193,053	0,096	-0,103
-256,380	800,000	-0,061	0,133
-255,365	-189,424	0,191	-0,002
-254,351	124,384	-0,139	0,125
-253,336	363,185	-0,049	0,071
-252,322	195,921	0,086	-0,093
-251,307	800,000	-0,053	0,125
-250,292	13,164	0,095	-0,052
-249,278	-200,000	0,004	0,087
-248,263	-87,717	0,204	-0,043
-247,249	492,011	-0,007	0,012
-246,234	800,000	0,037	0,096
-245,219	53,791	0,035	-0,024
-244,205	-200,000	0,017	-0,103
-243,190	-200,000	0,021	-0,094
-242,176	-200,000	0,009	-0,054
-241,161	-55,331	0,063	0,020
-240,146	-71,110	0,042	-0,011
-239,132	-11,384	-0,087	-0,041
-238,117	-200,000	-0,002	-0,140
-237,103	-63,622	-0,093	0,027
-236,088	-200,000	0,007	-0,096
-235,073	119,043	0,088	-0,077
-234,059	800,000	-0,044	0,094
-233,044	27,132	0,091	-0,054
-232,030	800,000	0,086	-0,201
-231,015	84,785	-0,128	-0,100
-230,000	800,000	0,051	-0,159
-228,986	419,726	-0,039	-0,059
-227,971	-47,581	-0,118	-0,040
-226,957	136,433	0,157	0,146
-225,942	-43,667	0,021	0,008
-224,927	-200,000	0,002	0,029
-223,913	800,000	0,104	0,208
-222,898	-200,000	-0,025	0,000
-221,884	140,468	0,038	-0,035
-220,869	800,000	0,044	0,095
-219,855	31,052	-0,027	-0,017
-218,840	4,885	-0,058	0,030
-217,825	12,424	-0,127	-0,069
-216,811	477,429	-0,090	0,146
-215,796	175,172	0,074	-0,076
-214,782	-200,000	0,022	-0,140
-213,767	-200,000	0,011	0,156
-212,752	800,000	0,055	0,131
-211,738	509,312	-0,013	0,022
-210,723	95,701	-0,078	-0,063
-209,709	-106,363	-0,134	-0,021
-208,694	800,000	0,054	0,120
-207,679	253,386	0,028	-0,035
-206,665	7,619	-0,163	0,086
-205,650	800,000	0,053	0,105
-204,636	800,000	0,009	0,018
-203,621	-28,582	0,058	-0,024
-202,606	495,825	-0,061	-0,100
-201,592	548,069	0,040	-0,068
-200,577	360,290	-0,040	0,057
-199,563	134,471	-0,048	-0,044
-198,548	800,000	0,027	0,058
-197,533	-200,000	-0,012	-0,108
-196,519	714,441	-0,033	-0,063
-195,504	25,381	-0,070	0,041
-194,490	-113,631	-0,113	-0,015
-193,475	800,000	0,067	-0,199
-192,460	-200,000	-0,007	-0,032
-191,446	-154,303	-0,011	-0,001
-190,431	-134,679	0,099	-0,008
-189,417	-200,000	0,002	-0,031
-188,402	175,315	0,102	0,105
-187,387	-150,467	-0,068	-0,004
-186,373	800,000	-0,082	-0,163
-185,358	-200,000	0,025	-0,080
-184,344	-22,142	-0,120	-0,052
-183,329	252,184	-0,001	-0,001
-182,315	-200,000	-0,001	0,039
-181,300	72,418	-0,091	-0,067
-180,285	-124,758	0,094	0,010
-179,271	-61,613	-0,015	0,005
-178,256	-103,040	-0,087	0,014
-177,242	-146,638	0,122	0,007
-176,227	-23,638	0,108	0,046
-175,212	-200,000	-0,023	0,264
-174,198	-18,050	0,082	-0,036
-173,183	-9,382	-0,076	-0,036
-172,169	157,609	-0,074	-0,073
-171,154	180,303	0,054	-0,056
-170,139	-12,378	0,142	0,065
-169,125	-11,388	0,137	0,064
-168,110	-78,335	-0,082	-0,020
-167,096	535,227	0,033	0,056
-166,081	-200,000	-0,004	-0,108
-165,066	293,232	0,071	-0,092
-164,052	-200,000	0,028	-0,148
-163,037	800,000	0,049	0,106
-162,023	327,081	0,021	0,029
-161,008	-58,258	0,026	0,008
-159,993	405,367	0,053	-0,080
-158,979	-37,482	0,054	-0,020
-157,964	-200,000	0,007	-0,107
-156,950	-44,677	-0,027	0,009
-155,935	-122,684	0,123	0,014
-154,920	595,014	-0,072	0,126
-153,906	-58,029	0,140	0,043
-152,891	154,439	-0,121	0,118
-151,877	27,712	-0,055	0,033
-150,862	543,125	-0,034	0,058
-149,847	42,498	0,055	0,036
-148,833	155,032	-0,024	0,024
-147,818	339,924	0,047	-0,066
-146,804	-30,754	0,054	-0,021
-145,789	-39,061	-0,047	0,017
-144,775	40,567	0,066	-0,042
-143,760	657,022	-0,054	-0,098
-142,745	482,631	-0,074	0,120
-141,731	-29,586	0,074	0,030
-140,716	-57,747	-0,017	0,005
-139,702	85,021	0,044	0,034
-138,687	-52,204	-0,094	-0,031
-137,672	84,524	-0,177	-0,137
-136,658	135,254	0,017	-0,016
-135,643	800,000	0,012	-0,024
-134,629	40,820	-0,087	0,055
-133,614	-200,000	-0,005	0,046
-132,599	25,398	-0,060	0,035
-131,585	-11,450	-0,108	0,050
-130,570	189,620	-0,028	0,030
-129,556	24,585	-0,056	0,033
-128,541	93,980	-0,149	0,119
-127,526	-91,323	-0,099	0,020
-126,512	-34,368	-0,139	0,054
-125,497	-122,693	0,133	-0,015
-124,483	709,733	-0,037	0,069
-123,468	93,743	-0,066	0,053
-122,453	-111,475	-0,052	0,007
-121,439	800,000	0,019	-0,047
-120,424	164,573	-0,070	0,070
-119,410	-127,150	0,005	-0,000
-118,395	-200,000	0,014	0,140
-117,380	-200,000	-0,028	0,102
-116,366	295,373	-0,099	-0,128
-115,351	-200,000	-0,006	-0,155
-114,337	745,378	-0,033	-0,062
-113,322	-200,000	0,025	0,092
-112,307	-54,889	0,138	0,044
-111,293	-200,000	-0,010	-0,033
-110,278	-140,267	-0,068	0,005
-109,264	8,819	0,069	0,036
-108,249	-82,761	-0,066	-0,015
-107,234	-200,000	-0,007	-0,164
-106,220	-200,000	0,008	0,147
-105,205	-65,659	-0,100	0,028
-104,191	-129,801	0,131	-0,013
-103,176	-200,000	-0,003	0,052
-102,162	-200,000	-0,009	0,105
-101,147	-200,000	0,039	0,159
-100,132	-70,434	0,058	-0,016
-99,118	-200,000	0,047	0,179
-98,103	-200,000	0,025	-0,137
-97,089	-200,000	-0,003	0,060
-96,074	112,770	-0,030	0,026
-95,059	243,735	-0,045	0,054
-94,045	81,422	0,089	0,068
-93,030	688,598	-0,025	0,047
-92,016	-40,872	-0,114	-0,042
-91,001	-3,128	0,142	0,070
-89,986	-93,688	0,029	0,006
-88,972	-48,355	-0,058	-0,020
-87,957	308,622	0,052	-0,068
-86,943	215,143	0,188	-0,211
-85,928	-124,932	-0,058	-0,006
-84,913	-31,755	0,090	-0,035
-83,899	-98,664	-0,131	-0,023
-82,884	-20,477	0,056	-0,024
-81,870	-112,339	0,114	0,016
-80,855	109,835	0,100	0,085
-79,840	800,000	-0,039	-0,093
-78,826	-104,324	-0,029	-0,005
-77,811	-85,172	0,055	0,012
-76,797	-200,000	-0,014	-0,145
-75,782	-59,496	0,131	0,039
-74,767	-200,000	-0,035	0,000
-73,753	800,000	-0,058	0,148
-72,738	592,428	0,052	0,091
-71,724	-200,000	-0,024	-0,088
-70,709	-138,141	-0,197	0,015
-69,694	112,576	0,041	-0,035
-68,680	-51,671	0,196	-0,064
-67,665	-200,000	0,053	0,187
-66,651	-200,000	0,019	0,112
-65,636	237,424	0,066	0,078
-64,622	-173,961	-0,087	-0,002
-63,607	32,629	-0,149	-0,091
-62,592	-65,101	-0,053	0,015
-61,578	-200,000	-0,030	-0,137
-60,563	235,696	-0,049	-0,057
-59,549	800,000	-0,036	0,110
-58,534	24,066	-1,883	-1,095
-57,519	480,326	-1,288	-2,069
-56,505	-200,000	-0,375	-4,296
-55,490	474,447	0,858	1,372
-54,476	800,000	5,082	11,122
-53,461	-200,000	21,073	329,666
-52,446	800,000	757,771	2323,885
-51,432	549,865	1662,281	2824,808
-50,417	73,450	1663,921	1228,353
-49,403	18,703	1536,859	865,916
-48,388	12,632	1459,858	793,145
-47,373	18,985	1450,593	818,592
-46,359	15,792	1440,144	797,464
-45,344	10,936	1435,901	771,944
-44,330	10,880	1433,896	770,569
-43,315	10,851	1432,136	769,455
-42,300	10,866	1430,207	768,458
-41,286	10,892	1429,003	767,908
-40,271	10,863	1427,629	767,001
-39,257	10,840	1426,759	766,393
-38,242	10,876	1425,458	765,834
-37,227	10,856	1424,407	765,143
-36,213	10,878	1423,069	764,498
-35,198	10,872	1422,069	763,904
-34,184	10,884	1421,325	763,529
-33,169	10,838	1419,819	762,474
-32,154	10,881	1418,901	762,152
-31,140	10,933	1417,380	761,551
-30,125	10,967	1416,319	761,110
-29,111	10,943	1415,341	760,445
-28,096	10,904	1414,103	759,564
-27,082	10,879	1412,809	758,723
-26,067	10,841	1411,793	757,968
-25,052	10,850	1410,912	757,508
-24,038	10,873	1409,792	756,983
-23,023	10,838	1408,787	756,252
-22,009	10,857	1407,610	755,677
-20,994	10,814	1406,750	754,984
-19,979	10,834	1405,867	754,575
-18,965	10,810	1404,865	753,892
-17,950	10,812	1404,096	753,461
-16,936	10,777	1403,101	752,732
-15,921	10,753	1402,282	752,150
-14,906	10,710	1401,592	751,550
-13,892	10,789	1400,271	751,182
-12,877	10,756	1399,485	750,576
-11,863	10,741	1398,621	750,015
-10,848	10,682	1398,038	749,398
-9,833	10,750	1396,797	749,016
-8,819	10,708	1396,060	748,398
-7,804	10,663	1395,361	747,784
-6,790	10,678	1394,194	747,201
-5,775	10,672	1392,967	746,482
-4,760	10,702	1392,071	746,114
-3,746	10,712	1391,213	745,672
-2,731	10,646	1390,505	744,956
-1,717	10,619	1389,592	744,312
-0,702	10,640	1387,588	743,308
0,313	14,667	1301,302	715,533
1,327	30,902	692,504	417,692
2,342	48,032	120,137	79,086
3,356	1,142	16,525	8,339
4,371	-2,436	3,368	1,659
5,386	-23,619	0,914	0,385
6,400	800,000	0,196	0,531
7,415	505,210	-0,229	-0,375
8,429	-83,733	-0,170	-0,038
9,444	16,021	-0,324	-0,180
10,459	154,902	-0,247	-0,240
11,473	16,579	-0,459	-0,255
12,488	-85,215	-0,215	-0,047
13,502	-24,003	-0,389	-0,163
14,517	67,425	-0,307	-0,221
15,531	224,115	-0,264	-0,301
16,546	-5,755	-0,360	-0,173
17,561	-8,796	-0,274	-0,129
18,575	-200,000	-0,020	-0,103
19,590	93,510	-0,254	-0,202
20,604	-34,423	-0,323	-0,124
21,619	35,491	-0,432	-0,267
22,634	-42,251	-0,428	-0,153
23,648	126,937	-0,408	-0,364
24,663	-34,715	-0,434	-0,166
25,677	-2,496	-0,384	-0,189
26,692	20,353	-0,276	-0,157
27,707	65,027	-0,341	-0,243
28,721	58,724	-0,377	-0,261
29,736	-41,624	-0,330	-0,119
30,750	-24,792	-0,513	-0,214
31,765	263,113	-0,301	-0,369
32,780	154,649	-0,294	-0,284
33,794	162,376	-0,450	-0,444
34,809	171,146	-0,260	-0,263
35,823	-17,632	-0,481	-0,212
36,838	103,939	-0,457	-0,378
37,853	132,824	-0,360	-0,327
38,867	175,501	-0,349	-0,356
39,882	105,846	-0,369	-0,307
40,896	74,316	-0,339	-0,250
41,911	92,326	-0,281	-0,223
42,926	13,044	-0,380	-0,206
43,940	19,570	-0,375	-0,211
44,955	118,442	-0,279	-0,242
45,969	193,075	-0,266	-0,282
46,984	-6,139	-0,365	-0,175
47,999	62,153	-0,283	-0,198
49,013	33,404	-0,232	-0,142
50,028	-6,355	-0,345	-0,165
51,042	104,037	-0,353	-0,291
52,057	78,252	-0,310	-0,232
53,071	111,995	-0,334	-0,283
54,086	52,719	-0,451	-0,302
55,101	134,351	-0,255	-0,232
56,115	50,653	-0,268	-0,178
57,130	70,915	-0,302	-0,219
58,144	120,455	-0,286	-0,250
59,159	-35,398	-0,527	-0,200
60,174	55,865	-0,409	-0,278
61,188	256,195	-0,298	-0,360
62,203	-51,704	-0,393	-0,128
63,217	-50,308	-0,335	-0,111
64,232	69,278	-0,322	-0,232
65,247	28,655	-0,408	-0,242
66,261	290,316	-0,227	-0,290
67,276	-7,359	-0,424	-0,201
68,290	65,673	-0,327	-0,232
69,305	-75,088	-0,374	-0,093
70,320	-6,417	-0,314	-0,150
71,334	-34,091	-0,251	-0,096
72,349	-82,606	-0,408	-0,092
73,363	44,996	-0,380	-0,245
74,378	180,883	-0,206	-0,213
75,393	52,260	-0,305	-0,204
76,407	-65,247	-0,313	-0,088
77,422	-87,547	-0,398	-0,084
78,436	18,370	-0,285	-0,159
79,451	30,756	-0,305	-0,183
80,466	84,042	-0,308	-0,236
81,480	-1,733	-0,334	-0,164
82,495	133,763	-0,276	-0,251
83,509	28,723	-0,272	-0,161
84,524	70,087	-0,189	-0,136
85,539	67,874	-0,349	-0,250
86,553	-130,367	-0,339	0,032
87,568	95,860	-0,276	-0,220
88,582	34,199	-0,303	-0,185
89,597	-4,945	-0,365	-0,176
90,611	278,885	-0,230	-0,287
91,626	67,046	-0,256	-0,182
92,641	125,328	-0,171	-0,151
93,655	-36,286	-0,336	-0,126
94,670	42,743	-0,484	-0,308
95,684	-85,785	-0,389	-0,084
96,699	-5,050	-0,215	-0,103
97,714	12,213	-0,284	-0,152
98,728	43,998	-0,347	-0,222
99,743	-114,948	-0,255	-0,034
100,757	275,773	-0,196	-0,244
101,772	35,911	-0,180	-0,111
102,787	116,123	-0,377	-0,323
103,801	22,658	-0,303	-0,173
104,816	12,434	-0,375	-0,201
105,830	-34,885	-0,363	-0,138
106,845	-128,628	-0,209	0,020
107,860	123,141	-0,199	-0,174
108,874	23,016	-0,242	-0,139
109,889	-50,288	-0,404	-0,133
110,903	80,448	-0,292	-0,219
111,918	-3,428	-0,318	-0,154
112,933	800,000	-0,077	-0,199
113,947	38,223	-0,213	-0,132
114,962	22,215	-0,165	-0,094
115,976	-32,064	-0,274	-0,107
116,991	46,992	-0,300	-0,195
118,006	1,975	-0,170	-0,085
119,020	206,991	-0,270	-0,295
120,035	206,343	-0,175	-0,191
121,049	-29,875	-0,294	-0,116
122,064	-73,404	-0,150	0,038
123,079	26,496	-0,249	-0,145
124,093	33,334	-0,376	-0,227
125,108	76,735	-0,373	-0,276
126,122	205,757	-0,207	-0,225
127,137	800,000	-0,105	-0,241
128,151	94,386	-0,165	-0,131
129,166	156,643	-0,198	-0,191
130,181	32,277	-0,222	-0,134
131,195	152,354	-0,256	-0,244
132,210	85,873	-0,280	-0,215
133,224	106,276	-0,207	-0,171
134,239	269,572	-0,164	-0,201
135,254	114,240	-0,148	-0,125
136,268	29,158	-0,316	-0,187
137,283	-25,813	-0,178	-0,073
138,297	-10,471	-0,423	-0,195
139,312	87,277	-0,342	-0,263
140,327	-2,629	-0,256	-0,125
141,341	-62,245	-0,296	0,085
142,356	264,246	-0,180	-0,218
143,370	267,849	-0,187	-0,229
144,385	23,919	-0,261	-0,149
145,400	78,099	-0,204	-0,151
146,414	154,843	-0,209	-0,200
147,429	131,671	-0,196	-0,175
148,443	221,382	-0,245	-0,274
149,458	-41,982	-0,317	-0,112
150,473	225,818	-0,128	-0,145
151,487	-41,728	-0,258	-0,092
152,502	22,722	-0,337	-0,192
153,516	433,496	-0,219	-0,332
154,531	-200,000	-0,068	-0,214
155,546	67,549	-0,280	-0,199
156,560	1,352	-0,268	-0,134
157,575	162,938	-0,225	-0,220
158,589	35,561	-0,276	-0,168
159,604	-74,536	-0,240	-0,060
160,619	-7,617	-0,339	-0,159
161,633	344,799	-0,183	-0,251
162,648	94,538	-0,261	-0,206
163,662	121,408	-0,187	-0,162
164,677	92,931	-0,224	-0,176
165,692	-56,995	-0,253	-0,077
166,706	-64,570	-0,339	-0,095
167,721	-9,414	-0,223	-0,103
168,735	164,464	-0,229	-0,224
169,750	41,146	-0,232	-0,145
170,764	-60,214	-0,289	-0,085
171,779	-8,249	-0,126	-0,059
172,794	648,025	-0,093	-0,166
173,808	323,626	-0,198	-0,263
174,823	159,958	-0,352	-0,341
175,837	677,988	-0,129	-0,235
176,852	486,660	-0,199	-0,317
177,867	106,024	-0,151	-0,124
178,881	90,882	-0,117	-0,091
179,896	201,493	-0,236	-0,253
180,910	426,986	-0,119	-0,179
181,925	41,204	-0,418	-0,262
182,940	48,756	-0,302	-0,196
183,954	55,439	-0,231	-0,155
184,969	-5,306	-0,145	-0,069
185,983	800,000	-0,092	-0,189
186,998	126,585	-0,106	-0,093
188,013	153,714	-0,186	-0,177
189,027	800,000	-0,043	-0,121
190,042	-34,828	-0,398	-0,150
191,056	800,000	-0,085	-0,207
192,071	102,069	-0,223	-0,180
193,086	134,037	-0,172	-0,155
194,100	-142,120	-0,214	0,014
195,115	244,337	-0,161	-0,188
196,129	93,364	-0,183	-0,144
197,144	580,915	-0,137	-0,234
198,159	800,000	-0,130	-0,272
199,173	-85,797	-0,268	-0,057
200,188	100,160	-0,113	-0,090
201,202	-92,555	-0,057	-0,011
202,217	493,669	-0,076	-0,122
203,232	144,802	-0,324	-0,300
204,246	318,239	-0,237	-0,312
205,261	190,233	-0,199	-0,207
206,275	273,127	-0,226	-0,277
207,290	39,928	-0,132	-0,082
208,304	541,456	-0,035	-0,059
209,319	74,624	-0,165	-0,120
210,334	119,497	-0,111	-0,095
211,348	-97,694	-0,209	-0,037
212,363	210,344	-0,206	-0,224
213,377	-27,443	-0,170	-0,068
214,392	65,091	-0,297	-0,207
215,407	113,142	-0,166	-0,139
216,421	73,943	-0,275	-0,200
217,436	-165,719	-0,182	-0,005
218,450	154,377	-0,214	-0,204
219,465	800,000	-0,147	-0,308
220,480	-141,105	-0,123	0,009
221,494	104,725	-0,241	-0,197
222,509	-172,504	-0,215	-0,005
223,523	-185,566	-0,240	0,002
224,538	-88,657	-0,259	-0,053
225,553	77,920	-0,245	-0,181
226,567	-138,392	-0,260	-0,020
227,582	-155,473	-0,225	-0,010
228,596	49,704	-0,194	-0,126
229,611	106,596	-0,224	-0,183
230,626	434,351	-0,123	-0,186
231,640	-82,931	-0,253	-0,056
232,655	-145,102	-0,165	0,010
233,669	256,243	-0,161	-0,191
234,684	38,290	-0,144	-0,089
235,699	144,992	-0,198	-0,183
236,713	121,837	-0,244	-0,210
237,728	142,229	-0,157	-0,144
238,742	236,227	-0,104	-0,119
239,757	296,078	-0,206	-0,261
240,772	5,445	-0,276	0,140
241,786	48,764	-0,265	-0,172
242,801	9,338	-0,218	-0,114
243,815	144,652	-0,120	-0,111
244,830	145,741	-0,129	-0,119
245,844	-200,000	0,015	-0,098
246,859	-98,419	-0,258	0,045
247,874	146,976	-0,113	-0,105
248,888	316,011	-0,179	-0,234
249,903	-13,400	-0,227	-0,101
250,917	-24,092	-0,122	-0,050
251,932	120,981	-0,118	-0,101
252,947	33,939	-0,056	-0,034
253,961	256,668	-0,147	-0,175
254,976	16,431	-0,186	-0,101
255,990	-143,167	-0,193	0,013
257,005	200,548	-0,164	-0,174
258,020	-2,575	-0,187	-0,090
259,034	14,038	-0,140	-0,075
260,049	110,858	-0,157	-0,130
261,063	43,913	-0,202	-0,127
262,078	-62,212	-0,225	-0,064
263,093	161,369	-0,181	-0,174
264,107	-45,022	-0,096	-0,033
265,122	800,000	-0,111	-0,228
266,136	46,969	-0,130	-0,083
267,151	-123,263	-0,119	0,013
268,166	-31,371	-0,209	-0,080
269,180	-125,661	-0,301	-0,031
270,195	-200,000	0,003	-0,060
271,209	34,808	-0,166	-0,100
272,224	-13,044	-0,120	-0,053
273,239	-152,454	-0,163	0,008
274,253	-116,632	-0,156	0,020
275,268	247,992	-0,159	-0,186
276,282	330,344	-0,184	-0,244
277,297	709,952	-0,098	-0,179
278,312	110,420	-0,209	-0,173
279,326	-200,000	-0,055	-0,175
280,341	-40,397	-0,174	-0,062
281,355	218,034	-0,153	-0,169
282,370	135,780	-0,132	-0,118
283,384	120,408	-0,127	-0,108
284,399	800,000	-0,112	-0,221
285,414	128,299	-0,198	-0,173
286,428	133,234	-0,154	-0,137
287,443	296,498	-0,125	-0,159
288,457	229,535	-0,066	-0,074
289,472	800,000	-0,089	-0,217
290,487	-113,866	-0,169	-0,022
291,501	-148,530	-0,224	-0,012
292,516	782,520	-0,107	-0,202
293,530	-82,897	-0,168	0,037
294,545	6,874	-0,130	-0,066
295,560	11,554	-0,144	-0,076
296,574	-70,295	-0,126	-0,033
297,589	800,000	-0,012	0,032
298,603	229,021	-0,225	-0,252
299,618	32,847	-0,168	-0,100
300,633	83,106	-0,148	-0,110
301,647	-56,804	-0,172	-0,052
302,662	-182,606	-0,042	0,001
303,676	-103,505	-0,200	0,032
304,691	95,889	-0,187	-0,147
305,706	-57,492	-0,226	0,068
306,720	-8,545	-0,128	-0,059
307,735	18,608	-0,264	-0,145
308,749	385,640	-0,112	-0,159
309,764	800,000	-0,056	-0,123
310,779	-115,839	-0,096	-0,012
311,793	800,000	-0,023	-0,067
312,808	-133,758	-0,185	0,016
313,822	-115,816	-0,087	-0,011
314,837	77,587	-0,058	0,042
315,852	-200,000	-0,028	-0,266
316,866	-63,634	-0,126	-0,035
317,881	-153,645	-0,162	-0,008
318,895	-59,309	-0,116	-0,034
319,910	762,564	-0,106	-0,197
320,925	-78,617	-0,124	-0,029
321,939	-19,284	-0,198	-0,084
322,954	-5,074	-0,141	-0,066
323,968	-76,529	-0,096	0,023
324,983	-64,674	-0,201	-0,055
325,997	61,280	-0,226	-0,154
327,012	125,212	-0,179	-0,155
328,027	-68,875	-0,089	-0,023
329,041	800,000	-0,080	-0,189
330,056	5,466	-0,142	-0,072
331,070	800,000	-0,050	-0,116
332,085	201,941	-0,152	-0,160
333,100	265,850	-0,081	-0,097
334,114	70,399	-0,148	-0,105
335,129	800,000	-0,075	-0,155
336,143	122,663	-0,154	-0,132
337,158	800,000	-0,057	-0,149
338,173	173,855	-0,128	-0,127
339,187	386,915	-0,146	-0,207
340,202	800,000	-0,027	-0,058
341,216	100,527	-0,175	-0,139
342,231	270,106	-0,194	-0,234
343,246	16,107	-0,290	-0,156
344,260	-117,309	-0,148	-0,018
345,275	-61,433	-0,148	0,042
346,289	517,817	-0,106	-0,170
347,304	276,584	-0,168	-0,205
348,319	246,975	-0,104	-0,121
349,333	174,493	-0,087	-0,086
350,348	-8,868	-0,164	-0,075
351,362	-37,262	-0,159	-0,058
352,377	-33,597	-0,051	0,019
353,392	-126,144	-0,225	-0,023
354,406	-200,000	-0,029	-0,114
355,421	206,655	1308,606	1396,035
356,435	158,946	1468,543	1396,519
