DTS Sentinel unit serial number:	SN410029Multiplexer serial number:	ORYXHardware model number:	OX2-SRSoftware version number:	ORYX F/W v4,00 Oryx Data Collector v3.7.2.0data status	okinstallation	B3 Nyhavnadifferential loss correction	single-endedforward channel	channel 1reverse channel	N/Adate	2023/12/02time	09:37:30forward acquisition time	300,00reverse acquisition time	0,00gamma	499,1914k internal	0,3196k external	0,3196temperature offset calibration	1,0000default loss term (dB/km)	0,3820temperature slope calibration	1,0000multiplexer offset coefficient	1,0000multiplexer slope coefficient	1,0000fibre end	0,00T internal ref (°C)	15,01T ext. ref 1 (°C)	-0,59T ext. ref 2 (°C)	-0,60length (m)	temperature (°C)	Stokes	anti-Stokes-744,400	302,715	-0,140	-0,190
-743,385	688,738	0,144	0,277
-742,371	800,000	-0,069	-0,219
-741,356	-200,000	0,005	0,413
-740,342	205,498	-0,191	-0,216
-739,327	-200,000	0,072	0,233
-738,312	800,000	-0,125	-0,279
-737,298	-200,000	0,039	0,303
-736,283	257,297	-0,205	-0,257
-735,269	-200,000	0,006	0,271
-734,254	583,264	-0,128	-0,229
-733,239	33,867	-0,278	0,176
-732,225	13,642	-0,109	-0,061
-731,210	174,384	0,177	0,186
-730,196	470,638	-0,049	0,080
-729,181	-112,979	-0,087	-0,012
-728,167	800,000	0,066	0,169
-727,152	326,626	0,019	-0,026
-726,137	247,551	0,086	-0,106
-725,123	327,918	-0,091	0,128
-724,108	170,436	-0,107	-0,112
-723,094	120,403	-0,162	-0,146
-722,079	800,000	0,098	-0,256
-721,064	744,318	-0,110	-0,217
-720,050	288,128	0,050	0,066
-719,035	-200,000	0,033	-0,115
-718,021	53,305	0,057	-0,040
-717,006	-93,878	-0,037	0,007
-715,991	-200,000	-0,003	0,019
-714,977	0,439	-0,150	0,078
-713,962	-42,274	-0,116	0,043
-712,948	342,566	0,084	-0,119
-711,933	60,139	0,154	-0,111
-710,918	1,466	-0,014	0,007
-709,904	800,000	-0,019	-0,054
-708,889	-116,565	0,106	-0,014
-707,875	478,957	0,074	-0,122
-706,860	755,843	-0,026	0,051
-705,845	-200,000	0,004	-0,018
-704,831	190,057	0,052	-0,057
-703,816	800,000	-0,015	0,037
-702,802	361,515	-0,048	-0,070
-701,787	-200,000	-0,005	-0,098
-700,772	752,668	-0,071	-0,140
-699,758	-155,578	0,028	-0,001
-698,743	-156,882	-0,079	-0,003
-697,729	54,234	0,025	0,017
-696,714	462,478	-0,071	0,116
-695,699	-126,281	-0,142	-0,015
-694,685	163,658	-0,145	-0,148
-693,670	-89,717	-0,116	-0,025
-692,656	800,000	0,020	-0,062
-691,641	-77,643	-0,088	0,022
-690,627	-116,739	0,105	0,014
-689,612	-200,000	-0,008	-0,054
-688,597	204,047	-0,095	0,107
-687,583	-19,269	-0,161	-0,072
-686,568	-200,000	-0,009	-0,121
-685,554	800,000	-0,003	-0,008
-684,539	171,163	0,075	-0,079
-683,524	800,000	0,055	-0,116
-682,510	-200,000	0,000	-0,048
-681,495	-106,382	0,044	-0,007
-680,481	-65,350	-0,052	0,015
-679,466	-200,000	0,019	-0,120
-678,451	-34,033	0,185	0,074
-677,437	110,751	-0,064	-0,056
-676,422	-93,363	-0,118	-0,024
-675,408	9,176	0,019	-0,010
-674,393	484,608	-0,060	0,099
-673,378	251,164	-0,024	0,030
-672,364	-38,721	-0,011	-0,004
-671,349	-200,000	-0,009	-0,109
-670,335	45,586	0,064	-0,043
-669,320	111,701	0,076	-0,066
-668,305	-155,949	0,193	0,009
-667,291	164,916	0,047	-0,048
-666,276	-151,987	0,072	0,004
-665,262	-139,012	0,029	-0,002
-664,247	402,752	0,050	-0,077
-663,232	800,000	0,071	-0,147
-662,218	-44,243	0,043	0,016
-661,203	357,757	0,085	0,123
-660,189	-105,703	0,060	0,010
-659,174	191,862	-0,053	-0,058
-658,159	800,000	-0,038	-0,115
-657,145	-200,000	-0,002	-0,118
-656,130	-200,000	0,000	0,057
-655,116	-33,145	-0,036	-0,014
-654,101	59,375	0,025	0,018
-653,086	-200,000	0,017	0,077
-652,072	39,546	-0,115	-0,074
-651,057	127,112	-0,043	-0,039
-650,043	-200,000	-0,009	-0,069
-649,028	-200,000	0,030	-0,100
-648,014	-2,764	-0,029	-0,014
-646,999	800,000	-0,028	0,073
-645,984	-132,417	0,049	0,005
-644,970	560,714	0,004	-0,007
-643,955	-96,301	-0,110	-0,021
-642,941	-200,000	-0,009	-0,033
-641,926	99,172	0,079	-0,066
-640,911	-126,174	-0,069	0,007
-639,897	289,108	0,082	-0,108
-638,882	-47,433	0,133	-0,047
-637,868	429,916	0,055	0,087
-636,853	516,131	-0,060	-0,103
-635,838	800,000	-0,019	-0,058
-634,824	220,651	0,108	-0,126
-633,809	-155,719	-0,040	0,002
-632,795	800,000	-0,028	-0,078
-631,780	800,000	0,021	0,045
-630,765	-95,300	-0,157	-0,030
-629,751	28,542	0,075	-0,046
-628,736	356,356	-0,022	0,032
-627,722	-142,632	-0,043	0,003
-626,707	277,445	0,101	-0,130
-625,692	-120,171	-0,087	0,011
-624,678	311,621	0,056	-0,076
-623,663	129,814	-0,146	-0,136
-622,649	-200,000	-0,010	-0,072
-621,634	24,211	-0,163	-0,097
-620,619	176,066	-0,096	-0,101
-619,605	-200,000	0,024	-0,139
-618,590	-10,529	0,084	0,040
-617,576	440,161	0,040	-0,064
-616,561	96,935	0,060	0,050
-615,546	-200,000	-0,008	0,052
-614,532	800,000	0,021	-0,057
-613,517	92,231	-0,082	-0,067
-612,503	800,000	-0,035	0,074
-611,488	-200,000	-0,007	0,161
-610,474	-157,342	0,032	0,001
-609,459	2,601	-0,151	0,079
-608,444	-65,164	-0,075	0,022
-607,430	-200,000	-0,020	-0,150
-606,415	93,579	-0,091	-0,075
-605,401	92,266	-0,086	-0,070
-604,386	-200,000	0,006	0,032
-603,371	272,858	-0,035	0,045
-602,357	-49,686	0,045	-0,015
-601,342	800,000	-0,059	0,134
-600,328	-114,324	-0,057	0,008
-599,313	519,493	0,056	-0,096
-598,298	-200,000	0,017	-0,083
-597,284	-200,000	0,030	0,102
-596,269	22,935	-0,098	0,058
-595,255	-8,771	-0,148	-0,072
-594,240	364,821	0,036	-0,052
-593,225	101,693	-0,096	-0,081
-592,211	-73,208	-0,032	-0,009
-591,196	-125,273	-0,149	-0,016
-590,182	-143,528	0,117	0,008
-589,167	-10,951	0,063	-0,030
-588,152	-200,000	-0,004	-0,037
-587,138	797,637	-0,030	0,061
-586,123	179,637	0,104	-0,111
-585,109	800,000	-0,058	-0,154
-584,094	374,112	-0,121	-0,178
-583,079	-36,731	-0,117	0,045
-582,065	-200,000	0,021	0,084
-581,050	62,571	0,124	0,089
-580,036	1,010	-0,045	0,023
-579,021	800,000	-0,047	0,119
-578,006	178,111	-0,111	-0,117
-576,992	69,599	0,037	-0,027
-575,977	-200,000	0,009	-0,037
-574,963	-37,818	0,047	-0,018
-573,948	136,960	0,043	-0,041
-572,934	-200,000	-0,002	-0,107
-571,919	-104,522	-0,074	0,012
-570,904	-96,771	-0,067	0,013
-569,890	34,923	-0,110	-0,070
-568,875	-200,000	-0,139	0,000
-567,861	-15,494	0,058	0,027
-566,846	43,241	0,099	0,065
-565,831	-200,000	-0,008	0,051
-564,817	119,557	0,097	-0,087
-563,802	-200,000	-0,033	-0,129
-562,788	65,022	-0,054	-0,039
-561,773	-200,000	0,015	-0,091
-560,758	27,024	0,084	-0,051
-559,744	9,176	-0,038	-0,021
-558,729	-91,843	0,135	0,027
-557,715	30,900	-0,018	0,011
-556,700	-77,253	0,030	0,007
-555,685	260,139	-0,073	-0,091
-554,671	34,698	0,120	0,075
-553,656	-127,991	0,229	0,023
-552,642	-28,450	0,101	0,042
-551,627	800,000	-0,008	0,018
-550,612	-200,000	-0,009	-0,031
-549,598	187,388	-0,063	-0,068
-548,583	800,000	-0,039	-0,078
-547,569	-66,788	0,134	0,038
-546,554	317,269	0,059	0,080
-545,539	92,620	-0,084	-0,068
-544,525	800,000	0,013	0,026
-543,510	68,160	-0,166	0,123
-542,496	800,000	0,051	-0,113
-541,481	39,492	0,041	-0,027
-540,466	254,438	0,024	-0,029
-539,452	-47,021	0,095	-0,033
-538,437	-93,329	0,109	0,022
-537,423	347,819	-0,110	0,157
-536,408	322,894	0,041	-0,056
-535,393	-111,374	-0,174	0,025
-534,379	52,646	-0,123	-0,085
-533,364	-200,000	-0,023	-0,130
-532,350	800,000	0,047	0,099
-531,335	-116,751	0,055	-0,007
-530,321	-200,000	-0,158	-0,000
-529,306	800,000	-0,019	-0,040
-528,291	800,000	-0,036	-0,106
-527,277	76,680	-0,025	-0,019
-526,262	-87,367	0,089	0,019
-525,248	151,801	-0,053	-0,052
-524,233	470,178	0,054	0,089
-523,218	144,347	0,048	0,046
-522,204	165,102	-0,025	0,025
-521,189	28,734	0,039	-0,024
-520,175	-33,088	-0,087	0,035
-519,160	122,082	-0,033	-0,030
-518,145	800,000	-0,046	0,101
-517,131	-200,000	0,000	0,245
-516,116	-200,000	0,002	-0,029
-515,102	-200,000	-0,011	-0,078
-514,087	255,818	-0,073	-0,090
-513,072	-63,601	0,138	0,040
-512,058	-200,000	0,092	-0,000
-511,043	800,000	-0,022	-0,047
-510,029	-107,056	0,106	-0,017
-509,014	350,451	-0,030	0,043
-507,999	-24,044	-0,161	0,069
-506,985	800,000	-0,023	-0,064
-505,970	-31,461	0,054	-0,022
-504,956	800,000	-0,034	-0,088
-503,941	800,000	-0,036	-0,083
-502,926	-152,598	0,162	0,008
-501,912	51,664	0,052	-0,035
-500,897	540,305	-0,035	0,060
-499,883	493,540	0,040	-0,067
-498,868	-200,000	0,004	0,059
-497,853	-200,000	-0,017	-0,065
-496,839	800,000	-0,002	0,006
-495,824	117,864	0,078	0,069
-494,810	-33,553	-0,032	0,013
-493,795	39,015	0,029	-0,018
-492,781	-200,000	-0,009	0,044
-491,766	356,444	0,061	-0,088
-490,751	-131,758	-0,131	-0,012
-489,737	-23,895	-0,065	-0,028
-488,722	184,370	-0,113	0,121
-487,708	-39,599	0,120	0,045
-486,693	-172,755	-0,058	0,001
-485,678	-151,431	0,086	0,005
-484,664	-200,000	0,012	0,041
-483,649	-100,005	-0,066	0,012
-482,635	-105,642	0,095	0,015
-481,620	-78,485	0,137	0,034
-480,605	316,584	-0,055	0,076
-479,591	800,000	-0,036	0,108
-478,576	-88,253	0,071	-0,015
-477,562	-200,000	0,008	-0,077
-476,547	-26,068	0,109	0,046
-475,532	344,919	-0,091	0,130
-474,518	-200,000	0,035	0,114
-473,503	55,924	0,083	-0,058
-472,489	-8,239	0,045	0,022
-471,474	-200,000	0,001	-0,038
-470,459	-200,000	-0,029	-0,108
-469,445	-200,000	-0,013	-0,067
-468,430	-54,262	-0,065	0,021
-467,416	-21,890	0,069	0,030
-466,401	-143,137	0,107	0,007
-465,386	-115,251	0,069	-0,009
-464,372	-200,000	0,001	-0,088
-463,357	130,143	-0,010	-0,009
-462,343	251,247	0,009	-0,011
-461,328	257,318	0,027	-0,034
-460,313	-200,000	0,017	0,078
-459,299	-200,000	-0,033	0,122
-458,284	322,854	-0,035	0,049
-457,270	136,106	0,057	0,053
-456,255	198,064	-0,079	0,087
-455,241	-64,250	-0,017	-0,005
-454,226	-63,825	-0,060	-0,018
-453,211	8,974	-0,156	0,085
-452,197	-200,000	-0,008	0,062
-451,182	292,257	0,036	-0,047
-450,168	51,404	0,071	0,049
-449,153	723,553	-0,049	-0,094
-448,138	-200,000	0,001	0,014
-447,124	108,382	-0,080	-0,069
-446,109	-126,599	-0,059	0,006
-445,095	52,573	0,123	0,084
-444,080	166,510	0,097	0,099
-443,065	53,283	0,075	0,051
-442,051	-200,000	0,002	-0,060
-441,036	524,795	-0,074	-0,126
-440,022	-149,480	-0,127	-0,007
-439,007	800,000	0,045	0,108
-437,992	800,000	-0,042	0,107
-436,978	273,978	-0,037	-0,047
-435,963	-59,179	-0,053	0,016
-434,949	-26,835	0,069	-0,029
-433,934	-200,000	-0,004	-0,113
-432,919	800,000	-0,076	-0,189
-431,905	31,943	0,071	0,044
-430,890	-12,474	-0,118	0,055
-429,876	-200,000	0,021	-0,120
-428,861	-200,000	0,017	0,118
-427,846	-18,415	-0,028	-0,013
-426,832	-136,116	0,030	-0,002
-425,817	278,331	-0,076	-0,098
-424,803	200,879	-0,076	0,084
-423,788	6,301	0,074	0,039
-422,773	368,362	0,123	0,179
-421,759	-76,429	0,113	-0,028
-420,744	18,541	-0,088	0,050
-419,730	-93,033	-0,062	0,012
-418,715	-168,596	-0,177	0,005
-417,701	6,712	-0,088	-0,047
-416,686	-8,933	-0,109	0,052
-415,671	-139,749	0,119	-0,009
-414,657	478,072	0,085	0,139
-413,642	111,038	-0,059	0,051
-412,628	612,551	-0,037	-0,067
-411,613	107,545	-0,053	0,046
-410,598	32,027	0,096	-0,059
-409,584	-200,000	0,008	-0,063
-408,569	87,258	-0,068	-0,054
-407,555	75,194	-0,031	-0,023
-406,540	-200,000	-0,009	0,108
-405,525	47,284	-0,053	-0,036
-404,511	-19,256	-0,086	-0,038
-403,496	298,482	-0,095	-0,126
-402,482	-159,004	-0,040	0,002
-401,467	146,254	-0,116	0,112
-400,452	-109,697	0,077	-0,011
-399,438	-200,000	0,047	-0,154
-398,423	-81,509	-0,064	0,015
-397,409	149,590	0,116	-0,113
-396,394	-68,173	0,057	-0,016
-395,379	-200,000	0,000	0,016
-394,365	800,000	0,054	0,131
-393,350	800,000	-0,078	0,170
-392,336	155,881	0,120	0,119
-391,321	18,874	0,067	0,039
-390,306	95,857	-0,050	-0,041
-389,292	800,000	-0,072	-0,145
-388,277	-169,538	0,109	0,003
-387,263	800,000	-0,061	0,168
-386,248	96,707	0,106	-0,087
-385,233	175,592	-0,014	0,015
-384,219	-200,000	0,029	0,110
-383,204	-200,000	-0,009	0,078
-382,190	-87,349	-0,164	-0,035
-381,175	50,407	-0,021	-0,014
-380,160	-200,000	0,003	0,117
-379,146	800,000	0,044	-0,110
-378,131	18,067	0,053	0,030
-377,117	-200,000	0,001	0,052
-376,102	697,104	0,044	-0,083
-375,088	110,808	-0,049	-0,043
-374,073	800,000	0,029	0,069
-373,058	98,045	0,022	0,018
-372,044	-200,000	0,000	0,133
-371,029	-200,000	0,016	0,083
-370,015	89,399	-0,041	0,033
-369,000	-135,518	-0,081	-0,007
-367,985	-12,253	0,097	-0,045
-366,971	-80,796	-0,027	0,006
-365,956	-0,369	-0,081	0,041
-364,942	-200,000	-0,006	0,107
-363,927	107,814	0,083	0,071
-362,912	800,000	-0,032	0,079
-361,898	419,278	-0,008	-0,012
-360,883	-95,430	0,061	-0,012
-359,869	-176,928	0,092	-0,002
-358,854	-142,439	-0,116	0,008
-357,839	64,292	0,111	0,080
-356,825	-26,105	-0,134	-0,056
-355,810	583,085	-0,022	-0,040
-354,796	646,001	0,015	0,028
-353,781	-33,126	0,011	-0,004
-352,766	-113,471	-0,116	0,016
-351,752	211,720	0,040	0,045
-350,737	800,000	-0,057	0,114
-349,723	-200,000	0,057	0,222
-348,708	307,140	0,154	0,207
-347,693	35,151	0,083	0,052
-346,679	-200,000	-0,032	-0,156
-345,664	-95,686	-0,039	0,007
-344,650	800,000	0,022	0,057
-343,635	-61,147	0,139	-0,042
-342,620	-200,000	-0,004	0,089
-341,606	-153,088	0,102	0,005
-340,591	-81,709	0,047	0,011
-339,577	96,743	-0,019	-0,016
-338,562	16,076	-0,039	0,022
-337,548	800,000	0,029	-0,069
-336,533	-3,557	0,033	0,016
-335,518	-57,194	0,146	-0,046
-334,504	-200,000	-0,021	0,151
-333,489	56,134	-0,118	-0,082
-332,475	-135,539	-0,098	-0,008
-331,460	49,568	0,028	-0,019
-330,445	800,000	0,010	0,025
-329,431	-107,923	0,122	0,019
-328,416	-200,000	-0,021	-0,074
-327,402	-200,000	0,008	0,028
-326,387	328,690	0,114	-0,157
-325,372	-72,656	-0,088	-0,023
-324,358	38,776	0,089	0,057
-323,343	100,891	0,042	0,035
-322,329	-200,000	-0,021	0,070
-321,314	665,947	0,056	-0,105
-320,299	-200,000	-0,014	-0,074
-319,285	-129,194	-0,090	-0,009
-318,270	-125,146	0,073	-0,008
-317,256	-200,000	0,023	-0,190
-316,241	387,671	0,063	0,093
-315,226	391,854	0,045	0,067
-314,212	153,510	-0,101	-0,099
-313,197	-93,885	0,103	0,020
-312,183	-200,000	0,001	0,072
-311,168	594,046	0,028	-0,050
-310,153	-200,000	-0,008	0,143
-309,139	-151,852	-0,056	0,003
-308,124	625,490	0,035	0,064
-307,110	-200,000	0,049	0,160
-306,095	266,268	0,069	0,086
-305,080	800,000	-0,017	0,048
-304,066	-44,885	0,142	0,050
-303,051	800,000	0,024	0,064
-302,037	-79,144	-0,122	0,029
-301,022	-155,187	-0,075	-0,003
-300,008	-200,000	-0,037	-0,136
-298,993	371,150	0,021	0,030
-297,978	-7,596	0,021	0,010
-296,964	800,000	0,038	0,115
-295,949	-121,124	0,127	-0,015
-294,935	216,924	0,048	-0,054
-293,920	-158,673	0,040	-0,002
-292,905	800,000	0,104	-0,214
-291,891	-200,000	-0,004	0,041
-290,876	64,545	-0,055	0,040
-289,862	555,883	0,040	0,070
-288,847	-200,000	-0,004	-0,172
-287,832	685,719	0,055	-0,103
-286,818	-200,000	-0,000	-0,096
-285,803	-200,000	-0,016	0,058
-284,789	23,425	-0,064	0,038
-283,774	21,505	-0,070	0,041
-282,759	-42,701	-0,034	-0,012
-281,745	114,092	0,038	-0,033
-280,730	-200,000	-0,005	-0,110
-279,716	739,335	-0,073	0,140
-278,701	109,429	0,041	-0,035
-277,686	115,853	0,075	0,066
-276,672	103,223	-0,070	0,059
-275,657	447,252	0,012	-0,018
-274,643	-5,465	-0,112	0,055
-273,628	-111,894	-0,085	0,012
-272,613	-200,000	-0,017	-0,099
-271,599	26,288	0,110	-0,065
-270,584	-200,000	-0,033	-0,125
-269,570	227,637	-0,070	-0,082
-268,555	223,542	0,009	0,010
-267,540	-53,291	-0,128	-0,042
-266,526	104,480	-0,051	-0,043
-265,511	70,843	-0,043	-0,032
-264,497	-125,043	-0,033	0,004
-263,482	-94,621	-0,136	-0,026
-262,467	107,803	0,058	0,049
-261,453	-200,000	-0,010	-0,043
-260,438	385,574	-0,020	0,030
-259,424	-65,641	0,088	-0,025
-258,409	800,000	-0,065	-0,144
-257,395	-82,394	-0,185	-0,043
-256,380	800,000	0,037	0,082
-255,365	1,766	-0,107	0,055
-254,351	11,706	0,037	0,020
-253,336	-111,725	0,031	0,004
-252,322	67,522	-0,078	0,057
-251,307	-200,000	0,015	-0,119
-250,292	-200,000	-0,008	0,046
-249,278	800,000	0,025	0,064
-248,263	191,439	0,098	0,105
-247,249	-168,623	0,175	-0,005
-246,234	-200,000	-0,016	0,196
-245,219	14,181	0,102	-0,057
-244,205	-95,600	-0,055	-0,010
-243,190	800,000	0,010	-0,023
-242,176	327,367	-0,023	0,032
-241,161	-4,260	0,117	0,058
-240,146	-200,000	0,008	0,029
-239,132	-6,379	-0,082	-0,040
-238,117	-82,978	-0,121	0,028
-237,103	-200,000	0,022	0,135
-236,088	33,752	-0,082	-0,051
-235,073	104,026	-0,030	-0,025
-234,059	-200,000	0,015	0,140
-233,044	110,574	-0,077	0,066
-232,030	800,000	0,022	0,046
-231,015	-172,099	-0,053	-0,001
-230,000	-43,332	-0,079	0,028
-228,986	-26,209	0,047	0,020
-227,971	24,255	-0,152	-0,090
-226,957	800,000	0,014	0,042
-225,942	268,032	0,047	0,059
-224,927	677,886	0,095	0,178
-223,913	-1,780	0,025	-0,013
-222,898	161,953	0,041	0,041
-221,884	-200,000	0,007	-0,024
-220,869	-200,000	-0,003	0,079
-219,855	-200,000	0,026	0,083
-218,840	-15,391	0,072	-0,033
-217,825	168,337	0,070	0,071
-216,811	-93,215	0,070	0,014
-215,796	195,721	0,066	-0,072
-214,782	-118,305	0,056	0,007
-213,767	-42,421	-0,140	0,051
-212,752	-69,546	0,138	-0,038
-211,738	800,000	-0,035	0,070
-210,723	149,061	0,135	0,130
-209,709	5,168	-0,026	0,014
-208,694	3,239	-0,105	-0,054
-207,679	165,639	-0,055	-0,056
-206,665	-200,000	-0,132	-0,000
-205,650	800,000	0,038	-0,099
-204,636	253,749	-0,051	-0,062
-203,621	-200,000	0,002	0,015
-202,606	-48,128	0,108	-0,037
-201,592	-20,741	-0,138	-0,060
-200,577	-200,000	0,026	-0,098
-199,563	193,759	0,103	0,111
-198,548	134,085	0,135	0,125
-197,533	-75,096	-0,020	0,005
-196,519	-191,057	0,136	-0,001
-195,504	-146,546	-0,083	0,005
-194,490	65,728	0,110	-0,079
-193,475	-20,658	-0,108	-0,047
-192,460	223,736	0,120	-0,138
-191,446	1,543	-0,086	-0,044
-190,431	382,363	0,081	0,119
-189,417	126,101	0,069	0,062
-188,402	-200,000	0,013	0,112
-187,387	-200,000	-0,006	-0,078
-186,373	800,000	-0,059	-0,135
-185,358	-68,951	0,077	0,021
-184,344	-200,000	0,012	-0,073
-183,329	-51,456	0,083	0,027
-182,315	800,000	0,016	0,042
-181,300	800,000	-0,051	0,104
-180,285	-200,000	0,010	-0,032
-179,271	291,983	0,051	-0,066
-178,256	396,200	-0,069	-0,103
-177,242	-63,463	-0,023	0,007
-176,227	-200,000	0,016	0,069
-175,212	105,713	-0,112	-0,094
-174,198	115,823	0,061	-0,053
-173,183	-116,118	0,046	0,006
-172,169	800,000	-0,025	-0,066
-171,154	-29,613	0,103	0,042
-170,139	516,599	-0,046	0,077
-169,125	130,941	0,076	0,069
-168,110	69,875	-0,082	0,060
-167,096	800,000	-0,031	-0,078
-166,081	247,797	-0,006	0,007
-165,066	800,000	-0,040	-0,125
-164,052	-72,134	0,102	0,027
-163,037	-100,988	-0,063	-0,011
-162,023	-200,000	0,009	-0,097
-161,008	-200,000	0,021	0,083
-159,993	-80,112	0,007	-0,002
-158,979	-84,388	0,036	-0,008
-157,964	-15,696	-0,036	0,016
-156,950	-200,000	0,066	-0,238
-155,935	276,913	-0,030	-0,039
-154,920	-4,739	0,092	0,045
-153,906	-17,074	0,150	0,067
-152,891	184,586	-0,098	-0,104
-151,877	60,695	-0,078	0,055
-150,862	292,296	0,065	-0,084
-149,847	207,718	0,023	0,026
-148,833	800,000	0,063	0,163
-147,818	286,576	0,082	0,105
-146,804	90,492	-0,041	-0,033
-145,789	0,773	-0,065	0,033
-144,775	800,000	0,036	-0,072
-143,760	142,929	-0,101	-0,096
-142,745	146,826	-0,159	-0,152
-141,731	-200,000	0,009	-0,035
-140,716	-200,000	-0,002	0,074
-139,702	42,786	-0,093	0,060
-138,687	-130,725	-0,121	-0,011
-137,672	-200,000	0,006	-0,073
-136,658	187,517	0,104	-0,110
-135,643	-87,291	-0,144	-0,031
-134,629	-200,000	0,012	-0,175
-133,614	177,925	-0,078	-0,081
-132,599	-49,882	0,103	0,035
-131,585	23,838	-0,130	-0,076
-130,570	61,331	0,040	-0,028
-129,556	-200,000	0,004	-0,036
-128,541	406,748	-0,074	0,112
-127,526	-29,312	-0,024	0,010
-126,512	42,983	-0,054	-0,035
-125,497	-41,743	0,172	0,062
-124,483	188,079	-0,072	0,077
-123,468	-200,000	-0,024	0,105
-122,453	-200,000	-0,016	-0,057
-121,439	367,366	0,030	-0,043
-120,424	-9,805	-0,084	0,040
-119,410	800,000	0,022	0,059
-118,395	-200,000	0,026	0,124
-117,380	800,000	0,060	0,169
-116,366	-133,675	-0,109	-0,010
-115,351	-89,861	0,111	0,023
-114,337	710,027	0,114	-0,216
-113,322	-135,193	-0,008	0,001
-112,307	-55,494	-0,092	0,029
-111,293	-200,000	0,031	0,116
-110,278	-200,000	-0,097	0,000
-109,264	800,000	0,004	-0,010
-108,249	368,823	-0,118	-0,170
-107,234	371,086	0,019	-0,027
-106,220	800,000	-0,053	0,124
-105,205	-62,145	0,104	0,031
-104,191	-200,000	0,009	0,040
-103,176	479,117	-0,043	0,070
-102,162	21,093	0,068	0,039
-101,147	-200,000	-0,012	-0,058
-100,132	57,621	-0,119	0,082
-99,118	-200,000	0,007	-0,088
-98,103	42,972	-0,094	0,061
-97,089	800,000	-0,044	0,101
-96,074	29,291	-0,134	0,081
-95,059	158,683	0,048	0,047
-94,045	303,338	-0,050	0,066
-93,030	800,000	-0,041	-0,087
-92,016	-124,807	-0,053	0,006
-91,001	-200,000	0,004	0,074
-89,986	190,303	0,129	0,138
-88,972	210,865	-0,140	0,156
-87,957	-8,673	0,134	-0,064
-86,943	-88,369	-0,155	-0,033
-85,928	-104,396	-0,085	-0,014
-84,913	800,000	-0,035	-0,082
-83,899	303,293	-0,032	-0,042
-82,884	-119,621	-0,070	0,009
-81,870	187,945	0,078	-0,082
-80,855	-200,000	0,031	0,117
-79,840	-94,608	-0,056	-0,011
-78,826	-200,000	0,003	-0,069
-77,811	-200,000	-0,008	-0,236
-76,797	17,098	-0,141	-0,079
-75,782	145,069	0,067	0,063
-74,767	173,268	0,086	0,088
-73,753	-200,000	0,013	0,065
-72,738	2,085	0,132	-0,067
-71,724	209,060	0,035	-0,039
-70,709	-200,000	-0,019	-0,148
-69,694	-200,000	-0,016	-0,185
-68,680	108,151	-0,013	-0,011
-67,665	-67,678	0,084	0,023
-66,651	800,000	0,040	0,094
-65,636	409,544	-0,024	0,036
-64,622	209,028	-0,068	-0,076
-63,607	-138,665	-0,078	-0,006
-62,592	-16,524	0,084	-0,038
-61,578	-200,000	-0,016	-0,074
-60,563	11,098	-0,038	0,020
-59,549	-200,000	-0,023	0,169
-58,534	-57,030	-1,539	-0,479
-57,519	298,496	-1,581	-2,068
-56,505	-200,000	-0,457	-4,558
-55,490	146,227	0,840	0,800
-54,476	800,000	4,898	11,463
-53,461	-200,000	18,325	287,387
-52,446	800,000	727,396	2231,287
-51,432	557,670	1643,439	2821,110
-50,417	79,161	1664,747	1263,527
-49,403	22,884	1538,279	891,812
-48,388	16,851	1461,720	818,186
-47,373	17,948	1451,326	817,622
-46,359	17,314	1442,036	809,317
-45,344	15,158	1437,021	796,173
-44,330	15,041	1435,300	794,631
-43,315	15,060	1433,558	793,725
-42,300	15,121	1431,921	793,080
-41,286	15,090	1430,826	792,292
-40,271	15,076	1429,392	791,400
-39,257	15,073	1428,352	790,777
-38,242	15,108	1426,992	790,160
-37,227	15,122	1425,723	789,495
-36,213	15,112	1424,462	788,717
-35,198	15,156	1423,168	788,179
-34,184	15,145	1422,449	787,697
-33,169	15,130	1421,066	786,826
-32,154	15,097	1420,190	786,157
-31,140	15,128	1418,885	785,545
-30,125	15,168	1417,527	784,954
-29,111	15,159	1416,353	784,230
-28,096	15,114	1415,183	783,339
-27,082	15,053	1414,336	782,553
-26,067	15,047	1413,314	781,928
-25,052	15,055	1412,131	781,278
-24,038	15,064	1410,959	780,644
-23,023	14,962	1410,436	779,841
-22,009	14,999	1409,075	779,231
-20,994	14,984	1408,372	778,741
-19,979	15,045	1406,990	778,235
-18,965	14,964	1406,342	777,468
-17,950	14,960	1405,444	776,918
-16,936	14,966	1404,512	776,403
-15,921	14,950	1403,453	775,710
-14,906	14,923	1402,354	774,948
-13,892	14,958	1401,565	774,643
-12,877	14,919	1400,633	773,917
-11,863	14,910	1399,976	773,479
-10,848	14,909	1398,716	772,750
-9,833	14,911	1397,928	772,291
-8,819	14,900	1397,017	771,706
-7,804	14,886	1395,992	771,046
-6,790	14,870	1394,966	770,373
-5,775	14,826	1394,108	769,663
-4,760	14,858	1393,161	769,261
-3,746	14,858	1392,374	768,797
-2,731	14,837	1391,544	768,209
-1,717	14,836	1390,638	767,672
-0,702	14,848	1388,809	766,689
0,313	18,523	1307,925	739,094
1,327	34,773	706,421	436,885
2,342	53,096	124,666	84,442
3,356	2,448	16,527	8,450
4,371	12,402	3,153	1,717
5,386	0,162	0,524	0,264
6,400	-200,000	0,038	0,144
7,415	675,396	-0,135	-0,250
8,429	85,606	-0,267	-0,208
9,444	-23,341	-0,316	-0,134
10,459	218,259	-0,213	-0,241
11,473	243,038	-0,233	-0,277
12,488	417,775	-0,165	-0,251
13,502	-23,277	-0,345	-0,146
14,517	16,783	-0,241	-0,135
15,531	94,115	-0,421	-0,338
16,546	38,425	-0,325	-0,205
17,561	42,261	-0,488	-0,313
18,575	81,862	-0,138	-0,106
19,590	-29,401	-0,284	-0,114
20,604	-42,096	-0,345	-0,124
21,619	224,938	-0,361	-0,414
22,634	142,778	-0,325	-0,305
23,648	122,248	-0,444	-0,392
24,663	17,211	-0,362	-0,203
25,677	124,646	-0,370	-0,330
26,692	58,669	-0,337	-0,234
27,707	42,189	-0,229	-0,147
28,721	67,082	-0,420	-0,302
29,736	70,605	-0,412	-0,301
30,750	89,172	-0,338	-0,266
31,765	361,216	-0,236	-0,335
32,780	-12,711	-0,387	-0,177
33,794	-9,592	-0,368	-0,173
34,809	-13,752	-0,411	-0,187
35,823	29,252	-0,364	-0,218
36,838	51,378	-0,421	-0,282
37,853	98,559	-0,395	-0,321
38,867	133,081	-0,313	-0,286
39,882	7,220	-0,405	-0,213
40,896	59,489	-0,409	-0,285
41,911	14,085	-0,381	-0,209
42,926	0,912	-0,323	-0,163
43,940	-22,680	-0,388	-0,165
44,955	88,538	-0,306	-0,240
45,969	27,695	-0,476	-0,282
46,984	113,940	-0,312	-0,268
47,999	-29,424	-0,282	-0,113
49,013	122,941	-0,302	-0,267
50,028	49,744	-0,280	-0,186
51,042	52,894	-0,395	-0,266
52,057	-10,248	-0,460	-0,214
53,071	145,940	-0,330	-0,312
54,086	198,276	-0,273	-0,295
55,101	46,263	-0,380	-0,248
56,115	79,031	-0,351	-0,265
57,130	10,592	-0,413	-0,221
58,144	20,880	-0,348	-0,198
59,159	94,751	-0,314	-0,251
60,174	653,331	-0,212	-0,385
61,188	-43,623	-0,406	-0,144
62,203	57,799	-0,324	-0,223
63,217	284,218	-0,293	-0,372
64,232	70,293	-0,364	-0,265
65,247	115,442	-0,243	-0,210
66,261	-30,208	-0,302	-0,120
67,276	154,300	-0,399	-0,386
68,290	-34,314	-0,378	-0,145
69,305	46,925	-0,384	-0,251
70,320	67,669	-0,329	-0,237
71,334	78,926	-0,273	-0,205
72,349	165,836	-0,309	-0,308
73,363	208,176	-0,324	-0,357
74,378	56,249	-0,233	-0,159
75,393	137,000	-0,220	-0,203
76,407	317,823	-0,191	-0,255
77,422	-49,673	-0,187	-0,062
78,436	217,930	-0,170	-0,192
79,451	38,685	-0,346	-0,217
80,466	155,780	-0,307	-0,298
81,480	-16,359	-0,403	-0,179
82,495	-6,058	-0,306	-0,147
83,509	-22,124	-0,315	-0,134
84,524	138,928	-0,279	-0,258
85,539	320,704	-0,186	-0,249
86,553	-67,620	-0,401	-0,110
87,568	526,818	-0,166	-0,276
88,582	4,973	-0,388	-0,200
89,597	153,496	-0,376	-0,362
90,611	56,791	-0,258	-0,176
91,626	32,226	-0,148	-0,090
92,641	118,958	-0,317	-0,275
93,655	-59,691	-0,409	-0,122
94,670	96,986	-0,318	-0,256
95,684	33,858	-0,349	-0,213
96,699	75,225	-0,290	-0,215
97,714	-43,877	-0,349	-0,123
98,728	154,723	-0,197	-0,191
99,743	-8,564	-0,234	-0,110
100,757	-10,083	-0,336	-0,156
101,772	14,144	-0,262	-0,143
102,787	90,409	-0,288	-0,226
103,801	198,344	-0,307	-0,331
104,816	11,722	-0,263	-0,141
105,830	192,348	-0,201	-0,214
106,845	-47,503	-0,214	-0,072
107,860	70,756	-0,340	-0,247
108,874	-13,275	-0,274	-0,124
109,889	193,568	-0,269	-0,286
110,903	392,351	-0,215	-0,315
111,918	-33,593	-0,300	-0,116
112,933	280,053	-0,180	-0,226
113,947	-32,326	-0,239	-0,093
114,962	12,923	-0,270	-0,146
115,976	-156,354	-0,288	-0,012
116,991	43,054	-0,322	-0,206
118,006	88,419	-0,283	-0,221
119,020	74,228	-0,340	-0,250
120,035	-44,925	-0,223	-0,077
121,049	-1,002	-0,246	-0,122
122,064	172,701	-0,276	-0,278
123,079	42,275	-0,329	-0,209
124,093	275,162	-0,251	-0,312
125,108	66,270	-0,300	-0,213
126,122	211,769	-0,193	-0,213
127,137	217,636	-0,253	-0,283
128,151	-131,636	-0,273	-0,025
129,166	-57,699	-0,295	-0,090
130,181	-29,470	-0,322	-0,128
131,195	164,201	-0,214	-0,212
132,210	73,125	-0,257	-0,188
133,224	78,627	-0,275	-0,206
134,239	41,306	-0,203	-0,128
135,254	15,401	-0,175	-0,096
136,268	-101,165	-0,134	-0,023
137,283	120,395	-0,164	-0,143
138,297	-130,197	-0,214	-0,020
139,312	326,189	-0,248	-0,333
140,327	180,267	-0,161	-0,166
141,341	540,935	-0,125	-0,210
142,356	76,147	-0,191	-0,141
143,370	94,150	-0,151	-0,120
144,385	115,526	-0,152	-0,130
145,400	14,523	-0,276	-0,150
146,414	-97,361	-0,443	-0,080
147,429	-19,385	-0,302	-0,131
148,443	399,792	-0,222	-0,327
149,458	-21,674	-0,150	-0,063
150,473	1,110	-0,258	-0,129
151,487	684,927	-0,140	-0,257
152,502	322,074	-0,201	-0,268
153,516	406,250	-0,205	-0,303
154,531	171,135	-0,242	-0,243
155,546	800,000	-0,092	-0,178
156,560	-8,546	-0,195	-0,091
157,575	125,895	-0,187	-0,165
158,589	119,712	-0,227	-0,196
159,604	-127,650	-0,259	-0,026
160,619	-86,751	-0,223	-0,047
161,633	142,492	-0,200	-0,186
162,648	800,000	-0,120	-0,236
163,662	51,301	-0,240	-0,159
164,677	1,571	-0,198	-0,099
165,692	281,100	-0,183	-0,230
166,706	16,820	-0,357	-0,197
167,721	68,224	-0,283	-0,202
168,735	78,894	-0,280	-0,209
169,750	-66,417	-0,290	-0,080
170,764	-151,630	-0,138	0,007
171,779	143,233	-0,215	-0,199
172,794	97,318	-0,272	-0,218
173,808	191,191	-0,248	-0,261
174,823	129,750	-0,273	-0,244
175,837	-28,130	-0,357	-0,143
176,852	70,398	-0,239	-0,172
177,867	14,963	-0,159	-0,087
178,881	-4,955	-0,288	-0,138
179,896	277,185	-0,133	-0,165
180,910	25,884	-0,298	-0,173
181,925	10,187	-0,240	-0,127
182,940	199,207	-0,225	-0,240
183,954	84,389	-0,210	-0,160
184,969	87,596	-0,286	-0,221
185,983	161,048	-0,266	-0,259
186,998	22,720	-0,278	-0,158
188,013	28,989	-0,193	-0,114
189,027	190,926	-0,227	-0,238
190,042	101,883	-0,288	-0,234
191,056	97,839	-0,221	-0,177
192,071	338,120	-0,198	-0,270
193,086	14,285	-0,242	-0,131
194,100	477,740	-0,137	-0,217
195,115	171,758	-0,174	-0,174
196,129	258,593	-0,173	-0,208
197,144	148,751	-0,143	-0,134
198,159	-42,372	-0,255	-0,090
199,173	163,728	-0,149	-0,146
200,188	393,955	-0,120	-0,175
201,202	201,747	-0,167	-0,179
202,217	-6,521	-0,312	-0,148
203,232	232,306	-0,103	-0,117
204,246	70,382	-0,256	-0,184
205,261	-41,862	-0,330	-0,117
206,275	-26,349	-0,246	-0,100
207,290	317,468	-0,260	-0,343
208,304	-87,526	-0,269	-0,056
209,319	57,622	-0,202	-0,137
210,334	116,333	-0,195	-0,166
211,348	60,744	-0,248	-0,171
212,363	104,893	-0,220	-0,180
213,377	65,888	-0,134	-0,094
214,392	-4,539	-0,214	-0,103
215,407	-160,859	-0,255	-0,009
216,421	231,956	-0,192	-0,220
217,436	188,618	-0,205	-0,214
218,450	210,199	-0,173	-0,189
219,465	59,833	-0,116	-0,079
220,480	274,889	-0,081	-0,100
221,494	-200,000	-0,018	-0,226
222,509	-13,360	-0,113	-0,051
223,523	-57,889	-0,174	-0,053
224,538	125,532	-0,194	-0,170
225,553	366,567	-0,140	-0,197
226,567	285,941	-0,228	-0,286
227,582	214,978	-0,105	-0,116
228,596	101,459	-0,252	-0,204
229,611	-58,415	-0,242	-0,073
230,626	187,913	-0,177	-0,184
231,640	800,000	0,053	-0,151
232,655	601,985	-0,110	-0,190
233,669	-154,675	-0,226	-0,010
234,684	251,979	-0,173	-0,204
235,699	22,663	-0,100	-0,057
236,713	-200,000	-0,016	-0,106
237,728	-32,531	-0,250	-0,096
238,742	-53,237	-0,239	-0,076
239,757	130,440	-0,241	-0,214
240,772	397,424	-0,164	-0,238
241,786	338,530	-0,136	-0,185
242,801	22,410	-0,332	-0,188
243,815	221,614	-0,120	-0,134
244,830	-57,974	-0,268	0,081
245,844	102,668	-0,211	-0,171
246,859	69,762	-0,143	-0,102
247,874	90,485	-0,226	-0,175
248,888	51,282	-0,181	-0,119
249,903	330,473	-0,090	-0,121
250,917	5,948	-0,219	-0,112
251,932	167,989	-0,092	-0,091
252,947	81,768	-0,196	-0,147
253,961	104,351	-0,201	-0,164
254,976	800,000	-0,142	-0,279
255,990	-105,658	-0,248	-0,039
257,005	29,243	-0,135	-0,079
258,020	91,665	-0,177	-0,138
259,034	-19,019	-0,121	-0,052
260,049	473,942	-0,129	-0,203
261,063	356,025	-0,159	-0,220
262,078	581,808	-0,086	-0,146
263,093	178,692	-0,171	-0,173
264,107	42,199	-0,213	-0,134
265,122	178,084	-0,197	-0,199
266,136	139,538	-0,091	-0,083
267,151	-5,570	-0,212	-0,100
268,166	-188,416	-0,255	0,002
269,180	403,398	-0,165	-0,241
270,195	-14,223	-0,224	-0,100
271,209	375,789	-0,078	-0,111
272,224	22,586	-0,160	-0,090
273,239	305,822	-0,126	-0,163
274,253	31,184	-0,180	-0,107
275,268	3,676	-0,149	-0,075
276,282	800,000	-0,074	-0,150
277,297	-188,245	-0,204	-0,002
278,312	58,931	-0,171	-0,116
279,326	800,000	-0,047	-0,141
280,341	354,405	-0,150	-0,207
281,355	231,644	-0,220	-0,250
282,370	-199,771	-0,130	-0,000
283,384	-120,982	-0,245	-0,028
284,399	-56,029	-0,224	-0,069
285,414	270,389	-0,181	-0,220
286,428	-50,706	-0,099	-0,032
287,443	70,631	-0,214	-0,153
288,457	134,008	-0,116	0,104
289,472	-33,589	-0,243	-0,092
290,487	102,049	-0,219	-0,177
291,501	-165,774	-0,148	-0,004
292,516	238,339	-0,149	-0,171
293,530	-169,205	-0,263	0,007
294,545	82,729	-0,096	-0,072
295,560	800,000	-0,043	-0,112
296,574	-159,874	-0,148	0,005
297,589	55,845	-0,278	-0,186
298,603	800,000	-0,132	-0,274
299,618	13,827	-0,258	-0,138
300,633	80,135	-0,149	-0,111
301,647	280,522	-0,100	-0,124
302,662	-154,330	-0,180	0,008
303,676	-56,607	-0,164	-0,050
304,691	-130,878	-0,307	-0,028
305,706	78,819	-0,216	-0,159
306,720	92,606	-0,165	-0,129
307,735	-79,801	-0,223	-0,051
308,749	70,015	-0,137	-0,098
309,764	-133,840	-0,199	-0,017
310,779	-39,262	-0,162	-0,058
311,793	293,992	-0,218	-0,275
312,808	-75,390	-0,151	-0,037
313,822	424,413	-0,093	-0,138
314,837	-88,227	-0,237	-0,049
315,852	84,430	-0,129	-0,097
316,866	-82,364	-0,109	0,024
317,881	-4,623	-0,107	-0,051
318,895	80,285	-0,113	-0,084
319,910	234,036	-0,137	-0,156
320,925	-23,876	-0,198	-0,081
321,939	232,869	-0,142	-0,161
322,954	182,408	-0,157	-0,159
323,968	81,355	-0,154	-0,114
324,983	677,322	-0,130	-0,234
325,997	-200,000	0,023	-0,107
327,012	209,560	-0,155	-0,167
328,027	280,909	-0,152	-0,187
329,041	681,519	-0,126	-0,227
330,056	800,000	-0,106	-0,295
331,070	-2,221	-0,160	-0,077
332,085	-9,000	-0,222	-0,102
333,100	371,660	-0,112	-0,157
334,114	-179,175	-0,194	0,003
335,129	273,620	-0,099	-0,120
336,143	210,553	-0,181	-0,196
337,158	-3,248	-0,065	-0,031
338,173	-104,247	-0,126	-0,020
339,187	-27,746	-0,191	-0,076
340,202	403,167	-0,146	-0,212
341,216	800,000	-0,061	-0,159
342,231	41,223	-0,205	-0,127
343,246	376,699	-0,149	-0,209
344,260	-200,000	-0,033	-0,126
345,275	368,276	-0,105	-0,147
346,289	331,622	-0,139	-0,185
347,304	800,000	-0,114	-0,283
348,319	-60,918	-0,133	-0,038
349,333	-53,024	-0,154	-0,048
350,348	800,000	-0,062	-0,163
351,362	-20,541	-0,145	-0,061
352,377	-53,379	-0,184	-0,058
353,392	113,605	-0,167	0,139
354,406	11,207	-0,132	-0,069
355,421	210,190	1311,241	1415,736
356,435	161,802	1471,557	1416,247
