DTS Sentinel unit serial number:	SN410029Multiplexer serial number:	ORYXHardware model number:	OX2-SRSoftware version number:	ORYX F/W v4,00 Oryx Data Collector v3.7.2.0data status	okinstallation	B3 Nyhavnadifferential loss correction	single-endedforward channel	channel 1reverse channel	N/Adate	2023/11/29time	01:37:30forward acquisition time	300,00reverse acquisition time	0,00gamma	499,1914k internal	0,3211k external	0,3211temperature offset calibration	1,0000default loss term (dB/km)	0,3820temperature slope calibration	1,0000multiplexer offset coefficient	1,0000multiplexer slope coefficient	1,0000fibre end	0,00T internal ref (°C)	9,52T ext. ref 1 (°C)	-4,99T ext. ref 2 (°C)	-5,16length (m)	temperature (°C)	Stokes	anti-Stokes-744,400	434,328	-0,189	-0,299
-743,385	-200,000	-0,055	0,293
-742,371	145,535	-0,208	-0,202
-741,356	619,566	0,177	0,324
-740,342	146,089	-0,155	-0,151
-739,327	-200,000	-0,059	0,333
-738,312	800,000	-0,093	-0,287
-737,298	800,000	-0,109	0,270
-736,283	402,626	-0,217	-0,332
-735,269	-200,000	0,042	0,247
-734,254	-200,000	-0,074	-0,277
-733,239	-17,413	-0,305	0,139
-732,225	56,037	-0,088	-0,062
-731,210	248,601	0,105	0,129
-730,196	-4,483	0,097	-0,049
-729,181	-200,000	0,005	0,083
-728,167	77,010	0,060	-0,046
-727,152	17,616	-0,032	0,019
-726,137	-200,000	-0,049	0,174
-725,123	334,377	0,027	0,038
-724,108	81,609	-0,051	-0,040
-723,094	-200,000	-0,029	-0,157
-722,079	414,462	-0,078	-0,121
-721,064	612,285	0,063	0,114
-720,050	-200,000	0,057	-0,197
-719,035	23,633	0,057	0,034
-718,021	322,687	-0,085	-0,117
-717,006	-200,000	-0,006	-0,038
-715,991	800,000	-0,032	-0,068
-714,977	-200,000	-0,029	-0,126
-713,962	800,000	0,025	0,070
-712,948	87,291	0,126	0,101
-711,933	-72,550	-0,049	0,013
-710,918	-200,000	-0,006	-0,238
-709,904	-79,347	-0,127	0,031
-708,889	454,745	-0,048	-0,077
-707,875	334,130	-0,041	-0,058
-706,860	45,316	-0,098	-0,065
-705,845	800,000	-0,024	-0,050
-704,831	212,061	0,057	-0,065
-703,816	89,006	0,124	-0,100
-702,802	11,185	-0,063	-0,035
-701,787	800,000	0,028	-0,083
-700,772	-200,000	-0,005	-0,103
-699,758	-4,560	0,110	-0,055
-698,743	-150,568	0,093	-0,005
-697,729	157,409	-0,104	-0,104
-696,714	-74,453	0,058	0,015
-695,699	145,201	-0,079	-0,077
-694,685	-200,000	-0,041	-0,222
-693,670	237,470	-0,072	-0,086
-692,656	-27,482	-0,061	-0,025
-691,641	-200,000	0,005	-0,027
-690,627	523,530	0,030	0,051
-689,612	800,000	0,025	-0,056
-688,597	15,746	0,056	0,032
-687,583	6,261	-0,135	-0,072
-686,568	-4,039	-0,026	-0,013
-685,554	-32,311	-0,099	-0,040
-684,539	-16,452	0,053	-0,024
-683,524	-31,108	-0,106	-0,043
-682,510	-90,497	0,265	0,055
-681,495	800,000	0,035	0,076
-680,481	218,536	-0,068	-0,079
-679,466	84,552	-0,179	-0,141
-678,451	159,880	-0,054	-0,055
-677,437	-33,962	-0,083	0,033
-676,422	800,000	0,028	0,077
-675,408	732,950	-0,018	-0,035
-674,393	85,157	-0,122	-0,097
-673,378	-11,512	-0,127	0,060
-672,364	467,597	-0,082	-0,133
-671,349	233,464	0,056	0,067
-670,335	800,000	0,064	-0,184
-669,320	493,120	-0,019	0,032
-668,305	-200,000	0,028	0,091
-667,291	-200,000	-0,031	-0,158
-666,276	99,297	-0,127	-0,106
-665,262	-200,000	-0,011	-0,176
-664,247	-25,031	-0,081	-0,035
-663,232	425,539	0,004	-0,006
-662,218	-139,014	-0,153	0,012
-661,203	-20,422	0,122	0,054
-660,189	-165,855	-0,093	0,003
-659,174	742,721	0,058	-0,113
-658,159	756,414	-0,063	-0,123
-657,145	-35,546	0,010	0,004
-656,130	-24,690	-0,031	0,013
-655,116	-124,539	-0,092	-0,010
-654,101	226,767	-0,105	0,124
-653,086	-25,619	0,082	-0,035
-652,072	-169,917	-0,110	-0,003
-651,057	-200,000	-0,003	-0,107
-650,043	28,372	0,086	-0,052
-649,028	-200,000	0,014	0,079
-648,014	237,979	-0,016	-0,019
-646,999	145,852	-0,071	0,068
-645,984	-84,072	-0,047	0,011
-644,970	516,861	-0,028	-0,048
-643,955	800,000	-0,046	-0,113
-642,941	-75,278	-0,156	-0,040
-641,926	-200,000	0,001	0,067
-640,911	-26,714	-0,089	-0,037
-639,897	5,471	-0,051	-0,027
-638,882	-109,291	-0,082	-0,012
-637,868	-200,000	0,012	-0,147
-636,853	-137,131	-0,191	-0,016
-635,838	-49,117	0,061	-0,021
-634,824	53,039	0,055	-0,038
-633,809	182,075	-0,074	0,079
-632,795	800,000	0,033	-0,094
-631,780	88,235	0,061	0,049
-630,765	206,600	-0,034	0,038
-629,751	-200,000	-0,021	-0,078
-628,736	-91,882	0,087	0,018
-627,722	90,362	-0,047	0,038
-626,707	141,631	-0,026	0,025
-625,692	55,089	0,110	0,076
-624,678	62,302	0,041	-0,030
-623,663	90,051	0,025	0,020
-622,649	10,041	-0,085	-0,046
-621,634	-137,375	0,062	0,005
-620,619	-182,889	-0,199	0,003
-619,605	800,000	0,041	0,116
-618,590	-77,102	0,037	0,009
-617,576	-126,631	-0,086	-0,009
-616,561	-200,000	0,000	0,061
-615,546	143,719	-0,104	-0,100
-614,532	-200,000	0,001	0,077
-613,517	800,000	-0,078	-0,169
-612,503	-132,972	0,043	0,004
-611,488	200,239	0,073	-0,081
-610,474	-200,000	-0,009	-0,060
-609,459	346,313	0,023	0,033
-608,444	-200,000	0,007	0,055
-607,430	169,690	-0,076	-0,078
-606,415	-200,000	-0,011	-0,079
-605,401	127,202	-0,140	-0,128
-604,386	-200,000	0,000	-0,199
-603,371	543,578	-0,030	0,052
-602,357	-200,000	-0,004	-0,098
-601,342	-22,743	-0,106	0,046
-600,328	-200,000	0,027	-0,213
-599,313	-131,092	-0,187	0,018
-598,298	474,479	0,056	-0,092
-597,284	-200,000	0,010	0,057
-596,269	-32,632	-0,042	0,017
-595,255	530,924	0,040	0,069
-594,240	387,238	-0,033	0,049
-593,225	800,000	-0,037	-0,109
-592,211	19,589	-0,115	-0,067
-591,196	-44,522	0,039	0,014
-590,182	-200,000	0,017	-0,139
-589,167	218,810	-0,042	-0,049
-588,152	0,475	0,091	-0,047
-587,138	-200,000	-0,013	0,139
-586,123	755,269	-0,067	0,131
-585,109	33,234	-0,117	-0,073
-584,094	-200,000	-0,003	-0,056
-583,079	-200,000	0,020	0,077
-582,065	523,801	0,052	-0,089
-581,050	46,126	0,013	-0,009
-580,036	-200,000	-0,013	0,068
-579,021	-200,000	0,013	-0,102
-578,006	-35,191	-0,110	-0,043
-576,992	-60,476	-0,106	-0,032
-575,977	-61,001	0,109	-0,033
-574,963	800,000	0,060	0,149
-573,948	-76,036	-0,094	0,024
-572,934	-200,000	-0,007	-0,036
-571,919	-200,000	0,014	0,102
-570,904	-116,033	0,051	0,007
-569,890	-200,000	-0,019	0,112
-568,875	264,526	0,037	-0,047
-567,861	-149,427	0,075	0,004
-566,846	45,635	0,013	0,008
-565,831	-61,583	-0,201	0,060
-564,817	381,770	-0,060	-0,089
-563,802	0,072	-0,137	-0,070
-562,788	27,253	0,080	-0,048
-561,773	204,453	-0,067	0,075
-560,758	-74,165	0,112	0,029
-559,744	157,884	0,122	0,121
-558,729	-200,000	0,015	0,084
-557,715	319,995	-0,062	-0,085
-556,700	-46,362	0,111	0,039
-555,685	727,426	-0,028	-0,055
-554,671	84,654	0,086	-0,067
-553,656	-150,305	0,033	-0,002
-552,642	-200,000	-0,017	0,112
-551,627	18,542	0,059	-0,034
-550,612	286,327	-0,077	-0,100
-549,598	-137,729	-0,068	0,005
-548,583	25,165	0,143	0,085
-547,569	225,153	0,066	-0,077
-546,554	89,083	-0,038	-0,030
-545,539	113,733	0,110	0,096
-544,525	507,500	0,029	0,049
-543,510	800,000	-0,067	0,135
-542,496	-200,000	-0,017	-0,078
-541,481	-200,000	-0,038	-0,127
-540,466	-28,605	0,060	0,025
-539,452	800,000	0,004	0,011
-538,437	74,778	0,096	-0,073
-537,423	-200,000	-0,022	-0,137
-536,408	-200,000	-0,003	0,105
-535,393	-200,000	0,034	-0,116
-534,379	-196,608	-0,098	0,000
-533,364	189,059	-0,067	-0,072
-532,350	-200,000	0,005	0,033
-531,335	345,933	0,089	0,126
-530,321	26,087	0,074	0,044
-529,306	-200,000	-0,008	0,122
-528,291	-47,527	-0,053	-0,018
-527,277	-200,000	-0,033	-0,307
-526,262	23,301	-0,158	-0,093
-525,248	131,169	-0,072	0,067
-524,233	212,961	0,079	0,090
-523,218	178,840	0,036	-0,038
-522,204	-59,101	-0,171	0,053
-521,189	278,826	-0,065	-0,083
-520,175	588,323	-0,060	0,106
-519,160	-90,958	-0,020	0,004
-518,145	500,628	0,096	-0,161
-517,131	-80,456	0,119	0,028
-516,116	-30,641	0,028	0,011
-515,102	-4,821	-0,018	-0,009
-514,087	171,669	0,049	0,051
-513,072	215,747	0,027	-0,031
-512,058	9,767	0,179	-0,097
-511,043	-71,646	-0,060	-0,016
-510,029	-200,000	0,026	0,107
-509,014	23,727	0,086	0,051
-507,999	800,000	0,030	0,065
-506,985	83,867	-0,071	0,056
-505,970	-200,000	-0,023	-0,139
-504,956	-34,064	0,148	0,058
-503,941	204,632	-0,019	0,021
-502,926	-200,000	0,009	0,105
-501,912	585,814	0,028	-0,050
-500,897	800,000	-0,014	-0,042
-499,883	-200,000	0,014	-0,144
-498,868	-200,000	-0,026	-0,083
-497,853	430,305	0,053	-0,082
-496,839	133,465	-0,075	0,070
-495,824	-44,424	0,088	-0,032
-494,810	163,839	0,103	0,104
-493,795	235,374	0,041	0,049
-492,781	20,268	-0,067	0,039
-491,766	1,863	-0,107	-0,055
-490,751	-200,000	0,004	0,036
-489,737	-114,745	-0,086	-0,012
-488,722	139,796	0,028	0,027
-487,708	-200,000	0,013	0,184
-486,693	800,000	0,076	0,220
-485,678	260,663	-0,033	0,042
-484,664	-200,000	0,021	-0,119
-483,649	-200,000	-0,043	-0,147
-482,635	150,429	-0,086	-0,084
-481,620	59,122	0,174	-0,123
-480,605	-200,000	0,008	-0,027
-479,591	-14,749	-0,055	-0,025
-478,576	-96,925	-0,181	0,034
-477,562	-101,938	-0,113	-0,019
-476,547	800,000	-0,030	-0,074
-475,532	150,405	-0,049	0,048
-474,518	800,000	-0,019	-0,054
-473,503	-200,000	0,008	-0,128
-472,489	-69,544	-0,049	0,013
-471,474	5,715	-0,037	-0,020
-470,459	-200,000	0,019	0,088
-469,445	-200,000	-0,005	-0,033
-468,430	-200,000	0,017	-0,101
-467,416	-200,000	0,005	-0,047
-466,401	-57,260	0,041	0,013
-465,386	800,000	0,024	-0,070
-464,372	-200,000	-0,040	0,174
-463,357	104,654	0,062	0,052
-462,343	-200,000	0,019	-0,102
-461,328	-98,359	0,039	0,007
-460,313	44,025	0,086	-0,056
-459,299	28,951	0,061	0,037
-458,284	-103,704	0,111	0,018
-457,270	-28,651	-0,150	0,062
-456,255	-92,058	-0,177	-0,036
-455,241	-119,753	-0,048	0,006
-454,226	233,519	-0,038	0,045
-453,211	535,833	0,016	-0,027
-452,197	-75,609	0,100	0,025
-451,182	308,742	-0,071	0,095
-450,168	-200,000	-0,007	0,082
-449,153	429,088	-0,009	0,014
-448,138	254,167	0,041	0,051
-447,124	160,589	-0,061	0,061
-446,109	39,782	-0,088	0,056
-445,095	-200,000	0,008	0,181
-444,080	-200,000	-0,008	0,042
-443,065	279,237	-0,021	0,027
-442,051	-28,099	0,204	0,084
-441,036	800,000	-0,057	0,172
-440,022	-80,707	-0,035	-0,008
-439,007	110,274	0,023	-0,020
-437,992	-122,324	0,184	-0,021
-436,978	-200,000	0,002	-0,018
-435,963	-200,000	0,007	0,028
-434,949	168,618	0,110	0,112
-433,934	454,478	-0,092	-0,146
-432,919	800,000	0,066	-0,152
-431,905	-200,000	0,000	-0,062
-430,890	-200,000	0,034	0,127
-429,876	800,000	-0,030	0,080
-428,861	162,068	0,077	0,077
-427,846	35,540	-0,088	-0,055
-426,832	-165,251	0,137	0,004
-425,817	468,922	-0,065	-0,104
-424,803	111,368	-0,113	0,098
-423,788	-31,539	-0,130	-0,052
-422,773	-82,666	0,112	-0,026
-421,759	800,000	0,007	-0,023
-420,744	800,000	-0,035	0,083
-419,730	-200,000	0,013	-0,140
-418,715	800,000	0,062	-0,132
-417,701	-200,000	-0,024	-0,078
-416,686	-97,791	0,093	-0,017
-415,671	417,967	0,061	0,094
-414,657	800,000	-0,034	-0,076
-413,642	-10,003	-0,158	0,075
-412,628	-191,273	0,209	-0,001
-411,613	-200,000	0,027	-0,091
-410,598	213,599	-0,014	0,016
-409,584	-38,576	0,112	0,042
-408,569	-75,082	-0,009	-0,002
-407,555	-200,000	-0,019	0,069
-406,540	800,000	0,013	-0,034
-405,525	800,000	0,042	-0,128
-404,511	-53,564	-0,033	-0,011
-403,496	800,000	-0,037	-0,092
-402,482	-107,783	0,022	0,003
-401,467	362,263	0,019	0,028
-400,452	-153,086	0,124	-0,006
-399,438	-18,520	0,098	0,044
-398,423	800,000	-0,059	-0,140
-397,409	-151,537	-0,039	-0,002
-396,394	287,885	-0,012	-0,016
-395,379	264,607	0,035	-0,044
-394,365	419,372	0,051	-0,078
-393,350	-200,000	0,002	0,018
-392,336	-200,000	-0,009	0,166
-391,321	-200,000	-0,004	0,097
-390,306	510,068	-0,058	-0,097
-389,292	-200,000	0,004	0,069
-388,277	-35,246	-0,039	0,015
-387,263	-200,000	0,015	-0,102
-386,248	111,579	0,041	0,035
-385,233	-75,389	0,108	0,027
-384,219	79,033	-0,065	0,050
-383,204	332,043	0,108	-0,149
-382,190	-1,494	-0,061	0,031
-381,175	31,937	0,079	-0,048
-380,160	800,000	-0,032	-0,064
-379,146	261,225	0,080	0,099
-378,131	-69,743	0,127	-0,035
-377,117	89,872	-0,081	-0,065
-376,102	-200,000	0,005	-0,085
-375,088	-33,555	-0,111	0,044
-374,073	-200,000	0,047	-0,183
-373,058	-8,943	0,044	0,021
-372,044	-74,231	0,023	0,006
-371,029	-200,000	-0,015	0,068
-370,015	149,360	0,018	-0,018
-369,000	-100,802	0,063	-0,011
-367,985	79,229	0,023	0,018
-366,971	-49,631	0,048	0,016
-365,956	3,593	0,062	0,032
-364,942	-90,431	0,089	0,018
-363,927	453,535	0,036	0,057
-362,912	2,986	0,069	0,036
-361,898	-124,083	-0,061	0,007
-360,883	800,000	0,067	-0,203
-359,869	188,950	-0,064	-0,069
-358,854	-200,000	-0,017	-0,070
-357,839	-200,000	0,002	0,077
-356,825	800,000	-0,045	-0,114
-355,810	675,391	-0,029	0,054
-354,796	800,000	0,022	0,056
-353,781	-200,000	0,026	-0,109
-352,766	140,646	0,071	0,067
-351,752	41,795	0,030	-0,019
-350,737	-62,995	0,052	-0,015
-349,723	120,507	0,084	0,075
-348,708	-200,000	-0,005	0,163
-347,693	233,966	0,084	0,099
-346,679	106,336	-0,075	-0,063
-345,664	31,545	0,068	-0,042
-344,650	-88,522	0,117	-0,025
-343,635	441,159	0,082	-0,129
-342,620	-200,000	0,004	0,033
-341,606	-200,000	-0,009	0,047
-340,591	0,286	0,030	-0,015
-339,577	211,395	-0,063	-0,071
-338,562	-103,197	-0,055	-0,009
-337,548	-200,000	0,032	-0,109
-336,533	-200,000	0,007	0,093
-335,518	800,000	-0,013	0,039
-334,504	411,027	0,065	0,099
-333,489	800,000	0,095	0,247
-332,475	-84,283	-0,056	0,013
-331,460	-120,383	-0,184	-0,022
-330,445	-32,186	0,019	-0,007
-329,431	147,531	-0,043	0,042
-328,416	-200,000	0,055	0,205
-327,402	-104,738	-0,114	0,019
-326,387	-30,912	-0,098	0,039
-325,372	37,019	-0,101	-0,063
-324,358	137,362	-0,073	-0,068
-323,343	202,177	0,034	0,037
-322,329	10,655	0,091	-0,049
-321,314	230,143	-0,024	0,027
-320,299	29,966	0,186	0,113
-319,285	456,545	-0,031	0,049
-318,270	180,948	0,024	0,025
-317,256	-200,000	-0,002	-0,148
-316,241	-200,000	0,027	-0,128
-315,226	-28,964	0,062	0,025
-314,212	-200,000	0,027	0,164
-313,197	-200,000	-0,004	0,128
-312,183	-200,000	-0,038	-0,121
-311,168	339,427	0,067	-0,093
-310,153	-132,280	-0,147	-0,013
-309,139	-200,000	0,003	-0,058
-308,124	-48,446	0,045	-0,016
-307,110	-72,728	0,047	0,012
-306,095	-200,000	-0,001	0,220
-305,080	-200,000	0,022	0,140
-304,066	-200,000	0,044	0,168
-303,051	-99,727	0,092	0,016
-302,037	-200,000	0,023	-0,149
-301,022	-200,000	0,004	-0,060
-300,008	800,000	-0,070	0,197
-298,993	566,203	0,007	-0,013
-297,978	96,795	-0,067	-0,055
-296,964	-151,484	-0,117	0,006
-295,949	471,266	-0,070	-0,113
-294,935	-135,673	-0,116	-0,010
-293,920	800,000	0,010	-0,030
-292,905	-0,122	0,074	-0,037
-291,891	428,073	0,020	0,032
-290,876	289,768	0,036	-0,047
-289,862	-200,000	-0,001	0,075
-288,847	800,000	0,012	0,024
-287,832	-200,000	0,023	-0,091
-286,818	-93,582	-0,034	-0,007
-285,803	800,000	0,023	0,049
-284,789	69,572	0,124	0,091
-283,774	154,312	0,054	0,053
-282,759	-36,096	-0,113	0,043
-281,745	26,385	0,077	0,045
-280,730	-144,969	-0,113	-0,007
-279,716	236,005	-0,074	-0,087
-278,701	-200,000	-0,015	-0,064
-277,686	369,701	-0,077	0,112
-276,672	-30,965	0,074	-0,030
-275,657	-200,000	0,015	0,115
-274,643	-200,000	0,025	0,097
-273,628	-162,989	-0,144	0,005
-272,613	79,444	0,053	0,040
-271,599	10,017	0,038	-0,020
-270,584	800,000	-0,007	0,015
-269,570	800,000	0,021	0,061
-268,555	-200,000	-0,000	0,123
-267,540	-33,583	0,040	0,016
-266,526	-50,704	-0,054	-0,018
-265,511	67,262	-0,031	-0,022
-264,497	-200,000	-0,004	0,037
-263,482	-1,231	-0,044	0,022
-262,467	-22,340	0,014	-0,006
-261,453	29,093	0,058	0,035
-260,438	-200,000	-0,011	0,072
-259,424	52,262	-0,038	0,026
-258,409	800,000	-0,020	-0,048
-257,395	800,000	-0,009	-0,024
-256,380	16,147	0,093	0,052
-255,365	-200,000	0,027	0,157
-254,351	-200,000	0,029	0,096
-253,336	-19,803	-0,178	0,078
-252,322	-127,636	-0,162	0,016
-251,307	-24,173	-0,023	0,010
-250,292	14,806	-0,110	0,061
-249,278	5,777	0,045	0,023
-248,263	391,535	-0,112	0,167
-247,249	800,000	0,036	0,070
-246,234	-87,366	0,098	-0,021
-245,219	152,306	-0,018	-0,018
-244,205	-146,925	-0,113	-0,007
-243,190	62,389	-0,189	-0,134
-242,176	-41,121	0,152	-0,055
-241,161	199,447	0,025	-0,028
-240,146	63,340	-0,110	0,078
-239,132	800,000	0,020	0,041
-238,117	-139,991	-0,224	0,017
-237,103	635,381	0,026	0,047
-236,088	-147,048	0,041	-0,002
-235,073	107,041	-0,076	-0,064
-234,059	272,752	0,119	-0,150
-233,044	-200,000	-0,013	-0,069
-232,030	482,820	-0,014	-0,022
-231,015	-200,000	-0,027	0,000
-230,000	798,858	-0,069	-0,136
-228,986	-46,883	0,144	0,050
-227,971	241,029	-0,043	-0,051
-226,957	255,681	-0,035	0,043
-225,942	67,139	-0,122	0,088
-224,927	-67,575	0,092	0,025
-223,913	-91,927	-0,032	0,006
-222,898	-9,563	0,067	0,032
-221,884	800,000	-0,003	-0,010
-220,869	-62,086	-0,122	-0,036
-219,855	-145,896	0,115	0,007
-218,840	-83,846	0,130	0,029
-217,825	-200,000	0,010	-0,101
-216,811	-200,000	-0,009	-0,124
-215,796	263,824	0,029	-0,036
-214,782	136,004	0,081	0,075
-213,767	-200,000	-0,028	0,123
-212,752	-63,167	0,094	0,027
-211,738	65,052	-0,021	0,015
-210,723	206,665	0,141	0,157
-209,709	47,088	0,061	-0,040
-208,694	296,808	0,074	-0,097
-207,679	20,001	-0,149	-0,085
-206,665	-75,599	0,107	-0,027
-205,650	-200,000	-0,012	0,144
-204,636	349,506	0,039	0,055
-203,621	-98,074	-0,051	0,009
-202,606	800,000	-0,073	-0,212
-201,592	-200,000	0,005	-0,117
-200,577	616,708	-0,073	-0,130
-199,563	228,878	0,040	-0,046
-198,548	-200,000	0,009	0,028
-197,533	72,150	0,089	0,065
-196,519	-120,431	0,060	0,007
-195,504	-41,367	-0,080	0,029
-194,490	-200,000	-0,011	-0,035
-193,475	164,538	-0,085	-0,085
-192,460	-200,000	0,030	-0,102
-191,446	126,050	0,072	-0,064
-190,431	-200,000	0,008	0,130
-189,417	800,000	0,022	0,054
-188,402	166,210	-0,140	-0,140
-187,387	-110,340	-0,063	-0,009
-186,373	-200,000	0,007	-0,040
-185,358	-151,220	-0,093	-0,005
-184,344	-200,000	0,003	0,137
-183,329	69,083	0,073	0,053
-182,315	-200,000	-0,008	0,043
-181,300	1,991	0,064	0,033
-180,285	-1,277	-0,081	0,041
-179,271	468,074	-0,023	0,036
-178,256	-112,822	0,041	-0,006
-177,242	800,000	-0,036	-0,095
-176,227	1,353	0,095	0,048
-175,212	-154,473	0,109	0,005
-174,198	-87,074	0,064	0,014
-173,183	427,959	0,048	0,073
-172,169	-200,000	0,004	-0,039
-171,154	800,000	0,035	0,080
-170,139	-14,151	-0,068	-0,031
-169,125	281,107	0,058	0,074
-168,110	58,763	0,026	-0,018
-167,096	-160,655	-0,106	0,004
-166,081	-200,000	0,005	-0,095
-165,066	-200,000	-0,020	-0,127
-164,052	-200,000	-0,018	-0,140
-163,037	-200,000	0,035	-0,142
-162,023	564,548	-0,031	0,053
-161,008	-0,879	0,051	0,025
-159,993	156,607	0,058	0,057
-158,979	-200,000	-0,007	-0,052
-157,964	372,224	0,030	-0,043
-156,950	8,381	-0,047	-0,025
-155,935	467,763	0,036	0,057
-154,920	570,631	0,033	0,057
-153,906	800,000	-0,032	0,072
-152,891	22,160	0,075	0,043
-151,877	181,739	-0,038	0,040
-150,862	-200,000	-0,010	-0,143
-149,847	173,298	0,031	-0,032
-148,833	-2,447	-0,122	-0,061
-147,818	133,165	0,162	0,148
-146,804	-124,252	0,137	0,015
-145,789	800,000	-0,063	0,124
-144,775	347,721	-0,026	0,037
-143,760	-28,653	-0,095	-0,038
-142,745	535,329	-0,024	-0,040
-141,731	800,000	-0,064	-0,176
-140,716	640,138	-0,028	0,051
-139,702	14,623	0,125	0,069
-138,687	-200,000	0,006	0,163
-137,672	672,513	-0,022	-0,040
-136,658	-200,000	0,029	-0,119
-135,643	-200,000	0,072	-0,271
-134,629	-156,906	0,121	-0,005
-133,614	-200,000	0,007	0,119
-132,599	-200,000	-0,019	0,062
-131,585	283,414	0,030	0,038
-130,570	-23,028	-0,074	0,031
-129,556	-72,628	-0,068	0,018
-128,541	-200,000	-0,028	0,093
-127,526	-76,134	0,056	-0,014
-126,512	-200,000	0,013	0,057
-125,497	3,933	0,076	0,039
-124,483	410,971	0,067	0,102
-123,468	92,578	0,086	0,068
-122,453	-200,000	-0,004	-0,062
-121,439	800,000	-0,041	-0,086
-120,424	-137,829	0,070	-0,005
-119,410	-200,000	0,010	0,164
-118,395	30,669	0,140	0,085
-117,380	-200,000	0,023	0,081
-116,366	-35,589	0,058	0,022
-115,351	800,000	0,012	-0,027
-114,337	420,364	0,046	0,071
-113,322	800,000	-0,075	-0,154
-112,307	-0,424	0,093	-0,047
-111,293	-24,265	-0,139	0,058
-110,278	61,424	-0,053	0,037
-109,264	283,716	-0,044	-0,056
-108,249	299,328	0,089	-0,116
-107,234	-200,000	-0,045	-0,155
-106,220	-60,327	-0,068	0,020
-105,205	216,700	0,107	-0,120
-104,191	-4,935	0,151	0,073
-103,176	-200,000	0,025	-0,099
-102,162	-200,000	0,000	-0,006
-101,147	-76,386	-0,083	-0,020
-100,132	-200,000	0,000	0,058
-99,118	-200,000	0,013	-0,063
-98,103	68,536	0,087	0,063
-97,089	-200,000	0,015	0,147
-96,074	-200,000	-0,014	0,047
-95,059	-200,000	-0,007	0,024
-94,045	800,000	0,013	-0,039
-93,030	189,383	-0,097	-0,103
-92,016	472,919	-0,100	-0,160
-91,001	122,149	0,043	0,038
-89,986	750,335	0,048	0,092
-88,972	123,640	0,124	0,110
-87,957	378,542	-0,034	0,050
-86,943	800,000	-0,027	-0,081
-85,928	122,613	0,081	-0,072
-84,913	588,014	0,032	-0,055
-83,899	-200,000	-0,011	0,075
-82,884	-51,566	0,076	0,025
-81,870	152,804	-0,016	-0,015
-80,855	-200,000	0,006	-0,147
-79,840	-94,373	-0,038	0,007
-78,826	-200,000	-0,008	-0,078
-77,811	800,000	0,010	0,029
-76,797	-200,000	0,035	-0,111
-75,782	499,586	0,039	0,063
-74,767	-200,000	-0,027	-0,088
-73,753	-78,065	0,084	-0,020
-72,738	-44,552	-0,062	-0,022
-71,724	800,000	-0,001	0,004
-70,709	-200,000	0,001	-0,148
-69,694	103,307	-0,045	-0,037
-68,680	800,000	0,032	-0,084
-67,665	-200,000	0,014	-0,071
-66,651	438,154	0,088	0,136
-65,636	-26,170	0,094	-0,039
-64,622	280,949	-0,117	-0,149
-63,607	32,044	-0,035	-0,021
-62,592	255,174	0,020	-0,024
-61,578	-200,000	-0,003	-0,054
-60,563	800,000	-0,029	0,067
-59,549	-200,000	-0,012	0,190
-58,534	39,103	-1,989	-1,253
-57,519	424,412	-1,303	-1,985
-56,505	-200,000	-0,269	-4,301
-55,490	418,334	1,057	1,600
-54,476	800,000	5,171	11,260
-53,461	-200,000	21,630	342,764
-52,446	800,000	762,788	2348,897
-51,432	550,097	1661,989	2823,477
-50,417	71,866	1657,921	1215,290
-49,403	17,349	1531,340	855,553
-48,388	11,349	1455,396	784,151
-47,373	19,369	1446,773	817,890
-46,359	14,865	1435,769	790,264
-45,344	9,674	1431,651	763,294
-44,330	9,557	1429,939	761,795
-43,315	9,528	1428,242	760,722
-42,300	9,536	1426,326	759,711
-41,286	9,568	1425,126	759,190
-40,271	9,585	1423,785	758,526
-39,257	9,534	1422,884	757,778
-38,242	9,626	1421,562	757,477
-37,227	9,606	1420,605	756,845
-36,213	9,596	1419,364	756,105
-35,198	9,610	1418,069	755,449
-34,184	9,667	1416,965	755,099
-33,169	9,593	1415,555	753,972
-32,154	9,613	1414,789	753,629
-31,140	9,591	1413,480	752,795
-30,125	9,596	1412,317	752,169
-29,111	9,603	1411,321	751,642
-28,096	9,645	1409,800	751,001
-27,082	9,556	1408,780	750,012
-26,067	9,522	1407,753	749,275
-25,052	9,557	1406,572	748,781
-24,038	9,543	1405,874	748,313
-23,023	9,553	1404,955	747,840
-22,009	9,545	1403,703	747,107
-20,994	9,532	1402,847	746,563
-19,979	9,544	1401,773	746,017
-18,965	9,504	1400,919	745,346
-17,950	9,528	1399,921	744,897
-16,936	9,532	1398,952	744,372
-15,921	9,453	1398,441	743,702
-14,906	9,493	1397,216	743,205
-13,892	9,492	1396,213	742,641
-12,877	9,470	1395,644	742,206
-11,863	9,454	1394,772	741,637
-10,848	9,426	1393,817	740,973
-9,833	9,388	1392,898	740,279
-8,819	9,340	1392,073	739,587
-7,804	9,341	1391,135	739,063
-6,790	9,379	1390,140	738,682
-5,775	9,347	1388,992	737,894
-4,760	9,384	1387,966	737,493
-3,746	9,384	1387,379	737,152
-2,731	9,387	1386,099	736,455
-1,717	9,349	1385,528	735,949
-0,702	9,359	1383,577	734,927
0,313	13,435	1295,977	706,983
1,327	29,506	687,407	411,298
2,342	45,843	118,822	77,355
3,356	-1,003	16,560	8,234
4,371	1,051	3,680	1,855
5,386	-19,219	1,207	0,526
6,400	-200,000	0,161	0,698
7,415	27,449	-0,314	0,186
8,429	73,527	-0,227	-0,167
9,444	-41,712	-0,251	-0,090
10,459	248,892	-0,189	-0,226
11,473	97,703	-0,135	-0,109
12,488	-106,738	-0,285	-0,044
13,502	2,642	-0,295	-0,150
14,517	800,000	-0,116	-0,253
15,531	-35,801	-0,495	-0,188
16,546	-36,583	-0,380	-0,143
17,561	597,190	-0,176	-0,307
18,575	-101,864	-0,142	0,024
19,590	505,774	-0,131	-0,215
20,604	202,249	-0,145	-0,158
21,619	56,047	-0,525	-0,358
22,634	195,219	-0,331	-0,354
23,648	84,956	-0,346	-0,266
24,663	198,090	-0,338	-0,364
25,677	254,664	-0,228	-0,275
26,692	291,760	-0,308	-0,395
27,707	26,772	-0,326	-0,192
28,721	94,282	-0,421	-0,336
29,736	34,198	-0,334	-0,204
30,750	36,851	-0,463	-0,287
31,765	38,410	-0,392	-0,245
32,780	119,104	-0,286	-0,249
33,794	-62,608	-0,306	-0,089
34,809	29,069	-0,321	-0,191
35,823	57,812	-0,387	-0,266
36,838	55,461	-0,503	-0,341
37,853	-44,962	-0,388	-0,135
38,867	105,210	-0,290	-0,241
39,882	210,044	-0,311	-0,343
40,896	4,929	-0,441	-0,227
41,911	-15,258	-0,257	-0,115
42,926	135,329	-0,285	-0,260
43,940	119,119	-0,403	-0,350
44,955	4,929	-0,427	-0,220
45,969	132,310	-0,282	-0,256
46,984	96,335	-0,350	-0,281
47,999	67,697	-0,314	-0,225
49,013	62,839	-0,357	-0,250
50,028	-45,602	-0,493	-0,170
51,042	-8,570	-0,297	-0,139
52,057	44,847	-0,437	-0,282
53,071	27,017	-0,269	-0,158
54,086	27,802	-0,312	-0,184
55,101	188,995	-0,202	-0,212
56,115	224,272	-0,242	-0,274
57,130	1,796	-0,323	-0,163
58,144	34,734	-0,430	-0,263
59,159	115,454	-0,388	-0,333
60,174	-43,787	-0,371	-0,130
61,188	327,332	-0,263	-0,355
62,203	-36,919	-0,237	-0,089
63,217	158,712	-0,215	-0,209
64,232	145,855	-0,264	-0,248
65,247	480,489	-0,200	-0,320
66,261	83,917	-0,472	-0,361
67,276	-20,925	-0,389	-0,167
68,290	33,141	-0,302	-0,183
69,305	193,191	-0,251	-0,266
70,320	-78,369	-0,402	-0,096
71,334	49,761	-0,284	-0,188
72,349	91,868	-0,296	-0,233
73,363	-64,805	-0,248	-0,070
74,378	90,176	-0,258	-0,202
75,393	221,106	-0,235	-0,264
76,407	-20,548	-0,334	-0,143
77,422	-66,215	-0,405	-0,112
78,436	-18,546	-0,289	-0,126
79,451	25,763	-0,332	-0,193
80,466	227,792	-0,273	-0,311
81,480	145,731	-0,265	-0,249
82,495	300,761	-0,148	-0,191
83,509	211,683	-0,157	-0,173
84,524	-37,880	-0,256	-0,095
85,539	-107,494	-0,360	-0,055
86,553	83,044	-0,254	-0,193
87,568	800,000	-0,103	-0,206
88,582	79,729	-0,251	-0,188
89,597	-112,413	-0,266	-0,037
90,611	132,836	-0,259	-0,234
91,626	204,326	-0,232	-0,252
92,641	63,669	-0,318	-0,223
93,655	244,391	-0,180	-0,211
94,670	46,915	-0,255	-0,165
95,684	60,072	-0,242	-0,167
96,699	14,485	-0,297	-0,162
97,714	48,134	-0,316	-0,206
98,728	88,787	-0,203	-0,158
99,743	-83,936	-0,400	-0,088
100,757	-100,951	-0,283	-0,048
101,772	-1,060	-0,302	-0,149
102,787	44,993	-0,305	-0,196
103,801	74,976	-0,231	-0,170
104,816	-69,833	-0,201	-0,053
105,830	-22,453	-0,282	-0,119
106,845	44,857	-0,321	-0,206
107,860	16,822	-0,290	-0,160
108,874	76,307	-0,205	-0,152
109,889	-3,701	-0,317	-0,153
110,903	157,684	-0,352	-0,340
111,918	57,175	-0,312	-0,213
112,933	380,483	-0,133	-0,192
113,947	234,442	-0,129	-0,149
114,962	-63,057	-0,257	-0,074
115,976	92,913	-0,291	-0,229
116,991	186,455	-0,168	-0,175
118,006	38,963	-0,227	-0,141
119,020	25,804	-0,272	-0,158
120,035	108,044	-0,136	-0,113
121,049	-88,185	-0,268	-0,055
122,064	45,911	-0,230	-0,148
123,079	-60,903	-0,200	0,059
124,093	365,789	-0,232	-0,328
125,108	144,000	-0,246	-0,229
126,122	34,949	-0,309	-0,188
127,137	159,177	-0,191	-0,185
128,151	-58,598	-0,148	-0,044
129,166	-87,034	-0,255	-0,054
130,181	72,700	-0,230	-0,167
131,195	-149,383	-0,265	-0,014
132,210	-60,081	-0,290	-0,086
133,224	20,671	-0,297	-0,167
134,239	60,926	-0,234	-0,162
135,254	122,951	-0,262	-0,229
136,268	100,985	-0,232	-0,188
137,283	-39,013	-0,296	-0,108
138,297	111,844	-0,355	-0,299
139,312	6,049	-0,332	-0,171
140,327	12,695	-0,283	-0,152
141,341	-19,064	-0,314	-0,136
142,356	296,081	-0,104	-0,133
143,370	6,908	-0,231	-0,120
144,385	4,937	-0,365	-0,186
145,400	-68,843	-0,229	-0,061
146,414	61,485	-0,190	-0,131
147,429	167,474	-0,194	-0,192
148,443	334,751	-0,156	-0,211
149,458	-38,136	-0,145	-0,053
150,473	59,741	-0,172	-0,118
151,487	-200,000	-0,089	-0,274
152,502	102,438	-0,237	-0,193
153,516	-32,683	-0,216	-0,083
154,531	647,323	-0,170	-0,304
155,546	-4,348	-0,249	-0,119
156,560	234,355	-0,193	-0,221
157,575	-167,434	-0,133	-0,004
158,589	-138,715	-0,276	-0,021
159,604	-182,509	-0,345	-0,004
160,619	13,026	-0,265	-0,142
161,633	337,382	-0,196	-0,266
162,648	606,525	-0,127	-0,221
163,662	-66,194	-0,203	-0,056
164,677	-42,228	-0,311	0,110
165,692	-200,000	-0,115	0,000
166,706	-40,074	-0,175	-0,063
167,721	266,399	-0,303	-0,368
168,735	160,978	-0,256	-0,249
169,750	235,424	-0,153	-0,176
170,764	-86,300	-0,324	-0,069
171,779	-182,266	-0,293	0,004
172,794	-110,063	-0,244	0,035
173,808	146,981	-0,179	-0,167
174,823	13,616	-0,346	-0,186
175,837	98,373	-0,251	-0,201
176,852	100,995	-0,248	-0,200
177,867	210,324	-0,113	-0,123
178,881	-54,510	-0,337	-0,105
179,896	83,977	-0,079	-0,060
180,910	11,432	-0,186	-0,099
181,925	296,621	-0,171	-0,218
182,940	196,943	-0,159	-0,168
183,954	-43,691	-0,137	-0,048
184,969	141,974	-0,106	-0,098
185,983	-65,539	-0,158	-0,044
186,998	14,082	-0,228	-0,123
188,013	138,865	-0,206	-0,188
189,027	-33,585	-0,214	-0,082
190,042	74,385	-0,249	-0,181
191,056	-72,893	-0,188	-0,048
192,071	115,864	-0,180	-0,153
193,086	623,237	-0,144	-0,253
194,100	-62,294	-0,063	-0,018
195,115	77,489	-0,164	-0,121
196,129	125,891	-0,231	-0,203
197,144	76,246	-0,307	-0,225
198,159	242,648	-0,213	-0,247
199,173	-45,408	-0,323	-0,110
200,188	13,483	-0,218	-0,117
201,202	-19,962	-0,230	-0,098
202,217	-80,818	-0,248	0,057
203,232	158,665	-0,183	-0,177
204,246	161,702	-0,172	-0,167
205,261	128,119	-0,201	-0,177
206,275	75,873	-0,155	-0,113
207,290	800,000	-0,102	-0,231
208,304	262,963	-0,123	-0,149
209,319	-44,502	-0,151	-0,052
210,334	16,795	-0,227	-0,124
211,348	-71,767	-0,244	-0,063
212,363	122,359	-0,176	-0,152
213,377	327,007	-0,179	-0,238
214,392	-200,000	-0,051	-0,268
215,407	102,422	-0,166	-0,135
216,421	-200,000	-0,048	-0,156
217,436	67,875	-0,162	-0,115
218,450	157,164	-0,239	-0,229
219,465	222,940	-0,185	-0,207
220,480	-48,855	-0,242	-0,080
221,494	97,379	-0,134	-0,107
222,509	-200,000	-0,030	-0,263
223,523	731,543	-0,085	-0,158
224,538	800,000	-0,090	-0,215
225,553	800,000	-0,070	-0,168
226,567	120,391	-0,167	-0,143
227,582	175,966	-0,183	-0,184
228,596	24,134	-0,188	-0,107
229,611	396,372	-0,034	0,050
230,626	-4,025	-0,071	0,034
231,640	512,089	-0,076	-0,123
232,655	-3,293	-0,263	-0,126
233,669	61,687	-0,299	-0,205
234,684	12,128	-0,187	-0,099
235,699	5,529	-0,201	-0,102
236,713	-200,000	-0,020	-0,215
237,728	24,475	-0,210	-0,120
238,742	174,855	-0,152	-0,152
239,757	34,811	-0,194	-0,117
240,772	800,000	-0,125	-0,261
241,786	1,144	-0,151	-0,074
242,801	-200,000	-0,037	-0,172
243,815	199,150	-0,074	-0,078
244,830	166,034	-0,138	-0,135
245,844	139,465	-0,262	-0,238
246,859	174,553	-0,190	-0,190
247,874	70,573	-0,227	-0,162
248,888	-81,431	-0,114	0,026
249,903	221,587	-0,150	-0,166
250,917	317,015	-0,126	-0,165
251,932	-138,691	-0,136	-0,010
252,947	440,509	-0,135	-0,205
253,961	-0,595	-0,143	-0,070
254,976	3,023	-0,260	-0,130
255,990	800,000	-0,081	-0,235
257,005	10,738	-0,166	-0,087
258,020	-200,000	-0,219	0,000
259,034	119,355	-0,193	-0,165
260,049	800,000	-0,103	-0,261
261,063	-20,926	-0,267	-0,112
262,078	528,536	-0,102	-0,166
263,093	800,000	-0,050	-0,104
264,107	704,976	-0,114	-0,208
265,122	640,987	-0,023	0,041
266,136	134,961	-0,113	-0,101
267,151	-29,524	-0,094	0,037
268,166	-33,961	-0,269	-0,101
269,180	284,526	-0,171	-0,212
270,195	104,546	-0,217	-0,176
271,209	114,301	-0,204	-0,171
272,224	187,956	-0,131	-0,135
273,239	19,509	-0,194	-0,107
274,253	-30,866	-0,150	-0,058
275,268	212,804	-0,139	-0,151
276,282	-82,271	-0,139	-0,031
277,297	-26,931	-0,149	-0,060
278,312	114,199	-0,180	-0,151
279,326	107,159	-0,124	-0,102
280,341	65,634	-0,089	-0,062
281,355	142,573	-0,155	-0,141
282,370	79,497	-0,118	-0,087
283,384	126,865	-0,123	-0,107
284,399	-72,343	-0,218	-0,055
285,414	186,364	-0,125	-0,128
286,428	800,000	-0,072	-0,153
287,443	800,000	-0,082	-0,165
288,457	273,725	-0,135	-0,164
289,472	587,815	-0,103	-0,175
290,487	-4,460	-0,187	-0,088
291,501	181,384	-0,205	-0,207
292,516	-17,640	-0,221	-0,095
293,530	7,388	-0,126	-0,064
294,545	-200,000	-0,025	-0,218
295,560	265,644	-0,116	-0,139
296,574	523,749	-0,106	-0,172
297,589	800,000	0,042	-0,126
298,603	138,698	-0,151	-0,136
299,618	-128,450	-0,162	0,016
300,633	800,000	-0,065	-0,188
301,647	637,073	-0,038	-0,066
302,662	-16,156	-0,185	-0,080
303,676	137,287	-0,182	-0,163
304,691	624,879	-0,104	-0,180
305,706	-200,000	-0,055	-0,222
306,720	199,690	-0,170	-0,180
307,735	137,461	-0,089	-0,080
308,749	-200,000	0,007	-0,177
309,764	-200,000	0,015	-0,203
310,779	305,849	-0,158	-0,203
311,793	-163,113	-0,091	0,003
312,808	6,911	-0,139	-0,071
313,822	537,850	-0,091	-0,149
314,837	-200,000	-0,038	-0,115
315,852	272,357	-0,159	-0,193
316,866	800,000	-0,022	0,050
317,881	-54,847	-0,103	-0,032
318,895	122,299	-0,194	-0,166
319,910	228,627	-0,110	-0,123
320,925	253,064	-0,162	-0,190
321,939	259,196	-0,113	-0,134
322,954	374,529	-0,108	-0,151
323,968	-159,818	-0,079	0,003
324,983	157,283	-0,136	-0,129
325,997	45,162	-0,225	-0,142
327,012	459,121	-0,122	-0,186
328,027	169,258	-0,133	-0,130
329,041	463,004	-0,076	-0,117
330,056	181,261	-0,118	-0,119
331,070	310,544	-0,081	-0,104
332,085	-200,000	-0,006	-0,057
333,100	-74,261	-0,190	-0,047
334,114	-200,000	-0,017	-0,151
335,129	376,054	-0,115	-0,161
336,143	-200,000	0,004	-0,210
337,158	-97,814	-0,074	-0,013
338,173	76,186	-0,109	0,079
339,187	-200,000	0,034	-0,122
340,202	101,316	-0,148	-0,118
341,216	-19,582	0,071	-0,030
342,231	-200,000	-0,001	-0,287
343,246	-46,958	-0,132	-0,044
344,260	505,243	-0,100	-0,159
345,275	-124,731	-0,253	0,026
346,289	-67,518	-0,102	0,027
347,304	461,239	-0,098	-0,150
348,319	4,933	-0,172	-0,086
349,333	77,029	-0,111	-0,081
350,348	81,333	-0,161	-0,119
351,362	300,836	-0,065	-0,082
352,377	205,163	-0,153	-0,162
353,392	-200,000	-0,010	0,077
354,406	-78,299	-0,091	-0,021
355,421	207,636	1306,369	1395,959
356,435	159,738	1466,040	1396,438
