DTS Sentinel unit serial number:	SN410029Multiplexer serial number:	ORYXHardware model number:	OX2-SRSoftware version number:	ORYX F/W v4,00 Oryx Data Collector v3.7.2.0data status	okinstallation	B3 Nyhavnadifferential loss correction	single-endedforward channel	channel 1reverse channel	N/Adate	2023/11/30time	04:57:31forward acquisition time	300,00reverse acquisition time	0,00gamma	499,1914k internal	0,3211k external	0,3211temperature offset calibration	1,0000default loss term (dB/km)	0,3820temperature slope calibration	1,0000multiplexer offset coefficient	1,0000multiplexer slope coefficient	1,0000fibre end	0,00T internal ref (°C)	10,17T ext. ref 1 (°C)	-5,20T ext. ref 2 (°C)	-5,25length (m)	temperature (°C)	Stokes	anti-Stokes-744,400	800,000	-0,082	-0,242
-743,385	-200,000	0,021	0,197
-742,371	187,995	-0,269	-0,292
-741,356	-200,000	-0,077	0,400
-740,342	439,349	-0,186	-0,296
-739,327	-200,000	-0,048	0,212
-738,312	-200,000	-0,077	-0,349
-737,298	194,699	-0,169	0,186
-736,283	800,000	-0,158	-0,330
-735,269	-200,000	0,034	0,341
-734,254	252,325	-0,112	-0,139
-733,239	-156,891	-0,365	-0,016
-732,225	532,298	-0,115	-0,198
-731,210	37,910	0,113	0,073
-730,196	108,464	-0,164	-0,142
-729,181	-129,242	-0,092	-0,009
-728,167	186,618	-0,087	-0,094
-727,152	-200,000	-0,006	-0,035
-726,137	-74,623	-0,071	-0,018
-725,123	50,284	-0,141	-0,096
-724,108	624,836	-0,094	-0,173
-723,094	-88,052	-0,027	0,006
-722,079	69,178	-0,079	-0,059
-721,064	120,642	0,039	-0,035
-720,050	85,735	0,089	-0,070
-719,035	303,081	-0,043	0,057
-718,021	-24,521	-0,132	-0,057
-717,006	-200,000	0,002	-0,090
-715,991	71,386	-0,139	-0,104
-714,977	-93,571	-0,210	0,042
-713,962	-43,811	-0,053	-0,019
-712,948	-200,000	-0,006	0,073
-711,933	-148,138	-0,105	-0,006
-710,918	196,448	-0,046	0,051
-709,904	76,257	-0,092	-0,071
-708,889	112,065	-0,069	-0,061
-707,875	-200,000	0,027	0,109
-706,860	-200,000	-0,015	-0,131
-705,845	-104,653	0,094	-0,016
-704,831	653,587	0,049	0,092
-703,816	295,156	-0,087	0,115
-702,802	435,828	-0,016	0,025
-701,787	-60,921	-0,034	0,010
-700,772	28,578	0,054	-0,033
-699,758	40,005	-0,017	-0,011
-698,743	188,012	-0,032	-0,035
-697,729	32,779	-0,055	0,034
-696,714	-151,351	-0,025	0,001
-695,699	238,264	-0,056	-0,068
-694,685	336,322	-0,152	-0,214
-693,670	156,886	0,072	0,072
-692,656	239,857	-0,054	-0,065
-691,641	-67,354	-0,049	-0,014
-690,627	109,497	-0,047	0,041
-689,612	-64,953	-0,090	0,026
-688,597	223,100	-0,109	0,128
-687,583	538,983	0,025	-0,044
-686,568	-141,164	-0,075	-0,005
-685,554	-149,420	-0,205	-0,012
-684,539	143,931	-0,069	-0,067
-683,524	67,233	-0,070	-0,052
-682,510	394,227	-0,016	0,024
-681,495	15,999	-0,058	0,033
-680,481	266,723	0,035	0,045
-679,466	-200,000	-0,020	-0,092
-678,451	71,027	-0,039	0,030
-677,437	-178,719	-0,030	0,000
-676,422	-200,000	-0,012	-0,071
-675,408	-104,908	0,062	0,010
-674,393	800,000	0,017	-0,047
-673,378	42,519	-0,043	0,028
-672,364	-200,000	0,001	-0,042
-671,349	626,184	-0,027	0,049
-670,335	-144,819	-0,127	-0,008
-669,320	224,060	0,055	-0,064
-668,305	-28,585	0,124	-0,051
-667,291	-200,000	0,010	-0,035
-666,276	297,804	-0,065	-0,087
-665,262	-200,000	-0,006	-0,089
-664,247	5,613	-0,140	-0,075
-663,232	156,762	0,070	0,070
-662,218	4,544	-0,131	0,069
-661,203	-200,000	-0,006	-0,023
-660,189	-200,000	0,020	0,140
-659,174	-200,000	-0,012	-0,106
-658,159	60,331	-0,106	-0,076
-657,145	343,878	-0,031	0,044
-656,130	-200,000	-0,007	-0,040
-655,116	279,209	0,049	-0,063
-654,101	33,969	-0,126	0,079
-653,086	-200,000	0,007	0,056
-652,072	-200,000	0,023	-0,114
-651,057	-200,000	-0,002	-0,084
-650,043	100,988	0,075	0,063
-649,028	251,174	-0,036	-0,044
-648,014	-181,531	0,036	-0,001
-646,999	589,754	0,067	-0,121
-645,984	76,995	0,059	0,045
-644,970	14,778	-0,154	-0,087
-643,955	-7,051	-0,087	0,042
-642,941	-200,000	0,012	0,052
-641,926	157,604	-0,040	0,040
-640,911	-138,026	0,072	-0,006
-639,897	289,126	-0,043	-0,057
-638,882	110,563	0,033	-0,029
-637,868	-75,757	-0,072	0,018
-636,853	-200,000	-0,017	0,059
-635,838	-200,000	-0,130	0,000
-634,824	-95,274	0,014	0,003
-633,809	354,925	0,075	0,108
-632,795	-200,000	-0,007	0,046
-631,780	-9,220	0,016	-0,008
-630,765	-42,923	-0,051	-0,019
-629,751	-59,769	-0,099	-0,031
-628,736	222,841	-0,063	-0,074
-627,722	-68,939	0,153	-0,042
-626,707	800,000	-0,036	0,073
-625,692	100,161	0,035	0,030
-624,678	571,598	-0,004	0,007
-623,663	-114,800	-0,103	0,014
-622,649	-200,000	0,001	-0,119
-621,634	66,028	-0,121	0,088
-620,619	-112,833	0,069	0,010
-619,605	112,195	0,065	0,056
-618,590	314,119	-0,049	-0,066
-617,576	81,138	0,097	0,076
-616,561	-200,000	-0,031	0,106
-615,546	44,560	0,043	0,028
-614,532	-200,000	-0,010	-0,038
-613,517	-28,025	0,067	-0,028
-612,503	800,000	-0,050	-0,116
-611,488	-158,208	0,103	0,004
-610,474	26,427	0,132	0,079
-609,459	800,000	-0,044	0,124
-608,444	72,609	0,033	0,025
-607,430	-154,588	-0,139	-0,007
-606,415	747,462	0,082	-0,161
-605,401	-25,705	0,007	-0,003
-604,386	-200,000	0,018	0,149
-603,371	-89,320	0,125	0,026
-602,357	-20,152	0,116	-0,051
-601,342	222,459	-0,103	0,120
-600,328	-200,000	-0,018	0,078
-599,313	800,000	0,043	0,136
-598,298	-187,463	-0,120	0,001
-597,284	-200,000	0,034	0,110
-596,269	370,085	0,021	0,031
-595,255	429,476	-0,041	-0,065
-594,240	-200,000	0,003	-0,047
-593,225	20,396	-0,064	-0,037
-592,211	161,411	-0,054	-0,054
-591,196	800,000	-0,031	-0,071
-590,182	-200,000	0,007	0,035
-589,167	-200,000	-0,018	0,092
-588,152	186,286	-0,062	0,067
-587,138	99,727	-0,057	0,048
-586,123	-23,458	-0,148	-0,064
-585,109	-200,000	-0,019	-0,096
-584,094	-117,949	-0,112	-0,014
-583,079	800,000	0,019	-0,056
-582,065	-35,849	-0,037	-0,014
-581,050	-200,000	-0,022	-0,081
-580,036	433,328	0,027	0,043
-579,021	167,093	-0,030	-0,031
-578,006	-200,000	-0,058	-0,268
-576,992	-200,000	0,029	-0,185
-575,977	151,590	0,062	0,061
-574,963	-53,334	0,211	0,069
-573,948	23,402	-0,080	-0,047
-572,934	-200,000	0,001	0,065
-571,919	-200,000	0,009	0,076
-570,904	-200,000	0,032	-0,124
-569,890	-200,000	-0,005	-0,183
-568,875	800,000	0,028	-0,057
-567,861	800,000	0,030	0,063
-566,846	-120,514	-0,138	0,017
-565,831	-200,000	-0,008	0,061
-564,817	666,784	0,022	-0,040
-563,802	323,740	0,031	0,042
-562,788	494,215	-0,055	0,092
-561,773	428,626	-0,011	0,018
-560,758	800,000	-0,018	-0,037
-559,744	-200,000	0,006	-0,122
-558,729	78,862	-0,041	-0,032
-557,715	-85,963	-0,153	0,034
-556,700	14,795	-0,100	-0,056
-555,685	-121,229	-0,017	-0,002
-554,671	559,512	0,020	-0,034
-553,656	-200,000	0,041	-0,156
-552,642	800,000	0,030	0,065
-551,627	661,328	-0,041	-0,075
-550,612	800,000	-0,026	-0,079
-549,598	411,491	-0,036	-0,056
-548,583	-200,000	0,019	-0,069
-547,569	181,493	-0,055	-0,058
-546,554	187,053	0,083	0,089
-545,539	-200,000	-0,002	0,013
-544,525	92,910	-0,076	0,062
-543,510	-154,876	0,057	0,003
-542,496	-71,441	-0,083	-0,022
-541,481	-200,000	0,006	-0,190
-540,466	644,294	-0,029	-0,053
-539,452	-18,442	0,026	0,011
-538,437	-177,105	-0,058	0,001
-537,423	800,000	0,048	-0,106
-536,408	-110,017	-0,037	-0,005
-535,393	69,710	0,065	0,048
-534,379	361,266	-0,046	-0,066
-533,364	67,588	0,155	-0,113
-532,350	-126,236	0,087	0,009
-531,335	-35,188	0,076	0,030
-530,321	-122,062	0,073	0,008
-529,306	-59,906	-0,142	-0,043
-528,291	-16,916	-0,073	0,033
-527,277	78,380	0,092	-0,070
-526,262	-97,555	0,159	-0,029
-525,248	-200,000	-0,004	-0,038
-524,233	219,614	0,079	0,091
-523,218	119,985	-0,088	0,079
-522,204	-200,000	0,009	0,082
-521,189	-170,320	-0,160	-0,004
-520,175	19,851	0,075	0,043
-519,160	-200,000	-0,029	-0,114
-518,145	212,453	-0,051	0,057
-517,131	800,000	-0,087	0,187
-516,116	381,916	-0,027	0,040
-515,102	191,428	0,050	0,054
-514,087	800,000	0,034	0,079
-513,072	800,000	-0,006	-0,013
-512,058	-200,000	0,024	-0,149
-511,043	-79,495	-0,086	-0,021
-510,029	-200,000	-0,038	-0,123
-509,014	146,749	0,116	0,112
-507,999	153,259	-0,058	0,057
-506,985	8,711	-0,125	-0,068
-505,970	-200,000	-0,028	-0,092
-504,956	595,158	0,075	0,135
-503,941	681,841	0,034	0,064
-502,926	800,000	0,050	-0,123
-501,912	-200,000	-0,026	-0,096
-500,897	92,803	0,024	0,019
-499,883	327,657	-0,081	-0,112
-498,868	46,866	0,060	0,040
-497,853	427,191	-0,147	-0,228
-496,839	129,728	0,082	-0,076
-495,824	187,735	0,047	-0,050
-494,810	212,201	-0,095	0,108
-493,795	270,180	0,023	0,030
-492,781	-76,670	-0,052	0,013
-491,766	301,864	0,058	0,077
-490,751	126,395	-0,050	0,046
-489,737	640,220	0,044	0,081
-488,722	800,000	-0,028	-0,060
-487,708	-34,251	-0,083	-0,033
-486,693	-200,000	-0,004	-0,065
-485,678	-150,930	-0,119	-0,006
-484,664	-90,709	0,131	-0,027
-483,649	800,000	0,003	0,008
-482,635	-107,739	-0,101	0,016
-481,620	-200,000	0,015	0,137
-480,605	800,000	-0,035	0,086
-479,591	-94,519	-0,120	-0,023
-478,576	205,418	0,045	-0,050
-477,562	89,510	-0,035	-0,028
-476,547	132,782	0,066	-0,062
-475,532	89,340	0,162	-0,130
-474,518	571,862	-0,027	-0,047
-473,503	-128,138	0,093	-0,009
-472,489	142,618	-0,097	0,092
-471,474	298,519	-0,049	0,064
-470,459	800,000	-0,038	-0,119
-469,445	230,296	-0,089	-0,104
-468,430	-200,000	-0,022	-0,094
-467,416	139,583	0,032	-0,030
-466,401	800,000	0,023	0,051
-465,386	-200,000	0,004	-0,022
-464,372	91,730	-0,042	0,034
-463,357	800,000	-0,061	0,123
-462,343	-28,535	0,069	0,028
-461,328	29,507	0,093	-0,057
-460,313	-142,476	-0,181	-0,013
-459,299	-78,552	-0,077	-0,019
-458,284	10,382	0,066	0,036
-457,270	89,191	0,141	-0,113
-456,255	-93,849	-0,109	-0,021
-455,241	127,264	-0,072	0,065
-454,226	82,295	-0,101	-0,078
-453,211	323,306	-0,083	-0,114
-452,197	96,890	0,015	-0,013
-451,182	800,000	-0,040	-0,092
-450,168	-163,492	-0,060	-0,002
-449,153	800,000	-0,069	-0,205
-448,138	568,223	0,053	-0,093
-447,124	800,000	-0,016	-0,035
-446,109	-48,206	-0,106	0,036
-445,095	-200,000	0,019	0,135
-444,080	-156,730	0,031	-0,001
-443,065	-200,000	-0,001	0,014
-442,051	34,881	-0,075	0,047
-441,036	-148,682	-0,082	-0,005
-440,022	-38,472	0,126	0,047
-439,007	-200,000	0,034	-0,142
-437,992	33,755	0,119	0,074
-436,978	-200,000	-0,003	0,075
-435,963	443,690	0,071	0,113
-434,949	-115,013	-0,024	0,003
-433,934	704,767	0,064	-0,122
-432,919	-200,000	-0,025	0,170
-431,905	168,779	-0,012	0,012
-430,890	-200,000	-0,034	0,184
-429,876	431,425	0,082	0,128
-428,861	-200,000	0,048	-0,155
-427,846	61,216	0,092	0,066
-426,832	-158,701	-0,103	0,004
-425,817	385,560	-0,027	-0,040
-424,803	800,000	0,033	-0,086
-423,788	800,000	-0,148	0,309
-422,773	5,930	0,016	-0,008
-421,759	102,578	-0,061	0,051
-420,744	209,455	0,061	0,068
-419,730	-10,453	0,105	0,050
-418,715	160,771	-0,134	-0,134
-417,701	-49,545	0,125	-0,042
-416,686	-92,054	-0,090	-0,018
-415,671	-129,130	0,181	-0,018
-414,657	32,984	0,115	0,071
-413,642	-116,686	-0,087	0,011
-412,628	-115,133	-0,145	-0,020
-411,613	800,000	0,001	0,004
-410,598	253,804	0,036	0,044
-409,584	249,863	-0,038	-0,046
-408,569	-200,000	0,007	0,150
-407,555	800,000	-0,033	0,098
-406,540	140,849	0,113	0,107
-405,525	89,706	0,053	0,042
-404,511	28,250	-0,092	0,056
-403,496	-75,504	-0,106	0,027
-402,482	449,366	0,086	-0,137
-401,467	151,899	0,079	0,077
-400,452	-35,611	-0,090	0,035
-399,438	-29,363	-0,079	-0,032
-398,423	-200,000	0,013	-0,133
-397,409	385,958	0,031	0,045
-396,394	317,558	0,061	-0,083
-395,379	-99,492	0,082	-0,015
-394,365	-200,000	-0,034	0,125
-393,350	461,553	0,063	0,101
-392,336	82,327	0,088	0,068
-391,321	7,290	-0,033	0,018
-390,306	800,000	0,048	-0,118
-389,292	-71,841	0,126	-0,033
-388,277	603,085	-0,079	0,140
-387,263	-22,442	-0,049	0,021
-386,248	-139,104	0,144	-0,011
-385,233	-109,384	0,085	-0,013
-384,219	-200,000	-0,012	-0,042
-383,204	-30,029	-0,138	0,056
-382,190	-200,000	0,026	0,111
-381,175	270,717	0,044	0,056
-380,160	105,786	0,104	0,088
-379,146	634,448	-0,056	0,103
-378,131	-200,000	-0,021	0,070
-377,117	-200,000	-0,025	0,172
-376,102	6,512	-0,119	-0,063
-375,088	-98,904	-0,046	0,008
-374,073	-132,729	0,067	-0,006
-373,058	183,102	0,081	0,086
-372,044	-68,752	0,120	-0,033
-371,029	-200,000	-0,002	0,134
-370,015	800,000	-0,083	0,171
-369,000	800,000	0,033	-0,076
-367,985	398,330	-0,056	-0,083
-366,971	-200,000	-0,002	-0,018
-365,956	157,840	0,060	-0,060
-364,942	-25,506	0,059	-0,025
-363,927	-110,523	0,084	0,012
-362,912	634,161	-0,018	0,033
-361,898	-200,000	0,006	-0,099
-360,883	209,152	0,182	-0,204
-359,869	800,000	0,023	-0,053
-358,854	258,667	0,077	0,094
-357,839	800,000	0,019	-0,039
-356,825	-200,000	0,016	0,054
-355,810	177,437	0,025	0,026
-354,796	800,000	0,013	-0,030
-353,781	-41,951	-0,021	-0,008
-352,766	103,459	-0,097	-0,081
-351,752	-12,865	0,045	-0,021
-350,737	554,137	0,056	-0,096
-349,723	800,000	-0,100	0,206
-348,708	685,808	0,022	-0,042
-347,693	-200,000	0,020	0,103
-346,679	-6,232	0,018	-0,009
-345,664	800,000	-0,085	-0,173
-344,650	15,561	0,152	-0,085
-343,635	-200,000	-0,001	0,146
-342,620	-200,000	0,022	0,104
-341,606	6,638	0,064	0,034
-340,591	-68,035	0,102	0,028
-339,577	431,255	-0,017	0,027
-338,562	-147,804	-0,172	0,010
-337,548	320,103	0,019	-0,026
-336,533	48,314	0,119	0,080
-335,518	146,304	0,092	0,088
-334,504	2,333	-0,051	0,026
-333,489	800,000	0,019	-0,049
-332,475	-200,000	-0,005	-0,020
-331,460	-200,000	-0,019	0,078
-330,445	800,000	-0,026	0,064
-329,431	-91,114	0,088	0,018
-328,416	800,000	-0,031	-0,094
-327,402	124,206	-0,041	0,036
-326,387	800,000	-0,076	-0,200
-325,372	-200,000	0,008	-0,079
-324,358	275,044	-0,025	-0,032
-323,343	-19,481	0,100	0,044
-322,329	195,979	0,063	0,069
-321,314	-200,000	0,006	0,041
-320,299	789,473	-0,061	0,119
-319,285	25,495	-0,112	0,066
-318,270	-22,175	-0,061	0,026
-317,256	162,401	-0,076	-0,076
-316,241	415,009	-0,089	-0,136
-315,226	800,000	-0,075	0,165
-314,212	800,000	-0,014	-0,040
-313,197	175,455	0,039	0,040
-312,183	5,973	0,033	0,017
-311,168	74,566	-0,051	0,038
-310,153	439,324	-0,016	-0,026
-309,139	-12,909	0,091	-0,042
-308,124	17,990	0,072	0,041
-307,110	124,392	-0,055	-0,049
-306,095	-88,430	0,134	0,028
-305,080	357,623	0,042	0,059
-304,066	-200,000	-0,010	-0,144
-303,051	-200,000	-0,025	-0,112
-302,037	464,735	0,031	-0,049
-301,022	394,588	0,021	0,031
-300,008	-69,671	-0,048	0,013
-298,993	-56,167	0,034	-0,011
-297,978	800,000	0,029	-0,070
-296,964	103,181	-0,104	-0,087
-295,949	800,000	0,031	-0,062
-294,935	276,495	-0,079	-0,100
-293,920	74,664	-0,092	-0,069
-292,905	800,000	0,010	-0,028
-291,891	12,618	0,095	0,052
-290,876	-117,050	-0,038	0,005
-289,862	800,000	0,034	-0,072
-288,847	172,202	-0,048	0,049
-287,832	216,839	-0,011	0,013
-286,818	-200,000	0,033	0,146
-285,803	118,337	0,012	0,011
-284,789	-58,711	0,144	-0,044
-283,774	155,144	-0,052	-0,051
-282,759	-100,827	0,105	0,018
-281,745	-109,506	-0,140	0,021
-280,730	25,710	0,056	0,033
-279,716	-127,729	-0,073	0,007
-278,701	100,842	0,059	0,049
-277,686	211,870	0,084	0,094
-276,672	-83,360	0,010	0,002
-275,657	232,559	0,059	0,069
-274,643	152,512	-0,161	-0,157
-273,628	243,040	0,046	-0,055
-272,613	68,036	0,023	-0,017
-271,599	59,065	-0,057	0,040
-270,584	372,714	0,046	0,067
-269,570	-134,424	0,104	-0,009
-268,555	-200,000	0,014	-0,131
-267,540	180,126	-0,076	0,079
-266,526	-99,983	-0,095	-0,017
-265,511	257,006	-0,076	-0,093
-264,497	-200,000	0,001	-0,016
-263,482	6,539	-0,069	0,036
-262,467	-120,824	0,199	0,024
-261,453	-200,000	0,020	0,150
-260,438	-165,098	-0,020	-0,001
-259,424	-74,305	-0,077	0,020
-258,409	-180,239	0,040	0,001
-257,395	-47,928	0,137	0,047
-256,380	152,040	0,061	0,060
-255,365	-200,000	-0,003	-0,091
-254,351	-200,000	0,027	-0,090
-253,336	-41,098	0,104	-0,038
-252,322	800,000	0,032	0,083
-251,307	-149,083	-0,009	-0,000
-250,292	-162,775	-0,084	-0,003
-249,278	-100,213	0,034	0,006
-248,263	-7,233	0,131	-0,063
-247,249	-200,000	0,002	0,193
-246,234	800,000	0,028	-0,074
-245,219	-109,426	-0,016	0,002
-244,205	-81,292	-0,034	-0,008
-243,190	800,000	0,012	0,025
-242,176	635,656	0,017	0,031
-241,161	249,291	0,036	-0,044
-240,146	-98,811	-0,126	-0,023
-239,132	120,973	0,074	-0,066
-238,117	-200,000	-0,001	0,115
-237,103	-71,373	-0,127	0,034
-236,088	407,548	0,041	-0,062
-235,073	293,239	-0,077	-0,100
-234,059	-200,000	-0,019	0,144
-233,044	199,387	-0,048	0,052
-232,030	-68,622	-0,046	0,012
-231,015	-58,810	0,117	-0,036
-230,000	-200,000	0,025	-0,164
-228,986	26,102	0,068	-0,040
-227,971	37,086	0,048	-0,030
-226,957	-25,862	0,109	0,045
-225,942	116,104	0,020	0,018
-224,927	-164,649	0,064	-0,002
-223,913	800,000	-0,009	0,023
-222,898	47,028	-0,065	-0,043
-221,884	575,679	0,084	-0,146
-220,869	-200,000	0,031	0,100
-219,855	-92,692	0,116	-0,023
-218,840	800,000	-0,081	0,220
-217,825	141,408	0,044	-0,042
-216,811	130,005	-0,061	-0,056
-215,796	-102,098	-0,031	-0,005
-214,782	-12,131	-0,059	-0,027
-213,767	57,231	-0,107	-0,074
-212,752	-84,086	0,117	-0,026
-211,738	234,352	-0,057	0,067
-210,723	-108,153	-0,126	0,019
-209,709	416,164	0,040	-0,061
-208,694	-172,787	0,058	-0,001
-207,679	-200,000	-0,016	-0,077
-206,665	72,939	0,112	-0,083
-205,650	-171,438	0,092	-0,002
-204,636	75,617	0,124	0,093
-203,621	-35,925	0,098	0,038
-202,606	-200,000	-0,009	-0,055
-201,592	-93,763	0,112	-0,022
-200,577	-115,710	-0,147	0,019
-199,563	-80,505	0,019	0,004
-198,548	11,798	0,055	0,030
-197,533	382,428	-0,067	0,098
-196,519	237,099	-0,037	0,043
-195,504	260,905	-0,037	-0,046
-194,490	-47,100	-0,054	-0,019
-193,475	-200,000	0,020	0,000
-192,460	5,493	-0,077	0,040
-191,446	30,043	0,137	0,083
-190,431	53,650	0,061	0,041
-189,417	296,238	-0,036	-0,047
-188,402	127,646	0,038	-0,034
-187,387	390,050	-0,073	-0,108
-186,373	124,898	0,029	0,026
-185,358	114,888	-0,085	-0,074
-184,344	162,257	0,053	-0,053
-183,329	137,291	0,047	-0,044
-182,315	800,000	0,052	-0,113
-181,300	-200,000	0,032	0,142
-180,285	1,506	-0,150	-0,076
-179,271	-200,000	-0,014	-0,083
-178,256	800,000	-0,017	-0,047
-177,242	279,589	0,076	0,097
-176,227	800,000	0,006	-0,014
-175,212	800,000	-0,062	0,131
-174,198	-105,212	0,048	0,008
-173,183	-33,711	-0,120	-0,047
-172,169	574,892	0,009	-0,016
-171,154	-137,389	0,166	-0,013
-170,139	38,124	-0,096	0,061
-169,125	606,853	-0,023	0,042
-168,110	43,361	-0,089	0,058
-167,096	86,785	-0,048	-0,038
-166,081	308,630	-0,027	-0,035
-165,066	354,087	0,066	-0,093
-164,052	-25,942	0,123	-0,051
-163,037	-75,381	-0,052	-0,013
-162,023	-15,916	0,056	-0,025
-161,008	-40,585	-0,231	0,084
-159,993	-48,073	0,087	0,030
-158,979	-41,148	0,105	0,038
-157,964	-76,953	-0,209	0,051
-156,950	-47,500	-0,098	-0,034
-155,935	800,000	0,041	0,098
-154,920	334,092	0,042	0,058
-153,906	800,000	-0,027	0,067
-152,891	196,165	-0,015	0,016
-151,877	168,893	0,063	0,064
-150,862	800,000	-0,047	-0,110
-149,847	709,258	0,028	0,052
-148,833	47,125	0,092	-0,061
-147,818	800,000	0,066	0,132
-146,804	-184,648	0,152	-0,002
-145,789	-200,000	0,025	0,118
-144,775	-60,848	-0,110	-0,033
-143,760	-200,000	-0,019	-0,157
-142,745	-62,090	0,140	-0,041
-141,731	-200,000	-0,009	-0,041
-140,716	123,346	-0,049	0,043
-139,702	-34,486	-0,081	0,031
-138,687	-101,691	-0,014	-0,002
-137,672	-17,346	-0,093	0,041
-136,658	-94,753	-0,125	0,024
-135,643	800,000	-0,032	0,064
-134,629	6,506	-0,048	0,025
-133,614	374,635	-0,055	-0,079
-132,599	-75,926	-0,138	-0,034
-131,585	800,000	0,009	0,022
-130,570	-93,702	0,104	0,020
-129,556	-200,000	-0,059	-0,190
-128,541	-71,768	0,042	-0,011
-127,526	-33,948	0,100	-0,039
-126,512	7,395	-0,090	0,048
-125,497	-137,945	0,073	-0,006
-124,483	-200,000	-0,007	0,077
-123,468	-200,000	0,026	-0,085
-122,453	-28,165	-0,029	0,012
-121,439	-29,539	-0,064	-0,026
-120,424	235,500	-0,115	-0,135
-119,410	-200,000	0,031	-0,114
-118,395	-200,000	-0,006	0,067
-117,380	-65,892	0,012	0,003
-116,366	-200,000	-0,022	-0,075
-115,351	-46,000	0,050	-0,017
-114,337	-74,795	-0,206	-0,052
-113,322	-164,468	-0,104	0,003
-112,307	12,913	0,154	0,084
-111,293	668,173	-0,064	-0,117
-110,278	-200,000	0,025	0,103
-109,264	-117,483	0,100	0,013
-108,249	-109,013	-0,116	-0,017
-107,234	210,660	-0,051	-0,057
-106,220	-200,000	-0,027	-0,092
-105,205	61,298	-0,069	-0,048
-104,191	-200,000	-0,008	0,097
-103,176	-59,513	0,066	-0,020
-102,162	-58,610	-0,033	0,010
-101,147	101,212	-0,060	-0,049
-100,132	-200,000	0,009	-0,092
-99,118	2,133	-0,171	-0,087
-98,103	266,830	0,016	-0,020
-97,089	-200,000	-0,006	-0,108
-96,074	800,000	-0,026	0,066
-95,059	-200,000	0,002	0,082
-94,045	126,791	-0,097	-0,087
-93,030	-79,631	-0,129	-0,030
-92,016	-185,466	-0,058	-0,001
-91,001	5,863	0,021	-0,011
-89,986	-49,321	-0,135	0,045
-88,972	800,000	-0,034	0,092
-87,957	-73,962	0,081	-0,021
-86,943	-200,000	0,002	-0,009
-85,928	43,442	-0,120	-0,077
-84,913	-200,000	-0,002	-0,131
-83,899	-200,000	-0,002	-0,054
-82,884	-117,797	0,129	0,016
-81,870	-114,507	0,078	0,011
-80,855	792,981	-0,006	0,012
-79,840	134,475	0,060	-0,055
-78,826	462,458	0,045	-0,071
-77,811	-21,879	-0,092	0,039
-76,797	421,214	-0,076	-0,116
-75,782	800,000	0,067	-0,200
-74,767	74,461	0,082	0,061
-73,753	282,403	0,142	0,181
-72,738	-200,000	-0,022	0,080
-71,724	800,000	-0,013	0,030
-70,709	278,240	-0,051	-0,064
-69,694	187,054	-0,073	0,077
-68,680	-60,510	0,063	-0,019
-67,665	65,705	0,108	0,077
-66,651	-75,231	0,080	0,020
-65,636	185,011	-0,089	0,094
-64,622	-55,395	-0,071	-0,022
-63,607	202,931	-0,082	-0,090
-62,592	748,241	-0,038	-0,072
-61,578	173,158	-0,120	-0,122
-60,563	-57,735	0,021	-0,006
-59,549	17,031	-0,064	0,036
-58,534	35,539	-2,000	-1,237
-57,519	499,649	-1,233	-2,015
-56,505	-200,000	-0,370	-4,352
-55,490	800,000	0,825	1,645
-54,476	800,000	5,174	11,032
-53,461	-200,000	21,248	341,378
-52,446	800,000	759,752	2359,787
-51,432	559,356	1662,479	2843,848
-50,417	73,618	1661,650	1227,146
-49,403	18,069	1535,241	861,513
-48,388	12,053	1458,496	789,351
-47,373	19,457	1449,484	819,966
-46,359	15,520	1438,921	795,238
-45,344	10,296	1434,822	768,066
-44,330	10,245	1432,691	766,655
-43,315	10,227	1431,009	765,638
-42,300	10,229	1429,061	764,574
-41,286	10,241	1427,996	764,033
-40,271	10,192	1426,736	763,094
-39,257	10,189	1425,834	762,569
-38,242	10,224	1424,579	762,030
-37,227	10,247	1423,395	761,475
-36,213	10,228	1422,304	760,775
-35,198	10,289	1420,820	760,240
-34,184	10,250	1420,169	759,674
-33,169	10,207	1418,647	758,628
-32,154	10,265	1417,770	758,401
-31,140	10,284	1416,356	757,706
-30,125	10,340	1415,409	757,430
-29,111	10,273	1414,389	756,542
-28,096	10,264	1413,153	755,810
-27,082	10,230	1411,708	754,846
-26,067	10,176	1410,857	754,110
-25,052	10,232	1409,796	753,775
-24,038	10,221	1408,721	753,115
-23,023	10,216	1407,714	752,524
-22,009	10,186	1406,887	751,911
-20,994	10,220	1405,732	751,425
-19,979	10,163	1405,003	750,741
-18,965	10,159	1404,088	750,200
-17,950	10,179	1402,988	749,679
-16,936	10,143	1402,291	749,109
-15,921	10,073	1401,328	748,236
-14,906	10,117	1400,413	747,923
-13,892	10,168	1399,171	747,470
-12,877	10,129	1398,554	746,929
-11,863	10,068	1397,788	746,207
-10,848	10,047	1396,885	745,595
-9,833	10,064	1395,958	745,151
-8,819	10,026	1395,239	744,563
-7,804	9,987	1394,161	743,776
-6,790	9,975	1393,348	743,256
-5,775	10,033	1392,012	742,784
-4,760	10,013	1391,091	742,171
-3,746	9,959	1390,369	741,506
-2,731	10,005	1389,553	741,253
-1,717	9,988	1388,626	740,653
-0,702	9,976	1386,856	739,624
0,313	14,084	1299,406	711,755
1,327	30,371	689,887	414,789
2,342	47,070	119,407	78,214
3,356	-2,233	16,513	8,144
4,371	-9,638	3,605	1,688
5,386	-5,789	1,007	0,485
6,400	525,765	0,340	0,566
7,415	-116,531	-0,144	-0,019
8,429	239,175	-0,243	-0,285
9,444	399,513	-0,187	-0,277
10,459	189,110	-0,240	-0,253
11,473	92,028	-0,327	-0,260
12,488	90,361	-0,286	-0,225
13,502	-52,651	-0,328	-0,106
14,517	-80,111	-0,367	-0,086
15,531	260,880	-0,352	-0,430
16,546	40,062	-0,375	-0,237
17,561	10,599	-0,376	-0,201
18,575	-164,733	-0,147	0,005
19,590	81,233	-0,214	-0,163
20,604	-28,843	-0,302	-0,122
21,619	180,785	-0,377	-0,390
22,634	86,236	-0,470	-0,364
23,648	167,495	-0,325	-0,325
24,663	-11,324	-0,303	-0,140
25,677	65,388	-0,366	-0,260
26,692	133,361	-0,252	-0,230
27,707	40,715	-0,326	-0,206
28,721	7,769	-0,330	-0,173
29,736	60,935	-0,378	-0,263
30,750	131,842	-0,442	-0,401
31,765	182,548	-0,286	-0,297
32,780	-47,230	-0,397	-0,135
33,794	86,045	-0,380	-0,294
34,809	46,158	-0,377	-0,245
35,823	-61,452	-0,419	-0,123
36,838	55,791	-0,357	-0,243
37,853	169,745	-0,275	-0,277
38,867	384,878	-0,299	-0,434
39,882	-38,138	-0,426	-0,158
40,896	65,914	-0,251	-0,179
41,911	133,230	-0,240	-0,218
42,926	186,261	-0,285	-0,298
43,940	4,303	-0,405	-0,208
44,955	71,083	-0,359	-0,261
45,969	568,022	-0,256	-0,439
46,984	256,507	-0,312	-0,377
47,999	-118,288	-0,359	-0,044
49,013	55,018	-0,269	-0,183
50,028	39,121	-0,339	-0,212
51,042	83,113	-0,408	-0,312
52,057	179,701	-0,322	-0,332
53,071	310,895	-0,281	-0,370
54,086	125,131	-0,293	-0,259
55,101	74,112	-0,327	-0,241
56,115	97,098	-0,361	-0,291
57,130	247,077	-0,262	-0,312
58,144	5,890	-0,368	-0,191
59,159	309,949	-0,289	-0,380
60,174	-43,357	-0,432	-0,153
61,188	217,506	-0,287	-0,322
62,203	83,897	-0,365	-0,279
63,217	25,880	-0,303	-0,177
64,232	32,077	-0,334	-0,202
65,247	-36,150	-0,328	-0,124
66,261	-35,755	-0,478	-0,181
67,276	-21,719	-0,312	-0,133
68,290	211,144	-0,248	-0,274
69,305	60,121	-0,318	-0,220
70,320	-59,403	-0,395	-0,118
71,334	326,645	-0,175	-0,235
72,349	12,203	-0,313	-0,168
73,363	4,017	-0,381	-0,194
74,378	105,884	-0,355	-0,294
75,393	75,795	-0,259	-0,192
76,407	78,671	-0,293	-0,220
77,422	38,607	-0,309	-0,193
78,436	-0,147	-0,251	-0,125
79,451	-43,634	-0,439	-0,154
80,466	7,876	-0,325	-0,170
81,480	48,362	-0,326	-0,214
82,495	-22,926	-0,332	-0,140
83,509	-18,752	-0,369	-0,160
84,524	47,225	-0,256	-0,166
85,539	150,189	-0,240	-0,228
86,553	-27,842	-0,298	-0,120
87,568	99,264	-0,212	-0,172
88,582	41,280	-0,227	-0,143
89,597	-12,054	-0,308	-0,140
90,611	71,144	-0,348	-0,252
91,626	149,677	-0,279	-0,265
92,641	-35,942	-0,249	-0,094
93,655	-22,533	-0,360	-0,152
94,670	160,082	-0,238	-0,232
95,684	184,206	-0,328	-0,340
96,699	179,051	-0,159	-0,162
97,714	82,109	-0,316	-0,239
98,728	302,667	-0,253	-0,328
99,743	272,419	-0,303	-0,375
100,757	-61,868	-0,291	-0,085
101,772	-41,188	-0,384	-0,138
102,787	38,052	-0,250	-0,155
103,801	-60,340	-0,408	-0,120
104,816	6,890	-0,379	-0,196
105,830	-5,510	-0,255	-0,122
106,845	-101,057	-0,236	-0,040
107,860	3,544	-0,247	-0,125
108,874	20,013	-0,311	-0,175
109,889	63,133	-0,309	-0,216
110,903	172,990	-0,206	-0,207
111,918	-55,313	-0,276	-0,086
112,933	-104,849	-0,316	0,050
113,947	5,018	-0,239	-0,123
114,962	-132,970	-0,367	-0,032
115,976	124,791	-0,308	-0,271
116,991	-200,000	-0,096	-0,349
118,006	-81,069	-0,214	-0,049
119,020	-112,110	-0,266	-0,037
120,035	96,892	-0,242	-0,193
121,049	23,836	-0,299	-0,171
122,064	800,000	-0,051	-0,155
123,079	162,804	-0,214	-0,209
124,093	-29,836	-0,311	-0,123
125,108	59,413	-0,306	-0,210
126,122	218,529	-0,249	-0,278
127,137	58,596	-0,151	-0,103
128,151	-25,955	-0,239	-0,098
129,166	444,196	-0,151	-0,231
130,181	82,405	-0,243	-0,184
131,195	-112,832	-0,307	-0,042
132,210	420,714	-0,160	-0,239
133,224	167,452	-0,211	-0,209
134,239	120,576	-0,313	-0,271
135,254	16,739	-0,187	-0,103
136,268	184,792	-0,112	-0,115
137,283	72,930	-0,276	-0,201
138,297	29,674	-0,351	-0,208
139,312	3,334	-0,361	-0,183
140,327	-8,272	-0,257	-0,120
141,341	32,235	-0,275	-0,165
142,356	32,542	-0,157	-0,094
143,370	-52,273	-0,238	-0,077
144,385	50,068	-0,188	-0,123
145,400	-11,046	-0,270	-0,124
146,414	8,226	-0,263	-0,137
147,429	348,041	-0,218	-0,300
148,443	343,537	-0,185	-0,253
149,458	84,386	-0,212	-0,161
150,473	147,291	-0,182	-0,171
151,487	36,374	-0,285	-0,175
152,502	-56,614	-0,310	-0,095
153,516	309,285	-0,278	-0,363
154,531	30,729	-0,209	-0,124
155,546	91,859	-0,280	-0,219
156,560	-26,978	-0,286	-0,116
157,575	-33,301	-0,340	-0,130
158,589	-25,896	-0,137	-0,056
159,604	293,044	-0,218	-0,278
160,619	42,673	-0,296	-0,187
161,633	48,634	-0,250	-0,163
162,648	23,169	-0,294	-0,167
163,662	87,640	-0,134	-0,103
164,677	109,778	-0,345	-0,287
165,692	28,367	-0,246	-0,144
166,706	501,356	-0,173	-0,278
167,721	-6,176	-0,337	-0,160
168,735	51,676	-0,320	-0,211
169,750	-181,226	-0,343	-0,005
170,764	189,210	-0,170	-0,177
171,779	-67,347	-0,179	-0,049
172,794	111,205	-0,315	-0,263
173,808	1,567	-0,287	-0,143
174,823	165,220	-0,310	-0,304
175,837	61,968	-0,216	-0,150
176,852	180,184	-0,308	-0,314
177,867	-42,950	-0,056	-0,020
178,881	29,630	-0,170	-0,100
179,896	54,898	-0,133	-0,089
180,910	-94,226	-0,243	-0,046
181,925	-0,714	-0,245	-0,120
182,940	167,480	-0,229	-0,226
183,954	146,582	-0,246	-0,230
184,969	110,802	-0,177	-0,147
185,983	-106,125	-0,130	0,020
186,998	364,324	-0,116	-0,163
188,013	122,314	-0,136	-0,118
189,027	-20,852	-0,301	-0,128
190,042	147,956	-0,302	-0,283
191,056	277,694	-0,131	-0,162
192,071	385,959	-0,231	-0,332
193,086	132,595	-0,166	-0,148
194,100	245,291	-0,196	-0,229
195,115	-97,218	-0,332	-0,060
196,129	107,816	-0,279	-0,230
197,144	28,411	-0,328	-0,192
198,159	619,819	-0,164	-0,287
199,173	-18,942	-0,215	-0,092
200,188	519,746	-0,103	-0,168
201,202	263,586	-0,177	-0,213
202,217	13,495	-0,218	-0,117
203,232	16,291	-0,291	-0,159
204,246	35,873	-0,263	-0,160
205,261	468,609	-0,152	-0,237
206,275	128,650	-0,220	-0,194
207,290	190,603	-0,231	-0,241
208,304	-63,305	-0,153	-0,043
209,319	-39,631	-0,248	-0,090
210,334	59,388	-0,236	-0,161
211,348	-48,474	-0,214	-0,071
212,363	27,788	-0,159	-0,093
213,377	-55,750	-0,274	-0,084
214,392	13,456	-0,153	-0,082
215,407	-27,484	-0,279	-0,112
216,421	482,754	-0,125	-0,197
217,436	78,522	-0,281	-0,207
218,450	116,432	-0,202	-0,172
219,465	8,431	-0,217	-0,113
220,480	-8,676	-0,181	-0,084
221,494	43,337	-0,157	-0,099
222,509	114,330	-0,158	-0,133
223,523	-200,000	-0,028	-0,189
224,538	800,000	-0,087	-0,167
225,553	68,035	-0,177	-0,125
226,567	125,590	-0,254	-0,222
227,582	298,016	-0,134	-0,171
228,596	200,430	-0,185	-0,197
229,611	259,741	-0,107	-0,127
230,626	-159,499	-0,105	-0,004
231,640	153,183	-0,143	-0,135
232,655	-102,794	-0,202	-0,033
233,669	-10,770	-0,285	-0,130
234,684	64,614	-0,249	-0,173
235,699	-119,524	-0,260	-0,031
236,713	23,316	-0,159	-0,090
237,728	90,050	-0,186	-0,144
238,742	8,114	-0,136	-0,070
239,757	63,246	-0,282	-0,195
240,772	367,710	-0,197	-0,276
241,786	81,326	-0,181	-0,135
242,801	8,604	-0,200	-0,104
243,815	800,000	-0,067	-0,188
244,830	-100,604	-0,194	-0,033
245,844	14,633	-0,244	-0,131
246,859	-133,950	-0,202	-0,017
247,874	-51,288	-0,230	-0,074
248,888	-63,659	-0,146	-0,041
249,903	800,000	-0,135	-0,299
250,917	117,125	-0,101	-0,086
251,932	-63,716	-0,141	-0,039
252,947	352,116	-0,140	-0,192
253,961	167,378	-0,131	-0,128
254,976	107,036	-0,209	-0,171
255,990	284,881	-0,248	-0,309
257,005	800,000	-0,082	-0,191
258,020	-22,474	-0,208	-0,087
259,034	-78,171	-0,226	-0,053
260,049	112,243	-0,130	-0,108
261,063	202,607	-0,156	-0,166
262,078	140,594	-0,251	-0,229
263,093	180,179	-0,134	-0,135
264,107	-93,469	-0,193	-0,036
265,122	-80,273	-0,181	-0,041
266,136	-200,000	-0,012	-0,090
267,151	167,658	-0,174	-0,171
268,166	361,894	-0,157	-0,218
269,180	43,160	-0,142	-0,089
270,195	121,783	-0,250	-0,215
271,209	451,787	-0,080	-0,122
272,224	526,867	-0,128	-0,209
273,239	17,227	-0,084	-0,046
274,253	39,543	-0,129	0,080
275,268	155,696	-0,116	-0,110
276,282	195,311	-0,183	-0,192
277,297	254,251	-0,162	-0,191
278,312	-60,792	-0,193	-0,056
279,326	183,994	-0,139	-0,142
280,341	332,901	-0,063	-0,084
281,355	720,801	-0,068	-0,125
282,370	800,000	-0,057	-0,119
283,384	202,241	-0,074	-0,078
284,399	71,013	-0,178	-0,127
285,414	-131,127	-0,216	-0,020
286,428	9,881	-0,239	-0,124
287,443	-87,779	-0,212	-0,044
288,457	-127,597	-0,078	0,008
289,472	229,484	-0,218	-0,245
290,487	-47,364	-0,203	-0,068
291,501	31,200	-0,219	-0,129
292,516	157,441	-0,169	-0,161
293,530	-25,462	-0,110	-0,045
294,545	-2,942	-0,119	-0,057
295,560	31,114	-0,156	-0,092
296,574	-200,000	-0,034	0,000
297,589	-142,812	-0,134	-0,009
298,603	104,781	-0,174	-0,141
299,618	-200,000	0,033	-0,135
300,633	-129,770	-0,189	-0,018
301,647	-200,000	-0,015	-0,094
302,662	-10,263	-0,210	0,095
303,676	13,273	-0,180	-0,096
304,691	343,912	-0,172	-0,232
305,706	9,757	-0,283	-0,147
306,720	-51,736	-0,322	-0,102
307,735	111,494	-0,216	-0,179
308,749	-179,888	-0,072	-0,001
309,764	254,741	-0,119	-0,140
310,779	114,924	-0,192	-0,161
311,793	800,000	-0,114	-0,238
312,808	25,581	-0,170	-0,097
313,822	67,321	-0,200	-0,140
314,837	800,000	-0,124	-0,252
315,852	-76,012	-0,160	-0,039
316,866	-35,133	-0,081	-0,030
317,881	-51,358	-0,146	-0,047
318,895	-103,351	-0,167	-0,027
319,910	74,294	-0,180	-0,129
320,925	-31,698	-0,225	-0,086
321,939	-95,507	-0,119	-0,022
322,954	707,148	-0,054	-0,098
323,968	18,516	-0,100	0,055
324,983	-57,719	-0,173	-0,052
325,997	-157,011	-0,062	-0,003
327,012	-101,726	-0,106	0,017
328,027	168,089	-0,107	-0,105
329,041	200,496	-0,146	-0,154
330,056	-200,000	-0,076	-0,237
331,070	10,801	-0,055	-0,029
332,085	-52,029	-0,125	0,040
333,100	308,699	-0,072	-0,092
334,114	-4,558	-0,193	-0,091
335,129	-200,000	-0,061	-0,269
336,143	194,141	-0,114	-0,118
337,158	-92,178	-0,120	0,023
338,173	-189,009	-0,045	0,000
339,187	-21,300	-0,128	-0,053
340,202	447,732	-0,058	-0,087
341,216	57,415	-0,222	-0,148
342,231	69,335	-0,156	-0,110
343,246	256,007	-0,168	-0,198
344,260	128,470	-0,147	-0,128
345,275	311,245	-0,030	0,039
346,289	-200,000	-0,030	-0,320
347,304	800,000	0,095	-0,184
348,319	795,399	-0,107	-0,203
349,333	15,242	-0,307	-0,164
350,348	64,069	-0,055	-0,038
351,362	-54,150	-0,299	0,092
352,377	-109,436	-0,111	-0,016
353,392	-85,824	-0,068	-0,014
354,406	66,136	-0,160	-0,111
355,421	207,590	1310,138	1400,060
356,435	159,697	1470,289	1400,541
