DTS Sentinel unit serial number:	SN410029Multiplexer serial number:	ORYXHardware model number:	OX2-SRSoftware version number:	ORYX F/W v4,00 Oryx Data Collector v3.7.2.0data status	okinstallation	B3 Nyhavnadifferential loss correction	single-endedforward channel	channel 1reverse channel	N/Adate	2023/12/05time	05:32:30forward acquisition time	300,00reverse acquisition time	0,00gamma	499,1914k internal	0,3201k external	0,3201temperature offset calibration	1,0000default loss term (dB/km)	0,3820temperature slope calibration	1,0000multiplexer offset coefficient	1,0000multiplexer slope coefficient	1,0000fibre end	0,00T internal ref (°C)	14,02T ext. ref 1 (°C)	-0,96T ext. ref 2 (°C)	-0,99length (m)	temperature (°C)	Stokes	anti-Stokes-744,400	1,703	-0,231	-0,121
-743,385	-200,000	0,057	0,204
-742,371	800,000	-0,108	-0,239
-741,356	800,000	0,119	0,329
-740,342	221,358	-0,172	-0,202
-739,327	-200,000	0,051	0,441
-738,312	270,281	-0,168	-0,215
-737,298	800,000	-0,181	0,394
-736,283	104,520	-0,259	-0,222
-735,269	-200,000	-0,024	0,395
-734,254	4,478	-0,118	-0,063
-733,239	-80,752	-0,294	0,071
-732,225	110,442	-0,128	-0,112
-731,210	258,542	0,157	0,197
-730,196	294,063	-0,038	0,051
-729,181	-83,022	-0,016	-0,004
-728,167	226,239	0,104	-0,122
-727,152	-130,973	0,047	-0,005
-726,137	-200,000	-0,012	0,095
-725,123	104,378	-0,088	-0,075
-724,108	290,917	-0,082	-0,108
-723,094	800,000	-0,056	-0,135
-722,079	186,526	-0,105	-0,113
-721,064	800,000	0,015	0,035
-720,050	60,281	-0,076	0,054
-719,035	-89,406	-0,230	-0,049
-718,021	-200,000	-0,008	-0,139
-717,006	180,898	-0,073	-0,078
-715,991	-200,000	-0,021	-0,083
-714,977	800,000	0,043	-0,097
-713,962	-200,000	0,004	-0,148
-712,948	-35,933	-0,084	0,033
-711,933	400,178	-0,090	-0,138
-710,918	-39,672	-0,012	0,005
-709,904	-200,000	-0,012	-0,060
-708,889	49,041	0,073	-0,050
-707,875	118,640	0,019	0,017
-706,860	-200,000	-0,013	-0,138
-705,845	14,880	0,034	0,019
-704,831	-160,358	0,034	0,001
-703,816	-49,990	0,101	0,035
-702,802	79,173	-0,040	0,031
-701,787	-200,000	0,013	-0,087
-700,772	91,159	0,040	-0,032
-699,758	0,386	0,040	0,021
-698,743	-200,000	0,033	0,114
-697,729	-2,457	0,218	0,110
-696,714	479,477	-0,022	0,037
-695,699	398,291	-0,022	0,034
-694,685	-55,662	-0,092	-0,030
-693,670	-72,765	0,019	0,005
-692,656	800,000	0,046	0,120
-691,641	-200,000	0,004	-0,039
-690,627	800,000	-0,074	0,152
-689,612	639,034	0,057	0,107
-688,597	638,382	0,062	-0,114
-687,583	134,602	-0,126	-0,118
-686,568	800,000	0,027	-0,066
-685,554	2,652	-0,071	0,037
-684,539	410,074	0,040	-0,062
-683,524	-200,000	-0,011	0,100
-682,510	16,920	-0,187	-0,107
-681,495	-200,000	-0,007	-0,066
-680,481	748,050	-0,023	0,045
-679,466	403,412	-0,097	-0,149
-678,451	-200,000	-0,021	-0,123
-677,437	624,820	0,079	0,146
-676,422	-135,022	0,060	-0,005
-675,408	154,434	-0,032	0,032
-674,393	-200,000	-0,012	0,135
-673,378	-128,291	-0,106	-0,011
-672,364	-28,396	-0,049	-0,020
-671,349	61,814	-0,066	0,048
-670,335	19,294	-0,117	-0,068
-669,320	-200,000	0,002	-0,099
-668,305	-200,000	-0,010	-0,050
-667,291	-140,809	-0,023	-0,002
-666,276	53,432	-0,049	-0,034
-665,262	510,496	-0,023	-0,038
-664,247	800,000	0,071	-0,154
-663,232	-143,000	0,039	0,003
-662,218	-200,000	-0,002	0,104
-661,203	300,478	0,034	-0,045
-660,189	47,970	-0,036	-0,024
-659,174	206,314	-0,037	0,041
-658,159	800,000	-0,031	0,092
-657,145	-200,000	0,012	0,140
-656,130	-200,000	-0,005	0,048
-655,116	152,584	-0,015	-0,015
-654,101	174,751	0,055	0,058
-653,086	800,000	-0,013	0,035
-652,072	800,000	0,033	-0,088
-651,057	-200,000	0,017	-0,068
-650,043	150,170	-0,221	-0,217
-649,028	381,273	-0,075	-0,112
-648,014	-200,000	0,005	-0,062
-646,999	-200,000	-0,037	0,160
-645,984	800,000	0,031	0,084
-644,970	399,687	-0,041	0,063
-643,955	202,482	0,043	-0,048
-642,941	397,664	0,084	-0,128
-641,926	387,638	0,096	-0,144
-640,911	352,780	-0,042	0,061
-639,897	-75,853	-0,076	-0,019
-638,882	-17,389	-0,138	0,063
-637,868	415,759	0,089	0,138
-636,853	24,871	-0,027	-0,016
-635,838	691,782	-0,086	-0,164
-634,824	-107,187	-0,120	-0,019
-633,809	-200,000	-0,007	0,097
-632,795	101,782	-0,106	0,090
-631,780	216,157	0,147	0,170
-630,765	-97,359	-0,225	-0,042
-629,751	800,000	-0,059	-0,135
-628,736	-22,789	-0,017	-0,007
-627,722	-20,726	0,120	0,053
-626,707	-96,318	0,157	-0,030
-625,692	26,402	-0,039	-0,023
-624,678	-200,000	-0,011	0,080
-623,663	738,867	0,019	0,038
-622,649	-158,702	-0,145	-0,006
-621,634	-150,699	-0,141	-0,008
-620,619	-200,000	-0,033	-0,236
-619,605	2,350	0,119	0,062
-618,590	303,140	0,067	0,090
-617,576	800,000	-0,060	-0,191
-616,561	318,990	-0,064	-0,088
-615,546	32,681	0,116	-0,073
-614,532	-134,325	-0,138	0,012
-613,517	-87,241	-0,074	-0,016
-612,503	-200,000	0,036	0,162
-611,488	174,362	-0,056	0,058
-610,474	-144,422	0,173	-0,011
-609,459	-144,169	-0,068	-0,005
-608,444	416,926	0,015	-0,024
-607,430	-200,000	-0,012	0,047
-606,415	80,054	-0,116	-0,090
-605,401	-200,000	0,019	0,098
-604,386	-30,827	0,087	-0,035
-603,371	7,113	0,105	0,056
-602,357	181,917	0,086	-0,092
-601,342	-200,000	-0,056	0,257
-600,328	-79,696	0,024	0,006
-599,313	800,000	-0,041	-0,105
-598,298	-144,428	-0,108	0,007
-597,284	262,542	-0,052	-0,066
-596,269	-200,000	0,018	0,084
-595,255	-200,000	0,009	-0,055
-594,240	110,491	0,041	0,036
-593,225	-200,000	-0,034	-0,206
-592,211	136,887	0,039	-0,037
-591,196	-71,158	-0,017	0,005
-590,182	132,156	-0,176	-0,164
-589,167	800,000	0,033	-0,087
-588,152	-200,000	0,013	0,091
-587,138	321,233	-0,080	0,111
-586,123	-200,000	-0,011	0,046
-585,109	203,304	-0,079	0,088
-584,094	-61,008	-0,060	-0,018
-583,079	144,410	-0,018	-0,017
-582,065	-200,000	0,013	-0,066
-581,050	-54,973	0,232	-0,075
-580,036	-200,000	-0,021	0,093
-579,021	-200,000	0,007	-0,067
-578,006	9,853	0,018	0,010
-576,992	13,104	-0,045	-0,025
-575,977	-200,000	0,002	0,062
-574,963	-199,010	0,085	0,000
-573,948	-200,000	-0,011	0,151
-572,934	-200,000	-0,001	-0,004
-571,919	800,000	-0,026	-0,065
-570,904	-200,000	-0,023	0,080
-569,890	-25,713	-0,087	0,037
-568,875	-131,856	0,064	-0,006
-567,861	-200,000	0,041	-0,163
-566,846	222,830	-0,038	0,044
-565,831	128,159	-0,031	0,028
-564,817	64,485	-0,090	0,065
-563,802	207,698	0,041	-0,046
-562,788	2,133	-0,143	-0,074
-561,773	134,741	0,048	0,045
-560,758	301,673	-0,032	0,043
-559,744	49,425	0,075	0,051
-558,729	800,000	-0,071	-0,181
-557,715	63,109	-0,175	-0,126
-556,700	21,965	0,115	-0,067
-555,685	62,125	-0,077	-0,056
-554,671	-68,309	0,036	-0,010
-553,656	-31,125	0,156	0,063
-552,642	-130,508	-0,092	-0,009
-551,627	-87,313	0,122	-0,027
-550,612	-71,107	0,047	-0,013
-549,598	65,406	0,097	0,070
-548,583	-72,148	0,026	0,007
-547,569	-107,146	0,113	0,018
-546,554	-200,000	0,001	0,061
-545,539	146,672	-0,033	0,032
-544,525	8,592	-0,049	0,027
-543,510	230,984	0,088	-0,104
-542,496	183,780	0,020	0,021
-541,481	-85,510	-0,064	0,014
-540,466	208,728	-0,132	0,150
-539,452	-76,071	0,015	0,004
-538,437	-200,000	0,010	0,132
-537,423	249,110	0,048	0,059
-536,408	2,192	0,106	-0,055
-535,393	-71,156	-0,190	-0,051
-534,379	800,000	-0,037	0,110
-533,364	-137,196	0,120	0,010
-532,350	452,324	0,047	-0,075
-531,335	224,071	0,004	-0,005
-530,321	-102,232	0,045	0,008
-529,306	-47,881	-0,006	0,002
-528,291	-200,000	0,015	-0,084
-527,277	800,000	-0,015	-0,034
-526,262	-200,000	0,003	-0,056
-525,248	800,000	-0,016	-0,045
-524,233	-200,000	-0,001	-0,089
-523,218	800,000	0,055	0,117
-522,204	-71,884	-0,142	0,038
-521,189	32,910	-0,140	-0,087
-520,175	78,849	-0,086	0,066
-519,160	800,000	0,015	0,033
-518,145	-165,181	0,066	0,002
-517,131	-135,918	0,020	0,002
-516,116	800,000	0,071	0,160
-515,102	350,541	-0,049	0,070
-514,087	76,317	-0,081	0,062
-513,072	159,435	-0,142	0,143
-512,058	-200,000	0,019	-0,118
-511,043	18,894	0,046	0,026
-510,029	323,691	0,012	0,016
-509,014	233,498	0,060	0,072
-507,999	78,693	0,052	0,040
-506,985	307,949	0,060	0,080
-505,970	-200,000	0,014	-0,068
-504,956	27,089	-0,088	-0,053
-503,941	570,895	-0,010	0,018
-502,926	314,511	0,066	-0,090
-501,912	800,000	-0,017	0,052
-500,897	11,482	0,004	-0,002
-499,883	267,101	0,018	-0,023
-498,868	-59,023	0,015	-0,005
-497,853	131,149	-0,140	-0,129
-496,839	-148,925	-0,026	-0,001
-495,824	392,982	0,016	0,024
-494,810	-24,756	0,126	0,054
-493,795	-200,000	0,007	0,082
-492,781	207,987	0,039	0,044
-491,766	280,314	-0,035	0,045
-490,751	-200,000	0,048	-0,167
-489,737	9,513	-0,130	-0,071
-488,722	375,002	0,031	0,046
-487,708	800,000	0,022	0,057
-486,693	-82,058	0,085	-0,020
-485,678	451,104	0,098	-0,156
-484,664	-200,000	-0,017	-0,159
-483,649	-200,000	0,009	0,042
-482,635	129,768	-0,057	0,053
-481,620	-200,000	-0,020	0,064
-480,605	201,367	0,116	0,129
-479,591	-200,000	-0,018	0,162
-478,576	-61,096	-0,091	0,028
-477,562	122,470	-0,060	0,054
-476,547	53,379	0,083	-0,057
-475,532	-161,727	-0,114	0,004
-474,518	-200,000	-0,007	0,126
-473,503	-0,421	0,088	-0,045
-472,489	-200,000	0,021	0,093
-471,474	178,330	0,014	-0,015
-470,459	-200,000	-0,014	-0,099
-469,445	800,000	-0,026	-0,068
-468,430	405,256	0,032	-0,048
-467,416	-200,000	-0,007	-0,150
-466,401	8,024	-0,115	-0,062
-465,386	-127,837	-0,056	0,006
-464,372	119,597	0,061	-0,054
-463,357	-200,000	-0,022	0,074
-462,343	-38,762	-0,104	0,039
-461,328	-88,111	-0,098	0,021
-460,313	11,621	0,093	-0,051
-459,299	-99,465	0,114	0,021
-458,284	322,266	-0,014	-0,020
-457,270	245,722	-0,057	0,070
-456,255	-97,324	-0,125	0,023
-455,241	-200,000	0,002	0,013
-454,226	24,698	0,102	-0,061
-453,211	-200,000	0,008	-0,070
-452,197	226,681	0,062	-0,072
-451,182	236,599	-0,073	0,087
-450,168	90,122	0,065	0,052
-449,153	151,566	-0,091	0,089
-448,138	707,196	-0,066	-0,126
-447,124	343,564	-0,042	0,059
-446,109	607,647	-0,019	-0,034
-445,095	-200,000	0,008	-0,039
-444,080	800,000	0,030	0,064
-443,065	-13,904	0,076	-0,035
-442,051	177,044	-0,031	-0,033
-441,036	-200,000	0,045	-0,187
-440,022	-81,305	-0,124	0,029
-439,007	272,496	0,042	-0,054
-437,992	-200,000	0,007	0,027
-436,978	-168,053	0,075	0,002
-435,963	-140,437	0,076	0,006
-434,949	-109,543	0,127	-0,019
-433,934	-47,398	-0,097	-0,034
-432,919	-25,903	-0,104	-0,044
-431,905	800,000	-0,031	-0,079
-430,890	-141,082	-0,094	0,007
-429,876	-53,484	0,042	0,014
-428,861	-49,594	0,131	0,044
-427,846	-200,000	-0,047	-0,156
-426,832	52,948	0,065	-0,044
-425,817	559,505	0,051	-0,088
-424,803	800,000	-0,047	0,096
-423,788	-200,000	0,008	0,052
-422,773	-35,437	0,080	0,031
-421,759	800,000	0,028	0,078
-420,744	140,852	-0,057	0,054
-419,730	-45,356	0,066	-0,023
-418,715	-152,468	0,115	0,006
-417,701	49,283	-0,096	0,065
-416,686	-119,410	0,092	0,011
-415,671	79,923	0,063	0,048
-414,657	800,000	0,051	0,161
-413,642	263,857	0,025	0,031
-412,628	365,227	0,024	-0,035
-411,613	18,001	-0,063	-0,036
-410,598	800,000	0,019	-0,039
-409,584	-99,634	-0,076	0,014
-408,569	-105,212	-0,064	0,010
-407,555	-170,587	-0,080	0,002
-406,540	-4,807	-0,094	0,046
-405,525	-200,000	0,000	-0,028
-404,511	151,605	-0,059	-0,057
-403,496	50,685	-0,102	0,069
-402,482	-200,000	-0,019	0,176
-401,467	409,922	0,087	0,133
-400,452	261,065	0,034	0,043
-399,438	-200,000	0,045	0,152
-398,423	-167,832	-0,074	-0,002
-397,409	800,000	0,012	0,035
-396,394	-200,000	-0,037	-0,118
-395,379	719,341	-0,049	-0,095
-394,365	245,246	0,057	0,069
-393,350	-91,069	-0,046	-0,009
-392,336	199,596	-0,064	-0,070
-391,321	-86,486	-0,012	0,003
-390,306	800,000	0,059	-0,119
-389,292	800,000	-0,073	-0,146
-388,277	169,547	0,079	-0,081
-387,263	-104,207	0,117	0,019
-386,248	-200,000	0,024	0,085
-385,233	800,000	0,050	0,114
-384,219	-132,669	0,082	-0,007
-383,204	59,012	0,077	-0,054
-382,190	-200,000	-0,007	-0,028
-381,175	43,842	-0,055	0,036
-380,160	796,739	0,027	-0,055
-379,146	-51,541	0,106	0,035
-378,131	-200,000	-0,024	-0,156
-377,117	8,521	0,062	0,033
-376,102	-200,000	-0,010	0,038
-375,088	-200,000	-0,006	-0,122
-374,073	-200,000	0,004	0,013
-373,058	-200,000	0,021	-0,091
-372,044	-120,505	0,103	-0,012
-371,029	420,109	-0,056	0,086
-370,015	78,317	-0,058	0,044
-369,000	32,123	-0,077	0,048
-367,985	375,142	0,096	-0,141
-366,971	800,000	0,011	-0,034
-365,956	345,729	-0,056	-0,079
-364,942	675,129	-0,045	0,084
-363,927	-2,860	0,078	-0,039
-362,912	138,002	0,005	-0,005
-361,898	-200,000	-0,012	0,103
-360,883	-72,757	-0,162	0,043
-359,869	274,107	-0,083	0,105
-358,854	-134,227	-0,151	-0,013
-357,839	-200,000	-0,003	-0,077
-356,825	-200,000	0,007	0,158
-355,810	69,670	-0,043	-0,032
-354,796	-93,505	0,111	0,022
-353,781	136,458	-0,079	-0,074
-352,766	-200,000	0,013	-0,055
-351,752	-127,843	0,101	0,010
-350,737	-146,942	0,075	0,005
-349,723	-125,825	0,122	-0,013
-348,708	662,740	0,055	-0,102
-347,693	-28,284	-0,010	0,004
-346,679	164,423	-0,052	0,052
-345,664	-87,736	-0,045	-0,010
-344,650	378,486	0,031	0,045
-343,635	-200,000	0,045	0,151
-342,620	-5,366	0,089	-0,043
-341,606	-200,000	0,022	0,109
-340,591	-200,000	0,007	-0,106
-339,577	-200,000	-0,018	0,060
-338,562	-21,471	-0,081	0,035
-337,548	54,682	-0,047	-0,032
-336,533	-200,000	0,027	-0,111
-335,518	148,983	0,067	0,065
-334,504	383,618	-0,007	-0,010
-333,489	-200,000	-0,019	-0,078
-332,475	800,000	0,045	-0,102
-331,460	236,240	-0,076	-0,090
-330,445	-8,214	0,044	-0,021
-329,431	84,681	0,105	-0,082
-328,416	288,239	0,013	-0,017
-327,402	-200,000	-0,006	0,092
-326,387	-200,000	-0,047	0,165
-325,372	-200,000	0,021	-0,074
-324,358	73,473	-0,087	-0,065
-323,343	25,087	0,023	-0,013
-322,329	-200,000	0,007	0,073
-321,314	199,930	0,057	-0,063
-320,299	88,042	0,040	0,031
-319,285	-34,118	0,131	0,051
-318,270	372,386	-0,025	-0,037
-317,256	800,000	-0,064	0,169
-316,241	35,154	0,059	-0,037
-315,226	-200,000	-0,038	-0,151
-314,212	-200,000	-0,021	-0,133
-313,197	226,217	0,074	0,086
-312,183	800,000	0,008	-0,025
-311,168	567,223	-0,044	-0,077
-310,153	-200,000	-0,026	0,251
-309,139	-200,000	-0,010	-0,146
-308,124	-135,298	0,079	0,007
-307,110	377,233	0,014	0,021
-306,095	800,000	-0,097	0,199
-305,080	-36,077	0,079	0,030
-304,066	255,381	-0,075	-0,092
-303,051	-96,422	0,007	0,001
-302,037	-200,000	-0,037	0,120
-301,022	18,503	-0,060	-0,034
-300,008	82,330	0,099	0,077
-298,993	800,000	-0,009	0,028
-297,978	641,050	0,092	-0,168
-296,964	-23,630	-0,191	0,082
-295,949	249,924	-0,086	-0,104
-294,935	152,801	0,170	-0,166
-293,920	79,831	0,067	-0,052
-292,905	-200,000	0,003	-0,017
-291,891	-48,137	-0,085	-0,029
-290,876	616,405	-0,083	0,149
-289,862	-200,000	-0,007	0,065
-288,847	-200,000	-0,011	0,053
-287,832	-91,964	-0,053	0,011
-286,818	496,635	0,077	0,126
-285,803	82,067	0,008	0,006
-284,789	-200,000	0,020	-0,068
-283,774	800,000	-0,052	-0,107
-282,759	800,000	-0,037	0,117
-281,745	-78,908	-0,062	-0,015
-280,730	-200,000	0,048	-0,173
-279,716	-125,964	-0,094	0,010
-278,701	800,000	0,059	0,122
-277,686	-200,000	0,015	-0,070
-276,672	800,000	-0,011	-0,029
-275,657	-200,000	0,002	-0,065
-274,643	-200,000	0,005	-0,036
-273,628	-81,960	0,129	-0,030
-272,613	-65,636	-0,127	0,036
-271,599	-114,908	-0,046	-0,006
-270,584	-200,000	0,004	0,218
-269,570	195,630	-0,030	0,032
-268,555	367,117	-0,024	-0,034
-267,540	-200,000	0,017	0,073
-266,526	646,985	-0,043	-0,079
-265,511	761,620	0,077	-0,151
-264,497	-200,000	0,007	-0,039
-263,482	31,785	0,191	-0,117
-262,467	148,251	-0,056	0,054
-261,453	128,134	-0,054	0,049
-260,438	159,252	0,054	-0,054
-259,424	800,000	0,007	0,016
-258,409	302,267	-0,083	-0,110
-257,395	-59,378	0,095	0,029
-256,380	-200,000	-0,010	0,138
-255,365	-200,000	-0,025	-0,120
-254,351	800,000	0,036	0,091
-253,336	84,159	-0,087	0,068
-252,322	183,519	0,082	0,087
-251,307	-200,000	0,007	-0,034
-250,292	800,000	-0,075	-0,177
-249,278	-200,000	-0,018	0,120
-248,263	-200,000	-0,043	0,193
-247,249	-200,000	0,010	0,111
-246,234	-200,000	0,019	0,085
-245,219	800,000	-0,033	-0,067
-244,205	79,134	0,086	0,065
-243,190	800,000	-0,044	0,117
-242,176	-200,000	-0,007	0,105
-241,161	-99,650	0,205	0,036
-240,146	-25,544	0,047	0,020
-239,132	800,000	-0,093	-0,213
-238,117	-200,000	0,016	-0,063
-237,103	9,093	-0,041	0,022
-236,088	48,838	0,034	0,023
-235,073	292,450	0,044	0,058
-234,059	-200,000	-0,001	0,017
-233,044	338,146	-0,008	0,011
-232,030	-200,000	-0,032	0,211
-231,015	800,000	0,016	-0,042
-230,000	-117,642	0,017	0,002
-228,986	135,271	-0,122	0,113
-227,971	36,045	0,056	-0,035
-226,957	70,596	0,034	0,025
-225,942	-200,000	0,002	0,070
-224,927	-200,000	-0,024	0,084
-223,913	-1,896	-0,108	0,054
-222,898	140,799	0,029	0,028
-221,884	800,000	-0,045	-0,125
-220,869	47,320	0,030	0,020
-219,855	16,576	0,115	-0,065
-218,840	57,399	0,067	0,047
-217,825	65,373	-0,071	-0,051
-216,811	-47,594	0,096	0,033
-215,796	535,684	0,024	-0,041
-214,782	-128,977	-0,139	0,014
-213,767	110,169	0,033	-0,028
-212,752	-151,689	-0,056	-0,003
-211,738	800,000	0,024	0,059
-210,723	118,748	0,049	0,043
-209,709	800,000	-0,035	-0,083
-208,694	-200,000	-0,033	-0,139
-207,679	800,000	-0,029	-0,059
-206,665	118,592	-0,058	-0,051
-205,650	-200,000	0,027	0,090
-204,636	-6,399	-0,005	-0,002
-203,621	-200,000	0,014	-0,168
-202,606	800,000	-0,044	-0,099
-201,592	-107,730	-0,092	0,014
-200,577	-200,000	0,005	-0,071
-199,563	-163,526	0,075	0,002
-198,548	-174,915	-0,021	-0,000
-197,533	-200,000	0,010	0,092
-196,519	-51,757	0,074	-0,024
-195,504	-200,000	-0,004	-0,013
-194,490	-200,000	-0,005	-0,064
-193,475	12,568	-0,132	-0,072
-192,460	451,707	0,031	0,050
-191,446	165,161	-0,143	-0,144
-190,431	512,076	0,089	0,149
-189,417	165,730	-0,103	-0,104
-188,402	-200,000	0,025	-0,095
-187,387	339,594	-0,090	-0,125
-186,373	-200,000	-0,012	-0,082
-185,358	800,000	0,046	-0,130
-184,344	-20,406	0,162	0,070
-183,329	122,833	0,082	0,073
-182,315	124,889	0,120	0,107
-181,300	273,873	0,081	0,102
-180,285	-86,171	-0,038	-0,008
-179,271	87,849	-0,185	-0,146
-178,256	-200,000	-0,008	-0,127
-177,242	284,066	0,004	-0,005
-176,227	308,029	0,093	0,124
-175,212	485,106	0,011	-0,018
-174,198	2,548	0,102	-0,052
-173,183	486,099	-0,051	0,083
-172,169	800,000	0,013	-0,040
-171,154	149,806	-0,048	-0,046
-170,139	-85,448	-0,078	0,017
-169,125	-200,000	-0,001	-0,049
-168,110	248,841	0,107	0,129
-167,096	105,740	0,065	-0,055
-166,081	800,000	-0,001	0,003
-165,066	10,183	0,110	0,059
-164,052	617,482	0,019	-0,033
-163,037	800,000	-0,027	0,056
-162,023	232,017	0,071	0,083
-161,008	800,000	0,030	-0,077
-159,993	-1,161	0,052	-0,026
-158,979	224,364	0,078	-0,090
-157,964	-160,829	-0,123	-0,005
-156,950	-126,357	0,101	-0,011
-155,935	-200,000	0,025	-0,107
-154,920	426,316	0,066	0,102
-153,906	-200,000	0,019	0,071
-152,891	311,538	-0,076	0,101
-151,877	-200,000	0,017	-0,115
-150,862	57,570	-0,101	-0,070
-149,847	12,957	-0,054	0,030
-148,833	-112,385	0,163	0,023
-147,818	800,000	-0,016	0,039
-146,804	-148,896	-0,119	0,007
-145,789	446,708	0,089	-0,139
-144,775	-55,180	0,024	0,008
-143,760	-86,820	-0,059	0,013
-142,745	10,803	-0,093	0,050
-141,731	-79,149	0,099	0,024
-140,716	-69,669	0,199	0,054
-139,702	-200,000	0,005	0,056
-138,687	800,000	0,034	0,087
-137,672	103,749	-0,032	-0,027
-136,658	2,533	0,095	-0,049
-135,643	-200,000	0,002	-0,020
-134,629	-200,000	-0,007	-0,112
-133,614	-115,566	0,095	0,013
-132,599	800,000	0,034	0,092
-131,585	719,475	0,071	-0,134
-130,570	800,000	-0,029	-0,062
-129,556	18,316	-0,131	-0,074
-128,541	40,891	0,045	-0,029
-127,526	-200,000	-0,002	-0,094
-126,512	-42,989	0,138	-0,049
-125,497	-200,000	-0,017	-0,070
-124,483	271,020	-0,037	0,046
-123,468	505,424	-0,085	0,141
-122,453	-200,000	-0,024	0,129
-121,439	52,009	0,075	0,051
-120,424	-152,320	0,101	0,005
-119,410	60,502	-0,130	0,092
-118,395	-200,000	-0,003	0,027
-117,380	274,864	-0,102	0,128
-116,366	92,682	0,025	-0,020
-115,351	800,000	-0,040	0,081
-114,337	-140,591	-0,122	-0,009
-113,322	-200,000	0,001	-0,050
-112,307	-35,366	-0,069	0,027
-111,293	-200,000	-0,001	0,030
-110,278	-98,655	0,151	0,027
-109,264	-200,000	0,004	0,058
-108,249	-31,069	-0,146	0,058
-107,234	407,977	-0,050	0,075
-106,220	800,000	-0,031	0,088
-105,205	-200,000	-0,018	0,078
-104,191	-140,569	0,095	-0,007
-103,176	-41,302	0,105	-0,038
-102,162	-200,000	0,058	0,000
-101,147	-200,000	-0,022	-0,101
-100,132	22,405	-0,106	-0,061
-99,118	-141,032	0,061	0,004
-98,103	-105,324	0,130	0,021
-97,089	30,138	-0,072	-0,044
-96,074	131,760	0,087	0,079
-95,059	6,536	0,088	0,046
-94,045	162,146	0,067	0,066
-93,030	339,919	-0,092	-0,128
-92,016	-52,650	-0,062	-0,020
-91,001	33,926	-0,105	0,065
-89,986	115,575	0,064	-0,056
-88,972	-124,508	0,145	0,016
-87,957	-153,887	0,073	-0,003
-86,943	26,489	0,056	0,033
-85,928	625,213	-0,045	-0,081
-84,913	276,109	0,017	-0,021
-83,899	800,000	0,032	-0,075
-82,884	116,200	0,113	0,098
-81,870	-38,813	-0,029	-0,011
-80,855	-129,769	0,117	-0,011
-79,840	800,000	0,030	-0,061
-78,826	336,234	0,015	0,021
-77,811	-122,889	-0,125	-0,014
-76,797	-138,576	0,112	0,009
-75,782	-183,097	-0,071	-0,001
-74,767	800,000	-0,017	0,053
-73,753	-71,057	0,133	-0,035
-72,738	39,755	0,140	-0,089
-71,724	-200,000	-0,007	-0,030
-70,709	-84,796	0,116	0,026
-69,694	-200,000	-0,011	0,060
-68,680	-26,202	-0,209	0,086
-67,665	800,000	0,040	0,107
-66,651	-200,000	-0,026	-0,119
-65,636	51,801	0,087	-0,059
-64,622	30,539	-0,107	-0,065
-63,607	211,135	0,135	0,151
-62,592	103,473	-0,048	-0,040
-61,578	721,478	-0,027	0,050
-60,563	60,732	0,100	0,070
-59,549	-200,000	-0,051	0,180
-58,534	-24,077	-1,664	-0,701
-57,519	498,662	-1,285	-2,104
-56,505	-200,000	-0,674	-4,532
-55,490	225,158	0,929	1,067
-54,476	800,000	4,838	11,617
-53,461	-200,000	19,034	308,567
-52,446	800,000	737,912	2304,920
-51,432	570,121	1654,307	2860,837
-50,417	79,043	1670,841	1265,679
-49,403	21,959	1543,978	889,083
-48,388	15,878	1466,512	814,919
-47,373	17,802	1456,564	818,654
-46,359	16,903	1446,692	808,763
-45,344	14,118	1442,053	792,797
-44,330	14,099	1440,259	791,688
-43,315	14,100	1438,349	790,613
-42,300	14,058	1436,902	789,586
-41,286	14,136	1435,839	789,341
-40,271	14,053	1434,543	788,202
-39,257	14,117	1432,965	787,607
-38,242	14,104	1431,721	786,830
-37,227	14,158	1430,686	786,486
-36,213	14,108	1429,376	785,497
-35,198	14,122	1428,152	784,861
-34,184	14,131	1427,282	784,393
-33,169	14,061	1426,010	783,335
-32,154	14,146	1424,718	782,995
-31,140	14,152	1423,488	782,315
-30,125	14,178	1422,196	781,697
-29,111	14,150	1421,322	781,054
-28,096	14,107	1420,412	780,321
-27,082	14,043	1419,229	779,339
-26,067	14,046	1418,100	778,701
-25,052	14,052	1416,948	778,067
-24,038	14,074	1415,822	777,518
-23,023	13,997	1415,059	776,710
-22,009	14,040	1414,033	776,318
-20,994	14,025	1413,182	775,749
-19,979	14,030	1412,157	775,178
-18,965	13,968	1411,265	774,367
-17,950	13,956	1410,546	773,883
-16,936	14,016	1409,341	773,472
-15,921	13,991	1408,088	772,637
-14,906	13,943	1407,352	771,981
-13,892	13,971	1406,366	771,539
-12,877	13,983	1405,610	771,148
-11,863	13,949	1404,542	770,374
-10,848	13,933	1404,011	769,977
-9,833	13,916	1402,950	769,288
-8,819	13,897	1402,061	768,681
-7,804	13,897	1401,013	768,075
-6,790	13,867	1400,099	767,405
-5,775	13,868	1398,815	766,676
-4,760	13,865	1398,177	766,281
-3,746	13,906	1397,287	765,954
-2,731	13,837	1396,426	765,129
-1,717	13,859	1395,428	764,657
-0,702	13,824	1393,835	763,588
0,313	17,673	1311,355	736,249
1,327	33,955	705,843	434,005
2,342	52,224	123,943	83,484
3,356	1,408	16,680	8,457
4,371	2,799	3,089	1,581
5,386	-43,484	0,710	0,252
6,400	-89,621	0,044	0,009
7,415	800,000	-0,110	-0,235
8,429	1,968	-0,301	-0,153
9,444	144,735	-0,281	-0,266
10,459	-64,230	-0,338	-0,097
11,473	43,000	-0,383	-0,247
12,488	228,204	-0,184	-0,212
13,502	175,310	-0,256	-0,262
14,517	233,687	-0,339	-0,395
15,531	168,103	-0,291	-0,293
16,546	41,497	-0,175	-0,112
17,561	-2,586	-0,494	-0,243
18,575	-112,488	-0,311	0,043
19,590	800,000	-0,103	-0,250
20,604	-14,001	-0,326	-0,148
21,619	84,997	-0,426	-0,330
22,634	207,047	-0,467	-0,515
23,648	10,961	-0,485	-0,261
24,663	164,057	-0,424	-0,422
25,677	203,837	-0,336	-0,368
26,692	155,548	-0,321	-0,313
27,707	121,929	-0,272	-0,240
28,721	108,071	-0,369	-0,310
29,736	-23,563	-0,406	-0,171
30,750	70,225	-0,513	-0,374
31,765	76,447	-0,389	-0,291
32,780	31,755	-0,471	-0,285
33,794	74,462	-0,259	-0,192
34,809	335,427	-0,232	-0,318
35,823	400,705	-0,263	-0,390
36,838	175,942	-0,340	-0,348
37,853	80,192	-0,415	-0,315
38,867	50,413	-0,303	-0,202
39,882	56,335	-0,446	-0,305
40,896	217,373	-0,305	-0,343
41,911	90,121	-0,328	-0,258
42,926	-0,340	-0,470	-0,235
43,940	111,301	-0,440	-0,374
44,955	141,758	-0,241	-0,225
45,969	127,795	-0,359	-0,322
46,984	62,099	-0,304	-0,213
47,999	39,528	-0,347	-0,218
49,013	18,195	-0,366	-0,206
50,028	-32,116	-0,356	-0,140
51,042	49,586	-0,363	-0,241
52,057	94,186	-0,383	-0,306
53,071	-33,149	-0,418	-0,162
54,086	50,819	-0,326	-0,217
55,101	184,772	-0,269	-0,281
56,115	68,910	-0,250	-0,181
57,130	89,994	-0,370	-0,291
58,144	39,609	-0,385	-0,243
59,159	26,852	-0,446	-0,263
60,174	140,587	-0,256	-0,238
61,188	20,434	-0,351	-0,199
62,203	373,116	-0,230	-0,330
63,217	190,396	-0,268	-0,284
64,232	73,554	-0,231	-0,170
65,247	-73,587	-0,388	-0,099
66,261	30,017	-0,453	-0,271
67,276	-6,813	-0,331	-0,158
68,290	-39,015	-0,254	-0,094
69,305	176,051	-0,221	-0,226
70,320	382,943	-0,177	-0,257
71,334	33,143	-0,267	-0,163
72,349	34,161	-0,296	-0,181
73,363	77,726	-0,256	-0,192
74,378	108,732	-0,332	-0,279
75,393	38,333	-0,370	-0,231
76,407	121,403	-0,245	-0,214
77,422	50,742	-0,248	-0,165
78,436	86,386	-0,308	-0,239
79,451	24,294	-0,397	-0,230
80,466	-113,354	-0,366	-0,050
81,480	89,847	-0,346	-0,271
82,495	274,882	-0,253	-0,316
83,509	240,293	-0,226	-0,265
84,524	-24,067	-0,257	-0,107
85,539	42,228	-0,333	-0,212
86,553	-0,260	-0,317	-0,158
87,568	27,414	-0,370	-0,218
88,582	48,101	-0,244	-0,160
89,597	4,440	-0,367	-0,188
90,611	11,425	-0,355	-0,190
91,626	-58,169	-0,062	-0,019
92,641	28,643	-0,227	-0,135
93,655	179,410	-0,180	-0,185
94,670	50,186	-0,354	-0,234
95,684	97,369	-0,346	-0,279
96,699	-9,852	-0,404	-0,188
97,714	159,890	-0,216	-0,212
98,728	-17,297	-0,148	-0,065
99,743	-39,978	-0,312	-0,114
100,757	-46,523	-0,268	-0,092
101,772	50,040	-0,316	-0,209
102,787	381,395	-0,246	-0,356
103,801	-135,306	-0,282	-0,023
104,816	29,044	-0,213	-0,127
105,830	49,609	-0,241	-0,159
106,845	726,012	-0,163	-0,306
107,860	77,132	-0,344	-0,256
108,874	81,847	-0,325	-0,247
109,889	40,587	-0,298	-0,188
110,903	-59,647	-0,462	-0,138
111,918	104,979	-0,211	-0,174
112,933	-77,293	-0,215	-0,052
113,947	0,553	-0,298	-0,149
114,962	1,739	-0,287	-0,144
115,976	-85,833	-0,244	0,053
116,991	54,845	-0,241	-0,163
118,006	64,551	-0,302	-0,213
119,020	99,116	-0,175	-0,142
120,035	234,807	-0,150	-0,174
121,049	-8,897	-0,238	-0,111
122,064	-15,192	-0,385	-0,172
123,079	141,128	-0,287	-0,266
124,093	47,505	-0,311	-0,203
125,108	200,132	-0,213	-0,229
126,122	11,299	-0,264	-0,141
127,137	430,305	-0,092	-0,140
128,151	-20,538	-0,306	-0,131
129,166	-60,397	-0,302	-0,089
130,181	87,471	-0,254	-0,197
131,195	175,869	-0,234	-0,238
132,210	41,284	-0,291	-0,184
133,224	47,081	-0,130	-0,085
134,239	-89,940	-0,113	-0,023
135,254	713,192	-0,101	-0,187
136,268	-132,141	-0,329	-0,029
137,283	50,014	-0,209	-0,138
138,297	14,012	-0,273	-0,148
139,312	-18,093	-0,275	-0,120
140,327	55,394	-0,282	-0,190
141,341	82,424	-0,271	-0,206
142,356	134,872	-0,227	-0,206
143,370	800,000	-0,118	-0,238
144,385	65,634	-0,206	-0,146
145,400	-77,629	-0,300	-0,072
146,414	73,994	-0,234	-0,172
147,429	286,956	-0,254	-0,321
148,443	226,861	-0,191	-0,217
149,458	49,616	-0,248	-0,163
150,473	270,874	-0,149	-0,184
151,487	84,914	-0,232	-0,178
152,502	-145,069	-0,172	-0,011
153,516	314,549	-0,131	-0,173
154,531	61,097	-0,339	-0,235
155,546	131,170	-0,225	-0,202
156,560	192,460	-0,237	-0,250
157,575	-6,071	-0,178	-0,084
158,589	73,682	-0,239	-0,175
159,604	542,831	-0,135	-0,225
160,619	45,432	-0,315	-0,203
161,633	23,610	-0,227	-0,130
162,648	-55,464	-0,225	-0,070
163,662	117,278	-0,141	-0,121
164,677	-189,189	-0,145	-0,001
165,692	165,987	-0,204	-0,201
166,706	260,937	-0,216	-0,262
167,721	224,504	-0,196	-0,221
168,735	-61,198	-0,277	-0,081
169,750	460,585	-0,138	-0,215
170,764	769,373	-0,149	-0,284
171,779	11,162	-0,164	-0,087
172,794	75,037	-0,252	-0,185
173,808	121,112	-0,201	-0,175
174,823	-37,157	-0,305	-0,113
175,837	83,175	-0,299	-0,227
176,852	52,748	-0,274	-0,182
177,867	800,000	-0,092	-0,203
178,881	370,333	-0,094	-0,132
179,896	-46,168	-0,237	-0,081
180,910	217,170	-0,202	-0,224
181,925	194,976	-0,124	-0,132
182,940	43,355	-0,225	-0,143
183,954	800,000	-0,074	-0,149
184,969	21,152	-0,197	-0,111
185,983	-151,840	-0,067	0,003
186,998	-185,582	-0,188	-0,002
188,013	353,387	-0,225	-0,311
189,027	-7,997	-0,223	-0,104
190,042	-79,518	-0,261	-0,061
191,056	46,068	-0,229	-0,147
192,071	-57,617	-0,149	-0,045
193,086	-41,849	-0,091	-0,032
194,100	158,216	-0,172	-0,166
195,115	119,805	-0,236	-0,203
196,129	-161,036	-0,254	-0,009
197,144	126,581	-0,245	-0,215
198,159	-69,645	-0,205	-0,054
199,173	38,062	-0,297	-0,183
200,188	800,000	-0,046	-0,120
201,202	127,351	-0,234	-0,207
202,217	800,000	-0,095	-0,191
203,232	33,111	-0,248	-0,149
204,246	-8,547	-0,286	-0,133
205,261	160,064	-0,289	-0,280
206,275	-11,838	-0,186	-0,084
207,290	-63,090	-0,224	-0,064
208,304	800,000	-0,062	-0,155
209,319	-68,955	-0,238	-0,063
210,334	131,447	-0,244	-0,218
211,348	224,806	-0,256	-0,288
212,363	524,935	-0,177	-0,290
213,377	8,761	-0,269	-0,140
214,392	-107,732	-0,105	0,016
215,407	250,394	-0,125	-0,148
216,421	431,084	-0,119	-0,179
217,436	573,683	-0,089	-0,152
218,450	118,329	-0,229	-0,196
219,465	123,015	-0,219	-0,190
220,480	367,082	-0,095	-0,133
221,494	-8,910	-0,239	-0,111
222,509	117,598	-0,157	-0,134
223,523	800,000	-0,085	-0,233
224,538	71,975	-0,249	-0,180
225,553	78,288	-0,194	-0,144
226,567	-2,150	-0,178	-0,086
227,582	113,933	-0,191	-0,161
228,596	193,401	-0,163	-0,171
229,611	688,900	-0,099	-0,181
230,626	30,314	-0,032	-0,019
231,640	-0,473	-0,273	-0,134
232,655	185,350	-0,194	-0,200
233,669	101,214	-0,161	-0,130
234,684	-30,174	-0,170	-0,067
235,699	-20,742	-0,221	-0,094
236,713	65,978	-0,040	-0,028
237,728	-2,677	-0,146	-0,070
238,742	-200,000	-0,012	-0,092
239,757	354,074	-0,143	-0,198
240,772	685,939	-0,153	-0,279
241,786	450,073	-0,184	-0,282
242,801	-30,544	-0,082	-0,032
243,815	-9,540	-0,166	-0,076
244,830	-75,775	-0,163	-0,040
245,844	800,000	-0,078	-0,183
246,859	92,918	-0,256	-0,200
247,874	85,453	-0,132	-0,100
248,888	119,796	-0,166	-0,143
249,903	782,355	-0,086	-0,164
250,917	-200,000	-0,027	-0,133
251,932	5,163	-0,258	-0,131
252,947	329,310	-0,075	-0,100
253,961	177,259	-0,156	-0,157
254,976	-31,379	-0,218	-0,084
255,990	550,534	-0,118	-0,196
257,005	21,697	-0,173	-0,097
258,020	-57,837	-0,073	-0,022
259,034	8,581	-0,143	-0,074
260,049	-55,175	-0,318	-0,098
261,063	6,752	-0,177	-0,091
262,078	93,144	-0,243	-0,190
263,093	122,776	-0,173	-0,150
264,107	89,227	-0,230	-0,177
265,122	54,022	-0,115	-0,076
266,136	273,733	-0,122	-0,149
267,151	9,747	-0,247	-0,129
268,166	230,124	-0,074	-0,083
269,180	-125,051	-0,149	-0,016
270,195	8,119	-0,236	-0,122
271,209	72,191	-0,230	-0,166
272,224	365,617	-0,053	0,074
273,239	36,492	-0,219	-0,133
274,253	-101,638	-0,225	0,037
275,268	324,665	-0,139	-0,184
276,282	122,291	-0,192	-0,166
277,297	104,846	-0,206	-0,168
278,312	162,458	-0,182	-0,176
279,326	-20,594	-0,170	0,072
280,341	62,461	-0,181	-0,125
281,355	161,924	-0,181	-0,176
282,370	318,741	-0,160	-0,209
283,384	96,789	-0,256	-0,203
284,399	14,632	-0,152	-0,082
285,414	-34,251	-0,219	-0,082
286,428	-43,252	-0,186	-0,065
287,443	99,947	-0,197	-0,157
288,457	267,952	-0,142	-0,172
289,472	-18,634	-0,173	0,074
290,487	-108,299	-0,219	-0,032
291,501	12,320	-0,132	-0,070
292,516	58,368	-0,211	-0,143
293,530	-123,637	-0,152	0,016
294,545	-79,668	-0,109	-0,025
295,560	397,113	-0,098	-0,141
296,574	289,901	-0,090	-0,113
297,589	77,598	-0,105	0,077
298,603	-146,315	-0,095	0,006
299,618	40,774	-0,080	-0,050
300,633	15,885	-0,123	-0,067
301,647	-90,453	-0,200	0,040
302,662	419,792	-0,105	-0,156
303,676	800,000	-0,022	-0,057
304,691	542,963	-0,176	-0,290
305,706	-200,000	-0,032	-0,178
306,720	397,025	-0,150	-0,217
307,735	93,559	-0,297	-0,232
308,749	-70,073	-0,177	-0,046
309,764	321,856	-0,040	0,053
310,779	60,927	-0,186	-0,127
311,793	-151,950	-0,188	0,009
312,808	-11,063	-0,162	-0,073
313,822	-53,657	-0,212	-0,066
314,837	28,632	-0,134	-0,078
315,852	5,200	-0,106	-0,053
316,866	-122,530	-0,159	0,018
317,881	-16,197	-0,159	-0,069
318,895	-38,880	-0,161	-0,058
319,910	104,532	-0,148	-0,120
320,925	-22,543	-0,194	-0,080
321,939	119,635	-0,125	-0,106
322,954	18,659	-0,026	-0,014
323,968	282,675	-0,078	-0,096
324,983	138,650	-0,145	-0,131
325,997	47,488	-0,218	-0,139
327,012	-167,194	-0,158	-0,004
328,027	228,329	-0,127	-0,142
329,041	793,075	-0,125	-0,238
330,056	-18,403	-0,112	-0,048
331,070	67,437	-0,087	0,061
332,085	-56,424	-0,035	-0,010
333,100	328,228	-0,071	-0,093
334,114	-131,948	-0,104	-0,009
335,129	183,727	-0,155	-0,158
336,143	122,815	-0,155	-0,133
337,158	442,440	-0,071	-0,107
338,173	-200,000	-0,005	-0,166
339,187	-117,825	-0,195	0,024
340,202	297,866	-0,081	-0,103
341,216	486,896	-0,135	-0,212
342,231	110,987	-0,232	-0,191
343,246	-68,903	-0,164	-0,043
344,260	451,450	-0,112	-0,171
345,275	-60,898	-0,050	-0,015
346,289	96,462	-0,159	-0,125
347,304	-57,356	-0,141	-0,042
348,319	-129,018	-0,133	-0,013
349,333	192,678	-0,131	-0,136
350,348	113,940	-0,217	-0,181
351,362	72,503	-0,130	-0,093
352,377	-43,903	-0,176	0,060
353,392	105,268	-0,165	-0,133
354,406	-85,352	-0,149	-0,032
355,421	209,878	1314,193	1415,882
356,435	161,544	1474,865	1416,367
