DTS Sentinel unit serial number:	SN410029Multiplexer serial number:	ORYXHardware model number:	OX2-SRSoftware version number:	ORYX F/W v4,00 Oryx Data Collector v3.7.2.0data status	okinstallation	B3 Nyhavnadifferential loss correction	single-endedforward channel	channel 1reverse channel	N/Adate	2023/12/04time	19:12:30forward acquisition time	300,00reverse acquisition time	0,00gamma	499,1914k internal	0,3200k external	0,3200temperature offset calibration	1,0000default loss term (dB/km)	0,3820temperature slope calibration	1,0000multiplexer offset coefficient	1,0000multiplexer slope coefficient	1,0000fibre end	0,00T internal ref (°C)	14,75T ext. ref 1 (°C)	-0,66T ext. ref 2 (°C)	-0,66length (m)	temperature (°C)	Stokes	anti-Stokes-744,400	522,836	-0,143	-0,246
-743,385	-200,000	-0,022	0,218
-742,371	-200,000	-0,066	-0,313
-741,356	-200,000	0,051	0,348
-740,342	230,153	-0,123	-0,147
-739,327	800,000	0,110	0,288
-738,312	99,389	-0,184	-0,155
-737,298	800,000	-0,073	0,224
-736,283	800,000	-0,066	-0,171
-735,269	800,000	0,107	0,222
-734,254	37,348	-0,190	-0,122
-733,239	694,951	-0,141	0,271
-732,225	-6,353	-0,096	-0,047
-731,210	-79,014	0,038	-0,009
-730,196	-139,934	-0,082	-0,006
-729,181	49,967	-0,174	-0,119
-728,167	-200,000	-0,003	0,071
-727,152	-75,963	0,104	-0,027
-726,137	34,087	-0,053	-0,034
-725,123	18,300	0,120	-0,069
-724,108	-15,791	-0,106	-0,049
-723,094	800,000	-0,070	-0,199
-722,079	-200,000	-0,019	-0,078
-721,064	-71,774	-0,052	0,014
-720,050	237,017	0,058	-0,069
-719,035	142,455	-0,064	-0,062
-718,021	-173,182	-0,022	0,000
-717,006	82,997	-0,119	-0,094
-715,991	573,332	-0,058	-0,103
-714,977	-14,600	-0,180	-0,084
-713,962	-82,580	-0,077	0,018
-712,948	-79,481	0,055	0,013
-711,933	39,698	0,028	-0,019
-710,918	94,945	-0,094	-0,078
-709,904	71,576	0,098	-0,074
-708,889	-200,000	-0,031	-0,122
-707,875	-145,729	-0,099	0,006
-706,860	-101,636	0,047	-0,008
-705,845	426,620	0,035	0,054
-704,831	535,759	0,050	0,087
-703,816	-200,000	0,046	0,180
-702,802	-58,657	-0,037	-0,012
-701,787	54,457	-0,151	-0,105
-700,772	800,000	0,065	-0,145
-699,758	51,910	0,012	0,008
-698,743	-200,000	-0,009	0,087
-697,729	800,000	0,019	0,045
-696,714	-200,000	0,009	-0,081
-695,699	112,677	-0,091	-0,080
-694,685	92,649	-0,073	-0,059
-693,670	-122,346	-0,123	0,014
-692,656	286,493	0,102	-0,133
-691,641	103,171	-0,152	-0,130
-690,627	-67,891	0,112	-0,032
-689,612	-56,166	-0,094	0,030
-688,597	-200,000	-0,018	-0,060
-687,583	-16,344	-0,076	-0,035
-686,568	-200,000	-0,023	-0,147
-685,554	51,285	-0,080	-0,055
-684,539	-200,000	-0,004	-0,060
-683,524	-200,000	0,013	-0,053
-682,510	-125,564	0,183	0,020
-681,495	-200,000	0,013	-0,056
-680,481	-200,000	0,010	-0,078
-679,466	14,696	-0,082	-0,046
-678,451	-65,967	0,050	-0,014
-677,437	-93,831	0,113	0,022
-676,422	234,258	-0,017	0,021
-675,408	14,574	0,058	-0,033
-674,393	409,708	-0,046	-0,070
-673,378	380,625	-0,086	-0,128
-672,364	396,738	-0,020	-0,031
-671,349	-200,000	-0,007	-0,043
-670,335	-200,000	0,012	-0,109
-669,320	-200,000	0,011	0,055
-668,305	-95,468	-0,074	-0,014
-667,291	800,000	-0,055	-0,116
-666,276	93,254	-0,079	-0,065
-665,262	-13,049	-0,149	0,070
-664,247	800,000	0,014	0,034
-663,232	468,354	0,040	0,065
-662,218	-200,000	-0,005	-0,037
-661,203	-200,000	-0,017	0,057
-660,189	-80,130	-0,082	-0,020
-659,174	-66,220	0,064	0,018
-658,159	-32,755	-0,054	-0,022
-657,145	67,632	0,041	0,030
-656,130	-79,831	-0,061	-0,015
-655,116	-200,000	0,027	-0,088
-654,101	800,000	-0,064	0,143
-653,086	41,968	0,054	0,035
-652,072	-200,000	-0,007	-0,131
-651,057	201,653	-0,032	0,036
-650,043	-119,899	-0,141	-0,017
-649,028	-44,499	0,103	0,037
-648,014	386,909	0,065	0,097
-646,999	-200,000	0,004	0,096
-645,984	-200,000	-0,015	0,087
-644,970	-200,000	0,012	-0,086
-643,955	800,000	-0,064	-0,200
-642,941	454,301	-0,041	0,065
-641,926	58,335	-0,079	-0,056
-640,911	-108,191	0,078	0,012
-639,897	-200,000	-0,011	0,069
-638,882	800,000	0,042	0,099
-637,868	165,261	-0,051	-0,052
-636,853	-85,200	-0,177	0,040
-635,838	-64,474	-0,149	0,044
-634,824	-200,000	-0,006	-0,058
-633,809	-200,000	-0,006	-0,045
-632,795	117,335	-0,056	0,050
-631,780	140,284	0,045	0,043
-630,765	-40,533	-0,137	-0,051
-629,751	118,816	-0,035	-0,032
-628,736	-67,847	-0,134	0,038
-627,722	-85,378	0,066	-0,015
-626,707	800,000	-0,032	-0,087
-625,692	-200,000	0,011	0,202
-624,678	800,000	0,046	0,132
-623,663	-67,546	-0,242	0,068
-622,649	-66,341	-0,117	-0,033
-621,634	-200,000	0,013	-0,053
-620,619	-138,084	-0,150	-0,012
-619,605	-200,000	-0,019	-0,081
-618,590	77,340	-0,144	-0,110
-617,576	779,709	-0,035	0,069
-616,561	-164,886	-0,083	0,003
-615,546	-51,165	-0,212	-0,071
-614,532	800,000	0,044	-0,126
-613,517	363,298	-0,063	-0,092
-612,503	-133,601	-0,038	-0,003
-611,488	-32,261	0,159	0,064
-610,474	-6,457	0,089	0,044
-609,459	153,965	-0,092	0,092
-608,444	-58,693	-0,118	-0,037
-607,430	-200,000	-0,033	-0,107
-606,415	-9,087	-0,093	-0,045
-605,401	-60,655	0,061	-0,019
-604,386	455,574	0,062	0,100
-603,371	56,585	0,072	-0,050
-602,357	5,193	-0,109	0,058
-601,342	-143,735	-0,137	-0,009
-600,328	204,462	-0,186	-0,209
-599,313	-152,065	-0,022	-0,001
-598,298	740,591	0,087	0,170
-597,284	18,802	-0,035	-0,020
-596,269	138,144	0,093	0,088
-595,255	800,000	0,068	-0,175
-594,240	347,701	-0,089	-0,127
-593,225	800,000	0,029	-0,085
-592,211	13,046	-0,032	0,018
-591,196	-137,727	0,017	-0,001
-590,182	-96,889	-0,178	0,034
-589,167	-200,000	-0,006	0,099
-588,152	-173,583	0,033	0,001
-587,138	214,017	-0,064	0,074
-586,123	-200,000	-0,010	-0,043
-585,109	-21,082	-0,047	0,021
-584,094	-153,153	0,019	-0,001
-583,079	-200,000	-0,032	0,143
-582,065	-200,000	-0,014	0,062
-581,050	-72,717	0,096	0,025
-580,036	1,781	-0,083	0,043
-579,021	-71,914	-0,053	0,014
-578,006	800,000	0,009	0,028
-576,992	114,433	-0,086	-0,076
-575,977	-46,254	0,046	0,016
-574,963	-200,000	-0,001	0,038
-573,948	26,710	0,063	0,038
-572,934	-109,510	0,066	0,010
-571,919	571,274	-0,035	-0,062
-570,904	-200,000	0,006	-0,067
-569,890	800,000	-0,025	-0,068
-568,875	547,095	0,085	0,147
-567,861	63,598	0,037	0,027
-566,846	209,678	-0,006	0,006
-565,831	-114,518	-0,022	-0,003
-564,817	539,579	0,038	-0,066
-563,802	-200,000	-0,011	-0,102
-562,788	-200,000	-0,030	-0,114
-561,773	-130,136	0,109	-0,011
-560,758	-200,000	-0,014	0,047
-559,744	-65,365	0,095	0,027
-558,729	19,406	-0,140	0,081
-557,715	-200,000	0,021	-0,169
-556,700	-84,775	-0,195	-0,044
-555,685	-200,000	0,035	-0,131
-554,671	157,337	-0,074	0,074
-553,656	272,436	-0,097	0,124
-552,642	28,711	-0,061	0,037
-551,627	186,849	-0,044	0,047
-550,612	504,046	-0,044	-0,074
-549,598	693,171	0,060	0,115
-548,583	-146,411	0,019	-0,001
-547,569	318,570	-0,059	-0,081
-546,554	-90,600	0,088	-0,018
-545,539	-92,233	0,070	-0,014
-544,525	67,972	-0,098	-0,072
-543,510	321,516	-0,058	-0,080
-542,496	-91,774	-0,097	-0,020
-541,481	147,702	-0,116	0,113
-540,466	305,333	-0,056	0,076
-539,452	376,799	-0,037	0,054
-538,437	224,730	0,081	0,095
-537,423	682,600	0,007	-0,013
-536,408	800,000	0,018	-0,039
-535,393	-200,000	-0,001	-0,011
-534,379	-1,246	-0,116	-0,059
-533,364	72,762	-0,118	-0,089
-532,350	-127,130	0,077	-0,008
-531,335	152,953	-0,040	0,040
-530,321	-200,000	0,014	-0,098
-529,306	-200,000	0,011	0,047
-528,291	-200,000	0,005	0,015
-527,277	383,245	-0,018	-0,026
-526,262	104,798	-0,099	0,084
-525,248	800,000	0,060	-0,147
-524,233	-92,424	0,063	-0,013
-523,218	800,000	-0,030	0,071
-522,204	-200,000	-0,011	0,046
-521,189	11,595	0,113	-0,063
-520,175	-126,173	0,047	-0,005
-519,160	738,117	-0,063	-0,122
-518,145	-200,000	-0,020	-0,075
-517,131	459,910	0,033	0,054
-516,116	153,318	-0,039	-0,039
-515,102	-200,000	0,028	-0,092
-514,087	-89,941	0,078	-0,016
-513,072	-41,090	-0,102	0,038
-512,058	-88,991	-0,081	0,017
-511,043	-200,000	0,005	-0,104
-510,029	321,328	-0,079	0,109
-509,014	-78,075	0,047	-0,012
-507,999	21,800	-0,168	0,099
-506,985	-131,898	-0,089	-0,008
-505,970	94,061	0,094	-0,077
-504,956	199,132	-0,071	-0,078
-503,941	34,611	0,130	-0,082
-502,926	-41,915	0,106	-0,039
-501,912	0,676	-0,109	0,056
-500,897	-14,497	-0,116	-0,054
-499,883	-200,000	-0,014	-0,200
-498,868	-3,399	-0,105	-0,053
-497,853	-200,000	0,055	-0,206
-496,839	115,174	0,111	0,097
-495,824	-33,790	-0,097	0,038
-494,810	-111,712	-0,058	0,008
-493,795	-130,628	0,140	0,013
-492,781	800,000	0,013	-0,029
-491,766	453,979	-0,038	-0,061
-490,751	-128,791	0,050	0,005
-489,737	541,494	-0,006	-0,011
-488,722	-188,976	0,045	-0,000
-487,708	-200,000	0,008	-0,097
-486,693	800,000	0,019	-0,050
-485,678	253,936	0,078	-0,096
-484,664	103,962	0,040	-0,034
-483,649	-68,250	-0,023	-0,006
-482,635	109,519	0,068	0,058
-481,620	-200,000	0,031	-0,140
-480,605	23,476	-0,116	0,068
-479,591	94,490	-0,065	0,053
-478,576	228,802	0,021	0,024
-477,562	1,250	-0,084	0,044
-476,547	-164,528	0,264	0,008
-475,532	-200,000	-0,001	-0,064
-474,518	-23,333	0,126	0,054
-473,503	-135,631	-0,099	0,008
-472,489	-157,087	-0,024	0,001
-471,474	800,000	-0,034	-0,086
-470,459	-83,726	-0,040	0,009
-469,445	-200,000	-0,005	-0,126
-468,430	459,065	0,025	-0,040
-467,416	254,787	0,138	0,170
-466,401	-120,202	0,094	-0,011
-465,386	411,657	0,044	0,067
-464,372	-27,534	-0,083	0,035
-463,357	89,958	0,128	-0,103
-462,343	800,000	0,039	-0,113
-461,328	-200,000	-0,003	-0,041
-460,313	168,002	-0,076	-0,078
-459,299	-88,124	0,022	-0,005
-458,284	-132,944	-0,034	-0,003
-457,270	-200,000	0,002	0,068
-456,255	266,885	-0,086	0,109
-455,241	-200,000	-0,007	0,217
-454,226	166,372	0,009	0,009
-453,211	-52,417	0,102	0,034
-452,197	100,304	0,061	0,051
-451,182	-26,500	0,047	0,020
-450,168	800,000	-0,019	-0,052
-449,153	-111,662	-0,066	-0,009
-448,138	559,762	-0,083	-0,144
-447,124	-200,000	0,018	0,113
-446,109	-200,000	0,008	0,118
-445,095	-200,000	-0,004	0,035
-444,080	33,717	0,149	0,093
-443,065	800,000	0,037	-0,103
-442,051	227,664	0,024	0,029
-441,036	-200,000	-0,045	0,146
-440,022	-200,000	-0,000	-0,071
-439,007	-110,155	-0,098	0,014
-437,992	-14,980	0,089	-0,041
-436,978	800,000	0,023	0,070
-435,963	-97,609	0,100	0,018
-434,949	-54,368	-0,070	-0,023
-433,934	-200,000	-0,049	0,236
-432,919	207,071	0,114	-0,128
-431,905	-124,805	-0,101	-0,011
-430,890	93,022	0,050	-0,041
-429,876	-125,496	0,124	0,013
-428,861	88,526	0,051	-0,040
-427,846	21,221	-0,023	0,014
-426,832	372,915	-0,012	0,017
-425,817	13,899	0,043	0,024
-424,803	-200,000	-0,006	-0,132
-423,788	326,607	0,070	-0,097
-422,773	93,164	0,043	0,035
-421,759	-200,000	-0,012	0,114
-420,744	800,000	-0,044	-0,120
-419,730	-200,000	0,009	-0,074
-418,715	-200,000	0,013	0,084
-417,701	800,000	0,033	0,079
-416,686	544,618	-0,081	0,140
-415,671	-112,039	0,011	-0,002
-414,657	296,783	0,024	-0,031
-413,642	800,000	0,044	0,094
-412,628	214,118	0,068	0,078
-411,613	-127,022	0,128	-0,013
-410,598	-200,000	0,001	0,031
-409,584	435,876	-0,111	0,175
-408,569	800,000	-0,012	0,030
-407,555	-200,000	0,018	0,106
-406,540	-112,443	0,067	0,010
-405,525	-74,666	-0,098	-0,025
-404,511	-16,427	-0,081	0,037
-403,496	380,900	0,032	0,047
-402,482	-63,770	0,041	-0,012
-401,467	-143,913	0,136	-0,009
-400,452	54,721	0,165	0,114
-399,438	164,556	0,006	0,006
-398,423	151,585	-0,092	-0,090
-397,409	-200,000	-0,002	-0,069
-396,394	-113,965	-0,140	-0,019
-395,379	-1,100	0,051	-0,026
-394,365	222,487	-0,065	0,075
-393,350	-200,000	-0,083	0,000
-392,336	-116,005	0,048	-0,006
-391,321	62,691	-0,047	0,034
-390,306	530,593	-0,104	-0,177
-389,292	229,272	-0,086	-0,101
-388,277	-6,977	0,079	0,038
-387,263	-4,661	0,122	0,060
-386,248	800,000	0,029	0,085
-385,233	174,633	-0,065	-0,067
-384,219	800,000	0,022	-0,054
-383,204	11,095	-0,110	0,060
-382,190	-95,063	-0,111	0,021
-381,175	-200,000	-0,020	0,063
-380,160	800,000	0,037	0,093
-379,146	304,959	0,008	0,010
-378,131	339,297	0,085	0,119
-377,117	449,392	-0,077	0,123
-376,102	148,637	-0,101	-0,098
-375,088	246,391	0,068	-0,083
-374,073	-200,000	-0,007	-0,050
-373,058	-152,100	-0,043	-0,002
-372,044	-200,000	0,012	0,110
-371,029	-200,000	-0,003	0,065
-370,015	-200,000	0,014	0,082
-369,000	-200,000	-0,043	-0,204
-367,985	-200,000	-0,017	0,089
-366,971	-107,095	-0,150	-0,023
-365,956	136,688	0,074	0,069
-364,942	-74,550	-0,077	-0,020
-363,927	-200,000	-0,005	0,071
-362,912	800,000	-0,050	0,135
-361,898	136,699	0,054	-0,050
-360,883	468,588	-0,053	-0,085
-359,869	216,363	0,044	0,050
-358,854	21,095	0,018	0,011
-357,839	33,512	0,102	0,063
-356,825	207,570	0,099	0,111
-355,810	-200,000	-0,002	-0,067
-354,796	800,000	0,087	-0,248
-353,781	-90,306	-0,133	-0,027
-352,766	105,167	-0,077	0,065
-351,752	-12,330	-0,084	-0,039
-350,737	16,341	0,071	0,040
-349,723	-200,000	0,016	-0,064
-348,708	-0,679	-0,111	-0,056
-347,693	-73,966	0,072	0,018
-346,679	276,011	-0,090	0,115
-345,664	4,248	-0,066	-0,035
-344,650	-62,115	-0,037	0,011
-343,635	-110,480	0,063	0,009
-342,620	187,754	0,049	-0,052
-341,606	288,502	0,085	0,111
-340,591	85,830	-0,107	-0,084
-339,577	-81,020	-0,110	-0,026
-338,562	143,325	-0,025	-0,024
-337,548	104,943	0,050	0,042
-336,533	800,000	-0,029	-0,076
-335,518	-26,545	0,107	0,045
-334,504	80,825	0,079	0,061
-333,489	256,370	-0,091	0,111
-332,475	-41,372	0,075	0,027
-331,460	-81,441	-0,054	0,013
-330,445	-6,021	-0,050	0,024
-329,431	141,226	0,044	0,042
-328,416	-200,000	0,009	-0,032
-327,402	800,000	0,044	-0,097
-326,387	-200,000	0,043	0,190
-325,372	-200,000	0,008	0,065
-324,358	583,034	0,046	-0,081
-323,343	-111,400	0,136	-0,020
-322,329	129,308	-0,060	-0,055
-321,314	463,489	0,024	0,039
-320,299	800,000	-0,034	0,105
-319,285	-200,000	0,041	0,192
-318,270	241,173	-0,049	0,059
-317,256	794,886	-0,062	-0,123
-316,241	800,000	0,010	-0,026
-315,226	-175,200	0,194	-0,004
-314,212	800,000	0,018	-0,055
-313,197	142,374	0,111	0,105
-312,183	-139,698	0,092	-0,007
-311,168	-157,088	-0,099	0,004
-310,153	66,112	-0,040	-0,029
-309,139	502,283	0,026	0,043
-308,124	-58,111	0,083	0,026
-307,110	-141,764	0,151	-0,011
-306,095	257,433	-0,047	0,057
-305,080	-131,834	0,090	0,008
-304,066	109,827	0,026	-0,022
-303,051	189,472	0,022	-0,024
-302,037	-147,847	0,126	-0,007
-301,022	-200,000	-0,001	-0,051
-300,008	95,969	0,083	-0,068
-298,993	-8,347	0,138	-0,066
-297,978	29,673	0,170	0,104
-296,964	88,086	0,100	-0,080
-295,949	-17,411	-0,123	-0,055
-294,935	211,216	-0,025	0,028
-293,920	34,471	0,112	0,070
-292,905	218,473	0,108	0,124
-291,891	140,858	0,040	0,038
-290,876	-92,115	-0,055	-0,011
-289,862	-109,208	-0,037	-0,006
-288,847	465,156	-0,025	-0,039
-287,832	-14,975	0,035	-0,016
-286,818	574,372	-0,073	0,127
-285,803	156,255	0,090	0,089
-284,789	727,672	0,046	0,089
-283,774	195,617	-0,059	0,065
-282,759	294,786	0,019	-0,025
-281,745	242,316	-0,053	-0,063
-280,730	122,434	0,031	-0,028
-279,716	50,740	0,049	0,033
-278,701	150,773	-0,110	0,107
-277,686	-89,052	0,132	-0,028
-276,672	-200,000	0,040	0,158
-275,657	102,862	-0,053	-0,044
-274,643	485,748	-0,049	0,080
-273,628	11,307	0,074	-0,041
-272,613	800,000	0,058	-0,121
-271,599	800,000	-0,031	0,068
-270,584	567,667	-0,063	0,110
-269,570	800,000	-0,031	-0,079
-268,555	16,461	0,124	-0,070
-267,540	-165,888	0,012	0,000
-266,526	-93,180	-0,082	0,016
-265,511	794,303	0,077	0,153
-264,497	-200,000	-0,008	-0,092
-263,482	-200,000	0,001	-0,017
-262,467	-112,178	0,184	-0,026
-261,453	800,000	0,036	-0,098
-260,438	-93,588	-0,069	-0,014
-259,424	113,432	-0,057	-0,050
-258,409	52,610	0,097	-0,066
-257,395	-200,000	-0,006	-0,045
-256,380	66,557	0,021	0,015
-255,365	100,101	0,159	0,131
-254,351	-189,631	0,024	-0,000
-253,336	-135,446	-0,078	-0,007
-252,322	666,796	0,060	-0,112
-251,307	169,371	-0,013	-0,013
-250,292	84,096	0,044	-0,034
-249,278	-147,038	0,056	0,003
-248,263	800,000	-0,038	0,093
-247,249	-82,101	0,127	-0,029
-246,234	-200,000	0,006	0,110
-245,219	-200,000	0,017	-0,134
-244,205	800,000	-0,020	0,045
-243,190	-200,000	-0,003	0,090
-242,176	-118,203	0,154	0,019
-241,161	-6,390	0,073	-0,035
-240,146	-200,000	-0,012	0,111
-239,132	-24,299	0,048	-0,020
-238,117	800,000	0,009	-0,022
-237,103	-200,000	-0,008	-0,035
-236,088	-130,744	0,107	-0,010
-235,073	522,411	0,077	-0,130
-234,059	-149,467	-0,064	-0,004
-233,044	-200,000	0,008	0,088
-232,030	800,000	-0,032	-0,074
-231,015	-200,000	-0,026	0,145
-230,000	800,000	0,045	-0,119
-228,986	-200,000	-0,045	-0,152
-227,971	30,312	0,071	-0,043
-226,957	-167,835	0,151	0,004
-225,942	-67,094	-0,054	-0,015
-224,927	-35,776	0,081	-0,031
-223,913	-200,000	0,017	-0,081
-222,898	221,828	-0,054	-0,062
-221,884	230,522	-0,072	-0,084
-220,869	-200,000	-0,013	-0,081
-219,855	94,899	0,207	0,168
-218,840	-39,692	0,022	-0,008
-217,825	-1,851	-0,137	-0,069
-216,811	169,371	-0,067	-0,068
-215,796	800,000	-0,036	0,089
-214,782	-200,000	0,027	-0,214
-213,767	193,838	0,030	-0,032
-212,752	800,000	0,017	0,041
-211,738	-200,000	-0,001	0,037
-210,723	-175,152	0,142	0,003
-209,709	8,656	-0,155	-0,083
-208,694	33,522	-0,073	0,045
-207,679	-54,448	-0,063	0,020
-206,665	434,290	-0,017	0,027
-205,650	800,000	0,032	-0,082
-204,636	51,118	-0,045	0,030
-203,621	800,000	-0,050	-0,111
-202,606	120,912	0,012	0,010
-201,592	-93,928	-0,135	0,026
-200,577	-68,944	-0,035	-0,010
-199,563	-200,000	0,014	-0,060
-198,548	-67,914	-0,075	-0,021
-197,533	-7,776	0,216	-0,103
-196,519	39,451	-0,092	0,058
-195,504	-200,000	-0,008	0,038
-194,490	-200,000	-0,018	-0,102
-193,475	-92,187	-0,069	-0,014
-192,460	701,377	-0,014	0,026
-191,446	103,852	-0,050	-0,042
-190,431	166,979	0,018	-0,018
-189,417	4,168	-0,089	-0,046
-188,402	-200,000	0,010	0,080
-187,387	231,846	-0,079	-0,093
-186,373	-200,000	-0,004	0,061
-185,358	738,862	0,070	-0,134
-184,344	158,831	0,095	0,094
-183,329	35,051	0,034	0,021
-182,315	211,634	-0,031	0,035
-181,300	-200,000	0,018	-0,085
-180,285	121,535	-0,092	-0,082
-179,271	-177,614	-0,088	-0,001
-178,256	159,839	0,082	-0,081
-177,242	137,479	0,083	-0,078
-176,227	800,000	-0,029	-0,059
-175,212	-200,000	0,012	0,102
-174,198	-200,000	0,003	-0,032
-173,183	800,000	-0,027	-0,078
-172,169	800,000	-0,023	0,055
-171,154	671,893	0,027	0,050
-170,139	-76,272	0,044	0,011
-169,125	-62,216	0,089	0,026
-168,110	291,876	-0,049	0,063
-167,096	-200,000	0,021	0,150
-166,081	103,341	-0,145	0,121
-165,066	-200,000	-0,012	-0,066
-164,052	217,825	0,037	0,042
-163,037	131,711	0,027	-0,024
-162,023	-200,000	0,020	0,074
-161,008	-49,158	-0,079	0,027
-159,993	-69,491	0,171	-0,046
-158,979	800,000	0,031	-0,063
-157,964	800,000	0,031	0,065
-156,950	-200,000	0,001	0,120
-155,935	-106,579	0,073	-0,012
-154,920	-90,920	-0,089	-0,018
-153,906	-63,410	0,092	-0,027
-152,891	420,115	0,062	-0,094
-151,877	-18,018	0,040	-0,018
-150,862	-200,000	-0,020	-0,131
-149,847	-200,000	0,004	-0,131
-148,833	-111,274	0,130	0,019
-147,818	800,000	-0,045	-0,092
-146,804	217,074	-0,042	-0,048
-145,789	-200,000	0,009	0,063
-144,775	-146,512	0,077	0,005
-143,760	-145,591	0,016	0,001
-142,745	164,114	-0,093	-0,093
-141,731	-200,000	-0,011	-0,050
-140,716	13,107	0,070	-0,038
-139,702	-144,850	-0,038	0,002
-138,687	136,715	-0,053	-0,049
-137,672	-200,000	-0,006	-0,029
-136,658	-106,408	0,080	0,013
-135,643	528,381	0,080	-0,134
-134,629	516,132	-0,022	-0,037
-133,614	-200,000	0,037	0,142
-132,599	304,090	-0,011	-0,015
-131,585	352,061	0,035	0,049
-130,570	214,854	0,128	0,144
-129,556	-138,448	-0,030	0,002
-128,541	139,646	-0,110	-0,103
-127,526	-51,746	-0,070	-0,023
-126,512	-200,000	0,021	0,102
-125,497	620,227	-0,080	0,144
-124,483	-131,721	0,137	-0,013
-123,468	-43,510	-0,068	0,024
-122,453	188,954	-0,046	-0,049
-121,439	86,034	-0,047	-0,036
-120,424	-119,775	0,092	-0,011
-119,410	800,000	0,101	0,227
-118,395	286,047	0,070	0,089
-117,380	50,962	0,016	-0,010
-116,366	800,000	0,018	-0,045
-115,351	-200,000	0,032	-0,114
-114,337	800,000	0,015	-0,032
-113,322	-152,070	-0,063	-0,003
-112,307	136,371	0,042	-0,039
-111,293	-48,165	-0,044	0,015
-110,278	-68,978	-0,085	0,023
-109,264	-200,000	-0,012	-0,067
-108,249	-54,705	0,017	0,006
-107,234	164,045	-0,160	0,160
-106,220	-200,000	0,021	-0,140
-105,205	-200,000	0,020	-0,150
-104,191	-200,000	0,002	0,018
-103,176	-200,000	-0,019	-0,132
-102,162	-152,576	-0,037	0,002
-101,147	-33,084	-0,166	0,065
-100,132	102,620	0,085	-0,071
-99,118	225,636	-0,044	0,051
-98,103	296,036	0,028	0,037
-97,089	-71,057	0,033	0,009
-96,074	32,124	0,081	-0,050
-95,059	-200,000	0,009	0,089
-94,045	124,344	-0,114	-0,102
-93,030	61,162	0,026	0,019
-92,016	-200,000	0,002	0,048
-91,001	63,890	-0,126	-0,090
-89,986	-200,000	0,017	0,086
-88,972	171,162	-0,020	-0,020
-87,957	-200,000	0,007	0,120
-86,943	131,941	-0,076	-0,070
-85,928	377,266	-0,053	-0,077
-84,913	107,872	-0,037	-0,031
-83,899	-200,000	0,004	-0,160
-82,884	800,000	0,030	-0,088
-81,870	-22,538	0,055	-0,023
-80,855	-59,944	-0,049	-0,015
-79,840	-98,246	-0,154	-0,028
-78,826	486,296	0,079	-0,129
-77,811	-4,171	0,125	-0,061
-76,797	-156,751	-0,145	-0,006
-75,782	-129,496	-0,059	0,006
-74,767	800,000	-0,020	-0,041
-73,753	40,587	0,070	0,044
-72,738	-135,678	-0,018	0,001
-71,724	-200,000	-0,004	-0,076
-70,709	800,000	0,080	-0,169
-69,694	800,000	-0,094	0,188
-68,680	15,739	0,029	-0,016
-67,665	-102,166	-0,267	-0,045
-66,651	39,855	0,094	0,060
-65,636	-200,000	-0,021	0,134
-64,622	165,259	-0,019	-0,019
-63,607	800,000	0,031	0,064
-62,592	171,157	-0,118	-0,120
-61,578	86,003	-0,067	0,052
-60,563	61,057	0,105	0,074
-59,549	580,716	-0,024	0,041
-58,534	-50,823	-1,407	-0,466
-57,519	395,614	-1,383	-2,050
-56,505	-200,000	-0,510	-4,670
-55,490	115,595	0,970	0,840
-54,476	800,000	4,786	11,294
-53,461	-200,000	18,382	292,806
-52,446	800,000	729,131	2245,524
-51,432	557,597	1645,667	2820,725
-50,417	79,131	1667,218	1263,436
-49,403	22,654	1540,482	890,639
-48,388	16,625	1463,751	817,044
-47,373	17,808	1453,665	817,087
-46,359	17,129	1444,122	808,437
-45,344	14,882	1439,544	795,106
-44,330	14,786	1437,456	793,465
-43,315	14,804	1435,868	792,640
-42,300	14,815	1434,243	791,766
-41,286	14,876	1432,833	791,243
-40,271	14,836	1431,704	790,399
-39,257	14,789	1430,578	789,522
-38,242	14,830	1429,158	788,902
-37,227	14,880	1427,875	788,402
-36,213	14,864	1426,661	787,621
-35,198	14,836	1425,484	786,810
-34,184	14,898	1424,501	786,528
-33,169	14,808	1423,380	785,452
-32,154	14,880	1422,120	785,069
-31,140	14,870	1420,902	784,316
-30,125	14,919	1419,754	783,881
-29,111	14,867	1418,716	783,033
-28,096	14,829	1417,756	782,294
-27,082	14,791	1416,526	781,407
-26,067	14,827	1415,417	780,929
-25,052	14,819	1414,491	780,351
-24,038	14,732	1413,505	779,369
-23,023	14,759	1412,421	778,867
-22,009	14,740	1411,412	778,189
-20,994	14,715	1410,559	777,572
-19,979	14,760	1409,592	777,218
-18,965	14,715	1408,486	776,366
-17,950	14,691	1407,554	775,713
-16,936	14,674	1406,607	775,081
-15,921	14,666	1405,631	774,473
-14,906	14,672	1404,665	773,938
-13,892	14,681	1403,884	773,519
-12,877	14,643	1402,869	772,752
-11,863	14,676	1401,926	772,354
-10,848	14,668	1401,171	771,869
-9,833	14,655	1400,164	771,226
-8,819	14,644	1399,411	770,731
-7,804	14,600	1398,370	769,923
-6,790	14,594	1397,275	769,261
-5,775	14,553	1396,392	768,553
-4,760	14,583	1395,391	768,109
-3,746	14,553	1394,925	767,687
-2,731	14,609	1393,786	767,286
-1,717	14,570	1393,044	766,668
-0,702	14,582	1390,790	765,450
0,313	18,308	1309,653	738,078
1,327	34,574	706,626	435,927
2,342	52,748	124,576	84,122
3,356	3,783	16,600	8,549
4,371	-7,062	3,188	1,525
5,386	28,236	0,481	0,286
6,400	25,998	0,076	0,045
7,415	-54,807	-0,316	-0,100
8,429	19,247	-0,236	-0,134
9,444	6,452	-0,293	-0,153
10,459	96,588	-0,255	-0,206
11,473	40,122	-0,351	-0,223
12,488	-173,585	-0,326	-0,007
13,502	3,574	-0,290	-0,149
14,517	153,286	-0,360	-0,348
15,531	72,666	-0,387	-0,285
16,546	143,494	-0,314	-0,296
17,561	32,324	-0,372	-0,227
18,575	-2,388	-0,202	-0,100
19,590	47,916	-0,313	-0,206
20,604	-29,270	-0,237	-0,095
21,619	-1,324	-0,397	-0,197
22,634	12,391	-0,445	-0,242
23,648	20,977	-0,457	-0,261
24,663	224,755	-0,308	-0,352
25,677	-54,962	-0,383	-0,121
26,692	34,849	-0,313	-0,193
27,707	44,124	-0,334	-0,216
28,721	67,351	-0,435	-0,313
29,736	105,785	-0,430	-0,359
30,750	211,831	-0,476	-0,530
31,765	281,507	-0,267	-0,338
32,780	247,692	-0,308	-0,368
33,794	85,011	-0,472	-0,365
34,809	-65,397	-0,362	-0,102
35,823	29,492	-0,274	-0,164
36,838	-29,051	-0,433	-0,174
37,853	43,696	-0,479	-0,309
38,867	159,498	-0,371	-0,364
39,882	5,994	-0,394	-0,205
40,896	127,675	-0,377	-0,338
41,911	-33,675	-0,392	-0,152
42,926	424,670	-0,203	-0,308
43,940	120,322	-0,393	-0,344
44,955	-14,121	-0,396	-0,179
45,969	74,393	-0,280	-0,207
46,984	135,290	-0,294	-0,269
47,999	323,093	-0,230	-0,310
49,013	53,991	-0,379	-0,257
50,028	65,532	-0,354	-0,252
51,042	219,113	-0,361	-0,408
52,057	48,516	-0,373	-0,246
53,071	232,822	-0,277	-0,321
54,086	209,681	-0,319	-0,352
55,101	79,544	-0,294	-0,222
56,115	-75,701	-0,400	-0,099
57,130	110,162	-0,323	-0,273
58,144	31,747	-0,367	-0,222
59,159	7,493	-0,455	-0,239
60,174	9,064	-0,456	-0,242
61,188	41,473	-0,335	-0,213
62,203	166,029	-0,280	-0,280
63,217	183,693	-0,248	-0,258
64,232	15,388	-0,364	-0,200
65,247	80,989	-0,223	-0,170
66,261	-9,199	-0,356	-0,167
67,276	91,466	-0,395	-0,312
68,290	-20,533	-0,353	-0,152
69,305	7,550	-0,204	-0,107
70,320	4,935	-0,302	-0,156
71,334	107,879	-0,235	-0,197
72,349	100,461	-0,246	-0,201
73,363	103,783	-0,249	-0,206
74,378	702,200	-0,235	-0,436
75,393	139,105	-0,272	-0,251
76,407	29,741	-0,359	-0,214
77,422	214,110	-0,234	-0,260
78,436	84,504	-0,306	-0,235
79,451	98,579	-0,264	-0,214
80,466	-91,685	-0,336	-0,067
81,480	-72,114	-0,504	-0,130
82,495	215,469	-0,161	-0,180
83,509	186,076	-0,296	-0,310
84,524	99,025	-0,278	-0,226
85,539	89,792	-0,327	-0,256
86,553	101,931	-0,177	-0,145
87,568	197,369	-0,216	-0,231
88,582	-8,715	-0,441	-0,207
89,597	-8,646	-0,219	-0,103
90,611	122,322	-0,176	-0,154
91,626	-9,709	-0,408	-0,190
92,641	-31,253	-0,292	-0,115
93,655	28,324	-0,339	-0,200
94,670	121,572	-0,337	-0,295
95,684	81,092	-0,214	-0,162
96,699	360,147	-0,209	-0,294
97,714	14,036	-0,381	-0,208
98,728	50,236	-0,179	-0,119
99,743	48,703	-0,332	-0,218
100,757	229,463	-0,211	-0,242
101,772	120,823	-0,296	-0,258
102,787	82,733	-0,247	-0,188
103,801	13,998	-0,312	-0,170
104,816	-53,094	-0,229	-0,073
105,830	171,860	-0,201	-0,203
106,845	-124,345	-0,273	-0,029
107,860	-124,536	-0,296	-0,032
108,874	70,225	-0,315	-0,228
109,889	66,601	-0,323	-0,230
110,903	543,236	-0,182	-0,305
111,918	218,710	-0,197	-0,221
112,933	113,931	-0,140	-0,119
113,947	-5,909	-0,397	-0,189
114,962	125,008	-0,242	-0,214
115,976	-76,204	-0,263	-0,065
116,991	113,240	-0,293	-0,249
118,006	141,733	-0,309	-0,287
119,020	91,671	-0,206	-0,162
120,035	127,359	-0,150	-0,133
121,049	-134,416	-0,301	-0,025
122,064	480,859	-0,161	-0,256
123,079	17,456	-0,318	-0,176
124,093	-181,505	-0,150	0,002
125,108	3,455	-0,170	-0,086
126,122	39,842	-0,255	-0,160
127,137	67,097	-0,260	-0,185
128,151	121,080	-0,182	-0,158
129,166	101,606	-0,168	-0,137
130,181	137,258	-0,180	-0,164
131,195	106,265	-0,205	-0,170
132,210	49,374	-0,246	-0,162
133,224	321,245	-0,231	-0,308
134,239	-30,704	-0,303	-0,119
135,254	13,887	-0,372	-0,202
136,268	-37,829	-0,268	-0,099
137,283	46,162	-0,268	-0,174
138,297	176,444	-0,227	-0,231
139,312	800,000	-0,147	-0,304
140,327	123,884	-0,358	-0,314
141,341	-41,792	-0,287	-0,102
142,356	309,841	-0,209	-0,274
143,370	113,135	-0,297	-0,252
144,385	-80,871	-0,286	-0,066
145,400	177,130	-0,162	-0,165
146,414	155,946	-0,269	-0,260
147,429	-77,671	-0,283	-0,068
148,443	212,365	-0,134	-0,148
149,458	91,610	-0,216	-0,170
150,473	-2,055	-0,192	-0,094
151,487	40,529	-0,277	-0,174
152,502	17,139	-0,173	-0,095
153,516	393,564	-0,214	-0,312
154,531	61,250	-0,356	-0,247
155,546	-143,005	-0,264	-0,018
156,560	0,683	-0,251	-0,125
157,575	552,136	-0,148	-0,248
158,589	-4,570	-0,207	-0,099
159,604	-42,408	-0,238	-0,084
160,619	-200,000	-0,056	-0,206
161,633	357,139	-0,190	-0,265
162,648	-39,300	-0,270	-0,098
163,662	201,527	-0,285	-0,306
164,677	37,004	-0,155	-0,095
165,692	65,021	-0,305	-0,214
166,706	166,828	-0,286	-0,283
167,721	115,979	-0,253	-0,216
168,735	107,599	-0,302	-0,250
169,750	58,046	-0,261	-0,178
170,764	20,359	-0,330	-0,185
171,779	62,523	-0,151	-0,105
172,794	477,233	-0,127	-0,201
173,808	294,806	-0,152	-0,195
174,823	70,146	-0,206	-0,148
175,837	-55,565	-0,132	-0,041
176,852	-62,043	-0,387	-0,112
177,867	97,039	-0,116	-0,092
178,881	800,000	-0,063	-0,147
179,896	103,862	-0,155	-0,126
180,910	150,847	-0,182	-0,173
181,925	800,000	-0,111	-0,251
182,940	-38,697	-0,236	-0,086
183,954	251,382	-0,204	-0,242
184,969	294,039	-0,146	-0,186
185,983	-49,821	-0,313	-0,103
186,998	99,454	-0,109	-0,088
188,013	-72,557	-0,253	-0,065
189,027	411,401	-0,176	-0,261
190,042	72,905	-0,217	-0,157
191,056	-17,396	-0,220	-0,096
192,071	203,725	-0,148	-0,160
193,086	749,480	-0,126	-0,237
194,100	-72,706	-0,264	-0,067
195,115	28,542	-0,280	-0,165
196,129	-28,605	-0,123	-0,049
197,144	-7,658	-0,324	-0,152
198,159	-200,000	-0,051	-0,172
199,173	29,202	-0,202	-0,119
200,188	121,756	-0,084	-0,073
201,202	57,472	-0,171	-0,116
202,217	120,157	-0,119	-0,103
203,232	73,319	-0,285	-0,207
204,246	229,046	-0,217	-0,247
205,261	107,383	-0,315	-0,260
206,275	391,124	-0,197	-0,285
207,290	143,162	-0,204	-0,188
208,304	-32,883	-0,217	-0,083
209,319	421,096	-0,113	-0,170
210,334	547,768	-0,151	-0,252
211,348	519,731	-0,076	-0,125
212,363	49,058	-0,198	-0,129
213,377	176,895	-0,163	-0,165
214,392	170,743	-0,168	-0,167
215,407	151,434	-0,260	-0,246
216,421	76,080	-0,197	-0,144
217,436	185,541	-0,227	-0,234
218,450	84,551	-0,181	-0,137
219,465	124,586	-0,186	-0,162
220,480	-71,593	-0,211	-0,054
221,494	51,502	-0,185	-0,122
222,509	-82,588	-0,216	-0,048
223,523	82,881	-0,149	-0,112
224,538	63,077	-0,192	-0,133
225,553	-93,831	-0,337	0,064
226,567	136,791	-0,171	-0,155
227,582	66,306	-0,175	-0,123
228,596	605,795	-0,074	-0,128
229,611	-61,699	-0,289	-0,084
230,626	-11,528	-0,237	-0,108
231,640	114,158	-0,138	-0,117
232,655	17,065	-0,128	-0,070
233,669	800,000	-0,090	-0,188
234,684	133,203	-0,115	-0,103
235,699	313,555	-0,093	-0,122
236,713	-122,795	-0,169	0,019
237,728	-21,366	-0,212	-0,089
238,742	21,769	-0,187	-0,105
239,757	510,535	-0,137	-0,222
240,772	-73,450	-0,145	-0,036
241,786	62,895	-0,188	-0,130
242,801	-23,137	-0,361	-0,150
243,815	-8,871	-0,123	-0,057
244,830	-113,307	-0,080	0,011
245,844	21,863	-0,092	-0,052
246,859	-81,959	-0,140	0,031
247,874	190,592	-0,191	-0,199
248,888	-115,396	-0,286	-0,037
249,903	506,262	-0,143	-0,231
250,917	-87,047	-0,107	0,022
251,932	-19,309	-0,249	-0,106
252,947	-90,537	-0,111	-0,022
253,961	81,127	-0,154	-0,115
254,976	184,438	-0,158	-0,162
255,990	-50,803	-0,305	-0,099
257,005	768,845	-0,097	-0,183
258,020	46,016	-0,188	-0,120
259,034	-100,882	-0,130	0,022
260,049	141,964	-0,184	-0,169
261,063	16,088	-0,256	-0,139
262,078	308,825	-0,221	-0,286
263,093	800,000	-0,099	-0,292
264,107	-81,157	-0,110	-0,025
265,122	103,068	-0,122	-0,099
266,136	233,226	-0,214	-0,244
267,151	-92,147	-0,200	-0,039
268,166	-14,155	-0,227	-0,101
269,180	205,382	-0,241	-0,259
270,195	269,481	-0,147	-0,178
271,209	57,467	-0,146	-0,099
272,224	65,123	-0,168	-0,117
273,239	-166,340	-0,249	-0,007
274,253	68,981	-0,096	0,068
275,268	-110,797	-0,240	-0,034
276,282	720,068	-0,087	-0,160
277,297	800,000	-0,134	-0,293
278,312	-57,691	-0,118	-0,036
279,326	580,693	-0,185	-0,314
280,341	1,566	-0,149	-0,074
281,355	-101,662	-0,106	0,018
282,370	36,161	-0,219	-0,133
283,384	233,718	-0,172	-0,195
284,399	104,155	-0,128	-0,104
285,414	300,458	-0,187	-0,238
286,428	-80,974	-0,148	-0,034
287,443	2,545	-0,099	-0,049
288,457	-105,873	-0,120	-0,019
289,472	-87,151	-0,114	0,024
290,487	67,718	-0,196	-0,138
291,501	697,632	-0,095	-0,173
292,516	-151,035	-0,242	-0,012
293,530	327,581	-0,044	0,058
294,545	-168,345	-0,193	-0,005
295,560	-200,000	0,059	-0,253
296,574	-120,051	-0,187	-0,022
297,589	-92,064	-0,302	-0,058
298,603	26,896	-0,265	-0,153
299,618	-21,810	-0,080	-0,034
300,633	-40,900	-0,127	-0,045
301,647	371,197	-0,079	-0,110
302,662	32,181	-0,150	-0,089
303,676	85,526	-0,028	-0,021
304,691	151,186	-0,216	-0,203
305,706	10,289	-0,175	-0,092
306,720	-21,026	-0,220	-0,092
307,735	437,603	-0,055	-0,083
308,749	-5,808	-0,166	-0,078
309,764	-28,972	-0,193	-0,076
310,779	-6,738	-0,125	-0,058
311,793	-66,434	-0,088	0,024
312,808	264,560	-0,047	-0,056
313,822	33,043	-0,113	0,067
314,837	-125,094	-0,258	-0,027
315,852	-182,252	-0,145	-0,002
316,866	-37,441	-0,084	-0,031
317,881	90,046	-0,160	-0,123
318,895	-200,000	-0,010	-0,080
319,910	491,634	-0,120	-0,189
320,925	220,130	-0,162	-0,179
321,939	670,335	-0,059	-0,106
322,954	30,438	-0,116	0,068
323,968	282,830	-0,104	-0,129
324,983	9,958	-0,141	-0,073
325,997	409,079	-0,078	-0,114
327,012	8,134	-0,135	-0,069
328,027	-74,514	-0,159	-0,039
329,041	81,182	-0,181	-0,134
330,056	800,000	-0,063	-0,144
331,070	-151,610	-0,131	-0,007
332,085	-36,122	-0,113	-0,042
333,100	800,000	0,049	-0,104
334,114	-40,425	-0,167	-0,059
335,129	177,394	-0,174	-0,175
336,143	100,558	-0,216	-0,173
337,158	800,000	-0,051	-0,152
338,173	-200,000	0,000	-0,022
339,187	-67,389	-0,182	-0,049
340,202	-55,905	-0,147	-0,045
341,216	-111,268	-0,179	-0,025
342,231	10,462	-0,206	-0,107
343,246	125,841	-0,143	-0,124
344,260	-103,972	-0,108	0,017
345,275	-29,055	-0,145	-0,057
346,289	-112,033	-0,171	-0,023
347,304	111,583	-0,114	-0,094
348,319	-55,305	-0,118	-0,036
349,333	-24,905	-0,181	-0,074
350,348	-117,701	-0,202	0,025
351,362	-58,533	-0,265	-0,078
352,377	713,591	-0,073	-0,133
353,392	220,779	-0,209	-0,231
354,406	23,724	-0,082	-0,046
355,421	207,281	1317,396	1411,484
356,435	159,443	1478,456	1411,977
