DTS Sentinel unit serial number:	SN410029Multiplexer serial number:	ORYXHardware model number:	OX2-SRSoftware version number:	ORYX F/W v4,00 Oryx Data Collector v3.7.2.0data status	okinstallation	B3 Nyhavnadifferential loss correction	single-endedforward channel	channel 1reverse channel	N/Adate	2023/12/01time	12:47:30forward acquisition time	300,00reverse acquisition time	0,00gamma	499,1914k internal	0,3213k external	0,3213temperature offset calibration	1,0000default loss term (dB/km)	0,3820temperature slope calibration	1,0000multiplexer offset coefficient	1,0000multiplexer slope coefficient	1,0000fibre end	0,00T internal ref (°C)	9,03T ext. ref 1 (°C)	-5,07T ext. ref 2 (°C)	-5,18length (m)	temperature (°C)	Stokes	anti-Stokes-744,400	800,000	-0,112	-0,275
-743,385	-200,000	-0,048	0,296
-742,371	-200,000	-0,042	-0,200
-741,356	-200,000	0,025	0,263
-740,342	27,523	-0,177	-0,108
-739,327	-200,000	-0,056	0,370
-738,312	1,199	-0,206	-0,107
-737,298	2,316	-0,167	0,087
-736,283	144,181	-0,284	-0,275
-735,269	-200,000	-0,007	0,228
-734,254	-200,000	0,001	-0,156
-733,239	73,348	-0,175	0,132
-732,225	274,542	-0,164	-0,211
-731,210	430,059	0,090	0,142
-730,196	-21,006	-0,125	-0,055
-729,181	-200,000	0,007	-0,089
-728,167	95,583	0,027	0,023
-727,152	800,000	-0,048	-0,149
-726,137	-200,000	-0,039	-0,256
-725,123	-200,000	0,006	0,038
-724,108	-66,623	-0,061	-0,018
-723,094	-200,000	-0,015	-0,079
-722,079	387,299	-0,122	-0,183
-721,064	-21,152	0,117	0,052
-720,050	-127,701	-0,128	-0,013
-719,035	187,810	0,084	0,091
-718,021	-58,526	-0,195	-0,061
-717,006	800,000	0,053	-0,123
-715,991	-31,489	-0,190	-0,077
-714,977	-29,873	-0,105	0,043
-713,962	-120,728	-0,099	0,012
-712,948	-124,786	-0,071	-0,008
-711,933	438,868	0,060	0,095
-710,918	5,405	-0,055	0,029
-709,904	168,424	0,055	-0,057
-708,889	-200,000	-0,002	-0,087
-707,875	-2,510	-0,081	0,041
-706,860	800,000	0,046	0,134
-705,845	-29,357	-0,110	0,045
-704,831	-33,844	0,082	0,033
-703,816	-124,872	-0,042	-0,005
-702,802	57,666	-0,094	-0,067
-701,787	124,593	-0,091	-0,083
-700,772	149,604	-0,073	-0,071
-699,758	-200,000	0,015	-0,100
-698,743	526,958	0,128	0,220
-697,729	-52,809	-0,084	0,028
-696,714	-66,264	0,075	-0,021
-695,699	7,264	-0,150	0,081
-694,685	800,000	0,041	0,085
-693,670	-104,058	-0,056	-0,009
-692,656	800,000	0,021	0,061
-691,641	-27,785	-0,046	0,019
-690,627	-200,000	0,022	0,093
-689,612	-200,000	0,007	-0,124
-688,597	508,614	-0,038	0,065
-687,583	21,309	-0,066	-0,038
-686,568	656,783	-0,027	0,051
-685,554	69,833	-0,040	-0,030
-684,539	788,980	0,085	0,169
-683,524	359,046	-0,060	0,086
-682,510	-200,000	-0,011	0,062
-681,495	-89,504	-0,204	-0,043
-680,481	-34,523	-0,062	-0,025
-679,466	161,094	-0,122	-0,123
-678,451	-200,000	-0,001	-0,014
-677,437	800,000	0,015	0,043
-676,422	800,000	-0,042	0,120
-675,408	-200,000	-0,017	-0,086
-674,393	41,996	0,086	0,056
-673,378	124,541	0,018	-0,016
-672,364	800,000	0,024	0,073
-671,349	-200,000	0,013	-0,066
-670,335	-200,000	-0,006	-0,037
-669,320	-83,415	-0,095	-0,022
-668,305	32,677	0,036	-0,023
-667,291	-133,587	-0,142	-0,013
-666,276	-90,270	-0,055	0,011
-665,262	-200,000	-0,008	-0,088
-664,247	142,970	0,050	-0,048
-663,232	-104,799	0,110	-0,018
-662,218	-58,075	0,083	0,026
-661,203	-124,694	-0,117	-0,013
-660,189	-188,586	-0,086	-0,001
-659,174	-113,050	-0,029	0,004
-658,159	-200,000	-0,021	-0,070
-657,145	-89,540	0,088	-0,018
-656,130	-133,942	-0,088	-0,008
-655,116	173,621	-0,070	0,073
-654,101	800,000	-0,031	-0,090
-653,086	0,536	-0,051	0,026
-652,072	-200,000	-0,001	-0,091
-651,057	-68,560	-0,156	-0,043
-650,043	115,948	0,030	-0,026
-649,028	-13,448	-0,103	-0,048
-648,014	331,822	0,036	0,051
-646,999	239,888	0,007	0,009
-645,984	-40,802	0,118	-0,044
-644,970	1,557	0,083	0,043
-643,955	90,264	-0,185	-0,149
-642,941	-135,537	-0,042	-0,004
-641,926	-200,000	-0,011	0,069
-640,911	800,000	0,030	-0,073
-639,897	-181,061	0,122	-0,002
-638,882	800,000	0,008	0,024
-637,868	-40,342	-0,138	-0,051
-636,853	212,522	-0,086	0,098
-635,838	357,427	0,064	-0,093
-634,824	-193,009	-0,089	-0,001
-633,809	-108,798	0,125	0,019
-632,795	574,865	0,032	-0,056
-631,780	-106,521	-0,108	0,017
-630,765	82,276	-0,090	-0,071
-629,751	800,000	0,031	-0,090
-628,736	-200,000	0,037	-0,149
-627,722	-200,000	0,001	-0,073
-626,707	800,000	-0,009	-0,020
-625,692	73,412	-0,138	0,104
-624,678	73,667	-0,062	0,047
-623,663	-200,000	0,005	0,035
-622,649	-200,000	0,031	-0,113
-621,634	37,963	0,041	-0,026
-620,619	25,365	-0,150	0,089
-619,605	-115,037	-0,064	-0,009
-618,590	78,491	0,066	-0,051
-617,576	273,852	0,050	0,064
-616,561	87,550	0,022	-0,017
-615,546	12,810	0,072	-0,040
-614,532	-200,000	-0,012	-0,144
-613,517	362,313	-0,032	-0,047
-612,503	-2,426	-0,026	0,013
-611,488	-87,906	0,081	-0,017
-610,474	-200,000	-0,001	0,070
-609,459	-75,679	0,022	0,006
-608,444	149,631	-0,150	-0,147
-607,430	800,000	-0,069	-0,198
-606,415	-200,000	0,023	-0,087
-605,401	-80,142	-0,069	0,017
-604,386	221,103	0,064	0,075
-603,371	-168,522	-0,149	0,004
-602,357	655,039	-0,037	-0,069
-601,342	-200,000	-0,010	-0,102
-600,328	-200,000	-0,002	0,100
-599,313	800,000	-0,027	-0,071
-598,298	800,000	-0,019	-0,039
-597,284	-89,565	0,077	-0,016
-596,269	24,164	0,093	-0,055
-595,255	639,232	0,041	0,076
-594,240	-87,031	-0,021	-0,005
-593,225	800,000	-0,057	-0,152
-592,211	177,067	-0,039	0,041
-591,196	-200,000	-0,015	0,143
-590,182	-200,000	-0,006	0,071
-589,167	-126,148	0,072	0,008
-588,152	351,367	0,024	0,034
-587,138	-200,000	-0,004	0,117
-586,123	800,000	0,037	0,111
-585,109	800,000	0,067	-0,145
-584,094	-200,000	0,008	-0,106
-583,079	42,138	-0,094	0,062
-582,065	261,888	-0,076	0,095
-581,050	-114,739	-0,096	0,013
-580,036	-48,991	0,137	0,047
-579,021	-85,957	-0,186	0,041
-578,006	50,680	0,151	-0,102
-576,992	-84,484	-0,266	-0,060
-575,977	-12,888	-0,051	0,024
-574,963	45,770	-0,050	-0,033
-573,948	52,031	-0,138	-0,094
-572,934	168,053	-0,017	-0,017
-571,919	225,094	-0,078	-0,091
-570,904	-62,466	-0,093	-0,028
-569,890	605,069	-0,046	-0,082
-568,875	-94,676	0,103	0,020
-567,861	15,090	0,077	0,043
-566,846	98,455	0,037	0,031
-565,831	69,109	-0,121	0,089
-564,817	-106,703	-0,104	0,017
-563,802	41,496	-0,057	0,037
-562,788	-47,429	0,147	-0,051
-561,773	418,312	0,042	0,064
-560,758	-200,000	0,006	0,165
-559,744	-133,005	0,037	-0,003
-558,729	-37,552	-0,209	0,080
-557,715	-178,040	-0,160	0,003
-556,700	81,436	-0,165	-0,128
-555,685	-200,000	-0,015	-0,130
-554,671	166,808	0,046	0,047
-553,656	-200,000	0,022	0,132
-552,642	800,000	-0,049	0,119
-551,627	-200,000	0,012	0,072
-550,612	650,475	0,048	-0,089
-549,598	-63,124	-0,064	-0,019
-548,583	247,476	0,042	-0,051
-547,569	-185,803	-0,054	-0,001
-546,554	-24,962	0,014	0,006
-545,539	-189,856	0,057	-0,000
-544,525	-55,543	-0,081	0,026
-543,510	2,422	-0,091	0,047
-542,496	-62,726	0,014	0,004
-541,481	483,815	-0,028	-0,047
-540,466	-200,000	-0,028	0,105
-539,452	-200,000	-0,002	-0,089
-538,437	-81,257	0,156	0,037
-537,423	-134,263	0,131	0,011
-536,408	321,056	-0,084	0,115
-535,393	-12,476	-0,077	0,036
-534,379	237,781	-0,131	0,156
-533,364	139,866	0,044	0,041
-532,350	-10,015	0,131	-0,062
-531,335	-119,711	0,059	-0,007
-530,321	-200,000	-0,014	0,074
-529,306	-121,316	-0,075	-0,009
-528,291	105,125	-0,033	0,028
-527,277	-45,411	-0,227	0,080
-526,262	125,455	-0,052	-0,047
-525,248	-12,359	0,113	-0,053
-524,233	212,306	-0,071	0,080
-523,218	-168,745	-0,078	-0,002
-522,204	-32,032	-0,116	0,046
-521,189	18,973	0,147	0,085
-520,175	-109,709	-0,027	0,004
-519,160	800,000	-0,009	-0,022
-518,145	266,542	0,047	0,060
-517,131	800,000	-0,014	-0,037
-516,116	-117,835	0,046	-0,006
-515,102	-200,000	-0,018	0,120
-514,087	459,567	0,022	-0,036
-513,072	96,821	-0,046	0,038
-512,058	-106,284	-0,095	-0,015
-511,043	140,505	0,070	0,066
-510,029	-200,000	0,035	0,139
-509,014	243,884	0,071	0,086
-507,999	-154,677	0,126	-0,006
-506,985	70,864	0,074	0,055
-505,970	-128,126	-0,085	-0,009
-504,956	-186,674	0,063	0,001
-503,941	145,942	-0,111	0,107
-502,926	327,113	0,056	0,077
-501,912	10,395	-0,072	-0,039
-500,897	368,198	0,063	0,092
-499,883	-19,323	-0,203	-0,090
-498,868	-200,000	-0,013	-0,154
-497,853	800,000	-0,053	-0,125
-496,839	-17,174	0,194	0,088
-495,824	145,114	0,052	0,050
-494,810	-200,000	-0,035	0,131
-493,795	-131,716	0,119	0,011
-492,781	-107,038	-0,137	0,021
-491,766	800,000	0,051	-0,107
-490,751	430,361	-0,016	0,024
-489,737	-56,200	-0,075	-0,024
-488,722	-200,000	0,017	-0,108
-487,708	-200,000	-0,019	-0,065
-486,693	-61,071	-0,133	0,040
-485,678	161,296	0,058	0,059
-484,664	800,000	-0,089	-0,206
-483,649	-122,758	-0,129	-0,015
-482,635	-73,768	0,104	-0,027
-481,620	107,112	0,069	0,058
-480,605	160,225	0,103	0,103
-479,591	296,102	-0,065	0,085
-478,576	127,987	-0,055	0,051
-477,562	141,464	0,097	-0,092
-476,547	-18,752	0,011	-0,005
-475,532	800,000	-0,009	0,029
-474,518	-124,516	-0,111	-0,012
-473,503	7,529	0,014	-0,007
-472,489	217,204	0,071	0,081
-471,474	37,049	-0,046	0,029
-470,459	73,599	-0,056	0,042
-469,445	37,640	-0,120	-0,076
-468,430	314,864	-0,057	-0,077
-467,416	-28,742	0,212	0,087
-466,401	663,094	0,076	0,141
-465,386	800,000	-0,040	0,121
-464,372	800,000	0,035	-0,085
-463,357	75,409	0,142	-0,107
-462,343	-200,000	0,007	-0,155
-461,328	305,402	-0,096	-0,129
-460,313	235,839	0,105	-0,125
-459,299	360,126	0,059	0,084
-458,284	-200,000	-0,019	-0,103
-457,270	-59,494	-0,079	0,024
-456,255	9,893	-0,113	0,061
-455,241	-200,000	-0,023	-0,141
-454,226	104,941	0,061	-0,052
-453,211	-200,000	-0,006	-0,031
-452,197	-200,000	-0,015	0,071
-451,182	-97,490	0,115	0,021
-450,168	800,000	-0,033	0,094
-449,153	-11,811	0,125	-0,058
-448,138	-200,000	0,007	0,037
-447,124	306,762	0,082	-0,110
-446,109	-200,000	-0,007	-0,123
-445,095	-54,675	0,057	-0,018
-444,080	-200,000	0,015	0,090
-443,065	800,000	0,036	0,085
-442,051	-99,173	-0,037	0,007
-441,036	208,924	-0,013	-0,015
-440,022	54,601	0,031	-0,021
-439,007	-200,000	-0,024	-0,150
-437,992	-200,000	-0,013	0,100
-436,978	-177,394	0,063	0,001
-435,963	-1,008	0,161	0,081
-434,949	34,293	-0,057	-0,036
-433,934	-13,921	-0,042	-0,019
-432,919	201,420	-0,111	-0,123
-431,905	51,032	0,079	0,054
-430,890	-123,744	0,092	0,010
-429,876	154,565	0,068	0,067
-428,861	722,888	0,043	0,082
-427,846	215,072	-0,072	-0,082
-426,832	-200,000	-0,025	-0,099
-425,817	-200,000	0,011	-0,041
-424,803	395,372	-0,023	-0,034
-423,788	800,000	0,037	0,084
-422,773	145,241	-0,054	0,052
-421,759	50,457	0,046	0,031
-420,744	215,182	-0,058	-0,066
-419,730	31,560	-0,150	-0,092
-418,715	186,916	-0,052	0,055
-417,701	166,217	0,146	-0,148
-416,686	12,476	-0,063	-0,035
-415,671	-44,080	-0,070	0,025
-414,657	7,827	0,130	-0,069
-413,642	315,347	-0,041	0,056
-412,628	212,638	-0,060	0,068
-411,613	800,000	0,071	-0,193
-410,598	800,000	0,030	-0,063
-409,584	-200,000	0,001	-0,095
-408,569	513,352	0,056	0,094
-407,555	-83,596	0,020	-0,005
-406,540	800,000	0,075	0,155
-405,525	-200,000	0,005	-0,093
-404,511	-200,000	0,002	0,095
-403,496	-59,629	0,022	0,007
-402,482	38,523	0,041	0,026
-401,467	800,000	0,056	0,170
-400,452	557,974	-0,028	0,049
-399,438	423,118	-0,079	0,121
-398,423	15,713	0,089	0,050
-397,409	415,249	-0,060	-0,092
-396,394	800,000	0,021	-0,050
-395,379	106,125	0,031	0,026
-394,365	30,366	0,105	0,064
-393,350	314,746	0,041	0,056
-392,336	13,522	-0,045	0,025
-391,321	-19,025	-0,066	0,029
-390,306	800,000	0,061	-0,127
-389,292	-62,068	-0,051	-0,015
-388,277	3,600	-0,105	0,055
-387,263	-77,348	-0,090	0,022
-386,248	-200,000	0,028	0,093
-385,233	-200,000	0,040	0,132
-384,219	800,000	-0,050	-0,132
-383,204	-200,000	0,018	-0,110
-382,190	157,668	-0,032	0,031
-381,175	42,976	0,136	0,088
-380,160	-200,000	0,014	0,076
-379,146	-148,616	0,154	0,009
-378,131	-5,376	0,116	0,057
-377,117	64,408	0,063	0,045
-376,102	-200,000	-0,019	-0,068
-375,088	800,000	0,024	-0,057
-374,073	157,283	0,115	0,114
-373,058	800,000	0,015	0,043
-372,044	145,599	0,023	-0,022
-371,029	-145,906	0,044	-0,003
-370,015	-44,680	-0,055	0,019
-369,000	-200,000	0,004	-0,227
-367,985	79,188	-0,083	0,063
-366,971	256,019	-0,085	0,104
-365,956	-61,425	0,096	-0,029
-364,942	344,264	0,057	0,080
-363,927	530,129	0,021	-0,036
-362,912	461,550	-0,041	-0,066
-361,898	-82,889	0,062	-0,014
-360,883	154,472	-0,144	-0,142
-359,869	-200,000	0,041	-0,156
-358,854	-200,000	-0,035	-0,162
-357,839	-61,512	0,204	-0,061
-356,825	800,000	0,063	0,126
-355,810	83,961	0,123	0,096
-354,796	264,972	-0,062	-0,077
-353,781	-80,085	-0,179	-0,042
-352,766	800,000	-0,045	-0,103
-351,752	-40,054	0,082	-0,030
-350,737	115,562	-0,063	-0,055
-349,723	13,822	0,128	-0,071
-348,708	-190,528	-0,040	0,000
-347,693	442,798	0,038	-0,059
-346,679	-200,000	0,008	-0,139
-345,664	800,000	-0,056	-0,134
-344,650	-200,000	-0,017	-0,064
-343,635	-96,375	0,132	0,025
-342,620	93,863	0,254	0,205
-341,606	800,000	0,056	0,148
-340,591	-200,000	-0,004	0,092
-339,577	413,038	0,052	-0,080
-338,562	-9,677	-0,048	-0,023
-337,548	538,286	0,009	-0,015
-336,533	31,508	-0,076	0,047
-335,518	77,092	-0,056	-0,043
-334,504	-71,991	-0,077	-0,020
-333,489	800,000	0,029	-0,066
-332,475	-200,000	-0,017	-0,107
-331,460	800,000	-0,014	-0,037
-330,445	-200,000	0,013	-0,080
-329,431	-131,460	-0,040	0,004
-328,416	-104,225	-0,070	-0,011
-327,402	800,000	-0,026	0,079
-326,387	800,000	0,026	-0,076
-325,372	-200,000	0,001	0,075
-324,358	800,000	0,010	0,029
-323,343	562,945	0,027	-0,046
-322,329	-3,877	-0,018	0,009
-321,314	-200,000	0,034	0,123
-320,299	800,000	0,066	0,154
-319,285	-26,057	0,027	0,011
-318,270	-122,543	-0,011	-0,001
-317,256	33,915	-0,178	-0,110
-316,241	-145,168	0,024	-0,002
-315,226	-200,000	-0,009	0,077
-314,212	-28,517	0,132	0,054
-313,197	-59,797	0,065	0,020
-312,183	-0,499	-0,086	0,044
-311,168	800,000	-0,044	-0,117
-310,153	44,423	0,151	-0,098
-309,139	-127,595	-0,001	0,000
-308,124	564,200	0,038	0,066
-307,110	-200,000	0,019	0,117
-306,095	-123,613	0,070	0,008
-305,080	1,054	0,030	0,015
-304,066	40,474	0,101	-0,065
-303,051	-200,000	0,023	-0,092
-302,037	-196,877	-0,076	-0,000
-301,022	-10,877	-0,049	-0,023
-300,008	-200,000	0,023	0,087
-298,993	-200,000	-0,012	0,065
-297,978	234,621	-0,180	0,212
-296,964	-95,197	0,034	-0,006
-295,949	-200,000	0,008	-0,141
-294,935	89,849	0,031	-0,024
-293,920	-200,000	-0,002	-0,067
-292,905	80,196	0,096	0,073
-291,891	168,021	-0,124	0,126
-290,876	125,379	0,050	0,045
-289,862	61,429	-0,132	0,093
-288,847	-200,000	0,008	-0,097
-287,832	-12,278	-0,011	0,005
-286,818	-121,895	-0,105	0,012
-285,803	264,839	0,062	0,077
-284,789	-200,000	-0,012	0,052
-283,774	800,000	0,025	0,049
-282,759	-200,000	0,003	0,020
-281,745	-200,000	0,011	-0,083
-280,730	-162,473	-0,153	0,005
-279,716	-168,450	-0,092	0,002
-278,701	-128,916	0,057	0,006
-277,686	-24,020	0,085	0,036
-276,672	-51,106	-0,159	-0,053
-275,657	800,000	0,029	0,077
-274,643	54,409	-0,105	0,072
-273,628	-1,059	0,118	-0,059
-272,613	800,000	-0,049	-0,141
-271,599	-35,619	-0,027	-0,010
-270,584	-200,000	0,031	0,119
-269,570	800,000	-0,025	0,062
-268,555	-200,000	-0,018	-0,117
-267,540	31,574	-0,108	-0,066
-266,526	-17,984	-0,062	-0,027
-265,511	800,000	0,015	0,032
-264,497	480,533	0,072	0,116
-263,482	-5,468	0,094	-0,046
-262,467	5,012	0,094	-0,049
-261,453	-200,000	0,015	0,130
-260,438	222,615	0,032	0,036
-259,424	81,302	-0,127	-0,097
-258,409	1,403	-0,005	-0,002
-257,395	-200,000	-0,031	-0,157
-256,380	800,000	0,017	-0,035
-255,365	698,956	-0,088	0,165
-254,351	-15,722	0,098	0,044
-253,336	-200,000	0,004	0,033
-252,322	-127,223	0,114	-0,012
-251,307	-80,206	0,083	0,020
-250,292	332,464	0,015	0,021
-249,278	100,651	-0,063	0,052
-248,263	-200,000	-0,009	-0,042
-247,249	800,000	0,051	-0,108
-246,234	-200,000	0,023	-0,103
-245,219	-59,522	-0,128	0,039
-244,205	-75,765	0,106	-0,026
-243,190	3,773	0,124	0,064
-242,176	-200,000	-0,015	-0,121
-241,161	396,819	0,023	0,034
-240,146	-200,000	-0,009	-0,041
-239,132	-76,574	0,031	0,008
-238,117	30,019	0,090	-0,054
-237,103	404,676	-0,081	-0,122
-236,088	42,085	0,032	-0,021
-235,073	289,507	0,074	-0,095
-234,059	800,000	-0,026	-0,070
-233,044	800,000	-0,053	0,135
-232,030	697,226	0,087	0,163
-231,015	73,016	0,077	-0,057
-230,000	-95,674	-0,139	-0,026
-228,986	800,000	0,023	0,050
-227,971	145,834	0,037	-0,035
-226,957	-84,515	-0,044	0,010
-225,942	800,000	-0,042	0,125
-224,927	800,000	-0,061	0,128
-223,913	150,023	-0,021	-0,020
-222,898	-12,266	0,064	-0,030
-221,884	204,680	-0,112	-0,124
-220,869	800,000	0,083	-0,245
-219,855	144,379	0,019	-0,018
-218,840	86,961	-0,023	-0,018
-217,825	-200,000	-0,006	-0,051
-216,811	-31,768	-0,074	-0,029
-215,796	789,908	-0,056	-0,110
-214,782	-105,858	0,084	-0,013
-213,767	800,000	-0,018	-0,041
-212,752	44,603	0,095	0,062
-211,738	800,000	0,048	0,129
-210,723	57,904	0,025	-0,017
-209,709	-200,000	0,025	0,137
-208,694	139,103	-0,096	0,089
-207,679	-107,352	0,094	0,014
-206,665	329,216	0,055	-0,075
-205,650	-6,579	0,143	0,069
-204,636	712,488	-0,005	0,009
-203,621	-105,839	0,211	0,033
-202,606	-101,223	0,064	-0,011
-201,592	-23,790	-0,060	-0,026
-200,577	-200,000	-0,035	-0,191
-199,563	800,000	-0,013	-0,025
-198,548	245,711	-0,105	0,126
-197,533	472,456	-0,051	0,082
-196,519	-146,643	0,027	-0,002
-195,504	629,151	-0,023	-0,041
-194,490	-200,000	0,013	-0,112
-193,475	-172,065	-0,057	-0,001
-192,460	148,530	0,021	0,021
-191,446	-168,073	0,203	-0,005
-190,431	-200,000	-0,036	0,132
-189,417	800,000	0,019	0,057
-188,402	-200,000	0,009	-0,074
-187,387	491,264	0,030	0,048
-186,373	-64,878	-0,096	0,027
-185,358	367,433	0,055	-0,079
-184,344	-200,000	-0,013	0,084
-183,329	316,636	-0,153	0,206
-182,315	-200,000	-0,010	0,119
-181,300	212,254	-0,063	-0,070
-180,285	-200,000	-0,013	-0,079
-179,271	-200,000	-0,005	0,078
-178,256	-23,156	-0,030	0,013
-177,242	-168,088	0,060	0,002
-176,227	-200,000	0,006	-0,083
-175,212	479,135	-0,090	0,145
-174,198	-120,168	0,153	0,018
-173,183	-136,341	-0,196	0,016
-172,169	-18,662	-0,086	-0,038
-171,154	-96,896	0,152	-0,028
-170,139	-98,921	0,102	0,018
-169,125	37,869	-0,059	0,037
-168,110	339,959	-0,084	0,116
-167,096	800,000	-0,041	-0,114
-166,081	-69,730	0,049	0,013
-165,066	84,976	0,027	-0,021
-164,052	800,000	-0,018	0,037
-163,037	103,033	0,080	0,067
-162,023	800,000	0,050	0,148
-161,008	77,496	0,097	0,073
-159,993	800,000	-0,040	-0,117
-158,979	135,728	-0,096	0,088
-157,964	155,885	0,157	-0,154
-156,950	-200,000	-0,000	0,051
-155,935	-5,631	0,092	-0,045
-154,920	575,126	-0,047	-0,082
-153,906	800,000	0,024	-0,068
-152,891	-48,525	-0,062	0,021
-151,877	-200,000	0,002	-0,155
-150,862	40,283	0,116	-0,074
-149,847	800,000	0,061	0,122
-148,833	800,000	0,053	-0,126
-147,818	126,466	0,079	-0,071
-146,804	-30,947	-0,046	-0,018
-145,789	7,643	0,101	0,053
-144,775	-200,000	-0,010	0,107
-143,760	-79,108	0,228	0,055
-142,745	-40,298	0,175	0,064
-141,731	800,000	-0,024	0,054
-140,716	140,352	-0,048	0,044
-139,702	447,810	0,035	0,055
-138,687	-200,000	-0,040	0,169
-137,672	-200,000	0,011	0,046
-136,658	800,000	-0,099	0,251
-135,643	-34,766	0,160	-0,061
-134,629	-0,154	-0,143	-0,072
-133,614	107,578	0,106	0,089
-132,599	135,002	-0,107	0,098
-131,585	-100,580	-0,092	0,016
-130,570	800,000	0,021	0,050
-129,556	500,672	0,027	-0,044
-128,541	800,000	-0,072	-0,160
-127,526	-161,060	-0,089	0,003
-126,512	-200,000	-0,007	0,085
-125,497	187,234	0,018	-0,019
-124,483	-73,921	0,145	0,037
-123,468	-200,000	0,003	0,019
-122,453	-68,492	-0,082	-0,022
-121,439	800,000	-0,030	-0,093
-120,424	-200,000	-0,015	-0,114
-119,410	800,000	0,015	-0,046
-118,395	165,861	0,070	-0,070
-117,380	-200,000	0,010	0,034
-116,366	-35,593	0,096	-0,037
-115,351	800,000	-0,018	-0,040
-114,337	-200,000	-0,137	0,000
-113,322	30,086	-0,078	0,047
-112,307	-60,680	-0,070	0,021
-111,293	-118,559	0,176	0,022
-110,278	651,488	-0,098	0,178
-109,264	-82,411	-0,057	-0,013
-108,249	129,041	-0,162	0,146
-107,234	-43,107	0,048	0,017
-106,220	608,205	0,066	0,116
-105,205	415,876	0,087	0,132
-104,191	92,509	0,063	0,050
-103,176	128,931	0,016	-0,015
-102,162	-200,000	-0,002	0,106
-101,147	404,433	-0,018	0,026
-100,132	-82,845	0,092	-0,021
-99,118	-96,600	-0,032	0,006
-98,103	-200,000	-0,097	0,000
-97,089	149,549	-0,107	0,103
-96,074	769,272	-0,087	0,169
-95,059	3,115	0,160	0,082
-94,045	22,276	-0,075	-0,043
-93,030	239,351	-0,049	0,057
-92,016	-200,000	-0,022	-0,074
-91,001	116,040	-0,077	0,066
-89,986	-200,000	0,007	0,084
-88,972	7,732	0,131	0,069
-87,957	800,000	0,039	0,117
-86,943	-43,995	-0,058	-0,020
-85,928	58,387	-0,028	-0,020
-84,913	65,508	-0,052	0,037
-83,899	800,000	0,060	-0,124
-82,884	-200,000	-0,029	-0,138
-81,870	287,536	-0,087	-0,111
-80,855	-97,280	-0,022	-0,004
-79,840	-200,000	0,034	0,128
-78,826	-18,325	0,062	-0,027
-77,811	-45,367	-0,118	0,041
-76,797	800,000	0,003	-0,006
-75,782	755,497	0,038	0,074
-74,767	82,485	0,134	0,102
-73,753	575,863	0,071	0,123
-72,738	26,307	0,066	0,039
-71,724	37,626	-0,051	0,032
-70,709	-33,074	0,052	0,020
-69,694	768,510	-0,060	0,115
-68,680	59,106	0,046	-0,032
-67,665	10,837	0,061	0,033
-66,651	-11,720	-0,107	0,050
-65,636	-200,000	0,021	0,122
-64,622	-80,323	-0,036	-0,008
-63,607	800,000	-0,043	0,095
-62,592	800,000	0,034	0,078
-61,578	103,572	0,022	-0,018
-60,563	-200,000	0,005	0,067
-59,549	-200,000	0,014	0,148
-58,534	30,292	-2,183	-1,312
-57,519	557,106	-1,100	-1,878
-56,505	-200,000	-0,513	-4,587
-55,490	386,712	1,023	1,495
-54,476	800,000	5,157	11,384
-53,461	-200,000	21,936	339,163
-52,446	800,000	760,987	2300,745
-51,432	533,520	1657,245	2779,173
-50,417	69,528	1655,176	1200,764
-49,403	16,657	1529,669	850,696
-48,388	10,888	1453,658	780,599
-47,373	19,068	1445,918	815,569
-46,359	14,250	1434,819	786,427
-45,344	9,176	1430,516	759,941
-44,330	9,133	1428,493	758,632
-43,315	9,068	1426,960	757,476
-42,300	9,065	1425,282	756,542
-41,286	9,104	1423,946	755,990
-40,271	9,082	1422,711	755,198
-39,257	9,083	1421,498	754,528
-38,242	9,147	1420,325	754,180
-37,227	9,088	1419,289	753,321
-36,213	9,166	1417,984	752,968
-35,198	9,139	1416,718	752,138
-34,184	9,165	1415,649	751,663
-33,169	9,079	1414,405	750,568
-32,154	9,110	1413,565	750,237
-31,140	9,081	1412,173	749,335
-30,125	9,127	1411,073	748,936
-29,111	9,138	1409,847	748,307
-28,096	9,104	1408,681	747,498
-27,082	9,018	1407,687	746,541
-26,067	9,058	1406,512	746,072
-25,052	9,080	1405,384	745,548
-24,038	9,084	1404,286	744,956
-23,023	9,000	1403,892	744,323
-22,009	9,061	1402,493	743,838
-20,994	9,050	1401,500	743,229
-19,979	9,054	1400,597	742,740
-18,965	8,984	1399,571	741,839
-17,950	8,992	1398,664	741,368
-16,936	9,013	1397,601	740,872
-15,921	8,893	1396,965	739,948
-14,906	9,004	1395,639	739,732
-13,892	8,991	1394,943	739,273
-12,877	8,986	1394,145	738,799
-11,863	8,967	1393,193	738,174
-10,848	8,970	1392,344	737,711
-9,833	8,937	1391,489	737,076
-8,819	8,875	1390,513	736,242
-7,804	8,859	1389,704	735,714
-6,790	8,890	1388,493	735,186
-5,775	8,902	1387,477	734,672
-4,760	8,871	1386,818	734,150
-3,746	8,903	1385,773	733,716
-2,731	8,919	1384,966	733,334
-1,717	8,897	1384,021	732,702
-0,702	8,883	1382,045	731,566
0,313	12,883	1293,717	703,033
1,327	28,822	684,946	408,093
2,342	45,385	118,145	76,703
3,356	0,434	16,602	8,331
4,371	5,526	3,754	1,947
5,386	-2,337	1,248	0,615
6,400	800,000	0,199	0,524
7,415	18,485	-0,236	-0,132
8,429	-159,607	-0,225	0,009
9,444	33,624	-0,353	-0,215
10,459	-22,373	-0,318	-0,135
11,473	-63,867	-0,302	-0,087
12,488	-78,514	-0,226	-0,054
13,502	-113,064	-0,313	0,043
14,517	-147,012	-0,293	-0,017
15,531	-43,475	-0,335	-0,118
16,546	72,084	-0,376	-0,275
17,561	113,906	-0,347	-0,297
18,575	70,476	-0,160	-0,116
19,590	187,871	-0,257	-0,270
20,604	-35,849	-0,287	-0,109
21,619	61,383	-0,531	-0,371
22,634	62,550	-0,405	-0,284
23,648	73,861	-0,390	-0,287
24,663	140,071	-0,390	-0,362
25,677	105,844	-0,357	-0,297
26,692	-8,253	-0,307	-0,145
27,707	49,074	-0,406	-0,268
28,721	60,046	-0,360	-0,250
29,736	36,619	-0,516	-0,320
30,750	96,770	-0,314	-0,253
31,765	26,082	-0,408	-0,239
32,780	52,627	-0,475	-0,318
33,794	38,893	-0,375	-0,235
34,809	-6,741	-0,304	-0,145
35,823	8,198	-0,390	-0,205
36,838	23,281	-0,393	-0,226
37,853	77,740	-0,390	-0,292
38,867	70,016	-0,321	-0,232
39,882	76,548	-0,318	-0,237
40,896	172,409	-0,276	-0,279
41,911	19,998	-0,242	-0,137
42,926	56,519	-0,341	-0,233
43,940	22,069	-0,363	-0,207
44,955	189,554	-0,323	-0,340
45,969	103,834	-0,258	-0,213
46,984	-3,388	-0,424	-0,207
47,999	179,270	-0,279	-0,287
49,013	82,540	-0,347	-0,264
50,028	88,615	-0,272	-0,212
51,042	138,806	-0,416	-0,384
52,057	164,457	-0,293	-0,290
53,071	58,706	-0,348	-0,239
54,086	10,339	-0,213	-0,113
55,101	-29,085	-0,316	-0,126
56,115	-70,480	-0,348	-0,092
57,130	79,077	-0,344	-0,258
58,144	2,325	-0,419	-0,212
59,159	115,532	-0,484	-0,415
60,174	33,974	-0,317	-0,193
61,188	-14,263	-0,321	-0,145
62,203	82,798	-0,325	-0,248
63,217	-22,243	-0,258	-0,109
64,232	-27,027	-0,312	-0,127
65,247	-13,398	-0,417	-0,189
66,261	55,642	-0,398	-0,270
67,276	44,519	-0,352	-0,226
68,290	-36,332	-0,462	-0,174
69,305	47,651	-0,360	-0,235
70,320	49,662	-0,338	-0,223
71,334	98,605	-0,270	-0,218
72,349	-39,458	-0,296	-0,108
73,363	-14,072	-0,309	-0,139
74,378	-7,733	-0,221	-0,104
75,393	-8,664	-0,297	-0,139
76,407	318,580	-0,248	-0,329
77,422	30,712	-0,349	-0,209
78,436	-90,541	-0,299	-0,060
79,451	-24,404	-0,364	-0,151
80,466	79,708	-0,280	-0,210
81,480	89,919	-0,378	-0,296
82,495	112,196	-0,287	-0,243
83,509	47,607	-0,271	-0,176
84,524	-85,131	-0,204	-0,044
85,539	109,804	-0,212	-0,178
86,553	53,570	-0,346	-0,232
87,568	125,644	-0,176	-0,155
88,582	87,466	-0,296	-0,229
89,597	93,028	-0,218	-0,173
90,611	104,539	-0,131	-0,108
91,626	437,658	-0,147	-0,225
92,641	14,774	-0,309	-0,169
93,655	-9,774	-0,166	-0,077
94,670	78,043	-0,370	-0,276
95,684	89,511	-0,300	-0,234
96,699	-14,636	-0,185	-0,083
97,714	187,603	-0,232	-0,242
98,728	210,805	-0,177	-0,194
99,743	160,976	-0,184	-0,179
100,757	34,764	-0,252	-0,153
101,772	64,342	-0,170	-0,119
102,787	70,382	-0,308	-0,222
103,801	180,976	-0,298	-0,306
104,816	70,178	-0,190	-0,137
105,830	301,628	-0,243	-0,314
106,845	1,141	-0,239	-0,119
107,860	169,326	-0,268	-0,267
108,874	161,389	-0,144	-0,141
109,889	117,316	-0,227	-0,195
110,903	-19,812	-0,206	-0,089
111,918	332,465	-0,196	-0,266
112,933	-75,413	-0,297	-0,073
113,947	-119,987	-0,205	-0,024
114,962	-56,405	-0,251	0,077
115,976	264,200	-0,268	-0,326
116,991	-96,557	-0,236	-0,043
118,006	-11,864	-0,463	-0,211
119,020	60,583	-0,120	-0,083
120,035	165,816	-0,212	-0,209
121,049	-27,823	-0,261	-0,105
122,064	92,682	-0,322	-0,253
123,079	384,125	-0,128	-0,184
124,093	25,775	-0,205	-0,119
125,108	6,675	-0,281	-0,146
126,122	25,434	-0,305	-0,176
127,137	124,443	-0,276	-0,242
128,151	66,359	-0,253	-0,179
129,166	-12,252	-0,360	-0,164
130,181	-7,687	-0,225	-0,106
131,195	204,427	-0,225	-0,243
132,210	257,667	-0,186	-0,223
133,224	43,743	-0,321	-0,204
134,239	539,421	-0,105	-0,175
135,254	800,000	-0,027	-0,056
136,268	43,294	-0,246	-0,156
137,283	-43,048	-0,117	-0,041
138,297	337,685	-0,253	-0,344
139,312	-43,701	-0,331	-0,115
140,327	317,030	-0,172	-0,226
141,341	426,296	-0,139	-0,209
142,356	210,105	-0,200	-0,218
143,370	85,287	-0,182	-0,139
144,385	205,433	-0,242	-0,262
145,400	51,113	-0,168	-0,110
146,414	19,745	-0,323	-0,181
147,429	78,742	-0,258	-0,192
148,443	208,223	-0,120	-0,130
149,458	155,998	-0,176	-0,169
150,473	-2,848	-0,287	-0,139
151,487	206,096	-0,266	-0,289
152,502	800,000	-0,091	-0,208
153,516	95,026	-0,267	-0,212
154,531	86,289	-0,386	-0,295
155,546	-96,855	-0,167	-0,030
156,560	-27,441	-0,232	-0,094
157,575	-17,363	-0,245	-0,107
158,589	-70,747	-0,339	-0,088
159,604	275,264	-0,175	-0,216
160,619	124,543	-0,315	-0,276
161,633	513,238	-0,186	-0,302
162,648	178,345	-0,221	-0,225
163,662	91,599	-0,077	-0,060
164,677	11,788	-0,190	-0,101
165,692	732,007	-0,129	-0,240
166,706	74,761	-0,207	-0,151
167,721	70,986	-0,332	-0,239
168,735	-78,670	-0,338	-0,080
169,750	214,677	-0,138	-0,152
170,764	97,401	-0,245	-0,195
171,779	-116,244	-0,165	-0,021
172,794	292,705	-0,084	-0,107
173,808	173,262	-0,191	-0,191
174,823	136,418	-0,208	-0,188
175,837	570,558	-0,122	-0,207
176,852	-18,416	-0,283	-0,122
177,867	286,551	-0,235	-0,295
178,881	-22,785	-0,167	-0,070
179,896	-188,557	-0,297	0,002
180,910	-97,533	-0,227	-0,041
181,925	-8,209	-0,139	-0,065
182,940	-69,212	-0,217	-0,058
183,954	22,788	-0,208	-0,118
184,969	-40,395	-0,202	-0,072
185,983	-36,380	-0,140	0,052
186,998	-15,993	-0,183	0,080
188,013	15,214	-0,252	-0,137
189,027	-154,592	-0,214	-0,010
190,042	-40,616	-0,228	-0,082
191,056	594,935	-0,116	-0,199
192,071	173,621	-0,150	-0,151
193,086	-30,167	-0,264	-0,103
194,100	-24,620	-0,176	-0,072
195,115	-60,280	-0,187	-0,055
196,129	205,009	-0,219	-0,235
197,144	291,099	-0,199	-0,252
198,159	-26,359	-0,296	-0,120
199,173	97,059	-0,229	-0,182
200,188	-44,136	-0,210	-0,073
201,202	-14,569	-0,118	-0,052
202,217	256,089	-0,150	-0,179
203,232	143,499	-0,169	-0,156
204,246	84,448	-0,253	-0,191
205,261	227,896	-0,180	-0,203
206,275	-46,737	-0,305	-0,103
207,290	230,974	-0,161	-0,182
208,304	-78,597	-0,326	-0,077
209,319	-39,945	-0,301	-0,108
210,334	-24,820	-0,197	-0,081
211,348	219,656	-0,226	-0,251
212,363	-200,000	-0,025	-0,251
213,377	189,455	-0,163	-0,170
214,392	597,313	-0,045	0,078
215,407	45,191	-0,262	-0,167
216,421	-69,810	-0,262	-0,069
217,436	96,202	-0,210	-0,166
218,450	153,394	-0,072	-0,069
219,465	215,407	-0,138	-0,151
220,480	272,245	-0,151	-0,185
221,494	133,825	-0,151	-0,135
222,509	48,812	-0,160	-0,103
223,523	-75,532	-0,315	-0,077
224,538	91,306	-0,240	-0,186
225,553	0,594	-0,286	-0,141
226,567	41,613	-0,220	-0,138
227,582	-128,091	-0,267	-0,026
228,596	547,096	-0,102	-0,169
229,611	66,657	-0,205	-0,144
230,626	-12,165	-0,125	-0,056
231,640	17,433	-0,269	-0,147
232,655	-1,537	-0,191	0,093
233,669	-17,113	-0,230	-0,100
234,684	800,000	-0,060	-0,121
235,699	262,061	-0,091	-0,110
236,713	108,054	-0,233	-0,192
237,728	228,579	-0,179	-0,201
238,742	272,746	-0,176	-0,215
239,757	149,990	-0,248	-0,232
240,772	79,361	-0,243	-0,180
241,786	107,697	-0,232	-0,190
242,801	-120,147	-0,215	0,025
243,815	545,168	-0,103	-0,171
244,830	-2,537	-0,109	-0,052
245,844	100,200	-0,151	0,121
246,859	35,497	-0,332	-0,201
247,874	82,787	-0,252	-0,189
248,888	617,589	-0,159	-0,276
249,903	6,106	-0,180	-0,092
250,917	87,944	-0,078	-0,060
251,932	454,295	-0,057	-0,087
252,947	275,644	-0,118	-0,144
253,961	86,864	-0,212	-0,161
254,976	-200,000	0,026	-0,210
255,990	-20,208	-0,135	-0,057
257,005	-200,000	-0,035	-0,153
258,020	-149,057	-0,167	-0,009
259,034	78,059	-0,134	-0,098
260,049	-71,401	-0,222	-0,057
261,063	126,807	-0,213	-0,186
262,078	249,898	-0,160	-0,187
263,093	-23,802	-0,172	-0,071
264,107	189,325	-0,169	-0,174
265,122	-134,225	-0,257	-0,021
266,136	366,649	-0,031	-0,043
267,151	623,505	-0,082	-0,142
268,166	257,774	-0,107	-0,127
269,180	-24,184	-0,261	-0,107
270,195	-71,194	-0,131	0,034
271,209	-200,000	-0,048	-0,279
272,224	-27,077	-0,227	-0,091
273,239	38,001	-0,302	-0,184
274,253	61,767	-0,106	-0,072
275,268	-36,893	-0,239	-0,088
276,282	1,185	-0,152	-0,075
277,297	800,000	-0,120	-0,245
278,312	126,427	-0,168	-0,146
279,326	59,281	-0,113	-0,076
280,341	44,189	-0,151	-0,095
281,355	800,000	-0,096	-0,241
282,370	363,025	-0,107	-0,149
283,384	-57,579	-0,161	-0,048
284,399	50,930	-0,177	-0,115
285,414	800,000	-0,132	-0,253
286,428	112,703	-0,191	-0,159
287,443	-5,097	-0,155	-0,073
288,457	-72,727	-0,088	-0,022
289,472	32,675	-0,032	-0,019
290,487	287,446	-0,103	-0,129
291,501	199,625	-0,191	-0,202
292,516	424,028	-0,139	-0,206
293,530	513,647	-0,120	-0,194
294,545	138,941	-0,108	-0,097
295,560	-14,142	-0,151	-0,067
296,574	390,944	-0,072	-0,103
297,589	-31,834	-0,170	0,065
298,603	105,524	-0,142	-0,115
299,618	162,823	-0,103	-0,100
300,633	-200,000	0,005	-0,036
301,647	438,703	-0,120	-0,180
302,662	173,157	-0,126	0,125
303,676	-46,559	-0,126	0,042
304,691	161,577	-0,075	-0,072
305,706	21,648	-0,087	-0,048
306,720	32,182	-0,178	-0,105
307,735	-159,196	-0,179	-0,007
308,749	-94,085	-0,168	0,031
309,764	82,305	-0,169	-0,126
310,779	437,825	-0,110	-0,165
311,793	-98,651	-0,132	0,023
312,808	-200,000	-0,024	-0,223
313,822	45,891	-0,107	0,068
314,837	-200,000	-0,058	-0,194
315,852	167,221	-0,086	-0,084
316,866	-9,939	-0,161	-0,073
317,881	-138,609	-0,162	-0,012
318,895	112,377	-0,192	-0,159
319,910	800,000	-0,095	-0,238
320,925	800,000	-0,077	-0,212
321,939	-37,289	-0,120	-0,044
322,954	-66,359	-0,126	0,034
323,968	183,586	-0,108	-0,110
324,983	239,902	-0,090	-0,103
325,997	-37,023	-0,105	-0,038
327,012	800,000	-0,062	-0,185
328,027	267,765	-0,166	-0,199
329,041	120,955	-0,078	0,066
330,056	476,398	-0,076	-0,118
331,070	-66,705	-0,126	-0,034
332,085	562,319	-0,037	-0,062
333,100	-200,000	-0,034	-0,143
334,114	97,494	-0,095	-0,075
335,129	123,081	-0,174	-0,149
336,143	-26,002	-0,252	-0,101
337,158	-2,018	-0,171	-0,082
338,173	95,937	-0,104	-0,081
339,187	-98,518	-0,087	0,015
340,202	39,898	-0,225	-0,138
341,216	103,853	-0,223	-0,179
342,231	-48,906	-0,118	-0,039
343,246	222,937	-0,183	-0,202
344,260	-200,000	-0,075	-0,313
345,275	800,000	-0,025	-0,066
346,289	37,991	-0,066	-0,040
347,304	127,836	-0,113	-0,098
348,319	474,327	-0,147	-0,228
349,333	91,193	-0,222	-0,170
350,348	434,594	-0,112	-0,167
351,362	-117,055	-0,224	-0,028
352,377	30,778	-0,114	-0,066
353,392	31,311	-0,205	-0,120
354,406	-33,896	-0,119	0,045
355,421	208,265	1311,617	1402,773
356,435	160,247	1471,911	1403,231
