DTS Sentinel unit serial number:	SN410029Multiplexer serial number:	ORYXHardware model number:	OX2-SRSoftware version number:	ORYX F/W v4,00 Oryx Data Collector v3.7.2.0data status	okinstallation	B3 Nyhavnadifferential loss correction	single-endedforward channel	channel 1reverse channel	N/Adate	2023/11/29time	23:27:30forward acquisition time	300,00reverse acquisition time	0,00gamma	499,1914k internal	0,3210k external	0,3210temperature offset calibration	1,0000default loss term (dB/km)	0,3820temperature slope calibration	1,0000multiplexer offset coefficient	1,0000multiplexer slope coefficient	1,0000fibre end	0,00T internal ref (°C)	10,90T ext. ref 1 (°C)	-3,98T ext. ref 2 (°C)	-4,06length (m)	temperature (°C)	Stokes	anti-Stokes-744,400	787,323	-0,102	-0,204
-743,385	-200,000	-0,016	0,197
-742,371	29,402	-0,241	-0,148
-741,356	-200,000	0,067	0,351
-740,342	-4,709	-0,240	-0,120
-739,327	-200,000	-0,048	0,317
-738,312	-200,000	-0,049	-0,181
-737,298	727,234	-0,120	0,233
-736,283	467,154	-0,122	-0,199
-735,269	800,000	0,122	0,309
-734,254	-200,000	-0,045	-0,218
-733,239	18,747	-0,177	-0,102
-732,225	178,339	-0,137	-0,146
-731,210	379,734	0,059	0,088
-730,196	140,574	-0,052	-0,050
-729,181	-200,000	0,033	-0,148
-728,167	-24,365	-0,046	-0,020
-727,152	34,843	0,045	0,028
-726,137	369,956	-0,064	0,094
-725,123	1,645	-0,053	-0,028
-724,108	-200,000	-0,008	-0,035
-723,094	255,560	-0,074	-0,092
-722,079	-102,323	-0,092	-0,016
-721,064	800,000	0,045	-0,106
-720,050	-200,000	0,003	0,033
-719,035	800,000	-0,040	0,106
-718,021	136,818	-0,125	0,119
-717,006	-200,000	-0,010	-0,045
-715,991	734,516	0,054	-0,105
-714,977	-200,000	-0,032	-0,110
-713,962	24,593	-0,052	0,031
-712,948	266,212	-0,136	-0,172
-711,933	330,534	0,039	0,054
-710,918	372,543	0,045	0,067
-709,904	-62,363	0,042	0,012
-708,889	800,000	-0,079	-0,182
-707,875	800,000	-0,068	-0,161
-706,860	-109,291	0,066	0,010
-705,845	729,431	-0,055	-0,108
-704,831	-200,000	-0,010	0,078
-703,816	299,914	-0,066	0,088
-702,802	-19,550	-0,131	-0,059
-701,787	139,945	-0,132	-0,126
-700,772	-5,749	0,087	-0,043
-699,758	236,249	0,077	-0,092
-698,743	24,466	0,041	0,025
-697,729	127,318	0,029	-0,027
-696,714	-24,344	-0,077	-0,033
-695,699	93,458	-0,066	-0,054
-694,685	8,354	-0,111	-0,060
-693,670	-200,000	-0,028	-0,177
-692,656	-70,889	-0,235	-0,064
-691,641	70,556	0,024	-0,018
-690,627	-33,262	0,146	-0,058
-689,612	800,000	-0,030	0,063
-688,597	202,055	-0,082	-0,092
-687,583	690,217	-0,023	-0,045
-686,568	-43,116	-0,093	0,034
-685,554	3,637	0,130	0,068
-684,539	-64,455	-0,035	-0,010
-683,524	-200,000	0,020	-0,122
-682,510	-200,000	-0,003	-0,032
-681,495	789,555	-0,037	-0,073
-680,481	800,000	-0,068	-0,145
-679,466	-37,693	-0,156	-0,060
-678,451	-39,282	-0,118	-0,044
-677,437	20,386	-0,042	-0,024
-676,422	-200,000	-0,007	0,083
-675,408	-200,000	0,010	0,114
-674,393	169,560	-0,042	-0,043
-673,378	800,000	-0,038	-0,118
-672,364	205,541	0,045	0,051
-671,349	-200,000	-0,017	-0,094
-670,335	-200,000	0,003	0,079
-669,320	-200,000	0,006	-0,148
-668,305	800,000	-0,026	-0,073
-667,291	176,115	-0,102	0,107
-666,276	-154,188	-0,088	0,004
-665,262	79,390	-0,146	-0,113
-664,247	286,733	-0,080	-0,105
-663,232	-200,000	-0,016	-0,166
-662,218	-74,075	0,062	-0,016
-661,203	800,000	0,021	-0,056
-660,189	-150,740	-0,147	-0,008
-659,174	-200,000	0,036	0,124
-658,159	727,019	-0,107	-0,208
-657,145	-200,000	-0,044	-0,141
-656,130	800,000	-0,066	-0,190
-655,116	228,892	-0,076	-0,090
-654,101	-94,255	0,047	0,009
-653,086	-164,726	-0,097	0,003
-652,072	-19,194	-0,137	-0,061
-651,057	-200,000	-0,005	-0,041
-650,043	327,859	-0,031	-0,043
-649,028	800,000	0,027	0,082
-648,014	-141,489	0,138	-0,010
-646,999	-177,452	-0,139	-0,002
-645,984	191,619	-0,049	0,054
-644,970	81,462	0,117	-0,091
-643,955	-91,227	-0,075	-0,015
-642,941	800,000	-0,035	-0,080
-641,926	219,408	0,044	0,051
-640,911	10,118	0,015	-0,008
-639,897	78,741	0,078	0,060
-638,882	108,920	-0,081	-0,070
-637,868	-90,346	0,061	0,013
-636,853	800,000	-0,059	-0,158
-635,838	-30,697	-0,064	-0,026
-634,824	329,584	0,067	-0,093
-633,809	-200,000	0,002	0,061
-632,795	-200,000	-0,030	0,120
-631,780	27,989	0,040	0,024
-630,765	158,763	-0,061	0,061
-629,751	120,162	-0,088	0,079
-628,736	-200,000	0,027	-0,130
-627,722	460,832	-0,064	-0,103
-626,707	-200,000	0,023	0,165
-625,692	30,336	-0,033	0,020
-624,678	105,877	0,118	0,101
-623,663	-200,000	-0,025	0,104
-622,649	16,461	-0,129	-0,073
-621,634	800,000	-0,018	0,042
-620,619	-59,937	0,095	-0,029
-619,605	-40,784	-0,029	0,011
-618,590	-200,000	-0,001	0,063
-617,576	456,906	-0,102	0,165
-616,561	-23,677	-0,056	-0,024
-615,546	192,529	0,077	-0,085
-614,532	-18,607	-0,084	0,038
-613,517	398,555	-0,021	-0,032
-612,503	53,980	0,042	-0,029
-611,488	-8,873	0,121	0,058
-610,474	359,162	0,035	-0,050
-609,459	238,199	0,016	-0,019
-608,444	319,691	-0,073	0,101
-607,430	-85,661	-0,051	0,011
-606,415	-200,000	-0,014	-0,056
-605,401	-99,393	0,064	0,011
-604,386	684,579	0,082	0,156
-603,371	289,906	0,076	0,099
-602,357	487,183	-0,077	-0,128
-601,342	171,164	0,037	-0,038
-600,328	-200,000	0,016	-0,117
-599,313	-163,212	-0,072	-0,002
-598,298	-140,750	0,142	-0,010
-597,284	-200,000	0,002	-0,060
-596,269	-200,000	-0,001	0,032
-595,255	-200,000	0,018	-0,067
-594,240	-200,000	0,010	-0,158
-593,225	-37,657	-0,064	-0,024
-592,211	20,397	-0,038	0,022
-591,196	35,331	-0,140	-0,089
-590,182	-72,199	-0,047	0,013
-589,167	259,607	0,038	-0,047
-588,152	-52,532	0,073	0,024
-587,138	-200,000	0,007	-0,074
-586,123	-174,227	-0,099	0,002
-585,109	115,111	-0,013	0,011
-584,094	-102,814	0,079	0,013
-583,079	-200,000	0,025	0,128
-582,065	-200,000	-0,017	0,146
-581,050	-117,894	0,127	-0,016
-580,036	42,116	-0,104	0,068
-579,021	-36,281	-0,061	-0,024
-578,006	800,000	-0,020	-0,060
-576,992	185,530	0,121	-0,130
-575,977	417,188	0,027	-0,041
-574,963	598,791	0,029	0,052
-573,948	-134,171	-0,052	-0,005
-572,934	59,162	-0,131	-0,093
-571,919	-200,000	-0,024	0,099
-570,904	132,402	-0,050	0,047
-569,890	171,031	0,067	-0,069
-568,875	-97,668	-0,056	0,010
-567,861	-200,000	-0,007	-0,053
-566,846	-104,558	-0,164	0,027
-565,831	-92,832	-0,110	0,022
-564,817	3,447	-0,091	-0,047
-563,802	-200,000	0,009	-0,037
-562,788	-200,000	-0,012	-0,077
-561,773	-200,000	-0,036	-0,124
-560,758	280,056	-0,011	-0,014
-559,744	-200,000	0,014	0,052
-558,729	-108,295	-0,064	0,010
-557,715	-130,236	-0,038	0,004
-556,700	-200,000	0,004	-0,090
-555,685	210,800	0,023	-0,027
-554,671	3,810	0,058	-0,030
-553,656	800,000	-0,012	0,031
-552,642	58,648	0,107	0,076
-551,627	-200,000	-0,007	0,033
-550,612	-19,794	0,037	0,016
-549,598	430,653	-0,098	-0,154
-548,583	-200,000	0,018	-0,199
-547,569	-71,025	-0,115	0,031
-546,554	164,437	0,103	0,105
-545,539	800,000	-0,018	-0,053
-544,525	-69,350	-0,056	0,015
-543,510	243,254	0,065	-0,078
-542,496	-145,466	-0,101	0,006
-541,481	141,010	-0,144	-0,137
-540,466	-200,000	0,022	-0,153
-539,452	800,000	0,029	0,071
-538,437	-25,257	0,139	-0,059
-537,423	38,185	0,063	-0,040
-536,408	256,679	0,073	-0,090
-535,393	6,741	-0,142	-0,076
-534,379	-24,328	0,033	-0,014
-533,364	168,030	-0,105	-0,107
-532,350	-200,000	-0,019	-0,086
-531,335	-50,316	-0,042	0,014
-530,321	-102,927	0,076	0,013
-529,306	800,000	-0,041	0,106
-528,291	71,410	-0,036	-0,027
-527,277	-42,937	-0,045	-0,016
-526,262	-162,778	-0,024	-0,001
-525,248	149,806	0,108	0,105
-524,233	-200,000	0,019	0,148
-523,218	-2,142	0,119	0,060
-522,204	85,837	0,086	0,068
-521,189	13,877	-0,095	-0,053
-520,175	30,801	0,071	0,044
-519,160	102,243	0,052	0,044
-518,145	663,780	-0,023	-0,043
-517,131	800,000	0,031	0,073
-516,116	-34,610	0,062	0,024
-515,102	3,035	0,071	-0,037
-514,087	175,800	-0,065	-0,067
-513,072	-200,000	0,000	-0,027
-512,058	-122,605	-0,043	-0,005
-511,043	-44,999	0,107	0,038
-510,029	-187,507	0,015	0,000
-509,014	576,582	0,057	0,101
-507,999	28,410	-0,018	-0,011
-506,985	46,116	-0,033	0,022
-505,970	119,021	-0,085	-0,075
-504,956	800,000	0,026	-0,079
-503,941	-99,038	0,046	-0,008
-502,926	-200,000	0,012	0,104
-501,912	491,853	-0,121	0,201
-500,897	-86,384	0,058	0,013
-499,883	-200,000	-0,021	-0,076
-498,868	-80,549	-0,099	0,024
-497,853	291,994	0,060	-0,079
-496,839	131,414	0,126	-0,116
-495,824	67,074	0,124	0,091
-494,810	-112,327	-0,098	-0,014
-493,795	255,895	0,052	-0,064
-492,781	84,009	0,024	0,019
-491,766	638,606	-0,031	-0,056
-490,751	89,663	0,048	0,038
-489,737	710,854	-0,012	-0,023
-488,722	69,397	-0,073	-0,054
-487,708	-55,463	0,250	0,080
-486,693	-200,000	-0,018	0,103
-485,678	267,584	-0,114	-0,144
-484,664	29,972	0,033	0,020
-483,649	-200,000	0,004	-0,102
-482,635	356,229	-0,022	-0,031
-481,620	-200,000	-0,011	0,086
-480,605	-2,828	0,154	0,077
-479,591	259,937	0,047	-0,058
-478,576	800,000	0,041	0,110
-477,562	1,618	0,035	-0,018
-476,547	-200,000	0,026	-0,083
-475,532	-200,000	-0,003	0,104
-474,518	69,473	0,091	0,067
-473,503	23,329	-0,124	-0,073
-472,489	407,467	0,108	0,165
-471,474	78,762	-0,081	0,062
-470,459	-200,000	-0,029	0,206
-469,445	800,000	0,034	0,070
-468,430	-36,429	-0,117	0,045
-467,416	-76,615	0,039	0,010
-466,401	116,941	0,054	-0,047
-465,386	377,662	0,080	0,118
-464,372	-200,000	0,028	-0,103
-463,357	396,498	0,055	0,083
-462,343	800,000	-0,056	-0,163
-461,328	800,000	-0,076	-0,198
-460,313	800,000	0,043	0,093
-459,299	-64,230	0,108	-0,031
-458,284	68,445	-0,102	-0,075
-457,270	-34,000	0,066	0,026
-456,255	-181,695	-0,058	-0,001
-455,241	800,000	-0,036	-0,085
-454,226	-200,000	-0,007	0,043
-453,211	800,000	0,028	-0,066
-452,197	419,391	-0,044	-0,068
-451,182	-200,000	0,001	-0,036
-450,168	-200,000	-0,014	-0,091
-449,153	793,366	0,088	-0,175
-448,138	-166,042	0,034	-0,001
-447,124	-105,428	-0,114	-0,018
-446,109	123,663	0,061	-0,055
-445,095	-200,000	0,008	0,245
-444,080	69,660	0,062	-0,046
-443,065	195,862	0,034	-0,037
-442,051	65,044	-0,129	-0,093
-441,036	-200,000	0,028	-0,093
-440,022	4,542	0,051	0,027
-439,007	-200,000	-0,003	-0,012
-437,992	242,411	-0,036	-0,043
-436,978	36,425	-0,037	-0,023
-435,963	-64,105	-0,106	-0,031
-434,949	800,000	-0,006	0,015
-433,934	-200,000	0,022	-0,112
-432,919	-200,000	-0,001	-0,075
-431,905	-86,523	-0,116	-0,025
-430,890	-200,000	-0,025	-0,122
-429,876	47,486	0,063	-0,042
-428,861	-10,988	-0,021	-0,010
-427,846	-200,000	0,019	-0,088
-426,832	17,575	0,018	0,010
-425,817	72,599	-0,105	-0,079
-424,803	270,867	-0,090	-0,114
-423,788	96,174	0,102	-0,083
-422,773	-200,000	-0,024	-0,096
-421,759	-200,000	0,000	0,069
-420,744	11,858	-0,094	-0,052
-419,730	-198,130	0,151	0,001
-418,715	398,639	-0,056	-0,084
-417,701	43,925	-0,104	0,068
-416,686	44,811	0,085	-0,056
-415,671	-159,283	0,059	0,002
-414,657	-200,000	-0,017	-0,146
-413,642	311,916	-0,103	-0,138
-412,628	-23,564	0,063	0,027
-411,613	-21,806	-0,122	0,053
-410,598	-100,291	-0,059	-0,010
-409,584	-85,814	0,019	0,004
-408,569	-43,050	0,014	0,005
-407,555	-145,635	0,131	-0,008
-406,540	43,837	0,009	-0,006
-405,525	-4,901	0,049	-0,024
-404,511	-73,659	0,074	-0,019
-403,496	76,538	0,067	-0,051
-402,482	-4,310	-0,105	0,052
-401,467	86,837	0,101	0,080
-400,452	-112,561	0,043	-0,006
-399,438	-116,686	0,048	-0,006
-398,423	-45,890	-0,019	0,007
-397,409	800,000	0,041	-0,104
-396,394	-17,016	0,037	-0,017
-395,379	-15,827	0,102	0,046
-394,365	-85,143	0,063	-0,014
-393,350	369,162	0,085	0,124
-392,336	-200,000	0,022	0,101
-391,321	-124,230	-0,068	-0,007
-390,306	-200,000	-0,037	-0,204
-389,292	-86,903	-0,212	-0,046
-388,277	-200,000	0,001	0,038
-387,263	234,672	0,094	0,111
-386,248	601,845	0,075	0,133
-385,233	-200,000	-0,026	0,172
-384,219	171,149	0,056	0,057
-383,204	460,814	0,046	-0,074
-382,190	-64,420	-0,038	-0,011
-381,175	-86,812	-0,080	0,017
-380,160	-113,045	0,038	-0,005
-379,146	34,957	0,076	0,047
-378,131	800,000	0,024	-0,052
-377,117	23,150	0,041	0,024
-376,102	-169,190	-0,111	-0,003
-375,088	340,730	-0,071	-0,099
-374,073	800,000	-0,023	-0,070
-373,058	-200,000	-0,007	0,039
-372,044	-48,372	-0,042	-0,014
-371,029	-32,521	0,195	-0,077
-370,015	-200,000	-0,028	0,128
-369,000	-34,139	-0,070	0,028
-367,985	800,000	0,038	-0,093
-366,971	-200,000	-0,010	-0,088
-365,956	93,505	0,089	0,072
-364,942	19,930	0,123	-0,071
-363,927	-38,419	-0,095	0,036
-362,912	246,020	-0,094	-0,113
-361,898	41,327	0,095	0,061
-360,883	584,448	0,023	-0,040
-359,869	200,919	0,012	-0,013
-358,854	-95,845	0,153	0,029
-357,839	-200,000	0,002	0,171
-356,825	529,953	0,064	0,108
-355,810	-200,000	-0,009	0,052
-354,796	37,090	0,110	0,069
-353,781	-165,924	-0,139	-0,004
-352,766	-90,836	0,076	-0,015
-351,752	-131,822	0,068	0,006
-350,737	-22,259	0,135	0,058
-349,723	182,760	0,074	0,078
-348,708	163,250	-0,039	-0,040
-347,693	25,282	0,029	0,017
-346,679	-17,764	-0,177	-0,079
-345,664	800,000	-0,026	-0,055
-344,650	-133,757	0,049	0,004
-343,635	-40,762	-0,050	-0,018
-342,620	-51,234	-0,071	-0,023
-341,606	60,368	0,081	0,057
-340,591	249,733	-0,050	0,060
-339,577	-200,000	0,035	0,202
-338,562	800,000	-0,008	-0,017
-337,548	-200,000	-0,018	0,085
-336,533	-200,000	-0,023	-0,095
-335,518	800,000	0,059	0,134
-334,504	800,000	0,045	0,112
-333,489	-200,000	-0,018	0,077
-332,475	-32,991	-0,108	-0,042
-331,460	-200,000	-0,016	-0,157
-330,445	-116,585	-0,048	-0,006
-329,431	-200,000	-0,028	0,112
-328,416	-23,665	0,121	0,052
-327,402	422,325	-0,041	0,064
-326,387	-200,000	-0,007	0,159
-325,372	-200,000	-0,015	0,078
-324,358	-54,770	-0,044	-0,014
-323,343	-139,585	0,191	-0,014
-322,329	282,007	-0,041	0,053
-321,314	-86,138	0,168	-0,037
-320,299	800,000	-0,030	0,077
-319,285	211,222	0,003	0,004
-318,270	506,855	0,047	-0,078
-317,256	800,000	0,032	0,079
-316,241	745,908	-0,079	0,152
-315,226	127,801	-0,012	0,011
-314,212	93,440	-0,060	-0,048
-313,197	88,315	0,049	0,039
-312,183	25,707	-0,065	0,038
-311,168	800,000	-0,040	0,084
-310,153	-200,000	0,008	-0,074
-309,139	-33,814	0,064	0,025
-308,124	420,270	0,032	-0,050
-307,110	-200,000	-0,000	0,077
-306,095	-200,000	-0,030	0,136
-305,080	-145,084	-0,136	-0,009
-304,066	69,712	-0,097	-0,071
-303,051	262,895	-0,027	-0,033
-302,037	43,388	-0,020	0,013
-301,022	-54,535	-0,070	-0,023
-300,008	446,842	0,077	-0,121
-298,993	-200,000	-0,007	0,059
-297,978	-158,623	-0,098	0,004
-296,964	257,289	-0,073	-0,089
-295,949	-200,000	0,026	-0,104
-294,935	-51,505	-0,110	0,037
-293,920	800,000	-0,043	-0,089
-292,905	-171,904	0,155	-0,004
-291,891	86,074	0,047	0,037
-290,876	-200,000	0,016	0,060
-289,862	715,240	-0,036	0,068
-288,847	46,264	-0,052	-0,034
-287,832	-83,661	-0,075	0,017
-286,818	154,931	0,023	0,022
-285,803	-62,382	0,123	0,036
-284,789	43,775	0,088	0,057
-283,774	103,691	-0,099	0,083
-282,759	-200,000	0,021	-0,141
-281,745	221,595	-0,145	-0,166
-280,730	800,000	-0,013	0,030
-279,716	800,000	-0,038	0,115
-278,701	176,915	0,078	0,081
-277,686	-200,000	0,004	-0,071
-276,672	77,640	0,039	-0,029
-275,657	-29,020	0,112	-0,046
-274,643	61,466	-0,075	0,053
-273,628	-7,193	-0,006	-0,003
-272,613	180,936	0,067	-0,070
-271,599	72,928	0,108	-0,080
-270,584	-200,000	0,006	0,037
-269,570	8,633	-0,019	-0,010
-268,555	247,538	0,044	0,053
-267,540	-99,113	0,102	-0,018
-266,526	-200,000	-0,026	-0,209
-265,511	-200,000	-0,006	-0,142
-264,497	-97,828	-0,016	0,003
-263,482	-178,669	0,165	-0,003
-262,467	118,176	-0,024	0,021
-261,453	-93,919	-0,065	-0,013
-260,438	218,345	-0,089	-0,101
-259,424	17,621	-0,010	-0,006
-258,409	-200,000	-0,029	-0,152
-257,395	54,429	-0,060	0,041
-256,380	-175,387	-0,061	-0,001
-255,365	-140,139	0,075	-0,006
-254,351	800,000	0,025	-0,067
-253,336	544,349	0,077	0,131
-252,322	358,788	-0,055	0,078
-251,307	-42,228	0,052	0,019
-250,292	-200,000	-0,047	-0,187
-249,278	-56,726	0,050	0,016
-248,263	186,609	-0,052	-0,055
-247,249	58,944	0,049	-0,034
-246,234	147,316	-0,132	0,126
-245,219	118,943	-0,009	-0,008
-244,205	-200,000	0,005	0,018
-243,190	112,578	0,042	-0,036
-242,176	427,777	0,075	0,115
-241,161	-200,000	0,004	0,120
-240,146	-200,000	-0,004	0,021
-239,132	-143,051	0,050	-0,003
-238,117	238,058	-0,090	-0,107
-237,103	-200,000	0,031	-0,100
-236,088	-56,666	0,052	-0,016
-235,073	386,015	-0,053	0,078
-234,059	91,156	0,106	0,084
-233,044	800,000	0,047	0,095
-232,030	74,172	0,046	0,034
-231,015	-200,000	-0,019	-0,083
-230,000	-121,003	-0,109	0,013
-228,986	-154,508	0,059	0,003
-227,971	22,796	0,033	-0,019
-226,957	-200,000	0,001	0,028
-225,942	233,875	0,104	0,122
-224,927	34,266	-0,134	0,083
-223,913	374,325	-0,045	0,066
-222,898	-157,171	-0,212	-0,009
-221,884	311,849	-0,092	-0,122
-220,869	-200,000	-0,000	0,048
-219,855	800,000	0,039	0,105
-218,840	800,000	0,008	0,024
-217,825	43,067	-0,057	0,037
-216,811	-8,658	-0,037	0,018
-215,796	-200,000	-0,008	0,057
-214,782	3,143	-0,047	-0,024
-213,767	-23,664	-0,176	0,075
-212,752	-173,765	0,082	0,002
-211,738	65,552	-0,080	0,058
-210,723	-10,766	0,018	0,009
-209,709	28,765	-0,102	-0,061
-208,694	800,000	-0,068	-0,156
-207,679	800,000	-0,022	-0,062
-206,665	152,566	0,087	0,085
-205,650	-200,000	-0,011	-0,043
-204,636	-61,548	0,041	-0,012
-203,621	-38,462	0,103	0,038
-202,606	-103,368	0,086	-0,014
-201,592	-131,315	-0,103	0,010
-200,577	413,102	-0,050	0,075
-199,563	-200,000	0,004	-0,067
-198,548	800,000	-0,019	0,055
-197,533	-121,360	-0,082	0,010
-196,519	167,932	0,074	0,075
-195,504	-200,000	0,016	0,049
-194,490	542,473	0,022	-0,038
-193,475	68,361	-0,070	0,051
-192,460	517,461	0,051	-0,086
-191,446	-35,901	0,120	-0,046
-190,431	-123,572	-0,052	-0,006
-189,417	-2,432	0,086	0,043
-188,402	46,654	0,028	-0,018
-187,387	37,378	-0,043	-0,027
-186,373	165,089	-0,039	0,039
-185,358	-58,542	-0,096	-0,029
-184,344	223,303	-0,022	0,025
-183,329	53,202	0,024	-0,016
-182,315	-200,000	0,011	0,036
-181,300	800,000	0,042	-0,091
-180,285	-200,000	-0,038	0,164
-179,271	-59,921	0,055	-0,016
-178,256	-200,000	0,011	0,086
-177,242	800,000	0,027	0,058
-176,227	164,986	0,064	0,064
-175,212	-65,445	0,035	0,010
-174,198	-0,713	-0,080	0,040
-173,183	-200,000	-0,021	0,139
-172,169	-20,919	-0,112	-0,048
-171,154	268,462	-0,074	-0,092
-170,139	34,553	0,065	-0,040
-169,125	-200,000	0,028	0,125
-168,110	-144,301	-0,093	0,006
-167,096	-200,000	-0,005	0,095
-166,081	-200,000	0,003	0,081
-165,066	-200,000	-0,030	-0,283
-164,052	-136,854	-0,067	0,005
-163,037	-184,127	0,081	-0,001
-162,023	32,222	-0,072	0,044
-161,008	-200,000	-0,005	-0,019
-159,993	-0,738	0,015	-0,008
-158,979	383,558	-0,106	0,155
-157,964	167,555	-0,093	0,093
-156,950	194,021	-0,068	-0,073
-155,935	-109,770	0,121	0,018
-154,920	11,781	0,192	0,104
-153,906	-104,639	0,061	-0,010
-152,891	43,416	-0,084	0,054
-151,877	-128,717	-0,232	0,023
-150,862	-30,085	-0,063	0,025
-149,847	367,234	-0,045	0,065
-148,833	-60,346	0,154	0,046
-147,818	366,308	-0,069	0,099
-146,804	800,000	0,045	0,140
-145,789	-131,843	0,055	-0,005
-144,775	2,283	0,137	0,070
-143,760	410,484	-0,011	0,017
-142,745	-46,861	0,114	-0,039
-141,731	31,778	0,080	0,049
-140,716	800,000	0,023	0,054
-139,702	71,304	0,048	-0,035
-138,687	116,377	0,042	-0,037
-137,672	-39,738	0,060	0,022
-136,658	-200,000	-0,022	-0,089
-135,643	-200,000	0,033	-0,116
-134,629	-129,764	0,086	0,008
-133,614	-133,603	0,053	-0,005
-132,599	-131,766	0,119	-0,011
-131,585	-200,000	-0,027	-0,121
-130,570	191,330	-0,138	0,147
-129,556	-18,020	0,046	0,020
-128,541	-200,000	-0,006	-0,127
-127,526	-200,000	0,004	-0,044
-126,512	800,000	-0,039	-0,078
-125,497	233,020	0,016	-0,018
-124,483	14,120	0,166	0,091
-123,468	65,584	-0,192	-0,137
-122,453	24,104	0,034	-0,020
-121,439	-200,000	-0,023	0,079
-120,424	-102,874	0,134	0,022
-119,410	36,326	-0,021	0,013
-118,395	-200,000	-0,001	0,143
-117,380	69,491	-0,070	0,051
-116,366	-101,306	0,088	-0,015
-115,351	-200,000	0,028	-0,148
-114,337	800,000	0,111	-0,243
-113,322	19,154	-0,120	0,068
-112,307	800,000	-0,031	-0,075
-111,293	340,450	-0,107	-0,148
-110,278	-25,391	-0,157	-0,066
-109,264	-148,053	0,080	0,005
-108,249	73,116	-0,069	-0,051
-107,234	669,967	0,012	0,022
-106,220	-70,340	-0,028	-0,008
-105,205	54,234	-0,054	0,037
-104,191	66,116	0,180	0,129
-103,176	-102,668	0,084	0,014
-102,162	-86,597	-0,055	-0,012
-101,147	92,357	0,117	0,093
-100,132	176,076	-0,027	0,027
-99,118	800,000	-0,027	-0,065
-98,103	800,000	-0,037	-0,102
-97,089	800,000	-0,038	0,100
-96,074	-131,960	0,110	-0,010
-95,059	472,915	0,029	-0,046
-94,045	-66,162	-0,070	-0,020
-93,030	55,052	-0,168	0,114
-92,016	-32,051	0,044	-0,017
-91,001	800,000	0,037	-0,090
-89,986	-200,000	-0,009	-0,102
-88,972	-200,000	-0,005	0,022
-87,957	-126,719	0,083	0,009
-86,943	64,286	0,040	0,029
-85,928	-2,262	-0,180	-0,089
-84,913	256,653	0,151	-0,184
-83,899	-200,000	-0,042	-0,146
-82,884	326,783	-0,031	-0,042
-81,870	38,103	-0,086	0,054
-80,855	610,057	-0,098	-0,174
-79,840	800,000	0,046	-0,133
-78,826	515,324	0,021	-0,035
-77,811	-98,900	-0,175	-0,031
-76,797	-98,884	0,124	0,022
-75,782	-200,000	0,017	0,109
-74,767	122,572	-0,134	0,119
-73,753	0,817	-0,061	-0,031
-72,738	9,280	-0,079	0,042
-71,724	556,913	0,006	-0,010
-70,709	254,904	-0,032	0,039
-69,694	327,384	-0,046	-0,063
-68,680	-45,171	-0,106	0,037
-67,665	73,869	0,106	0,078
-66,651	-200,000	-0,002	-0,083
-65,636	-200,000	-0,010	-0,049
-64,622	-171,974	0,186	0,004
-63,607	-200,000	0,017	-0,204
-62,592	-104,421	0,150	-0,024
-61,578	-200,000	-0,005	-0,031
-60,563	250,232	0,007	0,009
-59,549	-157,659	-0,156	-0,006
-58,534	32,873	-1,946	-1,187
-57,519	615,200	-1,166	-2,073
-56,505	-200,000	-0,361	-4,423
-55,490	622,557	0,843	1,505
-54,476	800,000	5,073	11,228
-53,461	-200,000	20,896	328,729
-52,446	800,000	757,050	2321,538
-51,432	550,608	1661,791	2825,406
-50,417	73,536	1664,224	1228,968
-49,403	18,732	1537,376	866,320
-48,388	12,750	1460,168	793,858
-47,373	18,956	1450,930	818,614
-46,359	15,851	1440,308	797,802
-45,344	11,048	1436,031	772,520
-44,330	10,954	1433,942	770,916
-43,315	10,882	1432,302	769,663
-42,300	10,929	1430,396	768,831
-41,286	10,930	1429,282	768,205
-40,271	10,910	1427,899	767,339
-39,257	10,949	1426,797	766,900
-38,242	10,947	1425,604	766,221
-37,227	10,966	1424,494	765,679
-36,213	10,999	1423,274	765,153
-35,198	10,981	1422,057	764,384
-34,184	11,021	1421,268	764,118
-33,169	10,982	1419,825	763,127
-32,154	10,990	1418,860	762,614
-31,140	10,998	1417,734	762,015
-30,125	11,065	1416,446	761,611
-29,111	11,053	1415,326	760,919
-28,096	11,006	1414,244	760,089
-27,082	10,977	1412,851	759,172
-26,067	10,916	1412,219	758,518
-25,052	10,973	1410,977	758,085
-24,038	10,920	1410,068	757,323
-23,023	10,949	1408,979	756,841
-22,009	10,937	1407,883	756,166
-20,994	10,897	1406,896	755,421
-19,979	10,894	1406,067	754,929
-18,965	10,912	1405,051	754,437
-17,950	10,893	1404,153	753,837
-16,936	10,853	1403,317	753,173
-15,921	10,841	1402,332	752,559
-14,906	10,807	1401,420	751,883
-13,892	10,863	1400,445	751,590
-12,877	10,819	1399,703	750,957
-11,863	10,811	1398,879	750,446
-10,848	10,769	1398,175	749,843
-9,833	10,825	1396,943	749,414
-8,819	10,739	1396,254	748,616
-7,804	10,736	1395,608	748,225
-6,790	10,710	1394,461	747,461
-5,775	10,743	1393,204	746,912
-4,760	10,736	1392,455	746,445
-3,746	10,766	1391,374	745,976
-2,731	10,699	1390,692	745,271
-1,717	10,737	1389,677	744,872
-0,702	10,754	1387,827	743,932
0,313	14,829	1301,568	716,351
1,327	31,225	693,253	418,855
2,342	48,628	120,232	79,373
3,356	1,086	16,401	8,273
4,371	-9,559	3,546	1,662
5,386	0,905	0,965	0,486
6,400	800,000	0,174	0,499
7,415	227,028	-0,164	-0,188
8,429	274,765	-0,186	-0,233
9,444	170,604	-0,326	-0,330
10,459	-72,743	-0,400	-0,103
11,473	-57,762	-0,328	-0,101
12,488	-43,838	-0,203	0,072
13,502	68,086	-0,389	-0,281
14,517	87,700	-0,331	-0,258
15,531	36,446	-0,309	-0,192
16,546	-3,647	-0,335	-0,164
17,561	618,128	-0,202	-0,358
18,575	-86,522	-0,202	-0,043
19,590	529,140	-0,166	-0,277
20,604	-156,301	-0,328	0,014
21,619	70,063	-0,392	-0,284
22,634	186,910	-0,418	-0,439
23,648	157,629	-0,334	-0,326
24,663	69,454	-0,337	-0,244
25,677	214,171	-0,238	-0,266
26,692	-72,053	-0,420	-0,109
27,707	97,147	-0,211	-0,170
28,721	-16,438	-0,414	-0,184
29,736	158,291	-0,317	-0,310
30,750	45,856	-0,417	-0,271
31,765	258,248	-0,277	-0,336
32,780	93,371	-0,386	-0,307
33,794	129,909	-0,294	-0,264
34,809	204,884	-0,275	-0,301
35,823	43,293	-0,422	-0,271
36,838	263,855	-0,401	-0,492
37,853	258,338	-0,223	-0,271
38,867	42,289	-0,411	-0,262
39,882	82,101	-0,271	-0,206
40,896	68,213	-0,420	-0,302
41,911	436,774	-0,283	-0,434
42,926	12,507	-0,343	-0,186
43,940	52,518	-0,366	-0,246
44,955	49,177	-0,470	-0,310
45,969	63,647	-0,388	-0,274
46,984	90,926	-0,379	-0,299
47,999	186,213	-0,215	-0,225
49,013	91,377	-0,251	-0,198
50,028	-35,243	-0,423	-0,161
51,042	200,277	-0,228	-0,247
52,057	-34,919	-0,368	-0,140
53,071	113,582	-0,259	-0,221
54,086	5,283	-0,262	-0,135
55,101	109,115	-0,318	-0,267
56,115	19,008	-0,392	-0,220
57,130	-8,766	-0,409	-0,192
58,144	90,842	-0,373	-0,293
59,159	7,885	-0,264	-0,139
60,174	45,360	-0,373	-0,241
61,188	26,350	-0,348	-0,203
62,203	-4,438	-0,373	-0,180
63,217	36,235	-0,426	-0,263
64,232	-52,500	-0,392	-0,126
65,247	63,986	-0,238	-0,168
66,261	26,018	-0,462	-0,270
67,276	-14,824	-0,381	-0,171
68,290	-55,378	-0,396	-0,124
69,305	-19,195	-0,358	-0,155
70,320	114,290	-0,236	-0,202
71,334	19,453	-0,300	-0,169
72,349	54,549	-0,310	-0,209
73,363	14,908	-0,376	-0,206
74,378	151,416	-0,179	-0,171
75,393	13,231	-0,380	-0,206
76,407	134,326	-0,294	-0,268
77,422	107,509	-0,168	-0,140
78,436	89,403	-0,213	-0,166
79,451	135,777	-0,208	-0,190
80,466	84,135	-0,368	-0,281
81,480	81,167	-0,311	-0,235
82,495	18,597	-0,368	-0,205
83,509	-182,545	-0,382	-0,005
84,524	217,244	-0,197	-0,220
85,539	-2,178	-0,193	-0,095
86,553	-18,564	-0,298	-0,130
87,568	-12,899	-0,406	-0,184
88,582	115,240	-0,313	-0,268
89,597	236,526	-0,265	-0,308
90,611	293,689	-0,159	-0,204
91,626	-49,421	-0,254	-0,084
92,641	-57,105	-0,306	-0,094
93,655	233,776	-0,151	-0,175
94,670	-131,142	-0,379	-0,035
95,684	71,375	-0,341	-0,247
96,699	58,862	-0,393	-0,270
97,714	51,772	-0,368	-0,244
98,728	113,989	-0,300	-0,255
99,743	212,960	-0,267	-0,295
100,757	76,454	-0,163	-0,121
101,772	103,821	-0,389	-0,320
102,787	145,899	-0,318	-0,298
103,801	87,922	-0,293	-0,227
104,816	-3,827	-0,325	-0,157
105,830	-92,000	-0,186	-0,036
106,845	211,546	-0,194	-0,214
107,860	323,242	-0,196	-0,262
108,874	91,043	-0,267	-0,209
109,889	15,114	-0,255	-0,139
110,903	421,284	-0,198	-0,298
111,918	-33,066	-0,192	-0,074
112,933	0,999	-0,248	-0,124
113,947	28,766	-0,249	-0,147
114,962	-85,560	-0,233	-0,050
115,976	31,157	-0,229	-0,137
116,991	4,758	-0,405	-0,207
118,006	800,000	-0,077	-0,182
119,020	10,384	-0,334	-0,177
120,035	-7,170	-0,123	-0,058
121,049	-183,074	-0,262	0,003
122,064	152,391	-0,181	-0,172
123,079	72,971	-0,333	-0,242
124,093	178,197	-0,153	-0,156
125,108	-61,075	-0,399	-0,117
126,122	188,550	-0,341	-0,357
127,137	462,749	-0,186	-0,292
128,151	82,274	-0,257	-0,194
129,166	-15,366	-0,207	-0,092
130,181	-28,173	-0,287	-0,115
131,195	20,969	-0,342	-0,193
132,210	70,473	-0,218	-0,157
133,224	-25,916	-0,304	-0,124
134,239	19,712	-0,306	-0,171
135,254	165,019	-0,199	-0,196
136,268	83,053	-0,279	-0,212
137,283	-12,538	-0,289	-0,131
138,297	272,887	-0,219	-0,270
139,312	351,285	-0,217	-0,300
140,327	67,432	-0,177	-0,126
141,341	5,491	-0,367	-0,188
142,356	486,331	-0,137	-0,219
143,370	233,149	-0,253	-0,291
144,385	64,426	-0,277	-0,194
145,400	189,918	-0,155	-0,163
146,414	108,874	-0,242	-0,201
147,429	265,236	-0,266	-0,324
148,443	602,611	-0,111	-0,193
149,458	-119,237	-0,144	-0,017
150,473	84,585	-0,226	-0,172
151,487	124,494	-0,250	-0,219
152,502	79,788	-0,213	-0,159
153,516	169,688	-0,349	-0,348
154,531	425,969	-0,176	-0,265
155,546	248,770	-0,146	-0,172
156,560	478,801	-0,180	-0,284
157,575	48,896	-0,204	-0,133
158,589	44,751	-0,264	-0,169
159,604	119,687	-0,253	-0,218
160,619	336,859	-0,224	-0,304
161,633	239,810	-0,254	-0,295
162,648	93,611	-0,152	-0,120
163,662	-3,753	-0,175	-0,084
164,677	47,958	-0,181	-0,117
165,692	-72,099	-0,182	-0,047
166,706	143,534	-0,147	-0,136
167,721	152,788	-0,209	-0,199
168,735	38,172	-0,160	-0,099
169,750	65,791	-0,283	-0,199
170,764	103,446	-0,211	-0,172
171,779	366,249	-0,133	-0,187
172,794	-66,899	-0,178	-0,049
173,808	531,593	-0,149	-0,246
174,823	146,499	-0,211	-0,197
175,837	-46,612	-0,222	-0,075
176,852	413,474	-0,238	-0,353
177,867	-158,322	-0,219	0,009
178,881	25,386	-0,254	-0,146
179,896	-179,370	-0,120	-0,002
180,910	123,777	-0,220	-0,192
181,925	43,437	-0,236	-0,150
182,940	172,675	-0,226	-0,226
183,954	10,598	-0,235	-0,124
184,969	-133,453	-0,166	-0,014
185,983	-182,666	-0,164	-0,002
186,998	181,279	-0,122	-0,125
188,013	1,225	-0,343	-0,170
189,027	26,775	-0,227	-0,132
190,042	55,421	-0,223	-0,150
191,056	58,051	-0,247	-0,168
192,071	800,000	-0,072	-0,214
193,086	356,447	-0,146	-0,202
194,100	64,128	-0,212	-0,148
195,115	-83,673	-0,254	-0,056
196,129	-57,250	-0,303	-0,092
197,144	31,637	-0,256	-0,152
198,159	202,440	-0,172	-0,185
199,173	800,000	-0,085	-0,198
200,188	-73,097	-0,233	-0,059
201,202	800,000	-0,091	-0,237
202,217	-35,879	-0,178	-0,067
203,232	136,322	-0,251	-0,227
204,246	-62,668	-0,282	-0,081
205,261	-200,000	-0,022	-0,096
206,275	7,950	-0,127	-0,066
207,290	234,037	-0,135	-0,154
208,304	-72,761	-0,222	-0,056
209,319	380,270	-0,171	-0,244
210,334	-30,900	-0,240	-0,093
211,348	-46,288	-0,289	-0,098
212,363	138,245	-0,210	-0,191
213,377	-105,671	-0,164	-0,026
214,392	39,777	-0,234	-0,145
215,407	425,209	-0,104	-0,155
216,421	-89,203	-0,233	-0,047
217,436	244,501	-0,088	-0,102
218,450	-102,924	-0,175	-0,028
219,465	64,395	-0,210	-0,146
220,480	5,025	-0,281	-0,143
221,494	331,246	-0,173	-0,232
222,509	109,941	-0,105	-0,087
223,523	9,044	-0,348	-0,181
224,538	135,903	-0,118	-0,107
225,553	99,385	-0,179	-0,143
226,567	-2,543	-0,178	-0,086
227,582	162,855	-0,198	-0,192
228,596	639,265	-0,094	-0,167
229,611	33,663	-0,139	0,084
230,626	201,687	-0,179	-0,191
231,640	800,000	-0,095	-0,271
232,655	130,799	-0,197	-0,175
233,669	390,290	-0,123	-0,177
234,684	103,117	-0,162	-0,131
235,699	-78,624	-0,132	-0,031
236,713	-60,686	-0,057	0,017
237,728	-76,619	-0,246	-0,059
238,742	415,396	-0,070	-0,104
239,757	122,648	-0,148	-0,128
240,772	-104,328	-0,327	-0,052
241,786	-200,000	-0,031	-0,113
242,801	111,599	-0,305	-0,254
243,815	-4,470	-0,157	-0,075
244,830	-158,176	-0,173	-0,007
245,844	-200,000	0,021	-0,121
246,859	-51,868	-0,128	-0,041
247,874	219,598	-0,178	-0,198
248,888	95,836	-0,167	-0,132
249,903	100,840	-0,139	-0,111
250,917	-22,315	-0,083	-0,035
251,932	-17,613	-0,264	-0,114
252,947	-87,105	-0,240	-0,050
253,961	41,681	-0,230	-0,143
254,976	-12,605	-0,180	0,081
255,990	334,622	-0,115	-0,154
257,005	-200,000	-0,024	-0,175
258,020	226,028	-0,158	-0,177
259,034	-200,000	0,043	-0,184
260,049	77,497	-0,071	-0,052
261,063	-64,565	-0,177	0,049
262,078	18,286	-0,224	-0,123
263,093	97,474	-0,241	-0,191
264,107	-51,187	-0,265	-0,085
265,122	454,701	-0,137	-0,209
266,136	187,995	-0,121	-0,125
267,151	662,408	-0,039	-0,069
268,166	588,797	-0,085	-0,145
269,180	244,656	-0,196	-0,227
270,195	93,204	-0,160	-0,125
271,209	800,000	-0,059	-0,131
272,224	-55,876	-0,153	-0,047
273,239	-11,859	-0,130	-0,059
274,253	53,608	-0,148	-0,098
275,268	-49,102	-0,219	-0,072
276,282	-29,578	-0,160	-0,063
277,297	-45,003	-0,219	-0,075
278,312	14,954	-0,180	-0,097
279,326	11,303	-0,148	-0,078
280,341	-78,391	-0,144	-0,034
281,355	103,910	-0,233	-0,188
282,370	261,608	-0,110	-0,131
283,384	14,889	-0,131	-0,070
284,399	-101,535	-0,232	0,039
285,414	-33,369	-0,255	-0,097
286,428	89,621	-0,037	-0,029
287,443	258,789	-0,095	-0,112
288,457	-90,210	-0,103	0,020
289,472	78,483	-0,149	-0,109
290,487	-77,229	-0,125	-0,030
291,501	573,948	-0,139	-0,234
292,516	425,864	-0,144	-0,214
293,530	610,532	-0,146	-0,252
294,545	-58,716	-0,117	-0,034
295,560	432,915	-0,028	-0,042
296,574	20,985	-0,165	0,092
297,589	122,896	-0,225	-0,194
298,603	-61,502	-0,265	-0,076
299,618	130,993	-0,160	-0,141
300,633	-89,640	-0,133	0,027
301,647	212,979	-0,139	-0,151
302,662	800,000	-0,092	-0,250
303,676	338,670	-0,111	0,149
304,691	281,339	-0,088	0,108
305,706	226,784	-0,178	-0,198
306,720	296,638	-0,114	-0,143
307,735	89,182	-0,240	-0,183
308,749	-156,078	-0,155	-0,007
309,764	-199,194	-0,172	-0,001
310,779	582,723	-0,126	-0,213
311,793	445,485	-0,086	-0,130
312,808	-200,000	-0,044	-0,202
313,822	-200,000	-0,070	-0,235
314,837	73,256	-0,247	-0,177
315,852	800,000	-0,074	-0,216
316,866	-92,318	-0,107	-0,021
317,881	-20,682	-0,175	0,073
318,895	38,675	-0,095	-0,058
319,910	-200,000	-0,008	-0,092
320,925	183,078	-0,176	-0,178
321,939	-104,521	-0,289	-0,045
322,954	-144,100	-0,239	-0,015
323,968	25,962	-0,081	-0,046
324,983	-44,501	-0,086	0,029
325,997	124,954	-0,160	-0,138
327,012	-0,871	-0,131	-0,064
328,027	32,444	-0,186	-0,110
329,041	-33,672	-0,086	-0,033
330,056	-81,158	0,108	-0,024
331,070	358,050	0,074	-0,101
332,085	427,805	-0,151	-0,225
333,100	800,000	-0,056	-0,163
334,114	800,000	-0,069	-0,203
335,129	189,783	-0,140	-0,144
336,143	800,000	-0,019	-0,052
337,158	709,638	-0,045	-0,082
338,173	-18,753	-0,198	-0,084
339,187	-13,573	-0,225	-0,099
340,202	-52,285	-0,221	0,070
341,216	202,089	-0,149	-0,157
342,231	62,945	-0,049	-0,034
343,246	800,000	-0,068	-0,135
344,260	-200,000	-0,078	-0,292
345,275	0,050	-0,087	-0,042
346,289	6,698	-0,166	-0,084
347,304	109,919	-0,093	-0,077
348,319	66,643	-0,136	-0,095
349,333	476,123	-0,102	-0,158
350,348	102,139	-0,216	-0,173
351,362	800,000	-0,049	-0,131
352,377	800,000	-0,061	-0,128
353,392	768,675	-0,009	-0,017
354,406	82,422	-0,054	-0,040
355,421	206,161	1311,093	1397,135
356,435	158,544	1471,346	1397,621
