DTS Sentinel unit serial number:	SN410029Multiplexer serial number:	ORYXHardware model number:	OX2-SRSoftware version number:	ORYX F/W v4,00 Oryx Data Collector v3.7.2.0data status	okinstallation	B3 Nyhavnadifferential loss correction	single-endedforward channel	channel 1reverse channel	N/Adate	2023/11/30time	21:37:30forward acquisition time	300,00reverse acquisition time	0,00gamma	499,1914k internal	0,3209k external	0,3209temperature offset calibration	1,0000default loss term (dB/km)	0,3820temperature slope calibration	1,0000multiplexer offset coefficient	1,0000multiplexer slope coefficient	1,0000fibre end	0,00T internal ref (°C)	10,51T ext. ref 1 (°C)	-4,79T ext. ref 2 (°C)	-4,92length (m)	temperature (°C)	Stokes	anti-Stokes-744,400	800,000	-0,066	-0,156
-743,385	-200,000	-0,011	0,160
-742,371	71,777	-0,240	-0,180
-741,356	-200,000	-0,005	0,384
-740,342	-200,000	-0,070	-0,388
-739,327	800,000	-0,105	0,323
-738,312	393,696	-0,178	-0,270
-737,298	800,000	-0,085	0,202
-736,283	800,000	-0,123	-0,359
-735,269	-200,000	-0,017	0,285
-734,254	-200,000	-0,011	-0,149
-733,239	-68,938	-0,291	0,081
-732,225	256,839	-0,160	-0,200
-731,210	800,000	0,065	0,197
-730,196	-200,000	0,006	-0,058
-729,181	-200,000	0,011	-0,054
-728,167	142,754	0,083	-0,080
-727,152	-200,000	0,013	-0,097
-726,137	170,088	-0,022	-0,023
-725,123	800,000	-0,056	-0,139
-724,108	8,060	-0,160	-0,087
-723,094	800,000	-0,051	-0,112
-722,079	378,052	-0,055	-0,082
-721,064	-146,065	-0,022	0,001
-720,050	-46,048	-0,125	0,044
-719,035	-80,852	0,053	-0,013
-718,021	-154,611	0,057	0,003
-717,006	195,641	-0,027	0,030
-715,991	224,602	-0,114	-0,134
-714,977	469,544	-0,066	0,108
-713,962	-200,000	0,029	-0,109
-712,948	-126,785	0,091	-0,010
-711,933	177,420	-0,109	0,115
-710,918	800,000	0,057	0,119
-709,904	-200,000	0,003	0,099
-708,889	291,992	0,030	-0,040
-707,875	800,000	-0,021	0,055
-706,860	79,304	-0,107	0,083
-705,845	22,515	-0,073	0,043
-704,831	125,630	0,065	0,059
-703,816	-119,648	-0,030	0,004
-702,802	-53,122	-0,091	0,030
-701,787	-163,529	-0,112	0,004
-700,772	-37,360	-0,021	0,008
-699,758	360,874	0,038	-0,055
-698,743	298,233	-0,063	-0,084
-697,729	43,746	0,133	0,088
-696,714	-47,909	0,144	0,050
-695,699	-200,000	-0,006	0,081
-694,685	52,550	-0,061	0,042
-693,670	800,000	-0,078	-0,175
-692,656	-200,000	0,026	-0,106
-691,641	-22,319	-0,058	-0,025
-690,627	122,496	0,058	0,053
-689,612	-200,000	-0,017	-0,060
-688,597	57,281	0,043	0,031
-687,583	-200,000	0,014	-0,168
-686,568	-94,336	-0,036	0,007
-685,554	-1,950	-0,081	-0,041
-684,539	-77,147	0,062	-0,015
-683,524	-32,300	0,152	-0,061
-682,510	52,769	-0,092	0,063
-681,495	-200,000	0,012	0,062
-680,481	800,000	0,037	-0,077
-679,466	430,597	-0,119	-0,186
-678,451	-200,000	-0,032	-0,256
-677,437	-200,000	0,014	0,045
-676,422	9,663	0,036	0,019
-675,408	800,000	-0,026	-0,052
-674,393	394,456	0,038	-0,057
-673,378	-152,503	-0,059	0,003
-672,364	-200,000	-0,026	-0,147
-671,349	-200,000	-0,006	-0,131
-670,335	233,595	0,083	-0,099
-669,320	7,259	0,106	0,057
-668,305	800,000	0,034	-0,092
-667,291	-73,779	-0,063	0,017
-666,276	136,074	0,121	-0,114
-665,262	800,000	-0,040	-0,125
-664,247	29,466	-0,092	0,056
-663,232	-33,810	0,089	-0,035
-662,218	800,000	0,032	-0,074
-661,203	135,612	-0,096	0,090
-660,189	172,773	-0,062	-0,064
-659,174	-200,000	0,026	-0,132
-658,159	402,790	0,033	-0,051
-657,145	-24,880	0,096	0,041
-656,130	705,726	-0,068	0,130
-655,116	138,489	0,098	-0,093
-654,101	-37,812	-0,165	0,063
-653,086	-200,000	0,008	0,115
-652,072	-43,326	0,129	-0,047
-651,057	355,496	-0,131	-0,189
-650,043	800,000	-0,027	-0,082
-649,028	198,854	-0,020	0,022
-648,014	43,975	0,060	0,040
-646,999	-67,142	-0,058	0,017
-645,984	-91,430	0,103	-0,021
-644,970	388,983	0,013	-0,020
-643,955	-123,651	-0,025	-0,003
-642,941	365,278	0,078	-0,115
-641,926	172,559	0,093	-0,097
-640,911	402,625	-0,069	0,106
-639,897	800,000	0,061	0,147
-638,882	-200,000	-0,009	0,034
-637,868	76,952	-0,129	-0,099
-636,853	-200,000	-0,023	0,080
-635,838	-200,000	-0,004	-0,145
-634,824	281,027	-0,091	-0,118
-633,809	-200,000	0,000	0,036
-632,795	148,880	0,056	0,055
-631,780	641,455	0,090	0,166
-630,765	174,357	-0,081	-0,085
-629,751	800,000	-0,030	-0,068
-628,736	284,966	0,061	-0,080
-627,722	-200,000	0,003	0,027
-626,707	-133,576	-0,168	0,015
-625,692	-101,549	0,136	0,024
-624,678	-97,534	-0,010	0,002
-623,663	277,089	-0,021	-0,028
-622,649	-200,000	-0,002	0,058
-621,634	800,000	-0,023	-0,054
-620,619	-55,832	-0,137	0,044
-619,605	784,205	0,042	-0,083
-618,590	156,840	0,049	0,049
-617,576	25,608	0,019	0,012
-616,561	800,000	0,046	-0,134
-615,546	-90,039	-0,107	-0,022
-614,532	335,397	-0,055	-0,078
-613,517	359,877	-0,018	0,026
-612,503	-56,295	0,051	0,016
-611,488	-200,000	-0,022	0,085
-610,474	-200,000	0,031	-0,129
-609,459	-200,000	-0,009	-0,188
-608,444	-128,733	-0,030	0,003
-607,430	22,160	-0,142	-0,083
-606,415	-56,508	-0,135	-0,043
-605,401	277,129	0,058	-0,074
-604,386	-200,000	0,018	0,072
-603,371	-104,208	0,019	0,003
-602,357	191,627	-0,133	0,145
-601,342	800,000	-0,032	-0,066
-600,328	-200,000	-0,019	-0,096
-599,313	754,641	-0,064	-0,125
-598,298	480,836	0,039	0,064
-597,284	507,972	0,007	0,013
-596,269	-200,000	-0,004	-0,059
-595,255	-200,000	-0,000	0,074
-594,240	-200,000	-0,001	-0,110
-593,225	7,149	0,064	-0,034
-592,211	56,862	0,025	-0,017
-591,196	-46,556	0,062	0,022
-590,182	14,672	-0,065	0,037
-589,167	105,703	-0,037	-0,032
-588,152	46,054	0,102	-0,068
-587,138	733,755	-0,058	-0,113
-586,123	-129,289	-0,178	-0,018
-585,109	52,195	-0,115	-0,079
-584,094	-200,000	-0,003	-0,053
-583,079	51,804	-0,087	-0,060
-582,065	-200,000	-0,014	0,045
-581,050	93,248	0,129	0,105
-580,036	-154,036	-0,047	-0,002
-579,021	-43,039	-0,105	-0,038
-578,006	-28,891	-0,086	-0,035
-576,992	800,000	-0,036	-0,090
-575,977	198,112	-0,065	0,071
-574,963	-200,000	0,012	0,095
-573,948	-200,000	0,006	0,085
-572,934	692,125	-0,051	0,096
-571,919	-23,253	0,144	-0,062
-570,904	-200,000	0,002	0,102
-569,890	-2,104	0,100	-0,050
-568,875	-200,000	-0,003	0,016
-567,861	498,566	-0,070	-0,117
-566,846	511,732	0,016	-0,027
-565,831	-62,961	-0,052	0,015
-564,817	263,218	-0,088	0,111
-563,802	800,000	-0,022	-0,049
-562,788	78,227	-0,171	0,131
-561,773	-40,101	0,025	-0,009
-560,758	-110,408	-0,063	0,009
-559,744	128,655	0,080	0,074
-558,729	171,828	-0,030	0,031
-557,715	800,000	-0,022	0,059
-556,700	-7,174	-0,091	0,044
-555,685	74,608	-0,010	-0,007
-554,671	800,000	-0,016	0,037
-553,656	-119,025	0,095	0,012
-552,642	-24,936	0,053	-0,023
-551,627	-97,727	-0,118	-0,022
-550,612	612,485	-0,042	0,076
-549,598	154,692	-0,180	-0,178
-548,583	-200,000	0,004	-0,119
-547,569	800,000	0,015	-0,031
-546,554	258,539	0,065	0,081
-545,539	62,953	0,101	-0,073
-544,525	19,162	-0,029	0,017
-543,510	-200,000	0,002	-0,097
-542,496	-200,000	-0,032	-0,132
-541,481	2,455	0,017	-0,009
-540,466	93,985	-0,069	-0,056
-539,452	-200,000	-0,022	-0,072
-538,437	-1,428	0,231	0,117
-537,423	-14,879	0,052	0,024
-536,408	-133,181	-0,118	0,011
-535,393	120,049	-0,088	-0,078
-534,379	57,948	-0,054	-0,038
-533,364	520,182	0,057	0,096
-532,350	-113,773	-0,090	0,013
-531,335	-200,000	-0,009	0,078
-530,321	-175,429	-0,129	0,002
-529,306	42,334	0,027	0,018
-528,291	800,000	-0,018	-0,047
-527,277	-71,886	-0,238	-0,063
-526,262	739,577	-0,036	0,071
-525,248	-200,000	0,014	-0,090
-524,233	107,124	0,090	0,077
-523,218	800,000	0,044	0,092
-522,204	282,937	0,029	0,038
-521,189	-68,233	0,052	0,014
-520,175	747,949	-0,063	-0,123
-519,160	431,351	0,098	-0,153
-518,145	282,881	-0,024	0,031
-517,131	-47,923	-0,065	0,023
-516,116	-200,000	-0,013	0,157
-515,102	-13,927	-0,062	0,029
-514,087	-43,842	0,048	0,017
-513,072	-200,000	-0,040	-0,187
-512,058	147,379	0,061	-0,059
-511,043	-98,080	-0,092	-0,017
-510,029	-200,000	0,024	0,152
-509,014	17,810	-0,160	0,091
-507,999	-200,000	-0,004	-0,029
-506,985	-37,200	0,019	0,007
-505,970	-200,000	-0,052	-0,184
-504,956	800,000	0,005	0,013
-503,941	539,637	0,115	-0,198
-502,926	800,000	0,037	-0,081
-501,912	337,193	0,017	-0,024
-500,897	-200,000	0,005	-0,030
-499,883	-73,097	-0,147	-0,039
-498,868	38,556	0,088	0,056
-497,853	-200,000	-0,004	0,090
-496,839	-31,044	0,037	-0,015
-495,824	-43,558	0,118	0,043
-494,810	245,296	0,010	0,012
-493,795	-200,000	0,015	0,095
-492,781	165,853	-0,075	0,076
-491,766	-38,576	-0,065	0,025
-490,751	-200,000	0,043	-0,159
-489,737	800,000	0,058	-0,157
-488,722	-155,300	0,082	0,004
-487,708	800,000	-0,049	0,112
-486,693	-200,000	-0,007	0,022
-485,678	73,037	-0,079	0,059
-484,664	145,584	-0,012	-0,012
-483,649	-14,024	-0,081	0,037
-482,635	-200,000	0,010	0,036
-481,620	362,672	0,077	0,111
-480,605	800,000	0,060	0,121
-479,591	-105,079	0,217	-0,035
-478,576	-200,000	-0,007	0,080
-477,562	356,575	-0,052	-0,075
-476,547	7,466	-0,134	-0,071
-475,532	366,763	-0,020	0,029
-474,518	-41,442	-0,123	0,045
-473,503	137,792	0,144	0,135
-472,489	800,000	0,013	-0,042
-471,474	31,669	-0,093	-0,057
-470,459	800,000	-0,056	-0,152
-469,445	368,387	-0,064	-0,093
-468,430	-200,000	0,008	0,097
-467,416	800,000	0,051	-0,135
-466,401	127,355	0,051	-0,046
-465,386	37,737	0,108	0,069
-464,372	38,727	-0,023	-0,015
-463,357	415,254	0,018	-0,028
-462,343	67,443	-0,115	-0,084
-461,328	-92,639	-0,048	-0,010
-460,313	-200,000	0,015	0,130
-459,299	-119,899	-0,021	-0,003
-458,284	35,475	0,104	0,065
-457,270	-61,361	-0,114	-0,034
-456,255	481,755	0,014	0,023
-455,241	-200,000	-0,033	-0,166
-454,226	-41,407	0,103	-0,038
-453,211	-200,000	-0,023	0,072
-452,197	74,296	-0,038	0,029
-451,182	-72,166	-0,027	0,007
-450,168	-200,000	-0,015	-0,072
-449,153	800,000	0,006	-0,018
-448,138	102,645	0,028	-0,024
-447,124	547,802	0,042	-0,072
-446,109	163,944	0,085	0,086
-445,095	-200,000	0,014	-0,107
-444,080	102,460	0,092	0,077
-443,065	-127,322	0,066	0,007
-442,051	460,793	-0,041	0,065
-441,036	537,483	-0,027	-0,046
-440,022	-119,803	-0,034	-0,004
-439,007	-200,000	0,019	0,094
-437,992	39,062	0,073	0,047
-436,978	745,959	0,060	-0,116
-435,963	-56,307	0,118	-0,037
-434,949	-200,000	0,039	-0,132
-433,934	590,478	-0,053	0,094
-432,919	235,946	0,067	-0,080
-431,905	73,559	-0,067	-0,051
-430,890	800,000	0,020	-0,043
-429,876	167,689	0,078	-0,079
-428,861	-137,622	-0,124	-0,010
-427,846	-200,000	-0,018	-0,109
-426,832	47,673	0,125	-0,084
-425,817	117,390	-0,057	-0,051
-424,803	-181,759	0,063	0,001
-423,788	258,323	0,074	0,092
-422,773	167,561	0,079	0,081
-421,759	467,367	0,072	0,116
-420,744	-200,000	0,007	-0,040
-419,730	800,000	-0,010	0,028
-418,715	-200,000	0,004	0,083
-417,701	-200,000	0,006	0,062
-416,686	800,000	-0,036	-0,099
-415,671	-157,217	0,147	0,006
-414,657	800,000	0,068	0,146
-413,642	-200,000	0,037	0,151
-412,628	130,721	-0,048	-0,044
-411,613	371,087	-0,062	-0,090
-410,598	-56,715	0,081	0,025
-409,584	-167,724	0,097	-0,003
-408,569	237,011	0,078	-0,093
-407,555	431,961	-0,084	0,130
-406,540	-17,554	-0,057	0,025
-405,525	-29,564	-0,026	-0,010
-404,511	20,963	-0,028	-0,016
-403,496	427,878	-0,087	-0,135
-402,482	800,000	0,047	0,116
-401,467	617,062	0,034	-0,061
-400,452	37,546	-0,045	0,029
-399,438	-200,000	-0,024	0,136
-398,423	311,921	-0,057	0,076
-397,409	737,991	-0,067	-0,129
-396,394	-64,268	0,077	-0,022
-395,379	800,000	-0,034	0,103
-394,365	364,093	0,061	0,088
-393,350	133,039	-0,130	0,120
-392,336	227,874	0,044	-0,051
-391,321	-116,809	-0,119	0,015
-390,306	-25,337	-0,071	-0,030
-389,292	-33,170	0,070	0,027
-388,277	-34,678	-0,047	0,018
-387,263	271,200	0,093	0,117
-386,248	-25,576	0,137	0,058
-385,233	800,000	0,012	0,026
-384,219	-28,587	0,075	0,031
-383,204	133,823	-0,094	0,087
-382,190	-200,000	0,047	-0,158
-381,175	462,336	-0,022	-0,034
-380,160	800,000	0,058	0,163
-379,146	-200,000	0,009	0,030
-378,131	-200,000	-0,012	0,172
-377,117	-200,000	0,022	0,139
-376,102	-200,000	0,014	0,066
-375,088	-200,000	0,032	-0,231
-374,073	-120,921	-0,069	0,008
-373,058	-3,482	0,010	0,005
-372,044	-200,000	0,001	-0,015
-371,029	655,565	-0,029	0,053
-370,015	197,647	-0,051	-0,056
-369,000	26,535	-0,069	-0,041
-367,985	-3,156	0,021	0,010
-366,971	332,358	0,046	-0,063
-365,956	800,000	-0,016	0,038
-364,942	-200,000	-0,022	0,169
-363,927	211,305	-0,078	0,088
-362,912	-9,446	0,148	-0,071
-361,898	800,000	-0,033	-0,066
-360,883	335,049	-0,062	0,086
-359,869	-104,573	-0,049	-0,008
-358,854	-74,968	0,061	0,015
-357,839	55,703	-0,051	-0,036
-356,825	-200,000	-0,010	0,050
-355,810	-123,879	-0,130	-0,014
-354,796	128,767	-0,198	0,180
-353,781	142,441	-0,032	0,031
-352,766	21,025	-0,156	-0,090
-351,752	-3,945	0,045	0,022
-350,737	1,048	0,172	0,088
-349,723	-97,907	-0,028	-0,005
-348,708	23,387	0,035	-0,020
-347,693	173,964	-0,059	0,061
-346,679	-200,000	0,005	0,083
-345,664	-149,984	0,071	-0,004
-344,650	-89,607	0,082	0,017
-343,635	215,274	0,110	0,125
-342,620	27,960	0,044	0,026
-341,606	-122,584	0,130	0,015
-340,591	91,596	0,109	-0,088
-339,577	-200,000	0,020	-0,109
-338,562	-200,000	-0,022	-0,160
-337,548	-200,000	-0,015	-0,049
-336,533	800,000	-0,044	0,090
-335,518	276,802	0,032	-0,041
-334,504	-200,000	0,021	0,106
-333,489	217,607	-0,018	0,020
-332,475	120,037	0,095	-0,084
-331,460	98,829	0,066	-0,054
-330,445	-88,738	0,047	0,010
-329,431	-101,036	0,116	-0,020
-328,416	-74,406	-0,082	0,021
-327,402	800,000	-0,035	0,082
-326,387	-149,684	-0,092	0,005
-325,372	-142,214	0,034	0,002
-324,358	-200,000	0,019	-0,126
-323,343	473,373	-0,010	0,016
-322,329	524,153	-0,002	-0,004
-321,314	5,349	0,110	-0,058
-320,299	-149,291	0,120	-0,007
-319,285	341,924	-0,018	-0,025
-318,270	-75,175	0,202	-0,051
-317,256	209,870	-0,072	-0,080
-316,241	-200,000	-0,003	0,120
-315,226	-35,357	-0,102	-0,039
-314,212	299,252	-0,045	-0,059
-313,197	18,150	0,149	0,084
-312,183	-200,000	-0,001	-0,045
-311,168	73,781	-0,137	-0,103
-310,153	800,000	-0,036	-0,085
-309,139	262,872	-0,031	-0,039
-308,124	219,381	-0,117	0,134
-307,110	-16,041	0,113	-0,051
-306,095	800,000	0,037	0,098
-305,080	168,445	0,078	0,079
-304,066	800,000	0,017	0,052
-303,051	-22,632	-0,170	0,073
-302,037	458,651	0,058	-0,092
-301,022	182,357	0,106	-0,112
-300,008	-200,000	0,014	-0,045
-298,993	-200,000	-0,062	-0,000
-297,978	-200,000	0,015	0,145
-296,964	-112,267	0,051	-0,007
-295,949	-85,302	0,121	0,027
-294,935	800,000	-0,082	0,238
-293,920	-9,126	-0,052	0,025
-292,905	25,194	0,089	-0,052
-291,891	800,000	0,113	0,225
-290,876	-200,000	-0,021	-0,076
-289,862	128,079	-0,020	-0,018
-288,847	529,163	-0,030	0,050
-287,832	309,722	0,048	0,064
-286,818	-200,000	0,007	0,101
-285,803	1,454	-0,055	0,028
-284,789	240,080	0,080	0,095
-283,774	800,000	-0,055	0,136
-282,759	-186,830	0,143	0,001
-281,745	222,681	-0,061	-0,071
-280,730	44,541	0,080	0,052
-279,716	115,293	0,047	-0,041
-278,701	-29,989	-0,091	-0,037
-277,686	-200,000	0,009	0,048
-276,672	110,845	0,107	0,091
-275,657	-166,432	0,026	0,001
-274,643	800,000	-0,019	0,051
-273,628	80,656	-0,066	-0,051
-272,613	800,000	0,082	-0,162
-271,599	570,472	-0,043	-0,075
-270,584	770,723	0,006	0,012
-269,570	183,270	-0,101	-0,107
-268,555	343,726	0,071	0,099
-267,540	50,366	0,028	-0,019
-266,526	-157,457	-0,106	-0,004
-265,511	290,826	-0,057	-0,074
-264,497	36,660	0,033	0,021
-263,482	800,000	-0,026	-0,066
-262,467	800,000	0,073	0,157
-261,453	218,070	0,140	0,159
-260,438	-200,000	0,023	0,175
-259,424	31,935	-0,119	-0,073
-258,409	-143,984	-0,092	-0,006
-257,395	-111,435	0,118	0,017
-256,380	-35,195	-0,072	0,028
-255,365	16,165	0,048	-0,027
-254,351	-30,391	-0,091	0,036
-253,336	225,834	-0,081	0,093
-252,322	96,088	0,022	-0,018
-251,307	169,442	0,058	-0,059
-250,292	-200,000	0,003	-0,029
-249,278	-99,231	-0,041	0,007
-248,263	2,694	0,211	0,109
-247,249	3,652	-0,111	0,058
-246,234	-55,204	-0,067	-0,021
-245,219	478,584	0,036	0,059
-244,205	800,000	0,062	-0,125
-243,190	208,638	0,010	-0,012
-242,176	8,921	0,102	-0,055
-241,161	-200,000	-0,000	-0,080
-240,146	-200,000	0,009	0,076
-239,132	-124,987	0,183	-0,020
-238,117	-60,058	-0,124	-0,037
-237,103	243,667	0,060	-0,072
-236,088	800,000	0,010	0,028
-235,073	-77,339	0,079	0,019
-234,059	274,499	0,077	0,097
-233,044	650,171	-0,042	-0,076
-232,030	276,396	0,074	0,093
-231,015	-200,000	-0,013	0,049
-230,000	-67,910	-0,125	-0,035
-228,986	315,297	0,111	-0,149
-227,971	717,896	-0,029	-0,056
-226,957	-77,225	-0,033	-0,008
-225,942	80,816	-0,074	0,057
-224,927	43,576	0,044	0,029
-223,913	-67,724	-0,236	0,065
-222,898	77,538	0,076	0,057
-221,884	-7,619	0,065	-0,031
-220,869	-164,703	0,079	0,002
-219,855	701,557	0,036	0,068
-218,840	-26,340	0,136	0,056
-217,825	-200,000	-0,007	0,027
-216,811	-81,843	-0,120	0,028
-215,796	-29,178	-0,022	-0,009
-214,782	417,539	-0,011	0,017
-213,767	98,700	0,104	0,085
-212,752	-55,858	0,078	-0,025
-211,738	-120,707	0,147	-0,017
-210,723	-200,000	0,010	-0,043
-209,709	-200,000	0,014	-0,181
-208,694	93,790	0,117	-0,094
-207,679	-200,000	0,050	-0,178
-206,665	78,330	-0,050	-0,038
-205,650	526,834	0,050	0,084
-204,636	-44,462	0,082	-0,029
-203,621	455,164	-0,104	-0,164
-202,606	800,000	-0,073	-0,158
-201,592	800,000	0,011	0,023
-200,577	-200,000	-0,009	-0,088
-199,563	-200,000	0,011	0,036
-198,548	547,548	-0,027	-0,047
-197,533	211,489	0,024	-0,027
-196,519	92,440	-0,063	0,051
-195,504	-172,765	-0,090	-0,002
-194,490	-32,876	0,031	0,012
-193,475	-4,286	-0,075	0,036
-192,460	-96,906	0,050	0,009
-191,446	-200,000	-0,015	0,086
-190,431	-200,000	0,024	0,086
-189,417	281,537	-0,053	0,068
-188,402	50,765	0,052	0,035
-187,387	186,680	0,062	-0,065
-186,373	800,000	0,020	-0,058
-185,358	-9,710	-0,128	-0,060
-184,344	-200,000	0,008	-0,119
-183,329	4,983	0,083	0,043
-182,315	-200,000	-0,043	0,177
-181,300	800,000	0,043	-0,133
-180,285	213,957	0,024	-0,026
-179,271	-4,012	-0,121	-0,059
-178,256	20,817	0,049	-0,028
-177,242	68,488	-0,046	-0,033
-176,227	786,471	0,080	-0,156
-175,212	-3,034	-0,036	0,018
-174,198	-48,544	-0,096	0,033
-173,183	-149,248	-0,020	-0,001
-172,169	-200,000	-0,009	-0,090
-171,154	55,129	-0,023	0,016
-170,139	93,963	-0,058	0,047
-169,125	315,515	-0,066	0,088
-168,110	-200,000	-0,032	0,167
-167,096	71,876	0,112	0,082
-166,081	7,667	0,083	-0,044
-165,066	-30,002	-0,100	-0,040
-164,052	-45,638	0,079	0,028
-163,037	-52,315	0,040	-0,013
-162,023	214,472	0,057	-0,064
-161,008	800,000	-0,051	-0,106
-159,993	432,768	-0,092	0,141
-158,979	-119,937	0,161	0,019
-157,964	-139,262	-0,218	-0,016
-156,950	-200,000	-0,016	-0,105
-155,935	-200,000	0,006	0,032
-154,920	-108,913	-0,135	0,020
-153,906	17,313	0,089	0,050
-152,891	126,719	-0,091	-0,082
-151,877	296,756	0,081	0,105
-150,862	-200,000	-0,035	-0,118
-149,847	-88,050	-0,074	-0,016
-148,833	-39,463	-0,043	0,016
-147,818	-200,000	0,072	0,293
-146,804	-184,343	0,065	0,001
-145,789	-157,643	0,034	-0,001
-144,775	-200,000	-0,020	-0,118
-143,760	-200,000	-0,004	-0,081
-142,745	52,061	0,154	-0,104
-141,731	11,003	-0,038	0,020
-140,716	666,006	0,059	-0,109
-139,702	126,741	-0,082	0,074
-138,687	29,067	0,092	0,055
-137,672	124,906	0,059	-0,053
-136,658	428,965	0,010	-0,015
-135,643	-200,000	-0,016	-0,110
-134,629	800,000	0,008	0,017
-133,614	44,772	-0,025	0,016
-132,599	-200,000	0,007	0,059
-131,585	7,776	0,041	0,022
-130,570	-72,748	-0,100	0,026
-129,556	-37,074	-0,099	-0,037
-128,541	-89,354	0,097	0,020
-127,526	-200,000	0,025	0,154
-126,512	79,192	0,072	0,055
-125,497	-38,049	-0,027	0,010
-124,483	-22,160	0,116	0,050
-123,468	287,302	-0,077	-0,098
-122,453	-115,805	0,023	-0,003
-121,439	290,667	-0,021	0,027
-120,424	-42,168	-0,079	0,028
-119,410	-37,041	0,105	-0,040
-118,395	-29,378	-0,028	0,011
-117,380	-200,000	-0,022	-0,079
-116,366	129,822	-0,085	0,077
-115,351	128,519	0,070	-0,063
-114,337	476,208	-0,080	-0,129
-113,322	-80,544	0,028	0,007
-112,307	800,000	-0,015	-0,045
-111,293	-192,297	0,100	0,001
-110,278	-30,667	0,010	0,004
-109,264	120,164	-0,137	0,121
-108,249	800,000	-0,041	-0,095
-107,234	800,000	-0,027	-0,079
-106,220	254,404	-0,049	0,060
-105,205	-57,642	0,200	-0,062
-104,191	-97,394	0,039	0,007
-103,176	621,315	0,044	-0,078
-102,162	-200,000	0,038	0,158
-101,147	-200,000	0,002	0,074
-100,132	132,058	-0,039	-0,035
-99,118	65,133	-0,071	0,051
-98,103	-48,055	-0,040	-0,014
-97,089	106,943	0,117	0,098
-96,074	2,021	-0,110	-0,056
-95,059	-200,000	0,036	0,113
-94,045	-156,518	0,155	-0,007
-93,030	-136,823	-0,097	-0,008
-92,016	800,000	0,008	-0,023
-91,001	-200,000	-0,023	0,076
-89,986	228,437	0,074	0,086
-88,972	800,000	0,019	-0,041
-87,957	368,823	0,057	-0,082
-86,943	21,101	0,109	0,062
-85,928	-79,407	-0,029	-0,007
-84,913	-103,299	0,031	0,005
-83,899	-200,000	0,026	-0,161
-82,884	-181,208	-0,111	0,002
-81,870	-41,969	-0,045	0,016
-80,855	-200,000	0,015	-0,158
-79,840	66,795	0,048	-0,034
-78,826	800,000	0,003	0,008
-77,811	-101,081	-0,111	-0,019
-76,797	-200,000	0,027	-0,168
-75,782	-14,717	0,124	0,056
-74,767	-154,531	0,084	0,004
-73,753	-10,904	0,145	0,068
-72,738	-200,000	-0,018	-0,147
-71,724	-4,823	-0,085	-0,041
-70,709	-200,000	-0,020	-0,067
-69,694	-5,691	-0,067	-0,032
-68,680	800,000	0,028	-0,075
-67,665	-139,606	-0,022	0,002
-66,651	101,260	0,113	0,093
-65,636	-200,000	-0,014	-0,099
-64,622	800,000	0,053	-0,126
-63,607	-20,530	-0,094	0,041
-62,592	-134,053	-0,061	-0,005
-61,578	-99,779	0,070	-0,012
-60,563	257,610	-0,038	0,046
-59,549	800,000	0,033	0,068
-58,534	49,684	-1,893	-1,258
-57,519	473,484	-1,312	-2,096
-56,505	-200,000	-0,390	-4,386
-55,490	385,480	0,857	1,252
-54,476	800,000	5,353	11,711
-53,461	-200,000	21,153	338,792
-52,446	800,000	758,993	2350,673
-51,432	557,018	1663,281	2841,704
-50,417	73,847	1664,599	1231,048
-49,403	18,371	1538,107	865,050
-48,388	12,363	1461,317	792,743
-47,373	19,423	1451,990	821,594
-46,359	15,757	1441,485	798,146
-45,344	10,606	1437,336	771,246
-44,330	10,549	1435,413	769,912
-43,315	10,553	1433,504	768,875
-42,300	10,551	1431,878	767,963
-41,286	10,570	1430,462	767,264
-40,271	10,557	1429,092	766,438
-39,257	10,520	1428,082	765,689
-38,242	10,587	1427,066	765,431
-37,227	10,592	1425,938	764,819
-36,213	10,578	1424,735	764,080
-35,198	10,590	1423,569	763,480
-34,184	10,629	1422,585	763,103
-33,169	10,588	1421,339	762,213
-32,154	10,654	1420,001	761,776
-31,140	10,625	1418,930	761,037
-30,125	10,648	1417,834	760,525
-29,111	10,594	1416,800	759,685
-28,096	10,654	1415,238	759,099
-27,082	10,523	1414,468	758,042
-26,067	10,558	1413,379	757,593
-25,052	10,593	1412,237	757,113
-24,038	10,567	1411,233	756,424
-23,023	10,551	1410,241	755,786
-22,009	10,521	1409,270	755,095
-20,994	10,488	1408,367	754,428
-19,979	10,534	1407,358	754,071
-18,965	10,515	1406,427	753,457
-17,950	10,485	1405,597	752,839
-16,936	10,478	1404,841	752,375
-15,921	10,402	1403,990	751,535
-14,906	10,458	1402,704	751,077
-13,892	10,520	1401,701	750,800
-12,877	10,438	1401,108	750,069
-11,863	10,434	1400,176	749,520
-10,848	10,372	1399,371	748,771
-9,833	10,398	1398,430	748,360
-8,819	10,309	1397,650	747,498
-7,804	10,303	1396,777	746,973
-6,790	10,310	1395,807	746,461
-5,775	10,344	1394,564	745,922
-4,760	10,379	1393,433	745,450
-3,746	10,364	1392,737	744,979
-2,731	10,362	1391,763	744,420
-1,717	10,320	1391,190	743,888
-0,702	10,322	1389,124	742,766
0,313	14,281	1301,768	714,223
1,327	30,284	692,192	416,165
2,342	47,163	120,045	78,703
3,356	-3,313	16,626	8,143
4,371	1,164	3,411	1,722
5,386	-3,591	1,047	0,512
6,400	800,000	0,227	0,545
7,415	211,428	-0,109	-0,121
8,429	213,098	-0,231	-0,258
9,444	27,678	-0,306	-0,181
10,459	-131,928	-0,347	-0,032
11,473	20,486	-0,198	-0,113
12,488	-8,569	-0,472	-0,223
13,502	55,101	-0,286	-0,195
14,517	-96,796	-0,178	-0,033
15,531	61,638	-0,304	-0,213
16,546	128,577	-0,270	-0,243
17,561	206,291	-0,305	-0,335
18,575	-22,895	-0,222	-0,094
19,590	70,180	-0,251	-0,183
20,604	-81,843	-0,313	-0,072
21,619	215,611	-0,361	-0,404
22,634	100,923	-0,481	-0,394
23,648	52,732	-0,416	-0,279
24,663	21,559	-0,235	-0,134
25,677	42,911	-0,344	-0,220
26,692	-54,267	-0,363	-0,115
27,707	211,092	-0,323	-0,358
28,721	-8,821	-0,411	-0,193
29,736	-11,516	-0,433	-0,200
30,750	52,782	-0,390	-0,262
31,765	120,773	-0,362	-0,317
32,780	186,514	-0,339	-0,356
33,794	199,164	-0,347	-0,375
34,809	300,126	-0,269	-0,349
35,823	321,202	-0,271	-0,364
36,838	30,560	-0,388	-0,233
37,853	148,720	-0,256	-0,243
38,867	99,803	-0,317	-0,258
39,882	-7,197	-0,328	-0,156
40,896	36,788	-0,305	-0,189
41,911	-42,166	-0,390	-0,139
42,926	94,032	-0,247	-0,197
43,940	-33,357	-0,429	-0,166
44,955	-20,012	-0,361	-0,156
45,969	224,701	-0,232	-0,264
46,984	611,386	-0,190	-0,336
47,999	74,830	-0,198	-0,146
49,013	-6,862	-0,389	-0,185
50,028	-32,793	-0,312	-0,121
51,042	109,570	-0,284	-0,239
52,057	192,041	-0,348	-0,369
53,071	85,157	-0,326	-0,251
54,086	27,326	-0,263	-0,155
55,101	165,429	-0,307	-0,305
56,115	74,891	-0,426	-0,315
57,130	57,472	-0,421	-0,289
58,144	-17,302	-0,376	-0,165
59,159	27,377	-0,346	-0,204
60,174	17,782	-0,393	-0,219
61,188	224,208	-0,235	-0,267
62,203	133,184	-0,251	-0,228
63,217	127,344	-0,281	-0,251
64,232	81,742	-0,269	-0,204
65,247	6,309	-0,276	-0,143
66,261	124,677	-0,292	-0,258
67,276	199,290	-0,266	-0,286
68,290	144,244	-0,232	-0,217
69,305	32,521	-0,277	-0,168
70,320	399,622	-0,183	-0,270
71,334	5,252	-0,291	-0,150
72,349	59,282	-0,239	-0,165
73,363	63,749	-0,293	-0,206
74,378	-2,975	-0,354	-0,173
75,393	460,459	-0,203	-0,318
76,407	173,425	-0,252	-0,255
77,422	13,585	-0,381	-0,207
78,436	-43,217	-0,291	-0,103
79,451	138,280	-0,262	-0,241
80,466	-89,999	-0,513	-0,104
81,480	93,683	-0,285	-0,226
82,495	153,759	-0,181	-0,174
83,509	112,335	-0,302	-0,256
84,524	-47,853	-0,289	-0,098
85,539	238,337	-0,238	-0,278
86,553	-16,269	-0,356	-0,158
87,568	65,782	-0,303	-0,215
88,582	106,153	-0,271	-0,225
89,597	-74,565	-0,511	-0,128
90,611	53,055	-0,375	-0,251
91,626	-2,965	-0,296	-0,144
92,641	210,899	-0,178	-0,197
93,655	143,922	-0,170	-0,159
94,670	106,604	-0,253	-0,210
95,684	-27,797	-0,384	-0,155
96,699	23,721	-0,390	-0,224
97,714	-11,517	-0,234	-0,107
98,728	-26,858	-0,267	-0,109
99,743	800,000	-0,153	-0,347
100,757	1,968	-0,281	-0,141
101,772	210,104	-0,236	-0,260
102,787	339,133	-0,173	-0,237
103,801	-22,474	-0,357	-0,150
104,816	61,347	-0,202	-0,140
105,830	36,497	-0,137	-0,085
106,845	-179,267	-0,286	-0,004
107,860	180,732	-0,097	-0,100
108,874	4,001	-0,244	-0,124
109,889	214,760	-0,193	-0,215
110,903	-41,415	-0,267	-0,096
111,918	-28,953	-0,349	-0,139
112,933	309,273	-0,128	-0,167
113,947	166,400	-0,129	-0,128
114,962	-44,173	-0,245	-0,086
115,976	41,995	-0,176	-0,112
116,991	141,626	-0,372	-0,345
118,006	-1,148	-0,361	-0,178
119,020	44,490	-0,141	-0,090
120,035	81,073	-0,251	-0,189
121,049	-55,378	-0,250	0,078
122,064	-106,394	-0,179	-0,028
123,079	-6,589	-0,258	-0,122
124,093	358,678	-0,241	-0,337
125,108	614,745	-0,162	-0,285
126,122	426,492	-0,192	-0,290
127,137	-16,694	-0,184	-0,081
128,151	335,640	-0,182	-0,248
129,166	-30,575	-0,279	-0,110
130,181	-86,857	-0,293	-0,062
131,195	301,768	-0,138	-0,178
132,210	28,425	-0,267	-0,157
133,224	51,585	-0,375	-0,248
134,239	354,199	-0,210	-0,292
135,254	-45,182	-0,091	0,032
136,268	305,000	-0,137	-0,178
137,283	75,060	-0,336	-0,247
138,297	22,866	-0,337	-0,192
139,312	-47,301	-0,234	-0,079
140,327	-43,143	-0,252	-0,089
141,341	66,682	-0,178	-0,126
142,356	-35,503	-0,282	-0,106
143,370	-83,786	-0,163	-0,036
144,385	198,049	-0,201	-0,214
145,400	332,753	-0,172	-0,232
146,414	20,212	-0,295	-0,166
147,429	2,203	-0,268	-0,134
148,443	387,757	-0,198	-0,285
149,458	164,508	-0,187	-0,183
150,473	225,395	-0,188	-0,212
151,487	66,613	-0,281	-0,199
152,502	282,998	-0,203	-0,255
153,516	99,181	-0,167	-0,134
154,531	259,589	-0,320	-0,386
155,546	1,956	-0,162	-0,081
156,560	131,624	-0,212	-0,190
157,575	201,397	-0,238	-0,256
158,589	-52,139	-0,304	-0,098
159,604	43,034	-0,220	-0,139
160,619	119,322	-0,325	-0,280
161,633	-21,785	-0,329	-0,139
162,648	-55,163	-0,194	-0,060
163,662	800,000	-0,087	-0,237
164,677	395,359	-0,120	-0,175
165,692	493,292	-0,195	-0,313
166,706	74,774	-0,330	-0,241
167,721	-70,433	-0,354	-0,093
168,735	51,216	-0,345	-0,227
169,750	-2,208	-0,360	-0,175
170,764	22,173	-0,243	-0,138
171,779	-200,000	-0,039	-0,125
172,794	309,663	-0,143	-0,186
173,808	99,757	-0,134	-0,108
174,823	8,720	-0,370	-0,193
175,837	-34,357	-0,214	-0,081
176,852	480,289	-0,161	-0,255
177,867	-28,566	-0,146	-0,058
178,881	344,164	-0,122	-0,167
179,896	-77,700	-0,281	-0,067
180,910	-100,838	-0,082	-0,014
181,925	14,724	-0,210	-0,114
182,940	749,116	-0,116	-0,219
183,954	33,292	-0,335	-0,202
184,969	60,283	-0,182	-0,125
185,983	800,000	-0,128	-0,361
186,998	181,650	-0,228	-0,233
188,013	138,100	-0,230	-0,210
189,027	2,711	-0,279	-0,140
190,042	73,280	-0,263	-0,191
191,056	82,230	-0,155	-0,117
192,071	149,656	-0,207	-0,195
193,086	141,586	-0,173	-0,159
194,100	531,447	-0,143	-0,235
195,115	98,884	-0,203	-0,162
196,129	94,985	-0,271	-0,214
197,144	-75,842	-0,164	-0,040
198,159	800,000	-0,135	-0,273
199,173	-79,998	-0,206	-0,048
200,188	66,271	-0,176	-0,124
201,202	-84,542	-0,263	-0,057
202,217	654,465	-0,140	-0,250
203,232	61,086	-0,157	-0,108
204,246	800,000	-0,076	-0,163
205,261	36,870	-0,241	-0,147
206,275	-68,410	-0,286	-0,076
207,290	214,932	-0,118	-0,130
208,304	44,668	-0,098	-0,062
209,319	20,081	-0,223	-0,124
210,334	338,179	-0,114	-0,154
211,348	-145,597	-0,331	0,020
212,363	195,305	-0,187	-0,197
213,377	365,475	-0,073	-0,103
214,392	15,884	-0,047	-0,026
215,407	555,304	-0,077	-0,129
216,421	211,859	-0,173	-0,189
217,436	800,000	-0,096	-0,220
218,450	-46,771	-0,232	-0,078
219,465	26,089	-0,233	-0,134
220,480	187,928	-0,155	-0,160
221,494	-200,000	-0,031	-0,118
222,509	88,849	-0,122	-0,094
223,523	-5,534	-0,226	-0,107
224,538	65,474	-0,172	-0,120
225,553	395,128	-0,106	-0,154
226,567	-39,803	-0,222	-0,080
227,582	62,824	-0,191	-0,132
228,596	5,369	-0,218	-0,111
229,611	-138,878	-0,224	0,017
230,626	-200,000	-0,035	-0,111
231,640	150,610	-0,174	-0,163
232,655	800,000	-0,122	-0,235
233,669	181,871	-0,220	-0,224
234,684	172,720	-0,167	-0,167
235,699	800,000	-0,099	-0,202
236,713	-200,000	-0,042	0,131
237,728	-186,441	-0,236	0,002
238,742	-82,485	-0,184	0,041
239,757	-32,474	-0,234	-0,090
240,772	155,045	-0,229	-0,218
241,786	-36,539	-0,205	-0,076
242,801	179,301	-0,174	-0,176
243,815	-113,471	0,014	-0,002
244,830	643,293	-0,146	-0,259
245,844	-58,053	-0,181	-0,054
246,859	800,000	-0,037	-0,076
247,874	194,086	-0,179	-0,187
248,888	18,327	-0,222	-0,122
249,903	117,016	-0,195	-0,165
250,917	235,726	-0,143	-0,163
251,932	69,078	-0,151	-0,107
252,947	-11,522	-0,212	-0,096
253,961	86,300	-0,138	-0,105
254,976	460,773	-0,125	-0,193
255,990	-36,463	-0,257	-0,095
257,005	25,131	-0,048	0,027
258,020	193,467	-0,144	-0,150
259,034	-149,044	-0,171	-0,009
260,049	266,877	-0,123	-0,149
261,063	145,687	-0,201	-0,186
262,078	55,788	-0,202	-0,135
263,093	109,545	-0,193	-0,159
264,107	569,047	-0,092	-0,155
265,122	456,022	-0,061	-0,094
266,136	-14,996	-0,131	-0,058
267,151	-135,382	-0,089	-0,007
268,166	94,426	-0,188	-0,147
269,180	182,536	-0,171	-0,174
270,195	800,000	-0,074	-0,167
271,209	17,286	-0,254	-0,138
272,224	37,987	-0,270	-0,165
273,239	181,128	-0,188	-0,190
274,253	-44,081	-0,101	0,035
275,268	579,475	-0,078	-0,133
276,282	195,076	-0,017	-0,017
277,297	93,505	-0,148	-0,116
278,312	34,362	-0,243	-0,146
279,326	485,123	-0,040	-0,063
280,341	238,702	-0,158	-0,181
281,355	-102,071	-0,290	-0,048
282,370	105,828	-0,119	-0,097
283,384	31,312	-0,157	-0,092
284,399	-73,995	-0,145	-0,036
285,414	-43,512	-0,214	-0,074
286,428	378,906	-0,065	-0,092
287,443	-200,000	-0,189	0,000
288,457	-3,326	-0,177	-0,084
289,472	778,421	-0,044	-0,084
290,487	501,374	-0,188	-0,300
291,501	-200,000	-0,010	-0,146
292,516	-137,214	-0,136	-0,010
293,530	-113,959	-0,124	0,016
294,545	-47,848	-0,273	-0,090
295,560	-74,088	-0,213	0,053
296,574	250,138	-0,094	-0,110
297,589	-112,203	-0,116	-0,016
298,603	66,946	-0,115	-0,081
299,618	98,051	-0,205	-0,162
300,633	176,083	-0,142	-0,142
301,647	91,632	-0,105	-0,081
302,662	172,227	-0,175	-0,173
303,676	-43,096	-0,135	0,047
304,691	355,424	-0,116	-0,159
305,706	36,660	-0,175	-0,106
306,720	224,434	-0,158	-0,176
307,735	540,656	-0,116	-0,191
308,749	103,822	-0,118	-0,095
309,764	94,524	-0,082	-0,064
310,779	-60,131	-0,019	0,005
311,793	-151,795	-0,148	0,007
312,808	175,554	-0,182	-0,181
313,822	-13,183	-0,175	0,078
314,837	35,038	-0,121	-0,073
315,852	-200,000	0,008	-0,058
316,866	316,196	-0,048	-0,063
317,881	800,000	-0,071	-0,176
318,895	289,804	-0,169	-0,211
319,910	13,768	-0,201	-0,107
320,925	164,912	-0,159	-0,154
321,939	357,436	-0,060	-0,082
322,954	545,139	-0,153	-0,251
323,968	800,000	-0,045	-0,123
324,983	140,487	-0,076	-0,069
325,997	64,060	-0,186	-0,128
327,012	119,934	-0,195	-0,165
328,027	-43,871	-0,156	-0,054
329,041	-37,549	-0,248	-0,090
330,056	800,000	-0,057	-0,117
331,070	-200,000	-0,003	-0,036
332,085	758,981	-0,116	-0,217
333,100	-200,000	-0,034	-0,161
334,114	-11,705	-0,269	-0,121
335,129	800,000	-0,089	-0,179
336,143	583,362	-0,097	-0,164
337,158	92,906	-0,238	-0,184
338,173	-89,311	-0,251	-0,050
339,187	379,523	-0,081	-0,115
340,202	-200,000	-0,022	-0,178
341,216	107,122	-0,139	-0,113
342,231	345,143	-0,136	-0,184
343,246	377,257	-0,111	-0,156
344,260	-75,612	-0,172	-0,042
345,275	1,925	-0,114	-0,056
346,289	800,000	-0,048	-0,124
347,304	265,113	-0,111	-0,132
348,319	383,029	-0,129	-0,182
349,333	33,189	-0,154	-0,091
350,348	-37,641	-0,107	-0,039
351,362	498,377	-0,203	-0,321
352,377	-200,000	0,020	-0,063
353,392	255,220	-0,086	-0,101
354,406	56,894	-0,177	-0,118
355,421	206,901	1312,118	1400,720
356,435	159,137	1472,510	1401,196
