DTS Sentinel unit serial number:	SN410029Multiplexer serial number:	ORYXHardware model number:	OX2-SRSoftware version number:	ORYX F/W v4,00 Oryx Data Collector v3.7.2.0data status	okinstallation	B3 Nyhavnadifferential loss correction	single-endedforward channel	channel 1reverse channel	N/Adate	2023/12/01time	22:47:30forward acquisition time	300,00reverse acquisition time	0,00gamma	499,1914k internal	0,3196k external	0,3196temperature offset calibration	1,0000default loss term (dB/km)	0,3820temperature slope calibration	1,0000multiplexer offset coefficient	1,0000multiplexer slope coefficient	1,0000fibre end	0,00T internal ref (°C)	15,84T ext. ref 1 (°C)	0,98T ext. ref 2 (°C)	0,96length (m)	temperature (°C)	Stokes	anti-Stokes-744,400	296,919	-0,196	-0,263
-743,385	-200,000	-0,001	0,277
-742,371	800,000	-0,071	-0,181
-741,356	-200,000	-0,038	0,335
-740,342	800,000	-0,096	-0,226
-739,327	-200,000	0,034	0,193
-738,312	794,411	-0,059	-0,120
-737,298	-200,000	0,001	0,284
-736,283	800,000	-0,106	-0,289
-735,269	-200,000	0,056	0,229
-734,254	176,482	-0,153	-0,162
-733,239	-59,561	-0,166	0,052
-732,225	288,196	-0,107	-0,141
-731,210	25,830	0,171	0,103
-730,196	-38,263	-0,122	-0,047
-729,181	23,948	-0,123	-0,073
-728,167	800,000	0,047	-0,096
-727,152	373,953	-0,040	-0,059
-726,137	800,000	-0,080	-0,189
-725,123	-200,000	-0,021	-0,120
-724,108	800,000	-0,036	-0,103
-723,094	800,000	-0,069	-0,214
-722,079	-200,000	-0,024	-0,133
-721,064	189,288	0,074	-0,081
-720,050	-6,849	-0,069	0,034
-719,035	-200,000	0,019	-0,107
-718,021	55,558	-0,050	-0,035
-717,006	-81,671	-0,026	-0,006
-715,991	463,180	-0,056	-0,092
-714,977	172,445	-0,074	-0,078
-713,962	164,989	-0,023	-0,024
-712,948	-200,000	-0,009	0,152
-711,933	-58,297	-0,107	0,034
-710,918	-36,646	0,081	0,032
-709,904	800,000	0,009	0,018
-708,889	800,000	-0,031	0,063
-707,875	-0,142	0,030	-0,015
-706,860	35,797	-0,049	-0,031
-705,845	37,241	0,064	0,041
-704,831	362,149	0,050	0,074
-703,816	133,019	0,086	0,081
-702,802	800,000	0,039	0,092
-701,787	-47,565	0,030	-0,010
-700,772	-200,000	0,044	-0,143
-699,758	-71,157	-0,069	0,019
-698,743	-151,201	-0,074	-0,004
-697,729	-200,000	-0,015	-0,158
-696,714	800,000	0,033	0,095
-695,699	-150,041	-0,037	0,002
-694,685	139,810	-0,065	-0,062
-693,670	-200,000	-0,043	-0,191
-692,656	21,902	-0,095	0,056
-691,641	-53,542	-0,079	-0,026
-690,627	-53,596	0,026	-0,008
-689,612	-137,978	0,112	0,009
-688,597	-56,037	-0,149	0,048
-687,583	-128,463	-0,224	-0,023
-686,568	516,583	-0,092	-0,157
-685,554	-116,288	0,060	0,008
-684,539	-107,108	0,079	0,012
-683,524	14,401	-0,136	0,077
-682,510	-200,000	0,011	-0,168
-681,495	-157,656	-0,058	0,002
-680,481	4,636	0,073	-0,039
-679,466	-138,607	-0,102	0,008
-678,451	194,911	-0,132	-0,145
-677,437	44,482	0,144	-0,096
-676,422	800,000	0,062	0,138
-675,408	-136,106	0,062	-0,005
-674,393	45,837	0,117	-0,079
-673,378	-156,002	-0,086	-0,004
-672,364	-48,534	-0,059	-0,020
-671,349	146,543	-0,105	-0,102
-670,335	-200,000	0,011	-0,089
-669,320	438,509	-0,034	0,054
-668,305	-200,000	-0,001	0,033
-667,291	306,595	-0,076	-0,103
-666,276	-26,902	-0,093	-0,039
-665,262	-28,449	-0,061	-0,025
-664,247	-200,000	0,000	-0,042
-663,232	61,966	-0,072	-0,052
-662,218	-30,353	0,118	-0,049
-661,203	103,738	-0,012	0,010
-660,189	-33,990	-0,121	-0,048
-659,174	160,337	-0,017	0,017
-658,159	-101,191	-0,060	0,011
-657,145	97,412	-0,113	0,094
-656,130	445,946	-0,025	0,040
-655,116	598,882	-0,033	0,060
-654,101	800,000	-0,022	0,063
-653,086	-200,000	-0,032	-0,111
-652,072	-182,041	-0,101	-0,001
-651,057	800,000	-0,018	0,039
-650,043	800,000	0,044	-0,129
-649,028	800,000	-0,034	-0,079
-648,014	271,683	0,027	-0,035
-646,999	354,067	-0,042	-0,060
-645,984	-117,147	0,044	0,006
-644,970	237,423	0,039	-0,047
-643,955	68,909	0,033	-0,025
-642,941	-12,719	-0,101	-0,048
-641,926	-200,000	0,002	-0,097
-640,911	-125,243	0,054	0,006
-639,897	-47,136	-0,018	0,006
-638,882	695,806	0,023	-0,043
-637,868	-66,585	-0,135	-0,039
-636,853	18,776	-0,155	0,090
-635,838	-200,000	-0,024	0,137
-634,824	51,531	-0,065	-0,045
-633,809	150,257	0,051	0,051
-632,795	41,197	0,047	0,031
-631,780	-200,000	0,040	0,169
-630,765	800,000	-0,022	-0,069
-629,751	-200,000	-0,037	-0,150
-628,736	800,000	-0,062	-0,151
-627,722	246,869	-0,100	-0,123
-626,707	574,160	0,068	-0,121
-625,692	747,302	0,046	0,090
-624,678	-200,000	-0,026	0,161
-623,663	800,000	0,008	-0,026
-622,649	612,744	0,040	-0,073
-621,634	585,160	0,088	-0,157
-620,619	-200,000	-0,021	-0,096
-619,605	187,397	-0,084	0,091
-618,590	112,362	0,037	0,032
-617,576	-8,163	-0,018	0,009
-616,561	58,416	-0,144	0,102
-615,546	-93,435	-0,128	0,026
-614,532	-21,046	0,071	-0,031
-613,517	288,645	-0,029	0,039
-612,503	-200,000	-0,111	0,000
-611,488	297,916	0,066	0,089
-610,474	800,000	0,070	0,172
-609,459	98,652	-0,047	0,039
-608,444	641,399	-0,044	0,082
-607,430	-57,744	-0,059	-0,019
-606,415	-149,816	-0,120	-0,007
-605,401	-200,000	0,026	-0,142
-604,386	-54,334	-0,077	-0,025
-603,371	5,637	-0,036	-0,019
-602,357	5,102	-0,031	0,016
-601,342	130,057	0,045	-0,042
-600,328	-32,655	0,210	-0,084
-599,313	-133,106	0,003	-0,000
-598,298	-89,502	-0,092	-0,019
-597,284	246,764	0,085	0,104
-596,269	37,780	0,032	0,021
-595,255	800,000	-0,024	0,055
-594,240	220,694	0,038	0,044
-593,225	800,000	0,034	-0,099
-592,211	44,858	-0,139	-0,093
-591,196	-200,000	-0,013	0,053
-590,182	-200,000	0,050	-0,171
-589,167	541,206	0,055	0,096
-588,152	-200,000	0,020	0,090
-587,138	-18,120	0,072	-0,032
-586,123	34,484	0,061	0,039
-585,109	97,216	-0,189	-0,157
-584,094	169,618	0,074	0,076
-583,079	-68,385	0,098	0,027
-582,065	800,000	0,032	0,080
-581,050	-200,000	0,032	0,135
-580,036	140,635	0,062	-0,060
-579,021	-200,000	-0,011	-0,147
-578,006	800,000	-0,056	-0,129
-576,992	-121,566	-0,178	-0,021
-575,977	538,608	-0,063	0,110
-574,963	-200,000	0,015	0,100
-573,948	-200,000	0,002	-0,072
-572,934	172,054	0,050	0,052
-571,919	-200,000	-0,006	-0,051
-570,904	439,861	0,063	-0,100
-569,890	106,519	-0,068	-0,059
-568,875	800,000	0,010	0,024
-567,861	800,000	0,072	0,147
-566,846	-170,783	0,149	-0,004
-565,831	-200,000	-0,000	-0,010
-564,817	800,000	-0,023	-0,060
-563,802	180,008	-0,076	-0,080
-562,788	-200,000	-0,016	-0,115
-561,773	360,450	-0,037	0,054
-560,758	176,459	0,039	-0,041
-559,744	-200,000	-0,005	-0,060
-558,729	-200,000	-0,008	-0,075
-557,715	258,845	0,019	-0,023
-556,700	800,000	-0,009	-0,024
-555,685	-73,175	0,041	0,011
-554,671	-200,000	-0,014	0,054
-553,656	27,798	0,099	-0,060
-552,642	-79,436	0,160	0,039
-551,627	53,004	-0,100	0,069
-550,612	-13,111	-0,018	0,008
-549,598	-200,000	0,108	-0,000
-548,583	257,569	0,021	-0,026
-547,569	-200,000	0,044	-0,230
-546,554	-188,187	0,078	0,001
-545,539	-158,599	0,050	-0,002
-544,525	-27,789	-0,075	0,031
-543,510	743,873	-0,079	-0,154
-542,496	130,986	-0,064	-0,060
-541,481	-79,754	0,099	-0,024
-540,466	-48,534	0,101	-0,035
-539,452	94,598	0,037	0,030
-538,437	-200,000	0,020	0,071
-537,423	-131,323	-0,081	0,008
-536,408	384,359	0,054	-0,081
-535,393	800,000	-0,049	-0,123
-534,379	-27,578	-0,116	0,048
-533,364	-200,000	-0,005	0,111
-532,350	-62,927	-0,031	0,009
-531,335	-200,000	-0,007	0,133
-530,321	-98,680	0,083	0,015
-529,306	-116,054	-0,084	0,011
-528,291	-51,553	0,055	0,018
-527,277	-128,249	0,059	-0,006
-526,262	382,695	-0,054	0,081
-525,248	-200,000	-0,011	0,052
-524,233	8,287	0,069	-0,037
-523,218	-134,250	-0,155	-0,014
-522,204	-69,582	0,063	0,017
-521,189	263,719	0,028	-0,035
-520,175	800,000	-0,042	-0,108
-519,160	-61,557	-0,038	0,011
-518,145	-200,000	0,011	0,056
-517,131	70,998	0,045	-0,034
-516,116	-200,000	-0,000	0,078
-515,102	119,407	0,078	0,070
-514,087	800,000	0,040	-0,081
-513,072	-30,951	0,173	-0,070
-512,058	643,117	-0,064	-0,119
-511,043	-36,407	0,075	0,029
-510,029	-111,941	0,164	0,024
-509,014	-200,000	-0,001	-0,126
-507,999	511,221	0,045	-0,075
-506,985	-200,000	-0,031	-0,120
-505,970	23,429	0,071	-0,042
-504,956	322,180	-0,067	-0,092
-503,941	182,213	-0,100	-0,107
-502,926	291,457	0,061	-0,081
-501,912	-200,000	-0,004	0,038
-500,897	800,000	-0,003	-0,007
-499,883	730,684	0,055	0,106
-498,868	798,769	0,053	-0,105
-497,853	297,415	0,068	-0,090
-496,839	-200,000	0,004	-0,126
-495,824	-200,000	-0,017	0,120
-494,810	-200,000	-0,004	0,026
-493,795	800,000	0,064	0,153
-492,781	-200,000	-0,042	0,154
-491,766	46,938	0,016	-0,011
-490,751	-50,342	0,161	-0,055
-489,737	530,865	-0,020	-0,035
-488,722	-1,452	-0,046	0,024
-487,708	800,000	-0,028	0,074
-486,693	-118,190	-0,038	-0,005
-485,678	-114,518	0,088	-0,012
-484,664	302,960	0,093	-0,124
-483,649	800,000	0,021	-0,043
-482,635	-3,490	0,045	0,023
-481,620	21,581	0,093	-0,054
-480,605	640,609	-0,095	0,175
-479,591	800,000	-0,076	0,169
-478,576	365,443	-0,060	0,087
-477,562	342,373	-0,070	-0,100
-476,547	-171,283	-0,100	0,002
-475,532	-200,000	0,017	0,080
-474,518	-200,000	0,017	0,111
-473,503	800,000	0,011	0,021
-472,489	-200,000	-0,000	0,052
-471,474	396,901	-0,059	0,089
-470,459	639,932	-0,053	-0,097
-469,445	130,684	-0,016	-0,014
-468,430	559,625	-0,027	-0,048
-467,416	260,891	-0,054	0,067
-466,401	800,000	0,033	0,082
-465,386	82,429	0,027	-0,021
-464,372	183,321	0,064	-0,068
-463,357	-200,000	0,006	-0,028
-462,343	310,014	0,110	-0,149
-461,328	85,510	-0,109	-0,087
-460,313	80,947	-0,102	0,079
-459,299	620,239	0,027	0,050
-458,284	-200,000	-0,012	0,084
-457,270	41,383	0,037	0,024
-456,255	106,420	-0,113	-0,096
-455,241	-97,643	-0,039	-0,007
-454,226	13,996	-0,055	-0,031
-453,211	459,691	0,035	-0,056
-452,197	42,707	0,081	0,053
-451,182	800,000	-0,047	0,115
-450,168	52,474	0,140	0,096
-449,153	51,256	-0,052	0,035
-448,138	27,212	0,017	-0,010
-447,124	-17,965	-0,068	-0,031
-446,109	-110,961	0,117	0,017
-445,095	77,609	0,098	0,075
-444,080	-200,000	-0,017	0,142
-443,065	-106,237	-0,035	0,006
-442,051	45,583	0,067	-0,044
-441,036	-47,911	-0,049	-0,017
-440,022	-94,545	-0,046	-0,009
-439,007	-6,582	0,031	0,015
-437,992	157,657	-0,044	-0,043
-436,978	-200,000	-0,004	-0,038
-435,963	-180,353	-0,184	-0,003
-434,949	23,804	-0,064	-0,038
-433,934	195,329	0,037	-0,041
-432,919	-27,402	0,003	-0,001
-431,905	260,656	-0,057	-0,071
-430,890	774,945	0,019	0,037
-429,876	10,912	0,079	0,043
-428,861	-200,000	0,009	-0,057
-427,846	-84,517	0,061	-0,014
-426,832	800,000	-0,028	0,060
-425,817	800,000	-0,025	-0,060
-424,803	-72,551	-0,107	-0,028
-423,788	800,000	-0,039	-0,080
-422,773	-200,000	-0,029	0,209
-421,759	-200,000	0,022	0,116
-420,744	-200,000	-0,011	0,235
-419,730	108,257	-0,030	0,026
-418,715	600,794	-0,050	-0,090
-417,701	-200,000	0,008	-0,088
-416,686	245,797	-0,073	-0,089
-415,671	800,000	-0,023	0,069
-414,657	-26,832	0,112	-0,047
-413,642	-151,601	0,083	0,004
-412,628	800,000	-0,040	-0,114
-411,613	-14,539	-0,060	-0,028
-410,598	-62,800	-0,034	-0,010
-409,584	381,647	0,072	0,107
-408,569	343,921	0,051	-0,072
-407,555	-49,116	0,067	0,023
-406,540	-200,000	-0,020	0,064
-405,525	-200,000	0,028	0,149
-404,511	-12,312	-0,104	0,049
-403,496	-120,132	0,074	0,009
-402,482	-200,000	0,008	-0,151
-401,467	488,072	-0,002	-0,002
-400,452	-200,000	0,043	0,154
-399,438	376,301	0,034	-0,051
-398,423	800,000	0,043	-0,117
-397,409	-200,000	-0,001	-0,042
-396,394	451,644	0,061	-0,097
-395,379	-200,000	0,006	-0,140
-394,365	800,000	-0,022	-0,050
-393,350	-15,794	0,136	0,062
-392,336	357,306	0,069	-0,099
-391,321	-10,741	0,077	-0,037
-390,306	21,251	-0,113	-0,066
-389,292	-200,000	-0,030	-0,098
-388,277	380,579	-0,107	-0,158
-387,263	-69,608	0,115	-0,031
-386,248	42,821	0,045	0,030
-385,233	-200,000	0,008	0,071
-384,219	-200,000	-0,016	0,098
-383,204	611,706	-0,077	-0,139
-382,190	-181,441	0,059	-0,001
-381,175	800,000	-0,019	-0,052
-380,160	91,578	-0,037	0,030
-379,146	-200,000	-0,000	-0,082
-378,131	-200,000	-0,000	0,059
-377,117	-152,244	0,059	0,003
-376,102	-200,000	0,011	-0,066
-375,088	-200,000	0,002	-0,134
-374,073	52,792	0,037	0,025
-373,058	-83,948	-0,150	0,034
-372,044	233,608	-0,078	0,093
-371,029	658,032	0,067	0,124
-370,015	800,000	-0,033	0,067
-369,000	125,112	0,013	0,011
-367,985	-35,617	0,053	-0,021
-366,971	142,935	0,034	-0,032
-365,956	-185,318	0,045	0,000
-364,942	140,414	-0,097	0,092
-363,927	11,561	-0,055	-0,030
-362,912	-30,803	-0,072	0,029
-361,898	-200,000	0,001	0,056
-360,883	380,022	0,058	0,085
-359,869	800,000	0,075	-0,196
-358,854	198,349	0,059	-0,065
-357,839	446,372	-0,033	0,052
-356,825	107,574	0,084	0,072
-355,810	175,292	0,037	0,038
-354,796	34,138	-0,074	-0,046
-353,781	150,259	0,026	-0,025
-352,766	93,971	0,102	-0,083
-351,752	-200,000	-0,035	0,119
-350,737	308,821	0,064	0,087
-349,723	-200,000	0,011	0,135
-348,708	-200,000	0,001	0,179
-347,693	128,615	-0,151	-0,138
-346,679	-200,000	0,015	0,087
-345,664	-200,000	-0,007	-0,024
-344,650	800,000	0,016	-0,045
-343,635	31,719	-0,189	0,116
-342,620	19,322	-0,045	-0,026
-341,606	-51,845	0,074	-0,025
-340,591	-87,972	-0,018	0,004
-339,577	-0,862	-0,075	-0,038
-338,562	-200,000	0,016	-0,070
-337,548	-200,000	0,008	0,050
-336,533	145,173	-0,024	0,023
-335,518	800,000	0,004	0,011
-334,504	-200,000	-0,016	0,121
-333,489	-200,000	-0,003	-0,143
-332,475	51,932	-0,155	-0,106
-331,460	19,740	-0,047	0,027
-330,445	-200,000	0,010	0,068
-329,431	-200,000	-0,005	0,048
-328,416	542,947	-0,053	0,091
-327,402	43,938	0,035	-0,023
-326,387	394,492	0,062	0,094
-325,372	800,000	0,010	0,025
-324,358	-4,556	-0,071	0,035
-323,343	256,323	-0,088	0,108
-322,329	3,862	-0,069	0,036
-321,314	-200,000	0,015	0,072
-320,299	-200,000	0,030	0,101
-319,285	387,477	0,076	0,113
-318,270	-58,484	-0,104	-0,032
-317,256	406,407	0,013	-0,020
-316,241	-64,499	-0,065	0,019
-315,226	-200,000	0,009	0,165
-314,212	-60,787	0,049	-0,015
-313,197	-200,000	-0,002	-0,091
-312,183	425,546	-0,057	0,088
-311,168	217,412	-0,013	0,015
-310,153	412,583	-0,108	-0,165
-309,139	603,191	0,050	-0,090
-308,124	800,000	0,016	-0,045
-307,110	-200,000	0,038	-0,154
-306,095	-179,288	0,091	0,001
-305,080	800,000	0,030	-0,061
-304,066	-157,238	-0,096	-0,004
-303,051	-200,000	-0,017	0,122
-302,037	-200,000	-0,037	-0,130
-301,022	183,939	0,117	0,125
-300,008	800,000	0,028	0,060
-298,993	184,424	0,135	0,143
-297,978	-200,000	-0,008	0,074
-296,964	315,953	0,050	0,067
-295,949	64,699	-0,010	0,007
-294,935	89,658	-0,147	-0,117
-293,920	71,419	0,074	-0,055
-292,905	416,676	0,113	-0,173
-291,891	213,035	-0,079	-0,090
-290,876	-200,000	0,002	-0,042
-289,862	385,297	0,070	-0,103
-288,847	-132,508	-0,096	0,009
-287,832	-76,177	-0,175	-0,044
-286,818	-200,000	0,018	-0,061
-285,803	-200,000	0,037	0,124
-284,789	40,299	0,037	-0,024
-283,774	468,308	0,029	-0,048
-282,759	175,439	0,127	0,132
-281,745	-2,096	-0,072	0,036
-280,730	717,344	-0,047	-0,091
-279,716	-22,132	-0,160	-0,069
-278,701	-109,735	0,172	-0,026
-277,686	800,000	-0,076	0,201
-276,672	170,984	0,098	-0,100
-275,657	370,790	-0,037	0,053
-274,643	130,911	-0,128	-0,117
-273,628	-69,204	-0,133	0,036
-272,613	-200,000	-0,006	-0,067
-271,599	-200,000	0,027	0,098
-270,584	-67,426	0,150	-0,042
-269,570	-200,000	0,030	-0,104
-268,555	77,222	-0,048	0,036
-267,540	800,000	-0,051	-0,133
-266,526	109,290	-0,130	-0,111
-265,511	44,902	-0,075	-0,049
-264,497	-127,492	0,057	0,006
-263,482	459,549	-0,032	0,052
-262,467	-140,743	0,020	0,001
-261,453	-200,000	-0,003	0,059
-260,438	1,074	0,094	0,048
-259,424	48,257	0,098	0,065
-258,409	302,757	0,062	-0,082
-257,395	-69,145	-0,035	0,010
-256,380	98,439	-0,062	-0,051
-255,365	251,823	0,104	0,127
-254,351	800,000	0,041	-0,090
-253,336	177,309	-0,067	0,070
-252,322	-200,000	-0,009	-0,078
-251,307	176,834	-0,016	-0,017
-250,292	-70,543	0,087	0,023
-249,278	-146,914	0,229	0,014
-248,263	697,617	0,036	0,068
-247,249	18,882	-0,135	0,077
-246,234	46,192	0,077	0,051
-245,219	-200,000	-0,016	-0,127
-244,205	-59,797	0,114	0,035
-243,190	-13,466	0,074	-0,034
-242,176	0,821	-0,025	0,013
-241,161	226,410	0,017	0,019
-240,146	-200,000	0,018	0,135
-239,132	-85,184	-0,027	0,006
-238,117	-200,000	0,021	-0,142
-237,103	-187,162	-0,091	0,001
-236,088	95,441	0,098	0,080
-235,073	-64,254	0,015	0,004
-234,059	514,011	0,094	0,157
-233,044	-62,353	-0,080	-0,024
-232,030	-122,360	-0,107	0,012
-231,015	73,851	-0,090	0,067
-230,000	-62,794	-0,087	-0,026
-228,986	-96,437	0,035	-0,007
-227,971	103,922	0,040	-0,033
-226,957	6,673	0,006	0,003
-225,942	155,851	-0,083	0,082
-224,927	37,065	-0,031	0,019
-223,913	-200,000	-0,019	0,092
-222,898	473,699	0,042	-0,067
-221,884	-168,862	-0,043	-0,001
-220,869	259,136	0,053	0,066
-219,855	91,847	0,067	-0,054
-218,840	38,212	0,087	-0,055
-217,825	132,524	-0,111	0,102
-216,811	86,692	-0,083	-0,065
-215,796	86,286	-0,138	-0,108
-214,782	-97,691	0,167	-0,031
-213,767	775,632	0,037	0,073
-212,752	-102,765	-0,128	0,021
-211,738	119,369	-0,062	0,055
-210,723	-13,094	-0,033	-0,015
-209,709	800,000	0,034	0,074
-208,694	-200,000	0,026	-0,121
-207,679	800,000	-0,026	-0,071
-206,665	430,520	0,044	0,068
-205,650	69,949	-0,109	0,080
-204,636	698,047	-0,079	0,148
-203,621	95,460	0,069	-0,056
-202,606	-190,488	0,028	-0,000
-201,592	399,432	0,045	-0,068
-200,577	800,000	-0,050	-0,114
-199,563	-200,000	0,002	-0,115
-198,548	84,523	0,020	-0,015
-197,533	44,825	0,064	-0,042
-196,519	346,833	0,014	0,020
-195,504	-200,000	-0,027	-0,135
-194,490	800,000	0,035	0,075
-193,475	-5,029	0,122	0,060
-192,460	133,369	0,039	0,036
-191,446	800,000	-0,017	0,039
-190,431	271,728	0,061	0,077
-189,417	16,022	-0,049	0,027
-188,402	800,000	-0,026	0,070
-187,387	800,000	0,037	0,108
-186,373	-200,000	-0,029	0,206
-185,358	-50,496	0,068	0,023
-184,344	15,140	0,124	0,069
-183,329	-200,000	0,008	-0,139
-182,315	-26,908	0,107	0,044
-181,300	-112,746	-0,054	-0,008
-180,285	800,000	0,039	-0,081
-179,271	-28,471	-0,107	0,044
-178,256	-200,000	0,012	0,056
-177,242	800,000	0,010	-0,031
-176,227	-107,241	0,145	-0,023
-175,212	-65,571	-0,155	0,044
-174,198	-89,054	0,082	0,017
-173,183	-104,761	-0,120	-0,019
-172,169	-200,000	0,002	-0,014
-171,154	-77,991	-0,134	0,033
-170,139	438,208	-0,026	-0,040
-169,125	172,367	0,038	-0,039
-168,110	800,000	-0,015	0,033
-167,096	-130,771	0,065	-0,006
-166,081	-200,000	0,013	-0,099
-165,066	247,519	-0,047	-0,057
-164,052	-151,836	0,055	0,003
-163,037	19,475	-0,079	-0,045
-162,023	49,751	0,075	0,050
-161,008	218,236	-0,061	0,069
-159,993	-36,676	0,080	0,030
-158,979	-132,755	-0,079	-0,007
-157,964	493,981	0,044	-0,071
-156,950	-200,000	-0,012	0,069
-155,935	93,179	-0,101	0,081
-154,920	85,355	0,073	0,057
-153,906	174,101	-0,048	0,049
-152,891	493,717	-0,077	0,126
-151,877	800,000	0,029	-0,084
-150,862	-200,000	-0,083	0,000
-149,847	430,162	0,037	-0,057
-148,833	-8,471	-0,100	0,048
-147,818	-157,383	-0,018	0,001
-146,804	31,979	-0,116	-0,071
-145,789	-143,031	0,100	-0,007
-144,775	175,803	0,042	-0,043
-143,760	-200,000	0,029	-0,169
-142,745	-18,988	-0,188	-0,083
-141,731	-200,000	0,022	0,089
-140,716	-92,507	0,024	0,005
-139,702	-10,010	-0,049	-0,023
-138,687	-40,753	0,211	0,077
-137,672	-152,481	-0,054	0,003
-136,658	23,061	-0,025	0,015
-135,643	1,195	0,154	0,079
-134,629	-1,832	0,122	0,061
-133,614	266,057	0,016	-0,020
-132,599	-117,530	0,043	0,005
-131,585	-200,000	-0,028	-0,140
-130,570	469,449	0,091	-0,145
-129,556	220,537	-0,024	-0,027
-128,541	-200,000	0,006	-0,146
-127,526	404,068	0,089	0,134
-126,512	-156,346	0,144	-0,006
-125,497	-110,700	-0,049	-0,007
-124,483	19,328	0,051	0,029
-123,468	-94,349	-0,114	0,022
-122,453	254,072	-0,092	-0,112
-121,439	-200,000	0,014	0,084
-120,424	56,422	-0,064	-0,044
-119,410	122,041	0,098	0,087
-118,395	96,264	-0,041	0,033
-117,380	-118,326	0,135	-0,017
-116,366	800,000	-0,011	0,031
-115,351	90,792	-0,118	-0,094
-114,337	-200,000	0,008	-0,042
-113,322	365,505	0,085	0,122
-112,307	-154,762	0,151	-0,007
-111,293	-200,000	0,018	-0,156
-110,278	0,852	0,112	0,057
-109,264	-26,099	-0,053	-0,022
-108,249	-127,914	0,089	-0,009
-107,234	211,672	0,021	0,024
-106,220	72,890	-0,129	-0,096
-105,205	143,818	-0,090	-0,086
-104,191	418,633	0,029	0,045
-103,176	800,000	-0,045	-0,089
-102,162	-200,000	-0,000	0,087
-101,147	-34,173	-0,099	-0,038
-100,132	21,120	-0,114	-0,066
-99,118	793,185	-0,044	0,087
-98,103	-81,427	0,075	-0,017
-97,089	373,070	0,035	0,050
-96,074	109,240	0,099	-0,085
-95,059	46,245	0,030	0,020
-94,045	100,338	-0,013	0,011
-93,030	-200,000	-0,000	0,027
-92,016	800,000	0,020	-0,051
-91,001	-13,745	0,098	0,045
-89,986	71,831	-0,092	-0,068
-88,972	-21,881	0,133	0,057
-87,957	800,000	0,035	0,091
-86,943	-200,000	0,003	-0,155
-85,928	-200,000	-0,014	-0,082
-84,913	-200,000	-0,022	0,090
-83,899	-200,000	0,000	-0,006
-82,884	346,677	0,021	0,029
-81,870	375,494	-0,046	0,067
-80,855	800,000	0,017	0,047
-79,840	-200,000	0,018	0,057
-78,826	-135,692	-0,180	-0,015
-77,811	-66,551	-0,065	-0,018
-76,797	156,874	-0,075	0,074
-75,782	-200,000	0,035	0,126
-74,767	-157,478	0,121	-0,005
-73,753	23,546	0,043	0,025
-72,738	800,000	0,053	0,114
-71,724	-23,966	0,135	-0,057
-70,709	800,000	-0,022	-0,069
-69,694	689,351	-0,073	0,136
-68,680	226,646	0,087	0,100
-67,665	-200,000	0,005	0,082
-66,651	800,000	-0,030	-0,092
-65,636	423,833	-0,024	-0,037
-64,622	213,614	0,061	0,069
-63,607	56,274	-0,132	0,091
-62,592	-200,000	0,009	-0,034
-61,578	698,517	0,007	0,014
-60,563	800,000	0,071	-0,145
-59,549	6,454	0,067	-0,035
-58,534	-59,473	-1,380	-0,418
-57,519	382,642	-1,516	-2,218
-56,505	-200,000	-0,330	-4,392
-55,490	111,300	0,845	0,722
-54,476	800,000	4,862	11,297
-53,461	-200,000	17,635	283,139
-52,446	800,000	720,691	2229,100
-51,432	564,005	1635,305	2819,939
-50,417	81,010	1658,914	1268,449
-49,403	23,728	1533,198	893,137
-48,388	17,688	1456,569	819,349
-47,373	18,215	1446,242	816,037
-46,359	17,842	1436,951	808,983
-45,344	15,966	1432,035	797,259
-44,330	15,892	1430,135	795,817
-43,315	15,893	1428,480	794,869
-42,300	15,904	1426,736	793,922
-41,286	15,951	1425,517	793,433
-40,271	15,942	1424,438	792,758
-39,257	15,917	1423,175	791,909
-38,242	15,982	1421,637	791,328
-37,227	15,978	1420,377	790,575
-36,213	15,958	1419,186	789,787
-35,198	15,880	1418,284	788,886
-34,184	15,955	1417,127	788,565
-33,169	15,895	1415,754	787,488
-32,154	15,923	1414,948	787,139
-31,140	15,952	1413,597	786,491
-30,125	16,002	1412,250	785,947
-29,111	15,959	1411,229	785,147
-28,096	15,939	1409,999	784,338
-27,082	15,886	1409,183	783,603
-26,067	15,868	1407,807	782,724
-25,052	15,890	1406,733	782,196
-24,038	15,877	1405,849	781,613
-23,023	15,870	1404,691	780,908
-22,009	15,815	1403,921	780,189
-20,994	15,791	1403,043	779,559
-19,979	15,797	1402,103	779,034
-18,965	15,790	1401,018	778,368
-17,950	15,803	1400,053	777,861
-16,936	15,780	1399,144	777,220
-15,921	15,778	1397,784	776,423
-14,906	15,746	1396,902	775,755
-13,892	15,795	1396,086	775,497
-12,877	15,796	1395,104	774,924
-11,863	15,764	1394,179	774,235
-10,848	15,724	1393,460	773,617
-9,833	15,718	1392,481	773,017
-8,819	15,729	1391,339	772,402
-7,804	15,698	1390,410	771,710
-6,790	15,675	1389,471	771,054
-5,775	15,686	1388,350	770,452
-4,760	15,620	1387,616	769,709
-3,746	15,657	1386,743	769,365
-2,731	15,681	1385,879	768,966
-1,717	15,645	1385,052	768,310
-0,702	15,632	1383,134	767,158
0,313	19,410	1303,667	740,522
1,327	35,682	706,770	439,193
2,342	54,646	125,302	85,488
3,356	2,650	16,589	8,493
4,371	1,346	3,130	1,588
5,386	-88,371	0,663	0,139
6,400	-200,000	0,024	0,163
7,415	-43,920	-0,241	-0,085
8,429	-89,619	-0,309	-0,064
9,444	-18,871	-0,276	-0,121
10,459	425,141	-0,174	-0,266
11,473	146,407	-0,327	-0,311
12,488	7,395	-0,290	-0,153
13,502	-4,297	-0,315	-0,154
14,517	117,891	-0,258	-0,225
15,531	-3,793	-0,411	-0,201
16,546	103,784	-0,372	-0,309
17,561	135,022	-0,397	-0,365
18,575	576,539	-0,121	-0,210
19,590	65,436	-0,306	-0,219
20,604	99,511	-0,269	-0,220
21,619	71,654	-0,479	-0,351
22,634	46,304	-0,371	-0,243
23,648	217,114	-0,400	-0,451
24,663	10,680	-0,474	-0,255
25,677	93,171	-0,328	-0,262
26,692	-49,112	-0,358	-0,120
27,707	44,809	-0,423	-0,275
28,721	52,910	-0,295	-0,199
29,736	-32,842	-0,558	-0,218
30,750	123,378	-0,375	-0,332
31,765	94,739	-0,367	-0,295
32,780	37,102	-0,427	-0,266
33,794	35,276	-0,378	-0,234
34,809	140,916	-0,209	-0,195
35,823	156,222	-0,375	-0,366
36,838	11,695	-0,361	-0,195
37,853	99,235	-0,279	-0,228
38,867	56,962	-0,423	-0,291
39,882	158,440	-0,373	-0,366
40,896	94,691	-0,291	-0,234
41,911	268,539	-0,228	-0,283
42,926	82,157	-0,315	-0,241
43,940	156,139	-0,331	-0,322
44,955	69,880	-0,302	-0,220
45,969	109,421	-0,314	-0,265
46,984	20,272	-0,460	-0,261
47,999	440,987	-0,186	-0,288
49,013	122,832	-0,394	-0,348
50,028	-48,707	-0,464	-0,156
51,042	125,543	-0,276	-0,246
52,057	475,317	-0,237	-0,380
53,071	55,018	-0,386	-0,263
54,086	62,319	-0,395	-0,278
55,101	176,713	-0,222	-0,228
56,115	101,741	-0,268	-0,221
57,130	157,784	-0,307	-0,300
58,144	327,538	-0,295	-0,400
59,159	54,994	-0,302	-0,206
60,174	106,025	-0,367	-0,306
61,188	249,409	-0,234	-0,281
62,203	-53,882	-0,343	-0,110
63,217	0,237	-0,342	-0,171
64,232	-12,435	-0,366	-0,168
65,247	-3,059	-0,409	-0,201
66,261	161,986	-0,445	-0,440
67,276	-61,009	-0,316	-0,093
68,290	0,065	-0,287	-0,144
69,305	97,082	-0,323	-0,261
70,320	428,709	-0,132	-0,202
71,334	-54,138	-0,382	-0,122
72,349	-21,551	-0,269	-0,115
73,363	151,124	-0,390	-0,374
74,378	-37,552	-0,427	-0,160
75,393	800,000	-0,155	-0,363
76,407	100,437	-0,191	-0,156
77,422	49,325	-0,246	-0,162
78,436	20,353	-0,289	-0,164
79,451	99,345	-0,338	-0,275
80,466	75,391	-0,336	-0,249
81,480	47,128	-0,275	-0,180
82,495	-50,543	-0,433	-0,143
83,509	45,146	-0,165	-0,107
84,524	48,211	-0,298	-0,196
85,539	142,696	-0,316	-0,296
86,553	281,778	-0,256	-0,324
87,568	-32,074	-0,373	-0,146
88,582	99,106	-0,285	-0,232
89,597	111,630	-0,328	-0,278
90,611	19,799	-0,217	-0,122
91,626	47,331	-0,298	-0,195
92,641	93,431	-0,314	-0,250
93,655	-29,058	-0,260	-0,104
94,670	-117,563	-0,375	-0,047
95,684	21,058	-0,294	-0,167
96,699	432,764	-0,215	-0,328
97,714	-31,462	-0,289	-0,114
98,728	-9,160	-0,413	-0,193
99,743	25,287	-0,154	-0,090
100,757	130,085	-0,216	-0,195
101,772	18,304	-0,377	-0,211
102,787	126,278	-0,275	-0,244
103,801	-65,595	-0,424	-0,119
104,816	253,551	-0,218	-0,262
105,830	133,905	-0,158	-0,144
106,845	18,680	-0,260	-0,146
107,860	134,771	-0,272	-0,248
108,874	117,859	-0,221	-0,191
109,889	-38,075	-0,279	-0,103
110,903	-15,636	-0,246	-0,110
111,918	211,576	-0,186	-0,206
112,933	-75,587	-0,244	-0,060
113,947	-3,033	-0,169	-0,082
114,962	56,239	-0,302	-0,206
115,976	137,943	-0,239	-0,219
116,991	-51,154	-0,280	-0,092
118,006	0,411	-0,228	-0,114
119,020	101,810	-0,321	-0,262
120,035	116,179	-0,204	-0,176
121,049	32,962	-0,303	-0,184
122,064	3,380	-0,367	-0,187
123,079	175,685	-0,207	-0,211
124,093	62,526	-0,245	-0,171
125,108	187,483	-0,275	-0,288
126,122	43,852	-0,146	-0,093
127,137	-41,637	-0,246	-0,088
128,151	-118,721	-0,276	-0,034
129,166	-69,142	-0,309	-0,083
130,181	100,557	-0,273	-0,222
131,195	100,925	-0,263	-0,214
132,210	43,483	-0,338	-0,216
133,224	59,554	-0,192	-0,132
134,239	223,845	-0,206	-0,233
135,254	22,881	-0,177	-0,101
136,268	107,866	-0,249	-0,208
137,283	112,305	-0,273	-0,231
138,297	155,934	-0,271	-0,261
139,312	38,161	-0,385	-0,239
140,327	84,144	-0,231	-0,176
141,341	-26,192	-0,300	-0,123
142,356	328,073	-0,222	-0,298
143,370	-136,828	-0,100	-0,008
144,385	42,763	-0,350	-0,223
145,400	22,175	-0,338	-0,192
146,414	82,703	-0,242	-0,184
147,429	87,812	-0,249	-0,193
148,443	-125,532	-0,294	0,031
149,458	-53,506	-0,269	-0,086
150,473	132,422	-0,195	-0,176
151,487	-167,034	-0,311	-0,009
152,502	44,250	-0,286	-0,183
153,516	96,263	-0,312	-0,250
154,531	25,569	-0,250	-0,145
155,546	-49,576	-0,210	-0,069
156,560	120,072	-0,191	-0,166
157,575	784,303	-0,184	-0,354
158,589	12,025	-0,278	-0,149
159,604	25,850	-0,265	-0,154
160,619	328,357	-0,264	-0,356
161,633	165,029	-0,233	-0,230
162,648	101,701	-0,349	-0,285
163,662	252,339	-0,202	-0,241
164,677	244,585	-0,221	-0,260
165,692	-134,479	-0,075	0,006
166,706	53,020	-0,211	-0,141
167,721	402,443	-0,188	-0,278
168,735	196,997	-0,208	-0,222
169,750	54,757	-0,178	-0,120
170,764	800,000	-0,082	-0,185
171,779	108,121	-0,221	-0,184
172,794	170,109	-0,270	-0,270
173,808	82,835	-0,237	-0,180
174,823	77,648	-0,309	-0,230
175,837	137,607	-0,277	-0,253
176,852	54,320	-0,194	-0,130
177,867	71,969	-0,171	-0,124
178,881	-182,977	-0,276	0,003
179,896	-16,647	-0,254	-0,112
180,910	92,014	-0,173	-0,136
181,925	115,275	-0,267	-0,228
182,940	119,971	-0,358	-0,310
183,954	800,000	-0,096	-0,277
184,969	-36,387	-0,237	-0,089
185,983	-46,281	-0,217	-0,074
186,998	168,411	-0,192	-0,190
188,013	82,415	-0,192	-0,145
189,027	-23,775	-0,256	-0,107
190,042	271,644	-0,254	-0,313
191,056	217,361	-0,285	-0,317
192,071	111,994	-0,200	-0,169
193,086	-6,699	-0,112	-0,053
194,100	246,034	-0,141	-0,166
195,115	-121,300	-0,305	-0,035
196,129	135,652	-0,212	-0,193
197,144	778,507	-0,177	-0,338
198,159	33,240	-0,202	-0,122
199,173	358,632	-0,162	-0,226
200,188	528,169	-0,108	-0,178
201,202	-12,341	-0,219	-0,099
202,217	-46,999	-0,213	-0,072
203,232	-10,971	-0,158	-0,072
204,246	131,245	-0,122	-0,109
205,261	-40,774	-0,295	-0,106
206,275	129,405	-0,163	-0,145
207,290	1,868	-0,116	-0,058
208,304	57,780	-0,204	-0,139
209,319	210,957	-0,128	-0,141
210,334	39,853	-0,280	-0,175
211,348	203,396	-0,204	-0,220
212,363	81,270	-0,303	-0,228
213,377	743,553	-0,101	-0,190
214,392	800,000	-0,079	-0,230
215,407	82,769	-0,197	-0,149
216,421	34,129	-0,172	-0,104
217,436	208,483	-0,256	-0,278
218,450	232,359	-0,257	-0,294
219,465	78,280	-0,213	-0,158
220,480	616,394	0,024	-0,041
221,494	53,967	-0,143	-0,095
222,509	-78,476	-0,275	-0,065
223,523	-105,437	-0,143	-0,022
224,538	198,144	-0,183	-0,194
225,553	672,044	-0,156	-0,282
226,567	75,140	-0,219	-0,160
227,582	-181,044	-0,238	-0,003
228,596	-99,523	-0,259	-0,045
229,611	-60,763	-0,109	-0,032
230,626	254,673	-0,098	-0,117
231,640	54,225	-0,240	-0,160
232,655	29,214	-0,315	-0,185
233,669	-7,853	-0,206	-0,096
234,684	100,573	-0,223	-0,180
235,699	183,399	-0,038	-0,039
236,713	13,249	-0,165	-0,089
237,728	102,562	-0,143	-0,116
238,742	-73,423	-0,189	-0,048
239,757	-63,709	-0,183	-0,052
240,772	-29,812	-0,175	-0,069
241,786	168,476	-0,235	-0,232
242,801	254,948	-0,075	-0,089
243,815	107,331	-0,151	-0,125
244,830	45,916	-0,167	-0,107
245,844	-35,376	-0,275	-0,103
246,859	-103,836	-0,156	-0,025
247,874	800,000	-0,110	-0,221
248,888	64,130	-0,191	-0,133
249,903	260,308	-0,214	-0,257
250,917	58,188	-0,180	-0,122
251,932	-19,120	-0,183	-0,078
252,947	63,041	-0,181	-0,126
253,961	23,268	-0,220	-0,125
254,976	442,309	-0,187	-0,285
255,990	800,000	-0,092	-0,253
257,005	-153,738	-0,160	-0,008
258,020	-86,874	-0,198	-0,041
259,034	-200,000	-0,031	-0,231
260,049	-67,248	-0,283	0,077
261,063	183,258	-0,153	-0,157
262,078	10,009	-0,215	-0,113
263,093	-1,143	-0,077	-0,038
264,107	800,000	-0,118	-0,235
265,122	7,294	-0,160	-0,082
266,136	69,886	-0,077	-0,055
267,151	-45,222	-0,174	-0,059
268,166	316,350	-0,085	-0,111
269,180	214,810	-0,104	-0,115
270,195	-200,000	0,001	-0,194
271,209	800,000	-0,081	-0,171
272,224	-83,822	-0,092	-0,020
273,239	739,436	-0,076	-0,142
274,253	-52,558	-0,165	-0,052
275,268	-2,752	-0,118	-0,057
276,282	1,671	-0,217	-0,108
277,297	16,798	-0,116	-0,063
278,312	16,325	-0,080	-0,044
279,326	-43,851	-0,176	-0,061
280,341	326,362	-0,093	0,124
281,355	176,155	-0,111	0,111
282,370	-6,580	-0,104	-0,049
283,384	-102,505	-0,211	-0,035
284,399	148,357	-0,197	-0,184
285,414	36,106	-0,174	-0,106
286,428	4,015	-0,251	-0,127
287,443	87,032	-0,059	-0,045
288,457	800,000	-0,079	-0,155
289,472	800,000	-0,094	-0,244
290,487	8,584	-0,229	-0,119
291,501	-18,976	-0,191	-0,082
292,516	122,664	-0,129	-0,112
293,530	62,243	-0,171	-0,118
294,545	-55,329	-0,071	0,022
295,560	269,560	-0,138	-0,168
296,574	-44,695	-0,211	-0,072
297,589	-69,221	-0,123	-0,032
298,603	15,029	-0,011	-0,006
299,618	-83,383	-0,163	-0,036
300,633	277,222	-0,122	-0,151
301,647	556,102	-0,113	-0,188
302,662	-4,858	-0,260	-0,123
303,676	-200,000	-0,013	-0,108
304,691	186,031	-0,115	-0,118
305,706	-200,000	-0,055	-0,376
306,720	99,608	-0,164	-0,131
307,735	800,000	-0,043	-0,094
308,749	88,992	-0,138	-0,106
309,764	134,798	-0,174	-0,156
310,779	191,120	-0,133	-0,138
311,793	-3,806	-0,125	-0,060
312,808	317,207	-0,186	-0,243
313,822	-133,053	-0,143	-0,012
314,837	352,043	-0,041	-0,057
315,852	181,193	-0,181	-0,183
316,866	428,436	-0,093	-0,140
317,881	419,926	-0,095	-0,141
318,895	-81,737	-0,203	-0,045
319,910	27,135	-0,245	-0,142
320,925	79,031	-0,160	-0,118
321,939	469,135	-0,085	-0,132
322,954	196,733	-0,117	-0,123
323,968	323,111	0,044	-0,057
324,983	-200,000	-0,020	-0,246
325,997	800,000	-0,044	-0,110
327,012	17,947	-0,149	-0,081
328,027	-200,000	0,013	-0,149
329,041	-200,000	0,008	-0,151
330,056	-200,000	-0,029	-0,141
331,070	203,954	-0,092	-0,098
332,085	30,789	-0,139	-0,082
333,100	175,424	-0,023	-0,023
334,114	-22,462	-0,200	-0,083
335,129	88,367	-0,075	-0,058
336,143	800,000	-0,071	-0,142
337,158	25,388	-0,120	-0,069
338,173	-141,728	-0,060	-0,004
339,187	406,678	-0,142	-0,207
340,202	-200,000	-0,236	-0,000
341,216	9,917	-0,133	-0,069
342,231	-200,000	-0,064	-0,244
343,246	-20,008	-0,160	-0,068
344,260	98,742	-0,206	-0,163
345,275	401,731	-0,119	-0,172
346,289	800,000	-0,088	-0,196
347,304	376,266	-0,121	-0,171
348,319	-62,750	-0,104	-0,029
349,333	390,830	-0,123	-0,176
350,348	442,085	-0,151	-0,228
351,362	154,093	-0,172	-0,162
352,377	39,175	-0,100	-0,061
353,392	57,639	-0,169	0,113
354,406	800,000	-0,036	-0,088
355,421	208,956	1314,006	1414,975
356,435	160,803	1474,669	1415,496
