DTS Sentinel unit serial number:	SN410029Multiplexer serial number:	ORYXHardware model number:	OX2-SRSoftware version number:	ORYX F/W v4,00 Oryx Data Collector v3.7.2.0data status	okinstallation	B3 Nyhavnadifferential loss correction	single-endedforward channel	channel 1reverse channel	N/Adate	2023/12/02time	04:52:30forward acquisition time	300,00reverse acquisition time	0,00gamma	499,1914k internal	0,3194k external	0,3194temperature offset calibration	1,0000default loss term (dB/km)	0,3820temperature slope calibration	1,0000multiplexer offset coefficient	1,0000multiplexer slope coefficient	1,0000fibre end	0,00T internal ref (°C)	16,40T ext. ref 1 (°C)	1,19T ext. ref 2 (°C)	1,18length (m)	temperature (°C)	Stokes	anti-Stokes-744,400	309,056	-0,165	-0,226
-743,385	-200,000	0,010	0,342
-742,371	-46,950	-0,359	-0,127
-741,356	-200,000	0,040	0,279
-740,342	148,201	-0,156	-0,153
-739,327	-200,000	0,025	0,256
-738,312	242,443	-0,183	-0,224
-737,298	-200,000	0,041	0,198
-736,283	187,597	-0,214	-0,233
-735,269	800,000	0,094	0,291
-734,254	115,980	-0,165	-0,147
-733,239	137,935	-0,215	0,205
-732,225	-200,000	-0,076	-0,261
-731,210	-35,799	0,166	0,065
-730,196	800,000	-0,038	-0,081
-729,181	29,969	0,014	0,008
-728,167	75,227	-0,140	-0,107
-727,152	63,683	-0,060	0,044
-726,137	153,409	-0,097	-0,097
-725,123	210,265	0,047	-0,054
-724,108	147,434	-0,092	-0,090
-723,094	68,566	-0,153	-0,114
-722,079	-200,000	-0,002	-0,025
-721,064	-200,000	-0,001	0,065
-720,050	-130,516	-0,019	0,002
-719,035	159,648	-0,049	-0,050
-718,021	-200,000	0,036	-0,148
-717,006	244,677	0,087	-0,107
-715,991	310,126	0,045	-0,062
-714,977	800,000	0,036	0,098
-713,962	51,826	-0,060	0,041
-712,948	-26,301	-0,045	0,019
-711,933	98,555	0,042	-0,035
-710,918	-200,000	-0,020	-0,097
-709,904	34,363	-0,017	0,011
-708,889	3,151	0,074	0,039
-707,875	-200,000	0,004	-0,170
-706,860	116,417	-0,019	0,017
-705,845	262,854	0,091	0,115
-704,831	40,686	0,163	-0,107
-703,816	21,728	0,070	-0,041
-702,802	613,513	0,069	-0,127
-701,787	-121,569	-0,091	-0,011
-700,772	800,000	0,016	-0,048
-699,758	403,783	-0,007	0,011
-698,743	93,213	0,092	-0,076
-697,729	-187,193	0,124	-0,001
-696,714	303,318	0,028	0,038
-695,699	-200,000	0,014	0,064
-694,685	25,147	-0,090	0,054
-693,670	-5,883	-0,053	-0,026
-692,656	-6,170	0,116	-0,057
-691,641	-200,000	0,038	0,151
-690,627	147,854	-0,035	0,035
-689,612	-67,789	0,080	0,023
-688,597	-151,459	0,074	-0,004
-687,583	-200,000	0,015	-0,196
-686,568	-200,000	0,028	-0,097
-685,554	-94,787	0,084	-0,016
-684,539	-100,658	0,236	-0,042
-683,524	-66,171	0,135	-0,039
-682,510	-39,914	0,058	-0,022
-681,495	-93,489	-0,102	0,020
-680,481	-171,951	-0,096	0,002
-679,466	-200,000	-0,025	-0,092
-678,451	-3,591	-0,029	-0,015
-677,437	250,020	0,081	0,101
-676,422	-200,000	0,005	-0,122
-675,408	-23,271	-0,069	0,030
-674,393	-95,195	0,041	0,008
-673,378	143,393	0,101	-0,098
-672,364	-132,530	-0,088	-0,008
-671,349	60,827	0,125	0,090
-670,335	320,828	-0,019	-0,026
-669,320	-71,952	-0,071	0,019
-668,305	800,000	0,048	0,112
-667,291	-69,470	-0,137	0,038
-666,276	-200,000	0,039	-0,199
-665,262	-200,000	-0,041	-0,182
-664,247	196,608	-0,015	-0,016
-663,232	97,007	-0,100	0,083
-662,218	-155,724	-0,089	0,004
-661,203	452,624	0,039	0,063
-660,189	-68,711	-0,060	-0,017
-659,174	745,661	-0,022	0,043
-658,159	155,061	-0,063	0,063
-657,145	-200,000	-0,026	-0,094
-656,130	-184,491	-0,041	-0,000
-655,116	-63,249	0,175	0,052
-654,101	-94,454	0,077	-0,015
-653,086	74,099	-0,040	-0,031
-652,072	-200,000	0,008	-0,038
-651,057	-147,589	-0,111	-0,007
-650,043	-200,000	-0,001	-0,027
-649,028	-200,000	0,010	-0,081
-648,014	333,660	0,070	-0,099
-646,999	800,000	-0,038	-0,092
-645,984	-40,182	0,071	0,027
-644,970	-2,768	0,038	-0,019
-643,955	-64,227	-0,173	-0,051
-642,941	-145,494	0,013	0,001
-641,926	-200,000	0,009	0,074
-640,911	105,631	0,121	0,104
-639,897	-80,726	0,017	0,004
-638,882	26,933	-0,079	-0,048
-637,868	798,979	-0,028	0,056
-636,853	4,070	-0,074	-0,039
-635,838	-79,354	0,109	0,027
-634,824	-200,000	0,008	-0,037
-633,809	-200,000	0,033	0,136
-632,795	393,718	-0,047	0,071
-631,780	112,323	0,059	-0,052
-630,765	-200,000	-0,005	-0,096
-629,751	380,223	-0,046	-0,069
-628,736	800,000	0,026	-0,081
-627,722	119,589	0,106	-0,096
-626,707	-114,192	-0,099	-0,014
-625,692	-16,898	-0,086	-0,039
-624,678	-73,782	0,083	0,022
-623,663	-200,000	-0,009	-0,144
-622,649	800,000	-0,016	0,047
-621,634	-135,629	-0,196	-0,017
-620,619	611,763	-0,056	0,103
-619,605	-200,000	0,013	0,100
-618,590	26,300	0,067	-0,041
-617,576	22,238	0,076	-0,045
-616,561	280,582	0,049	0,064
-615,546	79,417	-0,081	0,063
-614,532	734,323	-0,028	-0,055
-613,517	-50,487	0,083	-0,028
-612,503	-58,508	0,086	-0,027
-611,488	-200,000	-0,005	0,164
-610,474	-200,000	-0,017	-0,072
-609,459	800,000	0,047	0,101
-608,444	-74,347	0,091	-0,024
-607,430	-200,000	-0,010	-0,235
-606,415	112,130	-0,066	-0,058
-605,401	622,581	0,001	0,002
-604,386	174,023	-0,096	0,101
-603,371	-139,773	0,048	0,004
-602,357	-121,417	0,031	-0,004
-601,342	-79,330	-0,098	-0,024
-600,328	-22,666	0,084	-0,037
-599,313	-200,000	-0,021	-0,122
-598,298	16,739	-0,130	-0,074
-597,284	-200,000	-0,006	-0,062
-596,269	-33,639	0,061	-0,024
-595,255	159,553	-0,101	0,102
-594,240	-74,530	0,134	-0,035
-593,225	-2,521	0,028	0,014
-592,211	349,192	-0,012	-0,018
-591,196	800,000	-0,019	0,050
-590,182	225,206	0,086	0,101
-589,167	-200,000	0,014	0,136
-588,152	136,217	0,088	-0,083
-587,138	91,060	0,061	-0,050
-586,123	-17,611	-0,064	-0,029
-585,109	-200,000	0,001	-0,038
-584,094	-52,759	-0,105	-0,035
-583,079	337,383	0,028	0,039
-582,065	37,676	-0,025	0,016
-581,050	800,000	-0,076	0,164
-580,036	14,951	-0,073	0,041
-579,021	-200,000	-0,011	-0,206
-578,006	-200,000	-0,015	-0,058
-576,992	-200,000	0,008	-0,052
-575,977	-200,000	-0,002	-0,047
-574,963	35,356	0,126	-0,080
-573,948	-26,532	-0,128	0,054
-572,934	261,243	-0,064	0,081
-571,919	117,145	-0,016	0,014
-570,904	179,975	-0,051	-0,055
-569,890	-168,787	-0,045	-0,001
-568,875	-156,712	-0,148	-0,007
-567,861	452,243	-0,055	0,088
-566,846	-200,000	0,010	-0,080
-565,831	226,435	0,028	-0,033
-564,817	239,165	-0,148	-0,179
-563,802	-200,000	-0,033	-0,157
-562,788	800,000	0,056	-0,143
-561,773	221,096	-0,119	0,138
-560,758	82,468	0,102	0,080
-559,744	800,000	-0,019	0,055
-558,729	-30,922	-0,152	-0,062
-557,715	-69,275	-0,058	-0,016
-556,700	-200,000	0,024	-0,127
-555,685	-92,809	-0,094	-0,019
-554,671	-140,558	0,066	-0,005
-553,656	-29,053	0,129	-0,053
-552,642	800,000	0,024	-0,055
-551,627	-36,966	0,037	0,014
-550,612	-146,739	-0,090	-0,006
-549,598	800,000	0,032	-0,067
-548,583	-40,723	0,082	0,030
-547,569	-200,000	0,015	0,056
-546,554	148,503	0,042	-0,042
-545,539	800,000	-0,049	0,121
-544,525	-22,775	0,093	-0,041
-543,510	-200,000	0,007	-0,087
-542,496	397,156	-0,061	-0,093
-541,481	675,457	-0,114	-0,215
-540,466	-46,531	0,088	0,031
-539,452	-104,742	0,128	0,021
-538,437	218,277	-0,081	0,093
-537,423	800,000	-0,011	0,034
-536,408	226,622	-0,022	-0,026
-535,393	800,000	-0,070	-0,166
-534,379	-122,014	-0,143	-0,017
-533,364	-146,347	-0,042	-0,003
-532,350	-163,833	0,184	0,006
-531,335	72,248	0,092	0,070
-530,321	-26,550	0,040	-0,017
-529,306	585,052	-0,032	0,056
-528,291	571,225	-0,040	-0,071
-527,277	-75,051	-0,029	-0,008
-526,262	-200,000	-0,007	0,061
-525,248	114,104	0,072	0,063
-524,233	-48,266	0,097	-0,034
-523,218	694,042	0,020	0,039
-522,204	-47,763	0,144	-0,050
-521,189	-103,090	0,113	0,019
-520,175	29,801	0,068	-0,042
-519,160	-200,000	0,001	-0,061
-518,145	199,048	0,047	0,052
-517,131	176,968	0,064	-0,068
-516,116	-100,063	-0,093	-0,017
-515,102	-56,896	0,110	-0,035
-514,087	-200,000	0,015	-0,067
-513,072	-121,065	-0,074	0,009
-512,058	-61,703	0,054	0,016
-511,043	-200,000	0,004	-0,100
-510,029	-162,098	0,077	-0,003
-509,014	141,702	-0,112	0,107
-507,999	348,751	-0,027	0,039
-506,985	545,012	-0,011	0,020
-505,970	757,422	-0,073	-0,144
-504,956	-200,000	0,027	-0,111
-503,941	-141,628	0,081	0,006
-502,926	131,310	-0,030	0,028
-501,912	800,000	-0,002	-0,005
-500,897	-200,000	-0,001	0,044
-499,883	66,699	0,118	-0,087
-498,868	-55,620	-0,130	-0,042
-497,853	3,699	0,106	-0,056
-496,839	-125,853	0,144	0,016
-495,824	-125,637	-0,053	0,006
-494,810	8,285	0,051	0,028
-493,795	-79,052	0,189	-0,046
-492,781	105,779	-0,074	-0,063
-491,766	-200,000	-0,019	0,119
-490,751	-119,095	-0,066	-0,008
-489,737	-106,647	-0,104	-0,016
-488,722	18,918	0,047	0,027
-487,708	-141,996	0,049	-0,003
-486,693	-105,055	-0,110	-0,018
-485,678	-108,079	-0,080	-0,012
-484,664	247,029	-0,110	-0,135
-483,649	300,256	-0,074	-0,099
-482,635	-82,739	-0,036	-0,008
-481,620	199,250	0,056	-0,061
-480,605	-90,076	0,124	0,026
-479,591	-200,000	-0,016	0,104
-478,576	-200,000	0,006	-0,067
-477,562	800,000	-0,036	-0,080
-476,547	358,331	0,007	0,010
-475,532	-200,000	0,002	-0,055
-474,518	757,104	0,023	0,045
-473,503	-75,442	0,094	-0,024
-472,489	-124,757	-0,075	0,008
-471,474	800,000	0,034	0,107
-470,459	-200,000	-0,029	0,198
-469,445	598,328	-0,023	0,042
-468,430	-32,054	-0,035	-0,014
-467,416	413,227	-0,046	0,071
-466,401	-19,735	0,084	0,037
-465,386	-74,253	-0,168	0,044
-464,372	800,000	-0,024	0,058
-463,357	-67,613	-0,177	-0,050
-462,343	-79,899	-0,162	0,039
-461,328	-53,258	-0,044	-0,015
-460,313	-99,586	0,107	-0,019
-459,299	-92,074	0,133	0,027
-458,284	412,825	0,021	0,033
-457,270	-200,000	0,020	0,079
-456,255	800,000	-0,005	0,015
-455,241	-99,354	0,037	0,007
-454,226	-97,351	-0,021	0,004
-453,211	52,154	-0,067	-0,046
-452,197	563,046	0,048	0,084
-451,182	-72,186	0,118	-0,031
-450,168	710,934	-0,018	-0,034
-449,153	800,000	-0,008	-0,025
-448,138	106,563	0,063	-0,054
-447,124	-99,277	-0,067	-0,012
-446,109	-36,341	0,157	-0,061
-445,095	-16,764	-0,063	0,028
-444,080	-68,142	0,128	0,036
-443,065	662,813	-0,066	0,123
-442,051	-200,000	-0,006	0,041
-441,036	-200,000	-0,000	-0,136
-440,022	9,513	0,042	-0,023
-439,007	-200,000	0,003	0,014
-437,992	-5,751	0,131	0,064
-436,978	-115,047	-0,039	-0,005
-435,963	-200,000	0,013	0,069
-434,949	44,422	0,108	-0,072
-433,934	387,167	0,059	-0,089
-432,919	174,480	-0,047	-0,049
-431,905	-200,000	-0,001	0,034
-430,890	-200,000	0,045	0,192
-429,876	258,007	0,018	0,023
-428,861	186,152	0,030	-0,032
-427,846	-200,000	0,010	0,034
-426,832	-144,898	-0,114	-0,007
-425,817	-200,000	0,028	0,110
-424,803	800,000	-0,022	-0,046
-423,788	-200,000	0,032	0,128
-422,773	800,000	0,023	0,052
-421,759	121,036	-0,076	0,068
-420,744	777,195	-0,049	0,096
-419,730	-200,000	-0,015	0,080
-418,715	800,000	-0,073	-0,176
-417,701	-90,000	0,060	0,012
-416,686	451,156	-0,022	0,034
-415,671	52,374	0,034	0,023
-414,657	55,211	0,058	0,040
-413,642	339,253	0,020	0,028
-412,628	-142,608	-0,099	0,007
-411,613	800,000	-0,024	-0,064
-410,598	-53,143	-0,057	-0,019
-409,584	-200,000	0,000	0,046
-408,569	111,331	0,121	0,105
-407,555	-200,000	0,011	-0,116
-406,540	-200,000	-0,011	0,038
-405,525	152,445	-0,045	0,044
-404,511	-39,111	-0,185	-0,070
-403,496	461,763	0,070	-0,112
-402,482	47,082	-0,068	-0,045
-401,467	-49,750	0,095	-0,032
-400,452	-200,000	0,010	0,063
-399,438	255,070	0,077	0,095
-398,423	-200,000	0,015	-0,097
-397,409	37,520	-0,037	-0,023
-396,394	189,909	-0,080	-0,087
-395,379	800,000	0,014	-0,039
-394,365	507,847	-0,029	0,049
-393,350	-200,000	0,012	0,087
-392,336	-118,523	-0,089	0,011
-391,321	-76,504	-0,061	0,015
-390,306	-8,038	0,074	-0,036
-389,292	373,131	0,074	-0,109
-388,277	74,709	0,023	-0,017
-387,263	628,835	0,022	0,041
-386,248	511,191	0,033	0,055
-385,233	32,036	0,052	0,032
-384,219	-200,000	-0,007	-0,128
-383,204	800,000	-0,020	-0,040
-382,190	-131,379	0,089	0,008
-381,175	637,910	-0,104	0,190
-380,160	-200,000	-0,011	0,059
-379,146	-200,000	0,046	0,179
-378,131	13,568	0,140	0,078
-377,117	532,815	-0,059	-0,101
-376,102	-200,000	-0,007	-0,071
-375,088	-44,661	-0,044	0,016
-374,073	441,419	-0,109	-0,172
-373,058	-136,967	0,165	-0,013
-372,044	202,067	0,050	0,055
-371,029	-102,970	0,164	0,028
-370,015	-200,000	0,003	-0,021
-369,000	-200,000	-0,018	-0,097
-367,985	-37,994	0,063	-0,024
-366,971	-116,739	-0,023	0,003
-365,956	-200,000	0,016	0,071
-364,942	695,381	-0,033	-0,063
-363,927	-23,798	0,052	-0,022
-362,912	755,205	0,025	0,048
-361,898	-200,000	-0,005	-0,037
-360,883	-167,059	0,067	0,002
-359,869	-127,097	-0,047	-0,005
-358,854	-200,000	0,007	-0,033
-357,839	514,652	0,059	0,100
-356,825	-200,000	0,007	0,101
-355,810	800,000	-0,042	0,088
-354,796	800,000	-0,036	0,102
-353,781	66,199	0,005	-0,004
-352,766	-110,653	-0,092	-0,014
-351,752	39,609	0,122	0,079
-350,737	67,448	0,120	0,088
-349,723	234,910	-0,110	0,130
-348,708	-40,849	-0,061	0,023
-347,693	-200,000	0,027	0,086
-346,679	-178,109	-0,111	-0,002
-345,664	245,353	-0,034	0,041
-344,650	-125,170	-0,085	0,009
-343,635	370,264	0,076	0,111
-342,620	278,182	-0,079	0,102
-341,606	-200,000	-0,011	-0,039
-340,591	743,870	0,028	-0,055
-339,577	56,001	-0,093	0,064
-338,562	-3,692	-0,098	-0,048
-337,548	800,000	-0,066	0,190
-336,533	-200,000	-0,010	0,060
-335,518	190,813	-0,066	0,071
-334,504	-174,403	-0,113	-0,002
-333,489	34,766	0,103	0,065
-332,475	752,231	-0,022	-0,043
-331,460	109,520	0,010	-0,008
-330,445	254,982	-0,070	-0,086
-329,431	180,435	0,059	0,062
-328,416	-200,000	-0,019	-0,119
-327,402	-107,360	0,159	-0,025
-326,387	-147,861	-0,097	0,006
-325,372	165,570	0,001	-0,001
-324,358	-157,670	-0,146	0,006
-323,343	-200,000	0,017	0,066
-322,329	73,938	-0,111	0,083
-321,314	284,723	0,040	-0,051
-320,299	-200,000	-0,000	0,042
-319,285	113,367	0,069	-0,060
-318,270	-65,549	-0,097	-0,028
-317,256	244,887	-0,056	-0,068
-316,241	-200,000	0,006	0,068
-315,226	-200,000	0,022	-0,087
-314,212	230,061	0,053	0,063
-313,197	-200,000	0,010	0,131
-312,183	212,768	0,091	0,103
-311,168	-125,438	-0,088	-0,009
-310,153	-77,066	0,051	-0,013
-309,139	-200,000	-0,008	0,060
-308,124	11,909	-0,127	0,070
-307,110	-116,144	0,184	0,024
-306,095	-32,265	-0,044	0,018
-305,080	-77,300	0,167	-0,041
-304,066	-116,050	0,066	-0,009
-303,051	141,649	-0,067	-0,064
-302,037	202,044	-0,025	-0,028
-301,022	800,000	0,065	-0,140
-300,008	-102,114	0,114	0,020
-298,993	800,000	-0,023	-0,058
-297,978	-200,000	-0,014	0,062
-296,964	69,356	-0,065	0,048
-295,949	-31,593	0,026	-0,011
-294,935	-200,000	0,008	-0,041
-293,920	7,734	0,151	-0,081
-292,905	158,514	-0,049	-0,049
-291,891	-200,000	-0,006	0,022
-290,876	800,000	-0,048	0,111
-289,862	-100,322	0,044	-0,008
-288,847	14,220	-0,084	-0,047
-287,832	-19,079	0,047	0,021
-286,818	92,357	-0,029	-0,023
-285,803	-80,559	-0,090	-0,021
-284,789	-200,000	0,025	0,118
-283,774	111,069	0,172	0,149
-282,759	29,429	-0,059	-0,036
-281,745	-200,000	-0,042	-0,138
-280,730	-6,191	-0,012	-0,006
-279,716	296,114	-0,093	-0,123
-278,701	-102,179	0,148	0,025
-277,686	250,092	0,043	-0,053
-276,672	-200,000	0,000	-0,108
-275,657	-27,030	0,117	0,049
-274,643	-48,481	0,039	-0,013
-273,628	178,917	-0,078	-0,082
-272,613	624,131	-0,025	0,046
-271,599	320,981	-0,038	-0,052
-270,584	-174,025	0,139	-0,003
-269,570	-69,979	0,015	0,004
-268,555	-21,682	0,025	0,011
-267,540	703,674	0,034	-0,064
-266,526	48,928	-0,022	0,015
-265,511	-200,000	0,019	0,083
-264,497	264,355	-0,161	-0,202
-263,482	-200,000	0,033	-0,144
-262,467	-200,000	-0,021	0,082
-261,453	-70,964	-0,092	0,025
-260,438	2,975	0,054	0,028
-259,424	295,349	-0,018	-0,024
-258,409	721,695	-0,045	0,086
-257,395	-200,000	0,002	-0,048
-256,380	-200,000	-0,009	-0,094
-255,365	-200,000	-0,022	0,131
-254,351	-200,000	0,036	0,160
-253,336	800,000	0,005	-0,016
-252,322	-145,069	-0,159	0,010
-251,307	374,043	-0,068	-0,099
-250,292	-200,000	-0,008	-0,027
-249,278	-108,092	0,077	0,012
-248,263	44,115	0,083	-0,055
-247,249	235,419	0,082	0,097
-246,234	-3,605	-0,098	0,049
-245,219	-63,438	0,075	-0,022
-244,205	-163,862	-0,140	-0,005
-243,190	-36,733	0,004	0,002
-242,176	-200,000	0,001	-0,005
-241,161	288,814	0,017	0,022
-240,146	-83,568	-0,074	-0,017
-239,132	263,728	-0,064	0,080
-238,117	501,228	0,005	0,008
-237,103	38,261	-0,247	-0,157
-236,088	-200,000	-0,022	-0,096
-235,073	-200,000	0,025	0,201
-234,059	800,000	0,048	0,127
-233,044	71,562	-0,073	0,054
-232,030	-200,000	0,032	0,108
-231,015	776,984	-0,047	0,093
-230,000	478,761	0,066	0,107
-228,986	-181,272	0,134	-0,002
-227,971	133,447	-0,046	-0,042
-226,957	500,147	0,068	0,112
-225,942	800,000	0,030	0,084
-224,927	-159,550	0,075	-0,003
-223,913	121,003	-0,036	-0,032
-222,898	37,806	0,041	-0,026
-221,884	-79,897	0,107	-0,025
-220,869	-200,000	-0,003	-0,116
-219,855	153,951	0,067	0,066
-218,840	-200,000	-0,008	0,107
-217,825	-49,566	0,022	-0,007
-216,811	-37,267	0,087	0,033
-215,796	-103,420	-0,132	-0,022
-214,782	800,000	-0,056	-0,121
-213,767	-22,284	-0,058	0,025
-212,752	-200,000	0,023	0,115
-211,738	800,000	-0,014	0,036
-210,723	327,002	-0,071	-0,098
-209,709	87,318	-0,012	0,009
-208,694	-200,000	0,001	-0,025
-207,679	129,663	0,049	-0,045
-206,665	298,729	-0,043	0,057
-205,650	681,696	0,029	0,055
-204,636	142,108	-0,061	-0,058
-203,621	652,746	-0,008	-0,015
-202,606	800,000	0,046	0,104
-201,592	-59,396	0,077	-0,024
-200,577	800,000	-0,046	-0,106
-199,563	-49,333	-0,043	-0,015
-198,548	-200,000	0,022	-0,120
-197,533	108,112	0,123	0,104
-196,519	359,350	-0,054	-0,078
-195,504	730,925	-0,062	-0,118
-194,490	80,631	-0,039	-0,030
-193,475	42,096	-0,057	0,037
-192,460	222,405	0,086	-0,098
-191,446	-28,175	-0,077	0,032
-190,431	-200,000	0,012	0,118
-189,417	564,265	0,062	0,107
-188,402	-123,491	-0,074	0,008
-187,387	-116,127	-0,183	0,024
-186,373	-200,000	-0,020	-0,133
-185,358	45,539	0,069	0,045
-184,344	10,091	0,051	0,027
-183,329	-200,000	-0,003	0,053
-182,315	10,221	-0,099	0,054
-181,300	-7,004	-0,042	0,020
-180,285	-200,000	-0,029	-0,147
-179,271	3,494	0,082	-0,043
-178,256	-142,395	-0,053	0,004
-177,242	-200,000	-0,031	0,184
-176,227	-147,114	0,113	0,007
-175,212	-18,718	0,143	0,063
-174,198	265,956	0,054	0,068
-173,183	800,000	-0,039	-0,093
-172,169	-200,000	-0,026	-0,165
-171,154	-46,541	0,032	-0,011
-170,139	369,803	0,114	0,165
-169,125	-200,000	0,003	0,144
-168,110	-200,000	-0,026	0,085
-167,096	-22,031	-0,047	-0,020
-166,081	352,019	-0,003	0,005
-165,066	30,009	0,036	0,022
-164,052	800,000	0,046	-0,131
-163,037	-200,000	-0,022	0,134
-162,023	-37,784	0,103	0,039
-161,008	134,750	-0,024	-0,022
-159,993	-95,597	-0,070	-0,013
-158,979	-200,000	0,022	-0,156
-157,964	-200,000	-0,006	-0,186
-156,950	109,473	-0,093	-0,079
-155,935	-89,536	0,033	-0,007
-154,920	-78,739	0,187	-0,045
-153,906	120,764	-0,069	0,061
-152,891	-104,771	-0,086	-0,014
-151,877	90,664	-0,021	0,017
-150,862	-79,057	0,093	-0,022
-149,847	13,514	0,101	-0,055
-148,833	90,081	-0,054	-0,043
-147,818	-21,840	0,118	0,051
-146,804	119,488	-0,076	-0,067
-145,789	13,763	0,169	0,093
-144,775	181,389	0,007	-0,007
-143,760	-200,000	-0,017	0,080
-142,745	390,257	0,047	0,070
-141,731	800,000	0,026	0,080
-140,716	-200,000	-0,015	0,080
-139,702	169,086	-0,006	0,006
-138,687	-200,000	0,005	0,068
-137,672	444,953	0,021	-0,033
-136,658	107,594	0,070	-0,059
-135,643	-10,447	0,089	-0,042
-134,629	-178,215	-0,030	0,000
-133,614	23,549	-0,054	-0,032
-132,599	67,022	0,095	-0,069
-131,585	19,903	0,018	-0,010
-130,570	474,239	-0,011	-0,018
-129,556	-167,905	0,135	-0,004
-128,541	-200,000	0,004	-0,086
-127,526	13,465	0,012	-0,007
-126,512	-74,923	0,010	0,003
-125,497	-200,000	-0,006	0,206
-124,483	10,873	0,084	0,046
-123,468	179,692	-0,032	0,034
-122,453	195,670	-0,146	-0,159
-121,439	-7,283	-0,108	0,052
-120,424	-125,785	0,064	-0,007
-119,410	-200,000	0,040	-0,130
-118,395	0,203	0,071	-0,036
-117,380	-84,453	-0,148	0,033
-116,366	-151,848	-0,022	-0,001
-115,351	89,922	0,041	0,033
-114,337	-200,000	0,004	0,017
-113,322	800,000	0,053	-0,105
-112,307	-60,764	-0,100	-0,030
-111,293	-62,985	0,068	-0,020
-110,278	108,016	0,095	0,081
-109,264	800,000	-0,015	0,032
-108,249	-200,000	-0,005	-0,081
-107,234	-200,000	-0,016	-0,082
-106,220	-200,000	0,004	0,054
-105,205	800,000	0,056	-0,137
-104,191	-1,404	0,188	0,094
-103,176	155,815	0,050	0,049
-102,162	-200,000	-0,002	0,014
-101,147	288,860	-0,050	0,064
-100,132	-200,000	0,004	0,064
-99,118	24,901	0,147	-0,086
-98,103	-200,000	0,008	-0,124
-97,089	83,967	0,036	-0,028
-96,074	-200,000	-0,000	0,056
-95,059	94,190	0,107	0,086
-94,045	26,078	-0,045	-0,026
-93,030	314,626	-0,077	-0,103
-92,016	-200,000	-0,006	-0,064
-91,001	-200,000	0,023	0,103
-89,986	-200,000	0,018	-0,065
-88,972	-120,907	-0,065	0,008
-87,957	-44,650	0,181	0,064
-86,943	38,854	0,106	0,067
-85,928	611,928	0,021	-0,038
-84,913	127,605	0,043	-0,039
-83,899	558,886	0,053	-0,091
-82,884	-94,012	0,191	0,037
-81,870	158,178	0,020	0,020
-80,855	-200,000	-0,009	0,133
-79,840	224,033	0,099	-0,113
-78,826	-200,000	0,000	-0,024
-77,811	-143,244	-0,200	-0,013
-76,797	0,364	-0,008	0,004
-75,782	-120,977	0,111	0,013
-74,767	49,432	0,142	0,095
-73,753	86,035	0,036	0,028
-72,738	-200,000	-0,004	-0,062
-71,724	-200,000	-0,034	0,127
-70,709	-94,368	0,056	0,011
-69,694	-200,000	-0,025	-0,123
-68,680	-65,865	-0,072	-0,020
-67,665	316,576	0,046	-0,062
-66,651	-24,192	0,055	-0,023
-65,636	302,323	0,026	0,034
-64,622	-63,630	-0,066	0,019
-63,607	-109,567	-0,065	0,010
-62,592	122,498	-0,031	0,027
-61,578	175,740	0,065	0,067
-60,563	-200,000	-0,022	0,070
-59,549	-200,000	-0,010	0,071
-58,534	-69,423	-1,376	-0,372
-57,519	360,375	-1,525	-2,173
-56,505	-200,000	-0,493	-4,485
-55,490	50,864	0,906	0,608
-54,476	800,000	4,908	11,342
-53,461	-200,000	17,408	275,186
-52,446	800,000	717,668	2200,615
-51,432	556,640	1631,913	2800,834
-50,417	81,326	1656,624	1269,015
-49,403	24,253	1531,072	895,062
-48,388	18,229	1454,316	821,161
-47,373	18,466	1443,894	816,383
-46,359	18,204	1434,460	809,766
-45,344	16,502	1429,727	798,978
-44,330	16,460	1427,781	797,660
-43,315	16,482	1426,207	796,854
-42,300	16,516	1424,604	796,089
-41,286	16,577	1423,379	795,660
-40,271	16,462	1422,029	794,330
-39,257	16,475	1420,722	793,631
-38,242	16,497	1419,628	793,090
-37,227	16,507	1418,287	792,360
-36,213	16,549	1416,791	791,687
-35,198	16,510	1415,791	790,915
-34,184	16,496	1414,750	790,236
-33,169	16,459	1413,606	789,393
-32,154	16,505	1412,543	788,983
-31,140	16,521	1411,181	788,267
-30,125	16,519	1410,018	787,574
-29,111	16,478	1409,046	786,809
-28,096	16,531	1407,809	786,336
-27,082	16,412	1407,018	785,304
-26,067	16,437	1405,532	784,560
-25,052	16,423	1404,638	783,968
-24,038	16,427	1403,607	783,376
-23,023	16,450	1402,294	782,722
-22,009	16,377	1401,555	781,938
-20,994	16,363	1400,638	781,331
-19,979	16,389	1399,782	780,942
-18,965	16,387	1398,730	780,315
-17,950	16,346	1397,876	779,620
-16,936	16,357	1396,881	779,083
-15,921	16,346	1395,524	778,244
-14,906	16,352	1394,514	777,678
-13,892	16,347	1393,842	777,248
-12,877	16,386	1392,651	776,734
-11,863	16,346	1392,016	776,166
-10,848	16,325	1391,339	775,659
-9,833	16,286	1390,175	774,798
-8,819	16,259	1389,325	774,171
-7,804	16,271	1388,050	773,485
-6,790	16,208	1387,272	772,730
-5,775	16,207	1386,214	772,104
-4,760	16,198	1385,299	771,525
-3,746	16,169	1384,670	771,008
-2,731	16,205	1383,999	770,770
-1,717	16,195	1382,818	770,036
-0,702	16,220	1380,800	768,996
0,313	20,122	1302,407	743,300
1,327	36,704	707,696	442,371
2,342	56,977	125,606	86,672
3,356	4,645	16,526	8,576
4,371	9,250	3,219	1,720
5,386	-11,243	0,501	0,233
6,400	653,618	-0,075	-0,138
7,415	-51,635	-0,370	-0,122
8,429	11,368	-0,378	-0,205
9,444	78,795	-0,332	-0,251
10,459	157,281	-0,236	-0,232
11,473	101,358	-0,262	-0,216
12,488	52,394	-0,167	-0,113
13,502	-4,070	-0,277	-0,135
14,517	41,476	-0,267	-0,171
15,531	-7,424	-0,387	-0,185
16,546	96,148	-0,316	-0,256
17,561	-9,917	-0,417	-0,196
18,575	-170,052	-0,285	-0,007
19,590	-21,166	-0,242	-0,104
20,604	38,328	-0,162	-0,102
21,619	44,558	-0,363	-0,236
22,634	-5,909	-0,516	-0,249
23,648	73,542	-0,400	-0,296
24,663	22,120	-0,325	-0,187
25,677	146,904	-0,296	-0,281
26,692	28,527	-0,260	-0,155
27,707	-71,631	-0,392	-0,103
28,721	41,338	-0,322	-0,206
29,736	122,687	-0,441	-0,390
30,750	186,559	-0,357	-0,376
31,765	38,456	-0,400	-0,251
32,780	134,922	-0,379	-0,348
33,794	-25,416	-0,376	-0,157
34,809	58,006	-0,309	-0,214
35,823	800,000	-0,184	-0,408
36,838	158,651	-0,306	-0,301
37,853	133,383	-0,311	-0,284
38,867	89,212	-0,316	-0,249
39,882	133,906	-0,315	-0,289
40,896	115,704	-0,380	-0,328
41,911	7,336	-0,435	-0,229
42,926	75,216	-0,369	-0,275
43,940	10,169	-0,409	-0,219
44,955	264,543	-0,320	-0,394
45,969	33,442	-0,389	-0,238
46,984	31,354	-0,313	-0,190
47,999	30,860	-0,423	-0,255
49,013	209,458	-0,253	-0,281
50,028	237,938	-0,230	-0,270
51,042	82,291	-0,321	-0,246
52,057	-5,825	-0,317	-0,152
53,071	-42,781	-0,358	-0,128
54,086	185,177	-0,271	-0,284
55,101	-18,025	-0,356	-0,157
56,115	25,891	-0,339	-0,199
57,130	-31,485	-0,357	-0,141
58,144	18,320	-0,247	-0,139
59,159	26,282	-0,397	-0,233
60,174	51,427	-0,381	-0,255
61,188	22,219	-0,318	-0,183
62,203	333,614	-0,197	-0,270
63,217	64,191	-0,238	-0,169
64,232	13,145	-0,408	-0,222
65,247	-7,472	-0,393	-0,187
66,261	49,236	-0,324	-0,214
67,276	101,782	-0,374	-0,308
68,290	225,732	-0,347	-0,397
69,305	-25,733	-0,303	-0,125
70,320	45,308	-0,292	-0,189
71,334	-100,097	-0,356	-0,062
72,349	-73,877	-0,383	-0,097
73,363	114,132	-0,341	-0,292
74,378	97,854	-0,326	-0,264
75,393	46,669	-0,325	-0,212
76,407	-8,338	-0,254	-0,120
77,422	131,531	-0,206	-0,187
78,436	17,787	-0,306	-0,171
79,451	155,769	-0,305	-0,297
80,466	-1,617	-0,355	-0,175
81,480	133,350	-0,268	-0,244
82,495	37,397	-0,327	-0,203
83,509	-28,064	-0,295	-0,120
84,524	24,075	-0,308	-0,179
85,539	-39,616	-0,340	-0,125
86,553	46,930	-0,360	-0,235
87,568	178,887	-0,363	-0,374
88,582	116,762	-0,192	-0,166
89,597	-6,383	-0,406	-0,194
90,611	-10,140	-0,254	-0,118
91,626	48,157	-0,270	-0,177
92,641	23,042	-0,251	-0,144
93,655	-15,691	-0,346	-0,155
94,670	138,002	-0,282	-0,260
95,684	155,517	-0,313	-0,303
96,699	79,266	-0,302	-0,228
97,714	139,164	-0,270	-0,249
98,728	30,584	-0,400	-0,240
99,743	162,748	-0,196	-0,194
100,757	154,656	-0,232	-0,224
101,772	231,712	-0,306	-0,353
102,787	692,198	-0,102	-0,189
103,801	134,394	-0,269	-0,246
104,816	138,388	-0,255	-0,235
105,830	177,352	-0,269	-0,276
106,845	92,480	-0,157	-0,124
107,860	21,673	-0,308	-0,176
108,874	59,835	-0,313	-0,217
109,889	323,750	-0,232	-0,312
110,903	308,465	-0,193	-0,254
111,918	213,519	-0,194	-0,215
112,933	27,011	-0,291	-0,171
113,947	162,492	-0,261	-0,257
114,962	94,129	-0,248	-0,197
115,976	-77,857	-0,278	-0,067
116,991	58,723	-0,290	-0,199
118,006	-36,630	-0,322	-0,121
119,020	22,909	-0,345	-0,198
120,035	28,616	-0,237	-0,141
121,049	-27,760	-0,132	-0,053
122,064	202,916	-0,215	-0,233
123,079	800,000	-0,081	-0,166
124,093	800,000	-0,095	-0,273
125,108	81,920	-0,310	-0,236
126,122	242,279	-0,197	-0,232
127,137	248,693	-0,135	-0,160
128,151	39,518	-0,202	-0,127
129,166	237,262	-0,127	-0,147
130,181	12,718	-0,231	-0,125
131,195	7,292	-0,305	-0,159
132,210	30,497	-0,308	-0,184
133,224	200,486	-0,167	-0,180
134,239	34,197	-0,218	-0,133
135,254	-66,493	-0,272	-0,075
136,268	355,589	-0,150	-0,210
137,283	57,736	-0,303	-0,207
138,297	18,631	-0,341	-0,190
139,312	576,124	-0,109	-0,187
140,327	-53,792	-0,337	-0,107
141,341	25,632	-0,188	-0,109
142,356	800,000	-0,154	-0,341
143,370	200,125	-0,254	-0,274
144,385	117,439	-0,214	-0,184
145,400	206,408	-0,249	-0,272
146,414	159,762	-0,168	-0,164
147,429	168,845	-0,291	-0,291
148,443	88,542	-0,278	-0,216
149,458	109,581	-0,133	-0,111
150,473	-146,846	-0,260	-0,015
151,487	301,212	-0,168	-0,217
152,502	672,142	-0,120	-0,219
153,516	39,867	-0,224	-0,140
154,531	29,174	-0,342	-0,203
155,546	297,749	-0,180	-0,232
156,560	247,861	-0,285	-0,337
157,575	740,260	-0,174	-0,328
158,589	410,854	-0,114	-0,169
159,604	101,588	-0,202	-0,164
160,619	165,671	-0,239	-0,237
161,633	114,802	-0,247	-0,211
162,648	485,412	-0,188	-0,301
163,662	162,044	-0,194	-0,191
164,677	-9,766	-0,303	-0,140
165,692	194,982	-0,141	-0,149
166,706	30,357	-0,179	-0,107
167,721	95,696	-0,380	-0,303
168,735	800,000	-0,132	-0,342
169,750	21,969	-0,143	-0,081
170,764	9,572	-0,239	-0,126
171,779	175,738	-0,067	-0,068
172,794	800,000	-0,090	-0,177
173,808	410,165	-0,125	-0,186
174,823	7,129	-0,284	-0,148
175,837	437,814	-0,202	-0,309
176,852	64,872	-0,174	-0,123
177,867	89,492	-0,134	-0,104
178,881	110,724	-0,203	-0,170
179,896	159,993	-0,131	-0,127
180,910	-135,287	-0,097	-0,008
181,925	301,492	-0,295	-0,382
182,940	119,500	-0,281	-0,243
183,954	139,098	-0,242	-0,222
184,969	228,892	-0,121	-0,137
185,983	-91,747	-0,212	-0,042
186,998	34,717	-0,254	-0,155
188,013	140,971	-0,162	-0,150
189,027	800,000	-0,132	-0,261
190,042	42,281	-0,326	-0,206
191,056	120,792	-0,267	-0,231
192,071	-200,000	-0,039	-0,271
193,086	573,733	-0,190	-0,324
194,100	727,443	-0,106	-0,197
195,115	-7,536	-0,198	-0,093
196,129	255,547	-0,092	-0,110
197,144	55,180	-0,272	-0,183
198,159	-50,206	-0,240	-0,079
199,173	800,000	-0,090	-0,244
200,188	800,000	-0,083	-0,179
201,202	442,178	-0,121	-0,185
202,217	292,357	-0,069	-0,088
203,232	346,496	-0,154	-0,212
204,246	219,201	-0,195	-0,218
205,261	212,069	-0,170	-0,187
206,275	-89,727	-0,216	-0,044
207,290	139,932	-0,246	-0,226
208,304	-69,836	-0,048	-0,013
209,319	-90,218	-0,212	0,043
210,334	18,518	-0,191	-0,106
211,348	-73,627	-0,166	-0,042
212,363	286,989	-0,211	-0,266
213,377	52,492	-0,189	-0,125
214,392	-200,000	0,028	-0,176
215,407	-101,508	-0,286	-0,048
216,421	-68,953	-0,174	-0,046
217,436	61,715	-0,233	-0,161
218,450	-80,049	-0,157	-0,036
219,465	201,131	-0,205	-0,220
220,480	800,000	-0,107	-0,306
221,494	294,781	-0,206	-0,262
222,509	-45,068	-0,091	-0,031
223,523	383,926	-0,206	-0,295
224,538	128,529	-0,150	-0,133
225,553	160,020	-0,196	-0,190
226,567	126,506	-0,212	-0,186
227,582	47,026	-0,218	-0,141
228,596	433,870	-0,092	-0,139
229,611	155,693	-0,178	-0,170
230,626	178,119	-0,090	-0,092
231,640	413,134	-0,098	-0,145
232,655	-116,291	-0,184	-0,023
233,669	78,799	-0,136	-0,101
234,684	323,174	-0,178	-0,236
235,699	115,913	-0,054	0,046
236,713	-4,000	-0,195	-0,094
237,728	63,597	-0,079	-0,055
238,742	-71,537	-0,354	-0,091
239,757	722,434	-0,162	-0,301
240,772	61,877	-0,266	-0,184
241,786	296,135	-0,193	-0,246
242,801	126,265	-0,205	-0,180
243,815	529,143	-0,115	-0,190
244,830	-56,686	-0,185	-0,057
245,844	-66,332	-0,227	-0,062
246,859	48,258	-0,093	-0,060
247,874	-29,852	-0,179	-0,071
248,888	268,759	-0,106	-0,129
249,903	-7,741	-0,299	-0,139
250,917	-69,720	-0,185	-0,049
251,932	71,310	-0,162	-0,117
252,947	148,593	-0,173	-0,162
253,961	-83,460	-0,203	-0,045
254,976	42,903	-0,159	-0,100
255,990	113,354	-0,192	-0,162
257,005	302,488	-0,104	-0,134
258,020	393,096	-0,169	-0,245
259,034	104,335	-0,124	-0,101
260,049	152,963	-0,112	-0,106
261,063	-113,593	-0,182	0,024
262,078	128,887	-0,170	-0,150
263,093	41,901	-0,171	-0,107
264,107	160,881	-0,113	-0,109
265,122	-200,000	-0,014	-0,080
266,136	258,939	-0,079	-0,095
267,151	73,114	-0,085	-0,062
268,166	170,420	-0,125	-0,124
269,180	-34,187	-0,263	-0,099
270,195	395,240	-0,123	-0,178
271,209	71,342	-0,217	-0,156
272,224	-61,774	-0,063	-0,018
273,239	-125,614	-0,099	0,010
274,253	39,512	-0,210	-0,130
275,268	-0,341	-0,191	-0,093
276,282	189,030	-0,116	-0,121
277,297	800,000	-0,120	-0,245
278,312	28,467	-0,126	-0,073
279,326	800,000	-0,088	-0,210
280,341	113,797	-0,099	-0,083
281,355	309,268	-0,157	-0,203
282,370	285,181	-0,202	-0,252
283,384	75,108	-0,172	-0,125
284,399	75,011	-0,174	-0,127
285,414	123,516	-0,048	-0,042
286,428	185,948	-0,111	-0,115
287,443	96,450	-0,161	-0,127
288,457	-200,000	-0,022	-0,153
289,472	161,868	-0,109	-0,105
290,487	49,005	-0,212	-0,137
291,501	24,944	-0,190	-0,109
292,516	102,590	-0,145	-0,117
293,530	21,445	-0,192	-0,107
294,545	-87,304	-0,117	0,024
295,560	800,000	-0,066	-0,149
296,574	-14,849	-0,196	-0,087
297,589	800,000	-0,126	-0,280
298,603	63,324	-0,285	-0,197
299,618	43,047	-0,193	-0,122
300,633	94,899	-0,167	-0,131
301,647	-200,000	0,014	-0,152
302,662	111,132	-0,056	-0,047
303,676	418,937	-0,116	-0,172
304,691	514,794	-0,128	-0,207
305,706	800,000	-0,102	-0,198
306,720	26,306	-0,154	-0,089
307,735	-150,764	-0,193	-0,010
308,749	-117,522	-0,102	0,013
309,764	456,436	-0,115	-0,176
310,779	-72,586	-0,171	-0,043
311,793	-200,000	-0,045	-0,187
312,808	450,650	-0,167	-0,255
313,822	257,343	-0,165	-0,196
314,837	138,450	-0,104	-0,095
315,852	800,000	-0,075	-0,171
316,866	241,189	-0,021	-0,024
317,881	379,312	-0,081	-0,115
318,895	-152,329	-0,144	-0,007
319,910	9,092	-0,200	-0,104
320,925	-159,124	-0,212	0,008
321,939	132,082	-0,106	-0,094
322,954	-68,515	-0,138	-0,037
323,968	-116,318	-0,086	0,011
324,983	-183,814	-0,162	-0,002
325,997	-126,758	-0,160	-0,016
327,012	24,486	-0,217	-0,123
328,027	-200,000	-0,026	-0,130
329,041	-178,443	-0,111	-0,002
330,056	501,452	-0,183	-0,292
331,070	200,237	-0,118	-0,125
332,085	-200,000	-0,032	-0,099
333,100	46,423	-0,187	-0,119
334,114	181,351	-0,147	-0,149
335,129	-56,903	-0,151	-0,046
336,143	-137,470	-0,080	0,006
337,158	328,017	-0,072	-0,095
338,173	45,430	-0,072	-0,046
339,187	-88,426	-0,094	-0,019
340,202	-122,177	0,037	-0,004
341,216	-41,861	-0,158	-0,055
342,231	273,394	-0,167	-0,204
343,246	-200,000	-0,013	-0,202
344,260	22,660	-0,008	0,004
345,275	102,976	-0,030	-0,024
346,289	272,579	-0,122	-0,148
347,304	-200,000	-0,057	-0,204
348,319	153,701	-0,178	-0,168
349,333	-119,132	-0,165	-0,020
350,348	553,528	-0,094	-0,156
351,362	-200,000	-0,058	-0,216
352,377	-200,000	-0,001	-0,073
353,392	125,832	-0,055	-0,048
354,406	12,425	-0,130	-0,069
355,421	210,045	1312,726	1417,711
356,435	161,682	1473,253	1418,240
