DTS Sentinel unit serial number:	SN410029Multiplexer serial number:	ORYXHardware model number:	OX2-SRSoftware version number:	ORYX F/W v4,00 Oryx Data Collector v3.7.2.0data status	okinstallation	B3 Nyhavnadifferential loss correction	single-endedforward channel	channel 1reverse channel	N/Adate	2023/12/02time	01:27:30forward acquisition time	300,00reverse acquisition time	0,00gamma	499,1914k internal	0,3196k external	0,3196temperature offset calibration	1,0000default loss term (dB/km)	0,3820temperature slope calibration	1,0000multiplexer offset coefficient	1,0000multiplexer slope coefficient	1,0000fibre end	0,00T internal ref (°C)	16,50T ext. ref 1 (°C)	1,93T ext. ref 2 (°C)	1,92length (m)	temperature (°C)	Stokes	anti-Stokes-744,400	317,694	-0,204	-0,283
-743,385	-200,000	0,028	0,415
-742,371	94,603	-0,094	-0,078
-741,356	-200,000	0,028	0,340
-740,342	142,524	-0,217	-0,210
-739,327	-200,000	0,078	0,356
-738,312	300,745	-0,220	-0,297
-737,298	-200,000	0,029	0,321
-736,283	800,000	-0,141	-0,352
-735,269	800,000	0,158	0,412
-734,254	86,096	-0,189	-0,152
-733,239	311,310	-0,164	0,224
-732,225	209,421	-0,096	-0,110
-731,210	-200,000	0,051	0,180
-730,196	743,576	-0,037	0,073
-729,181	9,209	0,103	0,057
-728,167	800,000	-0,016	-0,042
-727,152	-200,000	0,004	-0,107
-726,137	145,476	-0,073	0,071
-725,123	424,691	-0,124	-0,196
-724,108	-13,477	-0,137	-0,064
-723,094	-45,691	-0,170	-0,061
-722,079	398,314	-0,073	-0,111
-721,064	-123,793	0,094	0,011
-720,050	73,180	-0,039	-0,029
-719,035	25,975	0,150	0,091
-718,021	-93,567	-0,153	0,031
-717,006	-200,000	0,036	-0,264
-715,991	-200,000	-0,020	-0,246
-714,977	-63,864	-0,202	0,060
-713,962	48,487	-0,039	0,027
-712,948	110,945	-0,073	0,064
-711,933	177,359	-0,072	-0,076
-710,918	-59,381	-0,068	-0,021
-709,904	-58,000	-0,049	-0,015
-708,889	-21,469	0,072	0,032
-707,875	-200,000	0,061	-0,206
-706,860	-31,793	-0,151	0,061
-705,845	-200,000	0,008	0,037
-704,831	83,762	0,111	-0,088
-703,816	-118,860	-0,106	-0,013
-702,802	82,863	0,049	-0,039
-701,787	-200,000	-0,024	-0,106
-700,772	800,000	0,042	-0,097
-699,758	800,000	-0,036	0,109
-698,743	34,473	0,013	0,008
-697,729	588,283	0,035	-0,064
-696,714	108,165	-0,050	0,043
-695,699	800,000	0,013	0,027
-694,685	148,787	-0,030	-0,030
-693,670	-200,000	-0,012	0,098
-692,656	378,887	-0,039	0,059
-691,641	-82,330	0,167	-0,039
-690,627	-68,305	0,047	-0,013
-689,612	-200,000	-0,009	-0,053
-688,597	-126,231	0,119	0,013
-687,583	306,604	-0,036	-0,049
-686,568	97,426	-0,094	-0,079
-685,554	-74,891	-0,122	0,032
-684,539	672,070	-0,029	0,055
-683,524	94,935	0,079	-0,065
-682,510	-74,171	-0,081	0,021
-681,495	-186,414	-0,158	-0,002
-680,481	-137,949	-0,067	-0,005
-679,466	721,113	-0,006	0,011
-678,451	-161,285	-0,187	-0,007
-677,437	-200,000	0,015	0,117
-676,422	471,255	0,059	0,096
-675,408	43,069	-0,054	-0,036
-674,393	63,653	-0,064	0,047
-673,378	498,566	-0,018	-0,031
-672,364	-200,000	0,007	-0,085
-671,349	162,306	-0,097	-0,098
-670,335	-52,278	0,112	0,037
-669,320	-139,784	0,105	0,008
-668,305	-193,144	-0,151	0,001
-667,291	800,000	0,029	-0,062
-666,276	-200,000	-0,004	-0,076
-665,262	-200,000	-0,045	-0,154
-664,247	236,156	0,052	0,062
-663,232	28,657	-0,037	-0,023
-662,218	800,000	-0,031	0,073
-661,203	14,626	0,063	0,036
-660,189	-200,000	0,008	0,077
-659,174	800,000	-0,051	-0,113
-658,159	-200,000	0,004	-0,137
-657,145	-200,000	0,010	-0,188
-656,130	-200,000	-0,094	0,000
-655,116	733,217	0,007	-0,013
-654,101	800,000	-0,037	-0,076
-653,086	68,830	-0,022	0,017
-652,072	-69,848	-0,049	0,013
-651,057	800,000	-0,026	-0,054
-650,043	591,629	-0,025	-0,045
-649,028	85,429	-0,086	-0,069
-648,014	-200,000	0,009	-0,054
-646,999	25,157	-0,084	0,051
-645,984	279,132	0,059	0,077
-644,970	800,000	0,051	0,133
-643,955	800,000	0,048	0,148
-642,941	9,906	0,091	-0,050
-641,926	243,835	0,018	0,023
-640,911	65,613	0,013	-0,009
-639,897	29,810	0,192	0,119
-638,882	531,420	-0,020	0,034
-637,868	-29,770	-0,169	-0,070
-636,853	8,134	-0,134	-0,073
-635,838	211,190	-0,093	-0,107
-634,824	48,490	0,085	-0,058
-633,809	96,259	-0,066	-0,054
-632,795	44,449	0,132	0,088
-631,780	800,000	-0,038	-0,077
-630,765	-9,866	0,047	-0,023
-629,751	-61,318	-0,094	-0,029
-628,736	-200,000	0,005	-0,172
-627,722	5,790	-0,060	-0,032
-626,707	-61,192	0,050	0,015
-625,692	4,129	0,082	-0,044
-624,678	-124,041	0,044	0,005
-623,663	146,278	0,006	0,005
-622,649	800,000	-0,062	-0,133
-621,634	-200,000	0,012	0,216
-620,619	16,745	-0,045	-0,026
-619,605	-200,000	0,026	-0,162
-618,590	427,511	0,049	0,076
-617,576	279,288	0,033	0,042
-616,561	-200,000	0,007	-0,099
-615,546	-200,000	0,027	-0,103
-614,532	19,725	-0,067	-0,039
-613,517	-143,628	-0,110	-0,007
-612,503	800,000	-0,016	0,038
-611,488	21,005	0,105	0,062
-610,474	2,068	0,106	0,056
-609,459	384,555	-0,030	0,045
-608,444	-15,418	0,168	-0,078
-607,430	28,927	-0,092	0,056
-606,415	-200,000	0,020	-0,097
-605,401	-200,000	-0,006	0,130
-604,386	-123,957	0,071	0,008
-603,371	557,522	0,014	-0,025
-602,357	138,185	-0,041	-0,039
-601,342	-65,703	-0,032	0,009
-600,328	73,232	-0,111	-0,084
-599,313	800,000	0,004	-0,012
-598,298	-66,325	-0,159	0,046
-597,284	-200,000	0,007	0,071
-596,269	197,183	0,148	0,163
-595,255	-200,000	-0,005	-0,045
-594,240	231,388	-0,118	-0,140
-593,225	-200,000	0,007	-0,138
-592,211	99,563	0,022	-0,018
-591,196	-55,058	0,064	-0,021
-590,182	-200,000	0,005	0,108
-589,167	-52,094	0,103	-0,034
-588,152	234,953	-0,108	-0,129
-587,138	136,477	-0,139	-0,131
-586,123	72,128	0,021	-0,016
-585,109	-200,000	-0,005	-0,138
-584,094	17,772	0,156	-0,089
-583,079	-200,000	0,017	0,097
-582,065	208,615	0,088	-0,100
-581,050	-108,845	-0,094	-0,014
-580,036	-50,472	0,130	0,044
-579,021	238,060	-0,176	0,212
-578,006	65,525	-0,022	0,016
-576,992	-88,717	0,056	0,012
-575,977	190,683	0,049	0,054
-574,963	56,921	0,103	-0,072
-573,948	138,710	0,085	-0,081
-572,934	-61,342	0,020	-0,006
-571,919	-14,419	-0,038	0,018
-570,904	800,000	-0,002	0,005
-569,890	65,187	-0,018	-0,013
-568,875	-60,889	0,032	0,010
-567,861	294,000	-0,098	0,130
-566,846	-83,132	0,142	-0,033
-565,831	-200,000	-0,009	0,056
-564,817	242,332	-0,050	0,060
-563,802	261,407	0,038	-0,048
-562,788	-200,000	0,024	0,077
-561,773	-81,843	0,047	0,011
-560,758	260,991	-0,004	-0,004
-559,744	-44,801	-0,107	0,038
-558,729	-200,000	0,006	-0,027
-557,715	-129,452	0,037	0,004
-556,700	536,820	-0,019	-0,033
-555,685	800,000	0,016	-0,033
-554,671	-200,000	0,037	-0,131
-553,656	557,700	0,057	-0,099
-552,642	-74,382	0,109	-0,028
-551,627	-92,914	-0,161	-0,032
-550,612	-200,000	-0,018	-0,126
-549,598	800,000	-0,088	-0,193
-548,583	-95,052	-0,097	0,019
-547,569	63,271	0,113	-0,082
-546,554	44,313	-0,030	0,020
-545,539	-200,000	-0,028	-0,098
-544,525	163,551	0,071	0,073
-543,510	800,000	-0,039	-0,079
-542,496	-200,000	0,034	-0,176
-541,481	-200,000	0,016	-0,074
-540,466	-200,000	0,010	-0,048
-539,452	214,586	0,025	-0,028
-538,437	-200,000	0,011	0,055
-537,423	-161,803	0,117	0,004
-536,408	800,000	-0,044	-0,114
-535,393	-3,300	-0,131	-0,066
-534,379	-200,000	-0,033	0,150
-533,364	800,000	0,018	0,057
-532,350	-200,000	-0,025	0,173
-531,335	186,199	0,132	0,142
-530,321	308,878	0,022	-0,030
-529,306	-200,000	0,001	-0,082
-528,291	800,000	-0,035	0,084
-527,277	128,650	0,058	0,053
-526,262	109,214	0,074	-0,064
-525,248	13,481	0,047	-0,026
-524,233	65,975	0,075	-0,055
-523,218	48,876	0,018	-0,012
-522,204	31,247	-0,079	-0,049
-521,189	-200,000	-0,016	-0,126
-520,175	790,142	-0,081	-0,162
-519,160	30,688	0,143	-0,088
-518,145	-200,000	0,015	0,096
-517,131	-12,056	0,113	0,053
-516,116	497,553	0,039	0,065
-515,102	800,000	-0,040	0,094
-514,087	-121,453	-0,058	-0,007
-513,072	-101,727	-0,073	-0,013
-512,058	649,332	0,031	0,058
-511,043	370,497	-0,067	-0,098
-510,029	421,334	0,049	0,076
-509,014	-200,000	0,020	0,082
-507,999	648,730	0,032	0,059
-506,985	82,274	0,118	-0,092
-505,970	-200,000	0,005	-0,098
-504,956	-11,910	-0,075	0,035
-503,941	-162,056	0,042	0,001
-502,926	484,664	-0,050	-0,082
-501,912	363,337	-0,032	-0,047
-500,897	-1,342	-0,039	0,020
-499,883	800,000	-0,035	-0,108
-498,868	-15,557	-0,129	0,059
-497,853	399,201	0,050	0,076
-496,839	-200,000	0,026	0,154
-495,824	-12,015	0,051	-0,024
-494,810	166,564	0,053	0,055
-493,795	-38,692	0,149	0,056
-492,781	-153,300	0,046	0,002
-491,766	-200,000	0,015	-0,053
-490,751	-200,000	0,008	-0,086
-489,737	-200,000	-0,008	0,049
-488,722	185,521	-0,036	0,039
-487,708	137,528	0,108	0,102
-486,693	800,000	-0,057	0,135
-485,678	-166,826	-0,049	-0,001
-484,664	5,370	-0,070	-0,037
-483,649	-200,000	-0,021	-0,149
-482,635	-200,000	-0,018	-0,076
-481,620	473,440	0,070	0,114
-480,605	-200,000	0,008	0,042
-479,591	280,178	-0,076	-0,098
-478,576	14,451	0,057	0,032
-477,562	289,697	-0,108	-0,141
-476,547	17,534	-0,029	0,017
-475,532	-37,022	0,077	-0,030
-474,518	183,950	-0,055	0,059
-473,503	519,980	-0,078	-0,133
-472,489	16,308	0,046	-0,026
-471,474	-124,703	0,073	0,008
-470,459	145,719	0,020	0,020
-469,445	-132,038	-0,082	-0,008
-468,430	800,000	0,043	-0,103
-467,416	800,000	-0,061	0,138
-466,401	-93,790	0,113	-0,022
-465,386	800,000	-0,016	0,037
-464,372	-200,000	-0,008	0,088
-463,357	-56,362	-0,088	-0,028
-462,343	800,000	0,022	0,052
-461,328	258,652	-0,035	0,044
-460,313	184,132	0,076	-0,081
-459,299	20,691	-0,071	0,041
-458,284	-45,258	-0,004	0,002
-457,270	-16,358	0,039	-0,018
-456,255	800,000	-0,051	0,120
-455,241	800,000	0,029	0,067
-454,226	-200,000	-0,016	0,090
-453,211	-200,000	0,038	0,177
-452,197	297,375	-0,081	0,108
-451,182	94,412	-0,104	0,085
-450,168	151,267	-0,042	0,042
-449,153	760,542	0,034	-0,067
-448,138	-53,140	-0,075	0,025
-447,124	-103,392	-0,145	0,024
-446,109	384,048	-0,063	0,094
-445,095	-55,476	0,134	-0,043
-444,080	111,884	-0,061	-0,053
-443,065	-200,000	-0,001	0,011
-442,051	210,809	0,017	-0,020
-441,036	-200,000	0,005	-0,093
-440,022	71,216	-0,096	0,071
-439,007	-200,000	0,018	0,057
-437,992	-200,000	0,022	0,070
-436,978	64,758	-0,018	-0,013
-435,963	39,451	0,049	-0,031
-434,949	630,009	-0,023	0,043
-433,934	-38,701	-0,144	-0,054
-432,919	-200,000	-0,038	0,000
-431,905	31,930	-0,057	-0,036
-430,890	800,000	-0,027	-0,059
-429,876	800,000	0,021	-0,055
-428,861	709,471	0,065	0,125
-427,846	-200,000	0,001	-0,026
-426,832	-200,000	0,002	-0,039
-425,817	-200,000	0,007	0,024
-424,803	654,574	-0,028	0,051
-423,788	-87,276	0,076	-0,016
-422,773	-200,000	-0,006	0,071
-421,759	-83,801	-0,042	0,010
-420,744	-166,223	-0,113	-0,003
-419,730	-200,000	-0,005	-0,049
-418,715	265,919	0,041	-0,052
-417,701	172,673	-0,075	-0,078
-416,686	498,320	-0,043	-0,072
-415,671	294,847	0,075	0,099
-414,657	800,000	-0,041	0,123
-413,642	-200,000	-0,016	0,065
-412,628	438,803	0,027	-0,043
-411,613	800,000	0,075	-0,155
-410,598	42,621	0,018	-0,012
-409,584	800,000	-0,039	0,079
-408,569	-200,000	0,003	0,210
-407,555	800,000	0,037	0,106
-406,540	-29,297	-0,088	0,036
-405,525	-200,000	-0,048	-0,161
-404,511	-200,000	-0,025	-0,092
-403,496	125,199	-0,050	0,046
-402,482	149,216	0,050	0,049
-401,467	-99,585	0,086	0,015
-400,452	-21,439	0,147	-0,064
-399,438	-103,747	-0,128	-0,021
-398,423	-109,923	-0,097	-0,014
-397,409	800,000	0,007	-0,014
-396,394	465,922	-0,074	-0,119
-395,379	-9,845	0,068	-0,032
-394,365	295,613	0,006	0,007
-393,350	-130,720	0,092	0,009
-392,336	256,917	-0,104	0,129
-391,321	800,000	0,032	0,070
-390,306	-28,538	0,072	0,030
-389,292	800,000	-0,037	0,087
-388,277	-113,937	0,155	-0,021
-387,263	-50,147	-0,042	0,014
-386,248	289,534	0,038	0,049
-385,233	-200,000	0,008	0,108
-384,219	-86,169	-0,109	0,024
-383,204	800,000	0,038	-0,089
-382,190	392,016	-0,087	-0,130
-381,175	-14,686	-0,057	-0,026
-380,160	126,939	-0,071	0,065
-379,146	584,370	-0,041	0,073
-378,131	-51,778	0,086	0,029
-377,117	800,000	0,018	0,042
-376,102	-200,000	-0,003	0,127
-375,088	-14,821	-0,067	0,031
-374,073	-177,304	0,104	0,002
-373,058	-200,000	0,006	-0,025
-372,044	31,653	0,087	-0,054
-371,029	-200,000	-0,002	0,133
-370,015	264,324	0,112	0,140
-369,000	11,875	-0,086	0,047
-367,985	444,452	0,005	-0,009
-366,971	69,581	-0,065	-0,048
-365,956	-200,000	0,021	0,078
-364,942	-25,358	0,105	-0,044
-363,927	-200,000	0,040	-0,130
-362,912	-200,000	0,000	-0,054
-361,898	26,601	0,070	-0,042
-360,883	91,351	-0,066	-0,053
-359,869	-59,710	0,073	-0,022
-358,854	-191,736	-0,046	-0,000
-357,839	147,948	0,083	0,080
-356,825	-200,000	0,012	0,098
-355,810	57,013	-0,129	0,090
-354,796	-124,844	0,043	-0,005
-353,781	800,000	-0,055	-0,133
-352,766	-104,118	-0,104	0,017
-351,752	-200,000	-0,011	0,115
-350,737	-200,000	-0,015	0,157
-349,723	116,135	0,100	-0,088
-348,708	-120,281	0,019	0,002
-347,693	-111,107	-0,111	-0,016
-346,679	157,789	0,088	-0,087
-345,664	800,000	-0,028	-0,074
-344,650	124,541	0,023	-0,021
-343,635	-60,555	0,017	-0,005
-342,620	-200,000	-0,016	0,063
-341,606	91,505	0,009	0,007
-340,591	800,000	-0,024	-0,054
-339,577	-183,139	-0,059	0,001
-338,562	105,390	0,067	0,057
-337,548	-200,000	-0,016	-0,110
-336,533	617,402	0,037	0,068
-335,518	290,400	0,149	0,195
-334,504	102,507	0,128	0,107
-333,489	28,138	-0,058	0,035
-332,475	51,376	-0,054	-0,036
-331,460	-200,000	0,017	-0,102
-330,445	-200,000	0,005	0,058
-329,431	800,000	0,017	0,038
-328,416	-55,747	0,073	0,023
-327,402	69,477	0,072	0,053
-326,387	-200,000	0,028	0,176
-325,372	66,006	-0,082	0,060
-324,358	800,000	0,071	-0,166
-323,343	-131,857	0,078	0,007
-322,329	800,000	-0,076	-0,156
-321,314	288,202	0,033	-0,044
-320,299	113,030	0,015	0,013
-319,285	-200,000	0,003	0,012
-318,270	252,116	-0,004	0,004
-317,256	-113,805	0,139	-0,019
-316,241	-200,000	-0,026	0,087
-315,226	-82,091	0,163	0,038
-314,212	800,000	0,032	0,099
-313,197	-26,780	0,121	0,051
-312,183	-200,000	0,017	-0,059
-311,168	284,105	-0,074	-0,096
-310,153	-200,000	-0,008	-0,049
-309,139	190,236	-0,057	-0,061
-308,124	-50,201	0,092	-0,031
-307,110	-200,000	0,011	-0,057
-306,095	-39,899	0,053	-0,020
-305,080	108,879	0,087	0,074
-304,066	489,503	0,039	-0,064
-303,051	-198,397	-0,115	-0,000
-302,037	25,464	0,043	0,026
-301,022	-33,790	-0,078	0,031
-300,008	-36,540	0,059	0,023
-298,993	-200,000	-0,011	-0,068
-297,978	-200,000	0,010	-0,067
-296,964	-106,869	-0,175	-0,027
-295,949	40,109	0,081	-0,052
-294,935	-200,000	-0,005	-0,115
-293,920	-148,960	-0,050	0,003
-292,905	256,109	0,069	0,085
-291,891	167,560	0,093	0,095
-290,876	-200,000	0,010	0,056
-289,862	71,539	0,079	0,059
-288,847	-12,505	-0,065	-0,030
-287,832	17,467	-0,118	-0,067
-286,818	228,790	-0,123	0,143
-285,803	-101,903	-0,031	-0,005
-284,789	-200,000	0,046	0,156
-283,774	800,000	-0,013	-0,027
-282,759	143,805	0,070	-0,067
-281,745	64,052	-0,154	-0,110
-280,730	42,780	-0,038	-0,025
-279,716	-200,000	-0,003	-0,046
-278,701	363,582	0,015	0,021
-277,686	244,146	0,122	0,147
-276,672	-200,000	0,027	0,116
-275,657	-39,767	0,087	0,033
-274,643	-130,260	0,026	-0,003
-273,628	234,912	0,017	-0,020
-272,613	-200,000	0,006	0,038
-271,599	306,791	-0,054	0,072
-270,584	-200,000	0,051	0,249
-269,570	329,148	0,050	-0,068
-268,555	-200,000	-0,012	-0,144
-267,540	-119,778	0,112	-0,014
-266,526	800,000	0,033	-0,083
-265,511	220,231	0,087	-0,100
-264,497	-54,277	0,049	-0,016
-263,482	35,228	0,114	-0,071
-262,467	466,537	0,050	-0,080
-261,453	-47,176	0,154	0,053
-260,438	-200,000	0,013	0,094
-259,424	546,217	-0,034	0,059
-258,409	800,000	0,043	-0,113
-257,395	-19,300	-0,105	-0,047
-256,380	-200,000	0,021	0,108
-255,365	197,867	0,075	0,082
-254,351	-11,174	-0,054	-0,025
-253,336	-200,000	0,004	0,119
-252,322	-56,501	-0,051	-0,016
-251,307	162,385	0,062	0,062
-250,292	-200,000	0,013	-0,069
-249,278	-66,545	-0,066	0,019
-248,263	-1,190	0,088	0,044
-247,249	-200,000	-0,025	0,128
-246,234	-108,700	-0,033	0,005
-245,219	-200,000	-0,012	-0,084
-244,205	116,422	-0,061	-0,053
-243,190	85,612	-0,005	-0,004
-242,176	114,247	-0,074	0,064
-241,161	-200,000	-0,014	0,050
-240,146	22,488	-0,089	0,052
-239,132	95,902	-0,084	0,068
-238,117	241,134	-0,103	-0,123
-237,103	-44,931	-0,101	0,036
-236,088	-200,000	0,007	-0,079
-235,073	415,417	0,057	-0,086
-234,059	-200,000	-0,021	-0,111
-233,044	256,079	0,036	0,044
-232,030	-128,196	0,052	0,005
-231,015	-200,000	-0,005	-0,135
-230,000	182,174	0,079	-0,083
-228,986	456,165	-0,044	0,070
-227,971	-73,056	0,114	-0,030
-226,957	-200,000	0,017	0,154
-225,942	-8,416	-0,128	0,061
-224,927	291,461	-0,065	0,084
-223,913	-35,172	-0,068	-0,026
-222,898	345,897	-0,148	-0,209
-221,884	77,375	0,021	-0,016
-220,869	-200,000	-0,010	-0,061
-219,855	-130,503	0,040	-0,004
-218,840	-200,000	0,008	0,091
-217,825	223,360	-0,043	0,050
-216,811	-114,729	-0,103	0,014
-215,796	-200,000	0,003	-0,109
-214,782	-200,000	0,003	-0,038
-213,767	800,000	-0,028	0,057
-212,752	-200,000	0,006	-0,114
-211,738	-20,247	0,136	0,059
-210,723	-166,652	-0,142	0,004
-209,709	352,243	0,052	-0,074
-208,694	-17,053	-0,090	0,040
-207,679	-200,000	-0,030	-0,122
-206,665	-200,000	0,023	-0,141
-205,650	-200,000	0,008	-0,044
-204,636	-200,000	-0,000	0,017
-203,621	5,776	0,136	-0,071
-202,606	-200,000	-0,027	-0,090
-201,592	-200,000	-0,006	-0,126
-200,577	-200,000	-0,001	0,106
-199,563	-12,851	0,030	0,014
-198,548	-200,000	-0,007	-0,070
-197,533	784,345	0,097	0,191
-196,519	98,712	-0,041	-0,033
-195,504	315,380	-0,054	-0,073
-194,490	147,624	0,059	0,057
-193,475	-200,000	0,016	0,089
-192,460	276,000	0,015	0,019
-191,446	332,829	-0,046	0,064
-190,431	-200,000	0,017	-0,109
-189,417	435,553	0,024	-0,037
-188,402	800,000	0,005	-0,014
-187,387	59,915	-0,159	0,112
-186,373	-124,896	0,034	-0,004
-185,358	43,829	-0,062	-0,041
-184,344	-13,591	0,016	0,008
-183,329	539,271	0,063	0,108
-182,315	52,524	0,091	0,062
-181,300	-6,545	-0,108	0,052
-180,285	-134,987	-0,132	0,011
-179,271	90,720	-0,123	-0,098
-178,256	583,708	0,022	-0,039
-177,242	524,926	0,070	-0,118
-176,227	800,000	-0,024	0,048
-175,212	214,676	-0,033	-0,038
-174,198	-26,935	-0,092	-0,038
-173,183	763,290	0,021	-0,041
-172,169	1,792	-0,037	-0,019
-171,154	-200,000	-0,009	0,079
-170,139	62,588	-0,021	0,015
-169,125	429,013	-0,021	-0,033
-168,110	-102,355	0,037	0,006
-167,096	-73,083	-0,009	0,002
-166,081	-164,434	0,047	-0,002
-165,066	800,000	-0,046	0,100
-164,052	130,324	-0,040	-0,037
-163,037	800,000	-0,014	-0,042
-162,023	-3,937	-0,059	0,029
-161,008	95,495	-0,137	0,111
-159,993	800,000	-0,026	-0,052
-158,979	-200,000	-0,001	-0,081
-157,964	-200,000	-0,013	0,113
-156,950	397,909	-0,038	-0,057
-155,935	17,802	-0,103	0,058
-154,920	800,000	0,031	-0,065
-153,906	89,295	-0,137	0,109
-152,891	-200,000	0,023	-0,073
-151,877	2,404	-0,216	-0,111
-150,862	-200,000	0,011	-0,085
-149,847	-200,000	0,016	-0,097
-148,833	-57,073	-0,088	0,028
-147,818	800,000	-0,009	-0,026
-146,804	144,106	0,012	0,011
-145,789	532,648	-0,062	0,105
-144,775	23,202	0,050	0,029
-143,760	-53,918	-0,139	0,045
-142,745	509,953	0,050	-0,083
-141,731	-200,000	-0,005	0,128
-140,716	-125,608	-0,096	0,010
-139,702	-6,514	-0,079	-0,038
-138,687	149,142	0,042	0,041
-137,672	-97,133	-0,067	0,012
-136,658	-200,000	0,030	-0,125
-135,643	431,243	0,058	-0,089
-134,629	78,821	0,063	0,048
-133,614	18,514	0,070	-0,040
-132,599	132,155	0,065	0,060
-131,585	-200,000	-0,022	0,105
-130,570	800,000	0,010	-0,022
-129,556	220,903	-0,021	-0,024
-128,541	800,000	-0,009	-0,024
-127,526	793,854	0,042	-0,082
-126,512	108,832	-0,112	-0,095
-125,497	9,265	0,131	-0,070
-124,483	-45,551	0,046	-0,016
-123,468	-48,676	-0,066	0,022
-122,453	-200,000	-0,003	-0,034
-121,439	-53,291	-0,157	-0,051
-120,424	332,339	0,052	0,072
-119,410	-2,422	0,131	0,065
-118,395	176,770	0,085	0,088
-117,380	4,055	0,095	-0,049
-116,366	795,341	-0,033	0,065
-115,351	800,000	-0,036	0,105
-114,337	-181,967	-0,138	0,002
-113,322	-200,000	0,040	0,167
-112,307	-200,000	-0,008	0,051
-111,293	-49,270	0,046	-0,015
-110,278	-113,618	-0,063	0,009
-109,264	226,975	-0,028	-0,032
-108,249	55,126	-0,043	-0,030
-107,234	-65,394	-0,180	-0,051
-106,220	-29,790	-0,143	-0,058
-105,205	-171,093	-0,110	-0,003
-104,191	55,373	0,090	-0,062
-103,176	-200,000	-0,000	0,056
-102,162	201,066	0,058	-0,064
-101,147	205,675	0,079	0,088
-100,132	117,080	0,036	-0,032
-99,118	1,441	-0,100	-0,051
-98,103	-165,607	0,053	0,002
-97,089	-200,000	-0,025	-0,112
-96,074	800,000	0,012	-0,033
-95,059	800,000	-0,091	0,194
-94,045	-180,099	0,072	0,001
-93,030	58,057	-0,090	0,063
-92,016	-200,000	-0,015	0,059
-91,001	-200,000	0,030	0,171
-89,986	-32,040	0,072	-0,029
-88,972	-200,000	0,008	0,083
-87,957	-165,805	-0,125	0,004
-86,943	233,759	0,073	0,086
-85,928	316,326	0,027	-0,037
-84,913	-102,382	-0,124	-0,021
-83,899	493,420	0,073	0,120
-82,884	39,461	0,117	-0,074
-81,870	-98,007	0,125	0,023
-80,855	-200,000	-0,007	0,169
-79,840	-20,551	-0,096	-0,042
-78,826	246,771	-0,021	0,025
-77,811	63,995	-0,059	0,042
-76,797	-83,420	-0,042	-0,009
-75,782	205,444	0,064	0,070
-74,767	100,154	0,079	0,065
-73,753	80,959	-0,020	-0,015
-72,738	631,355	0,044	-0,080
-71,724	16,173	-0,124	-0,069
-70,709	-10,152	0,140	0,066
-69,694	-23,524	-0,053	0,022
-68,680	-145,473	-0,113	-0,007
-67,665	55,466	-0,018	0,012
-66,651	-200,000	-0,038	0,144
-65,636	-200,000	-0,001	0,198
-64,622	-200,000	-0,048	-0,223
-63,607	-200,000	-0,025	0,095
-62,592	-12,855	-0,030	-0,014
-61,578	-99,524	0,083	-0,015
-60,563	337,080	-0,058	0,079
-59,549	306,867	0,129	0,171
-58,534	-78,247	-1,312	-0,317
-57,519	350,456	-1,531	-2,153
-56,505	-200,000	-0,447	-4,328
-55,490	148,247	0,926	0,887
-54,476	800,000	4,666	11,100
-53,461	-200,000	17,219	269,917
-52,446	800,000	715,837	2183,306
-51,432	551,619	1630,461	2786,767
-50,417	81,310	1655,490	1267,453
-49,403	24,340	1529,930	894,401
-48,388	18,313	1453,624	820,783
-47,373	18,472	1442,689	815,334
-46,359	18,207	1433,614	808,912
-45,344	16,676	1428,692	798,842
-44,330	16,605	1426,885	797,461
-43,315	16,583	1425,386	796,487
-42,300	16,580	1423,577	795,432
-41,286	16,679	1422,598	795,324
-40,271	16,599	1421,347	794,215
-39,257	16,588	1419,878	793,307
-38,242	16,648	1418,456	792,768
-37,227	16,666	1417,446	792,255
-36,213	16,594	1416,325	791,258
-35,198	16,614	1415,026	790,594
-34,184	16,629	1413,910	790,011
-33,169	16,553	1412,657	788,920
-32,154	16,608	1411,685	788,604
-31,140	16,625	1410,313	787,887
-30,125	16,666	1409,286	787,476
-29,111	16,658	1408,013	786,696
-28,096	16,589	1407,141	785,854
-27,082	16,550	1405,979	784,991
-26,067	16,520	1404,938	784,240
-25,052	16,553	1403,760	783,706
-24,038	16,523	1402,724	782,957
-23,023	16,470	1401,941	782,240
-22,009	16,473	1400,829	781,603
-20,994	16,436	1399,924	780,893
-19,979	16,469	1398,909	780,449
-18,965	16,474	1397,904	779,880
-17,950	16,445	1397,019	779,224
-16,936	16,513	1396,049	778,967
-15,921	16,400	1394,966	777,809
-14,906	16,423	1393,847	777,260
-13,892	16,441	1393,138	776,917
-12,877	16,404	1392,247	776,216
-11,863	16,448	1391,181	775,797
-10,848	16,436	1390,274	775,202
-9,833	16,411	1389,300	774,516
-8,819	16,415	1388,418	774,012
-7,804	16,338	1387,534	773,131
-6,790	16,352	1386,507	772,596
-5,775	16,326	1385,389	771,823
-4,760	16,325	1384,869	771,494
-3,746	16,351	1383,798	770,987
-2,731	16,318	1382,984	770,353
-1,717	16,318	1381,847	769,687
-0,702	16,328	1380,119	768,742
0,313	20,104	1302,067	742,672
1,327	36,657	707,558	441,964
2,342	56,369	125,760	86,495
3,356	3,017	16,611	8,525
4,371	9,383	3,157	1,687
5,386	-47,651	0,662	0,226
6,400	8,090	-0,014	-0,007
7,415	231,765	-0,211	-0,245
8,429	177,429	-0,277	-0,286
9,444	-21,301	-0,307	-0,132
10,459	144,543	-0,302	-0,286
11,473	-57,441	-0,287	-0,089
12,488	-183,660	-0,273	-0,003
13,502	-0,383	-0,374	-0,187
14,517	3,473	-0,439	-0,226
15,531	104,811	-0,387	-0,323
16,546	-28,149	-0,352	-0,143
17,561	-2,968	-0,311	-0,153
18,575	-32,782	-0,224	-0,088
19,590	-14,011	-0,334	-0,152
20,604	84,910	-0,224	-0,173
21,619	13,287	-0,428	-0,234
22,634	108,109	-0,353	-0,297
23,648	199,596	-0,333	-0,361
24,663	35,789	-0,422	-0,262
25,677	134,074	-0,253	-0,232
26,692	39,357	-0,395	-0,250
27,707	-31,812	-0,384	-0,152
28,721	210,531	-0,330	-0,367
29,736	65,319	-0,446	-0,319
30,750	59,927	-0,372	-0,260
31,765	100,165	-0,401	-0,329
32,780	154,196	-0,353	-0,343
33,794	100,539	-0,319	-0,262
34,809	0,289	-0,397	-0,199
35,823	93,725	-0,394	-0,315
36,838	67,818	-0,443	-0,320
37,853	172,222	-0,400	-0,407
38,867	100,367	-0,318	-0,261
39,882	22,577	-0,509	-0,294
40,896	315,567	-0,274	-0,366
41,911	-43,922	-0,448	-0,158
42,926	149,771	-0,259	-0,248
43,940	-38,515	-0,352	-0,131
44,955	18,404	-0,521	-0,293
45,969	81,046	-0,381	-0,290
46,984	30,322	-0,362	-0,218
47,999	80,276	-0,299	-0,227
49,013	2,539	-0,302	-0,154
50,028	5,989	-0,293	-0,153
51,042	79,511	-0,323	-0,245
52,057	156,483	-0,275	-0,268
53,071	170,143	-0,293	-0,296
54,086	-22,631	-0,402	-0,171
55,101	48,899	-0,361	-0,239
56,115	197,054	-0,352	-0,379
57,130	17,684	-0,379	-0,212
58,144	120,639	-0,350	-0,307
59,159	2,877	-0,350	-0,178
60,174	-16,231	-0,551	-0,246
61,188	123,051	-0,336	-0,296
62,203	71,092	-0,380	-0,277
63,217	50,118	-0,317	-0,211
64,232	-72,191	-0,384	-0,100
65,247	-64,936	-0,387	-0,109
66,261	77,469	-0,348	-0,261
67,276	14,615	-0,398	-0,219
68,290	-49,308	-0,485	-0,162
69,305	46,758	-0,279	-0,182
70,320	-22,537	-0,132	0,056
71,334	100,716	-0,348	-0,285
72,349	73,363	-0,222	-0,163
73,363	84,615	-0,333	-0,257
74,378	81,989	-0,277	-0,211
75,393	3,983	-0,323	-0,166
76,407	-63,584	-0,284	-0,082
77,422	649,361	-0,165	-0,299
78,436	31,270	-0,303	-0,183
79,451	45,901	-0,297	-0,193
80,466	57,855	-0,300	-0,206
81,480	105,727	-0,362	-0,301
82,495	126,597	-0,289	-0,257
83,509	90,679	-0,184	-0,145
84,524	-57,641	-0,270	-0,083
85,539	63,266	-0,304	-0,214
86,553	-51,157	-0,272	-0,089
87,568	6,056	-0,341	-0,177
88,582	18,939	-0,317	-0,178
89,597	-12,310	-0,266	-0,122
90,611	155,945	-0,257	-0,249
91,626	109,742	-0,246	-0,207
92,641	70,762	-0,317	-0,231
93,655	-96,523	-0,265	-0,049
94,670	363,238	-0,155	-0,219
95,684	99,171	-0,244	-0,198
96,699	230,997	-0,367	-0,423
97,714	158,338	-0,224	-0,219
98,728	-36,461	-0,227	-0,086
99,743	21,188	-0,234	-0,133
100,757	-58,123	-0,370	-0,113
101,772	12,003	-0,301	-0,162
102,787	86,562	-0,282	-0,218
103,801	20,362	-0,282	-0,159
104,816	78,230	-0,255	-0,191
105,830	205,096	-0,201	-0,219
106,845	-48,928	-0,268	-0,090
107,860	17,606	-0,325	-0,181
108,874	281,890	-0,203	-0,256
109,889	125,375	-0,263	-0,233
110,903	328,141	-0,194	-0,263
111,918	120,820	-0,174	-0,152
112,933	50,063	-0,184	-0,122
113,947	554,926	-0,129	-0,218
114,962	-2,331	-0,335	-0,164
115,976	120,431	-0,251	-0,219
116,991	27,460	-0,373	-0,220
118,006	49,338	-0,240	-0,158
119,020	165,118	-0,224	-0,222
120,035	357,472	-0,251	-0,352
121,049	177,514	-0,168	-0,172
122,064	800,000	-0,094	-0,225
123,079	-108,096	-0,341	-0,051
124,093	39,833	-0,261	-0,164
125,108	47,802	-0,313	-0,205
126,122	-13,315	-0,275	-0,125
127,137	205,510	-0,148	-0,161
128,151	49,268	-0,241	-0,159
129,166	-15,799	-0,309	-0,137
130,181	326,148	-0,199	-0,267
131,195	45,614	-0,191	-0,123
132,210	47,841	-0,373	-0,244
133,224	83,702	-0,298	-0,228
134,239	800,000	-0,053	-0,124
135,254	125,843	-0,140	-0,124
136,268	-200,000	-0,008	-0,135
137,283	22,608	-0,243	-0,139
138,297	65,128	-0,320	-0,226
139,312	233,180	-0,235	-0,271
140,327	-5,502	-0,298	-0,143
141,341	154,534	-0,116	-0,111
142,356	92,229	-0,223	-0,176
143,370	-42,625	-0,298	-0,106
144,385	35,081	-0,290	-0,177
145,400	122,554	-0,179	-0,156
146,414	177,967	-0,280	-0,286
147,429	196,750	-0,250	-0,267
148,443	-143,555	-0,310	0,020
149,458	134,126	-0,240	-0,218
150,473	94,122	-0,243	-0,192
151,487	78,848	-0,243	-0,181
152,502	16,008	-0,365	-0,200
153,516	8,289	-0,311	-0,163
154,531	133,308	-0,218	-0,197
155,546	-51,457	-0,267	-0,087
156,560	102,453	-0,230	-0,188
157,575	-90,559	-0,140	-0,028
158,589	-45,446	-0,239	-0,082
159,604	-118,105	-0,341	-0,042
160,619	70,405	-0,278	-0,201
161,633	28,688	-0,251	-0,148
162,648	20,727	-0,287	-0,162
163,662	-155,126	-0,262	0,012
164,677	-6,067	-0,291	-0,138
165,692	20,896	-0,184	-0,104
166,706	15,538	-0,135	-0,074
167,721	36,942	-0,290	-0,179
168,735	233,374	-0,207	-0,239
169,750	-13,678	-0,217	-0,098
170,764	43,414	-0,282	-0,180
171,779	-106,209	-0,362	-0,056
172,794	188,717	-0,213	-0,223
173,808	133,812	-0,258	-0,233
174,823	351,867	-0,175	-0,242
175,837	107,660	-0,334	-0,277
176,852	187,651	-0,202	-0,210
177,867	137,697	-0,126	-0,115
178,881	40,456	-0,188	-0,118
179,896	-76,405	-0,240	-0,058
180,910	-116,267	-0,271	-0,035
181,925	800,000	-0,110	-0,226
182,940	276,495	-0,207	-0,258
183,954	1,912	-0,421	-0,211
184,969	457,721	-0,137	-0,214
185,983	10,262	-0,195	-0,103
186,998	94,449	-0,180	-0,142
188,013	-10,669	-0,266	-0,122
189,027	15,890	-0,243	-0,133
190,042	78,018	-0,231	-0,172
191,056	-11,230	-0,174	-0,079
192,071	-7,428	-0,274	-0,129
193,086	61,027	-0,191	-0,132
194,100	43,222	-0,169	-0,108
195,115	139,171	-0,232	-0,213
196,129	67,140	-0,209	-0,149
197,144	177,439	-0,238	-0,242
198,159	121,261	-0,262	-0,228
199,173	-6,192	-0,208	-0,098
200,188	-82,875	-0,156	-0,035
201,202	800,000	-0,057	-0,134
202,217	28,727	-0,241	-0,142
203,232	-110,168	-0,316	-0,045
204,246	125,232	-0,184	-0,161
205,261	58,271	-0,206	-0,140
206,275	7,993	-0,276	-0,144
207,290	-200,000	0,003	-0,291
208,304	19,435	-0,260	-0,145
209,319	-36,911	-0,251	-0,093
210,334	97,747	-0,307	-0,246
211,348	256,664	-0,238	-0,285
212,363	173,115	-0,270	-0,271
213,377	110,519	-0,164	-0,137
214,392	800,000	-0,101	-0,214
215,407	197,251	-0,198	-0,211
216,421	106,309	-0,228	-0,188
217,436	155,971	-0,232	-0,222
218,450	-136,540	-0,176	-0,014
219,465	19,912	-0,178	-0,100
220,480	498,164	-0,073	-0,118
221,494	-112,157	-0,311	-0,043
222,509	-12,081	-0,155	-0,070
223,523	-13,560	-0,146	-0,066
224,538	286,629	-0,187	-0,235
225,553	33,575	-0,224	-0,135
226,567	-200,000	-0,306	-0,000
227,582	253,715	-0,183	-0,217
228,596	478,494	-0,203	-0,321
229,611	-200,000	-0,049	-0,197
230,626	-36,943	-0,237	-0,088
231,640	-64,378	-0,307	-0,086
232,655	-75,344	-0,120	-0,030
233,669	-28,741	-0,248	-0,098
234,684	-25,155	-0,163	-0,067
235,699	485,903	-0,098	-0,155
236,713	254,113	-0,079	-0,094
237,728	-37,508	-0,230	-0,085
238,742	232,206	-0,180	-0,205
239,757	270,047	-0,099	-0,121
240,772	-5,069	-0,265	-0,126
241,786	102,986	-0,139	-0,113
242,801	132,968	-0,179	-0,161
243,815	174,716	-0,217	-0,218
244,830	153,501	-0,166	-0,157
245,844	355,243	-0,171	-0,236
246,859	321,548	-0,142	-0,188
247,874	-59,921	-0,123	-0,036
248,888	69,320	-0,209	-0,149
249,903	-200,000	0,002	-0,074
250,917	-21,852	-0,235	-0,099
251,932	229,109	-0,070	-0,079
252,947	83,258	-0,005	0,003
253,961	69,772	-0,102	-0,073
254,976	-38,349	-0,326	-0,119
255,990	134,549	-0,205	-0,184
257,005	8,519	-0,147	-0,077
258,020	43,570	-0,145	-0,092
259,034	15,521	-0,217	-0,118
260,049	-8,893	-0,315	-0,146
261,063	-4,461	-0,295	-0,141
262,078	69,510	-0,070	-0,050
263,093	-200,000	-0,028	-0,153
264,107	152,238	-0,177	-0,168
265,122	261,222	-0,163	-0,196
266,136	-32,374	-0,258	-0,099
267,151	-48,313	-0,211	-0,070
268,166	194,900	-0,255	-0,268
269,180	242,283	-0,082	-0,095
270,195	164,887	-0,102	-0,100
271,209	109,889	-0,133	-0,110
272,224	-101,244	-0,183	0,031
273,239	27,913	-0,076	-0,044
274,253	-39,169	-0,299	-0,108
275,268	57,090	-0,304	-0,205
276,282	19,985	-0,342	-0,190
277,297	132,680	-0,232	-0,207
278,312	188,697	-0,189	-0,196
279,326	78,103	-0,224	-0,165
280,341	800,000	-0,126	-0,286
281,355	225,890	-0,111	-0,125
282,370	-11,306	-0,105	-0,048
283,384	188,501	-0,222	-0,230
284,399	81,395	-0,136	-0,102
285,414	-8,419	-0,133	-0,061
286,428	-24,157	-0,039	-0,016
287,443	70,583	-0,127	-0,090
288,457	-86,708	-0,158	0,033
289,472	-165,810	-0,218	0,006
290,487	-0,889	-0,118	-0,058
291,501	14,638	-0,158	-0,085
292,516	134,915	-0,180	-0,162
293,530	299,498	-0,108	-0,138
294,545	268,303	-0,132	-0,160
295,560	-28,998	-0,175	-0,069
296,574	380,286	-0,163	-0,231
297,589	161,781	-0,086	-0,084
298,603	-93,423	-0,144	-0,027
299,618	135,976	-0,156	-0,141
300,633	590,983	-0,119	-0,203
301,647	304,394	-0,098	-0,126
302,662	-5,715	-0,143	0,067
303,676	-138,394	-0,221	0,017
304,691	800,000	-0,098	-0,210
305,706	596,177	-0,088	-0,151
306,720	-1,075	-0,167	-0,081
307,735	121,673	-0,160	-0,138
308,749	-7,078	-0,122	-0,057
309,764	-135,410	-0,065	0,005
310,779	13,352	-0,155	-0,082
311,793	-9,005	-0,253	-0,116
312,808	153,234	-0,170	-0,160
313,822	461,915	-0,143	-0,220
314,837	526,066	-0,066	-0,107
315,852	-200,000	-0,013	-0,181
316,866	-131,273	-0,064	0,006
317,881	417,647	-0,073	-0,108
318,895	438,365	-0,058	-0,087
319,910	30,748	-0,172	-0,101
320,925	212,024	-0,174	-0,189
321,939	-24,156	-0,179	-0,073
322,954	-151,177	-0,100	-0,005
323,968	-16,291	-0,090	0,039
324,983	53,984	-0,049	-0,033
325,997	-77,200	-0,156	0,037
327,012	190,513	-0,194	-0,201
328,027	117,455	-0,236	-0,200
329,041	721,082	-0,095	-0,174
330,056	60,762	-0,182	-0,124
331,070	89,413	-0,133	-0,102
332,085	116,663	-0,108	-0,091
333,100	800,000	-0,088	-0,246
334,114	-11,642	-0,234	-0,105
335,129	144,556	-0,138	-0,127
336,143	119,860	-0,104	-0,088
337,158	21,083	-0,095	0,053
338,173	-31,075	-0,074	0,029
339,187	395,674	-0,051	0,074
340,202	-99,649	-0,170	-0,029
341,216	478,655	-0,090	-0,140
342,231	-200,000	-0,038	-0,154
343,246	800,000	-0,083	-0,168
344,260	-200,000	-0,018	-0,073
345,275	14,706	-0,180	-0,097
346,289	-94,163	-0,094	-0,018
347,304	-83,917	-0,071	-0,015
348,319	301,766	-0,071	-0,090
349,333	265,320	-0,204	-0,245
350,348	-125,939	-0,234	-0,024
351,362	800,000	-0,039	-0,095
352,377	131,147	-0,104	-0,092
353,392	-32,742	-0,116	-0,044
354,406	-17,405	-0,129	-0,056
355,421	209,445	1314,158	1416,752
356,435	161,201	1474,860	1417,297
