DTS Sentinel unit serial number:	SN410029Multiplexer serial number:	ORYXHardware model number:	OX2-SRSoftware version number:	ORYX F/W v4,00 Oryx Data Collector v3.7.2.0data status	okinstallation	B3 Nyhavnadifferential loss correction	single-endedforward channel	channel 1reverse channel	N/Adate	2023/12/02time	04:37:30forward acquisition time	300,00reverse acquisition time	0,00gamma	499,1914k internal	0,3194k external	0,3194temperature offset calibration	1,0000default loss term (dB/km)	0,3820temperature slope calibration	1,0000multiplexer offset coefficient	1,0000multiplexer slope coefficient	1,0000fibre end	0,00T internal ref (°C)	16,47T ext. ref 1 (°C)	1,25T ext. ref 2 (°C)	1,24length (m)	temperature (°C)	Stokes	anti-Stokes-744,400	62,898	-0,381	-0,278
-743,385	-200,000	0,058	0,289
-742,371	11,658	-0,306	-0,170
-741,356	-200,000	0,071	0,338
-740,342	389,522	-0,127	-0,193
-739,327	-200,000	0,046	0,366
-738,312	800,000	-0,139	-0,357
-737,298	-200,000	0,037	0,272
-736,283	-4,252	-0,320	-0,161
-735,269	417,151	0,165	0,258
-734,254	319,052	-0,215	-0,298
-733,239	46,625	-0,217	0,147
-732,225	800,000	-0,088	-0,278
-731,210	716,441	0,048	0,094
-730,196	800,000	-0,046	-0,098
-729,181	-200,000	-0,003	0,011
-728,167	-94,856	0,083	0,016
-727,152	-200,000	0,004	0,084
-726,137	-43,574	-0,162	-0,059
-725,123	-75,509	0,044	-0,011
-724,108	197,617	-0,138	-0,153
-723,094	-200,000	-0,024	-0,159
-722,079	-17,619	-0,186	-0,085
-721,064	-62,426	-0,037	-0,011
-720,050	800,000	-0,047	0,126
-719,035	353,188	-0,085	-0,123
-718,021	-200,000	0,005	-0,063
-717,006	275,634	-0,081	-0,105
-715,991	114,448	-0,153	-0,135
-714,977	192,376	-0,037	0,041
-713,962	143,615	0,034	0,033
-712,948	466,012	-0,053	0,086
-711,933	208,769	-0,006	-0,006
-710,918	-200,000	-0,007	0,059
-709,904	83,154	-0,202	-0,160
-708,889	-147,934	-0,079	-0,005
-707,875	-200,000	0,026	-0,123
-706,860	31,634	-0,103	-0,064
-705,845	-27,516	0,177	0,075
-704,831	564,828	0,038	-0,068
-703,816	-200,000	0,003	-0,068
-702,802	-42,977	-0,078	-0,029
-701,787	-200,000	0,031	-0,165
-700,772	-89,210	-0,104	0,022
-699,758	-2,028	-0,140	-0,071
-698,743	1,523	-0,131	-0,069
-697,729	-98,920	0,123	-0,022
-696,714	135,762	0,042	-0,040
-695,699	5,065	-0,139	-0,074
-694,685	788,049	0,028	-0,057
-693,670	800,000	-0,057	-0,159
-692,656	750,758	0,044	-0,087
-691,641	-146,368	0,047	0,003
-690,627	-200,000	0,023	0,079
-689,612	3,962	0,136	-0,072
-688,597	-200,000	-0,005	-0,051
-687,583	-200,000	-0,034	-0,181
-686,568	-64,713	-0,152	-0,044
-685,554	-59,377	0,138	-0,043
-684,539	-112,013	0,024	-0,003
-683,524	-155,087	0,048	-0,002
-682,510	-57,364	-0,111	0,035
-681,495	-52,047	-0,114	0,038
-680,481	-200,000	0,003	0,065
-679,466	-69,463	-0,133	-0,037
-678,451	339,531	-0,062	-0,088
-677,437	-67,044	0,053	0,015
-676,422	-127,988	0,079	-0,008
-675,408	-16,572	0,052	-0,024
-674,393	-98,812	-0,047	0,009
-673,378	387,744	-0,112	-0,168
-672,364	-118,749	-0,152	-0,019
-671,349	-61,434	0,062	-0,019
-670,335	-150,452	0,093	0,005
-669,320	-200,000	-0,012	0,159
-668,305	-158,809	0,054	0,002
-667,291	-54,038	-0,073	0,024
-666,276	-200,000	0,018	0,079
-665,262	-200,000	-0,016	-0,066
-664,247	-200,000	-0,005	0,054
-663,232	11,634	0,092	0,051
-662,218	639,492	0,016	0,029
-661,203	-200,000	0,009	-0,037
-660,189	-111,047	-0,066	-0,010
-659,174	44,362	0,021	0,014
-658,159	-200,000	-0,020	-0,118
-657,145	800,000	-0,027	0,056
-656,130	300,664	-0,064	-0,086
-655,116	90,551	0,067	-0,055
-654,101	-97,091	-0,044	0,008
-653,086	-200,000	0,036	0,199
-652,072	800,000	-0,043	-0,121
-651,057	-200,000	0,021	-0,101
-650,043	-200,000	0,009	-0,036
-649,028	-200,000	0,016	-0,130
-648,014	-200,000	0,011	0,105
-646,999	-128,744	0,099	-0,010
-645,984	800,000	-0,033	0,089
-644,970	-44,441	0,069	0,025
-643,955	-200,000	0,005	-0,021
-642,941	3,730	0,034	0,018
-641,926	800,000	0,040	-0,088
-640,911	-200,000	0,001	-0,159
-639,897	-200,000	0,001	0,050
-638,882	-77,047	0,095	-0,024
-637,868	-99,721	-0,014	0,003
-636,853	-84,987	-0,098	0,022
-635,838	-200,000	-0,000	0,031
-634,824	-200,000	-0,012	0,114
-633,809	-109,622	0,058	-0,009
-632,795	800,000	0,020	-0,053
-631,780	594,128	0,018	0,032
-630,765	-28,665	-0,063	0,026
-629,751	-120,004	-0,084	0,010
-628,736	-200,000	-0,023	-0,075
-627,722	800,000	-0,040	-0,108
-626,707	745,163	-0,047	-0,092
-625,692	800,000	0,038	0,092
-624,678	-200,000	0,008	0,131
-623,663	-27,240	-0,069	-0,029
-622,649	352,401	-0,103	0,149
-621,634	-48,327	0,069	0,024
-620,619	-200,000	-0,018	-0,067
-619,605	162,634	-0,018	0,019
-618,590	132,922	-0,100	0,094
-617,576	-129,071	0,093	0,009
-616,561	654,526	-0,017	0,033
-615,546	800,000	-0,087	-0,177
-614,532	-163,682	-0,087	-0,003
-613,517	-162,339	-0,059	0,002
-612,503	800,000	0,009	0,025
-611,488	-200,000	-0,016	0,123
-610,474	314,655	0,046	0,064
-609,459	39,023	-0,114	0,074
-608,444	621,523	-0,032	-0,058
-607,430	692,215	-0,014	-0,026
-606,415	367,099	-0,098	-0,144
-605,401	-17,436	0,122	-0,055
-604,386	246,010	0,056	0,069
-603,371	705,045	0,053	0,102
-602,357	-50,853	-0,032	0,011
-601,342	230,798	0,140	-0,166
-600,328	157,739	-0,094	-0,095
-599,313	800,000	0,044	-0,102
-598,298	553,245	-0,027	-0,048
-597,284	-200,000	-0,010	-0,067
-596,269	109,384	0,047	0,041
-595,255	10,715	0,089	-0,049
-594,240	-200,000	-0,007	0,053
-593,225	-200,000	-0,021	-0,116
-592,211	324,206	-0,035	0,048
-591,196	69,437	0,039	-0,029
-590,182	225,619	0,071	0,083
-589,167	-200,000	-0,007	0,034
-588,152	-100,391	-0,021	0,004
-587,138	-65,269	0,054	-0,016
-586,123	42,330	-0,123	-0,081
-585,109	404,705	0,068	-0,104
-584,094	-125,830	0,126	-0,014
-583,079	468,684	0,013	-0,021
-582,065	-200,000	-0,028	0,104
-581,050	-200,000	-0,023	0,096
-580,036	-101,643	0,061	0,011
-579,021	800,000	-0,042	0,112
-578,006	800,000	0,059	0,136
-576,992	-158,756	-0,027	0,001
-575,977	-200,000	-0,011	0,057
-574,963	146,231	0,089	0,087
-573,948	-200,000	0,015	0,071
-572,934	-148,436	-0,100	0,006
-571,919	800,000	0,012	0,033
-570,904	-116,581	0,034	0,004
-569,890	135,171	-0,054	0,051
-568,875	740,410	-0,048	0,095
-567,861	255,446	0,010	0,013
-566,846	-82,549	0,025	0,006
-565,831	-16,133	-0,158	-0,072
-564,817	-21,874	0,035	0,015
-563,802	-150,015	0,068	-0,004
-562,788	204,549	-0,149	-0,168
-561,773	197,494	0,049	0,055
-560,758	364,569	0,086	0,126
-559,744	593,770	0,010	-0,018
-558,729	-149,416	0,141	-0,008
-557,715	-200,000	0,007	-0,052
-556,700	-111,101	0,064	-0,009
-555,685	111,970	0,057	0,050
-554,671	-155,453	0,008	0,000
-553,656	399,245	-0,034	-0,051
-552,642	-200,000	-0,021	0,168
-551,627	461,645	-0,058	-0,094
-550,612	-200,000	0,001	-0,056
-549,598	-95,345	-0,028	-0,005
-548,583	-200,000	0,016	0,121
-547,569	690,405	0,063	0,120
-546,554	-11,773	0,057	-0,027
-545,539	110,152	0,045	0,039
-544,525	-71,128	0,103	0,028
-543,510	-200,000	0,029	0,103
-542,496	75,629	0,039	0,030
-541,481	96,019	-0,128	-0,105
-540,466	-200,000	0,023	-0,115
-539,452	-200,000	-0,035	-0,142
-538,437	-200,000	0,024	0,083
-537,423	333,059	0,130	-0,182
-536,408	-53,874	0,049	-0,016
-535,393	-200,000	-0,008	-0,082
-534,379	57,037	-0,044	-0,031
-533,364	-200,000	0,005	0,114
-532,350	-41,945	0,035	0,013
-531,335	-75,395	0,132	-0,034
-530,321	800,000	-0,045	-0,137
-529,306	-25,095	-0,030	0,013
-528,291	64,480	-0,070	-0,051
-527,277	-139,843	-0,207	-0,016
-526,262	-200,000	-0,006	0,035
-525,248	158,847	-0,100	0,101
-524,233	-200,000	0,011	0,075
-523,218	800,000	-0,030	-0,061
-522,204	-87,862	-0,132	0,029
-521,189	-200,000	0,019	-0,124
-520,175	800,000	0,005	0,010
-519,160	286,327	-0,016	-0,021
-518,145	-69,994	0,194	-0,053
-517,131	457,384	0,124	-0,200
-516,116	-141,812	-0,047	-0,003
-515,102	87,117	-0,107	0,086
-514,087	285,853	-0,088	-0,116
-513,072	-200,000	-0,011	-0,133
-512,058	83,936	-0,083	-0,066
-511,043	-200,000	0,033	-0,129
-510,029	669,475	0,013	0,024
-509,014	-26,184	-0,089	0,037
-507,999	70,838	-0,088	0,066
-506,985	800,000	-0,057	-0,117
-505,970	-52,754	-0,144	-0,048
-504,956	-72,079	0,084	-0,022
-503,941	-9,894	-0,072	0,035
-502,926	8,907	-0,078	0,043
-501,912	140,153	0,112	0,106
-500,897	-66,562	-0,120	0,034
-499,883	-100,623	0,144	0,026
-498,868	23,618	-0,044	-0,026
-497,853	779,187	0,031	0,061
-496,839	-200,000	0,025	-0,083
-495,824	509,709	0,029	-0,049
-494,810	13,639	0,051	0,029
-493,795	800,000	0,009	-0,025
-492,781	353,086	0,028	-0,040
-491,766	352,303	-0,040	0,058
-490,751	403,544	0,063	0,096
-489,737	-15,942	0,254	0,116
-488,722	-51,070	-0,130	0,044
-487,708	800,000	0,042	0,096
-486,693	35,216	0,097	-0,061
-485,678	-98,848	-0,046	0,008
-484,664	-76,103	0,047	0,012
-483,649	206,609	-0,057	0,064
-482,635	-71,586	0,008	-0,002
-481,620	-142,289	0,202	0,014
-480,605	132,629	0,008	0,008
-479,591	596,282	0,032	-0,058
-478,576	88,718	-0,099	0,080
-477,562	21,866	0,060	-0,035
-476,547	-47,123	0,074	-0,026
-475,532	-200,000	-0,062	-0,000
-474,518	306,995	0,039	-0,052
-473,503	800,000	-0,038	-0,093
-472,489	-200,000	-0,019	0,172
-471,474	7,021	-0,060	0,032
-470,459	800,000	0,018	-0,042
-469,445	-126,476	-0,069	0,007
-468,430	106,165	0,047	0,040
-467,416	283,197	0,068	-0,088
-466,401	105,404	0,066	0,057
-465,386	-40,705	-0,030	0,011
-464,372	-65,046	0,081	-0,023
-463,357	-200,000	-0,004	0,035
-462,343	-0,590	-0,173	0,088
-461,328	-200,000	0,008	-0,120
-460,313	800,000	-0,044	0,117
-459,299	-63,918	-0,025	0,007
-458,284	-38,097	-0,123	0,047
-457,270	800,000	0,008	-0,019
-456,255	147,097	0,130	-0,126
-455,241	-200,000	-0,052	-0,241
-454,226	-134,875	0,039	-0,003
-453,211	800,000	0,023	0,062
-452,197	6,705	-0,124	0,066
-451,182	-30,700	0,066	0,027
-450,168	645,849	-0,008	-0,015
-449,153	-16,357	0,113	-0,052
-448,138	189,186	0,070	0,076
-447,124	-153,357	0,044	0,002
-446,109	277,566	0,114	-0,146
-445,095	-94,161	0,244	0,048
-444,080	-133,997	0,112	0,010
-443,065	246,270	-0,099	0,121
-442,051	-136,339	-0,046	0,004
-441,036	-30,185	-0,103	0,042
-440,022	-200,000	0,015	0,182
-439,007	-144,617	-0,105	-0,007
-437,992	-21,573	0,104	0,046
-436,978	117,852	0,050	0,045
-435,963	-54,987	0,067	-0,022
-434,949	-27,000	-0,068	0,028
-433,934	25,410	-0,054	-0,032
-432,919	260,477	-0,029	-0,036
-431,905	254,367	-0,042	-0,052
-430,890	-113,142	-0,033	0,005
-429,876	800,000	-0,048	0,116
-428,861	-200,000	-0,000	0,128
-427,846	107,975	-0,116	-0,100
-426,832	472,246	-0,060	-0,098
-425,817	-141,791	-0,059	0,004
-424,803	-9,645	-0,053	0,025
-423,788	800,000	0,024	0,061
-422,773	39,055	0,095	-0,061
-421,759	320,085	-0,027	-0,036
-420,744	-42,227	0,074	0,027
-419,730	800,000	-0,059	-0,181
-418,715	42,720	-0,086	0,056
-417,701	-179,133	-0,152	0,002
-416,686	-200,000	0,005	0,078
-415,671	463,538	0,045	0,072
-414,657	-200,000	-0,017	0,055
-413,642	41,959	-0,113	0,073
-412,628	77,127	-0,004	0,003
-411,613	-200,000	0,006	-0,042
-410,598	136,521	0,075	-0,071
-409,584	-200,000	-0,013	-0,163
-408,569	45,594	0,098	-0,065
-407,555	800,000	0,028	0,078
-406,540	800,000	-0,048	0,143
-405,525	544,868	0,076	-0,130
-404,511	800,000	-0,008	0,016
-403,496	29,956	0,055	0,034
-402,482	-107,717	-0,066	0,010
-401,467	800,000	-0,065	0,134
-400,452	-200,000	-0,017	0,067
-399,438	166,017	0,078	0,079
-398,423	10,948	-0,091	-0,050
-397,409	-200,000	-0,010	-0,040
-396,394	188,683	0,028	-0,030
-395,379	137,040	0,077	-0,072
-394,365	104,872	-0,094	0,080
-393,350	199,569	0,069	-0,076
-392,336	800,000	0,063	-0,163
-391,321	114,264	-0,125	-0,110
-390,306	-200,000	-0,016	-0,115
-389,292	156,651	-0,064	-0,063
-388,277	424,845	0,014	-0,022
-387,263	-115,199	0,115	0,015
-386,248	39,108	-0,052	0,034
-385,233	-92,506	0,034	0,007
-384,219	-33,289	-0,113	0,045
-383,204	370,834	-0,026	-0,037
-382,190	95,346	-0,089	0,073
-381,175	-97,371	0,097	-0,018
-380,160	-123,649	0,078	0,009
-379,146	49,670	-0,040	0,027
-378,131	-88,217	-0,059	-0,013
-377,117	800,000	0,013	0,037
-376,102	-200,000	0,026	0,085
-375,088	-200,000	0,018	-0,100
-374,073	-200,000	0,001	-0,013
-373,058	357,326	0,105	-0,150
-372,044	-200,000	-0,002	-0,036
-371,029	-136,619	0,059	-0,005
-370,015	409,602	-0,023	-0,035
-369,000	800,000	-0,027	-0,058
-367,985	283,674	0,014	-0,018
-366,971	-200,000	0,000	-0,074
-365,956	-93,281	-0,054	0,011
-364,942	-94,268	0,137	0,027
-363,927	-66,319	0,063	-0,018
-362,912	-200,000	0,038	0,174
-361,898	-200,000	-0,028	-0,232
-360,883	97,180	0,060	-0,049
-359,869	-89,845	-0,081	-0,017
-358,854	-200,000	0,007	-0,142
-357,839	257,719	-0,078	0,096
-356,825	-200,000	0,008	0,128
-355,810	-104,522	-0,219	-0,036
-354,796	-39,721	0,065	0,024
-353,781	-40,767	-0,080	0,030
-352,766	755,241	0,046	-0,090
-351,752	-200,000	0,022	0,091
-350,737	558,697	-0,024	0,042
-349,723	-114,961	-0,105	-0,014
-348,708	-200,000	0,001	-0,066
-347,693	-14,961	-0,115	0,053
-346,679	263,260	-0,035	-0,044
-345,664	800,000	0,045	-0,099
-344,650	482,250	-0,015	0,024
-343,635	-153,976	-0,112	-0,005
-342,620	215,120	-0,034	0,039
-341,606	81,185	-0,124	0,096
-340,591	114,779	-0,063	-0,055
-339,577	-200,000	0,013	-0,072
-338,562	130,887	-0,069	-0,064
-337,548	-200,000	0,016	-0,064
-336,533	-200,000	0,015	0,180
-335,518	-200,000	-0,017	0,060
-334,504	-132,664	0,134	-0,012
-333,489	53,171	-0,069	-0,047
-332,475	229,051	-0,114	-0,133
-331,460	-200,000	-0,026	0,154
-330,445	-161,682	0,072	-0,003
-329,431	-111,148	0,098	0,014
-328,416	487,638	-0,051	0,084
-327,402	-200,000	-0,003	0,052
-326,387	-64,427	0,082	0,024
-325,372	747,668	0,047	-0,091
-324,358	800,000	0,075	-0,170
-323,343	-54,743	-0,181	-0,058
-322,329	-88,580	0,032	0,007
-321,314	192,528	0,125	0,136
-320,299	-30,360	0,082	-0,033
-319,285	-200,000	0,004	0,106
-318,270	800,000	0,023	-0,064
-317,256	-106,484	0,014	0,002
-316,241	-124,287	0,143	0,016
-315,226	-163,517	0,177	-0,006
-314,212	-200,000	0,009	0,066
-313,197	800,000	0,025	0,055
-312,183	800,000	-0,069	0,160
-311,168	31,561	0,123	0,076
-310,153	-134,692	-0,142	0,012
-309,139	45,926	0,174	-0,116
-308,124	122,349	-0,066	-0,059
-307,110	-96,057	0,010	-0,002
-306,095	60,443	0,070	0,050
-305,080	-63,001	-0,127	0,037
-304,066	-72,765	0,061	0,016
-303,051	-200,000	-0,036	0,158
-302,037	-200,000	-0,007	-0,101
-301,022	193,550	0,089	-0,097
-300,008	-5,888	-0,075	-0,037
-298,993	212,255	0,067	-0,076
-297,978	800,000	0,012	0,034
-296,964	-72,312	0,051	0,013
-295,949	452,902	-0,067	0,106
-294,935	-79,246	-0,048	-0,012
-293,920	-52,629	-0,096	-0,031
-292,905	800,000	0,003	-0,008
-291,891	78,331	0,160	0,123
-290,876	800,000	-0,030	0,072
-289,862	-200,000	-0,090	0,000
-288,847	-200,000	-0,036	-0,126
-287,832	-25,557	0,103	-0,043
-286,818	260,987	-0,021	-0,026
-285,803	800,000	0,075	0,175
-284,789	800,000	-0,076	0,162
-283,774	-200,000	-0,002	0,087
-282,759	48,499	-0,056	0,038
-281,745	-15,739	-0,110	-0,050
-280,730	800,000	0,047	-0,141
-279,716	-121,593	0,064	0,007
-278,701	-1,896	-0,102	0,051
-277,686	112,069	-0,080	0,069
-276,672	800,000	0,006	-0,015
-275,657	196,976	0,086	0,094
-274,643	206,508	0,050	0,055
-273,628	632,302	-0,111	-0,202
-272,613	-200,000	0,011	-0,099
-271,599	126,727	-0,086	0,078
-270,584	-12,745	-0,076	-0,035
-269,570	-14,858	-0,061	0,028
-268,555	88,702	0,127	-0,101
-267,540	800,000	0,006	0,019
-266,526	800,000	0,035	-0,108
-265,511	-115,639	0,080	-0,011
-264,497	-121,717	0,109	-0,013
-263,482	-200,000	0,024	0,126
-262,467	601,448	-0,009	0,016
-261,453	279,968	-0,030	-0,039
-260,438	-200,000	0,025	-0,145
-259,424	-200,000	0,015	-0,091
-258,409	321,247	0,015	-0,020
-257,395	-185,077	0,031	0,000
-256,380	198,815	0,066	0,073
-255,365	648,883	0,047	0,086
-254,351	310,573	-0,050	-0,067
-253,336	-200,000	0,008	-0,094
-252,322	-13,957	0,074	0,034
-251,307	800,000	0,020	-0,051
-250,292	-200,000	-0,008	-0,188
-249,278	530,876	0,054	0,092
-248,263	-91,775	-0,089	-0,018
-247,249	446,694	0,068	-0,107
-246,234	149,228	-0,055	-0,054
-245,219	223,851	-0,081	0,093
-244,205	-153,389	0,176	-0,009
-243,190	139,703	-0,076	-0,071
-242,176	90,869	0,090	-0,072
-241,161	546,355	0,030	0,051
-240,146	258,788	0,127	0,156
-239,132	404,048	0,078	-0,118
-238,117	595,584	0,038	-0,068
-237,103	-16,803	-0,059	0,026
-236,088	81,172	-0,033	-0,025
-235,073	-31,019	-0,052	0,021
-234,059	-200,000	-0,014	0,049
-233,044	-12,871	0,073	0,034
-232,030	255,230	-0,099	-0,122
-231,015	-76,781	-0,031	0,008
-230,000	-53,706	-0,052	-0,017
-228,986	-200,000	-0,011	-0,064
-227,971	-200,000	0,014	0,100
-226,957	800,000	-0,044	0,133
-225,942	20,046	-0,040	0,023
-224,927	800,000	-0,049	-0,099
-223,913	153,643	-0,048	-0,047
-222,898	800,000	-0,051	0,156
-221,884	800,000	0,031	0,097
-220,869	37,738	0,094	0,059
-219,855	192,658	-0,036	-0,039
-218,840	-200,000	0,013	0,073
-217,825	-106,940	-0,167	-0,026
-216,811	-124,841	0,052	-0,006
-215,796	-200,000	-0,017	0,059
-214,782	207,120	-0,058	-0,064
-213,767	141,544	0,066	-0,063
-212,752	-48,821	-0,113	0,039
-211,738	-95,936	-0,041	0,008
-210,723	163,145	0,039	-0,039
-209,709	-8,815	-0,027	-0,013
-208,694	189,703	0,036	0,038
-207,679	6,943	-0,054	-0,029
-206,665	137,547	0,110	0,102
-205,650	383,390	0,055	0,082
-204,636	-200,000	0,016	0,087
-203,621	-200,000	-0,012	0,070
-202,606	800,000	-0,012	-0,032
-201,592	66,410	-0,106	-0,077
-200,577	800,000	-0,032	-0,091
-199,563	117,028	0,088	0,077
-198,548	-200,000	0,012	0,061
-197,533	-127,557	0,057	-0,006
-196,519	-82,420	-0,029	-0,007
-195,504	-200,000	-0,007	0,055
-194,490	-64,464	-0,091	-0,026
-193,475	-99,203	-0,019	-0,003
-192,460	369,125	-0,016	0,023
-191,446	-85,216	0,014	-0,003
-190,431	-25,774	0,127	0,053
-189,417	-200,000	-0,003	-0,024
-188,402	-200,000	0,006	-0,134
-187,387	-200,000	-0,038	-0,171
-186,373	-122,546	-0,025	-0,003
-185,358	310,288	0,126	0,168
-184,344	138,281	0,055	-0,051
-183,329	513,757	-0,086	0,144
-182,315	-200,000	0,006	0,027
-181,300	64,941	-0,051	0,037
-180,285	-150,735	-0,065	0,003
-179,271	-117,241	0,109	-0,014
-178,256	614,937	0,030	-0,054
-177,242	-2,326	-0,053	-0,026
-176,227	367,702	-0,057	0,082
-175,212	-200,000	0,016	-0,063
-174,198	185,036	0,099	0,104
-173,183	275,694	-0,006	0,007
-172,169	-200,000	-0,016	-0,078
-171,154	201,836	0,070	0,077
-170,139	-200,000	-0,010	-0,095
-169,125	20,765	0,028	0,016
-168,110	122,773	-0,091	-0,081
-167,096	-75,259	-0,062	-0,016
-166,081	494,536	-0,020	0,033
-165,066	23,988	-0,108	-0,063
-164,052	-200,000	0,001	-0,034
-163,037	713,797	0,039	-0,074
-162,023	-200,000	0,015	0,076
-161,008	-11,366	-0,092	-0,043
-159,993	-125,776	0,113	-0,012
-158,979	800,000	-0,034	-0,099
-157,964	-200,000	-0,026	0,119
-156,950	138,205	-0,078	-0,073
-155,935	800,000	-0,028	0,083
-154,920	97,513	0,148	0,121
-153,906	-200,000	-0,009	-0,045
-152,891	-200,000	-0,010	0,094
-151,877	-89,517	-0,215	-0,045
-150,862	318,493	-0,102	-0,139
-149,847	185,885	0,112	-0,119
-148,833	800,000	-0,049	0,110
-147,818	204,999	0,066	-0,073
-146,804	100,531	-0,054	-0,045
-145,789	-200,000	0,046	0,197
-144,775	-101,587	-0,052	-0,009
-143,760	631,018	-0,055	-0,100
-142,745	-49,634	-0,037	0,013
-141,731	-200,000	-0,012	0,125
-140,716	590,867	0,039	0,069
-139,702	-42,902	-0,075	0,027
-138,687	46,657	-0,082	0,054
-137,672	247,834	-0,070	-0,085
-136,658	-200,000	0,009	-0,112
-135,643	-93,259	-0,088	-0,017
-134,629	-200,000	-0,004	0,022
-133,614	249,717	0,078	0,095
-132,599	356,731	0,040	-0,057
-131,585	-112,618	0,213	0,030
-130,570	-77,097	0,101	0,025
-129,556	-34,994	-0,113	-0,044
-128,541	800,000	-0,016	-0,035
-127,526	-84,902	-0,208	0,046
-126,512	800,000	-0,018	0,048
-125,497	-200,000	0,043	0,181
-124,483	170,783	-0,043	0,044
-123,468	71,213	0,014	0,010
-122,453	15,943	-0,122	-0,068
-121,439	-128,101	-0,113	-0,011
-120,424	130,773	-0,078	0,071
-119,410	53,425	-0,110	0,075
-118,395	800,000	0,027	0,072
-117,380	800,000	0,032	-0,073
-116,366	-200,000	0,000	-0,043
-115,351	-50,441	-0,059	0,020
-114,337	-200,000	0,005	-0,151
-113,322	85,780	-0,072	-0,056
-112,307	800,000	0,054	0,135
-111,293	-200,000	-0,011	-0,112
-110,278	-117,705	0,028	0,003
-109,264	-12,048	0,063	0,029
-108,249	800,000	0,025	-0,062
-107,234	-53,551	-0,097	-0,031
-106,220	521,210	0,029	-0,049
-105,205	32,524	-0,007	0,004
-104,191	-200,000	0,030	-0,149
-103,176	-79,739	-0,099	-0,023
-102,162	-200,000	0,014	0,049
-101,147	112,287	0,053	0,046
-100,132	-200,000	0,010	0,066
-99,118	-90,876	-0,153	-0,031
-98,103	-22,512	0,109	0,047
-97,089	550,971	-0,026	0,044
-96,074	800,000	-0,029	0,088
-95,059	-117,808	0,117	-0,015
-94,045	84,457	-0,161	-0,125
-93,030	-32,097	-0,147	-0,058
-92,016	800,000	0,032	0,070
-91,001	-200,000	-0,012	-0,086
-89,986	-22,208	0,075	0,032
-88,972	209,347	0,038	0,043
-87,957	-178,501	0,022	0,000
-86,943	800,000	-0,033	-0,071
-85,928	101,035	0,028	0,023
-84,913	-200,000	0,032	-0,206
-83,899	-157,033	-0,075	-0,003
-82,884	272,670	-0,039	0,048
-81,870	-196,631	0,088	-0,000
-80,855	-200,000	-0,002	0,055
-79,840	-83,966	0,003	0,001
-78,826	-21,161	-0,117	0,051
-77,811	14,624	0,024	0,013
-76,797	-182,815	-0,137	-0,002
-75,782	-77,450	-0,101	-0,025
-74,767	591,089	0,090	0,158
-73,753	98,455	0,074	-0,061
-72,738	43,357	0,033	-0,021
-71,724	231,335	-0,062	0,072
-70,709	125,404	-0,101	0,091
-69,694	-71,329	-0,117	-0,031
-68,680	219,700	0,097	-0,110
-67,665	800,000	0,020	0,049
-66,651	-200,000	0,009	0,133
-65,636	28,367	-0,107	0,064
-64,622	-102,747	0,148	0,025
-63,607	77,470	-0,135	-0,102
-62,592	-200,000	0,012	-0,082
-61,578	-49,818	-0,097	-0,033
-60,563	800,000	-0,036	0,089
-59,549	73,764	0,019	-0,014
-58,534	-118,731	-1,407	-0,174
-57,519	394,000	-1,511	-2,240
-56,505	-200,000	-0,696	-4,512
-55,490	52,707	0,817	0,553
-54,476	800,000	4,842	11,442
-53,461	-200,000	17,386	272,615
-52,446	800,000	717,144	2193,638
-51,432	554,814	1630,936	2795,871
-50,417	81,325	1655,827	1268,594
-49,403	24,276	1530,340	894,887
-48,388	18,272	1453,531	821,049
-47,373	18,478	1442,970	816,040
-46,359	18,228	1433,794	809,630
-45,344	16,630	1428,940	799,269
-44,330	16,527	1427,213	797,780
-43,315	16,580	1425,340	796,957
-42,300	16,563	1423,680	795,914
-41,286	16,652	1422,561	795,676
-40,271	16,612	1421,165	794,675
-39,257	16,538	1420,183	793,745
-38,242	16,580	1418,738	793,106
-37,227	16,623	1417,521	792,595
-36,213	16,579	1416,333	791,696
-35,198	16,555	1414,980	790,795
-34,184	16,584	1414,118	790,416
-33,169	16,509	1412,757	789,274
-32,154	16,539	1411,991	788,954
-31,140	16,590	1410,371	788,258
-30,125	16,582	1409,561	787,736
-29,111	16,659	1408,030	787,210
-28,096	16,580	1406,983	786,223
-27,082	16,524	1406,034	785,397
-26,067	16,502	1404,810	784,580
-25,052	16,545	1403,706	784,133
-24,038	16,487	1402,800	783,325
-23,023	16,504	1401,606	782,708
-22,009	16,492	1400,850	782,201
-20,994	16,430	1400,040	781,428
-19,979	16,416	1399,159	780,838
-18,965	16,452	1397,925	780,288
-17,950	16,422	1397,128	779,672
-16,936	16,423	1395,970	779,000
-15,921	16,379	1394,839	778,132
-14,906	16,374	1394,156	777,700
-13,892	16,415	1393,142	777,292
-12,877	16,452	1392,110	776,858
-11,863	16,436	1391,035	776,151
-10,848	16,409	1390,367	775,625
-9,833	16,370	1389,508	774,934
-8,819	16,358	1388,386	774,221
-7,804	16,356	1387,499	773,685
-6,790	16,324	1386,395	772,892
-5,775	16,307	1385,559	772,317
-4,760	16,293	1384,822	771,814
-3,746	16,276	1383,890	771,186
-2,731	16,313	1383,156	770,916
-1,717	16,290	1382,155	770,222
-0,702	16,247	1380,310	768,963
0,313	20,131	1301,935	743,183
1,327	36,696	707,456	442,271
2,342	56,367	125,693	86,502
3,356	2,269	16,648	8,508
4,371	12,414	2,987	1,628
5,386	-16,517	0,395	0,177
6,400	-152,253	-0,088	0,004
7,415	38,358	-0,301	-0,190
8,429	-26,198	-0,361	-0,150
9,444	100,135	-0,299	-0,246
10,459	67,158	-0,418	-0,302
11,473	-15,384	-0,247	-0,111
12,488	-21,228	-0,257	-0,111
13,502	-35,797	-0,321	-0,122
14,517	-65,394	-0,238	-0,067
15,531	119,840	-0,459	-0,403
16,546	338,624	-0,274	-0,379
17,561	155,108	-0,396	-0,386
18,575	-10,275	-0,240	-0,113
19,590	494,583	-0,207	-0,337
20,604	-5,381	-0,288	-0,140
21,619	68,197	-0,448	-0,324
22,634	61,152	-0,427	-0,300
23,648	74,363	-0,441	-0,328
24,663	139,615	-0,413	-0,385
25,677	141,486	-0,268	-0,252
26,692	56,957	-0,426	-0,294
27,707	-158,148	-0,275	-0,011
28,721	47,375	-0,437	-0,288
29,736	169,977	-0,376	-0,380
30,750	65,788	-0,422	-0,302
31,765	118,551	-0,401	-0,350
32,780	10,501	-0,426	-0,229
33,794	33,743	-0,397	-0,243
34,809	209,211	-0,306	-0,340
35,823	242,988	-0,287	-0,340
36,838	5,383	-0,392	-0,204
37,853	383,659	-0,316	-0,461
38,867	167,872	-0,352	-0,354
39,882	278,637	-0,205	-0,259
40,896	121,569	-0,304	-0,268
41,911	-11,793	-0,344	-0,159
42,926	-16,184	-0,398	-0,178
43,940	99,072	-0,510	-0,416
44,955	300,253	-0,269	-0,351
45,969	18,796	-0,293	-0,165
46,984	-15,463	-0,424	-0,190
47,999	54,440	-0,329	-0,224
49,013	65,598	-0,347	-0,248
50,028	32,461	-0,361	-0,220
51,042	42,908	-0,360	-0,232
52,057	-66,356	-0,400	-0,112
53,071	152,732	-0,287	-0,277
54,086	253,306	-0,282	-0,341
55,101	150,401	-0,284	-0,273
56,115	-3,787	-0,415	-0,203
57,130	117,966	-0,355	-0,308
58,144	256,497	-0,254	-0,308
59,159	7,198	-0,474	-0,249
60,174	324,714	-0,187	-0,253
61,188	-14,744	-0,348	-0,157
62,203	67,264	-0,352	-0,253
63,217	17,570	-0,410	-0,230
64,232	-17,727	-0,267	-0,118
65,247	94,354	-0,368	-0,294
66,261	98,601	-0,283	-0,230
67,276	-67,531	-0,308	-0,085
68,290	264,189	-0,216	-0,266
69,305	26,229	-0,299	-0,176
70,320	246,632	-0,229	-0,272
71,334	94,816	-0,275	-0,220
72,349	-31,243	-0,407	-0,161
73,363	179,300	-0,215	-0,222
74,378	-46,186	-0,404	-0,139
75,393	43,918	-0,394	-0,254
76,407	137,568	-0,240	-0,221
77,422	-101,760	-0,257	-0,043
78,436	76,949	-0,337	-0,252
79,451	-37,538	-0,311	-0,116
80,466	118,429	-0,254	-0,221
81,480	159,111	-0,206	-0,201
82,495	204,878	-0,301	-0,329
83,509	-36,889	-0,384	-0,144
84,524	116,355	-0,237	-0,204
85,539	-22,545	-0,338	-0,143
86,553	63,024	-0,248	-0,175
87,568	105,790	-0,230	-0,192
88,582	-22,319	-0,343	-0,146
89,597	163,118	-0,282	-0,279
90,611	-22,391	-0,315	-0,134
91,626	-8,254	-0,241	-0,114
92,641	58,084	-0,278	-0,192
93,655	196,827	-0,167	-0,179
94,670	20,676	-0,422	-0,240
95,684	129,587	-0,307	-0,276
96,699	27,872	-0,339	-0,200
97,714	-93,614	-0,270	-0,052
98,728	36,966	-0,358	-0,222
99,743	-61,141	-0,328	-0,097
100,757	-13,505	-0,245	-0,111
101,772	-45,688	-0,284	-0,098
102,787	43,367	-0,311	-0,199
103,801	75,475	-0,252	-0,186
104,816	204,118	-0,207	-0,225
105,830	-55,246	-0,261	-0,082
106,845	-37,007	-0,255	-0,096
107,860	23,446	-0,280	-0,161
108,874	-5,915	-0,241	-0,116
109,889	0,177	-0,445	-0,222
110,903	106,440	-0,163	-0,135
111,918	140,860	-0,188	-0,174
112,933	32,514	-0,170	-0,103
113,947	-3,987	-0,227	-0,110
114,962	60,803	-0,264	-0,183
115,976	87,785	-0,226	-0,175
116,991	189,627	-0,291	-0,306
118,006	136,805	-0,337	-0,309
119,020	800,000	-0,110	-0,272
120,035	-20,101	-0,190	-0,082
121,049	-53,829	-0,266	0,085
122,064	39,407	-0,263	-0,165
123,079	48,745	-0,249	-0,163
124,093	230,001	-0,167	-0,191
125,108	117,539	-0,223	-0,192
126,122	184,585	-0,187	-0,195
127,137	-2,123	-0,297	-0,146
128,151	95,365	-0,121	-0,097
129,166	271,338	-0,152	-0,189
130,181	335,256	-0,183	-0,250
131,195	127,501	-0,321	-0,286
132,210	121,721	-0,401	-0,351
133,224	329,317	-0,199	-0,269
134,239	138,933	-0,252	-0,232
135,254	-19,946	-0,244	-0,105
136,268	135,758	-0,134	-0,122
137,283	71,626	-0,281	-0,204
138,297	92,503	-0,303	-0,240
139,312	158,818	-0,191	-0,186
140,327	310,925	-0,216	-0,284
141,341	46,715	-0,360	-0,234
142,356	0,791	-0,195	-0,098
143,370	332,508	-0,167	-0,226
144,385	86,781	-0,220	-0,170
145,400	-25,523	-0,303	-0,125
146,414	32,114	-0,314	-0,189
147,429	328,437	-0,150	-0,202
148,443	15,492	-0,177	-0,097
149,458	62,209	-0,167	-0,117
150,473	-46,231	-0,337	-0,115
151,487	117,677	-0,161	-0,139
152,502	181,453	-0,211	-0,217
153,516	53,545	-0,306	-0,205
154,531	42,526	-0,292	-0,186
155,546	-10,895	-0,232	-0,107
156,560	-136,691	-0,199	-0,016
157,575	49,088	-0,185	-0,121
158,589	195,548	-0,147	-0,156
159,604	31,974	-0,289	-0,174
160,619	49,617	-0,269	-0,177
161,633	-110,063	-0,369	-0,053
162,648	-18,049	-0,264	-0,115
163,662	327,209	-0,219	-0,294
164,677	-132,879	-0,139	0,012
165,692	6,799	-0,202	-0,105
166,706	-96,779	-0,289	-0,053
167,721	20,923	-0,196	-0,111
168,735	46,458	-0,354	-0,229
169,750	174,644	-0,242	-0,245
170,764	-50,657	-0,223	-0,073
171,779	-114,571	-0,234	0,031
172,794	-11,816	-0,188	-0,086
173,808	-177,412	-0,208	0,003
174,823	-1,560	-0,317	-0,155
175,837	800,000	-0,139	-0,306
176,852	-33,433	-0,224	-0,086
177,867	155,842	-0,169	-0,163
178,881	92,312	-0,152	-0,119
179,896	146,818	-0,187	-0,175
180,910	22,321	-0,263	-0,149
181,925	-68,154	-0,281	-0,076
182,940	17,036	-0,210	-0,116
183,954	40,169	-0,269	-0,168
184,969	42,656	-0,258	-0,164
185,983	89,483	-0,087	-0,068
186,998	111,365	-0,163	-0,137
188,013	-85,793	-0,161	0,034
189,027	166,330	-0,184	-0,182
190,042	-89,532	-0,204	-0,041
191,056	247,552	-0,166	-0,197
192,071	-200,000	-0,034	-0,199
193,086	237,568	-0,146	-0,169
194,100	-13,438	-0,122	-0,055
195,115	62,719	-0,222	-0,155
196,129	149,694	-0,177	-0,167
197,144	394,425	-0,136	-0,198
198,159	102,520	-0,316	-0,258
199,173	244,343	-0,138	-0,162
200,188	195,380	-0,192	-0,204
201,202	-66,213	-0,291	-0,080
202,217	44,374	-0,343	-0,219
203,232	135,759	-0,211	-0,191
204,246	33,146	-0,242	-0,146
205,261	157,525	-0,232	-0,224
206,275	-97,850	-0,283	-0,050
207,290	800,000	-0,116	-0,267
208,304	595,721	-0,127	-0,220
209,319	149,169	-0,211	-0,199
210,334	-89,041	-0,137	-0,028
211,348	103,994	-0,282	-0,231
212,363	9,401	-0,220	-0,116
213,377	64,062	-0,217	-0,152
214,392	121,398	-0,195	-0,169
215,407	6,665	-0,199	-0,103
216,421	-5,344	-0,217	-0,103
217,436	134,477	-0,190	-0,172
218,450	46,346	-0,184	-0,118
219,465	379,492	-0,144	-0,205
220,480	270,089	-0,121	-0,148
221,494	97,596	-0,238	-0,190
222,509	-93,237	-0,366	-0,070
223,523	-52,667	-0,247	-0,079
224,538	-108,354	-0,161	-0,024
225,553	-27,985	-0,248	-0,099
226,567	270,120	-0,166	-0,203
227,582	90,909	-0,290	-0,226
228,596	11,553	-0,192	-0,102
229,611	721,226	-0,139	-0,258
230,626	414,625	-0,187	-0,277
231,640	188,961	-0,224	-0,234
232,655	429,518	-0,142	-0,214
233,669	40,355	-0,180	-0,113
234,684	605,387	-0,138	-0,240
235,699	104,649	-0,238	-0,195
236,713	122,342	-0,255	-0,221
237,728	-47,040	-0,180	-0,061
238,742	100,311	-0,251	-0,202
239,757	26,077	-0,201	-0,116
240,772	373,353	-0,201	-0,284
241,786	144,077	-0,145	-0,135
242,801	260,038	-0,053	-0,064
243,815	800,000	-0,081	-0,175
244,830	-124,987	-0,168	-0,018
245,844	-105,995	-0,156	-0,024
246,859	131,979	-0,172	-0,153
247,874	102,383	-0,173	-0,140
248,888	734,067	-0,190	-0,355
249,903	183,004	-0,174	-0,179
250,917	800,000	-0,100	-0,231
251,932	481,828	-0,078	-0,123
252,947	-132,582	-0,156	0,014
253,961	126,997	-0,195	-0,172
254,976	-41,175	-0,084	-0,030
255,990	-147,942	-0,184	-0,010
257,005	-52,342	-0,158	-0,050
258,020	261,405	-0,127	-0,153
259,034	800,000	-0,059	-0,117
260,049	13,655	-0,198	-0,107
261,063	94,631	-0,195	-0,154
262,078	-100,225	-0,195	-0,033
263,093	142,814	-0,267	-0,246
264,107	-26,001	-0,294	-0,120
265,122	76,762	-0,192	-0,141
266,136	-64,357	-0,206	-0,058
267,151	429,736	-0,085	-0,127
268,166	-33,467	-0,215	-0,082
269,180	33,582	-0,158	-0,095
270,195	51,796	-0,253	-0,166
271,209	98,324	-0,022	0,018
272,224	-69,769	-0,166	-0,044
273,239	9,186	-0,170	0,089
274,253	611,726	-0,154	-0,268
275,268	10,667	-0,138	-0,073
276,282	45,075	-0,243	-0,155
277,297	37,904	-0,190	-0,116
278,312	-148,047	-0,235	0,013
279,326	-20,792	-0,053	0,023
280,341	127,101	-0,159	-0,139
281,355	35,733	-0,081	0,049
282,370	-90,553	-0,155	-0,031
283,384	800,000	-0,081	-0,183
284,399	154,612	-0,266	-0,253
285,414	800,000	-0,054	-0,118
286,428	193,799	-0,150	-0,157
287,443	-166,575	-0,120	0,003
288,457	230,828	-0,107	-0,121
289,472	-200,000	-0,022	-0,106
290,487	35,913	-0,235	-0,142
291,501	110,616	-0,125	-0,104
292,516	-65,307	-0,220	-0,061
293,530	105,521	-0,117	-0,095
294,545	197,987	-0,190	-0,201
295,560	800,000	0,030	-0,058
296,574	331,515	-0,128	-0,171
297,589	364,107	-0,083	-0,116
298,603	205,579	-0,226	-0,243
299,618	651,885	-0,117	-0,209
300,633	-46,885	-0,209	-0,070
301,647	-116,851	-0,145	-0,018
302,662	526,160	-0,006	-0,009
303,676	-42,985	-0,127	-0,044
304,691	-122,959	-0,233	-0,026
305,706	85,804	-0,152	-0,115
306,720	171,625	-0,133	-0,132
307,735	-35,095	-0,173	-0,065
308,749	102,898	-0,152	-0,123
309,764	-120,729	-0,228	0,026
310,779	134,498	-0,088	-0,079
311,793	-163,952	-0,174	-0,005
312,808	293,623	-0,176	-0,223
313,822	265,958	-0,075	-0,091
314,837	4,181	-0,117	-0,059
315,852	281,629	-0,114	-0,142
316,866	-94,474	-0,181	-0,034
317,881	-24,645	-0,099	-0,041
318,895	-45,505	-0,223	-0,076
319,910	162,673	-0,111	-0,108
320,925	79,617	-0,073	-0,054
321,939	162,376	-0,140	-0,135
322,954	7,356	-0,118	-0,061
323,968	-39,058	-0,176	0,064
324,983	800,000	-0,030	-0,078
325,997	-29,116	-0,085	-0,033
327,012	85,351	-0,197	-0,149
328,027	-130,941	-0,272	-0,025
329,041	-82,289	-0,201	-0,045
330,056	800,000	-0,069	-0,151
331,070	436,218	-0,087	-0,131
332,085	-2,860	-0,124	0,059
333,100	-7,630	-0,185	-0,086
334,114	75,030	-0,146	-0,106
335,129	605,639	-0,122	-0,210
336,143	667,405	-0,116	-0,208
337,158	-200,000	-0,018	-0,173
338,173	623,583	-0,085	-0,147
339,187	-74,590	-0,164	0,040
340,202	-56,236	-0,195	-0,059
341,216	9,675	-0,127	-0,066
342,231	76,208	-0,141	-0,103
343,246	800,000	-0,111	-0,288
344,260	495,197	-0,116	-0,184
345,275	-172,266	-0,126	0,003
346,289	-91,945	-0,138	0,027
347,304	800,000	-0,106	-0,231
348,319	148,708	-0,169	-0,157
349,333	177,923	-0,110	-0,111
350,348	-10,324	-0,102	-0,046
351,362	-11,509	-0,209	-0,094
352,377	158,602	-0,053	-0,051
353,392	414,910	-0,081	-0,119
354,406	-33,340	-0,213	-0,081
355,421	210,879	1312,644	1420,362
356,435	162,356	1473,169	1420,895
