DTS Sentinel unit serial number:	SN410029Multiplexer serial number:	ORYXHardware model number:	OX2-SRSoftware version number:	ORYX F/W v4,00 Oryx Data Collector v3.7.2.0data status	okinstallation	B3 Nyhavnadifferential loss correction	single-endedforward channel	channel 1reverse channel	N/Adate	2023/12/04time	17:37:30forward acquisition time	300,00reverse acquisition time	0,00gamma	499,1914k internal	0,3200k external	0,3200temperature offset calibration	1,0000default loss term (dB/km)	0,3820temperature slope calibration	1,0000multiplexer offset coefficient	1,0000multiplexer slope coefficient	1,0000fibre end	0,00T internal ref (°C)	15,06T ext. ref 1 (°C)	-0,05T ext. ref 2 (°C)	-0,05length (m)	temperature (°C)	Stokes	anti-Stokes-744,400	74,260	-0,248	-0,190
-743,385	-200,000	-0,021	0,270
-742,371	184,381	-0,232	-0,250
-741,356	773,955	0,127	0,253
-740,342	-136,309	-0,311	-0,026
-739,327	-200,000	0,034	0,301
-738,312	112,677	-0,290	-0,256
-737,298	-200,000	0,042	0,220
-736,283	57,786	-0,220	-0,156
-735,269	-200,000	-0,005	0,382
-734,254	59,192	-0,262	-0,187
-733,239	743,456	-0,064	0,125
-732,225	122,665	-0,221	-0,201
-731,210	37,446	0,174	0,112
-730,196	57,975	0,117	-0,083
-729,181	255,791	0,018	-0,023
-728,167	-10,881	-0,039	-0,019
-727,152	-200,000	-0,007	0,053
-726,137	-64,742	-0,021	0,006
-725,123	-18,017	-0,098	-0,044
-724,108	-200,000	0,029	-0,114
-723,094	-200,000	0,016	-0,197
-722,079	-164,243	-0,064	-0,002
-721,064	-183,876	-0,087	0,001
-720,050	-200,000	0,014	0,049
-719,035	-21,467	-0,086	0,038
-718,021	-41,895	-0,071	-0,026
-717,006	89,186	-0,054	-0,044
-715,991	-154,507	-0,094	0,004
-714,977	644,590	0,060	-0,112
-713,962	-200,000	0,050	-0,182
-712,948	470,721	-0,072	0,118
-711,933	368,585	-0,089	-0,131
-710,918	800,000	-0,024	-0,066
-709,904	-200,000	-0,022	-0,090
-708,889	88,971	0,127	-0,102
-707,875	12,440	-0,094	-0,052
-706,860	79,354	0,076	-0,060
-705,845	44,030	0,048	-0,032
-704,831	800,000	0,033	-0,076
-703,816	-164,422	-0,121	0,004
-702,802	-89,118	-0,073	0,016
-701,787	-109,246	-0,158	0,024
-700,772	800,000	0,052	-0,115
-699,758	319,883	0,039	-0,054
-698,743	-200,000	-0,002	0,106
-697,729	1,172	0,122	-0,063
-696,714	-179,827	-0,061	0,001
-695,699	-44,843	-0,061	-0,022
-694,685	0,710	0,055	-0,028
-693,670	-200,000	-0,009	-0,063
-692,656	-200,000	0,005	0,029
-691,641	-200,000	-0,028	0,100
-690,627	283,631	0,037	-0,049
-689,612	-200,000	-0,007	-0,038
-688,597	-36,608	0,106	0,041
-687,583	320,267	-0,074	-0,102
-686,568	-200,000	0,003	0,012
-685,554	-72,251	-0,116	-0,031
-684,539	-3,229	0,102	0,051
-683,524	-127,844	0,101	0,010
-682,510	207,552	0,034	-0,038
-681,495	677,965	-0,086	-0,164
-680,481	-200,000	0,024	-0,249
-679,466	-48,154	-0,188	-0,066
-678,451	-200,000	0,019	-0,103
-677,437	-22,948	-0,085	-0,037
-676,422	210,071	-0,009	0,011
-675,408	23,492	-0,097	-0,058
-674,393	-75,180	0,051	-0,013
-673,378	220,223	-0,043	-0,050
-672,364	209,148	-0,210	-0,239
-671,349	-200,000	-0,016	-0,190
-670,335	800,000	-0,033	-0,073
-669,320	44,496	0,127	0,085
-668,305	-200,000	0,000	0,096
-667,291	-80,588	0,145	-0,035
-666,276	-85,311	-0,101	-0,023
-665,262	162,676	-0,047	-0,048
-664,247	-103,256	-0,255	-0,043
-663,232	66,806	-0,067	-0,049
-662,218	673,716	0,022	-0,042
-661,203	-60,674	0,078	0,024
-660,189	268,427	0,061	0,078
-659,174	-91,282	-0,114	-0,023
-658,159	-200,000	0,003	-0,055
-657,145	198,267	-0,078	0,087
-656,130	-93,748	0,137	0,027
-655,116	800,000	-0,048	0,101
-654,101	800,000	0,039	0,083
-653,086	-20,532	0,103	-0,046
-652,072	73,692	-0,068	-0,051
-651,057	-125,683	-0,195	-0,021
-650,043	-200,000	0,002	-0,030
-649,028	-92,451	-0,073	0,015
-648,014	423,935	-0,060	0,093
-646,999	390,258	-0,052	0,079
-645,984	800,000	0,050	-0,126
-644,970	151,834	0,067	0,066
-643,955	26,883	0,101	-0,061
-642,941	205,581	-0,112	-0,126
-641,926	-200,000	0,000	0,098
-640,911	6,126	0,142	-0,076
-639,897	-200,000	-0,015	0,105
-638,882	146,602	0,029	-0,028
-637,868	-200,000	-0,007	-0,054
-636,853	377,451	-0,048	-0,071
-635,838	-200,000	-0,012	-0,169
-634,824	238,274	-0,070	0,084
-633,809	33,575	0,081	0,051
-632,795	182,746	0,088	-0,094
-631,780	-200,000	-0,008	0,080
-630,765	-200,000	0,005	0,071
-629,751	-7,689	0,060	-0,029
-628,736	-200,000	-0,001	-0,021
-627,722	100,502	-0,088	-0,074
-626,707	520,728	-0,087	0,148
-625,692	178,279	0,040	0,042
-624,678	103,046	0,040	0,034
-623,663	-200,000	-0,024	-0,077
-622,649	-200,000	-0,016	-0,186
-621,634	305,352	-0,029	-0,039
-620,619	477,529	0,112	0,184
-619,605	-200,000	0,021	0,101
-618,590	454,588	-0,042	0,067
-617,576	-200,000	0,009	0,032
-616,561	46,975	0,022	0,015
-615,546	599,285	-0,035	-0,063
-614,532	800,000	-0,076	-0,159
-613,517	460,447	-0,008	-0,012
-612,503	763,234	0,049	0,096
-611,488	800,000	-0,051	0,141
-610,474	50,097	-0,048	0,033
-609,459	779,818	-0,055	0,110
-608,444	-200,000	0,026	-0,107
-607,430	77,692	-0,064	-0,049
-606,415	54,097	0,068	0,047
-605,401	-23,938	0,072	0,031
-604,386	119,882	0,046	0,042
-603,371	116,770	0,039	-0,034
-602,357	504,671	0,023	0,039
-601,342	553,884	0,032	0,057
-600,328	197,945	0,053	-0,059
-599,313	665,385	-0,052	-0,097
-598,298	-183,984	-0,105	-0,001
-597,284	78,903	0,053	-0,041
-596,269	612,616	0,043	-0,078
-595,255	16,211	-0,063	-0,036
-594,240	-50,108	-0,045	-0,015
-593,225	-200,000	0,003	-0,139
-592,211	-83,750	-0,041	-0,009
-591,196	-45,684	-0,156	-0,056
-590,182	-200,000	-0,010	0,041
-589,167	-116,161	0,023	-0,003
-588,152	-200,000	0,022	0,193
-587,138	800,000	-0,044	0,130
-586,123	800,000	-0,033	-0,074
-585,109	-64,954	-0,015	0,004
-584,094	-200,000	-0,005	-0,078
-583,079	-119,248	0,064	0,008
-582,065	-79,545	-0,016	0,004
-581,050	-115,372	0,121	0,016
-580,036	788,707	-0,067	-0,133
-579,021	211,498	-0,031	-0,035
-578,006	800,000	-0,021	-0,050
-576,992	800,000	0,063	0,159
-575,977	10,177	-0,036	-0,019
-574,963	500,235	-0,078	0,130
-573,948	475,256	0,018	-0,029
-572,934	-200,000	-0,003	0,092
-571,919	-200,000	-0,010	-0,041
-570,904	-51,931	0,031	0,010
-569,890	-28,456	-0,073	-0,030
-568,875	14,179	0,031	-0,017
-567,861	202,407	-0,062	0,069
-566,846	786,331	0,055	-0,110
-565,831	800,000	-0,058	-0,150
-564,817	101,839	0,053	-0,045
-563,802	800,000	-0,005	-0,011
-562,788	-152,328	-0,096	0,005
-561,773	-167,146	-0,036	-0,001
-560,758	8,420	0,104	0,056
-559,744	353,618	-0,054	0,077
-558,729	170,615	-0,046	0,047
-557,715	-49,278	-0,149	0,051
-556,700	34,585	-0,046	0,029
-555,685	279,922	0,041	-0,053
-554,671	-43,779	0,072	-0,026
-553,656	-200,000	0,028	0,122
-552,642	-200,000	0,030	0,152
-551,627	528,245	0,061	0,104
-550,612	800,000	-0,033	-0,099
-549,598	-200,000	0,005	-0,067
-548,583	-77,817	-0,112	-0,028
-547,569	343,284	0,041	-0,058
-546,554	73,428	0,089	-0,067
-545,539	-200,000	-0,022	0,133
-544,525	298,929	-0,039	0,052
-543,510	-45,279	-0,107	0,038
-542,496	213,925	0,050	-0,057
-541,481	-200,000	-0,014	0,079
-540,466	-55,235	-0,098	-0,032
-539,452	800,000	0,035	-0,071
-538,437	542,733	-0,072	0,124
-537,423	-200,000	0,026	-0,088
-536,408	40,098	0,127	0,082
-535,393	-200,000	-0,045	-0,155
-534,379	-159,827	0,148	-0,006
-533,364	317,743	-0,043	0,059
-532,350	800,000	0,033	0,070
-531,335	176,519	-0,089	0,094
-530,321	-41,414	-0,031	0,012
-529,306	72,182	0,169	-0,127
-528,291	800,000	-0,028	-0,057
-527,277	36,473	-0,054	-0,034
-526,262	800,000	-0,067	-0,148
-525,248	-200,000	0,021	-0,133
-524,233	-200,000	-0,009	0,112
-523,218	-200,000	-0,003	0,082
-522,204	340,079	-0,073	0,102
-521,189	52,498	0,034	-0,023
-520,175	800,000	-0,058	-0,132
-519,160	-200,000	-0,018	-0,088
-518,145	263,970	-0,097	0,123
-517,131	772,929	-0,037	0,073
-516,116	-200,000	0,017	0,083
-515,102	-91,074	0,112	-0,023
-514,087	-200,000	-0,004	-0,121
-513,072	16,880	-0,108	0,061
-512,058	3,253	-0,060	0,031
-511,043	-83,765	0,124	-0,028
-510,029	-17,501	0,189	0,085
-509,014	153,347	0,035	-0,034
-507,999	-200,000	-0,018	-0,151
-506,985	-72,650	-0,136	0,036
-505,970	-31,073	-0,056	-0,023
-504,956	800,000	0,046	-0,138
-503,941	-103,417	-0,069	0,012
-502,926	-37,839	-0,073	-0,028
-501,912	-87,467	-0,174	0,038
-500,897	263,196	0,072	0,090
-499,883	-1,844	0,104	-0,053
-498,868	-77,859	-0,040	0,010
-497,853	800,000	0,027	-0,060
-496,839	-147,268	-0,058	0,004
-495,824	-200,000	-0,031	0,119
-494,810	-38,491	-0,058	0,022
-493,795	800,000	0,032	0,101
-492,781	409,984	-0,059	-0,091
-491,766	-9,871	0,052	-0,025
-490,751	55,362	0,091	0,064
-489,737	-142,437	-0,081	-0,006
-488,722	-200,000	-0,027	-0,119
-487,708	800,000	-0,037	-0,101
-486,693	-200,000	-0,026	0,087
-485,678	182,595	-0,044	-0,046
-484,664	60,484	-0,080	0,057
-483,649	0,654	0,097	-0,050
-482,635	21,879	-0,019	0,011
-481,620	800,000	0,013	-0,038
-480,605	-41,512	-0,100	-0,037
-479,591	75,515	-0,067	0,051
-478,576	-200,000	0,012	-0,057
-477,562	2,574	0,057	0,029
-476,547	491,483	-0,068	-0,113
-475,532	242,596	0,168	-0,203
-474,518	671,740	-0,018	-0,034
-473,503	-200,000	-0,003	-0,016
-472,489	800,000	0,034	0,083
-471,474	800,000	-0,044	0,090
-470,459	360,152	-0,031	-0,044
-469,445	14,831	-0,135	-0,076
-468,430	800,000	-0,024	-0,061
-467,416	-200,000	-0,027	0,119
-466,401	-94,467	0,203	0,039
-465,386	-71,750	0,050	0,013
-464,372	-145,644	0,055	0,004
-463,357	-90,980	-0,024	0,005
-462,343	-200,000	-0,006	0,063
-461,328	22,495	0,118	0,070
-460,313	800,000	0,029	-0,086
-459,299	-200,000	-0,016	0,059
-458,284	366,019	0,068	0,098
-457,270	-200,000	0,008	0,093
-456,255	-41,159	-0,087	0,032
-455,241	-200,000	-0,019	-0,105
-454,226	208,611	0,043	-0,049
-453,211	-200,000	0,014	0,077
-452,197	-80,677	0,050	-0,012
-451,182	-200,000	0,032	0,111
-450,168	184,984	0,025	0,027
-449,153	57,556	-0,040	-0,028
-448,138	536,521	-0,058	0,099
-447,124	800,000	-0,026	0,061
-446,109	-29,701	0,173	-0,071
-445,095	163,046	0,089	-0,090
-444,080	390,652	0,027	-0,040
-443,065	140,814	0,083	-0,079
-442,051	145,050	-0,106	0,102
-441,036	-200,000	0,010	-0,045
-440,022	-143,431	0,047	0,003
-439,007	-200,000	0,023	-0,101
-437,992	-135,090	-0,053	-0,004
-436,978	428,338	0,066	0,104
-435,963	800,000	0,005	-0,012
-434,949	-174,899	-0,117	-0,002
-433,934	115,110	-0,047	-0,042
-432,919	672,540	-0,078	-0,147
-431,905	364,751	-0,034	0,050
-430,890	497,862	0,023	0,038
-429,876	30,635	0,105	-0,065
-428,861	386,928	-0,012	-0,017
-427,846	48,835	0,096	0,064
-426,832	-113,827	0,151	-0,021
-425,817	-200,000	0,022	-0,156
-424,803	800,000	0,020	-0,057
-423,788	-200,000	-0,015	0,094
-422,773	-200,000	-0,033	0,120
-421,759	-200,000	0,019	0,079
-420,744	-200,000	-0,004	-0,093
-419,730	-73,419	-0,104	-0,027
-418,715	-200,000	0,003	-0,072
-417,701	-200,000	0,021	0,134
-416,686	800,000	0,026	-0,065
-415,671	-126,792	-0,059	-0,006
-414,657	-200,000	0,000	-0,070
-413,642	-200,000	-0,045	-0,165
-412,628	-200,000	0,025	-0,152
-411,613	277,103	-0,059	-0,075
-410,598	-200,000	-0,048	-0,209
-409,584	273,709	0,016	-0,020
-408,569	-27,092	0,161	0,067
-407,555	-200,000	0,009	0,063
-406,540	25,447	0,139	0,083
-405,525	800,000	-0,025	-0,075
-404,511	549,339	-0,059	-0,103
-403,496	800,000	-0,047	-0,114
-402,482	-200,000	0,009	-0,048
-401,467	-41,107	-0,152	0,056
-400,452	800,000	0,014	0,034
-399,438	-109,233	0,061	-0,009
-398,423	143,344	0,034	0,032
-397,409	12,594	-0,020	-0,011
-396,394	220,822	-0,060	-0,069
-395,379	-6,310	0,065	-0,032
-394,365	142,625	-0,078	-0,074
-393,350	800,000	-0,044	0,109
-392,336	-123,666	0,153	0,017
-391,321	-200,000	-0,003	0,025
-390,306	800,000	-0,029	-0,075
-389,292	221,175	0,027	0,031
-388,277	-200,000	0,029	-0,098
-387,263	2,183	0,123	-0,064
-386,248	51,664	0,063	0,043
-385,233	486,910	-0,038	0,063
-384,219	-200,000	-0,021	0,078
-383,204	800,000	0,031	-0,081
-382,190	95,131	0,039	-0,032
-381,175	-113,857	0,112	-0,016
-380,160	-89,432	-0,066	-0,014
-379,146	800,000	-0,030	0,084
-378,131	479,034	-0,035	0,058
-377,117	-200,000	0,022	0,166
-376,102	-181,002	0,113	0,002
-375,088	-59,619	-0,035	0,011
-374,073	-95,123	0,087	0,017
-373,058	7,361	-0,078	0,042
-372,044	-200,000	-0,007	0,101
-371,029	96,060	0,020	-0,016
-370,015	800,000	0,017	0,050
-369,000	-200,000	0,012	0,091
-367,985	144,814	0,058	-0,055
-366,971	-79,671	-0,157	-0,038
-365,956	-200,000	0,015	-0,080
-364,942	150,291	-0,069	-0,067
-363,927	800,000	0,025	0,080
-362,912	800,000	-0,046	0,122
-361,898	429,569	-0,004	0,007
-360,883	-200,000	0,014	-0,073
-359,869	-200,000	-0,044	-0,154
-358,854	-45,336	-0,062	-0,022
-357,839	44,033	-0,051	0,033
-356,825	-200,000	0,032	0,185
-355,810	682,519	0,035	0,066
-354,796	583,733	-0,093	-0,165
-353,781	-118,602	-0,097	-0,012
-352,766	-102,659	-0,100	0,017
-351,752	-200,000	-0,010	-0,040
-350,737	320,504	-0,010	0,014
-349,723	-137,161	-0,076	-0,006
-348,708	61,530	0,106	0,076
-347,693	-200,000	0,017	-0,127
-346,679	-41,711	-0,163	-0,060
-345,664	800,000	-0,013	-0,026
-344,650	582,676	-0,047	-0,084
-343,635	152,245	0,067	0,066
-342,620	-101,635	0,074	-0,013
-341,606	7,408	-0,091	0,049
-340,591	-24,599	0,044	-0,019
-339,577	94,622	-0,114	-0,093
-338,562	-200,000	0,022	-0,074
-337,548	40,295	-0,071	-0,045
-336,533	204,976	0,060	-0,067
-335,518	800,000	0,010	0,027
-334,504	292,591	0,087	0,114
-333,489	269,921	0,064	-0,081
-332,475	-37,152	-0,103	0,039
-331,460	800,000	0,033	-0,067
-330,445	800,000	-0,010	-0,031
-329,431	35,053	0,059	-0,037
-328,416	800,000	-0,020	-0,055
-327,402	-200,000	0,011	0,079
-326,387	413,097	-0,058	-0,088
-325,372	53,498	-0,085	0,059
-324,358	235,925	-0,069	-0,082
-323,343	-2,969	-0,082	-0,041
-322,329	137,266	-0,017	-0,016
-321,314	107,803	-0,036	-0,031
-320,299	17,919	0,054	0,031
-319,285	-137,472	-0,115	0,009
-318,270	800,000	-0,054	0,111
-317,256	101,630	0,075	0,063
-316,241	215,027	0,132	-0,150
-315,226	108,717	0,123	-0,105
-314,212	43,846	0,087	-0,057
-313,197	-200,000	-0,007	0,065
-312,183	-126,272	-0,143	0,015
-311,168	43,217	0,090	0,058
-310,153	77,726	0,115	-0,088
-309,139	104,197	-0,098	0,082
-308,124	800,000	-0,023	-0,047
-307,110	95,774	0,150	0,123
-306,095	-70,609	0,057	0,015
-305,080	-159,646	-0,109	-0,004
-304,066	-200,000	0,031	-0,100
-303,051	-127,721	-0,042	-0,004
-302,037	-34,178	-0,022	-0,009
-301,022	157,044	-0,020	0,020
-300,008	-200,000	0,003	0,023
-298,993	519,232	0,101	0,170
-297,978	-84,620	-0,069	0,015
-296,964	-84,843	0,026	0,006
-295,949	144,351	-0,129	-0,123
-294,935	752,419	-0,009	-0,017
-293,920	-43,259	-0,030	0,011
-292,905	685,522	0,055	0,104
-291,891	800,000	0,046	0,136
-290,876	-16,365	-0,024	0,011
-289,862	78,410	-0,012	-0,009
-288,847	53,346	0,036	-0,025
-287,832	800,000	0,022	0,063
-286,818	306,865	0,057	0,076
-285,803	-21,823	0,101	0,044
-284,789	3,194	0,197	-0,102
-283,774	605,427	0,046	0,082
-282,759	180,297	-0,044	0,046
-281,745	-90,217	-0,087	-0,018
-280,730	-110,266	-0,084	-0,012
-279,716	141,181	0,032	0,030
-278,701	-49,485	0,080	-0,027
-277,686	319,148	0,071	0,096
-276,672	-200,000	0,029	0,092
-275,657	-91,854	-0,161	0,032
-274,643	219,570	-0,167	-0,192
-273,628	10,689	0,115	-0,063
-272,613	59,608	-0,058	0,041
-271,599	-42,136	0,107	0,039
-270,584	-189,377	-0,031	-0,000
-269,570	800,000	0,043	-0,131
-268,555	-183,889	-0,080	0,001
-267,540	40,563	0,020	-0,013
-266,526	136,736	-0,092	-0,086
-265,511	-118,742	0,090	-0,011
-264,497	-1,471	0,082	0,041
-263,482	800,000	-0,009	0,028
-262,467	-35,846	-0,044	-0,017
-261,453	-200,000	-0,019	0,094
-260,438	-47,996	-0,088	0,030
-259,424	800,000	-0,019	-0,044
-258,409	47,332	-0,107	0,071
-257,395	-13,140	0,079	-0,037
-256,380	60,687	0,072	0,051
-255,365	-200,000	0,045	0,204
-254,351	800,000	0,020	0,053
-253,336	243,757	-0,062	-0,075
-252,322	85,914	0,069	0,054
-251,307	301,316	-0,137	-0,181
-250,292	172,176	-0,063	-0,064
-249,278	800,000	-0,058	-0,173
-248,263	-200,000	-0,018	0,100
-247,249	800,000	-0,063	-0,147
-246,234	-19,616	0,027	0,012
-245,219	177,825	-0,099	0,103
-244,205	-200,000	-0,010	0,145
-243,190	800,000	0,007	-0,015
-242,176	640,667	0,111	0,202
-241,161	-118,189	0,105	0,013
-240,146	118,808	-0,108	0,095
-239,132	800,000	-0,038	0,084
-238,117	367,800	-0,127	-0,183
-237,103	11,412	0,079	0,043
-236,088	800,000	-0,042	0,095
-235,073	-200,000	0,021	0,099
-234,059	378,657	0,040	-0,058
-233,044	49,738	0,103	0,069
-232,030	79,406	-0,102	-0,078
-231,015	43,494	0,085	-0,055
-230,000	308,428	0,115	-0,154
-228,986	-106,168	-0,054	0,008
-227,971	-200,000	0,006	-0,038
-226,957	-71,514	0,132	0,035
-225,942	-200,000	0,008	-0,039
-224,927	297,493	0,055	-0,072
-223,913	-200,000	-0,030	0,099
-222,898	-21,174	0,066	0,029
-221,884	-134,956	-0,136	0,012
-220,869	301,147	0,057	0,075
-219,855	338,976	-0,012	0,016
-218,840	-200,000	-0,117	0,000
-217,825	26,706	-0,113	0,067
-216,811	125,213	-0,031	-0,028
-215,796	-90,846	0,033	-0,007
-214,782	-200,000	-0,001	0,034
-213,767	-154,587	-0,042	-0,002
-212,752	800,000	-0,019	-0,052
-211,738	80,701	-0,038	0,029
-210,723	537,023	-0,047	-0,081
-209,709	-200,000	-0,021	-0,093
-208,694	-3,091	0,113	0,056
-207,679	-200,000	-0,042	-0,151
-206,665	-22,227	0,100	0,043
-205,650	101,212	0,090	-0,075
-204,636	333,450	-0,014	-0,020
-203,621	-200,000	-0,015	0,095
-202,606	800,000	0,027	-0,060
-201,592	800,000	0,075	-0,227
-200,577	-154,745	-0,104	-0,005
-199,563	-200,000	-0,008	0,068
-198,548	354,054	0,044	0,063
-197,533	-155,852	0,182	-0,008
-196,519	-200,000	-0,007	0,072
-195,504	-175,780	-0,004	0,000
-194,490	108,268	-0,071	-0,060
-193,475	-64,452	0,091	-0,026
-192,460	18,940	0,118	-0,067
-191,446	800,000	0,033	-0,090
-190,431	286,058	0,101	0,130
-189,417	416,838	0,079	0,121
-188,402	-102,958	-0,122	0,020
-187,387	277,153	-0,046	-0,058
-186,373	-98,923	-0,017	0,003
-185,358	-110,740	0,088	0,013
-184,344	-56,308	0,097	0,031
-183,329	-200,000	0,003	0,140
-182,315	92,410	0,074	0,059
-181,300	49,813	-0,065	-0,043
-180,285	-159,362	-0,106	0,004
-179,271	306,269	0,040	-0,053
-178,256	-66,984	-0,026	-0,007
-177,242	70,023	-0,056	0,041
-176,227	27,432	0,079	0,047
-175,212	-200,000	0,002	-0,018
-174,198	-34,357	-0,179	0,070
-173,183	-24,531	0,021	0,009
-172,169	800,000	0,029	0,083
-171,154	27,398	-0,060	-0,036
-170,139	-200,000	0,024	-0,138
-169,125	-200,000	-0,031	0,179
-168,110	-200,000	0,005	0,105
-167,096	-82,717	0,124	0,028
-166,081	235,475	0,105	0,123
-165,066	598,906	0,081	-0,144
-164,052	650,620	0,023	-0,041
-163,037	113,408	-0,104	0,090
-162,023	347,858	0,045	0,063
-161,008	-176,896	-0,045	-0,001
-159,993	-151,421	0,111	-0,006
-158,979	-105,933	-0,091	0,014
-157,964	-95,556	0,039	-0,007
-156,950	425,649	-0,036	-0,056
-155,935	-56,271	0,094	0,030
-154,920	75,604	-0,103	0,077
-153,906	117,264	0,131	0,115
-152,891	-95,385	0,069	0,013
-151,877	-139,650	-0,092	-0,007
-150,862	533,467	0,038	-0,065
-149,847	-107,531	-0,087	0,013
-148,833	-153,082	-0,168	-0,008
-147,818	-67,926	0,056	0,015
-146,804	800,000	0,039	0,120
-145,789	-200,000	-0,019	0,061
-144,775	-74,911	0,021	0,005
-143,760	122,699	-0,054	0,048
-142,745	306,454	-0,077	0,102
-141,731	-7,038	0,043	-0,021
-140,716	183,536	0,052	-0,055
-139,702	-97,178	0,053	0,010
-138,687	557,754	0,034	0,059
-137,672	244,659	-0,086	-0,103
-136,658	800,000	0,073	-0,172
-135,643	116,515	0,081	-0,070
-134,629	438,010	0,059	-0,092
-133,614	800,000	0,036	0,099
-132,599	-159,137	0,084	0,003
-131,585	-86,480	0,041	-0,009
-130,570	89,419	-0,106	-0,084
-129,556	-16,131	-0,112	0,050
-128,541	-1,272	0,050	0,025
-127,526	-77,675	-0,118	0,029
-126,512	448,399	-0,083	0,130
-125,497	516,629	0,081	0,135
-124,483	800,000	-0,058	0,125
-123,468	-83,431	-0,058	-0,013
-122,453	-47,755	-0,050	-0,017
-121,439	-200,000	0,009	-0,081
-120,424	-50,932	-0,117	0,039
-119,410	-143,842	0,150	-0,010
-118,395	518,635	-0,085	0,142
-117,380	-68,489	0,056	-0,015
-116,366	179,355	-0,091	-0,095
-115,351	386,054	-0,013	0,019
-114,337	-200,000	0,003	-0,129
-113,322	-25,403	-0,047	-0,020
-112,307	-200,000	0,031	0,141
-111,293	-147,536	0,105	-0,006
-110,278	93,796	0,109	0,088
-109,264	-200,000	-0,018	0,091
-108,249	-200,000	0,017	-0,158
-107,234	-33,343	-0,090	-0,035
-106,220	219,609	0,078	-0,089
-105,205	-200,000	-0,005	-0,043
-104,191	-154,670	0,246	0,011
-103,176	-21,974	-0,048	-0,021
-102,162	472,424	-0,030	0,048
-101,147	420,704	-0,065	-0,099
-100,132	-57,599	0,219	-0,068
-99,118	-200,000	0,019	-0,081
-98,103	-200,000	0,011	0,047
-97,089	800,000	0,074	0,166
-96,074	176,653	0,007	-0,007
-95,059	415,652	0,029	0,044
-94,045	-8,042	-0,074	0,035
-93,030	2,126	-0,139	-0,071
-92,016	800,000	-0,014	0,034
-91,001	53,353	-0,032	-0,022
-89,986	-200,000	-0,002	-0,119
-88,972	28,915	-0,055	-0,033
-87,957	-22,257	0,082	0,035
-86,943	158,076	-0,060	0,059
-85,928	363,322	0,051	0,074
-84,913	17,218	0,022	-0,012
-83,899	-49,403	0,070	-0,023
-82,884	63,558	0,063	0,045
-81,870	-200,000	0,005	0,026
-80,855	-127,741	0,048	-0,005
-79,840	-65,386	0,099	-0,028
-78,826	-125,821	-0,029	0,003
-77,811	180,176	0,051	-0,053
-76,797	337,870	-0,022	0,030
-75,782	776,654	-0,056	0,110
-74,767	105,179	-0,051	0,043
-73,753	441,314	-0,031	0,049
-72,738	240,941	-0,073	-0,087
-71,724	615,681	0,017	-0,031
-70,709	-10,171	0,044	0,021
-69,694	-200,000	-0,000	-0,094
-68,680	25,586	0,086	0,050
-67,665	23,855	0,093	0,054
-66,651	200,643	-0,022	-0,023
-65,636	632,025	0,053	0,096
-64,622	-96,631	0,056	0,010
-63,607	170,681	-0,034	0,035
-62,592	-81,461	0,118	-0,027
-61,578	-113,381	0,111	0,015
-60,563	800,000	-0,037	-0,083
-59,549	800,000	-0,046	0,110
-58,534	-52,401	-1,523	-0,496
-57,519	366,756	-1,389	-1,991
-56,505	-200,000	-0,637	-4,584
-55,490	158,302	0,916	0,900
-54,476	800,000	4,907	11,352
-53,461	-200,000	18,158	286,412
-52,446	800,000	726,690	2225,121
-51,432	554,418	1643,011	2810,052
-50,417	79,431	1665,050	1263,478
-49,403	22,932	1539,060	891,347
-48,388	16,924	1462,235	817,759
-47,373	17,837	1452,268	816,550
-46,359	17,263	1442,838	808,470
-45,344	15,183	1438,140	795,875
-44,330	15,113	1436,061	794,360
-43,315	15,105	1434,469	793,406
-42,300	15,147	1432,712	792,604
-41,286	15,251	1431,415	792,349
-40,271	15,118	1430,445	791,148
-39,257	15,100	1429,301	790,402
-38,242	15,149	1427,688	789,709
-37,227	15,181	1426,629	789,245
-36,213	15,140	1425,420	788,351
-35,198	15,182	1423,975	787,719
-34,184	15,224	1423,242	787,480
-33,169	15,119	1421,851	786,184
-32,154	15,127	1421,075	785,761
-31,140	15,193	1419,505	785,172
-30,125	15,189	1418,425	784,523
-29,111	15,156	1417,276	783,704
-28,096	15,143	1416,322	783,080
-27,082	15,109	1415,022	782,173
-26,067	15,072	1413,853	781,322
-25,052	15,125	1413,052	781,097
-24,038	15,107	1412,089	780,451
-23,023	15,077	1410,922	779,633
-22,009	15,081	1409,956	779,086
-20,994	15,055	1409,059	778,441
-19,979	15,075	1408,053	777,947
-18,965	15,002	1407,251	777,128
-17,950	15,026	1406,192	776,628
-16,936	15,022	1405,397	776,138
-15,921	14,989	1404,179	775,280
-14,906	15,021	1403,046	774,775
-13,892	15,024	1402,255	774,319
-12,877	15,007	1401,481	773,784
-11,863	14,994	1400,557	773,183
-10,848	15,002	1399,412	772,557
-9,833	14,920	1398,956	771,895
-8,819	14,929	1397,988	771,372
-7,804	14,900	1396,983	770,652
-6,790	14,885	1396,044	770,033
-5,775	14,932	1394,764	769,512
-4,760	14,879	1394,104	768,873
-3,746	14,885	1393,193	768,369
-2,731	14,899	1392,547	768,046
-1,717	14,867	1391,652	767,375
-0,702	14,890	1389,711	766,378
0,313	18,692	1308,798	739,354
1,327	34,898	707,413	437,215
2,342	53,975	124,845	84,800
3,356	2,522	16,619	8,490
4,371	0,824	3,178	1,605
5,386	-20,453	0,618	0,268
6,400	186,230	0,124	0,130
7,415	-37,181	-0,279	-0,105
8,429	5,617	-0,216	-0,113
9,444	16,827	-0,394	-0,220
10,459	50,835	-0,213	-0,142
11,473	169,230	-0,280	-0,283
12,488	58,525	-0,340	-0,236
13,502	-14,082	-0,437	-0,198
14,517	-4,235	-0,386	-0,188
15,531	-39,235	-0,373	-0,138
16,546	343,314	-0,203	-0,282
17,561	81,504	-0,429	-0,328
18,575	800,000	-0,078	-0,158
19,590	103,874	-0,209	-0,174
20,604	-79,978	-0,233	-0,055
21,619	325,452	-0,362	-0,490
22,634	42,483	-0,435	-0,279
23,648	24,856	-0,447	-0,261
24,663	85,071	-0,445	-0,344
25,677	69,669	-0,359	-0,261
26,692	62,239	-0,347	-0,244
27,707	33,375	-0,417	-0,255
28,721	108,566	-0,285	-0,240
29,736	379,686	-0,240	-0,348
30,750	110,782	-0,441	-0,374
31,765	800,000	-0,176	-0,354
32,780	92,732	-0,326	-0,259
33,794	113,205	-0,359	-0,307
34,809	77,690	-0,261	-0,196
35,823	31,993	-0,351	-0,213
36,838	97,794	-0,372	-0,302
37,853	187,044	-0,368	-0,388
38,867	266,262	-0,344	-0,425
39,882	46,526	-0,397	-0,259
40,896	-39,418	-0,214	-0,079
41,911	192,055	-0,318	-0,339
42,926	168,011	-0,332	-0,333
43,940	20,750	-0,507	-0,289
44,955	154,460	-0,255	-0,247
45,969	19,797	-0,295	-0,167
46,984	362,507	-0,242	-0,343
47,999	-84,184	-0,396	-0,088
49,013	90,407	-0,330	-0,260
50,028	220,475	-0,186	-0,210
51,042	83,669	-0,437	-0,335
52,057	100,195	-0,489	-0,400
53,071	220,240	-0,283	-0,321
54,086	701,999	-0,186	-0,347
55,101	-22,926	-0,424	-0,179
56,115	146,946	-0,316	-0,299
57,130	84,246	-0,311	-0,239
58,144	79,971	-0,329	-0,249
59,159	99,552	-0,428	-0,349
60,174	119,387	-0,403	-0,351
61,188	105,434	-0,391	-0,325
62,203	-9,361	-0,348	-0,163
63,217	360,526	-0,144	-0,204
64,232	67,400	-0,343	-0,246
65,247	100,633	-0,253	-0,207
66,261	-44,697	-0,394	-0,138
67,276	-23,725	-0,445	-0,187
68,290	183,828	-0,252	-0,263
69,305	-94,493	-0,377	-0,072
70,320	48,317	-0,376	-0,247
71,334	64,773	-0,450	-0,319
72,349	-18,712	-0,354	-0,154
73,363	141,816	-0,339	-0,316
74,378	59,368	-0,308	-0,213
75,393	45,345	-0,402	-0,260
76,407	121,987	-0,337	-0,296
77,422	108,137	-0,254	-0,213
78,436	17,796	-0,379	-0,212
79,451	14,474	-0,268	-0,146
80,466	194,746	-0,248	-0,265
81,480	20,248	-0,351	-0,199
82,495	-0,717	-0,323	-0,160
83,509	2,390	-0,291	-0,147
84,524	17,219	-0,196	-0,109
85,539	24,644	-0,378	-0,219
86,553	18,581	-0,247	-0,138
87,568	17,345	-0,311	-0,173
88,582	5,272	-0,426	-0,220
89,597	89,041	-0,271	-0,212
90,611	66,688	-0,240	-0,171
91,626	-37,729	-0,257	-0,096
92,641	167,255	-0,263	-0,263
93,655	45,933	-0,316	-0,205
94,670	114,752	-0,263	-0,225
95,684	66,141	-0,276	-0,197
96,699	51,111	-0,263	-0,175
97,714	61,220	-0,332	-0,231
98,728	104,082	-0,167	-0,138
99,743	141,757	-0,195	-0,181
100,757	173,849	-0,221	-0,224
101,772	10,736	-0,280	-0,149
102,787	117,445	-0,252	-0,217
103,801	56,769	-0,329	-0,224
104,816	159,254	-0,133	-0,129
105,830	145,390	-0,239	-0,224
106,845	-57,613	-0,247	-0,075
107,860	36,199	-0,314	-0,194
108,874	73,531	-0,280	-0,205
109,889	114,099	-0,258	-0,220
110,903	7,322	-0,237	-0,123
111,918	120,006	-0,260	-0,226
112,933	225,444	-0,215	-0,245
113,947	657,372	-0,190	-0,344
114,962	182,608	-0,214	-0,221
115,976	359,931	-0,208	-0,293
116,991	104,959	-0,232	-0,191
118,006	229,625	-0,304	-0,348
119,020	330,954	-0,147	-0,199
120,035	61,330	-0,177	-0,123
121,049	115,541	-0,175	-0,150
122,064	266,165	-0,239	-0,293
123,079	238,015	-0,259	-0,302
124,093	257,462	-0,253	-0,305
125,108	-103,108	-0,282	-0,046
126,122	-14,079	-0,363	-0,163
127,137	262,647	-0,142	-0,173
128,151	161,021	-0,225	-0,220
129,166	-20,563	-0,195	-0,084
130,181	20,081	-0,224	-0,126
131,195	226,482	-0,196	-0,223
132,210	13,717	-0,234	-0,127
133,224	245,479	-0,226	-0,267
134,239	293,460	-0,123	-0,157
135,254	-7,201	-0,225	-0,107
136,268	123,676	-0,263	-0,231
137,283	81,087	-0,178	-0,134
138,297	-135,454	-0,300	-0,025
139,312	357,886	-0,204	-0,285
140,327	526,252	-0,158	-0,262
141,341	122,513	-0,226	-0,198
142,356	-155,386	-0,186	0,008
143,370	-58,361	-0,341	-0,103
144,385	116,600	-0,191	-0,164
145,400	144,800	-0,290	-0,271
146,414	187,355	-0,227	-0,237
147,429	324,950	-0,250	-0,335
148,443	-135,971	-0,350	0,028
149,458	209,100	-0,175	-0,192
150,473	41,528	-0,202	-0,128
151,487	100,135	-0,257	-0,208
152,502	102,539	-0,274	-0,224
153,516	159,993	-0,205	-0,200
154,531	253,206	-0,210	-0,251
155,546	-33,917	-0,216	-0,083
156,560	15,423	-0,208	-0,114
157,575	-200,000	-0,055	-0,197
158,589	-23,739	-0,239	-0,100
159,604	331,076	-0,152	-0,206
160,619	50,051	-0,242	-0,159
161,633	-21,689	-0,102	-0,043
162,648	43,633	-0,364	-0,232
163,662	55,457	-0,279	-0,188
164,677	35,348	-0,288	-0,176
165,692	80,614	-0,246	-0,185
166,706	35,232	-0,251	-0,153
167,721	35,457	-0,272	-0,166
168,735	55,796	-0,246	-0,166
169,750	26,433	-0,224	-0,130
170,764	276,902	-0,168	-0,208
171,779	11,237	-0,300	-0,160
172,794	75,592	-0,180	-0,133
173,808	78,767	-0,188	-0,140
174,823	267,182	-0,199	-0,243
175,837	355,231	-0,177	-0,246
176,852	427,764	-0,181	-0,274
177,867	42,074	-0,271	-0,171
178,881	1,831	-0,178	-0,089
179,896	-131,188	-0,243	0,022
180,910	534,836	-0,141	-0,234
181,925	-37,896	-0,279	-0,103
182,940	47,738	-0,255	-0,165
183,954	194,883	-0,162	-0,172
184,969	4,966	-0,296	-0,151
185,983	-200,000	-0,077	-0,257
186,998	-200,000	-0,004	-0,142
188,013	573,533	-0,138	-0,235
189,027	59,008	-0,318	-0,217
190,042	66,293	-0,238	-0,168
191,056	-33,410	-0,266	-0,102
192,071	-47,885	-0,209	-0,070
193,086	-143,369	-0,128	-0,008
194,100	800,000	-0,153	-0,318
195,115	-54,290	-0,350	-0,110
196,129	-19,354	-0,158	-0,068
197,144	6,230	-0,349	-0,180
198,159	192,700	-0,237	-0,249
199,173	-195,058	-0,200	-0,001
200,188	117,289	-0,130	-0,111
201,202	82,176	-0,236	-0,178
202,217	-147,474	-0,202	-0,012
203,232	-60,125	-0,299	-0,088
204,246	240,911	-0,263	-0,305
205,261	396,778	-0,216	-0,315
206,275	220,196	-0,119	-0,133
207,290	78,637	-0,205	-0,152
208,304	4,498	-0,166	-0,084
209,319	500,690	-0,234	-0,376
210,334	359,177	-0,151	-0,210
211,348	-200,000	-0,051	-0,229
212,363	367,572	-0,135	-0,190
213,377	29,386	-0,273	-0,161
214,392	22,225	-0,162	-0,092
215,407	-36,527	-0,209	-0,078
216,421	-83,184	-0,226	-0,050
217,436	7,349	-0,122	-0,063
218,450	-83,083	-0,172	-0,038
219,465	247,483	-0,246	-0,289
220,480	126,915	-0,200	-0,176
221,494	175,378	-0,156	-0,157
222,509	21,461	-0,148	-0,083
223,523	-1,541	-0,208	-0,101
224,538	66,448	-0,239	-0,168
225,553	-27,422	-0,259	-0,104
226,567	59,614	-0,251	-0,171
227,582	770,172	-0,121	-0,231
228,596	800,000	-0,112	-0,217
229,611	-147,982	-0,147	0,008
230,626	84,881	-0,175	-0,133
231,640	99,612	-0,179	-0,144
232,655	800,000	-0,073	-0,207
233,669	141,721	-0,243	-0,224
234,684	-5,053	-0,253	-0,120
235,699	8,758	-0,099	-0,051
236,713	-200,000	0,006	-0,204
237,728	-13,761	-0,257	-0,115
238,742	62,241	-0,161	-0,111
239,757	780,945	-0,127	-0,242
240,772	-42,113	-0,223	-0,079
241,786	60,465	-0,169	-0,116
242,801	201,266	-0,191	-0,204
243,815	29,612	-0,128	0,075
244,830	-85,485	-0,082	-0,018
245,844	165,745	-0,032	0,032
246,859	-137,960	-0,160	0,012
247,874	29,624	-0,204	-0,120
248,888	36,729	-0,258	-0,158
249,903	256,358	-0,175	-0,209
250,917	800,000	-0,078	-0,156
251,932	-54,391	-0,210	-0,066
252,947	-136,850	-0,148	-0,012
253,961	-3,048	-0,235	-0,113
254,976	214,203	-0,157	-0,172
255,990	310,833	-0,142	-0,185
257,005	-1,417	-0,162	-0,079
258,020	-30,475	-0,235	-0,092
259,034	-58,921	-0,081	-0,024
260,049	14,218	-0,175	-0,094
261,063	47,905	-0,192	-0,124
262,078	383,611	-0,147	-0,210
263,093	-94,038	-0,137	-0,026
264,107	235,210	-0,120	-0,137
265,122	-200,000	-0,025	-0,182
266,136	800,000	-0,057	-0,145
267,151	-140,245	-0,167	0,012
268,166	-54,814	-0,287	-0,089
269,180	-125,281	-0,247	-0,026
270,195	307,298	-0,136	-0,176
271,209	-200,000	-0,006	-0,148
272,224	384,124	-0,125	-0,178
273,239	39,815	-0,198	-0,123
274,253	233,038	-0,101	-0,115
275,268	185,892	-0,187	-0,192
276,282	-200,000	-0,056	-0,185
277,297	23,785	-0,301	-0,171
278,312	428,924	-0,110	-0,164
279,326	193,608	-0,092	-0,096
280,341	105,431	-0,168	-0,137
281,355	21,012	-0,084	0,047
282,370	58,658	-0,218	-0,148
283,384	24,284	-0,172	-0,098
284,399	288,195	-0,147	-0,184
285,414	-34,576	-0,222	-0,083
286,428	32,937	-0,203	-0,121
287,443	-50,509	-0,157	-0,051
288,457	-13,883	-0,205	-0,091
289,472	-26,693	-0,118	-0,047
290,487	78,378	-0,162	-0,119
291,501	56,075	-0,206	-0,138
292,516	100,222	-0,096	-0,077
293,530	800,000	0,041	-0,111
294,545	46,229	-0,130	-0,083
295,560	33,988	-0,148	-0,089
296,574	-137,939	-0,189	-0,014
297,589	-13,242	-0,150	-0,067
298,603	234,203	-0,151	-0,171
299,618	235,155	-0,180	-0,206
300,633	28,544	-0,201	-0,117
301,647	-40,949	-0,239	-0,085
302,662	-170,389	-0,313	0,007
303,676	-74,819	-0,092	0,023
304,691	170,290	-0,232	-0,229
305,706	-13,248	-0,196	-0,087
306,720	800,000	-0,100	-0,250
307,735	312,799	-0,067	-0,087
308,749	155,864	-0,137	-0,130
309,764	172,566	-0,094	-0,093
310,779	-200,000	-0,057	-0,181
311,793	75,730	-0,161	-0,117
312,808	374,565	-0,164	-0,230
313,822	-200,000	-0,081	-0,309
314,837	83,609	-0,079	-0,059
315,852	-26,912	-0,210	-0,084
316,866	2,802	-0,222	-0,110
317,881	199,048	-0,131	-0,138
318,895	177,333	-0,192	-0,193
319,910	178,380	-0,153	-0,153
320,925	49,071	-0,072	-0,047
321,939	104,107	-0,094	-0,076
322,954	58,744	-0,166	-0,112
323,968	-49,660	-0,119	-0,039
324,983	663,738	-0,095	-0,170
325,997	99,616	-0,132	-0,105
327,012	410,192	-0,122	-0,178
328,027	138,165	-0,159	-0,143
329,041	81,818	-0,140	0,104
330,056	-39,880	-0,115	-0,041
331,070	-1,333	-0,085	0,041
332,085	45,797	-0,073	-0,046
333,100	95,179	-0,210	-0,164
334,114	389,855	-0,163	-0,233
335,129	243,590	-0,129	-0,149
336,143	-162,870	-0,167	0,005
337,158	214,459	-0,046	-0,050
338,173	151,919	-0,125	-0,117
339,187	325,690	-0,094	-0,124
340,202	-200,000	0,026	-0,092
341,216	-36,520	-0,148	0,054
342,231	125,298	-0,177	-0,154
343,246	-179,666	-0,122	0,002
344,260	-72,427	-0,170	-0,043
345,275	-23,176	-0,099	-0,041
346,289	800,000	-0,052	0,108
347,304	366,049	-0,087	-0,121
348,319	-4,374	-0,154	-0,073
349,333	-89,704	-0,111	-0,022
350,348	300,494	-0,083	-0,105
351,362	61,733	-0,168	-0,114
352,377	63,672	-0,078	-0,054
353,392	398,458	-0,034	0,049
354,406	63,358	-0,110	-0,076
355,421	208,958	1316,750	1416,088
356,435	160,797	1477,757	1416,587
