DTS Sentinel unit serial number:	SN410029Multiplexer serial number:	ORYXHardware model number:	OX2-SRSoftware version number:	ORYX F/W v4,00 Oryx Data Collector v3.7.2.0data status	okinstallation	B3 Nyhavnadifferential loss correction	single-endedforward channel	channel 1reverse channel	N/Adate	2023/12/02time	00:07:30forward acquisition time	300,00reverse acquisition time	0,00gamma	499,1914k internal	0,3196k external	0,3196temperature offset calibration	1,0000default loss term (dB/km)	0,3820temperature slope calibration	1,0000multiplexer offset coefficient	1,0000multiplexer slope coefficient	1,0000fibre end	0,00T internal ref (°C)	16,10T ext. ref 1 (°C)	1,62T ext. ref 2 (°C)	1,60length (m)	temperature (°C)	Stokes	anti-Stokes-744,400	199,940	-0,187	-0,209
-743,385	453,380	0,162	0,262
-742,371	146,181	-0,135	-0,132
-741,356	800,000	0,169	0,404
-740,342	476,572	-0,145	-0,240
-739,327	-200,000	0,032	0,313
-738,312	800,000	-0,119	-0,312
-737,298	800,000	0,113	0,271
-736,283	27,755	-0,266	-0,163
-735,269	-200,000	0,027	0,111
-734,254	93,213	-0,194	-0,160
-733,239	31,037	-0,215	0,134
-732,225	290,251	-0,121	-0,161
-731,210	-27,610	0,210	0,088
-730,196	660,370	0,068	-0,129
-729,181	800,000	-0,065	-0,148
-728,167	-200,000	0,004	0,044
-727,152	56,305	-0,031	-0,022
-726,137	800,000	-0,035	0,095
-725,123	246,249	-0,016	0,020
-724,108	-67,340	-0,132	-0,037
-723,094	-200,000	-0,006	-0,107
-722,079	-2,283	0,058	-0,029
-721,064	-26,651	-0,122	0,052
-720,050	100,003	0,058	-0,049
-719,035	-16,612	-0,096	0,044
-718,021	-142,945	-0,128	-0,009
-717,006	82,118	-0,040	-0,032
-715,991	705,734	-0,071	-0,137
-714,977	-200,000	-0,008	-0,067
-713,962	71,045	-0,134	0,101
-712,948	-88,966	0,096	0,021
-711,933	728,223	-0,041	-0,080
-710,918	800,000	-0,027	-0,059
-709,904	329,844	-0,076	0,106
-708,889	-200,000	0,015	-0,116
-707,875	-80,824	-0,119	-0,029
-706,860	-60,402	-0,057	0,018
-705,845	33,812	-0,020	-0,012
-704,831	-139,237	-0,077	-0,006
-703,816	376,133	-0,034	0,051
-702,802	99,083	-0,036	-0,030
-701,787	20,764	0,157	-0,092
-700,772	-200,000	0,014	-0,089
-699,758	-200,000	-0,013	0,060
-698,743	-200,000	0,012	-0,063
-697,729	-200,000	-0,004	0,091
-696,714	-200,000	0,020	-0,113
-695,699	-200,000	-0,035	-0,135
-694,685	-200,000	-0,000	0,044
-693,670	-200,000	-0,020	-0,193
-692,656	-200,000	-0,008	0,070
-691,641	-132,191	-0,124	0,012
-690,627	-200,000	-0,015	-0,081
-689,612	-15,612	0,114	-0,053
-688,597	55,544	0,055	-0,039
-687,583	254,597	-0,102	-0,128
-686,568	502,350	-0,079	-0,133
-685,554	800,000	-0,041	-0,094
-684,539	124,959	-0,072	0,066
-683,524	7,301	0,066	0,036
-682,510	28,185	-0,055	-0,034
-681,495	601,828	0,047	0,084
-680,481	-200,000	-0,018	-0,141
-679,466	-139,933	-0,185	0,014
-678,451	-200,000	0,006	-0,061
-677,437	-66,789	-0,049	0,014
-676,422	271,403	0,115	-0,148
-675,408	-46,372	0,056	-0,020
-674,393	129,086	-0,040	-0,037
-673,378	-66,114	-0,160	-0,046
-672,364	-117,422	-0,063	-0,008
-671,349	95,352	0,040	-0,033
-670,335	350,093	0,045	0,065
-669,320	-25,632	0,115	-0,049
-668,305	297,835	0,059	0,079
-667,291	-135,961	-0,125	-0,011
-666,276	-75,871	-0,049	0,013
-665,262	-200,000	0,027	-0,115
-664,247	-200,000	0,004	-0,083
-663,232	31,083	0,166	-0,103
-662,218	96,233	-0,015	0,012
-661,203	800,000	-0,041	0,107
-660,189	259,367	0,083	-0,104
-659,174	-200,000	0,003	-0,055
-658,159	-200,000	-0,017	-0,097
-657,145	-200,000	0,002	-0,117
-656,130	-200,000	0,019	-0,114
-655,116	-200,000	0,001	-0,026
-654,101	209,311	-0,035	-0,040
-653,086	796,636	0,029	0,057
-652,072	40,488	-0,076	-0,049
-651,057	9,853	-0,057	-0,031
-650,043	30,179	-0,135	-0,084
-649,028	12,536	-0,089	0,049
-648,014	800,000	-0,018	-0,048
-646,999	-200,000	-0,014	0,054
-645,984	-29,637	0,034	-0,014
-644,970	111,533	-0,066	-0,058
-643,955	-125,884	-0,119	0,013
-642,941	-200,000	0,012	-0,098
-641,926	-76,492	-0,117	-0,030
-640,911	-148,847	-0,207	0,012
-639,897	-200,000	0,011	0,087
-638,882	-49,883	0,154	-0,053
-637,868	47,865	-0,141	-0,095
-636,853	-152,737	0,054	-0,003
-635,838	61,442	0,025	-0,018
-634,824	-176,089	-0,077	-0,001
-633,809	41,833	-0,088	-0,058
-632,795	57,650	0,056	-0,040
-631,780	29,294	0,115	-0,070
-630,765	-200,000	-0,005	-0,062
-629,751	-81,958	0,152	0,036
-628,736	-34,628	-0,044	-0,018
-627,722	39,155	-0,111	0,072
-626,707	246,054	0,076	-0,093
-625,692	59,646	-0,045	-0,032
-624,678	-116,983	-0,068	0,009
-623,663	-200,000	0,000	0,095
-622,649	-200,000	-0,016	0,050
-621,634	269,956	-0,084	-0,107
-620,619	-24,553	0,068	0,029
-619,605	-53,344	-0,193	0,064
-618,590	178,308	0,096	0,102
-617,576	372,729	0,028	0,042
-616,561	88,921	0,054	0,044
-615,546	-21,531	-0,178	-0,079
-614,532	-62,518	-0,064	-0,019
-613,517	-200,000	-0,009	-0,130
-612,503	800,000	0,017	0,040
-611,488	145,311	0,124	-0,120
-610,474	-200,000	0,004	0,107
-609,459	-196,075	-0,064	0,000
-608,444	-10,286	-0,096	-0,046
-607,430	-96,549	-0,119	0,023
-606,415	208,106	-0,025	-0,028
-605,401	32,148	0,149	0,093
-604,386	-90,790	0,040	-0,008
-603,371	-200,000	0,002	-0,121
-602,357	17,014	-0,037	0,021
-601,342	-118,249	0,124	0,016
-600,328	-21,216	-0,124	-0,055
-599,313	402,428	-0,084	-0,129
-598,298	18,682	0,129	-0,075
-597,284	-79,175	-0,026	-0,006
-596,269	348,480	0,029	0,042
-595,255	-169,444	-0,021	0,001
-594,240	20,547	-0,045	-0,026
-593,225	800,000	-0,013	-0,041
-592,211	800,000	0,016	-0,048
-591,196	161,303	0,042	-0,042
-590,182	-6,229	-0,120	0,059
-589,167	90,246	-0,049	-0,039
-588,152	40,992	-0,036	-0,023
-587,138	-200,000	0,009	-0,063
-586,123	-121,078	-0,120	0,014
-585,109	-25,453	-0,112	-0,048
-584,094	1,891	-0,120	-0,063
-583,079	-200,000	0,044	0,141
-582,065	800,000	-0,054	-0,109
-581,050	-200,000	-0,022	0,198
-580,036	-200,000	-0,008	0,100
-579,021	20,374	-0,115	-0,067
-578,006	-168,323	-0,159	-0,004
-576,992	263,516	-0,032	0,040
-575,977	-200,000	-0,015	0,060
-574,963	69,020	0,028	-0,021
-573,948	66,404	-0,095	-0,070
-572,934	30,846	-0,114	0,071
-571,919	0,916	-0,127	0,066
-570,904	63,881	0,048	-0,035
-569,890	800,000	-0,045	-0,106
-568,875	-54,463	-0,059	0,019
-567,861	-145,941	-0,069	-0,004
-566,846	-200,000	-0,002	0,026
-565,831	800,000	-0,087	-0,207
-564,817	-31,398	0,036	-0,015
-563,802	257,730	-0,070	0,088
-562,788	-164,834	0,024	0,001
-561,773	23,565	-0,055	0,033
-560,758	187,929	-0,087	0,094
-559,744	-74,402	-0,006	0,002
-558,729	-6,483	-0,091	-0,045
-557,715	216,992	-0,053	0,061
-556,700	262,055	-0,043	-0,053
-555,685	251,811	0,024	-0,029
-554,671	-59,703	-0,032	0,010
-553,656	-200,000	0,003	-0,013
-552,642	336,397	0,091	0,129
-551,627	17,758	-0,045	-0,026
-550,612	800,000	-0,036	-0,082
-549,598	-152,819	-0,068	0,003
-548,583	147,746	-0,091	0,088
-547,569	253,449	-0,081	-0,100
-546,554	-135,061	0,131	0,011
-545,539	-200,000	0,015	0,051
-544,525	-11,095	0,099	-0,047
-543,510	652,213	-0,092	0,172
-542,496	800,000	0,018	0,052
-541,481	-200,000	0,029	-0,164
-540,466	169,103	-0,030	-0,031
-539,452	800,000	-0,024	-0,072
-538,437	1,819	0,081	0,042
-537,423	158,970	0,092	-0,093
-536,408	139,506	-0,089	-0,085
-535,393	-85,565	-0,016	0,004
-534,379	428,675	-0,025	0,039
-533,364	-200,000	0,003	-0,043
-532,350	9,378	0,068	0,037
-531,335	431,898	0,012	-0,018
-530,321	59,249	0,095	0,067
-529,306	800,000	0,040	-0,091
-528,291	800,000	-0,034	0,072
-527,277	-200,000	0,025	-0,087
-526,262	659,751	-0,055	-0,102
-525,248	-53,883	0,159	0,052
-524,233	389,912	0,061	0,091
-523,218	-200,000	0,012	-0,055
-522,204	289,543	0,058	0,077
-521,189	122,355	-0,064	0,058
-520,175	-138,437	0,041	0,003
-519,160	128,764	0,061	-0,056
-518,145	49,481	-0,014	0,010
-517,131	371,977	-0,059	0,086
-516,116	84,529	-0,060	-0,047
-515,102	-187,404	-0,100	0,001
-514,087	-200,000	0,018	-0,063
-513,072	-200,000	0,013	0,076
-512,058	-48,040	-0,097	0,034
-511,043	130,180	0,136	0,126
-510,029	31,335	0,110	-0,068
-509,014	-200,000	0,016	-0,079
-507,999	319,752	-0,077	0,105
-506,985	-33,882	0,063	-0,025
-505,970	63,404	-0,057	-0,041
-504,956	383,319	-0,011	-0,017
-503,941	-200,000	0,002	-0,198
-502,926	599,260	-0,067	-0,120
-501,912	423,356	-0,013	0,021
-500,897	140,265	0,065	-0,062
-499,883	538,702	-0,046	-0,080
-498,868	-200,000	-0,026	0,130
-497,853	-42,238	-0,071	0,026
-496,839	121,842	-0,048	0,043
-495,824	-200,000	0,017	0,069
-494,810	-111,342	0,134	0,020
-493,795	17,160	0,056	0,032
-492,781	337,786	0,110	0,154
-491,766	21,088	0,070	-0,041
-490,751	781,905	-0,014	0,028
-489,737	-59,878	0,092	-0,028
-488,722	-200,000	-0,019	0,102
-487,708	-200,000	-0,003	0,042
-486,693	190,473	-0,069	0,074
-485,678	144,466	-0,059	-0,057
-484,664	-95,998	-0,105	-0,020
-483,649	269,635	-0,058	-0,073
-482,635	800,000	0,037	0,083
-481,620	-14,092	0,055	0,025
-480,605	607,516	0,035	-0,063
-479,591	247,705	-0,042	-0,051
-478,576	800,000	-0,042	0,089
-477,562	430,546	-0,023	-0,036
-476,547	432,028	-0,096	-0,150
-475,532	-49,669	-0,065	0,022
-474,518	800,000	0,058	-0,118
-473,503	-93,598	0,142	0,028
-472,489	-200,000	-0,001	-0,040
-471,474	-200,000	-0,010	0,107
-470,459	123,206	0,066	0,060
-469,445	72,882	-0,058	-0,044
-468,430	521,114	0,058	-0,099
-467,416	177,246	0,103	0,108
-466,401	198,507	-0,037	-0,041
-465,386	254,379	0,051	-0,063
-464,372	-200,000	-0,015	-0,090
-463,357	-200,000	-0,003	0,058
-462,343	-200,000	0,005	-0,095
-461,328	-117,230	-0,056	0,007
-460,313	235,837	0,054	0,064
-459,299	10,882	-0,125	-0,068
-458,284	-116,375	0,135	-0,018
-457,270	45,111	0,045	0,030
-456,255	-200,000	0,019	0,135
-455,241	-200,000	-0,000	-0,061
-454,226	286,712	-0,051	0,067
-453,211	125,497	-0,051	0,047
-452,197	-92,461	0,099	-0,020
-451,182	-67,854	-0,155	-0,043
-450,168	754,673	0,029	-0,057
-449,153	178,915	0,056	0,059
-448,138	9,259	0,132	-0,072
-447,124	214,494	0,059	-0,068
-446,109	487,685	-0,008	-0,013
-445,095	-200,000	0,003	0,094
-444,080	252,301	0,059	0,073
-443,065	178,557	0,033	-0,035
-442,051	312,722	0,092	0,124
-441,036	273,398	-0,062	-0,080
-440,022	-200,000	-0,018	0,058
-439,007	-200,000	-0,013	-0,042
-437,992	12,761	0,045	-0,025
-436,978	-161,439	-0,107	-0,004
-435,963	-23,444	0,058	0,025
-434,949	9,694	0,055	0,030
-433,934	-109,408	-0,145	0,022
-432,919	-200,000	0,016	-0,217
-431,905	53,130	-0,057	-0,039
-430,890	92,539	0,121	0,098
-429,876	111,683	-0,029	0,025
-428,861	-191,764	0,140	0,001
-427,846	142,828	0,022	-0,021
-426,832	800,000	-0,025	-0,075
-425,817	-34,995	-0,052	0,020
-424,803	381,280	-0,018	0,027
-423,788	278,436	-0,024	-0,031
-422,773	83,230	0,030	-0,024
-421,759	240,635	-0,020	-0,024
-420,744	-200,000	0,029	-0,139
-419,730	-200,000	-0,000	-0,049
-418,715	-88,222	0,038	0,008
-417,701	-69,763	0,111	0,030
-416,686	27,130	-0,014	0,008
-415,671	28,839	0,101	-0,061
-414,657	-55,842	0,043	-0,014
-413,642	-152,145	-0,043	-0,002
-412,628	-200,000	-0,013	-0,060
-411,613	-36,823	-0,070	-0,027
-410,598	430,524	-0,046	0,072
-409,584	-29,591	0,057	-0,023
-408,569	225,421	0,178	-0,208
-407,555	800,000	-0,026	-0,060
-406,540	-53,769	0,090	0,029
-405,525	-37,984	0,131	-0,050
-404,511	-45,038	0,093	-0,033
-403,496	800,000	-0,093	0,185
-402,482	306,800	-0,008	-0,011
-401,467	330,670	0,046	0,064
-400,452	441,210	0,056	0,088
-399,438	-200,000	0,022	0,073
-398,423	45,769	-0,035	0,023
-397,409	343,262	0,035	0,050
-396,394	-42,336	0,107	0,039
-395,379	-200,000	0,001	-0,035
-394,365	-118,217	-0,130	-0,016
-393,350	134,186	0,060	0,056
-392,336	-119,232	-0,168	-0,021
-391,321	-165,361	0,067	-0,002
-390,306	-135,272	-0,107	-0,009
-389,292	800,000	-0,041	-0,088
-388,277	-19,111	0,126	0,056
-387,263	327,780	-0,097	0,134
-386,248	-200,000	-0,001	0,068
-385,233	-64,480	0,105	-0,030
-384,219	93,409	0,082	0,066
-383,204	244,987	0,045	-0,054
-382,190	800,000	-0,015	0,034
-381,175	-200,000	-0,026	-0,105
-380,160	-10,211	0,129	0,061
-379,146	224,346	0,119	0,138
-378,131	-76,486	-0,097	0,024
-377,117	221,260	-0,046	-0,053
-376,102	228,868	0,027	0,032
-375,088	-70,278	-0,175	-0,047
-374,073	649,590	-0,020	0,038
-373,058	800,000	0,023	0,052
-372,044	122,079	0,050	0,045
-371,029	800,000	-0,034	-0,096
-370,015	1,692	-0,052	0,027
-369,000	-83,553	-0,047	0,011
-367,985	83,061	0,036	0,028
-366,971	83,824	0,096	-0,075
-365,956	-10,235	0,144	-0,068
-364,942	13,064	0,052	-0,029
-363,927	800,000	0,031	0,090
-362,912	-200,000	0,016	0,065
-361,898	-200,000	-0,001	0,040
-360,883	338,490	0,058	0,081
-359,869	-121,897	-0,032	0,004
-358,854	362,967	0,033	0,048
-357,839	-37,218	-0,109	-0,042
-356,825	-32,146	0,013	0,005
-355,810	-200,000	-0,024	0,098
-354,796	634,606	-0,024	0,044
-353,781	390,225	-0,051	-0,076
-352,766	12,641	0,047	-0,026
-351,752	-30,520	-0,094	0,038
-350,737	117,139	0,098	0,086
-349,723	800,000	-0,064	-0,159
-348,708	-69,820	0,106	0,029
-347,693	-88,017	0,141	-0,030
-346,679	81,879	0,097	-0,075
-345,664	78,695	0,077	-0,059
-344,650	-200,000	-0,039	-0,171
-343,635	-200,000	-0,003	-0,023
-342,620	120,485	-0,119	0,106
-341,606	-8,486	-0,082	0,039
-340,591	800,000	-0,056	0,130
-339,577	-92,186	0,124	0,025
-338,562	680,782	0,011	0,020
-337,548	-14,254	0,056	0,026
-336,533	377,559	0,019	0,028
-335,518	23,105	-0,048	-0,028
-334,504	61,462	0,129	0,092
-333,489	-200,000	-0,012	-0,131
-332,475	-43,307	0,083	0,030
-331,460	209,497	-0,073	-0,082
-330,445	-200,000	-0,167	-0,001
-329,431	-36,114	0,062	-0,024
-328,416	82,168	-0,028	-0,022
-327,402	-73,237	0,126	0,033
-326,387	-145,818	-0,140	-0,009
-325,372	14,632	-0,017	0,010
-324,358	800,000	0,032	-0,092
-323,343	800,000	0,050	0,122
-322,329	-200,000	-0,008	0,148
-321,314	-200,000	-0,033	0,127
-320,299	90,461	0,092	0,074
-319,285	-56,399	-0,027	-0,009
-318,270	-27,637	-0,078	-0,032
-317,256	-200,000	-0,009	0,041
-316,241	276,392	-0,006	0,007
-315,226	800,000	-0,076	0,151
-314,212	800,000	0,047	0,122
-313,197	-106,187	0,152	0,024
-312,183	-200,000	-0,027	0,134
-311,168	159,037	0,053	-0,052
-310,153	123,717	0,059	-0,053
-309,139	-200,000	0,007	-0,068
-308,124	-49,533	-0,104	-0,035
-307,110	646,340	0,079	0,146
-306,095	-200,000	0,004	-0,081
-305,080	800,000	0,028	-0,087
-304,066	800,000	0,072	0,147
-303,051	77,549	-0,106	-0,081
-302,037	427,582	-0,029	-0,045
-301,022	220,311	0,059	-0,068
-300,008	-200,000	0,017	0,056
-298,993	135,596	0,060	-0,056
-297,978	800,000	0,047	0,137
-296,964	579,888	0,043	0,075
-295,949	-1,169	-0,059	0,030
-294,935	60,338	-0,035	0,025
-293,920	6,300	0,046	0,025
-292,905	-200,000	0,059	-0,229
-291,891	-67,513	0,118	-0,033
-290,876	241,274	0,009	-0,011
-289,862	-117,094	-0,062	0,008
-288,847	88,542	-0,155	-0,123
-287,832	358,841	-0,116	-0,167
-286,818	514,760	0,034	0,056
-285,803	800,000	-0,023	0,053
-284,789	-86,176	-0,044	-0,010
-283,774	205,823	-0,026	-0,029
-282,759	-200,000	0,022	0,083
-281,745	59,525	-0,131	0,092
-280,730	113,745	-0,146	-0,127
-279,716	229,337	0,056	0,066
-278,701	-200,000	0,022	0,097
-277,686	-200,000	0,002	0,047
-276,672	231,881	-0,059	0,069
-275,657	-163,258	0,071	-0,002
-274,643	-91,738	-0,080	0,016
-273,628	272,597	0,042	-0,054
-272,613	-200,000	-0,010	-0,178
-271,599	-177,355	0,020	-0,000
-270,584	-91,611	0,101	0,020
-269,570	478,884	-0,030	0,049
-268,555	695,513	0,076	0,144
-267,540	-97,530	-0,082	-0,015
-266,526	-151,346	0,066	-0,003
-265,511	233,438	0,048	-0,056
-264,497	-200,000	-0,002	0,080
-263,482	462,416	-0,065	0,104
-262,467	165,269	0,050	0,051
-261,453	-200,000	-0,014	-0,048
-260,438	-165,120	0,111	0,003
-259,424	233,350	-0,107	-0,126
-258,409	503,363	-0,051	0,084
-257,395	265,573	0,050	0,063
-256,380	800,000	-0,042	0,091
-255,365	617,903	0,103	0,186
-254,351	392,398	-0,091	0,135
-253,336	37,863	-0,062	-0,040
-252,322	-62,396	0,118	-0,035
-251,307	-79,918	0,108	-0,026
-250,292	235,769	0,058	0,068
-249,278	258,071	0,050	-0,062
-248,263	27,577	0,043	-0,026
-247,249	-200,000	-0,008	0,067
-246,234	104,593	0,020	0,017
-245,219	-49,655	-0,116	-0,039
-244,205	-200,000	-0,003	-0,122
-243,190	483,522	0,029	-0,048
-242,176	-37,368	0,117	0,044
-241,161	-26,898	-0,098	-0,041
-240,146	69,348	-0,107	-0,079
-239,132	161,117	0,034	0,034
-238,117	-135,111	-0,095	0,008
-237,103	156,978	-0,086	-0,085
-236,088	212,697	0,076	-0,086
-235,073	540,628	0,094	-0,160
-234,059	-200,000	-0,007	0,066
-233,044	74,859	0,068	0,051
-232,030	-200,000	-0,023	-0,163
-231,015	81,842	0,064	-0,050
-230,000	-200,000	0,024	0,112
-228,986	-66,906	0,025	0,007
-227,971	-200,000	0,046	0,152
-226,957	-200,000	0,014	0,054
-225,942	-31,550	-0,103	-0,041
-224,927	22,453	-0,060	-0,035
-223,913	435,507	0,057	0,089
-222,898	-200,000	0,006	-0,079
-221,884	378,259	-0,049	0,072
-220,869	-87,025	-0,023	-0,005
-219,855	117,297	-0,115	0,101
-218,840	6,589	0,206	0,109
-217,825	502,861	0,005	-0,008
-216,811	113,555	-0,091	0,079
-215,796	-200,000	-0,012	-0,120
-214,782	800,000	-0,017	-0,036
-213,767	-35,275	-0,053	0,020
-212,752	130,119	0,097	0,088
-211,738	354,018	0,051	0,072
-210,723	84,285	-0,224	0,174
-209,709	-118,110	0,056	-0,007
-208,694	51,171	0,133	-0,090
-207,679	-200,000	0,039	-0,128
-206,665	-21,027	0,115	-0,050
-205,650	-200,000	0,013	0,125
-204,636	26,629	0,151	0,090
-203,621	800,000	0,042	-0,101
-202,606	-122,871	0,125	-0,014
-201,592	149,269	-0,035	-0,034
-200,577	37,639	-0,194	-0,122
-199,563	-3,872	0,101	-0,050
-198,548	-123,149	-0,076	-0,009
-197,533	75,485	0,041	0,031
-196,519	800,000	-0,028	0,076
-195,504	-97,282	-0,023	-0,004
-194,490	800,000	-0,044	-0,136
-193,475	380,971	-0,083	0,122
-192,460	800,000	-0,028	-0,057
-191,446	-118,991	0,066	0,008
-190,431	-63,035	-0,091	-0,027
-189,417	-7,510	0,097	0,047
-188,402	-4,863	0,101	-0,050
-187,387	-200,000	-0,004	-0,178
-186,373	800,000	0,057	-0,162
-185,358	-200,000	0,000	-0,080
-184,344	-102,041	0,090	0,015
-183,329	96,380	0,089	-0,073
-182,315	130,142	-0,116	-0,105
-181,300	-86,956	0,067	0,014
-180,285	-19,682	0,090	-0,039
-179,271	55,128	0,065	0,045
-178,256	34,258	-0,084	-0,052
-177,242	646,603	-0,015	0,027
-176,227	198,628	0,044	0,048
-175,212	650,449	0,051	-0,094
-174,198	-200,000	-0,018	-0,072
-173,183	-107,841	-0,051	0,008
-172,169	-200,000	-0,030	0,111
-171,154	-4,893	-0,119	-0,058
-170,139	69,359	-0,098	0,072
-169,125	-200,000	-0,006	0,158
-168,110	265,023	0,057	0,071
-167,096	-200,000	0,003	0,162
-166,081	800,000	0,057	0,119
-165,066	-200,000	-0,037	-0,232
-164,052	-200,000	-0,003	-0,070
-163,037	98,965	0,146	0,120
-162,023	-123,468	0,008	0,001
-161,008	-200,000	-0,029	0,124
-159,993	-200,000	0,007	0,048
-158,979	-126,965	-0,178	0,018
-157,964	52,957	0,133	-0,090
-156,950	54,676	-0,124	-0,085
-155,935	119,100	0,062	-0,055
-154,920	-5,901	-0,011	-0,005
-153,906	800,000	-0,007	-0,015
-152,891	371,871	0,050	0,072
-151,877	-16,743	-0,048	0,021
-150,862	168,802	-0,083	-0,084
-149,847	93,592	-0,045	-0,037
-148,833	27,771	-0,101	-0,061
-147,818	-82,935	0,126	-0,029
-146,804	487,720	0,032	0,053
-145,789	-117,103	0,093	-0,012
-144,775	504,458	-0,006	-0,010
-143,760	800,000	-0,050	-0,111
-142,745	46,551	-0,019	-0,013
-141,731	-133,485	-0,038	-0,003
-140,716	800,000	0,058	-0,126
-139,702	-200,000	-0,002	0,050
-138,687	-115,862	0,079	0,010
-137,672	-75,064	0,030	-0,007
-136,658	-200,000	-0,017	-0,106
-135,643	-99,530	0,080	0,014
-134,629	800,000	-0,018	-0,037
-133,614	-58,912	-0,072	0,022
-132,599	-200,000	0,008	0,132
-131,585	800,000	-0,038	0,094
-130,570	588,282	0,060	-0,106
-129,556	-13,521	-0,107	-0,049
-128,541	800,000	0,002	0,005
-127,526	-200,000	0,184	0,000
-126,512	800,000	0,027	0,082
-125,497	-21,530	0,087	0,038
-124,483	-136,637	-0,047	0,004
-123,468	-72,093	-0,069	-0,018
-122,453	-200,000	-0,004	-0,055
-121,439	-130,725	0,081	0,008
-120,424	-200,000	0,010	-0,040
-119,410	-186,220	-0,013	-0,000
-118,395	-109,934	-0,230	-0,034
-117,380	-20,858	0,145	0,063
-116,366	-200,000	0,008	-0,026
-115,351	38,693	-0,182	-0,115
-114,337	586,857	0,039	-0,069
-113,322	171,353	-0,119	0,122
-112,307	-200,000	0,015	0,088
-111,293	800,000	0,053	-0,118
-110,278	-48,059	0,041	-0,014
-109,264	-200,000	0,007	0,067
-108,249	742,817	0,044	-0,084
-107,234	-200,000	0,019	0,065
-106,220	505,734	-0,059	-0,098
-105,205	83,252	0,126	-0,098
-104,191	-200,000	0,029	0,170
-103,176	-152,514	-0,031	-0,002
-102,162	-200,000	-0,020	0,077
-101,147	-34,847	-0,047	0,018
-100,132	58,777	-0,094	-0,065
-99,118	47,926	0,034	0,022
-98,103	-200,000	0,009	0,135
-97,089	36,579	-0,084	-0,053
-96,074	800,000	0,022	-0,063
-95,059	74,141	0,033	-0,024
-94,045	-111,189	-0,107	0,015
-93,030	131,425	-0,057	-0,052
-92,016	7,285	-0,149	-0,079
-91,001	160,879	0,041	-0,041
-89,986	-200,000	0,023	-0,077
-88,972	-200,000	-0,013	0,042
-87,957	800,000	-0,028	0,058
-86,943	12,318	-0,061	0,033
-85,928	800,000	-0,044	-0,094
-84,913	47,810	-0,124	-0,082
-83,899	800,000	0,007	-0,016
-82,884	800,000	-0,012	-0,026
-81,870	180,641	-0,070	-0,073
-80,855	800,000	-0,002	0,004
-79,840	29,489	-0,082	-0,049
-78,826	-92,109	-0,135	0,027
-77,811	211,994	-0,040	0,044
-76,797	800,000	-0,036	-0,088
-75,782	-48,698	0,103	0,035
-74,767	459,041	0,044	0,070
-73,753	-91,137	-0,077	-0,015
-72,738	-200,000	-0,008	-0,155
-71,724	286,225	-0,047	-0,060
-70,709	541,333	0,083	0,140
-69,694	87,025	-0,032	-0,025
-68,680	424,637	-0,102	0,156
-67,665	-23,563	0,167	0,071
-66,651	79,296	0,131	0,100
-65,636	47,666	-0,081	0,054
-64,622	-119,130	0,065	-0,008
-63,607	-19,581	-0,057	0,025
-62,592	303,275	0,016	0,021
-61,578	-200,000	-0,012	0,123
-60,563	82,326	0,113	0,087
-59,549	-34,431	-0,081	0,031
-58,534	-89,443	-1,398	-0,289
-57,519	351,017	-1,556	-2,190
-56,505	-200,000	-0,412	-4,488
-55,490	107,226	0,881	0,743
-54,476	800,000	4,816	11,291
-53,461	-200,000	17,581	278,503
-52,446	800,000	719,498	2212,670
-51,432	559,078	1633,723	2806,958
-50,417	80,990	1657,752	1267,312
-49,403	23,923	1531,844	893,231
-48,388	17,937	1455,048	819,602
-47,373	18,309	1444,537	815,430
-46,359	17,972	1435,096	808,465
-45,344	16,232	1430,671	797,673
-44,330	16,102	1428,828	795,998
-43,315	16,165	1426,932	795,207
-42,300	16,167	1425,485	794,381
-41,286	16,232	1423,978	793,816
-40,271	16,221	1422,705	793,025
-39,257	16,195	1421,649	792,279
-38,242	16,212	1419,995	791,408
-37,227	16,212	1418,963	790,801
-36,213	16,220	1417,629	790,062
-35,198	16,173	1416,507	789,186
-34,184	16,208	1415,663	788,850
-33,169	16,162	1414,366	787,877
-32,154	16,165	1413,410	787,326
-31,140	16,236	1411,812	786,740
-30,125	16,250	1410,847	786,237
-29,111	16,211	1409,664	785,362
-28,096	16,176	1408,715	784,638
-27,082	16,116	1407,616	783,716
-26,067	16,120	1406,466	783,066
-25,052	16,146	1405,370	782,545
-24,038	16,106	1404,482	781,833
-23,023	16,132	1403,197	781,204
-22,009	16,116	1402,336	780,623
-20,994	16,057	1401,460	779,830
-19,979	16,066	1400,554	779,333
-18,965	16,082	1399,395	778,735
-17,950	16,084	1398,477	778,203
-16,936	16,090	1397,505	777,658
-15,921	16,054	1396,432	776,862
-14,906	16,060	1395,378	776,272
-13,892	16,033	1394,402	775,576
-12,877	16,091	1393,408	775,260
-11,863	16,059	1392,482	774,565
-10,848	16,026	1391,742	773,970
-9,833	16,012	1390,782	773,339
-8,819	15,939	1390,086	772,585
-7,804	15,967	1388,987	772,072
-6,790	15,973	1387,712	771,361
-5,775	15,904	1386,934	770,582
-4,760	15,899	1386,176	770,107
-3,746	15,904	1385,241	769,581
-2,731	15,942	1384,408	769,259
-1,717	15,907	1383,474	768,553
-0,702	15,934	1381,680	767,647
0,313	19,699	1302,747	741,160
1,327	36,058	706,806	440,027
2,342	55,319	125,353	85,781
3,356	3,331	16,587	8,528
4,371	-8,680	3,200	1,516
5,386	23,570	0,443	0,258
6,400	-69,256	0,062	-0,017
7,415	101,753	-0,180	-0,149
8,429	150,979	-0,293	-0,283
9,444	63,737	-0,427	-0,303
10,459	3,034	-0,322	-0,165
11,473	44,118	-0,271	-0,175
12,488	462,117	-0,159	-0,252
13,502	-29,717	-0,392	-0,158
14,517	149,429	-0,188	-0,181
15,531	129,547	-0,277	-0,251
16,546	28,587	-0,308	-0,184
17,561	44,403	-0,361	-0,234
18,575	51,818	-0,279	-0,188
19,590	123,421	-0,213	-0,189
20,604	-31,639	-0,263	-0,104
21,619	79,180	-0,478	-0,362
22,634	92,805	-0,430	-0,343
23,648	127,663	-0,400	-0,359
24,663	23,976	-0,537	-0,313
25,677	-2,067	-0,327	-0,162
26,692	87,595	-0,283	-0,221
27,707	-67,483	-0,399	-0,110
28,721	-52,420	-0,374	-0,121
29,736	6,709	-0,502	-0,263
30,750	77,897	-0,496	-0,373
31,765	-6,982	-0,434	-0,208
32,780	109,245	-0,418	-0,354
33,794	56,093	-0,314	-0,215
34,809	89,757	-0,386	-0,304
35,823	36,302	-0,350	-0,217
36,838	61,424	-0,382	-0,268
37,853	297,977	-0,299	-0,389
38,867	119,323	-0,408	-0,356
39,882	82,331	-0,375	-0,287
40,896	451,693	-0,170	-0,266
41,911	0,769	-0,294	-0,148
42,926	111,563	-0,256	-0,218
43,940	59,846	-0,334	-0,232
44,955	230,254	-0,325	-0,376
45,969	100,802	-0,443	-0,363
46,984	160,166	-0,277	-0,272
47,999	261,408	-0,211	-0,259
49,013	60,025	-0,263	-0,183
50,028	-78,416	-0,414	-0,099
51,042	144,465	-0,368	-0,347
52,057	18,935	-0,503	-0,283
53,071	70,116	-0,403	-0,293
54,086	45,130	-0,334	-0,216
55,101	41,918	-0,385	-0,246
56,115	44,590	-0,286	-0,185
57,130	111,135	-0,378	-0,321
58,144	210,725	-0,367	-0,407
59,159	53,096	-0,426	-0,287
60,174	-51,156	-0,364	-0,119
61,188	36,666	-0,324	-0,201
62,203	114,329	-0,283	-0,243
63,217	34,300	-0,323	-0,198
64,232	30,925	-0,336	-0,202
65,247	99,028	-0,312	-0,253
66,261	53,105	-0,308	-0,208
67,276	152,045	-0,232	-0,223
68,290	-2,329	-0,319	-0,157
69,305	91,151	-0,199	-0,157
70,320	120,164	-0,292	-0,255
71,334	255,941	-0,286	-0,347
72,349	16,926	-0,431	-0,239
73,363	6,630	-0,296	-0,155
74,378	-16,491	-0,413	-0,183
75,393	-52,855	-0,346	-0,112
76,407	52,236	-0,367	-0,246
77,422	67,083	-0,266	-0,191
78,436	29,785	-0,332	-0,199
79,451	7,537	-0,344	-0,180
80,466	44,140	-0,405	-0,261
81,480	-47,282	-0,398	-0,136
82,495	95,643	-0,300	-0,241
83,509	114,639	-0,209	-0,179
84,524	88,646	-0,316	-0,247
85,539	800,000	-0,087	-0,233
86,553	66,720	-0,308	-0,220
87,568	50,171	-0,293	-0,194
88,582	122,834	-0,273	-0,240
89,597	-39,889	-0,357	-0,130
90,611	358,381	-0,231	-0,325
91,626	650,181	-0,224	-0,404
92,641	143,369	-0,140	-0,131
93,655	-1,857	-0,245	-0,121
94,670	26,575	-0,273	-0,160
95,684	176,638	-0,182	-0,186
96,699	172,227	-0,281	-0,284
97,714	207,939	-0,187	-0,206
98,728	277,770	-0,234	-0,293
99,743	-20,189	-0,235	-0,101
100,757	120,611	-0,305	-0,266
101,772	231,033	-0,243	-0,280
102,787	-29,285	-0,231	-0,093
103,801	107,244	-0,329	-0,274
104,816	76,438	-0,281	-0,209
105,830	48,472	-0,212	-0,139
106,845	-12,423	-0,276	-0,126
107,860	28,658	-0,221	-0,131
108,874	25,464	-0,254	-0,148
109,889	76,856	-0,278	-0,207
110,903	86,907	-0,283	-0,220
111,918	171,629	-0,263	-0,265
112,933	291,709	-0,184	-0,235
113,947	-113,108	-0,350	-0,048
114,962	164,148	-0,269	-0,266
115,976	-39,167	-0,398	-0,146
116,991	70,799	-0,261	-0,189
118,006	112,111	-0,249	-0,211
119,020	133,749	-0,288	-0,261
120,035	-1,630	-0,151	-0,074
121,049	27,302	-0,257	-0,151
122,064	115,344	-0,132	-0,113
123,079	-85,582	-0,122	-0,026
124,093	384,846	-0,156	-0,226
125,108	36,983	-0,282	-0,174
126,122	109,522	-0,260	-0,218
127,137	76,906	-0,279	-0,208
128,151	800,000	-0,123	-0,306
129,166	293,382	-0,152	-0,195
130,181	112,129	-0,275	-0,233
131,195	151,346	-0,242	-0,231
132,210	71,584	-0,278	-0,202
133,224	23,782	-0,308	-0,177
134,239	268,226	-0,253	-0,312
135,254	194,834	-0,217	-0,231
136,268	271,042	-0,241	-0,298
137,283	61,614	-0,287	-0,200
138,297	255,107	-0,122	-0,146
139,312	197,689	-0,212	-0,227
140,327	15,622	-0,255	-0,140
141,341	244,048	-0,196	-0,231
142,356	312,061	-0,184	-0,242
143,370	-25,855	-0,208	-0,085
144,385	-122,705	-0,281	-0,031
145,400	140,140	-0,241	-0,223
146,414	107,774	-0,207	-0,173
147,429	507,982	-0,129	-0,211
148,443	190,635	-0,243	-0,256
149,458	-39,233	-0,242	-0,089
150,473	118,148	-0,273	-0,236
151,487	158,119	-0,249	-0,242
152,502	166,773	-0,158	-0,157
153,516	67,958	-0,413	-0,295
154,531	395,460	-0,165	-0,241
155,546	65,226	-0,307	-0,217
156,560	800,000	-0,067	-0,156
157,575	147,566	-0,211	-0,199
158,589	-11,169	-0,259	-0,119
159,604	389,310	-0,183	-0,266
160,619	-36,362	-0,250	-0,094
161,633	130,520	-0,239	-0,214
162,648	326,926	-0,175	-0,235
163,662	15,588	-0,325	-0,178
164,677	120,916	-0,187	-0,163
165,692	89,003	-0,223	-0,173
166,706	87,528	-0,334	-0,258
167,721	113,600	-0,243	-0,206
168,735	478,379	-0,138	-0,218
169,750	-38,606	-0,342	-0,125
170,764	800,000	-0,111	-0,240
171,779	-47,787	-0,274	-0,092
172,794	800,000	-0,090	-0,177
173,808	158,508	-0,278	-0,269
174,823	55,875	-0,231	-0,156
175,837	40,137	-0,194	-0,121
176,852	-100,002	-0,288	-0,050
177,867	-12,490	-0,219	-0,099
178,881	20,488	-0,155	-0,087
179,896	800,000	-0,072	-0,170
180,910	130,050	-0,184	-0,164
181,925	190,269	-0,181	-0,190
182,940	-48,259	-0,260	-0,087
183,954	86,145	-0,271	-0,208
184,969	183,470	-0,168	-0,173
185,983	100,859	-0,189	-0,153
186,998	203,063	-0,132	-0,142
188,013	46,152	-0,296	-0,191
189,027	85,106	-0,266	-0,203
190,042	179,954	-0,282	-0,289
191,056	4,305	-0,247	-0,126
192,071	588,561	-0,178	-0,307
193,086	-3,301	-0,423	-0,205
194,100	267,245	-0,193	-0,236
195,115	-85,725	-0,103	-0,022
196,129	19,524	-0,196	-0,109
197,144	294,654	-0,226	-0,288
198,159	182,804	-0,264	-0,271
199,173	214,243	-0,124	-0,137
200,188	367,454	-0,128	-0,181
201,202	11,009	-0,145	-0,077
202,217	125,250	-0,048	-0,043
203,232	-15,787	-0,308	-0,136
204,246	159,821	-0,152	-0,148
205,261	200,839	-0,167	-0,179
206,275	503,472	-0,141	-0,228
207,290	107,060	-0,142	-0,118
208,304	90,035	-0,124	-0,096
209,319	344,672	-0,162	-0,222
210,334	193,328	-0,183	-0,193
211,348	563,880	-0,080	-0,135
212,363	252,595	-0,187	-0,223
213,377	217,503	-0,143	-0,159
214,392	-138,572	-0,198	0,015
215,407	-82,501	-0,191	-0,043
216,421	-16,355	-0,190	-0,084
217,436	174,846	-0,197	-0,199
218,450	3,338	-0,185	-0,093
219,465	235,268	-0,171	-0,197
220,480	-200,000	-0,074	-0,243
221,494	432,521	-0,154	-0,232
222,509	-34,410	-0,183	-0,069
223,523	69,081	-0,236	-0,168
224,538	315,930	-0,152	-0,199
225,553	-86,624	-0,218	-0,046
226,567	143,279	-0,196	-0,182
227,582	-200,000	0,009	-0,155
228,596	2,657	-0,237	-0,119
229,611	110,719	-0,180	-0,151
230,626	169,138	-0,201	-0,200
231,640	-97,996	-0,179	-0,032
232,655	-32,866	-0,260	-0,100
233,669	170,065	-0,215	-0,213
234,684	372,534	-0,199	-0,281
235,699	282,301	-0,147	-0,183
236,713	800,000	-0,116	-0,276
237,728	-51,522	-0,148	-0,048
238,742	15,673	-0,116	-0,063
239,757	33,681	-0,336	-0,202
240,772	66,280	-0,232	-0,163
241,786	-89,964	-0,282	-0,057
242,801	617,030	-0,077	-0,134
243,815	-200,000	-0,050	-0,187
244,830	53,007	-0,155	-0,103
245,844	110,659	-0,268	-0,224
246,859	-51,404	-0,233	-0,075
247,874	106,931	-0,230	-0,189
248,888	146,534	-0,188	-0,175
249,903	608,504	-0,058	-0,100
250,917	-69,223	-0,208	-0,055
251,932	217,159	-0,111	-0,123
252,947	-80,650	-0,191	-0,044
253,961	800,000	-0,038	-0,078
254,976	70,294	-0,195	-0,139
255,990	407,670	-0,178	-0,262
257,005	-95,689	-0,096	-0,018
258,020	-99,444	-0,164	-0,028
259,034	800,000	-0,072	-0,164
260,049	137,478	-0,113	-0,103
261,063	126,041	-0,193	-0,169
262,078	-14,315	-0,184	-0,082
263,093	-88,487	-0,248	-0,051
264,107	559,709	-0,132	-0,222
265,122	-200,000	-0,058	-0,194
266,136	120,057	-0,201	-0,172
267,151	10,748	-0,109	-0,057
268,166	20,989	-0,239	-0,134
269,180	-4,787	-0,216	-0,103
270,195	88,079	-0,198	-0,152
271,209	-200,000	-0,051	-0,227
272,224	8,455	-0,176	-0,091
273,239	592,504	-0,053	-0,090
274,253	-118,437	-0,116	-0,014
275,268	288,025	-0,098	-0,122
276,282	84,504	-0,129	-0,098
277,297	10,022	-0,171	-0,090
278,312	186,304	-0,185	-0,191
279,326	183,428	-0,138	-0,141
280,341	-128,098	-0,246	0,024
281,355	-5,913	-0,136	0,064
282,370	71,954	-0,222	-0,160
283,384	-19,213	-0,222	-0,095
284,399	331,219	-0,119	-0,159
285,414	83,050	-0,260	-0,196
286,428	70,244	-0,177	-0,126
287,443	-200,000	-0,033	-0,173
288,457	125,650	-0,086	-0,075
289,472	-44,593	-0,067	-0,023
290,487	192,867	-0,162	-0,169
291,501	15,608	-0,238	-0,129
292,516	-54,416	-0,268	-0,083
293,530	585,880	-0,103	-0,175
294,545	-142,316	-0,149	0,010
295,560	135,541	-0,138	-0,124
296,574	122,605	-0,121	-0,104
297,589	800,000	-0,178	-0,342
298,603	83,824	-0,178	-0,134
299,618	197,617	-0,071	-0,075
300,633	-92,262	-0,120	-0,023
301,647	97,023	-0,117	-0,093
302,662	-200,000	-0,011	-0,057
303,676	-113,152	-0,288	-0,039
304,691	36,336	-0,205	-0,125
305,706	123,057	-0,178	-0,154
306,720	114,466	-0,126	-0,106
307,735	77,827	-0,166	-0,122
308,749	-7,567	-0,093	-0,043
309,764	136,708	0,020	0,018
310,779	-130,093	-0,080	0,007
311,793	44,763	-0,217	-0,137
312,808	189,914	-0,163	-0,168
313,822	143,501	-0,144	-0,132
314,837	66,975	-0,103	-0,072
315,852	147,730	-0,153	-0,142
316,866	-200,000	0,002	0,016
317,881	-200,000	-0,030	-0,138
318,895	450,579	-0,105	-0,160
319,910	382,078	-0,139	-0,198
320,925	-30,214	-0,205	-0,080
321,939	688,153	-0,060	-0,108
322,954	800,000	-0,068	-0,152
323,968	-113,266	-0,216	-0,029
324,983	136,674	-0,106	-0,095
325,997	-46,268	-0,136	-0,046
327,012	84,422	-0,083	-0,062
328,027	-200,000	-0,047	-0,188
329,041	76,116	-0,162	-0,118
330,056	-33,960	-0,170	-0,064
331,070	-147,847	-0,216	-0,012
332,085	-83,396	-0,126	-0,028
333,100	-6,460	-0,095	-0,044
334,114	77,666	-0,130	-0,095
335,129	571,898	-0,127	-0,214
336,143	-200,000	0,009	-0,183
337,158	-200,000	-0,019	-0,180
338,173	150,968	-0,041	-0,038
339,187	-105,362	-0,157	-0,024
340,202	199,978	-0,113	-0,119
341,216	-7,937	-0,194	-0,090
342,231	-139,189	-0,112	-0,008
343,246	-200,000	-0,023	-0,149
344,260	-122,357	-0,144	-0,016
345,275	-200,000	-0,049	-0,153
346,289	269,717	-0,124	-0,150
347,304	117,023	-0,104	-0,088
348,319	92,895	-0,138	-0,107
349,333	-90,252	-0,171	-0,034
350,348	-58,371	-0,172	-0,051
351,362	-37,363	-0,052	-0,019
352,377	98,840	-0,055	0,044
353,392	297,523	-0,149	-0,189
354,406	-68,698	-0,158	-0,042
355,421	211,101	1311,776	1418,904
356,435	162,539	1472,181	1419,434
