DTS Sentinel unit serial number:	SN410029Multiplexer serial number:	ORYXHardware model number:	OX2-SRSoftware version number:	ORYX F/W v4,00 Oryx Data Collector v3.7.2.0data status	okinstallation	B3 Nyhavnadifferential loss correction	single-endedforward channel	channel 1reverse channel	N/Adate	2023/11/29time	23:57:30forward acquisition time	300,00reverse acquisition time	0,00gamma	499,1914k internal	0,3210k external	0,3210temperature offset calibration	1,0000default loss term (dB/km)	0,3820temperature slope calibration	1,0000multiplexer offset coefficient	1,0000multiplexer slope coefficient	1,0000fibre end	0,00T internal ref (°C)	10,88T ext. ref 1 (°C)	-4,31T ext. ref 2 (°C)	-4,41length (m)	temperature (°C)	Stokes	anti-Stokes-744,400	111,786	-0,237	-0,208
-743,385	800,000	-0,075	0,224
-742,371	276,657	-0,182	-0,236
-741,356	-200,000	-0,011	0,178
-740,342	227,956	-0,264	-0,312
-739,327	-200,000	0,103	0,378
-738,312	774,543	-0,144	-0,285
-737,298	-200,000	-0,045	0,302
-736,283	735,133	-0,099	-0,193
-735,269	-200,000	0,079	0,318
-734,254	800,000	-0,082	-0,256
-733,239	6,930	-0,242	0,130
-732,225	800,000	0,005	0,013
-731,210	-66,750	0,092	0,026
-730,196	-200,000	-0,016	0,124
-729,181	-12,244	-0,090	-0,043
-728,167	131,779	0,064	-0,059
-727,152	92,474	-0,032	0,026
-726,137	-200,000	0,013	-0,104
-725,123	-134,758	0,056	-0,005
-724,108	-200,000	-0,013	-0,210
-723,094	800,000	0,037	-0,109
-722,079	114,575	-0,153	-0,135
-721,064	-167,995	0,154	0,004
-720,050	-200,000	0,006	0,022
-719,035	2,991	-0,131	0,069
-718,021	-160,116	-0,173	0,007
-717,006	-133,498	-0,091	-0,008
-715,991	33,502	-0,137	-0,086
-714,977	800,000	-0,016	0,035
-713,962	-200,000	-0,002	-0,040
-712,948	-200,000	0,032	0,132
-711,933	-200,000	0,014	0,059
-710,918	-200,000	-0,028	0,116
-709,904	-190,430	-0,130	-0,001
-708,889	-200,000	0,030	-0,121
-707,875	202,348	-0,044	-0,049
-706,860	-200,000	-0,032	0,104
-705,845	-97,852	0,068	-0,013
-704,831	800,000	0,054	0,154
-703,816	-91,057	-0,055	-0,011
-702,802	-200,000	0,031	0,131
-701,787	-81,409	-0,074	-0,018
-700,772	157,606	-0,076	-0,076
-699,758	269,787	0,012	0,015
-698,743	450,979	0,051	0,082
-697,729	7,855	0,086	-0,047
-696,714	-200,000	-0,034	0,110
-695,699	-23,310	-0,064	-0,028
-694,685	362,211	-0,162	-0,236
-693,670	-200,000	-0,015	-0,056
-692,656	-200,000	-0,016	-0,127
-691,641	800,000	0,094	-0,212
-690,627	-200,000	0,010	0,045
-689,612	-56,686	-0,050	-0,016
-688,597	800,000	-0,012	-0,036
-687,583	-200,000	0,010	-0,137
-686,568	241,737	-0,096	-0,116
-685,554	-159,364	0,131	-0,005
-684,539	166,402	0,043	-0,044
-683,524	-6,134	0,032	-0,016
-682,510	-76,131	-0,119	-0,030
-681,495	-87,500	-0,069	0,015
-680,481	800,000	0,036	-0,102
-679,466	403,511	0,042	0,064
-678,451	543,143	-0,042	-0,073
-677,437	166,963	-0,054	-0,056
-676,422	-83,737	0,109	0,025
-675,408	471,848	-0,029	-0,048
-674,393	-121,975	0,002	0,000
-673,378	37,442	-0,066	0,042
-672,364	-200,000	-0,010	-0,128
-671,349	-145,138	0,038	0,002
-670,335	-100,606	0,055	-0,010
-669,320	212,945	-0,089	0,102
-668,305	800,000	0,030	-0,081
-667,291	-200,000	-0,005	0,047
-666,276	-71,970	-0,140	-0,038
-665,262	-200,000	0,017	0,082
-664,247	-9,130	-0,018	-0,009
-663,232	-145,224	-0,169	0,011
-662,218	556,112	0,053	0,093
-661,203	175,895	-0,055	0,057
-660,189	254,647	-0,070	0,087
-659,174	162,991	-0,072	-0,073
-658,159	800,000	-0,031	-0,092
-657,145	-200,000	-0,016	-0,125
-656,130	142,734	-0,032	-0,031
-655,116	285,344	-0,074	0,097
-654,101	800,000	-0,036	0,084
-653,086	800,000	0,007	-0,014
-652,072	-71,990	-0,131	0,035
-651,057	-163,122	-0,069	0,002
-650,043	-200,000	-0,010	-0,085
-649,028	-200,000	-0,003	-0,084
-648,014	30,693	-0,066	0,040
-646,999	81,735	0,095	-0,074
-645,984	-200,000	-0,032	-0,146
-644,970	-200,000	0,001	0,054
-643,955	-43,447	-0,026	0,010
-642,941	65,809	-0,050	-0,037
-641,926	199,533	-0,076	-0,085
-640,911	-141,382	0,118	0,009
-639,897	31,823	-0,093	-0,058
-638,882	42,333	-0,107	0,070
-637,868	107,545	0,106	0,091
-636,853	-97,306	0,022	0,004
-635,838	-189,688	-0,115	0,001
-634,824	-74,414	0,131	-0,034
-633,809	-200,000	-0,017	0,118
-632,795	737,289	0,055	0,106
-631,780	-73,657	0,025	0,007
-630,765	47,606	-0,110	-0,074
-629,751	-200,000	-0,008	-0,176
-628,736	-5,103	-0,134	-0,066
-627,722	16,536	-0,105	-0,060
-626,707	-88,026	0,094	-0,020
-625,692	800,000	-0,012	-0,031
-624,678	-62,123	0,160	0,048
-623,663	-99,839	-0,119	0,021
-622,649	460,912	-0,036	0,057
-621,634	800,000	-0,031	0,098
-620,619	-79,194	-0,140	0,034
-619,605	256,790	0,057	0,071
-618,590	77,939	0,061	-0,047
-617,576	514,201	-0,033	0,056
-616,561	-4,882	0,076	0,038
-615,546	282,381	-0,029	0,038
-614,532	340,199	-0,026	-0,037
-613,517	529,583	0,029	-0,049
-612,503	-23,400	0,105	0,045
-611,488	-92,523	-0,072	-0,015
-610,474	-200,000	0,009	0,042
-609,459	80,777	-0,048	-0,037
-608,444	-52,262	-0,031	-0,010
-607,430	-143,556	-0,191	-0,013
-606,415	38,312	-0,070	-0,045
-605,401	196,412	0,045	0,049
-604,386	-4,897	0,015	-0,007
-603,371	596,495	0,131	0,236
-602,357	230,708	-0,069	0,082
-601,342	-87,073	0,128	-0,028
-600,328	800,000	-0,032	-0,069
-599,313	-200,000	-0,037	-0,157
-598,298	143,068	-0,062	-0,060
-597,284	89,556	-0,069	0,055
-596,269	800,000	0,027	-0,083
-595,255	-135,570	0,139	0,012
-594,240	-150,301	-0,100	0,005
-593,225	-16,616	-0,217	0,099
-592,211	-200,000	-0,041	-0,142
-591,196	390,744	-0,012	0,018
-590,182	-200,000	0,001	0,029
-589,167	7,652	0,096	-0,052
-588,152	-200,000	0,023	-0,158
-587,138	-126,409	0,082	0,009
-586,123	-200,000	0,004	-0,071
-585,109	-114,359	0,083	-0,011
-584,094	9,893	-0,091	-0,050
-583,079	-200,000	0,006	-0,157
-582,065	54,683	0,114	0,079
-581,050	-7,331	-0,052	0,025
-580,036	281,192	0,122	0,158
-579,021	71,407	-0,084	-0,063
-578,006	-200,000	-0,020	-0,159
-576,992	-200,000	-0,021	0,081
-575,977	-145,303	0,132	-0,008
-574,963	68,092	0,148	0,109
-573,948	-164,766	-0,183	0,006
-572,934	-95,914	0,064	-0,012
-571,919	-96,533	0,119	0,022
-570,904	94,219	-0,094	-0,077
-569,890	220,243	-0,032	-0,037
-568,875	-99,728	0,067	-0,012
-567,861	418,420	0,070	0,108
-566,846	521,133	0,054	0,091
-565,831	666,238	-0,091	-0,169
-564,817	414,836	0,071	-0,109
-563,802	26,981	-0,063	-0,038
-562,788	-200,000	0,007	-0,022
-561,773	800,000	0,031	-0,073
-560,758	800,000	-0,042	-0,104
-559,744	78,844	0,088	-0,067
-558,729	366,311	-0,056	-0,082
-557,715	9,235	-0,062	-0,034
-556,700	-133,490	0,064	0,006
-555,685	603,266	0,033	-0,059
-554,671	-31,987	-0,036	0,014
-553,656	800,000	0,055	0,119
-552,642	800,000	0,058	-0,131
-551,627	-25,059	0,014	0,006
-550,612	-73,986	-0,142	-0,037
-549,598	-200,000	0,017	-0,096
-548,583	389,616	-0,033	-0,050
-547,569	147,679	0,032	0,032
-546,554	-64,888	0,226	-0,065
-545,539	800,000	0,073	0,166
-544,525	-46,631	-0,050	-0,018
-543,510	324,921	-0,025	0,035
-542,496	336,960	-0,032	0,045
-541,481	-17,190	-0,131	0,059
-540,466	59,728	0,034	-0,024
-539,452	228,665	0,044	0,052
-538,437	177,123	0,052	-0,055
-537,423	-200,000	0,025	0,093
-536,408	-88,334	-0,075	0,016
-535,393	312,051	0,035	-0,048
-534,379	-200,000	-0,007	0,064
-533,364	101,646	-0,092	-0,077
-532,350	-200,000	0,032	-0,187
-531,335	-84,023	-0,034	-0,008
-530,321	643,499	0,031	-0,056
-529,306	-78,849	-0,089	0,022
-528,291	460,642	0,018	-0,029
-527,277	-200,000	-0,003	-0,049
-526,262	294,741	0,068	0,090
-525,248	-200,000	0,010	-0,123
-524,233	800,000	-0,036	0,080
-523,218	48,757	0,028	-0,019
-522,204	81,375	-0,018	0,014
-521,189	182,064	0,047	0,050
-520,175	-200,000	-0,022	0,145
-519,160	800,000	0,046	-0,093
-518,145	173,683	-0,077	0,080
-517,131	411,343	-0,048	0,074
-516,116	-149,082	0,203	0,012
-515,102	-127,179	-0,050	0,005
-514,087	-0,959	-0,044	-0,022
-513,072	-61,007	0,055	-0,017
-512,058	54,813	-0,141	-0,098
-511,043	-60,047	0,031	0,009
-510,029	6,588	0,038	-0,020
-509,014	-200,000	-0,004	0,233
-507,999	-200,000	0,001	-0,015
-506,985	554,146	0,016	0,027
-505,970	-200,000	0,004	-0,066
-504,956	77,437	0,081	-0,062
-503,941	91,936	0,142	-0,115
-502,926	-200,000	-0,003	-0,029
-501,912	80,894	-0,051	0,039
-500,897	172,431	0,047	0,049
-499,883	-200,000	-0,051	-0,167
-498,868	-200,000	0,006	-0,048
-497,853	-200,000	0,010	0,070
-496,839	800,000	-0,024	0,062
-495,824	-200,000	-0,021	0,078
-494,810	26,767	0,172	0,103
-493,795	651,336	-0,039	0,073
-492,781	-23,648	-0,068	-0,029
-491,766	46,555	-0,052	-0,034
-490,751	177,199	0,047	-0,050
-489,737	90,346	-0,048	0,039
-488,722	-19,838	0,033	-0,014
-487,708	139,250	0,022	0,021
-486,693	-200,000	0,025	0,171
-485,678	30,091	-0,143	-0,087
-484,664	-79,692	-0,023	-0,006
-483,649	431,061	-0,078	0,122
-482,635	800,000	-0,037	0,113
-481,620	400,754	0,077	0,116
-480,605	-200,000	0,007	-0,051
-479,591	115,013	-0,167	-0,146
-478,576	-161,066	0,012	-0,000
-477,562	59,035	0,022	0,016
-476,547	-67,044	0,066	-0,018
-475,532	402,880	0,030	0,046
-474,518	-200,000	0,011	-0,093
-473,503	121,100	0,125	-0,112
-472,489	417,847	0,006	-0,009
-471,474	4,459	0,029	0,015
-470,459	-103,132	-0,042	0,007
-469,445	-200,000	0,013	-0,053
-468,430	160,030	-0,062	0,062
-467,416	10,432	0,047	0,026
-466,401	5,979	0,094	0,050
-465,386	792,208	-0,060	-0,119
-464,372	-173,593	-0,073	-0,002
-463,357	-200,000	-0,001	-0,101
-462,343	191,893	-0,051	-0,055
-461,328	295,104	0,072	-0,094
-460,313	800,000	-0,015	0,032
-459,299	-161,363	0,135	-0,005
-458,284	-200,000	-0,013	0,043
-457,270	-200,000	-0,004	-0,065
-456,255	800,000	0,045	-0,124
-455,241	158,576	0,079	-0,078
-454,226	310,282	0,034	0,045
-453,211	-200,000	-0,005	0,067
-452,197	51,501	-0,094	-0,064
-451,182	351,699	-0,024	0,034
-450,168	800,000	-0,042	-0,088
-449,153	0,067	0,057	-0,029
-448,138	-200,000	0,014	-0,172
-447,124	-32,519	0,111	-0,044
-446,109	16,638	0,089	0,050
-445,095	121,278	0,034	0,030
-444,080	800,000	0,021	-0,043
-443,065	-99,353	0,052	-0,009
-442,051	-58,842	-0,038	0,012
-441,036	800,000	0,041	-0,089
-440,022	587,046	0,096	-0,170
-439,007	-200,000	-0,019	-0,088
-437,992	-200,000	-0,002	-0,062
-436,978	63,498	0,035	0,025
-435,963	-200,000	-0,044	0,166
-434,949	126,737	0,055	0,050
-433,934	-62,504	-0,181	0,054
-432,919	-145,198	-0,123	0,008
-431,905	-26,310	-0,090	-0,038
-430,890	50,929	-0,050	0,034
-429,876	-200,000	0,003	0,078
-428,861	-200,000	0,005	0,062
-427,846	226,493	-0,059	-0,069
-426,832	99,154	-0,130	-0,108
-425,817	-200,000	-0,042	-0,156
-424,803	800,000	0,030	-0,093
-423,788	-200,000	0,017	-0,104
-422,773	-73,824	0,040	-0,010
-421,759	-200,000	-0,065	0,217
-420,744	800,000	-0,026	0,062
-419,730	800,000	-0,012	-0,036
-418,715	-200,000	-0,058	-0,239
-417,701	800,000	0,075	0,190
-416,686	-55,468	0,049	0,016
-415,671	164,917	0,038	0,039
-414,657	168,690	-0,062	-0,064
-413,642	800,000	0,017	-0,040
-412,628	106,129	0,027	-0,023
-411,613	136,528	0,029	-0,027
-410,598	800,000	0,022	0,052
-409,584	-97,957	0,048	0,009
-408,569	-59,410	0,110	0,034
-407,555	-200,000	0,013	0,093
-406,540	457,236	0,056	-0,089
-405,525	-200,000	0,009	-0,112
-404,511	-200,000	-0,005	-0,078
-403,496	261,285	-0,041	0,051
-402,482	71,062	-0,092	-0,068
-401,467	-46,232	-0,024	0,008
-400,452	-200,000	-0,017	0,077
-399,438	83,389	0,077	0,060
-398,423	800,000	-0,027	-0,070
-397,409	51,189	0,065	-0,044
-396,394	800,000	-0,048	0,123
-395,379	-200,000	0,014	-0,087
-394,365	-200,000	-0,008	0,166
-393,350	57,305	0,028	-0,020
-392,336	73,503	-0,108	-0,080
-391,321	-200,000	-0,033	-0,144
-390,306	174,408	-0,013	-0,014
-389,292	-200,000	0,054	-0,254
-388,277	-200,000	-0,023	-0,097
-387,263	-200,000	0,003	0,122
-386,248	800,000	0,074	0,166
-385,233	687,748	0,025	0,048
-384,219	800,000	0,041	-0,102
-383,204	557,453	-0,030	0,053
-382,190	-200,000	0,010	-0,041
-381,175	-73,005	-0,070	0,018
-380,160	-4,965	-0,046	0,023
-379,146	34,425	0,184	0,115
-378,131	-173,950	-0,056	0,001
-377,117	119,823	0,038	0,034
-376,102	-200,000	-0,002	-0,064
-375,088	-119,893	-0,085	-0,010
-374,073	159,748	0,018	-0,018
-373,058	89,302	-0,055	-0,044
-372,044	-200,000	-0,006	-0,055
-371,029	319,943	-0,051	0,069
-370,015	769,321	0,026	-0,050
-369,000	222,229	-0,071	-0,082
-367,985	-200,000	-0,001	-0,166
-366,971	10,419	0,046	-0,025
-365,956	-200,000	0,012	0,056
-364,942	-133,628	0,095	0,008
-363,927	58,020	0,081	0,057
-362,912	185,849	0,026	0,027
-361,898	293,260	0,041	0,054
-360,883	-200,000	-0,025	-0,146
-359,869	-200,000	0,022	0,081
-358,854	192,202	-0,036	0,039
-357,839	-129,287	0,047	-0,005
-356,825	-40,386	-0,045	0,017
-355,810	-86,733	0,077	-0,017
-354,796	228,113	0,080	-0,093
-353,781	-163,874	0,068	0,002
-352,766	-200,000	0,002	0,010
-351,752	108,670	0,032	-0,027
-350,737	458,105	0,028	-0,045
-349,723	17,301	0,122	-0,069
-348,708	794,960	0,066	0,130
-347,693	800,000	-0,049	-0,115
-346,679	800,000	-0,040	-0,088
-345,664	322,013	-0,092	0,126
-344,650	419,157	0,042	0,064
-343,635	-200,000	-0,010	0,182
-342,620	800,000	0,047	0,102
-341,606	-200,000	0,035	0,206
-340,591	103,931	-0,052	0,044
-339,577	196,454	-0,026	0,029
-338,562	-144,491	0,076	0,005
-337,548	-200,000	-0,026	0,172
-336,533	-81,766	-0,027	-0,006
-335,518	38,363	-0,046	-0,029
-334,504	800,000	-0,051	0,149
-333,489	-200,000	-0,031	0,210
-332,475	800,000	0,012	-0,027
-331,460	-200,000	-0,013	0,073
-330,445	238,173	0,067	0,080
-329,431	135,831	0,055	-0,051
-328,416	800,000	-0,042	0,092
-327,402	626,282	-0,061	0,111
-326,387	-200,000	0,002	-0,118
-325,372	-64,333	-0,142	-0,041
-324,358	-89,849	0,032	-0,007
-323,343	-200,000	0,010	0,147
-322,329	-97,693	0,126	-0,023
-321,314	-34,235	0,113	-0,044
-320,299	57,247	0,120	0,083
-319,285	-63,047	0,068	-0,020
-318,270	-200,000	-0,043	-0,184
-317,256	800,000	-0,055	-0,126
-316,241	800,000	0,030	-0,074
-315,226	-54,286	-0,067	0,021
-314,212	800,000	-0,002	-0,005
-313,197	389,163	0,040	-0,059
-312,183	-200,000	0,003	-0,070
-311,168	57,821	0,045	0,031
-310,153	197,912	0,035	-0,038
-309,139	44,909	0,012	-0,008
-308,124	-41,088	-0,111	-0,041
-307,110	-182,133	0,136	-0,002
-306,095	-200,000	-0,025	0,128
-305,080	-58,636	0,045	-0,014
-304,066	26,554	-0,045	0,027
-303,051	64,490	-0,069	0,050
-302,037	617,612	-0,048	0,086
-301,022	288,394	-0,064	0,083
-300,008	-63,318	-0,046	-0,014
-298,993	-78,646	-0,074	0,018
-297,978	100,490	-0,124	0,102
-296,964	250,484	0,006	0,008
-295,949	15,549	0,048	-0,027
-294,935	-8,228	-0,084	-0,040
-293,920	-138,270	0,050	-0,004
-292,905	158,830	0,134	0,133
-291,891	-168,549	0,127	-0,003
-290,876	96,712	-0,085	0,070
-289,862	-176,937	-0,091	0,002
-288,847	-200,000	-0,010	0,089
-287,832	-71,656	-0,092	0,024
-286,818	67,298	-0,081	-0,059
-285,803	-65,606	-0,093	0,026
-284,789	-83,899	-0,116	-0,026
-283,774	156,441	0,074	0,073
-282,759	63,129	-0,019	0,014
-281,745	800,000	0,033	0,086
-280,730	176,914	-0,073	-0,076
-279,716	51,182	-0,110	-0,074
-278,701	-200,000	0,001	0,072
-277,686	800,000	0,024	0,074
-276,672	-16,840	0,054	0,024
-275,657	359,656	-0,025	0,035
-274,643	-94,596	-0,054	0,010
-273,628	-104,683	-0,035	-0,006
-272,613	-38,058	-0,129	0,049
-271,599	-30,454	0,237	0,095
-270,584	108,181	-0,082	0,070
-269,570	99,263	0,143	0,118
-268,555	193,840	0,058	0,062
-267,540	-177,250	-0,130	0,002
-266,526	-174,878	-0,041	-0,001
-265,511	-59,593	-0,028	0,008
-264,497	88,681	-0,034	0,027
-263,482	-200,000	0,026	-0,102
-262,467	77,293	-0,041	-0,031
-261,453	-105,462	-0,098	0,016
-260,438	396,647	0,101	0,150
-259,424	-73,860	-0,179	-0,046
-258,409	365,863	-0,035	0,050
-257,395	800,000	-0,015	0,036
-256,380	800,000	0,065	0,164
-255,365	-66,903	-0,130	0,036
-254,351	614,030	0,037	0,066
-253,336	-200,000	-0,000	-0,104
-252,322	231,176	-0,090	-0,105
-251,307	6,450	-0,048	-0,025
-250,292	800,000	-0,047	0,133
-249,278	-139,089	0,110	-0,008
-248,263	-155,976	0,062	-0,003
-247,249	-200,000	-0,029	-0,191
-246,234	-200,000	0,002	0,069
-245,219	-200,000	-0,131	-0,000
-244,205	105,198	-0,043	0,036
-243,190	800,000	0,013	-0,032
-242,176	55,141	0,030	0,021
-241,161	-33,730	0,057	0,022
-240,146	800,000	-0,042	0,113
-239,132	33,949	0,086	-0,053
-238,117	740,784	0,080	-0,153
-237,103	-200,000	-0,021	-0,084
-236,088	-200,000	-0,017	-0,090
-235,073	-18,194	0,109	-0,049
-234,059	-53,747	-0,018	0,006
-233,044	-200,000	0,032	0,154
-232,030	-10,472	0,092	-0,043
-231,015	404,491	-0,028	-0,042
-230,000	-151,710	-0,162	-0,008
-228,986	-84,089	-0,057	-0,013
-227,971	369,182	0,034	-0,049
-226,957	763,719	-0,003	-0,005
-225,942	-200,000	-0,013	0,055
-224,927	800,000	-0,019	-0,045
-223,913	-200,000	0,006	-0,058
-222,898	-200,000	-0,002	-0,106
-221,884	-62,077	0,009	0,003
-220,869	-55,638	0,066	0,021
-219,855	800,000	0,011	-0,025
-218,840	189,309	0,110	0,117
-217,825	-200,000	-0,105	0,000
-216,811	86,112	-0,062	0,049
-215,796	-45,134	0,156	-0,055
-214,782	220,163	0,037	-0,043
-213,767	800,000	0,094	-0,203
-212,752	403,209	0,043	0,064
-211,738	800,000	-0,085	0,196
-210,723	-200,000	0,022	0,068
-209,709	135,995	-0,063	-0,059
-208,694	521,681	-0,067	-0,112
-207,679	-200,000	0,005	-0,054
-206,665	800,000	-0,022	-0,048
-205,650	-78,524	-0,051	0,012
-204,636	800,000	0,035	0,083
-203,621	444,900	0,039	0,060
-202,606	-13,501	-0,139	0,064
-201,592	-200,000	0,030	0,126
-200,577	-66,553	0,012	0,003
-199,563	-200,000	-0,001	-0,042
-198,548	95,856	0,042	0,034
-197,533	-200,000	0,011	0,115
-196,519	-200,000	-0,031	0,156
-195,504	-200,000	0,010	-0,110
-194,490	800,000	-0,061	-0,125
-193,475	344,278	0,025	-0,034
-192,460	-200,000	-0,007	0,085
-191,446	-200,000	0,021	0,152
-190,431	223,020	-0,080	0,091
-189,417	-200,000	0,015	0,052
-188,402	-200,000	-0,025	-0,139
-187,387	-200,000	-0,029	-0,107
-186,373	-0,834	-0,113	0,056
-185,358	-87,408	0,016	-0,004
-184,344	-67,577	0,172	0,047
-183,329	34,611	0,098	-0,060
-182,315	352,980	-0,063	0,088
-181,300	-73,333	-0,076	0,020
-180,285	-77,292	-0,048	0,012
-179,271	-104,403	0,065	-0,011
-178,256	194,269	-0,140	0,151
-177,242	645,675	-0,006	0,010
-176,227	45,740	-0,138	-0,091
-175,212	164,413	-0,052	-0,052
-174,198	-200,000	-0,028	0,114
-173,183	231,582	-0,035	-0,041
-172,169	55,759	-0,054	0,037
-171,154	28,690	0,126	-0,075
-170,139	-62,606	0,129	0,038
-169,125	-51,496	0,134	-0,044
-168,110	45,438	-0,077	0,050
-167,096	-165,559	-0,023	-0,001
-166,081	-120,653	0,137	0,016
-165,066	542,887	0,040	0,067
-164,052	40,557	0,180	-0,114
-163,037	-48,495	-0,089	0,030
-162,023	-200,000	-0,004	-0,024
-161,008	-65,572	0,199	0,056
-159,993	-200,000	0,003	-0,064
-158,979	354,704	0,037	-0,052
-157,964	161,314	0,020	-0,020
-156,950	-200,000	-0,011	0,050
-155,935	800,000	-0,018	-0,047
-154,920	-11,559	-0,033	0,015
-153,906	-194,239	-0,112	0,001
-152,891	-54,217	0,120	0,038
-151,877	-100,120	-0,076	0,013
-150,862	-147,266	0,076	0,004
-149,847	232,110	-0,072	0,083
-148,833	800,000	0,023	0,056
-147,818	-1,977	-0,015	-0,007
-146,804	-34,615	-0,144	0,056
-145,789	-160,799	-0,073	0,003
-144,775	773,834	-0,089	-0,172
-143,760	-200,000	0,008	-0,060
-142,745	-117,642	-0,080	-0,010
-141,731	-155,568	0,066	-0,003
-140,716	800,000	-0,029	-0,066
-139,702	-200,000	-0,019	-0,087
-138,687	179,864	0,057	0,059
-137,672	122,662	-0,062	0,055
-136,658	25,803	-0,186	-0,109
-135,643	800,000	-0,041	-0,081
-134,629	508,093	-0,034	0,056
-133,614	-11,169	-0,088	0,041
-132,599	800,000	0,031	0,081
-131,585	-200,000	-0,020	0,083
-130,570	348,560	-0,054	0,075
-129,556	800,000	0,032	-0,068
-128,541	96,032	-0,062	-0,050
-127,526	-72,385	-0,034	0,009
-126,512	-45,759	0,079	-0,027
-125,497	-84,262	0,047	0,011
-124,483	-21,446	0,076	0,033
-123,468	-200,000	-0,009	0,144
-122,453	-200,000	-0,020	-0,138
-121,439	-200,000	-0,002	0,013
-120,424	-200,000	-0,007	0,087
-119,410	59,164	0,069	0,048
-118,395	800,000	0,059	0,143
-117,380	-148,724	0,053	0,003
-116,366	-104,763	-0,143	0,023
-115,351	800,000	0,029	-0,068
-114,337	528,272	0,066	-0,110
-113,322	-200,000	0,017	-0,118
-112,307	-200,000	-0,020	0,164
-111,293	-200,000	0,010	-0,093
-110,278	102,276	0,041	-0,034
-109,264	-8,379	0,032	-0,015
-108,249	214,885	0,019	0,021
-107,234	193,388	0,027	0,029
-106,220	120,834	0,105	0,092
-105,205	-200,000	-0,015	-0,088
-104,191	154,540	0,184	0,179
-103,176	75,098	0,041	0,031
-102,162	800,000	0,105	-0,212
-101,147	412,862	0,059	-0,089
-100,132	800,000	-0,018	-0,045
-99,118	76,672	0,146	-0,110
-98,103	28,261	0,033	-0,019
-97,089	253,862	-0,065	0,078
-96,074	396,074	-0,060	-0,089
-95,059	-200,000	0,050	0,203
-94,045	58,133	0,037	-0,026
-93,030	37,585	-0,136	-0,085
-92,016	342,720	0,074	-0,103
-91,001	-129,530	0,129	-0,012
-89,986	-56,757	0,104	0,032
-88,972	800,000	-0,021	0,051
-87,957	194,780	0,037	0,040
-86,943	-200,000	0,007	-0,053
-85,928	157,967	-0,025	-0,025
-84,913	-200,000	-0,007	-0,120
-83,899	27,822	0,053	-0,031
-82,884	800,000	0,012	-0,037
-81,870	-103,643	0,097	0,016
-80,855	50,390	0,098	0,066
-79,840	23,444	-0,107	-0,062
-78,826	-200,000	-0,001	-0,137
-77,811	-200,000	-0,040	-0,221
-76,797	270,470	0,092	0,115
-75,782	800,000	0,032	0,070
-74,767	133,462	0,088	0,080
-73,753	-114,449	0,024	-0,003
-72,738	302,393	-0,053	0,070
-71,724	574,046	0,040	-0,068
-70,709	-169,355	0,042	0,001
-69,694	-93,860	0,115	-0,022
-68,680	-200,000	-0,010	-0,154
-67,665	141,612	0,037	-0,034
-66,651	53,549	-0,074	0,050
-65,636	-200,000	0,024	-0,134
-64,622	800,000	-0,027	-0,063
-63,607	800,000	-0,069	-0,161
-62,592	2,239	0,052	-0,027
-61,578	22,013	0,048	0,027
-60,563	32,968	0,018	-0,011
-59,549	578,473	-0,071	0,124
-58,534	36,898	-1,890	-1,178
-57,519	485,500	-1,227	-1,981
-56,505	-200,000	-0,347	-4,473
-55,490	411,231	0,977	1,469
-54,476	800,000	4,927	10,893
-53,461	-200,000	20,881	328,985
-52,446	800,000	757,007	2323,154
-51,432	550,732	1662,365	2827,034
-50,417	73,546	1664,108	1229,104
-49,403	18,698	1537,494	866,333
-48,388	12,653	1460,618	793,739
-47,373	19,012	1451,125	819,107
-46,359	15,870	1440,345	798,027
-45,344	10,947	1436,356	772,319
-44,330	10,914	1434,196	770,969
-43,315	10,912	1432,369	769,947
-42,300	10,937	1430,608	769,091
-41,286	10,943	1429,402	768,440
-40,271	10,917	1428,034	767,549
-39,257	10,926	1426,832	766,916
-38,242	10,975	1425,781	766,554
-37,227	10,933	1424,755	765,772
-36,213	10,975	1423,232	765,124
-35,198	10,935	1422,486	764,501
-34,184	10,965	1421,361	764,008
-33,169	10,914	1420,122	763,069
-32,154	11,009	1418,788	762,774
-31,140	11,024	1417,718	762,236
-30,125	11,020	1416,657	761,616
-29,111	10,994	1415,606	760,901
-28,096	10,978	1414,320	760,104
-27,082	10,919	1413,467	759,339
-26,067	10,931	1412,365	758,774
-25,052	10,931	1411,185	758,110
-24,038	10,956	1410,021	757,569
-23,023	10,927	1409,175	756,947
-22,009	10,868	1408,303	756,176
-20,994	10,865	1407,163	755,519
-19,979	10,900	1406,208	755,138
-18,965	10,863	1405,364	754,484
-17,950	10,896	1404,153	753,956
-16,936	10,849	1403,654	753,441
-15,921	10,787	1402,599	752,557
-14,906	10,798	1401,725	752,105
-13,892	10,843	1400,465	751,613
-12,877	10,828	1399,899	751,206
-11,863	10,866	1398,907	750,820
-10,848	10,863	1398,065	750,327
-9,833	10,755	1397,256	749,362
-8,819	10,736	1396,516	748,849
-7,804	10,709	1395,567	748,183
-6,790	10,724	1394,648	747,732
-5,775	10,753	1393,425	747,180
-4,760	10,727	1392,536	746,553
-3,746	10,694	1391,664	745,904
-2,731	10,672	1390,854	745,337
-1,717	10,696	1389,987	744,951
-0,702	10,677	1388,047	743,795
0,313	14,773	1301,735	716,300
1,327	31,192	693,330	418,886
2,342	48,313	120,329	79,328
3,356	1,845	16,475	8,354
4,371	-3,331	3,472	1,700
5,386	15,460	0,766	0,423
6,400	-200,000	0,121	0,484
7,415	-78,668	-0,174	-0,042
8,429	69,180	-0,246	-0,178
9,444	116,102	-0,368	-0,318
10,459	-4,060	-0,221	-0,108
11,473	44,696	-0,387	-0,251
12,488	135,740	-0,274	-0,252
13,502	176,414	-0,376	-0,385
14,517	-15,174	-0,341	-0,153
15,531	170,187	-0,355	-0,358
16,546	-45,128	-0,497	-0,173
17,561	52,666	-0,436	-0,293
18,575	58,014	-0,116	-0,080
19,590	6,901	-0,253	-0,133
20,604	137,037	-0,246	-0,226
21,619	82,009	-0,419	-0,320
22,634	135,026	-0,425	-0,389
23,648	103,213	-0,392	-0,324
24,663	69,960	-0,267	-0,194
25,677	180,402	-0,296	-0,306
26,692	-37,620	-0,491	-0,183
27,707	-14,535	-0,347	-0,157
28,721	62,732	-0,356	-0,250
29,736	296,664	-0,289	-0,374
30,750	286,710	-0,315	-0,401
31,765	416,397	-0,293	-0,442
32,780	85,238	-0,403	-0,311
33,794	96,714	-0,261	-0,210
34,809	-0,863	-0,391	-0,194
35,823	96,401	-0,337	-0,271
36,838	-6,727	-0,318	-0,152
37,853	-0,446	-0,435	-0,217
38,867	37,113	-0,371	-0,230
39,882	151,196	-0,241	-0,230
40,896	230,756	-0,225	-0,260
41,911	310,068	-0,218	-0,287
42,926	139,114	-0,283	-0,262
43,940	197,760	-0,360	-0,387
44,955	87,053	-0,277	-0,215
45,969	39,886	-0,289	-0,182
46,984	313,611	-0,274	-0,364
47,999	61,220	-0,307	-0,214
49,013	107,393	-0,348	-0,291
50,028	31,527	-0,389	-0,235
51,042	25,656	-0,342	-0,200
52,057	60,575	-0,387	-0,269
53,071	-4,549	-0,418	-0,202
54,086	-4,086	-0,379	-0,184
55,101	140,989	-0,272	-0,253
56,115	-43,232	-0,283	-0,100
57,130	-33,172	-0,277	-0,107
58,144	158,304	-0,390	-0,380
59,159	53,698	-0,465	-0,313
60,174	-53,078	-0,471	-0,151
61,188	82,842	-0,295	-0,225
62,203	29,075	-0,339	-0,202
63,217	45,571	-0,386	-0,250
64,232	148,660	-0,198	-0,188
65,247	-2,387	-0,385	-0,189
66,261	90,770	-0,238	-0,187
67,276	139,536	-0,391	-0,361
68,290	-43,734	-0,377	-0,133
69,305	116,374	-0,306	-0,263
70,320	-6,258	-0,301	-0,144
71,334	-28,806	-0,407	-0,163
72,349	394,447	-0,265	-0,388
73,363	39,107	-0,256	-0,160
74,378	-38,980	-0,432	-0,159
75,393	-7,167	-0,335	-0,159
76,407	-25,533	-0,269	-0,111
77,422	50,563	-0,285	-0,189
78,436	-69,536	-0,276	-0,074
79,451	70,659	-0,384	-0,278
80,466	-83,787	-0,186	-0,041
81,480	-102,842	-0,306	-0,051
82,495	159,151	-0,330	-0,322
83,509	29,256	-0,329	-0,195
84,524	-84,100	-0,249	-0,055
85,539	100,176	-0,208	-0,169
86,553	72,936	-0,176	-0,129
87,568	-61,887	-0,278	-0,081
88,582	56,314	-0,348	-0,236
89,597	105,620	-0,250	-0,207
90,611	135,933	-0,242	-0,220
91,626	165,975	-0,164	-0,163
92,641	178,151	-0,252	-0,258
93,655	-44,897	-0,334	-0,116
94,670	476,448	-0,159	-0,252
95,684	177,639	-0,297	-0,303
96,699	94,673	-0,255	-0,203
97,714	487,592	-0,154	-0,247
98,728	126,490	-0,250	-0,222
99,743	-38,960	-0,154	-0,057
100,757	35,968	-0,204	-0,125
101,772	16,362	-0,248	-0,137
102,787	-36,437	-0,314	-0,118
103,801	-27,626	-0,341	-0,138
104,816	-61,094	-0,223	-0,065
105,830	800,000	-0,098	-0,236
106,845	-60,150	-0,302	-0,090
107,860	200,289	-0,180	-0,193
108,874	10,269	-0,387	-0,205
109,889	239,697	-0,261	-0,305
110,903	206,247	-0,269	-0,293
111,918	8,116	-0,355	-0,185
112,933	71,837	-0,273	-0,198
113,947	-98,994	-0,324	-0,057
114,962	88,001	-0,222	-0,172
115,976	49,320	-0,287	-0,188
116,991	188,136	-0,310	-0,324
118,006	-173,598	-0,265	-0,005
119,020	149,765	-0,206	-0,195
120,035	136,063	-0,188	-0,171
121,049	54,608	-0,177	-0,119
122,064	391,260	-0,062	-0,090
123,079	316,970	-0,264	-0,349
124,093	-17,685	-0,220	-0,096
125,108	41,498	-0,310	-0,195
126,122	566,558	-0,194	-0,330
127,137	34,887	-0,273	-0,166
128,151	129,972	-0,278	-0,248
129,166	278,628	-0,119	-0,148
130,181	155,902	-0,268	-0,258
131,195	159,797	-0,228	-0,222
132,210	38,598	-0,394	-0,245
133,224	90,210	-0,357	-0,278
134,239	11,487	-0,254	-0,135
135,254	366,533	-0,172	-0,242
136,268	800,000	-0,180	-0,370
137,283	250,305	-0,252	-0,298
138,297	-19,726	-0,508	-0,218
139,312	800,000	-0,089	-0,251
140,327	99,270	-0,246	-0,198
141,341	-111,899	-0,261	-0,036
142,356	69,763	-0,314	-0,225
143,370	90,554	-0,276	-0,215
144,385	235,979	-0,221	-0,255
145,400	127,527	-0,205	-0,181
146,414	70,755	-0,242	-0,175
147,429	178,676	-0,228	-0,232
148,443	-13,663	-0,215	-0,096
149,458	214,189	-0,159	-0,176
150,473	87,933	-0,194	-0,149
151,487	-32,430	-0,291	-0,113
152,502	12,782	-0,317	-0,170
153,516	93,544	-0,194	-0,153
154,531	43,974	-0,302	-0,192
155,546	445,770	-0,181	-0,278
156,560	79,413	-0,177	-0,132
157,575	281,101	-0,272	-0,340
158,589	257,774	-0,145	-0,174
159,604	133,432	-0,250	-0,225
160,619	126,838	-0,263	-0,232
161,633	525,112	-0,117	-0,192
162,648	800,000	-0,109	-0,212
163,662	163,543	-0,194	-0,190
164,677	-116,458	-0,274	-0,035
165,692	109,889	-0,167	-0,140
166,706	211,336	-0,143	-0,157
167,721	346,534	-0,188	-0,258
168,735	31,978	-0,233	-0,139
169,750	140,295	-0,245	-0,225
170,764	800,000	-0,053	-0,110
171,779	-30,281	-0,233	-0,092
172,794	107,998	-0,139	-0,115
173,808	554,020	-0,159	-0,267
174,823	160,120	-0,208	-0,202
175,837	266,796	-0,223	-0,272
176,852	-7,993	-0,286	-0,133
177,867	-50,565	-0,183	-0,059
178,881	-109,405	-0,306	-0,045
179,896	31,871	-0,212	-0,126
180,910	-65,485	-0,171	-0,047
181,925	115,017	-0,207	-0,176
182,940	78,820	-0,271	-0,201
183,954	61,208	-0,273	-0,188
184,969	-7,993	-0,150	-0,070
185,983	-91,335	-0,225	-0,044
186,998	136,337	-0,158	-0,143
188,013	162,988	-0,180	-0,176
189,027	356,181	-0,245	-0,339
190,042	-4,956	-0,265	-0,126
191,056	56,039	-0,291	-0,196
192,071	198,162	-0,153	-0,162
193,086	-16,400	-0,226	-0,099
194,100	104,699	-0,193	-0,157
195,115	129,484	-0,156	-0,138
196,129	127,164	-0,203	-0,179
197,144	-58,154	-0,298	-0,089
198,159	311,565	-0,145	-0,190
199,173	40,285	-0,288	-0,179
200,188	133,951	-0,258	-0,231
201,202	585,711	-0,092	-0,157
202,217	-97,260	-0,136	0,024
203,232	-80,750	-0,175	-0,040
204,246	62,048	-0,236	-0,163
205,261	136,399	-0,255	-0,231
206,275	500,946	-0,156	-0,250
207,290	232,108	-0,080	-0,091
208,304	42,971	-0,189	-0,119
209,319	-12,801	-0,155	-0,070
210,334	206,579	-0,109	-0,118
211,348	7,039	-0,231	-0,119
212,363	217,043	-0,165	-0,182
213,377	664,281	-0,095	-0,171
214,392	701,384	-0,111	-0,203
215,407	-105,826	-0,134	-0,021
216,421	83,684	-0,104	-0,078
217,436	-15,139	-0,156	-0,069
218,450	211,442	-0,148	-0,161
219,465	-184,525	-0,259	-0,003
220,480	221,570	-0,158	-0,176
221,494	468,137	-0,138	-0,215
222,509	0,599	-0,110	-0,054
223,523	67,038	-0,136	-0,096
224,538	36,513	-0,265	-0,161
225,553	134,994	-0,154	-0,138
226,567	-13,259	-0,209	-0,093
227,582	84,339	-0,253	-0,191
228,596	32,068	-0,205	-0,122
229,611	72,314	-0,181	-0,131
230,626	127,113	-0,125	-0,110
231,640	-32,710	-0,293	-0,112
232,655	-36,129	-0,156	-0,058
233,669	48,502	-0,363	-0,235
234,684	-81,244	-0,193	-0,044
235,699	349,442	-0,077	-0,105
236,713	-99,041	-0,123	-0,021
237,728	-20,839	-0,198	-0,083
238,742	-80,369	-0,272	-0,062
239,757	112,205	-0,193	-0,161
240,772	-42,993	-0,269	-0,094
241,786	69,442	-0,210	-0,149
242,801	782,932	-0,073	-0,140
243,815	-19,181	-0,213	-0,091
244,830	49,146	-0,137	-0,088
245,844	100,279	-0,098	-0,079
246,859	319,598	-0,146	-0,192
247,874	210,649	-0,211	-0,229
248,888	60,285	-0,165	-0,112
249,903	193,715	-0,188	-0,197
250,917	-200,000	-0,010	-0,182
251,932	110,678	-0,147	-0,122
252,947	255,636	-0,177	-0,210
253,961	-83,995	-0,314	-0,068
254,976	-152,841	-0,241	-0,012
255,990	96,773	-0,146	-0,115
257,005	-120,968	-0,139	-0,016
258,020	297,842	-0,136	-0,173
259,034	58,200	-0,134	-0,090
260,049	800,000	-0,043	-0,115
261,063	8,401	-0,195	-0,101
262,078	78,419	-0,186	-0,137
263,093	151,587	-0,159	-0,150
264,107	-15,083	-0,127	-0,056
265,122	-48,295	-0,217	-0,072
266,136	86,146	-0,169	-0,128
267,151	100,583	-0,117	-0,094
268,166	71,378	-0,205	-0,146
269,180	479,380	-0,113	-0,178
270,195	309,521	-0,158	-0,204
271,209	-129,101	-0,130	0,012
272,224	210,641	-0,116	-0,126
273,239	-158,534	-0,247	-0,010
274,253	21,072	-0,224	-0,125
275,268	800,000	-0,136	-0,287
276,282	800,000	-0,050	-0,134
277,297	800,000	-0,071	-0,169
278,312	565,457	-0,126	-0,212
279,326	230,630	-0,152	-0,171
280,341	-125,536	-0,158	0,016
281,355	-6,024	-0,295	-0,138
282,370	121,163	-0,109	-0,094
283,384	61,668	-0,115	-0,079
284,399	147,870	-0,132	-0,122
285,414	-141,067	-0,158	0,011
286,428	466,549	-0,130	-0,202
287,443	-25,457	-0,183	-0,074
288,457	-111,427	-0,259	-0,036
289,472	-200,000	-0,062	-0,188
290,487	518,043	-0,208	-0,336
291,501	-77,403	-0,262	-0,062
292,516	67,593	-0,207	-0,145
293,530	-200,000	-0,047	-0,153
294,545	800,000	-0,117	-0,236
295,560	-200,000	-0,011	-0,104
296,574	-138,838	-0,250	-0,018
297,589	-92,862	-0,246	-0,047
298,603	16,372	-0,277	-0,150
299,618	38,481	-0,093	-0,057
300,633	42,813	-0,189	-0,118
301,647	-102,637	-0,082	0,013
302,662	226,864	-0,097	0,108
303,676	121,442	-0,093	0,080
304,691	136,424	-0,115	-0,103
305,706	92,472	-0,182	-0,141
306,720	698,308	-0,097	-0,176
307,735	245,532	-0,098	-0,114
308,749	589,445	0,008	-0,013
309,764	484,342	0,017	0,027
310,779	124,142	-0,166	-0,143
311,793	72,026	-0,090	-0,064
312,808	51,031	-0,124	-0,081
313,822	530,983	-0,090	-0,147
314,837	800,000	-0,065	-0,157
315,852	121,076	-0,016	-0,014
316,866	1,398	-0,232	-0,114
317,881	-12,054	-0,078	-0,035
318,895	117,707	-0,140	-0,118
319,910	-5,504	-0,252	-0,118
320,925	175,957	-0,116	-0,115
321,939	74,370	-0,201	-0,145
322,954	-178,709	-0,065	-0,001
323,968	-200,000	-0,069	0,230
324,983	31,017	-0,155	-0,091
325,997	-12,335	-0,221	-0,099
327,012	98,763	-0,211	-0,167
328,027	800,000	-0,082	-0,156
329,041	-125,535	-0,109	0,011
330,056	-118,033	-0,120	-0,015
331,070	201,954	-0,040	0,043
332,085	-1,010	-0,151	-0,073
333,100	-127,532	-0,064	-0,006
334,114	609,627	-0,086	-0,147
335,129	800,000	-0,071	-0,181
336,143	-34,554	-0,134	-0,050
337,158	-0,042	-0,062	-0,030
338,173	800,000	-0,032	-0,097
339,187	-25,745	-0,053	-0,021
340,202	465,884	-0,119	-0,182
341,216	695,078	-0,159	-0,287
342,231	29,509	-0,235	-0,137
343,246	-33,555	-0,261	-0,098
344,260	-157,691	-0,090	-0,004
345,275	-200,000	-0,030	-0,139
346,289	-200,000	-0,018	-0,078
347,304	338,630	-0,053	-0,070
348,319	148,031	-0,189	-0,174
349,333	189,373	-0,173	-0,178
350,348	800,000	-0,065	-0,149
351,362	-37,631	-0,226	-0,082
352,377	40,547	-0,118	-0,073
353,392	-74,706	-0,193	-0,047
354,406	-84,284	-0,139	-0,030
355,421	208,266	1309,872	1402,401
356,435	160,245	1469,993	1402,883
