DTS Sentinel unit serial number:	SN410029Multiplexer serial number:	ORYXHardware model number:	OX2-SRSoftware version number:	ORYX F/W v4,00 Oryx Data Collector v3.7.2.0data status	okinstallation	B3 Nyhavnadifferential loss correction	single-endedforward channel	channel 1reverse channel	N/Adate	2023/12/02time	21:07:30forward acquisition time	300,00reverse acquisition time	0,00gamma	499,1914k internal	0,3201k external	0,3201temperature offset calibration	1,0000default loss term (dB/km)	0,3820temperature slope calibration	1,0000multiplexer offset coefficient	1,0000multiplexer slope coefficient	1,0000fibre end	0,00T internal ref (°C)	13,26T ext. ref 1 (°C)	-1,81T ext. ref 2 (°C)	-1,83length (m)	temperature (°C)	Stokes	anti-Stokes-744,400	466,849	-0,175	-0,286
-743,385	343,880	0,101	0,145
-742,371	70,062	-0,288	-0,216
-741,356	-200,000	-0,004	0,254
-740,342	73,871	-0,146	-0,111
-739,327	-200,000	0,014	0,451
-738,312	256,959	-0,174	-0,218
-737,298	-200,000	-0,035	0,248
-736,283	60,492	-0,239	-0,172
-735,269	-200,000	-0,003	0,425
-734,254	211,899	-0,176	-0,202
-733,239	-51,143	-0,255	0,086
-732,225	800,000	-0,149	-0,369
-731,210	-37,670	0,210	0,081
-730,196	184,673	-0,042	-0,046
-729,181	800,000	0,085	-0,181
-728,167	-49,609	-0,052	0,018
-727,152	-200,000	-0,029	-0,156
-726,137	-200,000	0,002	0,089
-725,123	-200,000	0,003	-0,031
-724,108	18,234	-0,100	-0,058
-723,094	692,070	-0,033	-0,063
-722,079	36,732	-0,062	-0,040
-721,064	-53,573	-0,034	0,011
-720,050	-200,000	-0,006	-0,116
-719,035	-15,409	0,060	-0,028
-718,021	-64,248	-0,035	-0,010
-717,006	154,730	-0,073	-0,073
-715,991	192,027	-0,018	0,019
-714,977	-171,008	-0,077	-0,002
-713,962	118,149	-0,128	-0,114
-712,948	-200,000	-0,028	-0,105
-711,933	542,313	0,014	0,025
-710,918	-9,108	-0,091	0,044
-709,904	-19,073	-0,123	-0,056
-708,889	543,519	-0,052	-0,090
-707,875	324,852	-0,077	-0,107
-706,860	-200,000	-0,011	-0,101
-705,845	-200,000	-0,039	0,160
-704,831	540,501	0,126	0,218
-703,816	351,182	-0,041	0,060
-702,802	-200,000	-0,009	0,041
-701,787	7,445	-0,109	-0,059
-700,772	800,000	0,053	-0,152
-699,758	800,000	0,013	0,032
-698,743	-84,035	-0,095	0,022
-697,729	800,000	0,056	0,137
-696,714	42,700	-0,106	0,070
-695,699	12,172	0,052	-0,029
-694,685	156,252	-0,063	-0,064
-693,670	800,000	-0,078	-0,206
-692,656	800,000	0,034	-0,105
-691,641	-171,489	0,101	-0,002
-690,627	-91,127	0,042	0,009
-689,612	-24,756	-0,169	-0,072
-688,597	-200,000	-0,008	0,044
-687,583	130,029	-0,037	0,034
-686,568	55,483	-0,087	0,061
-685,554	800,000	-0,029	-0,062
-684,539	201,489	-0,055	-0,061
-683,524	68,010	0,064	0,047
-682,510	-89,612	-0,126	0,027
-681,495	91,066	0,082	0,066
-680,481	51,135	-0,093	-0,064
-679,466	-24,534	-0,095	-0,041
-678,451	-185,440	-0,027	0,000
-677,437	-200,000	0,001	-0,030
-676,422	22,348	-0,094	0,056
-675,408	800,000	-0,039	0,112
-674,393	-61,956	0,031	-0,009
-673,378	-63,356	-0,105	0,031
-672,364	-200,000	-0,046	-0,156
-671,349	322,262	-0,022	0,031
-670,335	-43,715	-0,113	0,041
-669,320	-46,218	0,087	-0,031
-668,305	-7,599	0,031	-0,015
-667,291	760,856	0,029	-0,058
-666,276	-165,881	-0,129	-0,004
-665,262	161,446	0,059	-0,060
-664,247	-200,000	0,007	-0,034
-663,232	70,759	-0,071	-0,053
-662,218	-200,000	-0,018	0,080
-661,203	33,698	-0,098	0,061
-660,189	-140,559	-0,091	-0,007
-659,174	-6,821	-0,148	-0,073
-658,159	800,000	-0,017	0,042
-657,145	303,856	-0,086	0,116
-656,130	679,565	-0,022	0,041
-655,116	-200,000	0,018	0,090
-654,101	-20,085	0,016	0,007
-653,086	-137,638	-0,105	0,008
-652,072	656,170	0,025	-0,046
-651,057	-77,662	-0,210	-0,052
-650,043	-200,000	0,011	0,045
-649,028	-55,705	-0,069	0,022
-648,014	-134,934	-0,052	-0,004
-646,999	471,835	0,067	0,110
-645,984	151,228	0,101	0,100
-644,970	-120,334	-0,174	0,021
-643,955	408,768	-0,045	-0,069
-642,941	780,423	0,046	-0,092
-641,926	772,020	0,060	-0,120
-640,911	-200,000	0,000	0,205
-639,897	292,802	0,051	0,068
-638,882	185,585	0,044	0,047
-637,868	800,000	-0,017	0,035
-636,853	-58,456	-0,099	-0,031
-635,838	-64,615	-0,080	-0,023
-634,824	-200,000	-0,041	-0,150
-633,809	312,799	-0,036	0,048
-632,795	-200,000	0,005	0,040
-631,780	800,000	-0,002	-0,004
-630,765	348,825	0,026	-0,037
-629,751	212,869	-0,060	0,069
-628,736	-49,888	-0,124	-0,042
-627,722	28,562	-0,076	0,047
-626,707	800,000	0,033	0,075
-625,692	-19,704	0,010	-0,005
-624,678	57,854	0,060	0,043
-623,663	-200,000	-0,030	0,099
-622,649	268,560	-0,065	-0,083
-621,634	433,695	-0,077	-0,122
-620,619	-27,502	-0,153	-0,064
-619,605	61,276	0,134	0,096
-618,590	-30,945	0,060	0,024
-617,576	800,000	0,019	0,047
-616,561	475,004	0,089	0,145
-615,546	800,000	-0,055	-0,122
-614,532	-200,000	0,009	-0,080
-613,517	87,496	-0,072	-0,058
-612,503	183,953	0,029	0,031
-611,488	-200,000	0,006	-0,119
-610,474	8,088	0,046	0,025
-609,459	800,000	-0,005	0,011
-608,444	84,039	0,181	-0,143
-607,430	-118,184	-0,166	-0,021
-606,415	75,384	-0,080	-0,061
-605,401	800,000	0,034	0,092
-604,386	1,992	-0,060	0,031
-603,371	91,830	0,063	0,051
-602,357	-123,099	-0,078	0,009
-601,342	302,872	-0,052	0,070
-600,328	598,661	-0,043	0,077
-599,313	-59,304	-0,175	0,054
-598,298	219,964	-0,078	-0,091
-597,284	107,426	0,007	0,006
-596,269	-59,279	0,212	0,066
-595,255	-14,485	-0,057	0,026
-594,240	-200,000	0,000	-0,026
-593,225	316,720	-0,058	0,079
-592,211	184,592	0,043	-0,047
-591,196	359,147	0,054	-0,079
-590,182	245,327	-0,068	-0,083
-589,167	619,307	-0,009	-0,016
-588,152	477,675	0,055	0,091
-587,138	409,697	-0,012	-0,018
-586,123	800,000	-0,045	-0,107
-585,109	-178,625	-0,155	-0,003
-584,094	-160,802	-0,150	-0,006
-583,079	800,000	-0,012	-0,028
-582,065	-48,827	0,155	-0,054
-581,050	800,000	-0,012	0,033
-580,036	18,460	-0,049	0,028
-579,021	117,518	-0,094	-0,084
-578,006	48,089	-0,081	-0,054
-576,992	-18,750	0,072	0,032
-575,977	800,000	-0,020	-0,044
-574,963	-200,000	0,000	-0,095
-573,948	-61,202	0,053	0,016
-572,934	420,465	-0,030	0,047
-571,919	-183,718	-0,054	-0,001
-570,904	-200,000	-0,019	-0,144
-569,890	261,565	-0,051	0,064
-568,875	226,837	0,069	-0,081
-567,861	800,000	-0,023	0,055
-566,846	169,579	0,064	0,067
-565,831	12,281	0,108	-0,060
-564,817	800,000	-0,025	0,054
-563,802	-200,000	0,004	-0,130
-562,788	438,108	0,017	-0,027
-561,773	-200,000	-0,034	-0,127
-560,758	5,086	0,115	-0,061
-559,744	-200,000	0,001	-0,024
-558,729	-143,400	0,071	0,005
-557,715	184,485	-0,082	-0,088
-556,700	421,252	-0,069	-0,108
-555,685	496,424	0,050	0,083
-554,671	-65,179	-0,068	0,020
-553,656	179,838	0,024	0,025
-552,642	-34,959	0,067	-0,026
-551,627	-200,000	0,002	-0,082
-550,612	800,000	-0,050	0,133
-549,598	235,199	0,047	-0,057
-548,583	-67,092	-0,116	-0,033
-547,569	-71,999	0,034	0,009
-546,554	-71,427	0,084	0,022
-545,539	800,000	-0,049	0,119
-544,525	-111,685	-0,082	-0,012
-543,510	-200,000	0,009	0,047
-542,496	-10,636	-0,066	0,031
-541,481	35,390	-0,103	-0,065
-540,466	-136,431	0,109	-0,009
-539,452	208,517	-0,045	-0,051
-538,437	355,958	0,013	0,018
-537,423	-87,787	0,111	0,024
-536,408	-136,220	0,089	0,007
-535,393	-111,879	-0,075	0,011
-534,379	185,557	-0,072	-0,077
-533,364	-200,000	-0,006	-0,042
-532,350	-43,723	0,076	-0,028
-531,335	800,000	0,063	0,138
-530,321	34,477	-0,044	-0,028
-529,306	48,945	-0,098	-0,067
-528,291	292,502	0,063	-0,083
-527,277	-14,873	-0,120	-0,056
-526,262	651,341	-0,069	0,128
-525,248	-90,515	0,032	-0,007
-524,233	-76,251	-0,034	0,008
-523,218	-102,980	0,064	0,011
-522,204	90,962	-0,112	-0,090
-521,189	363,762	-0,048	-0,069
-520,175	461,268	-0,087	0,141
-519,160	6,737	0,038	-0,020
-518,145	85,223	-0,069	0,055
-517,131	-131,923	0,038	0,004
-516,116	250,393	0,027	0,034
-515,102	605,045	-0,047	-0,085
-514,087	-200,000	0,002	-0,035
-513,072	800,000	0,013	-0,032
-512,058	312,427	-0,066	0,090
-511,043	563,957	0,002	0,004
-510,029	-89,050	0,135	-0,029
-509,014	-200,000	-0,041	0,142
-507,999	-200,000	0,001	-0,056
-506,985	496,241	0,049	-0,081
-505,970	-200,000	0,013	-0,111
-504,956	-200,000	0,005	-0,028
-503,941	135,431	0,042	0,040
-502,926	57,586	0,055	0,039
-501,912	-89,050	0,027	0,006
-500,897	-200,000	-0,015	0,052
-499,883	131,260	-0,077	-0,071
-498,868	63,623	-0,055	-0,040
-497,853	110,929	-0,038	-0,033
-496,839	31,545	-0,030	0,019
-495,824	-55,797	-0,075	-0,024
-494,810	-200,000	0,005	-0,018
-493,795	-141,657	-0,034	0,002
-492,781	8,862	-0,076	-0,041
-491,766	-53,673	-0,062	0,020
-490,751	-146,310	-0,073	0,005
-489,737	-200,000	0,004	-0,029
-488,722	-150,170	-0,029	0,002
-487,708	800,000	0,071	0,158
-486,693	-91,309	0,084	-0,017
-485,678	-14,948	0,184	0,085
-484,664	-200,000	0,015	-0,081
-483,649	-200,000	-0,009	-0,270
-482,635	-200,000	-0,003	0,045
-481,620	-17,925	-0,046	0,020
-480,605	223,583	-0,088	0,102
-479,591	-58,577	0,141	-0,044
-478,576	394,485	0,072	0,109
-477,562	-200,000	0,001	0,030
-476,547	201,676	-0,081	-0,090
-475,532	-121,144	-0,040	-0,005
-474,518	96,745	0,035	-0,029
-473,503	420,289	0,021	0,032
-472,489	-200,000	-0,030	0,136
-471,474	-10,492	0,088	0,042
-470,459	21,872	-0,045	0,026
-469,445	-167,486	0,029	0,001
-468,430	30,694	0,102	-0,063
-467,416	341,931	0,070	0,098
-466,401	-1,345	-0,066	0,033
-465,386	276,230	-0,140	0,179
-464,372	-200,000	0,002	0,132
-463,357	-187,827	-0,138	0,001
-462,343	160,245	-0,020	0,020
-461,328	20,254	-0,137	-0,079
-460,313	489,821	0,020	-0,033
-459,299	-127,985	-0,171	-0,017
-458,284	192,936	0,071	0,077
-457,270	-200,000	0,019	-0,069
-456,255	-35,170	0,100	-0,039
-455,241	162,186	0,076	-0,076
-454,226	17,590	-0,117	0,067
-453,211	-152,222	-0,129	-0,007
-452,197	-200,000	0,012	0,092
-451,182	800,000	0,034	0,080
-450,168	-200,000	-0,013	0,056
-449,153	399,570	-0,110	0,166
-448,138	93,118	0,057	-0,047
-447,124	-114,360	-0,155	-0,021
-446,109	800,000	-0,029	0,073
-445,095	1,659	0,112	-0,058
-444,080	-200,000	0,005	0,086
-443,065	-31,079	-0,057	0,023
-442,051	800,000	0,050	0,100
-441,036	800,000	0,068	0,149
-440,022	-200,000	-0,013	0,048
-439,007	185,342	-0,012	0,013
-437,992	-43,827	0,057	0,021
-436,978	-200,000	-0,007	0,054
-435,963	-50,458	0,110	0,037
-434,949	800,000	0,083	-0,228
-433,934	275,081	-0,004	0,005
-432,919	94,630	-0,137	-0,112
-431,905	125,262	0,097	-0,087
-430,890	-125,035	0,093	0,010
-429,876	33,723	0,142	0,089
-428,861	219,997	0,067	-0,078
-427,846	-200,000	0,027	-0,143
-426,832	800,000	-0,050	0,106
-425,817	256,495	-0,093	0,115
-424,803	64,810	-0,049	0,035
-423,788	-32,420	0,075	-0,030
-422,773	138,194	0,114	-0,107
-421,759	74,066	-0,018	0,014
-420,744	-125,828	-0,072	-0,008
-419,730	-200,000	-0,005	-0,127
-418,715	-200,000	-0,025	-0,082
-417,701	178,029	0,111	-0,117
-416,686	30,768	-0,108	0,066
-415,671	15,010	-0,122	0,069
-414,657	184,095	0,079	-0,085
-413,642	-82,391	-0,061	0,014
-412,628	800,000	-0,036	0,075
-411,613	-119,019	-0,152	-0,019
-410,598	-56,579	0,089	-0,028
-409,584	-200,000	0,015	0,091
-408,569	-75,703	0,116	0,029
-407,555	-200,000	-0,013	-0,065
-406,540	308,331	0,049	-0,066
-405,525	-189,794	-0,054	0,000
-404,511	-57,718	-0,058	0,018
-403,496	336,904	-0,099	-0,138
-402,482	129,742	0,012	-0,011
-401,467	-138,923	0,086	0,007
-400,452	-130,839	0,088	-0,008
-399,438	-200,000	-0,021	-0,072
-398,423	-77,623	-0,103	-0,025
-397,409	-200,000	-0,014	-0,119
-396,394	800,000	-0,033	0,104
-395,379	58,000	-0,058	0,041
-394,365	-200,000	0,007	-0,030
-393,350	23,199	0,097	0,057
-392,336	44,401	-0,071	0,047
-391,321	-141,598	-0,059	-0,004
-390,306	800,000	0,020	-0,052
-389,292	447,144	-0,138	0,218
-388,277	752,206	0,043	0,084
-387,263	-8,218	-0,070	0,034
-386,248	-200,000	0,008	-0,083
-385,233	-200,000	0,011	-0,104
-384,219	800,000	-0,041	-0,093
-383,204	506,408	-0,103	-0,171
-382,190	23,511	0,098	0,058
-381,175	-200,000	0,008	-0,037
-380,160	22,331	0,123	-0,072
-379,146	-106,808	0,020	0,003
-378,131	-76,599	0,098	-0,025
-377,117	172,785	0,058	0,060
-376,102	339,456	0,043	0,060
-375,088	800,000	-0,052	-0,139
-374,073	-94,046	0,188	0,037
-373,058	575,398	-0,027	-0,048
-372,044	9,922	0,017	0,009
-371,029	245,820	-0,036	-0,044
-370,015	348,740	-0,098	0,139
-369,000	-200,000	-0,010	0,086
-367,985	640,822	-0,013	-0,024
-366,971	-94,139	-0,157	-0,031
-365,956	800,000	0,067	0,161
-364,942	800,000	0,072	0,147
-363,927	-134,143	-0,057	0,005
-362,912	-33,095	-0,099	0,039
-361,898	9,473	-0,156	0,085
-360,883	800,000	-0,045	0,101
-359,869	53,499	0,051	-0,035
-358,854	-16,763	-0,056	0,025
-357,839	-200,000	-0,020	0,077
-356,825	800,000	0,042	0,092
-355,810	-200,000	0,008	0,046
-354,796	-200,000	0,005	-0,030
-353,781	800,000	-0,034	0,096
-352,766	664,414	0,074	-0,138
-351,752	62,479	0,099	-0,071
-350,737	50,263	0,198	0,134
-349,723	-29,138	0,045	-0,018
-348,708	800,000	0,056	0,164
-347,693	213,182	-0,063	-0,071
-346,679	197,696	-0,064	0,070
-345,664	111,590	-0,104	-0,090
-344,650	800,000	-0,077	-0,163
-343,635	800,000	0,066	0,177
-342,620	-61,669	0,092	-0,028
-341,606	-200,000	0,026	-0,144
-340,591	210,405	-0,075	-0,085
-339,577	256,525	0,073	-0,090
-338,562	-200,000	0,003	-0,131
-337,548	800,000	0,023	0,048
-336,533	-200,000	0,009	-0,047
-335,518	800,000	0,042	0,090
-334,504	14,472	0,047	-0,026
-333,489	-200,000	0,020	-0,140
-332,475	-200,000	-0,012	-0,074
-331,460	610,493	-0,057	-0,102
-330,445	-104,243	0,076	0,013
-329,431	-188,112	-0,052	-0,000
-328,416	65,488	0,089	-0,064
-327,402	-152,306	0,090	-0,005
-326,387	8,943	0,041	0,022
-325,372	90,870	-0,046	0,037
-324,358	-184,229	-0,037	0,000
-323,343	-200,000	0,005	-0,133
-322,329	39,846	0,106	-0,068
-321,314	216,961	-0,048	0,055
-320,299	-158,826	0,073	0,003
-319,285	359,154	0,006	0,008
-318,270	-37,299	-0,079	0,030
-317,256	216,915	-0,016	0,018
-316,241	800,000	0,057	0,126
-315,226	242,706	0,008	-0,010
-314,212	-200,000	0,005	0,081
-313,197	800,000	0,025	0,051
-312,183	-200,000	-0,008	0,039
-311,168	216,966	-0,094	-0,107
-310,153	-36,959	0,005	0,002
-309,139	-49,481	0,044	-0,015
-308,124	-200,000	0,035	-0,133
-307,110	172,562	0,081	0,083
-306,095	563,319	-0,025	0,043
-305,080	-40,027	0,106	-0,039
-304,066	800,000	-0,019	0,049
-303,051	-200,000	0,003	0,084
-302,037	-200,000	-0,001	-0,174
-301,022	8,853	0,180	0,097
-300,008	-0,287	0,091	0,046
-298,993	-200,000	-0,006	0,082
-297,978	199,113	-0,019	-0,021
-296,964	-200,000	-0,006	0,104
-295,949	800,000	0,026	-0,074
-294,935	225,753	-0,064	-0,074
-293,920	-200,000	0,001	-0,122
-292,905	0,662	0,108	0,055
-291,891	76,218	0,065	0,049
-290,876	-200,000	-0,009	0,060
-289,862	75,499	0,061	0,046
-288,847	162,115	0,032	0,032
-287,832	-125,319	-0,006	-0,001
-286,818	-73,656	0,106	0,027
-285,803	-123,068	-0,082	-0,009
-284,789	-169,325	-0,165	-0,004
-283,774	-200,000	0,000	-0,066
-282,759	800,000	0,046	-0,128
-281,745	115,741	0,101	-0,088
-280,730	523,775	0,014	-0,024
-279,716	800,000	0,018	-0,042
-278,701	-200,000	-0,002	-0,017
-277,686	730,135	-0,041	0,079
-276,672	10,092	0,023	0,012
-275,657	530,721	-0,059	0,100
-274,643	-5,354	0,065	-0,032
-273,628	83,858	-0,108	0,084
-272,613	-8,481	-0,083	-0,039
-271,599	-200,000	-0,012	0,129
-270,584	-200,000	0,015	0,055
-269,570	186,027	0,036	0,039
-268,555	110,938	-0,111	0,095
-267,540	-200,000	-0,010	0,043
-266,526	104,838	-0,069	-0,058
-265,511	-138,113	0,046	-0,004
-264,497	-200,000	-0,001	0,076
-263,482	73,834	0,038	-0,028
-262,467	5,138	0,155	-0,081
-261,453	34,028	-0,080	0,050
-260,438	-9,278	-0,158	-0,075
-259,424	800,000	0,072	-0,148
-258,409	800,000	0,070	-0,165
-257,395	800,000	-0,037	-0,098
-256,380	-17,011	0,168	0,076
-255,365	73,890	-0,034	0,025
-254,351	-200,000	-0,038	0,146
-253,336	-200,000	-0,005	-0,074
-252,322	201,348	-0,042	-0,047
-251,307	178,860	-0,034	-0,035
-250,292	280,217	0,046	-0,059
-249,278	64,965	0,090	-0,065
-248,263	281,383	0,069	-0,088
-247,249	314,438	0,044	0,060
-246,234	10,965	0,037	-0,020
-245,219	-87,106	-0,115	0,025
-244,205	654,876	-0,042	-0,077
-243,190	-113,319	0,055	0,008
-242,176	-92,855	0,148	-0,029
-241,161	448,808	0,079	0,125
-240,146	-200,000	0,003	-0,011
-239,132	181,819	0,133	0,140
-238,117	265,536	0,058	0,072
-237,103	-200,000	0,005	-0,030
-236,088	-200,000	0,016	0,056
-235,073	800,000	-0,014	-0,029
-234,059	-200,000	0,034	0,127
-233,044	8,171	-0,078	0,041
-232,030	-76,366	0,085	-0,021
-231,015	-113,464	-0,091	0,013
-230,000	793,402	-0,049	0,097
-228,986	-200,000	-0,003	0,059
-227,971	643,524	0,059	0,108
-226,957	-200,000	-0,003	-0,016
-225,942	22,971	0,061	-0,036
-224,927	-72,827	0,172	-0,045
-223,913	115,992	-0,137	-0,119
-222,898	800,000	-0,026	-0,059
-221,884	-101,883	0,053	-0,009
-220,869	-200,000	0,011	0,131
-219,855	-50,244	0,040	0,013
-218,840	-60,973	-0,017	0,005
-217,825	22,459	-0,057	-0,033
-216,811	-61,927	0,065	-0,019
-215,796	129,113	-0,148	0,135
-214,782	148,454	0,043	0,041
-213,767	159,066	0,095	-0,094
-212,752	740,423	-0,070	0,135
-211,738	-15,866	-0,093	0,042
-210,723	76,572	-0,107	-0,081
-209,709	800,000	0,029	0,069
-208,694	106,355	0,073	0,062
-207,679	-200,000	0,001	0,025
-206,665	138,270	-0,065	-0,060
-205,650	398,807	0,094	0,140
-204,636	367,037	-0,112	0,162
-203,621	-27,797	0,147	-0,060
-202,606	83,681	-0,007	0,006
-201,592	-90,893	-0,117	0,024
-200,577	-19,750	0,168	-0,074
-199,563	-111,662	-0,086	-0,012
-198,548	-69,357	0,136	0,037
-197,533	-200,000	-0,008	-0,045
-196,519	798,463	-0,033	-0,066
-195,504	263,815	0,067	-0,084
-194,490	800,000	-0,066	-0,133
-193,475	800,000	0,044	-0,101
-192,460	-34,968	-0,109	-0,042
-191,446	77,746	0,066	-0,050
-190,431	-17,231	0,080	0,036
-189,417	21,414	-0,047	-0,027
-188,402	-91,146	-0,046	-0,009
-187,387	140,866	-0,055	0,052
-186,373	5,383	0,062	0,033
-185,358	-110,849	-0,079	-0,011
-184,344	-56,647	0,020	0,006
-183,329	166,540	-0,061	-0,061
-182,315	-200,000	0,030	-0,137
-181,300	-168,463	0,094	-0,003
-180,285	73,012	0,075	-0,056
-179,271	-200,000	0,008	-0,093
-178,256	-200,000	-0,003	0,015
-177,242	-200,000	-0,002	0,016
-176,227	-162,901	0,098	0,003
-175,212	-134,973	-0,067	0,006
-174,198	-44,954	0,053	0,019
-173,183	81,987	-0,097	-0,075
-172,169	56,402	0,048	-0,033
-171,154	-17,109	0,078	-0,035
-170,139	386,086	0,060	0,089
-169,125	88,118	0,057	-0,045
-168,110	167,581	0,122	0,123
-167,096	367,051	-0,081	0,117
-166,081	497,145	-0,024	0,039
-165,066	631,423	-0,035	-0,064
-164,052	738,677	-0,058	-0,111
-163,037	31,026	0,053	-0,032
-162,023	141,151	-0,061	0,057
-161,008	800,000	0,060	0,131
-159,993	168,022	-0,119	0,120
-158,979	133,995	0,076	-0,070
-157,964	-200,000	-0,035	-0,139
-156,950	245,284	-0,026	0,031
-155,935	-200,000	-0,001	-0,078
-154,920	34,272	-0,046	-0,028
-153,906	-200,000	0,017	0,136
-152,891	175,572	0,053	0,055
-151,877	323,386	-0,087	-0,118
-150,862	291,700	-0,088	-0,114
-149,847	-200,000	0,042	-0,183
-148,833	30,597	-0,042	-0,025
-147,818	-200,000	0,034	-0,112
-146,804	485,112	0,088	0,143
-145,789	800,000	0,039	0,121
-144,775	69,122	-0,190	-0,138
-143,760	800,000	0,045	-0,119
-142,745	-62,170	-0,098	-0,029
-141,731	800,000	0,042	-0,095
-140,716	-200,000	-0,018	-0,081
-139,702	40,585	-0,123	0,078
-138,687	-200,000	-0,027	0,147
-137,672	61,356	-0,033	-0,024
-136,658	75,167	-0,073	0,055
-135,643	-84,950	0,051	0,011
-134,629	-40,313	-0,025	0,009
-133,614	718,734	-0,073	0,138
-132,599	105,671	-0,065	0,055
-131,585	-101,183	0,026	0,005
-130,570	800,000	0,006	0,017
-129,556	-182,991	-0,043	0,001
-128,541	-137,917	-0,118	-0,009
-127,526	-200,000	0,003	-0,042
-126,512	800,000	0,038	0,092
-125,497	150,637	-0,054	0,052
-124,483	800,000	-0,038	-0,101
-123,468	-8,108	-0,044	-0,021
-122,453	-21,189	0,020	-0,009
-121,439	44,116	-0,076	0,050
-120,424	57,327	0,048	0,033
-119,410	-142,033	-0,017	0,001
-118,395	-92,258	-0,061	0,012
-117,380	125,730	-0,023	0,021
-116,366	-200,000	0,015	0,103
-115,351	82,694	-0,105	-0,081
-114,337	543,838	0,045	-0,076
-113,322	-66,014	-0,036	-0,010
-112,307	25,239	0,038	0,022
-111,293	-9,965	-0,096	0,045
-110,278	6,475	0,064	-0,034
-109,264	115,850	-0,107	-0,093
-108,249	-200,000	-0,009	-0,172
-107,234	-30,617	-0,092	-0,037
-106,220	800,000	0,081	-0,214
-105,205	21,614	-0,033	-0,019
-104,191	-81,108	0,110	-0,026
-103,176	1,315	-0,059	-0,030
-102,162	-200,000	0,007	-0,082
-101,147	-122,975	-0,089	0,010
-100,132	-200,000	-0,007	0,078
-99,118	55,121	-0,052	-0,036
-98,103	-154,760	0,156	0,007
-97,089	-200,000	0,008	0,160
-96,074	106,794	0,143	0,120
-95,059	5,797	-0,103	-0,054
-94,045	-91,063	-0,099	0,020
-93,030	-69,802	0,046	0,012
-92,016	-170,232	-0,118	0,003
-91,001	9,178	-0,017	-0,009
-89,986	800,000	0,019	0,056
-88,972	-66,836	-0,060	-0,017
-87,957	50,167	-0,063	-0,042
-86,943	-200,000	0,007	-0,059
-85,928	-174,136	0,092	-0,002
-84,913	-137,101	-0,218	-0,017
-83,899	39,076	-0,012	0,008
-82,884	-102,163	0,110	-0,019
-81,870	-70,811	-0,086	-0,023
-80,855	425,556	0,051	-0,078
-79,840	-160,519	-0,191	0,007
-78,826	-115,220	-0,016	-0,002
-77,811	-40,632	-0,189	0,069
-76,797	-200,000	-0,012	-0,038
-75,782	19,624	0,052	-0,030
-74,767	-95,946	-0,022	0,004
-73,753	-57,306	-0,055	-0,017
-72,738	391,732	0,035	-0,052
-71,724	-200,000	0,009	-0,093
-70,709	800,000	-0,040	0,079
-69,694	-178,499	0,144	-0,002
-68,680	-200,000	0,136	0,000
-67,665	-200,000	0,030	0,108
-66,651	-200,000	0,066	0,212
-65,636	246,035	0,116	0,139
-64,622	-34,111	-0,040	-0,015
-63,607	-200,000	0,035	-0,170
-62,592	-200,000	0,002	-0,018
-61,578	-100,949	0,064	-0,011
-60,563	132,689	0,078	0,071
-59,549	571,086	0,058	0,100
-58,534	0,547	-1,653	-0,834
-57,519	440,979	-1,327	-2,062
-56,505	-200,000	-0,549	-4,509
-55,490	161,647	1,056	1,048
-54,476	800,000	4,929	11,319
-53,461	-200,000	19,216	320,479
-52,446	-200,000	741,231	2334,862
-51,432	572,595	1655,965	2868,633
-50,417	78,143	1671,326	1261,446
-49,403	21,247	1543,988	885,450
-48,388	15,117	1466,461	811,174
-47,373	17,954	1456,660	819,432
-46,359	16,688	1446,561	807,644
-45,344	13,391	1441,802	789,164
-44,330	13,273	1439,935	787,544
-43,315	13,310	1438,178	786,728
-42,300	13,351	1436,385	785,910
-41,286	13,375	1435,059	785,268
-40,271	13,315	1434,027	784,387
-39,257	13,292	1432,709	783,528
-38,242	13,324	1431,443	782,957
-37,227	13,347	1430,162	782,335
-36,213	13,342	1428,794	781,532
-35,198	13,334	1427,645	780,832
-34,184	13,364	1426,956	780,565
-33,169	13,322	1425,500	779,542
-32,154	13,425	1424,233	779,305
-31,140	13,436	1422,971	778,635
-30,125	13,447	1421,821	778,025
-29,111	13,362	1420,903	777,092
-28,096	13,368	1419,716	776,440
-27,082	13,302	1418,676	775,530
-26,067	13,291	1417,464	774,785
-25,052	13,289	1416,243	774,076
-24,038	13,262	1415,633	773,584
-23,023	13,281	1414,374	772,955
-22,009	13,267	1413,570	772,422
-20,994	13,257	1412,614	771,819
-19,979	13,276	1411,753	771,410
-18,965	13,221	1410,882	770,644
-17,950	13,238	1409,730	770,061
-16,936	13,209	1408,957	769,477
-15,921	13,192	1407,689	768,674
-14,906	13,170	1406,989	768,158
-13,892	13,205	1405,915	767,704
-12,877	13,216	1404,976	767,214
-11,863	13,209	1404,031	766,630
-10,848	13,248	1403,164	766,311
-9,833	13,145	1402,522	765,452
-8,819	13,113	1401,471	764,699
-7,804	13,085	1400,774	764,155
-6,790	13,128	1399,580	763,675
-5,775	13,104	1398,537	762,963
-4,760	13,081	1397,659	762,346
-3,746	13,080	1396,768	761,825
-2,731	13,024	1396,165	761,205
-1,717	13,063	1395,063	760,757
-0,702	13,102	1393,276	759,933
0,313	16,920	1310,015	732,214
1,327	33,246	703,597	430,995
2,342	51,455	123,213	82,691
3,356	2,225	16,670	8,498
4,371	4,945	3,232	1,677
5,386	-33,000	0,601	0,235
6,400	-200,000	-0,025	0,275
7,415	95,776	-0,331	-0,267
8,429	41,940	-0,293	-0,188
9,444	-69,053	-0,329	-0,089
10,459	33,538	-0,353	-0,216
11,473	53,576	-0,213	-0,144
12,488	-7,181	-0,202	-0,097
13,502	-25,931	-0,202	-0,084
14,517	70,541	-0,375	-0,274
15,531	17,725	-0,393	-0,221
16,546	-18,335	-0,352	-0,155
17,561	219,472	-0,354	-0,401
18,575	35,828	-0,251	-0,156
19,590	400,146	-0,195	-0,290
20,604	47,029	-0,211	-0,139
21,619	145,345	-0,361	-0,342
22,634	52,985	-0,452	-0,305
23,648	246,935	-0,449	-0,536
24,663	217,227	-0,323	-0,364
25,677	118,189	-0,292	-0,254
26,692	-35,518	-0,302	-0,115
27,707	20,795	-0,365	-0,208
28,721	314,109	-0,333	-0,444
29,736	41,297	-0,388	-0,247
30,750	134,287	-0,402	-0,368
31,765	-13,332	-0,417	-0,190
32,780	-9,426	-0,315	-0,148
33,794	115,304	-0,316	-0,273
34,809	406,986	-0,241	-0,360
35,823	62,506	-0,333	-0,234
36,838	20,539	-0,318	-0,181
37,853	50,397	-0,413	-0,275
38,867	48,065	-0,429	-0,282
39,882	268,809	-0,276	-0,342
40,896	55,199	-0,309	-0,210
41,911	77,921	-0,314	-0,236
42,926	120,543	-0,332	-0,290
43,940	58,631	-0,378	-0,261
44,955	76,312	-0,404	-0,301
45,969	-29,375	-0,396	-0,159
46,984	52,352	-0,360	-0,242
47,999	138,573	-0,258	-0,239
49,013	51,436	-0,319	-0,213
50,028	-26,661	-0,337	-0,138
51,042	7,029	-0,356	-0,186
52,057	52,659	-0,475	-0,319
53,071	293,045	-0,224	-0,288
54,086	33,198	-0,374	-0,228
55,101	-10,710	-0,397	-0,184
56,115	76,835	-0,302	-0,226
57,130	38,512	-0,359	-0,225
58,144	11,335	-0,314	-0,169
59,159	48,740	-0,408	-0,269
60,174	-31,091	-0,385	-0,152
61,188	38,141	-0,318	-0,199
62,203	-1,128	-0,314	-0,156
63,217	-70,968	-0,393	-0,103
64,232	-26,051	-0,339	-0,140
65,247	-21,265	-0,244	-0,105
66,261	106,742	-0,354	-0,295
67,276	-3,813	-0,345	-0,168
68,290	174,844	-0,243	-0,248
69,305	-29,167	-0,303	-0,122
70,320	2,665	-0,316	-0,161
71,334	-130,057	-0,194	-0,018
72,349	76,259	-0,310	-0,230
73,363	12,920	-0,436	-0,236
74,378	56,619	-0,368	-0,251
75,393	242,495	-0,312	-0,368
76,407	-33,030	-0,245	-0,095
77,422	40,741	-0,268	-0,169
78,436	-43,598	-0,417	-0,147
79,451	-86,471	-0,398	-0,085
80,466	60,738	-0,370	-0,257
81,480	156,238	-0,299	-0,290
82,495	83,330	-0,354	-0,270
83,509	-34,362	-0,384	-0,147
84,524	-71,150	-0,267	-0,070
85,539	21,446	-0,368	-0,209
86,553	-62,720	-0,380	-0,110
87,568	115,615	-0,334	-0,287
88,582	0,368	-0,373	-0,186
89,597	100,824	-0,279	-0,228
90,611	9,448	-0,240	-0,127
91,626	-127,678	-0,363	-0,036
92,641	42,665	-0,246	-0,157
93,655	120,996	-0,240	-0,210
94,670	85,126	-0,311	-0,240
95,684	108,273	-0,293	-0,245
96,699	243,810	-0,296	-0,349
97,714	-23,927	-0,323	-0,135
98,728	58,414	-0,157	-0,108
99,743	-91,068	-0,281	-0,056
100,757	-4,382	-0,303	-0,146
101,772	35,823	-0,267	-0,164
102,787	106,778	-0,276	-0,230
103,801	96,159	-0,264	-0,212
104,816	74,699	-0,202	-0,149
105,830	392,203	-0,120	-0,176
106,845	2,799	-0,283	-0,143
107,860	-7,637	-0,351	-0,166
108,874	20,652	-0,280	-0,159
109,889	28,020	-0,304	-0,179
110,903	90,128	-0,325	-0,255
111,918	260,423	-0,262	-0,318
112,933	-98,414	-0,333	-0,059
113,947	62,574	-0,265	-0,185
114,962	143,586	-0,299	-0,280
115,976	23,700	-0,253	-0,146
116,991	32,277	-0,208	-0,126
118,006	61,839	-0,325	-0,226
119,020	-125,042	-0,213	-0,023
120,035	80,498	-0,221	-0,167
121,049	14,080	-0,155	-0,084
122,064	-114,997	-0,277	-0,036
123,079	-23,827	-0,204	-0,085
124,093	-49,399	-0,258	-0,086
125,108	3,420	-0,330	-0,168
126,122	96,357	-0,240	-0,192
127,137	114,066	-0,155	-0,132
128,151	171,208	-0,148	-0,149
129,166	20,119	-0,278	-0,157
130,181	101,278	-0,348	-0,284
131,195	97,722	-0,234	-0,188
132,210	-64,722	-0,387	-0,109
133,224	404,452	-0,102	-0,150
134,239	-39,975	-0,281	-0,102
135,254	-30,694	-0,288	-0,113
136,268	159,203	-0,111	-0,108
137,283	182,921	-0,278	-0,287
138,297	31,043	-0,253	-0,151
139,312	-8,191	-0,301	-0,141
140,327	-120,816	-0,295	-0,034
141,341	197,681	-0,126	-0,135
142,356	29,210	-0,199	-0,118
143,370	-24,206	-0,192	-0,080
144,385	-46,108	-0,281	-0,096
145,400	62,555	-0,209	-0,146
146,414	209,663	-0,271	-0,298
147,429	137,879	-0,206	-0,189
148,443	305,609	-0,133	-0,173
149,458	160,638	-0,081	-0,079
150,473	-47,029	-0,262	-0,089
151,487	27,296	-0,293	-0,171
152,502	38,072	-0,276	-0,171
153,516	-14,712	-0,283	-0,126
154,531	697,125	-0,167	-0,307
155,546	56,478	-0,135	-0,092
156,560	29,502	-0,172	-0,102
157,575	-19,665	-0,203	-0,087
158,589	-48,753	-0,286	-0,095
159,604	-68,243	-0,240	-0,065
160,619	190,160	-0,259	-0,272
161,633	28,629	-0,203	-0,119
162,648	-9,786	-0,285	-0,132
163,662	-125,063	-0,193	0,020
164,677	-200,000	-0,028	-0,160
165,692	-142,267	-0,288	-0,020
166,706	142,010	-0,207	-0,191
167,721	-12,334	-0,149	-0,068
168,735	230,166	-0,239	-0,273
169,750	62,939	-0,180	-0,126
170,764	199,614	-0,197	-0,210
171,779	-64,099	-0,148	-0,042
172,794	-104,341	-0,174	-0,028
173,808	169,967	-0,111	-0,111
174,823	800,000	-0,122	-0,278
175,837	161,195	-0,199	-0,194
176,852	-126,835	-0,281	-0,029
177,867	210,259	-0,229	-0,250
178,881	128,731	-0,159	-0,141
179,896	50,376	-0,263	-0,173
180,910	39,180	-0,311	-0,193
181,925	-24,662	-0,212	-0,088
182,940	95,707	-0,283	-0,225
183,954	397,489	-0,168	-0,246
184,969	87,938	-0,216	-0,167
185,983	-145,126	-0,152	0,009
186,998	-56,906	-0,260	-0,079
188,013	-177,332	-0,279	-0,005
189,027	-31,076	-0,278	-0,109
190,042	244,370	-0,228	-0,267
191,056	19,830	-0,325	-0,181
192,071	145,606	-0,179	-0,167
193,086	-20,619	-0,147	-0,062
194,100	-118,452	-0,223	0,027
195,115	-73,954	-0,238	-0,060
196,129	127,735	-0,213	-0,189
197,144	40,018	-0,211	-0,132
198,159	7,308	-0,250	-0,130
199,173	76,139	-0,234	-0,172
200,188	800,000	-0,132	-0,258
201,202	544,332	-0,158	-0,263
202,217	-125,762	-0,255	-0,026
203,232	100,955	-0,235	-0,190
204,246	-58,653	-0,235	-0,070
205,261	-26,592	-0,245	-0,099
206,275	232,475	-0,081	-0,093
207,290	60,201	-0,250	-0,171
208,304	5,244	-0,112	-0,057
209,319	-39,219	-0,380	-0,138
210,334	130,236	-0,179	-0,159
211,348	-60,678	-0,218	-0,064
212,363	39,212	-0,310	-0,193
213,377	-13,640	-0,172	-0,077
214,392	58,516	-0,112	-0,076
215,407	39,578	-0,133	-0,083
216,421	656,368	-0,099	-0,178
217,436	-73,839	-0,229	-0,057
218,450	800,000	-0,091	-0,199
219,465	22,715	-0,180	-0,102
220,480	158,705	-0,152	-0,147
221,494	54,559	-0,190	-0,127
222,509	-82,124	-0,110	0,025
223,523	27,390	-0,162	-0,094
224,538	53,924	-0,173	-0,115
225,553	800,000	-0,084	-0,191
226,567	800,000	-0,064	-0,184
227,582	-4,014	-0,359	-0,172
228,596	22,359	-0,206	-0,116
229,611	147,882	-0,099	-0,093
230,626	-115,871	-0,212	0,027
231,640	149,408	-0,155	-0,146
232,655	154,127	-0,182	-0,174
233,669	229,957	-0,220	-0,249
234,684	-51,588	-0,256	-0,082
235,699	-111,640	-0,155	-0,021
236,713	-125,151	-0,109	-0,011
237,728	299,276	-0,177	-0,226
238,742	150,534	-0,150	-0,142
239,757	132,589	-0,245	-0,219
240,772	350,930	-0,210	-0,289
241,786	-50,884	-0,167	-0,054
242,801	-182,180	-0,253	0,003
243,815	55,808	-0,225	-0,151
244,830	91,366	-0,125	-0,097
245,844	800,000	-0,063	-0,134
246,859	800,000	-0,113	-0,222
247,874	-51,995	-0,176	-0,056
248,888	2,566	-0,213	-0,107
249,903	65,441	-0,154	-0,108
250,917	64,946	-0,184	-0,128
251,932	436,606	-0,067	-0,101
252,947	91,785	-0,167	-0,130
253,961	84,553	-0,109	0,082
254,976	189,552	-0,163	-0,170
255,990	7,664	-0,137	-0,071
257,005	-122,887	-0,208	0,023
258,020	800,000	-0,051	-0,125
259,034	-123,281	-0,234	0,026
260,049	187,480	-0,137	-0,142
261,063	800,000	-0,079	-0,232
262,078	54,147	-0,264	-0,176
263,093	-200,000	-0,038	-0,133
264,107	800,000	-0,106	-0,246
265,122	20,296	-0,033	0,018
266,136	4,421	-0,182	-0,092
267,151	36,232	-0,206	-0,125
268,166	86,769	-0,209	-0,159
269,180	10,122	-0,257	-0,134
270,195	82,111	-0,127	-0,095
271,209	-30,873	-0,259	-0,101
272,224	-3,596	-0,176	-0,084
273,239	60,657	-0,156	-0,107
274,253	71,768	-0,219	-0,157
275,268	-65,234	-0,136	-0,038
276,282	-87,458	-0,205	-0,043
277,297	39,881	-0,306	-0,190
278,312	-56,267	-0,105	0,032
279,326	408,741	-0,077	-0,113
280,341	269,447	-0,077	0,094
281,355	800,000	-0,077	-0,151
282,370	-108,779	-0,206	-0,030
283,384	-41,277	-0,244	-0,086
284,399	116,904	-0,233	-0,198
285,414	-120,857	-0,158	-0,018
286,428	164,895	-0,117	-0,114
287,443	-200,000	-0,002	-0,054
288,457	133,653	-0,197	-0,176
289,472	287,659	-0,115	-0,143
290,487	176,757	-0,240	-0,241
291,501	522,556	-0,160	-0,260
292,516	12,201	-0,257	-0,136
293,530	383,844	-0,143	-0,204
294,545	491,892	-0,065	-0,104
295,560	-48,079	-0,252	0,083
296,574	56,609	-0,128	-0,085
297,589	196,663	-0,078	-0,083
298,603	676,950	-0,130	-0,235
299,618	202,224	-0,179	-0,190
300,633	129,849	-0,022	-0,019
301,647	-111,543	-0,146	0,020
302,662	-200,000	-0,029	-0,135
303,676	42,548	-0,107	-0,067
304,691	240,787	-0,153	-0,176
305,706	113,557	-0,246	-0,206
306,720	-30,337	-0,118	-0,046
307,735	618,783	-0,119	-0,206
308,749	124,727	-0,101	-0,088
309,764	244,314	-0,088	-0,101
310,779	63,390	-0,125	-0,086
311,793	-7,502	-0,185	-0,086
312,808	84,463	-0,161	-0,121
313,822	304,672	-0,196	-0,251
314,837	-71,815	-0,255	-0,065
315,852	-89,708	-0,150	-0,030
316,866	-141,886	-0,054	0,004
317,881	409,842	-0,050	-0,074
318,895	84,530	-0,153	-0,115
319,910	114,837	-0,235	-0,197
320,925	206,684	-0,097	-0,104
321,939	-111,637	-0,182	-0,025
322,954	299,491	-0,110	-0,140
323,968	21,674	-0,125	-0,070
324,983	-92,330	-0,253	0,049
325,997	-200,000	-0,034	-0,155
327,012	273,928	-0,191	-0,233
328,027	-46,455	-0,188	-0,063
329,041	13,501	-0,221	-0,117
330,056	77,997	-0,158	-0,115
331,070	91,189	-0,141	-0,109
332,085	403,826	-0,083	-0,120
333,100	-41,525	-0,124	-0,044
334,114	16,926	-0,218	-0,118
335,129	-64,421	-0,132	-0,037
336,143	351,843	-0,165	-0,225
337,158	-200,000	-0,073	-0,230
338,173	-49,028	-0,054	-0,018
339,187	112,476	-0,219	-0,182
340,202	-108,150	-0,264	-0,039
341,216	461,054	-0,103	-0,159
342,231	168,900	-0,088	-0,086
343,246	-35,752	-0,170	-0,063
344,260	-3,004	-0,201	-0,096
345,275	-130,953	-0,111	-0,010
346,289	-128,855	-0,204	0,019
347,304	-69,545	-0,149	-0,039
348,319	9,075	-0,071	-0,037
349,333	40,744	-0,220	-0,136
350,348	68,602	-0,134	-0,095
351,362	-0,780	-0,191	-0,092
352,377	-200,000	-0,051	-0,170
353,392	60,357	-0,142	-0,097
354,406	-10,418	-0,161	-0,073
355,421	209,972	1313,370	1415,263
356,435	161,622	1473,945	1415,758
