DTS Sentinel unit serial number:	SN410029Multiplexer serial number:	ORYXHardware model number:	OX2-SRSoftware version number:	ORYX F/W v4,00 Oryx Data Collector v3.7.2.0data status	okinstallation	B3 Nyhavnadifferential loss correction	single-endedforward channel	channel 1reverse channel	N/Adate	2023/12/01time	05:12:30forward acquisition time	300,00reverse acquisition time	0,00gamma	499,1914k internal	0,3212k external	0,3212temperature offset calibration	1,0000default loss term (dB/km)	0,3820temperature slope calibration	1,0000multiplexer offset coefficient	1,0000multiplexer slope coefficient	1,0000fibre end	0,00T internal ref (°C)	7,90T ext. ref 1 (°C)	-7,20T ext. ref 2 (°C)	-7,33length (m)	temperature (°C)	Stokes	anti-Stokes-744,400	259,652	-0,224	-0,281
-743,385	-200,000	-0,056	0,309
-742,371	800,000	-0,072	-0,158
-741,356	-200,000	0,036	0,189
-740,342	800,000	-0,085	-0,222
-739,327	-200,000	-0,039	0,243
-738,312	165,353	-0,183	-0,188
-737,298	-200,000	-0,034	0,364
-736,283	-200,000	-0,053	-0,195
-735,269	-200,000	-0,044	0,156
-734,254	158,574	-0,151	-0,152
-733,239	-138,930	-0,200	-0,016
-732,225	800,000	-0,119	-0,268
-731,210	163,260	0,169	0,172
-730,196	48,423	-0,113	0,077
-729,181	-131,534	-0,081	-0,008
-728,167	77,713	0,042	0,032
-727,152	-95,895	-0,131	-0,025
-726,137	-74,712	-0,113	-0,029
-725,123	410,974	-0,204	-0,314
-724,108	-51,436	-0,123	-0,042
-723,094	131,259	-0,119	-0,111
-722,079	-200,000	-0,008	-0,060
-721,064	203,077	0,045	0,051
-720,050	-63,283	-0,079	-0,023
-719,035	-168,800	-0,074	0,002
-718,021	800,000	-0,024	-0,062
-717,006	117,878	-0,085	-0,076
-715,991	32,113	-0,163	-0,101
-714,977	800,000	-0,078	-0,187
-713,962	250,392	-0,049	-0,060
-712,948	561,660	0,071	0,125
-711,933	-121,786	0,137	0,016
-710,918	-77,626	-0,203	-0,050
-709,904	-29,717	-0,047	-0,019
-708,889	-31,376	-0,060	-0,024
-707,875	43,958	-0,150	-0,099
-706,860	89,928	0,067	-0,054
-705,845	-36,615	-0,069	-0,027
-704,831	23,411	-0,065	-0,038
-703,816	9,030	-0,101	-0,055
-702,802	65,682	-0,052	0,038
-701,787	800,000	-0,018	-0,057
-700,772	-200,000	-0,015	-0,113
-699,758	-200,000	0,002	-0,209
-698,743	-200,000	-0,005	-0,032
-697,729	-200,000	-0,047	0,167
-696,714	82,148	-0,057	0,044
-695,699	59,614	-0,091	0,065
-694,685	-30,077	-0,208	-0,085
-693,670	-117,808	0,092	-0,012
-692,656	-5,964	-0,138	-0,068
-691,641	-123,412	0,047	-0,005
-690,627	-124,271	0,029	0,003
-689,612	-32,678	0,066	0,027
-688,597	207,475	-0,079	0,089
-687,583	-47,935	0,081	0,028
-686,568	515,840	0,056	-0,095
-685,554	-200,000	0,017	-0,059
-684,539	-121,194	-0,061	0,007
-683,524	-61,926	-0,031	0,009
-682,510	800,000	-0,019	-0,053
-681,495	-200,000	0,007	0,038
-680,481	218,275	-0,077	-0,089
-679,466	209,629	-0,019	-0,022
-678,451	-200,000	-0,003	0,049
-677,437	-158,509	-0,069	-0,003
-676,422	800,000	-0,071	-0,158
-675,408	603,156	-0,016	-0,029
-674,393	-83,395	-0,110	-0,025
-673,378	-9,547	-0,129	0,062
-672,364	-66,223	-0,053	0,015
-671,349	64,059	0,076	-0,055
-670,335	48,633	-0,054	-0,036
-669,320	800,000	0,055	-0,130
-668,305	800,000	-0,069	-0,157
-667,291	116,027	0,051	0,045
-666,276	-200,000	-0,027	-0,098
-665,262	-200,000	0,024	-0,161
-664,247	800,000	-0,003	0,010
-663,232	139,380	-0,108	0,102
-662,218	800,000	0,054	0,132
-661,203	-200,000	0,003	-0,030
-660,189	800,000	0,040	-0,093
-659,174	100,485	-0,061	0,051
-658,159	120,483	-0,048	-0,043
-657,145	-200,000	-0,024	-0,212
-656,130	-127,630	-0,069	0,007
-655,116	-200,000	0,016	0,074
-654,101	553,615	-0,074	0,129
-653,086	-108,762	-0,007	-0,001
-652,072	-45,490	-0,069	-0,024
-651,057	-200,000	0,002	0,086
-650,043	80,810	-0,101	-0,078
-649,028	-64,857	-0,028	-0,008
-648,014	410,569	0,018	-0,027
-646,999	-104,476	0,090	0,015
-645,984	321,353	-0,055	-0,075
-644,970	155,274	-0,090	-0,089
-643,955	140,044	-0,017	-0,016
-642,941	19,106	0,043	-0,025
-641,926	-200,000	0,005	-0,050
-640,911	-110,808	-0,030	-0,004
-639,897	40,931	0,021	0,014
-638,882	-163,613	-0,118	-0,004
-637,868	-110,573	0,099	0,015
-636,853	40,857	-0,096	-0,062
-635,838	270,051	-0,120	-0,153
-634,824	681,583	0,052	0,099
-633,809	166,506	0,103	0,106
-632,795	-200,000	0,001	0,058
-631,780	125,753	-0,058	0,053
-630,765	800,000	0,021	-0,046
-629,751	235,860	-0,061	-0,072
-628,736	502,342	0,036	-0,060
-627,722	-9,613	-0,145	-0,070
-626,707	-200,000	-0,011	0,036
-625,692	-85,071	0,146	-0,033
-624,678	83,321	-0,079	-0,062
-623,663	-56,331	-0,181	-0,058
-622,649	-119,091	0,115	-0,014
-621,634	732,746	0,016	-0,032
-620,619	800,000	-0,027	0,069
-619,605	-200,000	0,011	-0,166
-618,590	-9,648	0,063	0,030
-617,576	6,424	-0,041	0,022
-616,561	34,289	-0,095	-0,060
-615,546	-52,409	-0,048	-0,016
-614,532	800,000	-0,053	-0,121
-613,517	800,000	0,064	-0,157
-612,503	800,000	0,023	-0,059
-611,488	-36,608	0,043	0,016
-610,474	197,160	0,062	-0,068
-609,459	38,889	-0,140	-0,090
-608,444	390,144	0,040	-0,060
-607,430	356,270	-0,062	0,089
-606,415	728,251	0,006	-0,012
-605,401	800,000	0,042	-0,131
-604,386	-102,284	-0,092	-0,016
-603,371	-79,807	0,077	0,019
-602,357	-85,325	-0,039	-0,009
-601,342	167,462	0,066	-0,068
-600,328	244,489	-0,023	0,028
-599,313	-5,248	-0,137	0,067
-598,298	-200,000	-0,011	0,099
-597,284	-139,020	0,054	0,004
-596,269	-34,906	-0,168	0,066
-595,255	800,000	-0,040	0,113
-594,240	298,331	0,034	0,045
-593,225	-200,000	0,005	0,077
-592,211	800,000	-0,025	-0,061
-591,196	31,802	-0,046	-0,029
-590,182	-94,033	-0,065	0,013
-589,167	270,884	-0,068	0,086
-588,152	-68,268	0,098	0,027
-587,138	-148,161	0,038	-0,002
-586,123	781,749	-0,053	-0,106
-585,109	-200,000	-0,032	0,155
-584,094	259,523	-0,076	-0,095
-583,079	58,558	-0,041	-0,029
-582,065	18,535	0,043	-0,025
-581,050	-76,402	-0,082	0,021
-580,036	-200,000	-0,020	-0,084
-579,021	340,579	-0,036	-0,050
-578,006	-200,000	0,025	-0,124
-576,992	126,309	-0,040	-0,036
-575,977	800,000	0,030	0,063
-574,963	367,115	0,042	0,062
-573,948	114,201	-0,059	-0,052
-572,934	-200,000	0,042	-0,171
-571,919	-200,000	0,016	0,070
-570,904	800,000	0,036	-0,083
-569,890	-200,000	-0,006	-0,068
-568,875	93,976	-0,097	0,079
-567,861	185,186	0,078	0,083
-566,846	62,120	-0,089	0,064
-565,831	-155,903	0,044	-0,002
-564,817	-0,156	-0,011	-0,006
-563,802	78,024	-0,209	-0,160
-562,788	705,764	-0,036	0,069
-561,773	-200,000	-0,017	0,164
-560,758	-15,158	-0,023	-0,011
-559,744	172,341	-0,028	0,029
-558,729	800,000	-0,020	0,059
-557,715	-148,052	-0,067	0,004
-556,700	-84,671	0,279	0,063
-555,685	-200,000	0,009	0,053
-554,671	-83,436	0,116	-0,026
-553,656	-42,721	0,091	0,033
-552,642	-94,344	-0,063	0,012
-551,627	269,192	-0,123	0,156
-550,612	256,263	-0,021	0,026
-549,598	-200,000	-0,006	0,032
-548,583	19,693	-0,030	-0,017
-547,569	-116,865	0,165	-0,021
-546,554	-200,000	-0,004	0,029
-545,539	41,439	0,068	0,044
-544,525	-200,000	0,002	0,051
-543,510	112,627	-0,054	-0,047
-542,496	800,000	-0,040	-0,107
-541,481	97,468	0,060	-0,050
-540,466	-200,000	0,001	-0,026
-539,452	-200,000	-0,000	-0,004
-538,437	-200,000	0,003	-0,082
-537,423	800,000	0,063	0,180
-536,408	-85,328	0,121	0,027
-535,393	296,690	-0,093	-0,123
-534,379	76,979	0,130	-0,099
-533,364	311,228	-0,060	-0,081
-532,350	-200,000	0,007	-0,065
-531,335	241,330	-0,115	-0,138
-530,321	0,887	0,081	0,041
-529,306	800,000	0,038	0,114
-528,291	800,000	-0,016	-0,049
-527,277	144,444	0,098	-0,094
-526,262	261,515	-0,050	-0,062
-525,248	40,350	0,157	-0,101
-524,233	17,805	0,100	-0,057
-523,218	439,896	-0,054	-0,085
-522,204	-200,000	-0,058	0,187
-521,189	181,878	-0,093	-0,099
-520,175	204,187	-0,086	-0,096
-519,160	800,000	0,007	-0,017
-518,145	76,532	0,152	0,116
-517,131	-114,214	-0,041	0,006
-516,116	-200,000	0,009	0,077
-515,102	-200,000	0,013	0,167
-514,087	301,246	-0,052	0,070
-513,072	-41,221	-0,062	-0,023
-512,058	-200,000	0,008	-0,027
-511,043	2,393	0,045	-0,023
-510,029	-200,000	-0,011	-0,133
-509,014	-200,000	0,009	-0,079
-507,999	800,000	0,051	-0,114
-506,985	-200,000	-0,021	-0,089
-505,970	292,452	-0,070	-0,092
-504,956	-140,976	-0,129	0,009
-503,941	27,006	0,031	-0,018
-502,926	-113,896	0,094	-0,013
-501,912	145,109	-0,070	0,067
-500,897	-200,000	-0,014	0,130
-499,883	202,386	0,032	0,036
-498,868	-105,344	-0,043	0,007
-497,853	-188,775	-0,035	-0,000
-496,839	248,798	0,043	-0,053
-495,824	-143,319	0,115	0,008
-494,810	-1,438	0,110	0,056
-493,795	-200,000	0,000	0,126
-492,781	474,159	-0,042	-0,069
-491,766	800,000	0,043	-0,087
-490,751	800,000	0,039	-0,098
-489,737	800,000	0,020	0,051
-488,722	-49,273	0,117	0,040
-487,708	356,723	0,039	0,056
-486,693	-81,266	0,090	-0,021
-485,678	-65,731	-0,079	0,022
-484,664	800,000	-0,048	-0,141
-483,649	106,146	0,040	0,034
-482,635	800,000	0,040	0,083
-481,620	-141,948	0,046	0,003
-480,605	-51,685	0,034	0,011
-479,591	-121,241	0,053	0,006
-478,576	-114,819	0,139	-0,019
-477,562	-200,000	0,004	0,083
-476,547	236,159	0,019	-0,022
-475,532	-72,975	-0,170	-0,044
-474,518	46,774	-0,082	-0,054
-473,503	-200,000	-0,021	0,072
-472,489	-47,954	0,108	0,037
-471,474	-124,084	0,052	0,006
-470,459	-200,000	0,009	0,118
-469,445	41,355	-0,051	-0,033
-468,430	-200,000	-0,002	-0,024
-467,416	151,688	-0,022	-0,022
-466,401	-32,644	0,079	0,031
-465,386	44,048	0,091	-0,059
-464,372	109,128	-0,015	0,013
-463,357	217,399	0,068	-0,078
-462,343	-200,000	0,000	-0,035
-461,328	80,873	-0,060	0,047
-460,313	-200,000	0,012	0,077
-459,299	87,783	0,104	-0,082
-458,284	-113,420	0,092	-0,013
-457,270	31,980	0,119	0,073
-456,255	678,700	-0,022	-0,042
-455,241	287,412	-0,093	-0,120
-454,226	-200,000	0,015	0,082
-453,211	282,928	0,055	0,071
-452,197	800,000	0,047	0,095
-451,182	-81,005	0,023	0,006
-450,168	-200,000	-0,003	-0,032
-449,153	800,000	0,028	-0,085
-448,138	98,150	-0,087	-0,072
-447,124	-148,594	0,141	0,008
-446,109	346,466	0,130	0,184
-445,095	800,000	-0,036	0,097
-444,080	-135,732	0,111	0,009
-443,065	428,242	-0,015	0,023
-442,051	-141,461	0,103	-0,007
-441,036	-89,278	-0,052	0,011
-440,022	160,364	0,025	0,025
-439,007	-147,372	0,184	-0,011
-437,992	-200,000	0,008	-0,051
-436,978	-200,000	0,014	0,085
-435,963	-117,332	0,065	-0,008
-434,949	800,000	-0,026	0,074
-433,934	-98,062	-0,042	-0,008
-432,919	-200,000	-0,010	-0,115
-431,905	439,862	-0,056	-0,088
-430,890	-200,000	-0,014	0,198
-429,876	-170,424	-0,064	0,002
-428,861	214,484	-0,076	0,086
-427,846	-66,429	-0,040	0,011
-426,832	800,000	-0,060	-0,163
-425,817	-164,995	-0,050	0,002
-424,803	-74,768	-0,112	-0,029
-423,788	-200,000	-0,005	0,105
-422,773	180,875	0,009	-0,009
-421,759	-20,415	0,109	-0,048
-420,744	-141,436	-0,087	0,006
-419,730	800,000	0,021	-0,056
-418,715	400,660	-0,064	-0,096
-417,701	-200,000	0,030	0,132
-416,686	11,750	0,043	-0,024
-415,671	42,280	0,068	0,044
-414,657	-200,000	-0,022	0,166
-413,642	263,839	0,109	0,136
-412,628	283,545	-0,015	0,019
-411,613	-142,800	-0,078	0,005
-410,598	-200,000	0,008	0,063
-409,584	800,000	-0,020	-0,062
-408,569	-200,000	0,009	0,204
-407,555	-20,798	0,141	0,061
-406,540	-200,000	0,006	-0,073
-405,525	464,666	0,047	-0,076
-404,511	27,179	-0,034	-0,021
-403,496	-117,856	-0,143	0,018
-402,482	-200,000	-0,025	-0,094
-401,467	800,000	0,051	0,142
-400,452	10,043	0,073	-0,039
-399,438	85,160	-0,086	0,067
-398,423	-65,522	0,102	0,029
-397,409	24,592	-0,049	0,029
-396,394	-200,000	0,033	0,109
-395,379	355,380	0,047	-0,066
-394,365	75,460	-0,032	0,024
-393,350	-200,000	0,023	0,111
-392,336	263,006	-0,076	-0,095
-391,321	-21,479	-0,171	-0,074
-390,306	-89,020	0,052	0,011
-389,292	-200,000	0,005	0,038
-388,277	193,628	0,046	0,050
-387,263	399,210	0,034	0,052
-386,248	-74,480	0,147	0,038
-385,233	232,609	-0,034	0,040
-384,219	142,250	-0,148	0,140
-383,204	-200,000	-0,025	-0,221
-382,190	-200,000	-0,014	-0,051
-381,175	-200,000	-0,042	0,195
-380,160	39,400	0,035	0,023
-379,146	-51,589	0,132	0,044
-378,131	405,397	0,069	0,105
-377,117	-158,843	-0,058	-0,002
-376,102	482,481	0,051	-0,084
-375,088	-19,097	0,103	0,046
-374,073	-21,085	-0,044	0,019
-373,058	177,045	0,066	0,069
-372,044	-165,084	0,119	0,004
-371,029	-90,804	0,075	-0,015
-370,015	-200,000	-0,030	-0,141
-369,000	800,000	-0,022	-0,054
-367,985	-136,222	0,081	-0,007
-366,971	-173,182	0,073	-0,002
-365,956	512,696	0,091	-0,152
-364,942	16,442	-0,066	-0,037
-363,927	-163,729	0,104	-0,003
-362,912	383,665	0,052	0,077
-361,898	3,292	0,063	-0,032
-360,883	42,837	-0,083	0,054
-359,869	353,005	0,050	0,071
-358,854	-133,517	0,139	0,012
-357,839	-0,808	-0,146	-0,074
-356,825	24,146	0,132	0,078
-355,810	-143,805	-0,036	0,002
-354,796	281,712	-0,043	-0,056
-353,781	-200,000	0,039	-0,195
-352,766	289,671	-0,062	-0,081
-351,752	64,330	-0,053	0,038
-350,737	-94,676	-0,092	-0,018
-349,723	564,281	0,083	0,144
-348,708	-200,000	-0,019	0,120
-347,693	-144,532	-0,245	0,016
-346,679	97,636	-0,089	-0,073
-345,664	248,501	0,079	-0,096
-344,650	66,102	0,074	-0,054
-343,635	367,429	0,071	-0,102
-342,620	20,018	-0,022	-0,012
-341,606	-76,048	0,035	0,009
-340,591	-127,728	0,059	0,006
-339,577	294,157	0,046	0,061
-338,562	-200,000	-0,003	-0,010
-337,548	-200,000	-0,024	0,085
-336,533	-200,000	0,023	-0,187
-335,518	40,843	0,055	0,036
-334,504	251,270	-0,018	-0,022
-333,489	-121,973	-0,112	-0,013
-332,475	503,658	-0,032	-0,053
-331,460	559,024	-0,022	-0,039
-330,445	64,087	-0,100	0,072
-329,431	800,000	-0,036	0,087
-328,416	287,668	-0,047	0,061
-327,402	-200,000	-0,012	0,080
-326,387	-200,000	-0,021	0,095
-325,372	-160,883	-0,097	0,004
-324,358	-200,000	-0,002	-0,141
-323,343	-96,033	0,046	-0,009
-322,329	14,935	0,135	-0,075
-321,314	-200,000	-0,021	-0,094
-320,299	112,542	0,082	0,071
-319,285	-130,540	-0,070	0,007
-318,270	64,837	0,072	0,052
-317,256	-72,831	-0,095	-0,025
-316,241	556,042	-0,033	-0,057
-315,226	-200,000	0,026	-0,098
-314,212	-200,000	0,043	-0,202
-313,197	800,000	-0,058	0,177
-312,183	800,000	-0,022	0,062
-311,168	696,838	0,054	-0,101
-310,153	21,021	-0,273	-0,157
-309,139	-200,000	0,001	-0,174
-308,124	-27,103	-0,021	0,009
-307,110	166,569	-0,018	0,018
-306,095	-72,098	-0,105	-0,028
-305,080	800,000	0,048	-0,095
-304,066	35,220	-0,108	-0,067
-303,051	800,000	0,010	0,030
-302,037	-200,000	-0,022	-0,114
-301,022	800,000	0,018	0,048
-300,008	-200,000	0,018	0,140
-298,993	190,297	-0,094	0,101
-297,978	-46,291	0,196	-0,068
-296,964	800,000	0,044	-0,089
-295,949	-7,297	0,069	0,033
-294,935	68,145	-0,069	0,050
-293,920	65,844	-0,111	0,080
-292,905	-112,576	-0,049	0,007
-291,891	-200,000	-0,003	0,074
-290,876	800,000	0,046	0,092
-289,862	800,000	0,044	0,094
-288,847	160,790	0,050	0,050
-287,832	160,426	-0,066	0,066
-286,818	60,016	0,079	0,055
-285,803	-142,437	-0,037	0,003
-284,789	100,218	-0,052	0,043
-283,774	35,057	0,202	0,126
-282,759	328,089	-0,014	0,019
-281,745	-200,000	-0,012	-0,044
-280,730	-144,016	0,071	0,005
-279,716	800,000	0,040	0,098
-278,701	-200,000	0,000	-0,019
-277,686	349,727	0,067	0,094
-276,672	-115,383	-0,044	0,006
-275,657	89,437	-0,099	0,078
-274,643	-200,000	-0,012	-0,133
-273,628	-92,867	-0,054	-0,011
-272,613	317,192	0,052	-0,070
-271,599	800,000	-0,010	0,032
-270,584	-40,877	-0,110	0,040
-269,570	169,029	0,096	0,097
-268,555	598,656	-0,061	0,108
-267,540	-200,000	-0,043	-0,209
-266,526	-200,000	0,028	-0,088
-265,511	-200,000	-0,008	-0,099
-264,497	499,864	-0,024	0,040
-263,482	131,969	-0,034	0,031
-262,467	496,801	0,055	-0,090
-261,453	-200,000	0,024	0,090
-260,438	76,681	0,076	-0,057
-259,424	-33,239	-0,085	-0,033
-258,409	-113,961	-0,079	0,011
-257,395	-54,840	0,100	0,032
-256,380	470,985	-0,125	0,200
-255,365	-44,200	0,058	-0,021
-254,351	-106,455	-0,046	0,007
-253,336	159,806	0,016	-0,015
-252,322	201,071	-0,082	-0,090
-251,307	-154,525	-0,128	-0,006
-250,292	-0,359	0,062	-0,031
-249,278	242,783	0,032	0,039
-248,263	177,946	0,113	0,118
-247,249	-9,642	0,036	0,017
-246,234	271,294	-0,035	-0,044
-245,219	-200,000	-0,014	-0,101
-244,205	197,616	-0,105	-0,114
-243,190	358,138	0,059	0,085
-242,176	-200,000	0,004	0,046
-241,161	800,000	0,028	-0,074
-240,146	587,531	0,082	-0,144
-239,132	-200,000	0,004	0,105
-238,117	-200,000	-0,026	-0,084
-237,103	-200,000	0,008	-0,039
-236,088	156,766	-0,087	0,085
-235,073	-128,105	0,082	-0,008
-234,059	800,000	-0,021	-0,042
-233,044	195,588	-0,094	-0,102
-232,030	46,780	-0,066	0,043
-231,015	-200,000	0,005	0,050
-230,000	-107,793	-0,116	-0,018
-228,986	-0,836	-0,053	-0,026
-227,971	-140,047	0,102	-0,008
-226,957	407,986	-0,042	0,063
-225,942	-200,000	0,010	0,043
-224,927	-61,413	-0,211	-0,063
-223,913	-73,499	0,069	-0,018
-222,898	2,947	-0,113	-0,058
-221,884	187,711	0,051	-0,055
-220,869	451,649	-0,101	0,159
-219,855	284,679	0,089	-0,114
-218,840	57,755	-0,070	-0,049
-217,825	-200,000	-0,001	0,020
-216,811	-200,000	0,003	-0,253
-215,796	45,835	0,075	0,049
-214,782	-48,794	0,137	-0,046
-213,767	-193,109	-0,067	-0,000
-212,752	-200,000	-0,007	0,090
-211,738	-46,056	-0,045	0,016
-210,723	25,306	-0,048	0,028
-209,709	-200,000	0,001	-0,039
-208,694	113,354	0,066	-0,057
-207,679	-138,302	0,137	-0,011
-206,665	59,952	-0,064	-0,045
-205,650	800,000	0,043	0,106
-204,636	92,910	0,062	0,050
-203,621	-127,975	0,047	0,005
-202,606	62,621	0,021	0,015
-201,592	304,776	0,054	-0,071
-200,577	800,000	0,028	-0,077
-199,563	-200,000	-0,015	0,080
-198,548	-200,000	-0,001	0,032
-197,533	134,475	-0,093	0,085
-196,519	-100,243	0,099	-0,017
-195,504	153,695	-0,081	-0,079
-194,490	-200,000	0,020	-0,094
-193,475	48,140	-0,045	-0,030
-192,460	800,000	-0,031	-0,083
-191,446	-200,000	0,019	-0,073
-190,431	354,616	-0,031	0,044
-189,417	-200,000	0,006	0,050
-188,402	-200,000	-0,015	0,178
-187,387	370,592	-0,026	0,037
-186,373	353,074	0,018	-0,026
-185,358	734,874	-0,032	-0,061
-184,344	-200,000	0,019	0,119
-183,329	527,470	0,075	0,126
-182,315	126,281	-0,120	0,108
-181,300	-200,000	0,015	0,058
-180,285	57,889	-0,075	-0,052
-179,271	800,000	-0,024	-0,063
-178,256	348,469	0,067	0,094
-177,242	568,609	0,016	0,028
-176,227	-120,885	0,110	-0,013
-175,212	-32,511	0,192	0,076
-174,198	800,000	-0,035	0,095
-173,183	-53,323	-0,095	-0,031
-172,169	238,133	0,052	-0,061
-171,154	-40,290	0,048	-0,018
-170,139	-200,000	-0,018	0,072
-169,125	257,524	0,083	0,101
-168,110	-200,000	-0,026	-0,128
-167,096	-200,000	-0,011	-0,130
-166,081	-92,043	-0,125	-0,025
-165,066	160,352	-0,120	0,118
-164,052	0,455	-0,076	-0,039
-163,037	245,500	0,058	0,069
-162,023	-200,000	0,022	0,072
-161,008	-148,691	-0,101	-0,006
-159,993	-24,567	-0,051	0,021
-158,979	120,839	-0,061	0,054
-157,964	-4,816	-0,099	-0,048
-156,950	-200,000	0,030	-0,097
-155,935	-200,000	0,037	0,143
-154,920	800,000	-0,035	0,095
-153,906	-30,020	0,113	-0,045
-152,891	-200,000	-0,046	0,186
-151,877	271,640	-0,085	-0,106
-150,862	-200,000	0,032	0,156
-149,847	-45,338	-0,154	-0,054
-148,833	800,000	-0,031	0,074
-147,818	800,000	0,029	0,070
-146,804	-72,429	0,155	0,040
-145,789	-55,938	-0,049	-0,015
-144,775	217,956	-0,080	-0,091
-143,760	591,449	0,016	0,028
-142,745	800,000	-0,040	0,107
-141,731	-96,308	0,008	0,002
-140,716	-200,000	0,023	0,084
-139,702	800,000	0,042	0,127
-138,687	-200,000	-0,007	-0,065
-137,672	461,553	-0,033	0,052
-136,658	800,000	0,003	-0,008
-135,643	-80,256	0,036	0,008
-134,629	-200,000	0,027	0,118
-133,614	11,791	0,078	0,042
-132,599	800,000	-0,016	-0,035
-131,585	-200,000	0,029	-0,095
-130,570	91,167	-0,044	-0,035
-129,556	-200,000	0,005	-0,125
-128,541	49,621	0,046	-0,031
-127,526	301,194	0,050	0,066
-126,512	-22,517	0,041	-0,017
-125,497	-178,983	-0,157	0,002
-124,483	196,636	0,050	0,054
-123,468	-165,270	-0,147	0,004
-122,453	-200,000	0,028	-0,096
-121,439	-200,000	0,007	-0,116
-120,424	-120,843	-0,082	0,010
-119,410	-17,016	0,113	-0,050
-118,395	116,942	-0,117	-0,102
-117,380	-200,000	0,027	0,151
-116,366	-85,505	0,056	-0,012
-115,351	400,876	-0,111	-0,165
-114,337	-56,730	0,071	-0,022
-113,322	800,000	-0,028	0,066
-112,307	-200,000	-0,003	0,133
-111,293	59,319	0,023	0,016
-110,278	-82,104	0,034	0,008
-109,264	-200,000	-0,018	0,159
-108,249	-200,000	-0,003	0,071
-107,234	-67,568	-0,078	-0,022
-106,220	800,000	0,024	0,073
-105,205	-200,000	0,000	0,062
-104,191	167,653	0,070	0,071
-103,176	-55,652	0,062	0,020
-102,162	116,058	-0,101	-0,087
-101,147	-200,000	-0,008	0,082
-100,132	246,846	-0,147	-0,175
-99,118	20,186	-0,073	-0,042
-98,103	-200,000	0,023	0,147
-97,089	123,040	0,049	0,043
-96,074	-200,000	-0,005	0,160
-95,059	-105,798	0,123	-0,019
-94,045	-113,566	0,097	-0,013
-93,030	6,332	-0,129	-0,067
-92,016	511,710	-0,021	-0,034
-91,001	232,528	0,072	-0,083
-89,986	670,472	-0,020	-0,037
-88,972	-200,000	0,004	-0,138
-87,957	-200,000	0,024	-0,077
-86,943	31,048	-0,080	0,048
-85,928	-14,539	0,020	-0,009
-84,913	-79,607	0,122	0,029
-83,899	-169,330	-0,118	-0,003
-82,884	-6,069	-0,016	-0,008
-81,870	-200,000	0,103	0,000
-80,855	-75,634	-0,105	-0,026
-79,840	-200,000	-0,005	0,019
-78,826	497,700	-0,037	-0,061
-77,811	224,501	0,065	-0,074
-76,797	-200,000	0,027	-0,108
-75,782	-57,209	0,197	0,061
-74,767	800,000	0,020	0,041
-73,753	800,000	0,039	0,116
-72,738	737,653	0,050	-0,094
-71,724	-8,706	0,037	-0,017
-70,709	800,000	-0,025	-0,054
-69,694	15,661	0,076	-0,042
-68,680	-19,880	0,148	-0,064
-67,665	41,373	-0,128	0,081
-66,651	354,069	0,070	0,098
-65,636	-162,099	0,060	0,002
-64,622	800,000	-0,058	0,134
-63,607	800,000	0,031	-0,094
-62,592	800,000	0,031	-0,070
-61,578	-143,536	-0,027	-0,002
-60,563	-124,461	0,051	0,006
-59,549	-101,008	-0,049	0,008
-58,534	50,437	-2,178	-1,451
-57,519	682,407	-0,974	-1,799
-56,505	-200,000	-0,370	-4,633
-55,490	800,000	0,844	1,729
-54,476	800,000	5,273	11,487
-53,461	-200,000	22,556	347,192
-52,446	800,000	757,099	2287,853
-51,432	531,145	1642,263	2749,516
-50,417	67,546	1640,659	1180,402
-49,403	15,545	1518,176	838,876
-48,388	9,728	1444,951	770,492
-47,373	19,326	1437,455	812,163
-46,359	13,250	1426,221	777,129
-45,344	8,092	1421,960	750,400
-44,330	8,039	1420,019	749,097
-43,315	7,946	1418,421	747,785
-42,300	7,989	1416,562	746,975
-41,286	8,035	1415,262	746,477
-40,271	7,983	1413,972	745,523
-39,257	8,004	1412,981	745,068
-38,242	8,021	1411,870	744,537
-37,227	8,011	1410,576	743,775
-36,213	8,002	1409,317	743,040
-35,198	7,984	1408,378	742,433
-34,184	8,011	1407,107	741,859
-33,169	7,965	1405,878	740,966
-32,154	7,990	1404,930	740,553
-31,140	7,972	1403,865	739,880
-30,125	7,993	1402,641	739,300
-29,111	8,029	1401,263	738,713
-28,096	7,993	1400,249	737,985
-27,082	7,900	1399,156	736,942
-26,067	7,896	1398,100	736,339
-25,052	7,942	1396,841	735,863
-24,038	7,926	1395,966	735,298
-23,023	7,901	1395,179	734,738
-22,009	7,929	1394,037	734,238
-20,994	7,894	1392,964	733,479
-19,979	7,926	1392,109	733,147
-18,965	7,881	1391,179	732,423
-17,950	7,866	1390,191	731,804
-16,936	7,837	1389,486	731,269
-15,921	7,808	1388,382	730,524
-14,906	7,855	1387,239	730,112
-13,892	7,842	1386,462	729,612
-12,877	7,822	1385,638	729,060
-11,863	7,842	1384,942	728,757
-10,848	7,819	1384,002	728,125
-9,833	7,788	1383,228	727,547
-8,819	7,751	1382,120	726,767
-7,804	7,714	1381,421	726,202
-6,790	7,768	1380,273	725,816
-5,775	7,751	1379,204	725,148
-4,760	7,733	1378,419	724,623
-3,746	7,755	1377,300	724,105
-2,731	7,763	1376,600	723,746
-1,717	7,804	1375,503	723,327
-0,702	7,748	1373,932	722,216
0,313	11,683	1283,880	692,700
1,327	27,328	675,861	399,457
2,342	42,793	116,099	74,425
3,356	-1,620	16,613	8,223
4,371	-0,047	4,009	2,005
5,386	-4,192	1,471	0,715
6,400	800,000	0,242	0,687
7,415	336,972	-0,183	-0,251
8,429	7,345	-0,198	-0,104
9,444	113,814	-0,206	-0,176
10,459	177,451	-0,230	-0,236
11,473	-13,015	-0,273	-0,125
12,488	43,686	-0,267	-0,172
13,502	-22,419	-0,296	-0,126
14,517	-1,143	-0,385	-0,191
15,531	118,666	-0,306	-0,266
16,546	169,383	-0,298	-0,299
17,561	51,125	-0,434	-0,289
18,575	-154,770	-0,232	-0,011
19,590	184,700	-0,173	-0,181
20,604	-21,700	-0,313	-0,134
21,619	280,437	-0,291	-0,367
22,634	52,440	-0,465	-0,312
23,648	133,541	-0,329	-0,300
24,663	36,195	-0,359	-0,222
25,677	318,619	-0,235	-0,314
26,692	239,876	-0,244	-0,286
27,707	228,515	-0,240	-0,275
28,721	178,961	-0,345	-0,356
29,736	124,531	-0,333	-0,294
30,750	39,933	-0,352	-0,222
31,765	-3,133	-0,403	-0,197
32,780	186,719	-0,363	-0,380
33,794	63,667	-0,253	-0,179
34,809	162,595	-0,227	-0,224
35,823	54,767	-0,387	-0,262
36,838	-8,082	-0,418	-0,197
37,853	8,724	-0,402	-0,212
38,867	101,478	-0,327	-0,267
39,882	74,194	-0,433	-0,319
40,896	252,364	-0,247	-0,296
41,911	31,979	-0,275	-0,166
42,926	219,983	-0,155	-0,174
43,940	176,279	-0,325	-0,332
44,955	69,785	-0,388	-0,280
45,969	88,266	-0,328	-0,256
46,984	23,636	-0,262	-0,151
47,999	75,525	-0,362	-0,268
49,013	197,273	-0,294	-0,316
50,028	37,095	-0,262	-0,162
51,042	82,421	-0,324	-0,247
52,057	64,799	-0,335	-0,237
53,071	55,719	-0,304	-0,207
54,086	-20,584	-0,378	-0,162
55,101	172,924	-0,151	-0,153
56,115	124,941	-0,283	-0,250
57,130	-80,518	-0,397	-0,092
58,144	-10,927	-0,431	-0,199
59,159	127,454	-0,349	-0,311
60,174	135,803	-0,282	-0,258
61,188	-34,234	-0,384	-0,147
62,203	3,513	-0,303	-0,155
63,217	800,000	-0,099	-0,200
64,232	-42,680	-0,454	-0,161
65,247	29,563	-0,356	-0,212
66,261	16,211	-0,386	-0,213
67,276	63,452	-0,279	-0,196
68,290	307,539	-0,204	-0,267
69,305	28,204	-0,290	-0,171
70,320	4,779	-0,315	-0,162
71,334	47,082	-0,163	-0,106
72,349	28,046	-0,396	-0,234
73,363	-24,110	-0,414	-0,173
74,378	-18,392	-0,326	-0,142
75,393	141,955	-0,269	-0,250
76,407	188,280	-0,279	-0,292
77,422	-46,086	-0,181	-0,062
78,436	-35,214	-0,424	-0,161
79,451	-83,019	-0,330	-0,074
80,466	105,786	-0,291	-0,241
81,480	5,553	-0,265	-0,137
82,495	-152,980	-0,396	-0,019
83,509	63,322	-0,186	-0,130
84,524	59,771	-0,283	-0,195
85,539	350,852	-0,187	-0,259
86,553	79,965	-0,375	-0,282
87,568	44,439	-0,276	-0,177
88,582	-43,210	-0,275	-0,097
89,597	-30,919	-0,306	-0,120
90,611	-43,427	-0,245	-0,086
91,626	83,093	-0,234	-0,178
92,641	-9,391	-0,313	-0,146
93,655	-16,314	-0,267	-0,118
94,670	115,269	-0,194	-0,166
95,684	179,691	-0,288	-0,295
96,699	89,151	-0,216	-0,168
97,714	-20,383	-0,308	-0,132
98,728	84,916	-0,253	-0,194
99,743	101,525	-0,177	-0,144
100,757	-67,478	-0,223	-0,061
101,772	-15,928	-0,308	-0,136
102,787	21,188	-0,219	-0,124
103,801	19,511	-0,333	-0,187
104,816	140,931	-0,149	-0,138
105,830	431,033	-0,158	-0,240
106,845	156,919	-0,146	-0,141
107,860	-51,906	-0,345	-0,111
108,874	-15,191	-0,314	-0,140
109,889	167,507	-0,248	-0,246
110,903	-63,380	-0,464	-0,132
111,918	-171,569	-0,174	-0,004
112,933	198,049	-0,194	-0,207
113,947	-75,098	-0,256	-0,064
114,962	-103,270	-0,333	-0,054
115,976	800,000	-0,126	-0,292
116,991	243,118	-0,235	-0,276
118,006	8,977	-0,180	-0,094
119,020	785,979	-0,138	-0,266
120,035	117,604	-0,195	-0,168
121,049	-108,889	-0,260	-0,038
122,064	-21,247	-0,260	-0,110
123,079	-53,966	-0,268	-0,085
124,093	-17,104	-0,345	-0,151
125,108	19,745	-0,219	-0,123
126,122	-32,312	-0,217	-0,084
127,137	12,117	-0,269	-0,144
128,151	-109,292	-0,284	-0,042
129,166	130,876	-0,182	-0,163
130,181	132,011	-0,232	-0,208
131,195	118,946	-0,272	-0,234
132,210	142,297	-0,280	-0,259
133,224	131,677	-0,257	-0,231
134,239	28,611	-0,254	-0,149
135,254	33,355	-0,253	-0,153
136,268	-62,830	-0,165	-0,047
137,283	140,109	-0,212	-0,195
138,297	-141,020	-0,285	0,020
139,312	-122,482	-0,238	-0,027
140,327	3,822	-0,263	-0,134
141,341	-71,830	-0,232	-0,060
142,356	103,582	-0,208	-0,170
143,370	3,224	-0,262	-0,132
144,385	53,363	-0,216	-0,144
145,400	184,209	-0,237	-0,245
146,414	800,000	-0,096	-0,194
147,429	35,653	-0,304	-0,186
148,443	41,486	-0,321	-0,202
149,458	154,329	-0,233	-0,223
150,473	178,310	-0,179	-0,182
151,487	27,941	-0,258	-0,151
152,502	56,928	-0,269	-0,182
153,516	30,798	-0,337	-0,200
154,531	197,140	-0,237	-0,252
155,546	-136,697	-0,221	0,018
156,560	-200,000	-0,023	-0,153
157,575	-82,812	-0,360	-0,080
158,589	41,189	-0,226	-0,142
159,604	-14,108	-0,339	-0,151
160,619	-72,634	-0,335	-0,085
161,633	14,626	-0,232	-0,126
162,648	101,874	-0,254	-0,206
163,662	-121,030	-0,152	0,018
164,677	256,324	-0,209	-0,249
165,692	71,325	-0,146	-0,105
166,706	14,511	-0,212	-0,115
167,721	-91,869	-0,286	-0,056
168,735	-1,575	-0,237	-0,115
169,750	492,494	-0,177	-0,283
170,764	800,000	-0,187	-0,384
171,779	-39,553	-0,194	-0,070
172,794	6,438	-0,148	-0,076
173,808	91,554	-0,305	-0,238
174,823	142,039	-0,150	-0,138
175,837	32,170	-0,270	-0,161
176,852	21,584	-0,325	-0,183
177,867	112,164	-0,172	-0,145
178,881	60,133	-0,194	-0,133
179,896	371,902	-0,248	-0,350
180,910	135,841	-0,306	-0,277
181,925	104,015	-0,205	-0,168
182,940	130,511	-0,206	-0,183
183,954	183,091	-0,208	-0,214
184,969	-43,202	-0,164	-0,057
185,983	12,200	-0,049	-0,026
186,998	63,275	-0,236	-0,164
188,013	139,665	-0,238	-0,217
189,027	800,000	-0,079	-0,211
190,042	606,495	-0,162	-0,281
191,056	-21,709	-0,296	-0,124
192,071	-91,686	-0,176	-0,034
193,086	255,562	-0,136	-0,162
194,100	-9,436	-0,227	-0,105
195,115	82,961	-0,171	-0,129
196,129	396,711	-0,148	-0,215
197,144	-14,455	-0,259	-0,115
198,159	325,872	-0,134	-0,178
199,173	13,899	-0,242	-0,130
200,188	115,661	-0,171	-0,145
201,202	39,569	-0,148	-0,092
202,217	-156,755	-0,253	0,011
203,232	195,929	-0,210	-0,222
204,246	481,532	-0,143	-0,226
205,261	93,995	-0,209	-0,164
206,275	348,035	-0,159	-0,217
207,290	35,604	-0,136	-0,082
208,304	83,266	-0,271	-0,204
209,319	800,000	-0,057	-0,120
210,334	73,550	-0,209	-0,152
211,348	48,929	-0,268	-0,174
212,363	102,498	-0,244	-0,197
213,377	145,574	-0,160	-0,148
214,392	7,790	-0,175	-0,091
215,407	89,056	-0,158	-0,121
216,421	39,002	-0,259	-0,160
217,436	33,958	-0,313	-0,188
218,450	-3,431	-0,233	-0,112
219,465	-10,613	-0,290	-0,132
220,480	-20,948	-0,156	-0,066
221,494	-200,000	-0,012	-0,178
222,509	-19,023	-0,202	-0,087
223,523	471,349	-0,094	-0,147
224,538	-54,495	-0,311	-0,097
225,553	-150,618	-0,246	-0,013
226,567	136,273	-0,149	-0,134
227,582	-64,311	-0,248	-0,069
228,596	800,000	-0,111	-0,258
229,611	116,626	-0,263	-0,223
230,626	-3,436	-0,146	-0,070
231,640	-200,000	-0,232	0,001
232,655	-78,966	-0,182	0,042
233,669	244,197	-0,175	-0,203
234,684	800,000	-0,110	-0,274
235,699	271,340	-0,198	-0,241
236,713	363,064	-0,162	-0,225
237,728	35,991	-0,159	-0,096
238,742	90,058	-0,086	-0,066
239,757	17,154	-0,233	-0,127
240,772	-19,389	-0,255	-0,109
241,786	49,933	-0,199	-0,129
242,801	49,516	-0,061	0,040
243,815	800,000	-0,054	-0,136
244,830	334,162	-0,179	-0,240
245,844	160,524	-0,083	-0,080
246,859	207,822	-0,214	-0,231
247,874	229,395	-0,281	-0,316
248,888	130,284	-0,207	-0,183
249,903	26,473	-0,182	-0,105
250,917	-4,568	-0,155	-0,074
251,932	-200,000	-0,010	-0,098
252,947	-31,695	-0,292	-0,112
253,961	0,972	-0,212	-0,104
254,976	237,613	-0,169	-0,193
255,990	-104,352	-0,229	-0,036
257,005	-4,284	-0,207	-0,099
258,020	354,062	-0,182	-0,251
259,034	225,542	-0,031	-0,034
260,049	22,665	-0,150	-0,084
261,063	121,347	-0,182	-0,156
262,078	50,694	-0,278	-0,181
263,093	38,421	-0,196	-0,120
264,107	-55,685	-0,189	-0,058
265,122	54,037	-0,115	-0,076
266,136	46,968	-0,105	-0,067
267,151	-90,180	-0,330	-0,066
268,166	73,613	-0,173	-0,125
269,180	111,089	-0,143	-0,118
270,195	33,281	-0,219	-0,131
271,209	135,141	-0,121	-0,109
272,224	-10,357	-0,151	-0,069
273,239	800,000	-0,055	-0,140
274,253	239,439	-0,160	-0,183
275,268	30,269	-0,195	-0,114
276,282	186,093	-0,086	-0,088
277,297	-26,214	-0,201	-0,081
278,312	-66,042	-0,052	-0,014
279,326	131,025	-0,089	-0,079
280,341	-80,285	-0,155	0,035
281,355	315,469	0,064	0,083
282,370	-49,125	-0,158	-0,052
283,384	149,892	-0,168	-0,157
284,399	2,874	-0,265	-0,132
285,414	-79,907	-0,095	0,022
286,428	107,687	-0,120	-0,098
287,443	34,594	-0,248	-0,149
288,457	12,940	-0,145	-0,077
289,472	148,976	-0,176	-0,164
290,487	-17,592	-0,321	-0,138
291,501	326,851	-0,197	-0,259
292,516	268,798	-0,215	-0,260
293,530	151,806	-0,141	-0,132
294,545	-126,194	-0,167	0,017
295,560	-21,326	-0,166	-0,070
296,574	34,832	-0,169	-0,102
297,589	58,023	-0,173	-0,116
298,603	286,704	-0,148	-0,184
299,618	86,161	-0,167	-0,126
300,633	-8,913	-0,180	-0,083
301,647	243,690	-0,118	-0,136
302,662	-53,955	-0,039	-0,012
303,676	514,365	-0,058	-0,094
304,691	264,430	-0,073	-0,088
305,706	176,739	-0,185	-0,185
306,720	-200,000	0,012	-0,235
307,735	299,906	-0,121	-0,154
308,749	-200,000	-0,038	-0,153
309,764	-200,000	-0,031	-0,097
310,779	-0,748	-0,143	-0,069
311,793	89,047	-0,142	-0,109
312,808	-200,000	-0,039	-0,168
313,822	800,000	-0,051	-0,101
314,837	144,345	0,066	-0,061
315,852	233,851	-0,127	-0,144
316,866	-77,545	-0,088	-0,021
317,881	-124,136	-0,182	0,019
318,895	-44,316	-0,071	-0,024
319,910	240,775	-0,107	-0,123
320,925	34,868	-0,180	-0,108
321,939	115,562	-0,105	-0,088
322,954	-67,692	-0,134	-0,036
323,968	-200,000	-0,014	-0,054
324,983	257,850	-0,129	-0,153
325,997	-115,030	-0,131	-0,017
327,012	720,601	-0,099	-0,181
328,027	208,469	-0,085	-0,091
329,041	800,000	-0,065	-0,179
330,056	-58,858	-0,190	-0,056
331,070	-158,402	-0,178	-0,007
332,085	164,128	-0,139	-0,134
333,100	-200,000	-0,013	-0,068
334,114	-200,000	-0,015	-0,108
335,129	198,035	-0,073	-0,076
336,143	49,923	-0,097	-0,063
337,158	-0,251	-0,108	-0,053
338,173	-97,596	-0,158	0,028
339,187	800,000	-0,076	-0,182
340,202	-77,639	-0,149	0,035
341,216	77,545	-0,222	-0,162
342,231	-15,274	-0,180	-0,078
343,246	-200,000	0,025	-0,205
344,260	95,410	-0,217	-0,169
345,275	-134,087	-0,241	-0,020
346,289	74,426	-0,096	-0,069
347,304	269,941	-0,138	-0,166
348,319	0,448	-0,191	-0,093
349,333	354,450	-0,153	-0,209
350,348	195,961	-0,082	-0,085
351,362	543,473	-0,040	-0,065
352,377	162,551	-0,153	-0,147
353,392	-44,647	-0,101	-0,034
354,406	-142,884	-0,092	-0,006
355,421	205,716	1308,084	1391,546
356,435	158,184	1467,905	1391,977
