DTS Sentinel unit serial number:	SN410029Multiplexer serial number:	ORYXHardware model number:	OX2-SRSoftware version number:	ORYX F/W v4,00 Oryx Data Collector v3.7.2.0data status	okinstallation	B3 Nyhavnadifferential loss correction	single-endedforward channel	channel 1reverse channel	N/Adate	2023/12/05time	06:47:30forward acquisition time	300,00reverse acquisition time	0,00gamma	499,1914k internal	0,3201k external	0,3201temperature offset calibration	1,0000default loss term (dB/km)	0,3820temperature slope calibration	1,0000multiplexer offset coefficient	1,0000multiplexer slope coefficient	1,0000fibre end	0,00T internal ref (°C)	13,94T ext. ref 1 (°C)	-0,86T ext. ref 2 (°C)	-0,90length (m)	temperature (°C)	Stokes	anti-Stokes-744,400	112,986	-0,389	-0,343
-743,385	-200,000	0,055	0,364
-742,371	800,000	-0,100	-0,228
-741,356	-200,000	0,010	0,282
-740,342	226,746	-0,172	-0,203
-739,327	-200,000	-0,044	0,316
-738,312	-7,449	-0,117	-0,057
-737,298	-200,000	0,026	0,393
-736,283	-75,593	-0,229	-0,059
-735,269	-200,000	0,066	0,309
-734,254	24,718	-0,379	-0,228
-733,239	-132,669	-0,156	-0,014
-732,225	24,829	-0,177	-0,106
-731,210	-65,821	0,132	-0,038
-730,196	-125,718	0,046	-0,005
-729,181	-28,332	-0,107	-0,045
-728,167	-200,000	0,012	0,092
-727,152	-133,948	-0,199	-0,018
-726,137	72,577	0,041	-0,031
-725,123	112,442	-0,091	-0,080
-724,108	800,000	-0,098	-0,214
-723,094	645,187	-0,094	-0,175
-722,079	800,000	-0,047	-0,121
-721,064	800,000	0,036	-0,082
-720,050	-200,000	0,001	-0,109
-719,035	800,000	-0,019	0,046
-718,021	-30,359	-0,095	0,039
-717,006	-200,000	0,003	0,036
-715,991	800,000	-0,048	-0,116
-714,977	95,682	-0,174	-0,144
-713,962	800,000	-0,036	-0,090
-712,948	800,000	-0,031	-0,095
-711,933	-200,000	-0,034	-0,171
-710,918	800,000	-0,035	-0,104
-709,904	88,132	-0,096	-0,077
-708,889	83,329	0,022	0,017
-707,875	-107,480	-0,035	-0,006
-706,860	98,742	0,092	0,077
-705,845	-200,000	0,014	0,048
-704,831	101,597	0,094	-0,079
-703,816	-200,000	-0,011	0,122
-702,802	-46,249	-0,137	0,049
-701,787	-27,006	-0,217	-0,091
-700,772	-200,000	-0,030	-0,213
-699,758	-134,219	0,124	-0,011
-698,743	-200,000	-0,003	0,121
-697,729	-200,000	-0,008	0,083
-696,714	-200,000	-0,008	0,105
-695,699	-18,024	-0,087	-0,039
-694,685	800,000	-0,069	-0,176
-693,670	107,713	-0,106	-0,092
-692,656	16,652	0,049	0,028
-691,641	-200,000	-0,008	-0,074
-690,627	-36,325	0,011	-0,004
-689,612	99,138	-0,041	0,034
-688,597	-39,439	-0,015	-0,006
-687,583	328,717	0,024	0,034
-686,568	335,177	-0,056	-0,079
-685,554	392,293	0,061	0,093
-684,539	68,181	-0,008	0,006
-683,524	-200,000	-0,004	-0,046
-682,510	45,143	0,028	-0,019
-681,495	90,994	-0,094	0,077
-680,481	229,225	-0,138	-0,164
-679,466	92,906	0,075	-0,061
-678,451	87,889	0,043	-0,035
-677,437	-37,910	-0,136	-0,052
-676,422	-200,000	0,013	0,092
-675,408	-129,431	-0,126	0,013
-674,393	7,823	-0,130	-0,070
-673,378	182,686	-0,047	0,050
-672,364	704,974	-0,037	-0,072
-671,349	-200,000	-0,020	-0,073
-670,335	-107,858	-0,096	0,015
-669,320	-200,000	-0,015	0,092
-668,305	800,000	-0,022	-0,062
-667,291	-146,357	-0,128	-0,008
-666,276	3,702	-0,109	-0,057
-665,262	-200,000	-0,001	0,041
-664,247	-200,000	0,024	-0,093
-663,232	214,112	-0,112	0,129
-662,218	-103,744	0,141	0,024
-661,203	87,578	-0,044	0,035
-660,189	-16,392	-0,017	-0,008
-659,174	36,711	-0,194	-0,124
-658,159	800,000	-0,033	0,082
-657,145	66,400	-0,037	0,027
-656,130	-200,000	0,099	0,000
-655,116	-200,000	-0,008	-0,116
-654,101	474,551	0,098	0,160
-653,086	800,000	-0,017	0,038
-652,072	-98,930	-0,225	0,041
-651,057	-22,833	-0,035	-0,015
-650,043	-21,042	-0,088	0,039
-649,028	326,657	0,038	0,054
-648,014	-200,000	-0,008	-0,071
-646,999	800,000	0,043	0,118
-645,984	-200,000	-0,028	0,091
-644,970	652,803	-0,056	-0,105
-643,955	369,049	0,058	-0,086
-642,941	-8,552	0,117	-0,057
-641,926	-25,189	-0,083	-0,035
-640,911	-200,000	0,030	0,156
-639,897	-11,950	0,068	0,032
-638,882	697,874	0,086	-0,164
-637,868	-200,000	-0,019	0,060
-636,853	-120,874	-0,059	0,007
-635,838	800,000	0,030	-0,097
-634,824	376,980	0,054	-0,080
-633,809	174,252	0,096	0,100
-632,795	-53,963	-0,075	-0,025
-631,780	-200,000	-0,046	0,150
-630,765	28,607	0,171	0,104
-629,751	-200,000	-0,016	-0,059
-628,736	-200,000	-0,034	-0,116
-627,722	-200,000	-0,042	-0,155
-626,707	-200,000	0,010	0,058
-625,692	312,475	0,044	0,060
-624,678	-93,917	0,145	0,029
-623,663	637,805	0,014	0,025
-622,649	800,000	0,007	-0,022
-621,634	-200,000	-0,013	-0,046
-620,619	218,929	0,023	-0,027
-619,605	-200,000	0,031	-0,119
-618,590	-200,000	0,013	-0,045
-617,576	255,654	0,074	0,092
-616,561	70,145	-0,057	0,043
-615,546	-200,000	-0,005	-0,062
-614,532	-41,020	0,082	0,031
-613,517	42,827	0,061	0,040
-612,503	-200,000	-0,001	-0,020
-611,488	163,918	0,112	0,114
-610,474	-24,870	0,065	-0,028
-609,459	33,657	0,138	0,087
-608,444	800,000	-0,048	-0,134
-607,430	-34,776	-0,055	-0,022
-606,415	800,000	-0,018	0,037
-605,401	16,842	-0,030	-0,017
-604,386	-111,603	0,157	-0,023
-603,371	-200,000	-0,007	-0,066
-602,357	-200,000	0,003	0,040
-601,342	-183,000	-0,120	-0,002
-600,328	800,000	-0,064	-0,201
-599,313	-78,410	0,073	0,018
-598,298	260,705	0,067	-0,084
-597,284	176,029	0,007	-0,008
-596,269	-200,000	-0,029	0,101
-595,255	-200,000	-0,024	0,127
-594,240	-99,810	-0,068	-0,012
-593,225	-5,998	0,034	-0,017
-592,211	637,717	-0,014	0,026
-591,196	-200,000	0,016	0,063
-590,182	-200,000	0,002	0,101
-589,167	-200,000	0,028	0,152
-588,152	-200,000	-0,020	0,094
-587,138	-28,974	-0,074	0,030
-586,123	-197,482	-0,070	0,000
-585,109	-48,280	-0,072	0,025
-584,094	330,402	-0,031	-0,043
-583,079	29,787	0,023	0,014
-582,065	-20,598	0,057	-0,025
-581,050	-49,687	0,116	-0,040
-580,036	-200,000	-0,023	-0,112
-579,021	-85,894	-0,102	-0,023
-578,006	-200,000	0,020	-0,083
-576,992	-200,000	-0,038	-0,134
-575,977	73,389	-0,061	0,046
-574,963	800,000	0,048	0,112
-573,948	-105,530	0,109	-0,018
-572,934	99,205	-0,108	0,090
-571,919	136,514	-0,126	0,118
-570,904	800,000	-0,064	-0,154
-569,890	800,000	-0,041	-0,130
-568,875	-71,900	0,072	0,019
-567,861	740,391	0,007	-0,013
-566,846	-200,000	-0,015	-0,067
-565,831	-200,000	-0,007	-0,069
-564,817	800,000	0,040	-0,111
-563,802	-200,000	-0,028	-0,111
-562,788	800,000	0,007	-0,016
-561,773	-155,721	0,137	0,006
-560,758	-93,014	0,130	-0,026
-559,744	-99,891	-0,080	0,014
-558,729	800,000	-0,015	-0,043
-557,715	479,015	-0,046	-0,075
-556,700	-38,936	0,101	-0,038
-555,685	-28,376	-0,109	0,045
-554,671	-200,000	0,021	-0,130
-553,656	481,524	0,058	0,095
-552,642	-198,938	0,057	-0,000
-551,627	-200,000	-0,002	0,018
-550,612	-76,001	-0,068	0,017
-549,598	-143,847	0,016	0,001
-548,583	-99,591	-0,020	-0,004
-547,569	-58,743	-0,088	-0,027
-546,554	-84,271	0,124	-0,028
-545,539	-70,130	0,094	-0,026
-544,525	-38,066	-0,015	0,006
-543,510	163,042	-0,054	-0,055
-542,496	-82,950	0,120	-0,028
-541,481	251,224	-0,111	-0,136
-540,466	-200,000	-0,003	-0,082
-539,452	-200,000	-0,002	0,058
-538,437	75,412	0,103	0,078
-537,423	13,188	0,045	0,025
-536,408	-200,000	-0,031	0,150
-535,393	-141,553	0,038	-0,003
-534,379	45,472	-0,137	-0,091
-533,364	800,000	0,037	0,106
-532,350	-10,595	-0,119	0,057
-531,335	800,000	0,060	0,120
-530,321	21,670	0,094	-0,055
-529,306	-34,095	-0,100	-0,039
-528,291	-92,725	-0,057	0,011
-527,277	-55,618	0,048	-0,015
-526,262	-200,000	-0,020	-0,101
-525,248	544,083	0,047	-0,082
-524,233	-3,463	0,111	0,056
-523,218	-200,000	-0,029	0,124
-522,204	-43,696	0,063	0,023
-521,189	800,000	-0,036	-0,094
-520,175	-135,579	-0,028	-0,002
-519,160	-67,991	-0,054	0,015
-518,145	133,862	0,035	0,033
-517,131	-97,028	0,197	-0,037
-516,116	37,245	0,046	-0,029
-515,102	108,043	0,165	-0,142
-514,087	-20,271	-0,140	-0,062
-513,072	-158,936	-0,115	0,005
-512,058	-81,070	-0,152	-0,036
-511,043	-70,257	-0,113	0,031
-510,029	-200,000	0,019	-0,137
-509,014	-121,888	0,088	-0,010
-507,999	-200,000	0,010	0,119
-506,985	-47,498	0,052	-0,018
-505,970	-200,000	0,009	-0,133
-504,956	-64,996	-0,047	-0,014
-503,941	800,000	-0,036	-0,091
-502,926	-164,039	-0,014	-0,000
-501,912	800,000	0,022	0,052
-500,897	-104,244	0,022	0,004
-499,883	-200,000	-0,016	0,050
-498,868	436,814	0,033	0,051
-497,853	87,461	-0,187	-0,149
-496,839	-162,910	0,163	0,006
-495,824	-200,000	-0,002	-0,055
-494,810	110,641	0,137	0,119
-493,795	479,014	-0,014	0,022
-492,781	-0,989	-0,051	-0,026
-491,766	94,450	0,078	-0,064
-490,751	-200,000	0,023	0,080
-489,737	-200,000	-0,000	-0,085
-488,722	-200,000	0,004	0,084
-487,708	-103,918	0,138	-0,023
-486,693	-200,000	0,000	0,031
-485,678	-200,000	-0,037	0,135
-484,664	800,000	0,019	0,058
-483,649	-145,309	0,049	0,003
-482,635	103,093	-0,049	-0,042
-481,620	800,000	0,040	-0,088
-480,605	800,000	0,044	-0,110
-479,591	54,377	0,060	0,041
-478,576	-200,000	-0,019	0,138
-477,562	530,771	0,059	-0,101
-476,547	-74,233	-0,032	-0,008
-475,532	-200,000	0,003	0,029
-474,518	-52,837	0,164	-0,054
-473,503	-47,001	0,147	0,052
-472,489	302,774	-0,110	0,147
-471,474	800,000	-0,055	-0,139
-470,459	-4,319	-0,102	0,051
-469,445	-200,000	-0,002	-0,047
-468,430	336,596	-0,038	0,053
-467,416	17,551	-0,061	0,035
-466,401	-200,000	0,005	0,119
-465,386	-17,140	-0,043	0,020
-464,372	-200,000	0,021	-0,079
-463,357	-98,426	0,166	-0,030
-462,343	-117,145	-0,182	-0,024
-461,328	-6,065	0,063	0,031
-460,313	-200,000	-0,005	0,125
-459,299	-75,280	0,069	-0,018
-458,284	-40,414	0,090	0,033
-457,270	-200,000	-0,000	0,148
-456,255	-200,000	-0,034	-0,140
-455,241	-60,262	-0,039	-0,012
-454,226	-68,370	-0,061	0,017
-453,211	-112,956	0,121	-0,017
-452,197	-157,914	0,032	-0,001
-451,182	-84,151	0,135	-0,031
-450,168	351,598	-0,022	0,032
-449,153	-200,000	-0,013	0,053
-448,138	-200,000	0,002	0,016
-447,124	442,809	-0,087	-0,137
-446,109	388,715	-0,039	0,059
-445,095	99,038	0,040	-0,033
-444,080	-107,397	0,142	0,022
-443,065	-42,963	-0,036	0,013
-442,051	-200,000	0,002	0,032
-441,036	80,214	0,056	-0,043
-440,022	57,557	-0,007	-0,005
-439,007	7,868	-0,106	0,057
-437,992	-200,000	0,016	-0,083
-436,978	10,394	0,021	-0,011
-435,963	800,000	-0,012	-0,024
-434,949	104,129	-0,096	0,081
-433,934	-200,000	0,008	-0,063
-432,919	18,589	0,082	-0,047
-431,905	-200,000	-0,008	0,124
-430,890	490,869	-0,058	0,096
-429,876	-200,000	-0,029	0,152
-428,861	-131,452	0,033	0,003
-427,846	-24,055	0,138	0,059
-426,832	-200,000	0,035	-0,140
-425,817	165,261	-0,057	-0,058
-424,803	800,000	-0,047	-0,130
-423,788	-83,270	0,142	-0,033
-422,773	19,324	0,025	0,014
-421,759	-101,216	-0,088	-0,015
-420,744	83,128	-0,036	0,028
-419,730	305,966	-0,043	0,057
-418,715	-57,214	-0,076	-0,024
-417,701	52,362	0,146	0,100
-416,686	368,381	-0,108	0,157
-415,671	800,000	0,015	0,047
-414,657	277,410	-0,051	0,066
-413,642	800,000	-0,050	0,125
-412,628	-115,788	-0,076	0,010
-411,613	800,000	0,032	-0,072
-410,598	-83,790	-0,134	0,030
-409,584	204,544	-0,073	0,082
-408,569	703,312	0,078	0,148
-407,555	-142,346	0,067	-0,005
-406,540	149,720	-0,075	0,073
-405,525	-11,764	0,093	-0,044
-404,511	137,075	0,052	0,049
-403,496	-200,000	0,017	-0,124
-402,482	179,814	-0,034	-0,036
-401,467	114,302	0,090	-0,078
-400,452	-200,000	0,014	0,101
-399,438	-200,000	0,002	-0,084
-398,423	292,918	0,048	-0,062
-397,409	42,955	-0,144	0,094
-396,394	198,515	-0,106	-0,117
-395,379	362,014	0,055	-0,079
-394,365	-68,669	-0,080	-0,022
-393,350	535,769	0,036	0,062
-392,336	-78,292	0,139	-0,034
-391,321	-200,000	-0,000	0,057
-390,306	800,000	0,001	0,004
-389,292	-200,000	-0,020	0,081
-388,277	800,000	-0,034	0,106
-387,263	-95,413	-0,007	-0,001
-386,248	-200,000	-0,005	0,031
-385,233	-26,104	-0,086	0,036
-384,219	663,001	-0,017	0,032
-383,204	800,000	0,053	-0,133
-382,190	10,387	-0,104	0,057
-381,175	8,404	0,029	0,016
-380,160	379,332	-0,065	-0,096
-379,146	800,000	-0,037	0,095
-378,131	800,000	-0,009	0,025
-377,117	800,000	-0,067	-0,147
-376,102	13,964	0,043	-0,024
-375,088	-200,000	0,001	-0,154
-374,073	-179,640	-0,114	0,002
-373,058	800,000	0,011	-0,021
-372,044	-114,148	-0,057	-0,008
-371,029	12,059	-0,067	-0,037
-370,015	-83,655	0,070	-0,016
-369,000	326,800	-0,074	-0,102
-367,985	280,240	-0,087	-0,112
-366,971	-200,000	-0,004	0,111
-365,956	260,575	-0,061	0,075
-364,942	-200,000	0,005	-0,058
-363,927	143,430	0,066	0,063
-362,912	-200,000	-0,009	0,078
-361,898	800,000	-0,127	-0,278
-360,883	-200,000	0,015	0,059
-359,869	-32,359	-0,116	0,046
-358,854	20,300	0,062	-0,036
-357,839	109,689	0,077	0,066
-356,825	-136,149	-0,054	-0,004
-355,810	57,322	0,017	0,012
-354,796	201,368	-0,073	-0,080
-353,781	26,523	0,010	0,006
-352,766	-28,107	-0,125	-0,052
-351,752	40,835	0,060	0,039
-350,737	800,000	0,043	0,099
-349,723	7,107	0,068	0,036
-348,708	122,476	0,055	0,049
-347,693	800,000	-0,045	-0,100
-346,679	-200,000	-0,017	-0,068
-345,664	279,523	-0,052	0,067
-344,650	-200,000	-0,002	-0,025
-343,635	-3,727	0,034	0,017
-342,620	800,000	0,029	-0,070
-341,606	-9,607	-0,098	-0,047
-340,591	-126,766	-0,090	-0,009
-339,577	70,489	0,067	0,050
-338,562	81,541	-0,055	-0,042
-337,548	287,394	-0,075	0,097
-336,533	-77,025	0,112	-0,028
-335,518	800,000	0,032	0,077
-334,504	-200,000	0,002	0,025
-333,489	800,000	0,024	0,073
-332,475	20,298	0,043	-0,025
-331,460	-136,030	-0,070	-0,006
-330,445	360,288	0,086	0,124
-329,431	-140,371	0,082	0,006
-328,416	800,000	0,052	0,161
-327,402	-200,000	-0,014	0,131
-326,387	800,000	-0,044	-0,104
-325,372	-165,762	-0,068	-0,002
-324,358	203,990	-0,079	-0,088
-323,343	74,528	0,084	-0,063
-322,329	-80,340	-0,067	0,016
-321,314	39,167	-0,167	0,106
-320,299	526,661	-0,083	0,141
-319,285	800,000	0,055	0,117
-318,270	800,000	0,059	-0,123
-317,256	286,296	-0,047	-0,061
-316,241	-89,269	-0,090	-0,019
-315,226	177,639	0,098	0,102
-314,212	-200,000	-0,025	0,081
-313,197	-200,000	-0,001	0,024
-312,183	66,667	0,023	-0,017
-311,168	712,068	0,045	-0,085
-310,153	800,000	0,076	0,151
-309,139	181,272	0,017	-0,018
-308,124	-200,000	0,018	-0,065
-307,110	53,804	0,061	0,042
-306,095	-74,627	0,053	-0,014
-305,080	-200,000	-0,015	0,104
-304,066	800,000	-0,014	-0,038
-303,051	40,902	0,088	-0,057
-302,037	-151,240	-0,199	0,010
-301,022	-200,000	-0,011	-0,057
-300,008	800,000	0,045	0,094
-298,993	270,773	-0,102	-0,128
-297,978	356,725	0,061	-0,088
-296,964	-24,918	-0,096	0,041
-295,949	82,108	0,040	0,031
-294,935	-200,000	0,016	-0,121
-293,920	313,348	0,072	-0,098
-292,905	800,000	0,044	0,121
-291,891	285,917	0,047	0,061
-290,876	-116,918	-0,139	0,018
-289,862	458,808	-0,027	-0,042
-288,847	724,584	0,064	-0,122
-287,832	-90,544	-0,070	0,014
-286,818	-200,000	0,018	-0,126
-285,803	106,799	0,107	0,091
-284,789	-162,906	-0,089	0,003
-283,774	-200,000	0,012	0,042
-282,759	-141,518	0,011	-0,001
-281,745	-42,638	-0,049	0,018
-280,730	49,966	-0,077	0,052
-279,716	371,901	-0,061	-0,089
-278,701	27,789	0,118	0,071
-277,686	800,000	0,035	-0,092
-276,672	195,353	-0,033	0,036
-275,657	23,681	-0,171	0,100
-274,643	369,232	0,060	-0,087
-273,628	130,284	-0,076	-0,069
-272,613	800,000	0,018	-0,044
-271,599	-26,334	0,068	0,028
-270,584	26,452	0,127	0,076
-269,570	675,319	-0,091	0,170
-268,555	5,669	-0,086	-0,045
-267,540	-200,000	-0,003	0,066
-266,526	54,548	-0,122	0,084
-265,511	-149,508	0,031	-0,002
-264,497	14,579	0,074	-0,041
-263,482	800,000	-0,057	0,123
-262,467	-200,000	0,000	-0,032
-261,453	-78,097	-0,197	-0,048
-260,438	-172,074	-0,096	0,002
-259,424	78,768	-0,086	-0,066
-258,409	68,462	-0,078	0,057
-257,395	-44,865	-0,091	0,032
-256,380	-27,651	0,055	-0,023
-255,365	507,826	-0,082	0,136
-254,351	114,792	0,034	-0,029
-253,336	77,279	0,058	-0,044
-252,322	-58,732	-0,066	0,020
-251,307	-58,445	0,091	-0,028
-250,292	40,868	0,044	-0,028
-249,278	202,903	-0,046	-0,051
-248,263	430,324	0,070	0,109
-247,249	-120,806	-0,081	0,010
-246,234	800,000	-0,015	-0,045
-245,219	-127,131	-0,028	0,003
-244,205	586,196	-0,026	0,045
-243,190	-200,000	0,003	-0,097
-242,176	16,214	-0,031	0,017
-241,161	-200,000	-0,002	0,013
-240,146	104,111	-0,066	-0,056
-239,132	-40,408	-0,133	0,049
-238,117	-200,000	0,022	-0,099
-237,103	800,000	0,065	-0,158
-236,088	70,477	0,092	0,068
-235,073	-200,000	-0,003	0,060
-234,059	800,000	0,071	0,161
-233,044	229,124	-0,078	0,091
-232,030	-200,000	0,006	0,064
-231,015	-200,000	0,006	0,023
-230,000	250,059	-0,038	-0,046
-228,986	-177,132	-0,080	0,001
-227,971	800,000	0,077	-0,172
-226,957	658,267	0,031	0,057
-225,942	-52,134	-0,083	-0,027
-224,927	-154,623	0,101	0,005
-223,913	-200,000	-0,032	0,141
-222,898	-157,934	-0,112	0,005
-221,884	114,449	-0,107	-0,093
-220,869	48,100	-0,080	-0,053
-219,855	-200,000	0,027	0,110
-218,840	-176,056	-0,110	0,002
-217,825	-71,227	0,107	0,028
-216,811	-93,495	0,119	0,023
-215,796	-200,000	0,005	-0,112
-214,782	387,024	-0,049	-0,073
-213,767	42,854	0,059	0,038
-212,752	-77,872	-0,089	0,022
-211,738	-98,612	0,170	0,031
-210,723	582,008	-0,047	-0,082
-209,709	83,905	-0,099	-0,077
-208,694	94,376	0,039	0,031
-207,679	105,234	0,068	0,057
-206,665	-200,000	-0,008	0,079
-205,650	-45,496	-0,105	0,037
-204,636	254,446	-0,057	-0,069
-203,621	-93,662	-0,081	0,016
-202,606	-200,000	0,006	-0,069
-201,592	486,853	-0,059	-0,097
-200,577	800,000	0,023	0,062
-199,563	800,000	-0,056	-0,142
-198,548	-200,000	-0,005	0,083
-197,533	800,000	0,006	0,016
-196,519	222,284	0,121	-0,138
-195,504	-200,000	-0,012	0,055
-194,490	-200,000	0,035	-0,153
-193,475	-200,000	-0,016	-0,074
-192,460	-96,115	0,170	0,032
-191,446	-200,000	-0,001	0,153
-190,431	800,000	-0,015	0,035
-189,417	282,428	0,050	0,064
-188,402	-172,401	0,062	0,001
-187,387	-19,948	-0,128	-0,056
-186,373	-36,285	-0,080	0,030
-185,358	-148,861	-0,030	0,002
-184,344	-200,000	-0,004	-0,102
-183,329	-10,115	0,014	0,007
-182,315	167,044	0,046	0,047
-181,300	269,314	0,030	-0,038
-180,285	-200,000	0,021	-0,206
-179,271	-200,000	-0,044	-0,139
-178,256	-99,347	-0,054	-0,010
-177,242	-17,337	0,132	0,059
-176,227	70,726	0,040	0,029
-175,212	-111,105	-0,093	0,013
-174,198	473,232	0,045	0,072
-173,183	800,000	0,028	-0,056
-172,169	439,734	-0,045	-0,071
-171,154	582,298	0,035	-0,060
-170,139	800,000	0,037	0,096
-169,125	-33,180	-0,030	-0,012
-168,110	-200,000	0,017	0,100
-167,096	-200,000	0,000	0,093
-166,081	-174,294	0,173	-0,003
-165,066	-200,000	0,014	-0,140
-164,052	-200,000	-0,003	0,043
-163,037	-200,000	-0,015	0,146
-162,023	636,688	0,044	-0,079
-161,008	800,000	0,045	0,100
-159,993	800,000	0,048	-0,128
-158,979	530,418	0,049	0,082
-157,964	312,896	-0,063	-0,084
-156,950	-91,243	0,051	0,010
-155,935	137,981	-0,059	0,055
-154,920	198,298	0,031	-0,034
-153,906	103,397	0,074	0,061
-152,891	449,209	0,049	0,078
-151,877	-200,000	0,003	0,065
-150,862	-200,000	-0,007	-0,023
-149,847	120,693	-0,100	0,088
-148,833	800,000	-0,015	-0,040
-147,818	212,918	0,099	-0,111
-146,804	5,223	0,116	-0,060
-145,789	346,496	-0,025	0,035
-144,775	-200,000	-0,008	-0,110
-143,760	-51,828	0,029	-0,009
-142,745	800,000	-0,049	-0,129
-141,731	-17,231	-0,131	-0,058
-140,716	56,971	0,007	0,005
-139,702	-129,637	0,108	-0,010
-138,687	-145,638	0,150	0,009
-137,672	-116,671	-0,111	-0,014
-136,658	15,780	0,091	-0,051
-135,643	800,000	-0,040	-0,102
-134,629	-99,757	0,093	-0,016
-133,614	427,225	-0,039	0,060
-132,599	800,000	0,015	-0,041
-131,585	-200,000	-0,004	0,039
-130,570	800,000	-0,038	0,090
-129,556	767,356	0,025	0,048
-128,541	-200,000	-0,003	-0,102
-127,526	-15,917	0,159	-0,072
-126,512	-84,386	-0,126	0,028
-125,497	-108,332	-0,080	0,012
-124,483	-94,525	0,144	-0,028
-123,468	500,286	0,042	0,069
-122,453	721,314	-0,093	-0,177
-121,439	800,000	0,066	-0,130
-120,424	-200,000	-0,001	0,024
-119,410	166,589	0,031	-0,031
-118,395	-62,841	0,206	0,060
-117,380	-200,000	0,011	0,082
-116,366	217,274	0,084	0,095
-115,351	122,580	0,087	-0,078
-114,337	106,966	-0,010	-0,008
-113,322	286,008	-0,026	-0,034
-112,307	138,265	0,043	0,040
-111,293	800,000	0,039	-0,084
-110,278	-200,000	0,005	0,093
-109,264	659,310	0,045	0,083
-108,249	421,379	0,022	0,034
-107,234	413,020	0,012	-0,018
-106,220	429,053	-0,082	-0,126
-105,205	800,000	0,028	0,083
-104,191	800,000	-0,008	-0,020
-103,176	-200,000	-0,007	0,127
-102,162	23,335	-0,069	-0,040
-101,147	-200,000	0,006	-0,028
-100,132	800,000	-0,037	-0,092
-99,118	-138,318	-0,146	-0,011
-98,103	-107,209	-0,163	-0,025
-97,089	-55,826	0,150	0,047
-96,074	-71,483	-0,025	-0,007
-95,059	-200,000	0,009	0,087
-94,045	65,409	-0,038	0,027
-93,030	8,047	-0,102	-0,054
-92,016	-94,445	-0,016	-0,003
-91,001	312,319	-0,059	0,079
-89,986	215,856	0,016	0,017
-88,972	-200,000	-0,017	0,110
-87,957	-113,317	0,020	0,003
-86,943	-200,000	0,030	0,108
-85,928	52,364	0,036	0,024
-84,913	480,177	-0,044	-0,071
-83,899	800,000	-0,017	-0,040
-82,884	285,029	-0,031	-0,040
-81,870	133,888	0,048	-0,044
-80,855	337,788	-0,028	-0,039
-79,840	526,104	-0,060	-0,101
-78,826	199,945	-0,103	-0,112
-77,811	197,945	0,057	-0,062
-76,797	-104,118	-0,030	-0,005
-75,782	-200,000	0,025	0,169
-74,767	431,510	0,078	-0,121
-73,753	306,297	0,061	-0,081
-72,738	-106,439	-0,121	-0,019
-71,724	800,000	-0,044	-0,130
-70,709	-163,490	-0,063	-0,002
-69,694	13,248	-0,186	-0,102
-68,680	-25,871	0,075	0,031
-67,665	496,161	-0,053	0,086
-66,651	-200,000	-0,006	-0,086
-65,636	-134,891	0,092	-0,008
-64,622	33,225	0,029	-0,018
-63,607	88,816	0,068	-0,053
-62,592	-200,000	0,016	0,111
-61,578	178,216	-0,033	0,034
-60,563	-30,417	0,070	0,028
-59,549	-200,000	0,012	0,097
-58,534	-33,707	-1,539	-0,598
-57,519	333,038	-1,494	-2,050
-56,505	-200,000	-0,695	-4,596
-55,490	179,609	0,953	0,989
-54,476	800,000	4,935	11,425
-53,461	-200,000	18,919	309,667
-52,446	-200,000	737,953	2312,535
-51,432	573,335	1654,081	2866,862
-50,417	79,144	1671,039	1266,333
-49,403	21,946	1543,933	888,982
-48,388	15,787	1466,465	814,441
-47,373	17,774	1456,620	818,543
-46,359	16,849	1446,678	808,487
-45,344	14,035	1442,322	792,539
-44,330	14,031	1440,058	791,247
-43,315	14,023	1438,321	790,222
-42,300	13,980	1436,784	789,140
-41,286	14,053	1435,521	788,766
-40,271	13,969	1434,268	787,645
-39,257	14,024	1432,932	787,139
-38,242	14,015	1431,780	786,435
-37,227	14,057	1430,477	785,888
-36,213	14,061	1429,131	785,137
-35,198	14,036	1428,017	784,372
-34,184	14,098	1426,959	784,056
-33,169	14,039	1425,770	783,092
-32,154	14,051	1424,802	782,586
-31,140	14,024	1423,567	781,747
-30,125	14,085	1422,179	781,241
-29,111	14,028	1421,326	780,473
-28,096	13,999	1420,135	779,653
-27,082	13,978	1418,856	778,821
-26,067	13,954	1417,826	778,110
-25,052	13,983	1416,823	777,664
-24,038	13,970	1415,817	777,020
-23,023	13,887	1415,144	776,232
-22,009	13,995	1413,809	775,975
-20,994	13,937	1413,012	775,235
-19,979	13,925	1412,107	774,652
-18,965	13,923	1411,064	774,039
-17,950	13,923	1410,100	773,482
-16,936	13,890	1409,338	772,878
-15,921	13,893	1408,263	772,269
-14,906	13,846	1407,284	771,483
-13,892	13,875	1406,347	771,073
-12,877	13,886	1405,521	770,643
-11,863	13,888	1404,535	770,079
-10,848	13,865	1403,597	769,429
-9,833	13,879	1402,732	768,990
-8,819	13,767	1401,986	768,028
-7,804	13,792	1400,946	767,545
-6,790	13,788	1399,872	766,907
-5,775	13,756	1399,026	766,265
-4,760	13,775	1398,076	765,800
-3,746	13,784	1397,060	765,255
-2,731	13,780	1396,406	764,851
-1,717	13,798	1395,252	764,271
-0,702	13,745	1393,778	763,187
0,313	17,586	1311,433	735,909
1,327	33,817	705,973	433,765
2,342	52,145	124,028	83,510
3,356	3,304	16,697	8,572
4,371	10,506	3,139	1,687
5,386	-50,686	0,625	0,207
6,400	800,000	0,075	0,153
7,415	76,381	-0,149	-0,112
8,429	-72,033	-0,281	-0,073
9,444	39,997	-0,308	-0,196
10,459	-27,401	-0,287	-0,117
11,473	46,275	-0,345	-0,226
12,488	238,441	-0,230	-0,270
13,502	85,904	-0,284	-0,221
14,517	5,347	-0,292	-0,152
15,531	30,423	-0,313	-0,189
16,546	64,867	-0,329	-0,234
17,561	58,723	-0,381	-0,264
18,575	-29,314	-0,190	-0,076
19,590	219,293	-0,259	-0,293
20,604	62,913	-0,327	-0,231
21,619	115,719	-0,343	-0,296
22,634	14,317	-0,383	-0,210
23,648	146,456	-0,379	-0,359
24,663	-17,660	-0,349	-0,154
25,677	197,998	-0,264	-0,285
26,692	20,890	-0,349	-0,199
27,707	52,394	-0,342	-0,230
28,721	41,796	-0,336	-0,215
29,736	184,457	-0,269	-0,282
30,750	-0,569	-0,424	-0,212
31,765	57,443	-0,554	-0,382
32,780	172,104	-0,378	-0,384
33,794	10,453	-0,399	-0,214
34,809	-21,144	-0,417	-0,179
35,823	27,494	-0,412	-0,244
36,838	91,741	-0,381	-0,302
37,853	248,286	-0,363	-0,434
38,867	48,368	-0,454	-0,299
39,882	-20,652	-0,443	-0,191
40,896	38,389	-0,420	-0,263
41,911	50,668	-0,412	-0,274
42,926	63,787	-0,315	-0,223
43,940	5,538	-0,466	-0,242
44,955	4,384	-0,436	-0,224
45,969	-27,750	-0,442	-0,180
46,984	77,471	-0,270	-0,202
47,999	424,210	-0,254	-0,387
49,013	-57,876	-0,360	-0,110
50,028	45,999	-0,346	-0,225
51,042	94,005	-0,368	-0,294
52,057	68,464	-0,364	-0,263
53,071	-30,174	-0,393	-0,157
54,086	269,240	-0,248	-0,307
55,101	48,770	-0,377	-0,249
56,115	9,998	-0,263	-0,140
57,130	117,701	-0,325	-0,281
58,144	35,641	-0,283	-0,175
59,159	69,757	-0,344	-0,249
60,174	102,272	-0,398	-0,327
61,188	53,417	-0,444	-0,299
62,203	-58,673	-0,312	-0,095
63,217	-47,659	-0,353	-0,120
64,232	-8,311	-0,357	-0,168
65,247	-37,900	-0,375	-0,139
66,261	57,877	-0,362	-0,249
67,276	44,623	-0,379	-0,244
68,290	72,711	-0,300	-0,220
69,305	149,427	-0,290	-0,276
70,320	-56,300	-0,276	-0,086
71,334	126,486	-0,323	-0,288
72,349	61,483	-0,191	-0,133
73,363	63,358	-0,337	-0,238
74,378	274,418	-0,234	-0,291
75,393	61,860	-0,271	-0,190
76,407	64,822	-0,451	-0,319
77,422	-1,062	-0,234	-0,116
78,436	68,585	-0,287	-0,207
79,451	-149,581	-0,287	-0,016
80,466	-34,861	-0,358	-0,137
81,480	15,580	-0,259	-0,143
82,495	143,439	-0,264	-0,247
83,509	51,442	-0,307	-0,205
84,524	-40,350	-0,237	-0,086
85,539	55,759	-0,216	-0,147
86,553	-63,260	-0,326	-0,094
87,568	13,609	-0,379	-0,206
88,582	-36,745	-0,294	-0,110
89,597	45,156	-0,190	-0,122
90,611	-171,900	-0,135	-0,003
91,626	-10,890	-0,192	-0,089
92,641	616,661	-0,104	-0,184
93,655	227,504	-0,267	-0,305
94,670	114,461	-0,318	-0,272
95,684	40,937	-0,387	-0,244
96,699	494,394	-0,179	-0,289
97,714	126,710	-0,281	-0,250
98,728	88,003	-0,339	-0,264
99,743	5,967	-0,268	-0,139
100,757	-48,791	-0,397	-0,133
101,772	-50,273	-0,328	-0,108
102,787	307,001	-0,244	-0,319
103,801	99,798	-0,302	-0,245
104,816	477,492	-0,149	-0,237
105,830	7,716	-0,216	-0,113
106,845	-56,525	-0,272	-0,084
107,860	-19,024	-0,264	-0,115
108,874	11,988	-0,249	-0,134
109,889	378,698	-0,254	-0,365
110,903	104,239	-0,229	-0,188
111,918	90,342	-0,210	-0,165
112,933	26,306	-0,227	-0,133
113,947	-48,839	-0,197	-0,066
114,962	-6,874	-0,305	-0,145
115,976	17,813	-0,237	-0,132
116,991	-42,858	-0,294	-0,104
118,006	45,275	-0,323	-0,209
119,020	306,877	-0,165	-0,216
120,035	-51,301	-0,356	-0,116
121,049	46,020	-0,178	-0,115
122,064	-35,770	-0,191	-0,072
123,079	133,008	-0,214	-0,194
124,093	-8,790	-0,311	-0,145
125,108	71,718	-0,257	-0,187
126,122	-30,968	-0,229	-0,090
127,137	-74,197	-0,215	-0,054
128,151	-141,067	-0,364	0,026
129,166	166,265	-0,266	-0,264
130,181	46,556	-0,254	-0,165
131,195	4,845	-0,226	-0,116
132,210	96,357	-0,232	-0,186
133,224	356,522	-0,131	-0,184
134,239	-38,663	-0,249	-0,091
135,254	-57,331	-0,183	0,056
136,268	72,913	-0,220	-0,160
137,283	164,865	-0,199	-0,196
138,297	152,114	-0,361	-0,344
139,312	31,205	-0,302	-0,181
140,327	74,717	-0,313	-0,230
141,341	97,047	-0,139	-0,112
142,356	-127,851	-0,376	-0,037
143,370	210,159	-0,144	-0,158
144,385	-21,412	-0,294	-0,125
145,400	309,966	-0,187	-0,244
146,414	212,881	-0,248	-0,274
147,429	-14,218	-0,311	-0,139
148,443	225,982	-0,184	-0,209
149,458	347,316	-0,083	-0,114
150,473	800,000	-0,106	-0,312
151,487	-1,860	-0,291	-0,142
152,502	-4,086	-0,354	-0,171
153,516	-70,526	-0,326	-0,085
154,531	65,930	-0,228	-0,161
155,546	57,353	-0,234	-0,159
156,560	164,897	-0,160	-0,158
157,575	135,999	-0,201	-0,183
158,589	9,709	-0,215	-0,113
159,604	-64,772	-0,349	-0,098
160,619	688,193	-0,151	-0,278
161,633	147,161	-0,205	-0,193
162,648	181,737	-0,241	-0,248
163,662	-19,622	-0,222	-0,095
164,677	800,000	-0,081	-0,167
165,692	42,428	-0,137	-0,087
166,706	-57,148	-0,259	-0,079
167,721	572,798	-0,174	-0,297
168,735	36,241	-0,305	-0,187
169,750	8,317	-0,308	-0,161
170,764	43,129	-0,322	-0,204
171,779	152,569	-0,205	-0,195
172,794	-7,122	-0,231	-0,109
173,808	-13,389	-0,219	-0,099
174,823	3,407	-0,319	-0,161
175,837	800,000	-0,126	-0,290
176,852	195,306	-0,237	-0,251
177,867	-21,563	-0,318	-0,134
178,881	103,761	-0,112	-0,091
179,896	-88,769	-0,301	-0,062
180,910	-0,387	-0,209	-0,103
181,925	-1,412	-0,156	-0,076
182,940	13,300	-0,340	-0,183
183,954	652,469	-0,149	-0,267
184,969	126,706	-0,171	-0,151
185,983	100,925	-0,204	-0,165
186,998	-99,484	-0,269	0,047
188,013	239,147	-0,190	-0,220
189,027	138,403	-0,250	-0,229
190,042	223,216	-0,300	-0,338
191,056	-37,324	-0,231	-0,085
192,071	-48,471	-0,208	-0,069
193,086	345,742	-0,074	-0,101
194,100	179,818	-0,173	-0,177
195,115	-31,527	-0,294	-0,114
196,129	-42,992	-0,307	-0,108
197,144	-45,296	-0,339	-0,117
198,159	78,656	-0,299	-0,222
199,173	94,073	-0,194	-0,153
200,188	-16,403	-0,194	-0,085
201,202	27,457	-0,198	-0,116
202,217	63,687	-0,224	-0,156
203,232	478,838	-0,030	-0,048
204,246	-48,618	-0,295	-0,098
205,261	113,735	-0,203	-0,172
206,275	180,805	-0,149	-0,152
207,290	-49,654	-0,213	-0,070
208,304	225,559	-0,161	-0,181
209,319	291,145	-0,190	-0,240
210,334	800,000	-0,067	-0,188
211,348	170,845	-0,281	-0,280
212,363	122,487	-0,161	-0,140
213,377	508,336	-0,109	-0,176
214,392	138,711	-0,209	-0,191
215,407	-26,953	-0,301	-0,121
216,421	-80,997	-0,221	-0,050
217,436	178,025	-0,092	-0,093
218,450	349,219	-0,116	-0,159
219,465	81,670	-0,187	-0,141
220,480	-9,970	-0,228	-0,105
221,494	205,725	-0,125	-0,135
222,509	260,482	-0,160	-0,192
223,523	800,000	-0,040	-0,108
224,538	129,193	-0,172	-0,152
225,553	187,272	-0,177	-0,183
226,567	800,000	-0,049	-0,134
227,582	158,970	-0,158	-0,152
228,596	-11,310	-0,249	-0,113
229,611	49,535	-0,189	-0,123
230,626	643,782	-0,078	-0,138
231,640	-14,827	-0,171	-0,076
232,655	-32,027	-0,217	-0,084
233,669	9,394	-0,187	-0,098
234,684	201,255	-0,155	-0,166
235,699	-111,093	-0,194	0,027
236,713	-19,808	-0,118	-0,050
237,728	125,854	-0,184	-0,161
238,742	484,394	-0,163	-0,259
239,757	398,056	-0,180	-0,261
240,772	72,411	-0,193	-0,139
241,786	-59,819	-0,119	-0,035
242,801	72,439	-0,180	-0,130
243,815	8,882	-0,103	0,053
244,830	156,718	-0,197	-0,189
245,844	211,074	-0,109	-0,119
246,859	386,618	-0,139	-0,199
247,874	154,878	-0,162	-0,155
248,888	172,547	-0,124	-0,123
249,903	38,844	-0,267	-0,165
250,917	86,212	-0,173	-0,132
251,932	84,942	-0,199	-0,151
252,947	-108,562	-0,224	0,033
253,961	-125,799	-0,220	-0,023
254,976	29,685	-0,182	-0,107
255,990	405,139	-0,187	-0,274
257,005	26,947	-0,184	-0,106
258,020	-21,641	-0,178	-0,075
259,034	-53,169	-0,205	-0,065
260,049	258,362	-0,094	-0,112
261,063	-9,293	-0,188	-0,087
262,078	0,818	-0,287	-0,142
263,093	800,000	-0,112	-0,255
264,107	189,242	-0,183	-0,190
265,122	50,582	-0,199	-0,130
266,136	-114,520	-0,171	-0,022
267,151	-51,660	-0,169	-0,054
268,166	116,514	-0,122	-0,104
269,180	60,614	-0,166	-0,114
270,195	21,223	-0,185	-0,104
271,209	-78,098	-0,184	0,044
272,224	-27,545	-0,121	-0,049
273,239	73,621	-0,194	-0,140
274,253	-42,342	-0,045	-0,016
275,268	298,651	-0,107	-0,137
276,282	62,156	-0,137	-0,094
277,297	495,092	-0,080	-0,128
278,312	239,406	-0,183	-0,211
279,326	274,955	-0,193	-0,236
280,341	800,000	-0,095	-0,221
281,355	121,160	-0,156	-0,134
282,370	100,049	-0,198	-0,158
283,384	332,557	-0,058	-0,077
284,399	-200,000	-0,049	-0,237
285,414	206,707	-0,211	-0,227
286,428	168,373	-0,176	-0,173
287,443	-96,637	-0,123	0,022
288,457	800,000	-0,081	-0,168
289,472	221,939	-0,070	-0,078
290,487	800,000	-0,037	-0,104
291,501	77,463	-0,214	-0,157
292,516	141,369	-0,191	-0,175
293,530	-200,000	0,021	-0,156
294,545	-21,460	-0,133	0,056
295,560	212,519	-0,131	-0,143
296,574	-200,000	-0,027	-0,233
297,589	417,495	-0,094	-0,139
298,603	276,381	-0,070	-0,085
299,618	-40,260	-0,188	-0,067
300,633	11,972	-0,171	-0,090
301,647	97,211	-0,173	-0,137
302,662	5,844	-0,095	-0,048
303,676	68,175	-0,155	-0,109
304,691	119,746	-0,164	-0,140
305,706	671,757	-0,135	-0,242
306,720	-155,113	-0,195	-0,009
307,735	120,098	-0,136	-0,116
308,749	800,000	-0,082	-0,225
309,764	-50,732	-0,128	-0,041
310,779	-116,900	-0,111	-0,014
311,793	-79,821	-0,068	-0,016
312,808	-178,691	-0,223	0,003
313,822	524,250	-0,176	-0,286
314,837	-168,829	-0,133	-0,003
315,852	59,648	-0,157	-0,107
316,866	480,662	-0,068	-0,107
317,881	800,000	-0,119	-0,233
318,895	800,000	-0,062	-0,173
319,910	-200,000	-0,052	-0,289
320,925	156,170	-0,213	-0,202
321,939	209,932	-0,204	-0,220
322,954	145,605	-0,087	-0,080
323,968	-99,324	-0,094	-0,016
324,983	-57,955	-0,130	-0,039
325,997	96,287	-0,146	-0,114
327,012	197,875	-0,149	-0,157
328,027	94,559	-0,132	-0,103
329,041	214,236	-0,111	-0,121
330,056	800,000	-0,064	-0,125
331,070	302,240	-0,074	-0,094
332,085	118,784	-0,130	0,110
333,100	148,685	-0,157	-0,146
334,114	-112,404	-0,140	0,019
335,129	-93,950	-0,193	-0,036
336,143	343,314	-0,034	-0,046
337,158	45,967	-0,112	-0,071
338,173	-125,899	-0,148	-0,015
339,187	-88,048	-0,092	0,019
340,202	-29,805	-0,055	0,022
341,216	415,985	-0,142	-0,208
342,231	337,714	-0,195	-0,262
343,246	-32,943	-0,136	-0,052
344,260	-29,635	-0,152	-0,059
345,275	-113,943	-0,122	0,016
346,289	105,607	-0,108	-0,088
347,304	175,193	-0,130	-0,129
348,319	222,059	-0,141	-0,155
349,333	119,116	-0,190	-0,161
350,348	800,000	-0,094	-0,195
351,362	-81,729	-0,217	-0,049
352,377	212,706	-0,045	-0,049
353,392	42,322	-0,099	-0,061
354,406	458,710	-0,138	-0,212
355,421	209,224	1315,092	1414,857
356,435	161,013	1475,874	1415,338
