DTS Sentinel unit serial number:	SN410029Multiplexer serial number:	ORYXHardware model number:	OX2-SRSoftware version number:	ORYX F/W v4,00 Oryx Data Collector v3.7.2.0data status	okinstallation	B3 Nyhavnadifferential loss correction	single-endedforward channel	channel 1reverse channel	N/Adate	2023/12/03time	08:47:30forward acquisition time	300,00reverse acquisition time	0,00gamma	499,1914k internal	0,3201k external	0,3201temperature offset calibration	1,0000default loss term (dB/km)	0,3820temperature slope calibration	1,0000multiplexer offset coefficient	1,0000multiplexer slope coefficient	1,0000fibre end	0,00T internal ref (°C)	13,35T ext. ref 1 (°C)	-1,67T ext. ref 2 (°C)	-1,66length (m)	temperature (°C)	Stokes	anti-Stokes-744,400	800,000	-0,176	-0,400
-743,385	-200,000	-0,044	0,265
-742,371	244,005	-0,073	-0,089
-741,356	-200,000	0,073	0,406
-740,342	145,007	-0,209	-0,203
-739,327	-200,000	-0,061	0,344
-738,312	17,148	-0,335	-0,193
-737,298	-200,000	-0,009	0,121
-736,283	800,000	-0,138	-0,321
-735,269	-200,000	-0,025	0,157
-734,254	110,893	-0,210	-0,184
-733,239	-31,482	-0,248	0,101
-732,225	274,163	-0,164	-0,212
-731,210	800,000	0,018	-0,040
-730,196	-200,000	-0,014	0,139
-729,181	233,635	-0,148	-0,177
-728,167	-200,000	-0,070	-0,239
-727,152	-200,000	-0,013	0,073
-726,137	252,169	-0,086	-0,107
-725,123	-111,964	-0,125	-0,018
-724,108	-88,704	-0,072	0,015
-723,094	-200,000	0,004	-0,192
-722,079	-200,000	-0,026	-0,133
-721,064	26,435	-0,087	0,053
-720,050	-87,255	0,077	0,017
-719,035	47,173	-0,058	0,039
-718,021	587,084	-0,088	-0,159
-717,006	-200,000	0,010	-0,054
-715,991	618,396	-0,044	-0,081
-714,977	-149,553	-0,141	0,008
-713,962	800,000	0,028	-0,057
-712,948	-200,000	0,008	-0,050
-711,933	-3,226	-0,087	-0,044
-710,918	81,937	-0,013	0,010
-709,904	45,708	-0,096	-0,065
-708,889	101,197	-0,080	-0,067
-707,875	59,120	0,107	0,077
-706,860	-200,000	-0,026	0,101
-705,845	-200,000	0,003	0,020
-704,831	-78,862	0,098	0,024
-703,816	-82,428	-0,125	-0,029
-702,802	-200,000	0,010	0,081
-701,787	-100,332	-0,099	-0,018
-700,772	-30,003	-0,062	-0,025
-699,758	37,680	0,080	-0,052
-698,743	-14,012	0,053	-0,025
-697,729	-19,156	-0,088	-0,039
-696,714	66,882	-0,086	0,063
-695,699	-200,000	0,014	0,132
-694,685	-35,168	-0,156	-0,061
-693,670	-20,219	-0,021	0,009
-692,656	-200,000	-0,018	0,062
-691,641	14,610	0,099	0,056
-690,627	73,483	-0,057	0,043
-689,612	47,161	0,165	0,111
-688,597	800,000	0,049	-0,117
-687,583	346,805	-0,086	-0,123
-686,568	280,140	-0,025	0,032
-685,554	3,539	-0,157	0,083
-684,539	-200,000	0,004	-0,019
-683,524	426,837	-0,044	-0,070
-682,510	800,000	0,025	-0,076
-681,495	-200,000	0,142	-0,000
-680,481	-200,000	-0,018	-0,080
-679,466	-200,000	0,000	-0,102
-678,451	-29,517	0,054	0,022
-677,437	135,853	0,069	0,065
-676,422	-121,146	-0,126	0,015
-675,408	-200,000	0,035	0,112
-674,393	-200,000	-0,001	0,174
-673,378	-200,000	0,034	-0,125
-672,364	-200,000	0,006	-0,051
-671,349	800,000	0,046	-0,139
-670,335	44,010	0,022	-0,014
-669,320	-200,000	0,021	0,067
-668,305	-18,856	-0,036	-0,016
-667,291	694,783	0,045	0,086
-666,276	447,748	-0,036	0,057
-665,262	-200,000	0,025	-0,085
-664,247	-40,519	0,073	-0,027
-663,232	-44,417	-0,090	-0,032
-662,218	-8,334	-0,055	-0,027
-661,203	-8,851	0,044	-0,021
-660,189	56,158	-0,047	0,033
-659,174	464,292	-0,044	-0,071
-658,159	553,554	-0,060	-0,105
-657,145	296,267	-0,035	-0,047
-656,130	325,040	0,080	-0,111
-655,116	-171,294	-0,130	0,003
-654,101	-124,622	-0,094	0,010
-653,086	-9,480	-0,073	-0,035
-652,072	-78,240	0,094	-0,023
-651,057	397,519	-0,061	-0,092
-650,043	800,000	-0,036	0,090
-649,028	70,697	0,048	0,036
-648,014	-131,983	0,119	-0,011
-646,999	43,793	0,069	0,046
-645,984	800,000	-0,024	0,074
-644,970	-64,590	-0,034	-0,010
-643,955	-128,092	-0,176	-0,018
-642,941	-107,026	-0,096	0,015
-641,926	-157,584	0,124	0,005
-640,911	-200,000	-0,008	0,026
-639,897	582,057	0,042	0,075
-638,882	-200,000	0,006	0,128
-637,868	-200,000	-0,034	0,122
-636,853	33,971	-0,067	-0,042
-635,838	108,544	0,041	-0,036
-634,824	426,725	0,023	0,036
-633,809	-200,000	0,034	0,117
-632,795	-200,000	0,007	-0,052
-631,780	-18,617	-0,141	-0,064
-630,765	-150,592	0,033	0,002
-629,751	-200,000	0,002	-0,055
-628,736	-200,000	0,012	0,042
-627,722	-88,447	0,115	-0,025
-626,707	800,000	-0,032	0,069
-625,692	42,692	0,108	-0,071
-624,678	-28,679	-0,025	0,010
-623,663	64,475	-0,084	-0,062
-622,649	-200,000	-0,048	-0,258
-621,634	-14,041	-0,019	-0,009
-620,619	76,353	-0,106	-0,081
-619,605	-36,880	-0,045	0,017
-618,590	2,228	-0,081	-0,042
-617,576	17,235	0,098	-0,056
-616,561	-160,247	-0,100	-0,004
-615,546	653,488	0,046	-0,086
-614,532	442,870	-0,074	-0,117
-613,517	800,000	-0,024	-0,060
-612,503	49,538	0,083	-0,056
-611,488	173,499	0,011	-0,011
-610,474	-4,530	-0,075	-0,037
-609,459	800,000	0,040	-0,089
-608,444	-178,342	-0,030	0,000
-607,430	297,059	-0,076	0,101
-606,415	161,348	-0,045	0,045
-605,401	800,000	-0,042	0,107
-604,386	131,304	0,089	-0,083
-603,371	-59,509	0,124	0,038
-602,357	550,170	-0,056	-0,097
-601,342	-93,939	-0,130	-0,026
-600,328	-32,444	-0,093	0,037
-599,313	-12,864	0,084	0,039
-598,298	-200,000	0,006	0,140
-597,284	-56,951	-0,078	0,025
-596,269	734,945	-0,076	0,149
-595,255	263,501	0,081	0,102
-594,240	-200,000	-0,006	-0,097
-593,225	84,757	0,065	-0,051
-592,211	-72,107	-0,109	0,029
-591,196	148,770	-0,089	-0,087
-590,182	166,192	-0,053	0,054
-589,167	325,087	-0,032	0,045
-588,152	800,000	-0,072	0,167
-587,138	575,400	0,023	0,041
-586,123	-200,000	0,033	-0,147
-585,109	800,000	0,007	0,013
-584,094	-156,292	-0,173	-0,008
-583,079	-6,564	-0,027	0,013
-582,065	-57,222	-0,067	-0,021
-581,050	-39,173	-0,112	0,042
-580,036	793,656	-0,016	0,032
-579,021	115,218	-0,006	0,005
-578,006	-70,744	-0,179	-0,048
-576,992	-48,626	-0,030	-0,010
-575,977	157,151	-0,038	-0,038
-574,963	75,043	-0,066	-0,051
-573,948	800,000	-0,018	0,052
-572,934	-145,455	-0,177	0,011
-571,919	-190,360	0,064	0,000
-570,904	103,913	0,097	-0,083
-569,890	-199,449	-0,160	-0,001
-568,875	-11,210	0,103	0,049
-567,861	32,101	0,104	-0,065
-566,846	-115,068	0,170	-0,023
-565,831	380,696	-0,040	0,059
-564,817	110,543	0,134	-0,116
-563,802	-200,000	0,027	-0,099
-562,788	800,000	0,036	-0,091
-561,773	419,246	0,018	-0,028
-560,758	15,161	0,065	0,036
-559,744	55,720	0,129	0,090
-558,729	-200,000	-0,004	-0,113
-557,715	-200,000	-0,013	0,041
-556,700	667,782	0,055	-0,103
-555,685	-200,000	-0,005	-0,235
-554,671	173,404	-0,037	0,039
-553,656	-102,323	-0,063	-0,011
-552,642	-200,000	-0,005	0,070
-551,627	97,240	0,019	-0,016
-550,612	4,151	-0,011	0,006
-549,598	167,990	-0,054	-0,056
-548,583	-200,000	-0,016	0,088
-547,569	800,000	-0,028	-0,066
-546,554	-63,739	-0,044	-0,013
-545,539	-200,000	-0,019	0,109
-544,525	-200,000	0,017	0,072
-543,510	-200,000	-0,020	-0,161
-542,496	-27,893	-0,067	0,028
-541,481	-43,474	-0,106	-0,038
-540,466	193,984	-0,020	0,022
-539,452	236,579	0,021	-0,026
-538,437	800,000	0,038	-0,078
-537,423	-200,000	-0,005	-0,023
-536,408	-200,000	-0,006	0,079
-535,393	165,030	0,050	0,051
-534,379	113,581	0,108	-0,094
-533,364	-98,590	0,049	0,009
-532,350	36,546	0,074	-0,047
-531,335	40,923	-0,024	0,015
-530,321	642,388	0,063	0,116
-529,306	-200,000	-0,006	-0,150
-528,291	663,396	0,007	-0,012
-527,277	-67,659	0,114	-0,032
-526,262	-200,000	-0,022	0,092
-525,248	138,970	0,090	-0,085
-524,233	800,000	-0,016	0,033
-523,218	79,786	-0,067	0,052
-522,204	16,100	0,098	-0,056
-521,189	-118,302	0,173	0,022
-520,175	141,274	-0,072	0,069
-519,160	-200,000	-0,005	0,021
-518,145	167,518	0,083	-0,085
-517,131	447,705	0,031	-0,049
-516,116	-70,145	0,057	0,016
-515,102	-41,736	-0,015	0,005
-514,087	-64,356	-0,128	-0,037
-513,072	83,174	-0,166	-0,130
-512,058	65,018	0,108	-0,079
-511,043	-200,000	-0,005	0,034
-510,029	143,912	-0,032	-0,030
-509,014	226,007	0,011	0,013
-507,999	152,931	0,036	0,036
-506,985	-87,779	0,126	0,027
-505,970	-200,000	-0,002	-0,043
-504,956	22,851	0,069	0,041
-503,941	219,531	-0,025	-0,029
-502,926	-134,692	0,099	-0,009
-501,912	-200,000	0,033	0,227
-500,897	750,372	-0,038	-0,074
-499,883	387,415	-0,081	-0,121
-498,868	-200,000	0,016	-0,195
-497,853	-64,652	0,062	0,018
-496,839	177,295	0,011	0,011
-495,824	46,893	0,148	0,099
-494,810	417,328	0,080	-0,123
-493,795	110,943	-0,057	-0,049
-492,781	-200,000	0,031	-0,131
-491,766	193,688	-0,075	-0,082
-490,751	200,485	-0,027	-0,030
-489,737	-61,120	-0,140	-0,042
-488,722	-200,000	0,002	0,091
-487,708	163,392	-0,102	0,103
-486,693	-99,468	0,028	-0,005
-485,678	650,063	-0,059	-0,110
-484,664	-155,585	0,046	-0,002
-483,649	52,989	-0,108	0,074
-482,635	558,473	0,039	-0,068
-481,620	-136,928	0,029	-0,002
-480,605	455,197	-0,077	-0,123
-479,591	290,517	-0,058	0,076
-478,576	-200,000	0,051	-0,204
-477,562	-200,000	0,016	0,088
-476,547	238,463	0,055	-0,066
-475,532	139,584	0,060	0,057
-474,518	800,000	-0,040	-0,103
-473,503	273,024	0,046	-0,058
-472,489	180,748	-0,078	-0,083
-471,474	-200,000	0,015	0,076
-470,459	-122,281	0,129	-0,015
-469,445	-200,000	-0,002	-0,012
-468,430	394,307	-0,027	0,041
-467,416	-28,458	-0,061	0,025
-466,401	147,973	-0,044	0,043
-465,386	683,483	0,029	-0,055
-464,372	-143,396	0,082	-0,006
-463,357	135,994	-0,110	-0,103
-462,343	-110,083	-0,059	-0,009
-461,328	-125,894	-0,152	-0,016
-460,313	-9,991	0,117	-0,056
-459,299	-57,586	0,136	-0,043
-458,284	800,000	0,025	-0,070
-457,270	439,812	-0,063	-0,099
-456,255	-132,037	-0,040	0,004
-455,241	-96,250	-0,043	0,008
-454,226	695,194	-0,086	0,162
-453,211	-135,219	-0,016	0,001
-452,197	-10,880	0,134	0,064
-451,182	-99,770	-0,053	-0,009
-450,168	-95,657	-0,033	-0,006
-449,153	-200,000	-0,014	-0,106
-448,138	-168,335	-0,161	-0,004
-447,124	800,000	-0,034	-0,084
-446,109	220,547	-0,108	0,125
-445,095	524,736	-0,034	-0,057
-444,080	-77,050	0,073	-0,018
-443,065	398,591	-0,088	0,133
-442,051	24,586	-0,070	-0,042
-441,036	800,000	-0,064	-0,130
-440,022	-200,000	-0,053	-0,177
-439,007	800,000	0,041	0,101
-437,992	-200,000	0,026	0,153
-436,978	-143,787	0,101	0,007
-435,963	251,582	0,083	0,102
-434,949	146,537	0,040	0,039
-433,934	26,764	-0,063	0,038
-432,919	149,374	0,092	0,090
-431,905	194,115	-0,046	-0,050
-430,890	-102,102	-0,066	-0,011
-429,876	-200,000	0,018	0,062
-428,861	-200,000	0,019	0,135
-427,846	800,000	0,024	-0,058
-426,832	-156,746	-0,077	0,003
-425,817	12,968	-0,026	-0,015
-424,803	-71,106	-0,082	-0,022
-423,788	466,283	0,021	0,034
-422,773	-200,000	0,031	-0,163
-421,759	-200,000	0,062	0,231
-420,744	430,165	0,102	0,159
-419,730	800,000	-0,027	-0,072
-418,715	-92,193	0,067	-0,013
-417,701	-200,000	0,009	0,072
-416,686	7,260	-0,079	-0,042
-415,671	-48,503	0,076	-0,026
-414,657	-200,000	0,024	0,116
-413,642	137,493	0,076	0,071
-412,628	-13,949	-0,138	-0,064
-411,613	800,000	0,015	0,034
-410,598	-200,000	0,027	-0,144
-409,584	-200,000	0,004	0,090
-408,569	374,447	0,122	0,179
-407,555	800,000	0,036	-0,098
-406,540	-120,237	-0,077	0,009
-405,525	494,950	-0,068	-0,112
-404,511	800,000	0,019	-0,041
-403,496	-102,613	-0,090	-0,015
-402,482	-200,000	-0,008	-0,057
-401,467	352,231	-0,068	0,097
-400,452	-48,227	-0,102	0,035
-399,438	68,183	0,077	0,056
-398,423	243,702	-0,043	-0,052
-397,409	-128,604	0,030	-0,003
-396,394	-111,665	0,064	0,009
-395,379	-200,000	-0,005	-0,023
-394,365	-200,000	0,040	0,154
-393,350	133,768	-0,142	0,132
-392,336	-68,189	0,066	0,018
-391,321	74,624	0,027	-0,020
-390,306	68,690	-0,090	0,066
-389,292	-122,778	-0,026	-0,003
-388,277	-111,791	0,069	-0,010
-387,263	-114,582	0,111	0,015
-386,248	-200,000	-0,025	-0,093
-385,233	800,000	-0,061	0,156
-384,219	374,217	0,020	0,029
-383,204	-24,572	-0,110	0,047
-382,190	166,236	-0,049	0,050
-381,175	-122,377	-0,059	0,007
-380,160	800,000	-0,032	0,098
-379,146	-53,461	0,082	0,027
-378,131	4,787	0,089	-0,047
-377,117	61,481	-0,029	0,021
-376,102	-200,000	-0,022	0,074
-375,088	-200,000	-0,032	-0,116
-374,073	46,143	-0,089	-0,059
-373,058	178,915	0,074	-0,078
-372,044	163,501	0,052	0,052
-371,029	244,825	-0,034	0,041
-370,015	-200,000	-0,025	0,138
-369,000	-200,000	0,052	0,171
-367,985	100,407	-0,090	-0,075
-366,971	-149,911	-0,052	0,003
-365,956	265,379	0,041	-0,051
-364,942	49,990	0,137	-0,093
-363,927	94,221	-0,033	-0,027
-362,912	800,000	0,021	-0,061
-361,898	-158,763	-0,061	0,002
-360,883	162,037	-0,074	0,074
-359,869	-19,638	-0,074	0,032
-358,854	72,672	-0,039	-0,029
-357,839	800,000	0,073	0,185
-356,825	188,900	0,129	0,138
-355,810	800,000	-0,021	-0,046
-354,796	-110,914	-0,149	-0,022
-353,781	-112,957	0,039	-0,006
-352,766	-89,827	-0,153	0,032
-351,752	-179,264	-0,076	0,001
-350,737	-200,000	-0,007	0,084
-349,723	-85,831	-0,186	-0,041
-348,708	31,681	-0,059	0,036
-347,693	-53,952	-0,067	0,022
-346,679	-200,000	0,013	0,060
-345,664	-22,957	-0,096	-0,041
-344,650	-22,826	0,087	-0,037
-343,635	-53,579	-0,097	-0,031
-342,620	-29,382	0,033	-0,013
-341,606	71,277	-0,087	0,064
-340,591	-44,482	-0,112	0,040
-339,577	-200,000	0,042	-0,144
-338,562	-61,146	-0,182	-0,055
-337,548	465,556	0,066	-0,106
-336,533	456,856	0,052	-0,082
-335,518	228,126	-0,053	0,061
-334,504	684,429	-0,068	-0,127
-333,489	442,025	0,032	-0,051
-332,475	-200,000	0,011	-0,077
-331,460	-116,876	-0,067	0,009
-330,445	156,497	0,078	-0,077
-329,431	620,909	0,019	0,035
-328,416	311,572	0,105	0,141
-327,402	273,118	0,081	0,102
-326,387	800,000	0,018	0,053
-325,372	502,029	-0,013	-0,021
-324,358	-57,693	-0,011	0,003
-323,343	-92,642	0,094	-0,019
-322,329	-7,576	0,102	-0,049
-321,314	21,502	-0,026	-0,015
-320,299	324,007	0,027	0,038
-319,285	267,919	0,017	-0,022
-318,270	-81,432	0,112	-0,026
-317,256	-200,000	0,001	0,055
-316,241	37,795	0,061	-0,039
-315,226	-92,244	0,186	-0,037
-314,212	-17,022	0,142	-0,064
-313,197	418,921	0,040	0,061
-312,183	-200,000	-0,003	0,028
-311,168	-200,000	-0,000	-0,045
-310,153	-200,000	0,010	0,120
-309,139	-200,000	0,032	-0,157
-308,124	-200,000	-0,042	0,150
-307,110	106,036	0,045	-0,038
-306,095	-200,000	0,011	0,081
-305,080	-200,000	0,022	-0,079
-304,066	-200,000	-0,041	-0,191
-303,051	177,384	-0,147	-0,153
-302,037	-200,000	0,034	-0,147
-301,022	-21,797	-0,121	0,052
-300,008	-49,553	0,192	-0,065
-298,993	-80,035	0,101	-0,024
-297,978	682,952	-0,042	0,078
-296,964	279,911	0,072	0,093
-295,949	-102,657	-0,083	-0,014
-294,935	-103,659	0,082	0,014
-293,920	-40,471	0,061	0,023
-292,905	737,386	0,039	0,076
-291,891	14,787	0,105	0,059
-290,876	94,246	-0,032	0,026
-289,862	-9,069	-0,052	-0,025
-288,847	244,057	-0,117	-0,140
-287,832	8,690	0,050	-0,027
-286,818	115,273	-0,082	-0,071
-285,803	-77,744	0,089	-0,022
-284,789	294,289	-0,048	0,063
-283,774	800,000	-0,046	0,134
-282,759	-46,826	0,208	0,072
-281,745	-15,814	-0,042	-0,019
-280,730	-200,000	-0,007	-0,108
-279,716	550,023	-0,023	-0,040
-278,701	52,618	0,038	0,026
-277,686	-1,365	-0,054	-0,027
-276,672	-83,035	-0,108	0,025
-275,657	94,157	-0,082	0,067
-274,643	205,039	-0,058	-0,064
-273,628	-16,983	-0,072	-0,032
-272,613	435,459	-0,033	0,051
-271,599	12,307	0,070	0,038
-270,584	271,674	0,077	0,097
-269,570	-126,124	0,101	0,011
-268,555	18,469	-0,019	-0,011
-267,540	800,000	-0,055	0,121
-266,526	-153,112	-0,059	-0,003
-265,511	-79,605	-0,123	0,029
-264,497	88,192	0,146	0,116
-263,482	-200,000	0,037	0,165
-262,467	-150,333	0,028	0,001
-261,453	23,481	0,139	-0,082
-260,438	-200,000	-0,008	-0,046
-259,424	396,176	-0,034	-0,052
-258,409	-200,000	0,034	-0,175
-257,395	-200,000	0,053	0,172
-256,380	-7,222	0,105	0,051
-255,365	-187,809	0,029	-0,000
-254,351	89,643	0,086	-0,069
-253,336	-200,000	0,027	-0,149
-252,322	-25,556	-0,151	0,063
-251,307	-31,754	-0,025	0,010
-250,292	-200,000	0,006	-0,046
-249,278	679,974	-0,036	-0,067
-248,263	142,802	0,104	0,099
-247,249	755,557	0,033	0,064
-246,234	226,618	0,032	0,037
-245,219	46,504	0,057	0,038
-244,205	231,154	0,061	-0,072
-243,190	-149,899	-0,042	0,002
-242,176	800,000	0,032	0,081
-241,161	114,723	0,007	-0,006
-240,146	120,218	-0,087	-0,077
-239,132	266,122	-0,055	0,068
-238,117	-70,524	-0,078	0,021
-237,103	-151,900	-0,129	-0,007
-236,088	-200,000	0,004	-0,054
-235,073	-163,656	0,110	0,004
-234,059	220,146	0,042	-0,048
-233,044	-18,986	0,094	0,041
-232,030	169,879	0,071	0,073
-231,015	447,039	-0,036	-0,056
-230,000	800,000	0,034	-0,070
-228,986	442,020	-0,027	0,042
-227,971	-200,000	0,020	0,066
-226,957	800,000	0,046	0,098
-225,942	800,000	-0,006	0,015
-224,927	-16,647	-0,078	0,035
-223,913	154,607	0,029	-0,028
-222,898	-171,505	-0,045	0,001
-221,884	-200,000	0,032	-0,141
-220,869	-25,827	-0,103	0,043
-219,855	-142,780	0,159	0,011
-218,840	-71,172	-0,105	0,028
-217,825	-200,000	0,019	0,083
-216,811	66,220	0,054	0,039
-215,796	272,818	-0,057	0,071
-214,782	285,273	0,088	-0,113
-213,767	-177,962	0,020	-0,000
-212,752	-200,000	-0,008	0,043
-211,738	201,079	0,066	0,072
-210,723	549,537	-0,028	0,047
-209,709	-200,000	0,013	0,086
-208,694	-200,000	0,016	0,055
-207,679	24,095	0,139	-0,082
-206,665	3,041	0,092	-0,048
-205,650	-200,000	-0,008	-0,038
-204,636	141,353	-0,072	0,068
-203,621	326,370	-0,059	0,081
-202,606	392,824	0,040	0,060
-201,592	-122,731	-0,083	-0,009
-200,577	-76,343	0,044	-0,011
-199,563	-200,000	-0,010	-0,084
-198,548	245,285	0,142	0,171
-197,533	527,017	0,019	-0,032
-196,519	-116,580	0,124	-0,016
-195,504	-40,751	-0,142	-0,052
-194,490	800,000	-0,011	-0,030
-193,475	-200,000	0,002	0,058
-192,460	-200,000	-0,006	-0,020
-191,446	71,519	0,113	0,083
-190,431	800,000	0,029	-0,068
-189,417	-64,639	-0,160	-0,046
-188,402	-200,000	0,005	0,040
-187,387	22,070	0,079	-0,046
-186,373	187,127	-0,026	-0,028
-185,358	-200,000	0,004	-0,042
-184,344	-88,740	0,070	-0,015
-183,329	-107,516	0,163	0,025
-182,315	800,000	0,010	0,027
-181,300	-69,118	-0,033	0,009
-180,285	-154,285	0,077	0,004
-179,271	-47,819	0,149	0,051
-178,256	-200,000	-0,002	-0,041
-177,242	250,470	0,036	0,044
-176,227	-85,209	-0,119	0,026
-175,212	41,687	-0,065	-0,042
-174,198	-36,427	0,062	0,024
-173,183	-84,480	-0,086	0,019
-172,169	800,000	-0,031	-0,069
-171,154	-151,854	0,120	-0,006
-170,139	88,721	-0,073	-0,058
-169,125	471,568	-0,066	0,107
-168,110	-44,760	0,201	0,071
-167,096	-115,715	0,152	0,020
-166,081	64,021	-0,019	0,013
-165,066	-81,498	-0,146	-0,034
-164,052	-13,724	0,157	0,072
-163,037	-200,000	0,009	-0,113
-162,023	-138,136	0,120	0,009
-161,008	-200,000	-0,020	0,099
-159,993	-26,971	-0,018	0,008
-158,979	37,058	-0,089	0,056
-157,964	-15,409	-0,026	-0,012
-156,950	-200,000	0,014	-0,128
-155,935	-4,740	-0,058	0,028
-154,920	22,134	-0,046	0,026
-153,906	466,134	0,041	0,065
-152,891	-105,883	-0,150	-0,024
-151,877	-200,000	-0,014	-0,099
-150,862	-62,330	-0,077	-0,023
-149,847	-46,790	0,080	-0,028
-148,833	-53,718	-0,059	0,019
-147,818	388,749	0,071	0,104
-146,804	800,000	-0,009	-0,025
-145,789	601,055	-0,047	0,083
-144,775	-200,000	-0,019	-0,117
-143,760	118,591	-0,072	-0,063
-142,745	-200,000	0,012	-0,041
-141,731	-157,465	-0,047	-0,002
-140,716	149,943	0,107	0,103
-139,702	39,100	0,076	0,048
-138,687	-145,827	0,123	-0,008
-137,672	-110,709	0,023	-0,003
-136,658	318,824	0,056	-0,075
-135,643	145,376	-0,084	-0,080
-134,629	-159,044	0,095	0,004
-133,614	41,985	0,054	0,035
-132,599	-23,610	-0,014	0,006
-131,585	147,942	-0,065	-0,062
-130,570	800,000	-0,065	0,172
-129,556	279,049	0,042	-0,054
-128,541	255,799	-0,091	0,110
-127,526	-200,000	0,001	-0,096
-126,512	395,160	0,044	0,066
-125,497	79,269	0,038	0,029
-124,483	244,687	0,057	0,068
-123,468	-200,000	0,003	-0,051
-122,453	-75,255	-0,090	0,023
-121,439	487,245	-0,026	-0,042
-120,424	-200,000	0,019	-0,072
-119,410	238,162	0,055	-0,065
-118,395	262,750	0,076	0,094
-117,380	-200,000	-0,003	-0,068
-116,366	108,787	0,040	0,034
-115,351	144,550	0,107	0,101
-114,337	-58,918	-0,069	-0,021
-113,322	85,141	-0,165	-0,129
-112,307	-84,355	-0,059	0,013
-111,293	171,066	0,147	0,150
-110,278	-47,206	-0,049	0,017
-109,264	110,396	-0,061	-0,052
-108,249	-124,064	-0,180	-0,020
-107,234	-200,000	-0,004	0,051
-106,220	-200,000	0,015	-0,174
-105,205	-136,738	-0,092	0,007
-104,191	5,756	0,079	-0,041
-103,176	594,393	-0,072	-0,126
-102,162	250,452	0,088	0,106
-101,147	-200,000	-0,014	-0,180
-100,132	248,622	-0,125	-0,150
-99,118	495,991	0,026	-0,042
-98,103	28,129	0,042	0,025
-97,089	-54,438	-0,117	-0,038
-96,074	-124,931	-0,005	-0,001
-95,059	85,517	0,112	0,087
-94,045	-27,101	-0,053	-0,022
-93,030	-117,642	-0,073	0,009
-92,016	800,000	-0,014	-0,038
-91,001	363,730	0,064	-0,091
-89,986	800,000	0,018	-0,050
-88,972	-200,000	0,015	0,138
-87,957	-15,007	-0,042	0,019
-86,943	-200,000	-0,023	-0,074
-85,928	34,726	-0,046	-0,028
-84,913	-24,595	0,059	-0,025
-83,899	-33,604	-0,173	0,067
-82,884	-69,851	0,039	0,010
-81,870	691,356	-0,019	-0,035
-80,855	166,915	0,084	0,084
-79,840	712,644	-0,084	-0,158
-78,826	84,122	-0,056	-0,044
-77,811	101,513	-0,084	-0,069
-76,797	-31,587	-0,067	0,027
-75,782	-25,459	-0,154	0,064
-74,767	76,836	0,048	0,036
-73,753	84,679	0,096	0,074
-72,738	179,949	-0,016	-0,017
-71,724	85,902	0,042	-0,033
-70,709	-126,656	-0,098	-0,010
-69,694	-200,000	0,019	0,084
-68,680	7,706	0,059	0,031
-67,665	-2,724	0,128	0,063
-66,651	204,895	0,137	0,151
-65,636	286,330	0,022	0,028
-64,622	576,693	-0,057	0,100
-63,607	-37,011	-0,112	-0,042
-62,592	77,663	-0,046	0,035
-61,578	-138,618	0,079	0,006
-60,563	21,701	-0,129	0,074
-59,549	137,643	0,066	-0,061
-58,534	16,340	-1,637	-0,912
-57,519	449,377	-1,374	-2,152
-56,505	-200,000	-0,575	-4,424
-55,490	200,281	1,080	1,176
-54,476	800,000	4,845	11,187
-53,461	-200,000	19,163	320,297
-52,446	-200,000	740,731	2335,549
-51,432	574,218	1655,418	2870,701
-50,417	78,334	1671,115	1262,159
-49,403	21,325	1544,215	885,905
-48,388	15,252	1466,438	811,754
-47,373	17,966	1456,825	819,519
-46,359	16,728	1446,387	807,676
-45,344	13,454	1441,926	789,467
-44,330	13,408	1440,220	788,281
-43,315	13,370	1438,440	787,096
-42,300	13,431	1436,486	786,286
-41,286	13,441	1435,258	785,630
-40,271	13,382	1434,129	784,703
-39,257	13,382	1432,828	783,958
-38,242	13,378	1431,722	783,302
-37,227	13,407	1430,331	782,648
-36,213	13,441	1429,107	782,109
-35,198	13,466	1427,734	781,445
-34,184	13,515	1426,608	781,029
-33,169	13,433	1425,468	779,987
-32,154	13,473	1424,420	779,572
-31,140	13,454	1423,153	778,759
-30,125	13,513	1422,089	778,423
-29,111	13,452	1421,024	777,524
-28,096	13,435	1419,769	776,723
-27,082	13,388	1418,725	775,900
-26,067	13,386	1417,651	775,271
-25,052	13,420	1416,378	774,705
-24,038	13,384	1415,412	773,979
-23,023	13,346	1414,606	773,328
-22,009	13,313	1413,652	772,618
-20,994	13,303	1412,810	772,083
-19,979	13,376	1411,789	771,838
-18,965	13,310	1410,975	771,049
-17,950	13,307	1409,829	770,382
-16,936	13,300	1409,000	769,862
-15,921	13,280	1407,668	769,011
-14,906	13,310	1407,016	768,765
-13,892	13,317	1405,837	768,124
-12,877	13,284	1405,160	767,570
-11,863	13,330	1404,068	767,154
-10,848	13,245	1403,368	766,345
-9,833	13,225	1402,691	765,852
-8,819	13,224	1401,834	765,349
-7,804	13,148	1400,937	764,475
-6,790	13,189	1399,826	764,031
-5,775	13,206	1398,417	763,310
-4,760	13,234	1397,627	762,981
-3,746	13,177	1396,830	762,249
-2,731	13,212	1395,924	761,889
-1,717	13,152	1395,114	761,138
-0,702	13,144	1393,169	760,009
0,313	17,031	1310,055	732,662
1,327	33,344	703,793	431,305
2,342	51,315	123,346	82,719
3,356	2,866	16,528	8,460
4,371	-1,179	3,194	1,591
5,386	57,402	0,530	0,365
6,400	-200,000	-0,004	0,290
7,415	57,205	-0,279	-0,192
8,429	331,954	-0,204	-0,279
9,444	-1,689	-0,467	-0,232
10,459	-18,688	-0,324	-0,142
11,473	21,671	-0,280	-0,161
12,488	86,112	-0,309	-0,240
13,502	49,886	-0,290	-0,193
14,517	79,353	-0,321	-0,243
15,531	-123,596	-0,433	-0,048
16,546	55,052	-0,343	-0,234
17,561	218,725	-0,295	-0,333
18,575	128,035	-0,129	-0,116
19,590	580,527	-0,192	-0,334
20,604	-39,467	-0,262	-0,096
21,619	33,783	-0,524	-0,321
22,634	78,165	-0,511	-0,385
23,648	113,707	-0,289	-0,248
24,663	21,352	-0,416	-0,238
25,677	14,682	-0,352	-0,194
26,692	-30,503	-0,306	-0,122
27,707	16,993	-0,409	-0,228
28,721	74,193	-0,347	-0,257
29,736	35,460	-0,468	-0,289
30,750	167,117	-0,349	-0,350
31,765	33,072	-0,403	-0,246
32,780	46,700	-0,532	-0,348
33,794	-8,888	-0,453	-0,214
34,809	-24,181	-0,370	-0,155
35,823	72,580	-0,324	-0,238
36,838	238,712	-0,308	-0,362
37,853	109,028	-0,436	-0,368
38,867	111,776	-0,396	-0,337
39,882	78,646	-0,333	-0,251
40,896	276,082	-0,221	-0,277
41,911	-36,181	-0,284	-0,108
42,926	55,904	-0,314	-0,214
43,940	25,515	-0,345	-0,202
44,955	23,005	-0,412	-0,238
45,969	-5,263	-0,320	-0,155
46,984	34,324	-0,422	-0,259
47,999	202,813	-0,219	-0,238
49,013	-99,500	-0,383	-0,067
50,028	137,006	-0,292	-0,268
51,042	17,834	-0,428	-0,239
52,057	169,981	-0,336	-0,339
53,071	-55,199	-0,367	-0,115
54,086	-66,937	-0,292	-0,081
55,101	127,873	-0,330	-0,296
56,115	-66,097	-0,348	-0,097
57,130	42,117	-0,355	-0,226
58,144	55,542	-0,427	-0,290
59,159	101,780	-0,272	-0,223
60,174	58,725	-0,416	-0,287
61,188	-22,582	-0,368	-0,156
62,203	-19,658	-0,400	-0,174
63,217	116,490	-0,205	-0,177
64,232	130,555	-0,273	-0,246
65,247	56,655	-0,387	-0,264
66,261	270,758	-0,382	-0,473
67,276	161,319	-0,323	-0,318
68,290	93,978	-0,364	-0,290
69,305	86,234	-0,289	-0,224
70,320	242,183	-0,183	-0,215
71,334	77,660	-0,270	-0,202
72,349	93,650	-0,259	-0,206
73,363	67,373	-0,421	-0,302
74,378	82,546	-0,286	-0,218
75,393	66,758	-0,240	-0,172
76,407	-77,586	-0,266	-0,064
77,422	-30,586	-0,338	-0,134
78,436	49,755	-0,311	-0,206
79,451	-0,772	-0,168	-0,084
80,466	-2,219	-0,286	-0,141
81,480	96,946	-0,238	-0,191
82,495	70,009	-0,313	-0,227
83,509	106,034	-0,232	-0,192
84,524	-102,335	-0,275	-0,046
85,539	104,356	-0,229	-0,190
86,553	142,434	-0,359	-0,335
87,568	216,861	-0,180	-0,202
88,582	87,417	-0,300	-0,233
89,597	90,915	-0,347	-0,273
90,611	-28,096	-0,402	-0,162
91,626	-2,444	-0,216	-0,106
92,641	65,717	-0,205	-0,145
93,655	124,356	-0,182	-0,161
94,670	176,945	-0,229	-0,234
95,684	282,136	-0,254	-0,320
96,699	800,000	-0,119	-0,298
97,714	3,997	-0,218	-0,112
98,728	-35,069	-0,270	-0,103
99,743	57,095	-0,210	-0,144
100,757	61,850	-0,299	-0,209
101,772	34,419	-0,383	-0,234
102,787	80,568	-0,286	-0,216
103,801	129,777	-0,291	-0,261
104,816	-81,933	-0,337	-0,077
105,830	-29,998	-0,185	-0,073
106,845	-3,199	-0,266	-0,130
107,860	10,488	-0,341	-0,181
108,874	4,913	-0,211	-0,108
109,889	290,789	-0,222	-0,283
110,903	4,385	-0,288	-0,148
111,918	84,094	-0,319	-0,244
112,933	-29,124	-0,246	-0,098
113,947	-148,629	-0,176	0,010
114,962	85,337	-0,195	-0,150
115,976	10,393	-0,288	-0,153
116,991	317,740	-0,203	-0,270
118,006	87,462	-0,361	-0,280
119,020	-10,960	-0,258	-0,119
120,035	148,667	-0,187	-0,177
121,049	-84,545	-0,229	0,050
122,064	-63,215	-0,192	-0,055
123,079	-69,748	-0,259	-0,069
124,093	-61,860	-0,313	-0,091
125,108	625,943	-0,098	-0,173
126,122	-73,866	-0,341	-0,086
127,137	-79,356	-0,216	-0,051
128,151	-33,551	-0,230	-0,089
129,166	134,807	-0,133	-0,121
130,181	194,928	-0,247	-0,262
131,195	190,879	-0,267	-0,281
132,210	269,072	-0,198	-0,244
133,224	190,968	-0,175	-0,185
134,239	88,831	-0,129	-0,100
135,254	-36,247	-0,270	-0,101
136,268	-35,161	-0,217	-0,082
137,283	-44,894	-0,248	-0,086
138,297	-3,257	-0,278	-0,135
139,312	-2,188	-0,334	-0,163
140,327	44,537	-0,263	-0,169
141,341	100,429	-0,184	-0,149
142,356	55,738	-0,373	-0,252
143,370	35,195	-0,360	-0,220
144,385	-57,911	-0,323	-0,098
145,400	189,795	-0,196	-0,206
146,414	670,318	-0,200	-0,363
147,429	-126,007	-0,321	-0,033
148,443	389,361	-0,217	-0,315
149,458	75,949	-0,356	-0,263
150,473	-200,000	0,014	-0,212
151,487	162,007	-0,190	-0,186
152,502	18,164	-0,237	-0,131
153,516	23,247	-0,360	-0,206
154,531	128,830	-0,298	-0,265
155,546	208,891	-0,275	-0,301
156,560	70,086	-0,121	-0,087
157,575	-133,832	-0,180	-0,015
158,589	142,604	-0,224	-0,208
159,604	12,919	-0,275	-0,148
160,619	158,351	-0,214	-0,207
161,633	280,366	-0,238	-0,298
162,648	135,446	-0,240	-0,218
163,662	115,522	-0,184	-0,157
164,677	137,456	-0,245	-0,224
165,692	47,733	-0,256	-0,167
166,706	-86,861	-0,187	-0,039
167,721	99,466	-0,167	-0,135
168,735	-100,355	-0,271	-0,046
169,750	181,067	-0,257	-0,263
170,764	178,646	-0,179	-0,183
171,779	166,645	-0,132	-0,130
172,794	149,889	-0,203	-0,192
173,808	136,985	-0,199	-0,181
174,823	259,772	-0,282	-0,340
175,837	173,824	-0,352	-0,354
176,852	160,548	-0,306	-0,298
177,867	32,467	-0,208	-0,125
178,881	186,182	-0,143	-0,148
179,896	-81,262	-0,246	-0,056
180,910	129,252	-0,192	-0,171
181,925	-76,082	-0,207	-0,050
182,940	-11,670	-0,274	-0,125
183,954	507,697	-0,109	-0,177
184,969	-43,102	-0,239	-0,084
185,983	-36,225	-0,245	-0,091
186,998	-200,000	-0,055	-0,246
188,013	412,053	-0,101	-0,150
189,027	-5,404	-0,261	-0,124
190,042	47,188	-0,241	-0,156
191,056	40,129	-0,228	-0,142
192,071	6,241	-0,200	-0,103
193,086	70,406	-0,255	-0,183
194,100	188,912	-0,178	-0,186
195,115	298,749	-0,194	-0,249
196,129	118,749	-0,288	-0,248
197,144	-85,539	-0,178	-0,038
198,159	174,746	-0,206	-0,207
199,173	43,373	-0,143	-0,091
200,188	800,000	-0,080	-0,179
201,202	33,371	-0,308	-0,186
202,217	74,202	-0,200	-0,146
203,232	547,928	-0,195	-0,326
204,246	99,632	-0,233	-0,187
205,261	-89,150	-0,128	-0,026
206,275	12,246	-0,113	-0,060
207,290	23,927	-0,065	-0,037
208,304	168,649	-0,191	-0,189
209,319	-42,480	-0,217	-0,076
210,334	249,954	-0,211	-0,250
211,348	24,979	-0,207	-0,119
212,363	115,806	-0,165	-0,140
213,377	113,480	-0,225	-0,190
214,392	50,290	-0,232	-0,152
215,407	438,703	-0,063	-0,096
216,421	-18,375	-0,060	-0,026
217,436	-19,593	-0,265	-0,113
218,450	298,644	-0,199	-0,255
219,465	25,782	-0,197	-0,114
220,480	800,000	-0,107	-0,246
221,494	-200,000	-0,022	-0,170
222,509	154,278	-0,181	-0,173
223,523	32,236	-0,152	-0,091
224,538	392,188	-0,064	-0,093
225,553	112,020	-0,237	-0,198
226,567	444,336	-0,154	-0,235
227,582	800,000	-0,102	-0,202
228,596	-200,000	0,021	-0,209
229,611	-18,447	-0,221	-0,095
230,626	-53,116	-0,246	0,078
231,640	-41,524	-0,207	-0,073
232,655	100,360	-0,262	-0,211
233,669	-61,738	-0,219	-0,063
234,684	5,171	-0,201	-0,102
235,699	130,714	-0,234	-0,208
236,713	-79,019	-0,143	-0,033
237,728	112,991	-0,124	-0,104
238,742	266,440	-0,157	-0,191
239,757	456,980	-0,142	-0,219
240,772	380,426	-0,126	-0,180
241,786	-45,992	-0,154	-0,052
242,801	105,611	-0,226	-0,185
243,815	56,268	-0,192	-0,129
244,830	87,679	-0,170	-0,130
245,844	400,465	-0,070	-0,102
246,859	800,000	-0,119	-0,261
247,874	63,487	-0,166	-0,115
248,888	115,553	-0,243	-0,206
249,903	142,634	-0,154	-0,141
250,917	-37,254	-0,088	-0,032
251,932	-147,686	-0,114	0,007
252,947	175,810	-0,236	-0,237
253,961	17,406	-0,216	-0,119
254,976	155,915	-0,140	-0,134
255,990	-72,905	-0,290	-0,073
257,005	-68,287	-0,260	-0,069
258,020	153,461	-0,161	-0,152
259,034	-200,000	-0,032	-0,199
260,049	3,172	-0,185	-0,093
261,063	319,127	-0,104	-0,137
262,078	-168,706	-0,124	-0,003
263,093	80,805	-0,179	-0,134
264,107	259,736	-0,172	-0,206
265,122	43,589	-0,196	-0,124
266,136	256,431	-0,151	-0,179
267,151	-99,507	-0,153	-0,026
268,166	-171,339	-0,093	-0,002
269,180	64,869	-0,149	-0,104
270,195	301,860	-0,162	-0,208
271,209	116,833	-0,161	-0,136
272,224	-200,000	-0,019	-0,167
273,239	-77,263	-0,142	-0,034
274,253	22,239	-0,182	-0,103
275,268	36,076	-0,153	-0,093
276,282	-2,485	-0,201	-0,097
277,297	800,000	-0,061	-0,164
278,312	-23,090	-0,159	-0,066
279,326	67,448	-0,166	-0,117
280,341	44,600	-0,134	-0,085
281,355	353,917	-0,049	-0,068
282,370	153,437	-0,110	-0,104
283,384	149,343	-0,134	-0,125
284,399	53,388	-0,174	-0,115
285,414	504,977	-0,158	-0,254
286,428	-200,000	-0,008	-0,251
287,443	-163,448	-0,071	-0,002
288,457	-179,213	-0,291	-0,004
289,472	-44,376	-0,105	-0,036
290,487	43,303	-0,185	-0,116
291,501	208,453	-0,170	-0,184
292,516	-200,000	0,006	-0,168
293,530	254,769	-0,190	-0,224
294,545	10,608	-0,119	-0,063
295,560	-132,608	-0,087	-0,008
296,574	82,255	-0,201	-0,150
297,589	127,527	-0,233	-0,204
298,603	179,720	-0,236	-0,239
299,618	522,380	-0,165	-0,268
300,633	303,505	-0,151	-0,194
301,647	-109,350	-0,080	-0,012
302,662	-64,447	-0,150	0,042
303,676	163,976	-0,111	0,107
304,691	259,334	-0,072	-0,086
305,706	729,853	-0,119	-0,221
306,720	178,930	-0,130	-0,131
307,735	250,779	-0,037	-0,043
308,749	-83,370	-0,181	-0,040
309,764	-12,685	-0,099	-0,044
310,779	45,622	-0,224	-0,142
311,793	800,000	-0,107	-0,280
312,808	399,659	-0,098	-0,141
313,822	409,311	-0,111	-0,162
314,837	155,009	-0,154	-0,146
315,852	197,303	-0,085	-0,089
316,866	406,119	-0,028	0,041
317,881	-21,381	-0,241	-0,101
318,895	-32,986	-0,229	-0,087
319,910	-166,617	-0,181	0,005
320,925	-42,882	-0,173	-0,060
321,939	103,953	-0,212	-0,171
322,954	-200,000	-0,079	-0,243
323,968	-200,000	-0,000	-0,074
324,983	375,234	-0,118	-0,166
325,997	800,000	-0,043	-0,094
327,012	-200,000	-0,036	-0,139
328,027	130,505	-0,110	-0,097
329,041	562,697	-0,106	-0,178
330,056	452,531	-0,101	-0,154
331,070	174,923	-0,155	-0,154
332,085	-18,860	-0,134	-0,057
333,100	-154,178	-0,098	0,004
334,114	311,441	-0,182	-0,235
335,129	230,387	-0,153	-0,172
336,143	-9,540	-0,076	-0,035
337,158	-24,727	-0,155	0,063
338,173	-99,042	-0,136	-0,023
339,187	298,126	-0,097	-0,123
340,202	-152,378	-0,207	-0,010
341,216	-117,348	-0,327	-0,040
342,231	800,000	-0,067	-0,171
343,246	288,642	-0,107	-0,133
344,260	-39,640	-0,102	-0,036
345,275	-56,595	-0,144	-0,043
346,289	574,741	-0,054	-0,090
347,304	400,619	-0,097	-0,140
348,319	94,322	-0,171	-0,133
349,333	203,299	-0,112	-0,119
350,348	589,309	-0,118	-0,200
351,362	-56,728	-0,130	-0,039
352,377	305,252	-0,141	-0,180
353,392	16,530	-0,097	-0,053
354,406	92,384	-0,126	-0,098
355,421	210,363	1314,098	1417,119
356,435	161,941	1474,755	1417,615
