DTS Sentinel unit serial number:	SN410029Multiplexer serial number:	ORYXHardware model number:	OX2-SRSoftware version number:	ORYX F/W v4,00 Oryx Data Collector v3.7.2.0data status	okinstallation	B3 Nyhavnadifferential loss correction	single-endedforward channel	channel 1reverse channel	N/Adate	2023/11/30time	16:27:30forward acquisition time	300,00reverse acquisition time	0,00gamma	499,1914k internal	0,3205k external	0,3205temperature offset calibration	1,0000default loss term (dB/km)	0,3820temperature slope calibration	1,0000multiplexer offset coefficient	1,0000multiplexer slope coefficient	1,0000fibre end	0,00T internal ref (°C)	12,87T ext. ref 1 (°C)	-1,59T ext. ref 2 (°C)	-1,62length (m)	temperature (°C)	Stokes	anti-Stokes-744,400	800,000	-0,066	-0,189
-743,385	-200,000	-0,019	0,361
-742,371	245,086	-0,222	-0,272
-741,356	-200,000	0,013	0,344
-740,342	370,406	-0,141	-0,208
-739,327	-200,000	-0,024	0,408
-738,312	263,059	-0,130	-0,165
-737,298	-200,000	-0,073	0,338
-736,283	159,115	-0,265	-0,268
-735,269	-200,000	-0,007	0,458
-734,254	800,000	-0,121	-0,310
-733,239	39,223	-0,193	0,125
-732,225	358,334	-0,124	-0,181
-731,210	459,787	0,128	0,208
-730,196	-200,000	-0,043	0,168
-729,181	172,974	-0,095	-0,099
-728,167	694,657	0,036	-0,068
-727,152	-200,000	-0,011	-0,038
-726,137	134,457	-0,065	0,062
-725,123	-200,000	0,006	-0,187
-724,108	49,503	-0,069	-0,047
-723,094	62,835	0,038	-0,028
-722,079	-200,000	-0,001	-0,016
-721,064	166,324	-0,050	0,052
-720,050	118,909	-0,192	-0,173
-719,035	9,923	-0,021	0,012
-718,021	-30,053	-0,056	-0,023
-717,006	144,577	-0,164	-0,159
-715,991	560,924	-0,071	-0,125
-714,977	800,000	0,026	-0,063
-713,962	-15,718	0,065	-0,030
-712,948	84,554	0,068	0,054
-711,933	179,359	-0,065	0,069
-710,918	-200,000	-0,005	-0,136
-709,904	-200,000	-0,021	-0,075
-708,889	-200,000	0,007	0,078
-707,875	-200,000	0,001	-0,126
-706,860	252,276	0,131	-0,162
-705,845	-3,375	0,033	-0,017
-704,831	800,000	0,058	0,122
-703,816	800,000	-0,014	0,029
-702,802	-85,670	0,126	-0,028
-701,787	-200,000	0,028	-0,130
-700,772	-108,348	-0,130	-0,020
-699,758	7,156	-0,061	-0,033
-698,743	800,000	-0,036	0,088
-697,729	800,000	-0,049	-0,105
-696,714	-23,663	0,118	-0,051
-695,699	134,172	0,050	-0,047
-694,685	800,000	-0,084	-0,183
-693,670	567,834	-0,055	-0,097
-692,656	444,842	0,031	0,049
-691,641	-53,859	-0,083	0,027
-690,627	301,740	0,093	0,125
-689,612	146,559	-0,036	-0,035
-688,597	-200,000	-0,008	-0,102
-687,583	800,000	-0,077	-0,159
-686,568	-41,328	-0,020	0,007
-685,554	64,820	0,006	-0,005
-684,539	604,301	-0,021	-0,039
-683,524	-200,000	0,011	-0,052
-682,510	-172,551	0,082	-0,002
-681,495	-200,000	0,000	0,013
-680,481	800,000	-0,008	0,020
-679,466	3,138	-0,090	-0,048
-678,451	554,613	0,040	-0,070
-677,437	-200,000	-0,007	-0,062
-676,422	128,092	-0,041	0,038
-675,408	-200,000	-0,009	0,196
-674,393	800,000	0,055	-0,130
-673,378	32,392	-0,202	-0,126
-672,364	37,635	-0,113	-0,073
-671,349	-46,569	0,169	0,060
-670,335	-200,000	-0,011	0,051
-669,320	800,000	0,027	-0,064
-668,305	44,133	-0,029	0,019
-667,291	162,329	0,023	0,024
-666,276	339,351	0,068	0,096
-665,262	-200,000	0,018	0,065
-664,247	378,716	0,082	0,122
-663,232	38,847	0,078	-0,050
-662,218	162,256	-0,036	-0,037
-661,203	-200,000	0,000	0,075
-660,189	249,893	0,049	0,061
-659,174	183,092	-0,011	-0,012
-658,159	-112,355	-0,118	-0,017
-657,145	-26,082	0,091	-0,039
-656,130	244,734	-0,058	-0,071
-655,116	-200,000	-0,005	0,056
-654,101	489,975	0,050	0,083
-653,086	-200,000	-0,007	-0,115
-652,072	-200,000	0,012	-0,106
-651,057	235,706	0,056	-0,067
-650,043	-119,605	0,045	-0,006
-649,028	-166,790	0,049	0,001
-648,014	488,282	-0,088	-0,146
-646,999	-56,232	0,076	-0,024
-645,984	-19,908	-0,039	-0,017
-644,970	-200,000	-0,001	0,053
-643,955	59,406	-0,216	-0,154
-642,941	-74,031	0,034	0,009
-641,926	800,000	-0,014	0,044
-640,911	267,043	-0,027	0,034
-639,897	-200,000	0,016	0,123
-638,882	44,413	-0,056	0,037
-637,868	-68,630	-0,083	-0,023
-636,853	321,404	0,027	-0,037
-635,838	-92,648	-0,106	-0,021
-634,824	800,000	-0,022	-0,048
-633,809	-115,302	-0,133	-0,018
-632,795	-170,081	-0,014	0,000
-631,780	462,966	-0,081	-0,131
-630,765	800,000	0,055	-0,122
-629,751	-63,446	0,111	0,033
-628,736	-200,000	0,001	-0,094
-627,722	800,000	0,030	-0,068
-626,707	-200,000	0,038	-0,159
-625,692	-93,866	0,077	0,015
-624,678	-147,889	0,122	0,007
-623,663	42,267	-0,039	0,026
-622,649	-200,000	-0,034	0,124
-621,634	-119,009	-0,120	-0,015
-620,619	-141,740	0,059	0,004
-619,605	800,000	-0,039	-0,086
-618,590	37,649	0,077	-0,049
-617,576	100,516	-0,083	-0,070
-616,561	-121,348	0,104	0,012
-615,546	31,384	-0,110	-0,068
-614,532	29,952	-0,011	0,007
-613,517	800,000	-0,031	-0,071
-612,503	800,000	0,070	-0,169
-611,488	-169,362	0,199	-0,005
-610,474	173,028	-0,048	0,050
-609,459	-22,947	-0,078	0,034
-608,444	110,505	0,059	0,051
-607,430	425,749	-0,007	0,012
-606,415	800,000	-0,010	-0,029
-605,401	427,653	-0,075	0,118
-604,386	226,915	-0,025	0,030
-603,371	-200,000	0,002	0,035
-602,357	-200,000	0,009	0,105
-601,342	13,454	-0,112	0,063
-600,328	-60,547	-0,107	-0,033
-599,313	25,071	-0,123	-0,074
-598,298	211,590	-0,113	0,128
-597,284	45,401	0,047	0,031
-596,269	-200,000	0,017	-0,081
-595,255	112,220	-0,054	-0,047
-594,240	73,674	-0,123	-0,093
-593,225	143,318	-0,072	-0,070
-592,211	-200,000	0,031	-0,127
-591,196	-98,906	-0,087	-0,016
-590,182	670,212	0,082	-0,154
-589,167	-200,000	-0,022	0,099
-588,152	800,000	0,050	0,136
-587,138	-200,000	0,001	0,020
-586,123	-117,008	0,057	0,007
-585,109	-200,000	-0,018	-0,071
-584,094	800,000	-0,002	0,006
-583,079	149,796	0,085	-0,084
-582,065	182,755	0,088	-0,094
-581,050	-61,273	0,059	0,018
-580,036	-200,000	-0,008	-0,055
-579,021	-60,081	-0,059	-0,018
-578,006	-98,960	-0,169	-0,031
-576,992	-73,651	0,259	-0,067
-575,977	120,191	-0,024	0,022
-574,963	-23,077	0,087	-0,037
-573,948	119,782	-0,069	0,061
-572,934	-122,634	-0,116	0,013
-571,919	113,627	0,088	-0,077
-570,904	82,277	0,062	-0,048
-569,890	-200,000	-0,072	0,000
-568,875	10,231	0,171	-0,094
-567,861	800,000	-0,025	0,053
-566,846	0,560	0,040	-0,020
-565,831	-90,161	-0,102	0,021
-564,817	-41,318	-0,133	-0,049
-563,802	204,009	-0,083	0,092
-562,788	-16,208	0,149	0,068
-561,773	316,182	0,026	0,035
-560,758	54,903	0,085	-0,059
-559,744	63,463	0,010	-0,008
-558,729	35,890	-0,167	-0,106
-557,715	-49,149	-0,117	-0,040
-556,700	-4,968	-0,036	0,018
-555,685	-150,039	0,032	0,002
-554,671	285,068	-0,057	-0,074
-553,656	800,000	-0,042	0,089
-552,642	800,000	-0,096	0,232
-551,627	777,711	-0,040	0,079
-550,612	0,639	0,074	-0,038
-549,598	587,973	-0,021	-0,038
-548,583	165,527	-0,029	-0,029
-547,569	292,405	0,063	-0,083
-546,554	6,750	0,134	0,072
-545,539	800,000	0,067	-0,177
-544,525	-158,600	-0,047	-0,002
-543,510	533,911	0,021	-0,035
-542,496	182,423	-0,072	0,077
-541,481	800,000	-0,045	-0,105
-540,466	124,452	-0,059	-0,053
-539,452	-53,169	0,133	-0,044
-538,437	800,000	0,048	0,106
-537,423	-7,244	0,022	0,011
-536,408	-149,250	0,137	-0,008
-535,393	800,000	0,070	-0,182
-534,379	71,446	-0,092	0,068
-533,364	-77,703	0,113	0,028
-532,350	-200,000	-0,046	-0,189
-531,335	800,000	0,067	0,162
-530,321	800,000	0,041	0,087
-529,306	218,150	-0,060	0,069
-528,291	-127,261	-0,088	-0,009
-527,277	2,133	-0,093	-0,048
-526,262	12,664	0,047	-0,026
-525,248	-120,707	0,041	0,005
-524,233	-200,000	-0,002	-0,018
-523,218	139,904	-0,068	-0,064
-522,204	-76,486	-0,070	-0,017
-521,189	-200,000	0,008	0,125
-520,175	-200,000	0,000	0,023
-519,160	-200,000	-0,006	-0,081
-518,145	21,280	0,079	-0,046
-517,131	-200,000	0,020	0,096
-516,116	-200,000	-0,011	0,121
-515,102	121,665	0,030	-0,027
-514,087	-14,192	-0,107	0,049
-513,072	423,554	0,058	-0,090
-512,058	-200,000	0,003	-0,123
-511,043	800,000	-0,039	-0,101
-510,029	-97,937	0,041	0,007
-509,014	-22,401	-0,154	0,067
-507,999	463,164	0,080	0,128
-506,985	312,829	-0,100	-0,136
-505,970	800,000	-0,020	-0,062
-504,956	56,167	-0,050	0,035
-503,941	-93,999	0,182	-0,036
-502,926	-81,154	-0,048	0,011
-501,912	-168,860	0,020	-0,001
-500,897	7,092	-0,068	0,036
-499,883	800,000	0,017	-0,040
-498,868	-185,920	-0,064	0,001
-497,853	-109,612	-0,073	0,011
-496,839	24,242	-0,084	-0,050
-495,824	-103,323	0,174	0,029
-494,810	121,064	0,079	0,071
-493,795	-200,000	-0,030	-0,152
-492,781	-6,091	-0,089	-0,044
-491,766	71,656	-0,019	0,014
-490,751	-200,000	0,021	-0,119
-489,737	-44,891	-0,043	0,015
-488,722	438,237	-0,027	-0,043
-487,708	-200,000	0,004	-0,104
-486,693	36,311	0,045	0,029
-485,678	-85,903	-0,086	0,019
-484,664	55,734	-0,133	-0,092
-483,649	-76,686	-0,015	-0,004
-482,635	173,802	0,036	-0,038
-481,620	800,000	-0,018	0,041
-480,605	240,505	0,125	0,150
-479,591	800,000	0,007	0,022
-478,576	-36,554	0,086	0,033
-477,562	241,357	-0,036	0,044
-476,547	315,368	-0,074	0,101
-475,532	-200,000	-0,006	-0,044
-474,518	-97,512	-0,119	0,022
-473,503	472,606	0,133	0,216
-472,489	484,031	0,014	0,023
-471,474	100,109	0,056	0,047
-470,459	373,265	-0,006	0,009
-469,445	-24,771	0,023	-0,010
-468,430	205,182	-0,007	0,008
-467,416	800,000	0,044	0,134
-466,401	-200,000	-0,037	0,137
-465,386	-200,000	-0,004	0,054
-464,372	-73,916	-0,103	0,027
-463,357	-88,248	0,153	-0,033
-462,343	210,047	-0,082	-0,093
-461,328	66,229	-0,038	-0,028
-460,313	-119,808	-0,160	-0,020
-459,299	-200,000	0,010	0,132
-458,284	199,283	0,115	0,127
-457,270	93,255	-0,043	-0,035
-456,255	-200,000	0,051	0,164
-455,241	-64,498	-0,116	-0,034
-454,226	-200,000	-0,035	-0,295
-453,211	153,194	0,022	0,021
-452,197	47,023	0,036	-0,024
-451,182	-27,987	0,085	0,035
-450,168	7,138	-0,143	-0,076
-449,153	-170,265	-0,048	-0,001
-448,138	-200,000	0,044	-0,152
-447,124	581,932	-0,039	-0,069
-446,109	650,722	0,031	-0,057
-445,095	54,644	0,076	0,053
-444,080	-173,705	-0,025	-0,001
-443,065	-51,589	0,026	0,009
-442,051	-34,355	-0,093	0,036
-441,036	-8,662	0,167	-0,080
-440,022	185,929	-0,089	-0,095
-439,007	335,584	0,101	-0,141
-437,992	164,377	-0,055	-0,056
-436,978	123,662	0,018	-0,016
-435,963	339,180	0,043	-0,060
-434,949	-153,631	0,064	-0,003
-433,934	140,787	0,047	0,045
-432,919	-200,000	-0,016	-0,094
-431,905	-133,757	-0,077	-0,007
-430,890	-200,000	0,006	0,150
-429,876	-57,062	0,202	0,064
-428,861	5,963	-0,066	-0,035
-427,846	-73,402	0,081	0,021
-426,832	-200,000	-0,023	-0,082
-425,817	-96,589	-0,066	-0,012
-424,803	24,442	0,007	-0,004
-423,788	800,000	-0,036	-0,082
-422,773	-200,000	0,008	0,123
-421,759	800,000	0,042	0,093
-420,744	123,518	-0,039	-0,036
-419,730	800,000	-0,030	-0,061
-418,715	116,239	0,055	-0,048
-417,701	-12,414	-0,094	0,044
-416,686	-14,407	0,150	-0,069
-415,671	800,000	-0,014	-0,028
-414,657	221,335	0,082	0,095
-413,642	-200,000	0,022	0,106
-412,628	800,000	0,024	0,050
-411,613	-200,000	0,015	0,069
-410,598	-72,440	-0,059	0,015
-409,584	108,333	-0,090	0,077
-408,569	159,078	0,106	-0,105
-407,555	222,694	-0,061	0,070
-406,540	-97,666	0,092	-0,017
-405,525	-12,971	-0,127	0,059
-404,511	-102,721	-0,050	-0,008
-403,496	102,374	0,108	-0,091
-402,482	22,200	0,099	0,058
-401,467	425,116	-0,019	0,030
-400,452	800,000	0,011	-0,022
-399,438	-200,000	-0,033	-0,131
-398,423	-200,000	-0,002	-0,047
-397,409	-57,321	-0,087	-0,027
-396,394	800,000	0,054	-0,158
-395,379	800,000	0,020	0,056
-394,365	-200,000	0,011	0,152
-393,350	195,631	0,065	0,071
-392,336	-22,855	0,110	-0,047
-391,321	-128,783	-0,089	-0,009
-390,306	-200,000	-0,001	0,120
-389,292	523,279	0,073	0,123
-388,277	742,769	-0,032	0,061
-387,263	52,234	-0,152	-0,103
-386,248	-76,903	0,057	0,014
-385,233	86,054	0,116	0,092
-384,219	193,690	-0,124	0,135
-383,204	-51,388	0,112	-0,037
-382,190	-2,331	-0,114	-0,057
-381,175	150,079	0,064	0,062
-380,160	-36,421	0,089	0,034
-379,146	7,847	0,070	0,038
-378,131	-200,000	-0,005	0,030
-377,117	800,000	-0,038	-0,102
-376,102	83,629	0,099	0,077
-375,088	-200,000	-0,010	-0,112
-374,073	800,000	0,024	0,053
-373,058	-118,192	-0,065	-0,008
-372,044	-88,474	0,112	0,024
-371,029	81,220	-0,069	0,054
-370,015	65,437	-0,087	-0,063
-369,000	-200,000	-0,012	-0,090
-367,985	-30,551	0,118	0,048
-366,971	278,899	0,056	0,072
-365,956	87,591	0,066	0,052
-364,942	-103,083	0,097	-0,016
-363,927	0,080	0,066	-0,034
-362,912	231,452	0,018	0,021
-361,898	-83,606	-0,067	-0,015
-360,883	-37,435	0,011	0,004
-359,869	753,773	-0,016	-0,030
-358,854	-28,229	0,061	0,025
-357,839	641,670	0,043	0,078
-356,825	-200,000	0,005	0,232
-355,810	-200,000	0,025	0,084
-354,796	80,335	-0,064	-0,049
-353,781	-166,193	-0,098	-0,003
-352,766	-94,614	-0,126	0,024
-351,752	486,787	0,025	-0,041
-350,737	-200,000	0,054	0,000
-349,723	-200,000	0,017	0,189
-348,708	800,000	-0,031	-0,064
-347,693	-53,526	0,017	-0,005
-346,679	-200,000	0,006	0,110
-345,664	-185,260	0,021	0,000
-344,650	51,815	-0,103	0,070
-343,635	83,008	-0,023	-0,018
-342,620	-53,447	0,047	0,015
-341,606	-200,000	0,007	0,089
-340,591	134,517	-0,122	0,113
-339,577	-108,949	-0,214	-0,032
-338,562	317,715	-0,036	-0,049
-337,548	332,503	0,073	-0,101
-336,533	170,506	0,049	-0,050
-335,518	614,120	-0,021	0,039
-334,504	-200,000	-0,025	0,202
-333,489	-200,000	0,000	-0,021
-332,475	341,399	0,033	0,046
-331,460	-59,890	-0,175	0,053
-330,445	-80,245	0,128	0,030
-329,431	733,500	0,014	0,026
-328,416	-200,000	0,009	0,040
-327,402	310,679	-0,071	0,095
-326,387	151,265	0,139	0,136
-325,372	452,812	-0,013	-0,020
-324,358	213,719	0,007	0,008
-323,343	-200,000	-0,040	-0,225
-322,329	-36,170	0,132	-0,051
-321,314	-156,347	0,147	-0,006
-320,299	27,449	-0,071	-0,042
-319,285	536,000	0,042	0,071
-318,270	253,635	-0,050	-0,061
-317,256	63,151	-0,063	-0,045
-316,241	-200,000	-0,013	0,070
-315,226	800,000	-0,059	0,118
-314,212	-92,943	0,085	-0,017
-313,197	-200,000	0,020	-0,108
-312,183	-160,183	0,094	0,004
-311,168	237,956	-0,046	-0,055
-310,153	-200,000	-0,004	-0,178
-309,139	-200,000	0,008	0,064
-308,124	-67,509	0,123	0,034
-307,110	-200,000	-0,027	-0,086
-306,095	349,261	0,022	0,032
-305,080	-81,196	-0,049	0,012
-304,066	158,977	-0,070	-0,070
-303,051	-108,971	-0,120	0,018
-302,037	800,000	-0,049	-0,136
-301,022	-13,437	-0,129	-0,059
-300,008	22,446	0,098	0,057
-298,993	-84,780	-0,043	0,010
-297,978	61,793	0,048	0,034
-296,964	123,503	-0,044	-0,039
-295,949	-200,000	-0,001	0,022
-294,935	18,688	0,100	0,057
-293,920	6,203	-0,111	-0,059
-292,905	-116,437	-0,035	-0,005
-291,891	-135,075	0,028	-0,002
-290,876	-155,144	0,106	0,005
-289,862	16,487	-0,073	-0,041
-288,847	115,328	0,052	-0,045
-287,832	167,346	0,011	0,011
-286,818	-16,736	-0,062	-0,028
-285,803	-200,000	0,015	-0,095
-284,789	321,659	0,108	-0,147
-283,774	-76,366	0,073	0,018
-282,759	-200,000	-0,003	0,100
-281,745	53,732	-0,178	-0,122
-280,730	51,025	-0,034	0,023
-279,716	-81,281	-0,093	0,022
-278,701	-200,000	-0,001	0,038
-277,686	540,096	-0,049	-0,083
-276,672	84,672	0,123	-0,096
-275,657	75,921	0,079	-0,059
-274,643	-200,000	0,002	-0,059
-273,628	40,553	-0,037	-0,024
-272,613	-59,152	-0,024	0,007
-271,599	187,317	0,151	0,160
-270,584	37,142	0,112	0,071
-269,570	1,262	0,136	0,070
-268,555	-200,000	-0,030	0,110
-267,540	40,687	-0,043	0,028
-266,526	85,551	-0,072	-0,057
-265,511	434,697	-0,035	-0,054
-264,497	394,520	0,023	0,035
-263,482	-135,927	0,118	0,010
-262,467	-77,128	0,165	-0,041
-261,453	-200,000	-0,001	0,129
-260,438	18,027	0,053	0,030
-259,424	-121,008	0,033	0,004
-258,409	143,130	-0,098	-0,093
-257,395	-110,023	0,044	-0,006
-256,380	-200,000	0,002	0,126
-255,365	-200,000	0,004	-0,034
-254,351	193,695	-0,045	-0,049
-253,336	800,000	-0,032	-0,093
-252,322	35,718	0,081	-0,051
-251,307	-200,000	-0,004	-0,082
-250,292	800,000	0,010	0,028
-249,278	-200,000	0,032	0,157
-248,263	-31,444	-0,050	0,020
-247,249	-12,569	0,082	-0,038
-246,234	800,000	0,026	-0,077
-245,219	-24,006	0,070	-0,030
-244,205	-86,942	-0,124	-0,027
-243,190	-131,525	-0,114	0,011
-242,176	118,923	0,082	0,072
-241,161	-200,000	0,022	-0,080
-240,146	45,135	-0,069	0,045
-239,132	-200,000	-0,037	0,142
-238,117	466,376	0,043	-0,069
-237,103	168,042	0,039	-0,040
-236,088	800,000	0,035	0,100
-235,073	-51,427	0,121	-0,040
-234,059	61,937	0,108	-0,077
-233,044	451,970	0,072	0,113
-232,030	-112,683	0,106	-0,015
-231,015	371,517	-0,062	-0,090
-230,000	-9,468	-0,171	0,081
-228,986	56,199	0,062	-0,043
-227,971	115,974	0,070	0,061
-226,957	-200,000	-0,021	0,073
-225,942	-200,000	0,029	0,148
-224,927	112,787	0,052	-0,045
-223,913	151,918	-0,059	-0,057
-222,898	-200,000	0,026	-0,109
-221,884	116,561	0,101	0,088
-220,869	-200,000	0,023	-0,110
-219,855	-200,000	0,021	0,137
-218,840	800,000	0,063	0,198
-217,825	-134,188	0,053	0,005
-216,811	7,245	-0,121	-0,064
-215,796	99,991	-0,118	0,098
-214,782	567,177	-0,075	0,130
-213,767	53,777	0,124	-0,084
-212,752	800,000	0,047	0,123
-211,738	353,045	0,048	-0,068
-210,723	53,971	-0,033	-0,022
-209,709	800,000	0,024	-0,057
-208,694	800,000	-0,014	-0,030
-207,679	800,000	0,004	-0,013
-206,665	776,293	0,065	0,127
-205,650	-200,000	0,004	0,179
-204,636	-115,383	0,055	0,007
-203,621	324,648	0,028	-0,039
-202,606	800,000	-0,046	0,132
-201,592	-152,465	-0,123	0,006
-200,577	-82,191	-0,051	0,012
-199,563	-60,787	-0,012	0,004
-198,548	800,000	-0,058	-0,126
-197,533	-200,000	-0,013	0,097
-196,519	398,341	-0,058	0,087
-195,504	0,081	-0,130	-0,066
-194,490	133,551	0,105	-0,097
-193,475	205,917	-0,108	-0,120
-192,460	562,057	0,024	0,042
-191,446	-86,565	-0,050	0,011
-190,431	670,972	0,045	-0,083
-189,417	145,025	0,036	0,034
-188,402	-200,000	-0,005	0,022
-187,387	-200,000	-0,003	-0,114
-186,373	-105,126	0,058	0,009
-185,358	181,239	-0,095	-0,099
-184,344	-138,387	0,109	-0,008
-183,329	504,995	0,055	-0,091
-182,315	800,000	-0,006	-0,016
-181,300	335,482	-0,011	0,015
-180,285	-200,000	-0,014	-0,142
-179,271	151,088	-0,108	-0,104
-178,256	-152,491	-0,090	-0,005
-177,242	-200,000	0,000	0,035
-176,227	-99,820	-0,162	-0,028
-175,212	245,375	0,031	0,038
-174,198	77,209	-0,020	-0,015
-173,183	-200,000	-0,010	0,084
-172,169	-52,867	0,037	0,012
-171,154	-68,407	0,023	0,006
-170,139	29,822	0,092	0,056
-169,125	40,930	0,063	-0,041
-168,110	603,893	-0,043	0,077
-167,096	-33,977	-0,209	0,081
-166,081	12,145	0,037	-0,020
-165,066	111,998	-0,084	-0,072
-164,052	-200,000	-0,005	0,035
-163,037	229,093	0,031	-0,036
-162,023	800,000	0,020	0,051
-161,008	393,615	0,095	0,141
-159,993	-200,000	-0,021	0,091
-158,979	-150,990	0,158	-0,008
-157,964	800,000	0,064	0,128
-156,950	358,104	-0,042	-0,059
-155,935	800,000	0,019	0,041
-154,920	-200,000	0,006	0,030
-153,906	164,891	-0,031	0,031
-152,891	14,765	-0,112	0,062
-151,877	800,000	0,036	0,089
-150,862	-200,000	0,035	-0,151
-149,847	-200,000	-0,003	0,021
-148,833	-200,000	-0,006	-0,026
-147,818	-200,000	-0,010	0,066
-146,804	43,597	0,067	0,043
-145,789	-200,000	0,013	0,060
-144,775	-200,000	0,018	0,081
-143,760	-200,000	-0,019	-0,089
-142,745	213,634	0,042	-0,047
-141,731	800,000	-0,029	-0,077
-140,716	800,000	-0,039	0,093
-139,702	-200,000	-0,007	0,054
-138,687	77,260	0,096	0,072
-137,672	-8,218	-0,106	0,050
-136,658	-127,831	-0,145	0,015
-135,643	-119,525	0,135	-0,016
-134,629	83,531	-0,030	-0,023
-133,614	-193,712	0,163	-0,001
-132,599	202,574	-0,068	0,074
-131,585	-159,824	-0,088	0,003
-130,570	-66,965	0,054	-0,015
-129,556	300,344	-0,065	-0,085
-128,541	800,000	0,015	0,032
-127,526	-200,000	0,095	0,000
-126,512	800,000	-0,046	0,100
-125,497	-141,802	0,102	-0,007
-124,483	89,050	-0,060	-0,048
-123,468	-200,000	-0,015	0,064
-122,453	129,569	0,071	-0,064
-121,439	-53,664	-0,057	0,018
-120,424	106,852	0,142	-0,120
-119,410	251,830	-0,073	-0,089
-118,395	-200,000	-0,011	0,091
-117,380	-200,000	0,002	-0,113
-116,366	-200,000	-0,033	0,107
-115,351	-200,000	-0,003	-0,051
-114,337	416,496	0,085	-0,130
-113,322	231,644	-0,038	0,044
-112,307	-93,918	-0,022	0,004
-111,293	66,869	-0,041	0,030
-110,278	-147,896	-0,122	-0,007
-109,264	151,045	0,048	-0,046
-108,249	341,370	-0,082	-0,114
-107,234	-200,000	-0,021	-0,078
-106,220	10,158	-0,082	-0,044
-105,205	-1,820	0,104	-0,052
-104,191	-200,000	-0,038	0,125
-103,176	548,156	-0,040	-0,068
-102,162	-76,555	-0,051	-0,013
-101,147	162,245	0,113	0,112
-100,132	43,954	0,026	0,017
-99,118	800,000	-0,104	-0,208
-98,103	-200,000	0,005	-0,099
-97,089	-31,541	-0,061	0,024
-96,074	-200,000	0,015	0,090
-95,059	-200,000	0,003	-0,117
-94,045	-200,000	-0,006	-0,095
-93,030	-200,000	-0,012	-0,084
-92,016	113,695	-0,088	-0,076
-91,001	319,896	0,036	0,048
-89,986	-200,000	0,012	0,089
-88,972	63,736	0,087	0,062
-87,957	199,394	0,023	-0,025
-86,943	-200,000	0,023	-0,082
-85,928	127,687	-0,037	-0,034
-84,913	800,000	0,020	-0,050
-83,899	-200,000	0,012	-0,043
-82,884	-200,000	-0,013	0,047
-81,870	800,000	0,051	0,141
-80,855	-62,864	0,075	0,022
-79,840	240,588	-0,053	-0,063
-78,826	-200,000	0,040	-0,217
-77,811	50,800	-0,050	-0,033
-76,797	16,682	0,087	-0,049
-75,782	374,174	-0,028	0,041
-74,767	-33,725	0,054	-0,021
-73,753	-153,265	-0,071	0,003
-72,738	329,868	-0,061	0,083
-71,724	-8,422	0,150	0,071
-70,709	25,548	0,066	-0,039
-69,694	-144,370	-0,108	-0,007
-68,680	289,944	0,061	-0,078
-67,665	800,000	-0,029	0,090
-66,651	-167,539	-0,101	-0,003
-65,636	-25,833	-0,112	-0,046
-64,622	-200,000	0,005	-0,021
-63,607	-200,000	-0,018	-0,065
-62,592	-200,000	0,007	0,022
-61,578	249,302	0,111	-0,134
-60,563	-30,835	0,112	0,045
-59,549	713,378	0,101	0,190
-58,534	-7,430	-1,689	-0,806
-57,519	474,749	-1,304	-2,088
-56,505	-200,000	-0,277	-4,401
-55,490	190,067	1,054	1,121
-54,476	800,000	4,971	11,258
-53,461	-200,000	19,401	325,819
-52,446	-200,000	741,054	2335,072
-51,432	571,556	1651,486	2855,004
-50,417	77,502	1665,874	1252,405
-49,403	20,851	1539,149	879,492
-48,388	14,710	1461,739	805,512
-47,373	18,348	1452,111	817,681
-46,359	16,749	1441,765	804,194
-45,344	12,983	1437,314	783,715
-44,330	12,903	1435,074	782,077
-43,315	12,928	1433,643	781,386
-42,300	12,902	1431,909	780,286
-41,286	12,956	1430,563	779,779
-40,271	12,904	1429,413	778,874
-39,257	12,905	1428,091	778,126
-38,242	12,918	1426,750	777,428
-37,227	12,897	1425,547	776,643
-36,213	12,952	1424,312	776,201
-35,198	12,969	1423,008	775,537
-34,184	12,985	1422,232	775,160
-33,169	12,954	1420,725	774,163
-32,154	12,997	1419,573	773,707
-31,140	13,003	1418,364	773,043
-30,125	13,064	1417,231	772,683
-29,111	12,976	1416,300	771,730
-28,096	12,955	1415,296	771,055
-27,082	12,898	1414,361	770,248
-26,067	12,906	1412,986	769,505
-25,052	12,945	1411,856	769,042
-24,038	12,881	1411,227	768,371
-23,023	12,831	1410,179	767,534
-22,009	12,909	1409,045	767,250
-20,994	12,855	1408,388	766,608
-19,979	12,802	1407,423	765,808
-18,965	12,883	1406,334	765,564
-17,950	12,852	1405,557	764,963
-16,936	12,861	1404,594	764,452
-15,921	12,795	1403,567	763,556
-14,906	12,787	1402,655	762,993
-13,892	12,857	1401,347	762,574
-12,877	12,830	1400,583	762,003
-11,863	12,821	1399,829	761,520
-10,848	12,792	1399,082	760,948
-9,833	12,749	1398,100	760,188
-8,819	12,718	1397,476	759,671
-7,804	12,747	1396,396	759,189
-6,790	12,761	1395,130	758,538
-5,775	12,739	1394,430	758,022
-4,760	12,728	1393,329	757,344
-3,746	12,727	1392,501	756,858
-2,731	12,653	1391,927	756,175
-1,717	12,660	1390,738	755,531
-0,702	12,678	1389,112	754,699
0,313	16,697	1305,216	727,603
1,327	33,189	699,849	428,001
2,342	51,503	122,391	82,049
3,356	2,528	16,685	8,511
4,371	16,418	3,255	1,811
5,386	-7,370	0,608	0,290
6,400	800,000	0,128	0,302
7,415	-8,392	-0,222	-0,105
8,429	3,022	-0,389	-0,199
9,444	62,356	-0,293	-0,206
10,459	101,277	-0,247	-0,203
11,473	173,976	-0,286	-0,292
12,488	108,874	-0,272	-0,230
13,502	18,668	-0,391	-0,221
14,517	-1,929	-0,243	-0,120
15,531	50,484	-0,321	-0,214
16,546	2,012	-0,329	-0,167
17,561	188,639	-0,243	-0,257
18,575	-109,218	-0,196	0,029
19,590	159,980	-0,199	-0,196
20,604	-43,422	-0,245	-0,087
21,619	94,679	-0,370	-0,297
22,634	40,587	-0,464	-0,294
23,648	43,840	-0,577	-0,372
24,663	187,231	-0,322	-0,339
25,677	13,071	-0,429	-0,234
26,692	42,084	-0,344	-0,220
27,707	27,598	-0,351	-0,208
28,721	39,885	-0,341	-0,216
29,736	332,182	-0,246	-0,335
30,750	43,231	-0,566	-0,364
31,765	97,122	-0,419	-0,338
32,780	135,563	-0,296	-0,272
33,794	4,095	-0,375	-0,193
34,809	20,887	-0,378	-0,216
35,823	143,676	-0,366	-0,344
36,838	111,775	-0,468	-0,398
37,853	86,879	-0,373	-0,290
38,867	198,035	-0,342	-0,369
39,882	87,699	-0,290	-0,226
40,896	208,313	-0,305	-0,337
41,911	39,713	-0,444	-0,280
42,926	40,466	-0,348	-0,220
43,940	-10,978	-0,331	-0,153
44,955	30,477	-0,396	-0,237
45,969	496,252	-0,183	-0,297
46,984	48,115	-0,259	-0,170
47,999	121,767	-0,325	-0,285
49,013	28,040	-0,303	-0,179
50,028	91,978	-0,300	-0,237
51,042	179,180	-0,385	-0,397
52,057	38,448	-0,289	-0,181
53,071	125,912	-0,304	-0,270
54,086	80,145	-0,462	-0,349
55,101	94,635	-0,301	-0,241
56,115	32,115	-0,316	-0,191
57,130	117,089	-0,297	-0,257
58,144	33,120	-0,523	-0,318
59,159	141,139	-0,385	-0,358
60,174	219,689	-0,224	-0,252
61,188	38,904	-0,399	-0,250
62,203	-18,127	-0,401	-0,176
63,217	-26,974	-0,477	-0,195
64,232	-164,242	-0,412	0,013
65,247	56,940	-0,293	-0,200
66,261	30,843	-0,359	-0,216
67,276	65,180	-0,324	-0,230
68,290	100,446	-0,303	-0,247
69,305	-56,154	-0,281	-0,087
70,320	-79,430	-0,370	-0,087
71,334	98,381	-0,304	-0,246
72,349	11,019	-0,381	-0,204
73,363	67,756	-0,347	-0,249
74,378	354,181	-0,244	-0,341
75,393	71,440	-0,216	-0,157
76,407	-27,354	-0,215	-0,087
77,422	617,451	-0,207	-0,366
78,436	32,180	-0,290	-0,175
79,451	74,682	-0,277	-0,204
80,466	40,115	-0,339	-0,214
81,480	90,041	-0,353	-0,277
82,495	-56,892	-0,417	-0,128
83,509	179,313	-0,233	-0,239
84,524	16,665	-0,258	-0,143
85,539	54,623	-0,226	-0,153
86,553	-37,685	-0,363	-0,135
87,568	82,631	-0,233	-0,177
88,582	62,234	-0,335	-0,234
89,597	-63,955	-0,305	-0,087
90,611	-37,166	-0,273	-0,102
91,626	-62,310	-0,219	-0,063
92,641	-57,670	-0,220	-0,067
93,655	152,073	-0,212	-0,202
94,670	41,382	-0,406	-0,257
95,684	42,839	-0,312	-0,199
96,699	-27,697	-0,403	-0,163
97,714	-21,636	-0,279	-0,119
98,728	168,984	-0,184	-0,184
99,743	4,966	-0,165	-0,085
100,757	-156,975	-0,372	-0,016
101,772	68,092	-0,232	-0,166
102,787	-8,322	-0,314	-0,147
103,801	-31,915	-0,247	-0,096
104,816	162,925	-0,308	-0,304
105,830	229,616	-0,181	-0,207
106,845	149,765	-0,176	-0,167
107,860	-22,601	-0,370	-0,156
108,874	-101,414	-0,417	-0,071
109,889	-11,297	-0,427	-0,196
110,903	290,924	-0,155	-0,197
111,918	-81,147	-0,271	-0,062
112,933	76,613	-0,205	-0,152
113,947	-96,769	-0,217	-0,040
114,962	41,141	-0,257	-0,162
115,976	247,570	-0,153	-0,182
116,991	75,197	-0,251	-0,185
118,006	316,107	-0,202	-0,268
119,020	26,173	-0,233	-0,136
120,035	49,989	-0,240	-0,158
121,049	26,346	-0,258	-0,151
122,064	-200,000	-0,002	-0,175
123,079	207,835	-0,193	-0,211
124,093	50,973	-0,205	-0,136
125,108	52,560	-0,313	-0,209
126,122	116,130	-0,298	-0,255
127,137	-134,217	-0,322	0,027
128,151	-160,331	-0,239	-0,009
129,166	-18,183	-0,313	-0,136
130,181	107,907	-0,268	-0,223
131,195	46,026	-0,344	-0,222
132,210	169,363	-0,263	-0,262
133,224	138,331	-0,267	-0,245
134,239	-76,462	-0,343	-0,084
135,254	-114,346	-0,222	-0,030
136,268	59,131	-0,218	-0,150
137,283	320,313	-0,169	-0,224
138,297	-27,792	-0,296	-0,119
139,312	-88,303	-0,288	-0,060
140,327	73,493	-0,324	-0,237
141,341	-3,575	-0,323	-0,156
142,356	263,127	-0,204	-0,248
143,370	163,277	-0,291	-0,285
144,385	162,387	-0,327	-0,320
145,400	79,135	-0,293	-0,219
146,414	248,440	-0,201	-0,238
147,429	653,574	-0,155	-0,279
148,443	219,491	-0,192	-0,215
149,458	-13,695	-0,171	-0,077
150,473	99,590	-0,247	-0,199
151,487	144,508	-0,220	-0,205
152,502	-112,009	-0,330	-0,046
153,516	83,935	-0,243	-0,185
154,531	34,303	-0,260	-0,158
155,546	17,743	-0,216	-0,120
156,560	59,380	-0,264	-0,181
157,575	5,247	-0,277	-0,142
158,589	362,841	-0,072	-0,101
159,604	-200,000	-0,008	-0,220
160,619	112,657	-0,153	-0,129
161,633	639,283	-0,117	-0,209
162,648	-94,085	-0,154	-0,029
163,662	77,551	-0,172	-0,127
164,677	66,186	-0,213	-0,150
165,692	800,000	-0,130	-0,318
166,706	-0,230	-0,287	-0,142
167,721	673,776	-0,144	-0,261
168,735	207,130	-0,147	-0,159
169,750	22,217	-0,293	-0,166
170,764	-157,336	-0,225	-0,009
171,779	193,064	-0,192	-0,202
172,794	157,881	-0,252	-0,243
173,808	31,368	-0,353	-0,211
174,823	-61,230	-0,307	-0,089
175,837	241,360	-0,249	-0,289
176,852	82,583	-0,210	-0,158
177,867	79,143	-0,174	-0,129
178,881	202,205	-0,159	-0,171
179,896	-112,540	-0,249	0,034
180,910	-9,182	-0,215	-0,099
181,925	-77,544	-0,232	-0,056
182,940	50,278	-0,266	-0,174
183,954	12,828	-0,131	-0,070
184,969	-22,905	-0,211	-0,088
185,983	51,179	-0,229	-0,151
186,998	124,746	-0,261	-0,229
188,013	800,000	-0,067	-0,187
189,027	254,589	-0,262	-0,313
190,042	104,854	-0,239	-0,196
191,056	-200,000	-0,053	-0,276
192,071	-49,797	-0,189	-0,062
193,086	15,300	-0,293	-0,159
194,100	800,000	-0,102	-0,221
195,115	103,229	-0,167	-0,136
196,129	7,821	-0,251	-0,130
197,144	261,834	-0,236	-0,284
198,159	136,064	-0,200	-0,181
199,173	276,485	-0,165	-0,205
200,188	-86,692	-0,213	-0,045
201,202	-200,000	0,018	-0,056
202,217	9,392	-0,159	-0,083
203,232	176,916	-0,218	-0,220
204,246	129,193	-0,264	-0,234
205,261	237,627	-0,172	-0,199
206,275	74,151	-0,100	-0,072
207,290	-104,444	-0,126	-0,020
208,304	-100,791	-0,230	-0,039
209,319	-87,288	-0,171	-0,036
210,334	-76,976	-0,212	-0,051
211,348	-176,786	-0,237	-0,004
212,363	-192,191	-0,301	-0,002
213,377	79,030	-0,171	-0,127
214,392	-162,982	-0,069	-0,002
215,407	208,610	-0,193	-0,210
216,421	-120,022	-0,229	0,027
217,436	-28,340	-0,199	-0,079
218,450	-10,436	-0,245	-0,112
219,465	38,008	-0,306	-0,188
220,480	68,037	-0,204	-0,145
221,494	-200,000	-0,041	-0,273
222,509	-200,000	-0,036	-0,135
223,523	-109,395	-0,317	-0,046
224,538	268,628	-0,125	-0,152
225,553	-49,234	-0,246	-0,081
226,567	43,501	-0,175	-0,110
227,582	396,047	-0,154	-0,224
228,596	641,709	-0,081	-0,144
229,611	-200,000	-0,043	-0,146
230,626	196,173	-0,093	-0,098
231,640	-18,936	-0,324	-0,139
232,655	28,816	-0,186	-0,109
233,669	198,275	-0,167	-0,178
234,684	157,984	-0,148	-0,142
235,699	-169,609	-0,043	-0,001
236,713	608,954	-0,123	-0,214
237,728	-73,310	-0,155	-0,039
238,742	-179,932	-0,201	-0,003
239,757	171,034	-0,159	-0,158
240,772	29,528	-0,269	-0,158
241,786	10,562	-0,160	-0,084
242,801	-77,406	-0,213	-0,051
243,815	87,698	-0,088	-0,067
244,830	148,108	-0,114	-0,106
245,844	-7,083	-0,301	-0,141
246,859	48,873	-0,182	-0,118
247,874	65,493	-0,222	-0,155
248,888	266,907	-0,222	-0,269
249,903	108,611	-0,228	-0,188
250,917	124,095	-0,124	-0,108
251,932	-200,000	-0,005	-0,021
252,947	-116,485	-0,171	-0,022
253,961	48,011	-0,231	-0,149
254,976	118,299	-0,243	-0,207
255,990	24,227	-0,145	-0,082
257,005	-47,877	-0,154	-0,051
258,020	39,175	-0,124	-0,076
259,034	3,894	-0,076	-0,038
260,049	79,301	-0,147	-0,109
261,063	221,500	-0,191	-0,213
262,078	231,284	-0,140	-0,159
263,093	110,098	-0,125	-0,104
264,107	253,018	-0,154	-0,181
265,122	-126,171	-0,140	-0,014
266,136	122,365	-0,155	-0,134
267,151	0,532	-0,162	-0,079
268,166	-200,000	-0,050	-0,159
269,180	244,579	-0,195	-0,227
270,195	-31,942	-0,125	-0,048
271,209	16,372	-0,154	-0,083
272,224	774,590	-0,103	-0,194
273,239	314,335	-0,099	-0,129
274,253	-200,000	-0,011	-0,167
275,268	-56,491	-0,174	-0,053
276,282	1,154	-0,357	-0,176
277,297	-23,407	-0,210	-0,087
278,312	800,000	-0,096	-0,192
279,326	-77,273	-0,205	-0,049
280,341	-111,992	-0,132	0,018
281,355	-200,000	-0,011	0,061
282,370	800,000	-0,108	-0,247
283,384	-135,530	-0,260	-0,021
284,399	-80,897	-0,088	0,020
285,414	76,492	-0,182	-0,133
286,428	119,949	-0,137	-0,117
287,443	800,000	-0,114	-0,227
288,457	787,396	0,029	-0,056
289,472	-199,052	-0,062	0,000
290,487	216,060	-0,114	-0,125
291,501	-13,832	-0,218	-0,097
292,516	-86,595	-0,213	-0,045
293,530	-200,000	0,003	-0,115
294,545	57,499	-0,152	-0,102
295,560	-76,499	-0,108	0,026
296,574	230,476	-0,152	-0,171
297,589	45,392	-0,271	-0,172
298,603	66,653	-0,200	-0,140
299,618	325,377	-0,085	-0,112
300,633	-29,839	-0,212	-0,083
301,647	-68,472	-0,109	-0,029
302,662	484,037	-0,138	-0,216
303,676	-176,299	-0,012	-0,000
304,691	-200,000	-0,018	-0,145
305,706	35,066	-0,203	-0,122
306,720	-9,296	-0,258	-0,118
307,735	164,673	-0,060	-0,058
308,749	800,000	-0,119	-0,241
309,764	-200,000	-0,012	-0,068
310,779	-23,433	-0,140	-0,058
311,793	126,615	-0,100	-0,087
312,808	143,254	-0,264	-0,242
313,822	-32,760	-0,104	-0,040
314,837	800,000	-0,074	-0,187
315,852	67,530	-0,062	-0,043
316,866	507,200	-0,086	-0,137
317,881	47,664	-0,191	-0,123
318,895	-119,951	-0,082	0,010
319,910	-200,000	-0,008	-0,068
320,925	78,373	-0,192	-0,141
321,939	196,083	-0,194	-0,203
322,954	-39,586	-0,237	-0,085
323,968	800,000	-0,028	-0,063
324,983	129,394	-0,115	-0,101
325,997	40,354	-0,143	-0,088
327,012	298,938	-0,120	-0,153
328,027	-17,380	-0,149	-0,064
329,041	201,141	-0,075	-0,079
330,056	-200,000	-0,022	-0,077
331,070	73,455	-0,180	-0,129
332,085	-99,591	-0,078	-0,013
333,100	-20,319	-0,227	-0,096
334,114	800,000	-0,068	-0,153
335,129	6,751	-0,150	0,076
336,143	-122,818	-0,143	-0,016
337,158	367,968	-0,193	-0,268
338,173	-200,000	-0,015	-0,066
339,187	-148,887	-0,144	-0,008
340,202	84,167	-0,098	-0,074
341,216	800,000	-0,105	-0,248
342,231	236,733	-0,152	-0,173
343,246	36,156	-0,172	-0,104
344,260	-79,448	-0,209	-0,048
345,275	-92,546	-0,159	0,030
346,289	18,033	-0,266	-0,145
347,304	-65,007	-0,096	-0,026
348,319	31,664	-0,137	-0,081
349,333	430,407	-0,143	-0,213
350,348	139,438	-0,251	-0,227
351,362	800,000	-0,074	-0,151
352,377	46,106	-0,173	-0,109
353,392	-54,043	-0,153	0,047
354,406	97,638	-0,118	0,093
355,421	205,943	1313,208	1400,983
356,435	158,366	1473,748	1401,499
