DTS Sentinel unit serial number:	SN410029Multiplexer serial number:	ORYXHardware model number:	OX2-SRSoftware version number:	ORYX F/W v4,00 Oryx Data Collector v3.7.2.0data status	okinstallation	B3 Nyhavnadifferential loss correction	single-endedforward channel	channel 1reverse channel	N/Adate	2023/12/03time	20:37:30forward acquisition time	300,00reverse acquisition time	0,00gamma	499,1914k internal	0,3198k external	0,3198temperature offset calibration	1,0000default loss term (dB/km)	0,3820temperature slope calibration	1,0000multiplexer offset coefficient	1,0000multiplexer slope coefficient	1,0000fibre end	0,00T internal ref (°C)	13,90T ext. ref 1 (°C)	-1,47T ext. ref 2 (°C)	-1,49length (m)	temperature (°C)	Stokes	anti-Stokes-744,400	-20,857	-0,327	-0,145
-743,385	-200,000	-0,007	0,409
-742,371	527,211	-0,161	-0,277
-741,356	-200,000	0,025	0,262
-740,342	514,816	-0,151	-0,257
-739,327	-200,000	-0,006	0,370
-738,312	191,571	-0,219	-0,240
-737,298	-200,000	-0,057	0,435
-736,283	7,061	-0,249	-0,135
-735,269	800,000	0,093	0,271
-734,254	105,229	-0,203	-0,175
-733,239	117,998	-0,218	0,195
-732,225	800,000	-0,063	-0,167
-731,210	-200,000	0,016	0,148
-730,196	-74,259	0,049	0,013
-729,181	-53,368	-0,051	0,017
-728,167	-157,651	-0,121	-0,005
-727,152	-200,000	0,013	-0,102
-726,137	-38,895	0,118	-0,045
-725,123	41,757	0,061	0,040
-724,108	536,955	-0,061	-0,106
-723,094	-200,000	0,010	-0,139
-722,079	-200,000	-0,023	-0,117
-721,064	-56,348	-0,079	0,025
-720,050	66,027	0,058	0,042
-719,035	10,947	-0,033	-0,018
-718,021	20,597	-0,172	-0,101
-717,006	23,425	-0,125	-0,075
-715,991	400,827	-0,071	-0,109
-714,977	-200,000	-0,024	-0,082
-713,962	-96,735	-0,083	0,016
-712,948	721,088	0,095	0,185
-711,933	-57,996	0,141	-0,044
-710,918	-200,000	-0,029	0,100
-709,904	233,368	-0,049	-0,058
-708,889	46,802	-0,098	-0,066
-707,875	800,000	-0,037	-0,119
-706,860	264,948	0,043	-0,054
-705,845	-200,000	0,032	-0,114
-704,831	-88,014	-0,088	-0,019
-703,816	51,932	-0,125	-0,087
-702,802	-5,331	0,065	-0,032
-701,787	-200,000	0,027	-0,130
-700,772	125,607	0,202	-0,186
-699,758	306,726	0,046	-0,062
-698,743	-169,932	0,078	0,002
-697,729	222,705	0,048	-0,057
-696,714	-200,000	0,009	0,114
-695,699	40,087	-0,095	0,062
-694,685	-185,238	-0,017	-0,000
-693,670	-138,129	-0,144	-0,011
-692,656	78,690	0,109	0,084
-691,641	800,000	0,018	-0,037
-690,627	555,185	0,008	-0,014
-689,612	-119,643	0,106	0,013
-688,597	-200,000	-0,016	-0,072
-687,583	80,042	0,089	-0,069
-686,568	-50,161	0,053	0,018
-685,554	-125,711	0,046	0,005
-684,539	124,109	0,071	-0,065
-683,524	57,371	0,015	-0,011
-682,510	-66,655	-0,119	0,034
-681,495	-8,634	-0,067	-0,033
-680,481	213,154	-0,043	0,049
-679,466	68,729	0,062	0,046
-678,451	-98,222	-0,188	0,035
-677,437	409,691	0,072	0,112
-676,422	-119,522	0,230	0,029
-675,408	146,192	-0,112	0,109
-674,393	-111,747	-0,159	0,023
-673,378	385,582	-0,133	-0,199
-672,364	800,000	0,015	-0,043
-671,349	119,653	-0,083	-0,075
-670,335	75,957	0,208	-0,160
-669,320	94,810	-0,054	-0,045
-668,305	47,890	0,112	0,076
-667,291	-200,000	-0,185	0,000
-666,276	-169,489	-0,061	-0,002
-665,262	-52,326	-0,044	-0,015
-664,247	-134,976	-0,112	-0,010
-663,232	-73,043	0,086	-0,023
-662,218	550,988	0,035	-0,061
-661,203	800,000	0,029	0,074
-660,189	-61,620	0,088	0,027
-659,174	206,672	-0,035	-0,039
-658,159	575,697	-0,062	-0,111
-657,145	267,473	-0,074	-0,095
-656,130	-57,264	-0,097	-0,031
-655,116	785,839	0,028	-0,056
-654,101	800,000	-0,036	0,097
-653,086	-57,060	-0,049	-0,016
-652,072	95,706	-0,107	-0,089
-651,057	-200,000	-0,019	-0,085
-650,043	-74,297	-0,168	-0,044
-649,028	-86,633	-0,029	-0,006
-648,014	800,000	-0,025	0,076
-646,999	508,955	0,032	0,054
-645,984	-200,000	0,008	0,096
-644,970	228,068	-0,014	-0,017
-643,955	-200,000	-0,004	-0,037
-642,941	-200,000	0,010	0,053
-641,926	-196,449	-0,061	-0,000
-640,911	364,630	-0,041	-0,060
-639,897	-200,000	0,006	-0,059
-638,882	211,605	-0,012	-0,014
-637,868	233,751	-0,064	0,077
-636,853	-31,486	-0,178	-0,072
-635,838	800,000	0,037	-0,078
-634,824	-112,251	-0,096	0,014
-633,809	-200,000	0,012	-0,105
-632,795	-15,925	-0,153	-0,070
-631,780	-200,000	0,014	-0,139
-630,765	370,559	0,016	-0,024
-629,751	182,598	0,087	-0,093
-628,736	323,577	-0,069	-0,096
-627,722	-123,921	-0,037	0,004
-626,707	174,288	0,085	-0,090
-625,692	-200,000	0,007	-0,082
-624,678	-12,940	-0,101	-0,048
-623,663	-197,959	-0,095	-0,000
-622,649	129,273	0,043	-0,040
-621,634	143,776	-0,098	-0,095
-620,619	197,906	-0,048	0,053
-619,605	304,343	-0,059	0,080
-618,590	800,000	0,063	-0,130
-617,576	-111,840	0,139	0,020
-616,561	30,231	-0,194	-0,120
-615,546	379,602	-0,045	-0,067
-614,532	-200,000	0,000	0,019
-613,517	784,033	-0,049	-0,098
-612,503	-200,000	-0,007	-0,063
-611,488	214,282	0,141	-0,162
-610,474	-200,000	0,006	-0,074
-609,459	762,386	0,062	-0,123
-608,444	800,000	0,074	-0,170
-607,430	-200,000	-0,012	-0,084
-606,415	-30,196	0,097	-0,040
-605,401	235,511	-0,040	-0,048
-604,386	164,247	-0,079	-0,081
-603,371	-87,095	0,051	0,011
-602,357	800,000	-0,021	0,055
-601,342	28,386	0,078	-0,047
-600,328	-101,497	-0,155	0,027
-599,313	233,977	0,031	0,037
-598,298	-100,845	-0,166	-0,029
-597,284	-138,296	-0,074	0,006
-596,269	800,000	0,042	0,087
-595,255	800,000	-0,025	-0,054
-594,240	529,761	0,090	0,154
-593,225	-158,352	0,023	-0,001
-592,211	800,000	-0,094	-0,221
-591,196	350,751	0,034	-0,049
-590,182	476,932	-0,071	0,117
-589,167	-200,000	-0,008	0,078
-588,152	-52,317	-0,182	0,060
-587,138	-200,000	-0,004	-0,020
-586,123	800,000	0,028	-0,063
-585,109	288,326	0,055	-0,072
-584,094	-45,922	-0,025	-0,009
-583,079	266,182	0,061	-0,077
-582,065	-128,047	-0,034	0,003
-581,050	568,477	0,071	-0,125
-580,036	261,242	-0,080	-0,100
-579,021	-200,000	0,011	-0,070
-578,006	22,093	0,070	-0,041
-576,992	-200,000	0,018	-0,209
-575,977	-200,000	-0,013	-0,153
-574,963	19,194	0,082	-0,048
-573,948	29,353	-0,087	0,054
-572,934	-200,000	0,002	0,053
-571,919	59,561	0,055	-0,039
-570,904	394,588	-0,031	0,046
-569,890	800,000	0,021	0,058
-568,875	152,176	-0,008	-0,008
-567,861	21,754	0,033	-0,020
-566,846	-200,000	-0,007	0,066
-565,831	800,000	-0,054	0,110
-564,817	-200,000	-0,036	0,143
-563,802	-200,000	0,012	0,055
-562,788	-36,135	0,006	0,002
-561,773	5,569	-0,161	0,086
-560,758	13,861	-0,057	0,032
-559,744	-77,020	0,136	-0,034
-558,729	-200,000	0,015	0,068
-557,715	800,000	-0,023	-0,069
-556,700	800,000	-0,054	-0,118
-555,685	76,487	-0,019	0,014
-554,671	2,004	-0,073	0,038
-553,656	-27,757	0,027	0,011
-552,642	-200,000	0,021	0,100
-551,627	-200,000	0,031	0,121
-550,612	-200,000	0,020	0,066
-549,598	-200,000	-0,000	-0,078
-548,583	198,682	0,055	-0,061
-547,569	226,163	0,076	-0,089
-546,554	-200,000	0,015	0,137
-545,539	-200,000	0,007	-0,073
-544,525	25,985	0,138	-0,083
-543,510	84,326	-0,125	-0,098
-542,496	800,000	-0,015	-0,042
-541,481	-52,121	-0,009	-0,003
-540,466	-35,045	0,053	0,021
-539,452	-83,451	0,102	0,023
-538,437	47,150	-0,048	-0,032
-537,423	-200,000	0,027	-0,104
-536,408	-200,000	-0,012	-0,098
-535,393	151,369	-0,096	-0,094
-534,379	800,000	0,016	-0,044
-533,364	53,857	-0,073	0,051
-532,350	90,650	-0,031	0,025
-531,335	-72,454	-0,177	0,047
-530,321	237,682	0,058	-0,070
-529,306	-200,000	0,008	0,039
-528,291	120,391	-0,050	0,045
-527,277	338,807	-0,077	-0,108
-526,262	-200,000	0,011	-0,202
-525,248	285,883	0,062	-0,082
-524,233	800,000	0,033	-0,105
-523,218	11,514	0,090	0,049
-522,204	-200,000	-0,000	0,126
-521,189	177,267	0,120	-0,126
-520,175	-68,344	-0,162	-0,045
-519,160	577,034	0,053	-0,095
-518,145	-137,000	-0,083	-0,007
-517,131	-200,000	-0,012	0,084
-516,116	-13,663	0,052	0,024
-515,102	-200,000	0,008	-0,051
-514,087	98,488	-0,065	-0,054
-513,072	-200,000	0,014	-0,120
-512,058	15,237	-0,064	0,036
-511,043	-0,797	-0,018	-0,009
-510,029	-200,000	-0,017	-0,083
-509,014	762,939	0,023	0,044
-507,999	173,856	0,117	0,122
-506,985	134,813	-0,038	0,036
-505,970	-200,000	-0,009	0,046
-504,956	7,765	0,081	-0,044
-503,941	104,644	0,059	0,050
-502,926	9,799	0,083	-0,045
-501,912	552,982	-0,096	0,168
-500,897	-163,473	-0,025	-0,001
-499,883	36,736	0,088	0,056
-498,868	105,106	0,037	-0,031
-497,853	-24,188	-0,129	0,055
-496,839	611,628	0,006	-0,012
-495,824	794,700	-0,032	-0,064
-494,810	-118,754	-0,111	0,014
-493,795	-200,000	-0,005	-0,075
-492,781	6,762	-0,059	-0,032
-491,766	800,000	-0,097	-0,197
-490,751	-200,000	0,025	-0,139
-489,737	-200,000	0,006	0,036
-488,722	800,000	0,033	0,096
-487,708	-79,871	0,130	0,031
-486,693	-28,082	-0,114	-0,047
-485,678	-96,748	0,074	-0,014
-484,664	800,000	0,032	-0,077
-483,649	-60,764	-0,142	0,043
-482,635	460,702	-0,016	0,026
-481,620	227,025	0,024	0,028
-480,605	-200,000	-0,010	0,048
-479,591	228,394	0,074	0,087
-478,576	228,153	0,088	-0,104
-477,562	442,269	-0,065	-0,102
-476,547	-200,000	0,008	-0,119
-475,532	53,719	-0,111	0,076
-474,518	-13,364	0,086	0,040
-473,503	-200,000	-0,010	0,151
-472,489	-80,861	-0,159	0,038
-471,474	209,845	0,058	0,066
-470,459	-40,767	0,066	-0,024
-469,445	13,470	-0,126	-0,070
-468,430	10,809	0,188	0,103
-467,416	800,000	-0,035	-0,105
-466,401	800,000	0,018	-0,050
-465,386	41,968	-0,060	0,039
-464,372	-107,866	-0,057	-0,009
-463,357	-200,000	0,011	-0,040
-462,343	-200,000	-0,047	0,165
-461,328	61,911	0,081	-0,058
-460,313	439,603	-0,090	-0,142
-459,299	-175,707	0,118	-0,002
-458,284	30,999	0,161	0,099
-457,270	-4,329	-0,101	0,050
-456,255	-200,000	-0,012	-0,080
-455,241	33,230	-0,041	0,025
-454,226	-200,000	0,006	0,044
-453,211	800,000	0,028	0,061
-452,197	149,812	0,011	0,010
-451,182	-200,000	0,027	-0,139
-450,168	121,865	-0,046	0,041
-449,153	-200,000	0,023	-0,127
-448,138	-172,022	0,053	0,001
-447,124	247,547	0,028	-0,035
-446,109	-200,000	0,000	-0,046
-445,095	800,000	0,084	-0,179
-444,080	25,794	-0,004	0,003
-443,065	28,417	-0,078	0,048
-442,051	-52,804	0,174	0,057
-441,036	293,478	-0,087	0,115
-440,022	-77,966	-0,067	0,017
-439,007	-200,000	-0,006	-0,175
-437,992	196,080	0,067	0,074
-436,978	481,863	0,040	-0,066
-435,963	-9,390	-0,015	-0,007
-434,949	-48,433	-0,057	-0,020
-433,934	-153,890	-0,141	0,007
-432,919	-200,000	0,011	0,057
-431,905	-65,301	-0,115	0,033
-430,890	40,278	0,205	0,132
-429,876	-102,525	-0,089	0,015
-428,861	585,670	0,035	-0,062
-427,846	189,715	0,101	0,109
-426,832	131,186	-0,120	-0,111
-425,817	74,261	0,035	-0,026
-424,803	-200,000	0,054	0,175
-423,788	191,231	0,046	-0,050
-422,773	-169,072	0,147	-0,004
-421,759	-27,890	-0,077	0,032
-420,744	-200,000	-0,009	0,070
-419,730	-167,983	-0,031	-0,001
-418,715	332,774	-0,045	-0,063
-417,701	40,226	-0,108	-0,070
-416,686	510,988	0,019	-0,033
-415,671	86,135	0,043	0,034
-414,657	-17,101	0,132	0,060
-413,642	-89,993	-0,156	-0,032
-412,628	-200,000	0,008	0,031
-411,613	-200,000	-0,042	-0,147
-410,598	-200,000	-0,001	0,041
-409,584	436,568	0,047	0,074
-408,569	-146,891	0,095	-0,006
-407,555	735,214	-0,016	-0,032
-406,540	-200,000	-0,022	0,090
-405,525	156,083	-0,095	-0,094
-404,511	800,000	-0,040	-0,125
-403,496	-124,866	-0,037	-0,004
-402,482	584,050	0,039	0,070
-401,467	-43,472	0,185	0,067
-400,452	62,752	0,056	-0,040
-399,438	-200,000	-0,002	0,049
-398,423	-69,012	0,085	0,023
-397,409	-200,000	-0,033	-0,155
-396,394	-200,000	-0,006	-0,181
-395,379	-200,000	0,007	0,039
-394,365	118,118	0,078	0,069
-393,350	-200,000	0,022	0,111
-392,336	33,051	0,092	-0,057
-391,321	-103,739	-0,231	-0,038
-390,306	-200,000	-0,011	0,052
-389,292	-108,853	0,103	-0,016
-388,277	-200,000	0,002	0,074
-387,263	800,000	-0,036	0,108
-386,248	-200,000	0,006	0,074
-385,233	-71,634	0,153	0,041
-384,219	800,000	-0,036	0,090
-383,204	-26,509	0,069	0,029
-382,190	-124,862	-0,130	0,014
-381,175	243,618	-0,041	0,049
-380,160	120,881	0,011	0,010
-379,146	67,822	0,102	0,075
-378,131	166,659	-0,045	0,046
-377,117	800,000	-0,041	0,094
-376,102	-200,000	-0,001	-0,103
-375,088	-116,980	0,050	-0,006
-374,073	67,334	0,033	-0,024
-373,058	62,653	0,095	0,068
-372,044	3,465	-0,102	0,053
-371,029	600,704	0,051	0,091
-370,015	31,318	0,070	0,043
-369,000	-52,036	-0,120	0,040
-367,985	-132,639	-0,008	-0,001
-366,971	-27,966	-0,090	-0,037
-365,956	-200,000	0,006	0,110
-364,942	157,516	0,056	0,056
-363,927	175,164	0,028	-0,029
-362,912	193,602	0,081	0,088
-361,898	-24,024	-0,072	0,031
-360,883	-200,000	-0,036	-0,179
-359,869	92,171	0,030	-0,024
-358,854	298,079	0,008	-0,011
-357,839	-200,000	-0,012	-0,101
-356,825	167,234	-0,095	0,097
-355,810	-200,000	0,009	0,036
-354,796	-200,000	0,002	-0,030
-353,781	-141,747	-0,202	0,014
-352,766	-27,115	0,088	0,037
-351,752	-107,947	0,060	0,009
-350,737	217,322	0,023	-0,026
-349,723	-20,021	-0,024	0,010
-348,708	713,503	-0,048	0,091
-347,693	173,959	-0,017	0,017
-346,679	176,543	0,029	0,031
-345,664	104,316	0,120	-0,101
-344,650	-129,332	-0,127	-0,013
-343,635	-200,000	-0,001	0,015
-342,620	-40,896	0,107	-0,039
-341,606	137,889	-0,059	-0,055
-340,591	-200,000	0,014	-0,111
-339,577	-122,528	0,095	-0,011
-338,562	-200,000	0,041	-0,169
-337,548	536,350	-0,029	0,049
-336,533	-200,000	0,015	-0,106
-335,518	48,096	-0,083	-0,056
-334,504	-5,978	0,102	0,050
-333,489	800,000	0,037	-0,112
-332,475	-200,000	0,011	0,053
-331,460	-22,883	0,017	-0,007
-330,445	-200,000	0,020	0,102
-329,431	479,946	-0,079	0,129
-328,416	-200,000	-0,006	0,026
-327,402	-200,000	-0,032	0,110
-326,387	273,977	0,082	-0,104
-325,372	-19,499	-0,144	0,064
-324,358	295,314	-0,024	0,032
-323,343	164,269	0,180	-0,182
-322,329	-70,090	0,119	-0,032
-321,314	21,637	0,201	0,117
-320,299	151,664	0,083	0,081
-319,285	480,416	0,056	-0,091
-318,270	734,242	-0,026	-0,051
-317,256	-200,000	0,020	-0,145
-316,241	-113,694	-0,158	-0,022
-315,226	281,935	0,009	-0,012
-314,212	272,270	0,032	0,040
-313,197	255,508	0,051	0,063
-312,183	238,243	0,024	0,028
-311,168	-200,000	-0,021	-0,126
-310,153	800,000	0,030	0,061
-309,139	759,789	0,003	0,005
-308,124	-200,000	0,018	-0,154
-307,110	81,335	0,031	-0,024
-306,095	-200,000	0,007	0,055
-305,080	230,050	0,052	0,061
-304,066	-40,037	-0,055	0,021
-303,051	-75,296	-0,136	-0,034
-302,037	800,000	0,020	-0,063
-301,022	-181,054	-0,144	-0,002
-300,008	-200,000	0,030	0,114
-298,993	-200,000	0,007	0,053
-297,978	-200,000	-0,010	0,045
-296,964	-33,905	-0,102	-0,040
-295,949	613,140	0,042	-0,076
-294,935	747,708	-0,079	-0,154
-293,920	-160,470	0,135	0,005
-292,905	-30,798	0,144	0,058
-291,891	374,105	0,029	0,042
-290,876	6,016	0,060	-0,032
-289,862	178,929	0,028	-0,030
-288,847	-122,557	0,089	-0,010
-287,832	313,113	-0,053	0,072
-286,818	-38,139	0,146	-0,055
-285,803	-200,000	0,003	-0,046
-284,789	-54,153	-0,230	0,074
-283,774	329,636	0,091	0,126
-282,759	-141,891	0,087	-0,006
-281,745	141,939	0,057	0,054
-280,730	800,000	0,022	-0,057
-279,716	-89,518	-0,159	-0,033
-278,701	217,782	0,052	0,059
-277,686	800,000	0,024	-0,067
-276,672	-200,000	-0,006	0,020
-275,657	-200,000	0,010	0,069
-274,643	-200,000	-0,008	-0,049
-273,628	-200,000	0,002	-0,077
-272,613	-122,184	-0,040	0,005
-271,599	90,179	0,106	-0,085
-270,584	-145,077	0,232	0,015
-269,570	-27,892	0,073	-0,030
-268,555	159,901	-0,094	0,094
-267,540	-200,000	0,064	-0,253
-266,526	339,052	-0,047	-0,066
-265,511	215,320	0,010	0,011
-264,497	92,637	0,043	0,034
-263,482	181,777	0,130	-0,136
-262,467	-59,208	0,104	0,032
-261,453	-142,854	-0,123	0,008
-260,438	-123,903	-0,155	-0,017
-259,424	385,049	-0,080	-0,117
-258,409	788,236	-0,047	0,093
-257,395	218,537	-0,034	-0,039
-256,380	75,728	0,130	-0,098
-255,365	-31,751	0,100	-0,040
-254,351	114,918	-0,063	-0,055
-253,336	192,186	-0,040	0,043
-252,322	-88,198	0,036	-0,008
-251,307	-115,803	0,051	-0,007
-250,292	800,000	0,060	-0,123
-249,278	800,000	0,005	0,016
-248,263	800,000	-0,088	0,188
-247,249	800,000	0,048	0,140
-246,234	115,562	0,049	0,043
-245,219	-200,000	0,009	-0,087
-244,205	316,806	0,041	0,056
-243,190	-200,000	0,025	0,128
-242,176	380,142	-0,086	0,126
-241,161	800,000	0,080	0,210
-240,146	800,000	-0,008	0,023
-239,132	-95,162	-0,024	-0,005
-238,117	-45,472	-0,055	-0,020
-237,103	-83,038	-0,116	-0,026
-236,088	-55,693	-0,145	0,046
-235,073	46,125	0,209	0,138
-234,059	-200,000	-0,010	0,112
-233,044	800,000	0,041	0,096
-232,030	164,670	-0,054	0,054
-231,015	62,522	-0,063	-0,045
-230,000	318,236	0,070	0,095
-228,986	-22,836	0,108	-0,046
-227,971	-20,921	0,048	-0,021
-226,957	-125,818	0,055	0,006
-225,942	-108,772	-0,150	0,023
-224,927	199,706	0,123	0,134
-223,913	396,595	0,022	0,033
-222,898	138,853	0,054	0,051
-221,884	79,924	-0,019	0,015
-220,869	-158,425	0,046	0,002
-219,855	-200,000	-0,021	0,102
-218,840	-200,000	0,005	0,065
-217,825	174,153	0,141	0,146
-216,811	27,361	-0,025	0,015
-215,796	-164,147	-0,052	-0,002
-214,782	541,341	-0,040	-0,068
-213,767	608,420	-0,075	0,134
-212,752	-200,000	-0,039	0,177
-211,738	202,687	0,109	0,120
-210,723	692,712	-0,017	-0,032
-209,709	238,707	-0,023	-0,027
-208,694	-120,894	-0,151	0,018
-207,679	-49,203	0,025	-0,008
-206,665	-200,000	-0,013	0,105
-205,650	393,587	0,076	0,113
-204,636	-200,000	0,042	0,159
-203,621	-54,454	-0,023	0,007
-202,606	-11,330	-0,075	0,035
-201,592	521,937	-0,076	-0,127
-200,577	800,000	0,012	-0,037
-199,563	743,067	0,028	0,053
-198,548	-46,334	0,065	-0,023
-197,533	800,000	0,077	0,222
-196,519	-200,000	0,008	-0,034
-195,504	-16,866	-0,080	0,036
-194,490	643,155	0,029	0,054
-193,475	-39,622	-0,115	-0,043
-192,460	216,425	-0,020	-0,023
-191,446	381,673	-0,067	-0,099
-190,431	5,474	0,124	0,065
-189,417	-123,100	-0,070	-0,008
-188,402	800,000	0,068	-0,162
-187,387	-200,000	-0,012	-0,063
-186,373	800,000	-0,073	0,173
-185,358	174,315	0,005	-0,005
-184,344	-121,575	-0,033	0,004
-183,329	-2,321	-0,169	0,084
-182,315	69,336	0,042	0,030
-181,300	-38,629	-0,166	0,062
-180,285	800,000	0,034	0,076
-179,271	24,762	0,079	-0,047
-178,256	800,000	-0,045	-0,098
-177,242	658,325	0,065	0,120
-176,227	800,000	0,072	0,169
-175,212	25,240	0,136	0,080
-174,198	17,449	0,062	0,035
-173,183	-200,000	-0,009	-0,030
-172,169	-151,075	-0,070	0,004
-171,154	2,677	-0,124	0,064
-170,139	-200,000	0,006	-0,029
-169,125	636,065	0,055	-0,100
-168,110	-28,939	0,046	0,019
-167,096	-200,000	-0,016	0,091
-166,081	-0,303	-0,152	0,077
-165,066	63,941	0,069	-0,050
-164,052	100,119	-0,034	0,028
-163,037	-200,000	0,030	0,197
-162,023	-200,000	-0,014	0,224
-161,008	-200,000	0,005	0,037
-159,993	81,644	-0,017	0,013
-158,979	16,126	-0,017	0,010
-157,964	-200,000	-0,026	0,189
-156,950	-37,514	-0,102	-0,039
-155,935	337,898	0,022	-0,031
-154,920	-67,623	-0,100	-0,028
-153,906	531,973	-0,046	-0,078
-152,891	-39,243	0,114	-0,043
-151,877	298,427	0,074	-0,097
-150,862	181,156	-0,109	-0,114
-149,847	-200,000	-0,036	-0,147
-148,833	15,089	0,076	0,042
-147,818	-200,000	-0,044	-0,151
-146,804	29,454	-0,099	0,060
-145,789	19,041	0,037	-0,021
-144,775	28,568	-0,037	-0,022
-143,760	800,000	0,053	-0,118
-142,745	-7,796	0,062	0,030
-141,731	-159,235	-0,041	-0,002
-140,716	-24,110	0,005	0,002
-139,702	-82,022	0,089	0,021
-138,687	22,905	-0,069	0,040
-137,672	-128,353	0,130	-0,013
-136,658	-44,012	-0,061	-0,022
-135,643	-200,000	0,002	-0,148
-134,629	800,000	0,025	0,073
-133,614	119,412	0,072	0,064
-132,599	-6,957	-0,014	0,007
-131,585	-200,000	0,015	0,074
-130,570	7,092	-0,030	-0,016
-129,556	226,181	0,077	-0,089
-128,541	686,893	0,053	-0,099
-127,526	-32,072	0,232	0,092
-126,512	-200,000	-0,006	0,117
-125,497	-124,580	-0,066	0,007
-124,483	-200,000	0,021	0,169
-123,468	-71,787	-0,144	-0,038
-122,453	-107,451	0,058	0,009
-121,439	-29,059	-0,177	-0,072
-120,424	44,533	-0,022	-0,015
-119,410	-200,000	0,056	0,202
-118,395	636,425	0,094	0,169
-117,380	-61,505	-0,011	0,003
-116,366	-200,000	-0,003	-0,094
-115,351	16,692	-0,077	-0,043
-114,337	305,920	-0,116	-0,154
-113,322	-200,000	0,001	-0,037
-112,307	758,377	0,052	0,100
-111,293	73,654	0,062	-0,046
-110,278	-64,527	0,065	-0,019
-109,264	353,254	0,014	-0,019
-108,249	106,632	0,073	-0,061
-107,234	154,126	-0,075	-0,073
-106,220	-112,015	0,103	0,015
-105,205	269,154	-0,046	0,057
-104,191	432,610	-0,010	0,016
-103,176	284,730	-0,025	0,032
-102,162	57,102	0,030	0,021
-101,147	23,160	0,055	-0,032
-100,132	800,000	-0,024	-0,057
-99,118	-27,195	-0,083	-0,034
-98,103	-40,484	-0,012	-0,005
-97,089	-13,595	0,086	0,039
-96,074	-174,408	0,079	-0,002
-95,059	-106,040	0,091	-0,014
-94,045	54,665	-0,105	0,072
-93,030	135,029	0,067	0,062
-92,016	-200,000	0,015	0,052
-91,001	800,000	0,037	-0,091
-89,986	297,452	-0,100	0,131
-88,972	98,994	0,176	0,144
-87,957	-171,792	-0,055	-0,001
-86,943	127,658	-0,095	-0,086
-85,928	-200,000	-0,001	0,111
-84,913	-200,000	-0,057	0,000
-83,899	-200,000	0,001	-0,104
-82,884	-143,357	0,108	-0,007
-81,870	-200,000	-0,008	0,045
-80,855	-200,000	0,013	0,104
-79,840	-29,141	-0,050	-0,020
-78,826	-200,000	-0,002	-0,076
-77,811	800,000	-0,047	-0,139
-76,797	59,754	0,072	0,050
-75,782	-200,000	-0,032	0,105
-74,767	301,683	-0,076	0,099
-73,753	602,912	0,033	0,058
-72,738	800,000	0,018	-0,051
-71,724	43,430	-0,035	0,023
-70,709	-200,000	-0,031	0,173
-69,694	-200,000	-0,012	0,043
-68,680	-144,394	0,033	-0,002
-67,665	461,654	-0,058	0,092
-66,651	85,700	-0,119	-0,093
-65,636	421,174	-0,029	0,045
-64,622	343,236	-0,094	-0,130
-63,607	420,973	-0,084	-0,129
-62,592	195,551	-0,020	-0,021
-61,578	276,544	-0,044	-0,055
-60,563	432,167	0,044	0,067
-59,549	11,236	-0,264	0,143
-58,534	-63,792	-1,635	-0,471
-57,519	357,541	-1,371	-1,944
-56,505	-200,000	-0,544	-4,609
-55,490	250,381	1,000	1,206
-54,476	800,000	4,835	11,011
-53,461	-200,000	18,831	311,036
-52,446	-200,000	739,011	2318,121
-51,432	573,681	1655,143	2871,280
-50,417	78,986	1670,765	1266,157
-49,403	21,877	1543,788	889,133
-48,388	15,772	1466,272	814,796
-47,373	17,851	1456,213	819,225
-46,359	16,832	1446,387	808,777
-45,344	14,048	1441,808	792,842
-44,330	13,950	1439,849	791,264
-43,315	13,968	1438,135	790,375
-42,300	13,990	1436,448	789,522
-41,286	14,014	1435,324	788,986
-40,271	13,920	1433,965	787,764
-39,257	13,997	1432,503	787,292
-38,242	14,005	1431,276	786,628
-37,227	14,035	1430,180	786,139
-36,213	13,948	1429,061	785,077
-35,198	13,985	1427,673	784,456
-34,184	14,010	1426,814	784,074
-33,169	13,987	1425,353	783,132
-32,154	14,057	1424,428	782,925
-31,140	14,025	1423,056	781,985
-30,125	14,042	1422,058	781,486
-29,111	14,060	1420,951	780,931
-28,096	14,008	1419,874	780,066
-27,082	13,976	1418,714	779,248
-26,067	13,913	1417,464	778,230
-25,052	13,924	1416,416	777,677
-24,038	13,910	1415,716	777,197
-23,023	13,881	1414,491	776,356
-22,009	13,935	1413,567	776,070
-20,994	13,884	1412,692	775,321
-19,979	13,895	1411,860	774,887
-18,965	13,861	1411,011	774,229
-17,950	13,875	1409,933	773,671
-16,936	13,907	1408,969	773,263
-15,921	13,785	1407,937	772,093
-14,906	13,836	1406,910	771,738
-13,892	13,815	1406,074	771,149
-12,877	13,830	1405,141	770,680
-11,863	13,877	1404,246	770,376
-10,848	13,825	1403,505	769,699
-9,833	13,793	1402,481	768,955
-8,819	13,727	1401,746	768,215
-7,804	13,727	1400,880	767,710
-6,790	13,768	1399,625	767,183
-5,775	13,746	1398,484	766,427
-4,760	13,767	1397,572	765,991
-3,746	13,784	1396,756	765,594
-2,731	13,728	1396,034	764,907
-1,717	13,686	1395,269	764,265
-0,702	13,762	1393,167	763,433
0,313	17,532	1310,873	735,841
1,327	33,685	705,460	433,431
2,342	51,803	123,882	83,332
3,356	2,815	16,696	8,550
4,371	9,561	3,221	1,722
5,386	-4,785	0,538	0,262
6,400	-200,000	0,023	0,319
7,415	34,775	-0,306	-0,189
8,429	95,195	-0,221	-0,178
9,444	68,985	-0,305	-0,222
10,459	17,478	-0,277	-0,155
11,473	41,360	-0,168	-0,107
12,488	-76,081	-0,322	-0,080
13,502	42,543	-0,280	-0,180
14,517	-57,984	-0,341	-0,105
15,531	-43,520	-0,539	-0,192
16,546	141,552	-0,316	-0,296
17,561	184,137	-0,304	-0,318
18,575	-1,451	-0,254	-0,126
19,590	127,975	-0,205	-0,185
20,604	37,572	-0,246	-0,154
21,619	6,714	-0,530	-0,278
22,634	40,109	-0,540	-0,342
23,648	200,133	-0,435	-0,473
24,663	150,718	-0,455	-0,438
25,677	76,744	-0,481	-0,361
26,692	105,171	-0,291	-0,243
27,707	311,170	-0,223	-0,297
28,721	42,178	-0,498	-0,319
29,736	122,540	-0,283	-0,250
30,750	34,602	-0,394	-0,243
31,765	66,734	-0,348	-0,250
32,780	37,304	-0,383	-0,239
33,794	19,785	-0,361	-0,205
34,809	127,146	-0,292	-0,261
35,823	365,238	-0,241	-0,344
36,838	91,550	-0,459	-0,364
37,853	-1,435	-0,428	-0,213
38,867	143,278	-0,363	-0,341
39,882	87,792	-0,353	-0,276
40,896	-42,597	-0,318	-0,114
41,911	58,443	-0,263	-0,182
42,926	277,191	-0,311	-0,390
43,940	116,463	-0,319	-0,276
44,955	105,794	-0,414	-0,345
45,969	321,858	-0,191	-0,257
46,984	106,306	-0,371	-0,310
47,999	76,680	-0,335	-0,251
49,013	41,216	-0,234	-0,149
50,028	28,742	-0,281	-0,168
51,042	309,108	-0,207	-0,273
52,057	52,793	-0,268	-0,180
53,071	87,869	-0,287	-0,224
54,086	200,437	-0,292	-0,317
55,101	136,528	-0,327	-0,301
56,115	34,480	-0,307	-0,189
57,130	121,001	-0,286	-0,251
58,144	63,832	-0,309	-0,218
59,159	97,328	-0,309	-0,250
60,174	232,357	-0,296	-0,343
61,188	35,738	-0,341	-0,210
62,203	82,782	-0,307	-0,235
63,217	-19,304	-0,311	-0,136
64,232	47,301	-0,300	-0,196
65,247	448,780	-0,200	-0,311
66,261	-94,104	-0,422	-0,081
67,276	71,194	-0,410	-0,299
68,290	128,705	-0,373	-0,334
69,305	132,798	-0,241	-0,219
70,320	-33,531	-0,332	-0,128
71,334	19,427	-0,261	-0,147
72,349	123,311	-0,273	-0,241
73,363	-45,246	-0,357	-0,124
74,378	41,325	-0,299	-0,190
75,393	128,107	-0,363	-0,325
76,407	-31,396	-0,262	-0,103
77,422	-20,888	-0,246	-0,105
78,436	87,243	-0,256	-0,199
79,451	109,219	-0,275	-0,231
80,466	102,295	-0,273	-0,224
81,480	110,852	-0,259	-0,219
82,495	39,071	-0,296	-0,186
83,509	35,906	-0,333	-0,206
84,524	156,862	-0,214	-0,208
85,539	72,228	-0,296	-0,216
86,553	385,785	-0,225	-0,328
87,568	-9,406	-0,267	-0,125
88,582	-30,898	-0,327	-0,129
89,597	78,316	-0,272	-0,204
90,611	88,365	-0,268	-0,209
91,626	126,832	-0,268	-0,239
92,641	-56,426	-0,236	-0,073
93,655	627,066	-0,149	-0,266
94,670	11,904	-0,437	-0,235
95,684	-18,401	-0,223	-0,097
96,699	-51,965	-0,393	-0,128
97,714	1,700	-0,331	-0,167
98,728	85,575	-0,223	-0,172
99,743	159,681	-0,226	-0,221
100,757	-42,571	-0,317	-0,113
101,772	209,000	-0,175	-0,192
102,787	4,612	-0,396	-0,203
103,801	104,022	-0,268	-0,221
104,816	9,736	-0,419	-0,222
105,830	367,610	-0,169	-0,240
106,845	-51,375	-0,099	-0,032
107,860	17,487	-0,202	-0,112
108,874	-200,000	-0,082	-0,282
109,889	800,000	-0,142	-0,355
110,903	242,726	-0,192	-0,226
111,918	143,571	-0,223	-0,208
112,933	-45,107	-0,252	-0,087
113,947	-34,396	-0,257	-0,098
114,962	40,826	-0,162	-0,102
115,976	800,000	-0,159	-0,312
116,991	7,220	-0,337	-0,176
118,006	618,410	-0,145	-0,256
119,020	2,671	-0,386	-0,195
120,035	-157,112	-0,226	-0,009
121,049	43,864	-0,186	-0,119
122,064	5,553	-0,239	-0,124
123,079	79,960	-0,362	-0,272
124,093	-51,654	-0,338	-0,110
125,108	156,392	-0,282	-0,272
126,122	241,176	-0,198	-0,232
127,137	1,485	-0,219	-0,110
128,151	-160,907	-0,277	-0,010
129,166	61,569	-0,265	-0,184
130,181	269,470	-0,170	-0,210
131,195	70,643	-0,408	-0,295
132,210	155,760	-0,170	-0,164
133,224	-111,351	-0,260	-0,037
134,239	88,205	-0,252	-0,195
135,254	60,053	-0,139	-0,096
136,268	-41,642	-0,324	-0,116
137,283	98,597	-0,151	-0,121
138,297	186,962	-0,246	-0,257
139,312	73,986	-0,365	-0,268
140,327	286,963	-0,263	-0,334
141,341	54,723	-0,188	-0,127
142,356	-21,020	-0,319	-0,136
143,370	322,250	-0,108	-0,145
144,385	213,855	-0,310	-0,344
145,400	656,191	-0,156	-0,281
146,414	131,509	-0,327	-0,294
147,429	-18,220	-0,287	-0,125
148,443	230,454	-0,159	-0,182
149,458	509,179	-0,202	-0,329
150,473	133,107	-0,199	-0,180
151,487	64,199	-0,289	-0,203
152,502	55,844	-0,204	-0,138
153,516	87,422	-0,198	-0,153
154,531	794,048	-0,171	-0,331
155,546	561,601	-0,128	-0,218
156,560	163,566	-0,253	-0,249
157,575	56,817	-0,195	-0,133
158,589	790,109	-0,088	-0,169
159,604	-98,346	-0,365	-0,065
160,619	255,893	-0,288	-0,346
161,633	255,386	-0,184	-0,221
162,648	-140,749	-0,196	-0,014
163,662	104,366	-0,206	-0,169
164,677	42,312	-0,160	-0,101
165,692	46,141	-0,302	-0,195
166,706	385,248	-0,190	-0,274
167,721	419,775	-0,119	-0,179
168,735	-21,517	-0,264	-0,112
169,750	40,921	-0,228	-0,143
170,764	10,638	-0,171	-0,091
171,779	50,477	-0,220	-0,145
172,794	59,903	-0,152	-0,104
173,808	-15,603	-0,259	-0,115
174,823	105,940	-0,195	-0,161
175,837	-47,880	-0,228	-0,076
176,852	15,668	-0,298	-0,163
177,867	-19,651	-0,315	-0,135
178,881	-96,237	-0,203	-0,037
179,896	76,103	-0,218	-0,160
180,910	118,298	-0,223	-0,191
181,925	121,320	-0,264	-0,229
182,940	800,000	-0,062	-0,161
183,954	467,054	-0,127	-0,199
184,969	-104,311	-0,251	0,040
185,983	262,210	-0,193	-0,234
186,998	800,000	-0,140	-0,281
188,013	23,195	-0,221	-0,126
189,027	-17,254	-0,311	-0,136
190,042	14,634	-0,301	-0,163
191,056	94,850	-0,248	-0,197
192,071	325,766	-0,167	-0,223
193,086	800,000	-0,109	-0,253
194,100	203,594	-0,209	-0,226
195,115	32,602	-0,231	-0,139
196,129	74,599	-0,319	-0,234
197,144	288,158	-0,238	-0,301
198,159	77,879	-0,253	-0,188
199,173	53,407	-0,220	-0,146
200,188	351,988	-0,116	-0,161
201,202	159,186	-0,133	-0,129
202,217	-63,346	-0,141	0,040
203,232	800,000	-0,069	-0,174
204,246	107,384	-0,218	-0,180
205,261	204,883	-0,245	-0,265
206,275	338,873	-0,171	-0,232
207,290	155,612	-0,147	-0,141
208,304	-53,606	-0,237	-0,075
209,319	75,352	-0,173	-0,127
210,334	-101,502	-0,244	-0,041
211,348	52,703	-0,240	-0,159
212,363	178,757	-0,199	-0,202
213,377	-61,807	-0,118	-0,034
214,392	-34,428	-0,264	-0,100
215,407	-200,000	-0,022	-0,092
216,421	43,230	-0,065	-0,041
217,436	86,254	-0,263	-0,201
218,450	192,282	-0,185	-0,194
219,465	47,611	-0,282	-0,182
220,480	199,989	-0,170	-0,182
221,494	-11,515	-0,120	-0,054
222,509	125,709	-0,100	-0,088
223,523	-192,162	-0,104	0,001
224,538	218,434	-0,184	-0,205
225,553	-24,392	-0,329	-0,135
226,567	108,880	-0,182	-0,151
227,582	38,749	-0,126	-0,078
228,596	-104,730	-0,243	-0,038
229,611	-168,307	-0,207	0,005
230,626	-23,005	-0,127	-0,053
231,640	0,957	-0,224	-0,111
232,655	346,895	-0,193	-0,264
233,669	678,752	-0,146	-0,264
234,684	368,002	-0,161	-0,226
235,699	800,000	-0,052	-0,144
236,713	-200,000	-0,008	-0,113
237,728	50,281	-0,098	-0,064
238,742	-80,818	-0,126	-0,029
239,757	38,514	-0,292	-0,180
240,772	33,820	-0,272	-0,164
241,786	-36,641	-0,136	-0,050
242,801	187,273	-0,046	0,048
243,815	121,914	-0,123	-0,107
244,830	41,707	-0,182	-0,114
245,844	-10,158	-0,150	-0,069
246,859	800,000	-0,118	-0,250
247,874	64,642	-0,184	-0,128
248,888	243,055	-0,155	-0,180
249,903	-200,000	-0,042	-0,136
250,917	213,912	-0,116	-0,127
251,932	-19,479	-0,079	-0,034
252,947	65,159	-0,202	-0,141
253,961	112,552	-0,187	-0,157
254,976	175,535	-0,188	-0,189
255,990	-5,404	-0,165	-0,078
257,005	85,621	-0,193	-0,147
258,020	657,009	-0,087	-0,156
259,034	211,885	-0,166	-0,181
260,049	464,943	-0,101	-0,158
261,063	-141,508	-0,253	-0,017
262,078	-200,000	-0,034	-0,121
263,093	114,085	-0,171	-0,144
264,107	-144,066	-0,176	0,011
265,122	335,230	-0,074	-0,099
266,136	210,823	-0,128	-0,139
267,151	-37,042	-0,183	-0,068
268,166	221,328	-0,229	-0,255
269,180	425,438	-0,106	-0,159
270,195	75,654	-0,241	-0,176
271,209	61,749	-0,171	-0,117
272,224	-200,000	-0,042	-0,164
273,239	159,359	-0,108	-0,104
274,253	420,626	-0,104	-0,155
275,268	-120,303	-0,130	0,015
276,282	800,000	-0,119	-0,247
277,297	800,000	-0,118	-0,255
278,312	69,960	-0,181	-0,129
279,326	439,863	-0,078	-0,119
280,341	92,151	-0,122	-0,095
281,355	94,656	-0,038	-0,030
282,370	25,305	-0,201	-0,115
283,384	71,541	-0,139	-0,100
284,399	101,488	-0,110	-0,089
285,414	800,000	-0,108	-0,232
286,428	-200,000	-0,006	-0,263
287,443	-7,438	-0,123	-0,057
288,457	73,011	-0,149	-0,108
289,472	67,414	-0,067	-0,047
290,487	43,780	-0,137	-0,087
291,501	241,383	-0,222	-0,257
292,516	84,907	-0,297	-0,225
293,530	-103,961	-0,175	-0,028
294,545	-193,509	-0,153	0,001
295,560	-27,519	-0,120	-0,048
296,574	507,203	-0,110	-0,177
297,589	70,870	-0,194	-0,138
298,603	-200,000	-0,059	-0,194
299,618	80,787	-0,166	-0,123
300,633	4,359	-0,131	-0,066
301,647	155,506	-0,160	-0,152
302,662	367,974	-0,096	-0,134
303,676	-168,049	-0,101	-0,003
304,691	150,065	-0,096	-0,090
305,706	-72,547	-0,214	-0,054
306,720	120,819	-0,153	-0,131
307,735	-94,717	-0,141	-0,026
308,749	40,232	-0,050	-0,031
309,764	81,124	-0,183	-0,136
310,779	-64,458	-0,105	-0,029
311,793	195,994	-0,054	-0,056
312,808	135,198	-0,255	-0,229
313,822	45,294	-0,196	-0,124
314,837	5,572	-0,080	-0,040
315,852	-2,883	-0,196	-0,094
316,866	-18,207	-0,140	-0,060
317,881	-57,208	-0,133	0,040
318,895	800,000	-0,075	-0,161
319,910	-59,062	-0,249	-0,074
320,925	106,988	-0,181	-0,148
321,939	232,896	-0,145	-0,164
322,954	116,530	-0,095	-0,080
323,968	-29,189	-0,056	0,022
324,983	9,780	-0,184	-0,096
325,997	-42,710	-0,125	0,044
327,012	772,743	-0,040	-0,076
328,027	107,224	-0,171	-0,140
329,041	-143,910	-0,092	0,006
330,056	-27,738	-0,136	-0,054
331,070	-110,033	-0,297	-0,042
332,085	-122,601	-0,210	-0,023
333,100	-166,747	-0,123	-0,003
334,114	-80,404	-0,287	-0,065
335,129	-47,853	-0,235	-0,078
336,143	2,866	-0,157	-0,078
337,158	-200,000	-0,017	-0,101
338,173	-170,849	-0,130	-0,003
339,187	328,916	-0,018	0,024
340,202	373,256	-0,045	-0,062
341,216	750,911	-0,079	-0,147
342,231	-168,539	-0,165	0,004
343,246	800,000	-0,039	-0,079
344,260	800,000	-0,066	-0,172
345,275	93,353	-0,115	-0,090
346,289	-0,344	-0,087	-0,042
347,304	22,913	-0,226	-0,127
348,319	-76,723	-0,161	-0,038
349,333	256,676	-0,129	-0,152
350,348	149,198	-0,197	-0,184
351,362	800,000	-0,106	-0,204
352,377	-200,000	0,003	0,063
353,392	27,284	-0,142	-0,082
354,406	29,795	-0,173	-0,101
355,421	208,996	1315,428	1415,454
356,435	160,834	1476,247	1415,956
