DTS Sentinel unit serial number:	SN410029Multiplexer serial number:	ORYXHardware model number:	OX2-SRSoftware version number:	ORYX F/W v4,00 Oryx Data Collector v3.7.2.0data status	okinstallation	B3 Nyhavnadifferential loss correction	single-endedforward channel	channel 1reverse channel	N/Adate	2023/12/01time	00:07:30forward acquisition time	300,00reverse acquisition time	0,00gamma	499,1914k internal	0,3210k external	0,3210temperature offset calibration	1,0000default loss term (dB/km)	0,3820temperature slope calibration	1,0000multiplexer offset coefficient	1,0000multiplexer slope coefficient	1,0000fibre end	0,00T internal ref (°C)	9,33T ext. ref 1 (°C)	-5,81T ext. ref 2 (°C)	-5,95length (m)	temperature (°C)	Stokes	anti-Stokes-744,400	624,992	-0,153	-0,282
-743,385	-200,000	0,017	0,088
-742,371	-200,000	-0,065	-0,211
-741,356	-200,000	0,056	0,198
-740,342	512,672	-0,168	-0,285
-739,327	325,973	-0,139	0,193
-738,312	398,372	-0,138	-0,210
-737,298	531,978	-0,149	0,256
-736,283	96,804	-0,196	-0,163
-735,269	-200,000	-0,000	0,272
-734,254	5,382	-0,277	-0,148
-733,239	-46,560	-0,185	0,065
-732,225	93,216	-0,159	-0,130
-731,210	-200,000	0,031	0,237
-730,196	-40,519	-0,062	-0,023
-729,181	-147,727	0,043	0,003
-728,167	-51,142	-0,066	0,022
-727,152	524,324	0,042	-0,072
-726,137	623,558	-0,034	0,062
-725,123	624,085	-0,052	0,096
-724,108	800,000	0,032	-0,070
-723,094	279,401	-0,049	-0,064
-722,079	-200,000	-0,012	-0,097
-721,064	-73,894	-0,096	-0,025
-720,050	-200,000	-0,001	0,057
-719,035	750,563	0,039	0,077
-718,021	800,000	0,035	-0,074
-717,006	75,207	-0,111	-0,085
-715,991	-200,000	-0,043	-0,195
-714,977	-200,000	0,007	-0,059
-713,962	188,017	0,045	0,049
-712,948	-200,000	-0,002	0,072
-711,933	6,048	-0,121	-0,065
-710,918	106,993	0,055	0,048
-709,904	3,352	-0,111	0,058
-708,889	800,000	-0,065	-0,143
-707,875	254,327	-0,093	0,116
-706,860	-20,597	0,098	-0,043
-705,845	32,940	0,041	0,026
-704,831	-43,018	-0,058	0,021
-703,816	65,117	0,055	-0,040
-702,802	-200,000	0,013	-0,138
-701,787	693,268	-0,029	-0,055
-700,772	-62,534	-0,097	-0,029
-699,758	12,450	0,057	-0,032
-698,743	-200,000	-0,008	0,059
-697,729	-33,831	0,176	0,070
-696,714	552,684	0,042	-0,073
-695,699	23,231	-0,057	-0,034
-694,685	124,464	0,073	-0,067
-693,670	-200,000	-0,068	-0,218
-692,656	-200,000	-0,006	-0,082
-691,641	44,019	-0,070	0,046
-690,627	-43,323	0,159	0,058
-689,612	-200,000	-0,057	0,185
-688,597	148,297	0,066	-0,064
-687,583	-200,000	0,069	-0,233
-686,568	449,368	-0,035	0,056
-685,554	119,645	-0,134	-0,120
-684,539	-200,000	0,026	0,189
-683,524	-200,000	-0,007	-0,068
-682,510	800,000	0,011	-0,023
-681,495	316,833	0,047	0,064
-680,481	-200,000	-0,038	-0,126
-679,466	156,259	-0,099	-0,099
-678,451	-200,000	-0,025	-0,103
-677,437	40,207	-0,001	-0,001
-676,422	-97,829	-0,051	0,009
-675,408	-104,331	0,033	0,005
-674,393	-200,000	-0,009	-0,035
-673,378	-9,498	-0,085	0,041
-672,364	-200,000	-0,024	0,093
-671,349	-78,219	0,012	-0,003
-670,335	-200,000	0,058	0,188
-669,320	800,000	0,017	-0,036
-668,305	62,469	0,126	-0,091
-667,291	531,729	-0,059	0,102
-666,276	297,279	-0,037	-0,049
-665,262	68,495	-0,147	-0,109
-664,247	86,461	-0,056	-0,045
-663,232	-77,727	-0,051	0,013
-662,218	-200,000	-0,019	0,063
-661,203	23,234	0,182	0,108
-660,189	80,297	-0,152	0,118
-659,174	800,000	-0,028	-0,063
-658,159	38,749	-0,068	0,044
-657,145	-63,927	-0,080	-0,024
-656,130	361,183	-0,014	-0,021
-655,116	-200,000	-0,013	-0,102
-654,101	68,383	0,042	-0,031
-653,086	-38,625	-0,163	0,062
-652,072	229,197	0,078	0,093
-651,057	-200,000	0,011	-0,078
-650,043	625,600	-0,027	-0,049
-649,028	-66,645	-0,065	0,018
-648,014	75,472	-0,063	0,048
-646,999	800,000	-0,050	0,112
-645,984	348,736	0,073	0,104
-644,970	417,115	-0,052	-0,081
-643,955	304,479	-0,095	-0,128
-642,941	-165,492	0,072	-0,002
-641,926	-117,918	-0,099	0,013
-640,911	800,000	0,043	-0,101
-639,897	-5,214	0,138	0,069
-638,882	800,000	0,058	-0,129
-637,868	-200,000	0,019	0,107
-636,853	-40,505	-0,054	0,020
-635,838	164,578	-0,099	-0,101
-634,824	-124,510	-0,060	0,007
-633,809	-14,689	-0,068	0,031
-632,795	-200,000	0,000	-0,004
-631,780	230,321	-0,091	0,108
-630,765	585,248	0,045	-0,080
-629,751	-77,518	-0,072	-0,018
-628,736	-200,000	0,006	-0,101
-627,722	65,693	0,051	-0,037
-626,707	70,889	0,046	0,034
-625,692	131,931	-0,106	0,098
-624,678	-200,000	-0,002	0,010
-623,663	96,366	0,044	-0,037
-622,649	-115,302	-0,045	-0,006
-621,634	-126,166	0,056	-0,006
-620,619	53,365	-0,114	-0,079
-619,605	168,264	0,096	0,099
-618,590	29,014	0,071	0,043
-617,576	-200,000	0,003	0,169
-616,561	229,809	-0,046	-0,054
-615,546	-66,530	-0,116	0,033
-614,532	-200,000	0,007	-0,095
-613,517	25,436	-0,038	0,023
-612,503	565,359	-0,036	0,063
-611,488	-200,000	0,057	0,190
-610,474	-200,000	0,028	0,115
-609,459	-200,000	-0,015	-0,052
-608,444	74,614	-0,019	0,015
-607,430	-200,000	0,003	0,063
-606,415	395,541	0,040	0,060
-605,401	-200,000	-0,014	0,098
-604,386	388,414	0,040	0,059
-603,371	-74,134	0,170	0,044
-602,357	800,000	0,049	0,114
-601,342	-200,000	-0,023	-0,102
-600,328	-200,000	0,020	-0,084
-599,313	646,443	-0,089	-0,164
-598,298	415,285	0,036	0,056
-597,284	19,096	0,088	0,051
-596,269	-55,607	0,082	0,026
-595,255	20,668	-0,050	0,029
-594,240	32,175	-0,064	-0,040
-593,225	59,135	-0,122	-0,087
-592,211	32,237	-0,107	0,067
-591,196	-200,000	-0,004	0,047
-590,182	282,191	-0,092	0,119
-589,167	800,000	-0,011	-0,029
-588,152	-11,910	-0,043	0,020
-587,138	184,683	-0,041	-0,044
-586,123	-9,442	0,104	-0,050
-585,109	-47,140	-0,183	-0,064
-584,094	-77,502	0,049	-0,012
-583,079	50,721	-0,061	-0,042
-582,065	453,925	0,047	-0,075
-581,050	-200,000	-0,005	-0,090
-580,036	800,000	-0,046	0,115
-579,021	800,000	0,077	-0,155
-578,006	-200,000	-0,006	0,098
-576,992	29,854	0,124	-0,076
-575,977	800,000	-0,063	0,140
-574,963	-5,846	-0,012	-0,006
-573,948	-137,635	-0,047	-0,004
-572,934	-200,000	-0,009	-0,115
-571,919	287,455	-0,141	-0,185
-570,904	-200,000	-0,002	-0,069
-569,890	-200,000	-0,020	0,133
-568,875	-143,315	0,059	-0,004
-567,861	414,191	0,076	0,118
-566,846	-168,776	0,160	0,004
-565,831	39,769	0,089	0,057
-564,817	47,545	-0,107	0,071
-563,802	-200,000	0,001	0,132
-562,788	-200,000	-0,008	-0,075
-561,773	319,509	0,085	-0,117
-560,758	-57,469	-0,082	-0,026
-559,744	-200,000	-0,022	-0,217
-558,729	108,502	0,044	-0,038
-557,715	-200,000	-0,083	-0,000
-556,700	-107,719	0,040	0,006
-555,685	800,000	0,017	0,035
-554,671	-200,000	0,005	-0,096
-553,656	445,905	0,032	0,051
-552,642	39,688	0,079	0,051
-551,627	-200,000	0,026	0,164
-550,612	-55,830	-0,058	0,018
-549,598	-200,000	-0,056	-0,242
-548,583	83,221	-0,047	-0,037
-547,569	327,800	-0,054	-0,075
-546,554	-200,000	0,002	0,024
-545,539	-184,766	0,080	0,001
-544,525	-200,000	0,002	0,168
-543,510	-200,000	0,016	0,055
-542,496	296,663	-0,068	-0,091
-541,481	262,651	0,050	0,063
-540,466	92,542	-0,036	0,029
-539,452	-29,381	0,097	0,040
-538,437	598,438	0,045	0,081
-537,423	188,671	0,078	0,084
-536,408	800,000	-0,043	-0,128
-535,393	-200,000	-0,001	-0,130
-534,379	-200,000	0,011	0,092
-533,364	-21,664	-0,059	0,026
-532,350	-153,040	-0,008	0,000
-531,335	275,407	0,104	-0,133
-530,321	44,434	0,118	0,077
-529,306	-177,130	-0,053	-0,001
-528,291	-200,000	0,002	-0,098
-527,277	43,953	-0,116	-0,076
-526,262	-74,238	0,067	0,017
-525,248	51,325	0,102	0,070
-524,233	197,997	0,037	0,041
-523,218	-98,290	0,044	-0,008
-522,204	-200,000	-0,009	0,039
-521,189	-182,088	0,093	0,001
-520,175	73,443	0,075	-0,057
-519,160	-200,000	-0,002	-0,044
-518,145	9,727	-0,104	-0,057
-517,131	304,308	-0,075	0,100
-516,116	-110,227	0,034	0,005
-515,102	800,000	-0,046	-0,098
-514,087	-200,000	0,002	0,035
-513,072	694,446	-0,034	-0,064
-512,058	-136,717	0,063	-0,005
-511,043	199,879	0,111	-0,123
-510,029	-200,000	-0,012	0,059
-509,014	-6,810	0,109	0,053
-507,999	248,262	-0,046	0,056
-506,985	-2,314	-0,068	0,034
-505,970	-200,000	-0,017	-0,220
-504,956	24,303	-0,048	-0,028
-503,941	-200,000	-0,042	-0,143
-502,926	-200,000	-0,018	0,097
-501,912	-200,000	-0,011	0,113
-500,897	-25,749	-0,100	-0,042
-499,883	-0,998	-0,115	-0,058
-498,868	800,000	0,021	-0,063
-497,853	-200,000	-0,014	-0,053
-496,839	-76,634	0,067	0,017
-495,824	-200,000	-0,014	0,114
-494,810	-50,234	-0,074	0,025
-493,795	294,057	-0,059	-0,077
-492,781	-200,000	-0,006	0,061
-491,766	-200,000	0,006	-0,115
-490,751	328,744	0,054	-0,075
-489,737	22,938	-0,040	-0,023
-488,722	-200,000	0,010	0,115
-487,708	128,121	0,056	0,051
-486,693	38,470	0,059	0,037
-485,678	-200,000	0,017	-0,177
-484,664	-63,257	-0,180	-0,053
-483,649	-200,000	0,007	-0,065
-482,635	-53,425	-0,076	-0,025
-481,620	-200,000	-0,016	-0,085
-480,605	800,000	0,040	0,088
-479,591	800,000	0,024	0,067
-478,576	800,000	-0,063	0,168
-477,562	-200,000	-0,007	-0,106
-476,547	-105,789	-0,041	0,007
-475,532	800,000	-0,029	-0,065
-474,518	800,000	-0,020	0,052
-473,503	-81,685	0,090	-0,021
-472,489	-118,930	0,015	0,002
-471,474	-200,000	0,041	0,134
-470,459	800,000	-0,055	-0,122
-469,445	-200,000	-0,012	-0,064
-468,430	800,000	-0,029	-0,078
-467,416	359,809	0,048	0,069
-466,401	114,928	0,024	-0,021
-465,386	800,000	0,040	0,091
-464,372	-200,000	-0,021	0,076
-463,357	-200,000	0,014	-0,064
-462,343	-133,120	-0,171	-0,015
-461,328	192,805	0,008	-0,009
-460,313	800,000	0,050	0,130
-459,299	44,048	0,060	-0,039
-458,284	-167,356	0,251	-0,007
-457,270	-200,000	0,000	0,057
-456,255	189,942	0,029	0,032
-455,241	37,499	-0,111	-0,070
-454,226	800,000	-0,018	-0,047
-453,211	12,116	-0,057	0,032
-452,197	-49,877	-0,058	-0,020
-451,182	-38,113	-0,086	0,033
-450,168	-135,514	0,059	0,005
-449,153	-149,477	0,009	-0,000
-448,138	-54,049	-0,170	0,055
-447,124	13,967	-0,065	-0,036
-446,109	-120,629	0,095	0,011
-445,095	562,273	-0,048	-0,084
-444,080	334,571	-0,027	0,037
-443,065	-106,075	0,130	0,021
-442,051	-200,000	-0,014	-0,205
-441,036	3,554	-0,096	-0,050
-440,022	221,341	-0,012	0,013
-439,007	765,754	-0,070	0,137
-437,992	-79,428	0,155	-0,037
-436,978	17,703	0,082	0,046
-435,963	-200,000	-0,002	0,143
-434,949	61,514	0,069	-0,049
-433,934	220,113	0,016	-0,019
-432,919	-99,427	0,096	0,017
-431,905	30,631	0,062	0,038
-430,890	-44,584	0,144	-0,051
-429,876	103,568	-0,111	0,093
-428,861	800,000	0,040	0,126
-427,846	68,474	-0,053	0,039
-426,832	44,758	-0,125	0,082
-425,817	141,149	-0,078	0,074
-424,803	32,916	0,113	-0,070
-423,788	-101,353	0,037	-0,006
-422,773	264,241	-0,041	0,051
-421,759	-200,000	-0,024	0,111
-420,744	-80,386	0,064	0,015
-419,730	-200,000	-0,013	-0,140
-418,715	-200,000	0,042	-0,146
-417,701	-155,247	-0,028	-0,001
-416,686	-53,199	0,131	-0,043
-415,671	750,348	-0,057	0,111
-414,657	74,941	0,069	0,052
-413,642	-200,000	-0,025	-0,114
-412,628	-15,570	-0,117	-0,053
-411,613	573,847	-0,060	-0,105
-410,598	-89,642	-0,131	-0,027
-409,584	-23,244	0,056	0,024
-408,569	282,698	0,067	0,086
-407,555	141,512	0,029	0,027
-406,540	753,593	-0,029	-0,056
-405,525	322,798	-0,111	-0,151
-404,511	109,757	-0,120	-0,103
-403,496	394,931	0,084	-0,126
-402,482	-200,000	0,006	-0,049
-401,467	-106,401	0,037	0,006
-400,452	11,619	0,172	-0,094
-399,438	79,566	0,074	-0,057
-398,423	800,000	0,048	0,108
-397,409	800,000	0,111	-0,225
-396,394	800,000	0,046	-0,125
-395,379	49,459	0,050	0,033
-394,365	-164,778	0,091	0,003
-393,350	-65,986	-0,051	0,014
-392,336	247,703	0,084	0,102
-391,321	737,227	0,038	-0,073
-390,306	-200,000	0,022	-0,087
-389,292	-200,000	0,016	0,053
-388,277	-11,695	0,046	0,021
-387,263	-200,000	-0,012	0,092
-386,248	108,149	-0,013	0,011
-385,233	800,000	-0,031	-0,069
-384,219	1,875	0,029	-0,015
-383,204	257,092	-0,113	-0,139
-382,190	220,558	0,017	-0,019
-381,175	-200,000	-0,006	-0,018
-380,160	-200,000	-0,009	0,039
-379,146	3,318	0,135	-0,070
-378,131	174,888	0,088	0,091
-377,117	266,181	-0,080	-0,100
-376,102	-200,000	-0,001	-0,176
-375,088	-200,000	-0,010	-0,089
-374,073	18,583	0,023	0,013
-373,058	-200,000	0,011	-0,089
-372,044	-181,717	0,101	0,001
-371,029	800,000	-0,056	0,112
-370,015	159,028	0,069	-0,069
-369,000	800,000	0,017	0,049
-367,985	16,221	-0,075	-0,042
-366,971	148,853	0,070	-0,067
-365,956	-200,000	0,014	-0,114
-364,942	-200,000	-0,002	0,100
-363,927	-153,671	-0,050	0,002
-362,912	66,832	0,110	-0,080
-361,898	-99,768	-0,129	0,023
-360,883	-68,362	-0,154	-0,042
-359,869	-109,494	0,116	-0,017
-358,854	-71,854	0,092	0,024
-357,839	-26,186	-0,061	0,025
-356,825	231,229	0,073	0,086
-355,810	800,000	0,028	0,088
-354,796	118,261	0,040	0,035
-353,781	-200,000	-0,019	-0,101
-352,766	29,370	-0,082	-0,049
-351,752	89,714	0,105	0,084
-350,737	-200,000	-0,022	0,112
-349,723	-200,000	0,028	-0,155
-348,708	125,658	-0,091	0,082
-347,693	-17,516	0,079	-0,035
-346,679	-157,172	-0,113	-0,005
-345,664	800,000	0,035	-0,085
-344,650	-126,315	0,108	-0,011
-343,635	25,105	-0,075	0,044
-342,620	-43,396	-0,101	0,036
-341,606	-125,232	0,086	0,009
-340,591	800,000	-0,002	0,005
-339,577	800,000	0,016	0,043
-338,562	793,970	-0,033	-0,066
-337,548	-200,000	0,005	0,027
-336,533	290,028	-0,063	-0,082
-335,518	-200,000	0,026	0,114
-334,504	800,000	-0,033	0,077
-333,489	289,217	-0,082	-0,106
-332,475	800,000	-0,039	-0,113
-331,460	189,778	-0,055	-0,059
-330,445	175,383	0,034	0,035
-329,431	124,900	0,043	0,039
-328,416	688,546	-0,033	0,062
-327,402	-200,000	0,013	0,083
-326,387	-200,000	-0,008	0,042
-325,372	-140,230	0,058	-0,004
-324,358	800,000	-0,009	-0,023
-323,343	369,993	-0,036	0,053
-322,329	800,000	0,024	0,068
-321,314	-200,000	0,004	0,126
-320,299	28,923	0,091	-0,055
-319,285	267,262	-0,062	-0,077
-318,270	5,680	0,015	-0,008
-317,256	699,075	-0,109	-0,204
-316,241	-200,000	0,001	-0,130
-315,226	145,143	0,133	0,127
-314,212	-200,000	0,025	-0,083
-313,197	-200,000	0,025	-0,122
-312,183	358,436	-0,060	0,086
-311,168	-200,000	-0,002	-0,039
-310,153	-109,977	-0,101	-0,015
-309,139	-94,811	-0,045	-0,009
-308,124	-172,988	0,038	-0,001
-307,110	88,031	-0,049	-0,038
-306,095	-34,915	0,023	0,009
-305,080	-113,509	0,071	0,010
-304,066	47,078	0,027	0,018
-303,051	800,000	-0,016	0,045
-302,037	77,676	-0,079	0,060
-301,022	-161,179	-0,064	0,002
-300,008	-103,358	0,072	0,012
-298,993	-200,000	0,005	0,097
-297,978	-200,000	0,027	0,121
-296,964	400,180	-0,077	0,115
-295,949	593,901	-0,018	-0,032
-294,935	-200,000	0,017	-0,121
-293,920	88,912	-0,100	0,079
-292,905	-158,620	0,069	0,003
-291,891	-200,000	0,033	0,228
-290,876	-200,000	-0,019	-0,083
-289,862	-101,075	-0,087	-0,015
-288,847	-42,521	-0,186	-0,067
-287,832	800,000	-0,071	-0,142
-286,818	-200,000	-0,007	0,132
-285,803	-53,193	0,167	0,054
-284,789	10,812	-0,031	0,017
-283,774	-91,825	-0,028	-0,006
-282,759	221,906	-0,017	0,019
-281,745	800,000	-0,060	-0,142
-280,730	-72,550	-0,085	-0,022
-279,716	10,759	0,145	0,079
-278,701	800,000	-0,035	0,082
-277,686	84,647	-0,077	-0,060
-276,672	463,288	0,074	0,118
-275,657	-62,394	0,055	-0,016
-274,643	109,991	0,083	-0,071
-273,628	-39,722	-0,118	-0,044
-272,613	409,745	0,042	0,064
-271,599	-25,463	0,109	0,046
-270,584	29,326	-0,047	0,028
-269,570	23,660	0,024	0,014
-268,555	800,000	0,041	0,095
-267,540	176,683	0,034	-0,036
-266,526	-39,748	0,045	0,017
-265,511	-19,875	-0,060	-0,026
-264,497	-200,000	0,030	-0,253
-263,482	-112,989	-0,091	0,013
-262,467	-103,186	-0,109	0,018
-261,453	434,473	-0,018	-0,027
-260,438	-200,000	0,001	0,010
-259,424	188,036	0,049	-0,053
-258,409	-200,000	-0,028	-0,104
-257,395	-157,801	0,076	0,003
-256,380	-200,000	-0,005	0,035
-255,365	287,568	0,048	-0,061
-254,351	-112,653	0,067	-0,009
-253,336	789,396	-0,024	-0,046
-252,322	-164,841	0,005	0,000
-251,307	-200,000	0,006	0,072
-250,292	-60,237	0,025	-0,007
-249,278	-143,688	0,159	-0,011
-248,263	800,000	0,042	0,129
-247,249	3,929	-0,034	-0,018
-246,234	138,089	-0,031	0,029
-245,219	-200,000	0,009	-0,044
-244,205	-27,862	-0,085	0,035
-243,190	75,599	-0,093	-0,070
-242,176	35,875	0,062	0,039
-241,161	158,547	0,016	0,016
-240,146	150,660	-0,062	0,060
-239,132	800,000	0,030	-0,062
-238,117	278,200	-0,101	0,128
-237,103	-200,000	-0,019	-0,125
-236,088	-153,278	0,017	0,001
-235,073	-200,000	0,054	-0,170
-234,059	400,793	-0,034	0,050
-233,044	154,052	-0,046	0,045
-232,030	-200,000	-0,002	-0,112
-231,015	-200,000	0,035	-0,165
-230,000	-90,334	0,036	0,007
-228,986	211,589	0,115	0,129
-227,971	63,573	-0,043	0,031
-226,957	-31,782	0,070	0,028
-225,942	-113,603	0,115	0,016
-224,927	-38,402	-0,096	0,036
-223,913	-50,287	-0,098	0,033
-222,898	230,497	-0,014	-0,016
-221,884	539,706	0,095	0,161
-220,869	-71,653	0,079	0,021
-219,855	-200,000	-0,002	0,085
-218,840	-200,000	-0,032	-0,136
-217,825	-119,773	0,037	-0,004
-216,811	341,748	-0,072	0,101
-215,796	8,270	-0,043	0,023
-214,782	-200,000	-0,006	0,052
-213,767	-200,000	-0,041	0,156
-212,752	800,000	0,059	0,122
-211,738	217,316	0,121	0,137
-210,723	14,650	-0,109	0,060
-209,709	144,528	0,118	0,112
-208,694	-33,740	-0,084	0,033
-207,679	800,000	-0,026	0,064
-206,665	-15,312	0,122	-0,055
-205,650	-112,549	0,112	0,016
-204,636	-200,000	-0,030	0,110
-203,621	-164,848	0,060	-0,002
-202,606	239,070	-0,058	-0,068
-201,592	-108,836	-0,071	-0,011
-200,577	-147,069	0,028	-0,002
-199,563	-200,000	0,008	0,099
-198,548	194,687	0,079	-0,085
-197,533	-200,000	0,008	-0,061
-196,519	-200,000	-0,023	-0,096
-195,504	800,000	-0,071	-0,141
-194,490	151,816	-0,075	-0,073
-193,475	179,435	-0,064	-0,066
-192,460	247,840	0,069	0,083
-191,446	-102,734	0,031	-0,005
-190,431	-200,000	-0,011	0,109
-189,417	-9,145	-0,055	0,026
-188,402	312,490	0,072	0,097
-187,387	363,153	-0,043	-0,062
-186,373	76,893	0,068	0,052
-185,358	227,570	-0,088	0,101
-184,344	-178,144	-0,103	-0,002
-183,329	191,149	0,095	0,101
-182,315	-200,000	0,017	0,124
-181,300	111,074	-0,123	-0,105
-180,285	-200,000	-0,016	-0,067
-179,271	122,406	-0,050	-0,044
-178,256	-200,000	0,023	-0,086
-177,242	5,781	0,030	0,016
-176,227	-200,000	0,007	0,128
-175,212	609,319	-0,077	-0,136
-174,198	-200,000	-0,006	-0,025
-173,183	-159,977	-0,140	-0,005
-172,169	-15,849	0,177	-0,079
-171,154	800,000	0,033	0,076
-170,139	99,479	-0,046	-0,038
-169,125	-30,600	-0,043	-0,017
-168,110	204,623	0,110	0,121
-167,096	-200,000	0,014	0,081
-166,081	-200,000	0,007	0,036
-165,066	734,366	-0,046	-0,087
-164,052	566,648	-0,044	0,076
-163,037	211,880	-0,060	-0,067
-162,023	286,033	-0,056	0,072
-161,008	525,039	-0,077	0,128
-159,993	800,000	0,027	-0,066
-158,979	800,000	0,039	-0,090
-157,964	-52,547	0,024	0,008
-156,950	-200,000	-0,014	0,059
-155,935	24,584	0,038	0,022
-154,920	-116,160	0,113	-0,015
-153,906	800,000	-0,058	0,120
-152,891	800,000	0,044	0,093
-151,877	800,000	0,020	0,046
-150,862	-200,000	0,001	-0,124
-149,847	468,747	-0,036	-0,057
-148,833	646,580	0,033	-0,059
-147,818	538,494	0,050	-0,085
-146,804	-3,866	-0,128	0,062
-145,789	-14,693	0,011	0,005
-144,775	-135,396	0,069	-0,006
-143,760	101,811	0,069	-0,057
-142,745	90,181	-0,121	-0,096
-141,731	-19,393	-0,029	0,013
-140,716	800,000	0,017	-0,039
-139,702	-101,837	-0,091	-0,015
-138,687	60,544	0,042	0,029
-137,672	-138,025	-0,034	0,003
-136,658	-29,052	-0,155	-0,063
-135,643	35,004	0,031	0,019
-134,629	349,742	0,033	0,046
-133,614	444,040	-0,066	0,103
-132,599	-138,605	0,076	0,006
-131,585	233,110	-0,109	-0,127
-130,570	212,205	-0,080	-0,090
-129,556	-5,866	-0,074	-0,036
-128,541	658,587	-0,022	-0,041
-127,526	217,676	0,091	-0,103
-126,512	-200,000	0,011	-0,066
-125,497	150,840	0,061	0,058
-124,483	15,219	-0,058	-0,032
-123,468	-74,285	0,045	-0,011
-122,453	31,869	0,035	-0,021
-121,439	800,000	-0,009	0,023
-120,424	-200,000	0,002	-0,041
-119,410	-159,129	-0,115	-0,005
-118,395	-88,665	0,118	-0,025
-117,380	-115,177	0,126	0,017
-116,366	800,000	-0,021	-0,064
-115,351	84,906	-0,054	0,042
-114,337	-100,527	-0,064	-0,011
-113,322	-200,000	0,023	-0,135
-112,307	285,138	0,017	0,022
-111,293	275,607	-0,025	0,031
-110,278	800,000	0,039	0,082
-109,264	-200,000	-0,008	-0,050
-108,249	800,000	-0,030	0,059
-107,234	800,000	-0,064	-0,156
-106,220	599,983	-0,085	-0,150
-105,205	738,471	-0,070	0,133
-104,191	-0,807	0,109	0,054
-103,176	712,686	-0,016	0,030
-102,162	-200,000	0,012	0,122
-101,147	10,203	-0,129	-0,069
-100,132	301,769	0,059	-0,077
-99,118	-99,649	0,027	0,005
-98,103	-200,000	0,011	0,104
-97,089	14,682	0,067	0,037
-96,074	-35,094	0,076	0,029
-95,059	-134,057	-0,053	-0,005
-94,045	331,649	0,045	-0,061
-93,030	-178,942	-0,226	-0,004
-92,016	153,484	0,061	-0,059
-91,001	430,466	0,047	-0,072
-89,986	800,000	0,094	0,243
-88,972	142,836	0,039	0,037
-87,957	-200,000	0,005	0,028
-86,943	800,000	-0,043	-0,085
-85,928	46,619	-0,162	-0,106
-84,913	-12,391	-0,077	0,036
-83,899	41,122	0,028	0,018
-82,884	41,714	-0,051	-0,032
-81,870	-124,301	0,055	-0,006
-80,855	269,274	0,072	0,089
-79,840	800,000	0,012	-0,030
-78,826	5,244	-0,061	0,032
-77,811	99,657	-0,071	0,058
-76,797	-200,000	-0,021	-0,132
-75,782	498,511	0,049	-0,079
-74,767	-98,950	0,131	0,023
-73,753	-200,000	0,040	0,138
-72,738	-36,610	0,108	-0,041
-71,724	-45,609	-0,096	-0,034
-70,709	-200,000	-0,063	0,000
-69,694	47,761	0,033	0,022
-68,680	152,369	0,113	0,109
-67,665	-77,885	-0,092	0,022
-66,651	340,582	-0,026	0,036
-65,636	-200,000	-0,022	0,164
-64,622	37,717	0,058	0,036
-63,607	-200,000	-0,024	-0,091
-62,592	-200,000	-0,003	-0,041
-61,578	69,290	0,051	0,037
-60,563	213,292	0,123	0,137
-59,549	800,000	-0,056	0,138
-58,534	50,976	-2,099	-1,402
-57,519	407,810	-1,293	-1,937
-56,505	-200,000	-0,464	-4,666
-55,490	524,848	0,802	1,337
-54,476	800,000	5,378	12,148
-53,461	-200,000	21,852	343,055
-52,446	800,000	763,094	2321,147
-51,432	538,330	1660,061	2796,478
-50,417	70,370	1657,024	1207,423
-49,403	17,041	1531,124	854,172
-48,388	11,099	1455,583	783,315
-47,373	19,321	1447,092	818,126
-46,359	14,539	1436,189	789,215
-45,344	9,485	1431,950	762,814
-44,330	9,425	1429,955	761,439
-43,315	9,408	1428,170	760,377
-42,300	9,420	1426,488	759,509
-41,286	9,456	1425,068	758,894
-40,271	9,413	1423,943	758,057
-39,257	9,370	1422,931	757,284
-38,242	9,390	1421,803	756,752
-37,227	9,408	1420,564	756,145
-36,213	9,436	1419,213	755,530
-35,198	9,418	1418,008	754,772
-34,184	9,438	1417,109	754,361
-33,169	9,321	1415,838	753,103
-32,154	9,429	1414,882	753,072
-31,140	9,393	1413,503	752,138
-30,125	9,456	1412,268	751,748
-29,111	9,431	1411,193	751,028
-28,096	9,389	1410,095	750,218
-27,082	9,415	1408,790	749,615
-26,067	9,340	1407,908	748,765
-25,052	9,388	1406,629	748,281
-24,038	9,386	1405,819	747,807
-23,023	9,372	1405,009	747,281
-22,009	9,391	1403,903	746,755
-20,994	9,414	1402,719	746,203
-19,979	9,356	1402,033	745,538
-18,965	9,306	1401,145	744,801
-17,950	9,299	1400,164	744,219
-16,936	9,334	1399,133	743,805
-15,921	9,253	1398,248	742,926
-14,906	9,266	1397,335	742,474
-13,892	9,272	1396,377	741,962
-12,877	9,295	1395,745	741,705
-11,863	9,248	1394,871	740,993
-10,848	9,244	1393,775	740,364
-9,833	9,234	1392,764	739,747
-8,819	9,177	1392,180	739,147
-7,804	9,155	1391,230	738,509
-6,790	9,190	1389,763	737,862
-5,775	9,182	1389,108	737,450
-4,760	9,209	1388,130	737,025
-3,746	9,193	1387,062	736,353
-2,731	9,214	1386,118	735,923
-1,717	9,179	1385,416	735,357
-0,702	9,151	1383,648	734,260
0,313	13,140	1295,384	705,635
1,327	28,963	685,901	409,324
2,342	45,462	118,366	76,940
3,356	-1,136	16,591	8,245
4,371	1,708	3,706	1,877
5,386	12,773	1,191	0,647
6,400	800,000	0,241	0,618
7,415	-1,829	-0,173	-0,086
8,429	126,492	-0,177	-0,158
9,444	91,989	-0,312	-0,247
10,459	100,596	-0,173	-0,142
11,473	7,927	-0,396	-0,209
12,488	186,296	-0,196	-0,206
13,502	-14,737	-0,196	-0,088
14,517	-47,469	-0,477	-0,163
15,531	127,818	-0,340	-0,305
16,546	-36,001	-0,335	-0,127
17,561	193,160	-0,274	-0,292
18,575	-90,408	-0,375	0,076
19,590	96,180	-0,211	-0,169
20,604	4,063	-0,302	-0,155
21,619	463,500	-0,302	-0,476
22,634	171,469	-0,356	-0,360
23,648	-24,283	-0,401	-0,168
24,663	41,186	-0,430	-0,273
25,677	53,344	-0,382	-0,257
26,692	-43,580	-0,377	-0,133
27,707	80,115	-0,284	-0,215
28,721	65,230	-0,435	-0,309
29,736	-19,357	-0,403	-0,175
30,750	-25,189	-0,420	-0,174
31,765	152,843	-0,325	-0,313
32,780	151,039	-0,288	-0,276
33,794	62,309	-0,356	-0,250
34,809	11,956	-0,336	-0,181
35,823	116,202	-0,395	-0,341
36,838	-23,530	-0,448	-0,188
37,853	238,457	-0,302	-0,353
38,867	293,300	-0,285	-0,367
39,882	-5,662	-0,449	-0,216
40,896	193,955	-0,279	-0,298
41,911	18,545	-0,392	-0,220
42,926	46,743	-0,382	-0,249
43,940	167,975	-0,243	-0,243
44,955	62,399	-0,299	-0,209
45,969	-8,423	-0,379	-0,178
46,984	76,937	-0,297	-0,221
47,999	10,026	-0,353	-0,188
49,013	251,227	-0,222	-0,266
50,028	-6,166	-0,396	-0,189
51,042	43,114	-0,457	-0,292
52,057	1,249	-0,326	-0,164
53,071	99,759	-0,351	-0,285
54,086	-6,492	-0,270	-0,129
55,101	13,773	-0,343	-0,187
56,115	-35,112	-0,453	-0,173
57,130	122,569	-0,342	-0,300
58,144	89,658	-0,382	-0,299
59,159	241,852	-0,368	-0,433
60,174	26,879	-0,432	-0,254
61,188	290,657	-0,208	-0,266
62,203	-99,467	-0,385	-0,067
63,217	-86,098	-0,493	-0,106
64,232	99,583	-0,285	-0,231
65,247	29,602	-0,335	-0,200
66,261	52,178	-0,273	-0,183
67,276	59,667	-0,345	-0,239
68,290	36,375	-0,273	-0,168
69,305	146,025	-0,311	-0,292
70,320	-50,300	-0,278	-0,092
71,334	109,614	-0,289	-0,243
72,349	55,828	-0,329	-0,223
73,363	148,149	-0,361	-0,342
74,378	191,552	-0,242	-0,255
75,393	50,099	-0,314	-0,207
76,407	525,615	-0,161	-0,266
77,422	-105,353	-0,337	-0,053
78,436	363,276	-0,213	-0,301
79,451	-7,823	-0,272	-0,128
80,466	-106,717	-0,260	-0,040
81,480	-88,966	-0,429	-0,088
82,495	-39,337	-0,279	-0,102
83,509	232,652	-0,195	-0,225
84,524	-10,673	-0,300	-0,138
85,539	3,986	-0,310	-0,158
86,553	2,617	-0,284	-0,143
87,568	164,814	-0,269	-0,266
88,582	54,095	-0,284	-0,191
89,597	-53,954	-0,270	-0,086
90,611	-53,401	-0,212	-0,067
91,626	366,590	-0,125	-0,177
92,641	-4,137	-0,411	-0,199
93,655	58,403	-0,360	-0,247
94,670	114,673	-0,274	-0,234
95,684	-83,165	-0,298	-0,066
96,699	-115,537	-0,339	-0,044
97,714	99,543	-0,253	-0,205
98,728	176,458	-0,173	-0,177
99,743	59,369	-0,203	-0,139
100,757	2,475	-0,278	-0,140
101,772	-52,337	-0,254	-0,082
102,787	82,062	-0,151	-0,115
103,801	57,596	-0,295	-0,201
104,816	22,171	-0,154	-0,088
105,830	-69,006	-0,325	-0,087
106,845	634,013	-0,125	-0,222
107,860	-94,499	-0,254	-0,048
108,874	13,494	-0,233	-0,126
109,889	174,684	-0,315	-0,318
110,903	154,146	-0,219	-0,210
111,918	50,435	-0,409	-0,270
112,933	152,705	-0,306	-0,292
113,947	312,826	-0,138	-0,181
114,962	71,776	-0,194	-0,141
115,976	28,938	-0,132	-0,078
116,991	127,817	-0,196	-0,174
118,006	209,813	-0,241	-0,264
119,020	209,291	-0,128	-0,140
120,035	386,352	-0,212	-0,306
121,049	-200,000	-0,231	-0,000
122,064	-107,425	-0,285	-0,043
123,079	-200,000	-0,258	0,000
124,093	111,008	-0,242	-0,204
125,108	83,866	-0,176	-0,134
126,122	387,551	-0,193	-0,280
127,137	190,145	-0,125	-0,131
128,151	138,541	-0,168	-0,154
129,166	-82,387	-0,214	-0,048
130,181	-9,307	-0,330	-0,153
131,195	95,537	-0,186	-0,148
132,210	79,558	-0,281	-0,210
133,224	71,349	-0,207	-0,150
134,239	173,521	-0,175	-0,176
135,254	456,919	-0,039	-0,061
136,268	57,712	-0,207	-0,141
137,283	6,052	-0,183	-0,094
138,297	-79,264	-0,376	-0,088
139,312	113,853	-0,194	-0,165
140,327	-41,338	-0,443	-0,158
141,341	773,249	-0,141	-0,270
142,356	-22,331	-0,358	-0,151
143,370	103,156	-0,168	-0,137
144,385	289,567	-0,273	-0,346
145,400	78,494	-0,378	-0,281
146,414	89,401	-0,203	-0,158
147,429	97,500	-0,237	-0,189
148,443	-85,044	-0,248	-0,054
149,458	-79,855	-0,241	-0,056
150,473	-50,428	-0,276	-0,090
151,487	-111,337	-0,260	-0,037
152,502	4,029	-0,286	-0,145
153,516	61,338	-0,206	-0,142
154,531	372,830	-0,295	-0,418
155,546	14,161	-0,233	-0,126
156,560	81,709	-0,236	-0,177
157,575	-76,988	-0,231	-0,056
158,589	-7,480	-0,291	-0,137
159,604	51,388	-0,096	-0,063
160,619	75,261	-0,302	-0,221
161,633	192,578	-0,192	-0,201
162,648	153,438	-0,178	-0,170
163,662	-103,619	-0,234	-0,038
164,677	-7,114	-0,213	-0,100
165,692	-56,563	-0,313	0,096
166,706	-5,130	-0,251	-0,120
167,721	58,023	-0,211	-0,144
168,735	82,520	-0,292	-0,220
169,750	19,051	-0,262	-0,146
170,764	157,374	-0,079	-0,076
171,779	-184,609	-0,261	-0,003
172,794	295,766	-0,132	-0,168
173,808	79,737	-0,118	-0,088
174,823	6,687	-0,312	-0,161
175,837	-141,522	-0,349	0,024
176,852	-16,616	-0,260	-0,114
177,867	90,700	-0,125	-0,097
178,881	5,050	-0,248	-0,127
179,896	198,862	-0,146	-0,155
180,910	61,210	-0,259	-0,179
181,925	-77,000	-0,221	-0,053
182,940	41,860	-0,190	-0,119
183,954	102,589	-0,159	-0,129
184,969	36,382	-0,319	-0,195
185,983	33,510	-0,127	0,077
186,998	87,385	-0,180	-0,138
188,013	-5,937	-0,265	-0,125
189,027	115,576	-0,210	-0,178
190,042	46,370	-0,288	-0,185
191,056	53,625	-0,278	-0,185
192,071	187,526	-0,056	-0,058
193,086	-82,092	-0,140	0,031
194,100	52,270	-0,207	-0,137
195,115	56,773	-0,229	-0,154
196,129	800,000	-0,124	-0,274
197,144	504,815	-0,097	-0,156
198,159	614,119	-0,117	-0,204
199,173	-198,591	-0,162	-0,001
200,188	-200,000	0,014	-0,055
201,202	220,510	-0,151	-0,168
202,217	14,517	-0,089	-0,048
203,232	165,130	-0,191	-0,187
204,246	34,243	-0,285	-0,172
205,261	23,225	-0,257	-0,146
206,275	248,632	-0,130	-0,153
207,290	-19,960	-0,201	-0,086
208,304	-146,938	-0,157	-0,009
209,319	-17,504	-0,188	-0,081
210,334	800,000	-0,044	-0,113
211,348	225,001	-0,094	-0,106
212,363	233,210	-0,292	-0,333
213,377	245,083	-0,213	-0,248
214,392	2,448	-0,203	-0,102
215,407	319,320	-0,114	-0,150
216,421	800,000	-0,102	-0,199
217,436	40,764	-0,260	-0,162
218,450	122,450	-0,133	-0,115
219,465	99,053	-0,167	-0,133
220,480	-19,215	-0,230	-0,098
221,494	123,909	-0,173	-0,151
222,509	259,928	-0,161	-0,192
223,523	-120,609	-0,207	0,024
224,538	95,984	-0,110	-0,087
225,553	401,991	-0,162	-0,237
226,567	26,157	-0,209	-0,120
227,582	1,761	-0,198	-0,098
228,596	-32,004	-0,109	-0,042
229,611	-187,101	-0,097	0,001
230,626	457,892	-0,067	-0,104
231,640	79,536	-0,121	-0,090
232,655	169,740	-0,200	-0,198
233,669	204,253	-0,179	-0,192
234,684	534,000	-0,184	-0,303
235,699	37,352	-0,169	-0,103
236,713	800,000	-0,036	-0,083
237,728	43,102	-0,161	-0,101
238,742	-71,955	-0,214	-0,055
239,757	-10,491	-0,211	-0,096
240,772	621,529	-0,154	-0,270
241,786	48,155	-0,146	-0,094
242,801	-94,182	-0,224	-0,042
243,815	-39,104	-0,188	-0,068
244,830	514,739	-0,055	-0,089
245,844	159,535	-0,090	-0,087
246,859	-108,070	-0,166	-0,025
247,874	243,586	-0,165	-0,192
248,888	-60,002	-0,231	-0,068
249,903	-200,000	-0,009	-0,137
250,917	329,457	-0,123	-0,164
251,932	146,005	-0,090	0,084
252,947	-101,784	-0,199	-0,033
253,961	-42,219	-0,297	-0,104
254,976	378,945	-0,097	-0,138
255,990	83,033	-0,265	-0,199
257,005	-19,117	-0,139	-0,059
258,020	108,693	-0,253	-0,208
259,034	-66,631	-0,209	-0,057
260,049	-72,531	-0,229	0,058
261,063	244,050	-0,123	-0,142
262,078	88,741	-0,148	-0,113
263,093	95,660	-0,204	-0,160
264,107	307,159	-0,167	-0,215
265,122	-52,213	-0,161	-0,051
266,136	-33,247	0,082	-0,031
267,151	500,524	-0,040	-0,064
268,166	142,681	-0,236	-0,216
269,180	-98,361	-0,070	-0,012
270,195	38,716	-0,245	-0,150
271,209	800,000	-0,065	-0,149
272,224	609,440	-0,060	-0,103
273,239	-34,691	-0,124	-0,046
274,253	191,275	-0,154	-0,160
275,268	113,477	-0,142	-0,119
276,282	172,367	-0,167	-0,166
277,297	630,074	-0,125	-0,219
278,312	-21,216	-0,232	-0,097
279,326	138,882	-0,118	-0,107
280,341	-110,194	-0,259	0,037
281,355	-58,234	-0,171	0,051
282,370	33,903	-0,223	-0,133
283,384	-4,677	-0,178	-0,084
284,399	65,508	-0,266	-0,185
285,414	101,442	-0,185	-0,149
286,428	-9,340	-0,192	-0,088
287,443	86,791	-0,137	-0,104
288,457	13,085	-0,125	-0,066
289,472	106,597	0,019	0,016
290,487	-8,886	-0,284	-0,131
291,501	-158,449	-0,013	0,000
292,516	-31,477	-0,198	-0,076
293,530	-55,957	-0,206	-0,063
294,545	50,941	-0,220	-0,143
295,560	229,456	-0,096	-0,108
296,574	100,301	-0,121	-0,097
297,589	41,008	-0,184	-0,114
298,603	28,510	-0,051	-0,030
299,618	-192,348	-0,145	-0,001
300,633	271,545	-0,056	-0,068
301,647	72,546	-0,139	-0,099
302,662	-7,884	-0,084	0,039
303,676	-27,153	-0,153	-0,061
304,691	-198,951	-0,248	0,001
305,706	375,029	-0,098	-0,138
306,720	12,483	-0,242	-0,128
307,735	800,000	-0,062	-0,145
308,749	-200,000	-0,006	-0,212
309,764	17,192	-0,042	0,023
310,779	88,005	-0,135	-0,103
311,793	70,768	-0,133	-0,094
312,808	-125,415	-0,230	-0,024
313,822	-33,490	-0,146	-0,055
314,837	-200,000	-0,030	-0,143
315,852	58,566	-0,172	-0,116
316,866	31,854	-0,205	-0,121
317,881	-56,504	-0,203	0,062
318,895	266,049	-0,134	-0,161
319,910	155,611	-0,186	-0,176
320,925	4,089	-0,197	-0,098
321,939	68,578	-0,229	-0,161
322,954	-200,000	-0,040	-0,161
323,968	-74,024	-0,117	-0,029
324,983	-102,058	-0,179	-0,029
325,997	435,402	-0,063	-0,094
327,012	49,060	-0,233	-0,150
328,027	226,129	-0,096	-0,107
329,041	478,555	-0,160	-0,249
330,056	502,584	-0,080	-0,128
331,070	204,693	0,077	0,082
332,085	-118,720	-0,203	-0,024
333,100	-64,188	-0,132	-0,037
334,114	43,329	-0,195	-0,122
335,129	-64,547	-0,171	-0,047
336,143	-200,000	0,006	-0,058
337,158	-99,720	-0,173	-0,029
338,173	0,358	-0,082	0,040
339,187	87,224	-0,094	-0,071
340,202	73,789	-0,091	-0,066
341,216	800,000	-0,072	-0,154
342,231	-200,000	-0,044	-0,175
343,246	-200,000	0,003	-0,164
344,260	-62,447	-0,236	-0,067
345,275	106,055	-0,024	0,020
346,289	174,435	-0,069	-0,068
347,304	21,366	-0,206	-0,114
348,319	295,346	-0,149	-0,188
349,333	-32,555	-0,100	-0,038
350,348	397,065	-0,129	-0,185
351,362	-11,568	-0,096	-0,043
352,377	-156,866	-0,111	-0,005
353,392	41,232	-0,123	-0,076
354,406	202,359	-0,128	-0,135
355,421	207,096	1310,988	1399,745
356,435	159,297	1471,222	1400,210
