DTS Sentinel unit serial number:	SN410029Multiplexer serial number:	ORYXHardware model number:	OX2-SRSoftware version number:	ORYX F/W v4,00 Oryx Data Collector v3.7.2.0data status	okinstallation	B3 Nyhavnadifferential loss correction	single-endedforward channel	channel 1reverse channel	N/Adate	2023/11/29time	21:07:30forward acquisition time	300,00reverse acquisition time	0,00gamma	499,1914k internal	0,3210k external	0,3210temperature offset calibration	1,0000default loss term (dB/km)	0,3820temperature slope calibration	1,0000multiplexer offset coefficient	1,0000multiplexer slope coefficient	1,0000fibre end	0,00T internal ref (°C)	10,81T ext. ref 1 (°C)	-4,26T ext. ref 2 (°C)	-4,34length (m)	temperature (°C)	Stokes	anti-Stokes-744,400	315,484	-0,124	-0,169
-743,385	-200,000	-0,030	0,198
-742,371	237,551	-0,186	-0,224
-741,356	-200,000	0,036	0,380
-740,342	800,000	-0,088	-0,195
-739,327	-200,000	0,027	0,360
-738,312	580,627	-0,165	-0,294
-737,298	-200,000	0,072	0,257
-736,283	355,296	-0,161	-0,233
-735,269	-200,000	-0,015	0,168
-734,254	146,016	-0,068	-0,066
-733,239	-118,256	-0,205	-0,026
-732,225	290,469	-0,184	-0,242
-731,210	517,140	0,104	0,177
-730,196	-200,000	0,022	-0,098
-729,181	271,678	0,046	-0,059
-728,167	-200,000	-0,025	-0,108
-727,152	-23,472	-0,070	0,030
-726,137	-200,000	0,000	0,122
-725,123	-74,753	-0,219	-0,057
-724,108	-200,000	-0,039	-0,164
-723,094	-200,000	-0,017	-0,137
-722,079	34,882	-0,121	-0,076
-721,064	-200,000	0,022	-0,165
-720,050	491,509	-0,050	0,084
-719,035	-107,449	0,012	-0,002
-718,021	374,723	-0,034	0,050
-717,006	-21,783	-0,096	-0,042
-715,991	-76,727	-0,077	0,019
-714,977	378,980	-0,055	-0,082
-713,962	111,900	0,024	0,021
-712,948	-200,000	-0,008	-0,071
-711,933	12,362	0,007	-0,004
-710,918	194,617	-0,021	-0,024
-709,904	-200,000	-0,003	-0,030
-708,889	-5,321	-0,067	0,033
-707,875	-200,000	-0,040	-0,161
-706,860	-152,307	0,097	0,005
-705,845	-29,903	0,093	0,038
-704,831	800,000	-0,039	-0,084
-703,816	800,000	-0,065	-0,147
-702,802	-200,000	0,013	-0,087
-701,787	-24,969	-0,012	-0,005
-700,772	-89,809	-0,112	0,024
-699,758	-112,933	0,131	0,019
-698,743	78,498	-0,186	0,144
-697,729	800,000	0,043	-0,106
-696,714	-36,283	-0,070	0,027
-695,699	89,916	-0,060	-0,049
-694,685	159,483	0,015	0,015
-693,670	123,279	-0,063	-0,057
-692,656	-200,000	-0,043	-0,144
-691,641	-75,612	0,018	-0,004
-690,627	412,683	0,030	0,047
-689,612	-200,000	-0,016	0,078
-688,597	-35,541	0,146	-0,057
-687,583	800,000	0,021	-0,044
-686,568	17,473	-0,043	0,024
-685,554	-200,000	-0,021	-0,115
-684,539	124,090	-0,048	0,043
-683,524	372,658	0,030	-0,044
-682,510	82,045	0,076	-0,059
-681,495	244,240	0,022	0,027
-680,481	-200,000	0,005	-0,021
-679,466	206,529	-0,063	-0,071
-678,451	-19,141	-0,035	-0,016
-677,437	-200,000	-0,004	-0,073
-676,422	220,540	-0,043	-0,049
-675,408	-127,616	0,161	0,017
-674,393	-200,000	0,009	-0,033
-673,378	-189,231	0,097	-0,001
-672,364	800,000	-0,046	-0,110
-671,349	-200,000	-0,034	-0,130
-670,335	-200,000	-0,007	-0,031
-669,320	273,237	-0,040	0,052
-668,305	-108,617	-0,117	-0,018
-667,291	237,620	0,072	-0,086
-666,276	-17,373	-0,030	0,014
-665,262	-103,902	-0,052	0,009
-664,247	459,450	-0,031	-0,050
-663,232	84,358	-0,083	-0,066
-662,218	-200,000	0,010	0,041
-661,203	129,273	0,093	-0,086
-660,189	800,000	0,038	-0,107
-659,174	-63,870	-0,149	-0,044
-658,159	630,443	0,051	-0,093
-657,145	-200,000	-0,019	0,155
-656,130	100,708	0,094	0,079
-655,116	800,000	0,041	0,105
-654,101	-66,946	0,173	0,049
-653,086	-30,742	-0,113	-0,046
-652,072	-200,000	0,005	-0,038
-651,057	-200,000	0,043	-0,180
-650,043	162,848	0,071	-0,072
-649,028	409,439	-0,024	-0,037
-648,014	-91,881	-0,130	0,026
-646,999	24,608	-0,142	0,084
-645,984	-75,517	0,033	0,008
-644,970	66,266	0,058	0,043
-643,955	7,860	-0,097	0,053
-642,941	-8,150	-0,173	-0,084
-641,926	-123,032	-0,101	0,012
-640,911	-200,000	0,028	0,105
-639,897	800,000	-0,084	0,178
-638,882	-200,000	0,005	-0,096
-637,868	-167,393	0,064	-0,002
-636,853	-200,000	-0,020	-0,146
-635,838	71,202	-0,118	-0,088
-634,824	800,000	0,021	-0,047
-633,809	800,000	0,061	-0,122
-632,795	800,000	0,062	-0,133
-631,780	336,747	0,036	-0,051
-630,765	-71,742	0,049	0,013
-629,751	800,000	-0,052	-0,133
-628,736	-200,000	0,015	-0,116
-627,722	-169,503	0,071	0,002
-626,707	-200,000	0,020	-0,188
-625,692	-200,000	0,002	-0,021
-624,678	-200,000	0,029	0,129
-623,663	147,056	-0,122	-0,119
-622,649	24,197	-0,113	-0,067
-621,634	-72,365	-0,010	-0,003
-620,619	800,000	-0,049	-0,129
-619,605	-200,000	-0,024	-0,116
-618,590	302,379	0,021	0,028
-617,576	24,681	-0,047	0,028
-616,561	157,154	-0,086	0,086
-615,546	162,376	0,018	0,018
-614,532	122,588	-0,071	-0,064
-613,517	-123,673	-0,040	0,005
-612,503	-63,072	0,123	0,037
-611,488	-116,570	-0,157	-0,021
-610,474	122,854	0,023	-0,021
-609,459	25,351	-0,091	0,055
-608,444	800,000	-0,037	-0,093
-607,430	-200,000	0,017	-0,090
-606,415	-130,018	-0,114	0,011
-605,401	-200,000	-0,003	-0,051
-604,386	275,998	-0,019	-0,025
-603,371	156,153	0,072	-0,071
-602,357	800,000	-0,054	0,120
-601,342	-200,000	0,015	-0,191
-600,328	35,551	-0,088	0,055
-599,313	449,784	-0,043	-0,068
-598,298	142,330	0,092	0,088
-597,284	10,989	0,119	-0,065
-596,269	30,757	-0,051	0,032
-595,255	5,943	-0,095	-0,051
-594,240	489,328	-0,031	0,051
-593,225	-113,793	-0,089	-0,012
-592,211	673,597	0,031	0,058
-591,196	-200,000	-0,033	0,120
-590,182	-9,880	-0,021	0,010
-589,167	800,000	-0,009	0,019
-588,152	-200,000	0,008	0,035
-587,138	-153,608	0,090	-0,004
-586,123	-200,000	0,010	-0,086
-585,109	377,765	-0,083	-0,122
-584,094	71,371	0,087	-0,065
-583,079	-200,000	0,000	-0,019
-582,065	677,182	0,047	-0,089
-581,050	732,795	-0,047	0,091
-580,036	411,331	0,057	-0,087
-579,021	-109,350	-0,068	0,010
-578,006	-8,707	0,073	-0,035
-576,992	-125,649	-0,020	-0,002
-575,977	-81,755	-0,030	0,007
-574,963	800,000	-0,055	0,137
-573,948	-34,472	-0,104	-0,041
-572,934	276,314	-0,029	-0,038
-571,919	-84,071	0,107	-0,024
-570,904	-112,059	0,074	-0,011
-569,890	423,776	0,045	0,070
-568,875	259,813	-0,054	-0,067
-567,861	-200,000	-0,004	-0,074
-566,846	-25,317	-0,011	0,005
-565,831	-200,000	0,008	-0,133
-564,817	-200,000	-0,006	0,102
-563,802	13,055	-0,072	-0,040
-562,788	800,000	0,035	-0,071
-561,773	-80,877	0,151	0,036
-560,758	320,413	-0,055	0,075
-559,744	100,753	-0,098	0,082
-558,729	-200,000	-0,020	-0,173
-557,715	55,734	-0,033	-0,023
-556,700	50,975	-0,114	-0,077
-555,685	800,000	0,045	0,094
-554,671	261,519	-0,057	-0,072
-553,656	-50,676	-0,154	-0,052
-552,642	-3,868	0,149	0,074
-551,627	-200,000	-0,011	0,059
-550,612	84,812	0,026	0,020
-549,598	-200,000	0,003	0,070
-548,583	800,000	-0,033	0,080
-547,569	-200,000	0,016	0,100
-546,554	50,350	0,136	-0,092
-545,539	-148,735	0,087	0,005
-544,525	-18,464	-0,051	-0,023
-543,510	107,230	0,016	-0,014
-542,496	227,880	0,011	0,013
-541,481	800,000	0,048	-0,134
-540,466	26,747	-0,029	0,017
-539,452	-93,134	-0,167	-0,033
-538,437	-40,444	0,094	-0,035
-537,423	-200,000	-0,003	-0,059
-536,408	-200,000	-0,002	-0,010
-535,393	27,685	-0,031	0,019
-534,379	800,000	0,007	-0,020
-533,364	-9,643	0,040	-0,019
-532,350	-200,000	-0,011	0,094
-531,335	78,305	-0,101	-0,077
-530,321	-200,000	0,010	0,108
-529,306	-200,000	0,018	0,058
-528,291	-24,416	0,077	-0,033
-527,277	-200,000	-0,010	0,063
-526,262	-200,000	-0,002	0,020
-525,248	-116,467	0,204	0,027
-524,233	-200,000	-0,038	0,149
-523,218	800,000	0,046	0,111
-522,204	570,986	-0,062	0,110
-521,189	224,016	0,026	-0,030
-520,175	700,190	-0,056	-0,106
-519,160	480,937	-0,055	0,090
-518,145	333,082	0,067	0,093
-517,131	34,922	0,181	-0,114
-516,116	340,274	-0,053	0,074
-515,102	-200,000	-0,036	-0,119
-514,087	-200,000	0,002	-0,074
-513,072	4,025	-0,169	0,089
-512,058	39,803	0,165	0,106
-511,043	44,273	-0,071	-0,047
-510,029	424,911	0,058	-0,090
-509,014	349,381	0,103	0,147
-507,999	800,000	-0,045	0,113
-506,985	123,295	-0,036	-0,032
-505,970	-38,023	-0,039	-0,015
-504,956	800,000	0,045	0,095
-503,941	-158,063	-0,073	0,003
-502,926	-73,754	0,135	-0,035
-501,912	800,000	0,040	0,102
-500,897	42,250	0,071	0,046
-499,883	-200,000	-0,012	-0,044
-498,868	146,268	-0,085	-0,082
-497,853	-89,559	-0,057	0,012
-496,839	-200,000	0,031	-0,186
-495,824	-200,000	-0,009	-0,069
-494,810	-55,467	0,142	-0,045
-493,795	800,000	0,053	0,115
-492,781	107,612	-0,123	0,105
-491,766	-132,470	-0,077	-0,007
-490,751	380,703	-0,078	-0,116
-489,737	628,275	0,010	-0,017
-488,722	455,012	0,044	0,070
-487,708	-64,215	-0,134	-0,039
-486,693	321,227	-0,078	-0,107
-485,678	-200,000	-0,025	0,100
-484,664	800,000	-0,007	-0,021
-483,649	19,143	-0,109	-0,063
-482,635	-31,652	0,081	-0,033
-481,620	800,000	0,009	-0,024
-480,605	-89,389	0,009	-0,002
-479,591	-29,551	0,079	0,032
-478,576	800,000	-0,049	0,145
-477,562	561,241	0,054	-0,093
-476,547	-200,000	-0,024	0,167
-475,532	384,751	0,032	0,047
-474,518	-96,196	0,082	-0,015
-473,503	46,569	0,056	0,037
-472,489	4,212	0,125	0,066
-471,474	96,526	-0,048	0,039
-470,459	98,087	0,076	-0,062
-469,445	-105,331	-0,148	0,024
-468,430	800,000	0,048	-0,100
-467,416	-82,638	0,137	0,032
-466,401	-46,606	0,203	0,071
-465,386	32,439	-0,104	0,064
-464,372	-200,000	0,010	-0,081
-463,357	170,558	-0,133	-0,137
-462,343	26,854	0,032	-0,019
-461,328	-19,071	-0,110	-0,049
-460,313	-107,657	0,082	-0,013
-459,299	533,737	0,018	-0,031
-458,284	-200,000	0,004	0,073
-457,270	-200,000	0,015	0,094
-456,255	-84,620	-0,234	-0,052
-455,241	74,250	-0,048	-0,036
-454,226	-128,483	-0,065	-0,007
-453,211	-200,000	-0,014	0,058
-452,197	181,575	-0,071	0,075
-451,182	800,000	0,029	0,072
-450,168	256,931	0,026	0,032
-449,153	-200,000	-0,019	0,088
-448,138	326,610	-0,111	-0,153
-447,124	800,000	-0,019	0,043
-446,109	800,000	-0,023	0,050
-445,095	109,121	0,070	0,060
-444,080	-200,000	0,015	0,097
-443,065	-12,593	0,093	-0,044
-442,051	-200,000	0,010	0,041
-441,036	-200,000	-0,017	-0,056
-440,022	473,512	0,112	-0,181
-439,007	-125,623	-0,069	0,007
-437,992	-75,252	-0,058	0,015
-436,978	38,470	0,049	0,031
-435,963	800,000	0,071	0,159
-434,949	-47,676	-0,075	-0,026
-433,934	22,618	-0,146	-0,085
-432,919	800,000	0,035	-0,099
-431,905	-200,000	-0,017	-0,057
-430,890	-200,000	-0,017	-0,093
-429,876	800,000	0,053	0,114
-428,861	-200,000	-0,007	-0,034
-427,846	-87,618	-0,067	0,014
-426,832	-180,393	0,052	-0,001
-425,817	-53,126	-0,156	-0,051
-424,803	-200,000	0,023	0,085
-423,788	-122,123	-0,041	0,005
-422,773	800,000	-0,006	0,014
-421,759	-200,000	0,010	-0,033
-420,744	-22,947	0,096	-0,041
-419,730	64,008	-0,022	0,016
-418,715	124,029	-0,018	-0,017
-417,701	-25,310	-0,013	0,006
-416,686	800,000	-0,032	-0,101
-415,671	-200,000	-0,020	0,113
-414,657	-151,665	0,098	0,005
-413,642	-16,829	-0,138	-0,062
-412,628	330,877	-0,083	-0,115
-411,613	-200,000	-0,004	0,088
-410,598	-200,000	-0,018	0,064
-409,584	-200,000	-0,008	-0,049
-408,569	-59,290	0,171	0,052
-407,555	-92,598	-0,070	0,014
-406,540	416,914	0,055	0,084
-405,525	-91,961	-0,046	-0,009
-404,511	591,720	-0,043	-0,077
-403,496	800,000	-0,048	-0,110
-402,482	472,766	0,057	-0,092
-401,467	-24,414	0,117	0,050
-400,452	-200,000	-0,009	-0,052
-399,438	-139,010	0,016	-0,001
-398,423	-110,474	-0,110	-0,016
-397,409	-200,000	0,017	0,060
-396,394	-55,395	0,091	0,029
-395,379	-95,905	0,153	-0,029
-394,365	-200,000	0,005	0,101
-393,350	-200,000	0,010	0,091
-392,336	-200,000	0,008	0,141
-391,321	-101,139	0,070	0,012
-390,306	-127,707	-0,071	-0,007
-389,292	-200,000	-0,012	-0,087
-388,277	-200,000	-0,001	-0,020
-387,263	-200,000	0,014	0,074
-386,248	10,495	-0,030	0,016
-385,233	-150,903	0,056	0,003
-384,219	-134,757	-0,090	0,008
-383,204	249,485	-0,029	-0,035
-382,190	732,042	-0,020	-0,038
-381,175	116,928	-0,088	0,077
-380,160	-140,837	0,125	0,009
-379,146	-200,000	0,032	0,245
-378,131	337,815	-0,042	0,059
-377,117	-88,833	0,006	0,001
-376,102	-25,991	0,067	-0,028
-375,088	-200,000	-0,021	-0,079
-374,073	-200,000	0,028	0,172
-373,058	-200,000	-0,008	0,049
-372,044	10,927	0,194	0,106
-371,029	250,372	-0,036	-0,044
-370,015	800,000	0,082	0,196
-369,000	-146,725	-0,161	-0,010
-367,985	-200,000	-0,014	-0,059
-366,971	-143,159	0,042	0,003
-365,956	-200,000	-0,011	0,120
-364,942	800,000	0,034	0,087
-363,927	-200,000	-0,026	0,088
-362,912	800,000	-0,041	-0,084
-361,898	-200,000	0,029	-0,251
-360,883	-200,000	0,012	-0,053
-359,869	800,000	-0,069	-0,178
-358,854	366,650	0,028	-0,040
-357,839	800,000	-0,014	-0,031
-356,825	156,309	-0,111	-0,109
-355,810	-162,974	-0,140	-0,005
-354,796	365,353	-0,026	-0,037
-353,781	-19,816	0,084	-0,037
-352,766	-200,000	0,003	-0,043
-351,752	-3,893	-0,071	0,035
-350,737	348,548	0,065	-0,092
-349,723	-168,385	0,100	-0,003
-348,708	-1,143	0,109	-0,055
-347,693	99,234	0,073	0,061
-346,679	-200,000	0,014	-0,182
-345,664	-99,577	0,077	-0,014
-344,650	7,827	0,130	0,069
-343,635	-46,178	-0,091	-0,032
-342,620	239,095	0,136	-0,162
-341,606	271,269	0,073	-0,092
-340,591	130,127	-0,101	0,092
-339,577	-200,000	0,016	0,101
-338,562	-82,915	-0,028	-0,006
-337,548	-59,957	-0,042	-0,013
-336,533	98,275	-0,041	-0,034
-335,518	254,760	0,036	-0,044
-334,504	800,000	-0,027	0,057
-333,489	-200,000	0,007	0,040
-332,475	-132,259	0,114	0,010
-331,460	-200,000	0,021	0,070
-330,445	-30,904	0,135	-0,054
-329,431	728,098	0,031	0,059
-328,416	800,000	0,041	-0,108
-327,402	347,731	0,038	-0,054
-326,387	-200,000	0,004	-0,031
-325,372	-15,212	0,170	-0,077
-324,358	116,170	-0,100	-0,088
-323,343	-72,282	-0,048	0,013
-322,329	800,000	0,035	0,099
-321,314	-72,810	0,101	0,026
-320,299	-200,000	-0,025	0,137
-319,285	-200,000	-0,006	0,144
-318,270	-200,000	0,012	0,055
-317,256	83,969	-0,031	0,024
-316,241	-200,000	-0,000	0,052
-315,226	-173,891	-0,047	-0,001
-314,212	-42,029	0,161	0,059
-313,197	676,020	-0,010	0,019
-312,183	800,000	-0,039	-0,082
-311,168	165,606	-0,057	0,058
-310,153	800,000	-0,043	0,088
-309,139	148,071	0,077	0,074
-308,124	-200,000	0,002	-0,015
-307,110	245,952	0,061	-0,073
-306,095	319,938	0,048	0,065
-305,080	124,050	-0,110	0,098
-304,066	-88,899	-0,048	-0,010
-303,051	-55,789	-0,057	-0,018
-302,037	-144,174	-0,035	0,002
-301,022	117,685	0,103	0,090
-300,008	-200,000	0,017	0,132
-298,993	-195,172	0,041	-0,000
-297,978	54,516	0,096	0,066
-296,964	-112,482	-0,107	-0,015
-295,949	506,162	0,032	0,054
-294,935	-200,000	0,017	-0,058
-293,920	64,071	-0,082	0,059
-292,905	603,919	0,067	0,120
-291,891	-54,023	-0,095	-0,031
-290,876	-200,000	-0,046	0,176
-289,862	-27,075	-0,081	0,034
-288,847	-200,000	0,007	-0,070
-287,832	-200,000	-0,004	-0,048
-286,818	800,000	-0,028	0,081
-285,803	-65,867	0,027	0,008
-284,789	450,645	-0,023	0,036
-283,774	-200,000	0,049	0,160
-282,759	-200,000	-0,026	-0,148
-281,745	-99,014	-0,154	0,027
-280,730	568,321	0,073	-0,126
-279,716	15,829	0,055	-0,031
-278,701	-200,000	-0,008	0,093
-277,686	407,780	0,046	0,070
-276,672	285,140	-0,080	0,103
-275,657	436,814	-0,094	0,147
-274,643	-200,000	-0,034	-0,181
-273,628	800,000	-0,032	-0,074
-272,613	-38,120	0,124	-0,047
-271,599	250,066	-0,056	-0,068
-270,584	84,274	-0,103	0,080
-269,570	800,000	-0,019	0,043
-268,555	-80,073	-0,036	-0,008
-267,540	-200,000	-0,001	-0,063
-266,526	-116,373	-0,193	0,025
-265,511	-106,078	0,017	0,003
-264,497	388,319	0,040	0,059
-263,482	-200,000	-0,035	0,182
-262,467	800,000	-0,007	-0,014
-261,453	-111,912	0,133	0,019
-260,438	16,032	0,079	0,044
-259,424	-87,342	-0,150	-0,032
-258,409	-34,721	-0,127	-0,049
-257,395	23,043	0,127	0,074
-256,380	26,558	-0,017	-0,010
-255,365	4,291	0,127	0,066
-254,351	-66,673	-0,096	-0,027
-253,336	101,578	0,144	0,119
-252,322	696,397	-0,084	-0,157
-251,307	-103,685	-0,169	0,028
-250,292	0,680	0,117	-0,059
-249,278	-200,000	-0,062	0,224
-248,263	-57,734	0,139	-0,043
-247,249	144,751	0,069	-0,065
-246,234	4,231	0,137	0,071
-245,219	-200,000	0,014	-0,052
-244,205	-117,848	0,129	0,016
-243,190	800,000	-0,027	0,079
-242,176	-200,000	0,000	-0,072
-241,161	-46,677	0,137	0,047
-240,146	128,486	0,074	0,067
-239,132	367,224	-0,072	0,104
-238,117	-200,000	0,003	-0,100
-237,103	-200,000	0,027	-0,111
-236,088	51,055	-0,054	0,037
-235,073	-200,000	-0,035	0,147
-234,059	800,000	-0,032	0,076
-233,044	178,347	0,130	-0,135
-232,030	-35,894	-0,108	0,041
-231,015	50,951	-0,218	-0,146
-230,000	-200,000	-0,037	-0,120
-228,986	140,203	0,061	-0,057
-227,971	-43,076	-0,094	-0,034
-226,957	-44,173	0,165	-0,058
-225,942	-200,000	0,042	-0,145
-224,927	630,927	0,020	-0,037
-223,913	129,465	0,036	0,033
-222,898	-75,479	-0,064	-0,016
-221,884	-28,347	0,162	0,066
-220,869	219,188	-0,080	-0,091
-219,855	-94,001	-0,016	0,003
-218,840	756,127	-0,070	0,135
-217,825	-200,000	0,014	0,113
-216,811	-200,000	-0,027	-0,148
-215,796	246,335	0,074	0,089
-214,782	308,187	-0,026	-0,035
-213,767	631,887	0,104	-0,188
-212,752	165,284	-0,097	-0,098
-211,738	57,144	0,248	0,172
-210,723	-200,000	0,002	-0,107
-209,709	800,000	-0,040	-0,090
-208,694	200,529	-0,059	-0,065
-207,679	239,939	-0,034	-0,040
-206,665	800,000	0,014	-0,039
-205,650	799,526	-0,049	0,097
-204,636	-200,000	-0,025	0,140
-203,621	-137,037	0,057	0,005
-202,606	800,000	-0,013	-0,036
-201,592	800,000	-0,023	-0,052
-200,577	584,896	-0,027	-0,048
-199,563	525,903	0,032	-0,054
-198,548	575,782	-0,039	0,069
-197,533	-99,380	0,047	-0,008
-196,519	222,044	0,059	-0,068
-195,504	-200,000	0,028	-0,119
-194,490	-200,000	-0,001	-0,107
-193,475	489,156	0,051	-0,083
-192,460	-28,471	0,076	0,031
-191,446	-2,495	0,048	-0,024
-190,431	-200,000	-0,007	0,184
-189,417	-200,000	-0,015	0,056
-188,402	153,787	-0,012	0,011
-187,387	800,000	-0,034	0,081
-186,373	-200,000	0,016	-0,131
-185,358	660,436	0,075	-0,137
-184,344	155,641	0,040	0,039
-183,329	260,165	-0,118	0,146
-182,315	358,200	0,021	0,030
-181,300	-200,000	0,006	-0,060
-180,285	-200,000	-0,017	-0,090
-179,271	800,000	0,016	-0,041
-178,256	-75,302	0,073	0,018
-177,242	-200,000	-0,018	0,081
-176,227	372,189	0,090	0,130
-175,212	23,610	-0,034	-0,020
-174,198	-1,160	-0,083	0,041
-173,183	141,812	0,072	0,068
-172,169	174,243	-0,092	-0,094
-171,154	-200,000	-0,004	0,028
-170,139	-200,000	0,004	0,032
-169,125	800,000	-0,037	-0,076
-168,110	82,278	-0,055	0,042
-167,096	-7,270	0,146	0,070
-166,081	-200,000	-0,029	0,114
-165,066	-65,655	0,115	-0,032
-164,052	-49,944	-0,101	-0,034
-163,037	800,000	0,055	0,126
-162,023	-36,896	0,121	-0,046
-161,008	85,305	-0,013	-0,010
-159,993	289,359	0,073	0,094
-158,979	-36,193	-0,133	-0,051
-157,964	284,441	0,017	0,022
-156,950	121,145	0,051	0,045
-155,935	146,208	-0,015	0,015
-154,920	-200,000	0,023	-0,084
-153,906	4,560	0,185	-0,096
-152,891	800,000	-0,053	-0,118
-151,877	-200,000	0,005	-0,040
-150,862	51,309	-0,119	0,080
-149,847	-65,756	-0,037	-0,010
-148,833	-200,000	0,010	-0,055
-147,818	17,968	0,069	-0,039
-146,804	129,734	0,075	-0,068
-145,789	-200,000	0,026	-0,106
-144,775	7,731	-0,102	-0,054
-143,760	189,661	0,025	0,027
-142,745	-150,409	-0,190	0,010
-141,731	800,000	0,026	0,074
-140,716	-135,104	0,021	-0,002
-139,702	155,300	0,132	0,129
-138,687	732,991	0,054	-0,103
-137,672	5,428	0,103	-0,054
-136,658	800,000	-0,036	-0,088
-135,643	800,000	-0,042	-0,098
-134,629	-106,899	0,056	0,009
-133,614	1,129	0,126	-0,064
-132,599	800,000	0,029	0,078
-131,585	338,380	0,069	0,095
-130,570	77,282	-0,055	0,042
-129,556	-200,000	0,040	-0,151
-128,541	800,000	-0,058	-0,168
-127,526	696,083	0,011	0,021
-126,512	800,000	0,064	0,127
-125,497	453,772	-0,068	0,107
-124,483	-200,000	0,022	0,121
-123,468	145,930	0,129	0,123
-122,453	98,356	0,019	0,016
-121,439	800,000	0,022	0,069
-120,424	-53,105	-0,008	-0,003
-119,410	-200,000	-0,003	-0,022
-118,395	-200,000	0,012	0,098
-117,380	738,915	0,129	0,246
-116,366	144,829	-0,059	0,056
-115,351	-200,000	0,002	-0,010
-114,337	191,033	-0,073	-0,078
-113,322	441,922	0,007	-0,011
-112,307	-174,768	0,116	0,002
-111,293	48,895	0,116	0,077
-110,278	-200,000	0,038	0,155
-109,264	-200,000	-0,007	0,168
-108,249	29,460	-0,121	0,072
-107,234	160,295	-0,016	0,016
-106,220	-7,719	-0,075	0,036
-105,205	-200,000	0,039	0,135
-104,191	-200,000	-0,001	0,104
-103,176	-16,563	0,109	-0,049
-102,162	-200,000	0,006	-0,126
-101,147	800,000	-0,009	-0,024
-100,132	246,795	-0,102	-0,122
-99,118	-200,000	-0,003	0,122
-98,103	-200,000	-0,002	-0,038
-97,089	-85,822	0,111	0,024
-96,074	178,965	-0,070	-0,073
-95,059	800,000	-0,058	-0,149
-94,045	219,828	0,087	-0,099
-93,030	332,150	0,078	-0,107
-92,016	-200,000	-0,010	-0,032
-91,001	408,861	0,048	-0,071
-89,986	-200,000	0,040	-0,149
-88,972	20,580	0,050	0,029
-87,957	800,000	0,038	0,091
-86,943	-102,691	0,024	0,004
-85,928	176,738	0,041	-0,043
-84,913	-17,045	-0,058	0,026
-83,899	-200,000	-0,033	0,161
-82,884	800,000	0,036	0,081
-81,870	-26,523	0,031	0,013
-80,855	-200,000	0,002	0,203
-79,840	237,710	-0,037	-0,044
-78,826	245,182	0,029	-0,034
-77,811	800,000	-0,017	0,043
-76,797	-73,579	-0,017	-0,004
-75,782	800,000	0,033	0,101
-74,767	163,936	0,027	0,027
-73,753	21,193	-0,075	0,043
-72,738	-200,000	0,038	0,130
-71,724	226,348	-0,110	0,126
-70,709	-106,954	-0,145	0,023
-69,694	511,753	0,012	0,020
-68,680	-28,061	0,133	0,054
-67,665	800,000	-0,077	0,157
-66,651	294,596	0,081	0,104
-65,636	12,589	-0,053	0,029
-64,622	-14,208	0,007	0,003
-63,607	-200,000	0,020	0,082
-62,592	22,283	-0,041	-0,024
-61,578	410,126	0,072	-0,109
-60,563	-200,000	0,023	0,129
-59,549	384,426	-0,087	0,127
-58,534	9,359	-1,969	-1,049
-57,519	462,723	-1,267	-2,004
-56,505	-200,000	-0,494	-4,250
-55,490	376,677	1,063	1,536
-54,476	800,000	5,035	11,222
-53,461	-200,000	20,937	329,368
-52,446	800,000	757,914	2323,901
-51,432	549,697	1662,647	2825,122
-50,417	73,374	1663,934	1227,990
-49,403	18,671	1536,983	865,834
-48,388	12,660	1460,027	793,387
-47,373	18,985	1450,854	818,753
-46,359	15,786	1440,117	797,431
-45,344	10,911	1436,191	771,994
-44,330	10,854	1433,930	770,477
-43,315	10,850	1432,045	769,415
-42,300	10,869	1430,523	768,654
-41,286	10,884	1429,211	767,990
-40,271	10,821	1428,086	767,059
-39,257	10,812	1426,807	766,297
-38,242	10,824	1425,477	765,610
-37,227	10,897	1424,318	765,302
-36,213	10,884	1423,328	764,678
-35,198	10,912	1422,047	764,090
-34,184	10,933	1421,196	763,703
-33,169	10,831	1419,985	762,543
-32,154	10,920	1418,855	762,325
-31,140	10,938	1417,572	761,691
-30,125	10,942	1416,618	761,166
-29,111	10,978	1415,104	760,492
-28,096	10,906	1414,198	759,638
-27,082	10,865	1413,223	758,888
-26,067	10,858	1412,043	758,194
-25,052	10,860	1410,848	757,530
-24,038	10,861	1409,962	757,027
-23,023	10,856	1408,786	756,344
-22,009	10,814	1407,904	755,644
-20,994	10,853	1406,816	755,211
-19,979	10,816	1405,966	754,555
-18,965	10,802	1405,038	753,961
-17,950	10,805	1404,314	753,558
-16,936	10,800	1403,292	752,955
-15,921	10,767	1402,308	752,242
-14,906	10,778	1401,413	751,783
-13,892	10,764	1400,330	751,109
-12,877	10,740	1399,728	750,643
-11,863	10,776	1398,682	750,222
-10,848	10,704	1397,957	749,469
-9,833	10,690	1397,121	748,922
-8,819	10,644	1396,140	748,155
-7,804	10,643	1395,373	747,708
-6,790	10,647	1394,313	747,129
-5,775	10,637	1393,326	746,526
-4,760	10,692	1392,112	746,098
-3,746	10,682	1391,283	745,580
-2,731	10,662	1390,479	745,026
-1,717	10,660	1389,626	744,529
-0,702	10,620	1387,795	743,336
0,313	14,689	1301,412	715,700
1,327	30,947	692,493	417,791
2,342	47,945	120,082	79,018
3,356	2,853	16,472	8,407
4,371	10,143	3,388	1,811
5,386	1,051	0,884	0,446
6,400	800,000	0,163	0,386
7,415	-35,166	-0,249	-0,095
8,429	98,952	-0,334	-0,272
9,444	140,385	-0,346	-0,322
10,459	44,866	-0,281	-0,182
11,473	21,957	-0,269	-0,154
12,488	-4,235	-0,316	-0,154
13,502	414,752	-0,172	-0,259
14,517	27,049	-0,237	-0,140
15,531	36,577	-0,327	-0,203
16,546	230,923	-0,259	-0,299
17,561	95,521	-0,351	-0,282
18,575	-140,093	-0,314	-0,023
19,590	173,625	-0,205	-0,209
20,604	82,059	-0,131	-0,100
21,619	132,451	-0,310	-0,282
22,634	100,756	-0,330	-0,270
23,648	23,515	-0,435	-0,252
24,663	132,608	-0,367	-0,334
25,677	21,886	-0,230	-0,131
26,692	-47,936	-0,326	-0,111
27,707	-1,979	-0,366	-0,181
28,721	124,749	-0,364	-0,323
29,736	25,425	-0,437	-0,255
30,750	215,470	-0,323	-0,361
31,765	84,055	-0,336	-0,258
32,780	17,522	-0,257	-0,143
33,794	65,450	-0,247	-0,176
34,809	65,518	-0,342	-0,243
35,823	61,485	-0,350	-0,244
36,838	31,016	-0,321	-0,193
37,853	60,694	-0,417	-0,290
38,867	280,893	-0,289	-0,364
39,882	42,965	-0,387	-0,248
40,896	98,801	-0,257	-0,208
41,911	52,789	-0,347	-0,233
42,926	103,328	-0,360	-0,296
43,940	-4,544	-0,484	-0,234
44,955	101,673	-0,365	-0,299
45,969	-93,445	-0,342	-0,066
46,984	121,500	-0,312	-0,273
47,999	77,979	-0,208	-0,156
49,013	29,031	-0,334	-0,199
50,028	169,148	-0,310	-0,311
51,042	41,226	-0,340	-0,216
52,057	307,182	-0,220	-0,289
53,071	120,128	-0,265	-0,231
54,086	37,439	-0,304	-0,189
55,101	310,016	-0,219	-0,288
56,115	-33,810	-0,404	-0,155
57,130	80,719	-0,317	-0,240
58,144	-6,840	-0,432	-0,205
59,159	50,528	-0,373	-0,247
60,174	367,046	-0,242	-0,344
61,188	24,513	-0,391	-0,226
62,203	71,258	-0,276	-0,201
63,217	-25,630	-0,304	-0,125
64,232	191,842	-0,243	-0,257
65,247	190,093	-0,308	-0,325
66,261	-9,374	-0,268	-0,125
67,276	62,205	-0,341	-0,238
68,290	17,199	-0,375	-0,208
69,305	125,892	-0,265	-0,234
70,320	-37,013	-0,337	-0,126
71,334	-39,389	-0,419	-0,153
72,349	-5,177	-0,338	-0,163
73,363	218,977	-0,317	-0,355
74,378	164,084	-0,264	-0,261
75,393	65,714	-0,215	-0,152
76,407	111,237	-0,337	-0,285
77,422	101,166	-0,292	-0,238
78,436	-116,017	-0,466	-0,060
79,451	291,253	-0,150	-0,192
80,466	257,921	-0,210	-0,254
81,480	-36,587	-0,405	-0,152
82,495	73,083	-0,258	-0,189
83,509	327,155	-0,184	-0,247
84,524	101,334	-0,260	-0,212
85,539	25,689	-0,285	-0,166
86,553	-2,401	-0,224	-0,110
87,568	-61,776	-0,401	-0,117
88,582	120,561	-0,162	-0,141
89,597	46,822	-0,303	-0,196
90,611	123,524	-0,215	-0,189
91,626	-26,031	-0,293	-0,120
92,641	140,856	-0,112	-0,104
93,655	768,332	-0,109	-0,209
94,670	-85,637	-0,426	-0,092
95,684	120,088	-0,312	-0,271
96,699	-24,280	-0,245	-0,102
97,714	27,933	-0,233	-0,137
98,728	-22,947	-0,266	-0,112
99,743	86,605	-0,226	-0,175
100,757	-129,015	-0,363	-0,035
101,772	346,899	-0,236	-0,326
102,787	27,000	-0,332	-0,194
103,801	142,501	-0,212	-0,197
104,816	495,794	-0,119	-0,192
105,830	135,928	-0,324	-0,295
106,845	-74,520	-0,181	-0,045
107,860	93,094	-0,237	-0,187
108,874	210,961	-0,283	-0,311
109,889	26,431	-0,307	-0,179
110,903	-38,439	-0,380	-0,140
111,918	69,507	-0,191	-0,137
112,933	51,343	-0,181	-0,120
113,947	231,600	-0,103	-0,118
114,962	-74,891	-0,289	-0,072
115,976	83,764	-0,254	-0,194
116,991	800,000	-0,107	-0,230
118,006	-63,907	-0,462	-0,131
119,020	163,700	-0,294	-0,289
120,035	226,796	-0,197	-0,224
121,049	95,274	-0,180	-0,143
122,064	118,244	-0,268	-0,231
123,079	-91,433	-0,375	-0,074
124,093	-8,587	-0,271	-0,126
125,108	2,975	-0,256	-0,129
126,122	152,514	-0,306	-0,292
127,137	-45,459	-0,140	-0,048
128,151	-200,000	-0,096	-0,296
129,166	-45,576	-0,315	-0,108
130,181	10,320	-0,229	-0,121
131,195	78,373	-0,218	-0,162
132,210	73,910	-0,313	-0,229
133,224	394,455	-0,210	-0,306
134,239	166,662	-0,238	-0,235
135,254	-55,028	-0,227	-0,071
136,268	-67,010	-0,193	-0,053
137,283	-22,983	-0,211	-0,088
138,297	18,182	-0,293	-0,162
139,312	54,511	-0,179	-0,120
140,327	156,246	-0,134	-0,129
141,341	198,312	-0,247	-0,263
142,356	41,742	-0,317	-0,200
143,370	69,981	-0,235	-0,168
144,385	187,506	-0,132	-0,137
145,400	-17,228	-0,287	-0,125
146,414	116,073	-0,365	-0,312
147,429	68,356	-0,216	-0,154
148,443	189,133	-0,190	-0,198
149,458	326,424	-0,078	-0,104
150,473	42,242	-0,423	-0,267
151,487	15,253	-0,208	-0,113
152,502	-7,402	-0,244	-0,115
153,516	101,299	-0,239	-0,193
154,531	172,266	-0,174	-0,174
155,546	-200,000	0,013	-0,249
156,560	266,234	-0,148	-0,181
157,575	63,725	-0,176	-0,123
158,589	-29,834	-0,330	-0,130
159,604	4,237	-0,298	-0,151
160,619	97,528	-0,168	-0,134
161,633	-132,783	-0,297	-0,026
162,648	12,964	-0,246	-0,132
163,662	110,701	-0,145	-0,122
164,677	-114,513	-0,193	-0,026
165,692	136,081	-0,197	-0,178
166,706	5,887	-0,227	-0,117
167,721	-200,000	-0,071	-0,267
168,735	189,596	-0,280	-0,292
169,750	11,838	-0,245	-0,130
170,764	181,694	-0,178	-0,183
171,779	11,906	-0,209	-0,111
172,794	158,324	-0,056	-0,054
173,808	39,084	-0,102	-0,063
174,823	262,647	-0,210	-0,253
175,837	133,697	-0,224	-0,201
176,852	405,469	-0,147	-0,216
177,867	106,081	-0,300	-0,247
178,881	151,198	-0,167	-0,158
179,896	379,563	-0,175	-0,249
180,910	16,184	-0,173	-0,095
181,925	132,664	-0,174	-0,156
182,940	65,125	-0,372	-0,261
183,954	525,476	-0,154	-0,252
184,969	34,688	-0,225	-0,136
185,983	-11,929	-0,241	-0,109
186,998	235,126	-0,155	-0,178
188,013	-155,478	-0,262	-0,012
189,027	254,843	-0,208	-0,247
190,042	800,000	-0,101	-0,264
191,056	569,556	-0,145	-0,245
192,071	536,458	-0,110	-0,183
193,086	305,810	-0,119	-0,154
194,100	215,773	-0,048	-0,053
195,115	-54,183	-0,203	-0,064
196,129	-148,044	-0,219	0,012
197,144	415,697	-0,195	-0,290
198,159	13,155	-0,257	-0,137
199,173	190,191	-0,142	-0,148
200,188	334,823	-0,081	-0,110
201,202	488,412	-0,111	-0,177
202,217	129,932	-0,105	-0,093
203,232	115,587	-0,222	-0,188
204,246	800,000	-0,135	-0,292
205,261	198,734	-0,113	-0,120
206,275	424,204	-0,169	-0,252
207,290	358,384	-0,113	-0,157
208,304	111,778	-0,254	-0,213
209,319	-50,801	-0,233	-0,075
210,334	-103,427	-0,191	-0,031
211,348	166,699	-0,246	-0,242
212,363	637,364	-0,101	-0,178
213,377	173,940	-0,208	-0,208
214,392	514,038	-0,199	-0,322
215,407	34,144	-0,178	-0,107
216,421	7,726	-0,165	-0,085
217,436	-31,442	-0,166	-0,064
218,450	-39,809	-0,279	-0,100
219,465	13,913	-0,190	-0,102
220,480	200,701	-0,178	-0,190
221,494	309,801	-0,174	-0,226
222,509	-200,000	-0,047	-0,190
223,523	112,039	-0,216	-0,180
224,538	436,417	-0,101	-0,152
225,553	138,387	-0,208	-0,188
226,567	800,000	-0,049	-0,120
227,582	-13,070	-0,128	-0,057
228,596	178,525	-0,205	-0,207
229,611	194,178	-0,247	-0,259
230,626	-6,055	-0,192	-0,090
231,640	86,471	-0,239	-0,182
232,655	33,159	-0,229	-0,137
233,669	-6,448	-0,282	-0,132
234,684	50,864	-0,289	-0,189
235,699	448,432	-0,095	-0,145
236,713	-153,953	-0,212	0,010
237,728	-0,060	-0,262	-0,128
238,742	179,232	-0,187	-0,189
239,757	98,289	-0,164	-0,131
240,772	155,015	-0,092	-0,088
241,786	455,477	-0,135	-0,207
242,801	292,011	-0,103	-0,130
243,815	335,073	-0,161	-0,216
244,830	9,823	-0,104	0,054
245,844	5,851	-0,267	-0,136
246,859	-18,302	-0,146	-0,063
247,874	105,446	-0,225	-0,183
248,888	199,918	-0,141	-0,149
249,903	432,905	-0,134	-0,201
250,917	800,000	-0,094	-0,207
251,932	800,000	-0,093	-0,224
252,947	536,573	-0,142	-0,234
253,961	-200,000	-0,006	-0,307
254,976	349,820	-0,208	-0,284
255,990	-88,841	-0,230	-0,047
257,005	-200,000	0,031	-0,132
258,020	117,417	-0,210	-0,178
259,034	581,301	-0,114	-0,194
260,049	70,629	-0,199	-0,142
261,063	-200,000	-0,030	-0,155
262,078	123,853	-0,189	-0,163
263,093	105,180	-0,211	-0,172
264,107	-136,148	-0,182	0,015
265,122	210,843	-0,118	-0,128
266,136	-2,250	-0,239	-0,115
267,151	-106,929	-0,223	0,034
268,166	800,000	-0,064	-0,146
269,180	129,461	-0,149	-0,131
270,195	201,955	-0,108	-0,115
271,209	126,698	-0,175	-0,153
272,224	199,134	-0,127	-0,135
273,239	331,670	-0,082	-0,109
274,253	-143,683	-0,120	-0,008
275,268	-89,043	-0,197	-0,040
276,282	-35,760	-0,246	-0,091
277,297	497,431	-0,173	-0,276
278,312	-75,408	-0,031	-0,008
279,326	-90,274	-0,182	-0,036
280,341	17,726	-0,147	-0,080
281,355	133,217	-0,144	-0,128
282,370	735,185	-0,098	-0,182
283,384	66,905	-0,276	-0,193
284,399	209,941	-0,137	-0,148
285,414	800,000	-0,162	-0,324
286,428	-179,482	-0,033	0,000
287,443	-200,000	-0,051	-0,187
288,457	-200,000	-0,017	-0,140
289,472	101,481	-0,151	-0,121
290,487	243,425	-0,161	-0,186
291,501	-100,536	-0,204	-0,034
292,516	-2,316	-0,185	-0,089
293,530	-125,537	-0,122	-0,013
294,545	115,479	-0,091	-0,076
295,560	266,755	0,042	-0,051
296,574	-200,000	-0,031	-0,122
297,589	319,276	-0,097	-0,126
298,603	423,099	-0,166	-0,245
299,618	6,152	-0,169	-0,086
300,633	-60,013	-0,169	-0,049
301,647	-96,014	-0,085	-0,015
302,662	-200,000	0,009	-0,227
303,676	-200,000	0,005	-0,209
304,691	-140,804	-0,086	-0,006
305,706	383,160	-0,167	-0,237
306,720	194,577	-0,212	-0,221
307,735	-32,483	-0,164	-0,062
308,749	9,753	-0,139	-0,072
309,764	79,041	-0,120	-0,088
310,779	236,590	-0,104	-0,118
311,793	-29,603	-0,211	0,082
312,808	-7,238	-0,153	-0,071
313,822	112,682	-0,160	-0,133
314,837	800,000	-0,088	-0,251
315,852	-141,835	-0,158	0,011
316,866	-97,871	-0,172	-0,030
317,881	613,510	-0,048	-0,083
318,895	447,725	-0,149	-0,226
319,910	112,044	-0,201	-0,167
320,925	-200,000	0,014	-0,230
321,939	-58,544	-0,149	-0,044
322,954	43,095	-0,171	-0,107
323,968	-18,287	-0,055	0,024
324,983	-99,426	-0,171	-0,029
325,997	6,347	-0,203	-0,103
327,012	37,027	-0,176	-0,107
328,027	-23,068	-0,192	-0,079
329,041	10,259	-0,149	-0,078
330,056	-188,580	-0,078	-0,001
331,070	-65,636	-0,043	-0,012
332,085	800,000	-0,044	-0,091
333,100	492,044	-0,069	-0,109
334,114	115,605	-0,085	0,071
335,129	800,000	-0,059	-0,162
336,143	-61,250	-0,192	-0,055
337,158	28,349	-0,138	-0,080
338,173	518,429	0,082	-0,132
339,187	160,981	-0,069	-0,066
340,202	97,474	-0,119	-0,093
341,216	-200,000	-0,043	-0,312
342,231	86,663	-0,249	-0,188
343,246	59,163	-0,075	-0,050
344,260	-103,695	-0,128	-0,020
345,275	-19,284	-0,113	-0,048
346,289	-37,305	-0,080	-0,029
347,304	51,739	-0,123	-0,080
348,319	1,815	-0,092	-0,045
349,333	-171,693	-0,223	-0,005
350,348	800,000	-0,076	-0,175
351,362	385,471	-0,129	-0,183
352,377	64,753	-0,159	-0,110
353,392	185,005	-0,044	-0,044
354,406	4,912	-0,081	0,041
355,421	207,909	1306,022	1397,084
356,435	159,963	1465,655	1397,577
