DTS Sentinel unit serial number:	SN410029Multiplexer serial number:	ORYXHardware model number:	OX2-SRSoftware version number:	ORYX F/W v4,00 Oryx Data Collector v3.7.2.0data status	okinstallation	B3 Nyhavnadifferential loss correction	single-endedforward channel	channel 1reverse channel	N/Adate	2023/12/03time	16:22:30forward acquisition time	300,00reverse acquisition time	0,00gamma	499,1914k internal	0,3197k external	0,3197temperature offset calibration	1,0000default loss term (dB/km)	0,3820temperature slope calibration	1,0000multiplexer offset coefficient	1,0000multiplexer slope coefficient	1,0000fibre end	0,00T internal ref (°C)	15,37T ext. ref 1 (°C)	-0,14T ext. ref 2 (°C)	-0,16length (m)	temperature (°C)	Stokes	anti-Stokes-744,400	239,574	-0,174	-0,211
-743,385	-200,000	0,049	0,354
-742,371	201,804	-0,153	-0,172
-741,356	800,000	0,148	0,310
-740,342	465,743	-0,108	-0,176
-739,327	415,403	-0,202	0,315
-738,312	34,402	-0,175	-0,111
-737,298	-200,000	0,040	0,338
-736,283	-2,774	-0,362	-0,183
-735,269	-200,000	-0,007	0,425
-734,254	-38,883	-0,279	-0,106
-733,239	10,448	-0,259	0,143
-732,225	800,000	-0,125	-0,326
-731,210	-200,000	0,031	0,128
-730,196	80,546	-0,040	-0,031
-729,181	73,116	0,045	0,035
-728,167	800,000	0,032	-0,098
-727,152	-92,975	-0,167	0,034
-726,137	293,053	0,044	0,059
-725,123	800,000	-0,035	0,105
-724,108	105,174	0,051	-0,044
-723,094	409,308	-0,095	-0,147
-722,079	-66,549	-0,118	0,034
-721,064	-151,240	-0,030	-0,002
-720,050	166,368	0,042	0,043
-719,035	-56,285	0,039	0,013
-718,021	-200,000	-0,002	0,056
-717,006	-200,000	-0,004	0,178
-715,991	72,725	-0,112	-0,085
-714,977	757,047	0,036	-0,071
-713,962	-103,760	-0,080	0,013
-712,948	1,801	-0,098	0,051
-711,933	82,429	0,039	-0,031
-710,918	-27,481	0,052	0,022
-709,904	800,000	-0,043	-0,098
-708,889	-132,731	-0,106	-0,010
-707,875	87,729	0,075	-0,060
-706,860	-200,000	0,008	-0,054
-705,845	800,000	0,059	0,165
-704,831	-200,000	-0,033	0,151
-703,816	290,791	-0,035	-0,047
-702,802	800,000	-0,017	-0,047
-701,787	49,256	-0,054	-0,037
-700,772	393,419	-0,085	-0,129
-699,758	-155,841	0,121	0,005
-698,743	597,221	-0,055	0,100
-697,729	-200,000	-0,028	0,168
-696,714	-10,157	-0,084	0,041
-695,699	-19,919	0,054	-0,024
-694,685	4,047	-0,156	-0,083
-693,670	337,248	-0,051	0,072
-692,656	62,877	0,096	-0,069
-691,641	-35,621	0,123	0,048
-690,627	25,310	0,036	0,022
-689,612	267,329	-0,093	0,119
-688,597	69,798	-0,067	-0,050
-687,583	-5,099	0,100	-0,050
-686,568	472,340	-0,072	-0,118
-685,554	24,510	-0,077	0,046
-684,539	-100,674	-0,046	0,008
-683,524	-47,071	0,081	0,028
-682,510	690,660	0,043	0,081
-681,495	237,741	0,020	-0,024
-680,481	10,028	-0,034	-0,019
-679,466	-200,000	0,029	-0,116
-678,451	-195,603	0,023	0,000
-677,437	-93,088	0,122	0,024
-676,422	-200,000	-0,010	0,109
-675,408	-200,000	0,032	0,186
-674,393	800,000	0,032	-0,098
-673,378	-200,000	-0,004	-0,076
-672,364	-200,000	0,033	-0,148
-671,349	-200,000	-0,007	-0,042
-670,335	-200,000	0,011	0,082
-669,320	23,366	0,050	-0,030
-668,305	35,341	-0,019	0,012
-667,291	-21,754	0,018	-0,008
-666,276	-200,000	0,014	-0,062
-665,262	-200,000	-0,040	-0,159
-664,247	74,979	-0,087	-0,066
-663,232	-66,878	-0,062	-0,018
-662,218	-58,597	0,096	-0,030
-661,203	800,000	-0,030	0,092
-660,189	68,021	0,097	0,072
-659,174	13,869	-0,065	-0,037
-658,159	116,640	-0,138	-0,123
-657,145	800,000	0,015	-0,036
-656,130	350,810	-0,021	-0,031
-655,116	228,980	0,011	-0,013
-654,101	-79,661	0,114	-0,028
-653,086	800,000	-0,020	-0,047
-652,072	-89,118	-0,110	0,023
-651,057	800,000	-0,044	-0,113
-650,043	-1,886	-0,076	0,039
-649,028	378,598	-0,069	0,103
-648,014	58,198	-0,092	0,065
-646,999	-200,000	-0,051	0,172
-645,984	125,608	0,053	0,048
-644,970	-200,000	-0,010	-0,051
-643,955	155,014	-0,113	-0,113
-642,941	61,934	0,084	-0,060
-641,926	103,124	0,059	0,050
-640,911	418,054	-0,031	-0,048
-639,897	-101,726	0,079	-0,014
-638,882	-200,000	0,005	-0,129
-637,868	-8,256	0,108	-0,053
-636,853	77,326	-0,147	-0,113
-635,838	123,575	-0,032	-0,029
-634,824	113,935	-0,052	-0,046
-633,809	743,912	0,006	-0,012
-632,795	-200,000	-0,003	0,062
-631,780	187,146	0,050	-0,054
-630,765	327,347	-0,046	-0,064
-629,751	29,618	0,085	0,052
-628,736	575,061	-0,034	0,060
-627,722	-200,000	0,000	-0,067
-626,707	70,069	0,169	0,126
-625,692	446,375	0,065	0,103
-624,678	-200,000	-0,019	0,110
-623,663	64,681	0,050	0,037
-622,649	-200,000	-0,000	0,015
-621,634	-109,443	-0,120	-0,018
-620,619	-200,000	-0,001	-0,178
-619,605	540,674	0,059	-0,102
-618,590	-200,000	0,004	0,150
-617,576	-114,107	0,127	0,018
-616,561	-200,000	0,015	-0,072
-615,546	331,873	0,011	-0,016
-614,532	-200,000	0,003	-0,050
-613,517	-200,000	-0,006	-0,069
-612,503	468,550	-0,064	-0,105
-611,488	-95,418	0,123	0,024
-610,474	-131,298	-0,132	0,013
-609,459	-37,184	0,013	-0,005
-608,444	-200,000	-0,009	-0,128
-607,430	-200,000	0,002	-0,210
-606,415	53,525	-0,080	0,056
-605,401	733,611	0,066	0,129
-604,386	-88,888	0,120	0,025
-603,371	703,741	-0,029	0,055
-602,357	-200,000	-0,153	-0,000
-601,342	40,525	-0,058	-0,038
-600,328	-200,000	0,013	-0,152
-599,313	-83,098	0,104	-0,024
-598,298	-200,000	0,001	0,036
-597,284	-200,000	-0,011	-0,043
-596,269	800,000	0,073	-0,174
-595,255	164,670	0,078	0,080
-594,240	28,708	0,090	-0,055
-593,225	800,000	0,036	-0,108
-592,211	76,689	-0,038	-0,029
-591,196	800,000	-0,030	-0,088
-590,182	23,738	0,059	0,035
-589,167	384,975	-0,027	0,040
-588,152	-200,000	-0,019	-0,068
-587,138	-200,000	0,014	-0,156
-586,123	800,000	-0,043	-0,108
-585,109	-65,846	-0,023	0,006
-584,094	89,143	-0,007	-0,006
-583,079	-200,000	-0,029	0,159
-582,065	-106,415	0,099	-0,016
-581,050	23,762	0,116	-0,069
-580,036	-200,000	0,013	0,050
-579,021	-200,000	0,006	-0,069
-578,006	-89,714	0,014	0,003
-576,992	-64,490	-0,019	0,006
-575,977	-95,848	0,022	-0,004
-574,963	-97,366	0,089	0,017
-573,948	-76,008	-0,097	0,025
-572,934	621,917	-0,024	0,045
-571,919	800,000	0,044	0,091
-570,904	-152,581	-0,062	0,003
-569,890	-108,401	-0,056	-0,009
-568,875	39,522	0,049	0,032
-567,861	-200,000	0,011	-0,060
-566,846	-135,430	0,014	0,001
-565,831	20,302	0,097	0,057
-564,817	218,098	-0,085	0,099
-563,802	96,970	-0,037	-0,031
-562,788	-122,414	-0,081	-0,009
-561,773	3,293	-0,097	0,051
-560,758	-81,420	0,056	-0,013
-559,744	-59,204	-0,097	0,030
-558,729	800,000	-0,014	-0,036
-557,715	-90,086	-0,084	-0,018
-556,700	113,873	-0,090	-0,079
-555,685	-200,000	0,001	-0,086
-554,671	-200,000	-0,016	0,125
-553,656	165,648	0,133	0,136
-552,642	-161,912	0,189	-0,007
-551,627	-145,639	-0,107	0,007
-550,612	-35,155	0,094	0,037
-549,598	-21,452	-0,075	0,033
-548,583	-200,000	-0,001	0,082
-547,569	-200,000	0,001	-0,068
-546,554	-200,000	0,039	0,156
-545,539	800,000	0,076	0,167
-544,525	195,124	-0,078	-0,085
-543,510	109,192	-0,058	-0,051
-542,496	149,813	-0,107	0,105
-541,481	-149,796	0,070	-0,004
-540,466	-97,783	-0,059	0,011
-539,452	148,419	0,020	-0,019
-538,437	-200,000	-0,016	-0,062
-537,423	9,005	-0,071	0,038
-536,408	-122,093	-0,018	0,002
-535,393	48,208	-0,152	-0,102
-534,379	-200,000	0,011	-0,063
-533,364	-36,975	0,007	0,003
-532,350	79,614	-0,075	-0,058
-531,335	-132,309	0,092	-0,008
-530,321	266,372	-0,030	0,038
-529,306	-200,000	-0,017	0,070
-528,291	-30,144	-0,083	0,034
-527,277	558,631	-0,042	-0,073
-526,262	800,000	-0,008	-0,021
-525,248	45,444	-0,065	0,044
-524,233	-200,000	0,039	0,166
-523,218	168,862	-0,109	-0,112
-522,204	67,890	-0,094	0,069
-521,189	-166,241	-0,061	0,002
-520,175	-111,634	-0,012	0,002
-519,160	99,889	-0,029	-0,024
-518,145	246,381	-0,127	-0,155
-517,131	-200,000	0,002	0,064
-516,116	-160,853	0,168	0,006
-515,102	-200,000	0,017	-0,062
-514,087	-200,000	-0,025	0,083
-513,072	-54,310	0,079	0,026
-512,058	-132,679	-0,032	0,003
-511,043	-123,135	0,064	0,007
-510,029	-149,776	0,021	-0,001
-509,014	194,756	0,068	-0,075
-507,999	-51,674	-0,124	-0,042
-506,985	-15,278	-0,068	0,031
-505,970	800,000	0,020	0,041
-504,956	51,090	0,051	0,035
-503,941	-5,573	-0,086	-0,043
-502,926	-169,133	0,119	0,003
-501,912	-141,953	0,090	-0,006
-500,897	101,049	0,082	0,069
-499,883	285,998	-0,122	-0,159
-498,868	-16,533	-0,046	-0,021
-497,853	-153,691	0,180	0,009
-496,839	-200,000	-0,005	0,082
-495,824	693,571	0,010	0,019
-494,810	-200,000	-0,032	-0,114
-493,795	800,000	-0,010	0,021
-492,781	48,453	-0,092	0,062
-491,766	28,944	0,038	-0,023
-490,751	31,464	-0,099	-0,061
-489,737	564,068	-0,044	0,077
-488,722	-200,000	-0,001	-0,014
-487,708	-138,211	0,277	0,022
-486,693	-200,000	-0,003	-0,009
-485,678	157,921	0,082	-0,082
-484,664	5,146	-0,124	-0,066
-483,649	800,000	-0,067	-0,172
-482,635	-105,873	-0,036	0,006
-481,620	-99,119	0,219	0,040
-480,605	73,878	0,016	-0,012
-479,591	51,636	-0,072	0,050
-478,576	800,000	0,055	-0,143
-477,562	536,271	-0,029	-0,049
-476,547	-13,974	-0,110	-0,051
-475,532	-45,763	-0,137	0,049
-474,518	-200,000	-0,009	-0,069
-473,503	-133,455	-0,048	0,004
-472,489	345,940	0,085	0,121
-471,474	800,000	-0,028	0,073
-470,459	-57,264	0,083	-0,026
-469,445	-200,000	0,017	0,055
-468,430	-200,000	0,010	0,065
-467,416	-90,666	0,145	0,030
-466,401	-107,917	-0,132	0,021
-465,386	-55,694	-0,094	-0,030
-464,372	83,415	0,096	-0,076
-463,357	-44,114	-0,118	0,042
-462,343	0,709	-0,042	-0,022
-461,328	-200,000	-0,030	-0,103
-460,313	-156,029	0,099	-0,004
-459,299	0,184	0,085	-0,043
-458,284	-200,000	0,025	0,163
-457,270	142,155	-0,065	0,063
-456,255	20,252	0,085	0,049
-455,241	213,412	-0,088	-0,101
-454,226	186,132	-0,087	0,094
-453,211	800,000	0,023	0,056
-452,197	-144,369	0,110	0,007
-451,182	64,760	0,176	0,127
-450,168	-200,000	0,025	0,102
-449,153	800,000	0,029	-0,080
-448,138	9,249	-0,065	0,035
-447,124	-200,000	-0,006	-0,077
-446,109	-200,000	-0,004	-0,032
-445,095	-75,764	-0,098	0,025
-444,080	-159,723	0,133	-0,005
-443,065	-200,000	-0,020	0,090
-442,051	348,636	0,050	-0,072
-441,036	-182,657	-0,109	-0,001
-440,022	-200,000	-0,002	0,021
-439,007	800,000	0,041	0,113
-437,992	151,094	0,049	-0,048
-436,978	239,703	0,067	0,081
-435,963	422,556	-0,016	0,025
-434,949	-200,000	0,013	-0,053
-433,934	-67,005	0,037	-0,010
-432,919	800,000	-0,074	-0,194
-431,905	-200,000	0,012	-0,111
-430,890	-200,000	0,035	-0,127
-429,876	800,000	-0,057	0,121
-428,861	800,000	-0,075	0,152
-427,846	-200,000	-0,004	0,054
-426,832	-200,000	-0,038	0,126
-425,817	800,000	-0,034	0,100
-424,803	112,279	-0,042	-0,037
-423,788	-8,652	0,066	-0,032
-422,773	234,918	0,120	0,143
-421,759	231,923	-0,095	0,113
-420,744	-106,815	-0,120	-0,019
-419,730	592,754	-0,057	-0,101
-418,715	800,000	0,025	0,068
-417,701	177,184	-0,083	-0,087
-416,686	183,136	-0,034	-0,036
-415,671	140,848	0,073	0,070
-414,657	-108,531	0,080	0,012
-413,642	-200,000	0,002	0,103
-412,628	482,410	-0,054	-0,088
-411,613	-112,119	0,075	-0,011
-410,598	-71,133	-0,098	-0,026
-409,584	-92,483	0,064	0,013
-408,569	800,000	0,049	-0,154
-407,555	278,824	-0,059	0,075
-406,540	410,381	-0,071	0,108
-405,525	227,872	0,027	-0,032
-404,511	-45,729	0,146	0,052
-403,496	75,268	-0,087	-0,066
-402,482	-177,150	-0,098	-0,002
-401,467	796,858	0,054	0,107
-400,452	-200,000	-0,032	0,104
-399,438	-200,000	0,023	0,119
-398,423	-200,000	-0,002	0,012
-397,409	800,000	-0,040	-0,103
-396,394	800,000	-0,036	0,097
-395,379	-43,670	0,107	-0,039
-394,365	149,452	-0,020	-0,020
-393,350	-111,668	-0,068	-0,010
-392,336	-104,532	0,124	0,020
-391,321	205,952	0,053	0,059
-390,306	800,000	0,043	-0,089
-389,292	-200,000	0,003	-0,107
-388,277	70,085	0,056	-0,041
-387,263	126,451	-0,078	0,071
-386,248	-200,000	-0,031	0,121
-385,233	-200,000	-0,008	0,104
-384,219	-200,000	-0,026	0,153
-383,204	-65,597	-0,003	-0,001
-382,190	-200,000	-0,043	-0,159
-381,175	186,611	0,080	0,086
-380,160	96,244	0,024	0,020
-379,146	800,000	-0,057	0,116
-378,131	-200,000	0,020	0,129
-377,117	800,000	0,023	0,066
-376,102	169,806	-0,056	-0,058
-375,088	800,000	0,050	-0,119
-374,073	595,629	0,046	-0,082
-373,058	800,000	0,033	0,092
-372,044	78,901	0,102	0,078
-371,029	-71,779	0,162	0,043
-370,015	-15,833	-0,053	0,024
-369,000	-200,000	0,001	-0,011
-367,985	212,774	-0,067	0,076
-366,971	9,272	-0,031	-0,017
-365,956	-158,224	0,082	0,003
-364,942	-106,942	0,052	-0,008
-363,927	291,339	-0,093	0,121
-362,912	-200,000	-0,012	0,075
-361,898	64,313	0,015	-0,011
-360,883	-149,025	0,028	0,002
-359,869	662,021	0,051	-0,094
-358,854	800,000	0,046	-0,104
-357,839	-4,719	0,039	0,019
-356,825	712,353	-0,036	-0,069
-355,810	72,133	0,047	0,035
-354,796	-200,000	-0,016	0,105
-353,781	307,981	-0,030	0,040
-352,766	-200,000	0,011	0,119
-351,752	50,124	0,080	-0,054
-350,737	257,504	0,050	0,062
-349,723	-186,656	0,043	-0,000
-348,708	-54,594	-0,156	0,050
-347,693	800,000	-0,028	0,061
-346,679	800,000	-0,009	-0,028
-345,664	22,520	0,075	-0,044
-344,650	43,237	-0,037	0,024
-343,635	1,371	0,162	0,083
-342,620	74,115	-0,028	0,021
-341,606	79,248	-0,043	-0,033
-340,591	116,094	-0,078	0,069
-339,577	-93,749	-0,131	-0,026
-338,562	387,001	0,035	-0,051
-337,548	15,563	0,070	0,039
-336,533	56,844	0,102	0,071
-335,518	-71,967	0,130	-0,034
-334,504	242,392	0,011	-0,013
-333,489	-129,461	0,046	0,005
-332,475	-154,013	-0,175	0,008
-331,460	-200,000	-0,028	-0,119
-330,445	-200,000	0,056	-0,290
-329,431	-200,000	-0,013	-0,065
-328,416	-140,373	0,206	0,015
-327,402	-200,000	0,031	-0,145
-326,387	-200,000	-0,012	0,042
-325,372	-54,037	-0,053	0,017
-324,358	-44,577	-0,033	-0,012
-323,343	4,828	-0,015	-0,008
-322,329	-200,000	0,003	0,123
-321,314	-82,716	0,163	0,037
-320,299	111,979	-0,100	0,086
-319,285	-158,994	-0,030	-0,001
-318,270	-200,000	0,004	-0,046
-317,256	-200,000	-0,007	-0,132
-316,241	-86,361	-0,109	-0,024
-315,226	-144,205	-0,018	-0,001
-314,212	-200,000	-0,016	0,062
-313,197	-24,478	-0,084	0,036
-312,183	800,000	0,067	0,170
-311,168	-200,000	-0,043	0,162
-310,153	636,440	-0,026	-0,047
-309,139	800,000	-0,042	-0,086
-308,124	-200,000	0,034	-0,135
-307,110	-200,000	0,013	0,079
-306,095	-38,953	0,092	0,035
-305,080	-84,682	0,063	-0,014
-304,066	201,843	-0,102	-0,112
-303,051	-200,000	-0,005	-0,040
-302,037	44,732	-0,040	-0,026
-301,022	705,127	0,020	-0,038
-300,008	211,564	0,063	0,072
-298,993	800,000	0,071	0,160
-297,978	52,959	-0,077	0,053
-296,964	-40,381	-0,071	-0,026
-295,949	-88,195	0,059	-0,013
-294,935	-58,906	-0,097	0,030
-293,920	169,157	0,056	0,057
-292,905	23,697	0,045	-0,027
-291,891	-200,000	0,028	0,108
-290,876	263,829	0,110	0,137
-289,862	39,930	-0,099	-0,063
-288,847	362,644	-0,034	-0,049
-287,832	-200,000	-0,007	-0,047
-286,818	800,000	0,054	0,116
-285,803	209,857	-0,071	0,080
-284,789	367,276	0,083	0,120
-283,774	-20,991	0,050	-0,022
-282,759	-130,008	-0,084	-0,008
-281,745	-48,287	-0,142	0,049
-280,730	-165,995	-0,101	0,003
-279,716	800,000	-0,044	-0,088
-278,701	-150,662	0,065	0,003
-277,686	-200,000	-0,021	0,119
-276,672	-200,000	0,013	-0,083
-275,657	-200,000	0,007	0,063
-274,643	-138,563	-0,102	-0,008
-273,628	91,598	-0,072	-0,057
-272,613	-200,000	-0,001	0,112
-271,599	-92,649	-0,021	0,004
-270,584	-165,448	0,131	0,004
-269,570	-4,592	0,008	-0,004
-268,555	90,451	-0,117	-0,094
-267,540	800,000	0,033	-0,090
-266,526	-200,000	-0,005	0,102
-265,511	-4,192	-0,065	-0,032
-264,497	-200,000	0,002	-0,025
-263,482	-30,380	0,095	0,038
-262,467	249,150	-0,078	0,095
-261,453	-200,000	0,033	-0,133
-260,438	-200,000	-0,001	-0,113
-259,424	183,641	-0,078	-0,082
-258,409	-200,000	-0,005	-0,183
-257,395	92,578	-0,067	-0,054
-256,380	-180,358	-0,133	-0,002
-255,365	-15,185	0,043	-0,019
-254,351	-17,958	0,144	-0,064
-253,336	73,827	0,077	-0,057
-252,322	-200,000	0,001	-0,074
-251,307	-200,000	-0,015	0,093
-250,292	34,972	-0,130	-0,081
-249,278	238,515	0,048	0,057
-248,263	-164,650	0,106	0,003
-247,249	800,000	-0,042	-0,097
-246,234	-187,390	-0,057	-0,001
-245,219	-96,655	-0,108	0,020
-244,205	800,000	0,027	-0,059
-243,190	-21,118	0,166	-0,072
-242,176	26,768	0,101	0,060
-241,161	67,418	-0,068	-0,050
-240,146	440,463	0,034	0,053
-239,132	-41,250	-0,135	-0,049
-238,117	-92,226	0,032	-0,006
-237,103	-156,135	-0,048	0,002
-236,088	126,101	-0,059	-0,053
-235,073	-200,000	-0,001	0,107
-234,059	140,640	-0,108	-0,102
-233,044	800,000	0,071	0,158
-232,030	186,558	-0,063	-0,067
-231,015	413,807	0,047	-0,072
-230,000	-112,964	-0,152	0,021
-228,986	157,381	-0,068	-0,067
-227,971	-58,892	0,111	-0,034
-226,957	14,225	0,039	0,021
-225,942	131,144	0,150	0,138
-224,927	-200,000	0,002	0,044
-223,913	-117,392	-0,018	0,002
-222,898	14,182	-0,151	-0,084
-221,884	263,847	0,044	-0,055
-220,869	-89,414	0,096	-0,020
-219,855	800,000	-0,033	-0,097
-218,840	2,504	0,127	0,065
-217,825	-173,883	-0,036	-0,001
-216,811	800,000	-0,031	-0,068
-215,796	-200,000	0,013	-0,099
-214,782	217,360	0,147	-0,168
-213,767	107,674	-0,055	-0,047
-212,752	325,965	0,136	0,186
-211,738	-200,000	-0,027	0,216
-210,723	-200,000	0,000	-0,032
-209,709	-92,181	0,079	-0,016
-208,694	487,783	0,114	-0,186
-207,679	-200,000	-0,009	-0,095
-206,665	53,858	-0,077	-0,053
-205,650	-200,000	0,022	0,107
-204,636	800,000	0,042	0,101
-203,621	26,735	-0,047	-0,028
-202,606	687,112	-0,039	-0,072
-201,592	-200,000	0,006	-0,065
-200,577	246,536	-0,075	-0,091
-199,563	61,962	-0,013	-0,009
-198,548	800,000	0,027	-0,058
-197,533	115,483	-0,017	0,014
-196,519	-46,454	0,196	0,068
-195,504	-119,212	-0,048	-0,006
-194,490	-146,786	-0,094	0,006
-193,475	128,952	-0,104	-0,094
-192,460	296,954	-0,030	-0,039
-191,446	585,018	-0,031	0,054
-190,431	-144,629	0,058	0,004
-189,417	-200,000	0,007	0,102
-188,402	84,860	0,073	-0,057
-187,387	-200,000	-0,026	-0,219
-186,373	296,335	-0,043	-0,056
-185,358	-148,467	-0,054	-0,003
-184,344	-166,617	-0,123	-0,004
-183,329	-200,000	0,014	0,106
-182,315	-94,784	0,060	-0,012
-181,300	-200,000	0,017	0,103
-180,285	64,057	-0,126	0,090
-179,271	-200,000	-0,008	0,113
-178,256	502,035	0,074	0,123
-177,242	-90,324	-0,098	-0,020
-176,227	125,259	0,176	-0,158
-175,212	-85,122	-0,079	-0,017
-174,198	800,000	0,040	-0,087
-173,183	367,810	0,030	0,044
-172,169	-58,094	-0,045	0,014
-171,154	-200,000	-0,025	-0,110
-170,139	-93,888	0,152	0,029
-169,125	-200,000	-0,018	0,078
-168,110	800,000	0,034	0,088
-167,096	635,918	0,014	0,025
-166,081	8,995	0,008	0,004
-165,066	176,826	-0,074	-0,077
-164,052	-200,000	-0,013	0,043
-163,037	-124,389	0,047	-0,005
-162,023	-200,000	0,014	0,047
-161,008	287,155	-0,039	-0,051
-159,993	800,000	0,055	-0,145
-158,979	129,295	-0,135	-0,123
-157,964	-144,377	0,181	0,012
-156,950	247,210	0,053	0,064
-155,935	52,518	-0,066	0,045
-154,920	800,000	0,049	0,111
-153,906	470,404	-0,067	0,108
-152,891	-200,000	-0,018	-0,116
-151,877	-39,933	-0,036	0,013
-150,862	33,717	-0,065	-0,040
-149,847	800,000	0,063	-0,136
-148,833	332,574	0,064	-0,089
-147,818	800,000	0,026	0,076
-146,804	-83,313	0,100	0,023
-145,789	-62,251	-0,096	0,028
-144,775	-98,662	0,053	0,010
-143,760	625,798	-0,029	-0,053
-142,745	291,179	0,081	-0,105
-141,731	800,000	-0,004	-0,007
-140,716	800,000	-0,084	0,177
-139,702	656,507	0,089	0,164
-138,687	90,304	0,115	0,092
-137,672	800,000	0,023	0,065
-136,658	-200,000	0,011	-0,049
-135,643	800,000	-0,054	-0,142
-134,629	-94,426	-0,026	-0,005
-133,614	25,679	0,090	-0,053
-132,599	23,197	-0,077	0,045
-131,585	-25,421	0,066	-0,028
-130,570	457,628	0,028	-0,045
-129,556	-200,000	-0,007	0,050
-128,541	800,000	-0,014	-0,029
-127,526	29,042	0,036	0,022
-126,512	605,456	-0,067	0,119
-125,497	-200,000	-0,021	0,174
-124,483	22,665	0,114	0,066
-123,468	203,787	-0,065	-0,072
-122,453	-200,000	0,037	-0,128
-121,439	800,000	-0,047	0,099
-120,424	45,310	0,082	0,054
-119,410	462,407	-0,031	0,049
-118,395	-200,000	-0,000	0,068
-117,380	-200,000	0,006	0,069
-116,366	-35,273	-0,028	0,011
-115,351	20,174	-0,023	0,013
-114,337	-200,000	0,002	-0,141
-113,322	-154,086	-0,183	-0,009
-112,307	18,230	-0,107	0,061
-111,293	260,487	0,117	0,144
-110,278	478,723	0,079	0,127
-109,264	800,000	0,005	-0,015
-108,249	-127,648	0,092	0,009
-107,234	800,000	-0,045	-0,100
-106,220	-200,000	0,040	-0,198
-105,205	-200,000	0,008	0,132
-104,191	-200,000	0,002	-0,023
-103,176	-3,464	-0,013	0,006
-102,162	511,811	-0,048	-0,079
-101,147	-200,000	0,008	0,084
-100,132	-200,000	0,016	-0,109
-99,118	800,000	-0,041	-0,109
-98,103	381,258	0,039	-0,057
-97,089	113,872	0,044	0,038
-96,074	800,000	0,032	0,079
-95,059	-200,000	-0,001	0,013
-94,045	-200,000	0,004	-0,028
-93,030	-200,000	0,014	-0,045
-92,016	-127,571	-0,173	0,018
-91,001	13,752	-0,131	0,072
-89,986	800,000	0,043	0,103
-88,972	-200,000	-0,004	-0,069
-87,957	-135,890	-0,079	0,006
-86,943	-4,266	-0,076	0,037
-85,928	73,731	0,066	0,049
-84,913	-200,000	0,039	0,157
-83,899	724,443	-0,016	0,030
-82,884	343,045	0,074	-0,103
-81,870	-200,000	-0,011	-0,057
-80,855	800,000	-0,036	0,098
-79,840	-200,000	0,024	0,131
-78,826	-0,572	0,153	0,077
-77,811	306,180	0,049	-0,065
-76,797	42,949	0,015	0,009
-75,782	138,810	-0,059	0,055
-74,767	129,385	-0,036	-0,033
-73,753	249,328	0,031	0,037
-72,738	800,000	0,057	-0,119
-71,724	-200,000	0,002	0,040
-70,709	-200,000	0,003	0,036
-69,694	432,200	-0,057	0,088
-68,680	-52,759	0,158	0,051
-67,665	265,300	0,129	0,160
-66,651	133,543	-0,107	0,098
-65,636	-200,000	0,009	0,047
-64,622	144,583	0,046	-0,044
-63,607	800,000	0,049	0,111
-62,592	-56,513	-0,185	-0,058
-61,578	-200,000	-0,041	-0,145
-60,563	-186,536	-0,013	-0,000
-59,549	173,200	-0,095	0,097
-58,534	-35,162	-1,399	-0,538
-57,519	399,204	-1,508	-2,246
-56,505	-200,000	-0,630	-4,384
-55,490	195,302	1,020	1,100
-54,476	800,000	4,714	10,977
-53,461	-200,000	17,973	285,387
-52,446	800,000	726,133	2225,307
-51,432	556,031	1641,491	2813,366
-50,417	79,767	1663,392	1265,103
-49,403	23,206	1537,238	892,511
-48,388	17,233	1460,696	819,155
-47,373	17,974	1450,683	817,078
-46,359	17,463	1441,183	809,251
-45,344	15,442	1436,578	796,990
-44,330	15,404	1434,668	795,713
-43,315	15,413	1432,680	794,625
-42,300	15,442	1431,162	793,888
-41,286	15,476	1429,995	793,372
-40,271	15,448	1428,653	792,463
-39,257	15,447	1427,380	791,720
-38,242	15,442	1426,284	791,056
-37,227	15,510	1424,927	790,593
-36,213	15,498	1423,621	789,784
-35,198	15,446	1422,416	788,838
-34,184	15,516	1421,495	788,626
-33,169	15,447	1420,496	787,713
-32,154	15,498	1419,237	787,224
-31,140	15,484	1417,924	786,401
-30,125	15,534	1416,465	785,795
-29,111	15,481	1415,544	785,001
-28,096	15,467	1414,471	784,309
-27,082	15,449	1413,351	783,574
-26,067	15,381	1412,399	782,698
-25,052	15,424	1411,247	782,228
-24,038	15,406	1410,226	781,547
-23,023	15,413	1409,252	781,010
-22,009	15,413	1408,326	780,463
-20,994	15,328	1407,450	779,553
-19,979	15,334	1406,597	779,075
-18,965	15,314	1405,522	778,356
-17,950	15,323	1404,453	777,773
-16,936	15,335	1403,619	777,339
-15,921	15,273	1402,337	776,307
-14,906	15,252	1401,480	775,705
-13,892	15,330	1400,439	775,461
-12,877	15,333	1399,559	774,955
-11,863	15,300	1398,651	774,269
-10,848	15,307	1397,807	773,806
-9,833	15,308	1396,705	773,171
-8,819	15,242	1396,031	772,460
-7,804	15,260	1394,812	771,837
-6,790	15,201	1394,044	771,109
-5,775	15,207	1392,960	770,508
-4,760	15,233	1392,206	770,178
-3,746	15,241	1391,229	769,646
-2,731	15,183	1390,565	768,980
-1,717	15,190	1389,639	768,469
-0,702	15,210	1387,785	767,505
0,313	19,090	1307,412	740,986
1,327	35,601	707,142	439,072
2,342	54,925	124,822	85,239
3,356	-0,010	16,678	8,386
4,371	-4,359	3,172	1,548
5,386	46,082	0,376	0,246
6,400	335,877	-0,064	0,088
7,415	443,944	-0,163	-0,254
8,429	-123,805	-0,225	-0,025
9,444	129,934	-0,363	-0,329
10,459	44,819	-0,195	-0,127
11,473	-68,408	-0,348	-0,095
12,488	-28,483	-0,356	-0,145
13,502	25,457	-0,314	-0,185
14,517	127,688	-0,206	-0,185
15,531	289,946	-0,313	-0,403
16,546	41,052	-0,385	-0,246
17,561	42,568	-0,282	-0,181
18,575	-33,928	-0,196	-0,076
19,590	183,996	-0,275	-0,288
20,604	1,057	-0,152	-0,077
21,619	98,062	-0,514	-0,419
22,634	47,382	-0,523	-0,344
23,648	102,631	-0,368	-0,304
24,663	16,843	-0,437	-0,244
25,677	208,825	-0,330	-0,366
26,692	111,328	-0,428	-0,365
27,707	-2,289	-0,257	-0,127
28,721	-20,865	-0,522	-0,225
29,736	270,794	-0,219	-0,272
30,750	23,349	-0,488	-0,282
31,765	156,856	-0,284	-0,277
32,780	-11,334	-0,418	-0,194
33,794	-11,516	-0,405	-0,187
34,809	83,366	-0,403	-0,310
35,823	369,036	-0,295	-0,422
36,838	101,413	-0,329	-0,271
37,853	48,068	-0,375	-0,247
38,867	-9,637	-0,442	-0,207
39,882	136,110	-0,331	-0,304
40,896	44,403	-0,295	-0,191
41,911	17,029	-0,366	-0,204
42,926	18,521	-0,318	-0,179
43,940	146,418	-0,368	-0,349
44,955	175,157	-0,322	-0,330
45,969	132,293	-0,320	-0,291
46,984	23,772	-0,401	-0,232
47,999	-71,789	-0,291	-0,076
49,013	-78,617	-0,249	-0,060
50,028	-0,601	-0,288	-0,144
51,042	170,743	-0,288	-0,292
52,057	41,992	-0,287	-0,183
53,071	64,994	-0,435	-0,309
54,086	87,039	-0,401	-0,312
55,101	-50,986	-0,308	-0,101
56,115	156,551	-0,331	-0,323
57,130	-16,446	-0,379	-0,169
58,144	82,925	-0,380	-0,291
59,159	16,424	-0,389	-0,216
60,174	-7,357	-0,344	-0,164
61,188	38,284	-0,305	-0,191
62,203	-64,595	-0,386	-0,110
63,217	62,163	-0,308	-0,216
64,232	-69,567	-0,376	-0,101
65,247	-25,097	-0,441	-0,184
66,261	43,646	-0,509	-0,328
67,276	85,635	-0,282	-0,218
68,290	57,124	-0,245	-0,168
69,305	-85,637	-0,516	-0,112
70,320	54,720	-0,288	-0,195
71,334	-137,517	-0,309	0,024
72,349	75,491	-0,233	-0,173
73,363	-42,611	-0,270	-0,096
74,378	177,260	-0,270	-0,277
75,393	-88,951	-0,396	-0,082
76,407	279,328	-0,207	-0,260
77,422	101,592	-0,265	-0,217
78,436	-45,599	-0,313	-0,109
79,451	22,622	-0,344	-0,198
80,466	325,030	-0,280	-0,377
81,480	136,393	-0,353	-0,324
82,495	34,465	-0,271	-0,166
83,509	28,339	-0,299	-0,177
84,524	62,886	-0,264	-0,185
85,539	-13,338	-0,248	-0,113
86,553	-22,485	-0,232	-0,098
87,568	103,409	-0,328	-0,270
88,582	77,594	-0,172	-0,129
89,597	138,477	-0,181	-0,167
90,611	26,030	-0,324	-0,190
91,626	800,000	-0,108	-0,217
92,641	42,112	-0,262	-0,167
93,655	39,692	-0,240	-0,151
94,670	71,521	-0,225	-0,164
95,684	-21,557	-0,185	-0,079
96,699	-129,050	-0,378	-0,037
97,714	-41,763	-0,186	-0,067
98,728	-98,584	-0,264	-0,047
99,743	-10,086	-0,278	-0,129
100,757	96,049	-0,215	-0,173
101,772	126,116	-0,222	-0,197
102,787	-80,510	-0,378	-0,088
103,801	516,904	-0,163	-0,269
104,816	69,502	-0,199	-0,144
105,830	29,705	-0,347	-0,207
106,845	29,516	-0,185	-0,110
107,860	213,054	-0,248	-0,275
108,874	131,514	-0,253	-0,228
109,889	-11,657	-0,335	-0,154
110,903	340,724	-0,133	-0,183
111,918	-2,289	-0,387	-0,190
112,933	0,099	-0,200	-0,100
113,947	-28,107	-0,290	-0,117
114,962	164,385	-0,140	-0,139
115,976	97,368	-0,261	-0,210
116,991	-4,183	-0,150	-0,072
118,006	-151,193	-0,385	-0,020
119,020	89,020	-0,309	-0,241
120,035	-126,157	-0,339	-0,035
121,049	65,135	-0,157	-0,111
122,064	-0,069	-0,264	-0,131
123,079	-68,222	-0,258	-0,070
124,093	39,895	-0,232	-0,146
125,108	35,699	-0,293	-0,180
126,122	-32,386	-0,302	-0,118
127,137	485,092	-0,134	-0,214
128,151	58,052	-0,255	-0,175
129,166	-56,550	-0,233	-0,072
130,181	-46,353	-0,208	-0,071
131,195	51,793	-0,230	-0,153
132,210	109,740	-0,285	-0,240
133,224	484,145	-0,175	-0,280
134,239	50,593	-0,254	-0,168
135,254	85,841	-0,276	-0,212
136,268	-46,268	-0,263	-0,090
137,283	-44,317	-0,198	-0,069
138,297	154,812	-0,322	-0,310
139,312	27,038	-0,230	-0,135
140,327	496,653	-0,146	-0,236
141,341	222,091	-0,183	-0,206
142,356	90,700	-0,195	-0,153
143,370	-19,302	-0,238	-0,103
144,385	66,167	-0,308	-0,218
145,400	293,784	-0,178	-0,228
146,414	-33,891	-0,272	-0,104
147,429	142,673	-0,229	-0,213
148,443	556,821	-0,154	-0,260
149,458	230,746	-0,155	-0,178
150,473	26,913	-0,274	-0,161
151,487	-173,425	-0,262	0,005
152,502	269,266	-0,272	-0,334
153,516	128,242	-0,308	-0,274
154,531	-49,175	-0,197	-0,065
155,546	169,091	-0,219	-0,219
156,560	45,633	-0,216	-0,139
157,575	110,317	-0,174	-0,146
158,589	248,090	-0,182	-0,215
159,604	62,460	-0,250	-0,174
160,619	31,368	-0,312	-0,187
161,633	149,410	-0,198	-0,188
162,648	56,938	-0,289	-0,197
163,662	409,310	-0,102	-0,152
164,677	144,688	-0,209	-0,195
165,692	-41,486	-0,285	-0,102
166,706	38,189	-0,197	-0,122
167,721	-12,239	-0,232	-0,105
168,735	-124,423	-0,271	-0,029
169,750	26,470	-0,249	-0,145
170,764	-20,855	-0,319	-0,136
171,779	339,622	-0,129	-0,176
172,794	-112,379	-0,308	0,043
173,808	-21,405	-0,242	-0,102
174,823	35,472	-0,235	-0,144
175,837	609,284	-0,165	-0,289
176,852	-73,313	-0,105	-0,027
177,867	-66,270	-0,170	-0,047
178,881	20,504	-0,294	-0,166
179,896	1,411	-0,242	-0,121
180,910	501,597	-0,218	-0,352
181,925	4,236	-0,241	-0,123
182,940	82,056	-0,122	-0,092
183,954	317,853	-0,256	-0,339
184,969	167,893	-0,186	-0,184
185,983	-21,540	-0,168	-0,071
186,998	386,722	-0,154	-0,223
188,013	-10,712	-0,163	-0,075
189,027	151,680	-0,205	-0,195
190,042	317,851	-0,211	-0,278
191,056	22,483	-0,201	-0,114
192,071	24,794	-0,167	-0,096
193,086	189,057	-0,231	-0,241
194,100	-63,354	-0,276	-0,079
195,115	25,068	-0,289	-0,167
196,129	264,096	-0,231	-0,280
197,144	53,951	-0,265	-0,177
198,159	66,039	-0,136	-0,096
199,173	29,960	-0,212	-0,126
200,188	-62,394	-0,177	-0,051
201,202	-9,729	-0,127	-0,058
202,217	-63,642	-0,194	-0,055
203,232	800,000	-0,089	-0,233
204,246	326,818	-0,130	-0,174
205,261	289,229	-0,164	-0,208
206,275	-13,139	-0,092	-0,041
207,290	235,796	-0,116	-0,134
208,304	48,219	-0,225	-0,146
209,319	139,432	-0,199	-0,183
210,334	142,850	-0,123	-0,114
211,348	-51,167	-0,270	-0,088
212,363	75,268	-0,199	-0,145
213,377	-16,397	-0,223	-0,098
214,392	-200,000	-0,027	-0,094
215,407	-27,757	-0,122	-0,049
216,421	237,316	-0,105	-0,121
217,436	224,058	-0,177	-0,199
218,450	-67,827	-0,251	-0,068
219,465	144,308	-0,193	-0,179
220,480	607,453	-0,123	-0,213
221,494	23,457	-0,256	-0,146
222,509	222,331	-0,104	-0,116
223,523	-79,966	-0,200	0,046
224,538	-29,313	-0,188	-0,075
225,553	-92,823	-0,111	-0,021
226,567	79,489	-0,190	-0,141
227,582	137,351	-0,170	-0,154
228,596	338,470	-0,120	-0,162
229,611	86,681	-0,124	-0,095
230,626	146,166	-0,157	-0,146
231,640	-147,518	-0,126	-0,007
232,655	-44,232	-0,239	-0,083
233,669	794,175	-0,113	-0,217
234,684	221,282	-0,120	-0,133
235,699	-125,546	-0,157	-0,016
236,713	462,523	-0,118	-0,183
237,728	-84,059	-0,067	-0,015
238,742	800,000	-0,050	-0,134
239,757	48,817	-0,248	-0,161
240,772	88,516	-0,196	-0,151
241,786	4,882	-0,170	-0,087
242,801	102,364	-0,120	-0,097
243,815	-85,467	-0,189	-0,041
244,830	800,000	-0,057	-0,110
245,844	46,812	-0,197	-0,127
246,859	-28,398	-0,205	-0,082
247,874	55,642	-0,270	-0,181
248,888	239,746	-0,181	-0,209
249,903	800,000	-0,077	-0,152
250,917	-73,838	-0,244	-0,061
251,932	-113,820	-0,170	0,023
252,947	-200,000	-0,007	-0,180
253,961	151,079	-0,175	-0,165
254,976	139,026	-0,160	-0,146
255,990	-27,944	-0,315	-0,126
257,005	-3,075	-0,169	-0,081
258,020	-60,791	-0,165	-0,048
259,034	395,171	-0,218	-0,316
260,049	-33,060	-0,151	-0,058
261,063	77,991	-0,155	-0,115
262,078	46,196	-0,271	-0,174
263,093	4,514	-0,292	-0,148
264,107	-61,344	-0,193	-0,056
265,122	-54,875	-0,164	-0,051
266,136	254,499	-0,091	-0,107
267,151	185,366	-0,173	-0,178
268,166	276,946	-0,060	-0,075
269,180	68,302	-0,186	-0,132
270,195	24,137	-0,330	-0,188
271,209	29,052	-0,264	-0,155
272,224	-200,000	-0,002	-0,108
273,239	0,066	-0,182	-0,089
274,253	-48,568	-0,264	-0,087
275,268	20,613	-0,101	-0,056
276,282	463,747	-0,086	-0,133
277,297	161,921	-0,143	-0,139
278,312	-116,301	-0,154	0,020
279,326	691,933	-0,095	-0,172
280,341	-3,073	-0,163	0,079
281,355	-80,326	-0,164	-0,038
282,370	-124,220	-0,101	-0,011
283,384	111,020	-0,139	-0,116
284,399	47,276	-0,167	-0,108
285,414	-200,000	-0,060	-0,190
286,428	12,250	-0,210	-0,111
287,443	-32,700	-0,267	-0,102
288,457	-69,315	-0,098	0,026
289,472	107,106	-0,156	-0,128
290,487	178,537	-0,172	-0,173
291,501	299,947	-0,183	-0,234
292,516	-51,299	-0,249	-0,080
293,530	462,325	-0,175	-0,270
294,545	255,787	-0,145	-0,173
295,560	56,136	-0,120	-0,081
296,574	-113,984	-0,110	-0,015
297,589	-172,280	-0,170	0,004
298,603	-36,676	-0,087	-0,032
299,618	145,644	-0,204	-0,189
300,633	139,443	-0,197	-0,179
301,647	528,054	-0,082	-0,134
302,662	-29,538	-0,096	-0,038
303,676	800,000	-0,060	-0,123
304,691	-3,448	-0,097	-0,046
305,706	-27,835	-0,275	-0,110
306,720	104,309	-0,079	-0,064
307,735	254,316	-0,098	-0,115
308,749	179,787	0,086	-0,087
309,764	29,072	-0,143	-0,083
310,779	-161,973	-0,200	-0,007
311,793	-118,958	-0,116	0,014
312,808	-42,918	-0,256	-0,089
313,822	-167,521	-0,296	-0,008
314,837	0,533	-0,119	-0,058
315,852	257,238	-0,150	-0,179
316,866	-120,054	-0,210	0,025
317,881	20,496	-0,180	-0,100
318,895	116,477	-0,149	-0,126
319,910	400,607	-0,155	-0,225
320,925	118,780	-0,168	-0,143
321,939	-91,916	-0,137	-0,026
322,954	596,755	-0,061	0,105
323,968	5,458	-0,165	-0,083
324,983	112,254	-0,040	0,033
325,997	5,151	-0,141	-0,071
327,012	83,208	-0,229	-0,172
328,027	92,874	-0,202	-0,157
329,041	-98,746	-0,174	-0,030
330,056	-115,387	-0,134	-0,017
331,070	-34,432	-0,254	0,095
332,085	-84,934	-0,119	-0,026
333,100	800,000	-0,054	-0,122
334,114	10,670	-0,142	-0,074
335,129	-200,000	-0,049	-0,162
336,143	54,709	-0,232	-0,154
337,158	-0,903	-0,024	0,012
338,173	140,590	-0,088	-0,080
339,187	281,652	0,075	-0,093
340,202	-78,387	-0,162	-0,038
341,216	568,055	-0,098	-0,164
342,231	372,842	-0,103	-0,144
343,246	-18,142	-0,096	0,041
344,260	143,998	-0,102	-0,094
345,275	-200,000	0,000	-0,026
346,289	-73,646	-0,160	-0,040
347,304	800,000	-0,054	-0,125
348,319	-200,000	-0,023	-0,253
349,333	-200,000	-0,016	-0,126
350,348	81,326	-0,126	-0,093
351,362	-10,747	-0,192	-0,087
352,377	-200,000	-0,030	-0,160
353,392	269,789	-0,080	-0,097
354,406	-200,000	0,005	-0,050
355,421	210,166	1313,098	1417,138
356,435	161,779	1473,642	1417,635
