DTS Sentinel unit serial number:	SN410029Multiplexer serial number:	ORYXHardware model number:	OX2-SRSoftware version number:	ORYX F/W v4,00 Oryx Data Collector v3.7.2.0data status	okinstallation	B3 Nyhavnadifferential loss correction	single-endedforward channel	channel 1reverse channel	N/Adate	2023/12/01time	19:27:30forward acquisition time	300,00reverse acquisition time	0,00gamma	499,1914k internal	0,3199k external	0,3199temperature offset calibration	1,0000default loss term (dB/km)	0,3820temperature slope calibration	1,0000multiplexer offset coefficient	1,0000multiplexer slope coefficient	1,0000fibre end	0,00T internal ref (°C)	15,43T ext. ref 1 (°C)	1,27T ext. ref 2 (°C)	1,26length (m)	temperature (°C)	Stokes	anti-Stokes-744,400	340,331	-0,229	-0,327
-743,385	-200,000	0,105	0,347
-742,371	-200,000	-0,046	-0,151
-741,356	-200,000	0,066	0,316
-740,342	-55,889	-0,169	-0,054
-739,327	-200,000	-0,071	0,323
-738,312	92,614	-0,263	-0,216
-737,298	-200,000	-0,013	0,370
-736,283	59,814	-0,244	-0,175
-735,269	546,197	0,153	0,268
-734,254	286,305	-0,275	-0,362
-733,239	99,748	-0,285	0,240
-732,225	-200,000	0,012	-0,217
-731,210	13,856	0,105	0,059
-730,196	800,000	-0,069	-0,140
-729,181	-49,999	0,020	-0,007
-728,167	-13,138	-0,028	-0,013
-727,152	-200,000	-0,002	0,083
-726,137	-30,454	0,070	-0,029
-725,123	-67,413	-0,121	0,034
-724,108	-200,000	-0,034	-0,237
-723,094	-200,000	-0,002	-0,079
-722,079	162,119	-0,042	-0,043
-721,064	11,040	-0,066	-0,036
-720,050	-161,889	-0,110	0,004
-719,035	-200,000	0,009	0,042
-718,021	800,000	0,021	-0,042
-717,006	236,963	-0,093	-0,112
-715,991	23,348	-0,085	-0,051
-714,977	-187,636	-0,079	-0,001
-713,962	-200,000	-0,022	0,075
-712,948	800,000	-0,018	-0,041
-711,933	-200,000	-0,027	-0,090
-710,918	-121,210	-0,110	-0,013
-709,904	-136,411	-0,094	0,008
-708,889	800,000	-0,057	-0,143
-707,875	71,235	-0,039	-0,029
-706,860	-96,867	0,015	-0,003
-705,845	-200,000	-0,006	-0,092
-704,831	-14,707	0,078	-0,036
-703,816	-178,024	-0,063	0,001
-702,802	158,748	-0,077	-0,078
-701,787	-200,000	0,021	-0,170
-700,772	621,022	-0,060	-0,111
-699,758	346,910	0,125	-0,179
-698,743	-131,244	-0,066	0,006
-697,729	-134,790	0,079	0,007
-696,714	2,972	-0,085	-0,045
-695,699	389,876	0,030	0,045
-694,685	-78,647	-0,171	-0,042
-693,670	800,000	-0,088	-0,230
-692,656	195,595	0,011	-0,012
-691,641	-200,000	-0,003	0,032
-690,627	-31,129	0,210	0,086
-689,612	-22,430	0,065	-0,028
-688,597	677,053	0,010	0,018
-687,583	699,752	0,019	-0,036
-686,568	-39,445	-0,151	-0,057
-685,554	-73,288	-0,106	-0,028
-684,539	-170,746	0,080	0,002
-683,524	389,070	-0,036	0,054
-682,510	369,503	-0,064	-0,095
-681,495	-33,995	-0,082	0,033
-680,481	451,064	-0,054	0,087
-679,466	-78,321	-0,116	-0,029
-678,451	800,000	-0,034	-0,081
-677,437	-86,947	-0,061	-0,013
-676,422	316,000	0,091	0,125
-675,408	53,292	-0,024	-0,017
-674,393	-1,190	-0,043	-0,022
-673,378	-200,000	-0,026	-0,095
-672,364	30,733	-0,188	-0,116
-671,349	500,596	0,056	-0,095
-670,335	-32,104	-0,060	0,024
-669,320	65,417	0,067	-0,049
-668,305	21,414	0,108	-0,064
-667,291	-84,071	0,093	0,021
-666,276	7,260	-0,054	-0,029
-665,262	-39,250	-0,142	-0,054
-664,247	-200,000	0,000	-0,179
-663,232	-200,000	0,015	-0,103
-662,218	-25,691	0,070	-0,030
-661,203	-200,000	0,002	0,013
-660,189	-152,696	-0,074	-0,004
-659,174	318,841	0,055	0,076
-658,159	715,632	-0,053	-0,102
-657,145	135,883	-0,089	-0,084
-656,130	114,644	-0,117	-0,104
-655,116	237,800	0,082	0,098
-654,101	-200,000	-0,028	0,127
-653,086	-148,649	-0,082	0,005
-652,072	-56,854	-0,160	-0,051
-651,057	149,852	-0,043	0,042
-650,043	67,349	0,049	-0,036
-649,028	-200,000	-0,020	-0,133
-648,014	486,412	-0,060	-0,099
-646,999	-200,000	0,017	-0,090
-645,984	-131,668	-0,057	-0,005
-644,970	357,942	-0,090	0,131
-643,955	629,649	0,031	0,057
-642,941	800,000	-0,022	0,059
-641,926	-200,000	0,008	0,087
-640,911	602,723	0,042	0,077
-639,897	415,025	0,056	-0,087
-638,882	-189,619	-0,042	-0,000
-637,868	800,000	0,017	-0,034
-636,853	676,636	-0,021	-0,039
-635,838	800,000	-0,031	-0,088
-634,824	-57,617	-0,139	-0,044
-633,809	800,000	0,072	-0,227
-632,795	-52,775	-0,030	-0,010
-631,780	-200,000	-0,006	0,126
-630,765	142,533	0,065	-0,063
-629,751	-51,970	0,052	0,017
-628,736	-96,582	-0,123	0,023
-627,722	800,000	0,027	-0,073
-626,707	127,221	-0,073	-0,067
-625,692	-200,000	0,058	0,244
-624,678	148,743	0,073	0,071
-623,663	-200,000	-0,027	0,108
-622,649	-61,506	-0,028	-0,008
-621,634	-87,807	-0,063	-0,014
-620,619	457,089	-0,083	0,133
-619,605	-28,376	0,182	0,076
-618,590	-22,483	-0,043	-0,019
-617,576	87,216	0,083	0,066
-616,561	17,657	0,063	0,036
-615,546	-31,232	-0,212	-0,086
-614,532	28,613	-0,018	0,011
-613,517	-56,225	-0,112	-0,036
-612,503	-24,209	0,025	-0,011
-611,488	48,656	0,065	0,044
-610,474	-200,000	0,016	0,109
-609,459	92,026	0,020	-0,016
-608,444	-200,000	-0,008	0,068
-607,430	-200,000	-0,002	-0,044
-606,415	257,018	-0,018	-0,022
-605,401	-200,000	0,021	0,082
-604,386	-14,661	-0,128	-0,059
-603,371	726,606	-0,067	0,130
-602,357	230,367	0,031	0,037
-601,342	313,740	-0,009	0,013
-600,328	-51,645	-0,065	-0,022
-599,313	504,405	-0,031	-0,052
-598,298	-55,406	-0,149	-0,048
-597,284	461,378	-0,060	0,097
-596,269	-16,564	0,083	-0,038
-595,255	611,773	-0,044	0,080
-594,240	800,000	-0,043	0,120
-593,225	-200,000	0,009	0,045
-592,211	800,000	0,064	-0,143
-591,196	302,492	0,027	0,037
-590,182	80,433	0,066	0,052
-589,167	604,805	0,029	-0,052
-588,152	-200,000	0,010	-0,046
-587,138	225,268	-0,088	0,103
-586,123	-172,347	0,068	-0,002
-585,109	189,229	-0,070	-0,076
-584,094	-126,597	-0,105	0,011
-583,079	-108,641	0,033	-0,005
-582,065	-52,744	0,184	0,061
-581,050	177,304	0,025	-0,027
-580,036	771,223	-0,072	-0,143
-579,021	-69,873	-0,116	-0,032
-578,006	800,000	0,025	0,064
-576,992	152,318	0,107	-0,106
-575,977	-119,755	-0,049	-0,006
-574,963	-47,292	-0,040	0,014
-573,948	-8,772	0,136	-0,065
-572,934	-127,834	-0,036	0,004
-571,919	410,717	-0,085	-0,131
-570,904	800,000	0,023	-0,057
-569,890	80,192	0,042	0,032
-568,875	-66,933	0,125	-0,035
-567,861	-26,607	0,136	0,057
-566,846	-200,000	-0,016	0,054
-565,831	-200,000	-0,003	-0,079
-564,817	-60,125	-0,159	-0,049
-563,802	518,612	0,027	-0,046
-562,788	74,571	0,081	0,062
-561,773	-200,000	0,033	-0,113
-560,758	276,255	0,131	-0,168
-559,744	-200,000	0,033	-0,105
-558,729	-6,591	-0,048	0,023
-557,715	-200,000	-0,002	0,048
-556,700	-200,000	-0,017	0,056
-555,685	134,264	-0,021	0,020
-554,671	-71,395	-0,134	-0,036
-553,656	800,000	0,055	0,123
-552,642	-35,086	0,060	0,023
-551,627	167,471	0,049	0,050
-550,612	56,017	0,080	-0,056
-549,598	800,000	0,046	-0,113
-548,583	98,594	-0,083	0,069
-547,569	25,552	-0,033	0,020
-546,554	40,564	0,029	-0,019
-545,539	-200,000	0,010	0,075
-544,525	97,143	-0,113	-0,094
-543,510	4,895	-0,094	0,050
-542,496	422,518	0,070	-0,109
-541,481	800,000	-0,049	-0,140
-540,466	-200,000	-0,020	-0,075
-539,452	-200,000	-0,011	-0,049
-538,437	289,802	0,051	0,067
-537,423	16,616	0,155	0,088
-536,408	82,628	0,028	-0,022
-535,393	800,000	-0,025	-0,060
-534,379	-16,013	-0,018	0,008
-533,364	-200,000	0,001	-0,083
-532,350	-52,387	0,086	0,028
-531,335	-168,666	0,113	-0,003
-530,321	-200,000	-0,003	0,155
-529,306	-72,207	-0,072	-0,019
-528,291	106,203	-0,054	-0,046
-527,277	-153,365	0,094	0,005
-526,262	800,000	-0,041	0,128
-525,248	-200,000	0,035	0,171
-524,233	-85,148	0,091	0,020
-523,218	151,023	0,047	0,046
-522,204	575,497	-0,037	-0,065
-521,189	-5,187	-0,190	0,094
-520,175	-200,000	0,013	0,155
-519,160	12,504	-0,155	0,086
-518,145	749,348	0,056	0,109
-517,131	-200,000	-0,013	-0,091
-516,116	14,378	-0,082	0,046
-515,102	206,384	-0,062	0,070
-514,087	13,977	0,029	0,016
-513,072	679,350	-0,099	-0,186
-512,058	-37,785	0,050	-0,019
-511,043	11,600	-0,078	-0,043
-510,029	-200,000	0,008	-0,029
-509,014	-70,873	0,068	-0,018
-507,999	-200,000	0,002	-0,036
-506,985	41,274	-0,062	-0,040
-505,970	-0,630	-0,063	0,032
-504,956	-58,093	0,052	-0,016
-503,941	800,000	0,021	0,063
-502,926	-62,794	0,052	0,015
-501,912	78,562	0,032	0,025
-500,897	-200,000	0,006	0,086
-499,883	85,595	-0,060	0,048
-498,868	184,409	-0,032	0,034
-497,853	156,329	0,054	-0,054
-496,839	54,601	0,061	0,043
-495,824	389,404	0,065	0,097
-494,810	118,738	0,069	0,061
-493,795	-58,863	0,137	-0,042
-492,781	800,000	-0,003	-0,008
-491,766	-156,276	-0,231	0,010
-490,751	-42,441	-0,022	0,008
-489,737	-147,818	-0,060	0,004
-488,722	210,991	-0,052	-0,059
-487,708	-200,000	0,005	0,127
-486,693	682,663	0,005	-0,009
-485,678	800,000	0,003	-0,009
-484,664	-200,000	0,025	0,116
-483,649	-200,000	0,001	-0,178
-482,635	-81,518	-0,096	-0,022
-481,620	-200,000	0,011	-0,140
-480,605	67,176	-0,034	0,025
-479,591	113,814	0,053	0,046
-478,576	336,397	-0,050	0,071
-477,562	-200,000	-0,004	-0,102
-476,547	59,306	-0,034	-0,024
-475,532	153,068	0,078	-0,077
-474,518	19,357	-0,049	0,028
-473,503	-121,256	0,060	-0,007
-472,489	800,000	-0,044	0,130
-471,474	398,635	0,089	-0,135
-470,459	800,000	0,045	-0,111
-469,445	-200,000	-0,014	-0,131
-468,430	800,000	0,038	-0,077
-467,416	223,787	-0,038	-0,044
-466,401	800,000	0,060	0,130
-465,386	160,472	0,040	0,040
-464,372	232,138	0,030	-0,036
-463,357	800,000	0,036	-0,099
-462,343	68,163	-0,101	-0,074
-461,328	429,425	0,022	-0,034
-460,313	305,645	-0,063	0,085
-459,299	152,634	-0,033	-0,032
-458,284	-200,000	0,005	0,061
-457,270	-48,573	-0,062	0,021
-456,255	-76,894	-0,075	0,019
-455,241	539,357	-0,070	-0,121
-454,226	-200,000	0,008	0,043
-453,211	-200,000	0,009	0,075
-452,197	-200,000	-0,005	0,048
-451,182	567,885	-0,068	0,119
-450,168	692,767	-0,061	-0,116
-449,153	-25,046	-0,114	-0,048
-448,138	-60,171	-0,123	0,038
-447,124	-84,289	-0,143	-0,032
-446,109	-43,615	-0,047	-0,017
-445,095	531,463	-0,049	0,084
-444,080	479,457	0,037	-0,061
-443,065	61,959	0,099	0,071
-442,051	-40,203	-0,093	0,035
-441,036	800,000	0,044	0,093
-440,022	113,581	-0,154	0,134
-439,007	800,000	-0,028	0,055
-437,992	-142,947	0,069	-0,005
-436,978	190,657	-0,056	0,060
-435,963	-49,520	0,104	0,035
-434,949	181,944	0,023	-0,024
-433,934	-2,467	-0,128	-0,064
-432,919	519,556	0,035	-0,059
-431,905	-109,482	-0,170	-0,026
-430,890	-200,000	-0,019	0,066
-429,876	-83,130	0,091	-0,021
-428,861	-200,000	0,025	0,101
-427,846	30,714	0,112	0,069
-426,832	254,829	0,115	-0,142
-425,817	-82,153	-0,063	0,015
-424,803	-59,301	-0,052	0,016
-423,788	-132,270	0,136	-0,012
-422,773	-20,632	0,070	0,031
-421,759	147,743	-0,033	0,032
-420,744	-185,831	-0,123	-0,001
-419,730	739,810	-0,033	0,064
-418,715	-175,850	-0,219	0,004
-417,701	-46,132	0,048	-0,017
-416,686	-55,325	0,039	-0,012
-415,671	-158,236	0,194	0,008
-414,657	800,000	0,037	0,095
-413,642	-9,585	0,121	0,058
-412,628	5,301	0,084	-0,044
-411,613	-104,502	-0,110	0,018
-410,598	-76,028	0,110	-0,028
-409,584	162,255	0,031	0,031
-408,569	-200,000	-0,018	0,105
-407,555	29,810	-0,073	0,045
-406,540	65,807	0,093	0,068
-405,525	-200,000	-0,004	-0,057
-404,511	-200,000	-0,014	-0,090
-403,496	-95,980	0,055	-0,010
-402,482	-34,351	0,030	-0,012
-401,467	307,691	0,118	-0,159
-400,452	45,198	-0,031	-0,020
-399,438	-62,935	-0,120	-0,035
-398,423	95,391	0,025	-0,020
-397,409	-101,629	-0,192	-0,033
-396,394	32,895	0,176	-0,109
-395,379	-80,868	0,131	-0,031
-394,365	-49,836	-0,016	0,006
-393,350	-41,333	0,144	0,053
-392,336	-200,000	-0,050	-0,201
-391,321	139,854	-0,015	0,014
-390,306	-2,691	0,068	-0,034
-389,292	800,000	0,032	-0,093
-388,277	13,362	0,059	-0,032
-387,263	-200,000	0,011	0,124
-386,248	-92,697	0,138	0,028
-385,233	800,000	0,025	0,069
-384,219	-83,781	-0,092	0,021
-383,204	41,424	-0,049	-0,032
-382,190	48,921	-0,081	-0,054
-381,175	800,000	0,004	-0,010
-380,160	-200,000	-0,012	0,083
-379,146	551,355	0,024	0,042
-378,131	210,255	0,081	0,091
-377,117	-68,675	0,116	-0,032
-376,102	800,000	-0,019	-0,059
-375,088	217,834	-0,037	0,043
-374,073	316,351	-0,062	-0,084
-373,058	39,019	0,066	0,042
-372,044	-156,454	0,061	-0,003
-371,029	-200,000	0,002	-0,041
-370,015	438,374	0,080	0,126
-369,000	170,774	-0,017	0,018
-367,985	84,262	0,097	-0,076
-366,971	-88,592	-0,202	0,043
-365,956	-200,000	0,048	0,169
-364,942	800,000	0,048	0,102
-363,927	568,155	-0,061	0,107
-362,912	800,000	-0,069	0,168
-361,898	-58,440	0,092	-0,028
-360,883	-200,000	-0,026	-0,147
-359,869	-200,000	-0,007	-0,069
-358,854	33,678	-0,054	-0,034
-357,839	800,000	0,047	0,119
-356,825	-110,982	0,046	0,007
-355,810	-78,226	0,091	-0,022
-354,796	129,834	0,097	-0,089
-353,781	-100,754	-0,070	0,012
-352,766	84,733	-0,025	-0,019
-351,752	274,408	-0,017	0,021
-350,737	-196,101	0,131	0,001
-349,723	800,000	0,053	0,118
-348,708	83,258	0,027	0,021
-347,693	800,000	0,076	-0,169
-346,679	167,383	-0,131	-0,133
-345,664	-45,976	-0,145	-0,051
-344,650	-200,000	0,025	0,081
-343,635	-200,000	0,179	0,000
-342,620	-165,259	0,123	-0,004
-341,606	-200,000	-0,022	0,089
-340,591	-9,665	-0,185	0,088
-339,577	-200,000	-0,063	-0,236
-338,562	800,000	-0,022	-0,059
-337,548	-200,000	-0,006	0,035
-336,533	-200,000	0,016	0,068
-335,518	31,617	0,012	0,007
-334,504	-115,991	-0,046	0,006
-333,489	436,453	0,071	0,110
-332,475	67,420	0,070	-0,051
-331,460	800,000	0,040	0,093
-330,445	800,000	-0,071	-0,152
-329,431	-172,748	-0,025	0,001
-328,416	-76,235	0,088	-0,022
-327,402	-31,678	-0,022	0,009
-326,387	800,000	0,036	0,083
-325,372	439,808	0,032	-0,050
-324,358	265,019	-0,094	0,117
-323,343	89,492	-0,083	-0,066
-322,329	-82,151	0,126	0,029
-321,314	167,576	-0,071	-0,073
-320,299	7,534	-0,100	0,053
-319,285	800,000	0,076	0,199
-318,270	-200,000	0,006	-0,134
-317,256	-86,206	-0,030	0,006
-316,241	-200,000	-0,048	-0,230
-315,226	198,610	0,084	0,092
-314,212	379,616	-0,045	0,066
-313,197	407,698	-0,034	-0,052
-312,183	800,000	-0,006	-0,013
-311,168	-200,000	-0,011	0,067
-310,153	-200,000	0,007	-0,031
-309,139	-21,532	-0,101	-0,044
-308,124	800,000	0,046	0,104
-307,110	-181,830	0,137	-0,002
-306,095	38,245	0,114	0,072
-305,080	198,910	-0,050	0,055
-304,066	60,142	0,076	-0,054
-303,051	-140,283	-0,061	-0,005
-302,037	-62,339	0,021	0,006
-301,022	615,496	0,017	-0,031
-300,008	-85,311	-0,086	-0,019
-298,993	-135,623	-0,080	-0,007
-297,978	66,797	0,079	-0,057
-296,964	145,164	0,056	0,054
-295,949	25,639	-0,098	-0,058
-294,935	-3,910	0,082	-0,040
-293,920	-176,321	0,041	0,001
-292,905	240,764	0,150	0,180
-291,891	248,246	0,057	0,069
-290,876	-87,793	-0,123	0,026
-289,862	-80,407	0,113	0,027
-288,847	-200,000	0,004	0,060
-287,832	800,000	0,028	0,079
-286,818	82,776	-0,084	-0,065
-285,803	-21,181	0,162	0,070
-284,789	-104,829	-0,069	-0,011
-283,774	137,077	-0,136	0,127
-282,759	-200,000	-0,013	0,088
-281,745	76,665	-0,103	0,078
-280,730	50,291	-0,157	-0,106
-279,716	-200,000	0,010	-0,068
-278,701	171,384	-0,017	-0,017
-277,686	-200,000	-0,016	-0,059
-276,672	800,000	0,062	0,127
-275,657	90,292	-0,074	-0,059
-274,643	800,000	-0,014	-0,032
-273,628	-28,383	-0,050	-0,020
-272,613	-1,682	0,122	-0,061
-271,599	-161,836	-0,182	-0,006
-270,584	151,585	-0,012	-0,012
-269,570	152,999	0,022	-0,021
-268,555	-200,000	-0,011	-0,060
-267,540	800,000	0,043	-0,094
-266,526	-55,982	-0,128	-0,040
-265,511	172,766	-0,120	-0,123
-264,497	-200,000	-0,037	-0,186
-263,482	800,000	0,020	0,045
-262,467	-107,216	-0,071	-0,011
-261,453	-200,000	-0,008	-0,037
-260,438	-137,864	-0,057	-0,005
-259,424	-200,000	-0,023	-0,083
-258,409	121,707	0,075	-0,067
-257,395	-200,000	0,027	-0,154
-256,380	-25,150	0,043	-0,018
-255,365	-103,137	0,118	-0,020
-254,351	-200,000	-0,020	-0,101
-253,336	1,089	0,034	-0,017
-252,322	-200,000	-0,021	-0,122
-251,307	242,528	-0,045	0,053
-250,292	361,241	-0,025	-0,035
-249,278	116,330	-0,109	0,095
-248,263	305,433	0,026	0,034
-247,249	-200,000	-0,005	-0,052
-246,234	273,281	-0,082	0,104
-245,219	659,824	-0,061	-0,112
-244,205	-134,283	-0,102	0,009
-243,190	-88,067	0,111	0,024
-242,176	13,885	0,076	0,042
-241,161	-88,651	0,186	-0,039
-240,146	-128,063	0,079	0,008
-239,132	-69,798	0,051	0,014
-238,117	713,665	-0,014	-0,026
-237,103	-168,054	0,100	-0,003
-236,088	-200,000	-0,013	0,169
-235,073	718,182	0,068	0,129
-234,059	453,812	-0,036	0,057
-233,044	56,277	0,047	-0,032
-232,030	-200,000	-0,018	0,169
-231,015	30,554	-0,111	-0,067
-230,000	-49,883	-0,136	0,046
-228,986	-200,000	0,015	-0,084
-227,971	-200,000	0,012	-0,039
-226,957	301,310	0,076	0,101
-225,942	103,628	-0,028	0,023
-224,927	-200,000	0,001	0,025
-223,913	183,575	0,089	0,094
-222,898	686,723	-0,014	-0,026
-221,884	-200,000	-0,038	-0,157
-220,869	-200,000	0,016	-0,121
-219,855	222,105	0,046	0,053
-218,840	-107,515	-0,042	0,006
-217,825	-44,465	0,047	0,017
-216,811	-81,876	0,053	-0,012
-215,796	208,290	-0,036	-0,041
-214,782	-38,512	-0,029	0,011
-213,767	800,000	-0,008	0,024
-212,752	-200,000	0,017	-0,157
-211,738	-91,000	0,078	-0,016
-210,723	-200,000	0,009	0,045
-209,709	-200,000	-0,022	-0,078
-208,694	-151,679	-0,138	0,007
-207,679	800,000	-0,015	-0,043
-206,665	-200,000	-0,006	0,060
-205,650	67,559	-0,032	0,023
-204,636	800,000	0,039	0,103
-203,621	468,426	0,059	0,094
-202,606	294,724	-0,035	0,046
-201,592	10,095	0,068	-0,037
-200,577	9,683	0,015	-0,008
-199,563	720,809	-0,031	-0,059
-198,548	1,915	-0,039	-0,020
-197,533	-200,000	-0,006	0,117
-196,519	-99,444	0,053	0,009
-195,504	-91,998	-0,056	0,011
-194,490	136,684	-0,012	0,011
-193,475	-73,524	-0,216	-0,056
-192,460	-156,076	0,102	0,005
-191,446	-174,598	0,044	0,001
-190,431	-200,000	-0,015	-0,077
-189,417	-70,408	-0,052	-0,014
-188,402	72,521	0,131	-0,097
-187,387	-78,685	-0,188	-0,045
-186,373	-7,954	0,064	-0,031
-185,358	32,871	0,055	-0,034
-184,344	377,100	0,034	0,050
-183,329	75,733	0,064	-0,048
-182,315	-200,000	0,012	0,067
-181,300	-150,878	-0,059	-0,003
-180,285	-16,719	0,075	0,033
-179,271	361,231	0,034	-0,049
-178,256	130,560	-0,101	0,092
-177,242	-83,943	0,067	-0,015
-176,227	29,223	0,133	0,080
-175,212	798,311	0,052	0,102
-174,198	136,417	-0,088	-0,082
-173,183	-200,000	-0,024	-0,155
-172,169	110,724	-0,041	0,035
-171,154	-200,000	-0,041	0,144
-170,139	800,000	0,012	-0,039
-169,125	283,935	0,065	0,083
-168,110	290,896	0,056	0,072
-167,096	121,423	-0,095	-0,084
-166,081	263,913	-0,031	0,038
-165,066	198,079	-0,090	-0,098
-164,052	-29,010	0,090	-0,037
-163,037	-26,520	-0,068	0,028
-162,023	104,754	0,059	0,049
-161,008	8,145	0,066	-0,035
-159,993	-200,000	0,028	-0,174
-158,979	-200,000	-0,017	-0,086
-157,964	202,856	-0,023	0,025
-156,950	305,312	0,099	-0,132
-155,935	-93,604	-0,028	-0,005
-154,920	3,650	0,194	0,100
-153,906	352,248	0,048	0,068
-152,891	-200,000	-0,002	-0,050
-151,877	49,647	-0,200	-0,134
-150,862	100,590	-0,071	0,059
-149,847	-200,000	-0,018	-0,132
-148,833	-86,476	-0,100	-0,022
-147,818	11,586	0,125	0,068
-146,804	-110,773	0,060	0,009
-145,789	252,402	-0,024	-0,029
-144,775	46,971	-0,077	0,051
-143,760	-109,577	-0,135	-0,020
-142,745	-72,508	0,038	-0,010
-141,731	800,000	-0,065	0,158
-140,716	-107,949	0,129	0,020
-139,702	-139,012	-0,066	-0,005
-138,687	49,242	-0,081	-0,054
-137,672	293,109	0,061	0,079
-136,658	-35,501	-0,153	-0,059
-135,643	-200,000	0,010	0,074
-134,629	-76,124	0,075	-0,019
-133,614	0,263	0,086	-0,043
-132,599	800,000	0,016	-0,037
-131,585	-44,840	0,062	-0,022
-130,570	20,879	-0,089	-0,051
-129,556	207,070	-0,011	0,013
-128,541	-200,000	-0,012	-0,049
-127,526	361,701	-0,031	0,045
-126,512	-200,000	0,001	-0,079
-125,497	107,851	-0,061	-0,051
-124,483	-126,712	-0,063	-0,007
-123,468	-34,685	0,114	-0,044
-122,453	69,546	-0,105	-0,077
-121,439	185,693	-0,057	-0,060
-120,424	-74,741	-0,127	-0,032
-119,410	83,951	0,065	0,050
-118,395	230,123	-0,062	0,072
-117,380	236,064	0,086	0,102
-116,366	-200,000	0,005	-0,129
-115,351	181,839	-0,139	-0,145
-114,337	241,197	-0,077	-0,092
-113,322	694,976	0,061	-0,114
-112,307	187,946	0,080	0,085
-111,293	149,219	-0,113	0,109
-110,278	800,000	-0,030	0,072
-109,264	-80,022	0,107	0,025
-108,249	-140,255	0,144	-0,011
-107,234	-166,743	-0,218	-0,006
-106,220	583,866	0,070	-0,122
-105,205	-139,599	-0,075	0,006
-104,191	-200,000	-0,054	0,175
-103,176	-22,580	0,134	-0,057
-102,162	592,814	0,020	0,036
-101,147	-200,000	-0,007	-0,083
-100,132	-98,028	-0,146	-0,026
-99,118	800,000	-0,053	0,141
-98,103	69,056	0,024	-0,017
-97,089	-82,245	0,141	0,032
-96,074	-109,280	0,106	0,016
-95,059	800,000	0,079	0,184
-94,045	461,008	-0,010	-0,016
-93,030	-182,370	0,026	-0,000
-92,016	132,785	-0,036	0,033
-91,001	-200,000	0,017	-0,071
-89,986	-165,627	0,128	-0,004
-88,972	-98,703	0,070	0,013
-87,957	9,480	-0,151	-0,081
-86,943	381,233	0,035	-0,051
-85,928	570,623	-0,063	-0,109
-84,913	510,762	-0,001	0,001
-83,899	-124,204	0,130	-0,014
-82,884	256,866	0,072	-0,088
-81,870	800,000	0,022	0,068
-80,855	54,456	-0,146	0,099
-79,840	37,640	0,072	-0,045
-78,826	137,118	-0,085	-0,079
-77,811	115,184	-0,024	-0,021
-76,797	-200,000	0,005	-0,037
-75,782	-44,666	0,075	0,026
-74,767	-25,271	0,120	-0,050
-73,753	-200,000	0,053	0,204
-72,738	-110,723	0,112	-0,016
-71,724	-69,305	-0,058	-0,016
-70,709	-200,000	-0,003	0,075
-69,694	480,304	-0,023	0,037
-68,680	800,000	-0,034	0,085
-67,665	800,000	-0,042	-0,089
-66,651	545,063	0,031	-0,053
-65,636	-38,051	-0,153	-0,057
-64,622	118,950	-0,034	0,030
-63,607	95,286	-0,025	-0,020
-62,592	-200,000	-0,067	-0,224
-61,578	56,541	-0,051	0,035
-60,563	-182,091	0,084	-0,001
-59,549	613,240	0,051	0,091
-58,534	-57,313	-1,494	-0,462
-57,519	394,693	-1,559	-2,309
-56,505	-200,000	-0,386	-4,266
-55,490	178,740	0,797	0,826
-54,476	800,000	4,868	11,248
-53,461	-200,000	17,820	285,929
-52,446	800,000	722,781	2231,997
-51,432	561,939	1637,080	2816,072
-50,417	80,355	1660,522	1265,124
-49,403	23,274	1534,441	890,688
-48,388	17,301	1457,464	817,175
-47,373	18,010	1447,472	814,947
-46,359	17,513	1438,107	807,270
-45,344	15,567	1433,237	795,248
-44,330	15,473	1431,374	793,736
-43,315	15,492	1429,764	792,902
-42,300	15,518	1427,955	791,989
-41,286	15,525	1426,853	791,379
-40,271	15,562	1425,422	790,729
-39,257	15,495	1424,283	789,750
-38,242	15,549	1423,221	789,386
-37,227	15,535	1421,912	788,561
-36,213	15,515	1420,402	787,600
-35,198	15,502	1419,363	786,932
-34,184	15,565	1418,427	786,675
-33,169	15,547	1417,040	785,789
-32,154	15,555	1416,282	785,378
-31,140	15,560	1414,779	784,534
-30,125	15,592	1413,575	783,988
-29,111	15,543	1412,518	783,140
-28,096	15,530	1411,531	782,499
-27,082	15,490	1410,292	781,594
-26,067	15,431	1409,444	780,821
-25,052	15,485	1408,037	780,260
-24,038	15,453	1407,108	779,564
-23,023	15,447	1406,044	778,915
-22,009	15,432	1405,147	778,321
-20,994	15,440	1404,199	777,802
-19,979	15,405	1403,239	777,075
-18,965	15,382	1402,493	776,526
-17,950	15,354	1401,455	775,787
-16,936	15,413	1400,391	775,441
-15,921	15,372	1399,087	774,498
-14,906	15,356	1398,331	773,978
-13,892	15,348	1397,339	773,359
-12,877	15,413	1396,370	773,091
-11,863	15,346	1395,613	772,335
-10,848	15,383	1394,778	772,010
-9,833	15,348	1393,748	771,250
-8,819	15,332	1392,842	770,642
-7,804	15,240	1391,975	769,705
-6,790	15,246	1390,857	769,085
-5,775	15,301	1389,861	768,760
-4,760	15,247	1389,074	768,044
-3,746	15,241	1388,198	767,503
-2,731	15,267	1387,342	767,117
-1,717	15,272	1386,421	766,599
-0,702	15,249	1384,721	765,526
0,313	19,067	1305,041	739,093
1,327	35,471	706,717	438,244
2,342	54,359	125,101	85,154
3,356	0,363	16,684	8,405
4,371	14,409	3,097	1,706
5,386	-90,783	0,414	0,084
6,400	-200,000	0,001	-0,026
7,415	24,847	-0,167	-0,098
8,429	-2,208	-0,344	-0,170
9,444	142,530	-0,390	-0,367
10,459	113,832	-0,194	-0,166
11,473	-65,187	-0,345	-0,098
12,488	104,273	-0,232	-0,193
13,502	135,347	-0,417	-0,383
14,517	-35,578	-0,394	-0,150
15,531	60,048	-0,345	-0,241
16,546	9,664	-0,349	-0,187
17,561	54,428	-0,338	-0,230
18,575	-126,177	-0,104	0,011
19,590	450,316	-0,139	-0,217
20,604	-120,043	-0,305	-0,037
21,619	176,625	-0,336	-0,345
22,634	48,108	-0,403	-0,266
23,648	94,973	-0,463	-0,372
24,663	-36,092	-0,334	-0,127
25,677	111,125	-0,364	-0,310
26,692	202,548	-0,273	-0,298
27,707	133,410	-0,168	-0,154
28,721	24,668	-0,338	-0,197
29,736	105,938	-0,403	-0,337
30,750	406,539	-0,256	-0,383
31,765	70,969	-0,426	-0,312
32,780	-77,125	-0,472	-0,115
33,794	186,085	-0,271	-0,285
34,809	92,487	-0,301	-0,240
35,823	0,374	-0,287	-0,144
36,838	56,957	-0,403	-0,277
37,853	216,132	-0,321	-0,360
38,867	161,300	-0,370	-0,366
39,882	101,756	-0,444	-0,365
40,896	54,538	-0,388	-0,263
41,911	48,017	-0,343	-0,226
42,926	132,411	-0,365	-0,332
43,940	123,209	-0,388	-0,343
44,955	142,406	-0,323	-0,302
45,969	77,910	-0,421	-0,316
46,984	217,404	-0,243	-0,274
47,999	37,414	-0,396	-0,247
49,013	-53,831	-0,320	-0,102
50,028	32,516	-0,336	-0,204
51,042	71,623	-0,369	-0,270
52,057	99,502	-0,386	-0,315
53,071	130,668	-0,347	-0,314
54,086	25,283	-0,413	-0,241
55,101	115,853	-0,170	-0,146
56,115	-71,167	-0,348	-0,091
57,130	78,514	-0,375	-0,282
58,144	84,350	-0,244	-0,188
59,159	58,164	-0,358	-0,247
60,174	109,176	-0,332	-0,280
61,188	-67,382	-0,391	-0,107
62,203	227,752	-0,304	-0,348
63,217	337,475	-0,198	-0,272
64,232	28,553	-0,412	-0,245
65,247	277,521	-0,229	-0,288
66,261	45,448	-0,355	-0,230
67,276	250,484	-0,261	-0,312
68,290	438,582	-0,226	-0,348
69,305	-71,436	-0,318	-0,083
70,320	-117,794	-0,359	-0,045
71,334	113,267	-0,210	-0,179
72,349	41,867	-0,349	-0,222
73,363	119,719	-0,316	-0,275
74,378	63,344	-0,383	-0,270
75,393	-4,838	-0,361	-0,174
76,407	406,667	-0,202	-0,301
77,422	183,074	-0,283	-0,295
78,436	-34,712	-0,307	-0,117
79,451	90,214	-0,278	-0,219
80,466	-11,135	-0,443	-0,204
81,480	215,927	-0,301	-0,337
82,495	106,636	-0,291	-0,243
83,509	3,972	-0,350	-0,179
84,524	172,515	-0,196	-0,199
85,539	127,449	-0,288	-0,257
86,553	145,059	-0,315	-0,296
87,568	691,686	-0,098	-0,181
88,582	63,377	-0,437	-0,308
89,597	89,805	-0,213	-0,167
90,611	47,041	-0,288	-0,188
91,626	112,448	-0,204	-0,173
92,641	60,170	-0,353	-0,245
93,655	107,679	-0,298	-0,249
94,670	220,663	-0,247	-0,279
95,684	148,411	-0,366	-0,347
96,699	97,563	-0,362	-0,291
97,714	63,878	-0,383	-0,270
98,728	31,630	-0,246	-0,148
99,743	84,315	-0,298	-0,229
100,757	329,070	-0,222	-0,300
101,772	265,555	-0,176	-0,216
102,787	50,272	-0,382	-0,253
103,801	104,935	-0,242	-0,201
104,816	-56,262	-0,392	-0,122
105,830	249,546	-0,136	-0,162
106,845	-60,582	-0,255	-0,075
107,860	800,000	-0,118	-0,281
108,874	40,194	-0,320	-0,202
109,889	26,730	-0,246	-0,144
110,903	301,970	-0,263	-0,341
111,918	99,253	-0,380	-0,308
112,933	224,561	-0,175	-0,199
113,947	79,123	-0,232	-0,174
114,962	11,763	-0,168	-0,090
115,976	-112,162	-0,266	-0,037
116,991	134,189	-0,249	-0,226
118,006	76,598	-0,333	-0,247
119,020	201,533	-0,159	-0,172
120,035	-33,909	-0,190	-0,073
121,049	100,493	-0,243	-0,197
122,064	242,698	-0,240	-0,281
123,079	237,165	-0,137	-0,160
124,093	23,463	-0,348	-0,200
125,108	322,220	-0,201	-0,268
126,122	307,445	-0,161	-0,211
127,137	115,936	-0,241	-0,207
128,151	301,313	-0,222	-0,288
129,166	3,444	-0,261	-0,133
130,181	164,993	-0,170	-0,169
131,195	-113,031	-0,238	-0,033
132,210	112,263	-0,197	-0,166
133,224	237,749	-0,208	-0,242
134,239	31,974	-0,256	-0,154
135,254	-169,173	-0,293	-0,007
136,268	-51,047	-0,310	-0,101
137,283	132,770	-0,197	-0,177
138,297	-29,415	-0,367	-0,146
139,312	142,486	-0,207	-0,192
140,327	107,125	-0,196	-0,163
141,341	627,419	-0,132	-0,234
142,356	108,402	-0,148	-0,124
143,370	-200,000	-0,040	-0,160
144,385	236,709	-0,172	-0,199
145,400	106,967	-0,149	-0,124
146,414	-63,536	-0,337	-0,096
147,429	262,327	-0,283	-0,343
148,443	45,553	-0,247	-0,159
149,458	-86,345	-0,249	-0,053
150,473	127,550	-0,213	-0,189
151,487	-56,963	-0,349	-0,107
152,502	463,094	-0,165	-0,258
153,516	84,344	-0,260	-0,198
154,531	105,319	-0,299	-0,246
155,546	-13,862	-0,310	-0,139
156,560	-11,770	-0,213	-0,097
157,575	127,525	-0,193	-0,171
158,589	197,500	-0,235	-0,251
159,604	312,287	-0,210	-0,276
160,619	479,978	-0,230	-0,365
161,633	-133,053	-0,290	-0,025
162,648	160,272	-0,216	-0,211
163,662	133,595	-0,238	-0,215
164,677	142,161	-0,255	-0,236
165,692	51,902	-0,284	-0,188
166,706	164,768	-0,231	-0,228
167,721	22,732	-0,247	-0,141
168,735	35,335	-0,303	-0,185
169,750	154,813	-0,232	-0,222
170,764	452,100	-0,133	-0,205
171,779	65,431	-0,199	-0,141
172,794	438,830	-0,089	-0,136
173,808	282,139	-0,246	-0,308
174,823	58,044	-0,219	-0,149
175,837	69,747	-0,274	-0,197
176,852	181,368	-0,239	-0,245
177,867	699,473	-0,119	-0,218
178,881	16,604	-0,118	-0,065
179,896	154,545	-0,180	-0,172
180,910	135,815	-0,181	-0,165
181,925	222,395	-0,240	-0,270
182,940	323,366	-0,150	-0,200
183,954	800,000	-0,178	-0,381
184,969	163,994	-0,176	-0,173
185,983	-200,000	0,014	-0,202
186,998	197,853	-0,133	-0,142
188,013	18,850	-0,232	-0,129
189,027	-88,669	-0,305	-0,063
190,042	475,972	-0,172	-0,272
191,056	272,722	-0,135	-0,166
192,071	96,565	-0,217	-0,173
193,086	-105,432	-0,189	-0,030
194,100	297,784	-0,101	-0,130
195,115	77,975	-0,173	-0,128
196,129	-46,672	-0,289	-0,098
197,144	-58,782	-0,276	-0,083
198,159	-200,000	-0,091	-0,285
199,173	296,253	-0,147	-0,188
200,188	80,435	-0,197	-0,148
201,202	2,068	-0,199	-0,099
202,217	51,433	-0,227	-0,150
203,232	358,233	-0,077	-0,108
204,246	52,504	-0,151	-0,100
205,261	718,494	-0,094	-0,174
206,275	78,792	-0,107	-0,080
207,290	-35,020	-0,208	-0,078
208,304	-56,547	-0,238	-0,073
209,319	339,462	-0,081	-0,110
210,334	233,503	-0,152	-0,175
211,348	-85,166	-0,239	-0,052
212,363	366,551	-0,067	-0,095
213,377	254,175	-0,159	-0,189
214,392	-81,104	-0,205	-0,047
215,407	-100,665	-0,253	-0,043
216,421	246,869	-0,179	-0,211
217,436	-79,447	-0,262	-0,061
218,450	42,921	-0,230	-0,145
219,465	800,000	-0,073	-0,191
220,480	-5,761	-0,262	-0,124
221,494	-126,263	-0,108	0,011
222,509	-3,921	-0,128	-0,061
223,523	-99,083	-0,243	-0,042
224,538	-103,631	-0,222	-0,036
225,553	396,887	-0,094	-0,137
226,567	59,294	-0,240	-0,164
227,582	378,048	-0,194	-0,277
228,596	254,703	-0,210	-0,250
229,611	228,154	-0,108	-0,122
230,626	201,167	-0,169	-0,181
231,640	107,794	-0,132	-0,109
232,655	-200,000	-0,030	-0,233
233,669	130,742	-0,209	-0,186
234,684	57,162	-0,251	-0,170
235,699	341,119	-0,134	-0,182
236,713	103,306	-0,094	-0,076
237,728	220,056	-0,135	-0,150
238,742	296,690	-0,142	-0,181
239,757	133,446	-0,184	-0,165
240,772	34,095	-0,289	-0,174
241,786	136,509	-0,186	-0,169
242,801	34,902	-0,105	-0,063
243,815	-200,000	-0,028	-0,120
244,830	145,621	-0,220	-0,205
245,844	445,750	-0,116	-0,177
246,859	2,953	-0,234	-0,117
247,874	454,207	-0,153	-0,236
248,888	293,046	-0,248	-0,315
249,903	478,115	-0,094	-0,148
250,917	148,426	-0,147	-0,138
251,932	42,387	-0,198	-0,125
252,947	-28,174	-0,141	-0,056
253,961	120,591	-0,220	-0,189
254,976	115,384	-0,196	-0,165
255,990	233,821	-0,188	-0,215
257,005	68,863	-0,225	-0,160
258,020	800,000	-0,105	-0,212
259,034	75,973	-0,262	-0,191
260,049	73,213	-0,100	-0,072
261,063	-108,283	-0,215	-0,032
262,078	39,234	-0,300	-0,185
263,093	-49,353	-0,206	-0,068
264,107	134,229	-0,148	-0,133
265,122	800,000	-0,083	-0,235
266,136	-71,699	-0,193	-0,049
267,151	-79,158	-0,220	-0,051
268,166	216,703	-0,163	-0,180
269,180	50,282	-0,224	-0,146
270,195	205,376	-0,136	-0,147
271,209	216,357	-0,093	-0,103
272,224	567,217	-0,050	-0,084
273,239	-116,649	-0,216	0,027
274,253	597,247	-0,101	-0,174
275,268	-8,795	-0,109	-0,050
276,282	-59,501	-0,232	-0,068
277,297	800,000	-0,142	-0,284
278,312	800,000	-0,093	-0,254
279,326	-200,000	-0,021	-0,124
280,341	212,834	-0,194	-0,212
281,355	-113,711	-0,116	0,015
282,370	251,113	-0,111	-0,131
283,384	-102,533	-0,199	-0,032
284,399	-39,111	-0,198	-0,072
285,414	-137,184	-0,288	-0,022
286,428	667,735	-0,106	-0,191
287,443	-50,872	-0,193	-0,062
288,457	800,000	-0,076	-0,160
289,472	131,636	-0,164	-0,146
290,487	411,226	-0,141	-0,207
291,501	634,031	-0,127	-0,223
292,516	800,000	-0,087	-0,220
293,530	167,176	-0,095	-0,093
294,545	97,166	-0,137	-0,108
295,560	48,398	-0,114	-0,074
296,574	-6,185	-0,113	-0,053
297,589	228,466	-0,103	-0,116
298,603	175,515	-0,157	-0,157
299,618	137,285	-0,029	-0,026
300,633	36,371	-0,189	-0,115
301,647	259,976	-0,053	0,063
302,662	-61,778	-0,061	0,017
303,676	44,208	-0,126	-0,079
304,691	-200,000	-0,047	-0,164
305,706	-200,000	-0,054	-0,209
306,720	-200,000	0,016	-0,078
307,735	-30,753	-0,198	-0,077
308,749	-67,701	-0,179	-0,048
309,764	174,372	-0,090	-0,089
310,779	-32,992	-0,173	-0,066
311,793	195,398	-0,182	-0,191
312,808	-106,678	-0,234	-0,036
313,822	56,602	-0,178	-0,119
314,837	38,931	-0,188	-0,115
315,852	12,452	-0,180	-0,095
316,866	36,354	-0,091	-0,055
317,881	0,916	-0,132	0,065
318,895	-107,344	-0,126	-0,019
319,910	492,752	-0,112	-0,178
320,925	97,734	-0,128	-0,101
321,939	-200,000	0,005	-0,156
322,954	-25,199	-0,131	-0,053
323,968	-99,447	-0,176	-0,030
324,983	800,000	-0,083	-0,207
325,997	236,646	-0,164	-0,187
327,012	230,916	-0,113	-0,127
328,027	184,551	-0,197	-0,201
329,041	173,030	-0,139	-0,138
330,056	44,196	-0,124	-0,078
331,070	263,974	-0,179	-0,215
332,085	100,839	-0,100	-0,080
333,100	-32,817	-0,092	-0,035
334,114	-57,503	-0,209	-0,063
335,129	272,973	-0,074	-0,091
336,143	-159,458	-0,141	0,005
337,158	-200,000	-0,004	-0,176
338,173	800,000	-0,076	-0,190
339,187	278,479	-0,115	-0,141
340,202	246,246	-0,037	0,043
341,216	-8,848	-0,230	-0,106
342,231	101,333	-0,141	-0,112
343,246	-200,000	-0,045	-0,227
344,260	-31,123	-0,251	-0,097
345,275	720,687	-0,052	-0,096
346,289	-200,000	-0,014	0,081
347,304	-49,416	-0,209	-0,068
348,319	-200,000	-0,060	-0,281
349,333	-71,233	-0,153	-0,039
350,348	-200,000	0,005	-0,129
351,362	150,115	-0,054	-0,051
352,377	-132,452	-0,183	-0,016
353,392	-72,355	-0,148	-0,037
354,406	-167,563	-0,202	0,005
355,421	208,999	1314,126	1413,848
356,435	160,837	1474,816	1414,376
