DTS Sentinel unit serial number:	SN410029Multiplexer serial number:	ORYXHardware model number:	OX2-SRSoftware version number:	ORYX F/W v4,00 Oryx Data Collector v3.7.2.0data status	okinstallation	B3 Nyhavnadifferential loss correction	single-endedforward channel	channel 1reverse channel	N/Adate	2023/12/02time	23:52:30forward acquisition time	300,00reverse acquisition time	0,00gamma	499,1914k internal	0,3201k external	0,3201temperature offset calibration	1,0000default loss term (dB/km)	0,3820temperature slope calibration	1,0000multiplexer offset coefficient	1,0000multiplexer slope coefficient	1,0000fibre end	0,00T internal ref (°C)	13,25T ext. ref 1 (°C)	-1,70T ext. ref 2 (°C)	-1,71length (m)	temperature (°C)	Stokes	anti-Stokes-744,400	508,820	-0,118	-0,200
-743,385	656,287	-0,095	0,179
-742,371	596,642	-0,131	-0,237
-741,356	800,000	0,129	0,334
-740,342	-9,575	-0,249	-0,120
-739,327	-200,000	0,052	0,230
-738,312	800,000	-0,115	-0,319
-737,298	232,562	-0,174	0,208
-736,283	-78,562	-0,328	-0,081
-735,269	800,000	0,135	0,333
-734,254	112,999	-0,198	-0,174
-733,239	238,746	-0,098	0,119
-732,225	89,415	-0,165	-0,133
-731,210	551,691	0,123	0,215
-730,196	-200,000	0,014	-0,085
-729,181	-108,483	-0,143	-0,022
-728,167	-74,658	0,125	0,032
-727,152	75,279	0,141	0,108
-726,137	-26,307	-0,066	0,028
-725,123	122,010	-0,114	-0,103
-724,108	800,000	-0,051	-0,152
-723,094	-200,000	0,003	-0,050
-722,079	-200,000	-0,007	-0,037
-721,064	-200,000	-0,002	-0,083
-720,050	191,423	-0,042	0,046
-719,035	341,181	-0,048	-0,068
-718,021	322,329	-0,117	-0,163
-717,006	-61,089	-0,194	0,059
-715,991	-103,090	-0,209	-0,036
-714,977	-108,334	-0,040	0,006
-713,962	-200,000	-0,004	0,057
-712,948	305,425	0,073	0,099
-711,933	240,557	0,009	-0,011
-710,918	-95,058	0,043	0,008
-709,904	-99,842	-0,096	0,017
-708,889	46,445	0,110	0,074
-707,875	171,016	-0,075	-0,079
-706,860	-35,142	0,161	0,063
-705,845	211,206	0,043	-0,049
-704,831	409,412	-0,028	0,043
-703,816	800,000	-0,021	0,060
-702,802	139,702	0,170	-0,162
-701,787	800,000	-0,086	-0,191
-700,772	800,000	0,070	-0,143
-699,758	800,000	-0,035	0,080
-698,743	-79,791	0,091	0,022
-697,729	-200,000	-0,009	0,090
-696,714	411,064	-0,064	0,099
-695,699	11,153	-0,035	-0,019
-694,685	-144,548	0,088	0,006
-693,670	-200,000	-0,011	-0,109
-692,656	-200,000	0,012	-0,042
-691,641	-137,654	-0,075	0,006
-690,627	-138,474	0,087	0,007
-689,612	800,000	0,034	0,087
-688,597	708,332	-0,050	-0,096
-687,583	134,984	-0,033	-0,031
-686,568	-15,512	-0,109	-0,050
-685,554	-200,000	-0,015	0,052
-684,539	-200,000	-0,006	0,129
-683,524	118,300	0,010	0,009
-682,510	-200,000	-0,042	0,185
-681,495	212,297	0,046	0,052
-680,481	107,275	-0,084	-0,073
-679,466	455,366	-0,037	-0,060
-678,451	440,801	0,084	-0,134
-677,437	-166,387	0,112	-0,003
-676,422	-200,000	0,037	0,154
-675,408	-200,000	-0,003	0,070
-674,393	-104,661	-0,169	-0,028
-673,378	-200,000	-0,013	-0,195
-672,364	-45,288	-0,199	0,071
-671,349	-75,635	-0,113	0,029
-670,335	84,955	0,205	0,163
-669,320	-133,939	0,106	-0,009
-668,305	-200,000	0,027	0,154
-667,291	-8,029	-0,094	-0,046
-666,276	-79,218	-0,163	0,040
-665,262	132,849	-0,108	-0,101
-664,247	-200,000	-0,004	-0,031
-663,232	125,217	-0,052	-0,048
-662,218	-10,411	-0,034	0,016
-661,203	-33,528	-0,103	0,041
-660,189	378,443	0,034	0,051
-659,174	-200,000	-0,017	-0,089
-658,159	-107,147	-0,036	-0,006
-657,145	-139,290	-0,055	-0,004
-656,130	-200,000	-0,007	-0,095
-655,116	-200,000	-0,007	0,064
-654,101	-200,000	-0,029	0,100
-653,086	-200,000	-0,009	-0,142
-652,072	103,293	0,023	0,019
-651,057	369,137	-0,035	-0,051
-650,043	-200,000	0,020	-0,127
-649,028	27,308	-0,109	-0,066
-648,014	567,684	0,088	0,155
-646,999	429,786	0,038	0,059
-645,984	0,102	0,088	-0,045
-644,970	-48,840	0,126	-0,044
-643,955	246,358	-0,088	-0,107
-642,941	0,640	-0,014	0,007
-641,926	-200,000	-0,060	-0,196
-640,911	-110,663	0,146	0,022
-639,897	59,721	-0,062	-0,044
-638,882	3,035	-0,051	-0,027
-637,868	85,468	0,116	0,092
-636,853	-65,343	-0,099	0,029
-635,838	133,395	-0,076	-0,071
-634,824	-55,990	-0,165	-0,053
-633,809	-200,000	0,022	-0,095
-632,795	181,690	-0,026	0,028
-631,780	-75,708	-0,063	0,016
-630,765	-16,650	-0,104	0,048
-629,751	-58,235	-0,143	-0,045
-628,736	-200,000	-0,011	-0,091
-627,722	60,171	-0,016	0,011
-626,707	-200,000	-0,006	-0,040
-625,692	-141,343	0,254	0,018
-624,678	9,151	-0,092	-0,050
-623,663	-32,925	0,047	0,019
-622,649	-115,498	-0,093	-0,013
-621,634	111,723	-0,063	-0,055
-620,619	-170,426	-0,087	0,002
-619,605	-42,775	0,096	0,035
-618,590	109,385	0,073	0,063
-617,576	36,929	-0,065	0,042
-616,561	95,812	-0,159	-0,131
-615,546	314,558	-0,078	-0,107
-614,532	-135,527	-0,113	-0,010
-613,517	-200,000	-0,039	0,149
-612,503	543,367	0,035	0,060
-611,488	-200,000	0,022	-0,094
-610,474	-16,361	0,065	0,030
-609,459	29,912	0,009	-0,006
-608,444	275,113	0,059	-0,076
-607,430	200,012	0,029	0,033
-606,415	-75,396	0,068	-0,018
-605,401	408,314	-0,081	0,124
-604,386	-54,140	0,054	0,018
-603,371	-200,000	-0,025	0,097
-602,357	-200,000	-0,009	0,031
-601,342	-8,957	-0,150	0,073
-600,328	76,507	0,095	-0,073
-599,313	-200,000	-0,010	-0,043
-598,298	-104,360	0,135	-0,022
-597,284	132,873	0,047	-0,044
-596,269	-18,588	0,084	-0,038
-595,255	-1,883	-0,068	0,035
-594,240	139,766	-0,116	-0,111
-593,225	10,204	-0,061	-0,033
-592,211	-140,855	-0,129	0,009
-591,196	178,876	-0,026	0,027
-590,182	-200,000	-0,010	0,104
-589,167	800,000	-0,025	-0,069
-588,152	-172,943	-0,049	0,001
-587,138	-200,000	-0,003	0,036
-586,123	-126,351	-0,178	-0,019
-585,109	11,140	-0,068	0,038
-584,094	337,004	-0,056	0,079
-583,079	-200,000	0,010	-0,057
-582,065	65,687	0,111	0,081
-581,050	800,000	0,012	0,039
-580,036	-200,000	-0,035	-0,119
-579,021	800,000	-0,030	-0,085
-578,006	800,000	-0,052	0,133
-576,992	-37,940	0,065	0,025
-575,977	29,752	-0,015	-0,009
-574,963	260,380	-0,041	0,051
-573,948	605,104	0,077	0,139
-572,934	-58,506	0,022	0,007
-571,919	800,000	-0,024	0,051
-570,904	-142,760	-0,062	-0,004
-569,890	-200,000	-0,069	-0,224
-568,875	148,448	0,085	-0,082
-567,861	357,339	0,049	0,071
-566,846	38,630	0,090	0,058
-565,831	390,104	-0,031	-0,046
-564,817	198,925	-0,028	0,031
-563,802	735,099	0,048	0,093
-562,788	800,000	-0,064	-0,136
-561,773	-200,000	0,007	0,025
-560,758	-200,000	0,007	0,046
-559,744	-200,000	0,023	0,104
-558,729	-12,729	-0,032	-0,015
-557,715	-111,666	-0,099	-0,014
-556,700	-200,000	-0,020	-0,066
-555,685	-200,000	0,026	-0,107
-554,671	800,000	-0,010	0,029
-553,656	129,589	0,034	-0,031
-552,642	-200,000	0,007	0,044
-551,627	140,957	-0,126	0,120
-550,612	-16,637	-0,058	0,026
-549,598	-200,000	-0,013	-0,049
-548,583	-200,000	0,018	-0,060
-547,569	-2,060	0,048	-0,024
-546,554	-5,251	-0,089	0,044
-545,539	-200,000	0,003	-0,065
-544,525	-200,000	0,009	-0,054
-543,510	-200,000	0,015	0,056
-542,496	619,732	-0,069	-0,126
-541,481	-169,414	-0,096	0,002
-540,466	123,727	0,035	-0,032
-539,452	-73,148	0,120	-0,032
-538,437	611,721	-0,052	0,093
-537,423	-69,234	0,119	0,033
-536,408	160,376	-0,023	-0,023
-535,393	-6,098	0,119	-0,059
-534,379	-159,512	0,093	0,004
-533,364	47,086	-0,096	-0,064
-532,350	-200,000	-0,026	0,092
-531,335	800,000	-0,083	0,168
-530,321	-132,455	0,045	0,004
-529,306	-200,000	-0,040	-0,163
-528,291	-137,867	-0,022	0,002
-527,277	-15,811	-0,072	0,033
-526,262	218,859	-0,000	-0,000
-525,248	-200,000	0,012	0,074
-524,233	-200,000	0,024	-0,110
-523,218	-0,144	0,074	-0,038
-522,204	-88,234	-0,028	0,006
-521,189	432,158	0,023	0,035
-520,175	108,632	-0,079	-0,068
-519,160	44,782	-0,036	0,024
-518,145	119,955	0,046	0,041
-517,131	96,994	0,055	-0,045
-516,116	800,000	0,037	-0,103
-515,102	34,692	-0,083	-0,052
-514,087	-159,129	-0,054	-0,002
-513,072	800,000	-0,014	0,040
-512,058	-200,000	-0,007	-0,028
-511,043	160,267	0,028	0,028
-510,029	196,010	-0,062	0,069
-509,014	-200,000	-0,022	0,077
-507,999	105,342	-0,131	-0,112
-506,985	800,000	0,041	-0,099
-505,970	-137,067	-0,060	0,005
-504,956	800,000	0,050	0,143
-503,941	82,963	-0,073	-0,057
-502,926	208,391	0,072	-0,081
-501,912	-27,061	0,108	0,045
-500,897	-200,000	-0,007	-0,047
-499,883	-138,320	-0,113	0,009
-498,868	-200,000	-0,018	-0,097
-497,853	-86,501	0,152	0,033
-496,839	705,071	-0,023	-0,043
-495,824	-38,810	0,143	-0,054
-494,810	80,668	0,107	-0,083
-493,795	-200,000	-0,019	0,124
-492,781	-65,258	-0,097	0,028
-491,766	-200,000	0,047	-0,208
-490,751	-63,448	-0,116	-0,034
-489,737	712,654	-0,042	-0,081
-488,722	800,000	0,037	0,085
-487,708	90,413	-0,036	-0,029
-486,693	-200,000	-0,023	0,140
-485,678	-31,506	-0,089	0,036
-484,664	-200,000	-0,007	-0,073
-483,649	166,773	-0,067	0,069
-482,635	-146,671	-0,093	-0,006
-481,620	-185,943	0,051	-0,001
-480,605	68,637	0,099	-0,073
-479,591	800,000	-0,054	0,136
-478,576	-44,890	-0,089	0,032
-477,562	-155,422	0,141	-0,006
-476,547	-98,113	-0,159	0,029
-475,532	181,359	0,060	-0,064
-474,518	-50,929	0,081	0,027
-473,503	-200,000	0,007	0,085
-472,489	96,916	0,046	0,038
-471,474	-19,213	-0,038	-0,017
-470,459	187,925	-0,052	-0,056
-469,445	-200,000	0,016	-0,074
-468,430	-129,433	-0,047	0,005
-467,416	-200,000	0,003	0,061
-466,401	113,256	0,101	0,089
-465,386	-17,542	0,110	0,049
-464,372	800,000	0,021	-0,063
-463,357	800,000	0,025	-0,080
-462,343	800,000	-0,012	-0,027
-461,328	72,748	-0,055	0,042
-460,313	800,000	-0,040	0,097
-459,299	95,613	0,012	0,010
-458,284	305,109	-0,067	0,090
-457,270	264,749	-0,069	-0,086
-456,255	36,442	0,003	-0,002
-455,241	-200,000	0,012	-0,096
-454,226	86,376	-0,029	0,023
-453,211	-192,730	0,154	0,001
-452,197	116,091	-0,044	0,039
-451,182	800,000	-0,027	0,076
-450,168	136,672	0,027	-0,025
-449,153	-5,148	0,041	0,020
-448,138	91,979	-0,095	0,077
-447,124	-69,678	-0,101	-0,028
-446,109	30,616	-0,082	0,050
-445,095	0,688	-0,050	0,026
-444,080	92,456	0,095	0,077
-443,065	-200,000	0,016	0,087
-442,051	800,000	-0,022	0,064
-441,036	-53,909	0,039	0,013
-440,022	6,061	-0,111	-0,059
-439,007	800,000	0,016	0,034
-437,992	554,511	0,067	-0,116
-436,978	-200,000	0,010	0,132
-435,963	11,703	-0,050	-0,028
-434,949	-101,166	-0,056	0,010
-433,934	752,908	-0,038	0,073
-432,919	800,000	-0,024	0,072
-431,905	800,000	0,022	0,058
-430,890	-14,347	-0,150	0,069
-429,876	112,150	0,065	-0,056
-428,861	800,000	0,057	0,115
-427,846	180,038	0,065	0,068
-426,832	-200,000	-0,014	-0,113
-425,817	-200,000	-0,024	-0,112
-424,803	406,143	0,099	0,150
-423,788	-107,056	0,089	-0,014
-422,773	800,000	0,046	0,103
-421,759	-200,000	0,002	-0,058
-420,744	-200,000	0,027	-0,102
-419,730	800,000	-0,046	-0,121
-418,715	-200,000	-0,021	-0,127
-417,701	-36,572	-0,074	0,028
-416,686	-200,000	-0,000	-0,107
-415,671	800,000	0,023	0,055
-414,657	-106,085	0,047	-0,008
-413,642	-64,817	-0,073	0,021
-412,628	59,359	0,096	-0,067
-411,613	-45,636	-0,102	-0,036
-410,598	-50,660	0,096	0,032
-409,584	-138,590	0,030	0,002
-408,569	258,686	0,129	0,160
-407,555	201,277	0,077	0,086
-406,540	-14,080	0,096	-0,044
-405,525	63,943	0,049	-0,035
-404,511	-20,212	-0,113	-0,050
-403,496	-200,000	0,005	-0,077
-402,482	800,000	-0,020	-0,044
-401,467	304,420	0,095	-0,127
-400,452	800,000	0,033	0,090
-399,438	100,143	-0,068	-0,057
-398,423	-200,000	-0,030	-0,126
-397,409	800,000	-0,044	-0,136
-396,394	-200,000	0,006	-0,037
-395,379	70,042	0,106	0,079
-394,365	142,944	0,086	0,083
-393,350	335,748	0,020	0,028
-392,336	203,022	0,071	-0,079
-391,321	643,163	-0,039	0,072
-390,306	-14,985	-0,207	-0,095
-389,292	800,000	0,010	-0,024
-388,277	-200,000	0,017	-0,089
-387,263	-64,790	-0,146	-0,042
-386,248	-106,985	0,080	-0,013
-385,233	121,373	0,016	0,014
-384,219	407,035	-0,040	-0,060
-383,204	-60,787	-0,039	0,012
-382,190	-200,000	0,003	-0,113
-381,175	219,253	-0,036	-0,041
-380,160	-200,000	-0,014	0,050
-379,146	135,151	-0,017	0,016
-378,131	10,552	-0,040	-0,022
-377,117	-138,054	0,201	-0,016
-376,102	47,387	-0,068	0,045
-375,088	-52,145	-0,143	-0,047
-374,073	729,882	0,083	0,160
-373,058	478,177	0,082	-0,134
-372,044	558,982	0,044	0,076
-371,029	210,667	0,107	0,121
-370,015	-100,356	-0,041	0,007
-369,000	800,000	0,039	-0,095
-367,985	88,290	-0,090	-0,072
-366,971	-23,612	0,054	0,023
-365,956	-13,457	-0,072	-0,033
-364,942	343,439	0,049	-0,070
-363,927	590,324	0,049	0,087
-362,912	747,710	-0,040	0,078
-361,898	-69,708	0,158	0,043
-360,883	-77,283	0,042	-0,010
-359,869	36,175	0,040	0,025
-358,854	-126,896	0,087	0,009
-357,839	-84,310	0,123	-0,028
-356,825	0,336	0,048	-0,025
-355,810	65,725	-0,044	-0,032
-354,796	-46,930	-0,145	-0,051
-353,781	227,832	-0,070	0,082
-352,766	-200,000	-0,002	-0,007
-351,752	800,000	0,059	-0,139
-350,737	52,782	0,137	0,094
-349,723	363,982	0,024	-0,035
-348,708	639,161	-0,038	0,070
-347,693	-75,848	-0,087	0,022
-346,679	380,081	0,091	0,134
-345,664	-35,379	-0,129	-0,050
-344,650	69,866	0,052	0,038
-343,635	800,000	0,083	0,195
-342,620	-200,000	-0,021	0,070
-341,606	-28,637	-0,137	-0,056
-340,591	538,068	-0,039	0,066
-339,577	1,823	0,191	-0,098
-338,562	176,178	-0,076	-0,079
-337,548	-130,841	0,022	0,002
-336,533	-107,631	-0,070	0,011
-335,518	-48,659	0,065	0,022
-334,504	454,147	-0,020	-0,032
-333,489	271,073	0,068	-0,086
-332,475	344,395	0,068	-0,096
-331,460	-108,087	-0,101	0,016
-330,445	99,569	0,102	0,084
-329,431	800,000	0,051	0,126
-328,416	-200,000	0,030	-0,122
-327,402	386,178	-0,083	0,123
-326,387	-200,000	0,047	0,157
-325,372	288,896	-0,075	-0,097
-324,358	426,632	0,115	-0,178
-323,343	800,000	0,013	-0,029
-322,329	71,179	0,084	0,062
-321,314	108,879	0,129	0,111
-320,299	-200,000	-0,001	0,011
-319,285	800,000	-0,029	-0,089
-318,270	-200,000	0,007	-0,046
-317,256	96,108	0,065	-0,053
-316,241	-200,000	-0,042	-0,152
-315,226	800,000	-0,053	0,133
-314,212	47,795	0,098	0,066
-313,197	-200,000	-0,012	0,056
-312,183	800,000	-0,025	0,076
-311,168	-200,000	-0,013	0,102
-310,153	205,653	0,023	-0,025
-309,139	-200,000	-0,014	-0,054
-308,124	526,291	0,044	-0,074
-307,110	-200,000	-0,012	0,134
-306,095	-200,000	0,014	-0,055
-305,080	-200,000	0,004	0,064
-304,066	-167,549	-0,101	-0,003
-303,051	800,000	-0,023	0,066
-302,037	800,000	-0,069	-0,168
-301,022	31,549	-0,110	0,067
-300,008	-132,105	0,184	0,017
-298,993	354,090	0,023	-0,032
-297,978	800,000	0,019	-0,041
-296,964	-134,055	-0,101	-0,009
-295,949	-200,000	-0,005	-0,088
-294,935	-24,328	-0,077	-0,033
-293,920	-11,295	0,030	-0,014
-292,905	800,000	0,029	0,073
-291,891	-43,119	0,113	0,041
-290,876	-200,000	-0,019	-0,135
-289,862	218,784	-0,055	0,063
-288,847	-200,000	-0,000	-0,090
-287,832	298,519	-0,104	-0,137
-286,818	-18,839	-0,006	0,003
-285,803	-200,000	0,015	-0,059
-284,789	-88,751	-0,079	0,017
-283,774	-200,000	-0,008	-0,066
-282,759	800,000	-0,047	-0,094
-281,745	-200,000	0,004	-0,042
-280,730	318,304	-0,143	-0,194
-279,716	49,281	-0,131	-0,088
-278,701	-36,883	0,073	0,028
-277,686	34,351	-0,078	0,048
-276,672	-75,387	-0,163	0,041
-275,657	-49,869	0,118	0,040
-274,643	-200,000	0,003	-0,061
-273,628	-170,888	-0,067	0,002
-272,613	287,894	-0,073	-0,095
-271,599	75,546	0,076	-0,057
-270,584	-109,395	0,136	-0,020
-269,570	462,824	-0,018	0,029
-268,555	-96,582	-0,040	-0,007
-267,540	177,202	0,082	-0,085
-266,526	-200,000	-0,003	-0,123
-265,511	-109,016	0,020	0,003
-264,497	15,826	0,119	0,067
-263,482	-200,000	-0,004	0,033
-262,467	191,365	0,097	0,105
-261,453	-200,000	-0,012	0,132
-260,438	248,521	-0,015	-0,018
-259,424	48,832	0,180	-0,120
-258,409	-4,865	0,032	-0,016
-257,395	-162,463	0,131	-0,005
-256,380	749,301	0,067	0,129
-255,365	206,142	-0,050	0,056
-254,351	-93,662	-0,022	0,004
-253,336	86,783	-0,052	0,041
-252,322	192,188	-0,108	-0,116
-251,307	800,000	0,036	-0,099
-250,292	36,824	0,132	0,083
-249,278	-49,482	0,189	-0,064
-248,263	-9,476	0,058	0,027
-247,249	640,876	-0,051	-0,093
-246,234	196,067	0,058	-0,063
-245,219	-105,987	0,070	0,011
-244,205	59,319	0,070	-0,049
-243,190	34,167	-0,059	0,036
-242,176	770,104	-0,026	0,051
-241,161	23,940	-0,064	0,037
-240,146	-21,130	0,124	0,054
-239,132	-150,251	-0,085	0,005
-238,117	-43,703	-0,092	-0,033
-237,103	-54,183	-0,075	-0,024
-236,088	38,935	0,071	-0,045
-235,073	-122,426	0,197	-0,023
-234,059	800,000	-0,015	0,048
-233,044	-27,736	-0,146	-0,060
-232,030	-200,000	-0,002	-0,086
-231,015	-52,965	-0,111	-0,036
-230,000	-51,662	-0,134	-0,044
-228,986	-1,667	-0,027	0,013
-227,971	800,000	-0,055	-0,129
-226,957	800,000	-0,031	0,092
-225,942	581,663	0,038	0,067
-224,927	48,834	-0,056	0,037
-223,913	800,000	-0,040	-0,104
-222,898	-200,000	-0,000	-0,109
-221,884	18,440	0,026	0,015
-220,869	-67,986	0,147	0,041
-219,855	140,132	-0,093	0,087
-218,840	-112,825	0,085	-0,012
-217,825	-200,000	0,003	0,029
-216,811	-200,000	0,004	0,038
-215,796	-200,000	0,026	-0,127
-214,782	188,547	-0,106	-0,113
-213,767	39,753	-0,080	0,051
-212,752	33,760	-0,085	0,053
-211,738	-18,236	-0,031	0,014
-210,723	-200,000	-0,002	-0,041
-209,709	-158,124	-0,137	0,006
-208,694	-200,000	-0,002	-0,053
-207,679	-200,000	-0,004	0,062
-206,665	101,121	0,058	0,048
-205,650	-200,000	-0,015	-0,146
-204,636	-200,000	-0,010	0,121
-203,621	-36,612	0,066	-0,025
-202,606	326,527	-0,022	0,031
-201,592	-11,015	0,119	-0,055
-200,577	-109,721	-0,164	-0,024
-199,563	410,941	-0,039	0,059
-198,548	112,629	-0,090	0,078
-197,533	-61,446	0,179	0,053
-196,519	120,581	0,079	0,070
-195,504	-200,000	0,043	0,217
-194,490	-200,000	-0,019	0,071
-193,475	-87,926	0,063	0,013
-192,460	-180,751	-0,068	0,001
-191,446	128,284	-0,103	-0,093
-190,431	120,341	0,034	-0,030
-189,417	-4,234	0,071	-0,035
-188,402	-200,000	0,006	-0,037
-187,387	800,000	0,015	0,033
-186,373	-10,189	-0,123	0,058
-185,358	520,767	-0,038	0,064
-184,344	-200,000	0,014	0,082
-183,329	238,293	0,080	0,095
-182,315	-200,000	-0,023	0,088
-181,300	646,013	0,079	-0,143
-180,285	274,707	0,063	-0,080
-179,271	6,046	0,082	0,043
-178,256	-49,750	0,091	0,031
-177,242	-9,220	-0,079	0,037
-176,227	-82,915	0,173	0,039
-175,212	-167,328	0,161	-0,005
-174,198	281,985	-0,067	0,085
-173,183	-200,000	0,012	0,123
-172,169	800,000	-0,027	0,056
-171,154	-200,000	-0,014	0,106
-170,139	-200,000	-0,002	0,161
-169,125	303,503	0,023	-0,030
-168,110	495,340	0,059	-0,096
-167,096	185,742	0,046	0,048
-166,081	-200,000	-0,009	0,088
-165,066	800,000	-0,053	-0,143
-164,052	-200,000	0,014	-0,142
-163,037	35,377	0,061	0,038
-162,023	458,364	-0,071	0,112
-161,008	71,372	-0,081	0,060
-159,993	263,470	0,149	0,184
-158,979	-156,288	-0,133	-0,006
-157,964	129,137	0,078	0,070
-156,950	-11,659	0,053	0,025
-155,935	164,116	0,131	0,131
-154,920	-175,485	0,096	-0,002
-153,906	93,502	-0,037	0,030
-152,891	-200,000	0,019	0,180
-151,877	-135,054	0,170	0,014
-150,862	43,629	-0,116	-0,075
-149,847	-170,363	0,027	-0,001
-148,833	-200,000	0,017	-0,082
-147,818	-200,000	0,016	0,080
-146,804	-200,000	0,015	0,055
-145,789	-200,000	-0,013	0,158
-144,775	108,238	-0,031	-0,027
-143,760	-59,683	-0,112	-0,034
-142,745	800,000	-0,028	-0,080
-141,731	-200,000	-0,034	-0,112
-140,716	212,786	0,090	0,101
-139,702	-200,000	0,002	0,144
-138,687	-143,516	-0,082	-0,005
-137,672	340,164	-0,028	0,039
-136,658	-200,000	0,000	0,009
-135,643	-88,489	-0,021	-0,004
-134,629	800,000	0,059	-0,121
-133,614	745,877	0,027	0,052
-132,599	-92,898	0,077	0,015
-131,585	-111,676	-0,008	0,001
-130,570	-200,000	-0,028	-0,137
-129,556	-63,309	-0,170	-0,049
-128,541	185,436	-0,096	-0,102
-127,526	-36,083	-0,231	0,088
-126,512	-200,000	-0,023	0,140
-125,497	-200,000	0,041	0,131
-124,483	-200,000	0,010	0,087
-123,468	-133,882	0,033	0,003
-122,453	-200,000	-0,023	-0,096
-121,439	5,366	0,107	-0,056
-120,424	358,991	-0,024	0,035
-119,410	-30,962	-0,054	0,021
-118,395	600,472	0,063	-0,112
-117,380	-134,376	-0,147	-0,013
-116,366	-200,000	-0,021	-0,128
-115,351	-46,573	-0,061	-0,021
-114,337	-200,000	0,035	-0,118
-113,322	-112,834	0,075	-0,010
-112,307	-75,981	0,061	-0,015
-111,293	-200,000	0,054	0,170
-110,278	-200,000	0,013	0,111
-109,264	72,402	0,037	0,028
-108,249	91,888	0,095	-0,076
-107,234	354,657	0,057	-0,080
-106,220	-49,230	-0,126	0,042
-105,205	-200,000	-0,028	0,137
-104,191	-200,000	-0,009	0,031
-103,176	333,612	0,106	0,145
-102,162	98,556	0,042	0,034
-101,147	-200,000	-0,018	-0,060
-100,132	-117,652	-0,014	0,002
-99,118	-79,741	-0,088	-0,021
-98,103	-200,000	-0,009	-0,038
-97,089	-200,000	0,005	0,065
-96,074	92,888	0,078	-0,062
-95,059	-89,557	-0,084	0,017
-94,045	-135,820	-0,114	0,009
-93,030	-28,176	0,029	0,012
-92,016	-200,000	0,038	-0,143
-91,001	36,604	-0,085	0,053
-89,986	26,392	-0,086	0,051
-88,972	-200,000	0,041	0,140
-87,957	-200,000	0,021	0,080
-86,943	318,391	-0,054	-0,072
-85,928	3,955	-0,060	-0,031
-84,913	566,068	-0,041	-0,071
-83,899	107,065	-0,012	0,010
-82,884	10,905	-0,048	0,026
-81,870	11,788	0,107	0,058
-80,855	-200,000	0,033	-0,117
-79,840	81,577	-0,022	0,017
-78,826	-200,000	0,012	-0,081
-77,811	-17,380	0,052	-0,023
-76,797	800,000	0,062	0,163
-75,782	-119,317	-0,110	-0,013
-74,767	-174,332	0,037	0,001
-73,753	800,000	-0,034	0,094
-72,738	221,191	0,077	-0,088
-71,724	373,670	-0,045	0,065
-70,709	-200,000	-0,009	-0,060
-69,694	-200,000	0,011	0,043
-68,680	-200,000	0,006	0,065
-67,665	-69,142	0,028	0,008
-66,651	-200,000	-0,005	-0,027
-65,636	48,220	0,060	-0,040
-64,622	172,904	-0,053	0,054
-63,607	-200,000	-0,010	-0,050
-62,592	574,561	-0,029	-0,050
-61,578	800,000	-0,040	-0,092
-60,563	26,948	0,154	-0,091
-59,549	41,739	0,048	0,031
-58,534	-36,974	-1,712	-0,646
-57,519	367,751	-1,430	-2,052
-56,505	-200,000	-0,483	-4,403
-55,490	246,304	0,918	1,097
-54,476	800,000	4,957	11,420
-53,461	-200,000	19,345	320,506
-52,446	-200,000	741,390	2334,706
-51,432	572,842	1655,600	2868,222
-50,417	78,133	1671,054	1261,067
-49,403	21,257	1544,180	885,526
-48,388	15,098	1466,511	811,030
-47,373	17,957	1456,755	819,421
-46,359	16,677	1446,468	807,466
-45,344	13,440	1441,700	789,264
-44,330	13,311	1440,104	787,740
-43,315	13,335	1438,240	786,809
-42,300	13,283	1436,727	785,701
-41,286	13,338	1435,302	785,151
-40,271	13,274	1434,240	784,235
-39,257	13,322	1432,640	783,559
-38,242	13,361	1431,437	783,053
-37,227	13,341	1430,308	782,311
-36,213	13,338	1428,950	781,520
-35,198	13,293	1427,668	780,573
-34,184	13,371	1426,810	780,447
-33,169	13,271	1425,576	779,266
-32,154	13,383	1424,098	778,956
-31,140	13,358	1423,061	778,240
-30,125	13,383	1422,014	777,758
-29,111	13,356	1420,997	777,040
-28,096	13,317	1419,752	776,146
-27,082	13,312	1418,634	775,479
-26,067	13,291	1417,583	774,773
-25,052	13,292	1416,523	774,169
-24,038	13,266	1415,405	773,404
-23,023	13,273	1414,477	772,903
-22,009	13,256	1413,420	772,213
-20,994	13,231	1412,832	771,745
-19,979	13,200	1411,883	771,051
-18,965	13,235	1410,716	770,547
-17,950	13,243	1409,816	770,061
-16,936	13,259	1408,828	769,565
-15,921	13,226	1407,684	768,756
-14,906	13,205	1407,040	768,274
-13,892	13,242	1405,769	767,723
-12,877	13,200	1405,100	767,130
-11,863	13,165	1404,173	766,432
-10,848	13,214	1403,125	766,058
-9,833	13,158	1402,506	765,428
-8,819	13,103	1401,723	764,713
-7,804	13,103	1400,514	764,023
-6,790	13,086	1399,736	763,491
-5,775	13,103	1398,408	762,814
-4,760	13,079	1397,703	762,288
-3,746	13,096	1396,567	761,716
-2,731	13,053	1396,041	761,200
-1,717	13,036	1395,120	760,592
-0,702	13,037	1393,330	759,587
0,313	16,996	1309,811	732,361
1,327	33,251	703,695	431,026
2,342	50,689	123,339	82,467
3,356	3,609	16,679	8,579
4,371	-4,563	3,318	1,615
5,386	-55,228	0,524	0,166
6,400	234,050	0,202	0,236
7,415	785,006	-0,114	-0,223
8,429	-78,154	-0,408	-0,098
9,444	225,212	-0,186	-0,213
10,459	50,419	-0,236	-0,157
11,473	21,286	-0,287	-0,164
12,488	44,376	-0,319	-0,207
13,502	-68,862	-0,247	-0,067
14,517	-84,779	-0,410	-0,090
15,531	-47,027	-0,330	-0,113
16,546	131,319	-0,371	-0,337
17,561	303,754	-0,286	-0,375
18,575	-89,699	-0,268	-0,055
19,590	800,000	-0,132	-0,272
20,604	-121,267	-0,134	-0,016
21,619	46,127	-0,564	-0,368
22,634	218,359	-0,293	-0,331
23,648	247,156	-0,277	-0,331
24,663	52,854	-0,413	-0,279
25,677	128,419	-0,403	-0,362
26,692	14,286	-0,384	-0,211
27,707	662,191	-0,161	-0,294
28,721	61,898	-0,301	-0,211
29,736	-49,622	-0,504	-0,168
30,750	223,753	-0,337	-0,384
31,765	247,122	-0,285	-0,341
32,780	78,154	-0,339	-0,255
33,794	204,375	-0,295	-0,323
34,809	86,487	-0,264	-0,205
35,823	287,122	-0,233	-0,297
36,838	-21,290	-0,336	-0,144
37,853	161,285	-0,359	-0,354
38,867	-26,710	-0,451	-0,185
39,882	102,129	-0,254	-0,209
40,896	-44,465	-0,390	-0,137
41,911	203,388	-0,211	-0,231
42,926	-57,886	-0,383	-0,117
43,940	30,128	-0,393	-0,236
44,955	14,336	-0,432	-0,237
45,969	283,198	-0,242	-0,306
46,984	183,956	-0,259	-0,270
47,999	51,446	-0,292	-0,195
49,013	23,373	-0,237	-0,137
50,028	-28,609	-0,382	-0,154
51,042	139,572	-0,285	-0,264
52,057	45,664	-0,465	-0,302
53,071	17,911	-0,304	-0,170
54,086	85,281	-0,377	-0,291
55,101	81,541	-0,257	-0,195
56,115	46,594	-0,350	-0,229
57,130	123,083	-0,325	-0,286
58,144	96,932	-0,290	-0,234
59,159	85,837	-0,341	-0,264
60,174	306,675	-0,239	-0,314
61,188	79,326	-0,347	-0,261
62,203	130,890	-0,329	-0,297
63,217	138,078	-0,382	-0,352
64,232	63,025	-0,360	-0,253
65,247	-133,224	-0,278	-0,024
66,261	9,757	-0,470	-0,250
67,276	97,961	-0,339	-0,274
68,290	-19,103	-0,279	-0,121
69,305	25,839	-0,360	-0,211
70,320	137,307	-0,245	-0,226
71,334	21,333	-0,358	-0,204
72,349	109,967	-0,239	-0,201
73,363	42,271	-0,265	-0,169
74,378	-124,961	-0,432	-0,046
75,393	60,572	-0,283	-0,197
76,407	6,389	-0,325	-0,169
77,422	-10,758	-0,364	-0,169
78,436	11,070	-0,229	-0,123
79,451	95,297	-0,222	-0,178
80,466	440,227	-0,173	-0,267
81,480	4,395	-0,427	-0,219
82,495	76,522	-0,318	-0,236
83,509	-48,695	-0,261	-0,088
84,524	621,808	-0,132	-0,234
85,539	-146,340	-0,364	-0,022
86,553	56,100	-0,211	-0,144
87,568	-7,660	-0,388	-0,184
88,582	732,594	-0,151	-0,286
89,597	181,095	-0,252	-0,260
90,611	139,360	-0,313	-0,289
91,626	109,945	-0,191	-0,161
92,641	-21,493	-0,350	-0,149
93,655	212,319	-0,236	-0,262
94,670	132,531	-0,306	-0,277
95,684	264,888	-0,250	-0,306
96,699	257,761	-0,266	-0,322
97,714	37,250	-0,281	-0,174
98,728	346,382	-0,104	-0,143
99,743	110,902	-0,242	-0,204
100,757	31,426	-0,140	-0,084
101,772	92,187	-0,214	-0,169
102,787	155,333	-0,380	-0,367
103,801	180,734	-0,322	-0,332
104,816	133,014	-0,201	-0,182
105,830	-36,384	-0,299	-0,113
106,845	-200,000	-0,207	0,000
107,860	87,052	-0,216	-0,167
108,874	37,087	-0,211	-0,131
109,889	18,636	-0,319	-0,179
110,903	163,055	-0,215	-0,212
111,918	158,717	-0,238	-0,231
112,933	50,900	-0,167	-0,110
113,947	33,224	-0,303	-0,184
114,962	-2,322	-0,218	-0,107
115,976	24,260	-0,392	-0,227
116,991	4,198	-0,218	-0,111
118,006	307,858	-0,188	-0,246
119,020	139,586	-0,219	-0,202
120,035	174,865	-0,272	-0,275
121,049	140,848	-0,214	-0,198
122,064	377,127	-0,173	-0,248
123,079	771,986	-0,115	-0,220
124,093	96,154	-0,266	-0,213
125,108	26,464	-0,249	-0,145
126,122	214,395	-0,204	-0,226
127,137	110,865	-0,238	-0,200
128,151	223,644	-0,129	-0,146
129,166	-73,242	-0,275	-0,070
130,181	13,944	-0,234	-0,127
131,195	236,392	-0,243	-0,282
132,210	42,500	-0,380	-0,241
133,224	114,174	-0,228	-0,194
134,239	434,389	-0,214	-0,326
135,254	134,268	-0,191	-0,173
136,268	-78,671	-0,292	-0,069
137,283	157,584	-0,172	-0,167
138,297	28,074	-0,278	-0,163
139,312	-77,218	-0,386	-0,093
140,327	365,630	-0,152	-0,215
141,341	316,174	-0,093	-0,123
142,356	34,661	-0,193	-0,118
143,370	-154,198	-0,267	-0,012
144,385	37,392	-0,268	-0,166
145,400	418,223	-0,173	-0,259
146,414	69,980	-0,317	-0,228
147,429	800,000	-0,180	-0,368
148,443	84,398	-0,249	-0,190
149,458	258,906	-0,149	-0,179
150,473	99,817	-0,269	-0,217
151,487	171,569	-0,169	-0,169
152,502	5,463	-0,386	-0,198
153,516	62,381	-0,281	-0,196
154,531	115,489	-0,266	-0,227
155,546	121,753	-0,245	-0,213
156,560	51,238	-0,255	-0,169
157,575	175,380	-0,202	-0,205
158,589	-91,215	-0,245	-0,049
159,604	418,979	-0,128	-0,191
160,619	-5,325	-0,379	-0,181
161,633	82,848	-0,319	-0,242
162,648	-133,031	-0,237	-0,021
163,662	105,343	-0,235	-0,194
164,677	144,651	-0,203	-0,189
165,692	104,344	-0,206	-0,169
166,706	-13,834	-0,180	-0,081
167,721	179,637	-0,254	-0,260
168,735	-44,336	-0,203	-0,071
169,750	38,715	-0,170	-0,106
170,764	284,084	-0,089	-0,112
171,779	310,085	-0,102	-0,133
172,794	354,960	-0,110	-0,153
173,808	-11,675	-0,236	-0,107
174,823	-25,873	-0,412	-0,168
175,837	17,226	-0,259	-0,143
176,852	229,275	-0,237	-0,270
177,867	95,023	-0,106	0,084
178,881	257,349	-0,176	-0,211
179,896	37,919	-0,282	-0,174
180,910	25,125	-0,364	-0,210
181,925	800,000	-0,104	-0,239
182,940	94,627	-0,268	-0,212
183,954	33,390	-0,217	-0,131
184,969	304,203	-0,163	-0,211
185,983	30,244	-0,172	-0,102
186,998	-74,424	-0,184	0,046
188,013	-30,656	-0,224	-0,088
189,027	-53,877	-0,311	-0,098
190,042	800,000	-0,152	-0,337
191,056	111,408	-0,253	-0,212
192,071	369,049	-0,133	-0,188
193,086	-125,639	-0,227	0,024
194,100	752,072	-0,101	-0,192
195,115	194,989	-0,127	-0,134
196,129	56,533	-0,162	-0,109
197,144	54,121	-0,228	-0,152
198,159	175,538	-0,250	-0,253
199,173	309,641	-0,161	-0,210
200,188	-94,574	-0,299	-0,056
201,202	42,574	-0,208	-0,132
202,217	-47,176	-0,215	-0,072
203,232	-67,023	-0,266	-0,072
204,246	35,357	-0,173	-0,105
205,261	88,441	-0,177	-0,136
206,275	-37,058	-0,280	-0,104
207,290	-22,436	-0,252	-0,106
208,304	94,941	-0,173	-0,137
209,319	78,620	-0,125	-0,093
210,334	-78,112	-0,186	-0,044
211,348	303,463	-0,192	-0,247
212,363	22,597	-0,238	-0,135
213,377	800,000	-0,074	-0,162
214,392	-5,317	-0,109	0,052
215,407	483,873	-0,141	-0,224
216,421	370,796	-0,058	-0,082
217,436	78,117	-0,110	-0,081
218,450	-93,891	-0,322	-0,061
219,465	86,642	-0,108	-0,083
220,480	-200,000	-0,058	-0,234
221,494	642,878	-0,102	-0,182
222,509	800,000	-0,069	-0,179
223,523	-171,541	-0,139	-0,003
224,538	559,847	-0,106	-0,178
225,553	191,496	-0,135	-0,141
226,567	271,781	-0,127	-0,155
227,582	-159,270	-0,186	0,007
228,596	800,000	-0,083	-0,163
229,611	425,134	-0,107	-0,161
230,626	-8,168	-0,155	-0,072
231,640	173,943	-0,153	-0,153
232,655	30,454	-0,189	-0,112
233,669	8,643	-0,234	-0,122
234,684	10,850	-0,237	-0,125
235,699	-200,000	-0,066	-0,209
236,713	23,530	-0,140	-0,080
237,728	-47,557	-0,173	-0,058
238,742	256,031	-0,065	-0,077
239,757	328,882	-0,212	-0,283
240,772	422,929	-0,131	-0,195
241,786	329,712	-0,119	-0,160
242,801	32,632	-0,193	-0,115
243,815	800,000	-0,057	-0,142
244,830	5,177	-0,133	-0,068
245,844	44,985	-0,291	-0,185
246,859	78,698	-0,236	-0,175
247,874	-14,239	-0,338	-0,150
248,888	22,353	-0,166	-0,094
249,903	277,663	-0,165	-0,204
250,917	60,017	-0,184	-0,125
251,932	-22,163	-0,178	-0,075
252,947	110,749	-0,212	-0,177
253,961	25,054	-0,212	-0,121
254,976	168,494	-0,151	-0,149
255,990	-85,589	-0,245	-0,052
257,005	-101,927	-0,249	-0,041
258,020	-84,254	-0,131	-0,028
259,034	-50,383	-0,210	-0,068
260,049	-139,360	-0,235	-0,017
261,063	64,279	-0,234	-0,163
262,078	308,439	-0,173	-0,224
263,093	17,737	-0,191	-0,105
264,107	5,178	-0,126	-0,064
265,122	-85,743	-0,203	-0,043
266,136	35,838	-0,142	-0,086
267,151	120,513	-0,162	-0,139
268,166	152,207	-0,165	-0,156
269,180	-121,119	-0,250	-0,029
270,195	254,673	-0,115	-0,136
271,209	44,818	-0,137	-0,087
272,224	-75,583	-0,228	-0,056
273,239	54,537	-0,164	-0,109
274,253	-79,056	-0,167	-0,039
275,268	-10,030	-0,198	-0,091
276,282	234,715	-0,208	-0,237
277,297	267,724	-0,156	-0,189
278,312	439,314	-0,113	-0,171
279,326	800,000	-0,030	-0,087
280,341	40,317	-0,208	-0,129
281,355	43,037	-0,235	-0,147
282,370	-103,293	-0,013	0,002
283,384	800,000	-0,027	-0,064
284,399	144,819	-0,269	-0,248
285,414	186,493	-0,138	-0,142
286,428	-124,414	-0,110	-0,012
287,443	11,852	-0,210	-0,111
288,457	-15,361	-0,082	-0,036
289,472	-34,473	-0,177	-0,067
290,487	371,884	-0,163	-0,229
291,501	116,670	-0,187	-0,158
292,516	-76,429	-0,315	-0,076
293,530	-200,000	-0,027	0,087
294,545	88,456	-0,113	-0,086
295,560	-5,271	-0,048	-0,023
296,574	579,324	-0,110	-0,187
297,589	-31,126	-0,131	-0,051
298,603	190,692	-0,166	-0,173
299,618	-200,000	-0,050	-0,241
300,633	189,198	-0,166	-0,172
301,647	-26,824	-0,169	-0,068
302,662	501,316	-0,103	-0,164
303,676	38,914	-0,154	-0,095
304,691	-200,000	-0,023	-0,238
305,706	800,000	-0,045	-0,117
306,720	-200,000	-0,051	-0,170
307,735	-200,000	0,000	-0,116
308,749	-200,000	-0,068	-0,227
309,764	800,000	-0,100	-0,216
310,779	-74,794	-0,231	0,057
311,793	49,105	-0,164	-0,106
312,808	248,435	-0,127	-0,148
313,822	127,739	-0,104	-0,091
314,837	-70,900	-0,110	0,028
315,852	-3,790	-0,146	-0,069
316,866	133,030	-0,048	-0,042
317,881	133,771	-0,146	0,130
318,895	41,501	-0,109	0,068
319,910	138,586	-0,283	-0,256
320,925	735,109	-0,149	-0,276
321,939	-105,516	-0,136	0,021
322,954	215,963	-0,087	-0,095
323,968	53,469	-0,130	-0,086
324,983	-200,000	-0,146	0,000
325,997	18,795	-0,087	-0,048
327,012	-200,000	-0,048	-0,169
328,027	279,942	-0,196	-0,241
329,041	459,830	-0,043	-0,066
330,056	11,311	-0,123	-0,064
331,070	-167,936	-0,151	0,004
332,085	800,000	0,017	0,053
333,100	-142,640	-0,051	-0,003
334,114	-43,826	-0,214	-0,074
335,129	-6,563	-0,100	-0,047
336,143	73,170	-0,170	-0,122
337,158	800,000	0,021	-0,056
338,173	-172,083	-0,099	-0,002
339,187	758,489	-0,028	-0,053
340,202	800,000	-0,094	-0,182
341,216	-200,000	-0,065	-0,207
342,231	225,080	-0,138	-0,154
343,246	-26,951	-0,093	-0,037
344,260	-200,000	0,000	0,136
345,275	-30,119	-0,087	-0,034
346,289	-147,808	-0,118	-0,007
347,304	-200,000	-0,193	0,000
348,319	442,632	-0,075	-0,113
349,333	-48,513	-0,198	-0,065
350,348	-40,334	-0,304	-0,108
351,362	178,653	-0,124	-0,124
352,377	380,860	-0,093	-0,131
353,392	-64,689	-0,086	-0,024
354,406	-10,134	-0,190	-0,086
355,421	210,842	1311,355	1415,584
356,435	162,322	1471,682	1416,060
