DTS Sentinel unit serial number:	SN410029Multiplexer serial number:	ORYXHardware model number:	OX2-SRSoftware version number:	ORYX F/W v4,00 Oryx Data Collector v3.7.2.0data status	okinstallation	B3 Nyhavnadifferential loss correction	single-endedforward channel	channel 1reverse channel	N/Adate	2023/11/29time	04:57:30forward acquisition time	300,00reverse acquisition time	0,00gamma	499,1914k internal	0,3211k external	0,3211temperature offset calibration	1,0000default loss term (dB/km)	0,3820temperature slope calibration	1,0000multiplexer offset coefficient	1,0000multiplexer slope coefficient	1,0000fibre end	0,00T internal ref (°C)	9,19T ext. ref 1 (°C)	-6,23T ext. ref 2 (°C)	-6,36length (m)	temperature (°C)	Stokes	anti-Stokes-744,400	48,328	-0,302	-0,205
-743,385	-200,000	-0,024	0,231
-742,371	19,291	-0,139	-0,081
-741,356	-200,000	0,092	0,318
-740,342	800,000	-0,077	-0,178
-739,327	197,765	-0,092	0,102
-738,312	-15,361	-0,172	-0,079
-737,298	800,000	-0,107	0,234
-736,283	305,637	-0,175	-0,237
-735,269	-200,000	-0,017	0,181
-734,254	122,119	-0,217	-0,197
-733,239	78,251	-0,245	0,189
-732,225	800,000	-0,055	-0,148
-731,210	74,921	0,149	0,114
-730,196	319,485	0,046	0,063
-729,181	56,017	-0,074	0,052
-728,167	-200,000	0,022	-0,147
-727,152	57,722	-0,109	-0,077
-726,137	76,519	-0,016	-0,012
-725,123	293,081	-0,071	-0,094
-724,108	-88,593	-0,092	-0,020
-723,094	146,760	-0,092	-0,090
-722,079	206,553	-0,110	-0,124
-721,064	800,000	0,063	-0,162
-720,050	800,000	0,020	-0,042
-719,035	800,000	-0,064	-0,152
-718,021	-200,000	0,024	-0,084
-717,006	-200,000	-0,040	-0,149
-715,991	-200,000	0,012	-0,064
-714,977	55,136	0,059	-0,041
-713,962	-152,513	-0,158	-0,008
-712,948	-73,446	0,092	0,024
-711,933	341,197	0,087	0,124
-710,918	-79,655	-0,036	0,009
-709,904	9,291	-0,108	-0,059
-708,889	-149,711	-0,066	-0,004
-707,875	56,380	-0,049	-0,034
-706,860	-45,846	-0,115	-0,041
-705,845	405,022	0,047	-0,072
-704,831	-20,484	0,066	-0,029
-703,816	800,000	-0,010	0,025
-702,802	-200,000	0,046	-0,173
-701,787	216,476	-0,060	0,070
-700,772	238,283	-0,062	-0,075
-699,758	5,428	0,080	0,042
-698,743	391,666	0,057	0,086
-697,729	98,030	0,149	0,124
-696,714	-200,000	-0,002	0,123
-695,699	42,424	-0,076	0,050
-694,685	317,981	-0,035	-0,048
-693,670	-45,365	0,122	0,043
-692,656	522,579	-0,026	-0,044
-691,641	608,403	-0,068	0,124
-690,627	179,160	-0,016	0,017
-689,612	95,013	0,088	0,073
-688,597	800,000	-0,036	0,097
-687,583	800,000	-0,044	-0,110
-686,568	-200,000	-0,017	-0,064
-685,554	-94,182	0,098	-0,019
-684,539	-200,000	0,002	-0,081
-683,524	236,632	0,056	-0,068
-682,510	-165,877	0,017	0,001
-681,495	395,266	0,085	-0,129
-680,481	800,000	0,039	-0,099
-679,466	-200,000	-0,024	-0,107
-678,451	800,000	0,028	-0,080
-677,437	286,672	-0,056	0,073
-676,422	-200,000	0,008	0,151
-675,408	800,000	-0,015	-0,046
-674,393	800,000	-0,058	-0,123
-673,378	110,607	0,173	0,150
-672,364	47,073	-0,042	0,028
-671,349	47,006	-0,050	0,034
-670,335	-200,000	0,005	0,121
-669,320	629,144	0,018	0,032
-668,305	333,648	0,045	0,064
-667,291	39,259	-0,084	0,054
-666,276	224,198	-0,060	0,070
-665,262	-200,000	-0,040	-0,156
-664,247	480,089	0,030	-0,049
-663,232	-24,035	-0,062	-0,027
-662,218	31,858	-0,002	0,001
-661,203	16,898	0,188	0,107
-660,189	-153,437	-0,090	0,004
-659,174	81,650	0,075	0,059
-658,159	31,484	-0,149	-0,092
-657,145	-200,000	-0,009	-0,068
-656,130	668,967	-0,057	-0,106
-655,116	80,955	0,051	0,040
-654,101	193,179	0,082	0,089
-653,086	800,000	-0,069	0,168
-652,072	109,572	0,008	-0,007
-651,057	-200,000	-0,009	-0,098
-650,043	795,899	-0,020	0,040
-649,028	-200,000	-0,008	0,061
-648,014	54,642	0,058	0,040
-646,999	-200,000	0,005	0,048
-645,984	-95,670	-0,058	-0,011
-644,970	-155,524	-0,179	-0,008
-643,955	-200,000	-0,000	-0,180
-642,941	-93,132	0,072	-0,014
-641,926	-73,214	-0,099	-0,026
-640,911	-19,551	-0,125	0,056
-639,897	-78,567	0,071	-0,017
-638,882	-109,476	0,065	0,010
-637,868	800,000	-0,018	0,041
-636,853	-197,718	-0,146	-0,001
-635,838	-200,000	-0,022	-0,104
-634,824	327,900	-0,053	-0,073
-633,809	692,148	0,034	0,064
-632,795	800,000	0,056	0,126
-631,780	-200,000	-0,005	0,180
-630,765	23,800	0,018	-0,011
-629,751	800,000	0,051	-0,118
-628,736	-50,377	0,031	-0,010
-627,722	491,779	-0,019	-0,031
-626,707	48,269	0,021	-0,014
-625,692	-200,000	-0,006	0,037
-624,678	101,206	0,072	0,060
-623,663	-97,553	0,058	-0,011
-622,649	-200,000	0,030	-0,109
-621,634	-200,000	-0,004	-0,091
-620,619	89,912	0,040	0,032
-619,605	11,533	0,137	0,075
-618,590	-200,000	0,004	0,056
-617,576	800,000	0,015	0,045
-616,561	-200,000	-0,011	-0,112
-615,546	-81,412	0,063	0,015
-614,532	280,348	-0,043	-0,056
-613,517	-16,985	-0,091	-0,041
-612,503	800,000	-0,044	-0,096
-611,488	-77,408	0,093	-0,023
-610,474	-200,000	0,006	0,155
-609,459	-200,000	-0,011	-0,078
-608,444	196,131	-0,124	0,136
-607,430	168,040	0,115	0,118
-606,415	800,000	0,021	-0,058
-605,401	-200,000	-0,002	0,043
-604,386	-36,272	0,036	0,014
-603,371	-200,000	-0,032	0,122
-602,357	-200,000	-0,026	0,203
-601,342	-200,000	0,029	0,139
-600,328	-200,000	-0,016	-0,155
-599,313	-200,000	0,000	0,036
-598,298	-41,671	0,123	-0,045
-597,284	603,952	0,064	-0,115
-596,269	328,603	-0,060	0,084
-595,255	338,712	0,071	0,101
-594,240	789,408	0,033	-0,065
-593,225	-175,756	-0,155	-0,003
-592,211	800,000	-0,025	-0,053
-591,196	-200,000	0,002	0,139
-590,182	-200,000	-0,003	-0,022
-589,167	-200,000	-0,002	-0,086
-588,152	39,014	0,039	-0,025
-587,138	-131,502	-0,062	0,006
-586,123	-200,000	-0,014	0,096
-585,109	-91,224	-0,081	-0,017
-584,094	-90,335	0,121	-0,025
-583,079	-107,254	0,088	0,014
-582,065	80,943	-0,079	0,061
-581,050	-57,168	0,047	0,015
-580,036	50,590	-0,122	0,083
-579,021	36,848	-0,078	0,050
-578,006	611,435	-0,003	0,005
-576,992	-55,405	0,054	0,017
-575,977	720,405	0,058	0,112
-574,963	285,982	-0,037	0,049
-573,948	-18,582	-0,061	0,027
-572,934	-200,000	-0,007	0,050
-571,919	-49,735	-0,112	0,038
-570,904	800,000	0,035	-0,086
-569,890	150,409	0,023	-0,023
-568,875	-136,968	-0,077	0,006
-567,861	46,175	-0,092	-0,061
-566,846	-57,842	-0,078	0,024
-565,831	-45,254	-0,130	-0,046
-564,817	493,513	-0,032	-0,052
-563,802	-200,000	-0,015	-0,299
-562,788	800,000	0,014	-0,029
-561,773	-157,242	-0,084	0,004
-560,758	-200,000	-0,008	0,150
-559,744	100,643	-0,032	-0,027
-558,729	-71,246	0,028	0,007
-557,715	-96,862	-0,082	0,015
-556,700	800,000	-0,042	-0,086
-555,685	-200,000	-0,025	-0,082
-554,671	-62,363	0,051	-0,015
-553,656	-57,908	0,172	-0,054
-552,642	800,000	-0,021	0,051
-551,627	252,227	0,057	0,071
-550,612	15,174	0,130	-0,073
-549,598	-162,300	-0,096	0,003
-548,583	800,000	0,038	-0,100
-547,569	-155,700	-0,083	-0,004
-546,554	800,000	-0,046	0,107
-545,539	267,088	0,049	-0,062
-544,525	50,118	0,041	-0,028
-543,510	236,868	-0,045	0,054
-542,496	-200,000	0,042	-0,150
-541,481	144,584	-0,050	-0,048
-540,466	247,340	0,028	-0,034
-539,452	30,099	-0,099	0,061
-538,437	484,329	0,115	0,189
-537,423	28,999	0,182	0,111
-536,408	-200,000	0,016	-0,076
-535,393	571,050	-0,109	-0,192
-534,379	171,266	-0,132	-0,137
-533,364	-200,000	-0,005	0,097
-532,350	-10,651	0,182	0,086
-531,335	-200,000	-0,016	0,144
-530,321	800,000	-0,055	0,163
-529,306	-51,408	-0,046	0,015
-528,291	-200,000	0,010	-0,082
-527,277	493,469	0,063	-0,105
-526,262	-7,717	-0,109	0,053
-525,248	-114,847	0,211	0,029
-524,233	-30,489	0,040	0,016
-523,218	-71,147	0,135	-0,036
-522,204	-200,000	-0,003	-0,130
-521,189	-168,363	-0,097	0,003
-520,175	-74,740	-0,132	-0,034
-519,160	150,813	0,035	0,034
-518,145	800,000	0,019	-0,048
-517,131	-48,801	-0,033	-0,011
-516,116	-124,132	0,135	-0,015
-515,102	800,000	0,022	-0,051
-514,087	561,247	0,045	0,078
-513,072	-200,000	0,016	-0,071
-512,058	200,083	-0,048	-0,054
-511,043	-88,936	0,113	-0,024
-510,029	-123,459	-0,097	0,011
-509,014	800,000	-0,054	0,118
-507,999	-142,743	0,086	-0,006
-506,985	800,000	-0,030	-0,081
-505,970	-200,000	0,006	0,043
-504,956	129,652	-0,079	-0,073
-503,941	-94,142	-0,003	-0,001
-502,926	800,000	0,055	-0,117
-501,912	-84,925	0,093	-0,021
-500,897	46,472	-0,084	0,056
-499,883	-90,983	-0,144	-0,029
-498,868	-112,115	-0,029	0,004
-497,853	24,219	0,049	-0,029
-496,839	343,546	0,013	0,019
-495,824	-18,268	-0,074	0,033
-494,810	558,386	0,103	0,179
-493,795	-191,527	0,109	-0,001
-492,781	-200,000	-0,041	-0,181
-491,766	13,589	-0,091	-0,051
-490,751	-104,185	-0,088	0,014
-489,737	193,113	-0,061	0,066
-488,722	-200,000	0,035	0,152
-487,708	617,229	0,031	-0,055
-486,693	430,324	0,042	0,066
-485,678	703,689	-0,034	-0,064
-484,664	49,886	0,058	0,039
-483,649	6,804	-0,115	0,061
-482,635	118,949	0,110	-0,097
-481,620	-200,000	-0,009	-0,055
-480,605	298,511	0,033	0,043
-479,591	8,167	0,043	0,023
-478,576	180,171	-0,101	-0,107
-477,562	-200,000	-0,008	-0,041
-476,547	800,000	-0,058	-0,183
-475,532	800,000	-0,053	-0,105
-474,518	-115,806	0,167	-0,022
-473,503	128,991	-0,130	0,119
-472,489	-165,101	0,138	-0,004
-471,474	-92,275	-0,100	-0,020
-470,459	-91,358	-0,119	-0,024
-469,445	-200,000	-0,005	-0,030
-468,430	56,240	-0,200	-0,139
-467,416	-200,000	0,015	0,062
-466,401	331,100	0,028	0,039
-465,386	3,676	0,060	-0,031
-464,372	322,851	-0,134	0,184
-463,357	-67,888	0,108	-0,030
-462,343	319,167	-0,041	-0,056
-461,328	-200,000	0,034	0,189
-460,313	86,295	0,048	-0,038
-459,299	-200,000	0,003	0,060
-458,284	467,852	-0,010	-0,016
-457,270	-84,869	-0,059	-0,013
-456,255	-21,454	-0,023	-0,010
-455,241	125,014	-0,111	-0,100
-454,226	-200,000	-0,021	-0,082
-453,211	701,443	-0,046	0,087
-452,197	800,000	0,030	0,069
-451,182	-200,000	-0,009	-0,042
-450,168	-49,920	0,090	0,030
-449,153	-13,849	-0,132	0,061
-448,138	543,062	-0,042	0,073
-447,124	800,000	-0,057	-0,122
-446,109	148,544	0,073	0,071
-445,095	98,473	-0,004	-0,003
-444,080	206,464	-0,114	0,127
-443,065	419,170	0,094	0,144
-442,051	-200,000	0,001	-0,034
-441,036	39,387	-0,110	-0,070
-440,022	-87,594	0,139	-0,030
-439,007	-200,000	0,031	0,116
-437,992	-38,136	0,138	0,052
-436,978	40,964	0,078	-0,051
-435,963	-137,426	-0,059	-0,005
-434,949	800,000	-0,015	-0,038
-433,934	93,768	-0,096	0,078
-432,919	800,000	-0,023	0,045
-431,905	-200,000	-0,013	-0,142
-430,890	-200,000	0,042	-0,144
-429,876	-53,602	0,123	0,040
-428,861	343,081	0,092	0,130
-427,846	-34,582	0,051	-0,020
-426,832	98,114	0,056	-0,047
-425,817	-63,035	-0,129	0,038
-424,803	15,376	0,070	-0,039
-423,788	-200,000	0,005	-0,102
-422,773	-139,281	0,159	0,012
-421,759	-200,000	0,011	0,111
-420,744	117,935	-0,071	-0,063
-419,730	74,328	0,027	0,021
-418,715	-200,000	-0,003	0,022
-417,701	800,000	0,073	-0,150
-416,686	300,758	0,066	0,088
-415,671	-200,000	0,011	0,045
-414,657	-86,990	0,063	0,014
-413,642	87,565	0,078	-0,062
-412,628	14,033	0,146	-0,081
-411,613	278,483	-0,018	-0,023
-410,598	-200,000	-0,013	-0,146
-409,584	339,693	0,034	0,048
-408,569	-200,000	0,014	0,088
-407,555	-63,328	0,112	-0,033
-406,540	800,000	-0,039	-0,104
-405,525	191,775	0,008	0,008
-404,511	-200,000	-0,024	-0,122
-403,496	376,081	0,057	-0,084
-402,482	8,421	0,031	-0,017
-401,467	423,165	-0,074	0,114
-400,452	175,190	0,061	-0,063
-399,438	406,639	0,021	-0,032
-398,423	-109,898	0,073	0,011
-397,409	-12,283	-0,037	-0,017
-396,394	-62,701	-0,051	-0,015
-395,379	-24,532	0,054	0,023
-394,365	400,951	0,019	-0,029
-393,350	73,214	0,104	0,078
-392,336	264,578	-0,104	-0,130
-391,321	800,000	-0,040	-0,107
-390,306	-91,000	-0,067	0,014
-389,292	-200,000	0,010	-0,064
-388,277	579,329	0,065	-0,114
-387,263	-4,004	-0,101	0,050
-386,248	74,812	0,096	-0,072
-385,233	800,000	-0,017	0,050
-384,219	554,396	0,014	-0,024
-383,204	32,033	-0,046	-0,029
-382,190	84,426	-0,106	-0,083
-381,175	726,887	-0,060	0,116
-380,160	264,584	0,109	0,135
-379,146	-200,000	-0,004	0,165
-378,131	185,443	0,060	0,064
-377,117	-169,845	-0,044	0,001
-376,102	64,931	-0,074	-0,053
-375,088	-3,418	-0,104	-0,052
-374,073	229,089	-0,035	-0,041
-373,058	-69,368	0,115	0,031
-372,044	-138,264	-0,163	0,013
-371,029	-75,184	0,153	-0,039
-370,015	103,631	0,112	0,094
-369,000	-200,000	-0,026	-0,084
-367,985	-200,000	0,001	0,034
-366,971	-58,985	-0,051	0,016
-365,956	800,000	0,021	0,060
-364,942	-169,039	0,090	-0,002
-363,927	-200,000	-0,019	0,087
-362,912	-93,590	0,051	0,010
-361,898	-200,000	-0,135	-0,000
-360,883	-13,786	0,087	-0,040
-359,869	273,872	0,088	-0,112
-358,854	-10,937	-0,092	0,043
-357,839	-200,000	0,031	0,166
-356,825	-200,000	-0,001	0,079
-355,810	800,000	0,086	-0,186
-354,796	800,000	-0,033	-0,094
-353,781	-119,795	-0,034	-0,004
-352,766	-93,961	-0,033	0,006
-351,752	-71,782	-0,079	0,021
-350,737	-55,816	0,045	-0,014
-349,723	564,286	0,075	0,131
-348,708	-200,000	0,010	-0,095
-347,693	46,855	-0,049	-0,033
-346,679	43,443	0,128	0,083
-345,664	-200,000	0,006	-0,101
-344,650	-200,000	0,003	-0,021
-343,635	74,016	0,028	-0,021
-342,620	252,742	0,085	-0,104
-341,606	800,000	-0,060	0,160
-340,591	-200,000	-0,045	0,195
-339,577	-144,254	-0,109	-0,007
-338,562	50,259	0,074	-0,050
-337,548	611,813	0,077	0,138
-336,533	-200,000	-0,000	-0,077
-335,518	308,126	0,039	0,052
-334,504	-200,000	0,019	0,148
-333,489	264,265	-0,055	0,068
-332,475	800,000	-0,028	-0,076
-331,460	183,017	-0,045	0,048
-330,445	-86,120	0,162	-0,035
-329,431	-200,000	0,015	-0,132
-328,416	294,575	0,028	0,037
-327,402	-38,941	-0,084	0,032
-326,387	-200,000	0,018	0,160
-325,372	57,176	-0,048	0,033
-324,358	15,300	0,028	-0,016
-323,343	-27,381	-0,079	-0,033
-322,329	800,000	0,018	-0,045
-321,314	-8,025	0,114	-0,054
-320,299	138,643	0,127	0,119
-319,285	105,953	-0,003	0,002
-318,270	-200,000	0,000	-0,105
-317,256	-4,287	-0,104	-0,051
-316,241	312,508	-0,037	0,050
-315,226	-115,725	0,242	0,032
-314,212	50,119	-0,236	0,159
-313,197	-120,526	0,125	0,015
-312,183	-200,000	-0,048	0,161
-311,168	599,931	0,042	-0,075
-310,153	241,719	0,038	-0,045
-309,139	111,546	-0,043	0,037
-308,124	159,421	0,120	0,119
-307,110	-66,962	0,084	-0,024
-306,095	232,695	0,049	-0,057
-305,080	800,000	-0,007	-0,022
-304,066	-200,000	0,014	-0,060
-303,051	54,678	-0,125	-0,086
-302,037	-95,281	-0,049	0,009
-301,022	-100,158	0,235	-0,041
-300,008	32,176	0,126	-0,077
-298,993	800,000	0,015	0,037
-297,978	-143,882	-0,090	0,006
-296,964	-200,000	0,006	0,029
-295,949	-66,562	-0,105	-0,029
-294,935	444,728	0,020	-0,032
-293,920	-68,214	-0,041	0,011
-292,905	186,682	-0,019	-0,020
-291,891	-200,000	-0,020	0,078
-290,876	-200,000	0,028	0,096
-289,862	800,000	-0,063	-0,136
-288,847	-125,141	-0,101	-0,011
-287,832	800,000	-0,013	-0,031
-286,818	59,396	0,031	-0,021
-285,803	800,000	-0,051	0,148
-284,789	-113,135	-0,111	-0,015
-283,774	-63,425	-0,160	-0,047
-282,759	-141,381	0,058	0,004
-281,745	130,939	-0,084	-0,077
-280,730	-38,412	0,071	-0,027
-279,716	-69,459	-0,104	0,028
-278,701	-200,000	0,018	0,075
-277,686	800,000	0,051	0,146
-276,672	233,516	-0,071	-0,083
-275,657	-200,000	0,008	0,045
-274,643	-84,875	-0,042	0,009
-273,628	48,596	0,106	-0,070
-272,613	-39,953	0,006	-0,002
-271,599	54,054	-0,076	0,052
-270,584	-200,000	0,031	0,188
-269,570	-33,990	0,067	0,026
-268,555	-200,000	0,005	0,030
-267,540	800,000	-0,013	-0,035
-266,526	-200,000	0,037	0,134
-265,511	-120,495	-0,061	-0,007
-264,497	181,771	-0,027	-0,028
-263,482	-200,000	0,012	0,142
-262,467	-113,227	0,191	-0,026
-261,453	108,220	-0,030	0,026
-260,438	800,000	-0,034	-0,073
-259,424	-0,020	-0,042	-0,021
-258,409	0,520	0,085	0,043
-257,395	426,988	0,045	0,069
-256,380	24,792	0,051	0,030
-255,365	-200,000	0,008	-0,031
-254,351	116,049	0,083	0,072
-253,336	-200,000	-0,006	-0,028
-252,322	-200,000	-0,023	0,090
-251,307	-200,000	-0,012	-0,067
-250,292	-11,783	0,010	0,004
-249,278	662,897	0,021	0,039
-248,263	-112,323	-0,146	-0,021
-247,249	72,919	0,091	0,067
-246,234	-200,000	0,030	0,126
-245,219	-136,665	-0,170	-0,014
-244,205	-84,903	0,051	-0,011
-243,190	-96,359	-0,092	-0,017
-242,176	37,202	-0,041	-0,026
-241,161	138,449	-0,033	0,031
-240,146	-200,000	0,002	-0,048
-239,132	800,000	0,031	-0,088
-238,117	-200,000	0,006	-0,045
-237,103	800,000	-0,036	-0,075
-236,088	202,980	0,063	0,069
-235,073	-200,000	0,009	0,053
-234,059	800,000	0,024	0,049
-233,044	800,000	-0,042	0,111
-232,030	800,000	-0,004	-0,011
-231,015	-200,000	-0,026	-0,223
-230,000	223,942	-0,095	0,109
-228,986	-200,000	-0,021	-0,113
-227,971	310,745	-0,105	-0,140
-226,957	-127,611	0,162	-0,016
-225,942	703,200	0,075	0,141
-224,927	-70,336	-0,060	-0,016
-223,913	-114,491	0,063	-0,009
-222,898	-200,000	0,016	-0,148
-221,884	-200,000	0,002	-0,071
-220,869	19,575	0,066	0,038
-219,855	800,000	0,016	0,046
-218,840	800,000	0,039	0,083
-217,825	77,173	-0,095	-0,072
-216,811	-200,000	-0,014	-0,048
-215,796	-52,553	-0,081	-0,026
-214,782	-200,000	-0,005	-0,120
-213,767	-180,993	0,038	0,001
-212,752	-49,087	0,041	0,014
-211,738	800,000	0,105	0,259
-210,723	-200,000	-0,011	-0,054
-209,709	-200,000	-0,010	-0,063
-208,694	800,000	0,028	0,056
-207,679	-44,301	0,024	0,009
-206,665	-72,418	0,092	0,024
-205,650	-200,000	-0,002	-0,073
-204,636	800,000	0,067	0,155
-203,621	-92,369	-0,077	-0,015
-202,606	131,852	-0,079	-0,072
-201,592	-99,854	-0,089	-0,016
-200,577	-158,999	0,145	0,006
-199,563	-97,439	-0,099	0,018
-198,548	59,930	0,064	0,045
-197,533	800,000	0,036	-0,073
-196,519	-200,000	-0,013	-0,051
-195,504	-200,000	-0,040	-0,133
-194,490	800,000	-0,067	-0,173
-193,475	-141,895	-0,074	-0,005
-192,460	-66,351	0,184	0,052
-191,446	318,965	0,090	0,121
-190,431	80,929	-0,033	0,025
-189,417	800,000	-0,032	-0,093
-188,402	-200,000	0,001	-0,112
-187,387	220,693	-0,046	-0,052
-186,373	99,740	0,109	0,089
-185,358	-148,626	-0,095	0,005
-184,344	56,957	-0,056	-0,039
-183,329	-88,960	-0,066	0,014
-182,315	-200,000	0,036	0,205
-181,300	800,000	0,015	-0,047
-180,285	237,968	-0,053	0,063
-179,271	800,000	-0,040	-0,085
-178,256	800,000	-0,084	-0,219
-177,242	489,543	-0,010	-0,016
-176,227	-123,930	0,008	-0,001
-175,212	93,826	0,099	0,079
-174,198	233,306	0,012	0,014
-173,183	49,696	-0,121	-0,081
-172,169	-200,000	0,019	-0,083
-171,154	328,678	-0,111	-0,152
-170,139	-161,333	0,170	-0,006
-169,125	-200,000	-0,021	0,141
-168,110	32,243	-0,138	-0,084
-167,096	-9,124	-0,128	-0,060
-166,081	29,861	0,021	-0,012
-165,066	-200,000	-0,017	-0,064
-164,052	-9,536	-0,097	-0,046
-163,037	-26,288	0,116	0,048
-162,023	-200,000	0,015	0,075
-161,008	21,722	-0,055	0,032
-159,993	-200,000	0,003	-0,093
-158,979	800,000	0,007	-0,017
-157,964	-200,000	-0,001	0,053
-156,950	-114,388	-0,066	0,009
-155,935	800,000	-0,020	-0,046
-154,920	57,109	-0,053	-0,036
-153,906	-200,000	-0,038	0,128
-152,891	-200,000	0,011	0,091
-151,877	-200,000	0,010	0,081
-150,862	60,177	-0,101	-0,070
-149,847	-200,000	0,030	-0,106
-148,833	-93,511	-0,111	0,021
-147,818	490,464	0,064	-0,104
-146,804	250,090	0,052	-0,062
-145,789	-200,000	-0,002	-0,129
-144,775	57,069	-0,022	-0,015
-143,760	-6,682	-0,047	0,023
-142,745	-200,000	-0,008	0,102
-141,731	88,062	0,067	-0,052
-140,716	-153,344	-0,045	-0,002
-139,702	451,220	-0,048	0,075
-138,687	491,463	0,059	0,096
-137,672	-85,382	0,130	0,029
-136,658	15,489	0,056	0,031
-135,643	800,000	-0,066	-0,146
-134,629	781,429	-0,072	0,140
-133,614	-200,000	0,031	0,158
-132,599	-37,618	0,172	0,064
-131,585	158,188	0,029	-0,028
-130,570	29,766	-0,096	0,058
-129,556	-71,257	-0,115	-0,030
-128,541	800,000	0,021	-0,051
-127,526	-200,000	-0,013	0,110
-126,512	-168,679	0,124	-0,003
-125,497	157,492	-0,065	-0,064
-124,483	351,374	0,028	0,039
-123,468	-200,000	0,007	0,088
-122,453	53,559	-0,092	0,062
-121,439	438,181	-0,050	-0,077
-120,424	-143,895	0,095	-0,006
-119,410	-200,000	-0,010	0,114
-118,395	-200,000	0,040	0,130
-117,380	304,808	0,031	0,041
-116,366	-127,245	-0,277	-0,028
-115,351	472,764	0,050	-0,080
-114,337	200,620	0,110	-0,120
-113,322	11,129	-0,184	0,099
-112,307	-81,681	0,094	0,022
-111,293	200,227	-0,058	-0,063
-110,278	-200,000	-0,003	0,077
-109,264	-200,000	0,003	0,123
-108,249	157,820	-0,151	0,148
-107,234	-62,985	-0,094	0,027
-106,220	-101,325	-0,082	-0,014
-105,205	279,697	0,059	0,075
-104,191	407,426	-0,011	0,016
-103,176	-176,690	-0,127	-0,002
-102,162	800,000	-0,045	0,113
-101,147	-200,000	-0,028	-0,109
-100,132	87,220	0,137	-0,107
-99,118	-200,000	-0,011	-0,037
-98,103	-44,763	-0,092	0,032
-97,089	-200,000	-0,012	0,054
-96,074	655,643	0,051	-0,094
-95,059	294,820	0,033	-0,043
-94,045	800,000	-0,011	-0,022
-93,030	400,697	-0,046	0,068
-92,016	-200,000	-0,005	0,057
-91,001	-153,240	-0,075	-0,004
-89,986	800,000	-0,008	-0,018
-88,972	385,846	0,042	-0,062
-87,957	-200,000	0,005	0,124
-86,943	-136,559	0,058	0,005
-85,928	-200,000	0,031	-0,144
-84,913	-200,000	-0,001	0,036
-83,899	800,000	-0,038	0,095
-82,884	-5,560	0,172	0,083
-81,870	-49,946	-0,158	0,053
-80,855	-33,606	0,106	0,041
-79,840	367,281	0,038	-0,055
-78,826	-82,612	-0,085	-0,019
-77,811	261,345	-0,066	-0,080
-76,797	117,752	-0,101	0,088
-75,782	660,687	-0,047	0,086
-74,767	-200,000	0,030	0,133
-73,753	-141,336	0,041	-0,003
-72,738	50,719	0,136	0,091
-71,724	-61,156	0,067	0,020
-70,709	282,210	-0,128	-0,162
-69,694	-78,617	0,150	-0,036
-68,680	800,000	0,037	-0,073
-67,665	-200,000	0,023	-0,078
-66,651	232,868	0,046	-0,054
-65,636	-148,660	-0,105	-0,006
-64,622	-200,000	-0,030	-0,119
-63,607	412,153	-0,013	-0,020
-62,592	227,799	0,066	0,076
-61,578	299,916	0,030	-0,039
-60,563	47,760	0,092	0,060
-59,549	-34,466	-0,114	-0,044
-58,534	68,991	-2,046	-1,482
-57,519	555,769	-1,154	-1,969
-56,505	-200,000	-0,318	-4,169
-55,490	630,389	0,874	1,567
-54,476	800,000	5,107	11,213
-53,461	-200,000	21,811	338,878
-52,446	800,000	761,254	2314,082
-51,432	538,603	1656,250	2790,288
-50,417	70,149	1653,052	1203,247
-49,403	16,855	1527,551	851,132
-48,388	11,010	1451,529	780,607
-47,373	19,063	1443,597	814,816
-46,359	14,452	1432,163	786,492
-45,344	9,297	1428,213	759,834
-44,330	9,232	1426,413	758,539
-43,315	9,286	1424,333	757,659
-42,300	9,271	1422,839	756,766
-41,286	9,246	1421,708	756,013
-40,271	9,222	1420,458	755,207
-39,257	9,254	1419,158	754,637
-38,242	9,295	1418,091	754,230
-37,227	9,232	1416,979	753,313
-36,213	9,287	1415,571	752,795
-35,198	9,299	1414,356	752,176
-34,184	9,325	1413,442	751,783
-33,169	9,247	1412,214	750,734
-32,154	9,285	1411,371	750,433
-31,140	9,250	1409,976	749,495
-30,125	9,252	1408,858	748,880
-29,111	9,275	1407,620	748,302
-28,096	9,260	1406,578	747,647
-27,082	9,198	1405,141	746,565
-26,067	9,199	1404,261	746,072
-25,052	9,238	1403,116	745,618
-24,038	9,284	1402,276	745,353
-23,023	9,198	1401,430	744,475
-22,009	9,244	1400,132	743,971
-20,994	9,220	1399,301	743,385
-19,979	9,230	1398,404	742,928
-18,965	9,218	1397,233	742,222
-17,950	9,172	1396,528	741,601
-16,936	9,129	1395,656	740,910
-15,921	9,099	1394,829	740,304
-14,906	9,119	1393,801	739,819
-13,892	9,162	1392,625	739,364
-12,877	9,090	1392,130	738,740
-11,863	9,140	1391,029	738,357
-10,848	9,117	1390,171	737,766
-9,833	9,104	1389,219	737,173
-8,819	9,041	1388,543	736,496
-7,804	9,051	1387,303	735,854
-6,790	9,058	1386,523	735,444
-5,775	9,041	1385,246	734,659
-4,760	9,023	1384,454	734,128
-3,746	9,129	1383,499	734,077
-2,731	9,042	1382,545	733,142
-1,717	9,055	1381,743	732,749
-0,702	9,047	1379,973	731,743
0,313	13,048	1292,069	703,347
1,327	28,953	684,097	408,173
2,342	45,134	117,920	76,517
3,356	0,612	16,433	8,262
4,371	-0,868	3,801	1,892
5,386	-16,391	1,194	0,532
6,400	800,000	0,264	0,610
7,415	229,649	-0,110	-0,127
8,429	105,374	-0,247	-0,206
9,444	97,476	-0,248	-0,200
10,459	-6,912	-0,338	-0,161
11,473	35,790	-0,294	-0,182
12,488	-116,568	-0,259	-0,033
13,502	-99,821	-0,306	-0,053
14,517	34,068	-0,375	-0,230
15,531	82,690	-0,433	-0,331
16,546	166,668	-0,329	-0,329
17,561	137,101	-0,409	-0,377
18,575	380,398	-0,169	-0,245
19,590	52,565	-0,243	-0,163
20,604	-54,396	-0,177	-0,056
21,619	26,514	-0,442	-0,259
22,634	328,233	-0,302	-0,410
23,648	185,219	-0,357	-0,374
24,663	203,374	-0,328	-0,358
25,677	113,974	-0,404	-0,346
26,692	68,981	-0,320	-0,231
27,707	-4,258	-0,319	-0,155
28,721	241,759	-0,279	-0,329
29,736	11,577	-0,509	-0,274
30,750	178,650	-0,367	-0,378
31,765	5,419	-0,337	-0,174
32,780	179,519	-0,363	-0,374
33,794	104,188	-0,376	-0,311
34,809	193,562	-0,218	-0,233
35,823	162,532	-0,348	-0,344
36,838	24,130	-0,294	-0,170
37,853	44,660	-0,424	-0,273
38,867	575,825	-0,207	-0,357
39,882	40,541	-0,400	-0,253
40,896	4,046	-0,414	-0,212
41,911	40,813	-0,290	-0,184
42,926	3,153	-0,384	-0,196
43,940	19,808	-0,438	-0,247
44,955	66,272	-0,343	-0,245
45,969	59,552	-0,424	-0,294
46,984	52,604	-0,374	-0,251
47,999	122,913	-0,357	-0,314
49,013	45,622	-0,407	-0,264
50,028	44,204	-0,349	-0,225
51,042	7,140	-0,347	-0,181
52,057	9,067	-0,458	-0,242
53,071	77,586	-0,246	-0,184
54,086	5,277	-0,270	-0,140
55,101	63,656	-0,209	-0,147
56,115	62,617	-0,356	-0,250
57,130	71,943	-0,330	-0,241
58,144	186,639	-0,280	-0,293
59,159	-4,131	-0,532	-0,258
60,174	121,553	-0,277	-0,242
61,188	69,932	-0,392	-0,283
62,203	20,728	-0,296	-0,167
63,217	196,524	-0,277	-0,296
64,232	57,303	-0,400	-0,274
65,247	21,832	-0,474	-0,270
66,261	-56,162	-0,429	-0,133
67,276	102,474	-0,273	-0,224
68,290	10,746	-0,376	-0,201
69,305	49,868	-0,365	-0,241
70,320	178,353	-0,247	-0,254
71,334	139,146	-0,254	-0,234
72,349	-81,815	-0,234	-0,053
73,363	31,394	-0,396	-0,238
74,378	59,116	-0,332	-0,228
75,393	238,390	-0,192	-0,224
76,407	-54,070	-0,326	-0,103
77,422	135,922	-0,235	-0,215
78,436	158,611	-0,206	-0,200
79,451	-37,017	-0,410	-0,153
80,466	200,022	-0,272	-0,293
81,480	-200,000	-0,088	-0,309
82,495	109,621	-0,278	-0,234
83,509	122,676	-0,253	-0,221
84,524	277,716	-0,126	-0,158
85,539	138,978	-0,184	-0,170
86,553	-54,558	-0,279	-0,088
87,568	22,054	-0,360	-0,205
88,582	49,743	-0,225	-0,148
89,597	179,575	-0,248	-0,254
90,611	121,682	-0,227	-0,198
91,626	194,399	-0,264	-0,281
92,641	-28,726	-0,304	-0,122
93,655	41,801	-0,337	-0,214
94,670	213,508	-0,313	-0,347
95,684	126,262	-0,349	-0,309
96,699	256,846	-0,275	-0,331
97,714	105,999	-0,349	-0,289
98,728	73,377	-0,244	-0,178
99,743	88,729	-0,335	-0,260
100,757	413,943	-0,244	-0,365
101,772	160,530	-0,224	-0,219
102,787	15,026	-0,256	-0,140
103,801	152,685	-0,238	-0,227
104,816	107,212	-0,298	-0,247
105,830	-10,847	-0,311	-0,143
106,845	-131,039	-0,320	-0,029
107,860	90,937	-0,203	-0,159
108,874	-18,122	-0,247	-0,108
109,889	135,079	-0,257	-0,233
110,903	120,552	-0,227	-0,197
111,918	-15,568	-0,245	-0,109
112,933	627,458	-0,129	-0,229
113,947	-92,768	-0,207	-0,040
114,962	-83,244	-0,308	-0,069
115,976	255,402	-0,213	-0,255
116,991	16,048	-0,231	-0,127
118,006	109,951	-0,355	-0,297
119,020	-9,321	-0,182	-0,085
120,035	99,436	-0,134	-0,108
121,049	154,394	-0,240	-0,230
122,064	-166,065	-0,333	-0,010
123,079	-1,632	-0,210	-0,103
124,093	-6,423	-0,290	-0,138
125,108	75,446	-0,238	-0,175
126,122	201,614	-0,173	-0,186
127,137	-12,128	-0,181	-0,082
128,151	40,673	-0,254	-0,160
129,166	222,908	-0,206	-0,231
130,181	21,761	-0,297	-0,168
131,195	360,422	-0,201	-0,281
132,210	238,914	-0,267	-0,310
133,224	180,098	-0,278	-0,285
134,239	-21,873	-0,287	-0,121
135,254	37,941	-0,205	-0,127
136,268	61,680	-0,212	-0,147
137,283	90,702	-0,281	-0,220
138,297	37,636	-0,333	-0,206
139,312	620,776	-0,261	-0,460
140,327	41,048	-0,344	-0,216
141,341	90,196	-0,166	-0,129
142,356	89,720	-0,180	-0,140
143,370	-49,950	-0,224	-0,074
144,385	800,000	-0,059	-0,124
145,400	264,831	-0,209	-0,255
146,414	104,788	-0,340	-0,279
147,429	-142,937	-0,284	0,019
148,443	216,637	-0,225	-0,250
149,458	106,049	-0,226	-0,186
150,473	119,270	-0,160	-0,138
151,487	14,574	-0,169	-0,092
152,502	301,557	-0,225	-0,291
153,516	208,697	-0,164	-0,179
154,531	92,869	-0,165	-0,129
155,546	40,731	-0,306	-0,191
156,560	-8,023	-0,175	-0,082
157,575	85,015	-0,140	-0,107
158,589	-108,290	-0,308	-0,046
159,604	-29,281	-0,219	-0,087
160,619	117,974	-0,278	-0,238
161,633	120,357	-0,216	-0,187
162,648	-200,000	-0,009	-0,163
163,662	-1,652	-0,243	-0,119
164,677	-80,770	-0,180	-0,041
165,692	-74,470	-0,276	0,069
166,706	35,414	-0,263	-0,160
167,721	147,055	-0,154	-0,144
168,735	158,324	-0,177	-0,171
169,750	38,127	-0,236	-0,146
170,764	160,133	-0,190	-0,184
171,779	-200,000	-0,039	-0,237
172,794	-37,456	-0,162	-0,060
173,808	-40,200	-0,309	-0,111
174,823	88,660	-0,273	-0,210
175,837	44,791	-0,314	-0,200
176,852	800,000	-0,140	-0,287
177,867	335,642	-0,121	-0,163
178,881	152,909	-0,131	-0,124
179,896	223,178	-0,183	-0,205
180,910	786,086	-0,091	-0,175
181,925	76,825	-0,262	-0,193
182,940	169,104	-0,243	-0,241
183,954	33,137	-0,113	-0,068
184,969	800,000	-0,112	-0,242
185,983	494,284	-0,076	-0,121
186,998	15,716	-0,246	-0,134
188,013	226,067	-0,163	-0,184
189,027	527,515	-0,188	-0,308
190,042	-56,587	-0,288	-0,088
191,056	28,614	-0,245	-0,143
192,071	44,163	-0,269	-0,171
193,086	-103,326	-0,112	0,018
194,100	21,958	-0,092	-0,052
195,115	31,441	-0,171	-0,101
196,129	20,988	-0,288	-0,162
197,144	-200,000	-0,085	-0,270
198,159	-9,405	-0,266	-0,122
199,173	36,830	-0,238	-0,145
200,188	92,353	-0,122	-0,095
201,202	649,145	-0,075	-0,134
202,217	214,831	-0,196	-0,216
203,232	125,669	-0,144	-0,126
204,246	69,036	-0,239	-0,170
205,261	50,459	-0,122	-0,080
206,275	165,300	-0,153	-0,150
207,290	76,424	-0,065	0,048
208,304	-115,735	-0,176	-0,023
209,319	-140,584	-0,267	-0,019
210,334	-129,089	-0,258	-0,025
211,348	-41,066	-0,260	-0,092
212,363	-16,054	-0,310	-0,136
213,377	-200,000	-0,053	-0,192
214,392	69,741	-0,176	-0,125
215,407	-49,586	-0,262	-0,086
216,421	17,499	-0,197	-0,108
217,436	173,791	-0,287	-0,287
218,450	1,175	-0,277	-0,137
219,465	13,020	-0,268	-0,143
220,480	160,480	-0,222	-0,215
221,494	248,431	-0,204	-0,239
222,509	-17,775	-0,147	-0,064
223,523	14,947	-0,201	-0,109
224,538	94,146	-0,217	-0,170
225,553	87,743	-0,162	-0,124
226,567	796,566	-0,132	-0,253
227,582	300,046	-0,103	-0,132
228,596	-196,663	-0,147	-0,001
229,611	44,354	-0,246	-0,156
230,626	224,610	-0,082	-0,092
231,640	125,062	-0,220	-0,191
232,655	800,000	-0,079	-0,227
233,669	188,148	-0,216	-0,224
234,684	-200,000	-0,090	-0,317
235,699	116,167	-0,208	-0,176
236,713	54,067	-0,207	-0,137
237,728	-146,921	-0,206	-0,012
238,742	800,000	-0,061	-0,120
239,757	-3,449	-0,231	-0,111
240,772	26,616	-0,177	-0,102
241,786	17,383	-0,169	-0,093
242,801	78,268	-0,196	-0,145
243,815	381,490	-0,138	-0,197
244,830	-11,153	-0,242	-0,110
245,844	-40,523	-0,152	-0,054
246,859	337,122	-0,180	-0,242
247,874	-28,659	-0,164	-0,065
248,888	172,450	-0,136	-0,135
249,903	3,729	-0,127	-0,064
250,917	396,314	-0,135	-0,195
251,932	800,000	0,020	-0,052
252,947	625,837	-0,065	-0,114
253,961	104,510	-0,154	-0,125
254,976	28,254	-0,209	-0,122
255,990	-5,518	-0,210	-0,099
257,005	24,540	-0,293	-0,167
258,020	-71,540	-0,172	-0,044
259,034	-94,838	-0,145	-0,027
260,049	121,846	-0,117	-0,101
261,063	219,067	-0,155	-0,171
262,078	20,791	-0,133	-0,074
263,093	105,452	-0,229	-0,186
264,107	800,000	-0,025	-0,063
265,122	8,471	-0,291	-0,150
266,136	289,424	-0,141	-0,176
267,151	-11,397	-0,216	-0,098
268,166	-122,165	-0,276	-0,031
269,180	462,122	-0,158	-0,243
270,195	800,000	-0,093	-0,186
271,209	83,801	-0,094	-0,071
272,224	800,000	-0,104	-0,215
273,239	-57,622	-0,177	-0,053
274,253	-142,009	-0,220	-0,015
275,268	-13,457	-0,148	-0,066
276,282	-200,000	-0,087	-0,269
277,297	215,629	-0,180	-0,197
278,312	-65,317	-0,202	-0,056
279,326	-89,110	-0,092	0,019
280,341	-63,024	-0,178	-0,050
281,355	-83,563	-0,125	-0,027
282,370	378,976	-0,120	-0,169
283,384	330,975	-0,248	-0,330
284,399	87,699	-0,224	-0,171
285,414	181,697	-0,208	-0,210
286,428	12,830	-0,243	-0,129
287,443	-94,642	-0,133	-0,025
288,457	17,423	-0,138	-0,075
289,472	-118,642	-0,238	0,029
290,487	185,187	-0,193	-0,197
291,501	54,594	-0,124	-0,082
292,516	48,848	-0,173	-0,112
293,530	195,503	-0,141	-0,148
294,545	-136,271	-0,150	0,012
295,560	800,000	-0,042	-0,097
296,574	-30,901	-0,215	-0,083
297,589	-6,216	-0,201	-0,094
298,603	800,000	-0,083	-0,196
299,618	283,181	-0,184	-0,227
300,633	155,452	-0,126	-0,119
301,647	-25,098	-0,121	0,049
302,662	348,702	-0,142	-0,193
303,676	-87,674	-0,028	0,006
304,691	-49,979	-0,259	-0,084
305,706	-79,420	-0,209	0,048
306,720	364,495	-0,124	-0,171
307,735	39,786	-0,170	-0,104
308,749	-126,761	-0,160	-0,016
309,764	60,356	-0,101	-0,068
310,779	-200,000	0,006	-0,111
311,793	452,059	-0,046	-0,070
312,808	247,664	-0,103	-0,120
313,822	421,710	-0,127	-0,188
314,837	800,000	-0,060	-0,169
315,852	-200,000	-0,048	-0,179
316,866	-103,594	-0,147	-0,024
317,881	77,135	-0,172	-0,125
318,895	324,671	-0,114	-0,150
319,910	52,004	-0,174	-0,114
320,925	-0,591	-0,181	-0,088
321,939	800,000	0,014	-0,036
322,954	258,139	-0,025	0,030
323,968	-178,393	-0,104	-0,002
324,983	-171,201	-0,092	0,002
325,997	-68,693	-0,294	-0,077
327,012	172,309	-0,129	-0,127
328,027	800,000	-0,072	-0,192
329,041	260,942	-0,155	-0,184
330,056	4,594	-0,175	-0,088
331,070	343,604	-0,057	-0,077
332,085	-200,000	-0,017	-0,058
333,100	800,000	-0,078	-0,156
334,114	-52,290	-0,196	-0,062
335,129	172,221	-0,135	-0,133
336,143	122,906	-0,166	-0,142
337,158	238,276	-0,041	-0,047
338,173	-150,710	-0,158	0,008
339,187	-200,000	-0,013	-0,124
340,202	42,137	-0,185	-0,115
341,216	15,051	-0,124	-0,066
342,231	290,334	-0,091	-0,113
343,246	244,107	-0,142	-0,164
344,260	-3,575	-0,241	-0,114
345,275	-89,649	-0,215	-0,043
346,289	95,395	-0,120	0,094
347,304	-45,789	-0,258	-0,087
348,319	-116,439	-0,142	-0,018
349,333	-196,801	-0,167	-0,001
350,348	46,890	-0,156	-0,099
351,362	-111,950	-0,192	0,026
352,377	34,998	-0,095	0,057
353,392	-105,873	-0,143	-0,022
354,406	28,116	-0,138	-0,080
355,421	207,140	1306,936	1395,376
356,435	159,335	1466,671	1395,844
