DTS Sentinel unit serial number:	SN410029Multiplexer serial number:	ORYXHardware model number:	OX2-SRSoftware version number:	ORYX F/W v4,00 Oryx Data Collector v3.7.2.0data status	okinstallation	B3 Nyhavnadifferential loss correction	single-endedforward channel	channel 1reverse channel	N/Adate	2023/11/29time	17:02:30forward acquisition time	300,00reverse acquisition time	0,00gamma	499,1914k internal	0,3209k external	0,3209temperature offset calibration	1,0000default loss term (dB/km)	0,3820temperature slope calibration	1,0000multiplexer offset coefficient	1,0000multiplexer slope coefficient	1,0000fibre end	0,00T internal ref (°C)	11,39T ext. ref 1 (°C)	-3,85T ext. ref 2 (°C)	-4,00length (m)	temperature (°C)	Stokes	anti-Stokes-744,400	250,396	-0,209	-0,258
-743,385	638,031	-0,194	0,359
-742,371	208,006	-0,229	-0,259
-741,356	-200,000	0,089	0,338
-740,342	331,316	-0,128	-0,179
-739,327	800,000	0,079	0,242
-738,312	216,268	-0,176	-0,203
-737,298	-200,000	0,048	0,260
-736,283	323,904	-0,155	-0,215
-735,269	-200,000	-0,015	0,283
-734,254	-3,384	-0,274	-0,138
-733,239	-75,038	-0,112	0,029
-732,225	749,105	-0,074	-0,145
-731,210	153,507	0,159	0,158
-730,196	366,732	0,078	0,114
-729,181	-69,061	0,062	0,017
-728,167	800,000	0,042	-0,130
-727,152	638,567	-0,052	0,096
-726,137	423,476	-0,102	-0,159
-725,123	549,858	-0,074	-0,130
-724,108	-114,458	-0,097	0,013
-723,094	135,432	-0,118	-0,111
-722,079	-38,194	0,032	-0,012
-721,064	-200,000	-0,020	0,088
-720,050	138,969	-0,069	-0,066
-719,035	131,418	0,056	-0,052
-718,021	-200,000	-0,019	-0,130
-717,006	-200,000	-0,000	0,009
-715,991	176,693	-0,116	-0,122
-714,977	90,376	-0,133	-0,108
-713,962	-96,834	0,118	-0,022
-712,948	198,910	-0,092	-0,103
-711,933	-200,000	-0,022	0,134
-710,918	202,401	-0,092	0,103
-709,904	-200,000	-0,056	-0,218
-708,889	-113,341	-0,076	0,011
-707,875	0,093	0,052	-0,027
-706,860	26,873	0,044	-0,027
-705,845	206,119	0,056	0,064
-704,831	800,000	-0,010	0,026
-703,816	47,852	0,136	-0,092
-702,802	69,604	-0,056	-0,042
-701,787	-200,000	-0,030	-0,141
-700,772	27,198	-0,096	-0,058
-699,758	678,060	0,056	-0,105
-698,743	404,092	-0,039	-0,060
-697,729	795,893	0,056	-0,113
-696,714	66,364	-0,083	-0,061
-695,699	-122,814	0,131	0,015
-694,685	-200,000	0,001	-0,125
-693,670	143,086	0,075	-0,073
-692,656	54,663	0,124	-0,087
-691,641	-200,000	-0,002	-0,252
-690,627	-96,352	-0,068	0,013
-689,612	-200,000	0,006	-0,131
-688,597	800,000	-0,066	-0,156
-687,583	11,345	-0,119	-0,066
-686,568	-45,894	-0,149	-0,053
-685,554	-83,592	-0,027	0,006
-684,539	345,940	0,060	-0,085
-683,524	-30,063	-0,082	0,034
-682,510	-200,000	-0,030	0,097
-681,495	271,041	-0,054	-0,069
-680,481	703,193	-0,064	-0,122
-679,466	201,312	-0,036	0,040
-678,451	800,000	-0,041	-0,095
-677,437	-66,336	0,053	0,015
-676,422	-176,160	0,133	-0,002
-675,408	800,000	0,017	0,035
-674,393	-200,000	0,006	0,059
-673,378	-200,000	-0,011	-0,230
-672,364	-200,000	0,029	-0,142
-671,349	717,943	-0,036	-0,069
-670,335	495,899	-0,023	-0,038
-669,320	800,000	0,025	0,051
-668,305	107,884	-0,072	-0,062
-667,291	108,220	-0,061	0,053
-666,276	320,169	-0,065	-0,089
-665,262	800,000	-0,001	-0,005
-664,247	-19,324	-0,141	-0,063
-663,232	-200,000	0,032	0,164
-662,218	800,000	0,034	0,067
-661,203	-1,983	0,157	0,080
-660,189	6,079	-0,162	-0,087
-659,174	-182,189	-0,125	0,002
-658,159	-200,000	0,031	-0,102
-657,145	-86,268	-0,105	-0,023
-656,130	74,231	0,110	-0,083
-655,116	410,621	0,023	0,035
-654,101	800,000	0,021	-0,061
-653,086	-200,000	0,027	0,119
-652,072	300,138	-0,038	-0,051
-651,057	-135,753	-0,109	0,009
-650,043	-33,640	0,100	-0,040
-649,028	800,000	-0,044	-0,089
-648,014	-200,000	0,001	-0,097
-646,999	-200,000	0,004	0,125
-645,984	23,525	0,108	-0,064
-644,970	93,774	-0,185	-0,151
-643,955	66,121	0,118	0,086
-642,941	0,655	-0,140	0,072
-641,926	315,761	-0,095	-0,130
-640,911	-94,327	0,177	-0,035
-639,897	800,000	0,033	0,094
-638,882	115,229	-0,002	0,002
-637,868	-110,225	-0,081	-0,012
-636,853	114,898	-0,161	-0,142
-635,838	-200,000	0,040	-0,183
-634,824	48,292	-0,048	0,032
-633,809	-108,694	0,029	-0,004
-632,795	-200,000	0,031	0,098
-631,780	654,546	-0,060	0,111
-630,765	61,909	-0,093	0,067
-629,751	-171,492	-0,171	0,004
-628,736	800,000	0,034	-0,077
-627,722	-59,228	0,097	-0,030
-626,707	23,921	0,062	0,037
-625,692	60,897	0,088	-0,063
-624,678	21,419	-0,096	0,056
-623,663	800,000	-0,030	-0,093
-622,649	800,000	-0,024	-0,067
-621,634	-200,000	-0,022	-0,122
-620,619	800,000	0,017	-0,044
-619,605	-115,918	-0,062	0,008
-618,590	-104,632	0,063	0,010
-617,576	-200,000	-0,011	0,052
-616,561	-133,299	0,098	0,009
-615,546	47,260	-0,083	0,056
-614,532	-200,000	0,010	-0,039
-613,517	-200,000	0,012	-0,115
-612,503	-200,000	0,011	-0,068
-611,488	20,590	0,063	0,037
-610,474	800,000	-0,023	0,047
-609,459	-200,000	0,018	-0,064
-608,444	457,113	-0,060	-0,097
-607,430	-200,000	0,049	-0,168
-606,415	641,183	-0,116	-0,214
-605,401	438,157	-0,075	0,119
-604,386	-200,000	0,135	0,000
-603,371	144,474	-0,028	0,027
-602,357	800,000	-0,022	0,068
-601,342	21,709	-0,075	-0,044
-600,328	800,000	-0,032	-0,068
-599,313	404,353	-0,058	0,089
-598,298	9,302	0,032	0,018
-597,284	260,596	-0,091	-0,114
-596,269	387,736	0,044	0,066
-595,255	-51,582	0,056	-0,019
-594,240	-200,000	-0,011	0,052
-593,225	800,000	0,038	-0,087
-592,211	-200,000	0,038	-0,159
-591,196	-200,000	-0,002	0,068
-590,182	316,927	-0,060	0,082
-589,167	524,426	-0,094	0,160
-588,152	-200,000	-0,013	0,096
-587,138	-200,000	-0,006	0,087
-586,123	-26,520	0,119	0,050
-585,109	-46,761	-0,112	-0,039
-584,094	62,937	-0,061	-0,044
-583,079	800,000	-0,033	0,099
-582,065	-23,330	0,157	0,068
-581,050	42,768	0,056	-0,037
-580,036	-200,000	-0,013	0,055
-579,021	-200,000	-0,008	0,093
-578,006	-40,892	-0,052	0,019
-576,992	141,623	-0,069	0,065
-575,977	-131,845	0,102	0,010
-574,963	-37,797	-0,071	0,027
-573,948	-25,281	0,105	-0,045
-572,934	-200,000	-0,009	0,072
-571,919	-118,499	0,079	-0,010
-570,904	-200,000	0,003	-0,144
-569,890	800,000	-0,055	-0,144
-568,875	103,032	-0,090	0,076
-567,861	102,308	-0,041	0,035
-566,846	90,032	-0,070	0,056
-565,831	96,141	0,040	-0,033
-564,817	103,401	-0,143	-0,120
-563,802	-1,264	0,063	0,032
-562,788	-16,336	0,082	0,037
-561,773	51,130	0,110	-0,075
-560,758	263,243	0,110	0,138
-559,744	132,169	-0,037	0,034
-558,729	44,753	0,044	-0,029
-557,715	56,980	-0,137	-0,096
-556,700	756,047	-0,014	-0,027
-555,685	-52,936	0,181	-0,060
-554,671	48,338	0,010	0,006
-553,656	31,658	-0,073	0,045
-552,642	-49,485	0,128	-0,044
-551,627	22,294	-0,164	-0,097
-550,612	211,349	0,108	-0,122
-549,598	25,855	-0,103	-0,062
-548,583	-200,000	0,009	0,172
-547,569	800,000	0,029	0,082
-546,554	-68,222	0,203	-0,056
-545,539	287,907	-0,028	0,037
-544,525	-180,293	-0,094	-0,001
-543,510	-139,668	-0,085	-0,006
-542,496	88,147	0,009	0,007
-541,481	-128,456	-0,065	-0,007
-540,466	156,457	-0,090	-0,090
-539,452	-200,000	-0,008	0,116
-538,437	-200,000	0,052	0,236
-537,423	107,409	-0,050	-0,043
-536,408	715,240	-0,063	-0,121
-535,393	372,187	-0,036	0,053
-534,379	23,588	-0,009	0,006
-533,364	-137,860	0,049	0,004
-532,350	268,397	0,028	-0,035
-531,335	-173,508	-0,108	0,002
-530,321	559,388	0,065	0,113
-529,306	-144,167	0,057	-0,004
-528,291	23,860	-0,184	-0,109
-527,277	-200,000	-0,002	-0,076
-526,262	-26,421	-0,127	-0,054
-525,248	-136,748	0,105	-0,009
-524,233	116,082	0,037	-0,032
-523,218	800,000	0,016	0,044
-522,204	47,136	-0,073	-0,049
-521,189	362,463	-0,091	-0,132
-520,175	61,814	-0,129	-0,092
-519,160	156,062	0,063	-0,062
-518,145	261,020	0,025	-0,031
-517,131	-200,000	0,021	-0,069
-516,116	-48,618	-0,111	0,038
-515,102	-200,000	0,004	-0,038
-514,087	-200,000	0,031	0,115
-513,072	-200,000	-0,002	-0,123
-512,058	42,587	-0,087	0,057
-511,043	-200,000	0,004	-0,077
-510,029	-109,552	0,105	-0,016
-509,014	-110,185	0,154	-0,023
-507,999	-46,766	-0,035	-0,012
-506,985	80,106	0,105	-0,081
-505,970	-200,000	-0,008	0,073
-504,956	-200,000	-0,009	0,091
-503,941	800,000	-0,007	-0,016
-502,926	-200,000	0,027	0,120
-501,912	-200,000	0,009	0,134
-500,897	-52,720	0,032	0,011
-499,883	150,307	-0,083	0,081
-498,868	113,689	-0,039	0,034
-497,853	83,854	-0,089	-0,070
-496,839	-131,013	-0,084	-0,008
-495,824	800,000	-0,051	0,111
-494,810	-73,803	0,084	0,022
-493,795	-80,471	0,125	0,030
-492,781	322,613	0,089	-0,122
-491,766	325,713	-0,017	-0,023
-490,751	-200,000	-0,016	-0,056
-489,737	800,000	0,038	-0,103
-488,722	155,702	0,087	0,086
-487,708	-132,384	0,156	0,014
-486,693	-56,469	-0,051	-0,016
-485,678	557,664	0,066	0,115
-484,664	274,349	-0,034	-0,044
-483,649	800,000	0,012	-0,036
-482,635	26,398	-0,042	-0,025
-481,620	-200,000	0,002	0,152
-480,605	296,451	0,031	0,041
-479,591	127,167	0,070	-0,064
-478,576	-123,332	-0,127	0,014
-477,562	-200,000	-0,025	0,105
-476,547	59,012	0,046	0,033
-475,532	-200,000	0,000	0,014
-474,518	800,000	0,068	-0,176
-473,503	-151,444	0,109	-0,006
-472,489	-98,377	-0,086	0,016
-471,474	583,121	-0,052	0,093
-470,459	-200,000	-0,009	0,068
-469,445	-200,000	-0,015	-0,189
-468,430	-200,000	-0,051	0,187
-467,416	-0,156	0,059	0,030
-466,401	417,350	-0,020	0,031
-465,386	211,970	0,113	0,128
-464,372	-89,094	0,068	-0,014
-463,357	181,901	-0,083	-0,087
-462,343	91,082	-0,089	-0,072
-461,328	217,485	0,056	0,064
-460,313	-152,947	-0,061	0,003
-459,299	50,859	-0,007	0,005
-458,284	-200,000	0,003	-0,113
-457,270	434,035	0,041	0,064
-456,255	-200,000	-0,001	0,059
-455,241	16,787	-0,087	-0,049
-454,226	313,330	0,031	0,042
-453,211	-2,963	-0,064	-0,032
-452,197	-200,000	0,023	0,150
-451,182	-79,439	-0,035	0,008
-450,168	36,179	-0,029	0,018
-449,153	800,000	-0,046	-0,093
-448,138	-200,000	-0,008	0,032
-447,124	24,751	-0,038	0,023
-446,109	-72,329	-0,060	0,016
-445,095	-113,054	-0,065	-0,009
-444,080	59,534	0,014	-0,010
-443,065	800,000	-0,077	0,191
-442,051	-200,000	-0,006	-0,083
-441,036	111,357	0,079	-0,068
-440,022	108,226	-0,111	0,095
-439,007	800,000	-0,019	0,052
-437,992	-200,000	-0,009	0,074
-436,978	106,881	0,096	0,082
-435,963	-85,512	0,180	0,040
-434,949	800,000	-0,073	-0,182
-433,934	503,897	0,029	-0,049
-432,919	158,897	-0,089	-0,089
-431,905	-77,528	0,066	-0,016
-430,890	-57,927	-0,049	-0,015
-429,876	178,225	0,042	0,044
-428,861	28,098	0,140	-0,085
-427,846	-13,470	0,076	-0,035
-426,832	-114,853	0,072	0,010
-425,817	800,000	-0,081	-0,189
-424,803	606,733	-0,030	0,055
-423,788	-200,000	0,014	-0,071
-422,773	663,055	-0,028	-0,052
-421,759	-124,039	-0,067	-0,007
-420,744	56,143	0,051	-0,036
-419,730	-81,486	-0,150	0,035
-418,715	800,000	0,025	0,061
-417,701	-200,000	0,013	-0,140
-416,686	800,000	0,051	0,129
-415,671	-200,000	-0,025	-0,106
-414,657	-200,000	0,001	0,065
-413,642	-200,000	0,000	0,091
-412,628	163,193	0,021	-0,022
-411,613	157,847	0,106	0,105
-410,598	373,072	-0,059	0,087
-409,584	238,251	0,082	-0,098
-408,569	-93,365	0,146	0,029
-407,555	3,346	-0,037	-0,019
-406,540	364,469	0,008	0,011
-405,525	-155,249	0,107	0,005
-404,511	520,061	-0,061	-0,102
-403,496	-200,000	0,029	0,107
-402,482	800,000	-0,037	-0,091
-401,467	112,886	0,054	0,047
-400,452	-50,870	0,063	-0,021
-399,438	398,467	0,054	-0,081
-398,423	487,556	-0,054	0,088
-397,409	-73,206	-0,053	0,014
-396,394	17,393	-0,091	-0,052
-395,379	16,874	-0,060	0,034
-394,365	43,381	-0,072	-0,047
-393,350	206,546	0,096	0,107
-392,336	-35,075	0,114	-0,044
-391,321	800,000	0,012	-0,037
-390,306	-200,000	-0,001	-0,084
-389,292	166,880	0,071	-0,072
-388,277	800,000	0,050	-0,138
-387,263	-53,671	-0,098	0,032
-386,248	-149,822	0,143	0,008
-385,233	-200,000	-0,001	0,059
-384,219	800,000	0,033	0,076
-383,204	-200,000	-0,017	-0,143
-382,190	-200,000	-0,023	-0,232
-381,175	-79,603	-0,018	-0,004
-380,160	290,070	-0,016	-0,021
-379,146	478,257	-0,069	-0,113
-378,131	16,209	0,092	-0,052
-377,117	800,000	0,011	-0,024
-376,102	-200,000	-0,008	0,075
-375,088	614,716	-0,051	-0,091
-374,073	-3,845	-0,121	-0,060
-373,058	800,000	-0,067	-0,151
-372,044	-46,475	0,124	-0,043
-371,029	312,031	0,083	-0,112
-370,015	-9,815	-0,015	-0,007
-369,000	-16,770	0,100	-0,045
-367,985	-5,937	-0,047	-0,023
-366,971	-160,418	0,071	-0,003
-365,956	-200,000	-0,003	-0,063
-364,942	-200,000	-0,014	-0,075
-363,927	-58,127	0,032	0,010
-362,912	-200,000	-0,015	-0,109
-361,898	117,158	0,022	0,020
-360,883	-64,706	-0,040	0,011
-359,869	429,082	0,057	0,089
-358,854	-200,000	0,004	0,021
-357,839	-200,000	0,021	-0,111
-356,825	38,220	0,036	0,023
-355,810	-200,000	0,011	0,055
-354,796	800,000	0,039	0,118
-353,781	130,705	-0,059	-0,054
-352,766	-200,000	-0,003	-0,058
-351,752	800,000	0,051	-0,131
-350,737	361,127	0,056	0,080
-349,723	26,304	0,031	0,018
-348,708	-200,000	0,005	-0,043
-347,693	65,896	-0,033	-0,024
-346,679	16,601	-0,109	-0,061
-345,664	-200,000	0,007	0,134
-344,650	800,000	-0,050	0,140
-343,635	-200,000	0,003	0,042
-342,620	800,000	0,037	0,117
-341,606	152,195	-0,067	0,065
-340,591	403,513	0,056	0,084
-339,577	91,997	0,028	-0,022
-338,562	-87,645	-0,192	0,041
-337,548	-108,245	-0,103	-0,016
-336,533	-200,000	0,019	-0,078
-335,518	-200,000	0,020	0,083
-334,504	156,999	0,069	0,069
-333,489	202,678	0,102	-0,113
-332,475	47,807	-0,140	-0,093
-331,460	132,134	-0,106	0,097
-330,445	440,866	-0,027	0,042
-329,431	24,275	0,040	0,023
-328,416	259,814	0,051	-0,063
-327,402	-133,819	0,008	0,001
-326,387	246,475	-0,067	0,081
-325,372	641,710	0,053	0,097
-324,358	-85,472	-0,069	-0,015
-323,343	-5,084	-0,118	-0,058
-322,329	-10,635	0,076	0,036
-321,314	800,000	-0,040	0,107
-320,299	-200,000	-0,011	0,060
-319,285	-200,000	0,018	0,133
-318,270	12,337	0,060	-0,033
-317,256	82,905	-0,057	-0,044
-316,241	-59,754	-0,184	-0,056
-315,226	197,898	-0,061	0,066
-314,212	-200,000	-0,003	0,032
-313,197	80,590	0,110	0,084
-312,183	-166,489	0,178	0,005
-311,168	298,514	0,012	-0,016
-310,153	-66,067	-0,101	-0,028
-309,139	800,000	0,015	-0,029
-308,124	315,727	-0,015	0,020
-307,110	800,000	0,060	0,127
-306,095	90,040	0,123	0,098
-305,080	-22,009	0,032	0,014
-304,066	32,952	0,041	-0,025
-303,051	54,908	0,070	-0,048
-302,037	194,845	-0,101	-0,109
-301,022	-104,321	0,098	0,016
-300,008	434,777	0,091	0,141
-298,993	-126,702	-0,012	-0,001
-297,978	40,854	0,108	0,069
-296,964	41,813	0,026	0,017
-295,949	171,462	-0,120	-0,123
-294,935	122,067	-0,077	0,069
-293,920	-58,034	-0,132	-0,041
-292,905	-200,000	-0,010	-0,079
-291,891	-200,000	0,021	0,074
-290,876	-137,876	-0,213	-0,017
-289,862	-200,000	-0,023	0,104
-288,847	136,949	-0,096	-0,089
-287,832	-200,000	0,026	-0,152
-286,818	800,000	0,068	-0,164
-285,803	258,562	0,063	0,078
-284,789	-200,000	0,042	0,168
-283,774	395,268	-0,089	0,133
-282,759	-17,149	-0,004	-0,002
-281,745	-29,604	-0,042	-0,017
-280,730	-200,000	-0,027	-0,139
-279,716	-200,000	0,004	0,025
-278,701	-23,194	0,057	0,024
-277,686	800,000	0,020	-0,054
-276,672	-94,792	0,111	0,021
-275,657	132,956	0,039	0,036
-274,643	141,169	-0,098	-0,092
-273,628	620,688	-0,027	-0,048
-272,613	-108,089	-0,051	-0,008
-271,599	196,416	0,082	-0,089
-270,584	88,396	0,091	0,072
-269,570	800,000	0,066	0,136
-268,555	382,996	0,067	0,098
-267,540	-186,868	0,098	-0,001
-266,526	800,000	0,041	-0,103
-265,511	-200,000	0,047	-0,174
-264,497	536,173	0,037	-0,062
-263,482	-200,000	-0,004	0,015
-262,467	36,769	0,026	-0,017
-261,453	-200,000	-0,011	0,119
-260,438	-130,422	0,150	-0,014
-259,424	-139,847	-0,151	-0,011
-258,409	596,365	0,017	0,030
-257,395	797,725	-0,025	0,049
-256,380	-200,000	0,004	-0,052
-255,365	140,026	0,095	0,089
-254,351	215,207	0,087	0,098
-253,336	-200,000	-0,018	0,059
-252,322	167,668	0,046	-0,047
-251,307	-115,864	-0,085	-0,011
-250,292	212,116	0,093	0,104
-249,278	-129,530	-0,080	-0,008
-248,263	-49,860	-0,067	-0,023
-247,249	-97,397	0,074	0,014
-246,234	-18,111	-0,064	-0,028
-245,219	-200,000	0,008	-0,049
-244,205	339,315	-0,117	-0,163
-243,190	73,199	-0,106	0,079
-242,176	265,123	0,028	-0,035
-241,161	-159,129	0,061	0,002
-240,146	95,137	-0,125	-0,101
-239,132	-131,428	-0,139	-0,013
-238,117	-200,000	-0,030	-0,176
-237,103	-200,000	-0,003	-0,032
-236,088	800,000	0,030	-0,089
-235,073	750,986	0,035	0,067
-234,059	-200,000	-0,007	0,040
-233,044	9,357	0,052	-0,028
-232,030	-81,151	-0,132	-0,031
-231,015	105,865	-0,055	-0,046
-230,000	50,025	0,030	-0,020
-228,986	-30,796	-0,083	-0,033
-227,971	-200,000	0,019	0,066
-226,957	800,000	-0,051	0,128
-225,942	800,000	-0,051	0,126
-224,927	-16,203	0,026	0,012
-223,913	-151,209	-0,128	0,007
-222,898	-200,000	-0,002	-0,078
-221,884	800,000	-0,068	0,138
-220,869	241,062	0,034	0,040
-219,855	-200,000	-0,003	-0,053
-218,840	-49,700	0,126	0,042
-217,825	78,545	0,061	0,047
-216,811	265,328	-0,089	0,111
-215,796	-200,000	-0,019	-0,078
-214,782	-200,000	0,009	0,042
-213,767	800,000	-0,023	-0,054
-212,752	266,979	0,110	-0,136
-211,738	567,326	0,089	0,153
-210,723	-40,934	0,105	0,038
-209,709	800,000	0,008	-0,020
-208,694	576,918	0,074	-0,129
-207,679	-200,000	0,000	0,033
-206,665	209,742	-0,034	-0,038
-205,650	-107,083	0,092	0,014
-204,636	257,070	-0,053	0,065
-203,621	96,397	-0,040	-0,032
-202,606	-200,000	-0,009	-0,104
-201,592	-148,901	0,072	-0,004
-200,577	326,100	0,037	0,051
-199,563	-91,184	-0,098	0,020
-198,548	-97,550	-0,114	-0,021
-197,533	-200,000	0,022	0,133
-196,519	-200,000	-0,032	0,136
-195,504	107,336	0,136	0,115
-194,490	-124,369	-0,010	-0,001
-193,475	259,346	-0,019	-0,023
-192,460	578,234	-0,027	0,047
-191,446	37,287	-0,119	0,075
-190,431	-118,324	0,045	0,006
-189,417	-200,000	0,043	-0,145
-188,402	106,333	-0,068	0,057
-187,387	-200,000	0,002	-0,060
-186,373	590,582	0,067	0,118
-185,358	29,094	0,084	0,050
-184,344	800,000	0,041	-0,104
-183,329	-200,000	0,013	0,119
-182,315	-15,259	-0,162	-0,073
-181,300	115,601	-0,018	0,016
-180,285	348,401	-0,063	0,089
-179,271	749,117	-0,031	0,059
-178,256	-114,973	0,094	0,013
-177,242	4,942	0,024	-0,013
-176,227	-200,000	-0,023	0,209
-175,212	38,680	-0,036	-0,023
-174,198	88,067	0,073	0,057
-173,183	-200,000	0,014	-0,159
-172,169	800,000	0,018	-0,051
-171,154	-20,690	-0,058	-0,025
-170,139	-157,968	0,075	-0,003
-169,125	-200,000	-0,012	0,107
-168,110	-200,000	0,009	0,079
-167,096	389,815	0,052	0,076
-166,081	344,762	0,031	-0,043
-165,066	293,106	-0,111	-0,143
-164,052	-200,000	-0,011	0,118
-163,037	800,000	0,068	-0,205
-162,023	133,754	-0,042	0,038
-161,008	-200,000	0,048	0,173
-159,993	-200,000	-0,013	0,077
-158,979	-200,000	0,020	0,062
-157,964	85,460	0,012	-0,009
-156,950	6,837	0,050	-0,026
-155,935	-122,246	0,092	-0,011
-154,920	-200,000	0,011	-0,062
-153,906	112,725	0,079	0,067
-152,891	184,665	0,126	0,133
-151,877	3,196	0,063	0,032
-150,862	-200,000	0,008	-0,051
-149,847	-200,000	-0,029	-0,092
-148,833	-168,678	0,094	-0,002
-147,818	795,641	-0,021	0,041
-146,804	-76,191	-0,073	0,018
-145,789	-200,000	-0,011	0,108
-144,775	-200,000	0,003	0,108
-143,760	85,954	-0,100	-0,078
-142,745	-181,588	-0,034	0,000
-141,731	-163,257	-0,085	0,003
-140,716	96,783	-0,051	0,042
-139,702	-28,911	0,133	0,054
-138,687	-72,748	0,103	-0,027
-137,672	-81,684	-0,180	0,041
-136,658	252,098	-0,075	-0,091
-135,643	-159,694	-0,130	0,005
-134,629	277,766	-0,037	-0,047
-133,614	177,062	0,115	0,119
-132,599	-75,566	-0,069	0,017
-131,585	-200,000	-0,011	0,037
-130,570	800,000	-0,057	-0,167
-129,556	-75,467	0,083	0,021
-128,541	-200,000	0,001	-0,020
-127,526	291,810	0,022	-0,029
-126,512	707,179	-0,049	0,092
-125,497	104,860	0,097	0,081
-124,483	-162,913	-0,028	-0,001
-123,468	429,743	-0,059	0,090
-122,453	-200,000	-0,012	0,044
-121,439	229,858	-0,059	-0,068
-120,424	-200,000	0,016	-0,091
-119,410	-200,000	-0,009	-0,085
-118,395	-61,002	0,054	-0,016
-117,380	118,608	0,089	0,078
-116,366	-200,000	0,019	0,061
-115,351	193,058	-0,048	0,051
-114,337	133,784	-0,050	-0,046
-113,322	800,000	0,025	-0,078
-112,307	-200,000	-0,024	0,116
-111,293	376,697	0,025	0,036
-110,278	-200,000	0,000	0,144
-109,264	199,918	-0,064	-0,069
-108,249	-126,428	0,035	0,004
-107,234	82,669	-0,069	-0,053
-106,220	-200,000	0,001	-0,197
-105,205	-45,117	0,099	0,035
-104,191	-33,219	0,041	0,016
-103,176	295,285	0,078	0,101
-102,162	35,252	-0,158	-0,098
-101,147	85,669	-0,138	-0,107
-100,132	-193,751	-0,071	-0,000
-99,118	800,000	-0,038	0,108
-98,103	-58,886	0,044	-0,013
-97,089	-179,499	0,230	0,003
-96,074	-1,686	-0,099	0,049
-95,059	-47,706	-0,052	-0,018
-94,045	-200,000	0,001	0,022
-93,030	10,389	0,009	-0,005
-92,016	-9,740	-0,092	0,043
-91,001	-135,824	0,027	0,002
-89,986	800,000	0,019	-0,041
-88,972	-47,386	0,123	-0,042
-87,957	-200,000	0,023	0,240
-86,943	101,541	-0,037	0,031
-85,928	-200,000	0,007	0,113
-84,913	51,886	-0,090	-0,060
-83,899	800,000	-0,034	-0,082
-82,884	-200,000	-0,014	0,075
-81,870	-39,171	0,092	-0,034
-80,855	455,810	0,055	0,087
-79,840	430,866	-0,051	-0,078
-78,826	41,042	-0,057	-0,036
-77,811	-200,000	-0,056	-0,186
-76,797	-200,000	0,002	-0,011
-75,782	-42,095	-0,041	-0,015
-74,767	-97,238	0,072	0,013
-73,753	-10,922	0,128	0,060
-72,738	-45,439	-0,036	-0,013
-71,724	-31,386	0,121	-0,048
-70,709	569,870	0,110	-0,189
-69,694	800,000	0,029	-0,059
-68,680	-110,687	0,174	-0,025
-67,665	-116,864	0,024	-0,003
-66,651	576,157	-0,037	0,063
-65,636	800,000	0,043	-0,111
-64,622	208,670	0,074	-0,082
-63,607	47,564	-0,031	-0,020
-62,592	62,904	-0,181	-0,128
-61,578	800,000	0,028	0,064
-60,563	178,416	0,024	0,024
-59,549	-200,000	-0,017	0,082
-58,534	26,574	-1,850	-1,091
-57,519	505,311	-1,323	-2,172
-56,505	-200,000	-0,406	-4,445
-55,490	267,923	0,974	1,207
-54,476	800,000	5,047	11,315
-53,461	-200,000	20,564	327,694
-52,446	800,000	752,742	2313,649
-51,432	550,732	1658,278	2820,711
-50,417	73,967	1663,785	1231,287
-49,403	19,243	1537,036	869,034
-48,388	13,245	1459,855	796,371
-47,373	18,815	1450,428	817,950
-46,359	16,118	1439,722	799,039
-45,344	11,505	1435,504	774,698
-44,330	11,447	1433,435	773,272
-43,315	11,426	1431,705	772,211
-42,300	11,437	1429,918	771,268
-41,286	11,477	1428,653	770,744
-40,271	11,437	1427,486	769,893
-39,257	11,416	1426,087	769,010
-38,242	11,439	1425,167	768,590
-37,227	11,425	1423,968	767,851
-36,213	11,468	1422,650	767,311
-35,198	11,469	1421,447	766,637
-34,184	11,484	1420,719	766,285
-33,169	11,416	1419,194	765,110
-32,154	11,493	1418,393	765,010
-31,140	11,515	1416,793	764,223
-30,125	11,543	1415,814	763,794
-29,111	11,530	1414,753	763,132
-28,096	11,503	1413,638	762,372
-27,082	11,466	1412,529	761,571
-26,067	11,441	1411,303	760,764
-25,052	11,450	1410,318	760,244
-24,038	11,442	1409,271	759,613
-23,023	11,368	1408,457	758,794
-22,009	11,468	1407,116	758,508
-20,994	11,413	1406,294	757,780
-19,979	11,366	1405,538	757,122
-18,965	11,350	1404,543	756,482
-17,950	11,360	1403,769	756,081
-16,936	11,308	1402,945	755,367
-15,921	11,317	1401,723	754,721
-14,906	11,327	1400,913	754,301
-13,892	11,409	1399,893	754,105
-12,877	11,339	1399,223	753,387
-11,863	11,306	1398,268	752,692
-10,848	11,303	1397,393	752,177
-9,833	11,288	1396,484	751,588
-8,819	11,236	1395,710	750,900
-7,804	11,229	1394,759	750,324
-6,790	11,217	1393,639	749,636
-5,775	11,215	1392,693	749,092
-4,760	11,248	1391,669	748,662
-3,746	11,231	1390,809	748,092
-2,731	11,268	1389,841	747,710
-1,717	11,187	1389,052	746,884
-0,702	11,168	1387,470	745,917
0,313	15,214	1301,819	718,409
1,327	31,509	694,235	420,243
2,342	48,632	120,649	79,679
3,356	2,300	16,354	8,319
4,371	2,379	3,366	1,713
5,386	62,574	0,733	0,516
6,400	-200,000	0,089	0,344
7,415	-78,333	-0,227	-0,054
8,429	59,608	-0,293	-0,203
9,444	-93,525	-0,363	-0,070
10,459	-8,448	-0,276	-0,130
11,473	86,328	-0,199	-0,155
12,488	36,306	-0,238	-0,148
13,502	68,789	-0,386	-0,279
14,517	20,432	-0,221	-0,126
15,531	566,734	-0,205	-0,351
16,546	95,865	-0,272	-0,219
17,561	151,402	-0,297	-0,285
18,575	15,786	-0,186	0,103
19,590	-14,552	-0,252	-0,114
20,604	334,036	-0,195	-0,267
21,619	73,854	-0,367	-0,271
22,634	95,289	-0,382	-0,306
23,648	77,948	-0,440	-0,330
24,663	90,064	-0,406	-0,319
25,677	-28,053	-0,320	-0,130
26,692	1,539	-0,351	-0,177
27,707	58,222	-0,347	-0,239
28,721	22,987	-0,458	-0,264
29,736	83,428	-0,300	-0,230
30,750	110,774	-0,399	-0,338
31,765	264,282	-0,355	-0,436
32,780	-12,476	-0,431	-0,197
33,794	176,363	-0,237	-0,243
34,809	-1,590	-0,489	-0,242
35,823	2,560	-0,418	-0,212
36,838	314,318	-0,303	-0,403
37,853	17,660	-0,403	-0,225
38,867	36,986	-0,398	-0,247
39,882	118,959	-0,285	-0,248
40,896	351,377	-0,274	-0,383
41,911	232,632	-0,238	-0,276
42,926	158,398	-0,299	-0,292
43,940	277,152	-0,346	-0,433
44,955	152,830	-0,337	-0,324
45,969	105,108	-0,332	-0,275
46,984	3,416	-0,277	-0,141
47,999	-8,464	-0,273	-0,129
49,013	21,621	-0,343	-0,196
50,028	97,164	-0,287	-0,231
51,042	62,829	-0,234	-0,164
52,057	61,056	-0,373	-0,260
53,071	60,642	-0,305	-0,212
54,086	97,919	-0,285	-0,230
55,101	-35,569	-0,261	-0,099
56,115	64,505	-0,298	-0,210
57,130	-145,251	-0,443	-0,028
58,144	165,701	-0,314	-0,312
59,159	-4,017	-0,494	-0,240
60,174	68,607	-0,285	-0,205
61,188	108,752	-0,394	-0,330
62,203	-39,246	-0,321	-0,118
63,217	58,221	-0,202	-0,139
64,232	-16,648	-0,408	-0,180
65,247	66,902	-0,253	-0,180
66,261	208,173	-0,318	-0,350
67,276	51,260	-0,356	-0,237
68,290	-65,675	-0,301	-0,084
69,305	68,887	-0,262	-0,189
70,320	7,478	-0,292	-0,153
71,334	54,139	-0,244	-0,164
72,349	28,683	-0,387	-0,229
73,363	229,270	-0,236	-0,270
74,378	36,347	-0,386	-0,238
75,393	39,124	-0,282	-0,176
76,407	5,619	-0,341	-0,176
77,422	11,407	-0,174	-0,093
78,436	-94,827	-0,296	-0,056
79,451	78,873	-0,214	-0,160
80,466	-92,013	-0,404	-0,079
81,480	-10,818	-0,313	-0,144
82,495	157,769	-0,201	-0,195
83,509	-31,031	-0,345	-0,136
84,524	-1,686	-0,354	-0,174
85,539	20,068	-0,215	-0,121
86,553	67,981	-0,265	-0,190
87,568	-140,439	-0,297	-0,021
88,582	-59,313	-0,338	-0,101
89,597	-1,787	-0,299	-0,147
90,611	126,187	-0,252	-0,223
91,626	62,692	-0,319	-0,223
92,641	0,691	-0,453	-0,226
93,655	-104,184	-0,236	-0,038
94,670	81,559	-0,252	-0,190
95,684	38,352	-0,374	-0,233
96,699	-99,982	-0,188	-0,033
97,714	270,282	-0,228	-0,281
98,728	34,240	-0,273	-0,166
99,743	81,663	-0,334	-0,252
100,757	145,093	-0,243	-0,228
101,772	234,285	-0,258	-0,298
102,787	324,276	-0,227	-0,304
103,801	-58,293	-0,270	-0,082
104,816	56,010	-0,272	-0,184
105,830	168,911	-0,247	-0,246
106,845	266,356	-0,220	-0,270
107,860	-38,410	-0,253	-0,093
108,874	-22,395	-0,311	-0,131
109,889	-142,212	-0,369	-0,025
110,903	70,800	-0,303	-0,219
111,918	196,902	-0,242	-0,258
112,933	104,795	-0,171	-0,141
113,947	19,071	-0,198	-0,111
114,962	32,209	-0,184	-0,111
115,976	-54,322	-0,316	-0,100
116,991	127,805	-0,243	-0,216
118,006	-46,742	-0,312	-0,106
119,020	-178,696	-0,220	-0,003
120,035	136,860	-0,150	-0,137
121,049	16,525	-0,313	-0,172
122,064	147,945	-0,209	-0,197
123,079	68,193	-0,232	-0,165
124,093	19,684	-0,261	-0,146
125,108	800,000	-0,066	-0,172
126,122	328,202	-0,230	-0,309
127,137	800,000	-0,109	-0,287
128,151	-61,052	-0,247	-0,072
129,166	564,929	-0,091	-0,154
130,181	-30,461	-0,335	-0,132
131,195	-31,764	-0,363	-0,141
132,210	-58,060	-0,194	-0,059
133,224	87,927	-0,161	-0,124
134,239	72,428	-0,264	-0,191
135,254	252,697	-0,168	-0,201
136,268	23,088	-0,250	-0,143
137,283	-122,714	-0,290	0,032
138,297	-19,167	-0,126	-0,054
139,312	45,695	-0,294	-0,189
140,327	4,434	-0,343	-0,175
141,341	800,000	-0,123	-0,238
142,356	-4,784	-0,329	-0,158
143,370	629,658	-0,117	-0,207
144,385	202,405	-0,235	-0,253
145,400	141,016	-0,142	-0,131
146,414	130,930	-0,198	-0,177
147,429	376,517	-0,181	-0,258
148,443	102,359	-0,199	-0,162
149,458	-17,713	-0,181	-0,079
150,473	-123,878	-0,103	-0,011
151,487	-21,429	-0,331	-0,140
152,502	174,257	-0,199	-0,200
153,516	9,404	-0,182	-0,096
154,531	148,100	-0,138	-0,130
155,546	-36,646	-0,262	-0,098
156,560	-32,078	-0,180	-0,070
157,575	-116,374	-0,292	-0,037
158,589	-125,185	-0,155	-0,016
159,604	94,677	-0,240	-0,189
160,619	111,719	-0,295	-0,248
161,633	77,246	-0,302	-0,223
162,648	800,000	-0,107	-0,266
163,662	630,985	-0,185	-0,328
164,677	-92,574	-0,323	-0,063
165,692	35,104	-0,233	-0,142
166,706	1,689	-0,116	-0,058
167,721	-147,815	-0,387	-0,022
168,735	193,245	-0,238	-0,250
169,750	68,033	-0,186	-0,132
170,764	158,497	-0,170	-0,164
171,779	167,991	-0,169	-0,168
172,794	141,185	-0,117	-0,107
173,808	74,924	-0,224	-0,164
174,823	800,000	-0,128	-0,385
175,837	-4,052	-0,346	-0,166
176,852	46,486	-0,226	-0,146
177,867	21,711	-0,287	-0,162
178,881	447,403	-0,184	-0,282
179,896	0,675	-0,275	-0,136
180,910	-156,174	-0,235	-0,010
181,925	218,450	-0,082	-0,091
182,940	118,295	-0,210	-0,180
183,954	-68,485	-0,147	-0,039
184,969	13,682	-0,292	-0,157
185,983	14,596	-0,250	-0,135
186,998	217,625	-0,128	-0,142
188,013	108,795	-0,258	-0,214
189,027	411,278	-0,142	-0,210
190,042	50,399	-0,361	-0,236
191,056	341,387	-0,190	-0,258
192,071	427,309	-0,165	-0,247
193,086	455,683	-0,093	-0,144
194,100	-31,541	-0,219	-0,085
195,115	-47,789	-0,233	-0,078
196,129	-4,743	-0,200	-0,095
197,144	124,173	-0,314	-0,274
198,159	155,460	-0,316	-0,302
199,173	-4,082	-0,328	-0,157
200,188	219,502	-0,104	-0,115
201,202	-8,822	-0,223	-0,103
202,217	-35,328	-0,227	-0,085
203,232	42,161	-0,264	-0,166
204,246	597,457	-0,084	-0,145
205,261	-4,602	-0,199	-0,095
206,275	20,607	-0,189	-0,105
207,290	34,936	-0,218	-0,132
208,304	145,574	-0,180	-0,167
209,319	-29,300	-0,212	-0,084
210,334	-71,782	-0,232	-0,059
211,348	-112,545	-0,260	-0,036
212,363	-90,705	-0,229	-0,045
213,377	131,061	-0,179	-0,159
214,392	317,719	-0,146	-0,192
215,407	161,034	-0,170	-0,164
216,421	786,962	-0,095	-0,181
217,436	168,894	-0,122	-0,121
218,450	356,723	-0,168	-0,233
219,465	177,022	-0,171	-0,172
220,480	24,382	-0,129	-0,074
221,494	43,058	-0,118	-0,075
222,509	8,838	-0,246	-0,128
223,523	140,154	-0,181	-0,165
224,538	93,699	-0,253	-0,199
225,553	203,258	-0,184	-0,197
226,567	53,269	-0,153	-0,101
227,582	115,830	-0,158	-0,134
228,596	800,000	-0,126	-0,246
229,611	59,213	-0,224	-0,152
230,626	82,741	-0,240	-0,181
231,640	-63,008	-0,192	-0,054
232,655	91,303	-0,190	-0,148
233,669	157,170	-0,263	-0,252
234,684	92,224	-0,120	-0,093
235,699	54,216	-0,273	-0,181
236,713	-50,232	-0,263	-0,085
237,728	-79,900	-0,173	-0,040
238,742	-13,985	-0,178	-0,079
239,757	98,783	-0,161	-0,128
240,772	79,779	-0,277	-0,205
241,786	270,079	-0,156	-0,190
242,801	166,699	-0,083	-0,081
243,815	90,946	-0,207	-0,161
244,830	-44,030	-0,166	-0,057
245,844	43,387	-0,172	-0,108
246,859	-75,411	-0,211	-0,051
247,874	-74,585	-0,262	-0,065
248,888	800,000	-0,127	-0,268
249,903	-159,969	-0,199	0,007
250,917	24,413	-0,084	-0,048
251,932	800,000	-0,033	-0,093
252,947	2,816	-0,157	-0,078
253,961	685,615	-0,138	-0,250
254,976	4,894	-0,244	-0,124
255,990	351,592	-0,175	-0,239
257,005	84,604	-0,181	-0,136
258,020	15,993	-0,229	-0,124
259,034	-48,654	-0,187	-0,062
260,049	-90,314	-0,118	-0,023
261,063	-39,095	-0,225	-0,081
262,078	-61,656	-0,292	-0,084
263,093	248,991	-0,137	-0,161
264,107	196,134	-0,123	-0,129
265,122	218,646	-0,160	-0,177
266,136	173,084	-0,181	-0,180
267,151	-143,473	-0,151	-0,010
268,166	-85,411	-0,320	-0,068
269,180	-132,108	-0,173	-0,015
270,195	-60,500	-0,148	-0,043
271,209	91,442	-0,136	-0,105
272,224	398,844	0,016	0,023
273,239	249,922	-0,058	0,068
274,253	355,755	-0,092	-0,127
275,268	82,903	-0,245	-0,183
276,282	627,516	-0,134	-0,234
277,297	199,384	-0,196	-0,207
278,312	289,299	-0,215	-0,269
279,326	172,429	-0,180	-0,178
280,341	5,229	-0,175	-0,089
281,355	268,278	-0,111	-0,135
282,370	220,826	-0,156	-0,173
283,384	156,891	-0,198	-0,188
284,399	51,603	-0,305	-0,200
285,414	250,669	-0,121	-0,142
286,428	-36,580	-0,161	-0,059
287,443	102,070	-0,161	-0,130
288,457	301,408	-0,118	-0,151
289,472	-80,983	-0,123	-0,028
290,487	211,658	-0,172	-0,187
291,501	-20,193	-0,238	-0,101
292,516	295,494	-0,134	-0,170
293,530	508,237	-0,093	-0,149
294,545	55,783	-0,084	-0,056
295,560	350,645	-0,033	-0,045
296,574	-129,444	-0,136	0,013
297,589	27,536	-0,306	-0,176
298,603	76,176	-0,244	-0,177
299,618	-136,924	-0,200	0,016
300,633	208,788	-0,098	-0,106
301,647	-200,000	0,014	-0,161
302,662	800,000	-0,058	-0,135
303,676	217,786	-0,139	-0,153
304,691	635,706	-0,097	-0,170
305,706	800,000	-0,070	-0,141
306,720	800,000	-0,085	-0,232
307,735	137,552	-0,136	-0,122
308,749	414,801	-0,039	0,057
309,764	441,350	-0,034	0,051
310,779	364,506	-0,149	-0,206
311,793	47,380	-0,235	-0,150
312,808	99,083	-0,138	-0,110
313,822	73,394	-0,132	-0,095
314,837	256,161	-0,180	-0,213
315,852	278,257	-0,127	-0,155
316,866	-177,558	-0,183	-0,003
317,881	230,425	-0,126	-0,141
318,895	-101,170	-0,092	0,015
319,910	-189,347	-0,328	-0,003
320,925	800,000	-0,077	-0,186
321,939	800,000	-0,095	-0,191
322,954	218,400	-0,154	-0,170
323,968	324,103	-0,120	-0,158
324,983	245,800	-0,057	-0,066
325,997	-70,639	-0,132	0,034
327,012	-126,349	-0,230	0,023
328,027	568,073	-0,155	-0,259
329,041	321,581	-0,136	-0,177
330,056	87,282	-0,174	-0,132
331,070	272,774	-0,120	-0,146
332,085	24,193	-0,083	0,047
333,100	241,676	-0,124	-0,143
334,114	575,446	-0,130	-0,218
335,129	88,877	-0,189	-0,144
336,143	-93,387	-0,179	-0,034
337,158	-69,890	-0,191	-0,050
338,173	-200,000	0,020	-0,095
339,187	0,504	-0,178	-0,087
340,202	194,598	-0,065	-0,067
341,216	800,000	-0,096	-0,239
342,231	25,343	-0,171	-0,097
343,246	311,828	-0,114	-0,147
344,260	300,114	-0,030	-0,038
345,275	-200,000	-0,009	-0,156
346,289	560,105	-0,089	-0,148
347,304	19,241	-0,125	-0,069
348,319	-6,316	-0,111	-0,052
349,333	-7,584	-0,200	-0,092
350,348	263,006	-0,201	-0,239
351,362	343,399	-0,081	-0,109
352,377	337,357	-0,065	-0,086
353,392	110,556	-0,184	-0,151
354,406	-8,946	-0,150	-0,068
355,421	207,594	1307,515	1398,160
356,435	159,700	1467,350	1398,645
