DTS Sentinel unit serial number:	SN410029Multiplexer serial number:	ORYXHardware model number:	OX2-SRSoftware version number:	ORYX F/W v4,00 Oryx Data Collector v3.7.2.0data status	okinstallation	B3 Nyhavnadifferential loss correction	single-endedforward channel	channel 1reverse channel	N/Adate	2023/12/04time	08:52:30forward acquisition time	300,00reverse acquisition time	0,00gamma	499,1914k internal	0,3204k external	0,3204temperature offset calibration	1,0000default loss term (dB/km)	0,3820temperature slope calibration	1,0000multiplexer offset coefficient	1,0000multiplexer slope coefficient	1,0000fibre end	0,00T internal ref (°C)	12,89T ext. ref 1 (°C)	-1,45T ext. ref 2 (°C)	-1,48length (m)	temperature (°C)	Stokes	anti-Stokes-744,400	14,100	-0,301	-0,170
-743,385	-200,000	0,027	0,381
-742,371	326,614	-0,143	-0,200
-741,356	-200,000	-0,003	0,158
-740,342	-200,000	-0,058	-0,202
-739,327	-200,000	0,054	0,277
-738,312	687,198	-0,174	-0,332
-737,298	-200,000	0,031	0,208
-736,283	50,369	-0,303	-0,208
-735,269	800,000	-0,051	0,160
-734,254	310,497	-0,225	-0,307
-733,239	310,574	-0,130	0,177
-732,225	102,464	-0,222	-0,189
-731,210	-85,062	0,138	-0,031
-730,196	-75,088	-0,031	0,008
-729,181	300,160	-0,064	-0,086
-728,167	800,000	-0,036	-0,102
-727,152	717,108	0,027	0,053
-726,137	-200,000	-0,025	-0,181
-725,123	15,753	-0,065	0,037
-724,108	9,587	-0,029	0,016
-723,094	23,501	-0,058	-0,034
-722,079	-90,065	-0,070	-0,015
-721,064	46,449	0,083	-0,056
-720,050	-200,000	0,000	-0,016
-719,035	800,000	0,074	0,153
-718,021	67,989	-0,099	0,073
-717,006	800,000	-0,034	-0,107
-715,991	52,961	-0,116	-0,080
-714,977	-200,000	-0,001	-0,025
-713,962	453,589	-0,024	-0,039
-712,948	-60,215	0,187	0,057
-711,933	-200,000	0,003	0,063
-710,918	185,045	-0,089	0,096
-709,904	-108,137	-0,014	-0,002
-708,889	-200,000	-0,040	-0,179
-707,875	737,753	-0,080	-0,156
-706,860	800,000	0,017	-0,035
-705,845	37,625	-0,079	0,051
-704,831	-135,063	-0,128	-0,011
-703,816	-200,000	0,005	-0,094
-702,802	-140,136	0,038	-0,003
-701,787	173,598	-0,154	-0,161
-700,772	-99,193	-0,091	-0,016
-699,758	466,638	0,023	-0,038
-698,743	-200,000	0,006	0,029
-697,729	-200,000	-0,013	-0,144
-696,714	-200,000	0,011	-0,038
-695,699	-36,668	-0,166	0,064
-694,685	-200,000	0,027	-0,092
-693,670	-63,541	-0,125	0,037
-692,656	-153,222	0,019	0,001
-691,641	800,000	-0,010	-0,023
-690,627	800,000	0,059	0,131
-689,612	-83,714	0,041	-0,009
-688,597	2,889	0,115	-0,060
-687,583	-200,000	-0,011	0,074
-686,568	8,281	-0,049	0,027
-685,554	-113,238	-0,167	-0,024
-684,539	257,514	-0,039	-0,049
-683,524	-200,000	-0,006	0,131
-682,510	187,557	-0,026	-0,028
-681,495	-4,857	-0,042	0,021
-680,481	25,945	-0,124	-0,075
-679,466	-89,808	-0,094	0,020
-678,451	286,071	0,051	-0,066
-677,437	370,193	-0,034	0,050
-676,422	494,255	0,078	0,129
-675,408	-133,808	0,029	-0,003
-674,393	94,832	0,007	-0,006
-673,378	-200,000	0,003	-0,074
-672,364	-200,000	-0,041	-0,182
-671,349	-200,000	-0,004	-0,091
-670,335	800,000	0,046	-0,122
-669,320	495,327	0,028	-0,047
-668,305	-93,787	0,025	-0,005
-667,291	41,789	-0,038	-0,025
-666,276	134,539	0,092	0,087
-665,262	583,404	-0,030	-0,053
-664,247	-71,826	0,026	-0,007
-663,232	108,230	-0,043	-0,037
-662,218	-78,919	0,212	0,052
-661,203	-200,000	0,021	-0,073
-660,189	-59,172	-0,146	-0,045
-659,174	-200,000	-0,027	-0,141
-658,159	-104,200	-0,120	-0,020
-657,145	800,000	0,022	-0,069
-656,130	-110,138	0,094	0,014
-655,116	-15,403	0,107	-0,049
-654,101	72,469	-0,136	0,102
-653,086	213,397	0,148	0,170
-652,072	54,696	-0,097	-0,067
-651,057	8,672	-0,193	-0,105
-650,043	197,024	-0,117	0,129
-649,028	21,727	-0,080	-0,047
-648,014	721,037	0,023	0,045
-646,999	25,021	-0,045	-0,027
-645,984	379,102	0,120	0,179
-644,970	344,433	-0,066	-0,094
-643,955	326,925	-0,054	-0,076
-642,941	-130,582	-0,172	-0,017
-641,926	-5,291	-0,146	-0,072
-640,911	628,245	0,036	-0,065
-639,897	-144,288	0,110	0,007
-638,882	-49,262	0,060	-0,020
-637,868	800,000	-0,030	-0,083
-636,853	-200,000	0,033	-0,114
-635,838	-187,836	0,050	-0,000
-634,824	448,156	-0,084	-0,134
-633,809	352,655	0,051	0,074
-632,795	800,000	0,021	0,067
-631,780	-200,000	0,002	-0,035
-630,765	73,303	-0,024	0,018
-629,751	-200,000	-0,016	-0,066
-628,736	-200,000	0,006	-0,127
-627,722	-183,011	-0,028	-0,000
-626,707	-74,418	0,083	-0,021
-625,692	27,496	-0,117	0,071
-624,678	-200,000	-0,003	0,012
-623,663	-137,350	0,090	-0,007
-622,649	91,900	-0,046	0,037
-621,634	-200,000	0,019	-0,067
-620,619	-200,000	-0,001	-0,115
-619,605	-200,000	-0,009	0,035
-618,590	-120,625	0,171	-0,021
-617,576	-28,653	0,092	0,038
-616,561	96,941	-0,025	-0,021
-615,546	214,045	-0,150	-0,172
-614,532	-200,000	0,015	-0,172
-613,517	-200,000	-0,016	-0,075
-612,503	46,726	0,033	-0,022
-611,488	789,996	0,027	0,054
-610,474	800,000	0,035	-0,087
-609,459	432,168	0,063	0,099
-608,444	486,773	-0,032	-0,052
-607,430	29,830	-0,072	-0,044
-606,415	-112,758	-0,197	-0,028
-605,401	-111,027	0,087	0,013
-604,386	408,954	-0,051	0,078
-603,371	73,459	0,056	0,043
-602,357	-100,902	0,092	0,016
-601,342	-200,000	-0,003	0,016
-600,328	-33,958	0,092	0,036
-599,313	-5,392	-0,104	-0,052
-598,298	800,000	0,033	0,099
-597,284	36,455	0,073	0,046
-596,269	85,642	-0,093	-0,074
-595,255	67,846	0,064	0,047
-594,240	-116,634	0,037	-0,005
-593,225	-136,705	0,042	0,003
-592,211	800,000	-0,031	-0,096
-591,196	303,569	0,046	-0,062
-590,182	98,013	0,051	0,042
-589,167	800,000	0,068	0,170
-588,152	63,936	-0,041	-0,030
-587,138	800,000	0,033	0,083
-586,123	18,583	0,104	-0,060
-585,109	196,964	-0,084	-0,093
-584,094	800,000	0,031	0,075
-583,079	-133,722	0,061	-0,005
-582,065	-31,988	-0,162	-0,065
-581,050	551,071	-0,043	0,075
-580,036	354,666	-0,063	-0,091
-579,021	437,824	0,051	-0,080
-578,006	-153,813	-0,083	0,004
-576,992	800,000	0,046	-0,110
-575,977	-164,552	-0,136	0,004
-574,963	-176,099	-0,071	-0,001
-573,948	-28,254	0,113	0,047
-572,934	23,598	-0,168	0,100
-571,919	-152,804	-0,072	-0,004
-570,904	800,000	-0,056	-0,152
-569,890	-200,000	-0,020	0,161
-568,875	-42,288	0,021	0,008
-567,861	-46,552	-0,075	0,026
-566,846	54,744	0,027	0,019
-565,831	88,850	-0,142	-0,114
-564,817	311,116	-0,053	-0,072
-563,802	33,960	-0,195	0,122
-562,788	-200,000	-0,010	-0,150
-561,773	-200,000	0,015	-0,071
-560,758	-200,000	0,016	0,164
-559,744	32,739	0,157	0,098
-558,729	-200,000	-0,006	-0,069
-557,715	800,000	-0,023	-0,066
-556,700	-200,000	-0,007	-0,096
-555,685	-200,000	0,011	-0,078
-554,671	800,000	-0,023	0,048
-553,656	-200,000	0,018	-0,078
-552,642	-78,224	0,032	-0,008
-551,627	-174,264	0,209	-0,004
-550,612	618,832	0,044	0,080
-549,598	613,459	0,038	-0,069
-548,583	108,480	-0,092	-0,079
-547,569	219,505	-0,101	-0,116
-546,554	176,562	0,074	0,078
-545,539	-200,000	-0,019	-0,079
-544,525	294,866	0,104	0,137
-543,510	-200,000	-0,029	-0,101
-542,496	-200,000	-0,009	-0,123
-541,481	-200,000	-0,011	-0,098
-540,466	-135,925	0,160	-0,013
-539,452	292,902	-0,095	0,125
-538,437	-200,000	-0,022	0,212
-537,423	126,961	0,179	0,164
-536,408	-168,447	0,061	-0,002
-535,393	25,607	-0,100	-0,060
-534,379	-76,495	0,122	-0,031
-533,364	624,574	-0,047	0,086
-532,350	-128,331	0,133	0,013
-531,335	-51,943	-0,070	-0,023
-530,321	40,708	0,077	-0,050
-529,306	-200,000	-0,003	-0,030
-528,291	-111,141	-0,101	0,015
-527,277	-164,580	0,079	0,003
-526,262	-57,615	-0,096	0,030
-525,248	457,156	-0,022	-0,035
-524,233	-73,079	0,028	0,007
-523,218	401,001	0,062	0,094
-522,204	-200,000	-0,018	-0,064
-521,189	-200,000	0,011	0,045
-520,175	800,000	-0,034	-0,086
-519,160	-200,000	0,055	-0,181
-518,145	283,440	0,035	-0,046
-517,131	180,493	-0,030	0,032
-516,116	-200,000	0,030	0,144
-515,102	1,470	-0,020	-0,010
-514,087	-200,000	-0,032	0,157
-513,072	30,570	-0,081	0,050
-512,058	271,643	-0,089	-0,114
-511,043	219,117	-0,025	0,029
-510,029	362,471	0,081	0,117
-509,014	-61,207	0,190	-0,057
-507,999	-198,619	-0,047	0,000
-506,985	-45,165	-0,085	-0,030
-505,970	-162,280	-0,064	0,002
-504,956	-200,000	0,008	-0,058
-503,941	-154,424	-0,037	-0,002
-502,926	-200,000	-0,047	0,173
-501,912	333,967	-0,042	0,059
-500,897	109,492	0,101	0,087
-499,883	-29,053	-0,087	-0,036
-498,868	60,318	0,026	-0,019
-497,853	-20,640	-0,086	-0,038
-496,839	-117,703	-0,139	0,018
-495,824	673,542	0,053	0,099
-494,810	-200,000	-0,001	-0,047
-493,795	547,611	-0,054	-0,093
-492,781	-99,273	-0,120	-0,022
-491,766	533,327	0,043	-0,073
-490,751	-200,000	-0,009	0,063
-489,737	236,118	0,081	-0,097
-488,722	800,000	-0,046	0,098
-487,708	-160,636	0,055	-0,002
-486,693	133,623	-0,069	0,064
-485,678	-175,340	-0,138	0,003
-484,664	577,316	-0,036	-0,064
-483,649	134,729	0,147	-0,137
-482,635	-104,810	-0,068	0,011
-481,620	-52,955	0,051	-0,017
-480,605	284,163	-0,073	-0,095
-479,591	-52,051	-0,098	-0,032
-478,576	-200,000	0,004	0,021
-477,562	-39,417	-0,023	0,009
-476,547	681,131	-0,068	0,128
-475,532	-72,933	-0,082	0,022
-474,518	540,625	-0,022	0,038
-473,503	-86,082	-0,028	-0,006
-472,489	35,466	0,079	0,049
-471,474	-108,295	0,070	0,011
-470,459	-23,788	-0,041	0,018
-469,445	9,950	0,045	-0,024
-468,430	800,000	-0,026	0,071
-467,416	162,732	-0,024	-0,024
-466,401	-123,784	0,249	0,028
-465,386	-48,590	0,028	-0,010
-464,372	-200,000	-0,012	0,054
-463,357	-200,000	-0,007	0,033
-462,343	-19,395	0,021	-0,009
-461,328	-32,036	-0,083	-0,033
-460,313	-156,254	-0,116	-0,005
-459,299	-98,978	-0,093	0,017
-458,284	800,000	-0,073	0,161
-457,270	-42,657	-0,020	0,007
-456,255	601,602	0,074	0,133
-455,241	-170,556	-0,063	-0,002
-454,226	-8,520	0,129	-0,062
-453,211	800,000	-0,040	-0,084
-452,197	5,593	-0,121	0,064
-451,182	292,063	0,083	0,109
-450,168	-142,992	0,057	0,004
-449,153	-36,708	0,206	-0,079
-448,138	3,575	-0,122	0,064
-447,124	159,957	0,055	0,055
-446,109	-200,000	-0,000	-0,072
-445,095	-200,000	0,004	-0,163
-444,080	201,057	0,066	0,073
-443,065	12,649	0,026	-0,015
-442,051	800,000	-0,022	0,045
-441,036	-200,000	0,001	-0,118
-440,022	-105,970	-0,170	0,027
-439,007	285,019	0,052	-0,068
-437,992	45,739	0,057	0,038
-436,978	464,144	0,059	0,095
-435,963	-200,000	0,028	0,093
-434,949	-200,000	-0,010	-0,048
-433,934	545,656	-0,016	-0,028
-432,919	-200,000	-0,017	-0,132
-431,905	190,793	0,132	-0,143
-430,890	-151,464	0,141	-0,007
-429,876	369,563	0,029	0,042
-428,861	-73,046	0,085	-0,022
-427,846	-114,134	0,081	-0,011
-426,832	33,786	-0,044	0,027
-425,817	88,160	-0,047	-0,038
-424,803	57,759	0,053	0,037
-423,788	800,000	-0,062	-0,136
-422,773	-200,000	0,000	0,066
-421,759	-200,000	0,019	0,128
-420,744	-46,739	0,135	-0,047
-419,730	131,649	-0,030	-0,028
-418,715	-26,711	-0,157	-0,066
-417,701	-49,838	0,081	0,027
-416,686	-200,000	0,015	0,099
-415,671	5,328	0,019	-0,010
-414,657	27,134	-0,159	0,096
-413,642	-200,000	0,041	-0,179
-412,628	118,355	0,026	-0,023
-411,613	800,000	-0,055	-0,110
-410,598	-20,908	0,014	0,006
-409,584	147,554	-0,080	-0,077
-408,569	-200,000	-0,005	-0,032
-407,555	303,979	0,077	0,102
-406,540	200,203	-0,077	0,085
-405,525	-200,000	-0,199	0,000
-404,511	-74,068	0,105	0,027
-403,496	-190,310	0,174	0,001
-402,482	-128,983	-0,072	0,007
-401,467	800,000	-0,047	0,112
-400,452	-200,000	0,001	0,055
-399,438	-200,000	0,001	0,038
-398,423	8,028	-0,094	-0,051
-397,409	-200,000	0,016	-0,115
-396,394	-200,000	0,008	-0,076
-395,379	199,680	-0,038	-0,042
-394,365	228,631	0,117	0,137
-393,350	-67,272	0,030	0,008
-392,336	32,864	-0,090	0,056
-391,321	-105,518	-0,056	-0,009
-390,306	-100,927	-0,080	0,014
-389,292	-200,000	-0,011	-0,144
-388,277	24,295	0,110	-0,065
-387,263	-95,618	0,070	0,013
-386,248	3,120	0,107	0,056
-385,233	-200,000	0,007	0,108
-384,219	-10,049	-0,037	-0,018
-383,204	800,000	0,032	0,087
-382,190	-58,079	0,006	-0,002
-381,175	-200,000	0,066	0,241
-380,160	800,000	-0,044	0,089
-379,146	-200,000	0,016	0,089
-378,131	-60,485	-0,006	-0,002
-377,117	-50,857	-0,088	-0,030
-376,102	-200,000	-0,006	-0,050
-375,088	-146,436	0,115	-0,007
-374,073	-131,164	0,045	-0,004
-373,058	800,000	-0,038	0,112
-372,044	161,888	0,024	0,024
-371,029	-52,310	-0,168	-0,055
-370,015	35,238	-0,142	-0,089
-369,000	-30,698	-0,187	-0,075
-367,985	119,586	-0,016	-0,014
-366,971	-200,000	0,007	-0,065
-365,956	-200,000	0,024	0,084
-364,942	800,000	-0,061	0,125
-363,927	-162,132	-0,033	0,001
-362,912	52,432	0,033	-0,023
-361,898	-130,195	-0,113	-0,011
-360,883	800,000	0,026	-0,064
-359,869	-136,051	0,086	0,007
-358,854	-200,000	0,000	0,060
-357,839	43,869	0,064	0,042
-356,825	365,308	0,103	0,148
-355,810	800,000	-0,083	0,180
-354,796	226,120	-0,086	0,100
-353,781	-200,000	-0,013	-0,094
-352,766	-54,086	0,070	-0,023
-351,752	-92,638	0,088	-0,018
-350,737	263,213	0,059	0,074
-349,723	342,472	-0,028	0,040
-348,708	-184,252	0,044	-0,001
-347,693	-200,000	0,010	0,079
-346,679	800,000	0,009	0,027
-345,664	119,218	0,185	-0,164
-344,650	433,421	-0,016	-0,025
-343,635	12,528	0,106	0,058
-342,620	323,996	0,053	0,073
-341,606	391,215	-0,070	0,104
-340,591	-5,507	-0,132	0,065
-339,577	-90,025	0,107	0,022
-338,562	2,824	0,096	0,050
-337,548	-200,000	0,003	0,040
-336,533	12,085	0,116	0,064
-335,518	348,147	-0,106	0,150
-334,504	68,521	0,082	0,060
-333,489	19,839	0,074	-0,043
-332,475	-200,000	0,019	-0,124
-331,460	800,000	-0,045	-0,132
-330,445	161,285	-0,065	-0,065
-329,431	-188,473	-0,115	-0,001
-328,416	-200,000	-0,003	0,030
-327,402	271,309	-0,027	0,035
-326,387	211,053	0,071	-0,080
-325,372	-128,250	-0,072	-0,007
-324,358	215,263	-0,081	-0,092
-323,343	160,924	0,102	-0,102
-322,329	-172,889	0,047	0,001
-321,314	181,704	0,052	0,055
-320,299	-138,682	0,051	0,004
-319,285	145,700	0,040	-0,039
-318,270	800,000	0,022	-0,063
-317,256	-200,000	0,010	0,088
-316,241	238,181	0,037	-0,043
-315,226	-35,298	0,140	0,054
-314,212	800,000	-0,026	-0,053
-313,197	800,000	-0,053	0,114
-312,183	-200,000	-0,004	-0,054
-311,168	596,889	-0,057	0,101
-310,153	-200,000	0,007	-0,093
-309,139	-155,494	0,210	-0,010
-308,124	706,371	0,067	-0,126
-307,110	-200,000	-0,015	0,076
-306,095	-200,000	0,005	0,103
-305,080	768,019	0,053	0,103
-304,066	508,998	-0,023	-0,038
-303,051	-71,897	-0,066	-0,017
-302,037	-56,598	-0,112	-0,035
-301,022	800,000	-0,026	-0,078
-300,008	358,274	0,081	0,116
-298,993	800,000	-0,047	0,112
-297,978	154,598	-0,062	-0,061
-296,964	-61,607	-0,079	0,024
-295,949	44,648	-0,050	-0,033
-294,935	-200,000	0,016	-0,095
-293,920	800,000	-0,012	-0,024
-292,905	98,728	0,085	0,070
-291,891	113,233	0,170	0,147
-290,876	-187,124	-0,083	-0,001
-289,862	800,000	-0,014	0,037
-288,847	-128,107	-0,044	-0,004
-287,832	-200,000	-0,033	-0,129
-286,818	-139,505	-0,105	-0,008
-285,803	800,000	0,045	-0,095
-284,789	584,013	-0,063	-0,111
-283,774	261,604	0,035	0,043
-282,759	164,349	-0,018	-0,018
-281,745	800,000	-0,040	-0,087
-280,730	-51,013	-0,159	-0,053
-279,716	-172,511	0,051	0,001
-278,701	-200,000	-0,006	-0,022
-277,686	-190,395	-0,009	0,000
-276,672	-200,000	-0,019	-0,079
-275,657	-105,700	0,047	-0,008
-274,643	-200,000	0,013	0,170
-273,628	-200,000	-0,002	0,137
-272,613	-164,731	-0,205	0,006
-271,599	177,950	-0,024	0,025
-270,584	-200,000	0,002	0,018
-269,570	800,000	-0,017	0,038
-268,555	69,432	-0,064	-0,047
-267,540	13,899	0,034	0,019
-266,526	-200,000	0,021	0,105
-265,511	52,253	-0,122	-0,083
-264,497	-200,000	-0,002	-0,009
-263,482	-200,000	0,028	-0,100
-262,467	800,000	-0,045	0,137
-261,453	392,306	0,033	-0,049
-260,438	-200,000	0,023	-0,128
-259,424	684,457	-0,098	-0,184
-258,409	759,020	0,036	-0,069
-257,395	800,000	-0,055	0,143
-256,380	800,000	0,042	0,083
-255,365	71,877	0,195	-0,144
-254,351	-150,751	-0,089	0,005
-253,336	-7,900	0,086	0,041
-252,322	159,268	0,064	-0,063
-251,307	238,662	0,079	-0,093
-250,292	-137,667	0,078	-0,006
-249,278	800,000	0,042	0,105
-248,263	421,091	-0,049	0,075
-247,249	-51,256	-0,028	0,009
-246,234	800,000	0,042	-0,129
-245,219	193,795	-0,031	0,034
-244,205	160,015	-0,050	-0,050
-243,190	-80,658	-0,027	-0,006
-242,176	-200,000	0,015	-0,128
-241,161	139,051	0,073	0,068
-240,146	-4,600	-0,143	0,070
-239,132	-200,000	-0,001	0,112
-238,117	99,298	-0,104	-0,086
-237,103	-200,000	0,025	-0,089
-236,088	800,000	0,049	-0,130
-235,073	168,111	-0,059	0,060
-234,059	57,071	0,104	-0,072
-233,044	117,505	0,080	-0,070
-232,030	530,736	0,050	0,085
-231,015	-136,503	-0,037	-0,003
-230,000	-200,000	-0,027	0,126
-228,986	-21,791	0,058	0,025
-227,971	-8,746	-0,119	0,056
-226,957	465,339	0,041	0,066
-225,942	-20,483	-0,097	0,042
-224,927	185,490	0,009	0,009
-223,913	262,598	-0,064	0,079
-222,898	-200,000	-0,017	0,055
-221,884	27,111	0,018	-0,011
-220,869	-200,000	0,003	-0,028
-219,855	-200,000	0,036	0,170
-218,840	800,000	0,058	0,151
-217,825	-200,000	-0,004	0,045
-216,811	800,000	0,023	-0,048
-215,796	-79,667	-0,126	0,030
-214,782	-55,968	0,044	0,014
-213,767	-133,311	0,081	-0,007
-212,752	424,534	-0,062	0,095
-211,738	-200,000	0,004	-0,047
-210,723	246,077	0,092	0,111
-209,709	260,036	0,030	-0,038
-208,694	-147,043	-0,140	-0,008
-207,679	224,685	0,161	-0,185
-206,665	230,285	0,038	-0,045
-205,650	-200,000	-0,019	-0,137
-204,636	134,384	0,107	-0,098
-203,621	-200,000	0,004	-0,128
-202,606	-17,937	-0,164	-0,073
-201,592	-65,080	-0,133	-0,038
-200,577	-50,214	0,059	-0,020
-199,563	-106,469	0,122	-0,019
-198,548	-27,645	0,155	-0,064
-197,533	659,418	0,076	0,141
-196,519	-200,000	-0,015	0,109
-195,504	0,295	0,033	-0,017
-194,490	-119,634	-0,087	-0,011
-193,475	-24,495	-0,051	0,021
-192,460	669,426	0,006	-0,010
-191,446	-76,919	0,211	0,052
-190,431	-200,000	0,002	0,133
-189,417	-200,000	-0,008	-0,061
-188,402	158,247	0,017	-0,017
-187,387	-116,818	-0,172	-0,022
-186,373	635,960	0,042	0,076
-185,358	-200,000	0,011	0,120
-184,344	-62,816	0,130	0,038
-183,329	-49,437	-0,103	-0,035
-182,315	216,614	0,008	-0,009
-181,300	139,002	0,019	-0,018
-180,285	-74,967	-0,087	0,022
-179,271	28,782	0,109	-0,065
-178,256	800,000	-0,015	0,035
-177,242	178,737	-0,009	-0,009
-176,227	114,576	0,091	0,078
-175,212	-200,000	-0,051	-0,180
-174,198	-136,869	-0,132	-0,011
-173,183	87,320	-0,035	-0,027
-172,169	128,152	-0,027	0,024
-171,154	-73,023	0,087	0,023
-170,139	800,000	0,033	-0,073
-169,125	115,963	0,028	-0,024
-168,110	-43,109	0,142	0,051
-167,096	-90,485	0,030	-0,006
-166,081	-93,988	0,031	-0,006
-165,066	-83,063	-0,031	0,007
-164,052	-200,000	0,027	-0,164
-163,037	-142,135	-0,075	-0,005
-162,023	171,186	0,112	0,115
-161,008	460,040	0,039	0,062
-159,993	-200,000	0,002	-0,012
-158,979	376,255	-0,036	0,053
-157,964	34,645	-0,125	-0,077
-156,950	431,746	0,038	-0,058
-155,935	762,048	-0,031	0,059
-154,920	-58,558	-0,046	0,014
-153,906	-40,556	0,026	0,010
-152,891	134,532	-0,065	0,060
-151,877	800,000	-0,024	-0,068
-150,862	-200,000	0,002	-0,147
-149,847	800,000	0,054	-0,154
-148,833	-200,000	-0,038	0,125
-147,818	-99,974	0,127	0,022
-146,804	800,000	0,060	0,127
-145,789	800,000	-0,052	0,138
-144,775	298,129	-0,078	0,102
-143,760	800,000	-0,059	0,118
-142,745	-200,000	0,000	-0,139
-141,731	345,976	-0,023	-0,032
-140,716	41,165	0,157	0,101
-139,702	-95,974	-0,031	0,006
-138,687	-200,000	-0,006	0,045
-137,672	161,873	0,022	-0,022
-136,658	-200,000	-0,016	-0,139
-135,643	767,089	-0,026	-0,051
-134,629	-163,906	0,114	-0,004
-133,614	359,135	-0,085	-0,122
-132,599	-200,000	0,045	0,158
-131,585	412,067	-0,013	0,020
-130,570	800,000	-0,044	0,118
-129,556	-200,000	-0,011	-0,083
-128,541	17,551	-0,132	-0,074
-127,526	433,256	-0,065	-0,101
-126,512	45,488	0,039	-0,025
-125,497	-25,593	0,004	-0,001
-124,483	37,416	0,068	0,043
-123,468	128,798	0,007	0,007
-122,453	65,239	0,044	0,031
-121,439	-125,722	-0,109	-0,012
-120,424	20,322	-0,152	0,087
-119,410	206,791	0,055	-0,060
-118,395	800,000	0,038	0,090
-117,380	135,942	0,053	-0,049
-116,366	800,000	0,030	0,065
-115,351	-200,000	-0,028	0,135
-114,337	683,045	0,055	0,103
-113,322	85,143	0,018	0,014
-112,307	106,022	-0,098	0,082
-111,293	40,953	0,032	0,020
-110,278	-38,462	0,013	0,005
-109,264	36,610	-0,050	-0,031
-108,249	-200,000	0,008	0,027
-107,234	-56,856	-0,040	-0,012
-106,220	132,819	0,035	-0,032
-105,205	-33,172	0,028	0,011
-104,191	-200,000	-0,005	0,094
-103,176	800,000	0,060	0,139
-102,162	-76,747	-0,149	-0,037
-101,147	-133,358	-0,083	0,007
-100,132	-200,000	0,001	-0,010
-99,118	-200,000	0,000	0,042
-98,103	95,414	0,067	0,054
-97,089	41,708	0,104	0,067
-96,074	-70,985	-0,184	-0,049
-95,059	800,000	0,022	0,063
-94,045	484,854	-0,045	-0,072
-93,030	-16,156	-0,141	-0,063
-92,016	-162,432	0,180	-0,006
-91,001	94,191	-0,072	-0,058
-89,986	800,000	-0,032	0,071
-88,972	-200,000	0,000	0,034
-87,957	-84,919	-0,075	-0,017
-86,943	-200,000	-0,003	0,096
-85,928	-200,000	0,041	0,152
-84,913	-200,000	-0,031	0,103
-83,899	-42,568	-0,038	-0,014
-82,884	396,206	0,034	0,050
-81,870	53,513	0,107	0,072
-80,855	-200,000	-0,011	0,077
-79,840	335,165	-0,040	0,055
-78,826	788,130	0,043	-0,085
-77,811	88,664	-0,081	-0,064
-76,797	800,000	-0,002	-0,006
-75,782	73,283	-0,172	-0,127
-74,767	254,511	0,040	0,049
-73,753	21,383	-0,089	-0,051
-72,738	-200,000	0,003	0,040
-71,724	586,412	0,022	0,039
-70,709	-110,175	-0,130	0,019
-69,694	-125,945	-0,136	-0,014
-68,680	-15,186	-0,130	0,059
-67,665	34,983	-0,051	0,031
-66,651	30,007	-0,106	-0,064
-65,636	800,000	-0,023	0,067
-64,622	416,188	0,038	-0,057
-63,607	205,648	0,083	-0,092
-62,592	-200,000	0,007	-0,041
-61,578	43,532	-0,023	0,015
-60,563	508,875	-0,055	0,090
-59,549	391,378	0,050	0,074
-58,534	-7,317	-1,636	-0,781
-57,519	358,672	-1,335	-1,893
-56,505	-200,000	-0,566	-4,597
-55,490	364,487	0,957	1,366
-54,476	800,000	4,694	11,016
-53,461	-200,000	19,271	322,840
-52,446	-200,000	743,152	2331,848
-51,432	569,900	1655,732	2860,146
-50,417	77,493	1670,229	1256,124
-49,403	20,839	1543,610	882,326
-48,388	14,788	1465,872	808,488
-47,373	18,022	1456,223	818,746
-46,359	16,507	1445,997	805,706
-45,344	13,004	1441,492	786,397
-44,330	12,933	1439,502	784,942
-43,315	12,948	1437,813	784,064
-42,300	12,903	1436,137	782,905
-41,286	12,954	1434,779	782,376
-40,271	12,937	1433,530	781,581
-39,257	12,937	1432,113	780,778
-38,242	13,006	1430,745	780,330
-37,227	12,963	1429,864	779,613
-36,213	12,949	1428,439	778,741
-35,198	12,961	1427,084	778,028
-34,184	13,014	1426,337	777,838
-33,169	12,988	1424,877	776,888
-32,154	13,023	1423,697	776,381
-31,140	13,027	1422,599	775,770
-30,125	13,000	1421,511	775,020
-29,111	13,007	1420,355	774,390
-28,096	13,001	1419,332	773,773
-27,082	12,967	1418,022	772,869
-26,067	12,939	1417,072	772,187
-25,052	12,942	1416,217	771,707
-24,038	12,893	1415,144	770,859
-23,023	12,936	1414,104	770,465
-22,009	12,903	1413,160	769,765
-20,994	12,905	1412,021	769,122
-19,979	12,900	1411,418	768,742
-18,965	12,874	1410,299	767,977
-17,950	12,876	1409,371	767,454
-16,936	12,887	1408,359	766,922
-15,921	12,841	1407,318	766,112
-14,906	12,845	1406,748	765,787
-13,892	12,816	1405,710	765,057
-12,877	12,820	1404,700	764,496
-11,863	12,804	1403,805	763,903
-10,848	12,806	1402,995	763,444
-9,833	12,790	1402,126	762,863
-8,819	12,755	1401,436	762,297
-7,804	12,711	1400,469	761,533
-6,790	12,752	1399,301	761,060
-5,775	12,694	1398,231	760,180
-4,760	12,755	1397,189	759,867
-3,746	12,710	1396,186	759,083
-2,731	12,752	1395,466	758,853
-1,717	12,663	1394,785	758,040
-0,702	12,756	1392,720	757,317
0,313	16,561	1309,159	729,494
1,327	32,899	702,023	428,835
2,342	50,270	122,978	81,993
3,356	1,198	16,551	8,372
4,371	9,814	3,152	1,685
5,386	-48,148	0,578	0,196
6,400	-200,000	0,023	0,244
7,415	-200,000	-0,039	-0,156
8,429	311,053	-0,220	-0,292
9,444	42,808	-0,418	-0,268
10,459	-73,601	-0,345	-0,088
11,473	313,262	-0,194	-0,258
12,488	-32,406	-0,260	-0,102
13,502	51,919	-0,332	-0,223
14,517	-93,686	-0,244	-0,047
15,531	-37,382	-0,347	-0,130
16,546	-101,059	-0,453	-0,078
17,561	118,668	-0,317	-0,276
18,575	-138,578	-0,194	0,015
19,590	195,290	-0,329	-0,353
20,604	179,482	-0,153	-0,158
21,619	128,215	-0,398	-0,358
22,634	-38,176	-0,512	-0,191
23,648	153,005	-0,404	-0,390
24,663	15,183	-0,401	-0,221
25,677	-36,175	-0,298	-0,113
26,692	52,158	-0,247	-0,166
27,707	153,696	-0,253	-0,244
28,721	81,980	-0,352	-0,269
29,736	209,007	-0,336	-0,371
30,750	-3,097	-0,454	-0,222
31,765	155,606	-0,301	-0,292
32,780	17,723	-0,446	-0,249
33,794	185,601	-0,315	-0,330
34,809	-33,910	-0,271	-0,105
35,823	123,720	-0,265	-0,234
36,838	200,255	-0,302	-0,328
37,853	98,305	-0,374	-0,303
38,867	287,786	-0,267	-0,342
39,882	105,825	-0,259	-0,215
40,896	61,618	-0,234	-0,164
41,911	206,819	-0,340	-0,374
42,926	62,657	-0,398	-0,280
43,940	216,714	-0,218	-0,244
44,955	-13,435	-0,428	-0,195
45,969	-54,008	-0,346	-0,110
46,984	84,528	-0,284	-0,219
47,999	49,471	-0,209	-0,138
49,013	149,401	-0,321	-0,306
50,028	85,935	-0,226	-0,175
51,042	26,842	-0,380	-0,223
52,057	184,222	-0,209	-0,218
53,071	9,274	-0,448	-0,238
54,086	93,948	-0,281	-0,224
55,101	37,028	-0,296	-0,184
56,115	110,177	-0,242	-0,205
57,130	59,773	-0,249	-0,173
58,144	43,980	-0,446	-0,287
59,159	128,065	-0,391	-0,350
60,174	79,801	-0,340	-0,257
61,188	67,440	-0,351	-0,252
62,203	57,162	-0,234	-0,160
63,217	-0,270	-0,333	-0,166
64,232	24,307	-0,425	-0,246
65,247	-24,370	-0,345	-0,144
66,261	-12,674	-0,367	-0,168
67,276	210,707	-0,289	-0,319
68,290	179,379	-0,295	-0,304
69,305	172,112	-0,190	-0,193
70,320	-40,829	-0,295	-0,107
71,334	-67,752	-0,312	-0,085
72,349	41,521	-0,273	-0,173
73,363	-14,246	-0,406	-0,183
74,378	-79,681	-0,224	-0,053
75,393	-67,806	-0,354	-0,097
76,407	371,601	-0,160	-0,228
77,422	-200,000	-0,033	-0,281
78,436	-125,194	-0,281	-0,030
79,451	-46,568	-0,224	-0,077
80,466	-49,565	-0,351	-0,117
81,480	9,533	-0,351	-0,186
82,495	19,095	-0,379	-0,213
83,509	36,587	-0,247	-0,152
84,524	-108,070	-0,364	-0,055
85,539	240,782	-0,200	-0,234
86,553	-29,052	-0,218	-0,087
87,568	-6,262	-0,401	-0,192
88,582	9,042	-0,325	-0,172
89,597	142,227	-0,266	-0,248
90,611	32,451	-0,289	-0,175
91,626	239,188	-0,175	-0,205
92,641	333,738	-0,276	-0,375
93,655	-153,370	-0,351	-0,017
94,670	-115,733	-0,327	-0,042
95,684	-52,881	-0,300	-0,096
96,699	120,786	-0,334	-0,291
97,714	98,503	-0,239	-0,193
98,728	549,943	-0,131	-0,221
99,743	172,984	-0,246	-0,249
100,757	-90,834	-0,287	-0,057
101,772	-12,920	-0,356	-0,162
102,787	30,482	-0,175	-0,105
103,801	-55,744	-0,409	-0,127
104,816	-42,011	-0,226	-0,081
105,830	137,791	-0,201	-0,184
106,845	-128,276	-0,150	-0,015
107,860	-81,405	-0,239	-0,055
108,874	76,278	-0,255	-0,189
109,889	-44,874	-0,370	-0,128
110,903	510,681	-0,210	-0,344
111,918	176,350	-0,252	-0,256
112,933	46,601	-0,257	-0,167
113,947	100,883	-0,198	-0,161
114,962	-86,695	-0,383	-0,081
115,976	21,842	-0,287	-0,163
116,991	218,458	-0,328	-0,368
118,006	73,712	-0,218	-0,160
119,020	30,681	-0,288	-0,172
120,035	471,021	-0,144	-0,228
121,049	22,760	-0,390	-0,223
122,064	160,448	-0,220	-0,215
123,079	35,440	-0,187	-0,114
124,093	415,116	-0,170	-0,254
125,108	344,901	-0,144	-0,199
126,122	241,688	-0,268	-0,314
127,137	246,096	-0,185	-0,218
128,151	18,627	-0,259	-0,144
129,166	-127,307	-0,355	-0,036
130,181	6,760	-0,153	-0,079
131,195	209,466	-0,129	-0,142
132,210	-59,904	-0,310	-0,092
133,224	68,743	-0,319	-0,228
134,239	43,288	-0,320	-0,204
135,254	123,355	-0,304	-0,266
136,268	117,290	-0,224	-0,192
137,283	-21,756	-0,338	-0,143
138,297	84,759	-0,253	-0,193
139,312	90,135	-0,195	-0,152
140,327	265,109	-0,183	-0,224
141,341	-62,043	-0,273	-0,079
142,356	-30,923	-0,235	-0,092
143,370	-42,384	-0,297	-0,105
144,385	72,383	-0,147	-0,107
145,400	93,903	-0,314	-0,248
146,414	238,251	-0,217	-0,251
147,429	45,800	-0,263	-0,170
148,443	117,976	-0,150	-0,129
149,458	170,118	-0,139	-0,139
150,473	253,324	-0,208	-0,248
151,487	7,262	-0,305	-0,158
152,502	-7,115	-0,316	-0,149
153,516	800,000	-0,111	-0,293
154,531	679,991	-0,157	-0,287
155,546	31,570	-0,258	-0,155
156,560	28,070	-0,237	-0,139
157,575	217,975	-0,203	-0,226
158,589	-91,643	-0,256	-0,050
159,604	89,124	-0,268	-0,208
160,619	96,720	-0,265	-0,212
161,633	72,653	-0,303	-0,220
162,648	277,513	-0,198	-0,246
163,662	23,677	-0,406	-0,233
164,677	67,163	-0,255	-0,181
165,692	83,157	-0,129	-0,098
166,706	157,710	-0,163	-0,158
167,721	234,717	-0,120	-0,138
168,735	50,395	-0,326	-0,214
169,750	-9,968	-0,307	-0,142
170,764	362,545	-0,199	-0,279
171,779	-92,329	-0,211	-0,041
172,794	-49,504	-0,202	-0,067
173,808	164,026	-0,115	-0,113
174,823	-9,873	-0,188	-0,087
175,837	-37,722	-0,200	-0,074
176,852	-57,469	-0,253	-0,077
177,867	94,729	-0,098	-0,078
178,881	47,123	-0,153	-0,099
179,896	589,885	-0,029	0,050
180,910	257,796	-0,192	-0,231
181,925	54,271	-0,213	-0,142
182,940	800,000	-0,105	-0,300
183,954	8,074	-0,330	-0,172
184,969	113,930	-0,132	-0,112
185,983	-6,571	-0,119	-0,056
186,998	-133,876	-0,274	0,023
188,013	19,633	-0,167	-0,093
189,027	192,467	-0,257	-0,270
190,042	31,437	-0,224	-0,134
191,056	-54,514	-0,297	-0,093
192,071	35,096	-0,334	-0,203
193,086	90,427	-0,138	-0,108
194,100	596,837	-0,096	-0,166
195,115	-108,332	-0,137	0,020
196,129	133,033	-0,210	-0,188
197,144	626,083	-0,145	-0,255
198,159	-114,557	-0,270	-0,036
199,173	1,343	-0,178	-0,088
200,188	750,355	-0,101	-0,191
201,202	80,538	-0,173	-0,130
202,217	34,330	-0,125	-0,075
203,232	151,308	-0,208	-0,197
204,246	541,967	-0,153	-0,254
205,261	153,736	-0,307	-0,292
206,275	44,595	-0,131	-0,084
207,290	549,986	-0,060	-0,100
208,304	453,892	-0,072	-0,111
209,319	-170,480	-0,043	0,001
210,334	-30,366	-0,298	-0,117
211,348	112,882	-0,254	-0,213
212,363	441,039	-0,119	-0,181
213,377	130,337	-0,174	-0,155
214,392	25,672	-0,160	-0,092
215,407	39,468	-0,197	-0,122
216,421	135,437	-0,174	-0,157
217,436	-34,240	-0,218	-0,083
218,450	37,348	-0,203	-0,124
219,465	25,448	-0,307	-0,177
220,480	240,865	-0,133	-0,154
221,494	324,575	-0,129	-0,171
222,509	116,958	-0,140	-0,119
223,523	47,155	-0,115	-0,074
224,538	-110,253	-0,318	-0,045
225,553	201,979	-0,207	-0,222
226,567	381,731	-0,124	-0,176
227,582	283,312	-0,134	-0,167
228,596	800,000	-0,084	-0,175
229,611	303,362	-0,132	-0,170
230,626	11,458	-0,103	-0,054
231,640	178,058	-0,140	-0,142
232,655	-200,000	-0,045	-0,216
233,669	-22,950	-0,221	-0,092
234,684	-29,586	-0,276	-0,109
235,699	32,909	-0,181	-0,108
236,713	601,286	-0,073	-0,127
237,728	125,332	-0,124	-0,108
238,742	26,182	-0,267	-0,154
239,757	171,971	-0,227	-0,226
240,772	440,353	-0,154	-0,234
241,786	174,842	-0,243	-0,243
242,801	-22,624	-0,160	-0,067
243,815	-75,376	-0,179	-0,044
244,830	172,385	-0,108	-0,107
245,844	331,544	-0,176	-0,235
246,859	36,580	-0,196	-0,119
247,874	800,000	-0,131	-0,256
248,888	108,466	-0,080	-0,066
249,903	26,482	-0,205	-0,118
250,917	27,423	-0,134	-0,077
251,932	-93,317	-0,162	-0,031
252,947	-168,391	-0,144	0,004
253,961	-124,924	-0,281	-0,030
254,976	410,784	-0,181	-0,267
255,990	18,398	-0,233	-0,128
257,005	-200,000	-0,009	0,058
258,020	-200,000	-0,001	-0,082
259,034	-200,000	-0,122	0,000
260,049	-79,721	-0,238	-0,055
261,063	8,701	-0,246	-0,128
262,078	14,809	-0,142	-0,077
263,093	174,860	-0,177	-0,177
264,107	-39,699	-0,262	-0,094
265,122	-150,134	-0,241	0,013
266,136	-16,716	-0,239	-0,104
267,151	-54,376	-0,137	-0,043
268,166	13,108	-0,109	-0,058
269,180	800,000	-0,061	-0,133
270,195	568,745	-0,051	-0,086
271,209	432,550	-0,101	-0,152
272,224	55,695	-0,121	-0,081
273,239	211,466	-0,123	-0,134
274,253	685,002	-0,144	-0,261
275,268	800,000	-0,071	-0,210
276,282	-200,000	-0,007	-0,160
277,297	166,213	-0,139	-0,136
278,312	-200,000	-0,164	0,000
279,326	800,000	-0,083	-0,177
280,341	207,512	-0,149	-0,160
281,355	-18,469	-0,194	-0,083
282,370	102,830	-0,102	-0,082
283,384	-50,906	-0,167	-0,054
284,399	266,587	-0,100	-0,121
285,414	92,648	-0,138	-0,108
286,428	386,957	-0,129	-0,184
287,443	-200,000	-0,046	-0,158
288,457	-200,000	-0,009	-0,125
289,472	706,801	-0,078	-0,142
290,487	-1,722	-0,212	-0,102
291,501	87,034	-0,191	-0,146
292,516	272,131	-0,182	-0,221
293,530	557,523	-0,138	-0,230
294,545	-11,745	-0,167	0,075
295,560	226,498	-0,103	-0,115
296,574	800,000	-0,112	-0,226
297,589	-59,661	-0,143	-0,042
298,603	800,000	-0,028	-0,080
299,618	-29,148	-0,198	-0,078
300,633	-156,586	-0,163	0,007
301,647	76,412	-0,143	0,104
302,662	100,937	-0,088	0,071
303,676	225,774	-0,119	-0,133
304,691	389,720	-0,156	-0,224
305,706	31,552	-0,172	-0,102
306,720	800,000	-0,046	-0,125
307,735	109,066	-0,088	-0,072
308,749	93,055	-0,212	-0,165
309,764	250,816	-0,173	-0,203
310,779	189,368	-0,113	-0,117
311,793	-7,986	-0,183	-0,085
312,808	16,543	-0,097	-0,052
313,822	259,907	-0,152	-0,181
314,837	-15,419	-0,198	-0,087
315,852	54,755	-0,149	-0,099
316,866	457,074	0,043	-0,066
317,881	227,953	-0,167	-0,187
318,895	93,480	-0,130	-0,101
319,910	127,928	-0,163	-0,142
320,925	131,765	-0,145	-0,129
321,939	-34,044	-0,195	-0,073
322,954	-95,667	-0,313	-0,057
323,968	141,215	-0,132	-0,120
324,983	-64,299	-0,049	-0,014
325,997	-1,568	-0,188	-0,091
327,012	235,602	-0,082	-0,093
328,027	142,026	-0,224	-0,205
329,041	156,186	-0,180	-0,171
330,056	267,627	-0,060	-0,073
331,070	216,470	-0,165	-0,181
332,085	110,357	-0,081	0,067
333,100	26,082	-0,057	-0,033
334,114	46,263	-0,100	-0,064
335,129	-160,688	-0,128	0,005
336,143	20,255	-0,133	-0,073
337,158	-79,629	-0,251	-0,058
338,173	134,047	-0,047	-0,042
339,187	147,781	-0,032	-0,029
340,202	-54,776	-0,160	0,049
341,216	-29,033	-0,138	-0,054
342,231	456,547	-0,168	-0,257
343,246	800,000	-0,078	-0,214
344,260	106,604	-0,085	-0,069
345,275	-82,081	-0,202	-0,045
346,289	-158,393	-0,165	0,006
347,304	-71,786	-0,164	-0,042
348,319	-57,010	-0,118	-0,035
349,333	330,101	-0,142	-0,187
350,348	-200,000	0,001	-0,007
351,362	24,501	-0,097	-0,055
352,377	-200,000	-0,063	-0,228
353,392	146,787	-0,099	-0,091
354,406	511,110	-0,094	-0,150
355,421	209,361	1315,356	1414,225
356,435	161,131	1476,153	1414,713
