DTS Sentinel unit serial number:	SN410029Multiplexer serial number:	ORYXHardware model number:	OX2-SRSoftware version number:	ORYX F/W v4,00 Oryx Data Collector v3.7.2.0data status	okinstallation	B3 Nyhavnadifferential loss correction	single-endedforward channel	channel 1reverse channel	N/Adate	2023/12/02time	09:02:30forward acquisition time	300,00reverse acquisition time	0,00gamma	499,1914k internal	0,3196k external	0,3196temperature offset calibration	1,0000default loss term (dB/km)	0,3820temperature slope calibration	1,0000multiplexer offset coefficient	1,0000multiplexer slope coefficient	1,0000fibre end	0,00T internal ref (°C)	15,25T ext. ref 1 (°C)	-0,07T ext. ref 2 (°C)	-0,09length (m)	temperature (°C)	Stokes	anti-Stokes-744,400	296,529	-0,201	-0,270
-743,385	-200,000	0,033	0,227
-742,371	229,838	-0,304	-0,362
-741,356	-200,000	0,031	0,459
-740,342	66,438	-0,210	-0,156
-739,327	-200,000	-0,003	0,252
-738,312	41,415	-0,145	-0,096
-737,298	-200,000	0,030	0,217
-736,283	94,963	-0,345	-0,286
-735,269	-200,000	0,032	0,273
-734,254	-67,346	-0,144	-0,041
-733,239	63,186	-0,181	0,132
-732,225	380,550	-0,087	-0,130
-731,210	21,619	0,071	0,042
-730,196	164,735	0,013	-0,013
-729,181	-96,512	-0,091	0,017
-728,167	-200,000	-0,020	0,140
-727,152	504,388	-0,041	-0,069
-726,137	-155,909	-0,102	0,005
-725,123	273,966	-0,099	-0,127
-724,108	-118,586	-0,118	0,015
-723,094	1,214	-0,069	0,036
-722,079	-181,119	-0,167	-0,002
-721,064	212,645	0,083	0,096
-720,050	800,000	-0,054	-0,114
-719,035	-200,000	-0,030	-0,103
-718,021	800,000	-0,052	-0,123
-717,006	-200,000	0,002	-0,109
-715,991	800,000	-0,021	-0,052
-714,977	-167,457	-0,054	-0,002
-713,962	-164,462	0,063	-0,002
-712,948	-19,655	0,063	0,028
-711,933	106,430	-0,131	0,113
-710,918	54,304	0,053	0,037
-709,904	-164,626	-0,117	0,004
-708,889	296,077	-0,024	-0,032
-707,875	-48,441	-0,059	-0,021
-706,860	137,038	-0,010	-0,009
-705,845	-117,360	-0,053	0,007
-704,831	-46,894	0,158	0,056
-703,816	-95,069	-0,033	0,006
-702,802	101,554	-0,129	-0,109
-701,787	88,550	-0,177	-0,143
-700,772	-200,000	0,005	-0,046
-699,758	-200,000	-0,011	-0,072
-698,743	242,854	0,048	0,058
-697,729	-200,000	0,026	0,091
-696,714	-200,000	0,036	0,207
-695,699	-200,000	0,005	0,090
-694,685	-200,000	0,029	-0,165
-693,670	-49,708	-0,161	0,056
-692,656	800,000	0,006	-0,014
-691,641	-2,693	-0,147	0,075
-690,627	-200,000	0,017	0,069
-689,612	256,244	-0,052	-0,065
-688,597	37,574	-0,072	-0,046
-687,583	-200,000	0,005	-0,133
-686,568	420,448	-0,076	-0,119
-685,554	-82,916	-0,115	-0,027
-684,539	-166,658	0,111	-0,003
-683,524	800,000	0,030	0,076
-682,510	305,053	-0,022	0,030
-681,495	800,000	-0,036	-0,106
-680,481	64,708	-0,093	-0,068
-679,466	-200,000	0,010	-0,093
-678,451	24,883	-0,028	-0,017
-677,437	20,982	0,074	0,043
-676,422	338,295	0,057	-0,081
-675,408	-15,285	-0,223	-0,103
-674,393	-200,000	0,019	0,198
-673,378	719,723	-0,028	-0,055
-672,364	264,868	0,020	-0,026
-671,349	-103,353	-0,089	-0,015
-670,335	13,689	0,125	-0,070
-669,320	-28,326	0,082	-0,034
-668,305	-61,772	0,069	-0,021
-667,291	15,942	-0,039	-0,022
-666,276	219,161	-0,211	-0,245
-665,262	-200,000	0,000	0,027
-664,247	-200,000	-0,037	-0,144
-663,232	-74,112	-0,046	0,012
-662,218	-200,000	-0,008	0,037
-661,203	-51,024	0,095	0,032
-660,189	749,875	-0,014	-0,028
-659,174	221,289	-0,082	-0,096
-658,159	800,000	0,018	0,041
-657,145	238,492	-0,124	-0,150
-656,130	592,714	0,038	-0,069
-655,116	448,544	0,060	0,097
-654,101	232,131	-0,038	0,045
-653,086	184,746	-0,066	-0,072
-652,072	52,977	0,020	0,014
-651,057	800,000	-0,053	-0,142
-650,043	134,065	-0,020	0,019
-649,028	24,236	-0,098	0,059
-648,014	-200,000	-0,000	0,030
-646,999	80,288	-0,087	-0,068
-645,984	-26,556	0,219	-0,092
-644,970	800,000	0,043	0,107
-643,955	-200,000	-0,033	-0,192
-642,941	-89,995	0,069	0,014
-641,926	-96,781	0,213	0,040
-640,911	-20,629	-0,094	-0,042
-639,897	-71,913	0,030	-0,008
-638,882	-84,222	0,017	0,004
-637,868	123,844	-0,074	-0,068
-636,853	192,989	0,022	-0,025
-635,838	800,000	-0,008	-0,023
-634,824	800,000	0,051	-0,145
-633,809	91,945	-0,110	0,090
-632,795	35,382	0,062	0,039
-631,780	89,608	-0,095	-0,076
-630,765	800,000	-0,008	-0,021
-629,751	-151,485	-0,050	-0,003
-628,736	-200,000	-0,033	-0,153
-627,722	-200,000	0,001	0,049
-626,707	-107,553	0,087	-0,014
-625,692	-200,000	0,024	0,097
-624,678	6,792	-0,113	-0,061
-623,663	800,000	0,014	0,034
-622,649	800,000	-0,060	-0,125
-621,634	800,000	0,024	-0,057
-620,619	-87,524	0,060	0,013
-619,605	-25,188	0,161	-0,069
-618,590	-15,974	-0,038	0,017
-617,576	19,896	0,127	0,074
-616,561	-82,264	-0,188	-0,044
-615,546	-200,000	0,000	-0,063
-614,532	287,663	-0,059	-0,077
-613,517	-188,179	-0,195	-0,002
-612,503	387,799	-0,043	-0,065
-611,488	-32,918	0,040	0,016
-610,474	545,222	0,093	0,163
-609,459	528,879	-0,043	0,073
-608,444	76,130	-0,028	-0,021
-607,430	800,000	-0,030	-0,091
-606,415	-75,985	-0,079	0,020
-605,401	-85,184	0,062	0,014
-604,386	-200,000	0,019	0,073
-603,371	-200,000	0,012	0,279
-602,357	-200,000	0,002	-0,013
-601,342	-136,533	-0,162	-0,013
-600,328	127,517	-0,038	-0,035
-599,313	-6,459	-0,104	0,051
-598,298	-200,000	0,033	-0,121
-597,284	97,273	-0,046	-0,038
-596,269	-200,000	0,024	-0,089
-595,255	-200,000	0,001	-0,069
-594,240	-200,000	0,000	-0,018
-593,225	29,799	0,131	-0,080
-592,211	226,642	-0,187	-0,220
-591,196	-155,901	-0,046	-0,002
-590,182	-129,658	-0,115	-0,011
-589,167	-45,430	-0,098	0,035
-588,152	-200,000	0,006	0,045
-587,138	-168,935	-0,095	-0,003
-586,123	26,398	-0,071	-0,043
-585,109	-200,000	-0,046	-0,146
-584,094	259,719	0,057	-0,071
-583,079	620,131	0,046	0,084
-582,065	-200,000	0,001	-0,018
-581,050	800,000	0,024	-0,073
-580,036	721,144	0,002	0,004
-579,021	127,240	-0,059	-0,054
-578,006	-200,000	-0,010	-0,162
-576,992	385,074	-0,010	-0,015
-575,977	-47,683	0,097	0,034
-574,963	8,664	0,014	0,008
-573,948	24,335	0,147	0,088
-572,934	800,000	-0,058	0,156
-571,919	35,725	-0,146	-0,093
-570,904	-114,997	-0,076	-0,010
-569,890	353,628	-0,030	-0,043
-568,875	800,000	-0,028	-0,058
-567,861	-200,000	0,008	-0,056
-566,846	-90,552	0,061	0,013
-565,831	197,427	0,023	0,025
-564,817	-200,000	0,016	-0,051
-563,802	9,634	-0,090	-0,049
-562,788	-57,010	-0,095	0,030
-561,773	4,992	0,029	0,015
-560,758	255,747	-0,039	0,049
-559,744	188,471	-0,044	-0,047
-558,729	549,406	-0,051	0,089
-557,715	-102,141	-0,096	-0,017
-556,700	-200,000	0,003	-0,048
-555,685	-17,800	-0,075	-0,034
-554,671	395,045	0,071	0,108
-553,656	22,484	-0,033	-0,019
-552,642	-200,000	-0,003	0,056
-551,627	800,000	0,069	0,165
-550,612	-68,585	-0,103	0,029
-549,598	-42,979	-0,148	-0,054
-548,583	-122,279	0,035	0,004
-547,569	-200,000	0,010	-0,056
-546,554	800,000	-0,049	0,104
-545,539	-200,000	0,000	0,071
-544,525	-200,000	-0,034	-0,112
-543,510	30,230	-0,131	0,081
-542,496	-106,933	-0,155	0,024
-541,481	-80,577	0,085	-0,020
-540,466	-88,037	-0,063	0,013
-539,452	213,676	0,090	0,103
-538,437	36,056	0,140	0,089
-537,423	18,129	0,098	-0,056
-536,408	-200,000	-0,001	0,077
-535,393	-35,689	-0,088	0,034
-534,379	170,881	-0,064	-0,066
-533,364	-200,000	0,013	-0,151
-532,350	-200,000	0,013	-0,069
-531,335	141,772	0,083	0,080
-530,321	88,227	-0,124	0,099
-529,306	70,746	0,079	0,059
-528,291	-200,000	-0,005	0,020
-527,277	37,121	0,074	0,047
-526,262	655,634	-0,045	-0,084
-525,248	63,153	-0,082	-0,059
-524,233	132,070	-0,005	0,004
-523,218	-106,255	0,082	0,013
-522,204	713,480	-0,080	-0,153
-521,189	564,353	-0,047	0,082
-520,175	0,252	0,017	0,009
-519,160	-179,360	0,014	0,000
-518,145	-200,000	0,035	0,124
-517,131	-26,931	0,113	-0,047
-516,116	-200,000	-0,005	-0,059
-515,102	127,793	0,024	0,022
-514,087	-117,655	-0,028	-0,004
-513,072	-200,000	-0,009	-0,111
-512,058	800,000	-0,015	-0,034
-511,043	800,000	0,071	0,153
-510,029	101,602	-0,078	0,065
-509,014	521,177	0,062	-0,106
-507,999	800,000	0,015	-0,032
-506,985	70,396	-0,073	0,054
-505,970	148,941	-0,094	-0,092
-504,956	53,530	-0,056	-0,039
-503,941	-72,193	0,049	0,013
-502,926	326,439	0,080	0,111
-501,912	-200,000	0,019	-0,083
-500,897	-200,000	-0,001	0,029
-499,883	800,000	0,027	-0,072
-498,868	129,728	0,065	0,060
-497,853	-56,545	-0,093	-0,030
-496,839	259,139	0,102	0,128
-495,824	-168,267	0,094	0,003
-494,810	800,000	-0,014	-0,039
-493,795	440,485	0,050	0,079
-492,781	33,957	-0,099	0,062
-491,766	-200,000	-0,001	-0,038
-490,751	310,652	0,045	-0,061
-489,737	-148,943	-0,149	0,009
-488,722	-170,440	0,123	0,003
-487,708	-45,135	0,049	0,018
-486,693	-200,000	-0,008	0,084
-485,678	-114,955	-0,102	0,014
-484,664	-200,000	-0,014	-0,089
-483,649	-200,000	-0,016	0,060
-482,635	653,842	-0,006	-0,011
-481,620	181,732	0,099	0,105
-480,605	-200,000	-0,008	0,053
-479,591	-200,000	0,034	0,131
-478,576	-104,167	0,170	-0,028
-477,562	800,000	0,055	-0,161
-476,547	-200,000	-0,004	0,039
-475,532	-200,000	-0,009	0,080
-474,518	51,374	0,155	-0,106
-473,503	76,767	-0,021	-0,016
-472,489	121,129	0,065	0,058
-471,474	-200,000	0,004	0,019
-470,459	800,000	-0,056	0,125
-469,445	390,882	-0,048	-0,072
-468,430	-5,161	-0,038	0,019
-467,416	531,323	0,038	-0,065
-466,401	-200,000	-0,025	0,101
-465,386	-107,726	0,097	-0,015
-464,372	35,255	0,020	-0,013
-463,357	730,893	-0,015	-0,029
-462,343	800,000	0,026	-0,065
-461,328	90,324	0,187	0,151
-460,313	298,468	-0,044	0,058
-459,299	19,639	0,150	0,087
-458,284	36,522	0,033	-0,021
-457,270	176,230	0,083	0,087
-456,255	121,879	0,023	-0,021
-455,241	160,010	-0,085	-0,085
-454,226	42,756	-0,041	0,027
-453,211	9,237	-0,016	0,009
-452,197	-200,000	0,023	-0,095
-451,182	-200,000	-0,005	-0,051
-450,168	800,000	0,068	-0,141
-449,153	-89,846	0,127	0,026
-448,138	157,990	0,068	-0,068
-447,124	676,049	0,049	-0,093
-446,109	245,904	0,017	-0,020
-445,095	241,472	0,046	0,055
-444,080	-43,835	0,056	0,020
-443,065	246,667	-0,121	-0,148
-442,051	-12,229	0,033	-0,015
-441,036	-67,444	-0,054	0,015
-440,022	420,846	-0,025	-0,038
-439,007	10,090	0,070	-0,038
-437,992	74,750	-0,040	0,030
-436,978	-45,545	0,043	-0,015
-435,963	77,507	-0,134	0,102
-434,949	112,486	-0,140	0,122
-433,934	-200,000	-0,030	0,101
-432,919	122,870	0,051	-0,046
-431,905	571,253	-0,069	-0,121
-430,890	-24,878	0,030	-0,013
-429,876	-200,000	0,002	-0,059
-428,861	-200,000	-0,007	0,138
-427,846	239,791	0,056	0,068
-426,832	800,000	0,026	-0,065
-425,817	-53,186	0,047	0,016
-424,803	-6,265	-0,098	0,048
-423,788	-33,241	0,050	0,020
-422,773	800,000	-0,048	0,105
-421,759	-108,844	0,110	0,017
-420,744	-82,669	0,130	0,030
-419,730	245,713	-0,091	-0,110
-418,715	-162,540	-0,126	0,004
-417,701	-42,387	0,089	0,033
-416,686	107,689	0,026	0,022
-415,671	-28,956	0,098	-0,040
-414,657	-38,153	-0,126	-0,048
-413,642	246,199	-0,038	0,046
-412,628	-116,853	-0,149	-0,019
-411,613	216,324	-0,043	-0,049
-410,598	158,471	-0,162	0,162
-409,584	-113,808	-0,097	0,013
-408,569	-200,000	-0,005	0,087
-407,555	-32,859	0,082	0,032
-406,540	347,648	-0,036	-0,052
-405,525	800,000	-0,041	-0,104
-404,511	434,987	-0,059	0,093
-403,496	-115,811	0,011	0,002
-402,482	-200,000	-0,027	-0,122
-401,467	-68,218	0,126	0,035
-400,452	800,000	0,035	0,095
-399,438	90,321	0,075	0,060
-398,423	700,305	0,041	0,078
-397,409	737,879	-0,057	-0,111
-396,394	444,639	-0,058	-0,092
-395,379	-200,000	-0,015	0,065
-394,365	-115,535	0,077	0,010
-393,350	800,000	-0,026	0,054
-392,336	-200,000	0,008	0,087
-391,321	-111,222	-0,136	-0,020
-390,306	-81,737	-0,112	-0,026
-389,292	-58,941	-0,044	0,014
-388,277	543,333	0,038	0,065
-387,263	-200,000	-0,012	-0,064
-386,248	-104,169	-0,058	0,010
-385,233	677,563	0,046	-0,086
-384,219	-14,901	-0,041	0,019
-383,204	800,000	-0,038	-0,085
-382,190	-29,552	-0,049	0,020
-381,175	800,000	-0,037	-0,093
-380,160	-200,000	-0,035	-0,123
-379,146	95,189	0,093	0,076
-378,131	676,301	-0,025	-0,047
-377,117	-134,994	-0,038	-0,003
-376,102	5,392	-0,235	-0,124
-375,088	-200,000	0,000	0,017
-374,073	-158,761	0,136	0,005
-373,058	-191,835	-0,080	0,001
-372,044	-61,826	0,194	-0,058
-371,029	143,076	0,064	0,062
-370,015	17,810	-0,055	-0,032
-369,000	611,573	0,032	0,058
-367,985	-120,205	0,086	-0,010
-366,971	263,332	-0,092	0,115
-365,956	-200,000	0,025	-0,127
-364,942	188,088	0,102	0,109
-363,927	301,934	-0,054	0,072
-362,912	-200,000	0,024	0,094
-361,898	800,000	0,034	-0,095
-360,883	-200,000	0,013	-0,087
-359,869	-200,000	0,024	-0,111
-358,854	-105,984	-0,072	0,012
-357,839	-46,675	0,071	0,025
-356,825	800,000	-0,013	0,026
-355,810	78,976	-0,077	0,059
-354,796	-200,000	0,017	-0,071
-353,781	-84,830	-0,239	0,054
-352,766	564,267	0,022	-0,038
-351,752	446,625	0,055	-0,087
-350,737	325,258	-0,040	-0,055
-349,723	314,769	0,059	-0,080
-348,708	88,820	0,060	-0,048
-347,693	-169,001	-0,059	-0,002
-346,679	77,679	-0,064	0,048
-345,664	-101,437	0,049	0,008
-344,650	7,507	-0,122	-0,065
-343,635	-20,637	0,030	0,013
-342,620	-130,079	0,169	-0,016
-341,606	547,979	-0,036	0,063
-340,591	610,897	0,064	0,115
-339,577	157,924	-0,009	-0,008
-338,562	-200,000	0,008	-0,073
-337,548	-200,000	0,006	-0,058
-336,533	-40,701	-0,115	-0,042
-335,518	23,160	0,063	-0,037
-334,504	-200,000	0,043	0,155
-333,489	-45,188	0,017	0,006
-332,475	298,155	-0,027	0,035
-331,460	362,041	-0,048	0,070
-330,445	47,829	-0,080	0,054
-329,431	300,200	-0,033	0,044
-328,416	14,095	0,112	0,062
-327,402	800,000	0,027	-0,056
-326,387	-3,282	-0,052	0,026
-325,372	800,000	0,026	0,054
-324,358	275,113	-0,071	-0,090
-323,343	331,205	-0,041	0,057
-322,329	-109,879	0,076	-0,011
-321,314	143,296	0,037	0,035
-320,299	-59,170	-0,074	-0,023
-319,285	-200,000	-0,010	0,052
-318,270	-100,621	-0,046	0,008
-317,256	49,232	0,026	-0,018
-316,241	182,242	-0,077	0,082
-315,226	302,840	0,028	0,038
-314,212	-42,014	0,226	0,082
-313,197	62,263	0,032	-0,023
-312,183	121,300	0,164	0,146
-311,168	724,737	-0,028	-0,053
-310,153	353,317	-0,091	-0,130
-309,139	203,775	0,074	0,082
-308,124	-121,937	-0,043	0,005
-307,110	-200,000	0,007	0,107
-306,095	75,680	-0,079	0,060
-305,080	192,577	0,053	0,057
-304,066	-200,000	-0,002	-0,079
-303,051	227,008	0,057	-0,067
-302,037	-200,000	-0,019	-0,085
-301,022	578,099	0,053	-0,094
-300,008	-128,374	0,016	0,002
-298,993	381,665	-0,061	0,091
-297,978	800,000	-0,022	0,062
-296,964	-200,000	-0,012	-0,071
-295,949	-114,395	-0,147	-0,020
-294,935	375,155	-0,070	-0,103
-293,920	800,000	-0,003	-0,008
-292,905	-130,608	-0,058	0,005
-291,891	273,605	0,086	0,109
-290,876	528,061	0,077	0,130
-289,862	690,972	0,027	-0,051
-288,847	194,563	-0,109	-0,119
-287,832	61,888	-0,038	0,027
-286,818	800,000	-0,045	0,091
-285,803	269,387	0,039	0,049
-284,789	367,306	-0,087	-0,127
-283,774	478,066	-0,036	0,059
-282,759	44,626	-0,080	0,052
-281,745	800,000	0,025	-0,073
-280,730	800,000	-0,022	-0,069
-279,716	-200,000	-0,014	0,066
-278,701	-116,244	0,065	0,009
-277,686	-200,000	-0,030	0,206
-276,672	82,937	0,094	0,073
-275,657	-200,000	-0,005	-0,080
-274,643	110,468	-0,102	0,088
-273,628	-200,000	0,009	0,081
-272,613	-115,561	-0,154	-0,020
-271,599	-144,501	0,146	0,010
-270,584	358,864	0,047	0,068
-269,570	800,000	0,028	0,070
-268,555	-68,848	0,104	0,029
-267,540	-200,000	-0,022	0,080
-266,526	-59,832	0,095	-0,029
-265,511	2,674	-0,025	0,013
-264,497	-45,210	0,015	-0,005
-263,482	114,858	-0,117	0,102
-262,467	8,351	0,187	0,100
-261,453	-93,258	0,043	0,009
-260,438	19,787	-0,101	0,058
-259,424	616,624	0,090	-0,162
-258,409	-200,000	0,005	0,088
-257,395	192,778	-0,072	-0,077
-256,380	-70,635	0,138	0,037
-255,365	-135,859	0,060	0,005
-254,351	-200,000	0,041	0,197
-253,336	26,675	0,059	-0,035
-252,322	298,274	-0,048	0,063
-251,307	-200,000	-0,058	-0,198
-250,292	94,502	0,057	0,046
-249,278	169,943	0,049	-0,050
-248,263	-200,000	-0,006	0,104
-247,249	-140,977	0,020	0,001
-246,234	488,769	0,040	-0,066
-245,219	17,039	-0,004	-0,002
-244,205	-200,000	-0,004	0,153
-243,190	589,756	0,036	0,063
-242,176	52,445	0,110	-0,075
-241,161	493,729	0,032	0,052
-240,146	198,531	0,099	0,108
-239,132	-200,000	-0,016	-0,067
-238,117	31,235	0,027	-0,016
-237,103	-200,000	0,002	0,059
-236,088	-200,000	0,003	0,177
-235,073	-20,501	-0,089	0,039
-234,059	-3,056	0,092	-0,046
-233,044	68,550	0,030	0,022
-232,030	142,116	-0,040	-0,038
-231,015	-25,733	0,161	0,067
-230,000	-58,222	0,085	-0,026
-228,986	-48,342	0,112	0,038
-227,971	-137,436	0,126	0,010
-226,957	-48,884	-0,085	-0,029
-225,942	-61,722	0,116	-0,035
-224,927	-53,887	-0,117	0,038
-223,913	-76,334	-0,083	-0,021
-222,898	261,121	-0,090	-0,112
-221,884	133,193	-0,133	-0,123
-220,869	370,747	0,029	0,042
-219,855	-138,726	0,102	0,008
-218,840	-5,054	0,070	0,034
-217,825	-200,000	-0,012	-0,068
-216,811	188,635	-0,062	0,067
-215,796	548,948	-0,054	-0,093
-214,782	337,472	-0,063	0,087
-213,767	48,144	0,138	-0,092
-212,752	-97,651	0,070	-0,013
-211,738	800,000	0,050	0,128
-210,723	553,844	0,027	-0,047
-209,709	-200,000	-0,035	-0,182
-208,694	449,100	-0,103	-0,163
-207,679	275,744	0,119	-0,151
-206,665	-61,704	0,009	0,003
-205,650	-105,650	0,026	-0,004
-204,636	150,224	0,026	0,025
-203,621	-149,777	0,155	-0,009
-202,606	1,747	-0,143	-0,073
-201,592	152,438	0,080	-0,078
-200,577	-78,710	-0,047	-0,011
-199,563	654,825	0,007	0,013
-198,548	131,847	0,101	-0,093
-197,533	109,174	0,057	0,049
-196,519	800,000	0,011	0,026
-195,504	4,339	-0,054	-0,028
-194,490	-200,000	-0,046	-0,224
-193,475	262,035	-0,103	-0,128
-192,460	-200,000	0,035	-0,193
-191,446	45,893	-0,046	-0,030
-190,431	116,373	0,025	0,022
-189,417	-133,702	-0,093	-0,008
-188,402	-116,873	0,131	-0,017
-187,387	800,000	-0,044	-0,115
-186,373	-11,253	-0,118	0,055
-185,358	800,000	0,026	0,066
-184,344	144,342	-0,068	0,065
-183,329	-200,000	-0,002	-0,050
-182,315	29,542	-0,118	0,072
-181,300	-2,881	0,083	0,041
-180,285	-200,000	-0,033	-0,169
-179,271	-200,000	-0,011	-0,107
-178,256	-200,000	0,014	0,093
-177,242	-200,000	0,008	0,120
-176,227	800,000	-0,048	0,150
-175,212	693,085	0,069	0,129
-174,198	154,725	-0,044	0,043
-173,183	19,950	-0,059	0,034
-172,169	-200,000	0,034	0,193
-171,154	-200,000	0,004	-0,063
-170,139	481,077	0,070	-0,114
-169,125	214,337	0,158	-0,178
-168,110	1,533	-0,093	0,048
-167,096	-200,000	-0,019	-0,128
-166,081	45,629	-0,036	-0,024
-165,066	22,351	0,085	-0,049
-164,052	51,445	0,064	0,044
-163,037	120,205	0,066	0,058
-162,023	800,000	0,013	0,034
-161,008	31,777	-0,047	-0,029
-159,993	114,507	0,041	0,036
-158,979	-114,399	-0,050	-0,007
-157,964	61,124	0,065	-0,046
-156,950	517,352	-0,074	-0,124
-155,935	-200,000	0,027	0,170
-154,920	-200,000	-0,001	-0,016
-153,906	-200,000	0,028	0,105
-152,891	85,683	0,030	0,024
-151,877	-86,566	0,052	0,011
-150,862	-200,000	-0,033	0,117
-149,847	513,346	-0,034	-0,057
-148,833	-140,820	0,082	0,006
-147,818	-99,027	0,079	0,014
-146,804	-200,000	-0,017	-0,123
-145,789	541,728	-0,104	-0,177
-144,775	272,517	-0,090	-0,113
-143,760	-200,000	-0,008	-0,049
-142,745	-200,000	0,005	-0,085
-141,731	800,000	0,027	0,072
-140,716	800,000	-0,040	0,112
-139,702	-200,000	-0,023	0,095
-138,687	-120,933	-0,095	-0,011
-137,672	-200,000	-0,011	0,075
-136,658	-200,000	-0,017	0,143
-135,643	-144,544	0,060	0,004
-134,629	-22,287	-0,054	-0,023
-133,614	-200,000	-0,002	0,207
-132,599	-72,763	-0,068	0,018
-131,585	-18,198	0,041	-0,018
-130,570	-200,000	0,018	-0,092
-129,556	6,924	-0,175	0,093
-128,541	40,306	-0,072	0,046
-127,526	613,729	-0,041	-0,074
-126,512	-200,000	0,006	0,060
-125,497	-100,580	-0,025	-0,004
-124,483	800,000	0,039	0,080
-123,468	-200,000	0,042	-0,167
-122,453	-200,000	0,017	-0,144
-121,439	248,786	-0,095	0,114
-120,424	24,220	-0,115	-0,067
-119,410	-200,000	0,039	0,168
-118,395	772,867	0,042	-0,081
-117,380	-64,111	-0,036	0,010
-116,366	-57,363	-0,068	-0,021
-115,351	-200,000	-0,013	0,047
-114,337	171,223	0,074	-0,075
-113,322	689,871	0,004	0,007
-112,307	-200,000	-0,001	-0,059
-111,293	-2,529	0,035	0,017
-110,278	-200,000	-0,004	-0,060
-109,264	-80,576	-0,080	0,019
-108,249	-116,121	0,025	0,003
-107,234	-43,894	-0,063	0,022
-106,220	26,755	0,096	-0,057
-105,205	207,962	0,024	0,026
-104,191	-148,569	0,071	0,004
-103,176	800,000	-0,051	0,105
-102,162	-85,103	-0,043	0,009
-101,147	59,154	-0,178	-0,124
-100,132	-8,559	0,050	0,024
-99,118	574,302	-0,021	-0,036
-98,103	745,741	-0,036	-0,069
-97,089	-64,877	0,100	0,028
-96,074	800,000	-0,006	-0,017
-95,059	-25,918	0,082	-0,034
-94,045	-200,000	0,004	-0,067
-93,030	-25,711	-0,122	-0,051
-92,016	-17,049	-0,153	-0,069
-91,001	800,000	-0,013	-0,039
-89,986	800,000	0,008	0,018
-88,972	800,000	-0,013	0,039
-87,957	225,968	0,134	0,154
-86,943	-200,000	0,001	0,030
-85,928	-5,702	0,095	-0,046
-84,913	800,000	0,056	-0,117
-83,899	146,892	0,036	-0,034
-82,884	-200,000	0,023	0,117
-81,870	-40,450	0,015	0,005
-80,855	-200,000	0,019	-0,074
-79,840	-87,792	-0,067	-0,014
-78,826	381,536	-0,044	-0,064
-77,811	800,000	0,045	0,101
-76,797	-179,528	-0,065	0,001
-75,782	746,405	-0,046	-0,089
-74,767	76,140	0,011	0,008
-73,753	-107,802	-0,239	-0,037
-72,738	294,625	-0,079	0,103
-71,724	70,231	0,068	0,050
-70,709	234,177	0,032	-0,038
-69,694	-200,000	0,003	-0,033
-68,680	-200,000	-0,003	-0,115
-67,665	-103,953	0,103	0,017
-66,651	218,718	0,053	0,060
-65,636	153,207	-0,041	0,040
-64,622	133,787	-0,059	0,054
-63,607	784,573	-0,019	-0,037
-62,592	-200,000	-0,033	0,107
-61,578	-200,000	0,010	-0,144
-60,563	-200,000	0,006	-0,028
-59,549	-20,576	0,113	0,049
-58,534	-55,359	-1,591	-0,503
-57,519	373,711	-1,547	-2,239
-56,505	-200,000	-0,475	-4,369
-55,490	205,963	0,904	0,999
-54,476	800,000	4,745	11,232
-53,461	-200,000	18,102	285,012
-52,446	800,000	726,253	2223,650
-51,432	556,788	1641,984	2816,796
-50,417	79,558	1663,750	1264,779
-49,403	23,132	1537,294	892,496
-48,388	17,089	1460,864	818,855
-47,373	17,988	1450,573	817,383
-46,359	17,432	1441,193	809,406
-45,344	15,361	1436,302	796,744
-44,330	15,291	1434,547	795,400
-43,315	15,328	1432,661	794,500
-42,300	15,318	1431,097	793,556
-41,286	15,357	1429,865	793,026
-40,271	15,338	1428,654	792,233
-39,257	15,344	1427,367	791,518
-38,242	15,366	1426,035	790,851
-37,227	15,366	1424,856	790,166
-36,213	15,338	1423,665	789,341
-35,198	15,383	1422,399	788,821
-34,184	15,398	1421,496	788,360
-33,169	15,314	1420,125	787,172
-32,154	15,409	1419,244	787,101
-31,140	15,359	1417,952	786,118
-30,125	15,370	1416,846	785,525
-29,111	15,395	1415,686	784,965
-28,096	15,321	1414,618	783,994
-27,082	15,306	1413,450	783,248
-26,067	15,259	1412,517	782,478
-25,052	15,277	1411,400	781,912
-24,038	15,303	1410,243	781,364
-23,023	15,256	1409,290	780,584
-22,009	15,205	1408,277	779,753
-20,994	15,228	1407,413	779,349
-19,979	15,226	1406,374	778,735
-18,965	15,192	1405,452	778,034
-17,950	15,220	1404,530	777,625
-16,936	15,207	1403,710	777,077
-15,921	15,165	1402,439	776,146
-14,906	15,209	1401,418	775,755
-13,892	15,188	1400,732	775,247
-12,877	15,164	1399,812	774,597
-11,863	15,175	1398,738	774,025
-10,848	15,176	1397,857	773,510
-9,833	15,167	1396,930	772,923
-8,819	15,109	1396,052	772,140
-7,804	15,097	1395,182	771,571
-6,790	15,038	1394,276	770,766
-5,775	15,121	1393,076	770,455
-4,760	15,101	1392,167	769,832
-3,746	15,090	1391,434	769,343
-2,731	15,088	1390,468	768,769
-1,717	15,093	1389,474	768,214
-0,702	15,070	1387,840	767,174
0,313	18,879	1307,702	740,509
1,327	35,310	707,059	438,514
2,342	54,429	124,817	85,071
3,356	2,663	16,751	8,576
4,371	-9,412	3,233	1,524
5,386	-81,084	0,637	0,148
6,400	-200,000	-0,006	0,150
7,415	546,016	-0,127	-0,216
8,429	6,578	-0,285	-0,150
9,444	209,640	-0,296	-0,329
10,459	198,365	-0,314	-0,340
11,473	-5,624	-0,220	-0,106
12,488	149,539	-0,202	-0,194
13,502	15,918	-0,370	-0,206
14,517	-17,724	-0,281	-0,124
15,531	41,350	-0,355	-0,227
16,546	292,757	-0,252	-0,326
17,561	144,246	-0,333	-0,314
18,575	-101,564	-0,244	-0,042
19,590	123,180	-0,227	-0,201
20,604	106,923	-0,247	-0,207
21,619	67,962	-0,384	-0,278
22,634	164,734	-0,431	-0,431
23,648	153,095	-0,398	-0,386
24,663	66,553	-0,395	-0,284
25,677	36,669	-0,373	-0,233
26,692	-81,492	-0,422	-0,097
27,707	-39,646	-0,322	-0,119
28,721	-28,254	-0,422	-0,172
29,736	126,555	-0,371	-0,332
30,750	113,728	-0,422	-0,362
31,765	134,206	-0,426	-0,391
32,780	64,434	-0,267	-0,190
33,794	157,691	-0,368	-0,361
34,809	-12,028	-0,285	-0,132
35,823	89,479	-0,396	-0,312
36,838	6,320	-0,367	-0,192
37,853	105,509	-0,346	-0,289
38,867	10,355	-0,464	-0,249
39,882	234,173	-0,299	-0,348
40,896	158,562	-0,332	-0,326
41,911	143,733	-0,306	-0,288
42,926	-28,487	-0,365	-0,148
43,940	-36,650	-0,483	-0,182
44,955	234,659	-0,327	-0,382
45,969	38,046	-0,419	-0,262
46,984	459,081	-0,294	-0,464
47,999	-14,615	-0,367	-0,166
49,013	-9,717	-0,361	-0,169
50,028	35,263	-0,396	-0,244
51,042	112,101	-0,333	-0,284
52,057	96,289	-0,343	-0,277
53,071	800,000	-0,217	-0,434
54,086	-128,728	-0,326	-0,032
55,101	-63,400	-0,270	-0,078
56,115	311,518	-0,239	-0,317
57,130	-62,332	-0,400	-0,117
58,144	33,665	-0,308	-0,188
59,159	-31,784	-0,393	-0,155
60,174	39,109	-0,350	-0,220
61,188	452,422	-0,204	-0,319
62,203	-29,302	-0,439	-0,176
63,217	-144,267	-0,371	-0,024
64,232	-18,266	-0,333	-0,146
65,247	12,889	-0,314	-0,170
66,261	-3,547	-0,438	-0,214
67,276	73,364	-0,318	-0,234
68,290	127,054	-0,312	-0,278
69,305	73,567	-0,349	-0,257
70,320	-54,515	-0,316	-0,100
71,334	103,960	-0,254	-0,211
72,349	-17,262	-0,320	-0,141
73,363	11,903	-0,374	-0,202
74,378	106,186	-0,370	-0,309
75,393	57,913	-0,384	-0,264
76,407	62,613	-0,180	-0,127
77,422	18,198	-0,317	-0,178
78,436	-37,783	-0,280	-0,104
79,451	172,600	-0,218	-0,221
80,466	46,562	-0,403	-0,263
81,480	-14,962	-0,357	-0,160
82,495	-22,393	-0,399	-0,169
83,509	162,574	-0,172	-0,169
84,524	-75,773	-0,237	-0,059
85,539	145,176	-0,216	-0,203
86,553	118,687	-0,315	-0,273
87,568	-29,124	-0,286	-0,115
88,582	66,556	-0,279	-0,199
89,597	1,448	-0,442	-0,223
90,611	800,000	-0,164	-0,329
91,626	11,748	-0,267	-0,144
92,641	63,314	-0,263	-0,185
93,655	83,083	-0,239	-0,183
94,670	130,922	-0,285	-0,257
95,684	-60,191	-0,283	-0,084
96,699	800,000	-0,156	-0,326
97,714	-6,341	-0,358	-0,171
98,728	-1,520	-0,295	-0,146
99,743	143,727	-0,237	-0,222
100,757	-23,484	-0,295	-0,124
101,772	71,929	-0,187	-0,137
102,787	215,239	-0,267	-0,298
103,801	78,141	-0,289	-0,217
104,816	-50,274	-0,314	-0,104
105,830	-39,165	-0,297	-0,109
106,845	-7,039	-0,197	-0,093
107,860	-8,163	-0,395	-0,186
108,874	-34,583	-0,357	-0,136
109,889	0,569	-0,261	-0,130
110,903	411,761	-0,269	-0,402
111,918	-17,281	-0,419	-0,184
112,933	-41,573	-0,313	-0,112
113,947	-131,198	-0,312	-0,029
114,962	80,464	-0,085	-0,064
115,976	26,889	-0,163	-0,095
116,991	-31,113	-0,402	-0,158
118,006	49,565	-0,335	-0,221
119,020	38,633	-0,274	-0,171
120,035	-69,397	-0,296	-0,079
121,049	49,768	-0,214	-0,142
122,064	221,753	-0,200	-0,226
123,079	13,999	-0,339	-0,185
124,093	47,690	-0,251	-0,164
125,108	43,600	-0,318	-0,203
126,122	298,021	-0,187	-0,241
127,137	-34,976	-0,201	-0,076
128,151	-33,007	-0,293	-0,114
129,166	-109,569	-0,325	-0,048
130,181	126,123	-0,289	-0,256
131,195	99,339	-0,295	-0,238
132,210	252,444	-0,210	-0,251
133,224	158,981	-0,264	-0,257
134,239	-85,650	-0,284	-0,061
135,254	8,228	-0,238	-0,125
136,268	-66,945	-0,230	-0,063
137,283	516,220	-0,098	-0,161
138,297	68,214	-0,326	-0,233
139,312	109,660	-0,261	-0,219
140,327	38,432	-0,337	-0,210
141,341	166,327	-0,248	-0,246
142,356	3,000	-0,234	-0,119
143,370	22,426	-0,321	-0,183
144,385	32,509	-0,237	-0,143
145,400	-54,939	-0,354	-0,111
146,414	243,442	-0,275	-0,323
147,429	321,214	-0,242	-0,323
148,443	75,291	-0,173	-0,127
149,458	42,078	-0,223	-0,141
150,473	19,755	-0,362	-0,203
151,487	81,526	-0,267	-0,202
152,502	67,928	-0,338	-0,241
153,516	97,665	-0,218	-0,175
154,531	149,179	-0,243	-0,230
155,546	349,056	-0,211	-0,291
156,560	-9,721	-0,202	-0,094
157,575	191,418	-0,216	-0,228
158,589	208,813	-0,211	-0,231
159,604	-127,655	-0,282	-0,028
160,619	21,832	-0,307	-0,174
161,633	-15,493	-0,225	-0,100
162,648	44,714	-0,178	-0,114
163,662	74,590	-0,215	-0,158
164,677	11,698	-0,250	-0,134
165,692	44,216	-0,113	-0,072
166,706	-28,339	-0,393	-0,158
167,721	103,544	-0,241	-0,197
168,735	90,672	-0,241	-0,188
169,750	9,446	-0,299	-0,157
170,764	74,029	-0,289	-0,212
171,779	175,405	-0,147	-0,149
172,794	108,660	-0,227	-0,189
173,808	284,661	-0,161	-0,203
174,823	42,500	-0,235	-0,149
175,837	206,877	-0,193	-0,210
176,852	243,406	-0,164	-0,192
177,867	-40,949	-0,071	0,025
178,881	-59,713	-0,283	-0,084
179,896	-33,676	-0,134	-0,051
180,910	-31,791	-0,405	-0,158
181,925	-15,545	-0,284	-0,126
182,940	57,278	-0,298	-0,203
183,954	-21,131	-0,206	-0,087
184,969	176,552	-0,139	-0,141
185,983	14,685	-0,270	-0,147
186,998	143,261	-0,214	-0,199
188,013	13,934	-0,212	-0,114
189,027	202,373	-0,295	-0,318
190,042	-58,447	-0,151	-0,045
191,056	387,798	-0,182	-0,263
192,071	23,653	-0,204	-0,117
193,086	-178,917	-0,238	-0,004
194,100	28,632	-0,181	-0,107
195,115	3,025	-0,262	-0,132
196,129	-106,914	-0,187	0,029
197,144	55,451	-0,265	-0,179
198,159	177,990	-0,210	-0,214
199,173	106,639	-0,258	-0,213
200,188	18,109	-0,260	-0,144
201,202	655,383	-0,088	-0,158
202,217	27,779	-0,160	-0,093
203,232	38,625	-0,225	-0,140
204,246	146,293	-0,247	-0,231
205,261	63,580	-0,173	-0,121
206,275	89,243	-0,166	-0,129
207,290	264,224	-0,193	-0,235
208,304	151,590	-0,141	-0,134
209,319	100,072	-0,202	-0,163
210,334	37,987	-0,117	-0,072
211,348	-8,233	-0,300	-0,140
212,363	114,463	-0,310	-0,262
213,377	-42,184	-0,212	-0,075
214,392	-24,356	-0,115	-0,047
215,407	-122,767	-0,178	-0,020
216,421	176,217	-0,133	-0,134
217,436	98,642	-0,107	-0,086
218,450	277,986	-0,183	-0,227
219,465	477,708	-0,124	-0,195
220,480	-200,000	-0,044	-0,213
221,494	121,537	-0,125	-0,109
222,509	299,757	-0,091	-0,116
223,523	119,866	-0,203	-0,175
224,538	-36,932	-0,205	-0,076
225,553	82,702	-0,291	-0,219
226,567	150,534	-0,162	-0,153
227,582	152,599	-0,219	-0,208
228,596	466,599	-0,053	-0,082
229,611	-45,851	-0,160	0,055
230,626	276,770	-0,192	-0,237
231,640	375,952	-0,137	-0,194
232,655	241,611	-0,274	-0,318
233,669	401,280	-0,119	-0,174
234,684	800,000	0,059	-0,126
235,699	211,487	-0,111	-0,122
236,713	21,779	-0,131	-0,074
237,728	129,596	-0,091	-0,080
238,742	413,639	-0,154	-0,229
239,757	137,236	-0,229	-0,208
240,772	129,767	-0,269	-0,239
241,786	178,720	-0,175	-0,178
242,801	456,039	-0,068	-0,105
243,815	78,806	-0,180	-0,134
244,830	377,262	-0,119	-0,169
245,844	-83,136	-0,144	-0,032
246,859	-143,743	-0,117	-0,008
247,874	99,320	-0,206	-0,165
248,888	516,436	-0,190	-0,310
249,903	0,408	-0,235	-0,116
250,917	46,651	-0,163	-0,105
251,932	-24,070	-0,193	-0,080
252,947	599,424	-0,141	-0,243
253,961	420,268	-0,113	-0,168
254,976	-48,796	-0,183	-0,060
255,990	103,373	-0,184	-0,150
257,005	163,781	-0,177	-0,173
258,020	67,075	-0,141	-0,099
259,034	-200,000	-0,020	-0,119
260,049	-26,069	-0,193	-0,078
261,063	88,086	-0,236	-0,181
262,078	29,462	-0,252	-0,148
263,093	29,928	-0,229	-0,135
264,107	193,810	-0,208	-0,218
265,122	254,514	-0,118	-0,140
266,136	800,000	-0,089	-0,181
267,151	-4,067	-0,127	-0,061
268,166	-106,587	-0,125	-0,019
269,180	61,092	-0,159	-0,109
270,195	-23,323	-0,164	-0,068
271,209	247,914	-0,202	-0,237
272,224	-47,732	-0,173	-0,058
273,239	118,353	-0,125	-0,106
274,253	150,536	-0,149	-0,140
275,268	79,432	-0,176	-0,131
276,282	137,152	-0,152	-0,137
277,297	213,366	-0,211	-0,231
278,312	-45,558	-0,218	-0,074
279,326	800,000	-0,044	-0,102
280,341	-108,593	-0,198	-0,029
281,355	-95,151	-0,139	-0,026
282,370	151,083	-0,131	-0,123
283,384	215,191	-0,155	-0,170
284,399	57,146	-0,153	-0,103
285,414	118,751	-0,156	-0,133
286,428	800,000	-0,073	-0,162
287,443	145,636	-0,107	-0,099
288,457	800,000	-0,104	-0,267
289,472	71,962	-0,246	-0,177
290,487	-50,146	-0,235	0,077
291,501	462,888	-0,059	-0,092
292,516	800,000	-0,120	-0,286
293,530	52,494	-0,144	0,095
294,545	-11,993	-0,022	0,010
295,560	203,394	-0,045	-0,048
296,574	78,989	-0,118	-0,087
297,589	239,633	-0,057	-0,066
298,603	112,164	-0,141	-0,117
299,618	580,349	-0,113	-0,192
300,633	792,116	-0,163	-0,311
301,647	544,575	-0,097	-0,161
302,662	181,188	-0,085	-0,087
303,676	-22,392	-0,144	-0,060
304,691	104,073	-0,156	-0,127
305,706	-56,252	-0,232	0,071
306,720	640,043	-0,079	-0,139
307,735	-87,938	-0,183	-0,038
308,749	328,092	-0,054	-0,072
309,764	-200,000	-0,018	-0,093
310,779	-72,231	-0,068	-0,017
311,793	341,429	-0,153	-0,207
312,808	800,000	-0,139	-0,288
313,822	270,916	-0,175	-0,213
314,837	-104,668	-0,278	-0,044
315,852	308,099	-0,038	-0,049
316,866	-34,512	-0,127	-0,048
317,881	299,953	-0,112	-0,142
318,895	-38,011	-0,163	0,060
319,910	103,160	-0,140	-0,113
320,925	56,754	-0,238	-0,160
321,939	-87,391	-0,111	-0,023
322,954	474,223	-0,085	-0,133
323,968	90,166	-0,175	-0,135
324,983	-123,817	-0,156	-0,017
325,997	800,000	-0,087	-0,201
327,012	25,431	-0,230	-0,131
328,027	566,539	-0,140	-0,235
329,041	123,877	-0,125	-0,108
330,056	-200,000	-0,015	-0,178
331,070	-36,225	-0,172	-0,063
332,085	-200,000	0,004	0,041
333,100	-18,035	-0,094	-0,040
334,114	54,403	-0,143	-0,095
335,129	125,848	-0,165	-0,144
336,143	-59,832	-0,115	-0,034
337,158	-200,000	-0,025	-0,091
338,173	150,133	-0,174	-0,162
339,187	-200,000	-0,030	-0,136
340,202	18,033	-0,117	-0,064
341,216	238,779	-0,227	-0,260
342,231	755,641	-0,130	-0,243
343,246	800,000	-0,095	-0,205
344,260	53,337	-0,129	-0,085
345,275	54,373	-0,091	-0,060
346,289	156,530	-0,100	0,095
347,304	66,747	-0,193	-0,135
348,319	111,235	-0,175	-0,145
349,333	235,141	-0,145	-0,165
350,348	270,231	-0,148	-0,179
351,362	-200,000	-0,000	0,002
352,377	247,838	-0,051	-0,059
353,392	-134,148	-0,179	-0,015
354,406	800,000	-0,037	-0,077
355,421	209,121	1313,422	1414,841
356,435	160,935	1474,012	1415,354
