DTS Sentinel unit serial number:	SN410029Multiplexer serial number:	ORYXHardware model number:	OX2-SRSoftware version number:	ORYX F/W v4,00 Oryx Data Collector v3.7.2.0data status	okinstallation	B3 Nyhavnadifferential loss correction	single-endedforward channel	channel 1reverse channel	N/Adate	2023/11/30time	18:52:30forward acquisition time	300,00reverse acquisition time	0,00gamma	499,1914k internal	0,3205k external	0,3205temperature offset calibration	1,0000default loss term (dB/km)	0,3820temperature slope calibration	1,0000multiplexer offset coefficient	1,0000multiplexer slope coefficient	1,0000fibre end	0,00T internal ref (°C)	12,42T ext. ref 1 (°C)	-2,87T ext. ref 2 (°C)	-2,99length (m)	temperature (°C)	Stokes	anti-Stokes-744,400	-200,000	-0,033	-0,157
-743,385	-200,000	-0,046	0,292
-742,371	-21,348	-0,194	-0,086
-741,356	800,000	0,140	0,417
-740,342	220,405	-0,184	-0,215
-739,327	-200,000	0,041	0,267
-738,312	585,816	-0,130	-0,233
-737,298	-200,000	-0,056	0,417
-736,283	13,924	-0,165	-0,093
-735,269	-200,000	0,022	0,400
-734,254	359,238	-0,196	-0,285
-733,239	-103,039	-0,168	0,029
-732,225	-200,000	-0,016	-0,148
-731,210	165,208	0,127	0,130
-730,196	-125,726	-0,037	0,004
-729,181	-138,241	-0,123	-0,010
-728,167	-117,354	-0,148	-0,019
-727,152	-200,000	0,014	0,113
-726,137	545,453	0,032	0,056
-725,123	-49,052	-0,148	0,051
-724,108	800,000	-0,034	-0,097
-723,094	6,528	-0,132	-0,071
-722,079	357,141	-0,060	-0,087
-721,064	199,532	-0,033	-0,037
-720,050	582,189	0,017	0,030
-719,035	23,291	-0,126	0,075
-718,021	130,601	-0,094	-0,088
-717,006	-52,095	0,011	0,004
-715,991	101,275	-0,089	-0,075
-714,977	-84,161	-0,045	-0,010
-713,962	308,631	0,041	0,056
-712,948	-200,000	-0,011	0,065
-711,933	478,011	0,044	0,073
-710,918	409,953	-0,098	-0,150
-709,904	529,647	0,077	-0,133
-708,889	-200,000	-0,018	-0,084
-707,875	-62,576	-0,122	0,037
-706,860	-126,433	-0,107	-0,011
-705,845	1,159	-0,057	-0,030
-704,831	35,166	-0,063	0,040
-703,816	600,974	0,026	-0,047
-702,802	800,000	-0,084	-0,183
-701,787	229,997	-0,057	-0,068
-700,772	-200,000	0,020	-0,076
-699,758	553,873	-0,026	-0,045
-698,743	-58,057	-0,148	0,047
-697,729	-200,000	-0,026	0,126
-696,714	9,642	-0,149	-0,082
-695,699	-45,127	0,103	0,037
-694,685	-30,551	-0,120	-0,049
-693,670	118,681	-0,040	0,035
-692,656	800,000	0,023	0,056
-691,641	75,204	-0,079	0,060
-690,627	-200,000	-0,022	0,091
-689,612	-200,000	0,008	-0,035
-688,597	29,660	0,055	0,034
-687,583	-103,244	-0,180	0,030
-686,568	197,281	-0,142	-0,157
-685,554	-200,000	0,009	0,102
-684,539	440,176	0,011	-0,017
-683,524	70,165	0,055	-0,041
-682,510	-200,000	0,005	-0,030
-681,495	-115,996	-0,062	-0,008
-680,481	370,136	-0,061	-0,091
-679,466	-200,000	-0,017	-0,150
-678,451	-200,000	-0,008	-0,132
-677,437	-200,000	-0,026	0,111
-676,422	800,000	0,031	-0,082
-675,408	403,400	0,064	0,098
-674,393	800,000	-0,024	0,062
-673,378	-134,199	-0,054	0,005
-672,364	-26,442	0,027	-0,012
-671,349	800,000	-0,042	-0,130
-670,335	-200,000	-0,005	-0,019
-669,320	526,623	-0,057	-0,098
-668,305	341,846	0,124	0,176
-667,291	522,285	0,012	0,021
-666,276	800,000	-0,026	-0,058
-665,262	459,426	0,034	-0,054
-664,247	-105,551	0,108	-0,018
-663,232	112,870	-0,048	-0,042
-662,218	800,000	-0,023	0,068
-661,203	307,431	-0,046	0,063
-660,189	-200,000	-0,046	0,166
-659,174	27,551	-0,132	0,080
-658,159	-200,000	-0,002	-0,116
-657,145	22,684	-0,128	-0,076
-656,130	-84,186	-0,042	0,009
-655,116	-196,236	0,108	-0,001
-654,101	-126,964	-0,059	0,006
-653,086	-200,000	0,029	0,162
-652,072	-164,325	0,049	0,002
-651,057	87,613	-0,115	-0,092
-650,043	199,837	0,060	-0,067
-649,028	56,294	-0,128	0,090
-648,014	-200,000	-0,002	-0,026
-646,999	513,294	-0,029	-0,050
-645,984	195,863	-0,097	0,107
-644,970	-200,000	0,007	-0,115
-643,955	13,065	-0,062	-0,035
-642,941	-200,000	0,002	-0,030
-641,926	800,000	0,036	-0,091
-640,911	-18,170	0,191	0,086
-639,897	-200,000	0,003	-0,064
-638,882	-200,000	-0,003	0,039
-637,868	86,490	0,093	-0,074
-636,853	-131,798	-0,107	-0,010
-635,838	800,000	0,039	-0,099
-634,824	-200,000	0,016	0,054
-633,809	78,817	0,109	-0,084
-632,795	113,100	-0,089	0,078
-631,780	-200,000	0,015	0,074
-630,765	800,000	0,033	-0,070
-629,751	-84,012	-0,143	0,033
-628,736	-200,000	-0,020	-0,131
-627,722	-200,000	0,004	-0,054
-626,707	21,516	-0,061	-0,036
-625,692	800,000	-0,049	0,150
-624,678	72,253	-0,069	0,052
-623,663	93,462	-0,079	0,064
-622,649	133,192	0,026	-0,024
-621,634	244,534	-0,013	-0,016
-620,619	-200,000	-0,010	-0,262
-619,605	-129,221	-0,083	0,008
-618,590	-200,000	0,021	0,070
-617,576	800,000	-0,010	0,022
-616,561	-182,438	-0,049	-0,001
-615,546	800,000	-0,022	0,062
-614,532	307,758	-0,061	-0,083
-613,517	567,850	0,016	-0,027
-612,503	76,818	-0,072	-0,055
-611,488	-200,000	-0,003	-0,099
-610,474	45,559	0,037	-0,025
-609,459	-109,201	-0,191	-0,029
-608,444	469,285	-0,058	0,094
-607,430	800,000	-0,054	0,108
-606,415	188,619	-0,060	-0,064
-605,401	-61,729	0,134	-0,040
-604,386	-200,000	0,010	0,135
-603,371	77,548	-0,043	0,033
-602,357	48,842	0,012	0,008
-601,342	67,774	-0,117	-0,086
-600,328	58,758	-0,117	-0,083
-599,313	117,556	-0,104	-0,092
-598,298	-200,000	0,023	0,075
-597,284	-72,828	-0,044	-0,012
-596,269	-121,786	0,135	-0,016
-595,255	-3,670	-0,054	0,027
-594,240	64,978	-0,074	-0,054
-593,225	71,916	-0,078	-0,058
-592,211	800,000	-0,014	0,030
-591,196	408,226	0,022	-0,034
-590,182	58,323	-0,091	0,064
-589,167	-200,000	0,017	0,173
-588,152	-200,000	0,025	0,104
-587,138	-116,357	-0,055	0,007
-586,123	-128,094	-0,089	0,009
-585,109	135,181	-0,129	-0,121
-584,094	711,626	-0,046	-0,088
-583,079	53,365	0,113	0,078
-582,065	-2,066	-0,078	0,039
-581,050	-200,000	0,031	0,153
-580,036	263,124	-0,121	0,152
-579,021	34,337	-0,108	-0,068
-578,006	800,000	0,033	-0,081
-576,992	54,148	0,078	0,054
-575,977	76,135	-0,076	0,058
-574,963	-126,117	0,102	0,011
-573,948	371,147	0,073	0,107
-572,934	-112,910	-0,025	-0,003
-571,919	800,000	0,068	-0,155
-570,904	-98,651	-0,128	-0,023
-569,890	-200,000	-0,004	-0,031
-568,875	800,000	-0,050	0,155
-567,861	-28,545	0,059	0,024
-566,846	39,005	0,063	0,040
-565,831	70,104	-0,054	-0,040
-564,817	56,137	-0,024	-0,017
-563,802	417,687	0,028	-0,044
-562,788	209,970	-0,006	-0,006
-561,773	-103,047	-0,031	0,005
-560,758	-159,319	0,032	0,001
-559,744	371,736	-0,058	-0,085
-558,729	-128,989	0,109	-0,011
-557,715	245,026	-0,025	0,031
-556,700	68,980	-0,079	-0,058
-555,685	-101,956	-0,039	0,007
-554,671	-197,763	-0,095	0,000
-553,656	-200,000	-0,027	0,183
-552,642	-200,000	0,020	-0,191
-551,627	63,454	0,130	0,094
-550,612	800,000	-0,045	0,133
-549,598	35,865	-0,060	0,038
-548,583	-50,054	-0,088	-0,030
-547,569	371,268	0,050	-0,073
-546,554	153,584	0,013	-0,013
-545,539	800,000	0,021	0,066
-544,525	-200,000	-0,001	-0,129
-543,510	50,016	0,063	0,043
-542,496	69,186	-0,114	-0,084
-541,481	-200,000	-0,031	-0,104
-540,466	800,000	0,055	0,116
-539,452	-35,908	0,126	0,049
-538,437	800,000	-0,008	0,019
-537,423	-200,000	-0,008	0,035
-536,408	279,484	-0,005	-0,007
-535,393	-200,000	-0,033	-0,140
-534,379	33,705	0,018	0,012
-533,364	15,692	0,120	0,068
-532,350	180,137	-0,014	0,015
-531,335	101,379	-0,057	-0,048
-530,321	243,689	0,126	0,153
-529,306	115,413	-0,057	0,050
-528,291	-1,152	0,150	0,076
-527,277	169,259	0,029	0,029
-526,262	85,127	0,087	-0,069
-525,248	258,835	0,022	0,028
-524,233	-6,792	0,073	0,036
-523,218	319,149	0,070	0,096
-522,204	88,422	-0,068	-0,055
-521,189	-200,000	0,018	-0,106
-520,175	-40,767	-0,111	-0,041
-519,160	-200,000	-0,007	-0,036
-518,145	800,000	0,034	0,101
-517,131	330,465	0,024	0,033
-516,116	-200,000	0,014	-0,087
-515,102	617,605	0,037	-0,068
-514,087	800,000	-0,046	-0,124
-513,072	-140,133	-0,165	0,012
-512,058	552,806	-0,055	-0,095
-511,043	-200,000	-0,016	-0,142
-510,029	-63,380	0,072	-0,021
-509,014	-200,000	0,007	-0,044
-507,999	502,866	0,028	0,047
-506,985	-64,397	-0,076	0,022
-505,970	800,000	0,013	-0,040
-504,956	-200,000	0,000	-0,059
-503,941	355,313	-0,010	-0,015
-502,926	35,238	0,183	0,115
-501,912	800,000	0,024	-0,055
-500,897	800,000	-0,037	-0,084
-499,883	800,000	0,050	-0,115
-498,868	800,000	0,057	-0,175
-497,853	39,229	-0,101	0,065
-496,839	-200,000	-0,002	-0,126
-495,824	532,300	0,018	0,032
-494,810	361,422	0,052	0,076
-493,795	104,065	-0,026	0,022
-492,781	-200,000	-0,028	-0,187
-491,766	-200,000	0,018	-0,170
-490,751	800,000	0,050	-0,114
-489,737	-152,190	-0,057	-0,003
-488,722	-59,595	0,101	0,031
-487,708	383,176	-0,141	0,209
-486,693	800,000	0,028	0,066
-485,678	47,160	-0,098	-0,066
-484,664	359,310	-0,030	0,043
-483,649	-200,000	0,008	-0,027
-482,635	-40,564	-0,123	-0,046
-481,620	-16,930	0,136	-0,062
-480,605	-200,000	0,019	0,097
-479,591	153,025	-0,077	0,076
-478,576	-131,111	-0,049	-0,005
-477,562	571,488	-0,018	-0,031
-476,547	-200,000	-0,012	-0,173
-475,532	-87,991	0,047	0,010
-474,518	204,027	-0,055	0,061
-473,503	636,414	0,022	0,040
-472,489	800,000	-0,045	0,109
-471,474	-200,000	0,010	-0,059
-470,459	-40,440	-0,114	0,042
-469,445	-200,000	-0,010	0,032
-468,430	-121,441	-0,046	0,005
-467,416	800,000	-0,025	0,068
-466,401	-92,072	0,094	0,019
-465,386	102,744	0,124	0,104
-464,372	-120,031	0,043	0,005
-463,357	800,000	0,028	-0,057
-462,343	23,654	-0,083	-0,049
-461,328	-60,427	-0,041	0,012
-460,313	-175,420	0,209	0,004
-459,299	-115,673	0,170	-0,023
-458,284	300,925	-0,014	0,019
-457,270	-35,797	0,079	-0,031
-456,255	27,553	-0,100	-0,060
-455,241	800,000	-0,016	0,033
-454,226	800,000	-0,023	-0,057
-453,211	-119,500	0,119	0,015
-452,197	-200,000	0,004	-0,072
-451,182	-3,466	0,004	-0,002
-450,168	-200,000	-0,019	-0,135
-449,153	102,804	-0,064	-0,054
-448,138	-200,000	-0,028	-0,175
-447,124	800,000	-0,061	-0,131
-446,109	-200,000	-0,026	-0,134
-445,095	-103,513	0,066	0,011
-444,080	276,945	-0,034	0,044
-443,065	658,918	-0,041	0,076
-442,051	100,241	0,098	0,081
-441,036	-178,392	0,124	0,002
-440,022	378,350	-0,028	-0,041
-439,007	-20,130	0,090	-0,040
-437,992	226,250	-0,140	0,163
-436,978	295,382	0,151	0,199
-435,963	-200,000	-0,007	0,080
-434,949	23,974	0,052	-0,031
-433,934	156,106	0,060	0,059
-432,919	-100,705	-0,153	0,027
-431,905	-200,000	-0,001	0,054
-430,890	-200,000	-0,026	-0,091
-429,876	-168,179	0,167	0,005
-428,861	406,740	-0,063	-0,096
-427,846	-97,067	-0,059	-0,011
-426,832	47,203	-0,052	-0,035
-425,817	97,559	0,124	-0,102
-424,803	401,095	-0,074	0,111
-423,788	75,529	0,101	0,077
-422,773	-200,000	0,019	0,080
-421,759	746,482	0,018	0,035
-420,744	-200,000	-0,008	-0,044
-419,730	800,000	-0,029	-0,084
-418,715	181,195	-0,056	-0,060
-417,701	158,404	-0,044	-0,044
-416,686	-200,000	-0,009	0,165
-415,671	-200,000	0,009	0,035
-414,657	-6,542	0,107	-0,052
-413,642	13,824	-0,051	0,028
-412,628	-47,297	-0,048	-0,017
-411,613	-200,000	0,022	-0,113
-410,598	-86,740	-0,013	0,003
-409,584	-200,000	-0,005	-0,138
-408,569	430,456	-0,002	-0,002
-407,555	-200,000	0,016	0,061
-406,540	417,037	-0,019	-0,029
-405,525	511,379	0,060	-0,101
-404,511	140,847	-0,039	-0,037
-403,496	195,721	-0,046	-0,051
-402,482	800,000	-0,053	0,118
-401,467	107,643	-0,034	0,029
-400,452	800,000	0,020	0,045
-399,438	-200,000	-0,028	-0,129
-398,423	0,035	0,078	-0,039
-397,409	-84,234	-0,093	0,021
-396,394	431,066	0,018	-0,029
-395,379	513,598	-0,010	0,016
-394,365	-200,000	-0,007	-0,058
-393,350	-52,099	-0,042	0,014
-392,336	-200,000	0,011	-0,090
-391,321	-200,000	-0,003	-0,071
-390,306	-200,000	0,005	-0,127
-389,292	67,200	0,084	-0,061
-388,277	-20,870	0,034	0,015
-387,263	-140,268	0,177	-0,013
-386,248	50,891	0,071	0,048
-385,233	291,068	0,141	0,184
-384,219	-163,594	0,154	-0,005
-383,204	123,283	0,093	0,084
-382,190	189,244	-0,069	0,074
-381,175	-200,000	0,000	-0,013
-380,160	-61,416	0,084	0,025
-379,146	20,672	-0,104	-0,060
-378,131	800,000	0,047	0,097
-377,117	-24,070	0,028	-0,012
-376,102	-52,325	-0,051	0,017
-375,088	700,891	0,077	-0,146
-374,073	597,476	0,020	0,035
-373,058	-200,000	-0,022	0,161
-372,044	225,015	0,010	0,012
-371,029	800,000	-0,009	0,026
-370,015	-25,766	-0,015	-0,006
-369,000	263,647	-0,057	-0,071
-367,985	-200,000	0,005	-0,021
-366,971	713,578	0,040	0,076
-365,956	800,000	0,016	-0,032
-364,942	740,027	-0,036	-0,070
-363,927	79,129	-0,041	-0,031
-362,912	38,650	0,051	-0,032
-361,898	133,454	-0,057	0,053
-360,883	31,434	0,049	-0,030
-359,869	-200,000	0,030	-0,121
-358,854	56,222	0,090	0,063
-357,839	-200,000	0,012	-0,043
-356,825	-200,000	0,007	0,062
-355,810	-200,000	-0,014	0,158
-354,796	55,110	-0,054	0,037
-353,781	-200,000	0,032	0,140
-352,766	-18,270	-0,133	0,059
-351,752	-200,000	0,113	0,000
-350,737	570,137	0,067	0,118
-349,723	-97,997	0,076	0,014
-348,708	-43,554	0,106	-0,038
-347,693	-200,000	0,005	-0,053
-346,679	-200,000	0,005	-0,102
-345,664	31,353	0,051	-0,031
-344,650	106,650	0,097	-0,082
-343,635	-86,615	0,086	-0,019
-342,620	800,000	0,012	0,029
-341,606	621,419	0,044	-0,079
-340,591	100,463	-0,097	0,080
-339,577	-66,470	0,052	0,015
-338,562	228,275	0,034	-0,040
-337,548	26,185	-0,090	0,054
-336,533	-92,123	-0,100	0,020
-335,518	102,725	-0,053	-0,045
-334,504	-85,663	-0,052	0,011
-333,489	-200,000	-0,015	0,091
-332,475	-63,390	0,084	-0,024
-331,460	-24,517	0,082	-0,035
-330,445	-56,837	-0,125	0,039
-329,431	800,000	-0,035	0,099
-328,416	307,046	-0,135	0,180
-327,402	467,096	0,082	0,133
-326,387	533,797	-0,047	-0,080
-325,372	21,174	0,056	0,032
-324,358	362,922	-0,035	-0,051
-323,343	-200,000	-0,021	0,073
-322,329	-200,000	-0,014	0,086
-321,314	-21,787	0,042	0,018
-320,299	85,900	-0,139	0,109
-319,285	-52,512	0,028	-0,009
-318,270	101,926	0,083	-0,070
-317,256	18,277	-0,173	-0,098
-316,241	-101,191	0,103	0,018
-315,226	-138,458	0,128	0,010
-314,212	-129,208	0,278	0,027
-313,197	-200,000	-0,003	0,119
-312,183	-31,419	-0,051	0,020
-311,168	-14,031	-0,083	-0,038
-310,153	360,731	0,089	-0,128
-309,139	-86,744	-0,033	-0,007
-308,124	-143,587	-0,086	0,006
-307,110	-21,724	-0,113	-0,049
-306,095	800,000	0,073	0,168
-305,080	-200,000	-0,011	0,122
-304,066	-25,218	0,111	-0,047
-303,051	178,844	-0,072	-0,076
-302,037	-200,000	-0,020	-0,113
-301,022	-162,163	0,058	0,002
-300,008	-100,360	-0,028	0,005
-298,993	-200,000	0,030	0,126
-297,978	-200,000	-0,034	0,293
-296,964	-200,000	-0,028	0,127
-295,949	-200,000	-0,021	-0,091
-294,935	-29,913	-0,158	-0,064
-293,920	800,000	-0,027	0,070
-292,905	-76,849	-0,065	0,016
-291,891	-28,907	0,067	-0,027
-290,876	-200,000	0,008	-0,034
-289,862	-71,720	-0,061	0,016
-288,847	-200,000	0,005	0,065
-287,832	-200,000	-0,015	-0,106
-286,818	-200,000	0,030	-0,118
-285,803	157,034	0,062	0,061
-284,789	-112,722	0,117	0,016
-283,774	-136,673	-0,066	-0,005
-282,759	320,050	0,056	-0,076
-281,745	693,107	0,043	-0,081
-280,730	-10,746	-0,100	-0,047
-279,716	-35,971	-0,206	-0,079
-278,701	409,583	0,022	0,033
-277,686	-92,980	0,079	-0,016
-276,672	800,000	0,029	0,068
-275,657	-142,171	-0,051	-0,004
-274,643	-200,000	0,021	-0,163
-273,628	-122,715	-0,042	-0,005
-272,613	42,336	0,084	-0,054
-271,599	-200,000	-0,005	0,064
-270,584	-200,000	-0,006	0,088
-269,570	800,000	0,042	0,088
-268,555	-200,000	0,011	0,145
-267,540	800,000	-0,032	0,084
-266,526	800,000	0,020	-0,051
-265,511	610,086	-0,050	0,089
-264,497	-54,997	0,132	0,042
-263,482	-200,000	0,043	0,136
-262,467	-78,098	0,094	0,023
-261,453	20,388	0,088	0,051
-260,438	377,495	-0,131	-0,192
-259,424	228,552	-0,077	-0,090
-258,409	800,000	-0,035	-0,079
-257,395	-61,426	0,083	-0,025
-256,380	-200,000	0,034	-0,115
-255,365	800,000	0,009	0,020
-254,351	527,386	-0,010	0,017
-253,336	137,973	-0,071	0,067
-252,322	800,000	-0,074	0,150
-251,307	62,803	0,089	-0,063
-250,292	33,514	-0,022	0,013
-249,278	218,982	0,029	-0,034
-248,263	-11,425	-0,054	-0,025
-247,249	257,489	0,075	0,092
-246,234	61,066	-0,086	-0,061
-245,219	119,654	-0,022	-0,019
-244,205	-61,017	0,111	-0,033
-243,190	-200,000	-0,009	0,086
-242,176	64,725	0,123	-0,088
-241,161	800,000	0,091	0,186
-240,146	-200,000	-0,044	0,175
-239,132	-124,430	0,064	0,007
-238,117	106,810	-0,155	0,131
-237,103	-96,795	0,075	0,014
-236,088	800,000	0,003	0,009
-235,073	-68,751	0,117	0,032
-234,059	800,000	0,094	0,208
-233,044	-200,000	0,001	-0,076
-232,030	96,103	-0,107	-0,087
-231,015	242,310	-0,076	-0,091
-230,000	-82,150	0,067	-0,015
-228,986	214,147	-0,059	-0,067
-227,971	-97,837	0,056	0,010
-226,957	63,096	-0,071	-0,050
-225,942	72,746	0,077	-0,057
-224,927	224,264	0,079	-0,091
-223,913	-32,628	0,070	-0,027
-222,898	40,599	-0,077	-0,049
-221,884	-200,000	-0,007	-0,131
-220,869	800,000	0,018	0,039
-219,855	800,000	0,011	0,034
-218,840	157,823	-0,108	0,107
-217,825	-127,647	0,026	-0,003
-216,811	355,821	-0,070	0,100
-215,796	27,041	-0,036	0,021
-214,782	-58,167	-0,078	-0,024
-213,767	-40,821	-0,035	0,013
-212,752	16,829	-0,090	0,051
-211,738	126,349	-0,029	-0,026
-210,723	800,000	-0,053	0,158
-209,709	378,428	-0,037	0,054
-208,694	800,000	-0,037	-0,099
-207,679	-108,959	-0,043	-0,007
-206,665	12,310	0,088	0,048
-205,650	218,629	0,043	-0,049
-204,636	146,834	0,058	0,056
-203,621	-200,000	0,007	0,110
-202,606	123,454	-0,142	0,127
-201,592	-200,000	-0,009	-0,033
-200,577	-63,406	0,099	0,029
-199,563	-92,827	0,179	-0,035
-198,548	800,000	0,061	-0,170
-197,533	-176,562	-0,074	-0,001
-196,519	-108,209	0,112	0,017
-195,504	-90,119	-0,116	0,024
-194,490	-129,258	-0,086	0,008
-193,475	1,544	-0,137	-0,070
-192,460	-152,114	0,054	0,003
-191,446	52,622	-0,097	0,066
-190,431	-200,000	0,004	0,093
-189,417	-73,805	0,113	-0,029
-188,402	655,761	-0,019	0,036
-187,387	-200,000	-0,004	-0,078
-186,373	-68,200	0,091	0,025
-185,358	245,641	-0,027	-0,032
-184,344	-200,000	0,006	-0,076
-183,329	347,055	0,047	-0,066
-182,315	-200,000	0,006	0,078
-181,300	-38,154	-0,072	0,027
-180,285	-200,000	0,009	-0,076
-179,271	-200,000	-0,021	-0,177
-178,256	295,679	0,060	-0,078
-177,242	-145,038	0,070	-0,004
-176,227	-200,000	-0,008	-0,041
-175,212	535,600	-0,059	-0,099
-174,198	-10,169	0,046	-0,022
-173,183	166,765	-0,116	-0,117
-172,169	-200,000	-0,002	-0,045
-171,154	120,139	0,096	-0,085
-170,139	-129,454	0,104	-0,010
-169,125	-200,000	-0,008	0,063
-168,110	-200,000	0,019	-0,104
-167,096	-200,000	0,008	0,143
-166,081	152,001	0,044	-0,043
-165,066	-200,000	-0,023	-0,139
-164,052	-60,741	0,042	-0,013
-163,037	6,639	-0,033	-0,017
-162,023	440,064	0,023	0,035
-161,008	217,314	0,086	0,098
-159,993	9,057	-0,108	0,057
-158,979	106,454	0,031	-0,026
-157,964	-19,314	-0,234	-0,103
-156,950	-200,000	-0,025	0,090
-155,935	-200,000	-0,004	0,081
-154,920	800,000	0,068	0,159
-153,906	343,619	0,117	0,163
-152,891	-14,221	0,126	0,058
-151,877	-52,350	-0,088	0,029
-150,862	28,904	0,055	0,033
-149,847	-100,854	-0,126	0,022
-148,833	80,514	0,050	0,038
-147,818	129,709	0,082	0,075
-146,804	-96,394	0,042	0,008
-145,789	800,000	-0,063	0,135
-144,775	-9,286	0,059	-0,028
-143,760	165,733	-0,104	-0,104
-142,745	342,599	0,010	-0,014
-141,731	800,000	0,031	0,069
-140,716	-58,662	-0,148	0,045
-139,702	442,777	0,089	0,138
-138,687	651,326	-0,054	0,098
-137,672	800,000	-0,056	-0,123
-136,658	43,289	-0,117	-0,076
-135,643	265,175	0,044	0,054
-134,629	55,927	-0,015	-0,010
-133,614	123,795	-0,112	0,099
-132,599	-79,856	0,137	-0,032
-131,585	86,807	-0,070	-0,055
-130,570	-119,093	-0,068	-0,008
-129,556	-47,362	0,066	-0,023
-128,541	-200,000	0,007	-0,037
-127,526	800,000	0,032	0,097
-126,512	231,369	-0,023	-0,027
-125,497	-2,747	0,137	-0,068
-124,483	-200,000	0,017	0,091
-123,468	100,469	-0,109	0,090
-122,453	-200,000	-0,006	0,043
-121,439	32,830	-0,166	0,102
-120,424	314,976	-0,053	0,071
-119,410	-200,000	0,014	0,049
-118,395	602,103	0,048	0,084
-117,380	-34,533	0,018	0,007
-116,366	114,903	0,031	-0,026
-115,351	26,115	-0,116	-0,068
-114,337	325,671	-0,061	-0,083
-113,322	800,000	0,085	0,225
-112,307	366,969	0,044	0,063
-111,293	-200,000	-0,016	0,159
-110,278	61,823	0,095	0,067
-109,264	-200,000	0,000	-0,030
-108,249	-126,878	-0,130	0,013
-107,234	8,469	-0,165	-0,088
-106,220	-200,000	0,006	0,043
-105,205	-200,000	-0,022	0,103
-104,191	-13,496	-0,142	0,065
-103,176	5,650	0,081	0,042
-102,162	140,083	0,050	-0,047
-101,147	-200,000	-0,014	0,088
-100,132	75,378	-0,097	-0,073
-99,118	-147,396	-0,109	-0,006
-98,103	-7,874	0,062	-0,030
-97,089	-200,000	-0,008	0,030
-96,074	286,915	-0,041	-0,053
-95,059	185,374	0,044	0,047
-94,045	800,000	-0,035	0,089
-93,030	-42,598	-0,165	-0,059
-92,016	77,737	0,066	-0,049
-91,001	-200,000	-0,016	-0,143
-89,986	-52,359	0,043	-0,014
-88,972	-30,758	-0,100	0,040
-87,957	154,268	0,023	0,023
-86,943	112,163	-0,087	-0,074
-85,928	51,772	-0,026	-0,017
-84,913	-115,681	-0,146	0,019
-83,899	102,857	0,037	-0,031
-82,884	62,394	0,099	-0,070
-81,870	5,765	-0,032	0,017
-80,855	777,548	-0,085	0,166
-79,840	430,083	0,029	-0,044
-78,826	-47,655	-0,119	0,041
-77,811	127,066	0,026	-0,023
-76,797	-124,278	-0,099	0,011
-75,782	-111,798	-0,043	-0,006
-74,767	800,000	0,063	0,154
-73,753	-200,000	-0,005	0,086
-72,738	224,898	-0,138	0,158
-71,724	-200,000	0,003	0,020
-70,709	80,344	-0,078	-0,059
-69,694	800,000	-0,059	-0,120
-68,680	-200,000	-0,016	-0,062
-67,665	455,569	-0,029	0,046
-66,651	800,000	0,037	0,095
-65,636	106,408	-0,061	-0,052
-64,622	-160,397	0,049	-0,002
-63,607	-86,415	-0,155	-0,034
-62,592	-83,753	0,065	-0,015
-61,578	-100,537	-0,036	0,006
-60,563	-152,114	-0,079	-0,004
-59,549	800,000	-0,061	0,154
-58,534	-1,627	-1,825	-0,907
-57,519	402,388	-1,392	-2,075
-56,505	-200,000	-0,492	-4,399
-55,490	316,925	1,000	1,340
-54,476	800,000	4,978	11,190
-53,461	-200,000	19,823	330,053
-52,446	800,000	748,182	2329,318
-51,432	559,163	1657,165	2839,565
-50,417	75,987	1667,563	1245,883
-49,403	20,290	1540,852	877,563
-48,388	14,254	1463,138	804,025
-47,373	18,709	1453,615	820,221
-46,359	16,724	1443,231	804,846
-45,344	12,503	1438,701	782,128
-44,330	12,460	1436,545	780,720
-43,315	12,457	1434,892	779,775
-42,300	12,456	1433,355	778,907
-41,286	12,454	1432,101	778,186
-40,271	12,451	1430,639	777,346
-39,257	12,481	1429,407	776,788
-38,242	12,488	1428,196	776,131
-37,227	12,522	1426,881	775,549
-36,213	12,521	1425,546	774,784
-35,198	12,498	1424,493	774,076
-34,184	12,557	1423,601	773,839
-33,169	12,490	1422,247	772,753
-32,154	12,538	1421,071	772,313
-31,140	12,547	1419,820	771,644
-30,125	12,550	1418,695	771,013
-29,111	12,547	1417,570	770,360
-28,096	12,515	1416,593	769,645
-27,082	12,474	1415,536	768,848
-26,067	12,484	1414,393	768,246
-25,052	12,478	1413,462	767,682
-24,038	12,425	1412,269	766,752
-23,023	12,407	1411,342	766,136
-22,009	12,420	1410,382	765,647
-20,994	12,437	1409,339	765,127
-19,979	12,390	1408,596	764,472
-18,965	12,371	1407,637	763,835
-17,950	12,377	1406,671	763,307
-16,936	12,423	1405,669	762,950
-15,921	12,368	1404,826	762,203
-14,906	12,374	1403,884	761,690
-13,892	12,303	1403,182	760,947
-12,877	12,361	1402,126	760,615
-11,863	12,293	1401,245	759,793
-10,848	12,349	1400,403	759,567
-9,833	12,317	1399,282	758,780
-8,819	12,237	1398,774	758,099
-7,804	12,201	1397,816	757,385
-6,790	12,272	1396,539	756,990
-5,775	12,255	1395,678	756,414
-4,760	12,269	1394,506	755,817
-3,746	12,241	1393,754	755,247
-2,731	12,222	1392,855	754,642
-1,717	12,168	1392,226	754,023
-0,702	12,205	1390,399	753,177
0,313	16,072	1305,948	725,267
1,327	32,291	698,962	425,390
2,342	50,022	121,958	81,180
3,356	0,991	16,562	8,363
4,371	7,158	3,193	1,678
5,386	14,746	0,746	0,411
6,400	-200,000	0,063	0,318
7,415	12,288	-0,212	-0,115
8,429	100,235	-0,303	-0,248
9,444	143,948	-0,220	-0,207
10,459	-17,268	-0,371	-0,164
11,473	54,177	-0,172	-0,116
12,488	89,261	-0,203	-0,160
13,502	13,835	-0,272	-0,149
14,517	-122,903	-0,286	-0,032
15,531	-89,057	-0,336	-0,069
16,546	76,327	-0,366	-0,273
17,561	40,040	-0,326	-0,206
18,575	18,264	-0,219	-0,123
19,590	279,533	-0,175	-0,221
20,604	-56,768	-0,388	-0,120
21,619	24,376	-0,486	-0,283
22,634	153,060	-0,432	-0,417
23,648	29,275	-0,439	-0,262
24,663	232,114	-0,291	-0,337
25,677	-10,991	-0,255	-0,118
26,692	-12,197	-0,348	-0,160
27,707	126,675	-0,267	-0,239
28,721	-9,226	-0,304	-0,143
29,736	50,387	-0,389	-0,259
30,750	114,212	-0,447	-0,383
31,765	92,103	-0,369	-0,292
32,780	10,576	-0,325	-0,174
33,794	-6,244	-0,365	-0,175
34,809	239,121	-0,254	-0,298
35,823	7,718	-0,429	-0,226
36,838	95,877	-0,313	-0,252
37,853	56,402	-0,447	-0,306
38,867	-1,986	-0,514	-0,254
39,882	113,314	-0,406	-0,347
40,896	81,876	-0,328	-0,250
41,911	29,055	-0,399	-0,238
42,926	-27,219	-0,453	-0,185
43,940	183,560	-0,413	-0,430
44,955	21,603	-0,464	-0,265
45,969	139,682	-0,228	-0,211
46,984	29,644	-0,361	-0,216
47,999	144,529	-0,306	-0,288
49,013	378,847	-0,209	-0,302
50,028	-95,522	-0,340	-0,064
51,042	369,675	-0,273	-0,390
52,057	104,406	-0,431	-0,357
53,071	54,657	-0,296	-0,201
54,086	290,833	-0,227	-0,291
55,101	196,463	-0,265	-0,285
56,115	-7,233	-0,370	-0,176
57,130	324,173	-0,237	-0,319
58,144	-61,384	-0,300	-0,088
59,159	52,225	-0,442	-0,296
60,174	70,424	-0,356	-0,258
61,188	122,133	-0,354	-0,311
62,203	51,481	-0,326	-0,218
63,217	-55,891	-0,393	-0,123
64,232	18,787	-0,340	-0,191
65,247	47,920	-0,221	-0,145
66,261	1,305	-0,359	-0,180
67,276	46,998	-0,379	-0,247
68,290	-41,517	-0,349	-0,126
69,305	-30,617	-0,356	-0,141
70,320	-26,505	-0,339	-0,139
71,334	-30,974	-0,311	-0,123
72,349	55,374	-0,266	-0,180
73,363	62,549	-0,338	-0,237
74,378	272,615	-0,259	-0,322
75,393	150,163	-0,308	-0,294
76,407	72,032	-0,362	-0,264
77,422	21,148	-0,238	-0,136
78,436	16,962	-0,305	-0,169
79,451	46,026	-0,277	-0,180
80,466	56,359	-0,244	-0,166
81,480	14,721	-0,372	-0,203
82,495	59,092	-0,344	-0,237
83,509	216,453	-0,256	-0,286
84,524	98,575	-0,283	-0,229
85,539	15,800	-0,257	-0,142
86,553	23,103	-0,275	-0,158
87,568	-45,175	-0,401	-0,139
88,582	-41,456	-0,333	-0,119
89,597	-45,184	-0,356	-0,124
90,611	74,987	-0,270	-0,199
91,626	87,567	-0,193	-0,149
92,641	-57,010	-0,237	-0,073
93,655	-11,382	-0,309	-0,142
94,670	82,975	-0,267	-0,203
95,684	261,653	-0,203	-0,248
96,699	-7,343	-0,333	-0,157
97,714	90,189	-0,288	-0,226
98,728	-63,511	-0,244	-0,070
99,743	-129,699	-0,171	0,016
100,757	58,689	-0,156	-0,107
101,772	120,600	-0,266	-0,232
102,787	-11,779	-0,266	-0,122
103,801	51,464	-0,234	-0,155
104,816	68,755	-0,138	-0,099
105,830	-87,070	-0,236	-0,050
106,845	310,557	-0,109	-0,144
107,860	9,829	-0,182	-0,096
108,874	47,089	-0,236	-0,153
109,889	95,657	-0,268	-0,214
110,903	92,983	-0,336	-0,266
111,918	159,824	-0,245	-0,239
112,933	49,088	-0,218	-0,143
113,947	44,877	-0,139	-0,090
114,962	-123,127	-0,296	-0,033
115,976	-185,310	-0,187	0,002
116,991	138,973	-0,294	-0,270
118,006	93,949	-0,295	-0,234
119,020	378,221	-0,183	-0,262
120,035	62,790	-0,194	-0,135
121,049	80,939	-0,229	-0,173
122,064	109,787	-0,277	-0,232
123,079	-151,413	-0,221	0,011
124,093	27,716	-0,338	-0,198
125,108	-18,910	-0,274	-0,119
126,122	-14,994	-0,344	-0,154
127,137	-150,331	-0,243	-0,013
128,151	-23,058	-0,259	-0,109
129,166	-97,501	-0,158	0,028
130,181	-10,874	-0,291	-0,134
131,195	137,129	-0,298	-0,272
132,210	181,663	-0,258	-0,266
133,224	-35,151	-0,388	-0,147
134,239	49,052	-0,227	-0,148
135,254	-136,057	-0,248	-0,020
136,268	56,590	-0,311	-0,211
137,283	536,087	-0,150	-0,250
138,297	209,716	-0,282	-0,309
139,312	-68,921	-0,218	-0,058
140,327	115,058	-0,247	-0,210
141,341	97,161	-0,224	-0,180
142,356	12,988	-0,242	-0,130
143,370	98,168	-0,235	-0,188
144,385	-32,653	-0,306	-0,118
145,400	284,126	-0,111	-0,139
146,414	-29,606	-0,341	-0,135
147,429	174,153	-0,142	-0,143
148,443	47,023	-0,242	-0,157
149,458	-134,970	-0,239	0,020
150,473	-109,454	-0,288	-0,042
151,487	25,330	-0,253	-0,146
152,502	-27,290	-0,329	-0,133
153,516	-53,828	-0,334	-0,105
154,531	10,365	-0,306	-0,162
155,546	120,628	-0,259	-0,224
156,560	43,535	-0,276	-0,176
157,575	120,429	-0,251	-0,217
158,589	467,183	-0,138	-0,216
159,604	528,850	-0,196	-0,323
160,619	350,943	-0,196	-0,271
161,633	40,080	-0,224	-0,140
162,648	628,121	-0,186	-0,328
163,662	266,565	-0,267	-0,326
164,677	-200,000	-0,029	-0,150
165,692	-49,110	-0,236	-0,078
166,706	-56,516	-0,275	-0,084
167,721	-38,846	-0,313	-0,114
168,735	34,840	-0,215	-0,131
169,750	800,000	-0,101	-0,243
170,764	-44,490	-0,269	-0,093
171,779	62,942	-0,244	-0,170
172,794	307,487	-0,199	-0,259
173,808	20,618	-0,303	-0,170
174,823	212,002	-0,186	-0,205
175,837	368,091	-0,112	-0,158
176,852	-25,245	-0,294	-0,120
177,867	-200,000	-0,018	-0,085
178,881	113,237	-0,179	-0,151
179,896	243,372	-0,128	-0,150
180,910	17,239	-0,079	-0,043
181,925	253,537	-0,110	-0,131
182,940	39,626	-0,330	-0,205
183,954	271,095	-0,126	-0,155
184,969	4,868	-0,185	-0,094
185,983	192,545	-0,181	-0,190
186,998	96,228	-0,192	-0,153
188,013	23,751	-0,131	-0,075
189,027	-28,168	-0,236	-0,094
190,042	800,000	-0,086	-0,240
191,056	49,538	-0,127	-0,083
192,071	399,636	-0,129	-0,189
193,086	86,470	-0,236	-0,181
194,100	-16,368	-0,215	-0,094
195,115	14,027	-0,303	-0,163
196,129	154,774	-0,223	-0,213
197,144	39,027	-0,135	-0,084
198,159	196,952	-0,187	-0,198
199,173	-5,203	-0,160	-0,076
200,188	209,100	-0,088	-0,096
201,202	101,919	-0,136	-0,110
202,217	800,000	-0,080	-0,203
203,232	53,838	-0,183	-0,122
204,246	134,809	-0,249	-0,224
205,261	153,837	-0,219	-0,209
206,275	-36,905	-0,312	-0,116
207,290	546,934	-0,078	-0,129
208,304	173,455	-0,079	-0,079
209,319	-14,619	-0,229	-0,102
210,334	-200,000	-0,020	-0,358
211,348	-26,552	-0,231	-0,093
212,363	272,537	-0,062	-0,076
213,377	-49,610	-0,166	-0,054
214,392	76,153	-0,245	-0,180
215,407	-164,051	-0,079	0,003
216,421	630,232	-0,095	-0,168
217,436	247,760	-0,140	-0,165
218,450	258,158	-0,163	-0,195
219,465	477,965	-0,179	-0,282
220,480	800,000	-0,061	-0,158
221,494	-137,600	-0,275	-0,021
222,509	-35,305	-0,227	-0,085
223,523	34,807	-0,163	-0,099
224,538	229,587	-0,179	-0,203
225,553	-18,634	-0,223	-0,096
226,567	-110,190	-0,214	-0,031
227,582	207,034	-0,177	-0,192
228,596	9,311	-0,156	-0,081
229,611	-132,377	-0,244	-0,021
230,626	171,247	-0,170	-0,169
231,640	45,618	-0,256	-0,164
232,655	126,632	-0,246	-0,216
233,669	93,356	-0,164	-0,128
234,684	-14,792	-0,321	-0,142
235,699	137,812	-0,237	-0,215
236,713	252,516	-0,081	-0,096
237,728	800,000	-0,137	-0,313
238,742	-46,493	-0,088	-0,030
239,757	43,375	-0,272	-0,172
240,772	-178,689	-0,152	0,002
241,786	40,358	-0,196	-0,122
242,801	-67,441	-0,065	-0,018
243,815	187,657	-0,146	-0,151
244,830	-132,208	-0,152	0,013
245,844	-121,839	-0,189	0,021
246,859	1,198	-0,182	-0,090
247,874	125,896	-0,100	-0,088
248,888	12,339	-0,304	-0,162
249,903	299,462	-0,102	-0,131
250,917	87,864	-0,134	-0,102
251,932	-200,000	-0,055	-0,190
252,947	-41,739	-0,296	-0,105
253,961	397,230	-0,101	-0,146
254,976	173,911	-0,226	-0,226
255,990	-59,810	-0,083	-0,024
257,005	41,857	-0,120	-0,075
258,020	49,771	-0,170	-0,110
259,034	126,665	-0,144	-0,126
260,049	-43,276	-0,213	-0,074
261,063	144,323	-0,232	-0,214
262,078	322,030	-0,159	-0,210
263,093	299,664	-0,198	-0,253
264,107	404,347	-0,160	-0,233
265,122	-10,621	-0,170	-0,078
266,136	320,435	-0,083	-0,109
267,151	230,411	-0,095	-0,108
268,166	18,487	-0,107	-0,059
269,180	132,485	-0,138	-0,123
270,195	-72,681	-0,079	-0,020
271,209	17,334	-0,196	-0,107
272,224	-200,000	-0,007	-0,103
273,239	421,465	-0,119	-0,177
274,253	153,770	-0,112	-0,106
275,268	-26,868	-0,146	-0,059
276,282	114,755	-0,139	-0,117
277,297	-37,569	-0,212	0,077
278,312	167,732	-0,090	-0,089
279,326	76,755	-0,080	-0,058
280,341	47,010	-0,203	-0,130
281,355	-97,248	-0,178	-0,032
282,370	73,580	-0,093	-0,067
283,384	-58,409	-0,255	-0,076
284,399	154,484	-0,227	-0,215
285,414	340,276	-0,161	-0,217
286,428	-91,280	-0,111	-0,022
287,443	140,189	-0,185	-0,168
288,457	-23,560	-0,056	0,023
289,472	-200,000	-0,053	-0,201
290,487	18,017	-0,020	-0,011
291,501	-111,853	-0,225	-0,031
292,516	34,434	-0,190	-0,114
293,530	0,892	-0,137	-0,067
294,545	-200,000	-0,012	-0,139
295,560	-88,610	-0,187	-0,038
296,574	203,958	-0,154	-0,164
297,589	133,219	-0,173	-0,154
298,603	-200,000	-0,058	-0,214
299,618	100,560	-0,156	-0,125
300,633	51,006	-0,168	-0,110
301,647	-51,616	-0,054	0,017
302,662	131,983	-0,087	-0,077
303,676	-21,871	-0,190	-0,079
304,691	-200,000	-0,013	-0,218
305,706	457,940	-0,099	-0,151
306,720	117,067	-0,198	-0,167
307,735	-132,539	-0,183	0,016
308,749	-144,631	-0,178	-0,011
309,764	-28,202	-0,214	0,085
310,779	709,197	0,040	-0,073
311,793	-31,559	-0,129	-0,049
312,808	91,444	-0,223	-0,172
313,822	595,462	-0,105	-0,180
314,837	81,835	-0,251	-0,187
315,852	-64,816	-0,129	-0,036
316,866	-95,059	-0,150	-0,028
317,881	-200,000	0,009	0,038
318,895	-33,380	-0,226	-0,086
319,910	62,185	-0,200	-0,137
320,925	299,861	-0,081	-0,102
321,939	-93,716	-0,161	-0,030
322,954	-48,257	-0,078	0,026
323,968	530,771	-0,067	-0,109
324,983	10,371	-0,086	0,045
325,997	258,665	-0,208	-0,246
327,012	335,050	-0,131	-0,174
328,027	-18,175	-0,210	-0,090
329,041	146,725	-0,179	-0,165
330,056	-119,614	-0,072	0,008
331,070	-5,229	-0,115	-0,054
332,085	78,171	-0,128	-0,094
333,100	74,371	-0,162	-0,117
334,114	-65,291	-0,236	-0,065
335,129	-113,184	-0,294	-0,039
336,143	800,000	-0,083	-0,172
337,158	112,366	-0,124	-0,103
338,173	-71,994	-0,092	0,023
339,187	-44,605	-0,113	-0,039
340,202	560,914	-0,138	-0,230
341,216	18,235	-0,159	-0,087
342,231	113,234	-0,155	-0,129
343,246	456,890	-0,085	-0,131
344,260	26,812	-0,122	-0,070
345,275	-117,654	-0,060	0,007
346,289	-103,920	-0,107	0,017
347,304	162,238	-0,107	-0,103
348,319	166,142	-0,219	-0,213
349,333	437,293	-0,140	-0,210
350,348	12,233	-0,137	-0,072
351,362	-51,784	-0,065	-0,021
352,377	-200,000	-0,004	-0,138
353,392	-47,867	-0,152	-0,050
354,406	-95,721	-0,074	-0,013
355,421	208,115	1312,468	1406,717
356,435	160,123	1472,912	1407,210
