DTS Sentinel unit serial number:	SN410029Multiplexer serial number:	ORYXHardware model number:	OX2-SRSoftware version number:	ORYX F/W v4,00 Oryx Data Collector v3.7.2.0data status	okinstallation	B3 Nyhavnadifferential loss correction	single-endedforward channel	channel 1reverse channel	N/Adate	2023/12/04time	10:52:30forward acquisition time	300,00reverse acquisition time	0,00gamma	499,1914k internal	0,3203k external	0,3203temperature offset calibration	1,0000default loss term (dB/km)	0,3820temperature slope calibration	1,0000multiplexer offset coefficient	1,0000multiplexer slope coefficient	1,0000fibre end	0,00T internal ref (°C)	13,73T ext. ref 1 (°C)	-0,56T ext. ref 2 (°C)	-0,58length (m)	temperature (°C)	Stokes	anti-Stokes-744,400	57,468	-0,276	-0,196
-743,385	-200,000	0,122	0,432
-742,371	-96,454	-0,339	-0,065
-741,356	-200,000	0,046	0,365
-740,342	-99,552	-0,277	-0,050
-739,327	-200,000	-0,037	0,269
-738,312	211,733	-0,213	-0,244
-737,298	-200,000	0,037	0,272
-736,283	589,783	-0,091	-0,163
-735,269	-200,000	0,033	0,277
-734,254	25,346	-0,322	-0,194
-733,239	-57,409	-0,200	0,063
-732,225	-200,000	-0,007	-0,089
-731,210	792,394	-0,069	0,138
-730,196	-200,000	-0,005	0,041
-729,181	-34,506	0,083	-0,033
-728,167	394,715	-0,088	0,134
-727,152	-165,305	0,034	0,001
-726,137	148,494	-0,116	-0,114
-725,123	351,430	0,039	-0,057
-724,108	54,841	0,054	-0,038
-723,094	381,426	-0,066	-0,098
-722,079	-79,688	0,037	0,009
-721,064	-14,037	0,080	0,037
-720,050	800,000	0,050	-0,125
-719,035	800,000	-0,010	0,030
-718,021	12,859	0,055	0,031
-717,006	-200,000	0,001	-0,013
-715,991	288,114	-0,097	-0,127
-714,977	-200,000	-0,008	-0,108
-713,962	800,000	-0,051	0,110
-712,948	-200,000	0,019	-0,084
-711,933	-64,206	0,043	-0,013
-710,918	-53,609	-0,107	-0,035
-709,904	131,851	0,040	-0,038
-708,889	-156,001	-0,101	-0,005
-707,875	-200,000	-0,054	-0,209
-706,860	-200,000	-0,001	0,079
-705,845	276,599	0,144	-0,187
-704,831	-168,046	0,089	0,002
-703,816	-36,364	0,066	-0,026
-702,802	-200,000	0,010	-0,099
-701,787	-200,000	0,008	-0,097
-700,772	-160,467	-0,088	-0,003
-699,758	-200,000	0,013	0,082
-698,743	53,123	-0,038	0,026
-697,729	-143,322	-0,059	-0,004
-696,714	-82,982	-0,009	-0,002
-695,699	28,837	-0,074	-0,046
-694,685	5,756	-0,115	-0,062
-693,670	18,865	-0,101	0,059
-692,656	800,000	0,045	-0,095
-691,641	-105,490	0,053	-0,009
-690,627	-200,000	-0,002	0,034
-689,612	-111,550	0,117	-0,017
-688,597	368,351	-0,087	-0,128
-687,583	-55,945	0,138	-0,044
-686,568	-116,850	-0,080	0,010
-685,554	-200,000	-0,069	-0,242
-684,539	64,378	0,049	-0,036
-683,524	245,167	-0,013	0,016
-682,510	800,000	-0,042	-0,087
-681,495	-200,000	0,021	-0,158
-680,481	800,000	-0,049	-0,108
-679,466	674,111	0,055	0,105
-678,451	-200,000	-0,010	-0,135
-677,437	103,176	0,066	-0,056
-676,422	83,116	0,095	0,075
-675,408	800,000	-0,082	-0,184
-674,393	-118,682	0,048	0,006
-673,378	800,000	-0,029	0,069
-672,364	677,239	-0,060	0,114
-671,349	-200,000	0,032	-0,122
-670,335	67,290	-0,083	0,062
-669,320	-200,000	-0,006	0,056
-668,305	800,000	0,021	0,064
-667,291	604,615	0,024	-0,043
-666,276	264,209	-0,082	-0,103
-665,262	800,000	-0,020	-0,040
-664,247	85,482	-0,001	-0,001
-663,232	64,757	-0,050	-0,036
-662,218	128,454	0,163	0,151
-661,203	-200,000	-0,036	-0,154
-660,189	110,677	-0,061	0,053
-659,174	800,000	-0,022	-0,048
-658,159	129,271	-0,190	-0,176
-657,145	-75,823	-0,076	-0,019
-656,130	335,187	-0,044	0,062
-655,116	450,869	-0,037	-0,060
-654,101	-63,589	0,081	0,024
-653,086	196,152	0,049	0,055
-652,072	-20,063	-0,068	-0,030
-651,057	-43,790	0,074	0,027
-650,043	157,692	-0,111	0,112
-649,028	141,383	0,059	0,057
-648,014	-200,000	0,017	-0,064
-646,999	800,000	0,035	0,074
-645,984	365,752	-0,073	-0,107
-644,970	212,060	-0,016	0,018
-643,955	800,000	-0,014	0,028
-642,941	576,759	0,025	-0,044
-641,926	-16,272	0,087	-0,040
-640,911	-200,000	0,005	-0,184
-639,897	-104,638	-0,053	0,009
-638,882	308,490	0,030	0,040
-637,868	-81,404	-0,046	-0,011
-636,853	98,275	-0,104	0,087
-635,838	800,000	-0,037	-0,081
-634,824	203,480	-0,037	-0,041
-633,809	253,229	0,052	-0,064
-632,795	800,000	0,042	-0,100
-631,780	276,147	0,050	-0,064
-630,765	78,536	-0,033	-0,025
-629,751	-200,000	0,032	-0,176
-628,736	-200,000	0,000	0,063
-627,722	-141,042	0,077	-0,006
-626,707	274,820	0,015	-0,019
-625,692	793,537	0,058	0,116
-624,678	93,219	0,073	0,059
-623,663	-97,469	-0,077	-0,014
-622,649	-82,303	-0,052	0,012
-621,634	127,492	-0,097	-0,089
-620,619	-120,773	0,080	-0,010
-619,605	431,206	-0,060	-0,094
-618,590	-7,770	0,046	-0,022
-617,576	11,761	0,139	-0,077
-616,561	-200,000	-0,015	-0,158
-615,546	341,577	-0,072	-0,102
-614,532	329,424	-0,025	-0,034
-613,517	-200,000	-0,010	0,052
-612,503	607,645	0,063	-0,115
-611,488	4,294	0,112	0,059
-610,474	62,964	-0,116	0,084
-609,459	800,000	-0,067	0,190
-608,444	255,198	0,049	-0,061
-607,430	94,684	0,035	-0,029
-606,415	303,485	0,030	-0,041
-605,401	-109,918	-0,095	0,014
-604,386	-200,000	0,002	0,073
-603,371	-100,485	0,149	-0,026
-602,357	47,717	0,072	0,048
-601,342	124,880	-0,077	0,070
-600,328	-200,000	-0,041	-0,137
-599,313	113,116	-0,120	-0,105
-598,298	-64,985	-0,049	-0,014
-597,284	-185,675	0,069	0,001
-596,269	-200,000	0,017	0,215
-595,255	646,833	0,037	-0,068
-594,240	-24,390	-0,125	0,054
-593,225	-200,000	0,008	0,046
-592,211	185,723	-0,132	-0,141
-591,196	-182,240	-0,043	-0,001
-590,182	-147,869	0,159	0,009
-589,167	25,361	0,065	-0,039
-588,152	-144,428	-0,122	0,008
-587,138	800,000	-0,013	-0,039
-586,123	-138,066	-0,063	0,005
-585,109	71,279	0,077	-0,058
-584,094	104,648	0,059	0,050
-583,079	304,432	0,050	0,067
-582,065	-200,000	-0,011	0,047
-581,050	163,366	-0,112	0,114
-580,036	337,366	-0,060	0,084
-579,021	100,867	-0,039	-0,033
-578,006	-104,172	-0,061	-0,010
-576,992	5,769	0,016	0,008
-575,977	410,390	0,032	0,049
-574,963	-40,726	0,011	0,004
-573,948	628,056	-0,084	0,154
-572,934	-98,149	-0,127	-0,023
-571,919	102,443	0,115	-0,097
-570,904	-20,673	0,082	-0,036
-569,890	-23,013	-0,069	0,030
-568,875	-2,118	0,063	-0,032
-567,861	-68,408	0,071	0,020
-566,846	-200,000	-0,021	0,174
-565,831	284,705	-0,061	0,080
-564,817	-200,000	-0,015	-0,100
-563,802	81,230	-0,117	-0,091
-562,788	15,199	0,048	-0,027
-561,773	-185,342	-0,054	-0,001
-560,758	-200,000	0,009	-0,038
-559,744	-7,318	-0,120	-0,058
-558,729	-55,448	0,104	-0,033
-557,715	-74,315	0,112	0,029
-556,700	410,017	0,036	-0,055
-555,685	22,408	0,107	-0,063
-554,671	90,888	-0,012	-0,010
-553,656	183,628	0,042	0,045
-552,642	-200,000	-0,021	0,103
-551,627	0,270	-0,078	0,040
-550,612	54,097	-0,143	-0,099
-549,598	800,000	0,045	-0,101
-548,583	800,000	-0,042	-0,093
-547,569	-200,000	0,021	-0,076
-546,554	316,501	0,067	-0,092
-545,539	-118,960	-0,093	-0,012
-544,525	29,221	-0,093	0,057
-543,510	-200,000	-0,023	-0,137
-542,496	-200,000	0,016	-0,119
-541,481	550,178	-0,086	-0,149
-540,466	-116,316	0,066	-0,009
-539,452	13,539	-0,051	0,029
-538,437	-200,000	-0,002	0,039
-537,423	228,100	-0,039	-0,046
-536,408	-80,734	-0,048	0,011
-535,393	267,598	-0,060	-0,076
-534,379	-200,000	-0,005	-0,047
-533,364	46,665	0,061	0,041
-532,350	-7,825	0,150	0,073
-531,335	-113,331	0,094	-0,013
-530,321	698,090	0,078	-0,148
-529,306	800,000	-0,066	-0,164
-528,291	-200,000	0,005	0,019
-527,277	23,477	-0,111	0,066
-526,262	-93,625	0,113	-0,022
-525,248	800,000	-0,045	-0,093
-524,233	-43,585	0,117	0,042
-523,218	-200,000	-0,003	-0,043
-522,204	-200,000	-0,010	-0,213
-521,189	12,904	0,148	-0,082
-520,175	247,997	-0,068	0,084
-519,160	208,966	0,049	0,055
-518,145	-95,082	0,015	-0,003
-517,131	-76,144	0,030	-0,007
-516,116	-200,000	0,014	0,088
-515,102	-200,000	-0,005	0,186
-514,087	348,776	-0,093	-0,132
-513,072	-2,013	0,022	-0,011
-512,058	43,807	-0,087	-0,058
-511,043	171,048	-0,031	0,032
-510,029	-28,318	0,180	0,074
-509,014	-89,323	-0,075	-0,016
-507,999	-149,316	0,045	0,003
-506,985	39,505	0,106	0,068
-505,970	-84,986	-0,117	-0,026
-504,956	-200,000	-0,001	-0,031
-503,941	-80,853	0,202	-0,048
-502,926	668,764	-0,035	-0,065
-501,912	-128,228	-0,068	-0,007
-500,897	-89,208	0,095	0,020
-499,883	-68,728	-0,113	-0,031
-498,868	37,995	-0,078	0,050
-497,853	-61,553	0,099	-0,030
-496,839	-10,832	0,093	0,044
-495,824	-200,000	0,017	0,077
-494,810	-200,000	0,035	0,194
-493,795	589,513	-0,081	0,144
-492,781	-140,021	0,110	-0,008
-491,766	-175,264	0,060	0,001
-490,751	800,000	-0,055	0,155
-489,737	461,818	0,038	-0,061
-488,722	-200,000	0,048	0,161
-487,708	10,891	0,088	0,048
-486,693	800,000	0,021	0,043
-485,678	-200,000	-0,014	-0,076
-484,664	39,807	0,015	0,010
-483,649	-89,171	0,083	-0,017
-482,635	800,000	-0,021	-0,057
-481,620	800,000	0,027	0,058
-480,605	-56,184	0,165	0,053
-479,591	98,278	0,076	-0,063
-478,576	519,963	-0,015	-0,026
-477,562	-200,000	0,000	-0,001
-476,547	-200,000	0,007	-0,090
-475,532	55,931	-0,133	-0,092
-474,518	0,439	0,063	0,032
-473,503	-88,396	-0,040	0,009
-472,489	82,801	0,078	0,061
-471,474	351,483	-0,052	0,074
-470,459	113,808	-0,079	0,069
-469,445	395,412	-0,055	-0,082
-468,430	207,055	-0,028	0,031
-467,416	34,449	0,047	0,029
-466,401	730,170	-0,040	0,076
-465,386	-200,000	0,018	0,213
-464,372	-99,866	0,080	-0,014
-463,357	339,665	-0,061	-0,086
-462,343	-61,428	-0,076	0,023
-461,328	-71,858	-0,157	-0,042
-460,313	-135,678	-0,024	-0,002
-459,299	42,860	-0,038	0,025
-458,284	-200,000	-0,030	0,099
-457,270	358,133	-0,147	0,211
-456,255	800,000	-0,042	-0,101
-455,241	-31,081	-0,098	0,039
-454,226	84,226	-0,070	0,055
-453,211	-171,596	0,075	-0,002
-452,197	-92,338	0,067	-0,014
-451,182	-200,000	-0,008	0,067
-450,168	-200,000	-0,014	0,060
-449,153	318,977	0,080	-0,110
-448,138	-34,666	-0,198	-0,077
-447,124	280,440	0,088	0,113
-446,109	-60,917	0,101	0,031
-445,095	306,195	-0,013	-0,017
-444,080	-138,314	0,046	-0,004
-443,065	-90,642	-0,142	0,029
-442,051	-200,000	-0,025	0,103
-441,036	800,000	0,023	0,058
-440,022	800,000	-0,020	0,047
-439,007	800,000	0,025	0,056
-437,992	14,901	0,067	-0,037
-436,978	389,502	0,071	-0,105
-435,963	59,722	0,024	-0,017
-434,949	239,089	0,014	0,017
-433,934	-200,000	-0,002	0,082
-432,919	89,076	0,049	0,039
-431,905	450,966	0,022	0,035
-430,890	-200,000	0,029	0,107
-429,876	-111,723	-0,042	-0,006
-428,861	74,694	0,110	0,083
-427,846	224,008	0,060	0,070
-426,832	-91,029	-0,087	0,018
-425,817	800,000	-0,015	0,039
-424,803	-200,000	-0,005	0,030
-423,788	103,458	-0,065	0,054
-422,773	-200,000	0,005	0,099
-421,759	701,209	-0,023	0,043
-420,744	-200,000	0,017	0,109
-419,730	46,266	0,079	-0,053
-418,715	-99,065	-0,129	-0,023
-417,701	155,884	-0,090	0,089
-416,686	-200,000	0,011	-0,109
-415,671	-200,000	0,016	0,144
-414,657	19,530	-0,174	0,100
-413,642	-0,079	0,054	0,027
-412,628	-200,000	0,014	0,071
-411,613	23,093	-0,093	0,055
-410,598	-110,962	0,068	-0,010
-409,584	257,880	0,038	0,046
-408,569	-146,749	-0,122	0,007
-407,555	-200,000	-0,004	0,070
-406,540	501,201	0,056	0,093
-405,525	800,000	0,011	0,025
-404,511	-200,000	-0,001	-0,100
-403,496	-168,316	-0,065	-0,002
-402,482	800,000	-0,019	0,060
-401,467	665,149	0,045	-0,084
-400,452	777,056	-0,062	0,121
-399,438	-95,691	-0,163	0,031
-398,423	87,877	0,077	-0,061
-397,409	-200,000	0,002	0,087
-396,394	-81,530	-0,113	-0,026
-395,379	-200,000	0,027	-0,116
-394,365	-59,898	0,075	-0,023
-393,350	143,597	-0,098	0,094
-392,336	-200,000	-0,014	-0,054
-391,321	60,748	-0,063	-0,045
-390,306	-109,194	0,195	-0,029
-389,292	693,015	0,079	-0,149
-388,277	800,000	-0,036	-0,094
-387,263	161,992	0,229	0,230
-386,248	249,063	-0,073	0,089
-385,233	-88,850	-0,028	-0,006
-384,219	-163,217	0,054	0,002
-383,204	800,000	-0,089	-0,225
-382,190	-200,000	-0,026	-0,127
-381,175	134,920	0,062	0,058
-380,160	-200,000	0,007	-0,134
-379,146	-98,021	0,075	-0,014
-378,131	180,807	0,080	0,084
-377,117	-200,000	0,006	0,021
-376,102	-80,233	-0,098	-0,023
-375,088	800,000	-0,005	-0,013
-374,073	113,464	-0,056	0,048
-373,058	509,889	-0,050	0,083
-372,044	-200,000	0,002	0,120
-371,029	-200,000	0,016	0,086
-370,015	125,590	-0,087	-0,078
-369,000	800,000	-0,016	-0,043
-367,985	-7,019	0,073	0,035
-366,971	-86,778	-0,098	-0,021
-365,956	800,000	-0,025	0,062
-364,942	181,611	0,087	0,092
-363,927	800,000	0,082	0,172
-362,912	16,862	-0,086	0,049
-361,898	149,151	0,078	-0,076
-360,883	-200,000	-0,011	0,065
-359,869	-73,886	-0,126	0,033
-358,854	344,035	-0,079	-0,112
-357,839	-200,000	0,026	-0,111
-356,825	-200,000	0,009	-0,119
-355,810	-200,000	-0,024	-0,143
-354,796	-83,385	0,189	0,043
-353,781	-46,604	-0,123	0,043
-352,766	-200,000	0,040	-0,138
-351,752	-200,000	0,006	0,033
-350,737	472,120	-0,027	0,043
-349,723	-200,000	0,001	-0,146
-348,708	-178,768	0,091	-0,001
-347,693	54,555	0,060	-0,042
-346,679	-130,925	-0,078	-0,007
-345,664	383,306	-0,094	0,139
-344,650	-58,735	-0,067	0,021
-343,635	800,000	0,033	0,076
-342,620	-90,154	-0,096	-0,020
-341,606	-200,000	0,020	-0,099
-340,591	4,526	-0,076	0,040
-339,577	69,784	-0,046	0,034
-338,562	800,000	0,067	-0,157
-337,548	371,795	-0,045	-0,066
-336,533	800,000	0,016	-0,048
-335,518	-30,712	0,151	-0,061
-334,504	10,024	-0,081	0,044
-333,489	-200,000	0,002	0,111
-332,475	445,340	0,034	0,054
-331,460	-93,767	0,140	-0,027
-330,445	648,332	-0,029	-0,053
-329,431	-162,478	0,181	-0,006
-328,416	-35,497	0,081	-0,031
-327,402	-106,087	-0,096	0,015
-326,387	97,472	-0,098	-0,081
-325,372	-151,632	-0,126	0,007
-324,358	800,000	0,058	0,115
-323,343	30,768	-0,057	-0,035
-322,329	-27,584	0,030	0,013
-321,314	503,664	0,060	0,099
-320,299	-200,000	0,044	0,000
-319,285	-69,412	0,133	0,036
-318,270	-200,000	-0,017	-0,154
-317,256	-200,000	0,013	-0,086
-316,241	-200,000	0,003	-0,092
-315,226	800,000	-0,047	-0,137
-314,212	140,492	-0,057	-0,054
-313,197	-200,000	0,018	0,112
-312,183	11,911	-0,125	-0,069
-311,168	475,591	-0,080	-0,130
-310,153	-200,000	-0,014	-0,061
-309,139	510,347	-0,060	0,099
-308,124	-200,000	0,021	-0,101
-307,110	633,287	-0,098	-0,179
-306,095	39,000	0,066	0,042
-305,080	-127,502	-0,044	0,005
-304,066	349,343	-0,036	0,051
-303,051	-71,652	0,112	0,030
-302,037	-131,361	-0,133	0,012
-301,022	-200,000	-0,013	0,119
-300,008	-200,000	0,032	0,112
-298,993	800,000	-0,039	0,081
-297,978	-123,581	0,035	-0,004
-296,964	-200,000	0,014	-0,072
-295,949	717,278	-0,063	-0,121
-294,935	145,832	-0,064	0,062
-293,920	84,559	0,106	-0,083
-292,905	-200,000	-0,002	0,013
-291,891	800,000	0,035	-0,099
-290,876	7,103	0,025	0,013
-289,862	262,925	-0,032	0,040
-288,847	-110,434	-0,096	-0,014
-287,832	126,432	-0,051	0,046
-286,818	-129,117	-0,087	0,009
-285,803	-15,222	0,110	0,050
-284,789	-200,000	0,040	0,234
-283,774	-200,000	-0,006	0,052
-282,759	147,032	-0,035	-0,033
-281,745	-200,000	-0,002	-0,042
-280,730	-200,000	0,074	-0,000
-279,716	-101,663	0,105	-0,018
-278,701	-42,289	-0,056	0,020
-277,686	800,000	0,010	-0,028
-276,672	-68,298	0,070	0,019
-275,657	75,633	0,079	0,060
-274,643	-109,800	-0,033	-0,005
-273,628	169,948	-0,052	-0,054
-272,613	49,216	-0,047	-0,031
-271,599	-132,955	0,039	-0,003
-270,584	-200,000	0,045	0,181
-269,570	34,924	-0,069	-0,043
-268,555	9,193	-0,062	-0,034
-267,540	111,045	-0,052	-0,045
-266,526	800,000	-0,010	0,029
-265,511	287,042	0,070	-0,090
-264,497	-200,000	-0,023	0,135
-263,482	15,875	0,050	0,028
-262,467	35,974	0,161	0,101
-261,453	419,181	0,103	0,158
-260,438	800,000	-0,060	-0,121
-259,424	237,154	0,025	-0,030
-258,409	241,271	-0,068	0,081
-257,395	221,971	-0,044	-0,051
-256,380	-133,134	0,138	-0,012
-255,365	-142,086	0,100	0,007
-254,351	-13,473	-0,114	0,052
-253,336	800,000	-0,034	-0,082
-252,322	800,000	-0,061	-0,150
-251,307	-71,064	0,070	0,019
-250,292	-139,460	-0,118	-0,009
-249,278	370,872	0,016	0,023
-248,263	-15,515	0,140	-0,064
-247,249	-200,000	-0,001	0,085
-246,234	-96,785	0,033	-0,006
-245,219	257,787	-0,139	-0,170
-244,205	672,001	-0,111	-0,205
-243,190	-53,327	-0,099	0,032
-242,176	-123,336	0,109	-0,012
-241,161	800,000	-0,040	0,117
-240,146	-166,082	0,075	0,002
-239,132	-49,156	-0,024	0,008
-238,117	-68,167	-0,090	-0,025
-237,103	363,196	0,044	0,064
-236,088	-34,196	0,137	0,053
-235,073	106,577	0,082	0,070
-234,059	169,968	0,112	0,114
-233,044	-67,574	0,024	0,007
-232,030	800,000	-0,031	-0,079
-231,015	-3,466	0,084	-0,042
-230,000	-9,218	-0,056	-0,027
-228,986	286,054	-0,059	0,077
-227,971	-200,000	-0,024	0,111
-226,957	-155,653	-0,037	-0,002
-225,942	-200,000	-0,007	-0,111
-224,927	800,000	0,050	-0,154
-223,913	800,000	-0,051	0,114
-222,898	14,286	0,049	-0,027
-221,884	-111,413	-0,117	0,017
-220,869	4,489	-0,051	-0,027
-219,855	-73,300	0,186	-0,048
-218,840	800,000	-0,029	-0,070
-217,825	800,000	-0,080	0,164
-216,811	-200,000	0,025	-0,104
-215,796	-76,530	-0,152	-0,038
-214,782	55,836	-0,096	0,066
-213,767	-200,000	-0,001	-0,009
-212,752	22,919	0,062	-0,036
-211,738	411,127	0,066	0,100
-210,723	17,377	-0,110	0,062
-209,709	147,125	-0,079	-0,076
-208,694	-200,000	-0,034	-0,272
-207,679	53,773	-0,112	0,076
-206,665	104,406	0,015	0,012
-205,650	-121,987	-0,061	0,007
-204,636	378,064	0,012	-0,018
-203,621	-98,527	-0,092	-0,017
-202,606	98,330	0,037	-0,031
-201,592	-200,000	-0,004	-0,042
-200,577	196,944	-0,132	0,143
-199,563	-200,000	0,020	-0,069
-198,548	-116,872	0,088	0,011
-197,533	-42,590	0,242	0,087
-196,519	-200,000	-0,028	-0,088
-195,504	229,009	0,042	0,048
-194,490	71,639	0,065	0,048
-193,475	175,263	-0,039	-0,040
-192,460	-170,041	0,102	-0,003
-191,446	-124,737	-0,109	-0,012
-190,431	204,344	0,021	0,024
-189,417	-83,315	0,090	0,020
-188,402	82,261	0,056	-0,043
-187,387	-200,000	-0,020	-0,108
-186,373	-200,000	0,016	-0,111
-185,358	-200,000	0,020	-0,089
-184,344	50,718	0,040	-0,027
-183,329	-40,351	0,270	0,099
-182,315	-35,681	-0,086	-0,033
-181,300	297,951	0,025	0,033
-180,285	-200,000	0,003	-0,093
-179,271	800,000	-0,045	-0,112
-178,256	-11,189	0,066	-0,031
-177,242	-158,649	0,011	-0,000
-176,227	-21,039	-0,087	0,038
-175,212	-146,042	0,138	0,009
-174,198	-200,000	-0,026	0,112
-173,183	532,857	-0,024	0,040
-172,169	527,729	-0,040	-0,068
-171,154	710,945	-0,027	-0,051
-170,139	-200,000	0,006	-0,055
-169,125	-28,217	0,148	0,060
-168,110	405,578	0,044	0,066
-167,096	247,583	-0,077	-0,092
-166,081	-105,741	-0,077	0,012
-165,066	-144,083	-0,156	0,010
-164,052	800,000	0,052	0,163
-163,037	-200,000	0,004	0,063
-162,023	-96,785	-0,041	0,008
-161,008	-123,454	-0,022	0,002
-159,993	-90,822	0,131	-0,026
-158,979	-200,000	-0,027	0,123
-157,964	-78,906	-0,024	0,006
-156,950	28,751	0,026	0,015
-155,935	-44,256	0,059	-0,021
-154,920	-38,552	-0,011	0,004
-153,906	95,648	0,062	0,050
-152,891	72,969	0,052	-0,039
-151,877	-160,400	0,103	0,004
-150,862	-87,811	0,110	-0,023
-149,847	-1,712	0,113	-0,056
-148,833	-140,660	-0,078	-0,006
-147,818	800,000	0,083	0,239
-146,804	-200,000	0,005	0,066
-145,789	-200,000	-0,038	0,143
-144,775	-100,760	-0,073	0,013
-143,760	88,793	-0,150	0,119
-142,745	-200,000	-0,013	-0,066
-141,731	-129,502	-0,109	-0,011
-140,716	-200,000	0,000	-0,060
-139,702	-154,785	-0,046	0,002
-138,687	455,903	0,016	0,025
-137,672	164,254	-0,036	-0,036
-136,658	-118,135	-0,029	0,004
-135,643	-134,972	0,103	-0,009
-134,629	-56,724	0,049	0,015
-133,614	-45,719	-0,057	0,020
-132,599	569,229	-0,085	0,147
-131,585	-200,000	-0,006	-0,059
-130,570	743,379	0,113	-0,216
-129,556	108,651	-0,078	0,066
-128,541	-50,221	-0,114	0,038
-127,526	351,423	-0,053	-0,075
-126,512	106,663	0,129	0,108
-125,497	-200,000	-0,008	-0,082
-124,483	314,096	-0,039	0,052
-123,468	-200,000	0,029	-0,120
-122,453	800,000	0,022	0,059
-121,439	322,069	0,014	-0,020
-120,424	-115,803	-0,063	-0,008
-119,410	-200,000	-0,008	-0,098
-118,395	-46,874	0,067	-0,023
-117,380	-33,864	-0,103	0,040
-116,366	-200,000	0,032	0,110
-115,351	-9,083	0,014	-0,007
-114,337	532,282	-0,036	0,061
-113,322	800,000	0,025	0,070
-112,307	46,402	-0,104	0,069
-111,293	-106,447	0,090	-0,014
-110,278	113,157	-0,184	0,158
-109,264	-200,000	0,005	-0,048
-108,249	800,000	0,017	-0,045
-107,234	575,702	-0,052	-0,090
-106,220	800,000	-0,015	-0,043
-105,205	662,803	0,016	-0,030
-104,191	-5,671	0,068	-0,033
-103,176	120,611	0,093	-0,082
-102,162	800,000	0,038	0,112
-101,147	800,000	-0,030	-0,064
-100,132	-200,000	-0,028	-0,105
-99,118	210,700	-0,007	-0,008
-98,103	210,768	0,052	-0,058
-97,089	-200,000	0,028	0,119
-96,074	173,685	-0,013	0,014
-95,059	385,387	0,048	0,070
-94,045	-76,520	0,075	0,018
-93,030	-200,000	-0,005	0,025
-92,016	-59,741	-0,123	-0,037
-91,001	512,519	0,074	0,122
-89,986	-200,000	-0,042	0,150
-88,972	-171,514	0,162	0,004
-87,957	800,000	0,021	0,055
-86,943	-113,597	0,052	0,007
-85,928	187,978	-0,061	-0,064
-84,913	800,000	0,030	0,075
-83,899	-200,000	0,005	0,051
-82,884	159,820	-0,014	-0,014
-81,870	-102,871	0,140	0,023
-80,855	-44,799	0,179	0,063
-79,840	226,587	0,049	0,056
-78,826	800,000	-0,059	-0,166
-77,811	-95,052	-0,029	0,005
-76,797	-85,288	0,113	-0,025
-75,782	-200,000	-0,009	0,090
-74,767	-55,284	-0,053	0,017
-73,753	-200,000	0,020	-0,086
-72,738	-200,000	-0,030	-0,162
-71,724	-22,688	-0,078	-0,033
-70,709	-159,561	-0,024	-0,001
-69,694	800,000	-0,035	-0,093
-68,680	-30,930	0,044	0,018
-67,665	64,023	0,086	-0,061
-66,651	-29,574	-0,057	0,023
-65,636	-73,544	0,085	0,022
-64,622	108,250	0,106	0,090
-63,607	800,000	-0,026	-0,061
-62,592	-200,000	-0,002	-0,007
-61,578	-96,799	-0,162	-0,030
-60,563	-133,876	0,206	-0,018
-59,549	-38,129	0,059	0,022
-58,534	-35,225	-1,726	-0,662
-57,519	406,920	-1,356	-2,033
-56,505	-200,000	-0,431	-4,495
-55,490	200,588	1,075	1,171
-54,476	800,000	4,930	10,933
-53,461	-200,000	18,918	312,341
-52,446	-200,000	738,963	2321,107
-51,432	575,360	1654,428	2869,629
-50,417	79,049	1670,367	1264,519
-49,403	21,749	1543,200	886,980
-48,388	15,630	1465,731	812,742
-47,373	17,846	1455,818	817,906
-46,359	16,800	1445,730	807,198
-45,344	13,868	1441,179	790,598
-44,330	13,812	1439,219	789,224
-43,315	13,770	1437,507	788,051
-42,300	13,797	1436,012	787,331
-41,286	13,818	1434,747	786,704
-40,271	13,770	1433,664	785,853
-39,257	13,791	1432,290	785,165
-38,242	13,817	1431,039	784,572
-37,227	13,816	1429,942	783,934
-36,213	13,829	1428,576	783,220
-35,198	13,852	1427,303	782,599
-34,184	13,871	1426,314	782,116
-33,169	13,779	1425,158	781,013
-32,154	13,888	1423,855	780,784
-31,140	13,845	1422,470	779,792
-30,125	13,827	1421,643	779,221
-29,111	13,845	1420,473	778,635
-28,096	13,839	1419,171	777,862
-27,082	13,768	1418,310	777,025
-26,067	13,755	1417,131	776,288
-25,052	13,740	1415,967	775,547
-24,038	13,714	1415,113	774,925
-23,023	13,738	1414,059	774,430
-22,009	13,774	1412,975	773,974
-20,994	13,773	1412,121	773,471
-19,979	13,716	1411,402	772,781
-18,965	13,648	1410,384	771,872
-17,950	13,670	1409,402	771,410
-16,936	13,729	1408,475	771,146
-15,921	13,681	1407,403	770,307
-14,906	13,676	1406,392	769,698
-13,892	13,719	1405,343	769,296
-12,877	13,648	1404,708	768,585
-11,863	13,667	1403,749	768,116
-10,848	13,699	1402,822	767,728
-9,833	13,615	1402,131	766,928
-8,819	13,602	1400,984	766,210
-7,804	13,598	1400,110	765,684
-6,790	13,616	1399,217	765,251
-5,775	13,573	1398,070	764,393
-4,760	13,540	1397,201	763,733
-3,746	13,534	1396,555	763,322
-2,731	13,561	1395,602	762,897
-1,717	13,546	1394,720	762,316
-0,702	13,544	1392,972	761,320
0,313	17,306	1310,562	733,725
1,327	33,425	704,822	431,876
2,342	51,151	123,770	82,891
3,356	4,282	16,693	8,619
4,371	2,305	3,175	1,618
5,386	-64,064	0,522	0,150
6,400	102,246	0,209	0,172
7,415	-38,565	-0,252	-0,094
8,429	158,894	-0,319	-0,313
9,444	58,409	-0,292	-0,202
10,459	-30,743	-0,157	-0,062
11,473	66,897	-0,273	-0,196
12,488	-142,902	-0,330	0,022
13,502	82,974	-0,343	-0,264
14,517	35,233	-0,285	-0,176
15,531	-68,730	-0,334	-0,091
16,546	116,243	-0,398	-0,345
17,561	659,682	-0,178	-0,325
18,575	74,982	-0,227	-0,168
19,590	138,904	-0,244	-0,227
20,604	-109,807	-0,272	-0,040
21,619	12,900	-0,522	-0,284
22,634	79,014	-0,474	-0,358
23,648	147,618	-0,363	-0,346
24,663	277,018	-0,344	-0,432
25,677	-23,624	-0,485	-0,204
26,692	5,841	-0,375	-0,195
27,707	-26,296	-0,339	-0,140
28,721	163,319	-0,338	-0,335
29,736	47,619	-0,380	-0,250
30,750	192,942	-0,359	-0,383
31,765	80,351	-0,424	-0,322
32,780	140,914	-0,268	-0,250
33,794	-41,916	-0,493	-0,177
34,809	38,063	-0,326	-0,204
35,823	1,060	-0,415	-0,209
36,838	85,772	-0,332	-0,257
37,853	10,533	-0,475	-0,254
38,867	58,739	-0,498	-0,344
39,882	98,200	-0,336	-0,273
40,896	118,690	-0,331	-0,288
41,911	-23,647	-0,304	-0,128
42,926	68,411	-0,449	-0,324
43,940	-54,161	-0,312	-0,099
44,955	157,289	-0,338	-0,329
45,969	120,399	-0,339	-0,297
46,984	6,502	-0,467	-0,244
47,999	317,324	-0,200	-0,267
49,013	35,571	-0,397	-0,245
50,028	-3,163	-0,238	-0,117
51,042	58,651	-0,379	-0,261
52,057	-17,728	-0,311	-0,137
53,071	-26,913	-0,299	-0,122
54,086	20,439	-0,293	-0,166
55,101	12,559	-0,361	-0,196
56,115	-7,544	-0,366	-0,174
57,130	-74,837	-0,474	-0,119
58,144	203,318	-0,243	-0,264
59,159	-11,805	-0,462	-0,212
60,174	-15,861	-0,451	-0,201
61,188	97,595	-0,380	-0,307
62,203	128,426	-0,325	-0,291
63,217	55,289	-0,266	-0,181
64,232	-58,281	-0,422	-0,128
65,247	84,242	-0,340	-0,261
66,261	-29,958	-0,443	-0,177
67,276	164,796	-0,323	-0,321
68,290	107,809	-0,328	-0,275
69,305	0,419	-0,401	-0,201
70,320	-9,962	-0,235	-0,109
71,334	223,527	-0,203	-0,231
72,349	-21,163	-0,408	-0,175
73,363	36,361	-0,335	-0,207
74,378	-25,618	-0,290	-0,120
75,393	75,936	-0,372	-0,276
76,407	-13,433	-0,266	-0,121
77,422	83,368	-0,303	-0,232
78,436	4,797	-0,380	-0,196
79,451	166,597	-0,199	-0,199
80,466	-69,437	-0,349	-0,093
81,480	20,505	-0,307	-0,174
82,495	-68,780	-0,337	-0,091
83,509	22,289	-0,345	-0,198
84,524	2,236	-0,234	-0,118
85,539	-44,751	-0,268	-0,093
86,553	-4,753	-0,238	-0,115
87,568	-43,665	-0,351	-0,124
88,582	69,392	-0,402	-0,290
89,597	-23,667	-0,433	-0,181
90,611	-2,241	-0,201	-0,099
91,626	-41,489	-0,250	-0,090
92,641	13,208	-0,267	-0,145
93,655	331,249	-0,182	-0,247
94,670	173,217	-0,221	-0,224
95,684	71,402	-0,366	-0,266
96,699	99,972	-0,267	-0,217
97,714	104,346	-0,249	-0,206
98,728	187,180	-0,230	-0,240
99,743	-44,097	-0,277	-0,097
100,757	58,708	-0,240	-0,165
101,772	5,532	-0,355	-0,183
102,787	448,037	-0,185	-0,287
103,801	264,927	-0,170	-0,208
104,816	-21,213	-0,233	-0,100
105,830	28,976	-0,235	-0,140
106,845	30,359	-0,327	-0,195
107,860	133,718	-0,242	-0,219
108,874	113,703	-0,157	-0,133
109,889	3,531	-0,271	-0,138
110,903	96,460	-0,358	-0,287
111,918	216,583	-0,269	-0,300
112,933	75,210	-0,257	-0,189
113,947	104,866	-0,208	-0,172
114,962	-3,852	-0,270	-0,131
115,976	250,408	-0,298	-0,355
116,991	-0,652	-0,386	-0,191
118,006	50,999	-0,232	-0,154
119,020	252,965	-0,226	-0,270
120,035	128,346	-0,288	-0,257
121,049	201,861	-0,207	-0,223
122,064	-75,814	-0,251	-0,062
123,079	-40,926	-0,221	-0,079
124,093	-48,395	-0,272	-0,091
125,108	149,530	-0,280	-0,266
126,122	536,435	-0,151	-0,251
127,137	-21,617	-0,205	-0,087
128,151	83,120	-0,175	-0,133
129,166	-196,766	-0,246	-0,001
130,181	255,596	-0,153	-0,183
131,195	147,311	-0,237	-0,223
132,210	90,524	-0,202	-0,158
133,224	90,294	-0,269	-0,210
134,239	-46,338	-0,254	-0,087
135,254	287,738	-0,119	-0,151
136,268	-26,313	-0,175	-0,071
137,283	24,680	-0,274	-0,158
138,297	100,873	-0,309	-0,251
139,312	215,681	-0,282	-0,313
140,327	-120,427	-0,249	-0,029
141,341	18,081	-0,245	-0,136
142,356	365,633	-0,221	-0,312
143,370	11,831	-0,150	-0,080
144,385	129,152	-0,276	-0,246
145,400	113,668	-0,285	-0,242
146,414	96,349	-0,224	-0,179
147,429	277,301	-0,235	-0,292
148,443	-23,918	-0,284	-0,118
149,458	74,334	-0,224	-0,164
150,473	-21,710	-0,305	-0,129
151,487	-23,215	-0,282	-0,118
152,502	-13,814	-0,366	-0,164
153,516	245,073	-0,237	-0,278
154,531	239,482	-0,253	-0,294
155,546	222,624	-0,224	-0,252
156,560	207,092	-0,182	-0,199
157,575	800,000	-0,048	-0,145
158,589	155,758	-0,250	-0,241
159,604	-83,582	-0,311	-0,069
160,619	15,367	-0,201	-0,110
161,633	19,215	-0,241	-0,135
162,648	800,000	-0,123	-0,252
163,662	33,816	-0,222	-0,135
164,677	487,721	-0,146	-0,234
165,692	32,433	-0,210	-0,126
166,706	-50,732	-0,280	-0,091
167,721	312,078	-0,134	-0,175
168,735	-23,635	-0,277	-0,115
169,750	118,849	-0,253	-0,218
170,764	57,290	-0,179	-0,121
171,779	-85,512	-0,284	0,061
172,794	172,609	-0,200	-0,201
173,808	434,898	-0,186	-0,283
174,823	-84,412	-0,266	-0,058
175,837	-70,049	-0,404	-0,106
176,852	70,472	-0,358	-0,258
177,867	-116,902	-0,146	-0,018
178,881	-22,608	-0,190	-0,080
179,896	4,799	-0,171	-0,087
180,910	33,045	-0,376	-0,226
181,925	185,360	-0,265	-0,274
182,940	31,188	-0,292	-0,174
183,954	-200,000	-0,051	-0,219
184,969	-31,696	-0,156	-0,061
185,983	-21,656	-0,243	-0,102
186,998	334,041	-0,165	-0,223
188,013	100,342	-0,253	-0,204
189,027	290,317	-0,156	-0,197
190,042	144,430	-0,220	-0,205
191,056	136,958	-0,218	-0,199
192,071	-200,000	-0,039	-0,275
193,086	6,952	-0,136	-0,070
194,100	-123,122	-0,261	-0,029
195,115	80,523	-0,199	-0,149
196,129	721,507	-0,123	-0,228
197,144	332,612	-0,219	-0,294
198,159	205,242	-0,194	-0,210
199,173	59,367	-0,222	-0,152
200,188	-27,362	-0,190	-0,076
201,202	53,307	-0,122	-0,081
202,217	209,834	-0,142	-0,155
203,232	786,096	-0,129	-0,248
204,246	118,382	-0,104	-0,089
205,261	-112,456	-0,135	-0,019
206,275	-116,189	-0,180	0,023
207,290	159,169	-0,123	-0,119
208,304	39,175	-0,128	-0,079
209,319	-98,727	-0,131	0,023
210,334	356,561	-0,108	-0,150
211,348	214,817	-0,308	-0,340
212,363	800,000	-0,097	-0,247
213,377	28,220	-0,264	-0,154
214,392	17,833	-0,153	-0,084
215,407	-27,792	-0,184	-0,074
216,421	-97,334	-0,201	-0,036
217,436	-16,088	-0,210	-0,092
218,450	102,596	-0,215	-0,175
219,465	490,844	-0,156	-0,248
220,480	298,932	-0,086	-0,110
221,494	32,650	-0,253	-0,151
222,509	-93,094	-0,115	0,022
223,523	-69,433	-0,161	0,042
224,538	10,798	-0,163	-0,086
225,553	342,947	-0,100	-0,136
226,567	118,139	-0,248	-0,212
227,582	312,137	-0,155	-0,203
228,596	171,653	-0,187	-0,186
229,611	25,740	-0,253	-0,146
230,626	-33,118	-0,197	-0,075
231,640	-4,649	-0,182	-0,087
232,655	-19,899	-0,232	0,099
233,669	150,753	-0,175	-0,165
234,684	-106,374	-0,274	-0,042
235,699	-108,991	-0,288	-0,042
236,713	209,797	-0,086	-0,094
237,728	800,000	-0,127	-0,275
238,742	88,803	-0,117	-0,090
239,757	250,441	-0,227	-0,267
240,772	-2,597	-0,173	-0,083
241,786	105,569	-0,226	-0,185
242,801	-42,435	-0,244	-0,086
243,815	-133,097	-0,183	0,016
244,830	258,048	-0,125	-0,149
245,844	7,733	-0,180	-0,093
246,859	-5,764	-0,273	-0,129
247,874	253,858	-0,177	-0,209
248,888	264,732	-0,186	-0,224
249,903	217,876	-0,106	-0,118
250,917	68,587	-0,171	-0,121
251,932	-171,062	-0,138	-0,003
252,947	-200,000	-0,001	-0,151
253,961	-70,880	-0,082	-0,021
254,976	-1,007	-0,221	-0,108
255,990	346,320	-0,049	-0,067
257,005	-163,181	-0,133	-0,004
258,020	242,576	-0,160	-0,185
259,034	138,030	-0,084	-0,076
260,049	247,115	-0,196	-0,229
261,063	-91,597	-0,333	-0,065
262,078	157,335	-0,145	-0,139
263,093	3,779	-0,175	-0,088
264,107	-56,169	-0,246	-0,075
265,122	-77,449	-0,207	-0,049
266,136	-78,447	-0,094	0,022
267,151	66,334	-0,230	-0,161
268,166	-33,305	-0,229	-0,087
269,180	3,127	-0,123	-0,061
270,195	57,207	-0,139	-0,093
271,209	-14,074	-0,218	-0,097
272,224	244,846	-0,102	-0,118
273,239	70,240	-0,111	0,079
274,253	-200,000	-0,062	-0,224
275,268	264,836	-0,131	-0,158
276,282	800,000	-0,113	-0,234
277,297	16,519	-0,251	-0,137
278,312	46,681	-0,202	-0,129
279,326	-200,000	-0,024	-0,124
280,341	-200,000	-0,031	-0,130
281,355	-191,157	-0,066	-0,000
282,370	131,165	-0,237	-0,210
283,384	205,679	-0,187	-0,201
284,399	81,778	-0,144	-0,108
285,414	445,989	-0,103	-0,157
286,428	108,995	-0,097	-0,080
287,443	-77,019	-0,132	0,032
288,457	-27,681	-0,191	-0,076
289,472	86,174	-0,118	-0,089
290,487	743,850	-0,118	-0,219
291,501	-77,563	-0,190	-0,045
292,516	-24,378	-0,140	-0,057
293,530	184,476	-0,104	-0,106
294,545	76,032	-0,149	-0,108
295,560	-78,496	-0,242	-0,057
296,574	57,211	-0,135	-0,090
297,589	-12,440	-0,174	-0,078
298,603	473,377	-0,135	-0,210
299,618	173,941	-0,137	-0,136
300,633	-57,725	-0,299	0,090
301,647	193,084	-0,075	0,078
302,662	800,000	-0,052	-0,101
303,676	156,803	-0,164	-0,156
304,691	669,130	-0,104	-0,186
305,706	235,997	-0,110	-0,125
306,720	-6,930	-0,148	-0,069
307,735	-200,000	-0,018	-0,162
308,749	-3,091	-0,162	-0,077
309,764	-133,248	-0,122	-0,010
310,779	-200,000	-0,039	-0,135
311,793	391,112	-0,081	-0,116
312,808	105,525	-0,155	-0,126
313,822	-58,287	-0,192	-0,057
314,837	800,000	-0,065	-0,170
315,852	158,172	-0,120	-0,115
316,866	463,574	-0,113	-0,175
317,881	800,000	-0,075	-0,221
318,895	40,948	-0,188	-0,117
319,910	567,388	-0,104	-0,174
320,925	78,456	-0,182	-0,133
321,939	-39,989	-0,149	-0,053
322,954	403,354	-0,118	-0,171
323,968	257,190	-0,074	-0,088
324,983	-200,000	-0,044	-0,143
325,997	171,419	-0,167	-0,165
327,012	29,469	-0,248	-0,145
328,027	316,954	-0,122	-0,158
329,041	-200,000	-0,008	-0,086
330,056	47,503	-0,180	-0,115
331,070	-68,185	-0,051	-0,014
332,085	-182,967	-0,074	-0,001
333,100	-83,759	-0,129	0,028
334,114	-115,139	-0,181	0,023
335,129	-36,136	-0,112	-0,041
336,143	621,155	-0,069	-0,119
337,158	-169,098	-0,218	0,005
338,173	-200,000	-0,197	0,000
339,187	-62,170	-0,129	-0,037
340,202	191,013	-0,106	-0,109
341,216	800,000	-0,056	-0,133
342,231	-92,072	-0,120	0,023
343,246	241,257	-0,099	-0,113
344,260	-200,000	-0,016	0,119
345,275	452,979	-0,117	-0,179
346,289	-40,593	-0,184	-0,065
347,304	-200,000	-0,032	-0,101
348,319	-39,536	-0,110	-0,039
349,333	36,529	-0,200	-0,121
350,348	78,396	-0,191	-0,140
351,362	800,000	-0,037	0,072
352,377	507,837	-0,087	-0,139
353,392	-122,704	-0,099	0,011
354,406	38,026	-0,081	0,049
355,421	208,876	1318,729	1416,787
356,435	160,741	1479,939	1417,289
