DTS Sentinel unit serial number:	SN410029Multiplexer serial number:	ORYXHardware model number:	OX2-SRSoftware version number:	ORYX F/W v4,00 Oryx Data Collector v3.7.2.0data status	okinstallation	B3 Nyhavnadifferential loss correction	single-endedforward channel	channel 1reverse channel	N/Adate	2023/12/02time	02:52:30forward acquisition time	300,00reverse acquisition time	0,00gamma	499,1914k internal	0,3194k external	0,3194temperature offset calibration	1,0000default loss term (dB/km)	0,3820temperature slope calibration	1,0000multiplexer offset coefficient	1,0000multiplexer slope coefficient	1,0000fibre end	0,00T internal ref (°C)	16,66T ext. ref 1 (°C)	1,80T ext. ref 2 (°C)	1,79length (m)	temperature (°C)	Stokes	anti-Stokes-744,400	1,942	-0,224	-0,117
-743,385	-200,000	0,033	0,310
-742,371	800,000	-0,132	-0,280
-741,356	-200,000	0,055	0,445
-740,342	85,051	-0,195	-0,156
-739,327	-200,000	-0,044	0,405
-738,312	371,655	-0,243	-0,361
-737,298	-200,000	-0,070	0,247
-736,283	800,000	-0,125	-0,324
-735,269	-200,000	0,050	0,346
-734,254	85,932	-0,231	-0,185
-733,239	-21,146	-0,239	0,106
-732,225	348,534	-0,180	-0,259
-731,210	128,231	0,049	0,045
-730,196	40,047	-0,099	-0,065
-729,181	287,841	-0,054	-0,071
-728,167	-43,968	0,137	-0,050
-727,152	-31,688	0,140	-0,057
-726,137	49,708	-0,164	-0,112
-725,123	129,783	0,115	-0,107
-724,108	-137,473	-0,187	0,015
-723,094	18,180	-0,014	-0,008
-722,079	9,888	-0,224	-0,124
-721,064	-68,892	0,090	-0,025
-720,050	-176,815	0,074	0,001
-719,035	241,231	0,033	-0,040
-718,021	-95,130	-0,087	-0,017
-717,006	-200,000	0,004	0,029
-715,991	367,194	-0,056	-0,083
-714,977	25,669	-0,119	-0,072
-713,962	-200,000	0,006	-0,047
-712,948	-149,742	0,133	0,007
-711,933	-200,000	0,011	0,084
-710,918	800,000	-0,059	-0,125
-709,904	4,043	-0,035	0,019
-708,889	686,939	-0,049	-0,094
-707,875	204,850	-0,037	-0,042
-706,860	-144,814	-0,135	0,009
-705,845	-200,000	-0,009	-0,037
-704,831	-200,000	0,006	0,093
-703,816	800,000	-0,046	-0,117
-702,802	-200,000	0,032	-0,146
-701,787	800,000	-0,025	-0,061
-700,772	800,000	-0,040	-0,084
-699,758	-30,238	-0,083	0,034
-698,743	-82,435	0,154	0,036
-697,729	406,306	0,078	0,121
-696,714	-79,265	-0,147	0,036
-695,699	74,533	-0,101	-0,077
-694,685	339,440	-0,080	-0,114
-693,670	-200,000	-0,011	-0,065
-692,656	28,225	-0,045	-0,027
-691,641	416,162	0,052	0,081
-690,627	-200,000	0,003	0,025
-689,612	-19,816	-0,091	0,041
-688,597	629,777	-0,024	0,045
-687,583	-40,878	-0,056	-0,021
-686,568	-71,367	-0,067	-0,018
-685,554	195,527	0,078	-0,086
-684,539	-162,752	0,047	0,002
-683,524	800,000	0,021	0,046
-682,510	702,153	0,005	-0,010
-681,495	19,002	-0,142	-0,082
-680,481	-1,369	0,095	0,049
-679,466	-200,000	-0,008	-0,080
-678,451	-94,465	-0,132	0,026
-677,437	122,112	0,102	-0,092
-676,422	-200,000	0,003	0,016
-675,408	68,860	-0,033	-0,025
-674,393	57,581	0,163	0,115
-673,378	11,553	-0,144	0,080
-672,364	-200,000	-0,008	-0,061
-671,349	-61,231	-0,185	-0,056
-670,335	671,179	-0,037	-0,071
-669,320	-200,000	0,010	0,093
-668,305	115,928	0,124	-0,110
-667,291	-200,000	0,004	-0,047
-666,276	-15,391	-0,068	0,031
-665,262	306,890	-0,092	-0,125
-664,247	301,263	0,052	-0,070
-663,232	-8,618	-0,145	-0,070
-662,218	800,000	-0,037	0,090
-661,203	-182,983	0,054	0,001
-660,189	-200,000	0,017	-0,082
-659,174	-200,000	0,020	0,076
-658,159	179,717	-0,064	-0,068
-657,145	-200,000	0,013	-0,074
-656,130	81,490	0,094	-0,074
-655,116	36,787	-0,061	0,039
-654,101	-200,000	0,006	-0,064
-653,086	800,000	-0,020	0,048
-652,072	800,000	0,011	-0,028
-651,057	16,170	0,065	0,037
-650,043	-200,000	0,015	-0,119
-649,028	109,105	0,063	0,054
-648,014	517,827	0,007	0,012
-646,999	141,202	0,030	-0,029
-645,984	-200,000	0,020	0,068
-644,970	-200,000	-0,006	0,082
-643,955	800,000	0,032	-0,097
-642,941	-200,000	-0,030	-0,159
-641,926	398,628	-0,059	-0,090
-640,911	800,000	0,039	0,119
-639,897	800,000	0,011	-0,026
-638,882	800,000	-0,022	0,060
-637,868	-200,000	-0,020	0,093
-636,853	800,000	0,019	0,042
-635,838	194,039	-0,096	-0,106
-634,824	-200,000	-0,019	0,075
-633,809	-200,000	0,003	0,025
-632,795	276,095	-0,066	-0,085
-631,780	202,027	0,054	-0,060
-630,765	-114,337	-0,036	-0,005
-629,751	-200,000	-0,011	-0,049
-628,736	479,833	-0,056	-0,092
-627,722	-52,213	-0,045	-0,015
-626,707	-179,333	0,071	0,001
-625,692	800,000	0,022	0,049
-624,678	800,000	-0,018	0,054
-623,663	-200,000	-0,003	0,070
-622,649	-13,696	-0,023	0,011
-621,634	522,254	0,039	0,067
-620,619	52,018	-0,078	-0,054
-619,605	800,000	-0,045	-0,142
-618,590	800,000	-0,026	0,056
-617,576	238,382	-0,106	0,128
-616,561	-24,963	-0,187	0,080
-615,546	-18,403	0,093	0,042
-614,532	800,000	-0,036	-0,092
-613,517	94,420	-0,012	0,010
-612,503	-10,584	0,082	0,039
-611,488	-14,387	0,075	0,035
-610,474	109,140	-0,130	0,113
-609,459	800,000	-0,013	0,038
-608,444	2,719	-0,071	-0,037
-607,430	-18,673	-0,086	0,039
-606,415	76,019	0,072	-0,055
-605,401	-41,194	-0,069	0,026
-604,386	-200,000	-0,003	0,046
-603,371	-200,000	0,013	0,076
-602,357	-200,000	-0,005	-0,179
-601,342	211,099	0,104	-0,118
-600,328	187,107	-0,032	-0,034
-599,313	-73,380	-0,077	0,020
-598,298	126,557	0,073	-0,067
-597,284	53,199	-0,032	0,022
-596,269	-37,970	0,179	0,069
-595,255	39,380	-0,066	-0,043
-594,240	-200,000	0,035	-0,203
-593,225	-200,000	-0,003	0,032
-592,211	-64,765	0,132	-0,039
-591,196	-200,000	0,024	-0,085
-590,182	-200,000	0,007	0,033
-589,167	212,257	-0,130	0,149
-588,152	552,503	0,025	0,044
-587,138	-36,700	-0,077	0,030
-586,123	-55,302	-0,155	-0,050
-585,109	800,000	0,012	-0,030
-584,094	35,126	0,054	-0,034
-583,079	-200,000	0,001	-0,053
-582,065	447,185	0,076	0,121
-581,050	-74,457	-0,062	0,016
-580,036	143,016	0,059	-0,056
-579,021	-21,754	-0,115	-0,050
-578,006	159,329	-0,062	0,062
-576,992	-200,000	-0,000	0,012
-575,977	-200,000	0,002	0,047
-574,963	-175,071	0,088	0,002
-573,948	-25,869	-0,054	0,023
-572,934	-9,545	0,057	-0,028
-571,919	-60,854	-0,086	0,026
-570,904	156,755	-0,098	0,098
-569,890	-75,155	-0,157	-0,040
-568,875	504,728	0,039	0,066
-567,861	-132,039	-0,147	-0,014
-566,846	680,714	0,080	0,151
-565,831	-84,067	0,119	0,027
-564,817	92,056	0,042	0,034
-563,802	97,948	-0,090	-0,075
-562,788	-0,938	-0,091	0,046
-561,773	15,728	-0,030	0,017
-560,758	221,683	-0,053	-0,061
-559,744	162,256	0,087	-0,088
-558,729	19,341	0,118	-0,068
-557,715	800,000	-0,051	-0,107
-556,700	655,971	0,031	-0,059
-555,685	-41,012	-0,141	0,052
-554,671	241,456	-0,024	-0,029
-553,656	-200,000	-0,001	-0,073
-552,642	-20,531	0,140	0,062
-551,627	-133,269	0,136	0,012
-550,612	-52,807	-0,127	-0,042
-549,598	104,138	0,158	0,135
-548,583	226,692	-0,051	0,060
-547,569	-179,172	-0,135	-0,002
-546,554	56,502	0,127	0,089
-545,539	-200,000	-0,001	0,097
-544,525	343,431	0,065	0,093
-543,510	-133,131	-0,126	-0,011
-542,496	-21,803	0,101	-0,044
-541,481	-177,147	0,082	0,001
-540,466	-200,000	-0,022	-0,210
-539,452	-166,907	0,158	-0,005
-538,437	-8,887	-0,061	-0,029
-537,423	566,128	0,081	-0,143
-536,408	643,629	-0,071	-0,132
-535,393	-96,358	-0,127	0,024
-534,379	-200,000	0,054	-0,210
-533,364	-26,910	-0,161	0,068
-532,350	669,986	0,105	0,197
-531,335	800,000	-0,015	0,043
-530,321	-200,000	-0,003	0,074
-529,306	325,507	0,032	0,044
-528,291	800,000	-0,031	-0,074
-527,277	411,920	-0,078	-0,120
-526,262	-28,481	0,055	-0,023
-525,248	497,376	-0,011	0,018
-524,233	-166,181	0,047	0,001
-523,218	-25,799	0,073	-0,031
-522,204	488,763	-0,033	0,054
-521,189	242,409	0,045	0,055
-520,175	187,786	0,001	-0,002
-519,160	101,772	-0,010	-0,008
-518,145	291,989	0,032	0,042
-517,131	94,641	0,025	-0,020
-516,116	-200,000	0,013	0,048
-515,102	-200,000	0,001	0,075
-514,087	86,654	-0,034	-0,027
-513,072	-69,628	-0,104	-0,028
-512,058	380,625	-0,106	-0,157
-511,043	-89,832	-0,109	-0,023
-510,029	-200,000	-0,021	0,101
-509,014	-200,000	0,021	0,072
-507,999	-150,863	-0,062	-0,003
-506,985	153,872	-0,046	-0,045
-505,970	125,920	0,102	0,093
-504,956	800,000	0,009	0,020
-503,941	-200,000	0,004	-0,053
-502,926	242,235	-0,008	0,010
-501,912	-200,000	-0,015	-0,122
-500,897	169,559	0,044	-0,046
-499,883	-41,773	-0,056	-0,021
-498,868	490,491	-0,084	-0,139
-497,853	800,000	0,085	-0,172
-496,839	-188,159	-0,020	-0,000
-495,824	60,796	0,171	0,123
-494,810	231,232	0,085	0,101
-493,795	-200,000	0,004	0,079
-492,781	697,494	0,049	0,092
-491,766	-108,451	-0,029	0,004
-490,751	800,000	-0,058	0,151
-489,737	-174,795	-0,037	-0,001
-488,722	-51,805	-0,064	0,021
-487,708	-192,096	-0,078	-0,001
-486,693	269,065	-0,004	-0,005
-485,678	-12,329	-0,090	0,042
-484,664	800,000	0,024	0,061
-483,649	-200,000	0,011	-0,049
-482,635	157,348	-0,037	0,037
-481,620	-200,000	-0,006	0,093
-480,605	800,000	0,053	0,163
-479,591	800,000	0,033	0,087
-478,576	616,838	-0,027	0,048
-477,562	208,484	0,014	-0,016
-476,547	-3,883	-0,108	-0,054
-475,532	800,000	0,043	-0,090
-474,518	-200,000	-0,008	-0,095
-473,503	533,422	-0,025	0,042
-472,489	241,535	-0,022	-0,027
-471,474	-71,717	0,048	-0,013
-470,459	765,269	0,038	-0,076
-469,445	-17,550	-0,147	-0,066
-468,430	84,878	0,077	0,061
-467,416	13,367	-0,059	0,033
-466,401	800,000	-0,032	0,096
-465,386	332,430	0,072	0,101
-464,372	289,148	0,023	0,030
-463,357	-78,555	-0,175	0,043
-462,343	-200,000	0,004	-0,040
-461,328	800,000	-0,066	-0,153
-460,313	381,167	0,029	0,043
-459,299	-200,000	0,011	0,055
-458,284	-5,381	-0,073	0,036
-457,270	15,989	0,090	0,051
-456,255	211,394	-0,085	-0,097
-455,241	-200,000	-0,004	-0,041
-454,226	-51,360	-0,047	-0,016
-453,211	135,056	0,046	0,043
-452,197	106,423	-0,039	0,033
-451,182	102,116	0,114	0,096
-450,168	-200,000	0,033	0,106
-449,153	625,592	0,097	-0,177
-448,138	62,408	-0,081	0,058
-447,124	-200,000	0,053	-0,230
-446,109	-161,601	-0,093	0,003
-445,095	-40,839	0,105	-0,039
-444,080	-86,434	0,136	0,030
-443,065	-200,000	-0,021	0,124
-442,051	800,000	-0,039	0,088
-441,036	116,777	0,071	0,063
-440,022	114,202	-0,019	0,016
-439,007	800,000	-0,041	0,115
-437,992	-84,709	-0,071	-0,016
-436,978	-200,000	-0,028	-0,102
-435,963	-113,072	0,088	-0,012
-434,949	-200,000	-0,023	0,162
-433,934	800,000	0,017	0,042
-432,919	230,742	-0,101	-0,120
-431,905	-200,000	-0,002	-0,059
-430,890	10,726	-0,178	0,098
-429,876	-80,227	0,078	-0,019
-428,861	132,006	-0,150	0,139
-427,846	-200,000	0,030	-0,168
-426,832	-200,000	-0,000	-0,036
-425,817	203,303	-0,031	0,034
-424,803	-200,000	0,005	-0,034
-423,788	-200,000	-0,001	0,067
-422,773	-200,000	0,001	-0,020
-421,759	-200,000	0,039	0,144
-420,744	800,000	0,031	0,067
-419,730	-92,844	0,111	-0,022
-418,715	25,062	-0,084	-0,050
-417,701	-7,773	-0,080	-0,039
-416,686	190,829	-0,071	0,077
-415,671	-187,263	0,106	0,001
-414,657	31,772	0,028	0,017
-413,642	-143,068	-0,086	-0,006
-412,628	-81,002	0,170	-0,040
-411,613	-118,458	-0,100	-0,013
-410,598	-53,749	-0,076	-0,025
-409,584	-45,444	0,115	0,041
-408,569	188,502	-0,029	0,031
-407,555	-200,000	-0,004	0,083
-406,540	800,000	0,015	0,046
-405,525	800,000	0,020	-0,054
-404,511	800,000	-0,047	-0,109
-403,496	-200,000	0,013	-0,204
-402,482	-40,082	0,043	0,016
-401,467	-3,025	0,209	0,105
-400,452	-90,622	0,116	-0,024
-399,438	-200,000	-0,024	-0,088
-398,423	174,947	-0,018	0,018
-397,409	76,240	0,061	0,046
-396,394	-200,000	0,002	0,126
-395,379	197,079	-0,062	-0,068
-394,365	-22,535	0,097	-0,042
-393,350	142,524	0,026	-0,025
-392,336	710,326	0,084	0,161
-391,321	104,610	0,050	-0,042
-390,306	-200,000	0,030	-0,166
-389,292	-121,495	-0,080	-0,009
-388,277	3,610	-0,204	0,107
-387,263	-7,760	0,133	0,064
-386,248	265,274	0,021	0,026
-385,233	-58,547	-0,126	0,039
-384,219	-200,000	0,042	-0,178
-383,204	-200,000	-0,007	-0,042
-382,190	274,490	-0,052	-0,066
-381,175	198,170	0,058	-0,064
-380,160	224,353	0,043	0,049
-379,146	-200,000	0,023	0,258
-378,131	-16,489	0,089	0,041
-377,117	248,311	0,069	-0,085
-376,102	-67,762	-0,082	0,023
-375,088	147,255	-0,048	0,046
-374,073	-200,000	0,018	0,134
-373,058	736,214	0,057	0,110
-372,044	-64,228	0,038	-0,011
-371,029	-200,000	0,006	0,076
-370,015	-200,000	0,014	0,105
-369,000	-200,000	0,010	-0,125
-367,985	-200,000	-0,024	0,102
-366,971	118,655	-0,058	0,051
-365,956	-200,000	0,034	0,124
-364,942	59,141	0,073	-0,051
-363,927	-200,000	0,025	-0,167
-362,912	800,000	0,059	-0,136
-361,898	54,312	-0,072	-0,049
-360,883	39,279	-0,036	0,023
-359,869	16,869	0,024	-0,014
-358,854	-136,685	-0,150	-0,012
-357,839	-200,000	-0,012	0,104
-356,825	567,467	0,084	0,147
-355,810	-15,304	-0,097	-0,044
-354,796	166,825	0,052	-0,053
-353,781	332,416	0,108	0,150
-352,766	800,000	-0,049	0,121
-351,752	-110,732	0,047	-0,007
-350,737	143,225	0,046	0,044
-349,723	-200,000	0,030	0,136
-348,708	-200,000	-0,013	0,144
-347,693	-31,643	-0,141	0,056
-346,679	-95,200	-0,079	-0,015
-345,664	62,609	-0,097	0,069
-344,650	-200,000	-0,007	-0,027
-343,635	106,701	0,059	0,050
-342,620	517,745	0,006	0,010
-341,606	238,514	-0,037	-0,044
-340,591	-200,000	0,002	-0,012
-339,577	-200,000	0,019	-0,272
-338,562	-200,000	0,046	-0,170
-337,548	66,112	-0,029	-0,021
-336,533	-55,402	0,103	0,033
-335,518	114,802	0,078	-0,069
-334,504	-200,000	-0,008	0,070
-333,489	-40,058	-0,093	-0,035
-332,475	-85,748	-0,121	0,027
-331,460	458,051	0,032	-0,050
-330,445	188,809	0,082	0,088
-329,431	328,248	0,047	0,065
-328,416	800,000	0,020	0,052
-327,402	800,000	-0,041	0,106
-326,387	266,344	-0,076	-0,095
-325,372	-54,093	0,018	0,006
-324,358	12,965	0,097	-0,053
-323,343	-200,000	-0,005	0,121
-322,329	-0,343	-0,096	0,049
-321,314	-5,695	0,128	0,063
-320,299	-200,000	-0,013	0,101
-319,285	-70,879	0,165	0,044
-318,270	800,000	0,007	0,017
-317,256	56,426	-0,101	-0,070
-316,241	250,391	0,055	-0,067
-315,226	136,777	-0,120	-0,112
-314,212	-200,000	0,019	-0,120
-313,197	40,187	-0,153	0,098
-312,183	-46,084	-0,023	-0,008
-311,168	-200,000	-0,035	-0,183
-310,153	159,811	-0,100	-0,100
-309,139	-200,000	-0,002	-0,100
-308,124	-110,874	0,091	-0,013
-307,110	-90,861	0,083	-0,017
-306,095	-81,528	-0,068	-0,016
-305,080	-72,372	-0,045	0,012
-304,066	558,621	0,026	0,044
-303,051	-173,333	0,177	-0,004
-302,037	-200,000	-0,048	-0,167
-301,022	-200,000	-0,001	-0,125
-300,008	630,297	-0,032	-0,058
-298,993	714,710	0,062	0,118
-297,978	-8,156	0,058	0,028
-296,964	800,000	-0,072	0,191
-295,949	199,964	-0,029	-0,032
-294,935	-200,000	0,013	-0,055
-293,920	-200,000	-0,002	0,013
-292,905	-139,203	0,115	-0,009
-291,891	-65,501	0,074	-0,021
-290,876	-200,000	0,025	-0,098
-289,862	41,114	-0,047	-0,030
-288,847	143,411	-0,111	-0,106
-287,832	65,933	0,049	-0,035
-286,818	597,245	0,055	0,097
-285,803	800,000	-0,043	0,106
-284,789	-200,000	0,037	0,141
-283,774	-200,000	0,005	0,043
-282,759	800,000	0,043	0,111
-281,745	-131,210	0,050	-0,005
-280,730	800,000	-0,017	-0,052
-279,716	-200,000	-0,015	-0,089
-278,701	-121,643	-0,075	0,009
-277,686	166,851	0,079	0,081
-276,672	-88,365	0,066	0,014
-275,657	-200,000	-0,186	0,000
-274,643	38,762	-0,056	0,036
-273,628	-168,089	-0,046	-0,001
-272,613	-150,569	0,048	0,003
-271,599	-17,254	-0,034	-0,015
-270,584	-200,000	0,040	-0,185
-269,570	800,000	0,035	-0,097
-268,555	800,000	-0,026	-0,054
-267,540	-68,494	-0,123	-0,034
-266,526	51,766	-0,111	-0,076
-265,511	82,783	0,026	0,020
-264,497	-26,158	-0,015	0,006
-263,482	-86,545	0,054	-0,012
-262,467	-200,000	-0,003	-0,028
-261,453	-200,000	-0,024	-0,082
-260,438	773,255	-0,055	-0,109
-259,424	-84,237	-0,240	-0,054
-258,409	128,524	0,114	-0,104
-257,395	-36,668	-0,153	0,058
-256,380	-107,509	0,148	0,023
-255,365	-56,670	0,049	-0,015
-254,351	800,000	0,043	-0,134
-253,336	-200,000	-0,054	-0,177
-252,322	-200,000	0,065	-0,277
-251,307	-200,000	0,013	-0,059
-250,292	94,294	-0,041	-0,033
-249,278	-104,670	0,194	-0,032
-248,263	65,835	-0,072	0,052
-247,249	253,824	0,018	0,022
-246,234	136,372	0,053	-0,049
-245,219	281,037	0,070	-0,090
-244,205	55,051	0,066	-0,046
-243,190	-200,000	-0,022	0,116
-242,176	-200,000	-0,008	0,053
-241,161	-200,000	0,025	0,107
-240,146	297,012	-0,104	0,137
-239,132	501,714	-0,056	-0,092
-238,117	-89,454	-0,119	-0,025
-237,103	800,000	0,027	-0,061
-236,088	-90,660	0,026	-0,005
-235,073	-72,851	-0,026	0,007
-234,059	388,135	0,045	0,067
-233,044	94,400	0,185	0,150
-232,030	800,000	0,031	0,063
-231,015	-200,000	0,014	-0,128
-230,000	133,961	0,048	-0,044
-228,986	279,970	-0,036	-0,046
-227,971	94,544	-0,099	0,080
-226,957	-155,954	0,031	-0,001
-225,942	-75,992	0,095	0,024
-224,927	30,415	-0,135	-0,082
-223,913	-200,000	-0,035	-0,230
-222,898	-150,976	-0,079	-0,004
-221,884	800,000	0,077	-0,176
-220,869	358,070	0,030	0,042
-219,855	800,000	0,056	0,147
-218,840	396,875	-0,038	0,057
-217,825	800,000	-0,037	-0,088
-216,811	-18,198	-0,034	-0,015
-215,796	102,468	0,101	-0,084
-214,782	-119,080	-0,055	-0,007
-213,767	423,899	-0,053	0,082
-212,752	220,329	0,113	0,129
-211,738	-200,000	0,024	0,105
-210,723	203,915	-0,051	-0,056
-209,709	50,292	0,080	-0,054
-208,694	-200,000	0,000	-0,009
-207,679	519,435	0,028	0,047
-206,665	-27,200	-0,056	0,023
-205,650	352,794	0,051	-0,072
-204,636	-47,082	0,093	-0,032
-203,621	341,513	-0,073	0,102
-202,606	179,342	-0,044	0,046
-201,592	800,000	0,021	-0,064
-200,577	140,216	-0,035	-0,033
-199,563	188,997	0,048	0,052
-198,548	-114,089	0,147	-0,020
-197,533	-186,868	0,122	-0,001
-196,519	-200,000	-0,001	0,050
-195,504	-73,023	-0,106	-0,028
-194,490	-47,498	0,021	-0,007
-193,475	-200,000	0,009	-0,046
-192,460	27,122	0,071	0,042
-191,446	-47,128	-0,088	0,031
-190,431	-31,894	0,091	-0,036
-189,417	-200,000	-0,012	-0,043
-188,402	-39,375	0,077	-0,029
-187,387	50,901	-0,054	-0,037
-186,373	-95,268	-0,129	0,025
-185,358	-200,000	0,031	0,111
-184,344	-66,950	0,107	0,030
-183,329	-200,000	-0,026	0,142
-182,315	-31,482	0,100	-0,040
-181,300	-200,000	-0,032	0,140
-180,285	-200,000	-0,026	0,132
-179,271	265,578	0,055	0,069
-178,256	-200,000	-0,021	-0,086
-177,242	108,417	-0,047	-0,040
-176,227	-67,006	-0,091	0,026
-175,212	10,470	0,129	-0,070
-174,198	64,478	-0,090	0,065
-173,183	-200,000	-0,031	-0,101
-172,169	800,000	0,053	-0,140
-171,154	800,000	0,007	-0,017
-170,139	-141,018	0,144	-0,010
-169,125	-31,135	-0,090	0,036
-168,110	-107,481	0,048	0,007
-167,096	106,501	-0,078	-0,066
-166,081	-200,000	-0,008	0,066
-165,066	228,590	-0,087	0,101
-164,052	-44,718	-0,043	-0,015
-163,037	-7,806	-0,080	-0,038
-162,023	-104,846	0,181	0,029
-161,008	268,422	0,047	-0,059
-159,993	48,336	0,119	-0,080
-158,979	-32,980	0,098	-0,039
-157,964	800,000	0,035	-0,074
-156,950	121,654	-0,093	-0,083
-155,935	480,648	0,056	-0,091
-154,920	800,000	-0,028	0,070
-153,906	281,122	0,081	0,103
-152,891	17,513	0,081	-0,046
-151,877	-200,000	0,012	-0,098
-150,862	-37,985	0,007	-0,003
-149,847	419,576	-0,003	-0,004
-148,833	178,317	0,130	-0,136
-147,818	478,937	0,089	0,144
-146,804	800,000	-0,056	0,119
-145,789	436,695	0,049	0,076
-144,775	221,431	-0,057	0,065
-143,760	229,024	0,053	-0,062
-142,745	32,281	-0,058	-0,036
-141,731	593,562	-0,017	0,030
-140,716	-200,000	0,007	0,044
-139,702	800,000	0,028	0,061
-138,687	-200,000	0,012	0,071
-137,672	-200,000	-0,014	-0,156
-136,658	-200,000	0,007	-0,042
-135,643	22,246	0,116	-0,067
-134,629	-97,816	-0,028	-0,005
-133,614	-49,101	-0,051	0,017
-132,599	-161,876	0,058	-0,002
-131,585	-200,000	0,005	0,093
-130,570	-200,000	0,047	0,168
-129,556	129,313	0,021	-0,019
-128,541	800,000	0,024	-0,071
-127,526	-60,160	0,058	0,018
-126,512	-200,000	-0,000	0,007
-125,497	-101,116	0,139	0,024
-124,483	100,307	-0,082	0,067
-123,468	486,607	-0,042	0,068
-122,453	-0,193	-0,091	-0,046
-121,439	163,945	0,041	0,042
-120,424	47,191	-0,070	-0,046
-119,410	55,000	0,097	-0,066
-118,395	-35,212	0,071	0,027
-117,380	36,014	0,193	0,121
-116,366	226,543	-0,058	0,067
-115,351	270,612	-0,011	-0,013
-114,337	-89,822	-0,018	0,004
-113,322	1,890	0,035	0,018
-112,307	44,624	-0,080	0,052
-111,293	800,000	-0,051	0,154
-110,278	-101,777	0,026	-0,004
-109,264	106,467	-0,173	0,146
-108,249	69,796	-0,075	0,055
-107,234	-200,000	-0,016	-0,126
-106,220	800,000	-0,031	0,065
-105,205	161,931	-0,062	-0,061
-104,191	31,792	0,117	0,072
-103,176	-159,604	0,100	-0,004
-102,162	212,419	0,029	-0,033
-101,147	-53,513	0,037	-0,012
-100,132	91,063	-0,053	-0,043
-99,118	26,328	-0,089	0,053
-98,103	-200,000	0,009	0,070
-97,089	-162,000	0,065	0,002
-96,074	146,521	0,110	0,105
-95,059	371,731	-0,071	0,103
-94,045	-200,000	-0,007	0,192
-93,030	25,092	0,031	0,018
-92,016	-62,238	-0,128	-0,038
-91,001	-200,000	0,006	0,073
-89,986	-200,000	-0,010	0,059
-88,972	200,605	0,094	0,103
-87,957	-200,000	-0,002	0,038
-86,943	-200,000	0,026	0,082
-85,928	89,227	-0,093	0,073
-84,913	800,000	-0,052	-0,115
-83,899	800,000	-0,021	-0,044
-82,884	122,381	0,033	0,029
-81,870	469,519	0,084	0,134
-80,855	58,146	0,144	0,100
-79,840	-6,786	0,071	0,034
-78,826	-100,187	-0,081	0,014
-77,811	-200,000	0,013	-0,093
-76,797	590,359	-0,052	-0,092
-75,782	800,000	-0,017	0,048
-74,767	258,809	0,059	0,072
-73,753	800,000	-0,037	0,087
-72,738	104,397	0,055	0,046
-71,724	393,885	-0,076	0,112
-70,709	-58,158	-0,210	0,065
-69,694	-76,450	0,171	-0,042
-68,680	63,727	-0,052	0,037
-67,665	702,037	0,009	-0,016
-66,651	211,206	-0,077	-0,086
-65,636	115,521	-0,043	0,038
-64,622	-200,000	0,004	-0,062
-63,607	-200,000	0,003	0,082
-62,592	18,427	0,051	0,029
-61,578	350,564	0,057	-0,080
-60,563	-132,606	0,110	-0,010
-59,549	-65,365	0,092	0,026
-58,534	-114,378	-1,386	-0,187
-57,519	434,697	-1,514	-2,344
-56,505	-200,000	-0,435	-4,263
-55,490	120,088	0,827	0,728
-54,476	800,000	4,626	11,106
-53,461	-200,000	17,200	268,776
-52,446	800,000	714,221	2180,012
-51,432	552,386	1629,142	2787,599
-50,417	81,529	1655,414	1269,194
-49,403	24,465	1529,991	895,556
-48,388	18,449	1453,418	821,770
-47,373	18,579	1442,731	816,318
-46,359	18,290	1433,815	809,864
-45,344	16,808	1428,895	800,019
-44,330	16,753	1427,115	798,731
-43,315	16,733	1425,413	797,649
-42,300	16,755	1423,646	796,733
-41,286	16,774	1422,887	796,368
-40,271	16,750	1421,366	795,370
-39,257	16,743	1419,997	794,538
-38,242	16,783	1418,700	793,969
-37,227	16,748	1417,584	793,149
-36,213	16,765	1416,312	792,485
-35,198	16,733	1415,017	791,583
-34,184	16,773	1414,209	791,285
-33,169	16,701	1412,666	790,053
-32,154	16,756	1411,733	789,756
-31,140	16,832	1410,303	789,283
-30,125	16,792	1409,408	788,563
-29,111	16,751	1408,399	787,775
-28,096	16,748	1407,132	787,022
-27,082	16,703	1405,905	786,094
-26,067	16,680	1405,033	785,466
-25,052	16,680	1403,863	784,784
-24,038	16,689	1402,770	784,181
-23,023	16,659	1401,812	783,475
-22,009	16,631	1400,923	782,816
-20,994	16,606	1400,192	782,263
-19,979	16,611	1399,287	781,750
-18,965	16,622	1398,042	781,074
-17,950	16,637	1396,996	780,524
-16,936	16,656	1396,083	780,072
-15,921	16,607	1394,834	779,120
-14,906	16,579	1394,032	778,508
-13,892	16,608	1393,119	778,104
-12,877	16,617	1392,022	777,501
-11,863	16,593	1391,254	776,932
-10,848	16,608	1390,368	776,472
-9,833	16,559	1389,534	775,750
-8,819	16,524	1388,543	775,006
-7,804	16,522	1387,529	774,401
-6,790	16,457	1386,667	773,589
-5,775	16,485	1385,580	773,081
-4,760	16,461	1384,815	772,513
-3,746	16,408	1384,168	771,876
-2,731	16,457	1382,970	771,402
-1,717	16,410	1382,348	770,809
-0,702	16,497	1380,082	769,917
0,313	20,248	1302,254	743,805
1,327	36,698	708,124	442,653
2,342	56,576	125,806	86,655
3,356	2,870	16,682	8,558
4,371	10,011	3,007	1,614
5,386	-58,500	0,488	0,149
6,400	-38,989	0,018	-0,007
7,415	70,599	-0,196	-0,143
8,429	25,045	-0,461	-0,271
9,444	146,684	-0,306	-0,292
10,459	800,000	-0,132	-0,315
11,473	161,434	-0,194	-0,193
12,488	206,782	-0,237	-0,262
13,502	75,423	-0,342	-0,255
14,517	0,435	-0,398	-0,201
15,531	76,478	-0,404	-0,303
16,546	79,848	-0,310	-0,236
17,561	28,856	-0,433	-0,259
18,575	-200,000	-0,004	-0,213
19,590	72,017	-0,315	-0,232
20,604	-57,746	-0,382	-0,118
21,619	17,650	-0,396	-0,222
22,634	133,760	-0,350	-0,321
23,648	277,806	-0,341	-0,430
24,663	-6,380	-0,386	-0,186
25,677	116,231	-0,270	-0,234
26,692	119,122	-0,361	-0,316
27,707	29,336	-0,304	-0,182
28,721	-3,305	-0,369	-0,181
29,736	-12,054	-0,330	-0,152
30,750	105,715	-0,340	-0,284
31,765	34,859	-0,427	-0,264
32,780	121,843	-0,310	-0,274
33,794	59,518	-0,454	-0,316
34,809	139,083	-0,325	-0,303
35,823	29,925	-0,349	-0,210
36,838	75,178	-0,422	-0,314
37,853	65,632	-0,415	-0,297
38,867	265,476	-0,279	-0,345
39,882	97,459	-0,319	-0,259
40,896	265,039	-0,389	-0,480
41,911	137,912	-0,328	-0,304
42,926	256,933	-0,341	-0,414
43,940	167,860	-0,279	-0,280
44,955	-21,878	-0,418	-0,179
45,969	132,948	-0,465	-0,425
46,984	5,292	-0,420	-0,218
47,999	-60,530	-0,427	-0,127
49,013	-27,697	-0,260	-0,106
50,028	-2,693	-0,394	-0,194
51,042	200,716	-0,342	-0,371
52,057	51,081	-0,331	-0,221
53,071	69,736	-0,290	-0,211
54,086	75,921	-0,411	-0,307
55,101	-65,520	-0,445	-0,125
56,115	147,697	-0,280	-0,267
57,130	94,317	-0,373	-0,299
58,144	30,259	-0,402	-0,241
59,159	390,152	-0,306	-0,449
60,174	24,931	-0,377	-0,220
61,188	136,038	-0,370	-0,340
62,203	109,304	-0,208	-0,176
63,217	-47,017	-0,390	-0,134
64,232	292,336	-0,225	-0,290
65,247	-14,568	-0,297	-0,134
66,261	107,303	-0,374	-0,314
67,276	93,495	-0,407	-0,325
68,290	-16,609	-0,380	-0,169
69,305	121,225	-0,258	-0,227
70,320	43,581	-0,336	-0,216
71,334	246,086	-0,247	-0,294
72,349	45,166	-0,393	-0,255
73,363	-127,471	-0,344	-0,035
74,378	-16,808	-0,432	-0,192
75,393	169,258	-0,259	-0,260
76,407	340,378	-0,205	-0,283
77,422	79,575	-0,320	-0,241
78,436	16,991	-0,236	-0,131
79,451	-59,589	-0,329	-0,099
80,466	139,587	-0,203	-0,189
81,480	118,781	-0,296	-0,258
82,495	28,681	-0,345	-0,205
83,509	37,486	-0,337	-0,210
84,524	-60,988	-0,288	-0,085
85,539	26,606	-0,296	-0,174
86,553	117,182	-0,325	-0,281
87,568	146,472	-0,319	-0,301
88,582	-94,746	-0,415	-0,078
89,597	340,691	-0,203	-0,279
90,611	113,088	-0,323	-0,276
91,626	-105,683	-0,279	-0,044
92,641	-84,850	-0,231	-0,051
93,655	154,542	-0,191	-0,185
94,670	147,586	-0,291	-0,276
95,684	154,426	-0,277	-0,267
96,699	184,577	-0,240	-0,250
97,714	79,952	-0,205	-0,155
98,728	9,743	-0,232	-0,123
99,743	98,308	-0,231	-0,187
100,757	3,206	-0,287	-0,146
101,772	129,935	-0,258	-0,232
102,787	95,211	-0,331	-0,265
103,801	-18,407	-0,341	-0,149
104,816	46,504	-0,358	-0,233
105,830	215,217	-0,188	-0,210
106,845	-2,595	-0,264	-0,129
107,860	219,519	-0,213	-0,240
108,874	189,992	-0,279	-0,294
109,889	417,115	-0,200	-0,301
110,903	105,372	-0,366	-0,303
111,918	259,984	-0,211	-0,256
112,933	-88,412	-0,173	-0,036
113,947	0,187	-0,271	-0,135
114,962	-55,125	-0,154	-0,048
115,976	83,867	-0,286	-0,219
116,991	16,222	-0,302	-0,167
118,006	-90,235	-0,333	-0,067
119,020	193,580	-0,164	-0,174
120,035	150,290	-0,266	-0,253
121,049	238,557	-0,199	-0,232
122,064	267,767	-0,136	-0,168
123,079	252,949	-0,219	-0,263
124,093	125,801	-0,273	-0,242
125,108	194,525	-0,219	-0,233
126,122	168,655	-0,335	-0,335
127,137	175,858	-0,161	-0,164
128,151	187,642	-0,198	-0,207
129,166	-90,325	-0,300	-0,060
130,181	371,172	-0,194	-0,277
131,195	36,273	-0,273	-0,168
132,210	128,414	-0,369	-0,329
133,224	135,057	-0,339	-0,309
134,239	248,599	-0,146	-0,173
135,254	26,711	-0,240	-0,140
136,268	-51,921	-0,338	-0,110
137,283	278,069	-0,224	-0,281
138,297	98,262	-0,277	-0,223
139,312	-46,307	-0,210	-0,072
140,327	89,021	-0,278	-0,217
141,341	136,819	-0,192	-0,176
142,356	102,529	-0,185	-0,152
143,370	79,183	-0,146	-0,110
144,385	28,267	-0,259	-0,153
145,400	94,050	-0,309	-0,246
146,414	109,692	-0,281	-0,236
147,429	295,652	-0,214	-0,275
148,443	-141,459	-0,296	0,021
149,458	-6,080	-0,282	-0,134
150,473	24,483	-0,214	-0,124
151,487	-67,017	-0,222	-0,061
152,502	73,861	-0,209	-0,154
153,516	132,468	-0,158	-0,143
154,531	139,706	-0,301	-0,278
155,546	102,812	-0,191	-0,156
156,560	106,688	-0,164	-0,136
157,575	236,723	-0,056	-0,065
158,589	17,694	-0,158	-0,088
159,604	306,435	-0,211	-0,276
160,619	21,610	-0,213	-0,121
161,633	137,537	-0,278	-0,255
162,648	39,752	-0,142	-0,089
163,662	118,397	-0,230	-0,198
164,677	399,016	-0,181	-0,266
165,692	-34,510	-0,283	-0,108
166,706	-14,414	-0,236	-0,106
167,721	192,551	-0,157	-0,166
168,735	-72,695	-0,266	-0,068
169,750	82,742	-0,103	-0,078
170,764	-119,755	-0,246	0,029
171,779	356,592	-0,113	-0,158
172,794	30,126	-0,291	-0,173
173,808	-7,304	-0,155	-0,073
174,823	283,281	-0,243	-0,305
175,837	244,603	-0,194	-0,228
176,852	450,163	-0,127	-0,196
177,867	63,241	-0,223	-0,156
178,881	121,116	-0,274	-0,238
179,896	175,086	-0,230	-0,233
180,910	77,469	-0,191	-0,142
181,925	4,999	-0,327	-0,167
182,940	26,200	-0,289	-0,168
183,954	61,853	-0,226	-0,157
184,969	-36,961	-0,126	-0,047
185,983	2,458	-0,254	-0,128
186,998	73,282	-0,174	-0,127
188,013	151,225	-0,112	-0,106
189,027	670,033	-0,194	-0,352
190,042	160,211	-0,203	-0,198
191,056	104,718	-0,242	-0,199
192,071	296,354	-0,164	-0,210
193,086	69,214	-0,373	-0,267
194,100	34,977	-0,182	-0,111
195,115	362,530	-0,131	-0,184
196,129	106,749	-0,157	-0,130
197,144	-2,025	-0,332	-0,162
198,159	-16,283	-0,350	-0,154
199,173	567,351	-0,131	-0,222
200,188	273,022	-0,086	-0,106
201,202	464,059	-0,157	-0,246
202,217	278,264	-0,050	-0,062
203,232	149,863	-0,206	-0,194
204,246	-143,885	-0,128	-0,008
205,261	127,706	-0,246	-0,217
206,275	8,544	-0,323	-0,169
207,290	-200,000	-0,038	-0,128
208,304	25,061	-0,196	-0,113
209,319	185,608	-0,125	-0,129
210,334	87,009	-0,168	-0,129
211,348	161,254	-0,115	-0,112
212,363	24,732	-0,161	-0,093
213,377	-94,178	-0,203	-0,038
214,392	114,677	-0,131	-0,111
215,407	99,143	-0,097	-0,078
216,421	800,000	-0,107	-0,269
217,436	236,412	-0,239	-0,276
218,450	-67,626	-0,335	-0,091
219,465	-80,797	-0,285	-0,065
220,480	-25,304	-0,140	0,058
221,494	-37,742	-0,209	-0,077
222,509	69,823	-0,094	-0,067
223,523	355,180	-0,164	-0,228
224,538	800,000	-0,020	-0,062
225,553	-6,593	-0,223	-0,105
226,567	-103,832	-0,306	-0,049
227,582	46,031	-0,180	-0,115
228,596	70,386	-0,212	-0,152
229,611	258,707	-0,165	-0,198
230,626	-122,577	-0,177	-0,020
231,640	31,922	-0,199	-0,119
232,655	-18,663	-0,234	-0,101
233,669	133,957	-0,197	-0,177
234,684	540,605	-0,141	-0,234
235,699	800,000	-0,138	-0,318
236,713	800,000	-0,058	-0,129
237,728	28,658	-0,282	-0,165
238,742	125,894	-0,081	-0,071
239,757	-16,924	-0,298	-0,130
240,772	227,532	-0,198	-0,224
241,786	252,362	-0,157	-0,186
242,801	-86,015	-0,195	0,042
243,815	800,000	-0,115	-0,285
244,830	-60,124	-0,353	-0,104
245,844	-169,011	-0,228	-0,006
246,859	-31,916	-0,215	-0,083
247,874	292,270	-0,119	-0,150
248,888	-53,448	-0,243	-0,077
249,903	249,558	-0,145	-0,170
250,917	63,454	-0,121	-0,084
251,932	-65,930	-0,117	-0,032
252,947	800,000	-0,065	-0,135
253,961	101,266	-0,185	-0,149
254,976	69,923	-0,287	-0,205
255,990	59,643	-0,184	-0,126
257,005	-89,175	-0,194	0,039
258,020	94,428	-0,200	-0,158
259,034	695,963	-0,135	-0,246
260,049	401,951	-0,136	-0,198
261,063	-156,730	-0,260	0,011
262,078	84,208	-0,151	-0,114
263,093	519,860	-0,179	-0,292
264,107	29,214	-0,247	-0,145
265,122	41,065	-0,153	-0,096
266,136	-200,000	-0,062	-0,234
267,151	-58,262	-0,277	-0,083
268,166	-87,214	-0,156	-0,032
269,180	107,413	-0,124	-0,102
270,195	115,700	-0,159	-0,135
271,209	498,492	-0,093	-0,149
272,224	175,856	-0,180	-0,181
273,239	324,452	-0,095	-0,126
274,253	800,000	-0,041	-0,088
275,268	-72,069	-0,157	-0,040
276,282	-46,315	-0,279	-0,094
277,297	270,737	-0,149	-0,182
278,312	-63,176	-0,111	-0,031
279,326	70,986	-0,150	-0,108
280,341	-88,849	-0,223	-0,045
281,355	-77,343	-0,223	-0,053
282,370	-62,143	-0,170	-0,049
283,384	0,627	-0,215	-0,106
284,399	249,034	-0,128	-0,150
285,414	302,849	-0,141	-0,181
286,428	104,996	-0,181	-0,148
287,443	-61,001	-0,104	0,030
288,457	-200,000	-0,024	-0,151
289,472	-28,295	-0,215	-0,086
290,487	800,000	-0,029	-0,071
291,501	-120,260	-0,197	-0,023
292,516	401,717	-0,121	-0,176
293,530	96,119	-0,162	-0,128
294,545	-139,283	-0,074	0,005
295,560	-113,447	-0,180	-0,024
296,574	403,111	-0,070	-0,103
297,589	263,924	-0,106	-0,128
298,603	16,089	-0,244	-0,133
299,618	-15,442	-0,193	-0,085
300,633	-100,055	-0,108	0,018
301,647	242,695	-0,108	-0,125
302,662	-80,931	-0,233	-0,053
303,676	66,109	-0,069	-0,048
304,691	432,812	-0,153	-0,229
305,706	174,997	-0,167	-0,167
306,720	-4,351	-0,132	-0,063
307,735	98,811	-0,144	-0,115
308,749	53,123	-0,250	-0,165
309,764	334,788	-0,047	-0,063
310,779	145,435	-0,035	-0,032
311,793	316,293	-0,106	-0,139
312,808	29,427	-0,246	-0,144
313,822	-200,000	-0,023	-0,186
314,837	429,945	-0,126	-0,189
315,852	102,254	-0,090	-0,072
316,866	209,809	-0,124	-0,134
317,881	273,603	-0,144	-0,176
318,895	-151,048	-0,062	0,003
319,910	-71,561	-0,145	-0,037
320,925	-57,477	-0,155	-0,047
321,939	800,000	-0,060	-0,175
322,954	-200,000	-0,008	-0,035
323,968	-200,000	0,018	-0,102
324,983	-57,314	-0,169	-0,051
325,997	258,533	-0,044	-0,052
327,012	167,338	-0,135	-0,132
328,027	-200,000	-0,063	-0,204
329,041	206,403	-0,143	-0,154
330,056	-141,038	-0,113	-0,008
331,070	-134,368	-0,123	-0,010
332,085	67,584	-0,197	-0,138
333,100	-65,974	-0,172	-0,047
334,114	-99,481	-0,215	-0,037
335,129	-18,619	-0,144	-0,062
336,143	628,428	-0,079	-0,139
337,158	-52,125	-0,089	-0,028
338,173	391,609	-0,090	-0,129
339,187	218,874	-0,071	-0,079
340,202	114,906	-0,024	0,020
341,216	-174,550	-0,137	0,003
342,231	690,144	-0,120	-0,217
343,246	-39,244	-0,174	-0,063
344,260	-112,562	-0,169	-0,023
345,275	800,000	-0,076	-0,168
346,289	-128,018	-0,097	-0,009
347,304	36,204	-0,137	-0,083
348,319	462,874	-0,174	-0,268
349,333	417,980	-0,186	-0,275
350,348	123,297	-0,101	-0,087
351,362	35,655	-0,170	-0,103
352,377	47,405	-0,218	-0,139
353,392	-105,138	-0,034	0,005
354,406	163,157	-0,060	-0,058
355,421	211,690	1312,408	1422,434
356,435	163,017	1472,892	1422,972
