DTS Sentinel unit serial number:	SN410029Multiplexer serial number:	ORYXHardware model number:	OX2-SRSoftware version number:	ORYX F/W v4,00 Oryx Data Collector v3.7.2.0data status	okinstallation	B3 Nyhavnadifferential loss correction	single-endedforward channel	channel 1reverse channel	N/Adate	2023/12/02time	07:22:30forward acquisition time	300,00reverse acquisition time	0,00gamma	499,1914k internal	0,3194k external	0,3194temperature offset calibration	1,0000default loss term (dB/km)	0,3820temperature slope calibration	1,0000multiplexer offset coefficient	1,0000multiplexer slope coefficient	1,0000fibre end	0,00T internal ref (°C)	15,68T ext. ref 1 (°C)	0,47T ext. ref 2 (°C)	0,46length (m)	temperature (°C)	Stokes	anti-Stokes-744,400	800,000	-0,129	-0,276
-743,385	-200,000	0,044	0,216
-742,371	-19,944	-0,280	-0,126
-741,356	800,000	-0,132	0,325
-740,342	800,000	-0,075	-0,182
-739,327	-200,000	-0,013	0,256
-738,312	48,526	-0,294	-0,201
-737,298	-200,000	-0,013	0,298
-736,283	800,000	-0,123	-0,254
-735,269	-200,000	-0,019	0,276
-734,254	131,572	-0,253	-0,237
-733,239	200,636	-0,162	0,182
-732,225	245,370	-0,209	-0,257
-731,210	-200,000	0,021	0,127
-730,196	-200,000	0,022	0,098
-729,181	-54,396	-0,125	0,041
-728,167	-23,936	0,121	-0,053
-727,152	379,626	-0,075	-0,113
-726,137	351,255	-0,068	-0,098
-725,123	228,773	0,044	-0,052
-724,108	106,532	-0,111	-0,096
-723,094	-52,035	-0,032	0,011
-722,079	-70,820	0,059	0,016
-721,064	-35,543	-0,016	-0,006
-720,050	-200,000	0,001	-0,058
-719,035	566,825	-0,056	-0,100
-718,021	800,000	-0,052	-0,113
-717,006	441,447	-0,063	-0,101
-715,991	-33,274	-0,187	-0,075
-714,977	-200,000	0,006	-0,123
-713,962	800,000	0,016	0,037
-712,948	341,312	0,044	0,063
-711,933	800,000	-0,026	0,066
-710,918	270,277	-0,060	-0,078
-709,904	-200,000	-0,024	0,138
-708,889	-90,514	-0,137	0,029
-707,875	17,528	-0,110	0,063
-706,860	800,000	0,026	-0,082
-705,845	238,403	-0,086	-0,105
-704,831	-200,000	-0,001	0,181
-703,816	33,950	-0,067	0,042
-702,802	116,695	-0,071	0,063
-701,787	-200,000	0,028	-0,149
-700,772	-74,823	-0,056	0,014
-699,758	-126,463	-0,074	-0,008
-698,743	16,585	0,110	0,063
-697,729	800,000	0,048	0,110
-696,714	8,842	-0,077	0,042
-695,699	48,462	-0,057	-0,039
-694,685	-200,000	-0,026	-0,111
-693,670	20,907	-0,045	0,026
-692,656	-200,000	0,020	0,077
-691,641	177,230	0,027	0,029
-690,627	-29,725	0,067	0,028
-689,612	17,371	0,101	-0,058
-688,597	-62,690	-0,131	0,039
-687,583	-200,000	0,004	-0,069
-686,568	-4,600	-0,090	-0,045
-685,554	-36,267	-0,061	0,024
-684,539	-47,480	-0,086	-0,030
-683,524	-200,000	-0,016	0,088
-682,510	119,875	0,015	-0,014
-681,495	800,000	-0,056	-0,119
-680,481	-173,409	-0,169	-0,004
-679,466	104,171	0,019	-0,017
-678,451	169,151	-0,070	0,073
-677,437	250,217	0,037	-0,046
-676,422	-200,000	0,008	-0,052
-675,408	800,000	0,060	-0,140
-674,393	447,448	-0,030	-0,048
-673,378	-47,078	-0,124	-0,044
-672,364	363,094	-0,067	-0,098
-671,349	226,497	0,077	-0,091
-670,335	-173,422	0,027	0,001
-669,320	-200,000	-0,005	-0,060
-668,305	-129,364	0,146	-0,015
-667,291	222,218	0,045	0,053
-666,276	67,780	0,014	0,010
-665,262	177,778	-0,128	-0,136
-664,247	800,000	-0,076	-0,162
-663,232	120,862	0,084	-0,076
-662,218	-124,308	0,118	0,013
-661,203	-200,000	0,005	0,079
-660,189	800,000	0,039	-0,080
-659,174	-145,619	-0,164	0,010
-658,159	-98,913	-0,091	-0,017
-657,145	-200,000	-0,002	0,064
-656,130	189,340	0,080	0,088
-655,116	800,000	-0,021	-0,057
-654,101	233,296	-0,080	0,096
-653,086	121,451	-0,051	0,046
-652,072	-200,000	-0,026	-0,129
-651,057	-52,612	-0,224	-0,075
-650,043	-200,000	-0,004	-0,178
-649,028	-200,000	-0,002	-0,015
-648,014	72,530	0,016	0,012
-646,999	19,955	-0,068	0,040
-645,984	-67,189	-0,125	-0,035
-644,970	800,000	-0,038	0,092
-643,955	-20,810	0,008	-0,004
-642,941	-200,000	-0,034	0,175
-641,926	-200,000	-0,014	0,074
-640,911	181,048	0,041	-0,044
-639,897	100,125	0,093	0,079
-638,882	-167,734	0,081	0,002
-637,868	-4,483	-0,143	-0,071
-636,853	-200,000	-0,010	0,075
-635,838	-200,000	0,025	-0,112
-634,824	26,260	-0,134	-0,081
-633,809	300,986	0,029	0,039
-632,795	174,246	-0,121	0,127
-631,780	800,000	0,022	-0,065
-630,765	11,143	-0,029	-0,016
-629,751	556,642	0,051	-0,090
-628,736	-200,000	-0,019	-0,075
-627,722	-200,000	0,009	-0,132
-626,707	-152,967	0,066	-0,003
-625,692	229,136	-0,068	0,081
-624,678	58,167	0,042	-0,030
-623,663	349,196	-0,058	-0,083
-622,649	-200,000	0,001	-0,138
-621,634	-200,000	-0,005	-0,078
-620,619	-200,000	-0,042	-0,173
-619,605	200,771	0,124	0,138
-618,590	-66,394	-0,063	0,018
-617,576	-200,000	-0,001	0,103
-616,561	-56,385	-0,051	0,016
-615,546	-199,311	0,047	-0,000
-614,532	639,832	0,032	-0,059
-613,517	-139,701	-0,022	0,002
-612,503	-200,000	0,018	0,099
-611,488	-200,000	0,028	0,226
-610,474	-82,562	0,101	0,024
-609,459	183,598	0,026	0,028
-608,444	-200,000	0,004	-0,049
-607,430	800,000	-0,035	-0,081
-606,415	-14,228	0,162	-0,075
-605,401	800,000	-0,007	0,019
-604,386	-143,404	-0,082	0,006
-603,371	800,000	0,031	0,071
-602,357	800,000	-0,055	0,111
-601,342	-90,863	-0,219	-0,045
-600,328	-200,000	0,009	0,058
-599,313	-60,220	-0,051	0,016
-598,298	-200,000	-0,025	0,087
-597,284	800,000	0,060	-0,120
-596,269	-200,000	-0,022	0,184
-595,255	-200,000	-0,011	0,049
-594,240	95,395	-0,032	-0,027
-593,225	134,444	0,151	-0,142
-592,211	25,621	-0,141	-0,085
-591,196	313,874	-0,018	-0,025
-590,182	-200,000	0,011	-0,061
-589,167	-20,289	-0,081	0,036
-588,152	-200,000	0,010	0,216
-587,138	212,669	-0,017	0,020
-586,123	-0,027	-0,083	-0,042
-585,109	-200,000	-0,008	-0,159
-584,094	347,787	-0,063	0,090
-583,079	-200,000	-0,008	0,146
-582,065	607,061	0,057	0,104
-581,050	-200,000	-0,012	-0,171
-580,036	9,388	-0,029	-0,016
-579,021	576,506	-0,052	-0,093
-578,006	-200,000	0,007	-0,155
-576,992	174,167	-0,032	-0,034
-575,977	-163,443	0,122	0,004
-574,963	159,553	-0,040	-0,040
-573,948	-4,808	0,061	0,031
-572,934	24,600	-0,045	0,027
-571,919	195,030	-0,083	-0,091
-570,904	-155,973	-0,030	0,001
-569,890	16,103	0,037	-0,021
-568,875	60,163	0,078	0,056
-567,861	800,000	0,026	0,057
-566,846	0,294	-0,016	0,008
-565,831	800,000	-0,056	0,118
-564,817	-74,518	-0,018	-0,005
-563,802	-75,245	-0,131	-0,034
-562,788	294,489	0,031	0,041
-561,773	-200,000	-0,007	0,074
-560,758	-189,270	0,164	-0,001
-559,744	-200,000	-0,004	0,028
-558,729	-200,000	0,002	0,024
-557,715	206,554	0,122	-0,137
-556,700	431,652	0,025	-0,039
-555,685	-61,375	-0,052	-0,016
-554,671	-84,382	-0,088	0,020
-553,656	135,897	0,064	0,060
-552,642	800,000	0,042	0,115
-551,627	-200,000	0,008	0,146
-550,612	-200,000	-0,023	0,085
-549,598	-200,000	0,016	-0,078
-548,583	800,000	-0,019	-0,059
-547,569	190,068	-0,078	-0,085
-546,554	-46,390	0,243	-0,086
-545,539	313,543	0,015	0,020
-544,525	436,703	0,020	-0,032
-543,510	800,000	-0,030	0,070
-542,496	-98,783	0,087	-0,016
-541,481	800,000	-0,029	-0,076
-540,466	286,256	0,059	-0,077
-539,452	-72,258	0,078	-0,021
-538,437	-200,000	0,032	-0,113
-537,423	160,667	0,063	-0,063
-536,408	800,000	-0,096	0,203
-535,393	156,289	-0,069	-0,069
-534,379	623,482	-0,038	0,070
-533,364	65,193	-0,106	-0,077
-532,350	-200,000	-0,003	0,079
-531,335	3,512	0,027	-0,014
-530,321	119,825	-0,117	0,105
-529,306	-200,000	-0,038	0,188
-528,291	800,000	0,041	0,088
-527,277	-200,000	0,019	0,164
-526,262	-200,000	0,005	-0,068
-525,248	1,415	-0,055	0,028
-524,233	-200,000	-0,003	-0,056
-523,218	-200,000	0,009	-0,045
-522,204	0,499	0,028	-0,014
-521,189	-68,871	-0,068	0,019
-520,175	800,000	-0,008	-0,022
-519,160	52,066	-0,021	0,015
-518,145	-83,264	0,038	-0,009
-517,131	403,185	-0,047	-0,072
-516,116	79,603	-0,127	0,098
-515,102	-200,000	0,002	-0,099
-514,087	-200,000	0,022	0,146
-513,072	134,764	-0,075	-0,071
-512,058	-78,748	0,100	0,025
-511,043	-200,000	0,011	0,126
-510,029	-134,876	0,068	0,006
-509,014	-82,963	0,066	0,015
-507,999	-200,000	-0,003	-0,136
-506,985	160,871	-0,069	0,070
-505,970	-99,181	0,036	-0,006
-504,956	-200,000	-0,036	-0,177
-503,941	-19,921	-0,099	-0,044
-502,926	183,378	-0,030	-0,032
-501,912	166,486	0,080	0,081
-500,897	-200,000	-0,013	0,079
-499,883	-65,283	-0,096	0,028
-498,868	-200,000	-0,003	-0,191
-497,853	646,907	-0,041	-0,075
-496,839	-92,423	0,174	0,035
-495,824	119,085	-0,088	-0,079
-494,810	72,851	0,067	-0,051
-493,795	16,714	0,074	0,042
-492,781	248,221	-0,033	-0,040
-491,766	-200,000	0,012	0,089
-490,751	172,052	0,118	-0,122
-489,737	-44,113	0,066	0,024
-488,722	-17,850	0,052	-0,023
-487,708	-23,624	0,036	-0,016
-486,693	-149,801	-0,041	0,002
-485,678	-145,143	0,061	-0,004
-484,664	-35,846	-0,218	-0,085
-483,649	-200,000	-0,007	-0,064
-482,635	-200,000	-0,013	-0,165
-481,620	246,157	-0,096	-0,116
-480,605	514,899	0,031	-0,053
-479,591	221,365	0,108	0,125
-478,576	800,000	0,010	0,024
-477,562	-200,000	-0,007	-0,031
-476,547	115,056	-0,120	-0,106
-475,532	455,820	-0,077	0,123
-474,518	78,906	0,095	0,074
-473,503	-39,985	0,130	0,049
-472,489	31,851	-0,060	0,037
-471,474	-93,593	0,126	-0,025
-470,459	561,529	-0,050	-0,087
-469,445	-200,000	0,006	-0,060
-468,430	-200,000	0,019	-0,152
-467,416	800,000	0,042	0,085
-466,401	322,602	-0,035	0,048
-465,386	-122,528	-0,041	0,005
-464,372	417,300	0,046	0,071
-463,357	-24,850	-0,073	0,031
-462,343	800,000	-0,068	0,141
-461,328	375,191	0,052	-0,077
-460,313	-40,048	0,109	-0,041
-459,299	-140,497	-0,028	0,002
-458,284	58,748	-0,040	0,028
-457,270	-47,543	-0,175	-0,061
-456,255	-20,631	-0,082	0,036
-455,241	-82,867	-0,119	-0,027
-454,226	94,412	0,023	0,019
-453,211	45,584	-0,051	-0,034
-452,197	-128,515	0,162	-0,016
-451,182	119,255	-0,075	-0,066
-450,168	547,870	0,093	-0,161
-449,153	483,497	-0,050	-0,082
-448,138	-200,000	-0,004	0,065
-447,124	800,000	-0,060	-0,139
-446,109	-6,942	0,080	-0,039
-445,095	-113,470	0,061	0,008
-444,080	-200,000	-0,012	0,135
-443,065	-9,004	-0,083	0,040
-442,051	-200,000	-0,017	-0,086
-441,036	-79,299	0,118	-0,028
-440,022	235,322	-0,055	0,065
-439,007	-200,000	0,024	0,213
-437,992	-98,710	0,159	-0,029
-436,978	-26,167	0,043	-0,018
-435,963	-58,812	-0,126	0,039
-434,949	-94,830	-0,031	-0,006
-433,934	2,596	0,041	0,021
-432,919	-200,000	-0,016	-0,059
-431,905	-200,000	-0,011	-0,121
-430,890	77,357	-0,119	0,091
-429,876	130,579	0,040	-0,036
-428,861	-200,000	0,023	0,123
-427,846	60,730	0,073	0,052
-426,832	365,058	-0,024	-0,034
-425,817	719,755	0,020	-0,038
-424,803	-200,000	-0,015	-0,109
-423,788	800,000	0,046	0,107
-422,773	-36,809	0,107	-0,041
-421,759	-85,605	0,042	0,009
-420,744	737,771	0,037	-0,071
-419,730	587,896	0,090	-0,160
-418,715	175,873	-0,098	-0,102
-417,701	-142,598	-0,156	0,011
-416,686	188,840	0,034	0,037
-415,671	800,000	-0,029	-0,064
-414,657	-200,000	-0,009	0,076
-413,642	62,178	-0,071	-0,051
-412,628	-200,000	-0,025	-0,095
-411,613	72,052	0,006	-0,004
-410,598	83,982	-0,092	0,073
-409,584	375,001	0,046	-0,068
-408,569	-89,413	0,071	0,015
-407,555	-5,474	-0,039	0,019
-406,540	546,877	-0,042	0,073
-405,525	493,174	-0,080	-0,132
-404,511	-200,000	-0,003	-0,054
-403,496	142,695	-0,062	-0,059
-402,482	800,000	-0,021	-0,045
-401,467	-200,000	0,000	-0,139
-400,452	56,790	-0,058	0,040
-399,438	-9,719	0,088	0,042
-398,423	-132,755	-0,145	0,013
-397,409	-200,000	0,011	0,048
-396,394	658,510	-0,049	-0,091
-395,379	-200,000	0,010	0,100
-394,365	-200,000	0,012	0,059
-393,350	800,000	0,028	-0,073
-392,336	-200,000	0,014	-0,102
-391,321	-21,708	0,072	-0,031
-390,306	-192,341	0,108	-0,001
-389,292	-54,767	-0,076	-0,025
-388,277	350,328	-0,046	-0,066
-387,263	800,000	0,011	-0,031
-386,248	-200,000	-0,021	0,069
-385,233	-17,862	0,075	0,034
-384,219	-200,000	0,008	0,029
-383,204	75,312	-0,067	0,051
-382,190	17,348	-0,063	-0,036
-381,175	78,155	0,039	-0,030
-380,160	176,413	0,048	-0,050
-379,146	-200,000	0,025	0,148
-378,131	-200,000	-0,007	0,061
-377,117	270,657	0,090	0,114
-376,102	-72,338	-0,037	0,010
-375,088	-200,000	0,017	-0,137
-374,073	-89,135	0,211	0,044
-373,058	-200,000	-0,018	0,157
-372,044	53,632	0,015	0,010
-371,029	70,293	-0,083	0,062
-370,015	81,497	-0,051	0,039
-369,000	-200,000	-0,021	-0,173
-367,985	-31,209	-0,076	-0,031
-366,971	-200,000	-0,006	0,051
-365,956	-157,212	0,017	-0,001
-364,942	276,234	0,022	-0,028
-363,927	120,790	0,062	0,055
-362,912	-84,191	-0,053	-0,012
-361,898	-200,000	0,009	-0,034
-360,883	-91,455	0,098	0,020
-359,869	203,487	-0,037	0,042
-358,854	-77,524	0,078	-0,019
-357,839	-127,140	-0,095	-0,010
-356,825	516,247	0,076	0,128
-355,810	48,970	-0,058	0,039
-354,796	-200,000	-0,004	-0,016
-353,781	49,755	-0,071	0,048
-352,766	-38,430	-0,161	-0,061
-351,752	-200,000	0,035	0,139
-350,737	-200,000	0,018	0,119
-349,723	-200,000	0,005	0,026
-348,708	55,706	-0,031	0,022
-347,693	47,849	0,088	0,059
-346,679	-182,554	-0,077	0,001
-345,664	68,858	-0,072	-0,053
-344,650	800,000	0,044	0,135
-343,635	-200,000	0,003	0,054
-342,620	-200,000	0,009	-0,059
-341,606	185,057	0,070	0,075
-340,591	-72,817	-0,128	-0,033
-339,577	-1,874	0,066	-0,033
-338,562	216,567	-0,075	0,086
-337,548	-200,000	-0,027	0,135
-336,533	133,917	0,110	0,102
-335,518	214,376	0,126	0,144
-334,504	-200,000	0,006	-0,020
-333,489	673,295	0,020	0,038
-332,475	351,155	-0,061	-0,087
-331,460	800,000	-0,024	0,072
-330,445	800,000	0,013	-0,041
-329,431	375,700	-0,096	0,141
-328,416	397,709	-0,073	0,110
-327,402	14,660	0,050	-0,028
-326,387	-123,548	0,049	0,006
-325,372	-124,737	-0,118	0,013
-324,358	661,305	-0,049	-0,092
-323,343	494,883	0,033	-0,055
-322,329	-79,119	0,076	0,018
-321,314	497,565	-0,018	0,029
-320,299	800,000	0,091	0,251
-319,285	-100,314	0,032	-0,006
-318,270	41,559	-0,031	-0,020
-317,256	-200,000	0,015	-0,128
-316,241	29,892	-0,051	-0,031
-315,226	228,381	0,052	-0,061
-314,212	-76,139	0,105	0,026
-313,197	69,979	0,063	-0,046
-312,183	-200,000	-0,019	-0,067
-311,168	-46,774	-0,045	-0,016
-310,153	20,941	-0,124	-0,072
-309,139	-200,000	0,014	0,061
-308,124	-110,741	0,063	-0,009
-307,110	28,840	-0,115	-0,070
-306,095	-84,945	-0,062	0,014
-305,080	194,233	0,040	-0,043
-304,066	761,586	0,016	-0,032
-303,051	-9,066	0,074	-0,035
-302,037	216,678	0,028	0,032
-301,022	102,291	0,101	-0,085
-300,008	800,000	0,039	0,091
-298,993	13,068	0,148	0,082
-297,978	348,496	0,060	-0,085
-296,964	-26,964	-0,065	0,027
-295,949	505,546	0,065	0,109
-294,935	800,000	-0,041	-0,106
-293,920	800,000	-0,056	-0,161
-292,905	-53,659	0,084	-0,027
-291,891	800,000	0,041	0,098
-290,876	-200,000	0,006	0,109
-289,862	56,998	-0,073	0,051
-288,847	-200,000	0,012	-0,077
-287,832	800,000	0,018	0,041
-286,818	-81,351	-0,104	-0,024
-285,803	11,501	0,106	-0,058
-284,789	146,826	0,038	0,037
-283,774	-192,641	-0,032	-0,000
-282,759	351,572	-0,073	-0,104
-281,745	10,286	-0,101	-0,055
-280,730	-200,000	0,023	0,172
-279,716	-133,020	0,017	-0,002
-278,701	50,845	0,097	-0,065
-277,686	6,375	0,060	0,032
-276,672	800,000	0,040	0,091
-275,657	800,000	-0,032	0,069
-274,643	-200,000	-0,009	-0,043
-273,628	-150,536	0,032	-0,002
-272,613	-180,169	-0,084	0,001
-271,599	169,914	0,127	0,130
-270,584	25,649	0,151	0,090
-269,570	-1,553	0,004	0,002
-268,555	-200,000	-0,000	-0,025
-267,540	-79,931	-0,060	-0,014
-266,526	-200,000	0,003	0,015
-265,511	-44,406	-0,140	0,050
-264,497	800,000	0,090	-0,195
-263,482	218,421	0,115	0,131
-262,467	7,731	0,114	-0,061
-261,453	307,375	-0,014	0,019
-260,438	390,957	-0,043	0,064
-259,424	173,069	0,133	-0,137
-258,409	238,300	-0,108	0,129
-257,395	-95,503	0,067	0,013
-256,380	7,218	0,094	0,050
-255,365	-70,876	0,086	0,023
-254,351	1,922	0,024	0,012
-253,336	-200,000	0,009	0,075
-252,322	182,987	-0,027	0,028
-251,307	-19,418	-0,063	0,028
-250,292	-200,000	-0,006	0,022
-249,278	-200,000	-0,030	-0,122
-248,263	187,869	0,046	-0,049
-247,249	-116,916	0,044	0,006
-246,234	800,000	0,017	0,051
-245,219	800,000	-0,030	-0,091
-244,205	191,378	-0,116	-0,125
-243,190	-200,000	0,001	0,118
-242,176	-108,636	0,111	0,017
-241,161	-80,704	-0,115	-0,027
-240,146	-8,711	0,059	-0,028
-239,132	-75,264	0,131	-0,033
-238,117	-200,000	-0,016	-0,161
-237,103	-200,000	-0,024	0,089
-236,088	-200,000	0,017	-0,055
-235,073	17,342	-0,081	0,046
-234,059	800,000	-0,026	-0,082
-233,044	-109,835	0,034	-0,005
-232,030	-45,511	0,068	-0,024
-231,015	-113,085	-0,188	0,026
-230,000	320,804	0,019	0,026
-228,986	-200,000	0,017	0,167
-227,971	-105,671	-0,039	0,006
-226,957	-44,693	0,053	0,019
-225,942	-67,404	0,213	-0,059
-224,927	285,622	0,113	-0,145
-223,913	578,572	-0,018	-0,032
-222,898	336,536	-0,047	-0,065
-221,884	-62,429	0,052	0,015
-220,869	138,545	0,172	0,161
-219,855	-200,000	0,011	0,040
-218,840	330,183	-0,075	0,103
-217,825	800,000	-0,056	0,148
-216,811	800,000	0,047	-0,140
-215,796	65,928	0,028	-0,021
-214,782	75,809	0,038	-0,029
-213,767	396,589	0,046	-0,068
-212,752	-98,531	0,038	-0,007
-211,738	800,000	-0,060	0,162
-210,723	39,098	0,083	-0,053
-209,709	44,437	-0,047	0,030
-208,694	-14,212	-0,063	-0,029
-207,679	-51,245	-0,080	0,027
-206,665	-45,492	-0,125	-0,044
-205,650	-136,994	0,099	-0,008
-204,636	-52,636	-0,152	-0,050
-203,621	-112,739	-0,037	-0,005
-202,606	501,171	0,074	0,122
-201,592	73,306	-0,097	-0,073
-200,577	-200,000	0,022	-0,166
-199,563	76,598	0,076	0,058
-198,548	-16,167	-0,030	-0,014
-197,533	-200,000	-0,003	0,046
-196,519	25,497	-0,073	-0,043
-195,504	-200,000	-0,011	-0,057
-194,490	-200,000	-0,024	-0,109
-193,475	-47,899	-0,074	0,025
-192,460	179,097	0,126	-0,132
-191,446	43,174	0,100	-0,065
-190,431	264,538	0,102	0,128
-189,417	401,624	0,030	-0,045
-188,402	-200,000	0,020	-0,065
-187,387	75,741	0,052	-0,039
-186,373	359,335	-0,060	-0,086
-185,358	289,547	-0,042	-0,055
-184,344	336,593	0,020	0,027
-183,329	27,585	0,079	0,047
-182,315	14,523	0,074	0,041
-181,300	-104,755	-0,098	0,016
-180,285	21,321	-0,142	-0,082
-179,271	184,250	-0,070	-0,074
-178,256	-200,000	-0,002	-0,019
-177,242	-200,000	0,019	-0,126
-176,227	-200,000	0,026	0,132
-175,212	327,366	0,013	-0,018
-174,198	571,833	0,071	0,124
-173,183	-157,435	-0,084	-0,004
-172,169	-53,077	-0,152	-0,050
-171,154	98,791	-0,080	0,065
-170,139	-17,672	-0,088	-0,039
-169,125	800,000	0,045	0,104
-168,110	48,070	0,136	0,091
-167,096	-200,000	-0,005	-0,044
-166,081	-26,759	-0,062	-0,026
-165,066	-200,000	-0,005	-0,049
-164,052	-142,593	0,068	0,005
-163,037	-67,217	-0,048	0,013
-162,023	127,408	0,090	-0,081
-161,008	-200,000	0,000	0,001
-159,993	108,299	0,089	-0,075
-158,979	5,769	-0,061	-0,032
-157,964	-40,261	-0,139	0,051
-156,950	800,000	0,041	0,089
-155,935	514,349	-0,044	0,073
-154,920	-45,471	-0,124	-0,044
-153,906	-91,417	0,186	0,038
-152,891	-155,386	-0,096	0,004
-151,877	-72,924	0,045	-0,012
-150,862	339,296	-0,058	-0,081
-149,847	-200,000	0,031	-0,163
-148,833	-132,776	0,097	0,009
-147,818	-200,000	-0,023	0,099
-146,804	73,748	0,088	-0,066
-145,789	800,000	-0,005	0,012
-144,775	-200,000	-0,013	0,043
-143,760	-129,069	-0,085	0,008
-142,745	334,345	0,063	0,087
-141,731	-56,913	0,077	0,024
-140,716	-113,771	0,044	-0,006
-139,702	-200,000	0,000	0,038
-138,687	-9,107	0,036	0,017
-137,672	147,780	-0,049	-0,047
-136,658	66,637	-0,078	0,057
-135,643	-53,383	0,050	0,016
-134,629	-49,715	0,109	0,037
-133,614	686,249	0,065	-0,122
-132,599	75,178	0,081	0,061
-131,585	79,347	0,042	0,032
-130,570	28,008	0,011	-0,007
-129,556	316,354	-0,077	-0,104
-128,541	160,464	-0,115	-0,114
-127,526	-19,299	-0,045	0,020
-126,512	322,311	0,074	0,101
-125,497	513,018	-0,071	0,118
-124,483	800,000	0,010	0,024
-123,468	-2,473	-0,087	-0,043
-122,453	-200,000	0,015	0,052
-121,439	-82,967	0,079	-0,018
-120,424	-200,000	0,034	-0,196
-119,410	33,030	-0,011	-0,007
-118,395	-152,090	0,095	-0,005
-117,380	-16,077	0,048	0,022
-116,366	115,124	-0,139	0,120
-115,351	-200,000	0,001	-0,042
-114,337	800,000	-0,113	-0,317
-113,322	569,413	0,036	0,063
-112,307	800,000	0,047	-0,106
-111,293	800,000	-0,028	0,082
-110,278	-19,933	0,109	0,048
-109,264	800,000	0,019	-0,043
-108,249	-200,000	-0,012	0,055
-107,234	558,705	0,034	-0,058
-106,220	275,844	-0,128	0,162
-105,205	-200,000	0,011	0,076
-104,191	297,973	-0,018	-0,024
-103,176	-200,000	0,003	0,022
-102,162	800,000	0,042	0,125
-101,147	-200,000	-0,009	-0,044
-100,132	-48,507	-0,156	-0,053
-99,118	-131,598	-0,080	0,007
-98,103	206,332	0,060	-0,067
-97,089	85,618	0,009	-0,007
-96,074	-99,831	0,053	0,009
-95,059	-78,423	0,012	0,003
-94,045	-124,607	-0,038	0,004
-93,030	-85,805	0,134	0,029
-92,016	773,737	-0,061	0,118
-91,001	-149,187	0,077	0,004
-89,986	-200,000	-0,004	0,099
-88,972	-200,000	-0,009	0,040
-87,957	-200,000	-0,016	0,065
-86,943	602,016	0,070	-0,123
-85,928	-200,000	0,004	-0,131
-84,913	4,258	0,122	0,063
-83,899	553,003	0,059	-0,102
-82,884	401,040	0,015	-0,022
-81,870	281,954	-0,034	0,043
-80,855	-74,528	0,090	0,023
-79,840	186,081	0,072	-0,076
-78,826	-200,000	-0,015	-0,050
-77,811	122,538	-0,109	-0,097
-76,797	272,824	0,064	-0,080
-75,782	108,119	-0,105	0,089
-74,767	137,938	0,042	0,039
-73,753	72,886	0,098	-0,073
-72,738	-107,421	0,157	-0,024
-71,724	-115,212	-0,136	0,018
-70,709	-5,443	-0,071	0,034
-69,694	-110,962	-0,064	0,009
-68,680	409,519	0,064	0,096
-67,665	-136,177	0,084	-0,007
-66,651	-99,856	-0,082	0,014
-65,636	299,197	0,067	0,088
-64,622	-200,000	0,017	0,110
-63,607	-135,960	-0,092	0,008
-62,592	172,353	-0,045	0,046
-61,578	297,162	0,070	0,091
-60,563	-6,295	0,080	0,039
-59,549	-59,947	-0,019	0,006
-58,534	-19,088	-1,484	-0,652
-57,519	381,569	-1,496	-2,187
-56,505	-200,000	-0,388	-4,549
-55,490	112,513	0,841	0,722
-54,476	800,000	4,760	11,226
-53,461	-200,000	17,841	285,301
-52,446	800,000	722,762	2231,965
-51,432	563,306	1637,715	2824,325
-50,417	80,570	1660,988	1268,546
-49,403	23,553	1534,925	893,778
-48,388	17,551	1457,832	819,874
-47,373	18,175	1447,707	817,145
-46,359	17,728	1438,313	809,678
-45,344	15,810	1433,686	797,898
-44,330	15,729	1431,615	796,331
-43,315	15,705	1430,105	795,345
-42,300	15,732	1428,317	794,446
-41,286	15,740	1427,366	793,924
-40,271	15,691	1426,090	792,949
-39,257	15,775	1424,577	792,476
-38,242	15,769	1423,517	791,826
-37,227	15,820	1422,064	791,227
-36,213	15,751	1420,730	790,125
-35,198	15,789	1419,630	789,661
-34,184	15,822	1418,723	789,283
-33,169	15,730	1417,558	788,170
-32,154	15,810	1416,400	787,871
-31,140	15,795	1414,975	786,976
-30,125	15,781	1413,922	786,292
-29,111	15,806	1412,734	785,722
-28,096	15,785	1411,708	785,019
-27,082	15,723	1410,664	784,117
-26,067	15,710	1409,635	783,451
-25,052	15,693	1408,479	782,700
-24,038	15,720	1407,436	782,214
-23,023	15,707	1406,376	781,533
-22,009	15,683	1405,361	780,825
-20,994	15,663	1404,555	780,253
-19,979	15,644	1403,919	779,781
-18,965	15,617	1402,654	778,921
-17,950	15,667	1401,667	778,575
-16,936	15,624	1400,641	777,777
-15,921	15,601	1399,445	776,974
-14,906	15,604	1398,595	776,486
-13,892	15,602	1397,640	775,916
-12,877	15,596	1396,799	775,387
-11,863	15,652	1395,748	775,033
-10,848	15,620	1394,851	774,355
-9,833	15,574	1393,912	773,590
-8,819	15,521	1393,184	772,913
-7,804	15,532	1392,232	772,404
-6,790	15,535	1391,252	771,845
-5,775	15,476	1390,301	771,014
-4,760	15,497	1389,374	770,565
-3,746	15,514	1388,508	770,135
-2,731	15,520	1387,577	769,612
-1,717	15,465	1386,683	768,836
-0,702	15,490	1384,853	767,903
0,313	19,183	1305,271	740,881
1,327	35,467	706,888	439,026
2,342	54,128	125,324	85,347
3,356	3,499	16,516	8,507
4,371	12,643	3,039	1,658
5,386	21,308	0,501	0,288
6,400	271,470	0,043	0,054
7,415	224,561	-0,181	-0,208
8,429	70,926	-0,371	-0,272
9,444	97,919	-0,259	-0,211
10,459	44,814	-0,327	-0,213
11,473	-51,475	-0,315	-0,104
12,488	44,532	-0,350	-0,227
13,502	-70,796	-0,433	-0,115
14,517	71,451	-0,251	-0,184
15,531	-24,253	-0,453	-0,190
16,546	73,265	-0,290	-0,215
17,561	542,798	-0,192	-0,326
18,575	-107,360	-0,214	-0,033
19,590	63,611	-0,336	-0,239
20,604	-29,743	-0,294	-0,118
21,619	65,680	-0,478	-0,342
22,634	95,459	-0,545	-0,440
23,648	0,332	-0,476	-0,240
24,663	142,653	-0,294	-0,277
25,677	36,153	-0,385	-0,240
26,692	-0,029	-0,475	-0,239
27,707	-62,129	-0,433	-0,127
28,721	-29,711	-0,369	-0,148
29,736	116,537	-0,345	-0,299
30,750	170,619	-0,322	-0,326
31,765	6,545	-0,321	-0,168
32,780	140,097	-0,450	-0,420
33,794	80,385	-0,277	-0,211
34,809	-10,538	-0,421	-0,196
35,823	99,977	-0,335	-0,274
36,838	-78,416	-0,414	-0,100
37,853	49,263	-0,421	-0,279
38,867	163,347	-0,382	-0,380
39,882	154,940	-0,370	-0,359
40,896	12,349	-0,278	-0,151
41,911	800,000	-0,177	-0,347
42,926	214,325	-0,372	-0,416
43,940	7,344	-0,325	-0,171
44,955	7,897	-0,366	-0,193
45,969	124,142	-0,386	-0,342
46,984	167,698	-0,350	-0,351
47,999	76,266	-0,208	-0,156
49,013	160,560	-0,295	-0,291
50,028	36,180	-0,391	-0,242
51,042	89,769	-0,421	-0,332
52,057	19,152	-0,382	-0,216
53,071	185,767	-0,290	-0,305
54,086	-4,413	-0,354	-0,172
55,101	-128,421	-0,402	-0,040
56,115	92,153	-0,226	-0,179
57,130	34,921	-0,275	-0,169
58,144	-16,951	-0,372	-0,165
59,159	50,591	-0,392	-0,261
60,174	34,451	-0,412	-0,253
61,188	21,153	-0,345	-0,197
62,203	143,629	-0,241	-0,226
63,217	63,268	-0,305	-0,215
64,232	-103,523	-0,339	-0,056
65,247	64,945	-0,437	-0,311
66,261	265,451	-0,175	-0,216
67,276	-78,803	-0,406	-0,097
68,290	83,031	-0,369	-0,283
69,305	186,774	-0,306	-0,321
70,320	-123,799	-0,389	-0,043
71,334	22,117	-0,331	-0,190
72,349	-45,562	-0,386	-0,134
73,363	115,951	-0,369	-0,318
74,378	101,865	-0,334	-0,275
75,393	421,239	-0,179	-0,271
76,407	-5,458	-0,409	-0,197
77,422	-93,449	-0,309	-0,060
78,436	-149,176	-0,377	-0,021
79,451	31,048	-0,301	-0,181
80,466	-46,089	-0,423	-0,146
81,480	15,940	-0,319	-0,177
82,495	38,871	-0,408	-0,256
83,509	-51,144	-0,486	-0,159
84,524	-0,198	-0,366	-0,183
85,539	77,626	-0,250	-0,187
86,553	-175,245	-0,339	-0,006
87,568	-26,961	-0,344	-0,141
88,582	534,735	-0,171	-0,286
89,597	-8,035	-0,290	-0,137
90,611	41,956	-0,339	-0,216
91,626	29,527	-0,208	-0,124
92,641	14,036	-0,250	-0,137
93,655	208,349	-0,225	-0,248
94,670	28,276	-0,281	-0,167
95,684	4,147	-0,348	-0,178
96,699	36,728	-0,279	-0,173
97,714	225,085	-0,226	-0,258
98,728	-65,633	-0,313	-0,088
99,743	72,949	-0,199	-0,146
100,757	141,820	-0,196	-0,183
101,772	9,644	-0,347	-0,184
102,787	9,744	-0,402	-0,213
103,801	46,894	-0,294	-0,192
104,816	-43,428	-0,320	-0,113
105,830	-179,454	-0,157	-0,002
106,845	171,991	-0,081	-0,082
107,860	-20,246	-0,265	-0,114
108,874	-47,199	-0,302	-0,103
109,889	77,748	-0,220	-0,164
110,903	477,169	-0,189	-0,301
111,918	180,654	-0,270	-0,279
112,933	68,542	-0,294	-0,211
113,947	58,529	-0,227	-0,156
114,962	91,182	-0,203	-0,160
115,976	58,104	-0,318	-0,218
116,991	30,597	-0,189	-0,113
118,006	79,450	-0,304	-0,228
119,020	143,543	-0,231	-0,216
120,035	-38,599	-0,389	-0,143
121,049	-173,464	-0,179	0,004
122,064	-23,344	-0,228	-0,096
123,079	45,792	-0,279	-0,181
124,093	-67,397	-0,331	-0,091
125,108	34,472	-0,170	-0,104
126,122	67,979	-0,274	-0,197
127,137	222,693	-0,206	-0,233
128,151	162,429	-0,145	-0,142
129,166	220,964	-0,173	-0,195
130,181	141,029	-0,218	-0,202
131,195	301,630	-0,207	-0,269
132,210	85,049	-0,330	-0,253
133,224	50,107	-0,239	-0,158
134,239	-21,135	-0,311	-0,133
135,254	85,396	-0,243	-0,186
136,268	-132,790	-0,094	-0,008
137,283	165,088	-0,187	-0,186
138,297	26,074	-0,414	-0,242
139,312	94,314	-0,205	-0,163
140,327	530,121	-0,145	-0,240
141,341	-200,000	0,019	-0,161
142,356	-12,291	-0,162	0,074
143,370	68,626	-0,290	-0,208
144,385	44,473	-0,206	-0,132
145,400	92,383	-0,263	-0,208
146,414	536,681	-0,203	-0,338
147,429	101,638	-0,357	-0,291
148,443	210,523	-0,265	-0,292
149,458	44,801	-0,289	-0,186
150,473	126,631	-0,192	-0,170
151,487	133,129	-0,211	-0,191
152,502	214,156	-0,263	-0,292
153,516	-1,669	-0,244	-0,120
154,531	186,300	-0,249	-0,259
155,546	384,446	-0,213	-0,308
156,560	93,248	-0,302	-0,239
157,575	21,458	-0,228	-0,129
158,589	-168,008	-0,287	0,008
159,604	75,322	-0,257	-0,189
160,619	360,902	-0,251	-0,353
161,633	86,153	-0,251	-0,193
162,648	58,556	-0,332	-0,228
163,662	204,360	-0,138	-0,149
164,677	27,244	-0,203	-0,119
165,692	-169,260	-0,289	-0,007
166,706	81,740	-0,284	-0,215
167,721	43,199	-0,282	-0,179
168,735	52,597	-0,306	-0,204
169,750	135,320	-0,231	-0,210
170,764	92,835	-0,184	-0,145
171,779	-18,265	-0,137	-0,059
172,794	-87,321	-0,215	-0,045
173,808	-78,137	-0,200	-0,048
174,823	448,746	-0,104	-0,161
175,837	180,509	-0,148	-0,152
176,852	27,533	-0,241	-0,141
177,867	9,328	-0,301	-0,158
178,881	18,261	-0,176	-0,098
179,896	63,136	-0,185	-0,129
180,910	171,214	-0,249	-0,250
181,925	293,046	-0,105	-0,134
182,940	120,896	-0,251	-0,218
183,954	-46,000	-0,277	-0,095
184,969	504,816	-0,235	-0,381
185,983	73,180	-0,238	-0,174
186,998	90,360	-0,215	-0,168
188,013	25,731	-0,291	-0,169
189,027	4,731	-0,352	-0,180
190,042	45,092	-0,308	-0,198
191,056	94,461	-0,251	-0,198
192,071	104,943	-0,139	-0,114
193,086	25,947	-0,202	-0,117
194,100	369,489	-0,134	-0,190
195,115	-175,228	-0,242	0,005
196,129	144,667	-0,196	-0,182
197,144	-80,123	-0,227	-0,053
198,159	-61,314	-0,269	-0,078
199,173	15,263	-0,232	-0,126
200,188	800,000	-0,092	-0,194
201,202	-77,983	-0,244	-0,058
202,217	-59,062	-0,223	-0,066
203,232	-127,538	-0,247	-0,025
204,246	91,218	-0,288	-0,225
205,261	-75,671	-0,227	-0,056
206,275	56,102	-0,124	-0,084
207,290	3,694	-0,095	-0,048
208,304	280,216	-0,092	-0,114
209,319	-50,466	-0,242	-0,079
210,334	150,367	-0,179	-0,169
211,348	-63,744	-0,233	-0,066
212,363	136,039	-0,248	-0,225
213,377	117,209	-0,161	-0,138
214,392	-10,813	-0,146	-0,067
215,407	53,638	-0,230	-0,153
216,421	-62,857	-0,244	-0,070
217,436	-20,391	-0,098	-0,042
218,450	22,233	-0,227	-0,129
219,465	-38,479	-0,348	-0,127
220,480	2,065	-0,241	-0,120
221,494	413,636	-0,131	-0,195
222,509	225,829	-0,101	-0,114
223,523	631,695	-0,116	-0,206
224,538	800,000	-0,102	-0,215
225,553	454,082	-0,159	-0,246
226,567	423,676	-0,105	-0,158
227,582	99,920	-0,279	-0,225
228,596	-25,220	-0,232	-0,095
229,611	68,598	-0,151	-0,108
230,626	784,574	-0,079	-0,152
231,640	-84,633	-0,174	-0,038
232,655	800,000	-0,103	-0,241
233,669	83,655	-0,184	-0,139
234,684	65,075	-0,145	-0,102
235,699	800,000	-0,099	-0,276
236,713	-45,132	-0,208	-0,072
237,728	-100,555	-0,199	-0,034
238,742	-153,540	-0,216	0,010
239,757	291,556	-0,133	-0,169
240,772	275,383	-0,140	-0,173
241,786	357,481	-0,155	-0,216
242,801	-38,932	-0,238	-0,087
243,815	-34,203	-0,207	-0,078
244,830	-200,000	-0,063	-0,197
245,844	72,144	-0,296	-0,214
246,859	328,721	-0,148	-0,198
247,874	124,334	-0,246	-0,215
248,888	157,669	-0,220	-0,211
249,903	-104,319	-0,399	-0,064
250,917	41,335	-0,143	-0,090
251,932	-49,783	-0,066	0,022
252,947	92,309	-0,204	-0,159
253,961	110,581	-0,192	-0,160
254,976	695,261	-0,155	-0,283
255,990	800,000	-0,102	-0,222
257,005	186,985	-0,151	-0,156
258,020	-134,135	-0,229	-0,019
259,034	-84,329	-0,199	-0,043
260,049	87,387	-0,220	-0,168
261,063	-69,774	-0,186	-0,049
262,078	279,641	-0,167	-0,207
263,093	46,946	-0,255	-0,164
264,107	-36,488	-0,202	-0,075
265,122	331,852	-0,171	-0,229
266,136	65,719	-0,183	-0,128
267,151	-200,000	-0,026	-0,095
268,166	130,281	-0,206	-0,183
269,180	239,719	-0,164	-0,189
270,195	-84,432	-0,259	-0,056
271,209	387,368	-0,155	-0,223
272,224	-116,332	-0,122	-0,015
273,239	161,611	-0,112	-0,109
274,253	-59,840	-0,182	-0,054
275,268	79,798	-0,133	-0,099
276,282	72,360	-0,179	-0,129
277,297	121,515	-0,294	-0,254
278,312	33,672	-0,201	-0,121
279,326	800,000	-0,019	-0,042
280,341	29,506	-0,144	-0,084
281,355	-200,000	0,000	-0,041
282,370	87,689	-0,141	-0,108
283,384	-181,035	-0,139	0,002
284,399	71,507	-0,105	-0,075
285,414	-1,648	-0,202	-0,098
286,428	-163,151	-0,192	0,006
287,443	80,648	-0,168	-0,125
288,457	-41,794	-0,120	-0,042
289,472	185,515	-0,133	-0,137
290,487	298,278	-0,142	-0,180
291,501	-19,798	-0,288	-0,123
292,516	365,531	-0,128	-0,178
293,530	-0,913	-0,222	0,108
294,545	-200,000	-0,048	-0,216
295,560	103,609	-0,026	0,021
296,574	-35,220	-0,232	-0,087
297,589	-72,697	-0,146	-0,037
298,603	157,742	-0,171	-0,164
299,618	258,660	-0,155	-0,185
300,633	-200,000	-0,056	-0,190
301,647	-200,000	0,011	0,048
302,662	189,606	-0,138	-0,143
303,676	290,341	-0,096	-0,120
304,691	-140,131	-0,143	-0,010
305,706	6,215	-0,187	-0,096
306,720	3,870	-0,226	-0,113
307,735	-33,158	-0,111	-0,042
308,749	800,000	-0,044	0,109
309,764	800,000	-0,070	-0,149
310,779	-25,794	-0,149	-0,060
311,793	-87,890	-0,204	-0,042
312,808	170,346	-0,186	-0,183
313,822	612,268	-0,116	-0,201
314,837	193,537	-0,226	-0,236
315,852	-154,788	-0,211	-0,009
316,866	251,836	-0,134	-0,158
317,881	800,000	-0,068	-0,179
318,895	-135,742	-0,208	0,017
319,910	391,740	-0,138	-0,198
320,925	10,806	-0,269	-0,141
321,939	17,947	-0,257	-0,141
322,954	123,854	-0,236	-0,204
323,968	-33,858	-0,226	-0,085
324,983	-164,989	-0,179	-0,005
325,997	-200,000	-0,040	-0,160
327,012	-72,615	-0,081	0,020
328,027	-163,389	-0,142	0,005
329,041	80,258	-0,279	-0,206
330,056	800,000	-0,039	-0,083
331,070	-39,061	-0,049	0,018
332,085	-200,000	-0,057	-0,230
333,100	-93,402	-0,149	0,028
334,114	146,001	-0,127	-0,117
335,129	-157,146	-0,268	0,011
336,143	195,079	-0,146	-0,152
337,158	160,969	-0,102	-0,098
338,173	-175,836	-0,100	-0,002
339,187	591,723	-0,039	0,067
340,202	69,884	-0,040	0,029
341,216	198,919	-0,174	-0,184
342,231	357,752	-0,165	-0,227
343,246	43,160	-0,167	-0,105
344,260	-148,681	-0,095	0,005
345,275	-61,888	-0,123	0,035
346,289	-33,987	-0,141	-0,053
347,304	-90,835	-0,072	0,014
348,319	152,829	-0,095	-0,089
349,333	121,791	-0,157	-0,135
350,348	380,102	-0,085	-0,120
351,362	142,541	-0,110	-0,100
352,377	23,980	-0,208	-0,118
353,392	-113,334	-0,053	0,007
354,406	-60,751	-0,096	0,028
355,421	208,627	1313,471	1414,220
356,435	160,535	1474,076	1414,741
