DTS Sentinel unit serial number:	SN410029Multiplexer serial number:	ORYXHardware model number:	OX2-SRSoftware version number:	ORYX F/W v4,00 Oryx Data Collector v3.7.2.0data status	okinstallation	B3 Nyhavnadifferential loss correction	single-endedforward channel	channel 1reverse channel	N/Adate	2023/11/30time	01:22:30forward acquisition time	300,00reverse acquisition time	0,00gamma	499,1914k internal	0,3210k external	0,3210temperature offset calibration	1,0000default loss term (dB/km)	0,3820temperature slope calibration	1,0000multiplexer offset coefficient	1,0000multiplexer slope coefficient	1,0000fibre end	0,00T internal ref (°C)	10,68T ext. ref 1 (°C)	-4,91T ext. ref 2 (°C)	-5,04length (m)	temperature (°C)	Stokes	anti-Stokes-744,400	3,103	-0,266	-0,140
-743,385	665,553	0,109	0,205
-742,371	266,114	-0,153	-0,194
-741,356	-200,000	-0,044	0,292
-740,342	-200,000	0,035	-0,200
-739,327	-200,000	-0,087	0,374
-738,312	166,409	-0,200	-0,205
-737,298	800,000	-0,098	0,219
-736,283	186,298	-0,193	-0,209
-735,269	-200,000	-0,051	0,242
-734,254	405,097	-0,164	-0,252
-733,239	53,952	-0,251	0,175
-732,225	61,560	-0,167	-0,120
-731,210	-200,000	0,034	0,169
-730,196	-81,759	-0,088	-0,021
-729,181	11,646	0,072	-0,040
-728,167	13,234	-0,110	0,062
-727,152	-68,007	-0,029	-0,008
-726,137	105,046	0,087	0,074
-725,123	-15,197	-0,107	0,049
-724,108	182,220	0,074	-0,079
-723,094	-200,000	-0,036	-0,169
-722,079	-61,845	-0,045	0,014
-721,064	81,675	-0,008	-0,007
-720,050	533,471	0,038	0,065
-719,035	-200,000	0,001	0,049
-718,021	521,985	0,110	0,188
-717,006	-183,648	-0,124	0,002
-715,991	-23,413	-0,038	-0,017
-714,977	32,568	-0,070	-0,044
-713,962	-127,894	0,179	-0,018
-712,948	82,231	0,043	-0,034
-711,933	130,521	-0,131	-0,121
-710,918	-148,025	0,075	-0,004
-709,904	-32,718	-0,086	0,034
-708,889	-36,129	-0,162	-0,063
-707,875	-100,231	-0,046	-0,008
-706,860	-200,000	0,014	0,108
-705,845	-106,951	-0,097	0,015
-704,831	44,396	-0,074	-0,049
-703,816	286,933	0,108	0,142
-702,802	-200,000	-0,025	-0,114
-701,787	404,072	-0,063	-0,097
-700,772	74,937	0,066	-0,050
-699,758	-200,000	-0,008	-0,025
-698,743	-142,288	-0,063	-0,004
-697,729	-200,000	0,003	0,012
-696,714	-200,000	-0,009	0,041
-695,699	443,111	-0,029	-0,047
-694,685	-200,000	-0,004	-0,251
-693,670	-200,000	0,039	-0,215
-692,656	-77,943	-0,104	-0,026
-691,641	-200,000	0,028	-0,095
-690,627	-200,000	0,007	-0,154
-689,612	-108,664	0,096	-0,015
-688,597	-200,000	-0,022	0,075
-687,583	-61,426	-0,139	0,042
-686,568	-56,252	-0,093	-0,030
-685,554	162,055	-0,042	-0,042
-684,539	-200,000	-0,036	-0,127
-683,524	-55,190	0,035	0,011
-682,510	-82,451	-0,075	-0,017
-681,495	477,306	-0,059	-0,098
-680,481	275,816	-0,145	-0,187
-679,466	-200,000	-0,013	-0,105
-678,451	-200,000	-0,007	-0,045
-677,437	438,870	-0,038	-0,061
-676,422	90,689	-0,027	-0,022
-675,408	-114,255	-0,131	-0,018
-674,393	2,976	0,091	-0,048
-673,378	800,000	0,043	0,095
-672,364	-105,867	-0,093	-0,015
-671,349	59,004	-0,055	-0,039
-670,335	-200,000	0,002	-0,142
-669,320	201,847	-0,086	-0,096
-668,305	111,792	-0,061	-0,053
-667,291	-200,000	-0,016	-0,098
-666,276	800,000	0,086	-0,181
-665,262	173,916	-0,064	-0,067
-664,247	75,110	0,088	-0,067
-663,232	33,487	0,080	0,050
-662,218	-170,677	0,128	0,003
-661,203	433,404	-0,037	0,058
-660,189	-200,000	-0,000	-0,041
-659,174	800,000	-0,022	-0,055
-658,159	-200,000	-0,007	-0,091
-657,145	40,785	-0,074	-0,048
-656,130	-116,193	-0,147	-0,020
-655,116	360,613	0,072	0,104
-654,101	-116,405	-0,134	0,018
-653,086	-68,819	-0,023	0,006
-652,072	800,000	-0,031	-0,069
-651,057	-12,116	-0,199	-0,094
-650,043	-200,000	-0,009	-0,124
-649,028	693,210	-0,031	-0,059
-648,014	-200,000	-0,007	-0,087
-646,999	800,000	0,028	0,068
-645,984	800,000	0,028	0,065
-644,970	162,860	0,066	-0,067
-643,955	-14,832	-0,145	0,067
-642,941	-97,363	0,061	-0,011
-641,926	-195,573	-0,040	0,000
-640,911	-200,000	0,040	0,129
-639,897	-18,046	0,098	0,044
-638,882	-200,000	0,013	-0,051
-637,868	-200,000	-0,010	-0,048
-636,853	311,886	-0,034	0,046
-635,838	-200,000	-0,009	-0,048
-634,824	538,626	0,062	-0,108
-633,809	-200,000	-0,034	-0,141
-632,795	-200,000	0,026	-0,100
-631,780	-200,000	-0,007	0,093
-630,765	751,862	0,033	0,064
-629,751	-96,495	-0,077	-0,015
-628,736	398,338	-0,037	-0,057
-627,722	164,510	0,045	0,046
-626,707	-141,602	0,063	0,005
-625,692	-200,000	0,005	0,144
-624,678	691,784	-0,036	0,069
-623,663	109,508	-0,052	0,045
-622,649	-168,536	0,076	0,002
-621,634	-200,000	-0,034	-0,129
-620,619	-14,725	-0,088	-0,041
-619,605	-20,324	0,039	-0,017
-618,590	139,918	-0,048	0,045
-617,576	-117,833	0,088	0,011
-616,561	195,856	-0,077	-0,085
-615,546	175,991	-0,065	-0,068
-614,532	418,608	0,002	-0,003
-613,517	800,000	-0,051	0,160
-612,503	111,338	0,049	0,042
-611,488	571,819	0,026	0,046
-610,474	-35,054	0,049	0,019
-609,459	-117,511	-0,178	0,023
-608,444	314,356	0,024	-0,033
-607,430	526,774	0,039	-0,066
-606,415	84,630	-0,029	0,023
-605,401	800,000	0,031	-0,067
-604,386	347,207	0,036	-0,052
-603,371	273,720	-0,096	0,122
-602,357	-29,157	0,038	-0,016
-601,342	-115,357	-0,110	0,015
-600,328	277,514	-0,096	0,124
-599,313	-42,690	0,026	-0,010
-598,298	-89,471	0,161	0,034
-597,284	-23,517	-0,065	0,028
-596,269	238,859	0,021	-0,025
-595,255	800,000	0,057	-0,137
-594,240	83,302	-0,186	-0,146
-593,225	-200,000	-0,019	0,062
-592,211	569,836	0,060	0,105
-591,196	800,000	-0,007	-0,019
-590,182	23,677	0,084	0,050
-589,167	-124,748	-0,147	0,016
-588,152	-200,000	-0,033	-0,143
-587,138	676,256	-0,068	-0,128
-586,123	-110,667	-0,053	0,008
-585,109	-111,115	-0,063	0,009
-584,094	-150,665	-0,118	0,006
-583,079	-139,192	0,082	-0,006
-582,065	-68,832	0,047	-0,013
-581,050	-76,333	-0,039	0,010
-580,036	24,236	-0,099	-0,059
-579,021	-135,121	0,095	-0,008
-578,006	-117,869	-0,076	-0,010
-576,992	-200,000	-0,005	-0,032
-575,977	-200,000	-0,003	-0,052
-574,963	-7,938	-0,003	-0,001
-573,948	-200,000	0,003	0,046
-572,934	54,172	-0,094	0,065
-571,919	-200,000	-0,012	-0,042
-570,904	586,763	-0,054	-0,097
-569,890	109,424	0,074	0,064
-568,875	-58,330	0,042	-0,013
-567,861	-200,000	-0,014	-0,058
-566,846	-200,000	0,011	0,036
-565,831	227,455	-0,027	-0,031
-564,817	671,906	-0,024	-0,045
-563,802	-105,331	-0,116	0,019
-562,788	-200,000	0,034	-0,115
-561,773	800,000	0,018	0,040
-560,758	342,614	0,023	0,032
-559,744	46,881	0,014	0,009
-558,729	-200,000	-0,008	-0,131
-557,715	-110,442	-0,204	0,030
-556,700	680,576	-0,058	-0,110
-555,685	464,467	-0,006	-0,010
-554,671	130,149	0,126	-0,116
-553,656	800,000	0,014	0,039
-552,642	50,803	0,037	0,025
-551,627	-200,000	0,019	-0,098
-550,612	610,592	-0,070	0,127
-549,598	-125,005	0,106	-0,012
-548,583	152,005	-0,066	-0,065
-547,569	-200,000	0,035	-0,158
-546,554	-200,000	0,018	0,057
-545,539	59,773	0,021	0,015
-544,525	-200,000	0,020	0,066
-543,510	-200,000	0,003	0,073
-542,496	497,907	-0,075	-0,125
-541,481	-200,000	0,001	-0,074
-540,466	204,333	-0,045	0,051
-539,452	9,658	0,019	0,010
-538,437	179,300	0,084	0,088
-537,423	800,000	-0,065	0,138
-536,408	800,000	0,011	0,031
-535,393	-44,302	-0,038	0,014
-534,379	191,394	-0,056	-0,061
-533,364	-27,155	0,096	0,040
-532,350	615,041	0,039	-0,070
-531,335	-200,000	0,015	0,116
-530,321	-200,000	0,026	0,103
-529,306	-154,524	0,080	0,004
-528,291	13,416	-0,105	0,059
-527,277	-99,773	-0,088	0,016
-526,262	-200,000	-0,017	0,140
-525,248	-200,000	0,047	0,153
-524,233	43,174	0,029	0,019
-523,218	476,979	0,069	0,113
-522,204	-169,186	-0,083	-0,002
-521,189	-200,000	0,020	-0,085
-520,175	-200,000	0,029	-0,214
-519,160	10,761	-0,060	-0,033
-518,145	581,327	0,038	-0,067
-517,131	447,598	0,039	0,061
-516,116	654,683	-0,029	0,053
-515,102	800,000	0,018	0,056
-514,087	-27,767	-0,176	-0,073
-513,072	-140,429	0,010	0,001
-512,058	217,726	-0,063	0,073
-511,043	-14,775	0,064	0,029
-510,029	53,377	0,095	-0,065
-509,014	709,461	0,092	-0,176
-507,999	800,000	0,013	-0,027
-506,985	195,023	-0,088	0,097
-505,970	-200,000	-0,048	-0,158
-504,956	-17,948	-0,048	-0,021
-503,941	-200,000	0,001	-0,086
-502,926	-52,605	0,071	0,023
-501,912	-56,351	0,133	0,042
-500,897	206,018	0,049	-0,055
-499,883	32,269	-0,151	-0,094
-498,868	125,190	0,049	0,044
-497,853	-200,000	-0,014	-0,154
-496,839	-200,000	-0,015	0,052
-495,824	303,845	0,059	-0,078
-494,810	66,261	0,027	-0,019
-493,795	-200,000	-0,018	0,073
-492,781	-191,212	-0,030	0,000
-491,766	-32,368	-0,028	-0,011
-490,751	219,322	-0,093	-0,107
-489,737	-200,000	0,005	-0,064
-488,722	124,363	0,054	-0,049
-487,708	-200,000	-0,024	0,139
-486,693	340,722	-0,057	-0,081
-485,678	-200,000	-0,005	-0,039
-484,664	39,629	0,008	0,005
-483,649	287,944	-0,032	0,042
-482,635	245,967	-0,068	0,082
-481,620	-109,438	0,058	-0,009
-480,605	157,793	-0,077	0,076
-479,591	297,544	0,055	-0,073
-478,576	594,205	0,061	0,108
-477,562	570,276	-0,067	0,118
-476,547	-200,000	-0,030	0,123
-475,532	-92,397	-0,044	-0,009
-474,518	-200,000	-0,000	0,097
-473,503	-76,464	0,040	0,010
-472,489	66,590	0,025	0,018
-471,474	800,000	0,015	0,040
-470,459	-172,357	-0,164	0,004
-469,445	153,434	-0,108	-0,106
-468,430	413,252	0,087	-0,133
-467,416	-79,535	0,053	-0,013
-466,401	-200,000	0,011	0,222
-465,386	-189,455	0,052	0,000
-464,372	800,000	-0,042	-0,084
-463,357	-148,687	-0,038	-0,002
-462,343	51,796	-0,088	-0,060
-461,328	142,734	-0,121	-0,115
-460,313	800,000	0,016	0,044
-459,299	-200,000	0,004	0,072
-458,284	-156,756	0,080	-0,003
-457,270	275,332	0,055	0,071
-456,255	-59,998	-0,111	0,034
-455,241	-44,708	-0,162	0,058
-454,226	266,440	-0,062	-0,077
-453,211	472,888	-0,007	-0,011
-452,197	-165,917	-0,140	-0,004
-451,182	188,735	-0,057	0,061
-450,168	110,726	-0,047	-0,040
-449,153	-20,109	-0,026	-0,011
-448,138	165,965	-0,094	-0,096
-447,124	82,985	0,027	-0,021
-446,109	-200,000	0,001	0,004
-445,095	-94,671	0,089	0,017
-444,080	797,948	0,026	-0,051
-443,065	800,000	0,067	0,182
-442,051	800,000	-0,035	-0,100
-441,036	-200,000	0,016	0,057
-440,022	-101,215	-0,039	-0,007
-439,007	-26,638	0,050	-0,021
-437,992	-200,000	0,011	-0,119
-436,978	27,461	0,120	-0,072
-435,963	797,458	0,053	0,105
-434,949	74,256	-0,075	-0,056
-433,934	-25,030	0,068	-0,029
-432,919	800,000	0,038	-0,108
-431,905	-189,184	-0,144	-0,001
-430,890	453,076	0,054	0,087
-429,876	-44,604	-0,129	-0,046
-428,861	-200,000	0,000	0,028
-427,846	800,000	0,064	0,162
-426,832	-200,000	0,007	0,060
-425,817	83,149	-0,057	0,045
-424,803	-200,000	-0,037	0,150
-423,788	-159,127	0,169	0,007
-422,773	-200,000	0,018	0,150
-421,759	-200,000	-0,009	0,058
-420,744	70,155	0,076	0,056
-419,730	-75,089	-0,117	-0,030
-418,715	273,240	0,036	0,046
-417,701	-154,180	-0,034	-0,002
-416,686	244,515	0,077	0,092
-415,671	457,444	-0,035	-0,055
-414,657	-200,000	-0,002	-0,046
-413,642	-122,417	-0,107	-0,012
-412,628	-200,000	-0,001	-0,160
-411,613	439,576	0,030	-0,047
-410,598	-118,411	-0,133	0,017
-409,584	-200,000	0,012	0,111
-408,569	413,173	0,035	0,053
-407,555	-200,000	0,024	0,102
-406,540	26,252	0,112	-0,067
-405,525	-200,000	-0,008	-0,149
-404,511	-200,000	-0,013	-0,070
-403,496	-200,000	0,039	-0,162
-402,482	127,255	0,112	0,102
-401,467	109,102	0,091	0,078
-400,452	276,687	0,065	0,083
-399,438	-200,000	-0,026	0,268
-398,423	-200,000	-0,016	-0,130
-397,409	11,913	-0,063	0,035
-396,394	25,710	-0,097	-0,057
-395,379	383,620	-0,043	0,063
-394,365	-84,824	0,105	0,023
-393,350	800,000	0,019	-0,044
-392,336	-110,524	0,171	-0,025
-391,321	-53,034	-0,173	-0,057
-390,306	800,000	-0,038	-0,089
-389,292	-118,406	-0,173	-0,022
-388,277	800,000	0,017	0,038
-387,263	304,883	0,014	-0,018
-386,248	32,606	0,036	0,022
-385,233	-50,674	-0,084	-0,028
-384,219	4,303	0,166	0,087
-383,204	-200,000	-0,003	-0,027
-382,190	-66,049	-0,023	-0,006
-381,175	613,437	0,056	-0,100
-380,160	800,000	-0,061	-0,140
-379,146	75,185	0,100	0,075
-378,131	-200,000	0,021	0,092
-377,117	307,812	0,034	-0,045
-376,102	800,000	-0,012	-0,024
-375,088	426,598	-0,059	-0,091
-374,073	105,857	-0,027	0,023
-373,058	-200,000	-0,001	-0,122
-372,044	137,032	0,017	0,016
-371,029	234,973	0,065	0,077
-370,015	192,271	0,050	0,054
-369,000	800,000	0,024	0,067
-367,985	270,266	-0,062	-0,078
-366,971	-3,063	0,085	-0,042
-365,956	-32,382	-0,079	-0,031
-364,942	-200,000	0,039	0,160
-363,927	-200,000	0,032	0,111
-362,912	304,204	-0,027	-0,036
-361,898	-200,000	-0,009	-0,077
-360,883	-200,000	0,000	-0,079
-359,869	-200,000	0,026	-0,115
-358,854	159,385	0,035	0,035
-357,839	-99,211	0,030	0,005
-356,825	250,786	0,035	0,043
-355,810	-137,268	-0,085	-0,007
-354,796	-200,000	0,019	-0,062
-353,781	800,000	-0,046	-0,106
-352,766	-139,601	0,052	-0,004
-351,752	-47,107	0,081	0,028
-350,737	39,325	0,115	-0,073
-349,723	800,000	0,008	0,025
-348,708	-73,693	0,094	-0,024
-347,693	89,212	0,098	-0,078
-346,679	-47,483	-0,063	-0,022
-345,664	227,326	0,081	-0,094
-344,650	-173,759	-0,135	-0,003
-343,635	437,181	0,011	-0,017
-342,620	-4,266	0,048	-0,024
-341,606	-111,383	-0,045	0,006
-340,591	242,827	0,035	0,041
-339,577	16,293	-0,053	-0,030
-338,562	-111,714	-0,154	0,022
-337,548	7,653	0,027	-0,014
-336,533	199,493	0,055	0,061
-335,518	158,670	0,026	-0,026
-334,504	-33,927	0,125	0,049
-333,489	-130,953	0,057	0,005
-332,475	11,280	0,070	0,038
-331,460	-63,413	-0,075	-0,022
-330,445	707,071	0,037	-0,070
-329,431	-200,000	-0,015	0,146
-328,416	-106,638	0,039	-0,006
-327,402	35,702	0,064	0,040
-326,387	-66,990	-0,116	-0,032
-325,372	-200,000	0,011	0,093
-324,358	0,027	-0,159	-0,080
-323,343	771,555	0,067	-0,132
-322,329	800,000	0,032	0,074
-321,314	800,000	0,028	0,074
-320,299	38,461	0,009	-0,006
-319,285	-38,627	0,044	-0,017
-318,270	149,326	-0,078	-0,075
-317,256	-33,671	-0,040	0,016
-316,241	-200,000	-0,006	0,037
-315,226	12,716	0,050	0,028
-314,212	-19,814	0,117	-0,052
-313,197	-200,000	0,020	0,080
-312,183	-88,526	0,060	0,013
-311,168	19,840	-0,178	-0,102
-310,153	217,317	0,092	0,105
-309,139	787,219	0,026	0,052
-308,124	800,000	0,029	-0,083
-307,110	800,000	0,039	0,089
-306,095	517,888	0,051	0,085
-305,080	677,177	0,054	-0,100
-304,066	800,000	0,035	-0,079
-303,051	65,599	-0,126	-0,091
-302,037	800,000	0,051	-0,110
-301,022	-200,000	-0,000	0,105
-300,008	658,345	-0,022	0,041
-298,993	800,000	0,032	-0,094
-297,978	-47,255	0,070	0,024
-296,964	-200,000	-0,004	-0,050
-295,949	800,000	-0,040	-0,117
-294,935	718,954	0,062	-0,118
-293,920	800,000	0,047	0,130
-292,905	272,830	-0,102	0,128
-291,891	-200,000	0,042	0,169
-290,876	-9,374	-0,123	0,059
-289,862	-72,186	0,179	-0,047
-288,847	-6,792	0,026	0,013
-287,832	-121,697	0,083	-0,010
-286,818	-35,889	0,055	-0,021
-285,803	422,364	0,051	0,079
-284,789	-166,313	0,118	-0,003
-283,774	-200,000	-0,042	-0,172
-282,759	-49,060	0,144	0,049
-281,745	8,956	-0,025	0,013
-280,730	346,909	-0,064	0,090
-279,716	-91,648	0,116	0,023
-278,701	-200,000	0,007	0,039
-277,686	-200,000	-0,000	-0,004
-276,672	118,835	0,060	-0,053
-275,657	-200,000	-0,003	-0,012
-274,643	455,357	-0,075	-0,119
-273,628	14,339	-0,096	-0,053
-272,613	396,094	-0,010	-0,015
-271,599	-70,034	0,040	0,011
-270,584	-200,000	0,011	0,229
-269,570	-93,747	0,153	0,030
-268,555	-25,368	0,076	0,032
-267,540	-200,000	-0,006	-0,124
-266,526	104,962	0,068	-0,057
-265,511	-200,000	0,018	0,064
-264,497	129,530	0,097	-0,088
-263,482	-200,000	0,020	0,113
-262,467	-36,235	0,072	0,028
-261,453	-16,452	-0,046	0,021
-260,438	240,776	0,023	-0,027
-259,424	295,052	0,027	0,035
-258,409	224,493	0,078	-0,090
-257,395	479,310	-0,051	0,082
-256,380	98,421	0,072	-0,059
-255,365	-127,060	-0,086	0,009
-254,351	-100,131	-0,083	0,015
-253,336	-200,000	0,024	-0,134
-252,322	99,921	-0,077	-0,064
-251,307	67,180	0,113	0,082
-250,292	-134,152	0,150	0,013
-249,278	800,000	-0,029	0,080
-248,263	390,958	0,142	0,210
-247,249	-22,178	-0,038	0,016
-246,234	800,000	-0,024	-0,070
-245,219	800,000	0,028	-0,058
-244,205	273,656	0,050	0,063
-243,190	544,342	0,055	-0,093
-242,176	-15,471	0,049	0,022
-241,161	-200,000	-0,009	0,220
-240,146	800,000	-0,033	0,092
-239,132	-9,894	0,037	-0,017
-238,117	-200,000	0,028	-0,136
-237,103	109,433	-0,102	-0,087
-236,088	-81,414	0,092	0,021
-235,073	-95,093	-0,012	0,002
-234,059	-200,000	-0,008	0,070
-233,044	361,882	0,030	-0,043
-232,030	256,600	-0,102	0,125
-231,015	26,338	-0,096	0,057
-230,000	166,438	-0,054	-0,054
-228,986	88,414	-0,074	-0,058
-227,971	-112,466	0,184	0,026
-226,957	166,190	0,091	0,091
-225,942	-57,491	-0,050	0,015
-224,927	360,192	0,078	0,112
-223,913	788,815	-0,042	0,082
-222,898	15,606	0,015	-0,008
-221,884	-200,000	-0,011	-0,170
-220,869	-200,000	-0,040	-0,230
-219,855	183,010	0,068	0,072
-218,840	312,038	-0,057	0,076
-217,825	-15,466	-0,103	-0,047
-216,811	482,232	-0,105	-0,170
-215,796	-116,535	0,011	-0,001
-214,782	-186,294	0,108	0,001
-213,767	-49,510	-0,136	-0,046
-212,752	-200,000	-0,014	-0,086
-211,738	-81,417	0,072	0,017
-210,723	-57,564	-0,175	0,054
-209,709	168,850	-0,157	0,159
-208,694	41,770	-0,031	-0,020
-207,679	-200,000	-0,019	-0,107
-206,665	-200,000	0,025	0,153
-205,650	-200,000	0,008	0,110
-204,636	-200,000	0,010	-0,088
-203,621	800,000	-0,059	0,168
-202,606	62,493	-0,145	-0,102
-201,592	800,000	-0,052	-0,121
-200,577	8,253	0,110	0,059
-199,563	-47,073	0,015	0,005
-198,548	28,745	0,032	0,019
-197,533	12,628	0,138	0,075
-196,519	16,708	-0,006	0,003
-195,504	-62,237	-0,207	0,061
-194,490	76,350	0,040	-0,030
-193,475	800,000	0,072	-0,190
-192,460	323,377	-0,034	-0,046
-191,446	534,955	0,060	0,101
-190,431	800,000	0,022	0,055
-189,417	-57,642	-0,030	0,009
-188,402	-200,000	0,013	-0,051
-187,387	212,280	0,045	-0,050
-186,373	-128,359	-0,200	0,020
-185,358	-88,861	-0,058	-0,012
-184,344	157,318	0,029	0,029
-183,329	-93,312	-0,070	-0,014
-182,315	248,368	-0,051	0,061
-181,300	170,237	-0,101	-0,102
-180,285	791,957	-0,035	-0,068
-179,271	163,014	0,046	0,046
-178,256	-153,890	0,107	-0,005
-177,242	62,388	-0,069	0,049
-176,227	183,781	0,063	0,066
-175,212	167,582	0,022	0,022
-174,198	-21,440	0,080	0,035
-173,183	3,528	0,097	0,050
-172,169	49,228	-0,064	0,043
-171,154	-50,100	-0,117	-0,039
-170,139	800,000	-0,029	0,058
-169,125	-105,493	0,169	0,027
-168,110	35,416	0,080	0,050
-167,096	76,598	-0,057	0,043
-166,081	800,000	-0,076	-0,201
-165,066	-135,528	0,104	-0,009
-164,052	185,727	0,048	-0,051
-163,037	477,106	0,035	-0,056
-162,023	800,000	0,022	0,043
-161,008	-8,151	-0,070	0,033
-159,993	-105,833	0,050	0,008
-158,979	-200,000	-0,024	-0,110
-157,964	-13,519	-0,071	0,032
-156,950	5,236	-0,093	0,048
-155,935	150,204	0,057	-0,055
-154,920	431,585	-0,051	0,079
-153,906	-200,000	-0,010	-0,033
-152,891	-200,000	0,003	0,090
-151,877	-119,646	-0,025	-0,003
-150,862	-6,248	-0,189	-0,091
-149,847	-106,888	0,067	0,010
-148,833	-200,000	-0,004	-0,125
-147,818	158,113	0,011	0,011
-146,804	-200,000	0,015	0,131
-145,789	13,449	-0,110	0,060
-144,775	-200,000	0,011	-0,042
-143,760	147,717	-0,136	-0,130
-142,745	-59,631	0,055	0,017
-141,731	16,681	0,146	0,082
-140,716	800,000	-0,019	0,050
-139,702	-200,000	0,025	0,156
-138,687	-50,765	0,052	-0,017
-137,672	-136,353	0,122	0,010
-136,658	-111,606	0,093	-0,013
-135,643	800,000	0,038	-0,096
-134,629	-85,018	-0,074	0,016
-133,614	130,112	0,060	0,054
-132,599	276,529	0,077	0,097
-131,585	-200,000	-0,002	0,028
-130,570	36,601	0,047	-0,029
-129,556	177,518	0,014	0,015
-128,541	366,564	-0,098	-0,141
-127,526	-200,000	-0,008	-0,150
-126,512	4,540	-0,111	0,057
-125,497	800,000	0,038	0,094
-124,483	-129,635	-0,195	0,019
-123,468	-200,000	-0,003	0,086
-122,453	454,095	-0,009	-0,014
-121,439	-175,438	0,069	0,001
-120,424	286,563	-0,047	0,060
-119,410	800,000	-0,006	-0,016
-118,395	67,711	0,122	0,088
-117,380	309,553	0,026	-0,034
-116,366	-200,000	0,011	-0,078
-115,351	-126,661	-0,040	-0,004
-114,337	59,782	-0,049	-0,034
-113,322	-28,850	0,134	0,054
-112,307	-127,672	0,111	-0,011
-111,293	-69,274	0,102	0,027
-110,278	4,843	-0,142	0,073
-109,264	-200,000	-0,002	0,063
-108,249	-25,371	-0,132	-0,055
-107,234	-200,000	-0,015	-0,050
-106,220	-61,103	0,108	-0,032
-105,205	-154,939	0,054	-0,002
-104,191	30,437	0,028	-0,017
-103,176	-10,193	-0,133	-0,062
-102,162	23,910	-0,087	0,051
-101,147	27,000	0,118	0,070
-100,132	800,000	-0,040	0,079
-99,118	712,603	-0,043	0,080
-98,103	-12,235	0,055	-0,025
-97,089	-200,000	0,028	0,093
-96,074	-200,000	0,013	0,090
-95,059	34,561	-0,069	0,043
-94,045	416,764	0,040	0,061
-93,030	51,777	-0,101	-0,068
-92,016	-200,000	-0,011	0,056
-91,001	-3,156	0,086	-0,042
-89,986	-200,000	-0,024	-0,204
-88,972	-200,000	-0,004	0,061
-87,957	800,000	0,032	-0,097
-86,943	-147,327	-0,077	-0,005
-85,928	-200,000	0,018	0,104
-84,913	7,889	-0,064	0,034
-83,899	58,856	-0,129	-0,089
-82,884	186,432	-0,038	0,040
-81,870	-200,000	0,031	-0,105
-80,855	-100,317	-0,076	-0,013
-79,840	-33,060	0,095	0,037
-78,826	146,713	-0,072	0,069
-77,811	800,000	-0,020	-0,055
-76,797	800,000	-0,075	-0,159
-75,782	-200,000	-0,040	0,130
-74,767	-31,945	0,145	-0,057
-73,753	-9,016	-0,119	0,056
-72,738	-125,676	-0,182	-0,019
-71,724	800,000	0,064	0,187
-70,709	570,693	-0,091	-0,156
-69,694	-152,720	-0,131	-0,006
-68,680	800,000	-0,023	0,065
-67,665	-200,000	0,008	0,151
-66,651	800,000	-0,032	0,097
-65,636	-200,000	-0,018	0,121
-64,622	174,589	0,101	0,104
-63,607	420,103	-0,079	0,120
-62,592	-6,587	0,077	0,037
-61,578	220,155	-0,087	-0,099
-60,563	-118,024	0,212	-0,026
-59,549	800,000	0,058	0,124
-58,534	41,214	-1,905	-1,214
-57,519	558,507	-1,281	-2,192
-56,505	-200,000	-0,278	-4,217
-55,490	453,600	0,974	1,528
-54,476	800,000	5,018	11,186
-53,461	-200,000	20,885	332,429
-52,446	800,000	757,897	2331,405
-51,432	551,554	1662,134	2828,246
-50,417	73,406	1663,391	1227,816
-49,403	18,532	1536,526	864,915
-48,388	12,513	1459,795	792,584
-47,373	19,071	1450,623	819,074
-46,359	15,711	1439,913	797,000
-45,344	10,800	1435,768	771,276
-44,330	10,733	1433,785	769,860
-43,315	10,711	1431,869	768,695
-42,300	10,702	1430,163	767,704
-41,286	10,756	1428,950	767,282
-40,271	10,714	1427,817	766,440
-39,257	10,691	1426,420	765,551
-38,242	10,753	1425,293	765,210
-37,227	10,727	1424,172	764,455
-36,213	10,726	1423,150	763,870
-35,198	10,733	1421,753	763,125
-34,184	10,777	1420,939	762,865
-33,169	10,736	1419,603	761,923
-32,154	10,789	1418,581	761,597
-31,140	10,795	1417,232	760,872
-30,125	10,869	1415,991	760,523
-29,111	10,798	1415,195	759,728
-28,096	10,772	1414,044	758,959
-27,082	10,778	1412,500	758,127
-26,067	10,700	1411,768	757,340
-25,052	10,719	1410,723	756,837
-24,038	10,703	1409,789	756,233
-23,023	10,712	1408,690	755,654
-22,009	10,739	1407,453	755,088
-20,994	10,680	1406,676	754,367
-19,979	10,719	1405,756	754,023
-18,965	10,664	1404,941	753,299
-17,950	10,667	1404,024	752,791
-16,936	10,633	1403,251	752,187
-15,921	10,607	1402,201	751,476
-14,906	10,570	1401,200	750,738
-13,892	10,662	1400,069	750,531
-12,877	10,618	1399,342	749,906
-11,863	10,645	1398,544	749,572
-10,848	10,649	1397,436	748,968
-9,833	10,566	1396,781	748,202
-8,819	10,538	1395,855	747,547
-7,804	10,516	1395,151	747,040
-6,790	10,519	1394,136	746,477
-5,775	10,529	1392,997	745,887
-4,760	10,545	1391,946	745,367
-3,746	10,517	1390,943	744,672
-2,731	10,495	1390,446	744,272
-1,717	10,505	1389,395	743,729
-0,702	10,500	1387,462	742,640
0,313	14,480	1300,883	714,542
1,327	30,621	692,336	416,982
2,342	47,683	120,209	79,005
3,356	1,045	16,503	8,323
4,371	6,404	3,459	1,807
5,386	-44,560	0,897	0,315
6,400	477,182	0,168	0,269
7,415	63,795	-0,230	-0,163
8,429	17,861	-0,434	-0,243
9,444	-2,058	-0,293	-0,145
10,459	175,515	-0,280	-0,287
11,473	23,849	-0,279	-0,162
12,488	-56,118	-0,127	-0,040
13,502	18,104	-0,269	-0,151
14,517	191,651	-0,250	-0,266
15,531	7,808	-0,436	-0,229
16,546	24,233	-0,398	-0,231
17,561	17,177	-0,245	-0,137
18,575	-163,472	-0,237	0,008
19,590	162,479	-0,235	-0,232
20,604	-87,716	-0,321	-0,068
21,619	49,968	-0,327	-0,217
22,634	18,010	-0,442	-0,248
23,648	185,564	-0,330	-0,345
24,663	21,493	-0,379	-0,216
25,677	100,932	-0,386	-0,316
26,692	61,965	-0,422	-0,295
27,707	62,202	-0,332	-0,233
28,721	-32,423	-0,420	-0,164
29,736	51,679	-0,327	-0,219
30,750	152,032	-0,435	-0,417
31,765	74,775	-0,324	-0,240
32,780	4,572	-0,379	-0,195
33,794	93,109	-0,339	-0,270
34,809	124,048	-0,293	-0,259
35,823	-26,540	-0,458	-0,188
36,838	69,628	-0,411	-0,298
37,853	-89,678	-0,326	-0,067
38,867	20,957	-0,369	-0,210
39,882	196,601	-0,283	-0,304
40,896	273,499	-0,259	-0,323
41,911	68,906	-0,347	-0,250
42,926	141,492	-0,332	-0,309
43,940	81,199	-0,333	-0,253
44,955	21,914	-0,260	-0,149
45,969	189,318	-0,259	-0,273
46,984	222,020	-0,283	-0,321
47,999	123,638	-0,214	-0,189
49,013	176,858	-0,295	-0,302
50,028	74,009	-0,385	-0,283
51,042	-105,945	-0,442	-0,069
52,057	91,653	-0,369	-0,291
53,071	-56,939	-0,401	-0,124
54,086	100,676	-0,291	-0,237
55,101	387,989	-0,246	-0,359
56,115	-64,537	-0,416	-0,118
57,130	44,213	-0,432	-0,278
58,144	272,221	-0,256	-0,318
59,159	165,469	-0,372	-0,370
60,174	73,968	-0,381	-0,280
61,188	-32,721	-0,312	-0,121
62,203	65,563	-0,316	-0,224
63,217	185,657	-0,331	-0,345
64,232	-7,285	-0,383	-0,181
65,247	41,493	-0,318	-0,202
66,261	53,801	-0,491	-0,330
67,276	92,362	-0,371	-0,293
68,290	17,446	-0,353	-0,196
69,305	102,980	-0,296	-0,243
70,320	35,836	-0,206	-0,127
71,334	72,656	-0,308	-0,225
72,349	-153,474	-0,398	-0,019
73,363	-8,705	-0,355	-0,167
74,378	196,661	-0,235	-0,251
75,393	34,688	-0,407	-0,249
76,407	466,335	-0,089	-0,141
77,422	18,323	-0,304	-0,170
78,436	-114,910	-0,424	-0,056
79,451	78,315	-0,333	-0,249
80,466	-35,065	-0,306	-0,116
81,480	414,790	-0,176	-0,263
82,495	-9,634	-0,325	-0,151
83,509	52,947	-0,324	-0,217
84,524	60,962	-0,401	-0,278
85,539	344,621	-0,200	-0,276
86,553	-20,282	-0,292	-0,125
87,568	199,603	-0,281	-0,302
88,582	73,415	-0,315	-0,231
89,597	49,314	-0,354	-0,233
90,611	110,393	-0,263	-0,221
91,626	445,392	-0,154	-0,237
92,641	-106,184	-0,138	-0,021
93,655	-79,589	-0,353	-0,083
94,670	57,338	-0,238	-0,163
95,684	24,021	-0,272	-0,157
96,699	31,184	-0,303	-0,181
97,714	106,373	-0,168	-0,140
98,728	0,925	-0,310	-0,155
99,743	-44,181	-0,263	-0,092
100,757	-18,437	-0,281	-0,122
101,772	131,949	-0,260	-0,235
102,787	58,418	-0,223	-0,153
103,801	-37,225	-0,383	-0,143
104,816	-28,789	-0,278	-0,111
105,830	43,471	-0,212	-0,135
106,845	102,155	-0,254	-0,207
107,860	240,268	-0,166	-0,193
108,874	26,719	-0,214	-0,125
109,889	59,399	-0,324	-0,223
110,903	92,028	-0,234	-0,184
111,918	-21,190	-0,378	-0,161
112,933	287,256	-0,100	-0,127
113,947	13,053	-0,239	-0,129
114,962	-87,940	-0,137	-0,029
115,976	-4,707	-0,388	-0,186
116,991	566,902	-0,174	-0,296
118,006	16,391	-0,225	-0,124
119,020	-60,689	-0,316	-0,093
120,035	-133,274	-0,249	-0,022
121,049	708,196	-0,167	-0,309
122,064	367,566	-0,155	-0,220
123,079	130,170	-0,254	-0,227
124,093	-135,185	-0,175	0,014
125,108	95,762	-0,306	-0,244
126,122	11,289	-0,249	-0,133
127,137	-27,506	-0,370	-0,149
128,151	-2,107	-0,162	-0,079
129,166	74,593	-0,246	-0,180
130,181	65,703	-0,251	-0,177
131,195	115,000	-0,347	-0,295
132,210	-62,072	-0,250	-0,072
133,224	78,311	-0,343	-0,255
134,239	510,408	-0,146	-0,237
135,254	-51,307	-0,139	-0,045
136,268	-70,532	-0,373	-0,098
137,283	108,809	-0,187	-0,156
138,297	357,209	-0,228	-0,318
139,312	610,650	-0,188	-0,329
140,327	76,458	-0,154	-0,114
141,341	-77,735	-0,269	-0,064
142,356	-162,503	-0,230	-0,008
143,370	-62,816	-0,223	-0,064
144,385	14,450	-0,231	-0,125
145,400	21,089	-0,390	-0,220
146,414	97,145	-0,183	-0,146
147,429	-1,825	-0,284	-0,139
148,443	0,423	-0,196	-0,097
149,458	178,657	-0,170	-0,173
150,473	-90,026	-0,147	-0,030
151,487	-51,378	-0,286	-0,092
152,502	46,380	-0,314	-0,202
153,516	66,339	-0,261	-0,185
154,531	160,868	-0,245	-0,239
155,546	93,477	-0,210	-0,165
156,560	63,880	-0,284	-0,199
157,575	42,108	-0,220	-0,139
158,589	-127,103	-0,280	-0,028
159,604	16,247	-0,331	-0,181
160,619	5,922	-0,251	-0,129
161,633	123,293	-0,333	-0,290
162,648	18,859	-0,199	-0,110
163,662	296,130	-0,176	-0,224
164,677	181,544	-0,174	-0,178
165,692	197,932	-0,118	-0,126
166,706	-15,532	-0,175	-0,077
167,721	91,866	-0,269	-0,210
168,735	69,076	-0,233	-0,166
169,750	675,400	-0,197	-0,357
170,764	-23,794	-0,275	-0,114
171,779	27,935	-0,236	-0,138
172,794	-51,533	-0,326	-0,105
173,808	315,518	-0,161	-0,212
174,823	16,721	-0,176	-0,097
175,837	-200,000	-0,076	-0,259
176,852	800,000	-0,083	-0,230
177,867	800,000	-0,148	-0,330
178,881	61,615	-0,252	-0,174
179,896	98,911	-0,133	-0,107
180,910	18,848	-0,214	-0,119
181,925	-25,611	-0,226	-0,092
182,940	-9,747	-0,399	-0,184
183,954	407,257	-0,097	-0,143
184,969	218,122	-0,126	-0,140
185,983	-167,258	-0,212	-0,006
186,998	69,668	-0,212	-0,151
188,013	47,696	-0,226	-0,146
189,027	72,105	-0,180	-0,130
190,042	513,899	-0,234	-0,379
191,056	38,010	-0,135	-0,083
192,071	71,141	-0,252	-0,181
193,086	-63,523	-0,308	-0,087
194,100	-74,062	-0,270	-0,067
195,115	-52,012	-0,212	-0,068
196,129	265,578	-0,219	-0,265
197,144	53,438	-0,187	-0,124
198,159	279,772	-0,123	-0,153
199,173	-107,461	-0,264	-0,040
200,188	177,255	-0,120	-0,121
201,202	25,321	-0,207	-0,119
202,217	-55,384	-0,234	-0,072
203,232	1,152	-0,208	-0,103
204,246	110,069	-0,311	-0,259
205,261	159,157	-0,169	-0,163
206,275	66,660	-0,199	-0,140
207,290	93,690	-0,139	-0,109
208,304	239,168	-0,157	-0,181
209,319	-200,000	-0,032	-0,184
210,334	-105,288	-0,339	-0,053
211,348	103,907	-0,280	-0,228
212,363	354,756	-0,145	-0,200
213,377	50,241	-0,216	-0,141
214,392	-200,000	-0,000	-0,089
215,407	141,984	-0,107	-0,099
216,421	245,543	-0,149	-0,174
217,436	-42,391	-0,266	-0,093
218,450	664,766	-0,104	-0,187
219,465	723,856	-0,126	-0,234
220,480	122,948	-0,131	-0,114
221,494	800,000	-0,073	-0,210
222,509	130,879	-0,110	-0,098
223,523	-64,304	-0,214	-0,060
224,538	-8,053	-0,187	-0,087
225,553	800,000	-0,061	-0,140
226,567	-82,384	-0,177	-0,040
227,582	-200,000	0,024	-0,111
228,596	80,242	-0,198	-0,148
229,611	174,901	-0,104	-0,104
230,626	81,653	-0,137	-0,102
231,640	629,143	-0,135	-0,236
232,655	165,548	-0,107	-0,105
233,669	800,000	-0,097	-0,190
234,684	79,272	-0,198	-0,146
235,699	-200,000	-0,076	-0,238
236,713	571,359	-0,109	-0,183
237,728	316,818	-0,064	-0,084
238,742	418,154	-0,123	-0,182
239,757	57,447	-0,179	-0,120
240,772	662,595	-0,102	-0,182
241,786	-84,929	-0,290	-0,062
242,801	96,172	-0,108	-0,085
243,815	33,550	-0,182	-0,109
244,830	-44,127	-0,131	-0,045
245,844	-34,956	-0,216	-0,081
246,859	-84,262	-0,245	-0,053
247,874	52,355	-0,174	-0,115
248,888	147,808	-0,224	-0,208
249,903	800,000	-0,108	-0,223
250,917	21,067	-0,138	-0,077
251,932	-95,978	-0,004	-0,001
252,947	-106,601	-0,346	0,053
253,961	-104,121	-0,196	0,031
254,976	435,406	-0,123	-0,186
255,990	246,675	-0,131	-0,153
257,005	623,843	-0,143	-0,250
258,020	-27,822	-0,148	-0,059
259,034	231,834	-0,109	-0,124
260,049	579,607	-0,110	-0,186
261,063	98,058	-0,225	-0,179
262,078	174,101	-0,243	-0,242
263,093	79,566	-0,117	-0,086
264,107	800,000	-0,092	-0,200
265,122	167,651	-0,136	-0,133
266,136	138,282	-0,144	-0,130
267,151	-71,276	-0,186	-0,048
268,166	-142,632	-0,241	0,016
269,180	-96,683	-0,196	-0,035
270,195	135,550	-0,150	-0,135
271,209	-22,232	-0,123	-0,051
272,224	237,639	-0,161	-0,185
273,239	-142,673	-0,155	-0,010
274,253	-50,793	-0,103	-0,033
275,268	232,891	-0,124	-0,141
276,282	800,000	-0,055	-0,132
277,297	143,794	-0,223	-0,205
278,312	239,770	-0,111	-0,128
279,326	7,553	-0,191	-0,098
280,341	183,158	-0,155	-0,158
281,355	-133,077	-0,086	0,007
282,370	-24,132	-0,159	-0,065
283,384	83,976	-0,176	-0,132
284,399	4,782	-0,286	-0,144
285,414	197,041	-0,158	-0,166
286,428	88,961	-0,042	-0,032
287,443	-6,271	-0,049	0,023
288,457	-20,432	-0,101	-0,043
289,472	-145,272	-0,196	0,012
290,487	-59,344	-0,086	0,025
291,501	-41,466	-0,221	-0,078
292,516	65,775	-0,154	-0,107
293,530	73,789	-0,107	-0,077
294,545	81,137	-0,236	-0,175
295,560	-145,111	-0,081	-0,005
296,574	-120,513	-0,219	-0,025
297,589	800,000	-0,093	-0,201
298,603	118,666	-0,228	-0,194
299,618	56,955	-0,233	-0,156
300,633	-200,000	-0,034	-0,120
301,647	-55,062	-0,077	-0,024
302,662	-91,278	-0,087	-0,017
303,676	117,679	-0,130	-0,110
304,691	133,774	-0,203	-0,181
305,706	-5,294	-0,223	-0,105
306,720	71,217	-0,108	-0,077
307,735	-12,298	-0,174	-0,078
308,749	-129,677	-0,089	-0,008
309,764	-92,771	-0,239	-0,046
310,779	-145,629	-0,104	-0,006
311,793	-88,256	-0,218	-0,044
312,808	-4,027	-0,098	-0,046
313,822	375,293	-0,081	-0,114
314,837	-7,480	-0,111	-0,051
315,852	-53,280	-0,128	-0,040
316,866	49,599	-0,171	0,111
317,881	-68,396	-0,095	0,025
318,895	800,000	-0,069	-0,163
319,910	431,042	-0,136	-0,203
320,925	324,368	-0,093	-0,122
321,939	354,199	-0,132	-0,181
322,954	161,104	-0,067	-0,064
323,968	321,357	-0,057	-0,074
324,983	10,513	-0,125	-0,065
325,997	-79,197	-0,053	0,012
327,012	-50,419	-0,143	-0,046
328,027	14,995	-0,173	-0,093
329,041	800,000	-0,032	-0,071
330,056	53,671	-0,179	-0,118
331,070	161,564	-0,101	-0,097
332,085	187,648	-0,081	-0,083
333,100	800,000	-0,129	-0,275
334,114	-161,931	-0,200	0,007
335,129	-142,236	-0,276	-0,018
336,143	-107,804	-0,251	-0,037
337,158	-134,135	-0,124	0,010
338,173	800,000	-0,073	-0,138
339,187	44,859	-0,120	-0,075
340,202	54,404	-0,135	-0,089
341,216	-154,658	-0,174	-0,008
342,231	-125,090	-0,142	0,015
343,246	655,391	-0,070	-0,124
344,260	-150,707	-0,135	0,007
345,275	34,104	-0,151	-0,090
346,289	800,000	-0,048	-0,098
347,304	800,000	-0,015	-0,029
348,319	29,201	-0,112	-0,065
349,333	648,024	-0,109	-0,192
350,348	64,895	-0,116	-0,080
351,362	-200,000	-0,016	-0,066
352,377	800,000	0,050	-0,116
353,392	26,939	-0,030	-0,017
354,406	394,937	-0,093	-0,133
355,421	207,416	1312,549	1402,639
356,435	159,559	1472,978	1403,117
