DTS Sentinel unit serial number:	SN410029Multiplexer serial number:	ORYXHardware model number:	OX2-SRSoftware version number:	ORYX F/W v4,00 Oryx Data Collector v3.7.2.0data status	okinstallation	B3 Nyhavnadifferential loss correction	single-endedforward channel	channel 1reverse channel	N/Adate	2023/12/01time	05:52:30forward acquisition time	300,00reverse acquisition time	0,00gamma	499,1914k internal	0,3213k external	0,3213temperature offset calibration	1,0000default loss term (dB/km)	0,3820temperature slope calibration	1,0000multiplexer offset coefficient	1,0000multiplexer slope coefficient	1,0000fibre end	0,00T internal ref (°C)	7,81T ext. ref 1 (°C)	-7,05T ext. ref 2 (°C)	-7,19length (m)	temperature (°C)	Stokes	anti-Stokes-744,400	125,344	-0,255	-0,233
-743,385	-200,000	-0,086	0,317
-742,371	800,000	-0,100	-0,245
-741,356	-200,000	0,015	0,175
-740,342	800,000	-0,104	-0,246
-739,327	-200,000	0,016	0,252
-738,312	467,058	-0,128	-0,208
-737,298	168,168	-0,162	0,167
-736,283	-200,000	-0,031	-0,200
-735,269	-200,000	0,013	0,127
-734,254	324,995	-0,182	-0,253
-733,239	-44,532	-0,387	0,139
-732,225	-200,000	0,024	-0,163
-731,210	800,000	0,043	0,133
-730,196	-55,015	-0,070	0,023
-729,181	-108,433	0,098	0,015
-728,167	-200,000	-0,008	-0,038
-727,152	-18,884	-0,100	0,045
-726,137	17,193	-0,091	-0,052
-725,123	127,833	-0,052	-0,048
-724,108	-31,533	-0,133	-0,054
-723,094	-80,227	-0,135	-0,032
-722,079	228,607	-0,052	-0,061
-721,064	-4,433	0,072	-0,036
-720,050	409,701	0,058	0,089
-719,035	-63,217	-0,066	0,019
-718,021	462,979	-0,060	-0,098
-717,006	-192,427	-0,078	-0,001
-715,991	266,858	0,008	-0,011
-714,977	-200,000	-0,039	-0,127
-713,962	226,317	0,093	-0,109
-712,948	800,000	-0,036	-0,079
-711,933	-200,000	-0,010	0,051
-710,918	800,000	-0,079	0,172
-709,904	-76,716	0,063	-0,016
-708,889	174,543	-0,022	-0,023
-707,875	800,000	0,026	-0,077
-706,860	800,000	-0,049	0,127
-705,845	495,016	-0,018	0,029
-704,831	-200,000	-0,026	-0,099
-703,816	-200,000	-0,006	-0,032
-702,802	481,942	-0,071	-0,117
-701,787	592,017	-0,039	-0,070
-700,772	100,446	0,060	-0,051
-699,758	800,000	-0,042	-0,105
-698,743	76,546	0,094	0,072
-697,729	-92,635	0,071	0,014
-696,714	-200,000	0,014	0,115
-695,699	-161,564	-0,123	0,004
-694,685	-200,000	0,003	-0,052
-693,670	50,266	0,034	0,023
-692,656	-10,717	0,098	0,047
-691,641	239,308	-0,057	0,069
-690,627	-200,000	0,005	0,049
-689,612	103,244	-0,052	0,044
-688,597	-118,252	-0,032	-0,004
-687,583	-60,138	-0,059	-0,018
-686,568	-200,000	0,026	-0,123
-685,554	53,348	-0,053	-0,037
-684,539	426,659	0,014	0,022
-683,524	103,413	0,040	-0,034
-682,510	402,321	-0,066	0,100
-681,495	-1,220	0,108	-0,055
-680,481	-200,000	-0,012	-0,095
-679,466	-200,000	-0,030	-0,157
-678,451	202,721	-0,086	-0,096
-677,437	800,000	0,046	-0,115
-676,422	-200,000	-0,017	0,103
-675,408	419,019	0,113	-0,176
-674,393	-152,862	-0,065	0,003
-673,378	-13,929	-0,010	-0,005
-672,364	23,794	-0,010	-0,006
-671,349	800,000	-0,057	-0,128
-670,335	-200,000	0,009	-0,137
-669,320	-136,056	-0,090	-0,007
-668,305	800,000	-0,073	0,158
-667,291	-200,000	-0,035	0,113
-666,276	-200,000	-0,003	-0,026
-665,262	158,608	-0,055	-0,056
-664,247	-171,520	-0,073	-0,002
-663,232	-157,790	-0,078	-0,003
-662,218	569,051	-0,042	0,074
-661,203	54,332	-0,123	-0,085
-660,189	-39,444	-0,079	0,030
-659,174	-56,613	-0,052	-0,017
-658,159	800,000	-0,080	-0,163
-657,145	202,371	-0,131	-0,146
-656,130	533,524	0,069	-0,119
-655,116	652,231	-0,029	0,053
-654,101	-195,276	0,016	0,000
-653,086	-70,795	-0,087	0,024
-652,072	-200,000	-0,017	0,137
-651,057	800,000	-0,023	0,067
-650,043	336,586	0,030	0,043
-649,028	-65,156	-0,144	0,042
-648,014	-200,000	-0,006	0,119
-646,999	-200,000	0,002	0,080
-645,984	-200,000	0,020	-0,070
-644,970	800,000	0,055	-0,116
-643,955	8,239	-0,213	-0,115
-642,941	-200,000	0,010	-0,052
-641,926	-200,000	-0,008	-0,071
-640,911	131,025	0,121	-0,112
-639,897	91,274	0,023	0,019
-638,882	-200,000	-0,002	-0,019
-637,868	89,354	-0,030	0,024
-636,853	-189,799	-0,086	-0,001
-635,838	70,043	-0,187	-0,139
-634,824	800,000	0,039	-0,101
-633,809	191,874	-0,063	0,069
-632,795	-200,000	-0,002	0,153
-631,780	59,083	0,074	-0,052
-630,765	91,004	-0,052	-0,042
-629,751	-121,498	0,121	0,014
-628,736	173,228	0,078	-0,082
-627,722	-200,000	0,012	-0,132
-626,707	183,827	0,073	0,078
-625,692	48,623	-0,149	0,101
-624,678	-200,000	0,011	0,104
-623,663	-122,680	0,086	-0,010
-622,649	427,619	-0,062	-0,097
-621,634	5,493	-0,031	-0,016
-620,619	-43,870	-0,057	-0,021
-619,605	800,000	-0,010	-0,026
-618,590	357,413	0,035	-0,050
-617,576	251,991	-0,084	-0,104
-616,561	-200,000	-0,023	-0,111
-615,546	4,811	-0,115	-0,061
-614,532	800,000	-0,023	-0,066
-613,517	362,271	-0,101	-0,146
-612,503	-67,880	0,166	-0,046
-611,488	153,993	-0,107	0,106
-610,474	691,639	-0,052	0,098
-609,459	800,000	-0,051	-0,121
-608,444	423,710	0,051	-0,080
-607,430	800,000	-0,012	-0,027
-606,415	800,000	-0,028	-0,069
-605,401	-4,943	-0,077	-0,038
-604,386	-3,962	0,024	-0,012
-603,371	453,813	-0,087	-0,140
-602,357	123,547	-0,045	-0,041
-601,342	51,973	0,058	-0,040
-600,328	311,287	-0,027	-0,036
-599,313	351,626	-0,059	-0,084
-598,298	476,598	-0,042	-0,068
-597,284	81,125	0,033	-0,026
-596,269	800,000	-0,047	0,115
-595,255	-200,000	-0,035	-0,176
-594,240	-200,000	-0,010	0,077
-593,225	-110,807	-0,097	0,014
-592,211	800,000	-0,002	0,005
-591,196	-34,696	-0,064	0,025
-590,182	-150,651	0,213	-0,011
-589,167	-200,000	0,006	0,171
-588,152	521,369	-0,011	-0,018
-587,138	64,479	-0,141	-0,102
-586,123	57,858	0,045	0,032
-585,109	-200,000	-0,082	-0,000
-584,094	-53,593	-0,175	-0,057
-583,079	-70,654	0,083	-0,022
-582,065	21,597	0,135	-0,079
-581,050	-132,767	0,049	0,004
-580,036	113,532	-0,098	-0,086
-579,021	141,702	-0,051	0,049
-578,006	-200,000	0,029	-0,110
-576,992	443,091	-0,047	-0,075
-575,977	279,249	-0,055	-0,071
-574,963	-28,001	-0,038	0,016
-573,948	31,140	-0,082	-0,050
-572,934	285,376	-0,058	0,075
-571,919	-31,925	-0,037	0,015
-570,904	-200,000	-0,004	-0,120
-569,890	-9,346	-0,187	-0,090
-568,875	800,000	0,041	-0,097
-567,861	800,000	-0,065	0,150
-566,846	-164,422	0,105	0,003
-565,831	504,774	0,032	-0,053
-564,817	120,531	-0,051	0,045
-563,802	-131,402	-0,110	0,010
-562,788	-200,000	0,010	-0,109
-561,773	259,804	-0,088	-0,109
-560,758	800,000	0,010	-0,028
-559,744	-200,000	-0,005	0,131
-558,729	-200,000	-0,006	0,059
-557,715	-200,000	0,004	-0,034
-556,700	-47,452	0,126	0,044
-555,685	-200,000	-0,040	-0,196
-554,671	331,209	0,063	0,088
-553,656	-200,000	0,001	0,148
-552,642	-83,555	0,083	0,019
-551,627	4,247	0,051	0,027
-550,612	170,411	-0,019	0,019
-549,598	283,082	0,045	-0,059
-548,583	20,145	0,160	-0,093
-547,569	76,895	-0,072	-0,055
-546,554	135,899	0,091	0,085
-545,539	320,763	0,073	-0,101
-544,525	127,458	-0,069	-0,063
-543,510	109,855	0,096	-0,083
-542,496	136,918	-0,111	-0,105
-541,481	-20,715	-0,065	-0,028
-540,466	136,926	0,120	0,113
-539,452	142,844	-0,098	-0,094
-538,437	413,248	0,026	0,039
-537,423	-132,348	0,137	-0,013
-536,408	35,143	-0,052	-0,032
-535,393	443,331	-0,028	0,044
-534,379	128,548	-0,090	-0,082
-533,364	94,241	-0,074	0,061
-532,350	800,000	-0,062	0,126
-531,335	525,379	0,038	-0,064
-530,321	-149,892	0,160	-0,009
-529,306	16,213	0,029	-0,016
-528,291	-91,431	-0,121	0,025
-527,277	-200,000	0,009	-0,033
-526,262	-125,114	-0,027	-0,003
-525,248	67,457	0,044	0,032
-524,233	-75,929	0,098	0,025
-523,218	-67,181	-0,117	-0,033
-522,204	-200,000	0,002	0,075
-521,189	-110,406	0,094	-0,014
-520,175	17,084	-0,082	-0,046
-519,160	41,400	-0,003	-0,002
-518,145	39,253	0,110	0,071
-517,131	180,434	-0,081	0,085
-516,116	-40,057	0,099	-0,037
-515,102	-200,000	0,019	-0,182
-514,087	-200,000	0,015	0,143
-513,072	393,487	-0,152	0,228
-512,058	-200,000	-0,014	0,112
-511,043	-200,000	0,009	0,035
-510,029	8,142	0,100	0,054
-509,014	98,244	0,055	0,046
-507,999	196,689	0,054	-0,059
-506,985	73,283	-0,018	-0,014
-505,970	-143,332	0,081	-0,005
-504,956	-200,000	0,006	-0,026
-503,941	768,760	0,031	-0,060
-502,926	-126,527	0,089	0,009
-501,912	73,542	-0,083	0,062
-500,897	-8,157	0,136	-0,065
-499,883	800,000	-0,059	-0,129
-498,868	800,000	0,024	-0,053
-497,853	-68,204	0,072	0,020
-496,839	-200,000	0,019	0,160
-495,824	531,675	0,044	0,075
-494,810	382,385	-0,056	0,083
-493,795	33,431	-0,042	0,026
-492,781	447,229	-0,026	0,040
-491,766	-45,940	-0,039	-0,014
-490,751	-124,694	-0,071	-0,008
-489,737	229,997	-0,021	0,024
-488,722	-69,081	0,110	0,030
-487,708	800,000	-0,028	-0,063
-486,693	-150,686	0,069	-0,004
-485,678	364,477	0,083	-0,120
-484,664	-55,809	-0,131	0,042
-483,649	552,181	0,024	-0,041
-482,635	9,395	-0,129	0,070
-481,620	484,760	-0,055	-0,090
-480,605	548,215	0,107	-0,184
-479,591	-200,000	0,043	0,177
-478,576	-200,000	-0,015	0,062
-477,562	800,000	0,026	0,068
-476,547	800,000	0,038	0,105
-475,532	-200,000	-0,016	0,136
-474,518	-27,130	-0,075	0,031
-473,503	206,704	0,063	0,070
-472,489	4,473	0,095	0,050
-471,474	441,389	0,050	-0,078
-470,459	8,641	0,013	-0,007
-469,445	800,000	-0,045	-0,097
-468,430	-44,948	-0,161	0,057
-467,416	-116,368	0,038	-0,005
-466,401	79,167	-0,081	0,062
-465,386	-43,151	0,082	-0,029
-464,372	-200,000	0,006	-0,076
-463,357	-200,000	0,018	0,096
-462,343	-200,000	0,001	-0,039
-461,328	-200,000	0,008	-0,049
-460,313	-189,567	0,115	0,001
-459,299	-200,000	0,038	0,136
-458,284	-56,740	0,019	-0,006
-457,270	-200,000	0,019	-0,087
-456,255	145,701	0,031	-0,030
-455,241	-55,579	-0,127	-0,040
-454,226	800,000	-0,034	-0,074
-453,211	344,417	-0,028	-0,040
-452,197	-200,000	-0,002	0,081
-451,182	211,635	-0,046	0,052
-450,168	-9,483	0,092	0,044
-449,153	-200,000	-0,022	-0,079
-448,138	9,987	-0,091	-0,049
-447,124	-167,810	0,065	-0,002
-446,109	325,665	0,019	-0,026
-445,095	749,653	-0,087	0,170
-444,080	554,165	0,043	0,075
-443,065	-13,834	0,124	0,057
-442,051	191,179	-0,045	-0,049
-441,036	-18,076	-0,086	-0,039
-440,022	-200,000	0,029	0,162
-439,007	-36,352	0,235	0,090
-437,992	-74,430	0,038	-0,010
-436,978	-75,559	0,068	-0,017
-435,963	-141,248	0,060	0,004
-434,949	-50,594	-0,105	-0,035
-433,934	104,248	-0,051	-0,043
-432,919	-200,000	0,038	-0,179
-431,905	-19,653	-0,045	-0,020
-430,890	-200,000	-0,006	0,023
-429,876	-21,233	0,173	-0,075
-428,861	547,714	-0,057	0,098
-427,846	-200,000	0,019	-0,183
-426,832	-29,205	-0,039	-0,016
-425,817	-200,000	-0,001	-0,143
-424,803	-200,000	-0,028	-0,122
-423,788	421,680	0,103	0,159
-422,773	528,498	0,064	0,109
-421,759	-166,657	0,158	0,005
-420,744	1,002	0,134	-0,068
-419,730	-109,771	-0,155	0,023
-418,715	-135,323	-0,063	0,005
-417,701	271,335	0,045	0,057
-416,686	-89,610	0,143	-0,030
-415,671	-39,094	-0,066	-0,025
-414,657	-170,460	0,133	0,003
-413,642	-25,527	-0,070	-0,029
-412,628	-200,000	-0,036	0,124
-411,613	405,228	-0,041	0,062
-410,598	-106,214	-0,063	0,010
-409,584	800,000	-0,040	0,097
-408,569	264,278	0,060	0,075
-407,555	-200,000	-0,004	0,096
-406,540	105,351	-0,055	0,046
-405,525	800,000	0,023	-0,049
-404,511	-30,827	0,068	-0,027
-403,496	800,000	0,025	-0,051
-402,482	-171,184	0,036	-0,001
-401,467	561,124	-0,029	-0,050
-400,452	80,399	-0,034	-0,026
-399,438	800,000	0,010	0,025
-398,423	800,000	-0,025	0,052
-397,409	800,000	-0,025	0,073
-396,394	-137,322	0,145	-0,012
-395,379	-200,000	-0,007	0,043
-394,365	-51,050	-0,112	-0,037
-393,350	-32,533	-0,071	0,028
-392,336	-200,000	0,007	-0,166
-391,321	-99,672	0,101	0,018
-390,306	-200,000	0,003	-0,052
-389,292	-26,946	0,047	-0,020
-388,277	265,093	-0,005	-0,006
-387,263	25,436	-0,074	-0,044
-386,248	504,232	0,035	-0,058
-385,233	-130,499	0,094	0,009
-384,219	-0,568	0,083	0,042
-383,204	-200,000	-0,028	-0,142
-382,190	143,059	-0,100	0,095
-381,175	-74,595	-0,021	-0,005
-380,160	800,000	-0,071	0,140
-379,146	800,000	0,033	-0,092
-378,131	24,226	0,014	-0,008
-377,117	416,764	0,036	-0,055
-376,102	-64,557	0,021	-0,006
-375,088	-200,000	-0,032	-0,144
-374,073	4,766	0,031	-0,016
-373,058	723,713	-0,039	0,075
-372,044	-200,000	0,040	0,157
-371,029	-200,000	0,042	-0,164
-370,015	186,615	0,045	0,048
-369,000	800,000	0,026	0,073
-367,985	148,464	-0,107	0,103
-366,971	-200,000	-0,016	-0,058
-365,956	4,547	0,071	0,037
-364,942	-200,000	-0,007	0,088
-363,927	64,391	0,040	-0,029
-362,912	-60,821	-0,094	0,028
-361,898	149,655	0,067	0,065
-360,883	75,978	-0,092	0,069
-359,869	-200,000	0,011	-0,054
-358,854	-122,044	0,104	0,012
-357,839	157,006	0,103	0,102
-356,825	-200,000	-0,001	0,016
-355,810	64,073	0,073	-0,053
-354,796	-39,449	-0,089	-0,033
-353,781	-111,587	-0,074	0,011
-352,766	41,098	0,027	0,017
-351,752	800,000	0,025	0,070
-350,737	189,782	0,057	0,061
-349,723	-66,334	0,162	0,046
-348,708	456,072	0,101	-0,160
-347,693	800,000	-0,020	-0,044
-346,679	-116,113	0,086	0,011
-345,664	-200,000	-0,006	0,063
-344,650	-200,000	-0,002	0,014
-343,635	25,623	0,075	0,045
-342,620	109,631	-0,085	0,072
-341,606	66,802	0,059	0,042
-340,591	-116,540	0,028	0,004
-339,577	-29,659	0,047	-0,019
-338,562	375,230	-0,021	0,030
-337,548	98,438	-0,061	-0,050
-336,533	800,000	0,008	0,024
-335,518	142,521	-0,149	-0,141
-334,504	117,219	0,050	0,044
-333,489	23,554	-0,124	0,072
-332,475	353,282	0,081	-0,115
-331,460	526,812	0,021	-0,035
-330,445	-146,044	0,020	-0,001
-329,431	-16,253	0,127	-0,057
-328,416	150,775	0,097	-0,094
-327,402	-69,845	0,065	0,018
-326,387	-200,000	0,024	0,100
-325,372	-89,490	0,144	-0,030
-324,358	695,484	0,014	0,026
-323,343	-62,084	0,083	0,024
-322,329	31,377	0,069	0,042
-321,314	-158,832	-0,135	-0,005
-320,299	-200,000	0,002	0,042
-319,285	-200,000	-0,016	0,090
-318,270	576,799	-0,044	0,077
-317,256	54,294	0,068	-0,047
-316,241	-200,000	0,012	-0,187
-315,226	-200,000	0,028	0,113
-314,212	800,000	-0,017	0,051
-313,197	339,857	-0,125	0,174
-312,183	-88,023	0,015	0,003
-311,168	-48,099	0,118	0,041
-310,153	-200,000	-0,009	0,054
-309,139	800,000	-0,021	-0,052
-308,124	800,000	0,028	-0,056
-307,110	63,466	-0,076	0,054
-306,095	19,679	-0,150	0,086
-305,080	800,000	0,006	-0,017
-304,066	-13,931	-0,080	0,036
-303,051	288,829	-0,024	-0,031
-302,037	142,440	0,065	-0,061
-301,022	-136,499	0,080	0,007
-300,008	180,340	-0,029	0,030
-298,993	102,884	0,083	0,069
-297,978	-66,236	-0,098	0,028
-296,964	81,438	-0,090	-0,069
-295,949	-107,934	-0,117	-0,018
-294,935	-200,000	0,008	-0,099
-293,920	31,281	0,003	-0,002
-292,905	800,000	-0,031	-0,083
-291,891	176,078	-0,072	0,075
-290,876	498,743	-0,053	0,087
-289,862	-121,272	-0,126	-0,015
-288,847	-109,207	0,097	0,014
-287,832	46,747	-0,061	0,040
-286,818	19,697	0,021	0,012
-285,803	-200,000	0,027	0,120
-284,789	-110,544	0,073	0,011
-283,774	-73,958	-0,047	0,012
-282,759	-70,248	-0,087	-0,023
-281,745	800,000	0,062	-0,157
-280,730	68,047	-0,135	0,099
-279,716	-58,091	-0,083	-0,026
-278,701	219,702	0,074	0,084
-277,686	-200,000	0,046	0,180
-276,672	-160,189	0,075	0,003
-275,657	19,448	-0,054	0,031
-274,643	-200,000	-0,047	0,153
-273,628	435,391	-0,047	-0,074
-272,613	31,379	0,076	-0,046
-271,599	544,288	0,051	0,087
-270,584	84,645	0,097	0,075
-269,570	-164,973	0,033	-0,001
-268,555	90,694	-0,054	-0,043
-267,540	-200,000	-0,029	-0,196
-266,526	39,763	-0,076	-0,048
-265,511	-13,226	-0,015	0,007
-264,497	-3,189	0,043	-0,021
-263,482	-142,153	0,208	0,014
-262,467	389,727	0,073	-0,108
-261,453	-33,820	-0,049	0,019
-260,438	-30,281	-0,100	0,040
-259,424	-200,000	0,001	0,027
-258,409	244,903	0,047	-0,057
-257,395	-200,000	0,000	-0,054
-256,380	43,389	-0,099	0,064
-255,365	427,962	-0,044	0,068
-254,351	800,000	-0,039	-0,094
-253,336	800,000	0,016	0,034
-252,322	2,095	-0,099	0,050
-251,307	28,182	0,033	-0,020
-250,292	-77,945	0,097	-0,024
-249,278	276,260	-0,062	0,078
-248,263	171,196	0,075	0,076
-247,249	-151,605	0,091	0,005
-246,234	-200,000	0,010	-0,056
-245,219	-62,366	-0,060	-0,018
-244,205	-9,715	0,098	-0,046
-243,190	-200,000	0,008	0,041
-242,176	85,927	0,085	-0,066
-241,161	-200,000	0,011	0,082
-240,146	-137,393	-0,021	0,002
-239,132	85,936	-0,147	0,115
-238,117	326,221	-0,033	-0,044
-237,103	595,222	0,092	-0,162
-236,088	-200,000	-0,008	-0,151
-235,073	-200,000	-0,023	-0,105
-234,059	174,574	0,084	0,086
-233,044	46,365	-0,149	-0,098
-232,030	-200,000	-0,010	-0,032
-231,015	-49,658	-0,019	0,006
-230,000	525,637	-0,083	-0,140
-228,986	795,284	0,034	-0,066
-227,971	800,000	0,026	0,059
-226,957	-20,449	0,099	-0,043
-225,942	200,012	-0,091	0,099
-224,927	98,544	0,045	0,037
-223,913	332,719	-0,041	-0,056
-222,898	-130,433	0,018	0,002
-221,884	199,201	-0,084	-0,092
-220,869	-67,110	-0,052	-0,015
-219,855	6,616	-0,157	0,083
-218,840	-104,568	0,087	-0,014
-217,825	800,000	-0,008	0,019
-216,811	-98,913	0,041	0,007
-215,796	-156,825	0,064	0,003
-214,782	-130,908	-0,017	-0,002
-213,767	-142,013	0,066	-0,005
-212,752	-200,000	0,032	0,161
-211,738	209,109	0,047	-0,053
-210,723	800,000	-0,021	0,053
-209,709	-200,000	-0,016	0,143
-208,694	297,744	-0,061	-0,080
-207,679	800,000	-0,013	0,040
-206,665	27,770	0,100	0,060
-205,650	-200,000	-0,002	0,063
-204,636	-200,000	0,050	0,194
-203,621	800,000	-0,027	-0,070
-202,606	-200,000	0,007	0,093
-201,592	423,098	-0,088	0,134
-200,577	660,334	-0,076	0,140
-199,563	-200,000	0,014	0,089
-198,548	295,201	0,029	0,037
-197,533	85,148	-0,148	0,115
-196,519	471,307	0,067	0,107
-195,504	-200,000	0,003	-0,025
-194,490	369,080	-0,133	-0,192
-193,475	331,944	0,124	-0,171
-192,460	2,853	-0,061	0,031
-191,446	216,377	0,052	-0,059
-190,431	343,943	0,046	0,065
-189,417	-200,000	-0,016	0,099
-188,402	-200,000	0,002	-0,028
-187,387	-157,931	-0,102	-0,004
-186,373	233,673	0,040	0,047
-185,358	-147,028	0,104	-0,006
-184,344	800,000	0,100	0,207
-183,329	546,712	-0,063	0,107
-182,315	-156,351	0,187	0,008
-181,300	10,004	-0,184	-0,099
-180,285	-79,270	0,017	0,004
-179,271	399,681	0,050	0,075
-178,256	-137,789	-0,063	0,005
-177,242	11,254	0,014	0,007
-176,227	218,867	-0,166	0,189
-175,212	-132,106	-0,081	-0,007
-174,198	277,451	0,029	-0,036
-173,183	-200,000	-0,002	-0,086
-172,169	-59,047	-0,046	0,014
-171,154	-200,000	0,022	-0,084
-170,139	-200,000	0,017	0,115
-169,125	93,701	0,061	0,049
-168,110	82,100	0,094	-0,072
-167,096	800,000	0,048	-0,099
-166,081	222,326	-0,111	-0,127
-165,066	800,000	-0,007	0,016
-164,052	800,000	-0,062	-0,179
-163,037	190,800	-0,068	-0,073
-162,023	702,570	0,034	-0,065
-161,008	-46,681	-0,096	-0,033
-159,993	-82,122	-0,051	-0,012
-158,979	778,592	-0,032	-0,062
-157,964	-111,308	0,141	-0,020
-156,950	113,173	-0,020	0,017
-155,935	-62,678	0,061	0,018
-154,920	275,866	-0,022	-0,027
-153,906	164,512	0,173	0,173
-152,891	298,594	-0,072	0,094
-151,877	800,000	0,024	0,068
-150,862	-5,800	-0,143	-0,069
-149,847	-37,566	0,092	-0,034
-148,833	516,447	-0,021	-0,034
-147,818	800,000	0,022	-0,052
-146,804	192,746	-0,110	-0,118
-145,789	-180,240	0,226	-0,003
-144,775	800,000	0,011	-0,031
-143,760	-9,794	0,051	-0,024
-142,745	-88,977	-0,179	0,037
-141,731	-71,827	0,046	-0,012
-140,716	800,000	0,019	-0,057
-139,702	427,158	0,054	-0,083
-138,687	-115,172	-0,071	0,009
-137,672	-200,000	-0,003	-0,125
-136,658	-146,121	-0,132	-0,008
-135,643	567,932	-0,052	0,090
-134,629	-71,518	0,188	0,049
-133,614	226,328	0,034	0,039
-132,599	392,304	0,110	0,162
-131,585	-200,000	0,003	-0,140
-130,570	11,484	0,087	-0,047
-129,556	480,533	-0,086	-0,138
-128,541	-174,899	-0,093	-0,002
-127,526	117,333	-0,081	0,071
-126,512	527,476	0,090	0,150
-125,497	532,204	-0,052	0,087
-124,483	273,517	-0,065	-0,082
-123,468	-88,593	0,116	0,024
-122,453	269,226	-0,079	-0,098
-121,439	-124,197	-0,197	0,022
-120,424	19,174	0,095	0,054
-119,410	-200,000	0,003	-0,091
-118,395	-47,800	-0,196	-0,067
-117,380	328,181	0,057	0,078
-116,366	-158,095	0,121	-0,005
-115,351	-68,495	-0,012	0,003
-114,337	121,003	-0,157	-0,138
-113,322	117,395	0,065	0,056
-112,307	198,714	-0,088	0,095
-111,293	-42,376	0,056	-0,020
-110,278	238,773	0,100	0,118
-109,264	-165,401	0,045	0,001
-108,249	800,000	-0,070	0,166
-107,234	344,744	0,092	0,128
-106,220	95,493	-0,100	0,081
-105,205	-200,000	0,013	-0,123
-104,191	-71,011	-0,069	-0,018
-103,176	536,148	0,052	0,087
-102,162	-125,543	-0,092	0,010
-101,147	-48,733	-0,057	0,019
-100,132	-200,000	-0,043	-0,262
-99,118	288,228	-0,029	0,037
-98,103	-200,000	-0,030	0,095
-97,089	-43,470	0,081	-0,029
-96,074	-94,263	-0,086	0,016
-95,059	-200,000	0,009	-0,044
-94,045	-13,912	-0,047	-0,021
-93,030	-12,035	0,119	-0,055
-92,016	573,296	0,019	-0,033
-91,001	800,000	-0,023	0,066
-89,986	-38,850	-0,063	-0,024
-88,972	-30,963	0,089	-0,035
-87,957	-29,083	0,036	-0,015
-86,943	-164,951	-0,089	0,003
-85,928	17,619	0,048	0,027
-84,913	246,989	-0,077	0,092
-83,899	-200,000	-0,010	0,034
-82,884	356,931	0,121	-0,171
-81,870	-200,000	-0,005	0,079
-80,855	-200,000	0,016	0,117
-79,840	-200,000	0,002	-0,032
-78,826	295,603	-0,039	0,051
-77,811	-108,437	-0,072	0,011
-76,797	-138,039	0,006	0,000
-75,782	-200,000	0,002	-0,097
-74,767	124,375	0,139	0,123
-73,753	18,228	-0,112	0,063
-72,738	-67,513	-0,157	0,043
-71,724	-200,000	-0,006	0,062
-70,709	800,000	0,023	-0,055
-69,694	-200,000	-0,013	-0,136
-68,680	88,171	0,023	0,018
-67,665	800,000	0,030	0,075
-66,651	-200,000	0,040	0,142
-65,636	-51,646	0,056	0,018
-64,622	348,599	-0,103	-0,143
-63,607	-200,000	-0,006	-0,092
-62,592	-200,000	0,000	0,003
-61,578	109,858	-0,029	0,025
-60,563	492,035	0,014	0,023
-59,549	-200,000	0,000	0,018
-58,534	69,135	-2,102	-1,523
-57,519	529,671	-0,973	-1,627
-56,505	-200,000	-0,460	-4,612
-55,490	800,000	0,890	1,805
-54,476	800,000	5,185	11,486
-53,461	-200,000	22,696	349,871
-52,446	800,000	758,015	2288,555
-51,432	530,160	1642,452	2747,645
-50,417	67,312	1640,943	1179,377
-49,403	15,408	1518,710	838,454
-48,388	9,703	1445,001	770,373
-47,373	19,471	1437,966	813,108
-46,359	13,262	1426,344	777,222
-45,344	8,007	1422,337	750,170
-44,330	7,929	1420,394	748,748
-43,315	7,885	1418,599	747,565
-42,300	7,913	1416,915	746,778
-41,286	7,974	1415,562	746,322
-40,271	7,854	1414,312	745,068
-39,257	7,870	1413,360	744,611
-38,242	7,910	1412,255	744,189
-37,227	7,933	1410,951	743,581
-36,213	7,921	1409,658	742,815
-35,198	7,930	1408,374	742,148
-34,184	7,982	1407,462	741,884
-33,169	7,847	1406,234	740,574
-32,154	7,871	1405,518	740,281
-31,140	7,896	1404,120	739,632
-30,125	7,919	1402,693	738,959
-29,111	7,903	1401,638	738,297
-28,096	7,878	1400,538	737,573
-27,082	7,866	1399,426	736,901
-26,067	7,844	1398,337	736,197
-25,052	7,870	1397,269	735,729
-24,038	7,864	1396,140	735,076
-23,023	7,827	1395,519	734,547
-22,009	7,802	1394,537	733,886
-20,994	7,806	1393,389	733,272
-19,979	7,856	1392,455	732,980
-18,965	7,771	1391,454	732,030
-17,950	7,804	1390,532	731,668
-16,936	7,788	1389,589	731,073
-15,921	7,774	1388,560	730,436
-14,906	7,737	1387,613	729,740
-13,892	7,789	1386,747	729,493
-12,877	7,722	1386,065	728,795
-11,863	7,743	1385,240	728,430
-10,848	7,702	1384,461	727,804
-9,833	7,706	1383,397	727,234
-8,819	7,658	1382,521	726,526
-7,804	7,654	1381,568	725,977
-6,790	7,641	1380,597	725,376
-5,775	7,668	1379,580	724,938
-4,760	7,691	1378,493	724,444
-3,746	7,696	1377,580	723,958
-2,731	7,706	1376,870	723,601
-1,717	7,692	1375,840	722,966
-0,702	7,673	1374,079	721,925
0,313	11,602	1284,316	692,565
1,327	27,285	675,748	399,280
2,342	42,546	116,133	74,352
3,356	-0,034	16,484	8,247
4,371	0,635	3,991	2,005
5,386	2,349	1,389	0,706
6,400	735,626	0,397	0,754
7,415	-59,499	-0,290	-0,087
8,429	-5,357	-0,277	-0,134
9,444	-16,889	-0,319	-0,141
10,459	-52,094	-0,452	-0,147
11,473	50,526	-0,246	-0,164
12,488	-46,484	-0,232	-0,080
13,502	113,305	-0,264	-0,225
14,517	69,681	-0,295	-0,214
15,531	67,088	-0,352	-0,252
16,546	208,678	-0,235	-0,260
17,561	143,867	-0,351	-0,329
18,575	-4,466	-0,228	-0,110
19,590	-39,004	-0,198	-0,073
20,604	82,092	-0,369	-0,282
21,619	52,810	-0,353	-0,237
22,634	65,566	-0,479	-0,341
23,648	86,944	-0,462	-0,359
24,663	205,516	-0,370	-0,405
25,677	-24,183	-0,395	-0,165
26,692	130,045	-0,344	-0,310
27,707	45,903	-0,348	-0,226
28,721	25,927	-0,505	-0,296
29,736	39,185	-0,395	-0,248
30,750	3,791	-0,309	-0,158
31,765	252,485	-0,302	-0,362
32,780	-38,888	-0,417	-0,154
33,794	52,737	-0,379	-0,254
34,809	31,332	-0,462	-0,278
35,823	150,485	-0,303	-0,289
36,838	42,527	-0,374	-0,238
37,853	-20,191	-0,391	-0,168
38,867	302,241	-0,219	-0,285
39,882	-11,033	-0,432	-0,199
40,896	38,381	-0,383	-0,239
41,911	-55,305	-0,291	-0,091
42,926	-53,731	-0,503	-0,160
43,940	45,480	-0,293	-0,189
44,955	5,687	-0,277	-0,143
45,969	-34,860	-0,424	-0,162
46,984	197,336	-0,303	-0,325
47,999	5,013	-0,404	-0,208
49,013	51,813	-0,204	-0,136
50,028	-76,778	-0,405	-0,099
51,042	-8,908	-0,363	-0,170
52,057	4,690	-0,396	-0,203
53,071	6,900	-0,507	-0,264
54,086	82,982	-0,330	-0,252
55,101	86,923	-0,321	-0,249
56,115	-12,630	-0,330	-0,151
57,130	82,257	-0,288	-0,219
58,144	27,425	-0,435	-0,256
59,159	41,579	-0,351	-0,223
60,174	75,794	-0,369	-0,273
61,188	37,392	-0,332	-0,206
62,203	75,448	-0,270	-0,199
63,217	-77,966	-0,384	-0,092
64,232	48,865	-0,294	-0,193
65,247	-33,921	-0,483	-0,186
66,261	-106,484	-0,339	-0,052
67,276	90,918	-0,347	-0,273
68,290	195,778	-0,318	-0,340
69,305	-8,189	-0,301	-0,141
70,320	2,226	-0,374	-0,189
71,334	203,868	-0,195	-0,211
72,349	16,993	-0,332	-0,184
73,363	80,207	-0,311	-0,234
74,378	202,104	-0,313	-0,338
75,393	800,000	-0,197	-0,386
76,407	-9,704	-0,278	-0,129
77,422	-125,918	-0,318	-0,033
78,436	-103,432	-0,416	-0,068
79,451	214,285	-0,198	-0,220
80,466	-0,369	-0,299	-0,148
81,480	-56,127	-0,434	-0,134
82,495	-43,303	-0,296	-0,104
83,509	86,534	-0,272	-0,210
84,524	-109,932	-0,348	-0,051
85,539	214,221	-0,221	-0,246
86,553	16,873	-0,329	-0,182
87,568	43,216	-0,279	-0,178
88,582	600,085	-0,134	-0,233
89,597	-85,476	-0,494	-0,107
90,611	363,647	-0,171	-0,241
91,626	-97,539	-0,208	-0,038
92,641	-119,485	-0,350	-0,042
93,655	-41,863	-0,258	-0,092
94,670	56,482	-0,298	-0,202
95,684	236,272	-0,259	-0,300
96,699	27,688	-0,319	-0,187
97,714	-110,154	-0,254	-0,037
98,728	-88,325	-0,266	-0,055
99,743	-36,900	-0,187	-0,070
100,757	86,339	-0,253	-0,195
101,772	9,070	-0,272	-0,143
102,787	100,954	-0,336	-0,273
103,801	165,244	-0,220	-0,217
104,816	-168,916	-0,190	0,005
105,830	276,602	-0,196	-0,243
106,845	-104,381	-0,306	-0,049
107,860	149,574	-0,204	-0,194
108,874	52,422	-0,268	-0,179
109,889	149,422	-0,260	-0,246
110,903	-21,490	-0,244	-0,103
111,918	195,995	-0,175	-0,186
112,933	78,723	-0,204	-0,152
113,947	10,133	-0,288	-0,152
114,962	2,007	-0,378	-0,190
115,976	759,255	-0,172	-0,327
116,991	800,000	-0,142	-0,300
118,006	-36,361	-0,367	-0,137
119,020	104,512	-0,216	-0,177
120,035	-76,086	-0,287	-0,070
121,049	9,093	-0,255	-0,134
122,064	15,393	-0,178	-0,097
123,079	15,269	-0,326	-0,178
124,093	41,696	-0,240	-0,151
125,108	368,145	-0,183	-0,258
126,122	-9,075	-0,183	-0,085
127,137	96,627	-0,242	-0,193
128,151	6,845	-0,302	-0,156
129,166	-167,466	-0,268	-0,007
130,181	-20,139	-0,266	-0,114
131,195	233,314	-0,291	-0,334
132,210	-60,938	-0,369	-0,108
133,224	191,927	-0,276	-0,290
134,239	800,000	-0,104	-0,234
135,254	36,222	-0,263	-0,161
136,268	-120,574	-0,297	-0,035
137,283	71,193	-0,162	-0,117
138,297	54,993	-0,219	-0,147
139,312	153,386	-0,298	-0,285
140,327	216,931	-0,253	-0,280
141,341	81,267	-0,232	-0,174
142,356	22,649	-0,230	-0,131
143,370	-115,803	-0,404	-0,052
144,385	90,486	-0,209	-0,163
145,400	-10,434	-0,314	-0,144
146,414	109,385	-0,295	-0,246
147,429	114,201	-0,291	-0,246
148,443	269,816	-0,200	-0,245
149,458	21,770	-0,177	-0,100
150,473	-46,738	-0,281	-0,095
151,487	-57,779	-0,162	-0,049
152,502	-64,671	-0,204	-0,057
153,516	206,275	-0,192	-0,208
154,531	800,000	-0,106	-0,226
155,546	17,579	-0,239	-0,132
156,560	1,970	-0,302	-0,151
157,575	53,866	-0,179	-0,120
158,589	234,964	-0,130	-0,150
159,604	66,804	-0,273	-0,193
160,619	-117,550	-0,295	-0,037
161,633	197,910	-0,248	-0,263
162,648	-60,610	-0,346	-0,101
163,662	-9,295	-0,233	-0,108
164,677	-86,100	-0,158	-0,034
165,692	-4,790	-0,125	-0,060
166,706	800,000	-0,072	-0,139
167,721	71,776	-0,341	-0,246
168,735	49,263	-0,223	-0,146
169,750	241,901	-0,156	-0,182
170,764	-70,172	-0,238	-0,062
171,779	-73,303	-0,176	-0,044
172,794	152,786	-0,221	-0,210
173,808	194,175	-0,254	-0,268
174,823	-48,002	-0,273	-0,091
175,837	39,550	-0,309	-0,192
176,852	96,994	-0,239	-0,190
177,867	-100,517	-0,175	-0,030
178,881	-62,760	-0,201	-0,057
179,896	586,501	-0,130	-0,224
180,910	90,115	-0,202	-0,157
181,925	-103,523	-0,191	-0,031
182,940	137,449	-0,196	-0,178
183,954	175,747	-0,156	-0,157
184,969	211,736	-0,137	-0,150
185,983	-40,964	-0,391	-0,140
186,998	71,161	-0,230	-0,165
188,013	626,710	-0,135	-0,238
189,027	19,622	-0,218	-0,121
190,042	-53,600	-0,276	-0,087
191,056	149,880	-0,266	-0,250
192,071	217,206	-0,111	-0,122
193,086	145,348	-0,221	-0,205
194,100	-93,585	-0,186	-0,035
195,115	91,304	-0,218	-0,169
196,129	192,058	-0,083	-0,087
197,144	460,039	-0,236	-0,365
198,159	236,839	-0,262	-0,301
199,173	800,000	-0,134	-0,284
200,188	-52,846	-0,090	0,029
201,202	244,092	-0,137	-0,159
202,217	36,482	-0,274	-0,167
203,232	79,956	-0,182	-0,136
204,246	230,373	-0,168	-0,190
205,261	188,986	-0,167	-0,173
206,275	153,447	-0,141	-0,134
207,290	-29,686	-0,281	-0,111
208,304	176,360	-0,135	-0,136
209,319	-130,858	-0,150	-0,014
210,334	285,582	-0,128	-0,160
211,348	800,000	-0,082	-0,177
212,363	-21,990	-0,251	-0,105
213,377	129,613	-0,264	-0,234
214,392	-70,749	-0,194	-0,050
215,407	155,831	-0,223	-0,213
216,421	501,236	-0,088	-0,140
217,436	2,406	-0,168	-0,084
218,450	525,834	-0,168	-0,275
219,465	68,298	-0,157	-0,111
220,480	115,362	-0,278	-0,234
221,494	-34,444	-0,128	-0,048
222,509	399,319	-0,114	-0,166
223,523	331,387	-0,120	-0,160
224,538	-3,906	-0,193	-0,092
225,553	442,849	-0,127	-0,194
226,567	-76,241	-0,200	-0,048
227,582	-40,668	-0,219	-0,078
228,596	-103,024	-0,268	-0,043
229,611	-116,638	-0,144	0,018
230,626	-64,120	-0,248	-0,069
231,640	-43,621	-0,168	0,058
232,655	143,604	-0,168	-0,155
233,669	-200,000	-0,064	-0,206
234,684	170,033	-0,117	-0,116
235,699	800,000	-0,060	-0,121
236,713	800,000	-0,080	-0,181
237,728	-6,786	-0,233	-0,109
238,742	156,900	-0,086	-0,082
239,757	132,469	-0,232	-0,206
240,772	45,027	-0,280	-0,178
241,786	-107,053	-0,254	-0,038
242,801	-32,749	-0,102	-0,039
243,815	-144,671	-0,263	-0,016
244,830	97,975	-0,157	-0,124
245,844	124,825	-0,198	-0,172
246,859	-112,385	-0,197	-0,027
247,874	239,333	-0,170	-0,195
248,888	800,000	-0,101	-0,230
249,903	162,639	-0,166	-0,161
250,917	170,131	-0,188	-0,186
251,932	-200,000	-0,065	-0,286
252,947	102,811	-0,252	-0,203
253,961	97,944	-0,215	-0,170
254,976	256,208	-0,095	-0,113
255,990	352,959	-0,204	-0,279
257,005	378,620	-0,107	-0,151
258,020	-200,000	-0,099	0,000
259,034	52,482	-0,172	-0,113
260,049	480,536	-0,073	-0,114
261,063	127,377	-0,094	-0,082
262,078	375,350	-0,109	-0,154
263,093	341,090	-0,151	-0,203
264,107	296,184	-0,160	-0,202
265,122	-54,600	-0,097	-0,030
266,136	-37,911	-0,089	0,033
267,151	-179,472	-0,203	-0,003
268,166	95,230	-0,094	-0,074
269,180	87,386	-0,266	-0,203
270,195	-26,051	-0,211	-0,085
271,209	-160,621	-0,248	-0,009
272,224	415,915	-0,071	-0,104
273,239	-125,695	-0,150	0,015
274,253	-34,213	-0,180	-0,068
275,268	-38,581	-0,268	0,097
276,282	238,447	-0,158	-0,180
277,297	147,072	-0,284	-0,263
278,312	-70,867	-0,248	-0,064
279,326	-111,197	-0,184	-0,026
280,341	268,482	-0,067	-0,081
281,355	255,018	-0,091	-0,107
282,370	-24,774	-0,217	-0,088
283,384	231,037	-0,173	-0,195
284,399	-56,111	-0,266	-0,081
285,414	-157,940	-0,238	-0,009
286,428	-24,223	-0,186	-0,076
287,443	70,995	-0,144	-0,103
288,457	-200,000	0,003	-0,162
289,472	-49,009	-0,159	-0,052
290,487	212,229	-0,120	-0,130
291,501	-63,161	-0,139	-0,039
292,516	-110,568	-0,181	-0,026
293,530	312,290	-0,071	-0,091
294,545	224,424	-0,076	-0,084
295,560	-105,111	-0,163	-0,025
296,574	478,287	-0,115	-0,180
297,589	306,709	-0,127	-0,163
298,603	-69,991	-0,235	-0,061
299,618	451,882	-0,084	-0,127
300,633	-200,000	-0,058	-0,184
301,647	375,039	-0,043	-0,061
302,662	160,618	-0,088	-0,084
303,676	98,061	-0,195	-0,154
304,691	-165,277	-0,169	-0,005
305,706	601,157	-0,073	-0,124
306,720	75,378	-0,192	-0,139
307,735	170,907	-0,150	-0,147
308,749	-50,376	-0,147	-0,047
309,764	27,606	-0,112	-0,064
310,779	-71,885	-0,096	-0,024
311,793	8,281	-0,093	0,048
312,808	-97,392	-0,161	-0,028
313,822	39,139	-0,184	-0,113
314,837	800,000	-0,105	-0,204
315,852	-95,063	-0,241	-0,044
316,866	-200,000	0,021	-0,128
317,881	113,146	-0,129	-0,107
318,895	163,776	-0,106	-0,102
319,910	-96,486	-0,135	-0,024
320,925	159,791	-0,214	-0,205
321,939	119,047	-0,184	-0,156
322,954	63,145	-0,216	-0,148
323,968	233,555	-0,162	-0,183
324,983	323,895	-0,153	-0,200
325,997	145,913	-0,146	-0,134
327,012	247,105	-0,141	-0,163
328,027	765,585	-0,050	-0,094
329,041	-200,000	0,016	-0,163
330,056	-185,495	-0,125	-0,001
331,070	-200,000	-0,003	-0,009
332,085	-160,855	-0,089	0,003
333,100	-122,751	-0,104	0,011
334,114	-29,486	-0,132	-0,051
335,129	405,523	-0,126	-0,183
336,143	539,523	-0,131	-0,215
337,158	66,925	-0,233	-0,162
338,173	-200,000	-0,007	0,033
339,187	-92,819	-0,190	-0,036
340,202	114,213	-0,088	-0,074
341,216	-1,818	-0,042	-0,020
342,231	313,396	-0,154	-0,199
343,246	800,000	-0,078	-0,191
344,260	438,801	-0,072	-0,108
345,275	-168,761	-0,113	-0,003
346,289	-148,438	-0,173	0,010
347,304	-130,628	-0,050	-0,005
348,319	-23,522	-0,172	0,070
349,333	800,000	-0,041	-0,099
350,348	533,713	-0,078	-0,127
351,362	238,048	-0,089	-0,102
352,377	-137,197	-0,197	-0,015
353,392	800,000	-0,089	-0,176
354,406	556,584	-0,081	0,133
355,421	208,041	1308,458	1398,923
356,435	160,065	1468,340	1399,354
