DTS Sentinel unit serial number:	SN410029Multiplexer serial number:	ORYXHardware model number:	OX2-SRSoftware version number:	ORYX F/W v4,00 Oryx Data Collector v3.7.2.0data status	okinstallation	B3 Nyhavnadifferential loss correction	single-endedforward channel	channel 1reverse channel	N/Adate	2023/12/04time	09:47:30forward acquisition time	300,00reverse acquisition time	0,00gamma	499,1914k internal	0,3203k external	0,3203temperature offset calibration	1,0000default loss term (dB/km)	0,3820temperature slope calibration	1,0000multiplexer offset coefficient	1,0000multiplexer slope coefficient	1,0000fibre end	0,00T internal ref (°C)	13,30T ext. ref 1 (°C)	-1,08T ext. ref 2 (°C)	-1,10length (m)	temperature (°C)	Stokes	anti-Stokes-744,400	174,029	-0,188	-0,197
-743,385	-200,000	-0,029	0,185
-742,371	118,116	-0,249	-0,223
-741,356	-200,000	0,023	0,289
-740,342	394,986	-0,203	-0,309
-739,327	-200,000	-0,009	0,219
-738,312	13,334	-0,315	-0,177
-737,298	486,842	-0,131	0,218
-736,283	553,270	-0,116	-0,203
-735,269	-200,000	-0,058	0,466
-734,254	194,229	-0,189	-0,209
-733,239	67,568	-0,204	0,151
-732,225	157,925	-0,151	-0,152
-731,210	-126,282	0,169	0,018
-730,196	-41,284	0,079	0,029
-729,181	-59,074	-0,053	0,017
-728,167	800,000	0,078	-0,200
-727,152	300,145	0,042	-0,057
-726,137	150,700	-0,047	-0,046
-725,123	-66,497	-0,107	-0,031
-724,108	-200,000	-0,012	-0,088
-723,094	800,000	-0,077	-0,156
-722,079	-142,347	-0,079	0,006
-721,064	23,309	0,039	0,023
-720,050	-35,552	-0,042	-0,016
-719,035	-200,000	0,006	-0,068
-718,021	-200,000	-0,012	0,059
-717,006	-110,072	-0,160	-0,024
-715,991	-141,561	-0,110	-0,008
-714,977	-200,000	-0,040	-0,139
-713,962	-21,302	0,146	-0,065
-712,948	66,935	0,056	0,041
-711,933	800,000	-0,009	0,025
-710,918	206,164	-0,059	0,066
-709,904	232,004	-0,073	-0,087
-708,889	559,206	-0,069	-0,121
-707,875	248,508	-0,076	-0,094
-706,860	-200,000	0,016	-0,067
-705,845	-34,433	-0,038	0,015
-704,831	-47,127	0,118	0,042
-703,816	-7,491	-0,102	0,050
-702,802	62,793	-0,086	-0,062
-701,787	252,437	-0,112	-0,139
-700,772	-200,000	0,014	0,110
-699,758	-64,681	0,190	0,056
-698,743	-200,000	-0,045	0,000
-697,729	214,071	-0,007	0,008
-696,714	48,421	-0,076	0,052
-695,699	-124,608	0,057	0,006
-694,685	-122,429	-0,125	0,015
-693,670	-180,996	0,055	-0,001
-692,656	-200,000	-0,042	0,164
-691,641	-200,000	0,027	-0,138
-690,627	-33,579	-0,042	-0,017
-689,612	-200,000	-0,024	0,172
-688,597	278,965	-0,108	-0,140
-687,583	-135,615	-0,031	0,003
-686,568	800,000	-0,013	-0,037
-685,554	-200,000	-0,035	0,112
-684,539	62,380	-0,054	-0,039
-683,524	716,314	-0,055	-0,106
-682,510	-200,000	0,003	0,098
-681,495	157,225	0,022	-0,022
-680,481	6,921	-0,188	-0,101
-679,466	484,856	-0,030	-0,049
-678,451	800,000	0,022	0,045
-677,437	290,669	0,083	-0,109
-676,422	286,414	-0,055	0,072
-675,408	-200,000	0,023	0,154
-674,393	30,294	0,081	-0,050
-673,378	-71,069	-0,091	0,025
-672,364	-33,917	-0,097	-0,039
-671,349	102,153	-0,047	0,040
-670,335	800,000	-0,025	-0,070
-669,320	-35,406	0,056	-0,022
-668,305	-161,768	0,041	-0,001
-667,291	58,350	0,203	-0,144
-666,276	-30,934	-0,081	0,033
-665,262	-114,984	-0,148	0,020
-664,247	-200,000	0,023	-0,107
-663,232	321,025	-0,029	-0,040
-662,218	13,858	0,121	0,068
-661,203	-0,541	-0,021	0,011
-660,189	-175,239	0,045	0,001
-659,174	-200,000	-0,008	0,049
-658,159	-200,000	-0,015	-0,053
-657,145	353,209	-0,163	-0,235
-656,130	273,467	0,045	-0,058
-655,116	-2,792	0,150	0,076
-654,101	136,991	0,143	-0,135
-653,086	702,072	0,031	0,060
-652,072	-16,110	0,081	0,037
-651,057	-19,516	-0,118	-0,053
-650,043	-200,000	0,013	-0,095
-649,028	13,917	0,086	-0,048
-648,014	464,371	-0,020	-0,032
-646,999	643,824	0,055	-0,102
-645,984	242,909	-0,011	-0,013
-644,970	193,009	0,097	-0,106
-643,955	342,632	0,061	-0,087
-642,941	191,942	0,014	0,016
-641,926	44,595	-0,083	-0,055
-640,911	-200,000	-0,007	-0,077
-639,897	-191,148	0,062	0,000
-638,882	128,877	-0,091	-0,084
-637,868	-200,000	-0,023	0,096
-636,853	-118,756	0,049	0,006
-635,838	163,272	0,070	-0,071
-634,824	519,325	-0,091	0,155
-633,809	-82,918	-0,040	0,009
-632,795	-200,000	0,002	0,140
-631,780	42,137	0,154	0,101
-630,765	-16,048	0,058	0,027
-629,751	-74,833	-0,113	0,029
-628,736	-108,034	-0,021	0,003
-627,722	-200,000	0,004	-0,138
-626,707	800,000	0,056	-0,166
-625,692	376,313	0,023	0,034
-624,678	118,961	-0,069	0,062
-623,663	-200,000	0,011	0,109
-622,649	-93,202	0,119	0,024
-621,634	800,000	-0,052	-0,121
-620,619	-200,000	-0,003	-0,121
-619,605	163,640	-0,112	0,114
-618,590	-67,039	-0,030	-0,009
-617,576	800,000	-0,016	0,037
-616,561	800,000	0,053	0,109
-615,546	-6,391	-0,065	-0,032
-614,532	-200,000	-0,024	-0,110
-613,517	-200,000	0,007	-0,043
-612,503	-200,000	0,006	-0,076
-611,488	800,000	-0,010	0,023
-610,474	369,364	-0,019	0,028
-609,459	800,000	-0,035	-0,093
-608,444	-68,008	-0,042	-0,012
-607,430	-200,000	-0,007	-0,183
-606,415	-35,093	-0,085	-0,033
-605,401	199,210	0,026	0,029
-604,386	77,851	0,044	0,034
-603,371	-200,000	-0,022	0,090
-602,357	-16,600	0,067	0,031
-601,342	189,562	-0,077	-0,084
-600,328	-60,240	-0,114	-0,035
-599,313	-200,000	0,025	-0,101
-598,298	-200,000	-0,054	-0,196
-597,284	366,348	-0,043	0,063
-596,269	-200,000	0,011	0,056
-595,255	-200,000	-0,035	0,119
-594,240	344,943	-0,085	0,121
-593,225	-103,331	0,077	0,013
-592,211	800,000	0,062	0,142
-591,196	-89,169	-0,138	0,029
-590,182	146,090	-0,067	0,065
-589,167	800,000	0,008	-0,021
-588,152	800,000	0,059	-0,130
-587,138	293,238	-0,072	0,095
-586,123	-7,510	-0,159	-0,078
-585,109	-200,000	-0,002	0,072
-584,094	800,000	-0,044	-0,106
-583,079	-200,000	-0,013	0,054
-582,065	-200,000	0,001	-0,072
-581,050	800,000	-0,049	0,143
-580,036	-54,728	-0,040	-0,013
-579,021	-135,616	0,099	-0,008
-578,006	800,000	-0,071	-0,188
-576,992	494,096	0,069	-0,115
-575,977	-200,000	-0,014	-0,077
-574,963	800,000	-0,012	-0,027
-573,948	36,934	-0,075	0,048
-572,934	800,000	0,005	-0,011
-571,919	-78,419	-0,113	0,028
-570,904	-116,228	0,037	0,005
-569,890	28,953	-0,076	-0,046
-568,875	-200,000	-0,013	-0,040
-567,861	51,660	0,052	0,036
-566,846	-48,085	0,171	0,059
-565,831	2,910	0,110	-0,058
-564,817	-200,000	-0,007	-0,099
-563,802	54,009	-0,091	0,063
-562,788	-39,354	0,072	-0,027
-561,773	142,077	0,021	-0,020
-560,758	541,689	-0,022	-0,038
-559,744	-159,561	0,079	0,003
-558,729	607,020	-0,037	-0,067
-557,715	-86,807	-0,014	0,003
-556,700	241,860	-0,059	0,071
-555,685	295,410	0,071	-0,094
-554,671	15,107	0,061	0,034
-553,656	-200,000	0,006	0,026
-552,642	-200,000	0,010	0,045
-551,627	35,770	-0,128	0,081
-550,612	39,874	-0,042	-0,027
-549,598	339,392	0,084	0,118
-548,583	-107,434	-0,070	0,011
-547,569	-84,206	0,089	-0,020
-546,554	-200,000	0,038	-0,131
-545,539	186,810	-0,026	0,028
-544,525	81,507	0,109	-0,085
-543,510	-200,000	0,034	-0,153
-542,496	203,292	-0,113	-0,126
-541,481	-94,143	0,059	-0,011
-540,466	465,002	0,002	-0,002
-539,452	800,000	-0,032	-0,074
-538,437	-134,977	0,028	0,002
-537,423	-142,068	0,172	0,012
-536,408	-200,000	-0,026	0,103
-535,393	-79,685	-0,075	0,018
-534,379	176,893	0,082	-0,086
-533,364	43,738	0,105	-0,069
-532,350	800,000	0,080	-0,163
-531,335	217,954	0,084	-0,097
-530,321	-81,340	0,085	-0,020
-529,306	-87,323	0,042	-0,009
-528,291	30,009	-0,095	-0,058
-527,277	135,952	-0,054	-0,051
-526,262	-88,510	-0,048	0,010
-525,248	-88,012	0,019	-0,004
-524,233	-68,599	0,136	0,038
-523,218	-169,862	-0,095	-0,002
-522,204	-51,626	0,224	0,075
-521,189	-200,000	0,002	0,032
-520,175	-200,000	0,022	-0,103
-519,160	800,000	-0,028	-0,057
-518,145	-200,000	-0,001	-0,056
-517,131	618,761	-0,061	0,111
-516,116	210,330	-0,064	0,073
-515,102	800,000	0,048	-0,111
-514,087	-200,000	0,036	-0,114
-513,072	-200,000	-0,011	0,080
-512,058	19,378	-0,070	0,041
-511,043	-200,000	0,011	-0,106
-510,029	309,280	0,108	0,146
-509,014	195,655	0,097	-0,106
-507,999	224,208	0,044	-0,051
-506,985	-63,040	0,084	-0,025
-505,970	-69,473	0,110	-0,030
-504,956	-200,000	0,013	-0,053
-503,941	-200,000	0,019	0,108
-502,926	-200,000	0,017	-0,109
-501,912	16,728	-0,134	-0,076
-500,897	45,401	-0,095	0,063
-499,883	800,000	0,020	-0,044
-498,868	800,000	-0,037	-0,095
-497,853	8,114	0,047	-0,025
-496,839	-200,000	-0,004	-0,033
-495,824	28,375	-0,022	0,013
-494,810	174,599	0,007	-0,007
-493,795	117,259	0,067	0,059
-492,781	-200,000	-0,017	0,076
-491,766	-200,000	0,012	0,086
-490,751	586,448	0,045	-0,080
-489,737	19,996	-0,059	-0,034
-488,722	-138,151	0,062	-0,005
-487,708	298,826	0,093	0,123
-486,693	-89,311	-0,104	0,022
-485,678	-200,000	0,026	-0,097
-484,664	178,784	-0,099	0,104
-483,649	-200,000	0,000	0,079
-482,635	-135,865	0,064	0,005
-481,620	-114,620	0,157	0,021
-480,605	537,594	0,057	0,097
-479,591	-77,482	-0,074	0,018
-478,576	-46,683	0,206	0,072
-477,562	-91,130	-0,203	0,041
-476,547	-108,332	-0,128	0,020
-475,532	384,771	0,041	-0,060
-474,518	800,000	0,034	-0,076
-473,503	-86,561	0,099	-0,022
-472,489	79,435	0,071	-0,055
-471,474	-200,000	-0,003	-0,030
-470,459	-200,000	0,007	-0,079
-469,445	-146,697	-0,158	-0,010
-468,430	-37,625	0,091	-0,035
-467,416	-200,000	-0,020	-0,113
-466,401	-79,301	-0,057	0,014
-465,386	-200,000	-0,004	0,055
-464,372	800,000	0,056	0,158
-463,357	-200,000	0,019	0,139
-462,343	800,000	-0,034	-0,085
-461,328	-106,469	-0,145	-0,023
-460,313	-79,703	0,145	-0,035
-459,299	247,374	0,049	-0,060
-458,284	85,967	-0,037	0,029
-457,270	-200,000	0,005	-0,020
-456,255	355,183	-0,059	-0,084
-455,241	69,035	-0,089	0,066
-454,226	446,877	-0,064	0,102
-453,211	-55,450	0,135	0,043
-452,197	800,000	0,023	0,048
-451,182	-200,000	-0,001	0,062
-450,168	446,323	-0,073	0,115
-449,153	-200,000	-0,011	-0,059
-448,138	89,194	-0,097	-0,077
-447,124	800,000	0,050	-0,106
-446,109	-200,000	0,002	-0,015
-445,095	327,605	0,062	-0,085
-444,080	-120,287	0,109	-0,013
-443,065	800,000	0,011	0,025
-442,051	530,928	0,044	0,076
-441,036	97,329	-0,049	0,040
-440,022	98,584	0,040	0,033
-439,007	-200,000	0,013	0,066
-437,992	28,045	0,092	0,056
-436,978	99,928	0,127	-0,105
-435,963	-77,049	0,114	-0,028
-434,949	358,235	-0,075	-0,108
-433,934	-52,194	-0,020	0,007
-432,919	-148,597	-0,195	0,011
-431,905	-110,298	0,218	0,032
-430,890	-18,075	-0,038	0,017
-429,876	800,000	0,030	0,087
-428,861	800,000	-0,025	0,079
-427,846	800,000	-0,020	0,047
-426,832	-200,000	-0,001	-0,083
-425,817	141,546	-0,078	-0,074
-424,803	48,922	0,014	0,009
-423,788	-173,622	0,215	0,005
-422,773	798,048	-0,009	-0,018
-421,759	82,837	0,101	0,079
-420,744	588,031	-0,038	0,068
-419,730	800,000	0,023	0,063
-418,715	-200,000	0,027	-0,105
-417,701	-200,000	-0,002	0,008
-416,686	-200,000	0,018	-0,068
-415,671	-96,075	0,068	-0,013
-414,657	39,729	0,035	-0,023
-413,642	800,000	-0,038	0,076
-412,628	800,000	0,026	0,061
-411,613	-200,000	-0,025	0,139
-410,598	313,922	0,068	-0,092
-409,584	-166,298	-0,161	-0,005
-408,569	-64,339	0,055	-0,016
-407,555	800,000	0,050	0,136
-406,540	800,000	-0,020	0,044
-405,525	800,000	0,055	0,114
-404,511	-131,589	-0,062	-0,006
-403,496	-200,000	0,001	-0,062
-402,482	800,000	0,009	-0,027
-401,467	299,636	-0,048	-0,063
-400,452	236,074	-0,080	-0,095
-399,438	-200,000	-0,029	-0,107
-398,423	800,000	-0,086	0,189
-397,409	26,280	-0,113	0,067
-396,394	37,181	-0,057	-0,036
-395,379	-18,623	0,089	0,040
-394,365	32,309	-0,075	-0,046
-393,350	562,978	-0,032	0,055
-392,336	24,892	0,048	0,028
-391,321	-59,553	-0,085	-0,026
-390,306	800,000	-0,057	-0,144
-389,292	-200,000	-0,003	-0,090
-388,277	-163,097	-0,111	-0,004
-387,263	800,000	-0,015	-0,039
-386,248	800,000	-0,055	0,137
-385,233	196,417	0,096	0,104
-384,219	316,411	0,047	0,064
-383,204	-20,841	-0,044	0,019
-382,190	-124,646	-0,118	0,013
-381,175	112,292	0,039	0,033
-380,160	800,000	0,094	-0,246
-379,146	-134,714	-0,113	0,010
-378,131	-200,000	0,031	0,116
-377,117	800,000	-0,036	0,086
-376,102	-200,000	-0,039	-0,138
-375,088	800,000	-0,040	-0,088
-374,073	-79,134	0,087	-0,021
-373,058	800,000	0,023	0,069
-372,044	368,077	0,039	-0,057
-371,029	800,000	-0,081	0,205
-370,015	-200,000	-0,043	0,149
-369,000	-134,467	0,031	0,003
-367,985	800,000	-0,002	0,003
-366,971	-67,481	-0,233	-0,065
-365,956	18,245	-0,059	-0,034
-364,942	38,021	0,092	0,058
-363,927	-84,424	-0,124	0,028
-362,912	476,544	-0,089	0,144
-361,898	-70,462	0,030	-0,008
-360,883	125,227	-0,089	-0,081
-359,869	800,000	-0,015	0,042
-358,854	800,000	0,022	-0,046
-357,839	800,000	0,017	0,044
-356,825	-200,000	-0,004	0,035
-355,810	-200,000	-0,012	0,126
-354,796	-65,490	-0,153	0,044
-353,781	-200,000	-0,030	-0,150
-352,766	222,646	-0,110	0,127
-351,752	800,000	-0,014	-0,039
-350,737	-179,103	-0,022	-0,000
-349,723	-86,880	0,214	0,046
-348,708	-59,366	0,132	0,040
-347,693	-200,000	0,014	-0,116
-346,679	-200,000	0,019	0,094
-345,664	800,000	0,042	-0,113
-344,650	51,505	0,042	0,028
-343,635	-33,193	0,121	0,048
-342,620	-26,685	0,042	0,018
-341,606	-200,000	-0,021	0,220
-340,591	43,403	-0,029	-0,019
-339,577	93,633	-0,111	0,090
-338,562	-138,446	-0,098	-0,008
-337,548	286,392	0,013	0,017
-336,533	160,490	0,075	0,075
-335,518	-200,000	0,012	0,161
-334,504	800,000	-0,016	0,039
-333,489	-200,000	0,037	0,129
-332,475	-200,000	0,001	-0,143
-331,460	-113,766	0,110	-0,015
-330,445	800,000	0,044	0,131
-329,431	341,709	0,031	0,044
-328,416	-16,593	0,066	-0,030
-327,402	298,943	0,018	0,024
-326,387	47,881	-0,127	-0,084
-325,372	255,193	-0,117	-0,144
-324,358	-200,000	0,004	-0,050
-323,343	781,823	-0,029	-0,058
-322,329	172,835	0,068	0,070
-321,314	178,080	0,047	0,049
-320,299	132,859	-0,083	-0,077
-319,285	800,000	0,046	-0,109
-318,270	-45,894	-0,130	0,046
-317,256	-118,715	-0,252	-0,031
-316,241	142,610	0,057	-0,054
-315,226	443,987	0,079	0,124
-314,212	112,650	-0,019	0,016
-313,197	169,914	-0,056	-0,058
-312,183	6,616	-0,056	-0,030
-311,168	-161,123	-0,113	0,004
-310,153	600,899	0,020	-0,035
-309,139	41,201	0,088	0,057
-308,124	174,730	-0,044	0,045
-307,110	1,643	-0,060	0,031
-306,095	121,055	-0,025	-0,022
-305,080	-29,775	0,099	-0,040
-304,066	124,637	-0,081	-0,073
-303,051	800,000	-0,073	-0,183
-302,037	120,364	-0,119	-0,106
-301,022	-200,000	0,018	0,072
-300,008	717,273	-0,035	0,066
-298,993	-173,335	0,091	-0,002
-297,978	800,000	-0,013	0,034
-296,964	-200,000	-0,020	-0,116
-295,949	-95,989	-0,075	-0,014
-294,935	506,625	-0,044	0,073
-293,920	32,488	0,099	0,061
-292,905	800,000	0,040	0,094
-291,891	800,000	-0,026	0,066
-290,876	-200,000	-0,019	0,074
-289,862	32,350	0,056	0,034
-288,847	-130,787	0,085	-0,008
-287,832	-200,000	-0,010	-0,065
-286,818	-200,000	0,007	0,086
-285,803	201,126	-0,052	0,057
-284,789	-200,000	0,029	0,100
-283,774	335,463	-0,088	0,123
-282,759	-37,906	0,152	0,057
-281,745	800,000	-0,034	-0,069
-280,730	-162,187	-0,148	0,005
-279,716	-200,000	0,008	0,109
-278,701	-200,000	0,005	0,037
-277,686	-200,000	0,003	-0,051
-276,672	441,426	0,075	0,117
-275,657	-200,000	0,010	0,031
-274,643	-200,000	0,002	0,057
-273,628	800,000	-0,074	-0,174
-272,613	-200,000	0,012	-0,070
-271,599	-200,000	-0,072	0,232
-270,584	-200,000	0,005	0,022
-269,570	43,406	-0,038	0,025
-268,555	-100,778	-0,061	-0,011
-267,540	800,000	-0,090	-0,194
-266,526	-64,569	-0,089	0,026
-265,511	359,132	-0,092	-0,132
-264,497	273,226	-0,033	0,042
-263,482	-61,613	0,147	0,044
-262,467	800,000	-0,037	-0,113
-261,453	-200,000	-0,003	0,025
-260,438	-200,000	0,018	0,097
-259,424	11,251	0,075	-0,041
-258,409	800,000	-0,020	-0,047
-257,395	-200,000	0,008	-0,045
-256,380	126,524	-0,080	0,072
-255,365	800,000	0,027	0,082
-254,351	-200,000	0,002	-0,177
-253,336	-55,038	-0,112	-0,036
-252,322	531,364	0,062	-0,105
-251,307	-200,000	-0,047	-0,158
-250,292	-65,524	-0,122	0,035
-249,278	-78,880	-0,128	-0,031
-248,263	55,138	0,080	0,055
-247,249	50,714	-0,036	0,024
-246,234	-85,654	0,110	-0,024
-245,219	9,382	0,092	0,049
-244,205	-31,464	-0,096	-0,038
-243,190	-42,114	-0,123	-0,045
-242,176	800,000	0,071	0,162
-241,161	-200,000	-0,009	0,161
-240,146	-91,188	0,170	0,034
-239,132	-194,181	0,129	0,001
-238,117	800,000	-0,037	0,087
-237,103	-200,000	-0,014	-0,200
-236,088	-200,000	0,000	-0,119
-235,073	800,000	-0,051	-0,115
-234,059	800,000	0,042	0,110
-233,044	18,499	0,062	0,035
-232,030	85,983	0,052	-0,040
-231,015	800,000	0,015	0,044
-230,000	-137,293	0,048	-0,004
-228,986	-200,000	-0,007	0,128
-227,971	35,436	-0,088	0,055
-226,957	3,282	0,096	0,050
-225,942	300,275	0,059	0,078
-224,927	-6,687	0,242	0,117
-223,913	-200,000	0,015	0,079
-222,898	15,343	0,094	-0,053
-221,884	87,095	-0,110	-0,087
-220,869	196,242	-0,084	0,091
-219,855	-42,290	0,012	-0,004
-218,840	-163,958	-0,064	-0,002
-217,825	-78,071	-0,071	-0,017
-216,811	-10,545	0,111	-0,052
-215,796	84,256	-0,079	-0,062
-214,782	-189,932	0,155	-0,001
-213,767	-80,885	-0,071	0,017
-212,752	184,108	0,119	-0,126
-211,738	289,962	0,064	0,083
-210,723	113,258	-0,018	-0,015
-209,709	-134,162	-0,053	0,005
-208,694	114,269	-0,017	-0,015
-207,679	205,442	-0,117	0,129
-206,665	-200,000	-0,028	0,141
-205,650	29,702	0,064	0,039
-204,636	142,994	0,105	0,100
-203,621	-200,000	-0,000	-0,026
-202,606	800,000	0,068	0,155
-201,592	-200,000	0,007	-0,180
-200,577	659,897	-0,001	-0,002
-199,563	-46,972	-0,092	0,032
-198,548	11,072	0,031	-0,017
-197,533	398,621	-0,041	0,061
-196,519	-23,635	0,074	-0,031
-195,504	-64,728	-0,095	-0,027
-194,490	-7,513	-0,133	-0,064
-193,475	-7,924	0,014	-0,006
-192,460	-200,000	0,000	-0,022
-191,446	166,194	0,079	0,080
-190,431	800,000	0,027	-0,070
-189,417	-55,598	0,225	-0,071
-188,402	15,252	-0,024	-0,013
-187,387	349,186	-0,091	-0,128
-186,373	279,928	0,043	-0,055
-185,358	24,459	-0,122	-0,071
-184,344	277,924	0,127	0,161
-183,329	800,000	0,086	0,205
-182,315	-200,000	-0,003	-0,014
-181,300	191,665	0,077	-0,082
-180,285	136,869	-0,028	-0,026
-179,271	208,289	-0,094	-0,105
-178,256	-200,000	-0,024	-0,143
-177,242	800,000	0,015	0,037
-176,227	-77,752	-0,096	-0,023
-175,212	-200,000	0,007	-0,116
-174,198	-58,674	0,058	0,018
-173,183	-39,116	-0,017	-0,006
-172,169	-46,564	-0,096	0,033
-171,154	43,544	0,088	0,057
-170,139	-3,424	-0,008	-0,004
-169,125	-136,308	0,130	0,011
-168,110	800,000	0,042	0,129
-167,096	-200,000	-0,003	0,087
-166,081	60,643	0,050	-0,035
-165,066	-173,260	-0,050	-0,001
-164,052	-65,749	-0,068	-0,019
-163,037	15,598	0,138	0,077
-162,023	24,843	0,049	0,029
-161,008	-200,000	0,020	0,069
-159,993	800,000	0,028	-0,071
-158,979	800,000	-0,048	-0,105
-157,964	144,931	0,123	-0,116
-156,950	800,000	0,012	-0,027
-155,935	-108,294	-0,129	0,020
-154,920	-116,615	0,068	-0,009
-153,906	-69,510	-0,029	0,008
-152,891	-76,836	-0,165	-0,041
-151,877	-9,282	-0,118	-0,056
-150,862	-200,000	-0,014	0,052
-149,847	225,477	-0,021	0,025
-148,833	540,377	-0,034	0,057
-147,818	82,729	0,161	0,124
-146,804	138,946	0,083	0,077
-145,789	-58,650	-0,148	-0,045
-144,775	800,000	-0,027	0,059
-143,760	-200,000	-0,004	0,104
-142,745	-121,907	0,106	-0,012
-141,731	-88,418	0,146	-0,031
-140,716	-200,000	0,006	-0,057
-139,702	-130,393	-0,058	-0,006
-138,687	-3,031	0,024	0,012
-137,672	56,417	-0,036	-0,025
-136,658	-101,665	0,060	0,010
-135,643	-121,622	-0,181	0,021
-134,629	-200,000	-0,008	0,121
-133,614	800,000	-0,040	0,102
-132,599	465,771	0,042	-0,068
-131,585	-200,000	0,031	0,146
-130,570	-200,000	0,007	0,081
-129,556	800,000	0,007	0,018
-128,541	-200,000	0,006	0,020
-127,526	800,000	0,029	-0,082
-126,512	400,540	-0,075	0,112
-125,497	73,404	-0,145	0,108
-124,483	800,000	-0,019	-0,042
-123,468	-84,927	0,068	-0,015
-122,453	800,000	0,060	-0,151
-121,439	-200,000	0,002	-0,036
-120,424	-28,350	0,071	-0,029
-119,410	800,000	0,033	-0,086
-118,395	534,332	0,014	-0,023
-117,380	9,235	-0,023	-0,012
-116,366	-16,234	0,017	-0,008
-115,351	800,000	0,030	-0,085
-114,337	-200,000	0,030	-0,143
-113,322	-120,653	-0,134	0,016
-112,307	121,057	0,073	0,064
-111,293	167,196	0,060	0,061
-110,278	-200,000	0,014	0,135
-109,264	800,000	-0,004	0,011
-108,249	-200,000	-0,025	-0,079
-107,234	392,889	-0,040	0,059
-106,220	-200,000	-0,003	0,014
-105,205	800,000	0,047	0,112
-104,191	-200,000	0,007	0,049
-103,176	-115,892	0,114	0,015
-102,162	800,000	0,041	-0,087
-101,147	257,592	-0,030	-0,036
-100,132	-144,129	0,096	-0,006
-99,118	-200,000	-0,021	-0,072
-98,103	-62,650	0,135	0,039
-97,089	800,000	-0,035	0,107
-96,074	-42,965	0,077	-0,028
-95,059	116,862	-0,097	-0,085
-94,045	63,646	-0,117	0,083
-93,030	33,281	0,096	0,059
-92,016	-121,900	-0,033	0,004
-91,001	-54,003	0,029	0,009
-89,986	800,000	-0,013	0,037
-88,972	235,442	0,113	-0,132
-87,957	-13,836	0,036	0,016
-86,943	-200,000	-0,016	0,000
-85,928	-187,917	0,087	0,001
-84,913	43,118	-0,071	-0,046
-83,899	-39,638	0,075	-0,028
-82,884	-26,695	0,103	-0,043
-81,870	-174,293	-0,155	-0,003
-80,855	-106,981	0,138	-0,021
-79,840	800,000	-0,051	0,139
-78,826	284,074	-0,060	0,077
-77,811	312,770	0,007	0,009
-76,797	-65,864	-0,068	-0,019
-75,782	207,716	0,029	0,032
-74,767	-172,566	0,100	-0,002
-73,753	-200,000	0,035	0,131
-72,738	-200,000	0,007	0,134
-71,724	-200,000	-0,023	-0,101
-70,709	303,992	0,055	-0,073
-69,694	66,376	-0,016	-0,011
-68,680	800,000	0,013	0,034
-67,665	-2,881	0,113	0,056
-66,651	-200,000	0,004	-0,117
-65,636	54,236	0,059	-0,040
-64,622	149,535	0,118	-0,113
-63,607	-200,000	-0,023	-0,121
-62,592	4,444	-0,074	0,038
-61,578	-96,807	0,108	-0,020
-60,563	131,206	0,067	0,061
-59,549	-123,260	-0,046	0,005
-58,534	-38,932	-1,725	-0,640
-57,519	366,744	-1,334	-1,910
-56,505	-200,000	-0,639	-4,583
-55,490	286,257	1,105	1,415
-54,476	800,000	4,850	10,997
-53,461	-200,000	19,269	319,696
-52,446	-200,000	740,817	2334,020
-51,432	573,715	1655,482	2868,057
-50,417	78,247	1670,904	1260,787
-49,403	21,313	1543,927	885,142
-48,388	15,173	1466,436	810,873
-47,373	17,870	1456,845	818,566
-46,359	16,575	1446,758	806,655
-45,344	13,420	1441,953	788,841
-44,330	13,333	1439,912	787,273
-43,315	13,383	1438,258	786,578
-42,300	13,409	1436,576	785,754
-41,286	13,399	1435,161	784,899
-40,271	13,368	1434,009	784,091
-39,257	13,325	1432,734	783,156
-38,242	13,356	1431,443	782,568
-37,227	13,381	1430,292	782,029
-36,213	13,412	1428,829	781,343
-35,198	13,350	1427,896	780,510
-34,184	13,442	1427,029	780,438
-33,169	13,359	1425,692	779,281
-32,154	13,442	1424,263	778,864
-31,140	13,465	1422,898	778,197
-30,125	13,438	1422,006	777,551
-29,111	13,481	1420,830	777,078
-28,096	13,424	1419,865	776,253
-27,082	13,363	1418,619	775,253
-26,067	13,314	1417,824	774,556
-25,052	13,344	1416,602	773,997
-24,038	13,339	1415,498	773,340
-23,023	13,295	1414,559	772,592
-22,009	13,295	1413,626	772,052
-20,994	13,306	1412,569	771,492
-19,979	13,299	1411,788	771,005
-18,965	13,251	1411,005	770,322
-17,950	13,234	1410,070	769,699
-16,936	13,282	1409,100	769,364
-15,921	13,225	1407,998	768,466
-14,906	13,219	1406,829	767,768
-13,892	13,245	1406,038	767,427
-12,877	13,228	1405,148	766,832
-11,863	13,244	1404,258	766,392
-10,848	13,212	1403,471	765,784
-9,833	13,190	1402,608	765,180
-8,819	13,149	1401,706	764,467
-7,804	13,142	1400,820	763,918
-6,790	13,157	1399,489	763,232
-5,775	13,129	1398,696	762,640
-4,760	13,135	1397,659	762,073
-3,746	13,169	1396,760	761,710
-2,731	13,133	1396,025	761,112
-1,717	13,093	1395,183	760,438
-0,702	13,096	1393,357	759,424
0,313	17,008	1310,089	732,133
1,327	33,289	703,697	430,857
2,342	51,697	123,097	82,651
3,356	3,235	16,607	8,516
4,371	0,710	3,208	1,618
5,386	-37,896	0,527	0,197
6,400	786,247	0,080	0,156
7,415	-72,438	-0,223	-0,058
8,429	-22,384	-0,322	-0,137
9,444	-37,110	-0,322	-0,121
10,459	-45,866	-0,348	-0,121
11,473	800,000	-0,089	-0,255
12,488	308,909	-0,099	-0,131
13,502	-3,624	-0,469	-0,230
14,517	56,295	-0,386	-0,265
15,531	119,765	-0,303	-0,265
16,546	698,745	-0,165	-0,307
17,561	596,183	-0,252	-0,442
18,575	41,510	-0,194	-0,124
19,590	270,035	-0,193	-0,239
20,604	-71,488	-0,213	-0,056
21,619	-52,336	-0,423	-0,137
22,634	122,749	-0,458	-0,404
23,648	173,265	-0,328	-0,334
24,663	203,055	-0,257	-0,281
25,677	196,514	-0,314	-0,338
26,692	69,857	-0,422	-0,306
27,707	263,249	-0,227	-0,279
28,721	117,348	-0,329	-0,285
29,736	-25,576	-0,413	-0,171
30,750	159,896	-0,278	-0,273
31,765	44,135	-0,279	-0,180
32,780	-33,972	-0,366	-0,141
33,794	139,951	-0,232	-0,216
34,809	115,810	-0,362	-0,312
35,823	6,797	-0,364	-0,190
36,838	3,793	-0,494	-0,254
37,853	132,451	-0,377	-0,342
38,867	119,370	-0,321	-0,280
39,882	264,481	-0,237	-0,291
40,896	59,745	-0,356	-0,247
41,911	14,348	-0,478	-0,262
42,926	222,982	-0,271	-0,309
43,940	92,372	-0,330	-0,262
44,955	140,389	-0,352	-0,328
45,969	43,956	-0,356	-0,229
46,984	311,878	-0,220	-0,291
47,999	6,238	-0,321	-0,167
49,013	21,305	-0,417	-0,238
50,028	-14,906	-0,332	-0,150
51,042	-23,716	-0,376	-0,158
52,057	137,203	-0,363	-0,334
53,071	71,965	-0,317	-0,232
54,086	9,567	-0,364	-0,193
55,101	481,786	-0,172	-0,276
56,115	110,128	-0,381	-0,322
57,130	-10,914	-0,342	-0,158
58,144	262,411	-0,294	-0,360
59,159	-1,474	-0,370	-0,183
60,174	3,809	-0,483	-0,248
61,188	176,059	-0,382	-0,391
62,203	106,562	-0,311	-0,260
63,217	110,833	-0,275	-0,233
64,232	399,298	-0,243	-0,360
65,247	284,356	-0,307	-0,389
66,261	11,818	-0,362	-0,195
67,276	34,634	-0,339	-0,208
68,290	154,186	-0,255	-0,246
69,305	269,418	-0,256	-0,317
70,320	53,622	-0,234	-0,157
71,334	-21,403	-0,350	-0,150
72,349	-112,385	-0,356	-0,049
73,363	107,998	-0,261	-0,218
74,378	91,499	-0,299	-0,236
75,393	-76,948	-0,364	-0,089
76,407	162,487	-0,337	-0,333
77,422	-75,460	-0,323	-0,080
78,436	-27,842	-0,366	-0,148
79,451	75,807	-0,332	-0,246
80,466	222,391	-0,218	-0,246
81,480	-36,054	-0,278	-0,105
82,495	49,333	-0,325	-0,214
83,509	184,440	-0,209	-0,217
84,524	137,509	-0,230	-0,211
85,539	60,477	-0,293	-0,204
86,553	291,266	-0,169	-0,216
87,568	145,893	-0,289	-0,272
88,582	179,037	-0,283	-0,291
89,597	198,973	-0,287	-0,309
90,611	167,314	-0,225	-0,225
91,626	-72,109	-0,270	-0,070
92,641	-97,595	-0,137	-0,025
93,655	254,730	-0,197	-0,237
94,670	120,927	-0,303	-0,264
95,684	106,728	-0,373	-0,311
96,699	115,781	-0,322	-0,277
97,714	254,388	-0,237	-0,285
98,728	-11,541	-0,280	-0,128
99,743	-19,339	-0,185	-0,080
100,757	222,633	-0,247	-0,280
101,772	-131,921	-0,280	0,025
102,787	636,805	-0,112	-0,200
103,801	318,074	-0,263	-0,349
104,816	175,807	-0,179	-0,182
105,830	32,559	-0,336	-0,203
106,845	227,897	-0,193	-0,221
107,860	-27,205	-0,271	-0,110
108,874	114,522	-0,278	-0,237
109,889	40,908	-0,285	-0,180
110,903	24,562	-0,319	-0,185
111,918	12,503	-0,247	-0,133
112,933	679,782	-0,120	-0,220
113,947	-74,178	-0,207	-0,052
114,962	-37,844	-0,147	-0,054
115,976	189,969	-0,184	-0,194
116,991	404,095	-0,187	-0,277
118,006	299,070	-0,213	-0,275
119,020	354,929	-0,141	-0,197
120,035	-102,320	-0,159	-0,026
121,049	114,817	-0,243	-0,207
122,064	800,000	-0,086	-0,187
123,079	103,870	-0,168	-0,138
124,093	37,204	-0,370	-0,229
125,108	252,594	-0,236	-0,282
126,122	162,657	-0,271	-0,266
127,137	782,332	-0,150	-0,289
128,151	18,825	-0,162	-0,090
129,166	-145,731	-0,203	0,012
130,181	800,000	-0,144	-0,316
131,195	57,936	-0,326	-0,223
132,210	-7,128	-0,323	-0,153
133,224	221,816	-0,265	-0,298
134,239	74,655	-0,222	-0,163
135,254	-33,090	-0,237	-0,092
136,268	-61,498	-0,308	-0,090
137,283	-144,272	-0,206	0,013
138,297	126,789	-0,246	-0,217
139,312	144,582	-0,225	-0,210
140,327	276,743	-0,280	-0,348
141,341	-4,235	-0,175	-0,084
142,356	130,047	-0,205	-0,184
143,370	-126,438	-0,347	-0,036
144,385	-25,668	-0,289	-0,119
145,400	79,409	-0,343	-0,257
146,414	171,555	-0,355	-0,357
147,429	-22,568	-0,254	-0,107
148,443	-132,687	-0,222	-0,020
149,458	122,806	-0,200	-0,175
150,473	257,039	-0,156	-0,188
151,487	-100,719	-0,299	-0,051
152,502	470,069	-0,142	-0,224
153,516	503,401	-0,183	-0,296
154,531	67,887	-0,265	-0,189
155,546	502,062	-0,137	-0,222
156,560	135,771	-0,218	-0,198
157,575	-96,199	-0,176	-0,032
158,589	31,714	-0,095	-0,057
159,604	59,155	-0,269	-0,184
160,619	91,019	-0,150	-0,117
161,633	-150,219	-0,232	-0,012
162,648	20,784	-0,331	-0,187
163,662	-94,262	-0,219	-0,041
164,677	-49,211	-0,357	-0,118
165,692	-68,408	-0,191	-0,051
166,706	-34,249	-0,327	-0,125
167,721	-40,898	-0,341	-0,122
168,735	269,772	-0,235	-0,288
169,750	18,707	-0,197	-0,109
170,764	116,857	-0,206	-0,176
171,779	233,959	-0,155	-0,178
172,794	39,760	-0,184	-0,115
173,808	82,448	-0,306	-0,231
174,823	285,146	-0,164	-0,206
175,837	56,647	-0,257	-0,174
176,852	62,744	-0,306	-0,213
177,867	269,638	-0,171	-0,209
178,881	-119,205	-0,207	-0,025
179,896	58,447	-0,157	-0,107
180,910	94,830	-0,172	-0,136
181,925	-21,642	-0,334	-0,141
182,940	84,917	-0,203	-0,154
183,954	165,533	-0,276	-0,272
184,969	151,391	-0,299	-0,283
185,983	-4,389	-0,275	-0,132
186,998	-2,714	-0,189	-0,091
188,013	201,831	-0,167	-0,179
189,027	-200,000	-0,061	-0,226
190,042	68,634	-0,221	-0,157
191,056	800,000	-0,085	-0,174
192,071	166,002	-0,273	-0,269
193,086	243,977	-0,163	-0,191
194,100	-28,252	-0,214	-0,085
195,115	208,095	-0,197	-0,214
196,129	44,228	-0,294	-0,187
197,144	72,410	-0,211	-0,153
198,159	251,345	-0,189	-0,223
199,173	38,891	-0,140	-0,087
200,188	-11,827	-0,228	-0,103
201,202	43,783	-0,130	-0,083
202,217	-134,874	-0,286	-0,024
203,232	23,322	-0,177	-0,101
204,246	-20,450	-0,299	-0,127
205,261	28,383	-0,226	-0,133
206,275	73,131	-0,161	-0,117
207,290	-40,918	-0,212	-0,076
208,304	164,281	-0,186	-0,182
209,319	364,235	-0,155	-0,217
210,334	149,749	-0,212	-0,200
211,348	93,123	-0,229	-0,180
212,363	189,011	-0,165	-0,172
213,377	125,333	-0,103	-0,090
214,392	-118,877	-0,254	-0,031
215,407	331,319	-0,101	-0,136
216,421	-118,290	-0,107	-0,013
217,436	92,869	-0,144	-0,113
218,450	-200,000	-0,036	-0,123
219,465	36,184	-0,314	-0,191
220,480	231,041	-0,161	-0,183
221,494	33,371	-0,237	-0,142
222,509	-59,711	-0,242	-0,071
223,523	-142,434	-0,253	-0,017
224,538	56,616	-0,155	-0,105
225,553	244,809	-0,145	-0,169
226,567	-25,944	-0,163	-0,066
227,582	-90,565	-0,315	-0,063
228,596	175,611	-0,145	-0,146
229,611	800,000	-0,123	-0,263
230,626	188,231	-0,165	-0,172
231,640	75,665	-0,213	-0,156
232,655	-90,376	-0,143	-0,028
233,669	137,236	-0,175	-0,159
234,684	355,709	-0,170	-0,235
235,699	800,000	-0,083	-0,228
236,713	75,816	-0,174	-0,127
237,728	69,577	-0,198	-0,141
238,742	-13,946	-0,232	-0,103
239,757	104,570	-0,280	-0,228
240,772	319,844	-0,238	-0,314
241,786	142,832	-0,226	-0,208
242,801	-83,427	-0,198	-0,044
243,815	-156,498	-0,181	0,008
244,830	237,602	-0,132	-0,152
245,844	40,462	-0,107	0,067
246,859	215,655	-0,185	-0,204
247,874	79,343	-0,228	-0,169
248,888	177,152	-0,195	-0,197
249,903	-125,867	-0,213	-0,022
250,917	-94,275	-0,144	0,027
251,932	45,815	-0,220	-0,140
252,947	4,320	-0,255	-0,129
253,961	83,558	-0,182	-0,137
254,976	146,103	-0,187	-0,174
255,990	27,846	-0,174	-0,101
257,005	-27,621	-0,061	0,024
258,020	-106,806	-0,209	-0,032
259,034	20,325	-0,174	-0,097
260,049	10,738	-0,125	-0,066
261,063	152,347	-0,177	-0,167
262,078	118,634	-0,215	-0,183
263,093	-67,991	-0,202	-0,054
264,107	225,860	-0,196	-0,220
265,122	196,876	-0,114	-0,120
266,136	36,821	-0,199	-0,122
267,151	-126,656	-0,173	-0,017
268,166	315,354	-0,119	-0,156
269,180	-3,472	-0,144	-0,069
270,195	515,887	-0,135	-0,219
271,209	10,746	-0,238	-0,125
272,224	236,006	-0,112	-0,128
273,239	114,675	-0,102	-0,086
274,253	159,231	-0,103	-0,099
275,268	257,322	-0,182	-0,216
276,282	182,294	-0,281	-0,287
277,297	-96,711	-0,291	0,052
278,312	-7,577	-0,146	-0,068
279,326	63,008	-0,140	-0,097
280,341	58,073	-0,119	-0,080
281,355	52,457	-0,163	-0,107
282,370	-133,846	-0,137	-0,012
283,384	-111,488	-0,194	0,027
284,399	145,316	-0,303	-0,280
285,414	138,735	-0,175	-0,158
286,428	76,119	-0,095	-0,069
287,443	61,923	-0,105	-0,072
288,457	-200,000	-0,027	-0,175
289,472	-93,564	-0,107	-0,020
290,487	77,557	-0,128	-0,094
291,501	448,253	-0,155	-0,236
292,516	495,739	-0,089	-0,141
293,530	-76,085	-0,103	0,025
294,545	167,350	-0,070	0,069
295,560	-156,394	-0,151	0,006
296,574	800,000	-0,062	-0,141
297,589	13,199	-0,177	-0,094
298,603	161,691	-0,231	-0,223
299,618	-47,379	-0,173	-0,058
300,633	-159,042	-0,184	-0,007
301,647	40,533	-0,122	-0,075
302,662	223,912	-0,108	-0,121
303,676	-148,061	-0,260	0,015
304,691	-137,148	-0,163	0,013
305,706	111,936	-0,167	-0,139
306,720	249,459	-0,155	-0,181
307,735	-200,000	-0,032	-0,133
308,749	227,845	-0,066	-0,074
309,764	-96,661	-0,157	0,028
310,779	46,946	-0,177	-0,113
311,793	60,661	-0,177	-0,121
312,808	100,603	-0,218	-0,174
313,822	92,925	-0,242	-0,188
314,837	-59,209	-0,175	-0,051
315,852	76,437	-0,102	-0,074
316,866	800,000	-0,084	-0,177
317,881	-200,000	-0,041	-0,133
318,895	800,000	-0,056	-0,129
319,910	129,833	-0,125	-0,110
320,925	60,784	-0,144	-0,098
321,939	205,619	-0,205	-0,220
322,954	800,000	-0,029	-0,057
323,968	273,622	-0,119	-0,145
324,983	-189,073	-0,118	0,001
325,997	-19,197	-0,182	-0,077
327,012	-51,510	-0,135	0,043
328,027	-200,000	0,037	-0,221
329,041	-200,000	-0,024	-0,136
330,056	474,185	-0,096	-0,150
331,070	-151,394	-0,114	-0,006
332,085	-76,824	-0,129	0,031
333,100	800,000	-0,085	-0,220
334,114	94,068	-0,186	-0,145
335,129	469,420	-0,073	-0,114
336,143	188,955	-0,144	-0,148
337,158	800,000	-0,078	-0,168
338,173	-200,000	-0,019	-0,185
339,187	-92,561	-0,135	-0,026
340,202	-48,174	-0,216	-0,071
341,216	77,672	-0,145	-0,106
342,231	4,688	-0,071	0,036
343,246	-114,639	-0,196	-0,026
344,260	-189,774	-0,211	-0,002
345,275	177,748	-0,048	-0,048
346,289	706,124	-0,061	-0,110
347,304	-22,301	-0,116	-0,048
348,319	441,625	-0,140	-0,211
349,333	106,870	-0,184	-0,150
350,348	578,629	-0,083	-0,140
351,362	-27,758	-0,257	-0,102
352,377	98,533	-0,104	-0,082
353,392	124,389	-0,147	-0,126
354,406	591,607	-0,040	-0,067
355,421	208,740	1315,779	1413,143
356,435	160,628	1476,615	1413,622
