DTS Sentinel unit serial number:	SN410029Multiplexer serial number:	ORYXHardware model number:	OX2-SRSoftware version number:	ORYX F/W v4,00 Oryx Data Collector v3.7.2.0data status	okinstallation	B3 Nyhavnadifferential loss correction	single-endedforward channel	channel 1reverse channel	N/Adate	2023/11/29time	06:17:30forward acquisition time	300,00reverse acquisition time	0,00gamma	499,1914k internal	0,3211k external	0,3211temperature offset calibration	1,0000default loss term (dB/km)	0,3820temperature slope calibration	1,0000multiplexer offset coefficient	1,0000multiplexer slope coefficient	1,0000fibre end	0,00T internal ref (°C)	8,97T ext. ref 1 (°C)	-6,54T ext. ref 2 (°C)	-6,64length (m)	temperature (°C)	Stokes	anti-Stokes-744,400	800,000	-0,100	-0,216
-743,385	-200,000	0,061	0,247
-742,371	360,436	-0,112	-0,163
-741,356	-200,000	-0,065	0,307
-740,342	174,156	-0,153	-0,160
-739,327	-200,000	0,018	0,219
-738,312	16,279	-0,268	-0,153
-737,298	-200,000	-0,040	0,205
-736,283	437,495	-0,100	-0,159
-735,269	-200,000	-0,103	0,341
-734,254	187,685	-0,201	-0,218
-733,239	-61,045	-0,074	-0,022
-732,225	241,400	-0,175	-0,212
-731,210	800,000	-0,018	0,056
-730,196	-200,000	-0,003	-0,118
-729,181	-115,318	-0,046	-0,006
-728,167	-200,000	-0,002	-0,071
-727,152	12,349	0,049	0,027
-726,137	195,516	-0,051	-0,056
-725,123	-200,000	-0,016	-0,151
-724,108	-140,130	-0,055	-0,004
-723,094	-35,759	0,033	0,013
-722,079	-129,644	-0,116	-0,011
-721,064	-132,765	0,103	0,009
-720,050	-200,000	0,002	-0,011
-719,035	-89,948	-0,175	0,037
-718,021	-171,136	-0,121	-0,003
-717,006	-145,315	-0,056	-0,004
-715,991	-141,211	-0,210	0,015
-714,977	35,194	-0,133	-0,084
-713,962	800,000	-0,017	0,052
-712,948	-31,527	0,122	-0,049
-711,933	-200,000	-0,003	-0,033
-710,918	214,649	0,072	-0,083
-709,904	-19,323	-0,089	-0,040
-708,889	-200,000	-0,003	-0,019
-707,875	-200,000	-0,036	-0,158
-706,860	250,251	-0,014	0,017
-705,845	800,000	-0,018	0,053
-704,831	110,798	0,013	-0,012
-703,816	-200,000	0,011	0,076
-702,802	137,180	-0,061	0,058
-701,787	515,765	0,067	-0,114
-700,772	-200,000	0,011	-0,064
-699,758	23,872	-0,082	0,049
-698,743	-200,000	0,012	-0,077
-697,729	-26,726	-0,090	-0,038
-696,714	800,000	-0,031	0,075
-695,699	186,685	-0,035	0,038
-694,685	-200,000	0,001	0,078
-693,670	-200,000	0,011	-0,085
-692,656	-200,000	-0,006	-0,098
-691,641	-45,035	0,151	-0,054
-690,627	800,000	0,069	0,203
-689,612	110,053	-0,090	-0,078
-688,597	182,297	-0,070	-0,074
-687,583	495,078	-0,081	-0,136
-686,568	-176,850	-0,119	0,002
-685,554	73,099	0,062	-0,047
-684,539	420,315	-0,019	0,030
-683,524	30,121	0,088	-0,054
-682,510	99,819	0,048	-0,040
-681,495	132,688	-0,075	-0,070
-680,481	-200,000	-0,004	-0,048
-679,466	-11,882	-0,160	-0,076
-678,451	106,786	0,122	0,105
-677,437	800,000	-0,042	-0,090
-676,422	418,316	0,057	-0,088
-675,408	-29,686	-0,078	-0,032
-674,393	-200,000	-0,007	-0,102
-673,378	-69,850	-0,026	0,007
-672,364	800,000	0,025	-0,053
-671,349	-48,816	0,042	0,015
-670,335	120,968	-0,088	0,079
-669,320	-18,973	-0,075	0,033
-668,305	641,150	0,048	0,088
-667,291	468,916	0,045	0,073
-666,276	-36,521	-0,116	-0,045
-665,262	-106,423	-0,207	-0,033
-664,247	-200,000	-0,006	-0,033
-663,232	18,949	0,180	-0,104
-662,218	26,704	-0,056	-0,034
-661,203	-39,562	-0,126	0,047
-660,189	-200,000	-0,005	-0,140
-659,174	-131,089	-0,126	-0,012
-658,159	-200,000	-0,032	0,114
-657,145	110,226	-0,024	0,021
-656,130	-200,000	-0,009	-0,072
-655,116	-102,534	0,175	-0,030
-654,101	-200,000	-0,085	-0,000
-653,086	124,344	-0,078	0,071
-652,072	571,396	-0,060	-0,105
-651,057	800,000	0,051	-0,118
-650,043	115,081	-0,222	-0,196
-649,028	174,445	0,034	0,036
-648,014	-80,374	0,042	-0,010
-646,999	-200,000	0,007	-0,029
-645,984	-200,000	0,027	0,135
-644,970	-200,000	0,017	-0,063
-643,955	205,939	-0,059	-0,067
-642,941	800,000	-0,046	-0,122
-641,926	-142,231	-0,006	0,000
-640,911	117,698	-0,028	-0,025
-639,897	-32,290	-0,044	-0,018
-638,882	355,374	0,056	-0,081
-637,868	3,564	-0,093	-0,049
-636,853	-200,000	-0,023	-0,187
-635,838	800,000	-0,032	-0,080
-634,824	-126,475	0,157	-0,017
-633,809	-200,000	-0,001	0,129
-632,795	31,070	0,173	-0,107
-631,780	645,457	-0,005	-0,010
-630,765	-121,927	-0,089	-0,010
-629,751	-168,539	-0,041	-0,001
-628,736	-107,842	-0,126	0,020
-627,722	30,018	0,143	0,088
-626,707	125,790	0,044	0,040
-625,692	-200,000	0,010	-0,071
-624,678	-66,455	-0,094	-0,027
-623,663	-200,000	-0,006	-0,022
-622,649	132,543	0,025	-0,023
-621,634	-92,685	0,090	0,018
-620,619	75,787	-0,047	-0,036
-619,605	-128,306	-0,117	0,012
-618,590	-60,656	-0,060	-0,018
-617,576	800,000	0,005	0,011
-616,561	303,282	-0,063	0,085
-615,546	-60,895	-0,078	-0,024
-614,532	-200,000	-0,003	-0,061
-613,517	800,000	0,022	0,063
-612,503	222,316	-0,080	0,092
-611,488	153,253	0,083	0,082
-610,474	-12,937	0,088	-0,041
-609,459	800,000	-0,042	-0,121
-608,444	-72,488	0,085	-0,022
-607,430	800,000	-0,021	0,054
-606,415	105,138	-0,074	-0,063
-605,401	440,750	0,025	-0,040
-604,386	-25,289	-0,030	0,013
-603,371	-200,000	0,010	0,125
-602,357	-200,000	0,045	0,154
-601,342	111,575	-0,052	-0,045
-600,328	-200,000	-0,016	-0,051
-599,313	800,000	-0,033	0,075
-598,298	-79,616	0,101	0,024
-597,284	-33,830	-0,089	-0,035
-596,269	-48,299	0,063	0,022
-595,255	-200,000	0,015	0,129
-594,240	-48,304	-0,056	0,019
-593,225	134,285	0,089	-0,083
-592,211	-87,656	0,155	-0,033
-591,196	-172,616	0,087	0,002
-590,182	-200,000	-0,041	0,154
-589,167	-107,135	0,107	0,017
-588,152	-74,177	0,115	0,030
-587,138	-76,410	-0,058	0,015
-586,123	91,897	0,020	0,016
-585,109	-200,000	0,046	-0,175
-584,094	-63,541	-0,103	0,030
-583,079	-200,000	0,013	0,177
-582,065	-47,679	0,077	0,027
-581,050	507,190	0,057	-0,096
-580,036	-132,105	-0,156	0,014
-579,021	-37,884	-0,030	-0,011
-578,006	374,241	-0,111	-0,164
-576,992	800,000	0,032	0,071
-575,977	101,641	-0,069	0,058
-574,963	409,342	-0,061	0,094
-573,948	-30,710	0,072	0,029
-572,934	106,191	-0,101	0,086
-571,919	53,942	-0,075	-0,052
-570,904	-200,000	-0,013	0,067
-569,890	389,932	-0,035	0,052
-568,875	-19,701	-0,170	0,076
-567,861	-56,590	0,201	0,064
-566,846	-110,954	0,044	0,006
-565,831	-32,237	-0,075	0,030
-564,817	721,953	0,036	-0,070
-563,802	287,030	-0,070	-0,091
-562,788	-200,000	0,014	0,137
-561,773	-200,000	-0,010	0,060
-560,758	20,977	-0,006	0,004
-559,744	800,000	0,016	0,040
-558,729	-200,000	0,028	0,160
-557,715	308,375	-0,106	-0,142
-556,700	-200,000	0,011	-0,062
-555,685	-111,254	0,034	0,005
-554,671	-65,796	-0,156	0,045
-553,656	-200,000	0,006	0,086
-552,642	-200,000	-0,035	0,275
-551,627	2,780	-0,046	-0,024
-550,612	-116,513	0,038	-0,005
-549,598	9,281	-0,123	0,067
-548,583	89,614	-0,048	-0,038
-547,569	-113,519	-0,081	-0,011
-546,554	800,000	-0,040	-0,092
-545,539	72,475	0,109	0,082
-544,525	800,000	0,030	-0,073
-543,510	-153,649	0,062	0,003
-542,496	800,000	0,027	-0,079
-541,481	784,090	-0,076	-0,150
-540,466	800,000	-0,022	0,059
-539,452	47,622	0,106	-0,071
-538,437	-45,491	0,021	0,007
-537,423	-200,000	-0,004	-0,020
-536,408	-159,647	0,128	-0,005
-535,393	42,145	0,083	0,054
-534,379	109,515	0,040	0,035
-533,364	230,836	-0,081	-0,095
-532,350	800,000	-0,055	-0,118
-531,335	299,384	-0,045	-0,059
-530,321	141,566	0,117	0,112
-529,306	41,774	0,051	-0,033
-528,291	-0,924	0,084	0,043
-527,277	-200,000	-0,007	0,023
-526,262	800,000	-0,030	-0,069
-525,248	440,773	0,054	-0,084
-524,233	-200,000	-0,002	0,125
-523,218	545,621	0,109	0,188
-522,204	800,000	-0,020	0,044
-521,189	-170,125	-0,212	0,005
-520,175	484,450	0,036	-0,059
-519,160	725,564	-0,015	-0,029
-518,145	-70,779	0,088	0,024
-517,131	800,000	0,025	0,054
-516,116	8,705	0,124	-0,067
-515,102	-200,000	-0,011	-0,047
-514,087	-72,501	-0,155	-0,041
-513,072	-52,866	0,108	-0,036
-512,058	9,193	-0,053	-0,029
-511,043	-28,818	0,048	0,020
-510,029	-66,192	0,087	-0,025
-509,014	800,000	-0,016	-0,033
-507,999	315,982	-0,052	0,071
-506,985	144,784	0,068	-0,065
-505,970	688,266	-0,076	-0,143
-504,956	-59,105	-0,150	0,046
-503,941	-200,000	-0,016	-0,152
-502,926	-200,000	-0,016	0,111
-501,912	-50,572	0,078	0,026
-500,897	800,000	-0,006	-0,014
-499,883	100,229	-0,072	-0,060
-498,868	-70,431	-0,115	0,031
-497,853	245,934	0,043	0,052
-496,839	195,178	-0,049	-0,053
-495,824	-48,032	0,062	-0,021
-494,810	800,000	0,019	-0,050
-493,795	-200,000	-0,004	0,048
-492,781	-42,628	-0,105	0,038
-491,766	-200,000	-0,006	-0,073
-490,751	41,605	0,039	0,025
-489,737	-200,000	0,020	0,194
-488,722	722,691	0,035	0,068
-487,708	216,264	0,103	0,117
-486,693	229,296	0,087	-0,102
-485,678	511,530	-0,054	-0,091
-484,664	-142,218	-0,262	-0,018
-483,649	-200,000	0,015	-0,122
-482,635	-59,721	0,132	-0,040
-481,620	-200,000	-0,025	-0,180
-480,605	-200,000	0,010	0,072
-479,591	-82,036	0,048	-0,011
-478,576	-200,000	0,012	0,080
-477,562	462,814	0,077	-0,123
-476,547	800,000	-0,032	-0,094
-475,532	19,555	0,051	-0,029
-474,518	-200,000	0,021	-0,067
-473,503	56,348	-0,123	0,086
-472,489	-200,000	-0,021	0,109
-471,474	800,000	-0,063	0,153
-470,459	-169,114	-0,041	-0,001
-469,445	-94,281	-0,045	-0,009
-468,430	-164,978	-0,048	-0,002
-467,416	800,000	-0,045	0,092
-466,401	385,489	-0,072	0,108
-465,386	43,532	0,096	0,063
-464,372	48,184	-0,057	0,038
-463,357	62,684	0,138	-0,099
-462,343	273,280	-0,087	-0,111
-461,328	88,823	-0,045	-0,036
-460,313	209,200	-0,040	-0,045
-459,299	255,563	0,118	0,145
-458,284	10,467	-0,048	0,026
-457,270	-99,430	0,129	-0,023
-456,255	-200,000	-0,019	0,065
-455,241	-200,000	0,001	-0,089
-454,226	800,000	-0,068	-0,165
-453,211	800,000	-0,032	-0,076
-452,197	-200,000	-0,005	-0,157
-451,182	-107,781	0,045	-0,007
-450,168	-175,947	0,151	0,003
-449,153	-132,947	-0,116	-0,010
-448,138	698,846	-0,040	-0,076
-447,124	-66,503	-0,103	-0,029
-446,109	689,408	-0,035	-0,066
-445,095	5,307	-0,032	-0,017
-444,080	800,000	-0,010	-0,027
-443,065	-138,506	-0,071	-0,006
-442,051	800,000	-0,040	-0,119
-441,036	-16,057	-0,165	-0,075
-440,022	-200,000	0,011	-0,074
-439,007	204,663	0,079	-0,087
-437,992	-200,000	0,034	0,242
-436,978	-110,109	-0,065	0,010
-435,963	203,761	-0,024	-0,027
-434,949	-146,808	0,128	-0,008
-433,934	-22,470	0,050	-0,021
-432,919	-118,602	-0,150	-0,019
-431,905	116,682	-0,072	0,064
-430,890	-114,711	0,062	-0,008
-429,876	16,722	0,113	0,064
-428,861	-152,564	-0,069	-0,003
-427,846	-200,000	0,023	-0,097
-426,832	283,373	-0,069	-0,089
-425,817	171,321	0,013	0,013
-424,803	345,505	-0,036	-0,051
-423,788	800,000	0,023	0,052
-422,773	720,174	-0,054	0,103
-421,759	412,513	-0,035	-0,053
-420,744	165,280	-0,071	0,071
-419,730	-66,224	-0,130	-0,037
-418,715	-17,584	-0,058	-0,026
-417,701	-118,757	0,018	-0,002
-416,686	-123,436	0,046	0,005
-415,671	-91,789	0,025	-0,005
-414,657	80,772	0,101	-0,078
-413,642	-200,000	0,002	-0,195
-412,628	-200,000	-0,036	-0,194
-411,613	-200,000	0,004	-0,088
-410,598	307,716	0,086	-0,115
-409,584	-200,000	0,016	-0,075
-408,569	301,761	0,016	-0,022
-407,555	-200,000	-0,019	0,116
-406,540	281,250	-0,059	0,075
-405,525	-200,000	-0,030	-0,106
-404,511	-25,431	0,037	-0,016
-403,496	-106,400	-0,021	-0,003
-402,482	-105,403	0,053	0,009
-401,467	429,789	0,038	0,059
-400,452	181,555	0,030	-0,032
-399,438	154,839	-0,054	0,053
-398,423	-200,000	-0,016	0,076
-397,409	-166,478	0,045	0,001
-396,394	-200,000	-0,005	-0,060
-395,379	800,000	0,022	-0,055
-394,365	407,055	-0,066	0,101
-393,350	-200,000	-0,011	-0,080
-392,336	800,000	-0,073	-0,174
-391,321	275,879	-0,008	-0,010
-390,306	32,373	-0,140	-0,086
-389,292	-119,913	-0,090	0,011
-388,277	46,608	0,078	-0,052
-387,263	114,276	0,048	-0,042
-386,248	-105,116	0,030	-0,005
-385,233	544,135	0,063	-0,108
-384,219	-200,000	0,017	0,086
-383,204	68,916	0,089	-0,065
-382,190	-200,000	0,016	-0,095
-381,175	-64,557	0,023	-0,007
-380,160	-92,893	0,032	-0,006
-379,146	127,905	0,071	0,064
-378,131	-79,213	0,103	0,025
-377,117	-20,907	0,118	0,051
-376,102	-19,605	-0,043	-0,019
-375,088	-200,000	-0,034	-0,119
-374,073	184,316	0,049	-0,052
-373,058	303,725	0,044	0,059
-372,044	-200,000	-0,009	0,096
-371,029	800,000	0,012	-0,031
-370,015	-200,000	-0,001	0,093
-369,000	58,659	0,044	-0,031
-367,985	800,000	-0,006	-0,014
-366,971	-200,000	-0,008	0,036
-365,956	-50,446	-0,129	-0,043
-364,942	90,922	0,107	0,086
-363,927	143,106	-0,103	0,098
-362,912	-200,000	-0,015	0,077
-361,898	-200,000	0,032	-0,191
-360,883	533,697	-0,048	-0,081
-359,869	10,577	-0,055	0,030
-358,854	19,205	-0,033	0,019
-357,839	-200,000	-0,007	-0,046
-356,825	800,000	0,038	0,103
-355,810	-46,881	0,102	-0,036
-354,796	-84,414	-0,084	-0,019
-353,781	243,449	0,061	-0,073
-352,766	306,651	-0,041	0,054
-351,752	-68,135	0,053	-0,015
-350,737	-22,597	0,061	-0,026
-349,723	-15,810	0,091	-0,041
-348,708	-143,124	-0,084	-0,006
-347,693	-200,000	-0,004	0,069
-346,679	42,317	0,037	-0,024
-345,664	-38,923	-0,107	-0,040
-344,650	8,423	0,089	-0,048
-343,635	-200,000	-0,006	-0,122
-342,620	-184,930	0,129	0,001
-341,606	-200,000	-0,009	0,236
-340,591	127,143	0,025	0,022
-339,577	774,057	-0,038	-0,073
-338,562	29,628	-0,121	-0,073
-337,548	-200,000	0,022	-0,154
-336,533	-39,318	0,075	0,028
-335,518	202,218	-0,094	0,104
-334,504	-200,000	0,030	0,105
-333,489	63,714	0,056	0,040
-332,475	288,791	0,124	-0,160
-331,460	-200,000	-0,010	-0,171
-330,445	-200,000	0,015	0,061
-329,431	51,042	0,103	0,070
-328,416	401,609	-0,008	0,012
-327,402	-56,705	0,174	0,055
-326,387	-200,000	0,014	0,051
-325,372	212,191	-0,064	-0,072
-324,358	-102,711	0,040	-0,007
-323,343	-40,994	-0,053	-0,019
-322,329	-200,000	0,031	0,145
-321,314	800,000	0,052	0,118
-320,299	800,000	-0,038	0,100
-319,285	-200,000	0,011	-0,085
-318,270	30,869	-0,205	0,125
-317,256	-126,934	0,104	0,011
-316,241	-92,022	-0,167	0,033
-315,226	-200,000	0,018	0,102
-314,212	800,000	-0,037	-0,090
-313,197	800,000	0,036	-0,102
-312,183	223,698	-0,038	0,044
-311,168	800,000	0,046	-0,111
-310,153	800,000	-0,046	-0,139
-309,139	274,980	0,100	-0,126
-308,124	-67,771	-0,074	-0,020
-307,110	800,000	-0,011	-0,030
-306,095	-50,480	0,124	0,041
-305,080	172,468	0,069	-0,071
-304,066	-37,400	-0,080	-0,030
-303,051	-130,941	-0,163	0,015
-302,037	12,359	-0,104	0,057
-301,022	-76,525	0,172	0,043
-300,008	49,119	-0,100	0,067
-298,993	358,560	0,103	0,147
-297,978	34,176	0,120	0,074
-296,964	800,000	-0,040	-0,085
-295,949	372,332	-0,083	-0,121
-294,935	521,790	0,004	-0,007
-293,920	-94,506	-0,160	0,031
-292,905	-200,000	0,015	-0,052
-291,891	800,000	-0,033	-0,069
-290,876	-200,000	0,004	0,013
-289,862	246,653	0,048	0,058
-288,847	360,681	-0,116	-0,167
-287,832	-4,065	0,073	-0,036
-286,818	-200,000	0,012	-0,095
-285,803	-200,000	0,019	0,104
-284,789	800,000	-0,061	0,127
-283,774	-200,000	0,002	-0,016
-282,759	251,228	0,030	-0,036
-281,745	-200,000	-0,030	-0,125
-280,730	549,611	-0,078	-0,134
-279,716	-105,209	0,082	-0,013
-278,701	341,040	-0,024	0,034
-277,686	-200,000	0,027	0,152
-276,672	320,883	0,133	0,181
-275,657	800,000	0,035	0,082
-274,643	21,793	0,113	0,065
-273,628	208,505	0,101	-0,112
-272,613	800,000	0,008	-0,018
-271,599	627,421	-0,096	-0,174
-270,584	-200,000	-0,001	0,118
-269,570	-125,321	0,076	0,008
-268,555	51,440	0,078	-0,053
-267,540	-43,645	-0,099	0,035
-266,526	277,642	0,009	-0,012
-265,511	800,000	-0,054	-0,123
-264,497	-39,649	-0,048	-0,018
-263,482	96,687	-0,085	-0,069
-262,467	-200,000	-0,004	-0,023
-261,453	800,000	-0,084	0,178
-260,438	33,913	0,062	0,039
-259,424	-200,000	-0,020	0,081
-258,409	82,604	0,117	-0,090
-257,395	-200,000	0,027	0,098
-256,380	-200,000	-0,013	0,074
-255,365	-119,059	0,100	-0,012
-254,351	-200,000	0,029	0,096
-253,336	162,028	-0,082	0,082
-252,322	-200,000	-0,011	0,039
-251,307	-79,899	-0,097	0,023
-250,292	207,634	-0,079	0,088
-249,278	353,140	-0,087	0,123
-248,263	-106,282	0,151	0,024
-247,249	-81,030	0,170	0,040
-246,234	-21,836	-0,067	-0,029
-245,219	196,460	-0,025	0,028
-244,205	-72,816	-0,111	-0,029
-243,190	800,000	0,069	0,160
-242,176	455,180	0,080	0,126
-241,161	-193,390	0,092	0,001
-240,146	-60,828	0,113	-0,034
-239,132	-76,644	-0,049	-0,012
-238,117	-126,444	-0,124	0,013
-237,103	167,156	0,024	-0,024
-236,088	-57,073	-0,081	0,025
-235,073	-200,000	0,007	-0,161
-234,059	-128,639	-0,060	-0,006
-233,044	-109,032	0,141	0,021
-232,030	-200,000	0,003	0,130
-231,015	133,365	0,072	-0,066
-230,000	800,000	0,032	-0,090
-228,986	-19,057	0,049	-0,022
-227,971	800,000	0,017	0,036
-226,957	-200,000	-0,022	0,141
-225,942	-55,238	0,129	0,041
-224,927	-200,000	-0,010	-0,053
-223,913	-54,620	-0,102	0,033
-222,898	-37,966	-0,108	0,040
-221,884	800,000	-0,048	-0,147
-220,869	-200,000	-0,032	0,164
-219,855	-5,415	-0,074	0,036
-218,840	-200,000	0,013	0,149
-217,825	-200,000	-0,002	-0,020
-216,811	800,000	0,061	-0,167
-215,796	121,379	0,020	0,018
-214,782	76,951	-0,108	-0,082
-213,767	302,785	0,041	0,054
-212,752	47,721	-0,066	0,044
-211,738	-200,000	-0,015	0,065
-210,723	17,864	0,063	-0,036
-209,709	626,525	0,052	0,093
-208,694	-200,000	0,045	-0,167
-207,679	69,583	-0,118	0,086
-206,665	800,000	-0,023	-0,065
-205,650	-200,000	-0,022	0,100
-204,636	412,122	0,079	-0,120
-203,621	-200,000	0,002	-0,033
-202,606	-156,720	0,173	0,007
-201,592	-83,644	-0,170	-0,038
-200,577	-63,777	-0,106	0,031
-199,563	4,094	0,083	0,043
-198,548	-200,000	-0,029	0,163
-197,533	-107,039	0,199	-0,031
-196,519	-62,673	0,159	-0,047
-195,504	-200,000	-0,022	0,086
-194,490	-200,000	0,020	0,077
-193,475	30,167	-0,066	-0,040
-192,460	800,000	0,020	-0,057
-191,446	800,000	0,015	0,036
-190,431	-4,304	0,253	0,124
-189,417	119,671	-0,033	-0,029
-188,402	699,895	-0,024	-0,045
-187,387	214,940	-0,053	-0,059
-186,373	319,125	0,049	0,066
-185,358	-137,498	-0,146	0,012
-184,344	-120,354	0,254	0,030
-183,329	92,931	0,099	0,080
-182,315	157,765	0,100	0,099
-181,300	12,165	-0,034	0,018
-180,285	48,160	-0,063	-0,042
-179,271	-91,975	0,100	-0,020
-178,256	50,748	0,114	0,076
-177,242	-84,731	-0,060	0,013
-176,227	621,164	-0,025	0,045
-175,212	-134,649	-0,062	0,005
-174,198	562,185	-0,025	0,042
-173,183	-106,194	-0,061	-0,010
-172,169	-194,435	0,100	0,001
-171,154	28,014	0,157	-0,094
-170,139	-200,000	0,030	0,147
-169,125	-77,655	-0,094	0,023
-168,110	303,154	-0,038	-0,051
-167,096	-124,044	-0,119	0,013
-166,081	800,000	0,014	-0,044
-165,066	-93,144	0,029	-0,006
-164,052	430,650	-0,039	0,060
-163,037	-200,000	-0,024	0,096
-162,023	62,952	-0,042	0,030
-161,008	-3,618	-0,114	0,056
-159,993	-200,000	-0,017	0,057
-158,979	-200,000	0,005	-0,046
-157,964	-200,000	-0,015	-0,056
-156,950	225,898	0,047	-0,054
-155,935	314,232	-0,095	0,127
-154,920	241,368	-0,016	0,019
-153,906	64,395	-0,084	-0,060
-152,891	-51,915	-0,071	0,023
-151,877	-200,000	-0,023	-0,148
-150,862	17,013	-0,048	-0,027
-149,847	-200,000	-0,008	-0,151
-148,833	-138,266	-0,181	-0,014
-147,818	-200,000	0,016	-0,218
-146,804	-200,000	-0,001	0,007
-145,789	-146,957	-0,104	-0,006
-144,775	-200,000	-0,009	-0,131
-143,760	58,661	-0,075	-0,052
-142,745	29,275	0,042	0,025
-141,731	-200,000	0,012	0,068
-140,716	800,000	-0,067	-0,190
-139,702	343,161	0,093	-0,129
-138,687	-200,000	-0,013	-0,051
-137,672	625,847	-0,050	0,090
-136,658	-200,000	-0,012	-0,111
-135,643	800,000	-0,033	-0,081
-134,629	-183,071	-0,116	-0,001
-133,614	-200,000	0,034	0,129
-132,599	-200,000	-0,008	0,097
-131,585	800,000	-0,010	0,029
-130,570	800,000	0,028	-0,069
-129,556	-153,139	-0,082	-0,004
-128,541	-200,000	0,006	-0,065
-127,526	346,067	-0,039	0,054
-126,512	800,000	0,027	-0,059
-125,497	364,095	0,093	0,133
-124,483	-64,456	0,025	-0,007
-123,468	-31,985	-0,079	0,031
-122,453	240,374	-0,042	0,050
-121,439	-21,173	-0,108	0,046
-120,424	-200,000	-0,018	-0,189
-119,410	-148,855	-0,105	-0,006
-118,395	70,237	0,159	0,116
-117,380	26,252	-0,019	0,011
-116,366	-25,444	-0,056	0,023
-115,351	-44,161	0,049	-0,017
-114,337	169,645	0,009	-0,009
-113,322	800,000	-0,033	-0,072
-112,307	-6,277	-0,060	0,029
-111,293	634,303	0,028	-0,050
-110,278	91,082	-0,056	-0,044
-109,264	800,000	0,034	0,073
-108,249	800,000	-0,044	-0,088
-107,234	454,553	-0,025	-0,039
-106,220	-200,000	-0,013	-0,098
-105,205	49,933	0,102	0,068
-104,191	-200,000	-0,020	0,126
-103,176	122,387	-0,120	0,106
-102,162	256,601	-0,022	-0,026
-101,147	-130,809	-0,105	0,010
-100,132	-32,022	-0,092	-0,036
-99,118	673,242	0,035	-0,064
-98,103	-200,000	-0,044	-0,166
-97,089	-106,594	0,127	-0,020
-96,074	-44,716	-0,101	0,036
-95,059	626,002	-0,066	0,118
-94,045	48,165	-0,176	-0,116
-93,030	133,173	-0,094	-0,086
-92,016	9,514	-0,046	0,025
-91,001	-4,090	-0,072	0,035
-89,986	59,142	0,050	0,035
-88,972	101,746	0,076	0,063
-87,957	15,660	0,025	-0,014
-86,943	-200,000	-0,029	-0,160
-85,928	-200,000	0,009	-0,136
-84,913	15,502	-0,122	-0,067
-83,899	-200,000	0,011	-0,114
-82,884	27,981	0,108	0,064
-81,870	86,561	0,031	0,024
-80,855	-84,736	-0,086	-0,019
-79,840	488,462	-0,070	0,114
-78,826	-161,447	-0,154	-0,005
-77,811	-61,188	-0,183	0,054
-76,797	605,405	0,031	-0,055
-75,782	47,012	0,066	-0,043
-74,767	400,535	0,134	0,199
-73,753	-200,000	-0,027	-0,228
-72,738	56,572	0,059	0,041
-71,724	-28,400	0,087	-0,035
-70,709	351,156	-0,084	-0,117
-69,694	719,124	-0,082	0,154
-68,680	49,130	0,052	0,034
-67,665	800,000	0,072	0,161
-66,651	428,452	0,011	0,016
-65,636	226,308	-0,064	0,073
-64,622	105,734	0,025	0,021
-63,607	547,419	-0,099	-0,168
-62,592	-200,000	0,004	0,143
-61,578	-200,000	-0,029	0,123
-60,563	49,375	-0,119	0,079
-59,549	800,000	-0,045	0,123
-58,534	32,711	-2,126	-1,295
-57,519	699,491	-1,054	-1,967
-56,505	-200,000	-0,338	-4,380
-55,490	547,807	0,921	1,561
-54,476	800,000	5,241	11,374
-53,461	-200,000	21,930	338,172
-52,446	800,000	759,123	2298,143
-51,432	533,162	1653,299	2773,264
-50,417	69,241	1650,868	1196,813
-49,403	16,616	1525,710	848,738
-48,388	10,755	1449,966	778,390
-47,373	18,993	1442,121	813,501
-46,359	14,184	1430,962	784,417
-45,344	9,134	1426,900	758,220
-44,330	9,096	1425,016	757,010
-43,315	9,018	1423,396	755,748
-42,300	9,021	1421,558	754,758
-41,286	9,053	1420,141	754,126
-40,271	9,046	1419,113	753,519
-39,257	9,044	1417,973	752,876
-38,242	9,098	1416,708	752,429
-37,227	9,039	1415,828	751,651
-36,213	9,044	1414,336	750,856
-35,198	9,054	1413,136	750,236
-34,184	9,101	1412,249	749,953
-33,169	8,983	1411,145	748,783
-32,154	9,070	1409,889	748,494
-31,140	9,043	1408,655	747,684
-30,125	9,067	1407,511	747,161
-29,111	9,055	1406,243	746,402
-28,096	9,079	1405,135	745,896
-27,082	9,043	1403,828	745,005
-26,067	8,946	1403,050	744,111
-25,052	9,010	1401,709	743,665
-24,038	9,003	1401,040	743,248
-23,023	8,973	1399,880	742,467
-22,009	8,946	1399,009	741,849
-20,994	8,934	1398,079	741,271
-19,979	9,014	1396,949	741,011
-18,965	8,979	1396,018	740,328
-17,950	8,991	1394,916	739,771
-16,936	8,945	1394,324	739,210
-15,921	8,894	1393,393	738,454
-14,906	8,908	1392,315	737,916
-13,892	8,976	1391,097	737,556
-12,877	8,973	1390,402	737,144
-11,863	8,914	1389,922	736,589
-10,848	8,887	1388,851	735,869
-9,833	8,882	1387,945	735,337
-8,819	8,814	1387,101	734,546
-7,804	8,807	1386,166	733,986
-6,790	8,843	1385,082	733,552
-5,775	8,823	1383,901	732,807
-4,760	8,816	1382,946	732,236
-3,746	8,838	1382,287	731,960
-2,731	8,835	1381,334	731,413
-1,717	8,805	1380,583	730,848
-0,702	8,829	1378,856	730,018
0,313	12,816	1290,304	701,262
1,327	28,674	682,281	406,392
2,342	44,633	117,509	76,048
3,356	2,791	16,416	8,371
4,371	3,970	3,762	1,933
5,386	47,717	1,152	0,757
6,400	498,808	0,369	0,602
7,415	-49,407	-0,132	-0,044
8,429	-97,804	-0,394	-0,071
9,444	-68,873	-0,223	-0,060
10,459	-26,380	-0,361	-0,149
11,473	-36,659	-0,347	-0,131
12,488	25,965	-0,262	-0,154
13,502	7,995	-0,397	-0,209
14,517	215,216	-0,215	-0,240
15,531	-48,510	-0,439	-0,148
16,546	-10,737	-0,367	-0,170
17,561	712,279	-0,197	-0,369
18,575	-71,122	-0,156	-0,041
19,590	151,578	-0,203	-0,195
20,604	-80,790	-0,128	-0,030
21,619	-19,432	-0,522	-0,227
22,634	118,904	-0,331	-0,288
23,648	36,140	-0,399	-0,247
24,663	88,181	-0,340	-0,265
25,677	108,547	-0,398	-0,334
26,692	366,059	-0,245	-0,349
27,707	49,244	-0,359	-0,237
28,721	25,133	-0,445	-0,259
29,736	-17,207	-0,495	-0,219
30,750	-1,100	-0,417	-0,207
31,765	141,202	-0,260	-0,242
32,780	31,174	-0,380	-0,229
33,794	155,896	-0,378	-0,367
34,809	215,923	-0,342	-0,382
35,823	5,199	-0,394	-0,204
36,838	69,774	-0,384	-0,278
37,853	127,227	-0,250	-0,223
38,867	200,446	-0,352	-0,381
39,882	225,480	-0,252	-0,287
40,896	185,099	-0,292	-0,305
41,911	89,870	-0,311	-0,244
42,926	40,144	-0,422	-0,266
43,940	65,689	-0,343	-0,244
44,955	308,538	-0,266	-0,350
45,969	207,774	-0,285	-0,313
46,984	81,826	-0,243	-0,184
47,999	133,045	-0,287	-0,260
49,013	-32,080	-0,346	-0,135
50,028	105,680	-0,351	-0,292
51,042	26,889	-0,376	-0,221
52,057	191,990	-0,327	-0,346
53,071	336,922	-0,230	-0,315
54,086	-44,559	-0,348	-0,121
55,101	-20,931	-0,350	-0,150
56,115	67,948	-0,328	-0,235
57,130	-41,654	-0,324	-0,116
58,144	20,082	-0,418	-0,236
59,159	42,457	-0,410	-0,261
60,174	297,291	-0,218	-0,281
61,188	15,902	-0,458	-0,252
62,203	-52,660	-0,327	-0,105
63,217	176,893	-0,302	-0,309
64,232	4,737	-0,298	-0,153
65,247	-21,631	-0,326	-0,139
66,261	126,947	-0,325	-0,289
67,276	112,853	-0,426	-0,362
68,290	-13,905	-0,306	-0,138
69,305	6,334	-0,318	-0,165
70,320	54,940	-0,287	-0,194
71,334	-55,495	-0,262	-0,082
72,349	155,055	-0,165	-0,159
73,363	52,664	-0,317	-0,212
74,378	41,259	-0,283	-0,179
75,393	-58,015	-0,320	-0,097
76,407	148,956	-0,294	-0,279
77,422	175,029	-0,267	-0,271
78,436	109,769	-0,298	-0,250
79,451	-34,559	-0,372	-0,142
80,466	180,860	-0,294	-0,303
81,480	4,553	-0,368	-0,188
82,495	448,825	-0,215	-0,333
83,509	-40,836	-0,254	-0,092
84,524	145,369	-0,253	-0,237
85,539	-18,016	-0,366	-0,160
86,553	-7,032	-0,371	-0,176
87,568	46,286	-0,284	-0,184
88,582	64,415	-0,135	-0,095
89,597	163,549	-0,283	-0,279
90,611	-108,623	-0,190	-0,028
91,626	-16,806	-0,238	-0,105
92,641	20,847	-0,292	-0,165
93,655	-40,509	-0,207	-0,075
94,670	-69,884	-0,316	-0,084
95,684	168,299	-0,281	-0,280
96,699	-200,000	-0,047	-0,197
97,714	-44,595	-0,237	-0,082
98,728	-198,859	-0,226	0,001
99,743	-36,901	-0,295	-0,110
100,757	155,889	-0,193	-0,186
101,772	-20,872	-0,374	-0,159
102,787	5,003	-0,278	-0,142
103,801	114,302	-0,367	-0,312
104,816	79,782	-0,242	-0,181
105,830	-39,081	-0,296	-0,108
106,845	176,123	-0,230	-0,234
107,860	380,080	-0,189	-0,271
108,874	54,134	-0,272	-0,183
109,889	4,731	-0,251	-0,129
110,903	157,875	-0,310	-0,300
111,918	102,842	-0,290	-0,237
112,933	237,160	-0,129	-0,149
113,947	58,729	-0,233	-0,160
114,962	-2,861	-0,251	-0,122
115,976	274,994	-0,164	-0,203
116,991	159,455	-0,260	-0,253
118,006	-44,695	-0,229	-0,079
119,020	61,229	-0,274	-0,189
120,035	32,354	-0,230	-0,138
121,049	-77,607	-0,344	-0,082
122,064	190,491	-0,217	-0,228
123,079	426,118	-0,177	-0,267
124,093	61,537	-0,202	-0,140
125,108	60,934	-0,299	-0,207
126,122	-52,556	-0,296	-0,095
127,137	72,947	-0,213	-0,155
128,151	-28,440	-0,262	-0,105
129,166	47,565	-0,207	-0,134
130,181	3,062	-0,252	-0,127
131,195	4,976	-0,301	-0,154
132,210	-15,226	-0,291	-0,129
133,224	201,977	-0,170	-0,183
134,239	-166,649	-0,392	-0,011
135,254	269,986	-0,199	-0,245
136,268	-21,581	-0,265	-0,112
137,283	16,137	-0,300	-0,164
138,297	-55,884	-0,248	-0,077
139,312	31,907	-0,261	-0,156
140,327	31,454	-0,276	-0,165
141,341	800,000	-0,137	-0,265
142,356	-30,877	-0,196	-0,077
143,370	-86,314	-0,147	-0,031
144,385	193,600	-0,121	-0,127
145,400	66,875	-0,227	-0,161
146,414	-68,170	-0,158	-0,042
147,429	199,186	-0,220	-0,236
148,443	57,288	-0,385	-0,261
149,458	157,544	-0,243	-0,234
150,473	636,170	-0,158	-0,281
151,487	52,368	-0,254	-0,168
152,502	-15,443	-0,474	-0,210
153,516	201,503	-0,183	-0,197
154,531	151,675	-0,252	-0,239
155,546	311,088	-0,179	-0,234
156,560	196,956	-0,184	-0,195
157,575	-53,733	-0,296	-0,093
158,589	93,114	-0,277	-0,218
159,604	4,504	-0,279	-0,142
160,619	81,500	-0,233	-0,175
161,633	82,988	-0,173	-0,131
162,648	-20,073	-0,202	-0,086
163,662	-84,024	-0,186	-0,041
164,677	176,121	-0,198	-0,200
165,692	83,265	-0,213	-0,161
166,706	619,422	-0,078	-0,136
167,721	800,000	-0,118	-0,237
168,735	3,513	-0,308	-0,156
169,750	-0,073	-0,229	-0,113
170,764	68,967	-0,167	-0,119
171,779	-33,877	-0,167	0,063
172,794	357,519	-0,090	-0,125
173,808	16,439	-0,243	-0,133
174,823	708,708	-0,179	-0,331
175,837	178,741	-0,277	-0,281
176,852	608,846	-0,125	-0,217
177,867	800,000	-0,097	-0,227
178,881	-10,828	-0,211	-0,096
179,896	25,204	-0,187	-0,108
180,910	-29,562	-0,206	-0,082
181,925	93,465	-0,177	-0,139
182,940	-13,434	-0,220	-0,099
183,954	96,293	-0,198	-0,157
184,969	162,689	-0,122	-0,119
185,983	3,017	-0,191	-0,096
186,998	-1,233	-0,246	-0,120
188,013	-139,509	-0,265	-0,019
189,027	-73,246	-0,270	-0,068
190,042	2,936	-0,211	-0,106
191,056	230,828	-0,213	-0,243
192,071	92,555	-0,213	-0,166
193,086	35,742	-0,151	-0,092
194,100	66,162	-0,143	-0,100
195,115	-15,719	-0,310	-0,137
196,129	6,486	-0,347	-0,178
197,144	0,563	-0,281	-0,139
198,159	213,074	-0,107	-0,117
199,173	-59,489	-0,289	-0,086
200,188	328,117	-0,100	-0,133
201,202	174,615	-0,127	-0,128
202,217	393,565	-0,183	-0,265
203,232	-18,922	-0,339	-0,145
204,246	174,566	-0,329	-0,330
205,261	116,024	-0,292	-0,248
206,275	172,895	-0,148	-0,148
207,290	145,879	-0,145	-0,135
208,304	11,830	-0,240	-0,127
209,319	-126,875	-0,107	-0,011
210,334	597,430	-0,150	-0,259
211,348	29,923	-0,220	-0,129
212,363	392,215	-0,185	-0,267
213,377	20,109	-0,072	-0,040
214,392	291,592	-0,116	-0,146
215,407	-11,983	-0,236	-0,107
216,421	153,408	-0,055	-0,052
217,436	116,378	-0,134	-0,113
218,450	24,292	-0,177	-0,101
219,465	252,993	-0,156	-0,185
220,480	163,291	-0,175	-0,170
221,494	36,780	-0,123	-0,075
222,509	47,019	-0,098	-0,063
223,523	127,633	-0,130	-0,114
224,538	-64,802	-0,289	-0,080
225,553	202,739	-0,252	-0,270
226,567	-16,587	-0,338	-0,147
227,582	800,000	-0,097	-0,198
228,596	-200,000	-0,024	-0,095
229,611	503,975	-0,101	-0,163
230,626	357,173	-0,159	-0,220
231,640	72,386	-0,228	-0,164
232,655	101,401	-0,231	-0,186
233,669	42,753	-0,207	-0,130
234,684	696,859	-0,102	-0,187
235,699	-27,803	-0,203	-0,081
236,713	800,000	-0,052	-0,120
237,728	113,673	-0,198	-0,166
238,742	57,258	-0,211	-0,142
239,757	3,324	-0,181	-0,091
240,772	-42,745	-0,281	-0,098
241,786	355,088	-0,160	-0,221
242,801	131,875	-0,104	-0,092
243,815	30,933	-0,090	-0,053
244,830	800,000	-0,117	-0,230
245,844	800,000	-0,045	-0,131
246,859	800,000	-0,145	-0,292
247,874	58,312	-0,220	-0,149
248,888	-32,002	-0,287	-0,110
249,903	103,035	-0,221	-0,179
250,917	-63,283	-0,092	-0,026
251,932	-78,121	-0,215	-0,051
252,947	800,000	-0,080	-0,160
253,961	-130,602	-0,126	-0,012
254,976	26,725	-0,151	-0,087
255,990	44,519	-0,204	-0,129
257,005	112,870	-0,100	-0,083
258,020	55,215	-0,240	-0,160
259,034	10,753	-0,104	-0,055
260,049	51,738	-0,061	0,040
261,063	212,865	-0,120	-0,131
262,078	211,808	-0,143	-0,155
263,093	659,394	-0,119	-0,213
264,107	-82,021	-0,227	-0,051
265,122	63,462	-0,106	-0,073
266,136	-121,737	-0,188	0,021
267,151	79,912	-0,186	-0,137
268,166	-200,000	-0,009	-0,138
269,180	85,772	-0,330	-0,250
270,195	465,060	-0,124	-0,192
271,209	171,949	-0,139	-0,137
272,224	-95,467	-0,225	-0,041
273,239	-125,001	-0,247	0,026
274,253	31,759	-0,113	0,067
275,268	-189,546	-0,081	0,001
276,282	424,275	-0,189	-0,280
277,297	22,430	-0,220	-0,124
278,312	33,014	-0,175	-0,104
279,326	5,403	-0,184	-0,093
280,341	800,000	-0,068	-0,206
281,355	-46,096	-0,207	-0,070
282,370	34,498	-0,143	-0,086
283,384	626,633	-0,192	-0,334
284,399	143,451	-0,339	-0,310
285,414	469,060	-0,046	-0,071
286,428	-182,842	-0,187	-0,002
287,443	345,786	-0,098	-0,133
288,457	-106,781	-0,239	-0,036
289,472	-17,077	-0,158	0,068
290,487	96,030	-0,126	-0,099
291,501	223,296	-0,183	-0,203
292,516	174,626	-0,238	-0,237
293,530	800,000	-0,073	-0,181
294,545	127,143	-0,249	-0,217
295,560	276,531	-0,135	-0,165
296,574	174,217	-0,176	-0,175
297,589	155,741	-0,124	-0,118
298,603	-52,410	-0,275	-0,087
299,618	-200,000	-0,015	-0,099
300,633	729,953	-0,091	-0,168
301,647	-200,000	-0,020	0,078
302,662	28,140	-0,107	-0,062
303,676	-200,000	-0,046	-0,168
304,691	334,860	-0,065	-0,086
305,706	-177,229	-0,118	-0,002
306,720	183,752	-0,240	-0,244
307,735	357,978	-0,047	-0,065
308,749	-33,355	-0,110	0,042
309,764	27,715	-0,139	-0,080
310,779	-71,332	-0,095	-0,024
311,793	-143,035	-0,167	-0,011
312,808	-200,000	-0,022	-0,117
313,822	419,752	-0,143	-0,211
314,837	800,000	-0,029	-0,073
315,852	-70,748	-0,081	-0,021
316,866	-35,971	-0,074	0,027
317,881	13,123	-0,146	0,077
318,895	343,810	-0,109	-0,147
319,910	-0,818	-0,139	-0,068
320,925	-145,403	-0,154	-0,009
321,939	294,014	-0,084	-0,106
322,954	160,705	-0,201	-0,193
323,968	118,317	-0,070	0,059
324,983	170,478	-0,140	0,137
325,997	-64,856	-0,342	-0,094
327,012	141,317	-0,135	-0,122
328,027	265,818	-0,145	-0,173
329,041	-105,339	-0,074	-0,011
330,056	146,599	-0,092	-0,085
331,070	-84,696	-0,188	-0,040
332,085	472,678	0,038	-0,059
333,100	-42,945	-0,191	0,066
334,114	-200,000	-0,041	-0,134
335,129	-54,186	-0,147	-0,045
336,143	31,427	-0,105	-0,062
337,158	92,693	-0,069	-0,053
338,173	800,000	-0,084	-0,166
339,187	42,553	-0,176	-0,109
340,202	56,207	-0,156	-0,103
341,216	53,317	-0,176	-0,115
342,231	618,159	-0,102	-0,176
343,246	122,046	-0,149	-0,127
344,260	-36,805	-0,119	0,043
345,275	-170,711	-0,178	0,004
346,289	-200,000	-0,011	0,052
347,304	56,850	-0,079	-0,052
348,319	-22,191	-0,196	-0,081
349,333	-46,790	-0,144	-0,048
350,348	197,416	-0,094	-0,098
351,362	95,521	-0,141	-0,110
352,377	60,270	-0,037	-0,025
353,392	-97,363	-0,086	0,015
354,406	509,487	-0,069	-0,110
355,421	206,510	1307,536	1393,854
356,435	158,822	1467,346	1394,315
