DTS Sentinel unit serial number:	SN410029Multiplexer serial number:	ORYXHardware model number:	OX2-SRSoftware version number:	ORYX F/W v4,00 Oryx Data Collector v3.7.2.0data status	okinstallation	B3 Nyhavnadifferential loss correction	single-endedforward channel	channel 1reverse channel	N/Adate	2023/11/30time	13:32:30forward acquisition time	300,00reverse acquisition time	0,00gamma	499,1914k internal	0,3214k external	0,3214temperature offset calibration	1,0000default loss term (dB/km)	0,3820temperature slope calibration	1,0000multiplexer offset coefficient	1,0000multiplexer slope coefficient	1,0000fibre end	0,00T internal ref (°C)	10,63T ext. ref 1 (°C)	-2,65T ext. ref 2 (°C)	-2,71length (m)	temperature (°C)	Stokes	anti-Stokes-744,400	258,584	-0,257	-0,321
-743,385	-200,000	-0,048	0,206
-742,371	35,852	-0,121	-0,077
-741,356	-200,000	-0,053	0,196
-740,342	800,000	-0,097	-0,248
-739,327	800,000	-0,058	0,119
-738,312	176,843	-0,214	-0,226
-737,298	-200,000	-0,005	0,213
-736,283	800,000	-0,146	-0,343
-735,269	-200,000	0,043	0,404
-734,254	272,839	-0,183	-0,235
-733,239	12,600	-0,249	0,139
-732,225	288,900	-0,209	-0,274
-731,210	54,983	0,218	0,152
-730,196	113,865	-0,026	0,023
-729,181	149,060	0,070	0,069
-728,167	-48,103	-0,139	-0,048
-727,152	-49,698	-0,097	0,033
-726,137	-40,516	0,063	0,024
-725,123	800,000	-0,032	0,065
-724,108	260,335	-0,098	-0,123
-723,094	-35,564	-0,170	-0,066
-722,079	800,000	-0,085	-0,198
-721,064	195,037	-0,022	-0,024
-720,050	-200,000	0,003	0,025
-719,035	-200,000	-0,016	0,099
-718,021	-94,973	-0,138	-0,027
-717,006	-200,000	-0,003	0,143
-715,991	431,563	-0,139	-0,219
-714,977	800,000	0,062	-0,136
-713,962	-130,436	-0,105	0,010
-712,948	-79,180	0,067	0,016
-711,933	281,042	0,052	0,067
-710,918	607,777	-0,036	0,065
-709,904	-153,850	-0,087	-0,004
-708,889	165,075	-0,044	-0,045
-707,875	800,000	-0,010	0,028
-706,860	-130,588	-0,084	0,008
-705,845	-200,000	-0,042	-0,167
-704,831	-200,000	0,003	-0,039
-703,816	-200,000	0,031	-0,117
-702,802	-78,764	-0,095	-0,023
-701,787	-119,413	-0,072	-0,009
-700,772	66,676	-0,045	0,033
-699,758	800,000	0,041	0,128
-698,743	-200,000	0,032	0,129
-697,729	253,050	-0,037	-0,046
-696,714	-41,719	-0,064	-0,024
-695,699	52,329	0,069	0,047
-694,685	-123,069	0,062	-0,007
-693,670	800,000	-0,013	0,034
-692,656	-88,451	-0,066	0,014
-691,641	-84,870	0,127	-0,029
-690,627	-200,000	-0,006	-0,047
-689,612	456,573	0,098	-0,157
-688,597	-200,000	-0,050	-0,164
-687,583	-14,622	-0,124	-0,057
-686,568	-200,000	0,046	0,174
-685,554	716,692	0,024	0,047
-684,539	106,896	-0,091	0,078
-683,524	633,442	-0,029	-0,053
-682,510	-200,000	-0,010	-0,038
-681,495	-200,000	0,025	-0,132
-680,481	133,932	-0,045	0,042
-679,466	253,970	-0,075	-0,092
-678,451	-80,206	-0,110	-0,026
-677,437	618,739	0,041	-0,074
-676,422	-37,164	0,062	0,024
-675,408	-200,000	-0,003	0,056
-674,393	284,124	0,045	0,059
-673,378	-20,808	-0,016	-0,007
-672,364	13,573	-0,056	0,031
-671,349	115,560	0,091	0,081
-670,335	232,701	-0,101	0,120
-669,320	-116,553	0,081	0,011
-668,305	800,000	-0,062	-0,156
-667,291	748,417	0,043	-0,085
-666,276	141,107	-0,106	-0,102
-665,262	639,836	-0,049	-0,091
-664,247	554,159	-0,081	-0,141
-663,232	-92,923	0,067	-0,013
-662,218	800,000	0,027	-0,082
-661,203	-37,462	-0,043	0,016
-660,189	572,127	0,051	-0,090
-659,174	277,377	0,018	0,023
-658,159	-186,758	0,145	-0,001
-657,145	800,000	-0,053	-0,119
-656,130	-170,646	0,054	-0,001
-655,116	-75,148	-0,146	-0,037
-654,101	162,442	0,114	0,116
-653,086	15,697	0,100	0,057
-652,072	68,082	-0,090	-0,066
-651,057	800,000	-0,072	0,150
-650,043	58,903	0,017	-0,012
-649,028	11,692	-0,117	-0,065
-648,014	138,210	0,085	0,081
-646,999	255,267	0,060	-0,074
-645,984	105,285	-0,043	0,036
-644,970	405,604	-0,052	0,079
-643,955	4,086	0,108	-0,057
-642,941	31,484	-0,070	-0,043
-641,926	800,000	0,051	-0,132
-640,911	-40,403	-0,089	-0,033
-639,897	551,766	0,059	0,103
-638,882	-107,027	0,067	-0,011
-637,868	68,873	0,066	-0,049
-636,853	-115,223	-0,128	0,017
-635,838	89,050	0,092	-0,074
-634,824	-1,079	-0,040	-0,021
-633,809	12,469	0,120	0,067
-632,795	123,890	-0,046	0,041
-631,780	800,000	0,027	0,070
-630,765	-118,331	-0,093	0,012
-629,751	-185,302	-0,082	-0,001
-628,736	-200,000	-0,032	-0,215
-627,722	800,000	0,022	0,055
-626,707	29,533	-0,087	-0,053
-625,692	599,404	0,049	0,088
-624,678	69,324	-0,054	-0,040
-623,663	-110,938	0,013	0,002
-622,649	653,130	-0,043	0,080
-621,634	-200,000	-0,028	-0,144
-620,619	-200,000	0,011	0,054
-619,605	113,331	0,098	-0,086
-618,590	800,000	-0,050	-0,127
-617,576	-103,079	0,067	-0,011
-616,561	800,000	-0,038	-0,089
-615,546	289,808	-0,082	-0,107
-614,532	485,281	-0,068	-0,112
-613,517	-74,542	-0,088	-0,023
-612,503	30,722	0,094	-0,058
-611,488	412,259	0,027	0,041
-610,474	144,887	-0,081	-0,078
-609,459	94,683	-0,055	0,045
-608,444	800,000	0,013	-0,033
-607,430	486,215	-0,071	-0,116
-606,415	-0,027	0,089	0,045
-605,401	800,000	-0,052	0,114
-604,386	-200,000	-0,004	-0,072
-603,371	230,809	-0,069	-0,082
-602,357	-68,571	0,054	0,015
-601,342	62,314	-0,122	0,088
-600,328	-200,000	-0,007	-0,058
-599,313	64,117	-0,054	-0,039
-598,298	-200,000	0,022	0,148
-597,284	-200,000	-0,030	0,102
-596,269	-190,470	0,034	-0,000
-595,255	-106,765	0,056	-0,009
-594,240	800,000	0,035	-0,072
-593,225	-200,000	0,024	-0,149
-592,211	34,420	0,057	0,036
-591,196	-14,675	-0,072	-0,033
-590,182	-116,673	0,109	0,014
-589,167	117,244	0,041	-0,036
-588,152	-128,794	0,078	0,008
-587,138	-164,726	0,154	-0,005
-586,123	-200,000	-0,010	0,070
-585,109	-61,084	0,074	-0,022
-584,094	-200,000	0,010	-0,045
-583,079	417,935	-0,024	-0,037
-582,065	547,716	0,038	0,065
-581,050	-116,279	0,024	0,003
-580,036	-200,000	0,001	-0,023
-579,021	-61,734	-0,036	0,011
-578,006	352,039	0,031	-0,044
-576,992	800,000	0,052	0,121
-575,977	6,961	0,175	-0,094
-574,963	-27,494	0,093	-0,039
-573,948	-16,900	0,083	-0,038
-572,934	-200,000	-0,024	-0,093
-571,919	101,513	-0,101	-0,084
-570,904	37,105	-0,037	0,024
-569,890	-200,000	-0,012	0,062
-568,875	-200,000	-0,004	0,174
-567,861	800,000	0,040	0,119
-566,846	223,647	0,052	-0,061
-565,831	-126,492	-0,067	0,007
-564,817	503,167	-0,080	-0,133
-563,802	800,000	-0,069	-0,192
-562,788	-158,526	-0,039	0,002
-561,773	496,679	-0,057	-0,095
-560,758	-200,000	0,017	-0,116
-559,744	597,471	0,063	0,112
-558,729	800,000	0,031	-0,081
-557,715	-200,000	-0,014	-0,092
-556,700	-107,803	-0,063	-0,010
-555,685	108,892	0,065	-0,056
-554,671	323,053	-0,090	0,123
-553,656	-65,908	0,101	0,029
-552,642	800,000	-0,013	0,036
-551,627	-200,000	0,005	0,019
-550,612	682,341	-0,022	0,041
-549,598	-200,000	0,003	-0,167
-548,583	21,600	-0,077	-0,045
-547,569	581,405	0,043	0,076
-546,554	800,000	0,050	0,146
-545,539	-136,041	-0,085	-0,007
-544,525	112,654	0,107	0,093
-543,510	-146,714	-0,107	-0,007
-542,496	-200,000	-0,013	-0,068
-541,481	800,000	0,024	-0,049
-540,466	323,702	-0,026	0,035
-539,452	176,031	0,061	-0,064
-538,437	168,830	0,068	0,069
-537,423	226,228	0,039	-0,046
-536,408	178,024	0,104	-0,109
-535,393	800,000	0,009	-0,028
-534,379	-200,000	0,007	-0,094
-533,364	-200,000	0,034	0,130
-532,350	455,576	-0,008	0,013
-531,335	-200,000	0,002	-0,032
-530,321	-106,321	0,070	0,011
-529,306	419,470	-0,073	-0,112
-528,291	-12,401	0,070	-0,033
-527,277	-200,000	-0,008	0,045
-526,262	780,431	0,048	-0,095
-525,248	-146,441	-0,129	0,008
-524,233	630,945	-0,052	0,095
-523,218	-60,401	-0,180	0,055
-522,204	-200,000	-0,003	-0,028
-521,189	-94,312	-0,037	-0,007
-520,175	-177,733	-0,081	0,001
-519,160	-200,000	0,009	0,164
-518,145	296,061	-0,076	-0,100
-517,131	71,172	0,094	0,070
-516,116	-200,000	0,010	-0,038
-515,102	46,053	0,080	0,053
-514,087	-200,000	-0,005	-0,139
-513,072	-56,308	-0,097	0,031
-512,058	-200,000	0,011	-0,056
-511,043	1,208	0,076	-0,039
-510,029	-52,045	0,020	-0,007
-509,014	-200,000	-0,002	-0,023
-507,999	-19,842	-0,100	0,044
-506,985	97,539	-0,070	0,058
-505,970	800,000	-0,020	0,048
-504,956	-114,695	0,098	0,013
-503,941	158,967	-0,045	-0,045
-502,926	-116,627	0,087	0,011
-501,912	-200,000	0,006	0,122
-500,897	-200,000	0,012	-0,044
-499,883	-53,782	-0,052	-0,017
-498,868	247,516	-0,023	-0,027
-497,853	35,304	0,157	-0,098
-496,839	-200,000	0,020	0,128
-495,824	360,014	0,027	-0,039
-494,810	-58,197	0,032	-0,010
-493,795	300,329	0,053	-0,070
-492,781	-200,000	0,036	0,200
-491,766	800,000	0,013	0,026
-490,751	458,204	-0,003	-0,005
-489,737	-25,572	-0,054	-0,023
-488,722	-154,023	-0,073	0,004
-487,708	-200,000	-0,005	0,061
-486,693	-200,000	0,011	-0,103
-485,678	555,009	-0,087	-0,150
-484,664	-200,000	0,009	-0,073
-483,649	-182,170	-0,055	0,001
-482,635	800,000	-0,080	0,165
-481,620	691,839	-0,054	-0,103
-480,605	12,499	0,138	-0,076
-479,591	123,743	-0,055	0,050
-478,576	-102,597	0,027	0,004
-477,562	544,733	-0,034	0,058
-476,547	8,592	-0,051	0,027
-475,532	47,470	0,047	0,031
-474,518	-62,465	-0,163	0,048
-473,503	625,508	0,067	-0,122
-472,489	218,062	0,131	-0,150
-471,474	-165,146	-0,121	0,004
-470,459	20,049	0,059	-0,034
-469,445	-28,893	0,078	-0,032
-468,430	-200,000	-0,015	-0,097
-467,416	-84,552	0,047	0,011
-466,401	-89,945	-0,030	-0,006
-465,386	800,000	-0,009	-0,027
-464,372	-200,000	-0,003	0,102
-463,357	-118,277	-0,112	-0,014
-462,343	128,514	0,062	-0,057
-461,328	-131,176	-0,098	0,009
-460,313	62,981	-0,033	-0,023
-459,299	408,078	0,098	-0,149
-458,284	48,256	0,016	-0,011
-457,270	585,714	0,043	-0,075
-456,255	45,265	-0,065	0,043
-455,241	-118,300	-0,140	-0,018
-454,226	82,834	-0,075	-0,059
-453,211	-200,000	0,009	0,038
-452,197	-93,628	0,149	0,029
-451,182	385,827	0,061	0,091
-450,168	321,536	-0,039	-0,054
-449,153	-200,000	-0,017	0,097
-448,138	800,000	0,007	-0,019
-447,124	7,447	-0,050	0,027
-446,109	131,690	0,030	-0,028
-445,095	-67,577	0,135	-0,038
-444,080	71,330	-0,119	0,088
-443,065	367,276	-0,006	0,009
-442,051	211,235	0,027	0,031
-441,036	800,000	0,018	-0,046
-440,022	-102,700	-0,163	-0,027
-439,007	-22,180	-0,055	-0,024
-437,992	-200,000	-0,004	-0,045
-436,978	274,132	0,150	0,190
-435,963	25,135	0,096	0,057
-434,949	800,000	0,037	0,080
-433,934	-200,000	-0,010	0,062
-432,919	800,000	-0,004	0,008
-431,905	-200,000	0,041	0,182
-430,890	-200,000	0,005	-0,095
-429,876	-200,000	0,033	-0,142
-428,861	-40,170	-0,030	0,011
-427,846	183,118	-0,056	0,060
-426,832	-46,085	0,078	0,027
-425,817	767,345	-0,042	-0,082
-424,803	-186,604	-0,030	0,000
-423,788	476,956	-0,060	0,098
-422,773	377,478	0,069	0,101
-421,759	-169,315	-0,060	-0,002
-420,744	-200,000	-0,014	0,161
-419,730	-200,000	0,014	-0,096
-418,715	205,430	-0,016	-0,018
-417,701	203,087	0,038	0,043
-416,686	273,327	-0,020	-0,026
-415,671	206,975	0,109	0,121
-414,657	331,347	-0,057	0,079
-413,642	184,902	0,005	-0,005
-412,628	66,713	-0,052	-0,038
-411,613	327,485	-0,062	-0,086
-410,598	-141,155	-0,027	-0,002
-409,584	-78,623	0,141	0,034
-408,569	-131,656	-0,071	-0,007
-407,555	-200,000	-0,013	0,111
-406,540	800,000	0,019	0,041
-405,525	764,229	-0,054	-0,105
-404,511	61,100	-0,242	0,171
-403,496	-200,000	0,039	-0,132
-402,482	250,486	0,061	-0,074
-401,467	-10,308	0,108	0,051
-400,452	202,412	-0,134	0,148
-399,438	-55,501	0,052	0,017
-398,423	-200,000	-0,008	0,053
-397,409	-200,000	0,011	0,142
-396,394	-120,837	-0,098	0,012
-395,379	-200,000	0,008	0,123
-394,365	238,483	-0,109	0,129
-393,350	800,000	0,035	-0,082
-392,336	625,557	0,030	0,055
-391,321	107,878	-0,053	-0,045
-390,306	800,000	-0,009	-0,025
-389,292	-100,680	0,072	0,012
-388,277	-200,000	0,017	0,077
-387,263	-200,000	-0,000	-0,184
-386,248	-32,060	0,133	0,053
-385,233	-130,665	-0,104	0,010
-384,219	-110,148	-0,079	-0,012
-383,204	-155,996	0,111	0,005
-382,190	-106,979	-0,021	0,003
-381,175	800,000	0,053	-0,124
-380,160	351,296	0,058	0,082
-379,146	-55,954	0,075	0,024
-378,131	-70,207	0,075	-0,020
-377,117	124,242	0,117	-0,105
-376,102	-200,000	-0,000	-0,039
-375,088	-200,000	-0,034	-0,186
-374,073	-200,000	0,080	-0,260
-373,058	503,013	-0,049	0,081
-372,044	-200,000	0,027	0,120
-371,029	-200,000	0,013	-0,061
-370,015	-173,911	-0,127	-0,003
-369,000	348,681	0,022	-0,031
-367,985	-13,932	-0,107	-0,049
-366,971	36,638	-0,022	0,014
-365,956	-30,881	0,151	0,061
-364,942	13,684	-0,107	-0,059
-363,927	125,562	0,103	0,092
-362,912	-11,879	-0,030	-0,014
-361,898	-42,169	0,100	0,036
-360,883	-6,476	0,040	0,019
-359,869	68,402	0,104	-0,076
-358,854	9,352	-0,093	0,050
-357,839	208,588	0,118	0,132
-356,825	-200,000	-0,006	0,127
-355,810	105,366	-0,029	0,024
-354,796	-114,981	0,046	0,006
-353,781	800,000	-0,029	-0,072
-352,766	800,000	-0,036	0,114
-351,752	-11,451	0,067	0,031
-350,737	195,054	-0,065	0,071
-349,723	-200,000	0,003	-0,040
-348,708	1,039	-0,018	-0,009
-347,693	-200,000	-0,012	-0,082
-346,679	36,005	0,165	0,103
-345,664	-60,398	-0,192	-0,058
-344,650	59,721	0,042	0,029
-343,635	-200,000	0,024	0,099
-342,620	-47,857	-0,059	0,020
-341,606	-200,000	-0,007	-0,144
-340,591	-200,000	-0,019	0,138
-339,577	724,878	-0,042	0,080
-338,562	5,984	0,076	-0,040
-337,548	-56,379	-0,096	0,030
-336,533	100,200	-0,060	0,050
-335,518	-200,000	-0,012	-0,086
-334,504	-200,000	-0,026	0,124
-333,489	800,000	0,065	0,147
-332,475	597,888	-0,061	-0,107
-331,460	-200,000	-0,026	-0,125
-330,445	46,820	-0,064	-0,042
-329,431	239,633	0,073	0,087
-328,416	218,168	-0,080	0,091
-327,402	-30,869	0,099	0,040
-326,387	34,659	-0,037	0,023
-325,372	-101,146	0,056	-0,010
-324,358	15,438	0,073	0,041
-323,343	-44,781	0,050	-0,018
-322,329	800,000	0,037	0,090
-321,314	-200,000	0,020	0,116
-320,299	-140,181	0,139	0,010
-319,285	102,438	-0,075	-0,063
-318,270	800,000	-0,036	-0,087
-317,256	470,819	0,082	-0,132
-316,241	-151,000	-0,163	0,009
-315,226	134,583	0,038	-0,035
-314,212	-200,000	-0,006	0,176
-313,197	327,293	0,049	0,067
-312,183	98,286	-0,045	-0,037
-311,168	-200,000	0,001	0,106
-310,153	-200,000	-0,127	0,000
-309,139	-55,578	0,203	-0,064
-308,124	-129,654	-0,101	0,010
-307,110	15,342	0,077	0,043
-306,095	435,576	0,044	0,069
-305,080	-198,676	0,148	-0,001
-304,066	-106,323	-0,197	-0,031
-303,051	-101,292	-0,080	-0,014
-302,037	-200,000	-0,012	0,062
-301,022	312,451	0,045	-0,060
-300,008	142,558	-0,030	0,028
-298,993	221,432	0,114	-0,130
-297,978	197,316	-0,063	0,069
-296,964	32,994	0,131	0,081
-295,949	226,472	-0,010	-0,011
-294,935	-200,000	-0,015	0,164
-293,920	-37,033	0,097	-0,037
-292,905	429,792	-0,046	-0,071
-291,891	-200,000	0,000	0,084
-290,876	-42,051	-0,026	0,009
-289,862	485,383	-0,049	-0,080
-288,847	-200,000	-0,006	0,039
-287,832	-145,657	-0,154	-0,010
-286,818	206,973	0,028	-0,031
-285,803	727,737	0,017	-0,033
-284,789	-200,000	-0,030	0,111
-283,774	800,000	0,064	0,142
-282,759	397,715	0,043	0,065
-281,745	-115,337	0,089	-0,012
-280,730	-172,148	-0,143	0,003
-279,716	197,239	0,042	0,046
-278,701	410,766	0,084	-0,127
-277,686	-43,267	0,173	0,062
-276,672	-200,000	-0,015	-0,087
-275,657	800,000	-0,038	0,076
-274,643	-133,889	-0,140	-0,012
-273,628	133,754	-0,077	0,071
-272,613	736,552	-0,030	-0,058
-271,599	-10,097	0,038	-0,018
-270,584	229,063	0,047	0,055
-269,570	361,609	-0,023	-0,033
-268,555	-143,804	-0,103	-0,007
-267,540	-58,262	0,167	-0,051
-266,526	454,441	-0,033	-0,052
-265,511	800,000	0,030	-0,091
-264,497	-115,030	0,046	-0,006
-263,482	14,764	0,048	-0,027
-262,467	-131,695	0,189	0,017
-261,453	207,088	-0,030	0,033
-260,438	-131,084	-0,119	0,011
-259,424	136,003	-0,044	0,041
-258,409	-44,844	-0,143	-0,050
-257,395	-84,727	-0,048	-0,011
-256,380	800,000	0,052	0,154
-255,365	-118,309	0,158	0,020
-254,351	-42,961	0,078	0,028
-253,336	800,000	-0,024	-0,056
-252,322	-132,420	-0,147	-0,013
-251,307	180,730	0,037	0,038
-250,292	-200,000	-0,000	-0,050
-249,278	686,758	-0,012	0,023
-248,263	-83,228	0,107	-0,024
-247,249	-138,571	0,050	-0,004
-246,234	-200,000	-0,015	0,088
-245,219	-137,097	-0,069	-0,006
-244,205	-87,733	-0,072	-0,015
-243,190	7,814	0,113	-0,060
-242,176	119,877	0,068	0,060
-241,161	-32,794	0,101	0,040
-240,146	800,000	0,026	0,064
-239,132	800,000	-0,045	0,099
-238,117	532,325	-0,031	0,052
-237,103	666,983	-0,083	-0,152
-236,088	-157,327	0,056	0,002
-235,073	205,757	0,063	0,069
-234,059	-200,000	-0,005	0,016
-233,044	800,000	-0,024	0,075
-232,030	142,197	-0,078	-0,074
-231,015	-81,416	-0,135	0,031
-230,000	-182,877	-0,046	-0,001
-228,986	263,545	-0,096	0,118
-227,971	-200,000	-0,016	-0,063
-226,957	-70,146	0,103	0,028
-225,942	-16,465	-0,089	-0,040
-224,927	-200,000	0,000	0,071
-223,913	41,865	-0,134	-0,086
-222,898	688,156	-0,029	-0,054
-221,884	-52,485	0,069	0,023
-220,869	-200,000	0,018	0,118
-219,855	224,049	0,025	0,028
-218,840	-200,000	0,010	-0,065
-217,825	773,538	-0,008	-0,015
-216,811	-200,000	-0,006	0,152
-215,796	144,229	-0,042	0,040
-214,782	-73,063	-0,099	-0,026
-213,767	104,887	0,066	0,055
-212,752	-31,787	0,021	0,008
-211,738	-90,380	0,133	0,027
-210,723	800,000	-0,053	0,131
-209,709	800,000	0,036	0,090
-208,694	-170,224	-0,104	0,003
-207,679	314,767	-0,071	0,096
-206,665	800,000	-0,026	0,052
-205,650	-23,512	-0,071	0,030
-204,636	701,366	0,017	-0,032
-203,621	48,532	-0,077	0,051
-202,606	-200,000	-0,091	-0,000
-201,592	800,000	-0,023	-0,060
-200,577	569,307	-0,084	-0,145
-199,563	-37,992	0,116	-0,043
-198,548	-139,354	0,130	-0,010
-197,533	-200,000	-0,000	-0,003
-196,519	436,534	0,033	-0,051
-195,504	39,640	-0,144	-0,091
-194,490	81,015	-0,113	-0,087
-193,475	-200,000	0,009	-0,084
-192,460	-200,000	-0,045	-0,143
-191,446	321,060	-0,022	0,029
-190,431	-200,000	0,008	0,096
-189,417	-200,000	-0,001	-0,057
-188,402	105,623	-0,099	-0,083
-187,387	800,000	-0,022	-0,067
-186,373	-200,000	0,006	-0,141
-185,358	-200,000	-0,010	-0,107
-184,344	-83,958	0,152	-0,034
-183,329	135,015	-0,035	0,032
-182,315	-47,016	0,058	0,020
-181,300	57,141	-0,071	-0,049
-180,285	800,000	0,034	-0,086
-179,271	800,000	-0,070	-0,145
-178,256	-67,879	0,093	0,026
-177,242	233,553	-0,036	0,043
-176,227	-200,000	-0,008	0,164
-175,212	800,000	0,019	0,056
-174,198	122,125	0,104	0,092
-173,183	35,234	0,049	0,031
-172,169	24,860	0,064	-0,038
-171,154	72,945	-0,088	0,065
-170,139	88,611	0,049	-0,039
-169,125	-200,000	-0,005	-0,105
-168,110	-92,419	0,014	-0,003
-167,096	-200,000	-0,017	-0,095
-166,081	189,912	0,078	-0,083
-165,066	800,000	-0,026	0,060
-164,052	-200,000	-0,012	-0,135
-163,037	800,000	-0,014	-0,033
-162,023	-141,895	0,131	-0,009
-161,008	-113,618	-0,102	-0,014
-159,993	800,000	0,036	-0,083
-158,979	-66,603	-0,106	-0,030
-157,964	-200,000	0,030	-0,135
-156,950	-116,932	0,020	-0,003
-155,935	162,021	-0,098	0,097
-154,920	647,693	0,082	0,149
-153,906	650,086	0,052	0,094
-152,891	102,828	0,061	0,051
-151,877	-85,451	0,120	0,026
-150,862	337,671	0,048	-0,066
-149,847	246,955	-0,044	-0,053
-148,833	313,927	-0,027	-0,037
-147,818	137,365	0,061	0,057
-146,804	415,310	0,074	0,113
-145,789	-127,219	-0,119	-0,012
-144,775	-65,472	0,123	-0,035
-143,760	547,499	0,118	-0,200
-142,745	-60,391	0,129	-0,039
-141,731	-111,808	0,093	-0,013
-140,716	-200,000	-0,046	0,172
-139,702	-200,000	-0,002	0,118
-138,687	238,503	0,082	0,097
-137,672	-200,000	-0,013	-0,150
-136,658	112,644	0,019	0,016
-135,643	355,585	-0,058	-0,083
-134,629	-200,000	-0,028	0,116
-133,614	63,427	0,157	0,111
-132,599	355,204	-0,019	0,027
-131,585	-19,572	0,173	0,076
-130,570	404,740	-0,063	-0,095
-129,556	539,104	0,081	-0,137
-128,541	152,241	-0,112	-0,109
-127,526	-21,486	0,069	-0,030
-126,512	390,350	0,093	-0,137
-125,497	216,151	0,091	-0,103
-124,483	-53,558	0,088	-0,028
-123,468	156,559	-0,075	-0,073
-122,453	-136,916	-0,020	0,002
-121,439	-200,000	-0,020	-0,086
-120,424	-61,353	-0,120	0,035
-119,410	39,852	0,054	0,034
-118,395	42,090	0,097	0,062
-117,380	604,327	0,042	-0,074
-116,366	-106,079	-0,049	0,008
-115,351	38,378	0,084	-0,053
-114,337	-160,011	-0,062	0,002
-113,322	762,254	-0,041	-0,078
-112,307	12,128	-0,045	-0,025
-111,293	800,000	0,042	-0,090
-110,278	800,000	0,030	0,091
-109,264	-16,424	0,075	0,033
-108,249	-200,000	0,001	-0,005
-107,234	-124,700	-0,228	-0,025
-106,220	36,338	-0,148	0,092
-105,205	533,513	-0,021	-0,035
-104,191	-200,000	0,005	0,019
-103,176	-200,000	0,003	-0,035
-102,162	-171,622	0,070	0,002
-101,147	-18,400	0,084	-0,037
-100,132	-58,247	-0,039	-0,012
-99,118	-123,688	-0,041	-0,005
-98,103	-200,000	0,013	0,044
-97,089	-200,000	-0,021	0,069
-96,074	271,400	0,035	0,044
-95,059	-200,000	-0,010	-0,100
-94,045	137,103	0,030	0,028
-93,030	-200,000	-0,008	-0,100
-92,016	5,568	-0,139	0,072
-91,001	-98,815	0,154	0,027
-89,986	57,684	-0,079	-0,054
-88,972	800,000	-0,041	-0,118
-87,957	52,822	0,030	-0,020
-86,943	-39,885	-0,032	0,012
-85,928	-21,440	-0,105	-0,045
-84,913	-34,569	-0,111	-0,043
-83,899	-200,000	0,026	-0,093
-82,884	-128,398	-0,015	0,001
-81,870	-33,555	0,070	0,027
-80,855	-23,119	-0,109	0,046
-79,840	515,366	0,081	-0,134
-78,826	-162,412	-0,092	-0,003
-77,811	302,625	-0,086	-0,113
-76,797	-200,000	-0,014	-0,052
-75,782	-12,729	0,056	-0,026
-74,767	39,407	0,031	0,020
-73,753	64,702	0,101	0,071
-72,738	121,143	0,047	-0,041
-71,724	-200,000	-0,005	-0,021
-70,709	-7,696	-0,062	-0,030
-69,694	777,773	-0,101	-0,196
-68,680	16,620	0,109	-0,061
-67,665	-111,739	-0,053	-0,007
-66,651	-12,229	0,064	-0,029
-65,636	202,837	-0,058	0,063
-64,622	-54,325	0,084	0,027
-63,607	565,879	-0,052	-0,090
-62,592	72,300	-0,041	0,030
-61,578	800,000	0,037	0,074
-60,563	-45,964	-0,085	-0,029
-59,549	-200,000	-0,004	-0,049
-58,534	51,405	-1,949	-1,303
-57,519	662,361	-1,126	-2,056
-56,505	-200,000	-0,411	-4,444
-55,490	432,065	0,867	1,330
-54,476	800,000	5,309	11,614
-53,461	-200,000	21,276	336,233
-52,446	800,000	761,212	2330,982
-51,432	548,115	1664,822	2821,587
-50,417	73,154	1664,751	1225,764
-49,403	18,490	1537,470	863,986
-48,388	12,438	1460,615	791,527
-47,373	19,324	1451,565	819,639
-46,359	15,798	1440,845	796,783
-45,344	10,764	1436,582	770,428
-44,330	10,680	1434,701	768,992
-43,315	10,697	1432,604	767,918
-42,300	10,674	1430,876	766,851
-41,286	10,719	1429,798	766,455
-40,271	10,599	1428,702	765,268
-39,257	10,698	1427,279	764,946
-38,242	10,689	1426,282	764,337
-37,227	10,691	1425,183	763,728
-36,213	10,705	1423,826	763,038
-35,198	10,704	1422,665	762,380
-34,184	10,748	1421,777	762,084
-33,169	10,643	1420,557	760,902
-32,154	10,767	1419,230	760,747
-31,140	10,716	1418,162	759,905
-30,125	10,763	1417,110	759,531
-29,111	10,779	1415,760	758,851
-28,096	10,716	1414,892	758,059
-27,082	10,670	1413,885	757,277
-26,067	10,688	1412,542	756,612
-25,052	10,664	1411,624	755,974
-24,038	10,666	1410,687	755,452
-23,023	10,685	1409,674	754,969
-22,009	10,673	1408,409	754,208
-20,994	10,629	1407,700	753,589
-19,979	10,605	1406,807	752,971
-18,965	10,637	1405,605	752,448
-17,950	10,598	1404,878	751,847
-16,936	10,584	1404,083	751,325
-15,921	10,573	1402,908	750,615
-14,906	10,559	1401,961	750,015
-13,892	10,561	1401,154	749,563
-12,877	10,597	1400,274	749,227
-11,863	10,579	1399,439	748,666
-10,848	10,610	1398,503	748,280
-9,833	10,540	1397,601	747,446
-8,819	10,513	1396,791	746,858
-7,804	10,487	1396,017	746,292
-6,790	10,492	1394,874	745,678
-5,775	10,482	1393,813	745,033
-4,760	10,500	1392,977	744,638
-3,746	10,466	1392,060	743,961
-2,731	10,518	1391,044	743,628
-1,717	10,437	1390,534	742,952
-0,702	10,441	1388,679	741,954
0,313	14,519	1301,550	714,051
1,327	30,796	691,999	416,574
2,342	47,645	120,075	78,789
3,356	2,014	16,506	8,366
4,371	-0,885	3,562	1,771
5,386	-11,637	0,887	0,409
6,400	800,000	0,235	0,590
7,415	85,371	-0,177	-0,137
8,429	100,499	-0,310	-0,253
9,444	58,045	-0,397	-0,274
10,459	75,154	-0,269	-0,200
11,473	174,089	-0,221	-0,225
12,488	-12,747	-0,298	-0,136
13,502	148,561	-0,270	-0,257
14,517	247,951	-0,210	-0,251
15,531	-24,956	-0,369	-0,153
16,546	66,366	-0,321	-0,229
17,561	168,836	-0,296	-0,298
18,575	-22,330	-0,208	-0,088
19,590	386,179	-0,192	-0,280
20,604	-79,413	-0,340	-0,080
21,619	105,636	-0,491	-0,408
22,634	84,974	-0,413	-0,318
23,648	24,709	-0,346	-0,201
24,663	55,657	-0,434	-0,295
25,677	295,661	-0,272	-0,350
26,692	70,276	-0,301	-0,218
27,707	52,298	-0,355	-0,238
28,721	31,323	-0,367	-0,221
29,736	60,034	-0,460	-0,319
30,750	144,162	-0,471	-0,442
31,765	139,766	-0,378	-0,350
32,780	155,857	-0,332	-0,322
33,794	114,185	-0,324	-0,277
34,809	328,673	-0,297	-0,402
35,823	147,843	-0,405	-0,383
36,838	9,783	-0,467	-0,248
37,853	142,323	-0,459	-0,428
38,867	143,089	-0,410	-0,383
39,882	26,713	-0,362	-0,213
40,896	135,336	-0,232	-0,212
41,911	94,497	-0,341	-0,272
42,926	-8,225	-0,359	-0,169
43,940	235,749	-0,283	-0,329
44,955	123,952	-0,355	-0,313
45,969	128,654	-0,262	-0,235
46,984	42,622	-0,349	-0,223
47,999	-77,048	-0,300	-0,073
49,013	83,417	-0,282	-0,215
50,028	164,671	-0,232	-0,230
51,042	59,066	-0,312	-0,215
52,057	237,489	-0,320	-0,372
53,071	346,975	-0,245	-0,339
54,086	91,091	-0,356	-0,280
55,101	27,139	-0,315	-0,185
56,115	17,402	-0,374	-0,208
57,130	-85,005	-0,382	-0,083
58,144	530,372	-0,209	-0,347
59,159	99,794	-0,449	-0,364
60,174	185,639	-0,255	-0,266
61,188	35,936	-0,461	-0,284
62,203	198,700	-0,280	-0,301
63,217	74,178	-0,338	-0,248
64,232	-128,474	-0,267	-0,026
65,247	-12,133	-0,345	-0,158
66,261	19,010	-0,299	-0,168
67,276	-18,781	-0,261	-0,113
68,290	-7,838	-0,460	-0,217
69,305	-65,530	-0,306	-0,085
70,320	-97,860	-0,358	0,064
71,334	81,560	-0,231	-0,175
72,349	45,787	-0,375	-0,242
73,363	-47,891	-0,410	-0,138
74,378	146,602	-0,334	-0,314
75,393	168,118	-0,377	-0,376
76,407	28,735	-0,223	-0,132
77,422	86,694	-0,301	-0,232
78,436	-8,482	-0,216	-0,101
79,451	21,958	-0,365	-0,208
80,466	66,368	-0,342	-0,243
81,480	80,365	-0,342	-0,257
82,495	301,161	-0,162	-0,209
83,509	84,816	-0,234	-0,179
84,524	-22,694	-0,130	-0,055
85,539	194,317	-0,178	-0,189
86,553	86,423	-0,319	-0,246
87,568	331,460	-0,252	-0,341
88,582	270,443	-0,274	-0,337
89,597	149,967	-0,332	-0,315
90,611	-96,345	-0,180	-0,033
91,626	3,400	-0,195	-0,099
92,641	-59,947	-0,271	-0,081
93,655	480,126	-0,158	-0,252
94,670	109,822	-0,252	-0,211
95,684	186,463	-0,222	-0,231
96,699	59,140	-0,347	-0,238
97,714	171,383	-0,249	-0,250
98,728	141,662	-0,209	-0,194
99,743	-5,681	-0,247	-0,118
100,757	483,966	-0,167	-0,266
101,772	64,050	-0,373	-0,262
102,787	111,277	-0,261	-0,220
103,801	425,383	-0,144	-0,217
104,816	69,925	-0,236	-0,170
105,830	-121,621	-0,316	-0,036
106,845	76,630	-0,169	-0,125
107,860	72,953	-0,290	-0,211
108,874	42,316	-0,195	-0,123
109,889	-44,130	-0,263	-0,092
110,903	-26,427	-0,327	-0,133
111,918	102,619	-0,221	-0,181
112,933	81,978	-0,298	-0,225
113,947	366,998	-0,214	-0,302
114,962	149,663	-0,123	-0,116
115,976	-12,643	-0,338	-0,153
116,991	162,585	-0,261	-0,256
118,006	281,818	-0,215	-0,269
119,020	-200,000	-0,257	0,001
120,035	136,003	-0,217	-0,198
121,049	29,169	-0,269	-0,159
122,064	175,998	-0,159	-0,161
123,079	296,559	-0,298	-0,382
124,093	111,898	-0,223	-0,188
125,108	96,579	-0,291	-0,232
126,122	386,791	-0,182	-0,263
127,137	98,213	-0,246	-0,197
128,151	7,890	-0,149	-0,078
129,166	32,649	-0,193	-0,116
130,181	243,033	-0,200	-0,234
131,195	15,639	-0,309	-0,169
132,210	1,449	-0,289	-0,145
133,224	-13,617	-0,239	-0,108
134,239	24,770	-0,138	-0,080
135,254	-116,542	-0,161	0,020
136,268	47,788	-0,235	-0,153
137,283	155,233	-0,185	-0,178
138,297	403,926	-0,246	-0,361
139,312	-148,568	-0,234	-0,013
140,327	318,937	-0,200	-0,264
141,341	-116,644	-0,400	-0,051
142,356	103,044	-0,233	-0,190
143,370	46,174	-0,217	-0,140
144,385	15,866	-0,334	-0,183
145,400	120,715	-0,276	-0,239
146,414	351,990	-0,249	-0,344
147,429	43,102	-0,284	-0,180
148,443	412,539	-0,101	-0,150
149,458	-18,151	-0,318	-0,138
150,473	348,650	-0,120	-0,165
151,487	-63,225	-0,323	-0,092
152,502	-152,653	-0,234	0,011
153,516	27,063	-0,272	-0,158
154,531	109,728	-0,233	-0,194
155,546	473,647	-0,187	-0,294
156,560	153,357	-0,154	-0,147
157,575	106,559	-0,242	-0,199
158,589	221,140	-0,180	-0,201
159,604	309,386	-0,079	-0,103
160,619	214,835	-0,190	-0,210
161,633	159,664	-0,170	-0,164
162,648	119,618	-0,264	-0,227
163,662	223,643	-0,130	-0,146
164,677	310,515	-0,150	-0,196
165,692	-48,315	-0,160	-0,053
166,706	156,869	-0,250	-0,240
167,721	353,543	-0,115	-0,159
168,735	79,021	-0,159	-0,118
169,750	-51,705	-0,273	-0,088
170,764	345,266	-0,197	-0,270
171,779	212,112	-0,067	-0,074
172,794	-160,119	-0,237	-0,009
173,808	49,922	-0,149	-0,097
174,823	112,457	-0,240	-0,202
175,837	39,772	-0,244	-0,152
176,852	248,772	-0,063	-0,074
177,867	-82,088	-0,147	-0,033
178,881	-90,309	-0,050	-0,010
179,896	492,949	-0,124	-0,199
180,910	155,854	-0,185	-0,176
181,925	-63,228	-0,225	-0,064
182,940	86,905	-0,278	-0,213
183,954	-4,353	-0,417	-0,199
184,969	176,249	-0,246	-0,248
185,983	8,269	-0,227	-0,118
186,998	245,683	-0,191	-0,224
188,013	-200,000	-0,040	-0,182
189,027	278,857	-0,220	-0,273
190,042	-59,828	-0,265	-0,078
191,056	25,530	-0,227	-0,130
192,071	181,709	-0,213	-0,217
193,086	29,356	-0,260	-0,153
194,100	39,089	-0,032	-0,020
195,115	114,925	-0,219	-0,185
196,129	162,339	-0,206	-0,200
197,144	142,279	-0,254	-0,233
198,159	458,045	-0,165	-0,255
199,173	800,000	-0,085	-0,200
200,188	800,000	-0,039	-0,115
201,202	88,653	-0,204	-0,157
202,217	-29,968	-0,214	-0,084
203,232	190,132	-0,235	-0,244
204,246	141,985	-0,235	-0,215
205,261	-5,262	-0,218	-0,103
206,275	247,379	-0,171	-0,200
207,290	-155,885	-0,066	0,003
208,304	-20,404	-0,197	-0,084
209,319	-67,442	-0,264	-0,071
210,334	534,731	-0,111	-0,183
211,348	169,120	-0,153	-0,151
212,363	68,538	-0,302	-0,214
213,377	397,838	-0,158	-0,229
214,392	97,813	-0,159	-0,127
215,407	53,041	-0,289	0,191
216,421	357,463	-0,121	-0,167
217,436	195,150	-0,127	-0,134
218,450	358,034	-0,216	-0,299
219,465	252,365	-0,211	-0,249
220,480	800,000	-0,035	-0,107
221,494	642,323	-0,089	-0,158
222,509	347,311	-0,099	-0,135
223,523	-13,042	-0,181	-0,081
224,538	-193,292	-0,115	-0,001
225,553	-29,771	-0,130	-0,051
226,567	-72,352	-0,265	-0,067
227,582	-200,000	-0,025	-0,223
228,596	-3,509	-0,145	-0,070
229,611	394,496	-0,147	-0,212
230,626	98,194	-0,175	-0,139
231,640	-0,445	-0,187	-0,092
232,655	140,592	-0,202	-0,185
233,669	32,291	-0,265	-0,158
234,684	617,248	-0,125	-0,217
235,699	-137,708	-0,145	0,011
236,713	131,890	-0,175	-0,155
237,728	97,816	-0,195	-0,155
238,742	-27,922	-0,209	-0,083
239,757	88,955	-0,211	-0,162
240,772	800,000	-0,105	-0,214
241,786	206,677	-0,209	-0,225
242,801	455,681	-0,137	-0,210
243,815	800,000	-0,036	-0,089
244,830	29,264	-0,160	-0,093
245,844	139,260	-0,156	-0,141
246,859	-62,608	-0,158	-0,045
247,874	-69,484	-0,276	-0,072
248,888	248,550	-0,035	-0,041
249,903	49,963	-0,155	-0,100
250,917	-80,220	-0,130	-0,030
251,932	48,216	-0,110	-0,071
252,947	-7,297	-0,193	-0,090
253,961	6,130	-0,227	-0,116
254,976	81,326	-0,281	-0,209
255,990	-60,115	-0,218	-0,064
257,005	-19,796	-0,079	-0,033
258,020	166,341	-0,142	-0,138
259,034	243,150	0,028	-0,032
260,049	-15,272	-0,298	-0,131
261,063	-28,417	-0,211	-0,083
262,078	336,766	-0,167	-0,224
263,093	109,625	-0,142	-0,117
264,107	451,220	-0,133	-0,202
265,122	-122,590	-0,258	-0,028
266,136	-139,042	-0,181	-0,013
267,151	-80,557	-0,267	-0,061
268,166	-37,294	-0,265	-0,097
269,180	-82,784	-0,297	-0,066
270,195	800,000	-0,096	-0,216
271,209	-200,000	-0,079	-0,278
272,224	-200,000	-0,044	-0,185
273,239	42,928	-0,163	-0,102
274,253	59,911	-0,154	-0,104
275,268	-103,989	-0,334	0,053
276,282	800,000	-0,078	-0,180
277,297	-171,097	-0,236	0,005
278,312	34,920	-0,193	-0,116
279,326	400,989	-0,226	-0,326
280,341	182,707	-0,122	-0,124
281,355	-79,533	-0,169	-0,039
282,370	800,000	-0,081	-0,183
283,384	-26,080	-0,246	-0,099
284,399	225,552	-0,169	-0,188
285,414	316,028	-0,162	-0,210
286,428	59,876	-0,168	-0,114
287,443	19,670	-0,019	0,011
288,457	-76,567	-0,161	-0,039
289,472	-123,208	-0,134	0,015
290,487	193,436	-0,211	-0,219
291,501	23,374	-0,129	0,073
292,516	-200,000	0,001	-0,253
293,530	-167,989	-0,128	-0,003
294,545	-172,932	-0,235	-0,005
295,560	-200,000	-0,029	-0,158
296,574	75,367	-0,154	-0,112
297,589	-200,000	-0,012	-0,058
298,603	-86,196	-0,200	-0,042
299,618	226,046	-0,244	-0,272
300,633	317,429	-0,111	-0,145
301,647	101,671	-0,100	-0,080
302,662	-148,508	-0,126	-0,007
303,676	800,000	-0,048	-0,100
304,691	268,785	-0,098	-0,118
305,706	-116,543	-0,189	-0,024
306,720	448,232	-0,125	-0,189
307,735	-200,000	0,006	-0,045
308,749	-88,345	-0,186	0,038
309,764	-186,743	-0,222	-0,002
310,779	-3,069	-0,125	-0,060
311,793	28,814	-0,190	-0,110
312,808	155,457	-0,163	-0,154
313,822	-36,863	-0,295	-0,108
314,837	26,785	-0,175	-0,100
315,852	-96,229	-0,164	0,030
316,866	306,755	-0,051	-0,065
317,881	-30,296	-0,117	-0,045
318,895	227,694	-0,122	-0,137
319,910	678,086	-0,129	-0,230
320,925	72,535	-0,203	-0,145
321,939	98,908	-0,196	-0,155
322,954	1,398	-0,084	0,041
323,968	129,878	-0,120	-0,105
324,983	-51,810	-0,113	-0,036
325,997	-83,467	-0,104	-0,023
327,012	114,713	-0,178	-0,149
328,027	133,574	-0,127	-0,113
329,041	-59,345	-0,055	0,016
330,056	147,328	-0,131	-0,121
331,070	-53,874	-0,204	-0,063
332,085	-200,000	-0,022	-0,099
333,100	141,098	-0,059	-0,053
334,114	132,546	-0,172	-0,152
335,129	-37,582	-0,174	-0,063
336,143	800,000	-0,076	-0,162
337,158	5,418	-0,235	0,118
338,173	-26,193	-0,116	-0,046
339,187	-94,619	-0,226	-0,042
340,202	-117,362	-0,094	-0,011
341,216	-73,662	-0,177	-0,044
342,231	88,498	-0,107	-0,081
343,246	432,007	-0,079	-0,118
344,260	-64,904	-0,139	-0,038
345,275	-67,471	-0,091	-0,024
346,289	328,520	-0,067	-0,088
347,304	50,267	-0,042	-0,027
348,319	100,188	-0,203	-0,161
349,333	21,062	-0,200	-0,111
350,348	800,000	-0,103	-0,195
351,362	-11,259	-0,206	-0,092
352,377	-10,789	-0,156	-0,070
353,392	71,367	-0,106	-0,075
354,406	-67,381	-0,127	0,034
355,421	205,959	1311,852	1395,466
356,435	158,378	1472,193	1395,939
