DTS Sentinel unit serial number:	SN410029Multiplexer serial number:	ORYXHardware model number:	OX2-SRSoftware version number:	ORYX F/W v4,00 Oryx Data Collector v3.7.2.0data status	okinstallation	B3 Nyhavnadifferential loss correction	single-endedforward channel	channel 1reverse channel	N/Adate	2023/11/30time	14:22:30forward acquisition time	300,00reverse acquisition time	0,00gamma	499,1914k internal	0,3210k external	0,3210temperature offset calibration	1,0000default loss term (dB/km)	0,3820temperature slope calibration	1,0000multiplexer offset coefficient	1,0000multiplexer slope coefficient	1,0000fibre end	0,00T internal ref (°C)	11,69T ext. ref 1 (°C)	-1,79T ext. ref 2 (°C)	-1,87length (m)	temperature (°C)	Stokes	anti-Stokes-744,400	728,414	-0,142	-0,276
-743,385	-200,000	0,047	0,295
-742,371	14,035	-0,239	-0,134
-741,356	-200,000	0,022	0,343
-740,342	105,383	-0,174	-0,149
-739,327	-200,000	-0,078	0,254
-738,312	511,974	-0,173	-0,293
-737,298	-200,000	0,023	0,236
-736,283	164,350	-0,128	-0,131
-735,269	-200,000	-0,045	0,226
-734,254	-200,000	-0,018	-0,132
-733,239	17,323	-0,291	-0,167
-732,225	-200,000	-0,088	-0,296
-731,210	13,368	0,159	0,089
-730,196	800,000	0,043	-0,100
-729,181	-200,000	0,010	-0,062
-728,167	-200,000	0,054	0,226
-727,152	-62,608	-0,023	0,007
-726,137	324,075	-0,059	-0,082
-725,123	98,968	-0,049	0,041
-724,108	-74,423	-0,199	-0,052
-723,094	16,993	-0,076	0,044
-722,079	-62,555	0,065	0,020
-721,064	-105,623	-0,098	-0,016
-720,050	-92,274	0,013	-0,003
-719,035	-200,000	0,023	-0,080
-718,021	-200,000	-0,011	-0,068
-717,006	-200,000	-0,027	-0,224
-715,991	800,000	-0,079	-0,184
-714,977	402,350	0,027	-0,041
-713,962	250,353	-0,008	0,009
-712,948	571,153	-0,016	0,028
-711,933	-118,366	0,087	0,011
-710,918	33,080	-0,100	0,063
-709,904	-200,000	-0,001	0,027
-708,889	800,000	-0,111	-0,284
-707,875	653,680	-0,074	-0,138
-706,860	800,000	-0,028	0,075
-705,845	-11,032	0,031	-0,015
-704,831	-43,044	-0,048	-0,018
-703,816	-132,183	-0,050	0,005
-702,802	-56,973	0,061	-0,019
-701,787	800,000	-0,039	-0,112
-700,772	38,965	-0,062	0,040
-699,758	592,012	0,040	0,071
-698,743	800,000	0,027	0,070
-697,729	-98,245	0,140	0,026
-696,714	423,352	-0,037	-0,057
-695,699	-200,000	0,031	0,122
-694,685	-137,937	-0,160	-0,013
-693,670	250,444	-0,064	-0,079
-692,656	-97,180	-0,069	-0,013
-691,641	800,000	-0,005	-0,011
-690,627	254,892	0,034	0,042
-689,612	98,220	-0,073	-0,061
-688,597	529,421	0,066	0,114
-687,583	-145,374	-0,105	-0,007
-686,568	-200,000	-0,170	0,000
-685,554	48,877	-0,119	-0,081
-684,539	-110,312	-0,124	0,019
-683,524	-200,000	-0,037	0,134
-682,510	-200,000	-0,017	0,140
-681,495	800,000	-0,040	0,099
-680,481	58,281	0,049	-0,035
-679,466	800,000	-0,022	-0,052
-678,451	546,289	-0,066	0,115
-677,437	128,909	0,059	-0,055
-676,422	88,414	0,057	0,046
-675,408	-138,704	-0,073	-0,006
-674,393	206,771	-0,027	-0,030
-673,378	272,013	-0,112	-0,143
-672,364	62,044	-0,219	-0,158
-671,349	-200,000	0,024	-0,093
-670,335	57,691	0,045	-0,032
-669,320	-200,000	-0,027	-0,101
-668,305	70,901	-0,131	0,098
-667,291	29,981	0,116	0,072
-666,276	-21,517	-0,096	0,042
-665,262	-200,000	-0,008	-0,180
-664,247	800,000	0,060	-0,180
-663,232	760,137	-0,031	-0,061
-662,218	46,552	0,077	0,052
-661,203	-200,000	0,010	0,145
-660,189	-173,894	0,153	0,003
-659,174	100,763	-0,120	0,101
-658,159	-200,000	-0,032	-0,161
-657,145	358,948	0,069	-0,100
-656,130	128,347	0,005	0,005
-655,116	-51,590	0,028	0,009
-654,101	-64,055	-0,055	-0,016
-653,086	221,147	-0,029	0,034
-652,072	800,000	-0,059	-0,143
-651,057	800,000	0,070	-0,143
-650,043	287,537	-0,082	-0,107
-649,028	48,923	-0,019	-0,013
-648,014	-200,000	-0,038	0,148
-646,999	438,231	-0,014	0,022
-645,984	281,121	0,046	0,060
-644,970	576,702	-0,029	-0,051
-643,955	-111,305	-0,096	0,014
-642,941	254,171	-0,061	-0,076
-641,926	-200,000	0,002	-0,052
-640,911	800,000	0,014	-0,032
-639,897	142,233	0,030	-0,028
-638,882	-200,000	0,022	-0,097
-637,868	221,197	-0,127	-0,147
-636,853	124,544	0,069	0,062
-635,838	703,820	0,087	-0,166
-634,824	-200,000	0,027	-0,114
-633,809	113,107	0,094	-0,082
-632,795	-18,333	0,096	-0,043
-631,780	-200,000	0,024	0,081
-630,765	-136,594	0,060	-0,005
-629,751	-200,000	0,031	-0,099
-628,736	77,171	0,063	0,049
-627,722	4,415	0,072	-0,038
-626,707	-200,000	-0,004	-0,080
-625,692	163,122	-0,085	-0,087
-624,678	-154,547	-0,084	-0,004
-623,663	117,645	-0,065	0,057
-622,649	259,848	-0,070	-0,087
-621,634	230,438	-0,051	-0,060
-620,619	800,000	0,021	-0,058
-619,605	363,173	0,018	0,027
-618,590	800,000	-0,033	0,090
-617,576	-200,000	0,000	0,024
-616,561	44,188	-0,067	0,045
-615,546	-36,248	-0,055	-0,021
-614,532	-200,000	0,009	-0,199
-613,517	-95,732	-0,092	-0,018
-612,503	-114,798	-0,053	0,007
-611,488	-200,000	0,024	0,204
-610,474	-20,828	0,059	-0,026
-609,459	647,802	-0,078	0,145
-608,444	260,184	0,081	0,101
-607,430	201,689	-0,047	-0,052
-606,415	-105,984	-0,111	0,018
-605,401	-200,000	-0,005	0,021
-604,386	800,000	0,030	0,082
-603,371	-115,005	-0,097	0,013
-602,357	800,000	-0,021	0,060
-601,342	-140,888	-0,094	-0,007
-600,328	-54,518	-0,149	0,049
-599,313	-200,000	-0,010	0,126
-598,298	-200,000	0,025	-0,095
-597,284	64,966	0,030	0,022
-596,269	-147,183	0,025	-0,001
-595,255	69,447	-0,031	-0,023
-594,240	800,000	0,046	-0,100
-593,225	-200,000	-0,019	0,101
-592,211	65,020	-0,087	0,063
-591,196	-200,000	0,017	0,067
-590,182	-65,722	-0,136	0,039
-589,167	247,506	-0,085	0,104
-588,152	-200,000	-0,003	0,148
-587,138	194,694	0,060	0,066
-586,123	800,000	-0,074	-0,171
-585,109	709,937	-0,045	-0,087
-584,094	289,542	0,058	-0,076
-583,079	79,667	-0,074	0,057
-582,065	48,663	0,045	-0,030
-581,050	-200,000	0,019	-0,099
-580,036	-0,479	0,120	-0,061
-579,021	-37,644	-0,118	-0,045
-578,006	-58,550	-0,034	-0,011
-576,992	-37,110	-0,039	-0,015
-575,977	114,268	0,083	-0,073
-574,963	-200,000	-0,003	0,021
-573,948	-1,469	-0,039	0,020
-572,934	51,135	-0,058	-0,039
-571,919	800,000	0,031	-0,073
-570,904	-200,000	-0,002	0,099
-569,890	-68,588	0,071	0,020
-568,875	-142,051	0,021	0,001
-567,861	38,262	0,108	-0,069
-566,846	-3,152	0,093	-0,046
-565,831	-53,694	0,034	-0,011
-564,817	-200,000	0,016	-0,111
-563,802	800,000	-0,041	-0,083
-562,788	133,684	0,160	-0,149
-561,773	-1,636	0,116	-0,059
-560,758	-200,000	0,002	0,069
-559,744	800,000	0,056	0,136
-558,729	800,000	-0,050	0,153
-557,715	61,075	0,014	0,010
-556,700	207,204	-0,029	0,032
-555,685	-200,000	-0,004	-0,073
-554,671	569,268	-0,007	0,013
-553,656	-36,022	0,029	0,011
-552,642	-200,000	-0,004	0,067
-551,627	782,874	0,047	0,092
-550,612	15,859	-0,070	-0,040
-549,598	407,166	-0,057	-0,087
-548,583	77,442	0,044	0,034
-547,569	-97,863	0,049	-0,009
-546,554	84,493	0,074	0,059
-545,539	-106,186	-0,022	0,003
-544,525	205,679	-0,091	0,102
-543,510	-71,235	0,087	0,023
-542,496	354,308	0,016	0,023
-541,481	800,000	-0,031	-0,067
-540,466	-195,854	-0,007	0,000
-539,452	30,594	0,133	0,081
-538,437	800,000	-0,012	0,031
-537,423	-200,000	0,014	0,052
-536,408	129,040	-0,030	0,028
-535,393	79,735	-0,023	0,018
-534,379	-129,333	0,067	0,007
-533,364	-120,348	-0,123	0,015
-532,350	800,000	-0,044	-0,102
-531,335	-120,225	-0,111	0,014
-530,321	-136,670	0,124	-0,010
-529,306	114,447	0,120	0,105
-528,291	-200,000	-0,001	0,099
-527,277	-200,000	-0,003	-0,090
-526,262	-7,230	-0,098	-0,048
-525,248	584,262	-0,047	-0,084
-524,233	160,232	-0,041	0,041
-523,218	217,945	-0,079	0,090
-522,204	129,294	0,094	0,086
-521,189	800,000	0,035	-0,077
-520,175	-200,000	-0,006	0,062
-519,160	185,969	0,076	-0,082
-518,145	4,831	-0,121	-0,064
-517,131	407,907	0,045	-0,069
-516,116	-200,000	0,007	0,047
-515,102	147,093	0,130	0,126
-514,087	-32,774	0,152	-0,061
-513,072	-136,044	-0,073	0,006
-512,058	-43,792	0,118	-0,042
-511,043	-200,000	0,010	-0,187
-510,029	-39,108	0,107	-0,040
-509,014	67,092	0,070	0,051
-507,999	110,518	0,084	0,073
-506,985	48,484	-0,092	-0,062
-505,970	-100,463	-0,179	0,031
-504,956	800,000	0,015	-0,035
-503,941	800,000	-0,031	0,091
-502,926	-200,000	0,014	-0,114
-501,912	15,426	-0,110	0,062
-500,897	89,227	0,066	-0,053
-499,883	375,401	-0,029	-0,042
-498,868	227,707	-0,036	0,042
-497,853	181,304	-0,120	-0,127
-496,839	21,592	-0,151	0,088
-495,824	243,776	0,081	0,097
-494,810	78,380	0,050	-0,038
-493,795	800,000	-0,027	0,075
-492,781	-153,912	-0,209	0,010
-491,766	-41,869	0,089	0,033
-490,751	-98,436	-0,201	-0,037
-489,737	-200,000	-0,003	0,033
-488,722	-200,000	0,007	0,096
-487,708	157,096	0,056	-0,055
-486,693	800,000	0,068	0,136
-485,678	-55,926	-0,110	0,035
-484,664	-77,601	-0,041	0,010
-483,649	-54,404	-0,060	0,020
-482,635	153,025	-0,046	0,046
-481,620	-142,181	0,192	0,013
-480,605	800,000	0,030	0,073
-479,591	800,000	-0,014	0,040
-478,576	-47,488	-0,115	-0,040
-477,562	-200,000	0,016	-0,068
-476,547	149,151	-0,206	-0,201
-475,532	-154,621	-0,098	0,005
-474,518	800,000	0,042	-0,091
-473,503	386,888	-0,055	0,081
-472,489	-77,699	-0,058	0,014
-471,474	547,080	-0,050	0,086
-470,459	-200,000	0,011	-0,199
-469,445	234,252	-0,013	-0,016
-468,430	134,732	-0,053	0,049
-467,416	800,000	-0,025	0,070
-466,401	-200,000	-0,159	0,000
-465,386	19,420	0,152	-0,087
-464,372	239,063	-0,061	0,073
-463,357	-200,000	-0,018	-0,146
-462,343	713,230	0,007	0,014
-461,328	800,000	-0,029	-0,077
-460,313	-48,568	0,061	0,021
-459,299	68,907	0,085	0,062
-458,284	698,546	0,050	0,095
-457,270	800,000	-0,036	-0,105
-456,255	360,822	-0,069	0,100
-455,241	-61,455	-0,081	0,024
-454,226	-200,000	-0,001	-0,009
-453,211	-200,000	0,003	-0,038
-452,197	379,781	-0,035	-0,051
-451,182	422,676	0,043	0,066
-450,168	-121,937	0,084	-0,010
-449,153	800,000	-0,020	-0,044
-448,138	-77,769	-0,052	-0,013
-447,124	91,356	-0,037	-0,030
-446,109	-35,508	0,158	0,061
-445,095	-93,316	0,017	0,003
-444,080	-136,624	0,041	-0,003
-443,065	-143,740	0,133	-0,009
-442,051	110,271	-0,061	-0,053
-441,036	800,000	-0,024	-0,057
-440,022	800,000	0,007	0,016
-439,007	-143,479	0,129	0,009
-437,992	104,701	-0,017	-0,015
-436,978	336,768	0,055	0,077
-435,963	671,568	-0,064	0,119
-434,949	-134,686	-0,113	-0,010
-433,934	-129,763	-0,082	-0,008
-432,919	-92,461	-0,119	-0,024
-431,905	169,285	0,078	0,080
-430,890	30,450	0,117	0,071
-429,876	193,587	-0,074	0,080
-428,861	-200,000	-0,005	0,021
-427,846	58,159	-0,139	0,097
-426,832	112,817	0,028	0,024
-425,817	348,632	0,007	0,010
-424,803	-200,000	-0,003	-0,096
-423,788	74,428	0,106	0,080
-422,773	756,869	-0,025	0,049
-421,759	-200,000	-0,001	0,038
-420,744	534,357	-0,066	0,113
-419,730	-200,000	-0,014	-0,095
-418,715	-200,000	-0,052	-0,165
-417,701	-13,318	0,087	0,040
-416,686	-200,000	-0,005	0,045
-415,671	-200,000	0,003	0,028
-414,657	485,222	0,006	0,010
-413,642	111,230	-0,081	0,070
-412,628	-71,037	0,034	-0,009
-411,613	-200,000	-0,007	0,094
-410,598	-65,653	0,112	0,032
-409,584	194,688	-0,035	0,038
-408,569	583,942	-0,095	0,168
-407,555	-200,000	-0,001	0,033
-406,540	800,000	0,043	-0,117
-405,525	106,909	0,033	-0,028
-404,511	124,189	-0,158	-0,142
-403,496	325,389	0,053	-0,073
-402,482	489,512	-0,082	-0,134
-401,467	352,213	-0,037	0,052
-400,452	-200,000	0,010	0,062
-399,438	800,000	0,019	-0,047
-398,423	22,937	0,058	-0,034
-397,409	-20,655	-0,162	0,071
-396,394	-200,000	0,004	-0,064
-395,379	-86,404	0,038	0,008
-394,365	-131,108	-0,054	-0,005
-393,350	755,366	0,105	0,203
-392,336	-200,000	-0,021	0,120
-391,321	-111,695	-0,038	-0,005
-390,306	-82,201	-0,088	-0,020
-389,292	-200,000	-0,006	-0,052
-388,277	-200,000	-0,015	-0,071
-387,263	406,474	0,129	-0,196
-386,248	17,410	0,093	-0,052
-385,233	-60,530	0,041	-0,012
-384,219	-200,000	-0,001	-0,031
-383,204	-47,229	0,075	0,026
-382,190	-200,000	0,002	0,052
-381,175	800,000	-0,028	-0,080
-380,160	-86,455	0,123	-0,027
-379,146	-200,000	0,005	0,030
-378,131	744,232	0,071	0,138
-377,117	353,265	-0,035	0,050
-376,102	-176,869	-0,075	-0,001
-375,088	-108,244	0,052	-0,008
-374,073	55,897	0,054	0,038
-373,058	211,499	0,062	-0,070
-372,044	764,115	-0,103	0,200
-371,029	-200,000	-0,023	0,219
-370,015	613,883	0,020	0,036
-369,000	-200,000	-0,058	-0,190
-367,985	66,129	-0,056	-0,041
-366,971	-132,088	-0,078	0,007
-365,956	11,157	0,061	-0,033
-364,942	170,247	0,037	0,038
-363,927	255,028	0,050	-0,061
-362,912	-200,000	-0,002	-0,088
-361,898	59,644	-0,069	0,048
-360,883	-200,000	-0,010	-0,042
-359,869	800,000	0,024	-0,050
-358,854	45,463	-0,017	0,011
-357,839	180,946	0,068	-0,071
-356,825	106,832	0,038	0,032
-355,810	-3,567	-0,121	0,060
-354,796	-200,000	-0,001	-0,028
-353,781	11,435	-0,038	-0,021
-352,766	159,513	0,030	-0,030
-351,752	-39,560	0,104	-0,039
-350,737	402,268	-0,047	0,071
-349,723	239,572	-0,067	-0,079
-348,708	46,611	0,095	0,063
-347,693	-200,000	-0,000	0,099
-346,679	-200,000	-0,012	-0,081
-345,664	396,553	-0,077	-0,115
-344,650	-200,000	0,016	-0,052
-343,635	-103,037	0,027	0,005
-342,620	-155,893	-0,129	0,006
-341,606	-69,276	0,176	0,048
-340,591	18,097	-0,086	-0,049
-339,577	82,214	0,021	-0,016
-338,562	800,000	-0,016	0,043
-337,548	800,000	-0,034	-0,099
-336,533	247,647	0,038	0,046
-335,518	121,357	0,091	0,081
-334,504	523,980	-0,035	-0,058
-333,489	63,105	0,058	-0,042
-332,475	110,761	-0,061	-0,052
-331,460	360,668	-0,067	-0,096
-330,445	800,000	0,020	-0,046
-329,431	14,621	0,085	0,047
-328,416	33,682	0,128	-0,079
-327,402	297,502	0,140	-0,184
-326,387	38,528	0,046	-0,029
-325,372	644,563	-0,080	-0,147
-324,358	-200,000	0,026	-0,089
-323,343	-65,398	0,093	0,026
-322,329	618,185	0,044	0,079
-321,314	-35,957	0,079	0,030
-320,299	147,870	-0,056	0,054
-319,285	-200,000	-0,014	-0,099
-318,270	-145,493	-0,106	-0,007
-317,256	-15,635	0,018	-0,008
-316,241	240,371	0,066	-0,078
-315,226	800,000	-0,023	-0,055
-314,212	-200,000	0,008	0,156
-313,197	-76,115	-0,031	-0,008
-312,183	-200,000	-0,017	0,058
-311,168	-28,206	0,148	0,061
-310,153	513,903	-0,075	-0,126
-309,139	317,260	0,074	-0,099
-308,124	24,109	-0,058	-0,034
-307,110	-149,415	0,056	0,003
-306,095	207,785	-0,098	-0,109
-305,080	42,684	-0,115	0,075
-304,066	511,137	-0,087	-0,145
-303,051	-200,000	0,011	-0,051
-302,037	184,599	-0,077	-0,081
-301,022	-1,789	0,051	-0,025
-300,008	-145,785	0,083	0,005
-298,993	-86,959	0,052	0,011
-297,978	-200,000	0,005	0,091
-296,964	-200,000	0,004	-0,056
-295,949	-200,000	0,002	-0,071
-294,935	35,298	0,035	-0,022
-293,920	-200,000	-0,009	-0,055
-292,905	-144,673	0,034	-0,002
-291,891	-200,000	0,024	0,082
-290,876	-200,000	0,005	-0,075
-289,862	-70,655	0,101	0,027
-288,847	-80,891	0,115	-0,027
-287,832	160,002	-0,076	0,076
-286,818	800,000	-0,055	0,115
-285,803	-168,975	0,061	-0,002
-284,789	-73,482	-0,067	0,017
-283,774	99,658	0,124	0,102
-282,759	247,463	0,054	-0,065
-281,745	278,699	-0,061	-0,077
-280,730	551,060	-0,064	-0,110
-279,716	-45,138	-0,066	-0,023
-278,701	190,307	0,180	0,192
-277,686	-200,000	0,056	0,182
-276,672	-35,584	-0,143	0,055
-275,657	135,030	-0,077	-0,071
-274,643	800,000	-0,020	0,039
-273,628	204,313	0,032	0,035
-272,613	235,036	-0,098	-0,115
-271,599	464,307	-0,036	0,057
-270,584	23,011	0,146	-0,085
-269,570	33,918	0,063	-0,039
-268,555	800,000	0,050	0,146
-267,540	-200,000	-0,001	-0,165
-266,526	115,051	-0,073	-0,064
-265,511	-200,000	-0,025	0,089
-264,497	219,487	-0,065	0,075
-263,482	713,504	-0,038	0,073
-262,467	222,261	-0,054	0,062
-261,453	-132,285	0,059	0,005
-260,438	20,066	-0,075	-0,043
-259,424	-200,000	0,007	-0,191
-258,409	-200,000	-0,014	0,085
-257,395	800,000	0,002	-0,003
-256,380	-200,000	0,009	0,140
-255,365	-172,599	0,124	0,003
-254,351	-113,043	0,066	-0,009
-253,336	800,000	-0,037	-0,091
-252,322	-200,000	0,027	-0,085
-251,307	-200,000	0,027	-0,099
-250,292	-24,656	0,075	0,032
-249,278	-54,484	0,071	0,023
-248,263	-155,017	0,122	0,006
-247,249	-200,000	-0,000	0,022
-246,234	-200,000	0,010	-0,129
-245,219	215,897	-0,072	0,081
-244,205	-60,300	-0,205	-0,062
-243,190	33,317	-0,058	0,036
-242,176	84,181	0,025	-0,019
-241,161	45,810	-0,052	0,034
-240,146	-200,000	0,003	0,058
-239,132	-59,482	0,097	-0,029
-238,117	-91,472	-0,092	0,018
-237,103	-200,000	0,036	0,128
-236,088	-200,000	0,009	0,063
-235,073	179,593	-0,132	0,137
-234,059	166,498	0,039	0,039
-233,044	800,000	-0,037	0,077
-232,030	-24,081	0,060	-0,025
-231,015	-200,000	0,005	-0,165
-230,000	-111,652	0,155	0,022
-228,986	90,212	-0,116	0,092
-227,971	-200,000	0,023	-0,083
-226,957	-118,276	0,172	-0,021
-225,942	800,000	0,025	0,075
-224,927	-200,000	0,020	-0,065
-223,913	-200,000	0,014	-0,202
-222,898	62,946	0,038	0,027
-221,884	-200,000	-0,001	0,147
-220,869	172,342	0,070	0,072
-219,855	-32,999	0,045	-0,018
-218,840	-200,000	0,030	-0,103
-217,825	143,234	0,039	-0,036
-216,811	75,384	-0,036	0,027
-215,796	-200,000	0,014	-0,138
-214,782	-89,120	-0,053	-0,011
-213,767	800,000	0,038	0,110
-212,752	-71,654	-0,045	-0,012
-211,738	8,611	-0,038	-0,020
-210,723	-43,859	0,046	0,016
-209,709	360,332	-0,051	0,073
-208,694	28,463	0,051	-0,031
-207,679	-200,000	0,010	0,108
-206,665	303,629	0,095	0,125
-205,650	-49,450	0,146	0,049
-204,636	-200,000	-0,024	0,095
-203,621	201,422	0,118	-0,129
-202,606	-200,000	-0,016	0,118
-201,592	215,609	-0,106	-0,120
-200,577	-200,000	0,003	-0,063
-199,563	-200,000	-0,031	-0,111
-198,548	-200,000	0,002	0,047
-197,533	800,000	0,014	0,038
-196,519	183,400	0,049	0,052
-195,504	-38,344	-0,208	0,078
-194,490	-135,572	-0,074	0,006
-193,475	800,000	0,032	-0,063
-192,460	-37,485	-0,027	-0,010
-191,446	-50,006	0,154	0,051
-190,431	156,559	-0,087	0,085
-189,417	-200,000	-0,024	0,101
-188,402	-200,000	0,019	0,084
-187,387	-59,018	-0,131	0,040
-186,373	-128,948	0,126	0,012
-185,358	188,200	0,041	-0,044
-184,344	64,942	0,118	0,085
-183,329	222,879	-0,062	-0,071
-182,315	-200,000	0,020	-0,093
-181,300	-25,435	-0,031	0,013
-180,285	-136,068	-0,131	0,011
-179,271	-85,644	-0,029	0,006
-178,256	-200,000	0,036	0,118
-177,242	800,000	-0,038	0,079
-176,227	-104,406	0,060	-0,010
-175,212	-121,687	-0,078	-0,009
-174,198	495,543	-0,046	0,075
-173,183	-200,000	0,005	-0,022
-172,169	79,488	0,096	-0,073
-171,154	445,307	-0,070	-0,109
-170,139	160,299	0,095	0,094
-169,125	-200,000	0,016	-0,072
-168,110	-157,005	0,139	-0,006
-167,096	200,390	0,078	0,085
-166,081	308,572	0,072	0,095
-165,066	39,747	-0,177	-0,112
-164,052	174,196	0,023	-0,024
-163,037	-20,289	0,065	0,028
-162,023	-39,439	0,030	0,011
-161,008	454,242	0,052	0,082
-159,993	800,000	0,019	-0,041
-158,979	-135,059	-0,105	0,009
-157,964	-200,000	-0,040	-0,136
-156,950	151,930	-0,023	-0,022
-155,935	202,171	-0,053	0,058
-154,920	413,074	0,016	0,024
-153,906	-200,000	0,011	0,040
-152,891	-26,366	0,086	-0,036
-151,877	216,664	-0,095	-0,108
-150,862	16,825	0,055	-0,031
-149,847	11,235	-0,053	0,028
-148,833	-200,000	0,015	0,054
-147,818	218,628	0,149	0,169
-146,804	-177,702	-0,017	0,000
-145,789	-200,000	-0,000	0,133
-144,775	45,679	-0,046	-0,030
-143,760	-200,000	0,014	-0,056
-142,745	-200,000	0,024	-0,094
-141,731	-42,900	-0,087	-0,031
-140,716	30,134	0,101	0,061
-139,702	-105,561	0,151	0,024
-138,687	-84,444	0,112	-0,025
-137,672	100,050	-0,075	-0,062
-136,658	-200,000	-0,010	-0,059
-135,643	800,000	0,037	-0,086
-134,629	75,014	0,086	-0,064
-133,614	-200,000	-0,009	-0,113
-132,599	31,089	0,111	-0,067
-131,585	-169,814	0,172	-0,004
-130,570	-200,000	0,030	0,163
-129,556	-200,000	0,004	-0,036
-128,541	-0,793	0,064	-0,032
-127,526	-85,699	0,122	0,027
-126,512	800,000	0,033	0,098
-125,497	396,680	-0,032	0,048
-124,483	-123,435	-0,109	-0,012
-123,468	24,420	-0,099	-0,058
-122,453	-105,512	0,099	0,016
-121,439	800,000	0,045	-0,092
-120,424	800,000	0,048	-0,148
-119,410	-105,405	-0,107	-0,017
-118,395	-200,000	0,049	0,275
-117,380	589,763	0,068	0,120
-116,366	52,062	-0,051	-0,034
-115,351	243,186	-0,065	0,077
-114,337	410,326	0,037	0,056
-113,322	-200,000	0,032	0,099
-112,307	61,485	0,079	-0,056
-111,293	-200,000	-0,001	-0,005
-110,278	-200,000	0,000	-0,004
-109,264	-2,313	0,057	0,028
-108,249	169,897	0,062	0,062
-107,234	-100,852	0,090	0,015
-106,220	243,790	0,076	-0,090
-105,205	800,000	0,044	-0,121
-104,191	-127,618	0,191	0,019
-103,176	-200,000	0,033	0,109
-102,162	-200,000	0,020	-0,138
-101,147	-200,000	0,004	0,041
-100,132	-200,000	-0,012	0,059
-99,118	86,756	0,098	0,077
-98,103	63,914	-0,108	-0,077
-97,089	-200,000	0,022	0,133
-96,074	553,329	-0,039	-0,066
-95,059	-200,000	-0,005	0,160
-94,045	197,970	-0,062	0,067
-93,030	23,960	-0,098	-0,057
-92,016	-200,000	-0,028	-0,184
-91,001	-200,000	-0,002	-0,131
-89,986	-118,419	0,141	-0,017
-88,972	-200,000	-0,013	0,048
-87,957	138,175	0,036	0,033
-86,943	-53,989	0,047	0,015
-85,928	-200,000	-0,003	0,117
-84,913	53,911	-0,162	0,110
-83,899	-200,000	-0,047	0,150
-82,884	-200,000	-0,004	-0,091
-81,870	-200,000	0,004	0,088
-80,855	-27,038	-0,106	0,044
-79,840	-200,000	0,037	0,163
-78,826	18,855	0,069	-0,039
-77,811	38,693	-0,096	0,061
-76,797	145,926	0,035	0,033
-75,782	373,214	-0,047	0,067
-74,767	-200,000	-0,002	0,144
-73,753	-42,973	-0,052	0,019
-72,738	800,000	0,085	0,169
-71,724	-4,938	-0,064	-0,031
-70,709	800,000	-0,058	-0,151
-69,694	-77,877	-0,103	0,025
-68,680	-200,000	-0,005	-0,067
-67,665	-15,689	0,181	0,081
-66,651	-200,000	0,011	0,120
-65,636	40,229	-0,013	-0,008
-64,622	-200,000	0,003	0,055
-63,607	43,348	-0,144	-0,093
-62,592	387,822	0,103	-0,150
-61,578	-200,000	0,009	-0,050
-60,563	-200,000	-0,016	-0,146
-59,549	244,838	-0,073	0,086
-58,534	-5,301	-1,934	-0,935
-57,519	447,593	-1,372	-2,140
-56,505	-200,000	-0,389	-4,235
-55,490	301,375	0,899	1,175
-54,476	800,000	5,137	11,347
-53,461	-200,000	20,114	327,149
-52,446	800,000	751,309	2309,780
-51,432	548,596	1658,691	2815,996
-50,417	74,416	1665,839	1234,671
-49,403	19,559	1538,450	871,132
-48,388	13,556	1460,783	798,111
-47,373	18,783	1451,169	817,933
-46,359	16,329	1440,545	800,228
-45,344	11,789	1436,223	776,172
-44,330	11,740	1434,314	774,875
-43,315	11,739	1432,549	773,888
-42,300	11,715	1430,834	772,817
-41,286	11,721	1429,785	772,249
-40,271	11,680	1428,273	771,203
-39,257	11,724	1427,005	770,696
-38,242	11,766	1425,739	770,181
-37,227	11,757	1424,701	769,549
-36,213	11,786	1423,320	768,910
-35,198	11,767	1422,111	768,137
-34,184	11,760	1421,505	767,745
-33,169	11,723	1420,068	766,764
-32,154	11,805	1418,883	766,480
-31,140	11,811	1417,713	765,848
-30,125	11,859	1416,509	765,393
-29,111	11,820	1415,270	764,509
-28,096	11,815	1414,309	763,937
-27,082	11,789	1412,906	763,024
-26,067	11,745	1411,878	762,234
-25,052	11,744	1411,000	761,725
-24,038	11,733	1409,995	761,101
-23,023	11,694	1409,301	760,511
-22,009	11,706	1408,032	759,854
-20,994	11,682	1407,124	759,220
-19,979	11,703	1406,253	758,818
-18,965	11,658	1405,401	758,117
-17,950	11,707	1404,350	757,751
-16,936	11,700	1403,577	757,270
-15,921	11,658	1402,519	756,473
-14,906	11,592	1401,626	755,655
-13,892	11,644	1400,536	755,278
-12,877	11,634	1399,619	754,708
-11,863	11,610	1398,986	754,226
-10,848	11,608	1398,045	753,679
-9,833	11,580	1397,112	753,015
-8,819	11,507	1396,483	752,310
-7,804	11,485	1395,648	751,729
-6,790	11,512	1394,365	751,133
-5,775	11,537	1393,318	750,656
-4,760	11,597	1392,324	750,367
-3,746	11,549	1391,449	749,644
-2,731	11,542	1390,686	749,170
-1,717	11,474	1390,010	748,462
-0,702	11,547	1387,948	747,661
0,313	15,596	1303,424	720,694
1,327	31,932	696,989	422,724
2,342	49,501	121,607	80,620
3,356	1,226	16,433	8,297
4,371	0,651	3,331	1,676
5,386	15,752	0,718	0,397
6,400	800,000	0,185	0,566
7,415	217,094	-0,141	-0,159
8,429	119,969	-0,253	-0,221
9,444	124,700	-0,405	-0,360
10,459	22,822	-0,274	-0,158
11,473	160,825	-0,294	-0,290
12,488	199,873	-0,198	-0,214
13,502	-18,920	-0,304	-0,133
14,517	15,378	-0,257	-0,142
15,531	87,409	-0,373	-0,291
16,546	116,954	-0,315	-0,273
17,561	31,714	-0,441	-0,267
18,575	78,518	-0,186	-0,140
19,590	70,975	-0,337	-0,246
20,604	-49,440	-0,162	-0,054
21,619	162,274	-0,459	-0,454
22,634	113,584	-0,425	-0,364
23,648	119,114	-0,352	-0,306
24,663	272,527	-0,284	-0,353
25,677	-19,559	-0,374	-0,162
26,692	-5,450	-0,394	-0,190
27,707	267,857	-0,263	-0,325
28,721	21,788	-0,453	-0,259
29,736	208,568	-0,300	-0,331
30,750	57,422	-0,418	-0,287
31,765	52,474	-0,362	-0,242
32,780	-16,935	-0,328	-0,145
33,794	239,686	-0,248	-0,291
34,809	-11,052	-0,459	-0,212
35,823	-12,651	-0,405	-0,185
36,838	-25,156	-0,521	-0,216
37,853	42,082	-0,439	-0,280
38,867	139,395	-0,319	-0,295
39,882	70,575	-0,330	-0,240
40,896	-79,028	-0,365	-0,086
41,911	-31,596	-0,298	-0,117
42,926	69,138	-0,360	-0,260
43,940	48,547	-0,293	-0,193
44,955	-10,567	-0,347	-0,161
45,969	113,929	-0,325	-0,277
46,984	56,955	-0,394	-0,269
47,999	96,523	-0,357	-0,287
49,013	67,759	-0,426	-0,305
50,028	-28,303	-0,333	-0,134
51,042	93,027	-0,327	-0,259
52,057	7,932	-0,280	-0,147
53,071	18,501	-0,466	-0,261
54,086	28,943	-0,353	-0,210
55,101	-4,189	-0,447	-0,216
56,115	68,374	-0,494	-0,355
57,130	51,741	-0,392	-0,262
58,144	79,395	-0,438	-0,329
59,159	184,244	-0,352	-0,366
60,174	98,122	-0,375	-0,303
61,188	189,484	-0,339	-0,357
62,203	137,892	-0,254	-0,233
63,217	-15,096	-0,429	-0,192
64,232	163,998	-0,238	-0,235
65,247	76,816	-0,290	-0,216
66,261	29,388	-0,338	-0,201
67,276	187,707	-0,233	-0,244
68,290	76,888	-0,297	-0,221
69,305	290,125	-0,172	-0,220
70,320	12,118	-0,295	-0,159
71,334	6,872	-0,284	-0,148
72,349	-44,042	-0,413	-0,145
73,363	120,289	-0,418	-0,364
74,378	-53,321	-0,390	-0,125
75,393	62,082	-0,292	-0,204
76,407	135,398	-0,278	-0,253
77,422	84,955	-0,437	-0,336
78,436	611,864	-0,178	-0,314
79,451	-6,685	-0,408	-0,194
80,466	45,838	-0,297	-0,192
81,480	-66,024	-0,398	-0,110
82,495	135,563	-0,329	-0,300
83,509	130,654	-0,184	-0,166
84,524	-106,067	-0,218	-0,034
85,539	378,940	-0,185	-0,267
86,553	94,484	-0,338	-0,268
87,568	43,970	-0,325	-0,208
88,582	145,973	-0,311	-0,293
89,597	12,554	-0,235	-0,127
90,611	-2,303	-0,315	-0,154
91,626	92,745	-0,249	-0,197
92,641	-9,183	-0,208	-0,097
93,655	-45,733	-0,336	-0,116
94,670	-4,206	-0,372	-0,179
95,684	34,485	-0,357	-0,218
96,699	74,045	-0,346	-0,254
97,714	32,539	-0,212	-0,128
98,728	-118,346	-0,188	0,023
99,743	-86,464	-0,317	-0,067
100,757	-62,460	-0,162	-0,047
101,772	71,250	-0,245	-0,177
102,787	117,375	-0,290	-0,249
103,801	82,838	-0,366	-0,278
104,816	11,031	-0,308	-0,164
105,830	100,376	-0,185	-0,150
106,845	800,000	-0,093	-0,221
107,860	-18,627	-0,295	-0,128
108,874	-100,937	-0,351	-0,060
109,889	152,066	-0,185	-0,177
110,903	170,342	-0,286	-0,286
111,918	20,336	-0,255	-0,143
112,933	186,456	-0,197	-0,205
113,947	184,233	-0,156	-0,161
114,962	150,118	-0,210	-0,199
115,976	159,590	-0,221	-0,215
116,991	-105,095	-0,333	-0,053
118,006	176,951	-0,309	-0,314
119,020	99,841	-0,105	-0,085
120,035	-123,694	-0,382	-0,042
121,049	-41,148	-0,172	-0,061
122,064	240,739	-0,140	-0,164
123,079	-36,055	-0,211	-0,079
124,093	-57,483	-0,258	-0,079
125,108	222,973	-0,207	-0,233
126,122	69,820	-0,157	-0,113
127,137	286,084	-0,177	-0,223
128,151	6,368	-0,173	-0,089
129,166	48,211	-0,259	-0,169
130,181	160,859	-0,185	-0,181
131,195	99,132	-0,202	-0,163
132,210	11,784	-0,220	-0,117
133,224	383,545	-0,159	-0,228
134,239	-6,052	-0,294	-0,140
135,254	-68,827	-0,238	-0,064
136,268	-60,809	-0,269	-0,079
137,283	-185,362	-0,200	-0,002
138,297	114,544	-0,338	-0,287
139,312	105,080	-0,283	-0,233
140,327	-100,394	-0,255	-0,044
141,341	-157,504	-0,230	-0,009
142,356	4,305	-0,100	-0,051
143,370	791,456	-0,071	-0,136
144,385	66,045	-0,317	-0,224
145,400	87,782	-0,244	-0,188
146,414	42,804	-0,363	-0,230
147,429	58,411	-0,258	-0,176
148,443	49,846	-0,194	-0,127
149,458	6,044	-0,243	-0,125
150,473	251,422	-0,219	-0,260
151,487	-200,000	-0,080	-0,295
152,502	558,369	-0,183	-0,308
153,516	28,885	-0,182	-0,107
154,531	316,156	-0,178	-0,234
155,546	-39,183	-0,273	-0,099
156,560	-32,610	-0,282	-0,109
157,575	83,883	-0,133	-0,101
158,589	41,171	-0,210	-0,132
159,604	78,282	-0,206	-0,153
160,619	9,920	-0,309	-0,162
161,633	-81,942	-0,157	-0,035
162,648	125,928	-0,219	-0,192
163,662	104,517	-0,317	-0,260
164,677	-11,546	-0,207	-0,094
165,692	139,078	-0,208	-0,190
166,706	87,572	-0,169	-0,130
167,721	97,706	-0,271	-0,216
168,735	106,061	-0,186	-0,153
169,750	-85,773	-0,217	-0,046
170,764	46,158	-0,128	-0,082
171,779	-83,920	-0,143	-0,031
172,794	169,086	-0,282	-0,280
173,808	87,941	-0,124	-0,095
174,823	356,703	-0,191	-0,265
175,837	126,368	-0,220	-0,193
176,852	99,597	-0,226	-0,181
177,867	800,000	-0,114	-0,238
178,881	11,345	-0,137	0,072
179,896	-54,483	-0,229	-0,072
180,910	-53,098	-0,243	-0,077
181,925	50,076	-0,213	-0,139
182,940	108,328	-0,299	-0,247
183,954	-200,000	-0,093	-0,361
184,969	23,123	-0,188	-0,107
185,983	49,181	-0,200	-0,130
186,998	32,824	-0,166	-0,099
188,013	-6,841	-0,160	-0,075
189,027	-56,246	-0,335	-0,103
190,042	195,903	-0,235	-0,248
191,056	436,530	-0,131	-0,199
192,071	-38,672	-0,286	-0,104
193,086	439,992	-0,173	-0,263
194,100	105,107	-0,171	-0,140
195,115	94,335	-0,234	-0,184
196,129	410,050	-0,125	-0,184
197,144	1,188	-0,213	-0,106
198,159	-84,187	-0,221	-0,048
199,173	174,064	-0,133	-0,134
200,188	-6,414	-0,154	-0,073
201,202	-6,884	-0,232	-0,109
202,217	800,000	-0,129	-0,272
203,232	-34,670	-0,292	-0,110
204,246	66,516	-0,236	-0,166
205,261	-200,000	-0,040	-0,256
206,275	-18,770	-0,080	-0,035
207,290	-31,371	-0,159	-0,062
208,304	800,000	-0,103	-0,198
209,319	40,801	-0,173	-0,108
210,334	-59,308	-0,265	-0,079
211,348	-73,719	-0,105	-0,026
212,363	142,776	-0,209	-0,193
213,377	-200,000	0,027	-0,134
214,392	85,559	-0,255	-0,194
215,407	70,958	-0,110	-0,079
216,421	282,470	-0,200	-0,249
217,436	104,164	-0,113	-0,092
218,450	133,894	-0,226	-0,203
219,465	240,838	-0,191	-0,221
220,480	-70,423	-0,124	-0,032
221,494	-105,844	-0,121	-0,019
222,509	62,602	-0,230	-0,159
223,523	7,948	-0,154	-0,080
224,538	-52,916	-0,152	-0,048
225,553	191,701	-0,108	-0,113
226,567	371,197	-0,156	-0,219
227,582	200,028	-0,169	-0,180
228,596	800,000	-0,079	-0,164
229,611	319,978	-0,173	-0,227
230,626	-28,003	-0,313	-0,125
231,640	800,000	-0,151	-0,338
232,655	59,547	-0,144	-0,098
233,669	115,459	-0,218	-0,185
234,684	467,381	-0,143	-0,223
235,699	608,502	-0,107	-0,185
236,713	18,361	-0,197	-0,108
237,728	23,891	-0,215	-0,122
238,742	83,083	-0,210	-0,157
239,757	11,313	-0,208	-0,110
240,772	65,361	-0,255	-0,178
241,786	241,658	-0,187	-0,217
242,801	539,421	-0,156	-0,257
243,815	29,508	-0,237	-0,139
244,830	-84,508	-0,127	-0,027
245,844	61,914	-0,181	-0,124
246,859	350,152	-0,155	-0,212
247,874	800,000	-0,087	-0,178
248,888	-200,000	-0,074	-0,258
249,903	-42,166	-0,201	-0,071
250,917	-54,073	-0,363	-0,113
251,932	0,181	-0,181	-0,089
252,947	-46,965	-0,213	-0,071
253,961	129,615	-0,150	-0,132
254,976	671,847	-0,134	-0,241
255,990	-72,371	-0,276	-0,070
257,005	352,603	-0,161	-0,220
258,020	197,562	-0,126	-0,133
259,034	-22,124	-0,108	-0,045
260,049	-15,046	-0,146	0,064
261,063	298,807	-0,091	-0,116
262,078	221,961	-0,186	-0,206
263,093	-24,223	-0,262	-0,107
264,107	-147,007	-0,112	0,007
265,122	-17,116	-0,167	-0,072
266,136	450,110	-0,053	-0,081
267,151	51,667	-0,159	-0,104
268,166	800,000	-0,064	-0,166
269,180	-16,423	-0,207	-0,090
270,195	80,061	-0,170	-0,126
271,209	800,000	-0,126	-0,262
272,224	100,046	-0,110	-0,088
273,239	-200,000	-0,019	-0,061
274,253	-17,012	-0,100	-0,043
275,268	35,479	-0,193	-0,116
276,282	129,926	-0,137	-0,121
277,297	81,141	-0,201	-0,149
278,312	-200,000	0,024	-0,136
279,326	183,360	-0,086	-0,087
280,341	-85,642	-0,035	-0,007
281,355	-200,000	-0,010	-0,036
282,370	23,269	-0,182	-0,103
283,384	103,083	-0,232	-0,187
284,399	-33,929	-0,161	-0,061
285,414	498,731	-0,105	-0,167
286,428	800,000	-0,061	-0,150
287,443	71,984	-0,110	-0,079
288,457	-121,602	-0,263	-0,030
289,472	-65,258	-0,164	-0,045
290,487	93,130	-0,162	-0,126
291,501	440,930	-0,118	-0,178
292,516	-74,131	-0,162	-0,040
293,530	490,702	-0,064	-0,101
294,545	456,347	-0,119	-0,183
295,560	-46,065	-0,144	-0,048
296,574	96,577	-0,202	-0,159
297,589	438,145	-0,063	-0,094
298,603	-107,933	-0,129	0,019
299,618	520,857	-0,138	-0,223
300,633	22,581	-0,234	-0,131
301,647	-161,970	-0,096	-0,003
302,662	50,435	-0,089	-0,058
303,676	-90,453	-0,131	-0,026
304,691	117,755	-0,200	-0,169
305,706	181,604	-0,056	-0,057
306,720	152,620	-0,113	-0,106
307,735	-35,461	-0,278	-0,103
308,749	69,905	-0,197	0,139
309,764	-99,828	-0,104	-0,018
310,779	220,280	-0,125	-0,138
311,793	-2,491	-0,145	-0,069
312,808	-114,703	-0,154	0,020
313,822	48,802	-0,105	-0,068
314,837	71,269	-0,166	-0,118
315,852	-200,000	-0,004	-0,178
316,866	229,388	-0,106	-0,119
317,881	76,642	-0,128	0,093
318,895	-129,077	-0,198	-0,019
319,910	-19,280	-0,153	-0,065
320,925	-15,548	-0,134	-0,059
321,939	-94,952	-0,028	0,005
322,954	-200,000	-0,146	-0,000
323,968	-71,550	-0,174	-0,044
324,983	-76,671	-0,083	-0,020
325,997	199,637	-0,109	-0,115
327,012	-152,414	-0,071	-0,003
328,027	13,056	-0,235	-0,125
329,041	-200,000	-0,042	-0,190
330,056	359,801	-0,118	-0,163
331,070	-200,000	-0,024	-0,262
332,085	-102,110	-0,214	-0,035
333,100	8,754	-0,156	0,080
334,114	-200,000	-0,087	-0,269
335,129	-200,000	-0,023	-0,168
336,143	206,374	-0,066	-0,071
337,158	-3,207	-0,167	-0,079
338,173	-200,000	0,012	-0,159
339,187	-65,117	-0,131	0,036
340,202	-90,668	-0,188	-0,037
341,216	271,671	-0,148	-0,179
342,231	-200,000	-0,009	-0,045
343,246	29,601	-0,162	-0,094
344,260	3,758	-0,129	-0,064
345,275	-173,718	-0,145	-0,003
346,289	-10,904	-0,070	-0,031
347,304	703,042	-0,098	-0,178
348,319	649,059	0,058	-0,101
349,333	63,797	-0,174	-0,120
350,348	111,942	-0,088	-0,073
351,362	232,894	-0,130	-0,147
352,377	98,672	-0,188	-0,148
353,392	277,953	-0,078	-0,095
354,406	12,250	-0,140	-0,073
355,421	206,646	1311,701	1399,275
356,435	158,930	1472,054	1399,759
