DTS Sentinel unit serial number:	SN410029Multiplexer serial number:	ORYXHardware model number:	OX2-SRSoftware version number:	ORYX F/W v4,00 Oryx Data Collector v3.7.2.0data status	okinstallation	B3 Nyhavnadifferential loss correction	single-endedforward channel	channel 1reverse channel	N/Adate	2023/11/28time	21:42:30forward acquisition time	300,00reverse acquisition time	0,00gamma	499,1914k internal	0,3212k external	0,3212temperature offset calibration	1,0000default loss term (dB/km)	0,3820temperature slope calibration	1,0000multiplexer offset coefficient	1,0000multiplexer slope coefficient	1,0000fibre end	0,00T internal ref (°C)	8,40T ext. ref 1 (°C)	-6,10T ext. ref 2 (°C)	-6,25length (m)	temperature (°C)	Stokes	anti-Stokes-744,400	86,242	-0,207	-0,165
-743,385	-200,000	0,067	0,272
-742,371	-114,506	-0,150	-0,021
-741,356	-200,000	-0,015	0,156
-740,342	-200,000	-0,004	-0,208
-739,327	800,000	-0,150	0,309
-738,312	41,498	-0,102	-0,067
-737,298	800,000	-0,079	0,206
-736,283	-200,000	-0,026	-0,143
-735,269	-200,000	0,090	0,375
-734,254	183,985	-0,204	-0,219
-733,239	-17,084	-0,160	0,073
-732,225	-25,682	-0,199	-0,085
-731,210	800,000	0,070	0,192
-730,196	600,710	0,019	-0,035
-729,181	-18,182	-0,066	0,030
-728,167	25,443	0,150	-0,090
-727,152	-200,000	-0,018	0,094
-726,137	79,131	-0,152	-0,118
-725,123	276,092	-0,081	-0,105
-724,108	-69,618	-0,114	-0,031
-723,094	519,107	-0,068	-0,115
-722,079	11,048	-0,024	-0,014
-721,064	-110,045	-0,044	-0,007
-720,050	-109,930	-0,013	0,002
-719,035	-200,000	0,018	0,065
-718,021	-78,558	-0,083	0,020
-717,006	800,000	0,012	-0,029
-715,991	800,000	-0,045	-0,118
-714,977	-200,000	-0,004	0,040
-713,962	-105,338	-0,079	-0,013
-712,948	507,566	-0,076	-0,129
-711,933	18,953	0,029	0,017
-710,918	213,012	-0,074	-0,085
-709,904	-68,653	-0,151	-0,042
-708,889	800,000	-0,056	-0,130
-707,875	-200,000	-0,046	-0,148
-706,860	-200,000	0,036	-0,208
-705,845	-80,426	-0,079	-0,019
-704,831	800,000	-0,082	0,244
-703,816	-200,000	-0,007	0,080
-702,802	-118,760	-0,138	0,017
-701,787	-151,278	-0,059	-0,003
-700,772	-200,000	-0,019	-0,075
-699,758	219,098	-0,083	0,096
-698,743	-200,000	-0,006	-0,057
-697,729	-200,000	-0,035	0,145
-696,714	-200,000	-0,021	0,067
-695,699	46,021	0,017	0,011
-694,685	800,000	-0,057	0,121
-693,670	167,216	-0,056	-0,057
-692,656	-200,000	0,009	-0,089
-691,641	74,600	0,010	-0,008
-690,627	22,790	-0,026	0,015
-689,612	-13,732	-0,052	0,024
-688,597	160,370	0,040	0,040
-687,583	314,955	-0,083	-0,113
-686,568	409,356	-0,088	-0,135
-685,554	122,499	-0,041	-0,037
-684,539	-200,000	0,031	0,114
-683,524	-84,598	0,106	0,024
-682,510	349,725	-0,028	0,040
-681,495	800,000	-0,013	-0,037
-680,481	258,957	-0,058	-0,073
-679,466	-149,138	-0,131	0,007
-678,451	-29,023	0,096	0,040
-677,437	219,186	-0,067	-0,078
-676,422	-141,744	-0,041	0,003
-675,408	-200,000	0,014	-0,095
-674,393	-87,202	-0,153	-0,033
-673,378	239,784	-0,062	-0,075
-672,364	800,000	-0,051	-0,118
-671,349	-94,461	-0,075	-0,015
-670,335	-39,418	-0,024	0,009
-669,320	-117,540	-0,127	0,016
-668,305	50,460	0,030	-0,021
-667,291	-49,611	-0,222	-0,076
-666,276	-200,000	-0,053	-0,232
-665,262	-12,444	-0,034	0,016
-664,247	-43,962	-0,119	-0,043
-663,232	800,000	0,037	0,105
-662,218	-15,031	0,121	0,056
-661,203	251,331	-0,073	-0,091
-660,189	-200,000	0,005	0,039
-659,174	73,221	-0,060	-0,045
-658,159	-156,254	-0,059	0,003
-657,145	421,044	0,016	-0,024
-656,130	49,201	-0,040	-0,027
-655,116	187,343	-0,045	-0,048
-654,101	-41,977	0,140	-0,052
-653,086	-6,029	-0,032	0,016
-652,072	67,211	0,181	-0,133
-651,057	692,043	-0,047	-0,089
-650,043	800,000	0,027	0,058
-649,028	183,771	0,018	0,019
-648,014	455,167	0,028	0,044
-646,999	-106,421	-0,046	0,007
-645,984	497,090	0,031	-0,051
-644,970	-78,549	0,074	-0,018
-643,955	41,973	-0,061	-0,040
-642,941	230,034	0,019	-0,022
-641,926	249,854	-0,059	-0,072
-640,911	-111,097	0,099	-0,014
-639,897	800,000	0,051	-0,158
-638,882	226,443	0,059	0,070
-637,868	272,383	-0,030	-0,039
-636,853	-200,000	-0,004	-0,058
-635,838	-143,215	-0,029	-0,002
-634,824	72,042	0,024	0,018
-633,809	800,000	-0,030	0,080
-632,795	-118,367	0,017	0,002
-631,780	-200,000	-0,004	0,022
-630,765	315,255	-0,046	-0,063
-629,751	-78,838	-0,035	0,008
-628,736	330,103	-0,041	0,057
-627,722	94,976	0,022	-0,018
-626,707	357,880	-0,015	0,022
-625,692	293,611	-0,068	0,089
-624,678	-200,000	-0,006	-0,043
-623,663	-200,000	-0,000	-0,099
-622,649	-101,810	0,090	0,016
-621,634	-49,950	0,064	0,022
-620,619	538,540	-0,106	-0,183
-619,605	800,000	-0,024	-0,048
-618,590	545,232	0,083	-0,143
-617,576	195,832	-0,095	-0,104
-616,561	184,466	-0,105	-0,112
-615,546	-54,517	-0,050	0,016
-614,532	-22,127	-0,059	0,026
-613,517	-117,504	0,067	-0,009
-612,503	-41,653	0,098	-0,036
-611,488	-175,716	-0,066	-0,001
-610,474	-200,000	-0,024	0,098
-609,459	-48,067	0,170	0,059
-608,444	-79,455	0,059	0,014
-607,430	-107,587	-0,079	-0,012
-606,415	415,126	-0,052	-0,080
-605,401	103,293	-0,090	-0,076
-604,386	800,000	0,030	0,086
-603,371	-200,000	-0,012	0,054
-602,357	800,000	-0,067	0,156
-601,342	521,589	-0,046	-0,078
-600,328	-200,000	0,014	-0,147
-599,313	166,913	-0,007	-0,007
-598,298	373,131	0,031	0,046
-597,284	48,930	0,027	0,018
-596,269	-176,504	-0,124	0,002
-595,255	800,000	0,008	0,021
-594,240	-6,488	-0,074	0,036
-593,225	165,726	-0,013	-0,013
-592,211	-28,445	-0,121	0,050
-591,196	-200,000	0,018	-0,222
-590,182	-200,000	0,012	0,098
-589,167	438,488	0,042	-0,067
-588,152	-173,732	0,196	-0,004
-587,138	-108,122	-0,169	-0,026
-586,123	-200,000	-0,013	-0,099
-585,109	353,881	-0,050	-0,071
-584,094	246,656	0,034	0,041
-583,079	800,000	0,069	0,177
-582,065	130,643	-0,014	0,013
-581,050	800,000	0,058	0,159
-580,036	-3,888	0,071	0,035
-579,021	525,844	-0,060	-0,103
-578,006	100,642	0,050	0,042
-576,992	800,000	-0,024	0,060
-575,977	91,089	0,066	0,053
-574,963	-200,000	0,022	0,162
-573,948	28,196	0,116	0,071
-572,934	316,954	0,062	0,084
-571,919	-200,000	-0,004	-0,014
-570,904	-200,000	0,002	-0,157
-569,890	-200,000	0,019	-0,076
-568,875	43,717	-0,093	0,061
-567,861	800,000	-0,021	0,057
-566,846	475,282	-0,027	-0,045
-565,831	-161,802	-0,060	-0,002
-564,817	-27,740	0,049	0,020
-563,802	-63,698	-0,197	0,058
-562,788	-124,885	0,083	-0,009
-561,773	683,252	-0,015	0,029
-560,758	800,000	0,042	0,117
-559,744	-200,000	-0,005	-0,047
-558,729	27,206	-0,093	-0,056
-557,715	-69,902	0,080	-0,022
-556,700	119,063	-0,074	0,066
-555,685	202,376	0,025	-0,027
-554,671	-63,345	-0,109	-0,032
-553,656	661,588	-0,045	-0,083
-552,642	586,123	-0,064	-0,113
-551,627	-77,718	0,086	0,021
-550,612	265,520	-0,035	-0,045
-549,598	-145,584	-0,126	0,008
-548,583	-178,996	-0,236	-0,004
-547,569	-200,000	0,006	-0,182
-546,554	30,861	0,197	0,121
-545,539	-200,000	0,024	0,104
-544,525	800,000	0,083	0,167
-543,510	257,743	0,126	0,156
-542,496	729,217	-0,070	-0,135
-541,481	187,026	-0,091	0,097
-540,466	-200,000	0,047	-0,233
-539,452	423,327	-0,025	0,039
-538,437	-103,173	-0,129	0,022
-537,423	800,000	-0,023	0,067
-536,408	261,622	0,081	0,101
-535,393	800,000	-0,053	-0,106
-534,379	41,715	0,063	0,041
-533,364	-200,000	0,014	0,066
-532,350	-200,000	0,004	0,060
-531,335	-119,439	0,106	0,013
-530,321	-56,052	0,113	-0,036
-529,306	24,287	0,066	-0,039
-528,291	-200,000	-0,001	0,058
-527,277	800,000	-0,062	-0,194
-526,262	800,000	-0,086	-0,183
-525,248	-6,085	0,075	0,036
-524,233	800,000	0,019	0,044
-523,218	800,000	0,044	-0,105
-522,204	231,749	0,091	-0,108
-521,189	18,701	-0,169	-0,097
-520,175	-200,000	0,010	-0,039
-519,160	115,429	0,080	0,070
-518,145	-200,000	-0,013	0,062
-517,131	-103,528	0,097	-0,016
-516,116	-137,006	-0,150	0,012
-515,102	-200,000	0,009	0,088
-514,087	-106,499	-0,185	0,029
-513,072	-200,000	-0,038	-0,152
-512,058	800,000	0,041	-0,088
-511,043	81,019	0,030	0,023
-510,029	-99,539	0,142	-0,025
-509,014	-59,489	-0,084	-0,026
-507,999	-61,428	-0,099	-0,030
-506,985	-200,000	-0,001	0,039
-505,970	800,000	-0,092	-0,206
-504,956	301,928	-0,175	-0,233
-503,941	-200,000	-0,019	0,197
-502,926	24,165	-0,031	-0,018
-501,912	230,928	-0,057	-0,067
-500,897	220,578	0,047	0,054
-499,883	-105,793	0,054	-0,009
-498,868	800,000	-0,037	0,092
-497,853	190,894	0,046	0,050
-496,839	51,543	-0,047	-0,032
-495,824	-59,864	0,083	-0,025
-494,810	-200,000	-0,018	0,116
-493,795	-200,000	-0,000	0,131
-492,781	713,670	-0,042	-0,081
-491,766	-200,000	-0,031	-0,142
-490,751	-21,804	-0,103	0,045
-489,737	220,297	-0,042	0,048
-488,722	800,000	0,051	-0,128
-487,708	31,703	0,025	-0,015
-486,693	-118,490	-0,045	0,006
-485,678	85,802	-0,056	0,044
-484,664	800,000	-0,028	0,061
-483,649	-166,466	-0,064	0,002
-482,635	-200,000	-0,026	0,105
-481,620	166,172	-0,086	-0,088
-480,605	-200,000	-0,004	-0,233
-479,591	-3,221	0,053	-0,026
-478,576	-200,000	0,010	-0,130
-477,562	-104,428	-0,050	-0,008
-476,547	-200,000	0,018	-0,066
-475,532	0,025	0,135	-0,069
-474,518	150,598	-0,050	0,049
-473,503	300,888	0,170	0,225
-472,489	-75,590	0,091	0,023
-471,474	-85,116	0,083	0,019
-470,459	800,000	0,024	0,068
-469,445	759,021	0,045	-0,088
-468,430	284,156	-0,074	-0,096
-467,416	561,192	0,040	-0,070
-466,401	78,652	0,136	-0,104
-465,386	-200,000	0,005	-0,078
-464,372	268,297	0,046	0,058
-463,357	-200,000	-0,048	0,194
-462,343	-88,406	0,039	0,008
-461,328	10,582	-0,124	-0,068
-460,313	-88,228	0,129	-0,028
-459,299	-97,118	0,075	0,014
-458,284	47,607	0,039	0,026
-457,270	-200,000	-0,008	-0,069
-456,255	439,610	0,023	-0,037
-455,241	-163,045	-0,011	-0,000
-454,226	800,000	-0,022	0,048
-453,211	717,577	0,065	-0,124
-452,197	-157,048	0,091	-0,004
-451,182	-52,041	0,149	-0,049
-450,168	-21,624	0,092	0,040
-449,153	55,146	0,038	-0,026
-448,138	-116,649	0,051	0,007
-447,124	-157,438	0,060	-0,003
-446,109	39,984	-0,101	0,065
-445,095	800,000	0,012	-0,029
-444,080	800,000	0,011	0,022
-443,065	-22,396	-0,044	-0,019
-442,051	205,794	0,016	0,018
-441,036	-200,000	0,027	-0,094
-440,022	800,000	-0,045	-0,125
-439,007	-58,587	0,021	-0,006
-437,992	-103,396	0,193	0,032
-436,978	800,000	0,051	0,125
-435,963	47,333	0,062	0,041
-434,949	573,642	0,043	-0,075
-433,934	800,000	-0,064	-0,128
-432,919	800,000	-0,022	0,047
-431,905	-200,000	0,016	0,089
-430,890	-200,000	0,006	-0,079
-429,876	-200,000	0,048	-0,000
-428,861	-109,223	-0,081	0,012
-427,846	526,425	-0,063	0,107
-426,832	562,581	-0,065	0,113
-425,817	-158,672	-0,037	0,002
-424,803	-49,130	-0,076	0,026
-423,788	102,951	-0,056	0,047
-422,773	113,010	0,087	0,075
-421,759	722,517	0,098	0,188
-420,744	-33,517	0,056	-0,022
-419,730	800,000	-0,037	0,089
-418,715	-200,000	0,001	-0,055
-417,701	-78,188	-0,172	-0,042
-416,686	-49,677	-0,075	-0,025
-415,671	3,413	-0,155	-0,081
-414,657	319,523	0,027	-0,037
-413,642	626,299	-0,043	0,078
-412,628	-25,940	0,158	-0,066
-411,613	-92,959	-0,186	-0,037
-410,598	-200,000	0,004	-0,045
-409,584	-106,227	0,063	0,010
-408,569	-200,000	0,005	0,135
-407,555	-121,950	0,062	-0,007
-406,540	233,033	-0,040	-0,047
-405,525	-200,000	-0,012	-0,185
-404,511	-200,000	0,050	-0,194
-403,496	1,931	-0,122	0,063
-402,482	418,084	0,052	0,079
-401,467	-45,547	-0,092	0,032
-400,452	-27,127	0,022	-0,009
-399,438	274,557	-0,112	0,142
-398,423	9,758	-0,082	-0,044
-397,409	494,714	-0,115	-0,189
-396,394	-89,770	0,026	0,005
-395,379	62,574	-0,128	0,091
-394,365	165,313	-0,033	-0,034
-393,350	29,478	-0,034	0,020
-392,336	55,585	0,012	0,009
-391,321	-56,929	-0,118	-0,037
-390,306	336,180	-0,018	0,025
-389,292	90,245	-0,167	0,134
-388,277	-187,111	0,106	0,001
-387,263	-200,000	0,018	0,113
-386,248	800,000	-0,044	0,106
-385,233	-104,956	-0,037	-0,006
-384,219	800,000	0,067	0,163
-383,204	128,282	-0,064	-0,058
-382,190	-200,000	0,015	-0,170
-381,175	-61,157	-0,085	0,025
-380,160	78,815	0,012	-0,009
-379,146	-200,000	0,009	0,145
-378,131	121,784	0,059	0,053
-377,117	-15,853	0,054	0,024
-376,102	283,969	-0,117	-0,151
-375,088	688,577	0,034	0,064
-374,073	-44,653	-0,070	0,025
-373,058	56,883	0,043	0,030
-372,044	298,024	-0,066	0,087
-371,029	200,813	-0,067	0,074
-370,015	-117,431	-0,062	0,008
-369,000	16,313	-0,094	-0,053
-367,985	-113,710	-0,060	-0,008
-366,971	-61,125	0,110	-0,033
-365,956	-130,875	0,067	-0,006
-364,942	126,651	0,061	0,055
-363,927	-200,000	0,027	0,084
-362,912	97,514	0,007	-0,006
-361,898	-115,994	-0,031	0,004
-360,883	-75,025	0,103	0,026
-359,869	-11,641	0,043	0,020
-358,854	-90,600	0,089	0,018
-357,839	23,993	0,086	0,050
-356,825	-200,000	0,001	0,037
-355,810	-200,000	-0,024	0,108
-354,796	800,000	0,018	-0,042
-353,781	525,240	-0,090	-0,152
-352,766	-189,129	-0,040	-0,000
-351,752	-20,006	0,041	-0,018
-350,737	-10,505	0,083	-0,039
-349,723	-200,000	-0,008	0,105
-348,708	79,338	0,058	0,044
-347,693	183,463	-0,080	0,084
-346,679	299,343	-0,016	0,022
-345,664	-200,000	0,019	0,082
-344,650	81,424	0,069	0,053
-343,635	-97,797	-0,019	0,003
-342,620	-153,305	0,086	-0,004
-341,606	-37,209	-0,099	0,037
-340,591	6,979	0,065	0,035
-339,577	800,000	0,044	0,127
-338,562	306,462	-0,039	0,052
-337,548	108,178	0,075	-0,064
-336,533	167,002	0,118	0,120
-335,518	309,855	0,055	0,074
-334,504	383,719	-0,073	0,108
-333,489	-3,008	0,066	-0,033
-332,475	122,224	-0,117	0,105
-331,460	32,181	-0,042	0,026
-330,445	488,648	0,094	-0,154
-329,431	800,000	0,049	0,142
-328,416	-200,000	0,036	-0,176
-327,402	-50,782	0,056	0,019
-326,387	-111,190	0,161	-0,023
-325,372	177,678	-0,124	-0,129
-324,358	326,170	0,047	-0,064
-323,343	144,088	-0,017	-0,016
-322,329	-200,000	0,024	0,115
-321,314	-200,000	0,012	0,129
-320,299	-6,814	-0,117	0,056
-319,285	-77,103	0,067	0,017
-318,270	-50,860	0,142	0,047
-317,256	-94,805	0,107	0,021
-316,241	-81,926	0,106	0,025
-315,226	-200,000	-0,001	0,051
-314,212	-63,411	0,093	-0,027
-313,197	219,145	0,057	0,065
-312,183	-150,022	-0,059	-0,003
-311,168	401,954	-0,069	-0,104
-310,153	38,819	0,129	-0,082
-309,139	394,295	-0,059	0,088
-308,124	-200,000	-0,027	0,128
-307,110	-5,534	-0,050	-0,024
-306,095	155,279	0,077	0,076
-305,080	-132,210	0,097	-0,009
-304,066	352,610	-0,076	-0,108
-303,051	-200,000	-0,010	0,032
-302,037	-37,803	0,025	-0,010
-301,022	-200,000	0,011	-0,098
-300,008	11,943	0,116	0,063
-298,993	-200,000	-0,011	0,047
-297,978	-96,700	0,036	0,007
-296,964	20,482	-0,059	-0,034
-295,949	-200,000	0,020	-0,179
-294,935	-200,000	0,002	-0,043
-293,920	800,000	-0,031	0,073
-292,905	35,794	0,131	-0,082
-291,891	-26,121	0,090	0,037
-290,876	11,318	0,032	0,017
-289,862	-21,398	0,149	0,065
-288,847	-157,365	-0,181	-0,008
-287,832	-200,000	-0,001	-0,007
-286,818	197,083	0,026	-0,028
-285,803	75,024	0,031	0,023
-284,789	240,809	0,030	0,036
-283,774	342,902	-0,049	0,068
-282,759	123,699	-0,019	-0,017
-281,745	-70,443	-0,152	0,041
-280,730	-200,000	-0,018	-0,128
-279,716	-140,996	-0,162	-0,012
-278,701	-58,457	0,153	0,047
-277,686	800,000	0,025	0,066
-276,672	-200,000	-0,023	0,090
-275,657	688,453	0,053	-0,099
-274,643	19,942	-0,105	0,060
-273,628	-124,093	-0,250	0,028
-272,613	-51,995	0,139	0,046
-271,599	800,000	-0,049	-0,123
-270,584	164,305	0,017	0,017
-269,570	800,000	-0,044	0,114
-268,555	743,865	0,020	0,038
-267,540	-200,000	-0,013	-0,057
-266,526	393,585	0,031	-0,046
-265,511	484,819	-0,013	-0,021
-264,497	221,963	-0,014	-0,016
-263,482	800,000	0,052	-0,108
-262,467	-134,670	0,126	0,011
-261,453	-200,000	0,013	0,056
-260,438	-131,747	-0,019	0,002
-259,424	28,700	-0,073	-0,044
-258,409	446,550	0,028	-0,044
-257,395	214,625	0,029	0,033
-256,380	-200,000	0,005	-0,111
-255,365	-200,000	0,004	0,079
-254,351	-200,000	0,028	0,107
-253,336	78,549	-0,086	-0,065
-252,322	-200,000	0,008	-0,043
-251,307	800,000	-0,008	-0,017
-250,292	-97,177	0,025	0,005
-249,278	708,659	0,041	0,078
-248,263	300,100	-0,005	-0,007
-247,249	-200,000	-0,022	0,114
-246,234	800,000	0,022	-0,069
-245,219	84,955	-0,144	-0,112
-244,205	-200,000	-0,001	0,043
-243,190	424,745	0,071	-0,109
-242,176	-80,029	0,140	0,033
-241,161	199,354	0,093	0,102
-240,146	45,606	-0,074	0,048
-239,132	206,066	-0,078	-0,087
-238,117	-152,658	-0,124	0,006
-237,103	120,291	0,074	-0,065
-236,088	-86,474	0,181	-0,039
-235,073	800,000	-0,032	0,068
-234,059	-200,000	-0,022	0,160
-233,044	26,781	0,038	0,022
-232,030	194,142	-0,126	-0,135
-231,015	-39,328	-0,053	0,020
-230,000	-151,418	-0,113	0,006
-228,986	6,908	-0,077	-0,041
-227,971	800,000	-0,062	0,159
-226,957	-72,975	0,146	-0,038
-225,942	102,135	-0,082	0,068
-224,927	-37,137	0,041	-0,016
-223,913	-200,000	-0,007	0,061
-222,898	-76,670	-0,177	0,044
-221,884	59,726	0,073	-0,051
-220,869	800,000	-0,045	-0,119
-219,855	292,024	0,034	0,044
-218,840	800,000	0,053	0,147
-217,825	-44,982	0,050	0,018
-216,811	-78,581	-0,058	-0,014
-215,796	-25,095	-0,103	0,043
-214,782	800,000	0,015	-0,033
-213,767	171,613	0,063	-0,064
-212,752	-200,000	0,000	-0,097
-211,738	-200,000	0,001	0,016
-210,723	-104,871	-0,048	-0,008
-209,709	748,223	-0,078	0,150
-208,694	-60,477	-0,076	-0,023
-207,679	-200,000	-0,005	0,080
-206,665	369,675	-0,053	0,077
-205,650	-200,000	0,001	0,109
-204,636	-59,729	0,061	0,018
-203,621	478,863	0,030	-0,048
-202,606	681,544	0,074	-0,138
-201,592	-200,000	-0,041	-0,157
-200,577	-200,000	0,008	-0,050
-199,563	-67,009	0,067	0,019
-198,548	209,753	0,026	0,029
-197,533	-101,472	0,097	0,017
-196,519	800,000	-0,036	0,088
-195,504	29,804	-0,026	0,015
-194,490	375,739	-0,051	0,073
-193,475	800,000	0,059	-0,122
-192,460	-199,993	0,252	0,001
-191,446	-37,962	-0,169	0,063
-190,431	-69,791	0,092	0,025
-189,417	237,042	-0,021	0,025
-188,402	-114,814	-0,099	-0,013
-187,387	118,619	-0,072	-0,063
-186,373	156,381	0,024	0,023
-185,358	116,288	-0,137	0,119
-184,344	765,060	0,091	-0,176
-183,329	77,064	-0,079	-0,060
-182,315	-135,310	0,067	0,006
-181,300	45,837	0,107	-0,070
-180,285	800,000	-0,083	-0,183
-179,271	31,377	0,049	-0,030
-178,256	-132,415	0,012	-0,001
-177,242	-16,277	0,106	-0,048
-176,227	-134,266	0,098	-0,008
-175,212	-45,399	0,149	0,052
-174,198	-200,000	0,008	-0,093
-173,183	-82,398	-0,091	-0,021
-172,169	-109,831	0,059	-0,009
-171,154	-127,354	-0,153	-0,016
-170,139	-200,000	0,000	0,020
-169,125	190,579	-0,022	0,023
-168,110	-200,000	-0,002	-0,133
-167,096	470,250	-0,005	-0,008
-166,081	-200,000	0,004	0,021
-165,066	-200,000	0,025	-0,177
-164,052	-161,933	0,083	-0,003
-163,037	-38,345	0,150	0,056
-162,023	22,926	-0,012	0,007
-161,008	800,000	0,037	0,083
-159,993	-200,000	0,012	-0,044
-158,979	91,996	0,063	0,050
-157,964	126,719	-0,138	-0,123
-156,950	-94,190	-0,076	0,015
-155,935	-134,127	-0,141	0,012
-154,920	518,943	-0,042	0,070
-153,906	800,000	0,041	0,120
-152,891	-200,000	-0,015	-0,077
-151,877	-104,341	-0,138	0,022
-150,862	-123,833	0,024	0,003
-149,847	456,080	0,015	-0,023
-148,833	381,151	-0,028	0,041
-147,818	167,576	0,112	-0,113
-146,804	572,516	-0,023	0,039
-145,789	-177,798	0,130	-0,002
-144,775	-112,839	0,028	0,004
-143,760	-200,000	-0,041	-0,207
-142,745	-200,000	0,007	0,114
-141,731	-51,821	0,068	0,022
-140,716	23,173	-0,036	-0,021
-139,702	-63,817	-0,072	-0,021
-138,687	92,643	0,099	-0,079
-137,672	-62,173	-0,221	-0,065
-136,658	-200,000	0,007	0,021
-135,643	489,321	-0,046	-0,075
-134,629	-17,807	0,138	-0,061
-133,614	-50,970	0,065	-0,022
-132,599	98,050	0,097	-0,079
-131,585	-200,000	-0,030	-0,122
-130,570	-58,565	0,014	0,004
-129,556	498,423	0,072	0,118
-128,541	800,000	-0,064	-0,135
-127,526	800,000	0,038	-0,089
-126,512	-94,634	0,097	-0,018
-125,497	71,260	0,046	0,034
-124,483	125,195	-0,012	-0,010
-123,468	-200,000	-0,019	0,082
-122,453	-125,219	-0,082	0,009
-121,439	298,344	0,058	-0,076
-120,424	87,847	-0,047	-0,037
-119,410	-52,223	0,220	0,072
-118,395	9,473	-0,031	0,017
-117,380	381,480	-0,023	0,034
-116,366	-128,809	-0,173	0,017
-115,351	-144,966	-0,053	-0,003
-114,337	397,748	0,024	-0,036
-113,322	3,407	-0,053	0,027
-112,307	-200,000	-0,005	-0,092
-111,293	-200,000	0,019	0,108
-110,278	-51,375	-0,047	0,015
-109,264	800,000	-0,013	-0,040
-108,249	-200,000	-0,018	0,060
-107,234	-166,011	-0,153	0,005
-106,220	21,272	0,089	-0,051
-105,205	527,622	0,068	-0,114
-104,191	-200,000	0,001	0,009
-103,176	-200,000	0,019	0,160
-102,162	-200,000	-0,002	0,056
-101,147	229,740	-0,069	0,080
-100,132	-87,078	0,092	0,020
-99,118	-200,000	0,022	-0,088
-98,103	577,104	0,048	0,084
-97,089	-200,000	-0,038	0,163
-96,074	394,497	0,034	-0,050
-95,059	-30,466	0,109	-0,043
-94,045	-200,000	-0,011	-0,040
-93,030	-200,000	0,010	0,037
-92,016	-92,573	0,050	0,010
-91,001	-141,607	-0,068	0,005
-89,986	31,308	-0,071	0,043
-88,972	-200,000	0,015	0,063
-87,957	59,873	-0,118	-0,082
-86,943	64,258	-0,131	-0,093
-85,928	-3,498	-0,087	0,042
-84,913	-7,811	0,031	-0,015
-83,899	75,586	0,142	0,106
-82,884	651,290	0,048	0,087
-81,870	-200,000	-0,006	0,098
-80,855	44,721	0,106	-0,069
-79,840	-200,000	-0,004	-0,060
-78,826	285,966	0,115	-0,146
-77,811	103,951	-0,099	0,082
-76,797	174,967	-0,011	0,011
-75,782	-7,055	-0,052	0,025
-74,767	140,211	0,123	0,114
-73,753	-200,000	-0,007	-0,047
-72,738	-200,000	-0,011	0,169
-71,724	800,000	0,031	-0,073
-70,709	197,206	-0,068	0,073
-69,694	-78,248	0,114	-0,027
-68,680	306,444	-0,027	0,036
-67,665	467,220	0,041	-0,065
-66,651	405,761	0,068	0,101
-65,636	-200,000	-0,000	-0,089
-64,622	-119,639	0,006	-0,001
-63,607	69,075	-0,100	-0,073
-62,592	-41,096	-0,067	-0,024
-61,578	-99,425	0,111	-0,020
-60,563	84,653	0,025	0,019
-59,549	23,104	-0,177	0,103
-58,534	50,025	-2,085	-1,386
-57,519	382,872	-1,312	-1,910
-56,505	-200,000	-0,338	-4,358
-55,490	800,000	0,868	1,835
-54,476	800,000	5,228	11,155
-53,461	-200,000	22,050	341,985
-52,446	800,000	756,882	2299,864
-51,432	536,157	1646,261	2767,174
-50,417	68,692	1644,196	1188,921
-49,403	16,091	1520,104	842,794
-48,388	10,244	1445,109	773,154
-47,373	19,173	1437,389	811,500
-46,359	13,726	1425,942	779,325
-45,344	8,576	1422,030	752,825
-44,330	8,563	1419,948	751,632
-43,315	8,427	1418,439	750,160
-42,300	8,484	1416,588	749,419
-41,286	8,529	1415,207	748,873
-40,271	8,470	1414,162	748,013
-39,257	8,427	1412,994	747,160
-38,242	8,515	1411,663	746,841
-37,227	8,479	1410,638	746,099
-36,213	8,484	1409,346	745,410
-35,198	8,490	1408,194	744,799
-34,184	8,534	1407,390	744,550
-33,169	8,453	1405,750	743,274
-32,154	8,456	1404,864	742,790
-31,140	8,449	1403,673	742,101
-30,125	8,498	1402,523	741,690
-29,111	8,484	1401,191	740,889
-28,096	8,469	1400,192	740,264
-27,082	8,405	1399,067	739,343
-26,067	8,389	1397,978	738,665
-25,052	8,422	1396,886	738,209
-24,038	8,478	1395,790	737,862
-23,023	8,438	1394,977	737,217
-22,009	8,434	1393,813	736,553
-20,994	8,393	1392,724	735,759
-19,979	8,462	1391,713	735,513
-18,965	8,400	1390,797	734,714
-17,950	8,410	1389,959	734,290
-16,936	8,402	1389,007	733,719
-15,921	8,324	1388,323	732,967
-14,906	8,373	1387,171	732,560
-13,892	8,374	1386,265	732,055
-12,877	8,376	1385,387	731,571
-11,863	8,348	1384,756	731,082
-10,848	8,290	1383,894	730,329
-9,833	8,287	1383,003	729,818
-8,819	8,286	1381,817	729,157
-7,804	8,277	1380,922	728,614
-6,790	8,289	1379,795	728,048
-5,775	8,254	1379,220	727,554
-4,760	8,273	1378,202	727,073
-3,746	8,258	1377,137	726,417
-2,731	8,276	1376,426	726,093
-1,717	8,307	1375,342	725,633
-0,702	8,290	1373,528	724,572
0,313	12,286	1285,256	696,104
1,327	28,108	678,649	402,884
2,342	43,787	116,684	75,181
3,356	1,582	16,495	8,343
4,371	5,042	3,743	1,937
5,386	7,942	1,247	0,657
6,400	800,000	0,287	0,632
7,415	-200,000	-0,039	-0,282
8,429	132,614	-0,231	-0,210
9,444	101,183	-0,253	-0,207
10,459	-96,371	-0,367	-0,068
11,473	24,995	-0,252	-0,147
12,488	5,987	-0,186	-0,097
13,502	30,836	-0,255	-0,153
14,517	179,793	-0,239	-0,247
15,531	-8,152	-0,439	-0,208
16,546	91,235	-0,257	-0,203
17,561	76,307	-0,414	-0,308
18,575	-28,415	-0,118	-0,048
19,590	205,110	-0,175	-0,191
20,604	-13,667	-0,137	-0,062
21,619	37,116	-0,431	-0,268
22,634	56,314	-0,504	-0,344
23,648	82,891	-0,520	-0,397
24,663	145,771	-0,319	-0,301
25,677	24,889	-0,364	-0,212
26,692	43,185	-0,381	-0,244
27,707	100,127	-0,242	-0,197
28,721	9,874	-0,346	-0,184
29,736	95,887	-0,388	-0,312
30,750	68,789	-0,341	-0,246
31,765	118,263	-0,350	-0,304
32,780	67,168	-0,346	-0,248
33,794	198,004	-0,363	-0,390
34,809	47,975	-0,392	-0,257
35,823	62,493	-0,250	-0,175
36,838	59,723	-0,362	-0,251
37,853	77,376	-0,438	-0,327
38,867	128,128	-0,233	-0,209
39,882	-44,014	-0,436	-0,153
40,896	134,355	-0,299	-0,273
41,911	33,978	-0,279	-0,171
42,926	-17,909	-0,400	-0,175
43,940	11,672	-0,450	-0,242
44,955	93,615	-0,398	-0,316
45,969	187,473	-0,261	-0,274
46,984	800,000	-0,128	-0,291
47,999	168,916	-0,360	-0,361
49,013	9,367	-0,265	-0,140
50,028	-66,505	-0,410	-0,113
51,042	-36,790	-0,417	-0,156
52,057	119,936	-0,341	-0,297
53,071	35,560	-0,396	-0,244
54,086	-5,828	-0,416	-0,199
55,101	22,413	-0,476	-0,272
56,115	-0,671	-0,418	-0,207
57,130	11,155	-0,383	-0,205
58,144	195,114	-0,241	-0,257
59,159	45,635	-0,444	-0,287
60,174	107,962	-0,263	-0,219
61,188	-3,459	-0,312	-0,152
62,203	-37,779	-0,373	-0,139
63,217	43,974	-0,253	-0,162
64,232	158,052	-0,299	-0,291
65,247	74,916	-0,319	-0,235
66,261	248,913	-0,251	-0,299
67,276	160,038	-0,253	-0,247
68,290	170,242	-0,269	-0,270
69,305	5,275	-0,372	-0,191
70,320	-69,557	-0,295	0,079
71,334	-42,798	-0,411	-0,146
72,349	137,127	-0,303	-0,278
73,363	74,446	-0,403	-0,297
74,378	9,759	-0,269	-0,143
75,393	10,725	-0,291	-0,155
76,407	29,850	-0,344	-0,205
77,422	62,456	-0,160	-0,112
78,436	62,338	-0,317	-0,221
79,451	-97,144	-0,386	-0,070
80,466	26,854	-0,282	-0,165
81,480	6,587	-0,310	-0,161
82,495	459,172	-0,218	-0,340
83,509	12,156	-0,322	-0,173
84,524	-76,165	-0,240	-0,059
85,539	-5,805	-0,185	-0,088
86,553	-63,312	-0,394	-0,113
87,568	26,485	-0,208	-0,121
88,582	81,027	-0,313	-0,236
89,597	234,131	-0,244	-0,281
90,611	-10,557	-0,161	-0,074
91,626	122,918	-0,181	-0,158
92,641	234,365	-0,135	-0,156
93,655	-60,246	-0,357	-0,106
94,670	283,404	-0,273	-0,343
95,684	141,769	-0,319	-0,295
96,699	56,397	-0,294	-0,200
97,714	133,488	-0,192	-0,173
98,728	-46,668	-0,326	-0,111
99,743	-57,683	-0,223	0,068
100,757	71,182	-0,198	-0,143
101,772	-68,537	-0,265	-0,071
102,787	239,158	-0,118	-0,137
103,801	-16,209	-0,176	-0,078
104,816	225,210	-0,236	-0,268
105,830	41,488	-0,129	-0,081
106,845	13,182	-0,241	-0,130
107,860	-38,547	-0,217	-0,080
108,874	-92,500	-0,251	-0,049
109,889	82,939	-0,237	-0,180
110,903	53,947	-0,370	-0,248
111,918	-0,482	-0,208	-0,103
112,933	-2,116	-0,271	-0,132
113,947	37,823	-0,243	-0,150
114,962	47,803	-0,266	-0,173
115,976	3,030	-0,337	-0,170
116,991	148,743	-0,262	-0,248
118,006	-91,304	-0,224	-0,044
119,020	-9,820	-0,290	-0,134
120,035	696,162	-0,134	-0,246
121,049	98,124	-0,143	-0,115
122,064	36,313	-0,260	-0,160
123,079	73,798	-0,266	-0,194
124,093	124,857	-0,195	-0,172
125,108	175,274	-0,234	-0,237
126,122	186,367	-0,206	-0,214
127,137	105,419	-0,227	-0,187
128,151	260,153	-0,189	-0,228
129,166	85,531	-0,212	-0,162
130,181	18,539	-0,261	-0,145
131,195	-33,148	-0,371	-0,143
132,210	9,216	-0,284	-0,149
133,224	80,251	-0,182	-0,136
134,239	187,199	-0,162	-0,168
135,254	67,121	-0,179	-0,127
136,268	-61,017	-0,216	-0,063
137,283	19,961	-0,309	-0,173
138,297	-64,519	-0,312	-0,088
139,312	34,096	-0,187	-0,113
140,327	60,153	-0,311	-0,214
141,341	-85,846	-0,207	-0,044
142,356	-114,396	-0,208	-0,028
143,370	322,272	-0,124	-0,165
144,385	21,736	-0,260	-0,147
145,400	226,358	-0,284	-0,322
146,414	108,832	-0,229	-0,190
147,429	191,245	-0,192	-0,202
148,443	108,756	-0,171	-0,142
149,458	-84,864	-0,293	-0,063
150,473	44,987	-0,323	-0,207
151,487	3,050	-0,282	-0,142
152,502	19,832	-0,213	-0,119
153,516	-137,535	-0,347	-0,027
154,531	-11,639	-0,152	-0,069
155,546	28,112	-0,272	-0,160
156,560	-112,451	-0,262	-0,036
157,575	-92,132	-0,212	-0,041
158,589	239,265	-0,133	-0,154
159,604	-10,691	-0,230	-0,106
160,619	800,000	-0,140	-0,290
161,633	39,317	-0,218	-0,135
162,648	178,541	-0,173	-0,176
163,662	117,120	-0,145	-0,124
164,677	166,549	-0,186	-0,183
165,692	40,339	-0,318	-0,198
166,706	38,368	-0,305	-0,188
167,721	326,110	-0,079	-0,106
168,735	-15,827	-0,249	-0,110
169,750	49,331	-0,127	-0,083
170,764	136,020	-0,218	-0,197
171,779	51,410	-0,200	-0,132
172,794	-83,742	-0,174	-0,038
173,808	148,672	-0,154	-0,144
174,823	248,702	-0,139	-0,163
175,837	189,067	-0,228	-0,237
176,852	482,430	-0,137	-0,217
177,867	245,940	-0,158	-0,185
178,881	800,000	-0,080	-0,157
179,896	800,000	-0,083	-0,208
180,910	422,800	-0,205	-0,307
181,925	-17,388	-0,214	-0,093
182,940	117,054	-0,246	-0,210
183,954	250,837	-0,192	-0,227
184,969	115,780	-0,189	-0,160
185,983	-152,920	-0,294	0,014
186,998	-166,096	-0,250	0,007
188,013	-26,780	-0,183	-0,074
189,027	126,168	-0,268	-0,235
190,042	60,623	-0,297	-0,204
191,056	142,741	-0,239	-0,220
192,071	197,675	-0,206	-0,218
193,086	84,506	-0,117	-0,089
194,100	-6,958	-0,306	-0,143
195,115	-131,762	-0,159	-0,014
196,129	68,047	-0,253	-0,179
197,144	67,620	-0,336	-0,237
198,159	-37,595	-0,305	-0,112
199,173	27,672	-0,244	-0,142
200,188	-45,421	-0,195	-0,067
201,202	-142,800	-0,142	-0,009
202,217	43,894	-0,188	-0,119
203,232	449,084	-0,095	-0,145
204,246	-9,955	-0,136	-0,062
205,261	52,914	-0,267	-0,177
206,275	49,876	-0,248	-0,162
207,290	120,054	-0,119	-0,102
208,304	-13,462	-0,150	0,067
209,319	35,753	-0,208	-0,126
210,334	78,925	-0,226	-0,167
211,348	402,999	-0,162	-0,236
212,363	57,289	-0,243	-0,164
213,377	115,842	-0,124	-0,105
214,392	55,263	-0,252	-0,168
215,407	700,735	-0,087	-0,160
216,421	25,832	-0,214	-0,123
217,436	-29,928	-0,205	-0,080
218,450	20,856	-0,213	-0,119
219,465	109,154	-0,147	-0,121
220,480	489,793	-0,148	-0,235
221,494	742,648	-0,083	-0,155
222,509	30,114	-0,193	-0,113
223,523	142,493	-0,135	-0,124
224,538	-20,282	-0,334	-0,142
225,553	-69,875	-0,306	-0,080
226,567	-83,231	-0,238	-0,052
227,582	126,769	-0,147	-0,129
228,596	169,434	-0,179	-0,177
229,611	173,878	-0,089	0,089
230,626	-200,000	-0,065	-0,206
231,640	304,214	-0,213	-0,274
232,655	-60,123	-0,211	-0,062
233,669	20,299	-0,209	-0,116
234,684	566,534	-0,134	-0,225
235,699	68,214	-0,157	-0,111
236,713	306,403	-0,027	-0,035
237,728	-200,000	-0,047	-0,217
238,742	-151,236	-0,212	-0,011
239,757	123,317	-0,175	-0,151
240,772	214,847	-0,120	-0,132
241,786	79,315	-0,250	-0,185
242,801	96,584	-0,087	-0,069
243,815	128,263	-0,148	-0,130
244,830	-200,000	-0,015	-0,148
245,844	181,054	-0,247	-0,251
246,859	41,315	-0,186	-0,116
247,874	-4,328	-0,271	-0,129
248,888	81,018	-0,150	-0,112
249,903	-93,520	-0,275	-0,052
250,917	236,208	-0,085	-0,097
251,932	106,595	-0,091	-0,074
252,947	-2,129	-0,202	-0,098
253,961	130,403	-0,185	-0,163
254,976	20,617	-0,206	-0,114
255,990	770,150	-0,089	-0,168
257,005	48,780	-0,131	-0,085
258,020	800,000	-0,043	-0,100
259,034	-51,888	-0,169	-0,054
260,049	193,278	-0,176	-0,183
261,063	-54,865	-0,213	-0,066
262,078	800,000	-0,080	-0,201
263,093	216,092	-0,123	-0,135
264,107	-46,589	-0,230	-0,077
265,122	15,168	-0,095	-0,051
266,136	198,808	-0,105	-0,111
267,151	-13,768	-0,123	-0,054
268,166	-74,262	-0,198	-0,049
269,180	-3,249	-0,195	-0,093
270,195	148,292	-0,186	-0,173
271,209	157,691	-0,118	-0,113
272,224	-132,613	-0,171	-0,015
273,239	-42,303	-0,110	-0,039
274,253	58,553	-0,096	-0,064
275,268	-103,053	-0,206	-0,033
276,282	-120,932	-0,197	-0,023
277,297	175,568	-0,157	-0,157
278,312	109,913	-0,174	-0,143
279,326	800,000	-0,028	-0,073
280,341	13,993	-0,145	-0,077
281,355	40,580	-0,186	-0,115
282,370	-181,708	-0,175	0,002
283,384	86,315	-0,287	-0,218
284,399	-22,506	-0,193	-0,080
285,414	80,360	-0,052	0,038
286,428	-49,897	-0,175	-0,057
287,443	56,179	-0,135	-0,090
288,457	-200,000	-0,020	-0,181
289,472	453,164	-0,068	-0,104
290,487	90,374	-0,178	-0,137
291,501	209,356	-0,149	-0,161
292,516	-56,271	-0,174	-0,053
293,530	-124,638	-0,240	-0,025
294,545	-74,011	-0,105	0,026
295,560	260,454	-0,082	-0,098
296,574	-108,487	-0,170	-0,025
297,589	-37,780	-0,173	-0,063
298,603	157,810	-0,119	-0,113
299,618	151,201	-0,123	-0,115
300,633	593,205	-0,066	-0,113
301,647	-78,239	-0,147	-0,035
302,662	-72,064	-0,059	-0,015
303,676	800,000	-0,058	-0,126
304,691	-89,162	-0,218	-0,044
305,706	22,241	0,026	-0,015
306,720	68,267	-0,124	-0,087
307,735	-200,000	-0,033	-0,175
308,749	-67,560	-0,105	-0,028
309,764	117,938	-0,125	-0,105
310,779	-172,615	-0,219	0,005
311,793	171,600	-0,163	-0,160
312,808	63,845	-0,151	-0,104
313,822	13,501	-0,173	-0,092
314,837	155,222	-0,087	-0,082
315,852	3,746	-0,129	-0,064
316,866	-162,578	-0,137	0,005
317,881	-200,000	-0,000	-0,021
318,895	89,961	-0,228	-0,174
319,910	-200,000	0,041	-0,159
320,925	0,474	-0,107	-0,052
321,939	-16,963	-0,215	-0,093
322,954	458,201	-0,156	-0,238
323,968	800,000	0,022	-0,045
324,983	-109,112	-0,296	-0,043
325,997	365,457	-0,072	-0,100
327,012	-56,097	-0,043	-0,013
328,027	169,116	-0,176	-0,172
329,041	621,354	-0,080	-0,139
330,056	-134,495	-0,109	0,009
331,070	-200,000	-0,012	-0,138
332,085	25,597	-0,141	-0,080
333,100	-167,254	-0,151	0,004
334,114	434,684	-0,126	-0,188
335,129	800,000	-0,069	-0,165
336,143	-29,913	-0,182	-0,070
337,158	204,955	-0,088	-0,093
338,173	-200,000	-0,037	-0,208
339,187	316,924	-0,103	-0,134
340,202	-49,856	-0,136	-0,044
341,216	121,379	-0,163	-0,139
342,231	800,000	-0,115	-0,247
343,246	800,000	-0,074	-0,162
344,260	10,639	-0,123	-0,064
345,275	-114,141	-0,140	-0,018
346,289	43,952	-0,103	-0,064
347,304	7,247	-0,094	0,048
348,319	-152,342	-0,126	0,006
349,333	92,674	-0,224	-0,173
350,348	289,470	-0,120	-0,149
351,362	401,938	-0,107	-0,153
352,377	-200,000	-0,021	-0,135
353,392	183,057	-0,114	-0,115
354,406	102,260	-0,088	-0,070
355,421	208,690	1305,234	1397,652
356,435	160,592	1464,750	1398,113
