DTS Sentinel unit serial number:	SN410029Multiplexer serial number:	ORYXHardware model number:	OX2-SRSoftware version number:	ORYX F/W v4,00 Oryx Data Collector v3.7.2.0data status	okinstallation	B3 Nyhavnadifferential loss correction	single-endedforward channel	channel 1reverse channel	N/Adate	2023/11/29time	05:22:30forward acquisition time	300,00reverse acquisition time	0,00gamma	499,1914k internal	0,3211k external	0,3211temperature offset calibration	1,0000default loss term (dB/km)	0,3820temperature slope calibration	1,0000multiplexer offset coefficient	1,0000multiplexer slope coefficient	1,0000fibre end	0,00T internal ref (°C)	9,12T ext. ref 1 (°C)	-6,21T ext. ref 2 (°C)	-6,34length (m)	temperature (°C)	Stokes	anti-Stokes-744,400	342,440	-0,214	-0,305
-743,385	800,000	-0,090	0,184
-742,371	-200,000	-0,079	-0,324
-741,356	-200,000	0,029	0,261
-740,342	58,699	-0,195	-0,139
-739,327	-200,000	0,048	0,192
-738,312	800,000	-0,117	-0,266
-737,298	114,927	-0,088	0,078
-736,283	800,000	-0,090	-0,260
-735,269	597,629	-0,125	0,226
-734,254	526,159	-0,069	-0,118
-733,239	-55,284	-0,244	0,079
-732,225	-200,000	0,023	-0,206
-731,210	-200,000	-0,019	0,077
-730,196	9,223	0,153	-0,084
-729,181	591,620	-0,019	-0,035
-728,167	-25,704	0,101	0,043
-727,152	250,676	-0,036	0,044
-726,137	83,193	-0,107	-0,084
-725,123	621,376	-0,081	-0,148
-724,108	73,606	-0,085	-0,065
-723,094	-69,387	-0,084	0,023
-722,079	65,061	0,054	0,039
-721,064	-200,000	0,007	0,083
-720,050	361,016	-0,067	0,097
-719,035	67,074	-0,086	0,063
-718,021	-88,190	-0,102	0,022
-717,006	-200,000	-0,045	-0,152
-715,991	-200,000	-0,010	-0,126
-714,977	800,000	0,035	-0,108
-713,962	800,000	-0,034	-0,088
-712,948	601,075	0,025	0,046
-711,933	-200,000	-0,044	-0,175
-710,918	92,028	-0,013	-0,010
-709,904	-200,000	0,024	-0,143
-708,889	-200,000	0,008	-0,077
-707,875	800,000	-0,059	-0,162
-706,860	-200,000	0,005	-0,134
-705,845	230,094	0,067	0,079
-704,831	229,032	-0,134	0,158
-703,816	-2,179	-0,036	0,018
-702,802	-132,784	0,097	-0,009
-701,787	-10,672	-0,124	-0,059
-700,772	-92,543	0,120	-0,024
-699,758	-200,000	-0,032	0,220
-698,743	25,510	0,062	0,037
-697,729	-16,679	-0,109	-0,050
-696,714	-200,000	0,014	0,084
-695,699	409,636	-0,047	-0,072
-694,685	-66,109	-0,144	-0,041
-693,670	155,450	0,022	0,022
-692,656	298,255	-0,075	-0,100
-691,641	19,396	0,088	0,051
-690,627	26,965	0,068	0,041
-689,612	-200,000	0,015	0,108
-688,597	100,056	-0,038	-0,032
-687,583	800,000	0,015	-0,042
-686,568	-200,000	-0,017	-0,140
-685,554	-10,502	0,156	0,075
-684,539	-200,000	-0,011	0,061
-683,524	800,000	0,037	0,078
-682,510	800,000	-0,028	0,071
-681,495	-100,346	-0,052	0,009
-680,481	7,030	0,067	-0,036
-679,466	152,740	-0,169	-0,167
-678,451	230,594	-0,076	-0,090
-677,437	800,000	0,044	-0,095
-676,422	-200,000	0,007	0,055
-675,408	5,965	0,030	-0,016
-674,393	-46,952	-0,065	-0,023
-673,378	45,218	-0,088	-0,059
-672,364	114,553	0,019	-0,016
-671,349	-35,452	0,105	-0,041
-670,335	-200,000	-0,024	-0,103
-669,320	-200,000	-0,021	0,178
-668,305	-200,000	0,014	0,081
-667,291	9,048	0,085	0,046
-666,276	800,000	0,033	0,075
-665,262	-200,000	0,043	-0,157
-664,247	-200,000	0,006	-0,160
-663,232	800,000	-0,014	-0,042
-662,218	31,784	0,046	-0,029
-661,203	-200,000	-0,006	0,078
-660,189	-200,000	0,005	-0,064
-659,174	56,964	-0,161	-0,113
-658,159	334,312	-0,028	0,039
-657,145	-200,000	0,023	0,091
-656,130	-200,000	0,009	0,072
-655,116	-128,585	0,092	0,009
-654,101	-94,984	0,063	0,012
-653,086	-141,143	-0,086	-0,006
-652,072	-158,285	0,120	0,005
-651,057	-82,495	-0,109	-0,025
-650,043	800,000	-0,021	-0,055
-649,028	675,995	-0,051	-0,096
-648,014	-29,095	0,053	-0,022
-646,999	-121,742	-0,139	0,016
-645,984	-88,400	0,069	0,015
-644,970	17,945	0,062	0,035
-643,955	-200,000	0,004	-0,049
-642,941	314,679	-0,046	0,063
-641,926	-83,958	0,055	0,013
-640,911	800,000	0,029	0,078
-639,897	-200,000	-0,021	0,122
-638,882	-15,616	0,045	0,021
-637,868	-141,453	-0,060	0,004
-636,853	-200,000	-0,003	0,033
-635,838	-200,000	0,007	-0,030
-634,824	551,365	-0,058	-0,101
-633,809	-200,000	0,001	0,023
-632,795	-200,000	-0,011	0,052
-631,780	82,139	-0,042	-0,033
-630,765	800,000	-0,016	0,035
-629,751	86,270	-0,028	0,022
-628,736	66,127	-0,016	0,011
-627,722	141,993	0,061	0,058
-626,707	-51,918	-0,046	0,015
-625,692	-85,509	0,063	-0,014
-624,678	-200,000	0,021	-0,162
-623,663	800,000	0,060	-0,147
-622,649	40,409	-0,110	-0,071
-621,634	800,000	0,038	0,076
-620,619	278,453	0,131	-0,169
-619,605	-79,403	0,025	-0,006
-618,590	153,553	-0,124	0,123
-617,576	216,757	0,215	0,247
-616,561	800,000	-0,010	-0,028
-615,546	18,980	-0,111	-0,064
-614,532	-200,000	-0,028	-0,129
-613,517	-77,176	-0,195	-0,049
-612,503	-176,625	0,121	0,002
-611,488	237,984	-0,065	0,078
-610,474	259,297	-0,058	-0,073
-609,459	800,000	-0,011	0,023
-608,444	-12,397	0,063	0,029
-607,430	-54,069	-0,154	0,050
-606,415	-144,202	-0,068	-0,005
-605,401	321,211	0,072	-0,099
-604,386	-136,724	0,117	0,010
-603,371	-200,000	0,007	0,046
-602,357	-43,553	-0,048	0,018
-601,342	800,000	-0,056	0,163
-600,328	800,000	0,042	-0,110
-599,313	-77,202	-0,081	-0,020
-598,298	411,426	-0,068	-0,104
-597,284	-35,187	0,048	-0,019
-596,269	208,914	0,095	0,107
-595,255	-200,000	-0,008	0,063
-594,240	-87,883	0,085	-0,018
-593,225	110,724	0,050	-0,043
-592,211	170,037	-0,053	-0,055
-591,196	-146,033	-0,038	0,002
-590,182	800,000	-0,026	0,084
-589,167	61,401	0,134	0,096
-588,152	394,841	0,022	0,033
-587,138	-67,606	-0,129	0,036
-586,123	320,405	0,059	-0,082
-585,109	66,589	-0,073	-0,054
-584,094	258,035	-0,075	-0,093
-583,079	-159,363	0,049	0,002
-582,065	-200,000	-0,016	0,109
-581,050	-30,261	0,045	-0,018
-580,036	-52,985	0,142	0,047
-579,021	800,000	0,037	-0,091
-578,006	-88,583	-0,112	-0,024
-576,992	-38,900	0,117	-0,044
-575,977	247,754	-0,032	0,039
-574,963	-137,091	0,080	0,006
-573,948	-59,714	0,033	-0,010
-572,934	-5,345	0,047	0,023
-571,919	800,000	-0,011	0,022
-570,904	-169,772	-0,035	-0,001
-569,890	800,000	0,034	0,071
-568,875	-44,115	-0,096	-0,035
-567,861	183,927	0,070	-0,074
-566,846	-33,600	0,076	0,030
-565,831	800,000	-0,028	0,088
-564,817	-147,086	-0,056	-0,003
-563,802	-200,000	-0,012	-0,183
-562,788	89,076	0,079	0,063
-561,773	-149,471	-0,087	0,005
-560,758	800,000	-0,015	0,035
-559,744	637,735	0,013	0,024
-558,729	800,000	-0,022	0,045
-557,715	-200,000	-0,009	0,043
-556,700	-114,543	-0,103	0,014
-555,685	-200,000	0,001	-0,071
-554,671	-200,000	-0,007	0,027
-553,656	-200,000	-0,019	-0,072
-552,642	800,000	0,030	-0,066
-551,627	800,000	0,020	0,042
-550,612	-92,168	-0,069	-0,014
-549,598	-200,000	-0,009	0,041
-548,583	-173,866	-0,027	-0,001
-547,569	83,911	-0,088	0,069
-546,554	89,043	0,088	0,070
-545,539	89,645	-0,106	-0,085
-544,525	800,000	0,051	-0,145
-543,510	800,000	-0,025	-0,054
-542,496	-135,068	-0,100	-0,009
-541,481	-200,000	-0,021	-0,067
-540,466	292,875	-0,011	-0,014
-539,452	-200,000	-0,008	-0,069
-538,437	-11,700	0,023	-0,011
-537,423	392,509	0,032	-0,048
-536,408	-121,888	0,050	0,006
-535,393	412,027	0,075	-0,115
-534,379	-122,861	-0,066	-0,008
-533,364	455,352	0,100	-0,161
-532,350	309,805	-0,047	0,063
-531,335	-200,000	-0,005	0,075
-530,321	-200,000	0,034	0,184
-529,306	-33,773	-0,071	0,028
-528,291	25,678	-0,046	-0,028
-527,277	800,000	-0,005	-0,015
-526,262	-68,326	-0,038	0,011
-525,248	-200,000	0,017	-0,079
-524,233	-15,105	-0,096	-0,044
-523,218	-40,443	-0,161	-0,060
-522,204	-47,498	0,069	0,024
-521,189	-101,934	0,127	-0,022
-520,175	800,000	-0,018	-0,042
-519,160	397,664	-0,058	-0,087
-518,145	245,967	-0,107	-0,130
-517,131	-200,000	0,017	0,138
-516,116	-103,117	0,095	0,016
-515,102	-200,000	-0,001	0,210
-514,087	800,000	-0,036	-0,094
-513,072	185,813	0,016	-0,017
-512,058	-68,969	-0,142	-0,039
-511,043	800,000	-0,035	-0,104
-510,029	232,107	-0,075	-0,088
-509,014	191,161	-0,071	0,077
-507,999	-3,250	0,072	-0,036
-506,985	32,824	0,062	0,038
-505,970	800,000	0,054	-0,109
-504,956	247,919	-0,051	-0,062
-503,941	15,628	0,124	0,070
-502,926	800,000	0,035	-0,080
-501,912	-173,583	0,122	0,003
-500,897	-105,417	-0,130	0,021
-499,883	702,519	-0,020	0,039
-498,868	-200,000	-0,003	-0,114
-497,853	113,556	0,106	-0,092
-496,839	-97,803	0,126	0,023
-495,824	-200,000	0,010	0,252
-494,810	800,000	-0,038	0,110
-493,795	-90,961	0,079	-0,016
-492,781	-200,000	-0,021	-0,067
-491,766	11,423	0,060	0,033
-490,751	-200,000	-0,006	-0,022
-489,737	800,000	-0,058	0,124
-488,722	-200,000	0,018	0,187
-487,708	-18,169	0,071	0,032
-486,693	-200,000	0,014	0,077
-485,678	-200,000	-0,002	0,029
-484,664	-107,311	-0,107	-0,017
-483,649	75,093	0,021	-0,016
-482,635	-18,767	-0,180	0,080
-481,620	-22,941	0,202	0,087
-480,605	800,000	0,005	-0,014
-479,591	70,591	0,088	-0,065
-478,576	-102,748	0,079	0,013
-477,562	-200,000	0,001	-0,129
-476,547	-94,616	0,078	-0,015
-475,532	-11,418	0,085	-0,040
-474,518	800,000	0,083	0,186
-473,503	625,277	0,047	0,086
-472,489	800,000	-0,026	0,064
-471,474	8,474	-0,036	-0,019
-470,459	-200,000	0,011	0,108
-469,445	-140,949	-0,143	-0,010
-468,430	-200,000	-0,000	-0,125
-467,416	130,821	0,091	0,083
-466,401	-124,400	0,162	0,018
-465,386	-200,000	0,027	-0,088
-464,372	97,896	-0,049	0,040
-463,357	-200,000	0,020	0,064
-462,343	-72,649	-0,027	0,007
-461,328	800,000	0,019	0,050
-460,313	800,000	0,042	-0,112
-459,299	-200,000	-0,032	-0,102
-458,284	435,608	-0,042	0,066
-457,270	800,000	-0,007	-0,021
-456,255	60,604	0,024	0,017
-455,241	-21,964	-0,103	0,045
-454,226	-9,455	-0,108	-0,051
-453,211	800,000	0,041	-0,107
-452,197	-60,362	0,044	0,013
-451,182	-200,000	-0,011	0,168
-450,168	-200,000	0,018	0,071
-449,153	-109,586	-0,063	0,009
-448,138	-10,326	-0,138	0,066
-447,124	487,157	0,075	-0,123
-446,109	-200,000	0,025	0,104
-445,095	-65,978	0,094	0,027
-444,080	105,120	0,043	0,036
-443,065	140,354	-0,053	0,050
-442,051	167,372	-0,029	0,030
-441,036	-99,118	-0,115	0,021
-440,022	60,733	-0,099	-0,070
-439,007	-114,644	0,125	-0,017
-437,992	-107,468	-0,073	-0,011
-436,978	-106,568	0,033	0,005
-435,963	-137,301	0,113	0,009
-434,949	45,099	-0,139	-0,092
-433,934	-200,000	-0,005	-0,072
-432,919	-167,395	-0,035	-0,001
-431,905	743,535	-0,021	-0,040
-430,890	-200,000	0,010	-0,124
-429,876	800,000	0,040	0,090
-428,861	800,000	-0,080	0,193
-427,846	540,469	0,075	0,129
-426,832	800,000	-0,007	-0,016
-425,817	800,000	-0,020	0,057
-424,803	149,626	0,028	-0,027
-423,788	147,232	-0,016	-0,016
-422,773	-114,559	0,147	-0,020
-421,759	-200,000	0,002	0,079
-420,744	-151,680	-0,193	0,010
-419,730	-56,805	-0,105	-0,033
-418,715	-67,423	0,034	-0,010
-417,701	800,000	0,008	0,025
-416,686	-46,595	-0,173	-0,060
-415,671	-200,000	-0,002	0,122
-414,657	-34,837	0,030	0,012
-413,642	0,254	-0,087	-0,044
-412,628	-36,858	-0,119	-0,045
-411,613	-140,666	0,148	0,011
-410,598	-80,704	-0,046	-0,011
-409,584	277,241	0,103	0,131
-408,569	68,829	-0,034	-0,025
-407,555	-176,327	-0,147	-0,003
-406,540	-111,637	-0,018	-0,003
-405,525	-200,000	0,002	0,110
-404,511	67,068	-0,086	-0,063
-403,496	-1,948	0,071	-0,035
-402,482	27,015	-0,078	0,047
-401,467	367,592	0,033	-0,048
-400,452	800,000	-0,047	-0,118
-399,438	-129,906	0,057	0,006
-398,423	46,618	0,010	0,006
-397,409	-185,409	-0,113	0,001
-396,394	8,620	0,128	0,069
-395,379	262,342	0,111	-0,137
-394,365	800,000	-0,021	-0,063
-393,350	164,515	0,058	-0,058
-392,336	127,612	-0,140	0,127
-391,321	214,336	0,092	0,105
-390,306	800,000	-0,024	-0,065
-389,292	-64,237	0,040	0,012
-388,277	-20,495	-0,097	-0,042
-387,263	-80,928	-0,114	0,027
-386,248	800,000	0,060	0,126
-385,233	-85,976	0,091	-0,020
-384,219	137,275	-0,051	0,047
-383,204	-11,373	0,094	-0,044
-382,190	21,861	0,009	0,005
-381,175	-200,000	0,038	0,133
-380,160	-47,348	0,008	-0,003
-379,146	219,530	-0,068	-0,078
-378,131	-115,088	0,146	0,020
-377,117	-172,601	-0,028	-0,001
-376,102	-200,000	0,007	-0,034
-375,088	-89,276	-0,109	0,023
-374,073	377,066	0,035	-0,051
-373,058	234,173	-0,077	-0,091
-372,044	26,291	0,042	-0,025
-371,029	251,180	0,050	0,061
-370,015	-200,000	-0,006	-0,106
-369,000	46,092	0,083	-0,055
-367,985	-200,000	0,012	-0,079
-366,971	47,107	-0,130	-0,087
-365,956	800,000	-0,020	0,062
-364,942	-200,000	0,023	0,088
-363,927	-132,673	0,076	-0,007
-362,912	-68,571	-0,064	0,018
-361,898	-171,086	-0,165	-0,004
-360,883	206,441	-0,097	0,108
-359,869	-200,000	-0,011	-0,099
-358,854	792,602	0,052	0,102
-357,839	91,901	0,100	0,081
-356,825	13,713	-0,051	-0,028
-355,810	348,612	-0,029	-0,041
-354,796	-200,000	-0,023	-0,138
-353,781	406,731	-0,133	-0,201
-352,766	639,450	-0,034	0,063
-351,752	-89,045	-0,088	-0,018
-350,737	-54,615	0,153	0,049
-349,723	339,755	-0,068	0,094
-348,708	-104,944	0,086	-0,014
-347,693	-114,666	0,102	-0,014
-346,679	-151,492	-0,173	0,009
-345,664	-200,000	0,006	-0,069
-344,650	-128,082	-0,170	-0,017
-343,635	205,789	0,060	0,067
-342,620	800,000	0,050	0,105
-341,606	-200,000	-0,022	-0,074
-340,591	71,911	-0,055	-0,041
-339,577	800,000	-0,009	0,021
-338,562	23,225	-0,050	0,029
-337,548	-161,968	0,112	0,004
-336,533	-71,006	0,074	-0,020
-335,518	496,452	-0,036	-0,059
-334,504	759,511	0,052	0,101
-333,489	-5,196	-0,066	0,032
-332,475	-0,504	0,028	0,014
-331,460	628,670	0,023	0,041
-330,445	-200,000	0,016	-0,070
-329,431	121,938	0,065	0,058
-328,416	-11,477	0,175	0,082
-327,402	-32,194	-0,029	0,011
-326,387	800,000	0,015	-0,041
-325,372	240,535	0,061	-0,073
-324,358	-88,152	-0,072	0,015
-323,343	527,995	0,088	0,149
-322,329	-105,362	0,154	-0,025
-321,314	286,832	0,052	0,067
-320,299	800,000	-0,048	0,097
-319,285	186,256	-0,028	-0,029
-318,270	-200,000	0,007	0,063
-317,256	-168,051	-0,142	0,004
-316,241	-105,595	-0,136	-0,022
-315,226	-200,000	0,003	0,092
-314,212	-44,184	0,080	0,028
-313,197	800,000	-0,017	-0,038
-312,183	360,665	0,070	-0,100
-311,168	-200,000	-0,017	-0,123
-310,153	74,425	-0,147	-0,110
-309,139	146,158	-0,044	0,042
-308,124	-41,292	-0,046	0,017
-307,110	-200,000	-0,018	0,169
-306,095	-200,000	-0,003	0,072
-305,080	-142,128	-0,065	0,005
-304,066	-200,000	0,008	-0,111
-303,051	19,350	0,109	0,062
-302,037	137,423	-0,060	-0,056
-301,022	168,633	-0,090	0,091
-300,008	-31,625	0,192	0,076
-298,993	-200,000	0,033	-0,137
-297,978	259,589	0,088	0,109
-296,964	110,751	-0,035	-0,030
-295,949	-63,233	-0,029	-0,009
-294,935	73,194	-0,113	-0,084
-293,920	-200,000	-0,002	-0,076
-292,905	800,000	-0,049	0,127
-291,891	8,930	0,129	0,069
-290,876	-77,838	0,094	0,023
-289,862	166,814	-0,078	0,079
-288,847	641,569	0,061	-0,111
-287,832	-200,000	-0,020	-0,064
-286,818	-200,000	0,025	0,086
-285,803	-200,000	-0,025	0,131
-284,789	253,258	-0,069	0,084
-283,774	-74,503	-0,146	0,037
-282,759	-82,755	-0,081	-0,018
-281,745	192,792	0,040	0,043
-280,730	31,771	-0,058	-0,036
-279,716	9,391	0,106	-0,057
-278,701	800,000	0,023	0,068
-277,686	79,366	0,092	-0,070
-276,672	123,287	-0,062	-0,056
-275,657	519,455	0,072	-0,120
-274,643	-50,296	-0,094	-0,031
-273,628	702,374	-0,064	-0,120
-272,613	-200,000	-0,010	-0,089
-271,599	353,985	0,089	-0,126
-270,584	357,312	0,078	-0,112
-269,570	127,940	-0,075	0,068
-268,555	-67,429	0,111	0,031
-267,540	800,000	0,032	-0,086
-266,526	-93,716	-0,053	-0,010
-265,511	5,241	-0,109	0,057
-264,497	210,568	-0,047	0,052
-263,482	45,823	0,071	-0,047
-262,467	29,906	0,017	0,010
-261,453	-200,000	-0,012	0,060
-260,438	-200,000	0,010	0,115
-259,424	190,566	-0,069	0,074
-258,409	127,483	-0,100	0,090
-257,395	-5,719	0,137	-0,066
-256,380	-110,581	-0,128	0,019
-255,365	32,158	-0,088	0,054
-254,351	76,360	0,090	-0,068
-253,336	141,992	0,043	0,041
-252,322	800,000	-0,043	-0,133
-251,307	281,431	-0,068	-0,087
-250,292	58,084	0,119	0,083
-249,278	293,646	0,030	-0,040
-248,263	800,000	0,038	0,105
-247,249	-200,000	0,042	0,137
-246,234	-33,957	-0,044	0,017
-245,219	78,835	-0,012	0,009
-244,205	-111,934	-0,084	-0,012
-243,190	36,979	-0,055	0,035
-242,176	-26,896	0,149	0,062
-241,161	27,916	0,121	0,072
-240,146	-80,859	-0,153	-0,036
-239,132	17,283	-0,037	0,021
-238,117	-79,982	-0,058	-0,014
-237,103	-110,572	-0,058	-0,009
-236,088	-150,610	0,085	-0,005
-235,073	40,846	-0,069	-0,044
-234,059	-12,842	0,124	0,057
-233,044	-30,560	0,061	0,025
-232,030	800,000	0,013	-0,038
-231,015	105,507	-0,076	-0,063
-230,000	-200,000	-0,017	-0,115
-228,986	800,000	0,093	-0,191
-227,971	33,919	-0,038	0,023
-226,957	800,000	-0,054	-0,122
-225,942	800,000	0,052	0,103
-224,927	-1,778	-0,127	0,063
-223,913	-160,246	-0,068	0,003
-222,898	564,813	-0,048	-0,083
-221,884	49,782	0,060	0,040
-220,869	324,317	-0,006	-0,009
-219,855	238,252	0,151	0,178
-218,840	413,153	0,067	0,101
-217,825	-44,536	0,030	-0,011
-216,811	274,808	-0,037	0,047
-215,796	800,000	0,038	-0,088
-214,782	-200,000	0,032	-0,113
-213,767	16,044	0,038	0,021
-212,752	399,294	0,028	-0,042
-211,738	800,000	-0,058	-0,114
-210,723	-26,007	0,144	-0,060
-209,709	515,006	0,070	-0,117
-208,694	-200,000	0,026	0,085
-207,679	-200,000	0,010	-0,062
-206,665	-200,000	0,001	0,012
-205,650	-200,000	-0,006	0,055
-204,636	800,000	0,010	0,021
-203,621	12,403	-0,037	0,020
-202,606	661,257	-0,047	-0,086
-201,592	20,810	-0,095	-0,055
-200,577	37,304	0,101	-0,063
-199,563	-200,000	-0,037	-0,123
-198,548	-106,997	0,043	-0,007
-197,533	-200,000	-0,007	-0,053
-196,519	411,750	-0,032	0,049
-195,504	-200,000	-0,024	-0,103
-194,490	120,428	0,020	-0,018
-193,475	800,000	0,016	0,041
-192,460	-200,000	-0,003	-0,019
-191,446	800,000	-0,055	0,142
-190,431	-91,573	0,165	0,033
-189,417	605,568	0,059	0,104
-188,402	305,968	0,047	0,063
-187,387	-200,000	0,025	-0,145
-186,373	-200,000	0,024	-0,163
-185,358	-200,000	0,001	-0,205
-184,344	223,031	0,093	-0,106
-183,329	286,828	0,036	-0,046
-182,315	2,225	0,027	0,014
-181,300	-68,600	0,067	-0,018
-180,285	-200,000	-0,020	-0,069
-179,271	-200,000	-0,012	-0,106
-178,256	800,000	0,022	-0,047
-177,242	-84,114	0,092	0,021
-176,227	541,552	-0,059	0,100
-175,212	800,000	-0,033	0,102
-174,198	-144,980	0,160	0,010
-173,183	-200,000	-0,003	-0,029
-172,169	438,560	-0,052	0,080
-171,154	-56,268	-0,071	-0,022
-170,139	-70,570	-0,071	-0,019
-169,125	678,538	0,055	0,101
-168,110	139,135	-0,109	0,101
-167,096	800,000	-0,047	0,105
-166,081	-200,000	-0,020	-0,073
-165,066	465,450	-0,046	-0,073
-164,052	189,123	-0,038	0,040
-163,037	-39,596	0,093	0,034
-162,023	130,683	0,033	0,030
-161,008	-200,000	-0,003	-0,055
-159,993	800,000	0,057	0,171
-158,979	-182,241	0,107	0,001
-157,964	564,045	-0,129	-0,222
-156,950	800,000	0,019	-0,058
-155,935	-60,271	0,038	0,011
-154,920	-97,517	0,098	-0,018
-153,906	-200,000	-0,003	0,029
-152,891	-200,000	0,012	0,159
-151,877	738,047	-0,048	0,091
-150,862	0,818	-0,162	-0,082
-149,847	800,000	0,042	-0,087
-148,833	339,677	0,078	-0,108
-147,818	800,000	-0,012	-0,027
-146,804	211,693	-0,040	-0,044
-145,789	-200,000	-0,013	0,115
-144,775	-200,000	0,019	0,095
-143,760	-62,568	-0,087	-0,025
-142,745	-200,000	0,013	-0,148
-141,731	-87,709	-0,107	-0,023
-140,716	-200,000	0,015	0,104
-139,702	690,490	0,058	0,107
-138,687	453,408	-0,006	-0,009
-137,672	-96,385	0,033	0,006
-136,658	-101,014	-0,067	-0,011
-135,643	184,460	0,016	0,017
-134,629	-200,000	-0,034	0,143
-133,614	364,800	0,071	0,102
-132,599	-200,000	0,011	0,065
-131,585	800,000	0,011	-0,032
-130,570	-200,000	-0,006	0,069
-129,556	77,380	0,138	-0,104
-128,541	-200,000	0,001	-0,085
-127,526	495,871	0,018	-0,029
-126,512	189,667	-0,065	0,069
-125,497	-76,006	-0,088	0,022
-124,483	-6,702	0,057	-0,028
-123,468	-178,957	-0,151	-0,002
-122,453	667,436	0,020	-0,037
-121,439	551,008	0,042	-0,071
-120,424	-151,230	-0,061	-0,003
-119,410	292,147	0,102	-0,132
-118,395	-200,000	-0,009	-0,109
-117,380	-112,441	0,053	0,007
-116,366	27,425	-0,114	-0,068
-115,351	82,163	-0,043	0,033
-114,337	317,016	0,084	-0,112
-113,322	374,242	0,053	-0,077
-112,307	-122,116	0,130	-0,015
-111,293	-155,239	0,122	0,006
-110,278	329,565	-0,035	0,047
-109,264	-200,000	-0,012	0,051
-108,249	800,000	-0,051	0,158
-107,234	717,022	0,018	-0,034
-106,220	274,793	-0,040	0,050
-105,205	-129,072	0,128	0,013
-104,191	51,669	-0,030	0,020
-103,176	-126,096	-0,082	0,009
-102,162	512,986	0,012	0,021
-101,147	71,648	-0,034	0,025
-100,132	749,447	0,065	-0,124
-99,118	250,042	0,058	-0,070
-98,103	422,406	0,022	0,034
-97,089	-200,000	0,039	0,149
-96,074	-200,000	0,006	0,037
-95,059	-200,000	0,022	0,096
-94,045	-113,292	-0,021	0,003
-93,030	621,894	-0,079	-0,141
-92,016	304,845	0,056	-0,074
-91,001	-80,733	0,086	-0,020
-89,986	-31,653	0,121	-0,048
-88,972	-163,847	-0,094	0,003
-87,957	224,161	-0,049	0,056
-86,943	-47,686	-0,054	-0,018
-85,928	159,714	-0,031	0,031
-84,913	128,536	-0,063	-0,057
-83,899	320,891	0,015	0,021
-82,884	521,792	0,049	0,082
-81,870	-200,000	0,028	-0,100
-80,855	800,000	-0,035	-0,075
-79,840	395,405	-0,048	-0,071
-78,826	-111,560	0,082	0,012
-77,811	273,698	-0,128	-0,160
-76,797	327,737	0,100	-0,136
-75,782	-200,000	0,010	-0,070
-74,767	630,927	-0,015	-0,027
-73,753	-114,428	0,053	-0,007
-72,738	-15,400	0,093	-0,042
-71,724	-7,421	-0,080	-0,038
-70,709	-200,000	-0,001	0,052
-69,694	-200,000	0,016	0,055
-68,680	224,735	0,009	0,010
-67,665	146,322	0,071	0,067
-66,651	228,635	-0,064	0,074
-65,636	-200,000	0,016	-0,107
-64,622	-56,891	-0,049	0,015
-63,607	707,219	-0,001	0,001
-62,592	-169,164	-0,119	0,003
-61,578	-67,811	0,057	0,016
-60,563	30,280	0,066	-0,040
-59,549	-200,000	-0,033	0,157
-58,534	42,940	-2,048	-1,316
-57,519	531,341	-1,177	-1,972
-56,505	-200,000	-0,332	-4,396
-55,490	505,132	0,866	1,422
-54,476	800,000	5,212	11,122
-53,461	-200,000	21,773	339,390
-52,446	800,000	760,504	2308,020
-51,432	536,726	1655,115	2783,965
-50,417	69,810	1652,493	1200,927
-49,403	16,754	1527,064	850,215
-48,388	10,981	1451,009	780,062
-47,373	19,127	1443,157	814,748
-46,359	14,401	1431,990	786,033
-45,344	9,291	1427,948	759,547
-44,330	9,218	1426,112	758,194
-43,315	9,140	1424,315	756,839
-42,300	9,169	1422,547	756,006
-41,286	9,270	1421,096	755,685
-40,271	9,188	1420,186	754,782
-39,257	9,142	1419,174	753,999
-38,242	9,208	1417,749	753,523
-37,227	9,218	1416,696	752,980
-36,213	9,193	1415,441	752,162
-35,198	9,180	1414,434	751,538
-34,184	9,236	1413,135	751,079
-33,169	9,105	1412,025	749,845
-32,154	9,164	1411,133	749,620
-31,140	9,172	1409,744	748,891
-30,125	9,219	1408,618	748,482
-29,111	9,202	1407,365	747,705
-28,096	9,174	1406,189	746,919
-27,082	9,150	1404,873	746,082
-26,067	9,132	1403,937	745,469
-25,052	9,152	1402,869	744,968
-24,038	9,154	1401,904	744,436
-23,023	9,129	1400,924	743,766
-22,009	9,150	1399,873	743,278
-20,994	9,152	1398,978	742,782
-19,979	9,179	1398,013	742,367
-18,965	9,119	1397,032	741,539
-17,950	9,137	1396,163	741,131
-16,936	9,107	1395,196	740,446
-15,921	9,059	1394,264	739,703
-14,906	9,061	1393,347	739,193
-13,892	9,116	1392,260	738,842
-12,877	9,121	1391,560	738,464
-11,863	9,083	1390,879	737,897
-10,848	9,072	1389,743	737,218
-9,833	9,026	1388,927	736,544
-8,819	8,997	1388,046	735,911
-7,804	9,029	1387,013	735,484
-6,790	8,991	1386,001	734,740
-5,775	8,964	1385,078	734,096
-4,760	8,932	1384,100	733,405
-3,746	9,009	1383,111	733,204
-2,731	9,017	1382,340	732,802
-1,717	8,949	1381,458	731,996
-0,702	9,018	1379,570	731,281
0,313	12,929	1291,702	702,527
1,327	28,745	683,595	407,346
2,342	44,577	117,897	76,280
3,356	-2,053	16,479	8,136
4,371	7,334	3,643	1,913
5,386	-11,107	1,224	0,567
6,400	800,000	0,252	0,617
7,415	61,609	-0,217	-0,152
8,429	45,099	-0,311	-0,202
9,444	185,208	-0,240	-0,251
10,459	-0,061	-0,335	-0,168
11,473	14,832	-0,297	-0,163
12,488	79,722	-0,271	-0,205
13,502	20,135	-0,400	-0,227
14,517	137,397	-0,234	-0,215
15,531	58,040	-0,379	-0,261
16,546	-17,993	-0,297	-0,131
17,561	333,849	-0,311	-0,425
18,575	-137,226	-0,152	0,012
19,590	-20,341	-0,233	-0,100
20,604	-68,308	-0,171	0,047
21,619	30,961	-0,425	-0,256
22,634	246,250	-0,392	-0,466
23,648	77,333	-0,439	-0,328
24,663	57,957	-0,331	-0,228
25,677	121,646	-0,319	-0,280
26,692	85,736	-0,346	-0,268
27,707	800,000	-0,071	-0,147
28,721	-7,336	-0,308	-0,146
29,736	126,998	-0,353	-0,315
30,750	395,324	-0,297	-0,436
31,765	63,305	-0,399	-0,281
32,780	405,579	-0,312	-0,465
33,794	58,891	-0,329	-0,227
34,809	93,081	-0,239	-0,190
35,823	-22,290	-0,411	-0,175
36,838	100,392	-0,336	-0,274
37,853	242,419	-0,314	-0,370
38,867	11,915	-0,408	-0,220
39,882	62,868	-0,361	-0,254
40,896	69,309	-0,326	-0,236
41,911	70,311	-0,271	-0,196
42,926	354,481	-0,164	-0,230
43,940	229,542	-0,267	-0,307
44,955	449,229	-0,230	-0,357
45,969	79,696	-0,380	-0,286
46,984	82,852	-0,193	-0,148
47,999	-25,283	-0,261	-0,108
49,013	286,291	-0,233	-0,296
50,028	-200,000	-0,052	-0,300
51,042	31,680	-0,378	-0,228
52,057	369,179	-0,223	-0,318
53,071	223,755	-0,241	-0,274
54,086	211,084	-0,255	-0,282
55,101	135,409	-0,240	-0,219
56,115	84,977	-0,361	-0,278
57,130	16,498	-0,342	-0,189
58,144	214,032	-0,306	-0,340
59,159	47,717	-0,509	-0,333
60,174	69,551	-0,348	-0,251
61,188	45,528	-0,356	-0,230
62,203	116,330	-0,336	-0,288
63,217	468,404	-0,235	-0,371
64,232	-73,617	-0,330	-0,084
65,247	-46,842	-0,302	-0,103
66,261	37,018	-0,295	-0,183
67,276	26,117	-0,394	-0,230
68,290	216,488	-0,235	-0,262
69,305	9,504	-0,286	-0,151
70,320	59,862	-0,229	-0,158
71,334	127,264	-0,280	-0,249
72,349	37,499	-0,241	-0,150
73,363	79,720	-0,402	-0,302
74,378	-8,817	-0,364	-0,170
75,393	3,092	-0,360	-0,183
76,407	-55,615	-0,314	-0,098
77,422	-45,483	-0,281	-0,097
78,436	93,708	-0,242	-0,192
79,451	231,239	-0,263	-0,303
80,466	38,494	-0,339	-0,211
81,480	109,772	-0,292	-0,245
82,495	44,699	-0,428	-0,275
83,509	62,279	-0,210	-0,146
84,524	115,291	-0,141	-0,121
85,539	98,577	-0,250	-0,202
86,553	18,873	-0,240	-0,134
87,568	2,214	-0,281	-0,142
88,582	47,816	-0,298	-0,194
89,597	-113,375	-0,270	-0,037
90,611	36,879	-0,388	-0,240
91,626	420,966	-0,155	-0,233
92,641	-75,948	-0,323	-0,079
93,655	44,599	-0,352	-0,226
94,670	57,312	-0,346	-0,236
95,684	378,643	-0,203	-0,292
96,699	0,509	-0,350	-0,174
97,714	-9,756	-0,243	-0,113
98,728	36,149	-0,181	-0,111
99,743	345,811	-0,155	-0,214
100,757	-7,329	-0,347	-0,164
101,772	77,854	-0,315	-0,235
102,787	68,006	-0,236	-0,169
103,801	-37,111	-0,320	-0,119
104,816	9,730	-0,207	-0,109
105,830	51,365	-0,166	-0,110
106,845	-139,974	-0,209	0,015
107,860	-67,811	-0,373	-0,101
108,874	102,984	-0,202	-0,165
109,889	482,793	-0,212	-0,337
110,903	89,325	-0,193	-0,150
111,918	32,196	-0,253	-0,152
112,933	261,367	-0,191	-0,231
113,947	72,282	-0,180	-0,131
114,962	445,349	-0,159	-0,244
115,976	133,913	-0,195	-0,177
116,991	17,900	-0,256	-0,142
118,006	125,809	-0,203	-0,179
119,020	23,988	-0,228	-0,131
120,035	1,943	-0,276	-0,138
121,049	194,802	-0,165	-0,175
122,064	3,910	-0,333	-0,169
123,079	-79,397	-0,286	-0,067
124,093	10,122	-0,238	-0,126
125,108	81,178	-0,126	-0,095
126,122	-10,099	-0,341	-0,157
127,137	254,164	-0,190	-0,228
128,151	579,263	-0,155	-0,265
129,166	210,478	-0,159	-0,175
130,181	493,536	-0,210	-0,338
131,195	-9,549	-0,375	-0,174
132,210	-36,365	-0,193	-0,072
133,224	134,544	-0,281	-0,254
134,239	339,768	-0,132	-0,181
135,254	210,595	-0,311	-0,341
136,268	-29,573	-0,229	-0,091
137,283	147,211	-0,235	-0,221
138,297	-135,441	-0,277	0,023
139,312	31,194	-0,270	-0,161
140,327	610,189	-0,120	-0,210
141,341	245,580	-0,171	-0,201
142,356	90,780	-0,259	-0,202
143,370	-0,385	-0,240	-0,118
144,385	-59,846	-0,186	-0,055
145,400	105,748	-0,276	-0,227
146,414	200,972	-0,218	-0,234
147,429	425,848	-0,187	-0,281
148,443	211,125	-0,156	-0,171
149,458	18,751	-0,256	-0,142
150,473	87,980	-0,176	-0,136
151,487	-16,835	-0,242	-0,106
152,502	39,319	-0,195	-0,121
153,516	73,717	-0,274	-0,200
154,531	109,027	-0,253	-0,211
155,546	21,208	-0,275	-0,155
156,560	64,286	-0,279	-0,195
157,575	30,416	-0,251	-0,149
158,589	11,693	-0,301	-0,160
159,604	66,245	-0,217	-0,153
160,619	208,471	-0,268	-0,292
161,633	7,920	-0,248	-0,129
162,648	34,449	-0,222	-0,135
163,662	569,471	-0,081	-0,138
164,677	612,619	-0,156	-0,273
165,692	22,904	-0,251	-0,143
166,706	50,097	-0,291	-0,191
167,721	19,997	-0,223	-0,125
168,735	145,589	-0,222	-0,207
169,750	-33,125	-0,310	-0,119
170,764	30,246	-0,248	-0,147
171,779	80,388	-0,188	-0,141
172,794	-133,406	-0,311	-0,027
173,808	36,236	-0,275	-0,168
174,823	66,840	-0,305	-0,215
175,837	281,954	-0,185	-0,231
176,852	43,973	-0,407	-0,259
177,867	40,975	-0,301	-0,188
178,881	377,810	-0,157	-0,223
179,896	173,992	-0,226	-0,227
180,910	212,489	-0,116	-0,128
181,925	89,728	-0,277	-0,215
182,940	248,611	-0,169	-0,199
183,954	117,287	-0,175	-0,150
184,969	85,655	-0,183	-0,140
185,983	83,905	-0,189	-0,143
186,998	135,356	-0,158	-0,142
188,013	-119,871	-0,135	-0,016
189,027	114,090	-0,237	-0,200
190,042	55,821	-0,318	-0,213
191,056	-80,319	-0,421	-0,097
192,071	281,571	-0,155	-0,193
193,086	408,944	-0,056	-0,083
194,100	18,098	-0,222	-0,122
195,115	82,896	-0,197	-0,148
196,129	743,341	-0,160	-0,300
197,144	160,040	-0,159	-0,153
198,159	145,547	-0,237	-0,220
199,173	40,362	-0,118	-0,074
200,188	8,344	-0,175	-0,091
201,202	-36,946	-0,218	-0,081
202,217	17,138	-0,172	-0,094
203,232	-80,646	-0,235	-0,054
204,246	28,862	-0,159	0,093
205,261	98,761	-0,256	-0,204
206,275	208,022	-0,126	-0,137
207,290	-22,944	-0,198	-0,082
208,304	-152,633	-0,184	0,009
209,319	293,893	-0,215	-0,272
210,334	337,408	-0,200	-0,270
211,348	212,030	-0,226	-0,247
212,363	492,979	-0,192	-0,306
213,377	326,335	-0,165	-0,219
214,392	189,060	-0,163	-0,169
215,407	6,095	-0,173	-0,088
216,421	40,624	-0,147	-0,091
217,436	-200,000	-0,045	-0,161
218,450	43,439	-0,125	-0,079
219,465	157,557	-0,180	-0,173
220,480	95,873	-0,158	-0,125
221,494	31,264	-0,231	-0,137
222,509	-84,064	-0,230	-0,050
223,523	-200,000	-0,014	-0,102
224,538	91,279	-0,139	-0,108
225,553	368,878	-0,161	-0,225
226,567	106,041	-0,135	-0,110
227,582	110,030	-0,257	-0,213
228,596	176,645	-0,084	-0,085
229,611	-115,568	-0,044	-0,006
230,626	670,833	-0,126	-0,227
231,640	207,134	-0,136	-0,147
232,655	203,894	-0,257	-0,276
233,669	172,912	-0,109	-0,108
234,684	110,974	-0,167	-0,139
235,699	-189,231	-0,166	0,001
236,713	56,901	-0,137	-0,092
237,728	-108,691	-0,168	-0,025
238,742	54,961	-0,201	-0,134
239,757	24,926	-0,261	-0,149
240,772	-200,000	-0,031	-0,099
241,786	223,707	-0,146	-0,163
242,801	133,131	-0,150	-0,134
243,815	137,771	-0,223	-0,202
244,830	-8,469	-0,226	-0,105
245,844	95,417	-0,180	-0,141
246,859	-72,870	-0,221	-0,056
247,874	-26,229	-0,230	-0,093
248,888	85,430	-0,236	-0,179
249,903	324,433	-0,162	-0,214
250,917	-128,982	-0,117	0,011
251,932	-37,897	-0,135	-0,049
252,947	-86,329	-0,170	-0,036
253,961	389,610	-0,162	-0,233
254,976	139,701	-0,244	-0,222
255,990	504,953	-0,124	-0,198
257,005	-53,087	-0,348	-0,110
258,020	-114,851	-0,210	-0,027
259,034	-49,666	-0,175	-0,057
260,049	-151,126	-0,212	-0,011
261,063	14,232	-0,087	-0,046
262,078	22,854	-0,179	-0,101
263,093	58,528	-0,343	-0,232
264,107	96,009	-0,081	-0,064
265,122	-176,978	-0,114	0,002
266,136	407,043	-0,166	-0,242
267,151	-73,599	-0,234	-0,058
268,166	377,236	-0,126	-0,178
269,180	-108,143	-0,179	-0,026
270,195	121,841	-0,123	-0,105
271,209	725,352	-0,076	-0,141
272,224	250,551	-0,149	-0,175
273,239	-3,940	-0,147	-0,070
274,253	-7,078	-0,162	-0,076
275,268	121,287	-0,149	-0,128
276,282	401,446	-0,135	-0,196
277,297	78,049	-0,200	-0,147
278,312	111,016	-0,161	-0,133
279,326	59,710	-0,126	-0,085
280,341	-200,000	0,037	-0,189
281,355	21,405	-0,208	-0,116
282,370	-200,000	-0,054	-0,212
283,384	186,912	-0,215	-0,221
284,399	357,229	-0,170	-0,233
285,414	-200,000	-0,045	-0,164
286,428	60,761	-0,145	-0,099
287,443	-12,662	-0,171	-0,076
288,457	577,841	-0,085	-0,144
289,472	-131,624	-0,154	-0,014
290,487	65,881	-0,262	-0,183
291,501	206,143	-0,116	-0,124
292,516	-94,500	-0,210	-0,039
293,530	333,228	-0,125	-0,166
294,545	-23,184	-0,110	0,045
295,560	-64,217	-0,082	-0,023
296,574	-38,115	-0,247	-0,090
297,589	-65,138	-0,199	-0,055
298,603	800,000	-0,113	-0,224
299,618	16,274	-0,209	-0,113
300,633	-107,190	-0,135	0,020
301,647	38,323	-0,142	-0,086
302,662	800,000	-0,064	-0,151
303,676	-117,592	-0,199	-0,024
304,691	800,000	0,019	-0,054
305,706	800,000	-0,079	-0,177
306,720	230,197	-0,139	-0,156
307,735	58,454	-0,231	-0,155
308,749	800,000	0,050	-0,134
309,764	800,000	0,039	-0,100
310,779	93,527	-0,176	-0,137
311,793	-200,000	0,001	-0,019
312,808	90,545	-0,266	-0,205
313,822	266,775	-0,208	-0,251
314,837	-106,522	-0,037	0,006
315,852	375,597	-0,069	-0,097
316,866	30,499	-0,177	-0,104
317,881	9,965	-0,124	-0,064
318,895	47,591	-0,210	-0,134
319,910	76,856	-0,196	-0,142
320,925	800,000	-0,098	-0,213
321,939	41,614	-0,159	-0,098
322,954	-3,293	-0,130	-0,062
323,968	226,069	-0,133	-0,149
324,983	34,271	-0,145	0,087
325,997	-19,034	-0,105	-0,045
327,012	800,000	-0,066	-0,163
328,027	113,974	-0,117	-0,097
329,041	305,423	-0,111	-0,142
330,056	277,828	-0,022	-0,027
331,070	428,305	-0,078	0,116
332,085	800,000	-0,037	-0,082
333,100	-200,000	0,014	-0,127
334,114	489,375	-0,083	-0,130
335,129	429,400	-0,117	-0,174
336,143	-200,000	-0,013	-0,202
337,158	-33,464	-0,108	-0,041
338,173	800,000	-0,007	-0,019
339,187	122,294	-0,175	-0,150
340,202	507,519	-0,111	-0,177
341,216	-23,384	-0,111	-0,046
342,231	55,477	-0,115	-0,076
343,246	85,798	-0,097	-0,073
344,260	800,000	-0,098	-0,192
345,275	201,125	-0,146	-0,154
346,289	261,619	-0,075	-0,089
347,304	301,800	-0,150	-0,190
348,319	-200,000	-0,040	-0,198
349,333	-39,547	-0,148	-0,053
350,348	58,020	-0,212	-0,142
351,362	-57,271	-0,203	-0,061
352,377	-22,630	-0,054	-0,022
353,392	-200,000	-0,009	-0,106
354,406	-162,705	-0,168	-0,006
355,421	208,057	1306,796	1397,773
356,435	160,081	1466,518	1398,254
