DTS Sentinel unit serial number:	SN410029Multiplexer serial number:	ORYXHardware model number:	OX2-SRSoftware version number:	ORYX F/W v4,00 Oryx Data Collector v3.7.2.0data status	okinstallation	B3 Nyhavnadifferential loss correction	single-endedforward channel	channel 1reverse channel	N/Adate	2023/12/02time	07:37:30forward acquisition time	300,00reverse acquisition time	0,00gamma	499,1914k internal	0,3195k external	0,3195temperature offset calibration	1,0000default loss term (dB/km)	0,3820temperature slope calibration	1,0000multiplexer offset coefficient	1,0000multiplexer slope coefficient	1,0000fibre end	0,00T internal ref (°C)	15,62T ext. ref 1 (°C)	0,37T ext. ref 2 (°C)	0,37length (m)	temperature (°C)	Stokes	anti-Stokes-744,400	574,588	-0,160	-0,286
-743,385	-200,000	0,022	0,226
-742,371	800,000	-0,116	-0,254
-741,356	-200,000	-0,067	0,382
-740,342	-200,000	-0,045	-0,274
-739,327	-200,000	-0,028	0,336
-738,312	800,000	-0,097	-0,253
-737,298	-200,000	-0,065	0,280
-736,283	408,747	-0,125	-0,193
-735,269	-200,000	0,089	0,323
-734,254	188,860	-0,310	-0,339
-733,239	126,389	-0,129	0,119
-732,225	148,240	-0,174	-0,171
-731,210	-86,545	0,023	0,005
-730,196	800,000	-0,014	0,035
-729,181	-118,268	0,072	-0,009
-728,167	319,749	0,026	0,037
-727,152	800,000	0,036	-0,091
-726,137	18,874	0,025	-0,015
-725,123	800,000	0,033	-0,070
-724,108	796,504	0,044	0,089
-723,094	790,167	0,027	-0,055
-722,079	219,567	0,025	-0,029
-721,064	474,699	0,052	-0,086
-720,050	-200,000	0,001	0,043
-719,035	800,000	-0,048	0,100
-718,021	800,000	-0,079	-0,163
-717,006	-200,000	0,005	-0,081
-715,991	-200,000	-0,028	-0,134
-714,977	-95,668	-0,077	0,015
-713,962	279,336	0,019	-0,025
-712,948	-176,255	0,003	0,000
-711,933	32,050	0,075	-0,047
-710,918	242,228	-0,113	0,138
-709,904	300,150	0,025	0,034
-708,889	-136,898	-0,109	-0,009
-707,875	445,962	0,086	-0,138
-706,860	756,148	0,066	-0,131
-705,845	-17,950	-0,025	0,011
-704,831	-200,000	0,015	0,122
-703,816	-200,000	0,008	0,090
-702,802	-42,773	0,066	-0,024
-701,787	36,582	-0,115	-0,074
-700,772	233,459	-0,043	0,052
-699,758	800,000	-0,072	0,172
-698,743	-1,791	-0,044	-0,023
-697,729	520,538	0,073	0,125
-696,714	243,677	-0,016	0,019
-695,699	-200,000	0,026	0,104
-694,685	800,000	-0,025	0,054
-693,670	213,107	-0,096	-0,110
-692,656	106,837	-0,062	0,053
-691,641	-200,000	-0,009	0,037
-690,627	55,510	0,125	0,088
-689,612	-200,000	0,001	0,073
-688,597	-19,653	-0,060	-0,027
-687,583	729,344	-0,052	0,101
-686,568	200,017	-0,118	-0,132
-685,554	-200,000	0,002	-0,054
-684,539	-200,000	0,031	0,101
-683,524	197,548	0,045	0,050
-682,510	245,776	-0,025	-0,031
-681,495	306,690	0,030	-0,040
-680,481	519,911	0,014	-0,024
-679,466	800,000	0,042	0,099
-678,451	800,000	-0,064	-0,136
-677,437	-200,000	0,002	-0,052
-676,422	-68,719	-0,098	-0,027
-675,408	99,518	-0,169	0,142
-674,393	-200,000	-0,022	0,084
-673,378	113,874	0,080	-0,070
-672,364	271,791	-0,112	-0,144
-671,349	502,899	0,032	0,054
-670,335	800,000	-0,015	0,039
-669,320	-0,706	0,084	-0,043
-668,305	-200,000	-0,013	0,104
-667,291	-112,408	-0,194	0,028
-666,276	29,164	-0,070	0,043
-665,262	-200,000	0,005	-0,067
-664,247	707,754	0,026	0,050
-663,232	-200,000	-0,009	-0,053
-662,218	-151,870	-0,092	-0,005
-661,203	228,432	0,055	0,065
-660,189	-56,551	0,070	0,022
-659,174	-4,644	-0,141	0,071
-658,159	800,000	-0,017	-0,049
-657,145	-137,348	-0,118	-0,010
-656,130	99,830	0,052	-0,043
-655,116	800,000	0,025	0,061
-654,101	800,000	-0,022	-0,054
-653,086	338,817	0,065	0,092
-652,072	-48,444	0,116	-0,040
-651,057	502,866	-0,066	-0,112
-650,043	-200,000	-0,009	0,100
-649,028	800,000	0,072	-0,177
-648,014	-65,071	0,077	-0,022
-646,999	-200,000	0,008	0,072
-645,984	-31,104	-0,061	-0,025
-644,970	800,000	-0,036	0,084
-643,955	-36,008	-0,086	-0,033
-642,941	-200,000	-0,002	-0,230
-641,926	800,000	-0,009	-0,027
-640,911	-200,000	-0,002	0,236
-639,897	800,000	-0,043	-0,118
-638,882	129,001	-0,040	0,037
-637,868	161,522	-0,113	-0,115
-636,853	399,208	-0,102	-0,155
-635,838	93,505	0,053	0,044
-634,824	168,049	-0,055	0,056
-633,809	218,002	0,067	-0,078
-632,795	-108,892	0,140	0,021
-631,780	800,000	-0,049	0,143
-630,765	-16,050	0,099	-0,045
-629,751	-158,333	-0,124	0,005
-628,736	17,667	-0,117	-0,067
-627,722	-4,316	-0,156	0,078
-626,707	55,055	0,110	0,077
-625,692	105,100	0,155	0,133
-624,678	460,885	0,046	0,074
-623,663	-133,699	-0,140	0,012
-622,649	-200,000	-0,022	-0,147
-621,634	101,734	0,085	-0,072
-620,619	800,000	-0,029	-0,073
-619,605	430,201	0,067	-0,106
-618,590	-187,507	0,136	-0,001
-617,576	-200,000	-0,004	0,020
-616,561	-149,203	-0,134	-0,008
-615,546	-200,000	-0,006	-0,127
-614,532	800,000	0,032	-0,090
-613,517	-48,424	-0,078	-0,027
-612,503	-200,000	0,018	-0,138
-611,488	-200,000	0,028	0,117
-610,474	-200,000	0,028	0,218
-609,459	625,733	0,066	0,121
-608,444	-44,152	-0,013	0,005
-607,430	-200,000	0,001	-0,077
-606,415	461,464	-0,022	0,035
-605,401	-195,538	0,052	-0,000
-604,386	-33,354	0,029	-0,012
-603,371	-35,245	-0,051	-0,020
-602,357	107,250	0,045	-0,039
-601,342	800,000	0,009	0,022
-600,328	-200,000	-0,039	-0,163
-599,313	610,250	0,019	0,034
-598,298	79,307	-0,086	-0,066
-597,284	223,462	-0,057	-0,067
-596,269	-13,876	-0,019	0,009
-595,255	22,226	0,099	-0,058
-594,240	-103,686	0,017	-0,003
-593,225	-200,000	0,030	-0,113
-592,211	-200,000	-0,009	-0,049
-591,196	-42,876	-0,031	0,011
-590,182	193,758	-0,084	0,092
-589,167	-48,117	-0,057	0,020
-588,152	100,975	0,115	-0,097
-587,138	-172,598	-0,056	0,001
-586,123	205,508	-0,090	-0,101
-585,109	14,362	-0,078	-0,044
-584,094	111,602	0,043	0,038
-583,079	-54,939	-0,070	0,023
-582,065	193,791	-0,070	0,076
-581,050	-17,105	-0,098	0,045
-580,036	157,941	0,079	-0,079
-579,021	-200,000	0,046	-0,204
-578,006	237,210	-0,076	-0,092
-576,992	-200,000	-0,000	-0,126
-575,977	-28,858	0,041	0,017
-574,963	30,064	-0,083	0,051
-573,948	143,666	0,108	-0,104
-572,934	800,000	-0,011	-0,031
-571,919	153,901	-0,113	-0,112
-570,904	49,666	-0,057	0,039
-569,890	-73,177	0,068	-0,018
-568,875	800,000	0,022	0,053
-567,861	800,000	-0,033	-0,089
-566,846	-176,231	0,055	-0,001
-565,831	-121,991	-0,053	-0,006
-564,817	800,000	-0,035	-0,094
-563,802	74,444	0,118	-0,090
-562,788	-75,461	-0,040	0,010
-561,773	85,736	0,097	-0,077
-560,758	-200,000	-0,001	0,082
-559,744	800,000	-0,020	0,044
-558,729	389,083	-0,057	0,086
-557,715	46,747	-0,085	0,057
-556,700	800,000	-0,036	-0,105
-555,685	67,669	-0,046	0,034
-554,671	90,217	0,017	0,014
-553,656	-140,831	-0,154	-0,011
-552,642	50,095	-0,159	-0,108
-551,627	-64,997	0,105	-0,030
-550,612	494,791	-0,092	0,154
-549,598	800,000	-0,029	-0,080
-548,583	128,558	-0,081	0,075
-547,569	-109,090	-0,063	0,010
-546,554	-158,013	-0,105	-0,004
-545,539	336,597	0,058	0,081
-544,525	-200,000	0,020	0,172
-543,510	-200,000	-0,040	0,130
-542,496	400,950	0,055	0,084
-541,481	62,545	-0,089	-0,064
-540,466	-18,220	-0,020	-0,009
-539,452	-200,000	-0,009	0,220
-538,437	-200,000	-0,003	0,071
-537,423	800,000	-0,034	0,070
-536,408	-106,409	-0,123	0,020
-535,393	800,000	0,037	0,092
-534,379	-104,870	-0,103	0,017
-533,364	-69,995	0,121	-0,033
-532,350	769,806	0,054	0,106
-531,335	-53,006	-0,085	0,028
-530,321	-79,559	0,101	0,024
-529,306	-1,963	-0,132	-0,067
-528,291	-200,000	-0,008	0,076
-527,277	390,886	0,011	0,017
-526,262	-88,100	0,097	0,021
-525,248	341,285	-0,080	0,114
-524,233	-109,446	0,150	-0,023
-523,218	-41,818	0,079	-0,029
-522,204	77,066	-0,126	0,096
-521,189	228,327	0,050	0,059
-520,175	-125,206	-0,127	0,014
-519,160	-137,880	0,092	0,007
-518,145	-35,134	0,124	-0,049
-517,131	86,292	0,070	0,056
-516,116	-94,198	0,181	0,035
-515,102	-200,000	-0,010	0,062
-514,087	91,452	-0,036	0,029
-513,072	-124,351	-0,054	0,006
-512,058	-200,000	-0,035	0,121
-511,043	524,071	0,043	-0,074
-510,029	-33,162	-0,096	-0,038
-509,014	-200,000	-0,062	-0,246
-507,999	-200,000	0,028	-0,090
-506,985	-52,909	-0,098	0,032
-505,970	-51,839	-0,090	-0,030
-504,956	-200,000	-0,016	-0,092
-503,941	-37,506	-0,071	0,027
-502,926	82,947	0,089	0,069
-501,912	-200,000	-0,018	0,058
-500,897	-200,000	-0,013	-0,042
-499,883	-200,000	0,008	-0,042
-498,868	-195,975	-0,150	-0,001
-497,853	725,881	-0,081	-0,156
-496,839	-100,244	-0,054	0,010
-495,824	800,000	-0,026	-0,068
-494,810	-79,287	0,148	-0,036
-493,795	-101,460	0,087	-0,015
-492,781	-200,000	-0,015	0,061
-491,766	-200,000	-0,008	0,032
-490,751	530,678	-0,071	-0,122
-489,737	800,000	-0,071	-0,195
-488,722	-57,249	0,027	-0,008
-487,708	491,824	0,048	-0,079
-486,693	-156,307	0,100	0,004
-485,678	-200,000	0,041	-0,188
-484,664	56,334	-0,047	-0,033
-483,649	180,739	-0,147	-0,155
-482,635	-200,000	0,014	-0,148
-481,620	800,000	-0,020	0,049
-480,605	-18,059	-0,025	0,011
-479,591	800,000	0,009	0,024
-478,576	-100,131	0,103	0,018
-477,562	-76,943	-0,171	-0,043
-476,547	191,313	-0,045	0,049
-475,532	800,000	-0,021	-0,056
-474,518	87,643	0,110	-0,088
-473,503	-47,871	0,154	0,053
-472,489	175,335	0,073	-0,076
-471,474	452,106	0,035	-0,056
-470,459	52,148	-0,126	-0,086
-469,445	-122,750	-0,050	0,006
-468,430	-52,483	0,041	-0,014
-467,416	68,646	-0,112	0,083
-466,401	-31,419	-0,170	0,068
-465,386	-34,409	0,107	0,042
-464,372	-38,597	0,062	0,024
-463,357	-200,000	0,071	0,000
-462,343	-200,000	-0,017	0,056
-461,328	480,524	-0,042	-0,069
-460,313	-141,754	-0,014	0,001
-459,299	399,716	-0,029	-0,044
-458,284	782,780	-0,072	0,143
-457,270	6,451	0,198	-0,106
-456,255	17,023	-0,047	0,027
-455,241	-200,000	0,014	-0,117
-454,226	-200,000	0,009	-0,129
-453,211	-200,000	0,005	-0,034
-452,197	-0,223	0,130	-0,067
-451,182	-200,000	0,022	0,090
-450,168	55,320	0,010	-0,007
-449,153	-82,231	-0,024	0,006
-448,138	-94,053	0,039	-0,008
-447,124	800,000	-0,038	0,082
-446,109	461,935	0,011	0,018
-445,095	-126,760	0,046	-0,005
-444,080	-131,106	0,104	0,010
-443,065	-123,133	0,093	0,011
-442,051	455,497	-0,064	0,102
-441,036	35,127	-0,111	0,070
-440,022	-24,281	-0,070	-0,030
-439,007	-200,000	-0,007	-0,152
-437,992	-81,633	-0,096	0,022
-436,978	-200,000	-0,028	0,103
-435,963	-80,042	0,014	-0,003
-434,949	800,000	-0,052	0,108
-433,934	145,477	0,039	0,037
-432,919	-29,699	-0,114	-0,046
-431,905	-0,328	0,084	0,043
-430,890	244,350	0,063	0,076
-429,876	-200,000	0,011	0,077
-428,861	-200,000	-0,026	0,193
-427,846	800,000	0,037	0,103
-426,832	142,597	0,069	-0,066
-425,817	-95,294	0,027	0,005
-424,803	-159,346	-0,122	0,005
-423,788	-200,000	0,024	-0,089
-422,773	-77,728	0,066	0,016
-421,759	-19,457	0,100	0,044
-420,744	61,825	0,074	0,053
-419,730	17,031	-0,039	0,022
-418,715	800,000	0,022	-0,057
-417,701	-200,000	-0,024	0,091
-416,686	-152,577	0,155	-0,008
-415,671	615,254	-0,035	0,063
-414,657	-87,416	0,091	-0,020
-413,642	6,974	0,107	0,057
-412,628	800,000	0,010	-0,029
-411,613	26,241	-0,012	-0,007
-410,598	-62,976	0,047	-0,014
-409,584	-200,000	-0,027	-0,090
-408,569	273,508	-0,050	-0,064
-407,555	-103,388	-0,048	-0,008
-406,540	183,249	0,054	-0,058
-405,525	800,000	-0,046	0,114
-404,511	158,981	0,074	0,074
-403,496	375,661	0,023	-0,034
-402,482	-124,688	0,033	-0,004
-401,467	-200,000	0,016	0,086
-400,452	-200,000	-0,013	0,084
-399,438	286,882	-0,023	-0,030
-398,423	141,085	-0,036	-0,034
-397,409	-50,950	-0,079	0,027
-396,394	-200,000	0,001	0,057
-395,379	-200,000	0,028	-0,150
-394,365	269,039	0,056	0,071
-393,350	-87,042	0,032	-0,007
-392,336	155,752	0,143	-0,142
-391,321	1,527	0,110	0,056
-390,306	-121,458	-0,070	-0,008
-389,292	-105,822	-0,139	0,022
-388,277	197,698	-0,063	-0,069
-387,263	447,932	0,056	0,089
-386,248	-200,000	-0,013	-0,048
-385,233	213,083	-0,042	-0,048
-384,219	-200,000	-0,018	-0,060
-383,204	-200,000	-0,002	-0,047
-382,190	41,258	-0,041	0,026
-381,175	62,732	0,014	0,010
-380,160	-181,998	-0,183	-0,002
-379,146	71,252	0,038	0,028
-378,131	396,185	0,009	0,013
-377,117	-113,669	-0,063	0,009
-376,102	-74,388	-0,104	-0,027
-375,088	-200,000	-0,003	-0,099
-374,073	407,544	-0,078	0,119
-373,058	-200,000	0,001	0,127
-372,044	-1,047	-0,038	0,019
-371,029	295,722	0,038	-0,050
-370,015	-111,257	0,145	0,021
-369,000	605,544	-0,032	0,057
-367,985	-62,177	-0,099	0,029
-366,971	800,000	0,028	-0,059
-365,956	-200,000	0,021	-0,084
-364,942	-51,337	0,221	-0,074
-363,927	261,552	0,044	-0,055
-362,912	39,412	-0,061	0,039
-361,898	565,664	-0,057	-0,099
-360,883	21,298	-0,051	-0,030
-359,869	-53,832	-0,073	-0,024
-358,854	95,974	-0,030	-0,025
-357,839	180,306	0,082	0,087
-356,825	800,000	0,042	0,132
-355,810	-200,000	0,011	0,067
-354,796	-200,000	0,014	0,058
-353,781	161,460	-0,067	-0,067
-352,766	-99,616	-0,143	-0,026
-351,752	39,553	-0,030	-0,019
-350,737	-200,000	-0,022	0,081
-349,723	-18,745	0,069	0,031
-348,708	-200,000	0,027	0,119
-347,693	-155,204	0,076	-0,004
-346,679	210,410	-0,078	0,088
-345,664	33,181	-0,069	-0,043
-344,650	100,977	-0,067	-0,056
-343,635	-151,392	-0,054	-0,003
-342,620	-113,709	-0,045	0,006
-341,606	-200,000	0,008	-0,255
-340,591	-200,000	0,038	-0,141
-339,577	45,702	-0,093	-0,062
-338,562	-200,000	-0,003	-0,013
-337,548	-90,934	-0,056	-0,011
-336,533	26,583	0,103	0,062
-335,518	36,583	0,071	0,045
-334,504	-167,267	0,050	0,001
-333,489	656,198	0,014	-0,026
-332,475	478,051	0,019	-0,032
-331,460	445,081	-0,083	-0,131
-330,445	1,407	0,056	0,029
-329,431	80,008	0,083	0,064
-328,416	800,000	0,054	0,114
-327,402	-200,000	0,029	0,097
-326,387	65,932	-0,084	0,061
-325,372	800,000	0,007	0,020
-324,358	800,000	0,063	-0,130
-323,343	81,598	0,060	-0,047
-322,329	-59,216	-0,088	-0,027
-321,314	-24,942	0,161	0,068
-320,299	144,070	0,061	0,059
-319,285	-180,835	0,095	-0,001
-318,270	800,000	-0,016	-0,040
-317,256	-200,000	-0,009	-0,041
-316,241	432,877	0,019	0,029
-315,226	-97,730	0,137	0,025
-314,212	-30,631	0,060	-0,024
-313,197	27,940	0,064	0,039
-312,183	162,039	-0,091	0,092
-311,168	-182,009	0,077	-0,001
-310,153	559,133	-0,101	0,176
-309,139	2,583	-0,175	-0,090
-308,124	-200,000	0,018	0,060
-307,110	-95,813	0,080	-0,015
-306,095	-93,569	-0,124	0,024
-305,080	-198,154	0,013	0,000
-304,066	-200,000	0,022	0,071
-303,051	800,000	0,023	0,057
-302,037	-116,629	-0,081	0,011
-301,022	-77,504	0,113	-0,028
-300,008	68,461	-0,078	0,057
-298,993	114,665	0,106	-0,093
-297,978	244,630	-0,111	-0,133
-296,964	-135,257	-0,090	-0,008
-295,949	493,493	0,035	0,057
-294,935	-45,572	0,039	-0,014
-293,920	-200,000	0,019	-0,083
-292,905	18,456	0,126	0,072
-291,891	194,259	0,112	0,121
-290,876	114,631	-0,053	-0,047
-289,862	242,510	-0,043	-0,051
-288,847	-61,782	-0,050	0,015
-287,832	-29,888	0,053	-0,021
-286,818	-83,406	-0,074	-0,017
-285,803	-23,428	-0,021	-0,009
-284,789	152,691	0,070	0,069
-283,774	78,626	0,034	0,026
-282,759	216,753	0,062	-0,071
-281,745	17,026	-0,114	-0,064
-280,730	402,647	0,095	-0,143
-279,716	-11,445	0,140	0,066
-278,701	-200,000	0,020	0,076
-277,686	-28,877	0,040	0,016
-276,672	-138,732	-0,146	0,011
-275,657	-200,000	0,041	-0,183
-274,643	800,000	-0,057	-0,130
-273,628	-29,523	0,070	-0,028
-272,613	204,336	0,062	-0,069
-271,599	-200,000	0,025	0,081
-270,584	36,479	0,173	0,109
-269,570	800,000	-0,034	0,075
-268,555	800,000	0,046	0,104
-267,540	145,283	-0,068	-0,065
-266,526	86,696	-0,063	-0,050
-265,511	-90,512	-0,107	-0,022
-264,497	217,699	-0,096	0,109
-263,482	-60,449	0,183	0,055
-262,467	353,172	-0,055	0,078
-261,453	-70,858	0,163	-0,044
-260,438	800,000	-0,022	-0,052
-259,424	800,000	-0,035	0,098
-258,409	800,000	-0,056	-0,124
-257,395	-47,512	-0,021	0,007
-256,380	-200,000	-0,034	0,109
-255,365	9,513	-0,079	-0,043
-254,351	671,625	0,045	0,084
-253,336	-110,431	0,036	-0,005
-252,322	306,705	0,063	0,085
-251,307	-200,000	-0,004	-0,143
-250,292	455,373	0,052	-0,083
-249,278	21,128	0,038	-0,022
-248,263	412,021	0,131	0,200
-247,249	-60,774	-0,083	-0,025
-246,234	557,330	-0,048	-0,083
-245,219	800,000	-0,027	-0,064
-244,205	60,257	-0,045	-0,032
-243,190	208,737	0,082	-0,092
-242,176	104,113	0,058	-0,049
-241,161	-114,565	-0,065	0,009
-240,146	-37,038	0,087	0,033
-239,132	-200,000	0,010	-0,104
-238,117	151,606	-0,033	-0,033
-237,103	800,000	-0,025	-0,057
-236,088	800,000	0,067	-0,142
-235,073	-200,000	-0,017	0,094
-234,059	102,905	0,092	0,077
-233,044	140,571	-0,008	-0,008
-232,030	237,674	-0,072	0,086
-231,015	-65,699	-0,016	0,005
-230,000	-200,000	-0,012	0,041
-228,986	-26,603	0,092	-0,038
-227,971	108,348	0,028	-0,024
-226,957	-20,081	0,046	-0,020
-225,942	-200,000	0,004	0,142
-224,927	-124,518	-0,045	-0,005
-223,913	-131,526	-0,055	0,005
-222,898	420,615	-0,081	-0,125
-221,884	-112,733	0,098	-0,014
-220,869	800,000	0,063	0,153
-219,855	-59,558	0,079	0,024
-218,840	800,000	-0,040	0,120
-217,825	-144,737	0,073	0,005
-216,811	800,000	0,037	-0,114
-215,796	-38,287	-0,048	0,018
-214,782	-46,377	0,044	-0,015
-213,767	-200,000	0,028	0,103
-212,752	-55,084	0,076	0,024
-211,738	-200,000	-0,011	-0,055
-210,723	98,279	-0,039	0,032
-209,709	-200,000	-0,006	-0,142
-208,694	-200,000	-0,001	-0,021
-207,679	439,648	0,011	0,017
-206,665	-10,147	0,113	-0,053
-205,650	-200,000	0,009	-0,038
-204,636	707,139	0,053	0,100
-203,621	12,580	0,005	-0,003
-202,606	-103,788	-0,005	0,001
-201,592	-10,291	-0,060	0,028
-200,577	738,182	-0,025	-0,047
-199,563	-141,777	0,091	0,006
-198,548	-132,512	0,032	0,003
-197,533	-200,000	0,042	0,154
-196,519	-69,554	-0,074	-0,020
-195,504	-200,000	-0,004	0,073
-194,490	14,639	-0,125	-0,069
-193,475	216,911	0,008	-0,009
-192,460	295,674	0,038	-0,050
-191,446	800,000	0,079	0,194
-190,431	52,250	-0,044	0,030
-189,417	392,489	0,039	-0,059
-188,402	129,838	-0,055	-0,050
-187,387	800,000	0,072	0,223
-186,373	128,667	-0,111	0,101
-185,358	-200,000	-0,005	-0,044
-184,344	-200,000	0,008	0,056
-183,329	-98,474	0,154	0,028
-182,315	-200,000	-0,009	0,183
-181,300	29,728	0,090	0,055
-180,285	-86,080	0,079	-0,017
-179,271	206,428	-0,033	-0,037
-178,256	-200,000	0,036	-0,135
-177,242	659,409	-0,070	0,130
-176,227	42,275	0,068	0,044
-175,212	800,000	0,004	0,011
-174,198	-200,000	0,006	0,034
-173,183	800,000	0,010	-0,022
-172,169	135,632	-0,029	0,026
-171,154	-200,000	-0,005	0,041
-170,139	-200,000	0,031	0,099
-169,125	357,352	0,023	-0,032
-168,110	-25,144	0,051	0,022
-167,096	615,737	-0,060	-0,107
-166,081	199,272	-0,090	-0,098
-165,066	-200,000	-0,004	0,074
-164,052	-123,830	0,019	-0,002
-163,037	-200,000	0,001	-0,004
-162,023	-138,284	0,051	-0,004
-161,008	40,261	-0,051	0,033
-159,993	248,111	0,084	0,102
-158,979	-34,325	-0,069	-0,027
-157,964	258,960	0,016	-0,020
-156,950	-43,162	-0,114	-0,041
-155,935	-29,684	-0,065	-0,026
-154,920	800,000	-0,032	0,091
-153,906	800,000	-0,063	0,145
-152,891	299,969	-0,010	-0,013
-151,877	-109,854	0,007	0,001
-150,862	-200,000	-0,000	-0,139
-149,847	132,389	-0,022	0,021
-148,833	13,247	-0,073	0,040
-147,818	42,867	-0,010	0,006
-146,804	-200,000	-0,003	-0,011
-145,789	605,579	0,046	0,081
-144,775	184,678	0,029	-0,031
-143,760	92,383	-0,057	-0,046
-142,745	800,000	0,033	-0,073
-141,731	326,315	-0,028	-0,038
-140,716	340,054	0,076	0,106
-139,702	70,446	-0,029	0,021
-138,687	800,000	0,042	0,133
-137,672	495,168	0,073	0,120
-136,658	488,385	0,029	-0,047
-135,643	800,000	0,041	-0,105
-134,629	-200,000	-0,153	-0,000
-133,614	-104,938	0,137	0,022
-132,599	-32,731	0,051	0,020
-131,585	-200,000	-0,007	-0,066
-130,570	800,000	-0,014	-0,035
-129,556	175,649	0,080	0,083
-128,541	-200,000	-0,020	0,065
-127,526	144,937	0,091	-0,087
-126,512	800,000	0,011	0,032
-125,497	97,460	0,073	0,060
-124,483	27,834	0,040	0,024
-123,468	-200,000	-0,002	-0,014
-122,453	9,244	-0,093	-0,050
-121,439	-200,000	-0,003	0,062
-120,424	84,775	0,083	-0,065
-119,410	77,740	0,001	0,001
-118,395	221,544	0,065	0,074
-117,380	560,276	-0,093	0,161
-116,366	174,672	-0,119	-0,123
-115,351	793,500	0,012	-0,023
-114,337	-168,560	-0,100	-0,003
-113,322	-200,000	-0,023	-0,105
-112,307	-70,395	-0,181	-0,049
-111,293	435,012	0,044	0,069
-110,278	-42,107	0,146	0,053
-109,264	-200,000	-0,001	0,033
-108,249	54,092	-0,030	-0,020
-107,234	-92,908	-0,026	-0,005
-106,220	-131,871	0,065	-0,006
-105,205	251,499	-0,042	-0,051
-104,191	282,875	0,029	-0,037
-103,176	108,569	0,087	0,074
-102,162	-71,391	0,169	0,045
-101,147	-37,250	-0,103	-0,039
-100,132	800,000	0,050	-0,104
-99,118	-74,561	-0,136	-0,035
-98,103	-42,624	0,065	-0,023
-97,089	-51,888	0,162	-0,053
-96,074	212,276	-0,004	0,005
-95,059	-200,000	0,005	0,040
-94,045	-200,000	0,007	-0,163
-93,030	-150,548	-0,083	0,004
-92,016	-142,360	-0,120	-0,008
-91,001	156,640	0,039	0,039
-89,986	-14,110	-0,091	-0,042
-88,972	217,825	0,149	0,169
-87,957	-200,000	-0,016	0,058
-86,943	143,727	-0,039	0,037
-85,928	12,091	-0,082	-0,045
-84,913	96,715	0,203	0,165
-83,899	117,458	0,054	0,047
-82,884	-59,527	-0,050	0,015
-81,870	119,856	-0,079	0,070
-80,855	800,000	-0,025	-0,052
-79,840	119,465	0,039	-0,035
-78,826	-200,000	0,008	-0,233
-77,811	-58,707	0,066	-0,020
-76,797	-94,292	-0,062	-0,012
-75,782	-200,000	0,000	-0,086
-74,767	241,269	0,076	-0,090
-73,753	-200,000	-0,037	0,150
-72,738	800,000	-0,030	0,071
-71,724	648,466	0,039	0,071
-70,709	175,001	-0,078	-0,080
-69,694	-200,000	-0,033	-0,216
-68,680	239,246	0,070	-0,082
-67,665	-200,000	-0,004	0,072
-66,651	-200,000	0,046	0,147
-65,636	800,000	-0,051	-0,131
-64,622	-200,000	0,000	0,084
-63,607	-60,194	-0,142	-0,043
-62,592	-157,358	-0,085	0,004
-61,578	-180,804	-0,035	0,000
-60,563	800,000	0,035	-0,086
-59,549	33,730	-0,127	0,078
-58,534	-61,926	-1,441	-0,425
-57,519	439,868	-1,475	-2,294
-56,505	-200,000	-0,533	-4,333
-55,490	195,390	0,942	1,017
-54,476	800,000	4,901	11,243
-53,461	-200,000	18,039	285,212
-52,446	800,000	723,207	2230,613
-51,432	562,554	1638,115	2822,711
-50,417	80,433	1661,341	1267,770
-49,403	23,493	1535,126	893,341
-48,388	17,452	1458,588	819,589
-47,373	18,134	1448,427	817,129
-46,359	17,649	1438,910	809,410
-45,344	15,738	1434,197	797,615
-44,330	15,699	1432,092	796,228
-43,315	15,716	1430,563	795,428
-42,300	15,720	1428,635	794,342
-41,286	15,738	1427,518	793,777
-40,271	15,713	1426,452	793,031
-39,257	15,675	1425,284	792,171
-38,242	15,725	1423,824	791,568
-37,227	15,751	1422,639	791,001
-36,213	15,720	1421,401	790,132
-35,198	15,699	1420,125	789,294
-34,184	15,759	1419,266	789,066
-33,169	15,660	1418,189	787,969
-32,154	15,753	1416,873	787,645
-31,140	15,732	1415,699	786,863
-30,125	15,751	1414,662	786,345
-29,111	15,780	1413,234	785,656
-28,096	15,704	1412,283	784,740
-27,082	15,644	1411,255	783,855
-26,067	15,671	1410,077	783,298
-25,052	15,663	1408,977	782,616
-24,038	15,672	1408,038	782,108
-23,023	15,632	1407,030	781,328
-22,009	15,631	1406,004	780,726
-20,994	15,610	1405,288	780,198
-19,979	15,600	1404,195	779,513
-18,965	15,611	1403,204	778,982
-17,950	15,540	1402,454	778,207
-16,936	15,567	1401,293	777,656
-15,921	15,571	1400,052	776,954
-14,906	15,589	1398,917	776,379
-13,892	15,570	1398,059	775,784
-12,877	15,564	1397,257	775,280
-11,863	15,569	1396,671	774,947
-10,848	15,569	1395,529	774,280
-9,833	15,493	1394,716	773,447
-8,819	15,436	1393,528	772,495
-7,804	15,496	1392,575	772,212
-6,790	15,434	1391,837	771,488
-5,775	15,454	1390,783	770,962
-4,760	15,474	1389,867	770,519
-3,746	15,424	1389,184	769,876
-2,731	15,458	1388,348	769,541
-1,717	15,427	1387,306	768,789
-0,702	15,423	1385,397	767,681
0,313	19,134	1305,637	740,669
1,327	35,323	707,031	438,661
2,342	53,778	125,108	85,037
3,356	3,393	16,512	8,497
4,371	7,339	3,144	1,659
5,386	-8,244	0,561	0,267
6,400	-200,000	-0,032	0,156
7,415	29,809	-0,285	-0,172
8,429	258,020	-0,303	-0,371
9,444	41,684	-0,275	-0,176
10,459	-29,564	-0,395	-0,159
11,473	122,409	-0,244	-0,216
12,488	19,123	-0,237	-0,134
13,502	142,405	-0,268	-0,252
14,517	-8,987	-0,329	-0,155
15,531	4,213	-0,357	-0,184
16,546	166,128	-0,273	-0,274
17,561	-35,377	-0,483	-0,185
18,575	2,030	-0,266	-0,135
19,590	-1,376	-0,221	-0,110
20,604	119,236	-0,261	-0,228
21,619	100,522	-0,431	-0,354
22,634	42,740	-0,478	-0,308
23,648	122,950	-0,430	-0,381
24,663	118,911	-0,424	-0,371
25,677	7,524	-0,476	-0,251
26,692	6,525	-0,278	-0,146
27,707	-11,417	-0,428	-0,199
28,721	13,056	-0,369	-0,202
29,736	55,132	-0,313	-0,214
30,750	30,360	-0,341	-0,206
31,765	26,244	-0,436	-0,257
32,780	71,782	-0,316	-0,232
33,794	16,894	-0,333	-0,186
34,809	15,947	-0,380	-0,211
35,823	5,139	-0,323	-0,168
36,838	75,387	-0,366	-0,272
37,853	104,658	-0,353	-0,294
38,867	111,248	-0,287	-0,244
39,882	800,000	-0,165	-0,399
40,896	121,842	-0,195	-0,172
41,911	20,921	-0,341	-0,195
42,926	75,008	-0,310	-0,231
43,940	32,421	-0,311	-0,190
44,955	163,619	-0,290	-0,288
45,969	118,807	-0,344	-0,300
46,984	-3,613	-0,317	-0,155
47,999	7,758	-0,282	-0,149
49,013	115,315	-0,384	-0,331
50,028	25,972	-0,437	-0,257
51,042	-2,031	-0,270	-0,134
52,057	106,508	-0,323	-0,270
53,071	155,006	-0,304	-0,295
54,086	-38,094	-0,508	-0,189
55,101	86,968	-0,304	-0,236
56,115	-38,274	-0,226	-0,084
57,130	-57,282	-0,524	-0,161
58,144	201,785	-0,308	-0,336
59,159	136,861	-0,388	-0,358
60,174	106,475	-0,438	-0,366
61,188	54,650	-0,485	-0,329
62,203	-2,730	-0,399	-0,196
63,217	7,578	-0,341	-0,179
64,232	31,946	-0,333	-0,202
65,247	-11,549	-0,376	-0,173
66,261	235,608	-0,241	-0,281
67,276	338,212	-0,262	-0,360
68,290	0,800	-0,370	-0,186
69,305	143,962	-0,325	-0,305
70,320	25,763	-0,333	-0,195
71,334	-75,600	-0,405	-0,101
72,349	14,673	-0,337	-0,185
73,363	24,319	-0,301	-0,175
74,378	-150,090	-0,442	-0,024
75,393	-13,961	-0,307	-0,139
76,407	6,788	-0,301	-0,157
77,422	-22,446	-0,346	-0,147
78,436	9,126	-0,389	-0,207
79,451	142,090	-0,273	-0,255
80,466	-40,498	-0,407	-0,148
81,480	114,161	-0,223	-0,191
82,495	147,967	-0,277	-0,263
83,509	-6,951	-0,260	-0,124
84,524	30,207	-0,224	-0,134
85,539	45,305	-0,203	-0,131
86,553	186,818	-0,298	-0,313
87,568	16,190	-0,365	-0,202
88,582	202,083	-0,283	-0,307
89,597	129,140	-0,339	-0,304
90,611	56,150	-0,310	-0,211
91,626	-128,879	-0,126	-0,012
92,641	510,922	-0,153	-0,251
93,655	122,396	-0,158	-0,139
94,670	83,227	-0,409	-0,313
95,684	74,355	-0,239	-0,176
96,699	-149,028	-0,261	-0,015
97,714	455,109	-0,268	-0,420
98,728	54,618	-0,424	-0,287
99,743	-100,270	-0,227	-0,039
100,757	110,091	-0,252	-0,213
101,772	46,709	-0,274	-0,179
102,787	344,477	-0,207	-0,286
103,801	-42,118	-0,264	-0,094
104,816	217,818	-0,232	-0,260
105,830	58,306	-0,156	-0,107
106,845	184,135	-0,209	-0,218
107,860	-63,912	-0,303	-0,086
108,874	119,447	-0,286	-0,248
109,889	181,980	-0,222	-0,230
110,903	10,610	-0,391	-0,209
111,918	215,461	-0,209	-0,233
112,933	27,375	-0,269	-0,158
113,947	2,665	-0,198	-0,100
114,962	-122,569	-0,267	-0,030
115,976	-67,552	-0,324	-0,088
116,991	52,824	-0,433	-0,290
118,006	172,082	-0,160	-0,161
119,020	5,851	-0,334	-0,173
120,035	55,087	-0,217	-0,147
121,049	15,718	-0,206	-0,113
122,064	-66,104	-0,339	-0,094
123,079	-30,305	-0,301	-0,119
124,093	74,117	-0,373	-0,275
125,108	-131,004	-0,312	0,029
126,122	81,395	-0,319	-0,242
127,137	-175,403	-0,245	-0,005
128,151	-93,109	-0,193	-0,037
129,166	24,943	-0,340	-0,197
130,181	92,527	-0,326	-0,257
131,195	110,400	-0,310	-0,261
132,210	121,050	-0,329	-0,287
133,224	-60,162	-0,204	-0,060
134,239	800,000	-0,080	-0,168
135,254	800,000	-0,118	-0,235
136,268	1,948	-0,234	-0,118
137,283	142,971	-0,230	-0,214
138,297	8,583	-0,163	-0,086
139,312	285,543	-0,158	-0,200
140,327	165,033	-0,143	-0,141
141,341	-39,935	-0,246	-0,089
142,356	15,655	-0,242	-0,133
143,370	-33,043	-0,299	-0,115
144,385	-19,510	-0,242	-0,104
145,400	202,473	-0,198	-0,214
146,414	-30,916	-0,276	-0,109
147,429	310,821	-0,213	-0,280
148,443	-42,671	-0,212	-0,075
149,458	148,674	-0,207	-0,196
150,473	-88,029	-0,299	-0,062
151,487	5,925	-0,254	-0,131
152,502	34,880	-0,290	-0,177
153,516	86,147	-0,176	-0,136
154,531	-87,784	-0,283	-0,059
155,546	-69,831	-0,305	-0,081
156,560	211,511	-0,221	-0,243
157,575	-41,250	-0,309	-0,111
158,589	336,673	-0,219	-0,299
159,604	162,108	-0,214	-0,210
160,619	479,655	-0,184	-0,292
161,633	789,722	-0,135	-0,261
162,648	16,192	-0,295	-0,162
163,662	623,776	-0,126	-0,223
164,677	-4,859	-0,223	-0,107
165,692	136,972	-0,220	-0,201
166,706	65,327	-0,210	-0,148
167,721	-7,952	-0,270	-0,127
168,735	83,277	-0,254	-0,193
169,750	-89,435	-0,276	-0,056
170,764	-69,684	-0,338	-0,090
171,779	-38,149	-0,245	-0,090
172,794	-146,665	-0,183	-0,011
173,808	58,315	-0,244	-0,167
174,823	55,541	-0,272	-0,184
175,837	170,489	-0,247	-0,247
176,852	186,409	-0,224	-0,233
177,867	-200,000	-0,090	-0,282
178,881	175,680	-0,244	-0,247
179,896	654,237	-0,073	-0,132
180,910	200,795	-0,187	-0,201
181,925	191,851	-0,209	-0,220
182,940	47,696	-0,322	-0,209
183,954	-88,493	-0,281	-0,058
184,969	50,874	-0,104	-0,068
185,983	-45,602	-0,267	0,092
186,998	-154,558	-0,276	-0,013
188,013	-58,142	-0,197	-0,059
189,027	159,336	-0,265	-0,258
190,042	800,000	-0,095	-0,197
191,056	188,525	-0,196	-0,205
192,071	53,443	-0,185	-0,123
193,086	-94,424	-0,255	-0,048
194,100	85,323	-0,242	-0,185
195,115	-33,273	-0,283	-0,109
196,129	797,071	-0,156	-0,300
197,144	81,755	-0,246	-0,186
198,159	-2,184	-0,279	-0,136
199,173	-6,909	-0,166	-0,078
200,188	651,853	-0,144	-0,259
201,202	646,694	-0,133	-0,237
202,217	43,930	-0,278	-0,177
203,232	232,216	-0,242	-0,277
204,246	256,251	-0,259	-0,310
205,261	78,196	-0,293	-0,218
206,275	17,078	-0,216	-0,119
207,290	12,147	-0,293	-0,157
208,304	215,999	-0,166	-0,184
209,319	-112,275	-0,115	-0,016
210,334	-156,553	-0,263	0,011
211,348	-48,114	-0,245	-0,082
212,363	58,191	-0,111	-0,075
213,377	114,556	-0,203	-0,172
214,392	41,684	-0,307	-0,193
215,407	-19,278	-0,187	-0,080
216,421	68,467	-0,208	-0,148
217,436	3,440	-0,198	-0,100
218,450	-44,038	-0,227	-0,079
219,465	380,938	-0,150	-0,215
220,480	-39,639	-0,219	-0,079
221,494	15,306	-0,136	-0,074
222,509	-18,387	-0,130	-0,056
223,523	182,544	-0,094	-0,096
224,538	262,130	-0,109	-0,131
225,553	-200,000	-0,003	-0,123
226,567	-56,329	-0,243	-0,075
227,582	94,609	-0,270	-0,213
228,596	-45,939	-0,219	-0,075
229,611	333,348	-0,157	-0,212
230,626	-200,000	-0,060	-0,200
231,640	-34,158	-0,175	-0,066
232,655	94,486	-0,211	-0,167
233,669	-89,661	-0,287	-0,058
234,684	32,522	-0,228	-0,137
235,699	191,643	-0,202	-0,212
236,713	11,477	-0,110	-0,059
237,728	-68,086	-0,209	-0,056
238,742	97,154	-0,170	-0,135
239,757	800,000	-0,070	-0,205
240,772	-11,831	-0,227	-0,103
241,786	128,441	-0,181	-0,160
242,801	448,908	-0,112	-0,171
243,815	242,407	-0,147	-0,171
244,830	-200,000	-0,031	-0,146
245,844	155,513	-0,214	-0,205
246,859	84,088	-0,189	-0,143
247,874	-26,782	-0,231	-0,093
248,888	266,979	-0,174	-0,211
249,903	5,000	-0,168	-0,086
250,917	497,683	-0,128	-0,205
251,932	-113,849	-0,246	-0,033
252,947	90,023	-0,155	-0,120
253,961	346,032	-0,178	-0,243
254,976	-183,071	-0,166	-0,002
255,990	180,270	-0,265	-0,270
257,005	50,842	-0,255	-0,167
258,020	29,804	-0,158	-0,093
259,034	-61,894	-0,171	0,049
260,049	91,537	-0,247	-0,192
261,063	115,397	-0,156	-0,132
262,078	800,000	-0,135	-0,281
263,093	-78,339	-0,285	-0,067
264,107	430,376	-0,093	-0,140
265,122	-80,561	-0,216	-0,049
266,136	63,990	-0,213	-0,148
267,151	192,672	-0,207	-0,217
268,166	16,893	-0,303	-0,165
269,180	1,944	-0,145	-0,072
270,195	31,053	-0,195	-0,115
271,209	16,887	-0,108	-0,059
272,224	403,791	-0,134	-0,196
273,239	-1,035	-0,195	-0,095
274,253	126,293	-0,232	-0,203
275,268	-55,085	-0,289	-0,089
276,282	45,309	-0,205	-0,130
277,297	-200,000	-0,040	-0,194
278,312	318,818	-0,185	-0,243
279,326	66,947	-0,144	-0,101
280,341	137,471	-0,171	-0,155
281,355	198,682	-0,060	-0,063
282,370	-100,683	-0,100	-0,017
283,384	75,479	-0,100	-0,073
284,399	-81,578	-0,107	-0,024
285,414	28,856	-0,160	-0,093
286,428	184,800	-0,239	-0,245
287,443	179,222	-0,124	-0,125
288,457	293,178	-0,071	-0,090
289,472	150,124	-0,091	-0,085
290,487	78,559	-0,225	-0,166
291,501	401,032	-0,135	-0,196
292,516	460,323	-0,092	-0,142
293,530	-73,739	-0,092	0,023
294,545	24,626	-0,224	-0,128
295,560	61,258	-0,239	-0,164
296,574	-31,482	-0,220	-0,085
297,589	31,698	-0,149	-0,088
298,603	304,652	-0,175	-0,225
299,618	693,180	-0,123	-0,223
300,633	-84,196	-0,178	-0,039
301,647	120,031	-0,124	-0,107
302,662	388,496	-0,131	-0,188
303,676	-29,206	-0,100	0,039
304,691	-200,000	-0,051	-0,187
305,706	144,433	-0,159	-0,147
306,720	175,505	-0,257	-0,257
307,735	-4,457	0,030	-0,014
308,749	-62,568	-0,179	-0,051
309,764	-200,000	0,020	-0,091
310,779	-93,166	-0,044	-0,008
311,793	-115,043	-0,221	0,029
312,808	-146,399	-0,215	-0,013
313,822	-40,354	-0,233	-0,083
314,837	30,653	-0,155	-0,091
315,852	195,063	-0,167	-0,176
316,866	46,974	-0,177	-0,113
317,881	-96,845	-0,187	-0,034
318,895	-97,660	-0,256	-0,045
319,910	800,000	-0,082	-0,183
320,925	-74,393	-0,156	-0,038
321,939	-200,000	-0,029	-0,133
322,954	800,000	-0,064	-0,159
323,968	800,000	-0,033	-0,070
324,983	-93,558	-0,076	0,014
325,997	52,660	-0,162	-0,106
327,012	91,340	-0,067	-0,051
328,027	281,306	-0,167	-0,207
329,041	444,619	-0,099	-0,151
330,056	32,052	-0,104	-0,062
331,070	64,585	-0,069	-0,048
332,085	28,776	-0,088	-0,051
333,100	201,527	-0,117	-0,124
334,114	628,035	-0,117	-0,204
335,129	-200,000	-0,047	-0,172
336,143	91,040	-0,147	-0,113
337,158	-137,312	-0,142	0,011
338,173	6,658	-0,119	-0,061
339,187	-117,218	-0,086	-0,011
340,202	-145,241	-0,119	-0,007
341,216	170,148	-0,123	-0,121
342,231	297,017	-0,133	-0,168
343,246	74,952	-0,131	-0,095
344,260	-41,215	-0,181	-0,064
345,275	480,375	-0,038	0,060
346,289	-65,403	-0,134	-0,037
347,304	-10,966	-0,135	-0,061
348,319	800,000	-0,069	-0,183
349,333	-71,702	-0,192	-0,049
350,348	-43,236	-0,148	-0,051
351,362	-200,000	-0,022	-0,086
352,377	-117,168	-0,083	-0,010
353,392	20,279	-0,117	-0,065
354,406	-131,550	-0,126	-0,011
355,421	209,544	1313,186	1416,305
356,435	161,276	1473,756	1416,817
