DTS Sentinel unit serial number:	SN410029Multiplexer serial number:	ORYXHardware model number:	OX2-SRSoftware version number:	ORYX F/W v4,00 Oryx Data Collector v3.7.2.0data status	okinstallation	B3 Nyhavnadifferential loss correction	single-endedforward channel	channel 1reverse channel	N/Adate	2023/11/30time	15:22:30forward acquisition time	300,00reverse acquisition time	0,00gamma	499,1914k internal	0,3207k external	0,3207temperature offset calibration	1,0000default loss term (dB/km)	0,3820temperature slope calibration	1,0000multiplexer offset coefficient	1,0000multiplexer slope coefficient	1,0000fibre end	0,00T internal ref (°C)	12,34T ext. ref 1 (°C)	-1,80T ext. ref 2 (°C)	-1,83length (m)	temperature (°C)	Stokes	anti-Stokes-744,400	232,575	-0,243	-0,291
-743,385	681,622	-0,098	0,186
-742,371	800,000	-0,113	-0,250
-741,356	-200,000	-0,011	0,346
-740,342	757,050	-0,112	-0,220
-739,327	-200,000	-0,028	0,256
-738,312	-200,000	-0,026	-0,206
-737,298	-200,000	0,036	0,311
-736,283	-200,000	-0,052	-0,305
-735,269	-200,000	0,035	0,302
-734,254	-20,895	-0,236	-0,105
-733,239	41,164	-0,117	0,076
-732,225	-200,000	-0,029	-0,225
-731,210	-77,054	0,170	0,043
-730,196	-200,000	0,018	-0,065
-729,181	-38,727	0,088	0,033
-728,167	105,097	-0,123	-0,105
-727,152	33,283	-0,057	0,036
-726,137	46,564	0,045	-0,030
-725,123	-153,276	0,067	-0,003
-724,108	272,312	-0,080	-0,102
-723,094	25,030	-0,116	-0,070
-722,079	122,010	-0,008	0,007
-721,064	-88,019	-0,037	-0,008
-720,050	130,473	-0,099	-0,092
-719,035	800,000	-0,033	-0,103
-718,021	-200,000	0,013	-0,115
-717,006	-200,000	-0,019	0,070
-715,991	55,037	-0,224	-0,157
-714,977	800,000	-0,075	-0,170
-713,962	-200,000	-0,038	-0,145
-712,948	-111,817	0,203	-0,029
-711,933	251,959	0,051	-0,063
-710,918	32,302	0,080	-0,050
-709,904	234,129	-0,031	-0,037
-708,889	-200,000	0,021	-0,154
-707,875	-111,844	-0,102	0,015
-706,860	-30,716	-0,049	-0,020
-705,845	-200,000	-0,019	-0,110
-704,831	-200,000	-0,004	-0,095
-703,816	800,000	-0,039	-0,091
-702,802	90,102	-0,034	-0,027
-701,787	-200,000	0,008	0,039
-700,772	-157,868	-0,067	-0,003
-699,758	194,463	0,049	-0,054
-698,743	800,000	0,040	0,089
-697,729	162,292	0,056	-0,057
-696,714	-37,461	-0,065	0,025
-695,699	28,214	0,136	-0,083
-694,685	-200,000	-0,002	-0,119
-693,670	99,792	-0,044	0,037
-692,656	303,670	0,022	0,030
-691,641	0,241	-0,109	-0,056
-690,627	358,633	0,067	-0,098
-689,612	-200,000	-0,003	0,100
-688,597	27,112	-0,052	0,031
-687,583	544,213	-0,043	-0,075
-686,568	49,913	-0,065	-0,044
-685,554	24,431	0,055	0,033
-684,539	67,643	-0,094	0,070
-683,524	-200,000	-0,021	0,096
-682,510	120,559	-0,065	-0,059
-681,495	-20,013	-0,145	0,065
-680,481	318,618	0,106	-0,146
-679,466	-125,180	-0,148	-0,016
-678,451	-200,000	0,032	-0,140
-677,437	-165,727	-0,128	-0,004
-676,422	155,536	0,146	-0,145
-675,408	-104,453	-0,033	-0,006
-674,393	-200,000	-0,002	0,129
-673,378	60,117	-0,076	-0,055
-672,364	800,000	-0,051	-0,117
-671,349	-79,639	-0,035	0,008
-670,335	-114,056	0,097	0,013
-669,320	-78,254	-0,164	0,040
-668,305	-200,000	0,033	0,121
-667,291	334,017	0,007	0,010
-666,276	242,283	-0,098	-0,119
-665,262	625,273	-0,066	0,121
-664,247	-2,071	-0,100	-0,051
-663,232	-33,086	0,117	-0,047
-662,218	65,431	0,095	0,070
-661,203	-104,848	0,036	-0,006
-660,189	-200,000	-0,000	0,006
-659,174	5,567	-0,082	-0,044
-658,159	-200,000	-0,009	0,077
-657,145	239,845	-0,054	-0,066
-656,130	488,864	-0,008	0,013
-655,116	-48,503	-0,066	0,023
-654,101	-33,816	-0,127	-0,050
-653,086	-85,374	0,034	-0,008
-652,072	800,000	-0,053	0,120
-651,057	94,761	-0,172	-0,142
-650,043	-112,122	-0,100	-0,014
-649,028	-8,404	0,198	0,096
-648,014	-200,000	-0,024	0,164
-646,999	195,823	0,056	-0,062
-645,984	39,899	-0,107	-0,070
-644,970	-11,717	-0,119	-0,056
-643,955	230,220	-0,104	-0,124
-642,941	-142,104	0,066	-0,005
-641,926	127,731	0,114	0,104
-640,911	-200,000	-0,007	0,057
-639,897	485,271	-0,072	0,118
-638,882	-200,000	-0,005	0,036
-637,868	800,000	0,077	0,155
-636,853	140,133	0,013	-0,012
-635,838	-50,881	0,022	0,007
-634,824	-132,653	0,060	-0,005
-633,809	800,000	-0,019	0,042
-632,795	-53,601	-0,026	0,008
-631,780	-90,573	-0,063	0,013
-630,765	128,455	-0,115	0,106
-629,751	-109,248	-0,075	0,011
-628,736	-93,398	-0,179	0,036
-627,722	-200,000	-0,004	-0,100
-626,707	-69,271	0,154	0,042
-625,692	-200,000	0,037	0,160
-624,678	-8,032	0,072	0,035
-623,663	-138,717	0,060	0,005
-622,649	-16,613	-0,074	-0,034
-621,634	-200,000	-0,016	-0,068
-620,619	-49,989	-0,082	0,028
-619,605	311,109	-0,033	-0,045
-618,590	-200,000	0,019	0,091
-617,576	495,565	-0,083	0,138
-616,561	-117,888	0,092	0,012
-615,546	38,661	0,082	-0,053
-614,532	-200,000	-0,002	0,102
-613,517	800,000	-0,034	-0,088
-612,503	800,000	0,005	0,011
-611,488	-108,901	-0,193	-0,029
-610,474	49,662	-0,079	0,053
-609,459	-200,000	-0,007	-0,036
-608,444	295,063	-0,104	0,138
-607,430	-4,894	-0,088	0,044
-606,415	-200,000	0,003	0,222
-605,401	-200,000	-0,007	-0,052
-604,386	800,000	0,018	-0,042
-603,371	-200,000	-0,017	-0,094
-602,357	-200,000	0,005	-0,096
-601,342	-200,000	-0,002	-0,077
-600,328	61,088	-0,158	-0,113
-599,313	-11,180	-0,083	0,039
-598,298	-200,000	0,009	-0,098
-597,284	-144,276	-0,034	0,002
-596,269	292,948	-0,075	0,099
-595,255	-200,000	0,003	0,176
-594,240	292,216	0,084	0,111
-593,225	-200,000	-0,030	0,095
-592,211	-117,387	-0,112	0,015
-591,196	-200,000	0,002	-0,157
-590,182	-200,000	-0,040	0,157
-589,167	203,890	0,065	-0,073
-588,152	-105,163	-0,081	0,013
-587,138	154,153	-0,075	-0,075
-586,123	-200,000	-0,004	-0,157
-585,109	608,076	-0,061	-0,110
-584,094	-86,294	0,159	0,035
-583,079	-112,874	-0,091	-0,013
-582,065	-65,011	0,044	-0,013
-581,050	-66,073	-0,048	0,014
-580,036	-177,878	0,099	-0,002
-579,021	800,000	0,038	-0,077
-578,006	3,535	-0,085	0,044
-576,992	-200,000	-0,013	-0,095
-575,977	-130,750	0,047	0,004
-574,963	-72,825	-0,163	0,043
-573,948	680,030	-0,037	0,069
-572,934	-110,529	0,071	-0,010
-571,919	256,896	0,057	-0,070
-570,904	800,000	-0,017	-0,040
-569,890	560,393	-0,046	-0,080
-568,875	134,970	0,098	0,092
-567,861	626,615	-0,016	0,028
-566,846	-60,147	0,137	0,042
-565,831	800,000	-0,073	0,170
-564,817	-150,361	-0,109	-0,006
-563,802	-200,000	0,039	-0,165
-562,788	800,000	0,004	0,013
-561,773	-29,666	0,044	-0,018
-560,758	-149,101	0,059	-0,003
-559,744	-200,000	0,007	0,056
-558,729	-177,545	0,157	-0,003
-557,715	-117,847	-0,252	-0,032
-556,700	123,526	0,038	-0,035
-555,685	209,790	-0,035	-0,040
-554,671	-200,000	-0,005	0,034
-553,656	-8,238	0,119	-0,058
-552,642	-10,146	-0,020	-0,010
-551,627	-129,108	-0,009	0,001
-550,612	-61,970	0,173	0,052
-549,598	800,000	-0,050	-0,157
-548,583	-135,126	-0,179	-0,015
-547,569	-52,744	0,095	0,031
-546,554	85,456	-0,120	-0,095
-545,539	510,264	-0,030	0,051
-544,525	-157,485	0,125	0,005
-543,510	-48,625	-0,121	0,042
-542,496	-23,619	-0,079	-0,034
-541,481	4,293	-0,023	0,012
-540,466	-200,000	0,011	0,156
-539,452	70,373	0,107	0,080
-538,437	59,496	-0,099	-0,070
-537,423	-118,621	-0,102	0,013
-536,408	-200,000	0,023	-0,089
-535,393	-139,116	-0,137	-0,011
-534,379	-200,000	0,001	-0,065
-533,364	24,600	-0,022	-0,013
-532,350	800,000	-0,032	-0,077
-531,335	433,445	0,036	-0,057
-530,321	800,000	-0,029	-0,062
-529,306	8,773	-0,023	-0,013
-528,291	199,487	-0,056	-0,062
-527,277	-200,000	0,003	0,023
-526,262	-200,000	0,028	0,098
-525,248	-89,315	-0,071	0,015
-524,233	12,151	-0,040	0,022
-523,218	800,000	-0,050	-0,130
-522,204	800,000	0,012	0,030
-521,189	-200,000	0,001	0,052
-520,175	-200,000	0,021	-0,075
-519,160	479,958	-0,039	-0,064
-518,145	23,173	0,075	0,044
-517,131	201,281	0,105	0,116
-516,116	151,406	0,023	-0,023
-515,102	-3,745	0,051	-0,026
-514,087	-36,581	-0,191	-0,074
-513,072	-67,633	0,009	0,003
-512,058	-83,778	-0,125	0,028
-511,043	144,872	-0,030	0,029
-510,029	439,661	0,048	0,076
-509,014	-200,000	0,000	0,126
-507,999	30,836	-0,082	0,050
-506,985	-49,480	-0,031	0,011
-505,970	800,000	0,014	-0,042
-504,956	317,149	-0,046	0,063
-503,941	-200,000	0,030	0,103
-502,926	-2,682	0,092	0,046
-501,912	-38,439	0,047	0,018
-500,897	572,397	0,033	-0,058
-499,883	135,245	-0,108	0,101
-498,868	-200,000	0,013	-0,090
-497,853	-200,000	-0,005	-0,046
-496,839	-155,504	0,098	-0,004
-495,824	-200,000	-0,033	-0,126
-494,810	800,000	0,056	-0,121
-493,795	-180,671	0,045	0,001
-492,781	86,453	0,033	0,026
-491,766	336,107	0,028	-0,039
-490,751	-200,000	0,018	-0,100
-489,737	800,000	-0,049	-0,127
-488,722	408,495	0,075	-0,114
-487,708	14,171	0,083	0,046
-486,693	-200,000	-0,032	0,148
-485,678	800,000	0,016	-0,041
-484,664	-200,000	-0,006	-0,047
-483,649	59,280	0,072	0,051
-482,635	42,651	-0,041	0,027
-481,620	49,753	-0,052	-0,035
-480,605	56,921	0,045	0,031
-479,591	-200,000	-0,022	0,083
-478,576	-60,700	0,050	-0,015
-477,562	12,323	-0,077	-0,043
-476,547	161,462	0,072	0,073
-475,532	-2,533	0,071	-0,036
-474,518	201,700	-0,054	-0,060
-473,503	37,028	-0,014	-0,009
-472,489	-200,000	-0,019	0,000
-471,474	2,869	-0,102	0,053
-470,459	-200,000	0,019	0,066
-469,445	-161,742	-0,096	-0,003
-468,430	-139,283	0,079	0,006
-467,416	-124,773	-0,016	0,002
-466,401	442,927	0,063	0,099
-465,386	800,000	-0,015	-0,034
-464,372	-84,408	0,063	-0,014
-463,357	2,922	-0,031	-0,016
-462,343	227,088	0,086	-0,101
-461,328	325,652	0,012	0,017
-460,313	-132,632	0,053	0,005
-459,299	800,000	-0,037	-0,102
-458,284	249,948	0,098	0,120
-457,270	800,000	-0,047	-0,127
-456,255	375,624	0,136	-0,200
-455,241	489,651	0,050	-0,082
-454,226	-145,708	-0,095	0,006
-453,211	246,431	0,079	0,096
-452,197	192,349	-0,039	0,042
-451,182	57,963	0,120	0,084
-450,168	113,681	0,050	-0,044
-449,153	249,051	0,082	-0,100
-448,138	-200,000	-0,006	0,122
-447,124	-200,000	-0,002	-0,024
-446,109	800,000	-0,015	0,044
-445,095	-200,000	-0,012	0,085
-444,080	385,284	0,032	-0,048
-443,065	800,000	0,036	-0,099
-442,051	14,863	0,084	0,047
-441,036	-200,000	0,009	0,082
-440,022	443,175	0,058	-0,092
-439,007	13,873	0,077	-0,043
-437,992	-200,000	-0,019	0,112
-436,978	348,158	0,097	0,138
-435,963	800,000	-0,026	0,079
-434,949	21,795	0,089	0,052
-433,934	-89,007	-0,113	-0,024
-432,919	15,404	-0,186	-0,104
-431,905	-60,903	0,082	0,025
-430,890	146,133	-0,060	0,058
-429,876	-88,587	0,123	0,026
-428,861	664,316	-0,052	0,097
-427,846	-200,000	0,021	-0,129
-426,832	480,020	-0,013	0,021
-425,817	175,050	-0,086	0,090
-424,803	-53,405	-0,213	-0,069
-423,788	268,315	0,025	0,032
-422,773	45,902	0,043	0,029
-421,759	-200,000	0,007	0,032
-420,744	308,315	-0,024	-0,032
-419,730	20,309	0,147	-0,085
-418,715	-94,123	0,062	-0,012
-417,701	146,300	-0,048	-0,047
-416,686	112,336	-0,039	0,034
-415,671	-200,000	-0,011	0,076
-414,657	-200,000	0,011	0,078
-413,642	-150,106	-0,080	0,004
-412,628	800,000	-0,072	-0,229
-411,613	136,045	-0,055	-0,052
-410,598	-149,852	0,092	0,005
-409,584	22,074	0,035	0,021
-408,569	-107,245	0,266	-0,041
-407,555	39,118	0,115	0,074
-406,540	83,363	0,037	-0,029
-405,525	-187,605	0,087	-0,001
-404,511	-200,000	0,015	-0,149
-403,496	358,805	0,036	-0,052
-402,482	107,396	-0,022	0,018
-401,467	-28,399	0,075	0,031
-400,452	-200,000	-0,020	0,072
-399,438	-200,000	-0,006	0,215
-398,423	-136,004	0,159	0,013
-397,409	203,349	0,088	-0,097
-396,394	32,433	-0,066	0,041
-395,379	91,464	-0,100	0,081
-394,365	65,806	-0,073	-0,053
-393,350	800,000	0,018	0,038
-392,336	10,260	0,075	0,041
-391,321	76,348	-0,053	-0,040
-390,306	260,701	-0,061	-0,075
-389,292	687,842	-0,037	-0,069
-388,277	800,000	-0,041	-0,089
-387,263	800,000	0,036	-0,085
-386,248	34,104	0,030	0,019
-385,233	-174,950	-0,157	-0,003
-384,219	84,430	0,091	0,071
-383,204	-131,277	0,044	0,004
-382,190	-59,820	-0,161	0,049
-381,175	-200,000	-0,023	-0,086
-380,160	6,868	0,042	0,023
-379,146	71,150	0,131	-0,097
-378,131	-2,286	0,146	-0,073
-377,117	800,000	0,012	0,037
-376,102	800,000	-0,093	-0,192
-375,088	-200,000	-0,018	-0,091
-374,073	279,838	-0,047	0,060
-373,058	179,817	0,039	-0,041
-372,044	-200,000	0,002	-0,071
-371,029	137,944	0,107	-0,100
-370,015	-80,292	0,073	-0,017
-369,000	346,595	0,079	0,111
-367,985	-33,344	-0,101	0,040
-366,971	27,398	-0,111	-0,066
-365,956	545,279	-0,049	-0,084
-364,942	-183,565	0,041	0,000
-363,927	-200,000	-0,001	0,038
-362,912	43,368	-0,115	-0,075
-361,898	-200,000	-0,004	0,022
-360,883	510,150	-0,043	-0,072
-359,869	32,784	0,078	-0,048
-358,854	15,998	-0,024	0,013
-357,839	209,456	0,025	-0,028
-356,825	520,625	0,064	-0,108
-355,810	-85,160	-0,068	-0,015
-354,796	489,037	-0,002	-0,004
-353,781	141,330	-0,149	-0,141
-352,766	-40,133	-0,102	0,038
-351,752	410,919	0,023	-0,036
-350,737	213,076	0,070	0,079
-349,723	-129,322	0,041	-0,004
-348,708	-200,000	-0,002	-0,135
-347,693	-164,755	-0,099	-0,003
-346,679	2,636	-0,137	-0,071
-345,664	-110,986	-0,163	-0,024
-344,650	19,216	0,061	0,035
-343,635	-60,506	-0,083	0,025
-342,620	800,000	-0,020	0,040
-341,606	-200,000	0,026	0,159
-340,591	-108,105	-0,096	-0,015
-339,577	234,376	-0,054	-0,063
-338,562	91,689	-0,029	0,023
-337,548	-66,619	0,083	0,023
-336,533	302,088	-0,010	-0,014
-335,518	230,465	0,028	0,032
-334,504	800,000	-0,044	-0,136
-333,489	9,054	-0,182	0,098
-332,475	123,296	0,076	-0,068
-331,460	-200,000	-0,008	-0,026
-330,445	-143,124	-0,039	0,003
-329,431	170,087	0,133	-0,136
-328,416	-200,000	0,012	-0,052
-327,402	199,904	-0,047	0,051
-326,387	-200,000	0,021	-0,111
-325,372	27,018	0,166	0,099
-324,358	800,000	0,068	-0,197
-323,343	378,699	0,066	-0,097
-322,329	-104,299	-0,078	0,013
-321,314	-200,000	-0,028	-0,099
-320,299	357,659	0,019	-0,027
-319,285	-200,000	-0,004	0,014
-318,270	-84,554	-0,213	0,048
-317,256	131,584	0,032	-0,029
-316,241	47,274	-0,086	-0,057
-315,226	-179,566	0,170	0,003
-314,212	15,738	0,188	0,105
-313,197	410,138	0,031	0,047
-312,183	134,850	0,017	0,015
-311,168	-200,000	-0,023	-0,103
-310,153	-200,000	-0,003	-0,039
-309,139	343,640	-0,057	-0,080
-308,124	134,178	-0,041	-0,038
-307,110	-200,000	-0,016	0,094
-306,095	137,342	-0,039	-0,036
-305,080	-200,000	-0,012	0,040
-304,066	-200,000	0,032	0,153
-303,051	-98,807	-0,065	-0,012
-302,037	423,871	-0,026	0,039
-301,022	800,000	-0,033	0,081
-300,008	-78,634	0,059	0,014
-298,993	-26,406	-0,026	-0,011
-297,978	2,439	0,048	-0,025
-296,964	-121,855	0,108	-0,013
-295,949	308,504	-0,061	0,081
-294,935	-200,000	0,007	-0,101
-293,920	207,056	0,036	0,040
-292,905	171,622	-0,074	0,076
-291,891	87,682	-0,061	0,048
-290,876	-200,000	0,004	0,182
-289,862	800,000	0,051	-0,113
-288,847	15,683	0,059	0,033
-287,832	-200,000	0,009	-0,121
-286,818	11,820	-0,057	-0,031
-285,803	-137,160	0,118	0,009
-284,789	-127,714	-0,051	0,005
-283,774	430,051	0,038	0,059
-282,759	105,097	0,122	0,103
-281,745	341,569	0,011	-0,015
-280,730	-200,000	0,007	-0,201
-279,716	800,000	-0,036	-0,089
-278,701	-200,000	-0,006	0,063
-277,686	-139,271	-0,037	0,003
-276,672	73,715	0,021	0,015
-275,657	-177,464	-0,054	0,001
-274,643	800,000	-0,032	-0,069
-273,628	-5,001	0,034	-0,017
-272,613	-71,537	-0,086	0,023
-271,599	-200,000	0,013	-0,089
-270,584	-200,000	0,026	0,146
-269,570	-200,000	0,107	-0,000
-268,555	-56,192	0,105	-0,033
-267,540	800,000	-0,034	-0,089
-266,526	372,282	0,039	-0,056
-265,511	-200,000	0,007	0,026
-264,497	-200,000	-0,008	-0,055
-263,482	-200,000	0,001	-0,033
-262,467	-200,000	0,011	-0,105
-261,453	-151,714	0,041	-0,002
-260,438	-21,189	0,030	0,013
-259,424	5,483	-0,082	-0,043
-258,409	268,628	-0,042	0,052
-257,395	-104,005	-0,052	-0,009
-256,380	779,549	0,044	0,086
-255,365	-93,226	0,039	0,008
-254,351	800,000	0,032	0,081
-253,336	80,753	-0,055	-0,042
-252,322	800,000	-0,015	-0,034
-251,307	8,392	-0,081	0,043
-250,292	-44,932	0,138	0,049
-249,278	-6,878	-0,177	-0,085
-248,263	-200,000	-0,014	0,087
-247,249	-28,511	0,054	0,022
-246,234	266,929	0,102	0,127
-245,219	-57,097	-0,029	0,009
-244,205	-117,235	0,073	0,009
-243,190	-34,417	-0,195	0,076
-242,176	-200,000	0,015	0,058
-241,161	-0,228	0,036	-0,018
-240,146	55,280	0,048	0,033
-239,132	78,122	-0,081	-0,061
-238,117	-200,000	-0,002	-0,064
-237,103	37,068	-0,145	-0,091
-236,088	-73,851	-0,069	0,018
-235,073	276,071	-0,085	-0,108
-234,059	109,903	0,048	-0,041
-233,044	800,000	0,073	0,213
-232,030	-34,142	-0,102	0,040
-231,015	518,350	0,044	-0,074
-230,000	-119,184	0,114	-0,014
-228,986	800,000	-0,036	-0,099
-227,971	287,115	0,052	0,066
-226,957	131,224	-0,025	0,023
-225,942	-200,000	0,002	0,165
-224,927	88,604	0,101	0,080
-223,913	22,509	0,029	-0,017
-222,898	184,508	-0,020	0,021
-221,884	76,699	0,087	-0,066
-220,869	800,000	-0,020	0,046
-219,855	-12,989	-0,053	-0,025
-218,840	-200,000	-0,001	0,032
-217,825	75,867	0,054	-0,041
-216,811	349,545	-0,014	0,019
-215,796	500,523	0,059	0,096
-214,782	-200,000	0,002	0,018
-213,767	-200,000	-0,009	0,070
-212,752	-41,160	0,084	-0,030
-211,738	-42,040	-0,064	-0,023
-210,723	48,519	0,060	0,040
-209,709	800,000	-0,008	0,022
-208,694	74,291	-0,016	0,012
-207,679	-200,000	-0,008	-0,045
-206,665	86,595	-0,058	0,045
-205,650	-200,000	-0,004	-0,059
-204,636	597,547	0,044	0,078
-203,621	0,639	0,022	0,011
-202,606	13,506	-0,099	-0,054
-201,592	-200,000	-0,021	0,075
-200,577	-146,771	-0,176	-0,011
-199,563	231,570	0,098	-0,115
-198,548	-200,000	-0,024	0,082
-197,533	-200,000	0,015	0,110
-196,519	-200,000	0,024	0,077
-195,504	800,000	0,028	0,056
-194,490	-200,000	-0,001	0,157
-193,475	-200,000	-0,016	0,118
-192,460	-194,474	0,106	-0,001
-191,446	-37,118	0,105	-0,040
-190,431	800,000	0,026	0,080
-189,417	581,047	0,060	0,105
-188,402	43,138	-0,162	-0,105
-187,387	-32,421	0,043	-0,017
-186,373	800,000	-0,009	-0,020
-185,358	54,095	-0,062	-0,042
-184,344	126,158	0,038	0,035
-183,329	3,812	0,104	-0,054
-182,315	800,000	0,051	0,111
-181,300	-200,000	0,001	-0,022
-180,285	-200,000	-0,029	-0,108
-179,271	-113,507	-0,086	0,012
-178,256	-73,082	-0,101	0,026
-177,242	135,231	-0,066	-0,061
-176,227	-68,740	0,215	0,059
-175,212	351,120	0,114	0,161
-174,198	454,637	-0,019	-0,030
-173,183	-101,657	0,187	-0,032
-172,169	44,055	0,160	0,104
-171,154	336,911	-0,081	-0,112
-170,139	241,269	0,034	-0,040
-169,125	-200,000	-0,021	0,076
-168,110	702,027	0,047	0,088
-167,096	-26,215	0,134	0,056
-166,081	-107,038	-0,075	-0,012
-165,066	-146,985	-0,126	0,008
-164,052	800,000	-0,053	-0,109
-163,037	800,000	0,023	0,055
-162,023	800,000	0,045	-0,097
-161,008	275,238	0,022	-0,028
-159,993	-200,000	0,006	0,096
-158,979	216,189	0,033	-0,037
-157,964	556,571	0,021	-0,035
-156,950	-154,750	-0,056	-0,003
-155,935	-50,031	-0,039	-0,013
-154,920	372,686	0,054	0,078
-153,906	123,205	0,088	-0,078
-152,891	-200,000	0,014	0,070
-151,877	-200,000	-0,007	-0,046
-150,862	-91,199	0,068	0,014
-149,847	448,564	-0,042	0,065
-148,833	800,000	0,041	-0,092
-147,818	280,616	0,104	0,132
-146,804	604,868	0,075	0,132
-145,789	72,034	0,089	0,065
-144,775	800,000	-0,006	-0,018
-143,760	59,704	-0,060	-0,042
-142,745	-61,753	0,073	-0,021
-141,731	117,237	0,008	-0,007
-140,716	169,633	0,029	-0,030
-139,702	254,257	-0,053	0,065
-138,687	-100,564	0,178	-0,031
-137,672	-200,000	0,005	0,018
-136,658	61,337	-0,030	-0,021
-135,643	-113,011	-0,130	-0,018
-134,629	-200,000	-0,015	-0,121
-133,614	-200,000	0,018	0,114
-132,599	105,857	-0,026	0,022
-131,585	800,000	0,045	0,127
-130,570	800,000	0,047	0,098
-129,556	13,346	-0,088	-0,048
-128,541	157,546	-0,128	-0,126
-127,526	-78,529	0,108	0,026
-126,512	-53,222	0,119	0,039
-125,497	29,233	0,039	0,024
-124,483	-200,000	-0,043	0,160
-123,468	800,000	0,075	-0,150
-122,453	472,897	-0,056	-0,090
-121,439	-97,233	-0,154	-0,028
-120,424	-200,000	-0,001	-0,062
-119,410	-200,000	0,020	-0,072
-118,395	800,000	0,021	0,043
-117,380	624,062	0,058	0,104
-116,366	205,495	0,068	-0,075
-115,351	800,000	-0,044	0,106
-114,337	-200,000	-0,016	-0,078
-113,322	-9,554	0,016	-0,008
-112,307	-200,000	0,011	-0,097
-111,293	-12,184	0,058	-0,027
-110,278	327,178	-0,041	0,056
-109,264	-190,216	0,051	0,000
-108,249	461,409	0,042	-0,066
-107,234	-184,017	-0,136	0,002
-106,220	-13,852	-0,029	0,013
-105,205	335,710	-0,065	-0,089
-104,191	-24,717	0,123	-0,052
-103,176	520,221	0,034	-0,056
-102,162	31,516	-0,071	0,043
-101,147	-14,696	0,026	-0,012
-100,132	198,520	-0,043	-0,046
-99,118	106,175	0,043	0,036
-98,103	-12,385	-0,116	-0,054
-97,089	800,000	-0,025	-0,052
-96,074	-200,000	-0,019	-0,076
-95,059	800,000	-0,027	-0,079
-94,045	800,000	0,021	0,062
-93,030	-200,000	-0,005	0,067
-92,016	-121,416	-0,128	-0,015
-91,001	170,868	-0,045	-0,045
-89,986	-106,524	0,090	0,014
-88,972	-200,000	0,003	0,047
-87,957	242,684	-0,078	-0,092
-86,943	116,160	-0,124	-0,108
-85,928	800,000	0,039	-0,083
-84,913	200,189	-0,059	-0,064
-83,899	-200,000	-0,023	-0,103
-82,884	241,420	0,073	-0,086
-81,870	-200,000	0,013	0,132
-80,855	222,296	-0,097	0,110
-79,840	-200,000	-0,005	0,068
-78,826	-126,158	-0,145	-0,015
-77,811	-110,766	0,068	0,010
-76,797	308,701	0,023	-0,030
-75,782	-89,750	0,035	0,007
-74,767	-200,000	-0,001	0,064
-73,753	800,000	0,055	0,127
-72,738	-200,000	0,023	-0,077
-71,724	-3,677	-0,067	0,033
-70,709	296,301	-0,033	-0,043
-69,694	526,869	-0,015	-0,025
-68,680	-200,000	0,040	-0,197
-67,665	266,785	0,058	0,072
-66,651	8,286	0,113	-0,060
-65,636	222,231	0,054	0,062
-64,622	-1,218	0,047	-0,023
-63,607	800,000	0,017	-0,034
-62,592	-33,231	-0,086	-0,033
-61,578	-200,000	-0,002	0,057
-60,563	-76,314	-0,027	0,007
-59,549	-49,742	0,087	0,029
-58,534	-2,728	-1,814	-0,894
-57,519	391,259	-1,441	-2,121
-56,505	-200,000	-0,419	-4,360
-55,490	306,644	0,841	1,110
-54,476	800,000	4,856	11,383
-53,461	-200,000	19,842	330,513
-52,446	-200,000	745,768	2330,798
-51,432	563,302	1654,319	2841,096
-50,417	76,277	1665,781	1245,145
-49,403	20,293	1538,992	875,899
-48,388	14,174	1461,362	802,091
-47,373	18,658	1451,448	818,170
-46,359	16,660	1441,202	802,839
-45,344	12,458	1436,701	780,272
-44,330	12,402	1434,707	778,891
-43,315	12,420	1432,976	778,006
-42,300	12,404	1431,435	777,063
-41,286	12,421	1430,022	776,345
-40,271	12,353	1428,955	775,415
-39,257	12,367	1427,844	774,847
-38,242	12,415	1426,390	774,255
-37,227	12,428	1425,034	773,547
-36,213	12,401	1423,930	772,791
-35,198	12,446	1422,574	772,236
-34,184	12,469	1421,834	771,913
-33,169	12,445	1420,168	770,864
-32,154	12,430	1419,291	770,289
-31,140	12,453	1418,020	769,674
-30,125	12,462	1416,857	769,055
-29,111	12,487	1415,770	768,551
-28,096	12,428	1414,686	767,658
-27,082	12,412	1413,496	766,908
-26,067	12,330	1412,776	766,100
-25,052	12,366	1411,583	765,591
-24,038	12,331	1410,703	764,920
-23,023	12,336	1409,730	764,387
-22,009	12,337	1408,446	763,662
-20,994	12,335	1407,575	763,152
-19,979	12,325	1406,831	762,670
-18,965	12,307	1405,847	762,023
-17,950	12,331	1404,790	761,530
-16,936	12,347	1403,859	761,073
-15,921	12,294	1402,847	760,245
-14,906	12,263	1402,147	759,690
-13,892	12,318	1401,032	759,312
-12,877	12,255	1400,443	758,670
-11,863	12,274	1399,361	758,144
-10,848	12,297	1398,383	757,690
-9,833	12,226	1397,616	756,913
-8,819	12,220	1396,729	756,375
-7,804	12,179	1395,837	755,673
-6,790	12,201	1394,812	755,190
-5,775	12,209	1393,740	754,619
-4,760	12,191	1392,710	753,947
-3,746	12,182	1391,697	753,325
-2,731	12,107	1391,219	752,689
-1,717	12,127	1390,221	752,212
-0,702	12,157	1388,421	751,347
0,313	16,194	1304,382	724,408
1,327	32,584	698,642	425,561
2,342	50,344	121,991	81,270
3,356	3,011	16,551	8,463
4,371	-1,559	3,248	1,611
5,386	-47,663	0,696	0,237
6,400	-200,000	0,023	0,335
7,415	-197,214	-0,224	-0,001
8,429	-91,867	-0,320	-0,063
9,444	89,328	-0,410	-0,322
10,459	347,837	-0,178	-0,249
11,473	16,664	-0,301	-0,168
12,488	-50,663	-0,319	-0,105
13,502	46,109	-0,284	-0,185
14,517	-154,343	-0,346	-0,016
15,531	-23,498	-0,359	-0,151
16,546	130,836	-0,244	-0,221
17,561	-14,831	-0,379	-0,171
18,575	269,379	-0,155	-0,193
19,590	28,939	-0,245	-0,146
20,604	-79,072	-0,120	-0,029
21,619	177,919	-0,335	-0,344
22,634	99,072	-0,344	-0,280
23,648	19,274	-0,500	-0,282
24,663	45,439	-0,427	-0,278
25,677	172,777	-0,334	-0,339
26,692	37,531	-0,247	-0,154
27,707	383,829	-0,214	-0,311
28,721	95,202	-0,339	-0,272
29,736	107,582	-0,429	-0,359
30,750	100,109	-0,363	-0,296
31,765	97,307	-0,462	-0,373
32,780	127,135	-0,213	-0,191
33,794	67,544	-0,353	-0,253
34,809	113,010	-0,322	-0,275
35,823	-12,359	-0,504	-0,231
36,838	25,441	-0,355	-0,207
37,853	101,565	-0,410	-0,336
38,867	-27,520	-0,485	-0,198
39,882	115,781	-0,284	-0,245
40,896	1,868	-0,461	-0,233
41,911	291,042	-0,205	-0,263
42,926	94,424	-0,336	-0,268
43,940	263,680	-0,239	-0,293
44,955	122,561	-0,400	-0,352
45,969	195,243	-0,241	-0,258
46,984	312,594	-0,262	-0,347
47,999	42,286	-0,294	-0,188
49,013	52,220	-0,242	-0,162
50,028	135,437	-0,314	-0,287
51,042	10,594	-0,352	-0,188
52,057	28,572	-0,341	-0,202
53,071	-13,885	-0,557	-0,252
54,086	800,000	-0,177	-0,443
55,101	166,235	-0,253	-0,252
56,115	45,423	-0,264	-0,171
57,130	-7,501	-0,341	-0,162
58,144	72,753	-0,312	-0,229
59,159	16,852	-0,381	-0,211
60,174	-40,299	-0,429	-0,156
61,188	-12,943	-0,428	-0,195
62,203	86,376	-0,277	-0,214
63,217	100,362	-0,266	-0,217
64,232	-35,341	-0,259	-0,098
65,247	-50,635	-0,507	-0,167
66,261	136,849	-0,254	-0,233
67,276	126,164	-0,385	-0,342
68,290	-127,975	-0,447	-0,044
69,305	723,817	-0,188	-0,352
70,320	4,274	-0,291	-0,149
71,334	56,299	-0,293	-0,200
72,349	-2,886	-0,341	-0,167
73,363	212,385	-0,182	-0,202
74,378	94,475	-0,379	-0,302
75,393	-43,316	-0,284	-0,100
76,407	-111,510	-0,355	-0,050
77,422	79,663	-0,249	-0,187
78,436	-6,765	-0,385	-0,183
79,451	-37,068	-0,344	-0,128
80,466	227,916	-0,285	-0,326
81,480	151,041	-0,211	-0,201
82,495	-3,169	-0,264	-0,128
83,509	48,354	-0,163	-0,107
84,524	-9,503	-0,390	-0,182
85,539	234,027	-0,209	-0,242
86,553	288,284	-0,159	-0,202
87,568	-34,604	-0,375	-0,143
88,582	12,952	-0,216	-0,117
89,597	144,041	-0,284	-0,265
90,611	-81,386	-0,212	-0,049
91,626	118,227	-0,190	-0,164
92,641	2,786	-0,304	-0,154
93,655	-53,406	-0,321	-0,102
94,670	122,586	-0,206	-0,181
95,684	67,027	-0,297	-0,211
96,699	56,827	-0,239	-0,163
97,714	-8,104	-0,332	-0,156
98,728	800,000	-0,071	-0,199
99,743	118,205	-0,292	-0,252
100,757	-17,044	-0,223	-0,098
101,772	-10,703	-0,232	-0,107
102,787	159,473	-0,295	-0,288
103,801	87,004	-0,274	-0,212
104,816	72,513	-0,180	-0,131
105,830	263,641	-0,142	-0,174
106,845	77,549	-0,294	-0,218
107,860	20,184	-0,233	-0,131
108,874	71,402	-0,181	-0,131
109,889	76,746	-0,294	-0,218
110,903	199,551	-0,210	-0,225
111,918	229,895	-0,207	-0,237
112,933	-22,706	-0,367	-0,154
113,947	16,717	-0,352	-0,194
114,962	287,291	-0,176	-0,222
115,976	-28,967	-0,330	-0,132
116,991	-13,652	-0,277	-0,125
118,006	159,024	-0,241	-0,234
119,020	8,534	-0,249	-0,131
120,035	57,116	-0,167	-0,114
121,049	-64,160	-0,250	-0,071
122,064	66,147	-0,224	-0,159
123,079	43,382	-0,192	-0,123
124,093	286,252	-0,185	-0,233
125,108	159,908	-0,250	-0,243
126,122	-7,155	-0,226	-0,107
127,137	-141,858	-0,308	-0,021
128,151	171,663	-0,179	-0,180
129,166	150,833	-0,178	-0,169
130,181	-40,656	-0,336	-0,121
131,195	44,386	-0,250	-0,160
132,210	105,796	-0,282	-0,233
133,224	236,239	-0,174	-0,201
134,239	282,417	-0,145	-0,182
135,254	42,282	-0,163	-0,103
136,268	-7,617	-0,256	-0,120
137,283	65,550	-0,263	-0,186
138,297	322,087	-0,181	-0,241
139,312	70,331	-0,340	-0,244
140,327	-13,211	-0,317	-0,143
141,341	23,714	-0,302	-0,173
142,356	74,196	-0,172	-0,126
143,370	97,494	-0,144	-0,115
144,385	-31,993	-0,264	-0,103
145,400	-15,937	-0,259	-0,114
146,414	202,421	-0,309	-0,333
147,429	-91,154	-0,286	-0,057
148,443	99,403	-0,218	-0,176
149,458	339,261	-0,170	-0,231
150,473	-13,193	-0,177	-0,080
151,487	137,318	-0,156	-0,142
152,502	90,912	-0,276	-0,215
153,516	375,922	-0,115	-0,164
154,531	153,312	-0,289	-0,276
155,546	636,116	-0,157	-0,279
156,560	-5,909	-0,255	-0,121
157,575	177,451	-0,134	-0,136
158,589	-106,445	-0,260	-0,040
159,604	39,383	-0,282	-0,176
160,619	116,758	-0,216	-0,185
161,633	46,413	-0,289	-0,186
162,648	374,162	-0,180	-0,255
163,662	26,038	-0,196	-0,114
164,677	53,908	-0,232	-0,155
165,692	2,976	-0,224	-0,113
166,706	181,199	-0,188	-0,192
167,721	109,140	-0,253	-0,210
168,735	144,428	-0,233	-0,216
169,750	-200,000	0,000	-0,167
170,764	242,709	-0,088	-0,103
171,779	34,090	-0,275	-0,166
172,794	119,010	-0,128	-0,110
173,808	239,519	-0,182	-0,212
174,823	800,000	-0,097	-0,229
175,837	-25,038	-0,289	-0,119
176,852	94,654	-0,273	-0,216
177,867	-73,366	-0,204	-0,051
178,881	-105,381	-0,161	0,025
179,896	630,116	-0,125	-0,220
180,910	360,698	-0,174	-0,242
181,925	-32,348	-0,213	-0,082
182,940	106,608	-0,133	-0,109
183,954	134,805	-0,210	-0,189
184,969	488,065	-0,157	-0,249
185,983	151,934	-0,151	-0,143
186,998	10,671	-0,154	-0,081
188,013	-38,909	-0,306	-0,111
189,027	114,792	-0,214	-0,181
190,042	83,237	-0,272	-0,206
191,056	-16,358	-0,235	-0,103
192,071	-200,000	-0,061	-0,201
193,086	40,167	-0,157	-0,098
194,100	646,089	-0,079	-0,140
195,115	37,573	-0,269	-0,166
196,129	-25,383	-0,236	-0,097
197,144	-164,563	-0,253	-0,008
198,159	126,651	-0,207	-0,182
199,173	-37,754	-0,327	-0,120
200,188	232,710	-0,191	-0,218
201,202	-21,962	-0,153	-0,064
202,217	-72,692	-0,211	-0,053
203,232	56,082	-0,286	-0,192
204,246	-39,033	-0,192	-0,070
205,261	266,454	-0,128	-0,155
206,275	216,510	-0,100	-0,111
207,290	-37,321	-0,222	-0,082
208,304	-186,569	-0,112	0,001
209,319	-153,663	-0,199	0,009
210,334	121,538	-0,149	-0,129
211,348	265,985	-0,159	-0,193
212,363	428,943	-0,192	-0,288
213,377	22,573	-0,285	-0,161
214,392	104,847	-0,265	-0,216
215,407	800,000	-0,096	-0,223
216,421	-149,946	-0,132	-0,007
217,436	-3,376	-0,216	-0,104
218,450	425,816	-0,198	-0,297
219,465	54,720	-0,260	-0,173
220,480	-99,879	-0,244	-0,042
221,494	26,482	-0,137	-0,079
222,509	9,823	-0,143	-0,075
223,523	39,166	-0,123	-0,076
224,538	-60,230	-0,162	-0,048
225,553	63,279	-0,217	-0,150
226,567	246,310	-0,164	-0,192
227,582	800,000	-0,103	-0,218
228,596	-63,478	-0,164	-0,046
229,611	51,029	-0,198	-0,130
230,626	-18,860	-0,213	-0,092
231,640	25,281	-0,162	-0,093
232,655	52,104	-0,271	-0,178
233,669	800,000	-0,059	-0,137
234,684	512,784	-0,194	-0,315
235,699	-61,570	-0,227	-0,065
236,713	438,337	-0,019	-0,029
237,728	175,971	-0,195	-0,196
238,742	85,157	-0,153	-0,116
239,757	122,691	-0,204	-0,177
240,772	84,921	-0,190	-0,144
241,786	-69,489	-0,314	-0,083
242,801	223,470	-0,211	-0,235
243,815	800,000	-0,093	-0,180
244,830	127,730	-0,220	-0,193
245,844	300,300	-0,157	-0,201
246,859	57,890	-0,207	-0,140
247,874	31,541	-0,204	-0,121
248,888	44,970	-0,136	-0,086
249,903	446,367	-0,131	-0,200
250,917	-50,300	-0,119	-0,039
251,932	-122,756	-0,137	0,015
252,947	-151,435	-0,111	0,006
253,961	332,527	-0,157	-0,210
254,976	92,938	-0,215	-0,168
255,990	380,809	-0,133	-0,189
257,005	277,452	-0,120	-0,148
258,020	67,032	-0,198	-0,139
259,034	-200,000	-0,015	-0,093
260,049	-200,000	-0,007	-0,133
261,063	-22,037	-0,232	-0,097
262,078	-200,000	-0,012	-0,092
263,093	74,524	-0,212	-0,153
264,107	194,940	-0,153	-0,161
265,122	-200,000	-0,017	0,087
266,136	381,152	-0,084	-0,119
267,151	40,178	-0,119	-0,074
268,166	28,091	-0,099	0,058
269,180	800,000	-0,063	-0,163
270,195	95,379	-0,180	-0,141
271,209	97,744	-0,220	-0,174
272,224	79,425	-0,188	-0,139
273,239	260,618	-0,126	-0,150
274,253	800,000	-0,052	-0,123
275,268	174,765	-0,101	-0,101
276,282	317,881	-0,153	-0,201
277,297	124,548	-0,200	-0,174
278,312	90,293	-0,113	-0,087
279,326	-155,138	-0,127	-0,006
280,341	18,225	-0,151	-0,083
281,355	334,040	-0,129	-0,173
282,370	-200,000	-0,031	-0,097
283,384	-72,579	-0,192	-0,049
284,399	42,166	-0,224	-0,140
285,414	-56,226	-0,165	-0,050
286,428	122,688	-0,152	-0,131
287,443	-97,062	-0,042	0,008
288,457	-150,250	-0,168	-0,009
289,472	5,409	-0,118	-0,060
290,487	140,610	-0,131	-0,119
291,501	786,300	-0,091	-0,173
292,516	302,894	-0,103	-0,132
293,530	-3,930	-0,175	-0,083
294,545	152,834	-0,028	-0,026
295,560	-30,226	-0,136	-0,053
296,574	-155,630	-0,217	-0,009
297,589	-79,200	-0,258	-0,060
298,603	185,887	-0,167	-0,171
299,618	27,172	-0,289	-0,167
300,633	75,002	-0,078	-0,056
301,647	-187,985	-0,125	-0,001
302,662	450,299	-0,164	-0,250
303,676	-30,578	-0,118	-0,046
304,691	289,925	-0,158	-0,198
305,706	800,000	-0,083	-0,165
306,720	142,239	-0,132	-0,120
307,735	-200,000	-0,018	-0,192
308,749	-150,192	-0,146	0,008
309,764	725,551	-0,086	-0,159
310,779	30,790	-0,092	-0,054
311,793	478,487	-0,081	-0,127
312,808	-18,302	-0,288	-0,123
313,822	432,130	-0,112	-0,168
314,837	144,295	-0,149	-0,137
315,852	20,207	-0,100	-0,055
316,866	-200,000	0,031	-0,142
317,881	-52,314	-0,203	-0,064
318,895	69,226	-0,167	-0,118
319,910	-75,307	-0,134	-0,033
320,925	-200,000	0,003	-0,209
321,939	-153,920	-0,218	-0,010
322,954	-200,000	-0,017	-0,221
323,968	-200,000	-0,012	-0,057
324,983	-200,000	-0,040	-0,156
325,997	374,770	-0,077	-0,108
327,012	144,949	-0,192	-0,177
328,027	42,031	-0,182	-0,113
329,041	431,052	-0,064	-0,095
330,056	-200,000	-0,020	-0,154
331,070	575,394	-0,034	-0,057
332,085	-99,701	-0,163	-0,028
333,100	-28,855	-0,076	0,030
334,114	100,591	-0,132	-0,105
335,129	-107,316	-0,240	0,036
336,143	-32,444	-0,234	-0,089
337,158	562,297	-0,092	-0,153
338,173	-93,560	-0,220	-0,041
339,187	-122,304	-0,076	0,008
340,202	-65,178	-0,131	-0,036
341,216	403,171	-0,137	-0,199
342,231	215,652	-0,124	-0,135
343,246	339,345	-0,054	-0,072
344,260	-35,336	-0,120	-0,044
345,275	-200,000	-0,020	-0,086
346,289	200,033	-0,055	0,058
347,304	34,847	-0,147	-0,088
348,319	-25,175	-0,152	-0,061
349,333	744,164	-0,118	-0,219
350,348	96,855	-0,202	-0,158
351,362	-200,000	-0,026	-0,119
352,377	-103,450	-0,123	-0,020
353,392	-114,498	-0,136	0,018
354,406	-90,574	-0,107	-0,021
355,421	206,583	1312,994	1401,631
356,435	158,884	1473,508	1402,140
