DTS Sentinel unit serial number:	SN410029Multiplexer serial number:	ORYXHardware model number:	OX2-SRSoftware version number:	ORYX F/W v4,00 Oryx Data Collector v3.7.2.0data status	okinstallation	B3 Nyhavnadifferential loss correction	single-endedforward channel	channel 1reverse channel	N/Adate	2023/12/01time	12:57:30forward acquisition time	300,00reverse acquisition time	0,00gamma	499,1914k internal	0,3213k external	0,3213temperature offset calibration	1,0000default loss term (dB/km)	0,3820temperature slope calibration	1,0000multiplexer offset coefficient	1,0000multiplexer slope coefficient	1,0000fibre end	0,00T internal ref (°C)	9,11T ext. ref 1 (°C)	-4,92T ext. ref 2 (°C)	-5,04length (m)	temperature (°C)	Stokes	anti-Stokes-744,400	700,759	-0,137	-0,263
-743,385	-200,000	-0,082	0,334
-742,371	-200,000	-0,054	-0,236
-741,356	579,333	0,091	0,161
-740,342	162,311	-0,197	-0,201
-739,327	800,000	-0,096	0,293
-738,312	129,056	-0,249	-0,230
-737,298	800,000	-0,041	0,114
-736,283	-200,000	-0,040	-0,238
-735,269	559,801	-0,131	0,229
-734,254	1,297	-0,133	-0,069
-733,239	405,897	-0,117	0,179
-732,225	-200,000	-0,036	-0,216
-731,210	-200,000	-0,001	-0,041
-730,196	90,615	0,066	0,054
-729,181	13,781	-0,040	-0,023
-728,167	-200,000	-0,017	-0,118
-727,152	-200,000	0,011	-0,037
-726,137	800,000	0,019	0,044
-725,123	-82,173	-0,112	0,026
-724,108	800,000	-0,072	-0,180
-723,094	800,000	-0,024	0,055
-722,079	800,000	0,034	0,081
-721,064	800,000	0,039	-0,104
-720,050	-34,150	0,069	0,027
-719,035	10,601	-0,115	-0,063
-718,021	-86,548	-0,076	0,017
-717,006	-147,800	-0,073	-0,004
-715,991	800,000	0,040	-0,087
-714,977	358,060	-0,118	-0,171
-713,962	-17,188	-0,123	0,056
-712,948	-11,830	0,052	-0,025
-711,933	-19,682	-0,046	0,020
-710,918	800,000	-0,033	-0,076
-709,904	79,395	-0,134	-0,104
-708,889	325,399	0,064	-0,089
-707,875	-39,494	-0,169	-0,064
-706,860	-200,000	0,016	-0,053
-705,845	-114,259	0,042	0,006
-704,831	-177,863	0,052	-0,001
-703,816	141,581	-0,047	-0,045
-702,802	218,317	0,110	-0,127
-701,787	378,902	-0,054	-0,080
-700,772	-200,000	-0,024	0,089
-699,758	800,000	-0,031	-0,092
-698,743	24,004	0,216	0,129
-697,729	288,368	0,077	0,101
-696,714	-69,947	0,080	-0,022
-695,699	-200,000	0,006	-0,106
-694,685	-200,000	-0,034	0,115
-693,670	-200,000	-0,005	0,056
-692,656	-43,493	-0,037	-0,014
-691,641	-177,404	-0,056	0,001
-690,627	-47,705	0,073	-0,026
-689,612	-140,865	0,137	0,010
-688,597	-180,685	-0,081	0,001
-687,583	17,982	-0,078	0,045
-686,568	511,238	-0,108	-0,182
-685,554	315,576	0,041	0,056
-684,539	-112,101	-0,105	-0,015
-683,524	-200,000	0,009	0,121
-682,510	-173,119	-0,044	0,001
-681,495	527,957	-0,061	-0,104
-680,481	-200,000	-0,017	-0,132
-679,466	-200,000	-0,010	-0,106
-678,451	183,141	-0,113	-0,120
-677,437	-200,000	-0,026	0,000
-676,422	178,606	-0,057	0,061
-675,408	-43,387	-0,025	0,009
-674,393	90,856	-0,037	-0,030
-673,378	169,888	-0,016	0,017
-672,364	800,000	-0,050	-0,131
-671,349	-68,844	0,079	0,022
-670,335	593,272	0,042	0,075
-669,320	460,559	-0,046	0,074
-668,305	-73,340	0,070	0,018
-667,291	-200,000	-0,011	-0,060
-666,276	36,462	-0,116	0,074
-665,262	17,684	0,125	-0,071
-664,247	-39,191	-0,065	-0,025
-663,232	-200,000	0,011	0,042
-662,218	-135,379	0,136	-0,012
-661,203	341,085	0,014	0,019
-660,189	6,334	-0,096	0,051
-659,174	800,000	-0,051	-0,108
-658,159	371,370	-0,035	0,051
-657,145	-78,213	-0,114	-0,028
-656,130	54,744	0,093	0,065
-655,116	110,094	0,075	0,065
-654,101	-200,000	0,018	0,132
-653,086	-151,777	-0,184	-0,010
-652,072	-200,000	-0,010	-0,094
-651,057	-200,000	-0,021	-0,282
-650,043	79,711	-0,136	-0,106
-649,028	244,814	-0,008	0,009
-648,014	209,160	-0,069	0,078
-646,999	-20,132	0,093	-0,041
-645,984	-44,780	-0,085	0,031
-644,970	-113,421	-0,127	-0,018
-643,955	800,000	0,062	0,132
-642,941	-110,602	-0,053	0,008
-641,926	-191,001	0,071	0,001
-640,911	-200,000	-0,023	-0,146
-639,897	500,296	0,092	0,154
-638,882	741,986	-0,031	0,060
-637,868	-42,966	-0,171	-0,062
-636,853	800,000	-0,024	-0,076
-635,838	-145,246	0,025	0,002
-634,824	-102,684	-0,151	0,026
-633,809	172,742	0,005	-0,005
-632,795	800,000	-0,026	0,057
-631,780	800,000	-0,019	-0,051
-630,765	7,806	-0,110	-0,059
-629,751	264,299	0,009	0,011
-628,736	-200,000	-0,015	-0,063
-627,722	-67,313	-0,066	-0,018
-626,707	800,000	0,031	0,078
-625,692	196,591	-0,069	0,076
-624,678	-89,415	0,176	0,037
-623,663	-39,924	0,061	-0,023
-622,649	122,429	-0,056	-0,050
-621,634	800,000	-0,029	0,071
-620,619	311,839	0,018	0,025
-619,605	-200,000	-0,005	-0,067
-618,590	6,393	0,125	-0,067
-617,576	-153,194	-0,081	-0,004
-616,561	800,000	0,021	0,045
-615,546	137,426	-0,061	0,058
-614,532	103,531	-0,126	0,107
-613,517	727,424	-0,047	-0,090
-612,503	122,993	0,057	0,051
-611,488	-108,526	0,135	0,021
-610,474	-23,409	-0,078	0,033
-609,459	-191,641	0,075	0,001
-608,444	-26,310	0,036	-0,015
-607,430	559,799	-0,088	-0,153
-606,415	7,030	-0,005	0,002
-605,401	-161,102	-0,085	-0,003
-604,386	-200,000	0,002	-0,077
-603,371	394,381	-0,014	0,021
-602,357	-40,557	-0,083	-0,031
-601,342	-181,239	0,115	0,002
-600,328	-172,882	-0,089	-0,002
-599,313	-200,000	0,017	-0,098
-598,298	51,892	0,109	0,074
-597,284	664,456	0,081	0,152
-596,269	800,000	0,009	0,024
-595,255	162,630	-0,094	0,095
-594,240	-200,000	0,019	0,089
-593,225	-21,886	-0,064	-0,028
-592,211	607,761	0,060	-0,108
-591,196	105,153	-0,110	-0,093
-590,182	-18,312	0,028	0,013
-589,167	267,834	-0,082	0,104
-588,152	-85,455	-0,104	-0,023
-587,138	800,000	-0,045	0,105
-586,123	121,028	-0,120	-0,108
-585,109	-130,118	0,132	0,013
-584,094	-150,751	-0,074	0,004
-583,079	572,029	0,058	-0,101
-582,065	62,477	0,021	-0,015
-581,050	5,017	-0,105	0,055
-580,036	313,618	-0,069	0,094
-579,021	-200,000	0,037	-0,144
-578,006	256,277	-0,070	-0,087
-576,992	-101,547	-0,096	-0,017
-575,977	47,844	0,072	-0,048
-574,963	140,853	-0,071	0,068
-573,948	800,000	-0,009	0,027
-572,934	-4,020	-0,041	0,020
-571,919	169,709	0,051	0,053
-570,904	258,659	-0,146	-0,182
-569,890	140,901	-0,125	-0,119
-568,875	117,863	0,046	-0,041
-567,861	-69,825	0,168	0,046
-566,846	-29,588	0,062	0,025
-565,831	92,592	-0,061	0,050
-564,817	-200,000	-0,004	0,080
-563,802	704,057	-0,011	-0,021
-562,788	-200,000	0,015	0,053
-561,773	111,210	0,052	0,045
-560,758	-67,001	0,054	0,015
-559,744	39,953	-0,016	-0,010
-558,729	187,593	0,039	-0,042
-557,715	-200,000	0,023	0,093
-556,700	-83,672	-0,087	0,020
-555,685	-200,000	0,003	0,083
-554,671	800,000	-0,033	0,101
-553,656	-200,000	-0,011	0,071
-552,642	1,284	-0,039	0,020
-551,627	-35,443	-0,040	0,016
-550,612	109,651	-0,072	0,062
-549,598	-86,552	-0,096	0,021
-548,583	-200,000	0,024	0,151
-547,569	800,000	0,025	-0,070
-546,554	72,329	-0,022	-0,017
-545,539	-32,484	0,097	-0,039
-544,525	-200,000	0,015	-0,137
-543,510	563,815	0,054	-0,094
-542,496	-200,000	-0,020	-0,146
-541,481	-89,585	0,063	0,013
-540,466	800,000	0,017	0,054
-539,452	4,851	0,078	0,041
-538,437	-102,451	0,091	-0,015
-537,423	405,468	0,054	-0,082
-536,408	800,000	-0,015	-0,043
-535,393	78,295	-0,111	0,085
-534,379	-25,361	-0,053	0,022
-533,364	-17,683	0,017	0,008
-532,350	-200,000	-0,028	-0,206
-531,335	-145,293	0,034	-0,002
-530,321	-124,853	-0,011	0,001
-529,306	-92,151	-0,091	0,018
-528,291	800,000	-0,012	-0,037
-527,277	-200,000	-0,034	-0,144
-526,262	-200,000	0,005	-0,075
-525,248	143,682	-0,033	-0,031
-524,233	81,988	-0,024	-0,019
-523,218	-200,000	0,014	0,104
-522,204	-200,000	-0,004	-0,056
-521,189	-60,348	-0,050	0,015
-520,175	316,184	-0,045	0,061
-519,160	87,708	0,064	0,051
-518,145	-200,000	0,041	0,162
-517,131	-200,000	0,021	0,145
-516,116	515,942	0,084	0,141
-515,102	-156,822	-0,080	0,003
-514,087	224,429	0,058	0,068
-513,072	-154,749	-0,113	-0,005
-512,058	-136,335	-0,065	0,005
-511,043	-200,000	-0,006	0,052
-510,029	111,325	0,047	0,041
-509,014	-88,118	-0,090	-0,019
-507,999	800,000	-0,057	0,173
-506,985	-200,000	0,005	-0,078
-505,970	760,032	-0,053	-0,104
-504,956	-75,941	-0,091	-0,023
-503,941	-200,000	0,001	-0,122
-502,926	-147,107	-0,211	0,013
-501,912	-200,000	-0,030	-0,136
-500,897	455,303	0,033	-0,052
-499,883	140,706	-0,068	-0,065
-498,868	-200,000	-0,038	-0,157
-497,853	29,348	-0,067	0,041
-496,839	21,218	0,066	-0,038
-495,824	74,162	0,049	-0,037
-494,810	-160,247	0,091	-0,003
-493,795	692,827	-0,022	-0,041
-492,781	4,314	0,025	-0,013
-491,766	-130,941	-0,168	-0,016
-490,751	137,036	-0,116	-0,109
-489,737	800,000	-0,069	-0,165
-488,722	-126,057	0,069	0,007
-487,708	-200,000	-0,021	-0,095
-486,693	-200,000	0,012	0,238
-485,678	-200,000	-0,059	-0,000
-484,664	33,586	-0,085	0,053
-483,649	-200,000	-0,020	-0,073
-482,635	65,813	-0,070	0,051
-481,620	218,066	0,054	0,061
-480,605	282,056	0,073	0,094
-479,591	50,432	0,060	-0,040
-478,576	-68,298	-0,106	0,029
-477,562	432,374	-0,019	0,030
-476,547	-200,000	0,000	-0,002
-475,532	-83,068	0,093	-0,021
-474,518	800,000	0,031	0,093
-473,503	-52,456	0,066	-0,022
-472,489	-2,399	0,062	-0,031
-471,474	-200,000	0,029	0,111
-470,459	288,458	0,035	-0,046
-469,445	-200,000	-0,014	-0,127
-468,430	-116,105	-0,066	0,009
-467,416	800,000	-0,043	0,100
-466,401	800,000	-0,011	0,029
-465,386	-91,690	0,027	-0,006
-464,372	-64,492	0,078	-0,023
-463,357	-103,969	0,033	-0,006
-462,343	389,290	0,037	0,055
-461,328	-200,000	0,003	-0,013
-460,313	-2,614	0,051	0,026
-459,299	298,282	0,149	-0,197
-458,284	800,000	-0,008	0,025
-457,270	-54,519	-0,090	-0,029
-456,255	-84,886	0,074	0,016
-455,241	-200,000	-0,006	0,041
-454,226	800,000	0,039	-0,122
-453,211	-68,671	0,041	0,011
-452,197	-135,001	0,066	-0,006
-451,182	99,888	0,055	-0,046
-450,168	69,379	0,094	0,069
-449,153	-200,000	0,007	-0,134
-448,138	-65,676	0,055	-0,016
-447,124	-60,997	-0,097	0,029
-446,109	-60,588	0,125	0,038
-445,095	-88,820	-0,107	0,023
-444,080	-66,373	-0,005	0,001
-443,065	800,000	0,049	0,099
-442,051	-100,120	0,020	0,003
-441,036	-200,000	0,001	0,053
-440,022	255,739	-0,046	0,056
-439,007	800,000	-0,026	-0,074
-437,992	800,000	-0,053	0,139
-436,978	-200,000	-0,023	0,087
-435,963	13,092	-0,035	0,019
-434,949	-89,460	0,046	0,010
-433,934	-43,256	-0,129	-0,047
-432,919	65,406	-0,100	-0,072
-431,905	800,000	0,012	0,027
-430,890	358,740	0,021	0,030
-429,876	-93,752	0,058	-0,011
-428,861	353,217	0,074	0,106
-427,846	-128,104	-0,031	-0,003
-426,832	330,056	-0,115	-0,159
-425,817	-200,000	-0,024	-0,106
-424,803	-200,000	-0,013	-0,077
-423,788	63,669	-0,047	0,034
-422,773	-200,000	-0,002	0,138
-421,759	-200,000	-0,011	-0,052
-420,744	-200,000	-0,021	0,068
-419,730	133,579	-0,058	-0,054
-418,715	24,063	-0,072	0,043
-417,701	348,459	-0,027	0,038
-416,686	-200,000	-0,010	0,069
-415,671	-70,355	0,117	0,031
-414,657	-29,103	0,135	0,055
-413,642	-37,791	-0,137	-0,052
-412,628	16,703	0,048	0,027
-411,613	51,419	-0,063	-0,043
-410,598	-91,685	-0,056	0,011
-409,584	-68,063	0,143	-0,040
-408,569	-200,000	0,012	0,124
-407,555	-100,346	0,085	0,015
-406,540	800,000	0,105	-0,235
-405,525	-63,120	0,039	-0,012
-404,511	-200,000	-0,013	0,154
-403,496	800,000	-0,051	-0,104
-402,482	-200,000	-0,035	0,112
-401,467	176,081	-0,100	0,104
-400,452	-200,000	0,000	0,034
-399,438	-31,972	0,069	0,028
-398,423	38,933	-0,123	0,079
-397,409	338,756	-0,042	-0,059
-396,394	575,181	0,099	-0,173
-395,379	-72,310	0,031	0,008
-394,365	-44,651	0,108	0,038
-393,350	800,000	0,029	0,078
-392,336	-200,000	-0,028	0,118
-391,321	220,469	0,058	-0,067
-390,306	-128,418	0,076	0,008
-389,292	-200,000	0,010	-0,133
-388,277	225,011	0,074	-0,086
-387,263	-121,162	0,121	-0,014
-386,248	-200,000	0,003	0,013
-385,233	-22,525	-0,026	0,011
-384,219	17,327	-0,057	-0,032
-383,204	-110,670	-0,106	-0,016
-382,190	800,000	0,056	-0,139
-381,175	800,000	0,022	0,049
-380,160	388,893	-0,029	-0,043
-379,146	36,887	0,115	0,073
-378,131	9,689	-0,092	-0,049
-377,117	108,748	-0,041	-0,035
-376,102	800,000	-0,026	0,054
-375,088	800,000	-0,044	-0,105
-374,073	-181,568	0,121	-0,002
-373,058	800,000	0,020	0,048
-372,044	800,000	0,026	0,065
-371,029	761,248	-0,024	0,046
-370,015	100,021	-0,111	0,092
-369,000	704,255	-0,035	-0,066
-367,985	-200,000	0,010	0,055
-366,971	-200,000	0,000	-0,066
-365,956	262,217	-0,067	0,083
-364,942	51,611	0,127	0,086
-363,927	79,531	0,089	0,068
-362,912	207,031	0,072	0,080
-361,898	-14,219	-0,124	-0,057
-360,883	-200,000	0,004	-0,087
-359,869	-110,808	-0,051	0,007
-358,854	-45,616	0,096	0,034
-357,839	-200,000	0,042	-0,215
-356,825	485,001	-0,075	0,123
-355,810	123,390	0,049	0,044
-354,796	344,182	-0,036	-0,050
-353,781	16,154	0,050	-0,028
-352,766	-200,000	0,004	-0,142
-351,752	184,692	0,041	0,044
-350,737	30,476	-0,076	0,046
-349,723	-42,844	0,077	-0,028
-348,708	56,970	-0,039	0,027
-347,693	-67,758	0,110	0,031
-346,679	-200,000	-0,049	-0,187
-345,664	-32,592	-0,119	0,047
-344,650	311,015	0,024	0,033
-343,635	-73,117	0,056	0,014
-342,620	-82,618	0,083	-0,019
-341,606	800,000	0,057	0,126
-340,591	800,000	-0,057	-0,121
-339,577	-50,964	0,072	-0,024
-338,562	-129,581	-0,154	-0,015
-337,548	-63,827	0,207	-0,060
-336,533	-200,000	-0,011	0,040
-335,518	0,995	0,096	-0,049
-334,504	520,351	-0,058	-0,097
-333,489	-200,000	0,006	0,078
-332,475	-24,803	0,109	-0,046
-331,460	386,642	-0,047	-0,069
-330,445	-200,000	-0,007	-0,043
-329,431	800,000	-0,032	-0,087
-328,416	27,565	0,102	0,061
-327,402	175,321	-0,026	0,027
-326,387	-74,665	0,053	0,013
-325,372	-150,223	0,085	0,005
-324,358	-24,035	-0,052	-0,022
-323,343	-126,299	-0,166	0,017
-322,329	-62,208	0,041	-0,012
-321,314	-68,238	0,076	0,021
-320,299	136,637	0,092	0,086
-319,285	-19,704	-0,104	0,045
-318,270	330,079	-0,014	-0,019
-317,256	-80,266	0,129	-0,030
-316,241	137,851	0,072	-0,067
-315,226	35,396	-0,083	0,052
-314,212	106,163	0,117	0,099
-313,197	-114,497	0,091	0,012
-312,183	-82,863	0,046	-0,010
-311,168	130,442	0,069	0,063
-310,153	-200,000	-0,021	-0,144
-309,139	6,760	-0,019	0,010
-308,124	311,369	-0,068	0,091
-307,110	800,000	0,078	0,188
-306,095	-111,311	-0,019	-0,003
-305,080	-67,039	0,028	0,008
-304,066	-49,764	0,099	0,033
-303,051	800,000	-0,038	0,110
-302,037	-200,000	-0,016	0,072
-301,022	69,929	-0,035	-0,026
-300,008	52,377	0,079	0,054
-298,993	-200,000	0,018	0,110
-297,978	-18,996	-0,047	-0,021
-296,964	-200,000	-0,018	-0,070
-295,949	35,108	-0,041	0,025
-294,935	-128,984	-0,012	0,001
-293,920	685,236	-0,040	-0,074
-292,905	99,146	0,029	0,024
-291,891	-68,782	-0,100	0,027
-290,876	198,083	0,019	-0,021
-289,862	393,303	0,047	-0,070
-288,847	-134,355	0,054	-0,005
-287,832	800,000	0,043	-0,134
-286,818	49,881	0,074	-0,049
-285,803	40,391	0,053	-0,034
-284,789	800,000	-0,019	0,057
-283,774	800,000	0,050	0,135
-282,759	-97,304	0,112	-0,021
-281,745	-80,221	-0,126	-0,030
-280,730	800,000	-0,066	-0,133
-279,716	1,189	-0,077	0,039
-278,701	-62,485	0,078	-0,023
-277,686	-200,000	-0,003	0,145
-276,672	238,563	-0,063	0,074
-275,657	800,000	0,046	-0,107
-274,643	26,014	-0,082	-0,049
-273,628	32,481	-0,070	0,043
-272,613	-12,048	0,065	-0,030
-271,599	14,614	-0,014	0,008
-270,584	-200,000	-0,012	0,086
-269,570	551,908	0,060	0,103
-268,555	800,000	-0,045	-0,108
-267,540	334,217	-0,029	-0,040
-266,526	-200,000	-0,005	-0,121
-265,511	-50,988	0,106	0,035
-264,497	151,144	0,049	0,047
-263,482	635,440	0,059	0,108
-262,467	800,000	-0,020	0,057
-261,453	372,317	0,029	-0,041
-260,438	-39,788	-0,059	-0,022
-259,424	-200,000	-0,001	-0,065
-258,409	262,282	0,065	-0,080
-257,395	-11,607	0,086	0,040
-256,380	399,912	-0,026	0,039
-255,365	-74,979	-0,176	0,044
-254,351	-200,000	0,001	-0,036
-253,336	32,904	0,124	-0,076
-252,322	4,633	0,073	0,038
-251,307	-200,000	-0,017	-0,082
-250,292	744,193	0,065	-0,125
-249,278	800,000	-0,036	0,072
-248,263	20,973	0,094	0,054
-247,249	-58,551	-0,032	0,010
-246,234	-84,712	-0,119	-0,026
-245,219	190,352	0,120	-0,128
-244,205	-200,000	0,016	0,054
-243,190	65,289	-0,085	-0,061
-242,176	-200,000	-0,008	0,098
-241,161	80,924	-0,016	0,012
-240,146	340,292	-0,056	0,078
-239,132	-77,121	0,051	-0,013
-238,117	-85,587	-0,101	-0,022
-237,103	-20,518	0,122	-0,053
-236,088	171,276	-0,093	0,095
-235,073	158,546	-0,112	-0,111
-234,059	-200,000	0,008	-0,045
-233,044	72,675	-0,147	-0,109
-232,030	-200,000	-0,027	-0,138
-231,015	735,837	-0,040	0,077
-230,000	800,000	0,043	-0,096
-228,986	-44,823	-0,067	-0,024
-227,971	18,360	0,039	0,022
-226,957	-200,000	0,022	-0,069
-225,942	-114,527	-0,126	-0,017
-224,927	376,664	0,016	0,023
-223,913	37,080	-0,057	0,036
-222,898	546,088	0,044	0,074
-221,884	-200,000	0,018	-0,102
-220,869	52,087	0,082	0,055
-219,855	-200,000	0,001	0,137
-218,840	48,676	0,018	-0,012
-217,825	222,714	-0,039	-0,045
-216,811	-9,111	-0,056	0,027
-215,796	800,000	-0,053	-0,128
-214,782	85,545	0,071	0,055
-213,767	133,182	-0,046	-0,042
-212,752	-151,179	0,043	0,002
-211,738	147,893	0,043	-0,041
-210,723	85,337	0,079	0,062
-209,709	800,000	0,025	0,075
-208,694	34,063	-0,097	-0,060
-207,679	578,222	0,047	-0,082
-206,665	11,173	-0,043	0,023
-205,650	-37,833	0,131	0,049
-204,636	-176,354	0,257	0,005
-203,621	60,615	-0,041	0,029
-202,606	-94,132	-0,024	0,005
-201,592	168,852	-0,066	-0,067
-200,577	-74,352	-0,166	0,042
-199,563	-24,429	0,030	0,013
-198,548	-44,278	0,058	0,021
-197,533	596,723	0,069	0,123
-196,519	-72,515	0,069	0,018
-195,504	293,813	-0,075	-0,097
-194,490	212,662	-0,093	-0,105
-193,475	-25,954	0,092	-0,038
-192,460	-64,698	0,078	-0,022
-191,446	800,000	0,021	0,051
-190,431	800,000	0,019	0,047
-189,417	800,000	-0,038	-0,076
-188,402	800,000	0,006	-0,020
-187,387	-200,000	-0,009	-0,067
-186,373	800,000	-0,004	0,010
-185,358	-122,253	-0,071	-0,008
-184,344	637,017	-0,077	-0,138
-183,329	-200,000	0,004	-0,015
-182,315	-118,875	-0,078	0,010
-181,300	800,000	-0,019	0,042
-180,285	261,026	-0,030	-0,037
-179,271	114,232	-0,075	-0,065
-178,256	-200,000	0,010	0,212
-177,242	800,000	-0,035	0,083
-176,227	434,559	0,109	0,169
-175,212	-148,755	0,108	0,006
-174,198	462,098	-0,065	0,103
-173,183	18,516	-0,099	-0,056
-172,169	148,068	0,094	-0,090
-171,154	-18,581	0,037	0,016
-170,139	581,279	0,038	-0,067
-169,125	-200,000	-0,029	-0,147
-168,110	-200,000	-0,007	-0,050
-167,096	4,187	0,087	0,045
-166,081	-117,898	-0,082	-0,010
-165,066	8,436	0,035	0,019
-164,052	-66,424	0,153	0,043
-163,037	201,125	0,035	0,038
-162,023	-200,000	0,006	0,102
-161,008	-52,287	0,141	0,046
-159,993	33,183	-0,073	-0,045
-158,979	-200,000	-0,001	-0,039
-157,964	-16,273	-0,095	-0,043
-156,950	-38,648	0,101	-0,037
-155,935	46,680	0,025	0,017
-154,920	-121,576	0,092	0,011
-153,906	14,630	0,088	0,048
-152,891	-200,000	0,029	0,106
-151,877	-200,000	-0,012	-0,131
-150,862	800,000	-0,063	-0,135
-149,847	-200,000	-0,017	-0,069
-148,833	800,000	0,037	0,099
-147,818	800,000	0,015	-0,038
-146,804	-128,323	0,119	0,012
-145,789	18,097	0,099	0,056
-144,775	25,226	0,061	-0,036
-143,760	133,382	-0,123	-0,113
-142,745	-135,830	-0,148	0,012
-141,731	766,834	0,044	-0,085
-140,716	344,899	-0,040	0,056
-139,702	227,006	-0,076	0,087
-138,687	-157,518	0,075	0,003
-137,672	27,113	-0,036	-0,021
-136,658	217,620	0,101	-0,114
-135,643	-15,540	0,026	-0,012
-134,629	-102,542	-0,190	-0,032
-133,614	220,366	0,013	-0,014
-132,599	800,000	-0,004	0,009
-131,585	584,985	0,010	-0,018
-130,570	-181,223	0,033	-0,000
-129,556	-200,000	-0,021	-0,087
-128,541	800,000	-0,019	0,044
-127,526	-12,152	0,073	0,033
-126,512	-200,000	0,010	-0,064
-125,497	-85,979	0,111	0,024
-124,483	82,123	0,085	-0,065
-123,468	-107,380	0,161	-0,025
-122,453	231,209	-0,062	-0,072
-121,439	27,160	0,104	-0,062
-120,424	-113,880	-0,052	-0,007
-119,410	80,850	0,064	-0,049
-118,395	98,448	0,047	0,038
-117,380	-49,667	0,028	0,009
-116,366	-200,000	0,004	-0,088
-115,351	-50,545	0,116	-0,038
-114,337	249,475	0,103	-0,123
-113,322	-200,000	-0,032	0,127
-112,307	-191,998	-0,062	0,000
-111,293	-89,644	0,109	0,022
-110,278	381,672	0,047	-0,069
-109,264	387,552	0,042	0,061
-108,249	111,272	0,018	-0,016
-107,234	-8,849	-0,038	0,018
-106,220	278,005	0,047	0,059
-105,205	119,457	-0,068	0,060
-104,191	133,332	0,059	0,054
-103,176	425,376	0,074	-0,113
-102,162	68,015	-0,075	0,054
-101,147	-200,000	0,004	0,087
-100,132	-15,046	0,115	-0,052
-99,118	800,000	-0,049	-0,122
-98,103	-56,745	0,103	0,032
-97,089	222,314	0,050	0,057
-96,074	282,614	-0,069	0,087
-95,059	42,359	0,069	-0,044
-94,045	-200,000	-0,019	-0,156
-93,030	241,772	0,018	-0,022
-92,016	-200,000	-0,011	0,062
-91,001	-130,641	0,148	-0,014
-89,986	-141,724	0,192	-0,013
-88,972	35,312	-0,060	0,037
-87,957	800,000	0,039	-0,118
-86,943	800,000	-0,058	-0,149
-85,928	-129,794	-0,108	0,010
-84,913	-200,000	0,000	0,088
-83,899	-33,271	-0,192	0,075
-82,884	46,539	0,152	0,100
-81,870	-71,929	0,056	-0,015
-80,855	-28,541	-0,062	-0,025
-79,840	-200,000	-0,007	-0,051
-78,826	-37,487	0,088	0,033
-77,811	-0,754	-0,012	-0,006
-76,797	-200,000	-0,030	0,107
-75,782	-169,977	-0,122	0,003
-74,767	10,380	-0,039	0,021
-73,753	280,895	0,104	-0,131
-72,738	121,930	-0,065	-0,057
-71,724	-82,275	-0,115	0,026
-70,709	-200,000	0,005	-0,196
-69,694	87,662	0,018	0,014
-68,680	188,526	-0,112	0,119
-67,665	11,670	0,041	0,022
-66,651	412,378	0,063	-0,095
-65,636	-160,686	-0,042	-0,002
-64,622	800,000	0,021	0,058
-63,607	72,471	-0,025	-0,019
-62,592	-159,226	-0,186	0,007
-61,578	-43,162	-0,122	-0,043
-60,563	181,502	0,119	0,124
-59,549	-200,000	0,023	0,103
-58,534	65,561	-1,942	-1,385
-57,519	743,071	-1,034	-1,971
-56,505	-200,000	-0,554	-4,429
-55,490	405,522	1,069	1,595
-54,476	800,000	5,015	11,290
-53,461	-200,000	21,751	340,579
-52,446	800,000	762,049	2308,474
-51,432	535,314	1658,701	2785,195
-50,417	69,826	1656,141	1202,880
-49,403	16,799	1530,276	851,680
-48,388	10,962	1454,559	781,374
-47,373	19,160	1446,522	816,274
-46,359	14,358	1435,275	787,123
-45,344	9,231	1431,268	760,535
-44,330	9,164	1429,559	759,279
-43,315	9,182	1427,420	758,197
-42,300	9,191	1425,602	757,247
-41,286	9,169	1424,682	756,623
-40,271	9,180	1423,302	755,910
-39,257	9,130	1422,201	755,060
-38,242	9,177	1420,961	754,593
-37,227	9,223	1419,769	754,147
-36,213	9,203	1418,638	753,425
-35,198	9,185	1417,367	752,634
-34,184	9,230	1416,520	752,365
-33,169	9,148	1415,026	751,157
-32,154	9,193	1414,063	750,826
-31,140	9,147	1412,828	749,925
-30,125	9,221	1411,476	749,524
-29,111	9,181	1410,580	748,834
-28,096	9,177	1409,473	748,196
-27,082	9,123	1408,104	747,187
-26,067	9,165	1406,898	746,715
-25,052	9,149	1406,090	746,180
-24,038	9,184	1405,025	745,748
-23,023	9,134	1404,146	745,021
-22,009	9,135	1403,067	744,424
-20,994	9,103	1402,217	743,792
-19,979	9,111	1401,236	743,280
-18,965	9,119	1400,028	742,648
-17,950	9,112	1399,316	742,207
-16,936	9,078	1398,305	741,482
-15,921	9,043	1397,343	740,782
-14,906	9,052	1396,384	740,283
-13,892	9,073	1395,525	739,897
-12,877	9,091	1394,828	739,585
-11,863	9,051	1394,149	739,006
-10,848	9,040	1393,005	738,322
-9,833	8,991	1392,175	737,626
-8,819	8,952	1391,374	736,992
-7,804	8,915	1390,371	736,262
-6,790	8,942	1389,180	735,724
-5,775	8,978	1388,162	735,321
-4,760	8,937	1387,250	734,621
-3,746	8,993	1386,290	734,341
-2,731	9,012	1385,262	733,857
-1,717	8,927	1384,704	733,138
-0,702	8,958	1382,941	732,319
0,313	12,932	1294,342	703,522
1,327	28,862	685,109	408,245
2,342	44,760	118,299	76,560
3,356	1,241	16,645	8,397
4,371	5,825	3,719	1,933
5,386	51,242	1,165	0,778
6,400	-200,000	0,187	0,642
7,415	591,260	-0,044	0,078
8,429	-76,406	-0,290	-0,071
9,444	2,071	-0,266	-0,135
10,459	5,480	-0,305	-0,158
11,473	-51,383	-0,341	-0,112
12,488	-48,100	-0,325	-0,110
13,502	82,395	-0,255	-0,194
14,517	-45,308	-0,312	-0,109
15,531	364,893	-0,259	-0,368
16,546	-0,208	-0,343	-0,171
17,561	-51,824	-0,353	-0,115
18,575	574,255	-0,063	-0,109
19,590	258,442	-0,194	-0,235
20,604	-156,148	-0,233	-0,010
21,619	83,919	-0,443	-0,340
22,634	145,630	-0,500	-0,471
23,648	235,508	-0,383	-0,446
24,663	37,820	-0,342	-0,213
25,677	166,088	-0,200	-0,199
26,692	20,369	-0,398	-0,226
27,707	-44,617	-0,394	-0,138
28,721	179,985	-0,334	-0,344
29,736	56,554	-0,389	-0,266
30,750	159,276	-0,281	-0,274
31,765	117,776	-0,417	-0,361
32,780	-30,229	-0,364	-0,145
33,794	164,613	-0,331	-0,328
34,809	5,576	-0,409	-0,212
35,823	166,268	-0,325	-0,324
36,838	-106,025	-0,342	-0,053
37,853	57,477	-0,341	-0,233
38,867	139,011	-0,357	-0,330
39,882	161,401	-0,236	-0,232
40,896	15,389	-0,316	-0,174
41,911	141,503	-0,363	-0,338
42,926	40,738	-0,292	-0,184
43,940	719,842	-0,201	-0,377
44,955	171,673	-0,308	-0,311
45,969	-2,802	-0,442	-0,216
46,984	122,565	-0,250	-0,219
47,999	19,264	-0,339	-0,190
49,013	194,132	-0,355	-0,378
50,028	72,970	-0,341	-0,250
51,042	165,594	-0,297	-0,295
52,057	-8,437	-0,353	-0,166
53,071	27,205	-0,320	-0,188
54,086	60,472	-0,259	-0,180
55,101	72,701	-0,350	-0,256
56,115	172,242	-0,262	-0,264
57,130	245,075	-0,228	-0,269
58,144	68,783	-0,319	-0,230
59,159	-12,732	-0,451	-0,205
60,174	61,898	-0,249	-0,174
61,188	58,284	-0,385	-0,264
62,203	231,053	-0,317	-0,364
63,217	615,144	-0,149	-0,263
64,232	39,006	-0,361	-0,226
65,247	3,764	-0,391	-0,200
66,261	-125,686	-0,349	-0,037
67,276	-14,115	-0,363	-0,163
68,290	57,928	-0,378	-0,259
69,305	-26,268	-0,364	-0,149
70,320	46,393	-0,271	-0,176
71,334	383,214	-0,184	-0,266
72,349	-44,310	-0,380	-0,133
73,363	183,326	-0,337	-0,349
74,378	37,878	-0,284	-0,177
75,393	43,873	-0,308	-0,197
76,407	-8,816	-0,303	-0,142
77,422	-25,604	-0,333	-0,137
78,436	-114,496	-0,178	-0,024
79,451	12,800	-0,402	-0,217
80,466	-17,807	-0,370	-0,162
81,480	-20,614	-0,235	-0,101
82,495	327,604	-0,228	-0,307
83,509	150,918	-0,275	-0,262
84,524	58,166	-0,259	-0,177
85,539	-163,024	-0,189	-0,006
86,553	130,547	-0,242	-0,217
87,568	132,308	-0,392	-0,354
88,582	249,254	-0,338	-0,402
89,597	-23,043	-0,357	-0,150
90,611	90,300	-0,246	-0,192
91,626	108,099	-0,173	-0,144
92,641	-132,828	-0,293	-0,026
93,655	49,103	-0,219	-0,143
94,670	185,332	-0,227	-0,235
95,684	-52,108	-0,368	-0,119
96,699	136,485	-0,214	-0,195
97,714	34,427	-0,333	-0,203
98,728	6,107	-0,199	-0,103
99,743	78,969	-0,229	-0,171
100,757	290,799	-0,203	-0,258
101,772	222,263	-0,170	-0,192
102,787	174,085	-0,385	-0,389
103,801	-76,996	-0,237	-0,057
104,816	157,758	-0,193	-0,186
105,830	-8,394	-0,291	-0,136
106,845	-81,601	-0,226	-0,051
107,860	-80,469	-0,293	-0,068
108,874	-23,771	-0,146	-0,061
109,889	146,141	-0,258	-0,242
110,903	18,437	-0,363	-0,202
111,918	-73,554	-0,379	-0,096
112,933	-77,017	-0,187	-0,045
113,947	26,491	-0,307	-0,179
114,962	-1,840	-0,162	-0,079
115,976	226,114	-0,269	-0,304
116,991	-40,292	-0,289	-0,104
118,006	-38,954	-0,326	-0,119
119,020	-101,800	-0,209	-0,035
120,035	118,847	-0,161	-0,139
121,049	386,167	-0,170	-0,245
122,064	16,394	-0,167	-0,091
123,079	-13,233	-0,257	-0,116
124,093	121,019	-0,225	-0,196
125,108	-9,505	-0,333	-0,154
126,122	14,178	-0,329	-0,178
127,137	-81,328	-0,330	-0,075
128,151	-51,338	-0,197	-0,064
129,166	41,589	-0,219	-0,138
130,181	-124,008	-0,284	0,031
131,195	583,096	-0,131	-0,224
132,210	127,453	-0,161	-0,142
133,224	171,084	-0,273	-0,273
134,239	58,315	-0,159	-0,109
135,254	366,900	-0,139	-0,196
136,268	-53,492	-0,330	-0,105
137,283	35,562	-0,141	-0,086
138,297	410,654	-0,159	-0,235
139,312	-55,500	-0,228	-0,071
140,327	-16,818	-0,327	-0,143
141,341	31,820	-0,201	-0,120
142,356	142,550	-0,262	-0,242
143,370	72,064	-0,242	-0,175
144,385	-69,698	-0,183	-0,048
145,400	-13,383	-0,282	-0,127
146,414	183,630	-0,180	-0,185
147,429	263,948	-0,191	-0,232
148,443	198,897	-0,152	-0,163
149,458	50,106	-0,163	-0,107
150,473	-58,658	-0,179	-0,054
151,487	-26,276	-0,334	-0,136
152,502	123,811	-0,240	-0,210
153,516	74,505	-0,286	-0,209
154,531	166,525	-0,233	-0,230
155,546	98,292	-0,260	-0,209
156,560	75,984	-0,217	0,160
157,575	15,214	-0,334	-0,181
158,589	13,516	-0,245	-0,132
159,604	-20,200	-0,318	-0,136
160,619	20,193	-0,211	-0,118
161,633	800,000	-0,146	-0,284
162,648	-116,375	-0,218	-0,028
163,662	52,726	-0,242	-0,160
164,677	90,891	-0,272	-0,212
165,692	-8,362	-0,296	-0,138
166,706	87,610	-0,205	-0,157
167,721	259,357	-0,228	-0,274
168,735	128,077	-0,256	-0,226
169,750	235,346	-0,252	-0,290
170,764	142,449	-0,199	-0,183
171,779	-96,845	-0,085	0,015
172,794	82,592	-0,201	-0,151
173,808	73,652	-0,201	-0,146
174,823	-90,047	-0,209	-0,042
175,837	58,041	-0,238	-0,161
176,852	225,178	-0,210	-0,236
177,867	5,865	-0,157	-0,080
178,881	-38,412	-0,182	-0,066
179,896	389,900	-0,192	-0,278
180,910	-12,015	-0,299	-0,136
181,925	-118,964	-0,170	0,020
182,940	199,329	-0,232	-0,247
183,954	62,186	-0,241	-0,167
184,969	441,382	-0,134	-0,205
185,983	63,830	-0,209	-0,145
186,998	-21,642	-0,090	-0,038
188,013	83,104	-0,212	-0,160
189,027	11,336	-0,178	-0,094
190,042	118,228	-0,221	-0,189
191,056	108,087	-0,337	-0,278
192,071	-83,639	-0,161	-0,035
193,086	2,563	-0,164	-0,082
194,100	136,639	-0,125	-0,113
195,115	800,000	-0,060	-0,178
196,129	-45,905	-0,224	-0,076
197,144	-53,806	-0,223	-0,070
198,159	100,661	-0,169	-0,136
199,173	191,697	-0,102	-0,107
200,188	581,554	-0,060	-0,103
201,202	415,377	-0,194	-0,287
202,217	-50,450	-0,218	-0,071
203,232	-32,025	-0,286	-0,110
204,246	-33,215	-0,235	-0,090
205,261	22,106	-0,241	-0,136
206,275	-57,145	-0,255	-0,077
207,290	-159,798	-0,257	0,010
208,304	240,172	-0,157	-0,182
209,319	386,814	-0,079	-0,113
210,334	-70,564	-0,306	0,080
211,348	-200,000	-0,055	-0,225
212,363	-48,322	-0,247	0,082
213,377	143,241	-0,158	-0,145
214,392	-200,000	-0,000	-0,091
215,407	191,353	-0,213	-0,222
216,421	197,447	-0,113	-0,120
217,436	50,417	-0,193	-0,126
218,450	-56,186	-0,371	-0,114
219,465	800,000	-0,079	-0,235
220,480	149,085	-0,199	-0,186
221,494	38,340	-0,178	-0,109
222,509	114,059	-0,188	-0,158
223,523	-137,839	-0,219	-0,017
224,538	-1,346	-0,207	-0,100
225,553	172,595	-0,162	-0,162
226,567	397,181	-0,124	-0,179
227,582	581,121	-0,132	-0,224
228,596	-2,504	-0,247	-0,119
229,611	122,528	-0,133	-0,115
230,626	-4,771	-0,310	-0,147
231,640	11,058	-0,132	-0,070
232,655	-26,970	-0,282	-0,113
233,669	10,669	-0,137	-0,072
234,684	-116,802	-0,102	0,013
235,699	800,000	-0,098	-0,208
236,713	-96,686	-0,224	-0,040
237,728	-55,060	-0,192	0,059
238,742	154,101	-0,135	-0,128
239,757	654,374	-0,078	-0,139
240,772	211,456	-0,138	-0,150
241,786	339,814	-0,174	-0,235
242,801	164,695	-0,193	-0,188
243,815	75,679	-0,113	-0,082
244,830	87,778	-0,148	-0,113
245,844	114,414	-0,213	-0,179
246,859	334,354	-0,038	-0,051
247,874	143,278	-0,233	-0,214
248,888	133,273	-0,204	-0,182
249,903	66,826	-0,188	-0,132
250,917	-11,001	-0,073	-0,033
251,932	273,792	-0,227	-0,277
252,947	89,912	-0,105	-0,081
253,961	-59,161	-0,230	-0,068
254,976	8,856	-0,155	-0,081
255,990	147,357	-0,178	-0,165
257,005	75,657	-0,204	-0,148
258,020	-23,619	-0,135	-0,056
259,034	316,813	-0,087	-0,113
260,049	-86,441	-0,103	-0,022
261,063	-145,517	-0,206	-0,013
262,078	72,865	-0,158	-0,113
263,093	41,678	-0,336	-0,209
264,107	47,974	-0,129	-0,083
265,122	-20,329	-0,178	-0,075
266,136	-64,099	-0,229	-0,064
267,151	282,668	-0,140	-0,173
268,166	-62,253	-0,120	0,034
269,180	9,153	-0,241	-0,125
270,195	97,229	-0,101	-0,080
271,209	-10,264	-0,236	-0,107
272,224	-176,211	-0,116	0,002
273,239	-140,176	-0,179	-0,013
274,253	-13,390	-0,160	-0,071
275,268	37,916	-0,150	-0,091
276,282	308,925	-0,113	-0,146
277,297	203,030	-0,123	-0,131
278,312	-200,000	-0,081	-0,299
279,326	111,522	-0,174	-0,145
280,341	149,204	-0,117	-0,109
281,355	-126,963	-0,148	-0,015
282,370	-174,330	-0,172	0,003
283,384	-160,371	-0,134	-0,005
284,399	24,722	-0,208	-0,118
285,414	225,603	-0,117	-0,131
286,428	103,396	-0,134	-0,108
287,443	688,550	-0,058	-0,104
288,457	-54,475	-0,062	0,019
289,472	396,767	-0,069	-0,100
290,487	-14,053	-0,109	0,048
291,501	127,996	-0,155	-0,135
292,516	-18,932	-0,146	-0,062
293,530	152,204	-0,132	-0,124
294,545	94,732	-0,066	-0,051
295,560	-57,043	-0,112	-0,034
296,574	-200,000	0,010	-0,190
297,589	800,000	-0,093	-0,210
298,603	138,196	-0,143	-0,129
299,618	27,964	-0,062	-0,036
300,633	130,530	-0,198	0,174
301,647	-63,779	-0,115	0,032
302,662	83,366	-0,067	-0,050
303,676	40,778	-0,346	-0,214
304,691	-12,339	-0,199	-0,089
305,706	401,155	-0,078	-0,113
306,720	-9,482	-0,150	0,068
307,735	405,762	-0,054	-0,078
308,749	-49,087	0,054	-0,018
309,764	-108,963	-0,196	0,028
310,779	-84,986	-0,181	-0,039
311,793	236,413	-0,185	-0,210
312,808	291,465	-0,107	-0,134
313,822	-103,228	-0,253	-0,041
314,837	517,389	-0,101	-0,163
315,852	42,535	-0,083	-0,052
316,866	-200,000	-0,025	-0,151
317,881	800,000	-0,065	-0,126
318,895	800,000	-0,054	-0,135
319,910	198,576	-0,117	-0,123
320,925	110,665	-0,184	-0,151
321,939	50,526	-0,148	-0,096
322,954	-190,983	-0,170	0,001
323,968	353,927	-0,097	-0,133
324,983	-121,036	-0,067	-0,008
325,997	279,263	-0,076	-0,094
327,012	-103,242	-0,115	-0,018
328,027	99,073	-0,105	-0,083
329,041	470,052	-0,078	-0,120
330,056	308,932	-0,129	-0,165
331,070	800,000	-0,068	-0,165
332,085	-91,573	-0,205	-0,040
333,100	158,474	-0,071	-0,068
334,114	-200,000	-0,086	-0,286
335,129	396,862	-0,143	-0,206
336,143	685,760	-0,053	-0,095
337,158	251,552	-0,103	-0,120
338,173	16,377	-0,140	-0,075
339,187	26,955	-0,062	-0,035
340,202	62,553	-0,034	-0,023
341,216	-115,795	-0,167	0,021
342,231	397,886	-0,052	-0,075
343,246	-81,187	-0,009	-0,002
344,260	-153,187	-0,058	-0,003
345,275	800,000	-0,013	0,031
346,289	-53,530	-0,118	0,037
347,304	-42,044	-0,212	-0,074
348,319	4,157	-0,335	-0,167
349,333	-200,000	-0,060	-0,246
350,348	96,502	-0,163	-0,128
351,362	359,613	-0,092	-0,126
352,377	-101,185	-0,204	0,034
353,392	173,340	-0,090	-0,088
354,406	-175,338	-0,172	-0,003
355,421	208,018	1311,926	1402,236
356,435	160,040	1472,272	1402,683
