DTS Sentinel unit serial number:	SN410029Multiplexer serial number:	ORYXHardware model number:	OX2-SRSoftware version number:	ORYX F/W v4,00 Oryx Data Collector v3.7.2.0data status	okinstallation	B3 Nyhavnadifferential loss correction	single-endedforward channel	channel 1reverse channel	N/Adate	2023/11/30time	11:47:30forward acquisition time	300,00reverse acquisition time	0,00gamma	499,1914k internal	0,3212k external	0,3212temperature offset calibration	1,0000default loss term (dB/km)	0,3820temperature slope calibration	1,0000multiplexer offset coefficient	1,0000multiplexer slope coefficient	1,0000fibre end	0,00T internal ref (°C)	9,44T ext. ref 1 (°C)	-5,47T ext. ref 2 (°C)	-5,57length (m)	temperature (°C)	Stokes	anti-Stokes-744,400	159,534	-0,121	-0,123
-743,385	-200,000	0,070	0,277
-742,371	128,767	-0,164	-0,152
-741,356	-200,000	-0,008	0,211
-740,342	800,000	-0,082	-0,230
-739,327	169,521	-0,163	0,169
-738,312	385,173	-0,231	-0,346
-737,298	-200,000	-0,018	0,214
-736,283	583,837	-0,159	-0,284
-735,269	-200,000	0,041	0,334
-734,254	800,000	-0,109	-0,234
-733,239	-84,044	-0,246	0,056
-732,225	-200,000	-0,029	-0,352
-731,210	133,128	-0,082	0,077
-730,196	-184,581	0,116	0,001
-729,181	-10,087	-0,064	-0,031
-728,167	239,635	-0,004	0,005
-727,152	800,000	0,022	0,068
-726,137	-200,000	0,001	0,176
-725,123	-200,000	-0,140	0,000
-724,108	-200,000	0,044	-0,186
-723,094	76,966	-0,161	-0,124
-722,079	65,074	-0,162	-0,119
-721,064	-157,068	-0,036	-0,002
-720,050	-200,000	-0,025	0,124
-719,035	70,155	0,034	-0,026
-718,021	-200,000	-0,033	-0,113
-717,006	129,909	0,059	-0,055
-715,991	800,000	-0,069	-0,177
-714,977	800,000	-0,028	-0,063
-713,962	62,409	-0,097	0,070
-712,948	-21,262	0,023	0,010
-711,933	114,289	0,106	-0,093
-710,918	-142,080	-0,165	0,012
-709,904	283,206	0,038	-0,049
-708,889	133,744	-0,080	-0,075
-707,875	281,963	0,133	-0,173
-706,860	-39,858	0,071	0,027
-705,845	454,005	-0,023	-0,037
-704,831	608,743	-0,059	-0,106
-703,816	530,228	0,025	-0,042
-702,802	335,664	0,039	0,055
-701,787	88,624	-0,098	0,079
-700,772	-200,000	-0,007	-0,105
-699,758	93,931	-0,058	-0,048
-698,743	-57,533	-0,064	0,020
-697,729	52,504	-0,019	0,013
-696,714	236,793	0,035	0,042
-695,699	-200,000	-0,021	-0,101
-694,685	27,220	-0,149	-0,090
-693,670	19,667	0,070	0,041
-692,656	-71,927	0,115	0,031
-691,641	800,000	0,036	-0,099
-690,627	-145,713	-0,052	-0,003
-689,612	-200,000	0,021	0,068
-688,597	170,285	0,109	-0,113
-687,583	-52,966	0,088	-0,029
-686,568	11,294	-0,237	-0,131
-685,554	-200,000	-0,001	-0,027
-684,539	762,497	-0,018	0,036
-683,524	-200,000	0,008	0,068
-682,510	-200,000	-0,030	-0,114
-681,495	-84,594	-0,039	0,009
-680,481	-141,072	-0,195	-0,014
-679,466	-149,019	-0,094	-0,005
-678,451	122,650	-0,108	-0,098
-677,437	-63,954	-0,110	-0,032
-676,422	520,060	0,074	-0,126
-675,408	388,817	-0,033	-0,049
-674,393	-163,623	0,070	0,002
-673,378	-200,000	0,017	-0,120
-672,364	137,017	0,079	-0,075
-671,349	800,000	0,024	-0,068
-670,335	-74,771	0,120	0,031
-669,320	800,000	-0,049	0,134
-668,305	800,000	-0,035	-0,111
-667,291	321,577	-0,065	-0,090
-666,276	800,000	0,039	0,104
-665,262	-200,000	0,019	-0,082
-664,247	-200,000	-0,026	-0,100
-663,232	30,977	0,047	-0,029
-662,218	169,193	0,086	-0,089
-661,203	41,625	-0,048	0,031
-660,189	282,138	0,097	-0,126
-659,174	119,381	-0,055	-0,049
-658,159	-16,392	-0,180	-0,082
-657,145	623,203	0,020	0,037
-656,130	-15,124	-0,076	0,035
-655,116	61,322	-0,022	0,015
-654,101	-28,285	0,044	0,018
-653,086	608,083	-0,089	0,161
-652,072	220,909	0,079	-0,092
-651,057	-200,000	-0,022	-0,130
-650,043	-102,991	0,089	-0,015
-649,028	-69,093	-0,064	-0,018
-648,014	-140,225	0,159	0,012
-646,999	800,000	-0,051	-0,118
-645,984	-200,000	-0,026	-0,107
-644,970	42,116	-0,146	-0,096
-643,955	344,017	-0,043	0,062
-642,941	138,223	-0,104	0,098
-641,926	777,693	0,056	0,112
-640,911	-81,660	0,019	-0,004
-639,897	-67,867	-0,042	-0,012
-638,882	187,196	0,074	0,080
-637,868	-200,000	0,003	-0,016
-636,853	732,810	0,041	-0,080
-635,838	-28,653	-0,104	-0,043
-634,824	-200,000	-0,014	0,061
-633,809	115,931	0,087	-0,077
-632,795	800,000	-0,029	0,076
-631,780	-70,830	0,074	0,020
-630,765	-105,182	0,100	0,016
-629,751	800,000	-0,083	-0,178
-628,736	27,847	-0,106	-0,064
-627,722	-50,452	0,073	0,025
-626,707	-118,913	0,103	-0,013
-625,692	539,591	-0,059	0,102
-624,678	707,711	-0,025	0,047
-623,663	-46,208	0,045	0,016
-622,649	800,000	0,014	0,028
-621,634	279,773	-0,052	-0,067
-620,619	-200,000	0,013	-0,045
-619,605	126,499	-0,025	-0,022
-618,590	79,761	-0,111	-0,086
-617,576	6,803	0,082	-0,044
-616,561	-28,372	0,005	-0,002
-615,546	800,000	0,082	0,197
-614,532	266,387	0,069	-0,088
-613,517	800,000	-0,027	-0,070
-612,503	4,038	0,070	0,037
-611,488	800,000	-0,019	0,046
-610,474	-90,036	0,085	-0,018
-609,459	596,715	0,036	-0,064
-608,444	-200,000	-0,013	-0,055
-607,430	182,062	0,083	0,088
-606,415	48,618	-0,141	-0,095
-605,401	74,086	0,055	-0,041
-604,386	63,992	-0,092	0,067
-603,371	197,656	0,061	0,067
-602,357	-151,332	0,199	0,011
-601,342	-118,343	-0,115	-0,015
-600,328	259,178	0,068	-0,085
-599,313	567,482	-0,041	0,073
-598,298	-200,000	-0,024	-0,102
-597,284	-200,000	-0,004	-0,166
-596,269	243,488	0,095	-0,114
-595,255	98,024	0,046	-0,038
-594,240	800,000	-0,062	0,142
-593,225	-200,000	0,003	-0,049
-592,211	-56,111	-0,198	0,063
-591,196	-73,444	-0,036	0,009
-590,182	8,982	0,062	-0,033
-589,167	-45,757	0,188	0,067
-588,152	-53,773	-0,037	-0,012
-587,138	-200,000	-0,010	-0,079
-586,123	269,831	-0,109	-0,139
-585,109	-200,000	-0,017	-0,054
-584,094	135,920	-0,057	-0,053
-583,079	-200,000	-0,000	-0,009
-582,065	-142,615	0,060	0,004
-581,050	54,142	-0,157	0,109
-580,036	-41,362	-0,120	-0,044
-579,021	-200,000	0,015	-0,123
-578,006	-200,000	-0,015	-0,088
-576,992	109,104	0,025	-0,021
-575,977	65,274	0,038	-0,028
-574,963	800,000	0,067	0,152
-573,948	-156,198	0,091	-0,004
-572,934	301,363	-0,065	0,087
-571,919	101,499	-0,067	-0,056
-570,904	-200,000	-0,021	-0,105
-569,890	181,986	0,040	-0,042
-568,875	800,000	0,023	0,070
-567,861	-200,000	0,037	0,131
-566,846	156,793	0,103	-0,102
-565,831	-76,028	-0,085	-0,021
-564,817	-200,000	0,012	-0,115
-563,802	59,974	0,071	-0,050
-562,788	479,134	0,034	-0,055
-561,773	-100,390	-0,078	-0,014
-560,758	460,501	-0,046	0,075
-559,744	674,908	0,066	-0,124
-558,729	-200,000	0,019	0,094
-557,715	213,860	-0,079	0,090
-556,700	800,000	0,035	0,074
-555,685	-127,876	0,127	0,013
-554,671	-200,000	0,051	-0,180
-553,656	371,138	-0,036	0,052
-552,642	-200,000	0,025	0,180
-551,627	-200,000	-0,007	0,066
-550,612	-79,363	-0,145	0,035
-549,598	-200,000	0,033	-0,111
-548,583	270,082	-0,037	-0,046
-547,569	3,873	-0,141	-0,074
-546,554	-200,000	0,024	0,117
-545,539	-85,299	-0,068	-0,015
-544,525	-200,000	-0,013	-0,074
-543,510	-200,000	-0,007	-0,082
-542,496	-56,535	-0,138	-0,044
-541,481	-200,000	0,006	-0,060
-540,466	-200,000	-0,006	-0,026
-539,452	-200,000	-0,007	-0,053
-538,437	489,975	0,061	-0,100
-537,423	123,719	-0,040	0,037
-536,408	-200,000	-0,019	0,113
-535,393	296,885	-0,038	0,050
-534,379	-91,751	0,096	-0,019
-533,364	-95,845	-0,018	0,003
-532,350	-38,188	0,057	-0,022
-531,335	-16,193	0,116	0,053
-530,321	31,340	-0,041	0,025
-529,306	-101,255	-0,113	-0,020
-528,291	35,805	0,014	0,009
-527,277	454,680	-0,066	-0,105
-526,262	-200,000	0,029	-0,168
-525,248	800,000	0,051	0,102
-524,233	-125,587	0,053	-0,006
-523,218	-200,000	-0,024	0,156
-522,204	800,000	0,043	0,090
-521,189	-200,000	-0,001	-0,150
-520,175	-200,000	-0,028	-0,143
-519,160	-90,079	0,097	0,020
-518,145	39,624	0,164	-0,105
-517,131	800,000	-0,043	0,096
-516,116	-33,909	-0,077	0,030
-515,102	-43,439	0,067	0,024
-514,087	-41,626	0,089	-0,033
-513,072	-200,000	-0,044	-0,139
-512,058	-200,000	0,019	0,116
-511,043	-200,000	0,012	0,077
-510,029	-200,000	-0,012	0,064
-509,014	800,000	-0,019	-0,038
-507,999	-200,000	-0,015	0,129
-506,985	449,094	0,034	-0,054
-505,970	800,000	-0,085	-0,187
-504,956	-200,000	-0,017	0,072
-503,941	172,532	0,055	-0,057
-502,926	-200,000	0,017	-0,075
-501,912	-75,472	0,014	-0,004
-500,897	-200,000	-0,008	-0,066
-499,883	70,243	-0,019	-0,014
-498,868	800,000	0,036	-0,099
-497,853	-92,231	-0,085	-0,017
-496,839	113,942	0,087	-0,076
-495,824	-200,000	0,030	-0,165
-494,810	320,550	0,047	-0,065
-493,795	-69,407	-0,101	0,028
-492,781	800,000	-0,025	-0,058
-491,766	11,352	-0,105	-0,058
-490,751	325,808	-0,059	0,081
-489,737	143,453	-0,053	-0,051
-488,722	-90,014	0,069	0,014
-487,708	-148,879	0,188	-0,011
-486,693	298,300	-0,058	-0,077
-485,678	282,691	0,053	0,068
-484,664	-200,000	-0,013	-0,055
-483,649	-127,615	-0,072	-0,007
-482,635	-200,000	-0,005	-0,057
-481,620	-160,871	-0,028	0,001
-480,605	510,964	-0,092	0,154
-479,591	-200,000	0,014	0,096
-478,576	174,011	-0,045	0,046
-477,562	-200,000	0,025	-0,088
-476,547	-33,341	0,035	0,014
-475,532	239,718	-0,061	-0,073
-474,518	-127,103	0,077	-0,008
-473,503	800,000	0,036	-0,083
-472,489	26,836	-0,075	0,045
-471,474	490,839	0,028	-0,047
-470,459	546,796	-0,062	-0,107
-469,445	-86,747	-0,059	-0,013
-468,430	276,405	0,027	0,034
-467,416	77,088	0,028	0,021
-466,401	125,208	-0,098	0,088
-465,386	-80,950	0,062	0,015
-464,372	43,262	0,105	-0,069
-463,357	-200,000	-0,017	-0,096
-462,343	167,390	-0,003	0,003
-461,328	102,535	-0,151	-0,127
-460,313	34,203	-0,100	0,062
-459,299	151,095	-0,079	0,077
-458,284	800,000	-0,017	-0,051
-457,270	-200,000	-0,012	0,067
-456,255	395,080	-0,076	0,114
-455,241	714,303	0,057	0,109
-454,226	101,645	-0,083	-0,069
-453,211	-200,000	-0,001	0,046
-452,197	-200,000	0,010	0,054
-451,182	-200,000	0,008	0,094
-450,168	640,435	-0,060	0,110
-449,153	-200,000	0,005	0,041
-448,138	21,917	0,059	0,034
-447,124	-95,441	0,057	-0,011
-446,109	-200,000	0,006	-0,084
-445,095	800,000	-0,048	0,141
-444,080	165,575	0,141	0,143
-443,065	423,911	-0,059	0,091
-442,051	111,216	0,098	-0,085
-441,036	-2,442	-0,138	-0,069
-440,022	-86,888	-0,074	0,016
-439,007	-146,316	-0,141	0,009
-437,992	800,000	0,049	-0,104
-436,978	-142,828	0,106	-0,007
-435,963	-4,422	-0,101	0,050
-434,949	-82,239	-0,237	-0,055
-433,934	-9,706	0,063	0,030
-432,919	800,000	-0,045	-0,103
-431,905	800,000	-0,017	-0,040
-430,890	-23,729	0,018	-0,008
-429,876	385,519	0,156	0,231
-428,861	-40,504	-0,144	0,053
-427,846	-200,000	-0,020	-0,176
-426,832	800,000	0,026	-0,054
-425,817	558,804	0,031	-0,053
-424,803	444,593	-0,074	0,117
-423,788	-200,000	-0,005	0,114
-422,773	375,498	-0,036	0,053
-421,759	-51,108	0,154	0,051
-420,744	208,160	0,041	0,046
-419,730	-200,000	0,014	0,117
-418,715	-200,000	0,019	-0,087
-417,701	155,430	0,076	0,075
-416,686	-33,516	0,207	0,081
-415,671	800,000	0,108	0,290
-414,657	103,296	0,109	0,091
-413,642	-200,000	-0,000	0,002
-412,628	21,553	0,064	-0,037
-411,613	-200,000	-0,036	-0,118
-410,598	-200,000	-0,005	0,025
-409,584	-200,000	-0,021	0,130
-408,569	-200,000	0,050	0,209
-407,555	800,000	-0,035	0,076
-406,540	-119,414	0,033	-0,004
-405,525	800,000	-0,041	0,096
-404,511	34,723	-0,127	-0,079
-403,496	664,984	-0,063	-0,116
-402,482	94,373	0,016	-0,013
-401,467	-200,000	-0,020	-0,095
-400,452	203,832	-0,049	-0,054
-399,438	800,000	-0,018	0,036
-398,423	134,416	-0,068	-0,063
-397,409	-78,063	-0,123	0,030
-396,394	-74,971	0,096	0,024
-395,379	-200,000	0,051	-0,164
-394,365	64,813	0,090	-0,065
-393,350	-111,387	0,076	0,011
-392,336	-11,644	-0,101	0,047
-391,321	245,222	-0,074	0,090
-390,306	-30,214	-0,118	-0,048
-389,292	-94,454	0,034	0,007
-388,277	-89,206	-0,039	0,008
-387,263	-200,000	-0,002	-0,021
-386,248	-153,249	0,083	0,004
-385,233	-200,000	0,000	0,072
-384,219	245,246	-0,043	-0,052
-383,204	-82,350	-0,185	0,043
-382,190	-200,000	-0,021	-0,111
-381,175	147,158	-0,066	-0,063
-380,160	-103,416	0,121	-0,020
-379,146	12,254	-0,106	0,058
-378,131	800,000	-0,016	-0,039
-377,117	-63,904	-0,171	-0,050
-376,102	-104,821	0,010	-0,002
-375,088	143,411	-0,028	0,027
-374,073	-148,125	-0,099	0,006
-373,058	312,463	0,019	0,025
-372,044	396,375	0,008	0,013
-371,029	-200,000	-0,030	0,146
-370,015	-95,546	-0,100	0,019
-369,000	-109,022	-0,050	-0,008
-367,985	86,178	0,073	0,057
-366,971	273,304	0,027	0,035
-365,956	-34,506	0,113	-0,044
-364,942	123,279	0,114	0,102
-363,927	13,809	-0,088	0,049
-362,912	341,690	0,033	0,046
-361,898	-7,492	-0,065	-0,031
-360,883	-200,000	0,003	0,016
-359,869	39,885	-0,055	-0,035
-358,854	-25,084	-0,046	-0,020
-357,839	53,562	0,116	0,079
-356,825	267,309	-0,059	-0,074
-355,810	-200,000	0,011	0,139
-354,796	425,500	0,086	-0,132
-353,781	-200,000	0,027	-0,145
-352,766	226,600	-0,053	0,061
-351,752	656,960	0,048	-0,088
-350,737	20,176	0,104	0,060
-349,723	290,058	-0,032	0,042
-348,708	-61,763	0,069	-0,020
-347,693	153,489	0,056	-0,055
-346,679	-81,144	-0,058	-0,013
-345,664	18,899	-0,047	-0,027
-344,650	115,749	0,056	-0,049
-343,635	218,388	0,105	0,120
-342,620	-35,386	0,140	-0,054
-341,606	-200,000	0,013	0,058
-340,591	-118,454	0,056	0,007
-339,577	474,180	0,048	0,077
-338,562	360,900	-0,024	-0,035
-337,548	-141,114	0,071	0,005
-336,533	-78,300	0,020	0,005
-335,518	-200,000	0,033	0,000
-334,504	-200,000	0,014	0,130
-333,489	495,108	-0,046	-0,076
-332,475	-200,000	-0,009	0,038
-331,460	-52,004	-0,071	0,023
-330,445	364,778	-0,094	-0,136
-329,431	-156,166	-0,092	-0,004
-328,416	181,225	0,021	-0,022
-327,402	-32,046	0,072	-0,029
-326,387	-178,049	0,021	0,000
-325,372	-200,000	-0,009	0,030
-324,358	281,658	0,013	-0,017
-323,343	772,385	0,060	0,118
-322,329	109,370	-0,120	-0,103
-321,314	-200,000	0,005	0,140
-320,299	-200,000	0,030	0,195
-319,285	243,673	0,073	-0,087
-318,270	800,000	0,018	-0,042
-317,256	292,526	0,019	-0,024
-316,241	-200,000	0,040	0,138
-315,226	-17,156	-0,034	-0,015
-314,212	215,989	0,029	-0,033
-313,197	-95,498	0,093	0,018
-312,183	-147,392	0,100	0,006
-311,168	-66,880	-0,108	0,030
-310,153	107,355	-0,070	0,059
-309,139	-125,780	0,035	0,004
-308,124	-200,000	-0,016	-0,116
-307,110	-200,000	0,023	0,077
-306,095	-140,647	-0,092	-0,007
-305,080	705,876	-0,042	0,079
-304,066	-29,747	0,057	-0,023
-303,051	192,013	-0,032	-0,034
-302,037	800,000	-0,043	0,091
-301,022	-200,000	-0,013	0,049
-300,008	-171,974	0,156	-0,004
-298,993	445,100	0,053	0,083
-297,978	-90,023	0,088	-0,018
-296,964	-200,000	-0,000	0,079
-295,949	63,149	-0,063	0,045
-294,935	116,861	-0,054	-0,047
-293,920	137,953	-0,030	0,028
-292,905	-89,825	0,084	-0,017
-291,891	156,837	0,078	0,076
-290,876	-103,770	-0,104	-0,017
-289,862	800,000	-0,036	0,111
-288,847	800,000	-0,069	0,176
-287,832	-200,000	-0,009	0,054
-286,818	460,507	-0,063	0,101
-285,803	400,428	-0,059	0,088
-284,789	134,663	0,112	0,103
-283,774	-103,954	-0,026	0,004
-282,759	-200,000	0,018	-0,128
-281,745	-16,732	-0,210	-0,094
-280,730	-200,000	0,126	0,000
-279,716	474,774	0,054	0,087
-278,701	-121,693	0,118	0,014
-277,686	29,310	-0,078	0,047
-276,672	-200,000	0,001	0,021
-275,657	781,805	0,033	0,066
-274,643	800,000	0,048	-0,146
-273,628	305,302	0,085	0,112
-272,613	710,018	-0,022	-0,041
-271,599	477,072	0,066	-0,106
-270,584	-123,008	0,100	0,011
-269,570	486,608	-0,053	-0,086
-268,555	-200,000	-0,039	-0,175
-267,540	-200,000	0,018	-0,142
-266,526	68,611	-0,038	-0,028
-265,511	76,795	-0,029	0,022
-264,497	-165,994	0,081	-0,002
-263,482	-82,784	0,146	0,033
-262,467	-200,000	0,001	0,047
-261,453	443,228	0,032	0,050
-260,438	-64,914	-0,093	-0,027
-259,424	-118,598	-0,099	0,012
-258,409	-52,497	-0,061	-0,020
-257,395	45,007	0,041	0,027
-256,380	-0,054	-0,124	0,063
-255,365	474,072	0,059	-0,096
-254,351	-200,000	-0,001	-0,050
-253,336	-71,640	0,124	-0,033
-252,322	361,749	-0,092	-0,131
-251,307	-200,000	-0,023	0,136
-250,292	205,819	0,069	0,077
-249,278	-103,251	0,127	-0,021
-248,263	-52,829	0,092	-0,030
-247,249	199,901	-0,018	0,020
-246,234	82,392	0,054	-0,042
-245,219	327,029	0,034	-0,047
-244,205	409,643	-0,057	-0,087
-243,190	-25,498	0,060	-0,025
-242,176	704,014	0,048	-0,091
-241,161	-200,000	0,024	0,115
-240,146	399,335	-0,013	-0,019
-239,132	633,972	0,065	0,117
-238,117	143,466	-0,117	-0,111
-237,103	-200,000	0,009	-0,098
-236,088	418,489	-0,052	0,080
-235,073	438,200	0,097	0,150
-234,059	-102,868	0,043	0,007
-233,044	-31,311	0,081	-0,032
-232,030	426,820	-0,056	-0,085
-231,015	573,558	0,027	0,046
-230,000	-200,000	0,012	-0,103
-228,986	530,717	-0,051	-0,086
-227,971	-200,000	0,020	0,203
-226,957	-200,000	0,036	0,177
-225,942	287,760	-0,025	0,033
-224,927	257,971	-0,109	-0,134
-223,913	192,780	-0,070	-0,076
-222,898	416,544	0,083	-0,127
-221,884	-64,012	-0,165	-0,048
-220,869	-200,000	0,011	-0,057
-219,855	115,776	-0,075	0,065
-218,840	-200,000	0,045	0,164
-217,825	-200,000	-0,022	0,160
-216,811	168,611	-0,041	-0,042
-215,796	-38,964	0,153	0,057
-214,782	-18,042	0,027	0,012
-213,767	-172,385	0,061	-0,001
-212,752	-200,000	0,004	0,086
-211,738	-200,000	0,002	0,046
-210,723	768,075	-0,060	-0,116
-209,709	5,247	-0,131	-0,069
-208,694	515,290	0,065	-0,108
-207,679	-200,000	-0,031	-0,111
-206,665	-200,000	-0,051	-0,201
-205,650	-158,040	0,041	-0,002
-204,636	800,000	0,019	-0,045
-203,621	-200,000	-0,009	-0,045
-202,606	800,000	-0,068	-0,172
-201,592	185,491	-0,050	-0,052
-200,577	-112,843	-0,058	0,008
-199,563	-200,000	-0,035	0,172
-198,548	800,000	0,020	0,054
-197,533	353,520	0,079	0,111
-196,519	168,618	-0,112	0,114
-195,504	-21,224	0,076	0,033
-194,490	-2,093	0,045	-0,022
-193,475	-53,057	-0,027	-0,009
-192,460	-200,000	-0,102	0,000
-191,446	-113,287	0,147	-0,020
-190,431	284,040	-0,053	0,068
-189,417	-200,000	-0,008	-0,173
-188,402	58,165	-0,051	-0,035
-187,387	-89,503	-0,044	0,009
-186,373	-27,488	-0,103	-0,042
-185,358	800,000	0,020	0,054
-184,344	-153,385	0,120	-0,006
-183,329	563,349	-0,025	-0,043
-182,315	8,857	0,023	0,012
-181,300	-70,222	-0,033	0,009
-180,285	-200,000	-0,020	-0,189
-179,271	-112,569	0,066	0,009
-178,256	-12,276	-0,010	-0,005
-177,242	546,331	0,077	-0,131
-176,227	-200,000	-0,002	0,037
-175,212	-200,000	-0,019	0,065
-174,198	755,857	-0,004	-0,008
-173,183	-62,296	-0,050	0,015
-172,169	-200,000	0,001	-0,094
-171,154	-98,784	-0,026	-0,005
-170,139	-121,867	0,092	0,011
-169,125	94,075	0,136	0,109
-168,110	-200,000	0,015	0,151
-167,096	800,000	-0,027	0,079
-166,081	-73,346	-0,064	0,017
-165,066	-200,000	-0,031	-0,102
-164,052	466,250	0,045	-0,071
-163,037	190,716	-0,051	0,054
-162,023	800,000	0,039	0,084
-161,008	800,000	0,017	0,034
-159,993	-200,000	-0,001	0,086
-158,979	800,000	-0,025	0,060
-157,964	-87,624	0,043	0,009
-156,950	-181,301	0,044	0,001
-155,935	152,494	0,100	-0,096
-154,920	114,364	-0,075	0,065
-153,906	32,336	0,065	0,040
-152,891	210,028	-0,030	0,033
-151,877	315,314	-0,004	0,005
-150,862	89,557	-0,087	0,069
-149,847	422,118	-0,069	-0,105
-148,833	-200,000	0,005	-0,049
-147,818	8,232	0,088	0,046
-146,804	596,780	0,066	0,117
-145,789	293,182	-0,051	0,066
-144,775	800,000	-0,018	0,036
-143,760	-96,625	-0,008	0,001
-142,745	168,453	-0,039	0,040
-141,731	63,160	0,078	0,055
-140,716	14,504	0,028	-0,016
-139,702	585,272	-0,062	-0,108
-138,687	406,978	0,079	0,118
-137,672	-20,981	0,105	0,045
-136,658	46,789	-0,078	-0,051
-135,643	224,957	-0,030	0,034
-134,629	53,523	0,028	0,019
-133,614	10,489	0,049	0,026
-132,599	24,882	0,069	0,040
-131,585	-107,167	0,103	-0,016
-130,570	242,938	0,065	-0,078
-129,556	-74,535	0,149	0,038
-128,541	52,598	0,017	0,012
-127,526	800,000	0,029	-0,091
-126,512	504,990	0,087	0,143
-125,497	-23,358	0,041	-0,017
-124,483	-200,000	0,014	0,136
-123,468	36,419	-0,114	-0,071
-122,453	73,829	0,069	-0,051
-121,439	-92,220	-0,084	-0,017
-120,424	694,164	0,015	-0,027
-119,410	800,000	0,018	-0,047
-118,395	-33,017	-0,017	0,007
-117,380	-200,000	0,002	0,080
-116,366	177,917	-0,081	-0,083
-115,351	90,583	0,013	-0,010
-114,337	174,534	-0,020	0,020
-113,322	800,000	-0,018	0,053
-112,307	19,648	0,054	-0,031
-111,293	61,541	-0,060	-0,042
-110,278	249,675	-0,089	0,107
-109,264	36,026	0,077	0,048
-108,249	391,816	0,034	0,050
-107,234	-177,990	0,054	0,001
-106,220	800,000	0,040	-0,083
-105,205	-200,000	-0,012	0,113
-104,191	800,000	-0,020	0,062
-103,176	-200,000	0,019	0,091
-102,162	-200,000	0,027	0,113
-101,147	55,075	-0,116	-0,079
-100,132	-145,004	-0,040	0,003
-99,118	-200,000	0,000	-0,033
-98,103	487,800	-0,037	0,059
-97,089	-89,793	0,061	0,012
-96,074	657,633	0,051	0,094
-95,059	105,941	0,055	0,046
-94,045	-31,587	-0,055	0,022
-93,030	108,937	-0,097	-0,082
-92,016	-97,365	-0,188	-0,034
-91,001	800,000	0,019	0,042
-89,986	-200,000	0,030	0,157
-88,972	316,412	0,042	0,056
-87,957	6,225	-0,124	-0,065
-86,943	0,502	-0,012	0,006
-85,928	-44,144	0,107	-0,038
-84,913	800,000	-0,022	-0,060
-83,899	228,447	-0,117	-0,135
-82,884	-140,812	-0,026	0,002
-81,870	-200,000	-0,010	0,065
-80,855	-200,000	-0,006	-0,078
-79,840	-200,000	0,008	0,147
-78,826	375,461	-0,017	-0,025
-77,811	176,618	-0,048	-0,049
-76,797	-69,641	-0,176	-0,047
-75,782	-200,000	-0,006	-0,029
-74,767	29,751	0,095	0,057
-73,753	-8,606	0,029	0,014
-72,738	46,682	-0,134	0,088
-71,724	-151,570	-0,146	0,008
-70,709	528,808	-0,030	-0,050
-69,694	-91,686	-0,128	0,026
-68,680	-79,086	0,120	-0,029
-67,665	345,548	-0,051	0,070
-66,651	-200,000	0,033	0,169
-65,636	78,296	-0,118	-0,089
-64,622	-62,049	0,079	0,023
-63,607	-60,975	-0,144	0,043
-62,592	36,891	-0,024	0,015
-61,578	223,692	0,051	0,058
-60,563	339,886	0,040	-0,055
-59,549	687,165	-0,075	0,138
-58,534	60,262	-2,158	-1,505
-57,519	546,090	-1,202	-2,036
-56,505	-200,000	-0,353	-4,369
-55,490	737,401	0,845	1,606
-54,476	800,000	5,122	11,325
-53,461	-200,000	21,760	343,810
-52,446	800,000	762,899	2334,706
-51,432	544,060	1661,205	2809,276
-50,417	71,201	1658,127	1211,938
-49,403	17,208	1531,525	854,867
-48,388	11,295	1455,527	783,890
-47,373	19,388	1447,105	818,096
-46,359	14,784	1435,943	789,904
-45,344	9,571	1431,816	762,823
-44,330	9,511	1430,135	761,612
-43,315	9,492	1428,283	760,505
-42,300	9,503	1426,486	759,568
-41,286	9,473	1425,357	758,793
-40,271	9,514	1423,970	758,221
-39,257	9,487	1422,993	757,542
-38,242	9,581	1421,659	757,248
-37,227	9,540	1420,733	756,529
-36,213	9,528	1419,336	755,697
-35,198	9,537	1418,193	755,102
-34,184	9,533	1417,168	754,507
-33,169	9,499	1415,778	753,580
-32,154	9,555	1414,870	753,327
-31,140	9,514	1413,631	752,447
-30,125	9,525	1412,605	751,924
-29,111	9,540	1411,226	751,229
-28,096	9,516	1410,119	750,497
-27,082	9,472	1408,974	749,653
-26,067	9,428	1407,738	748,761
-25,052	9,485	1406,827	748,510
-24,038	9,490	1405,930	748,028
-23,023	9,456	1405,146	747,423
-22,009	9,440	1404,181	746,806
-20,994	9,435	1403,172	746,214
-19,979	9,482	1401,958	745,758
-18,965	9,430	1401,290	745,130
-17,950	9,430	1400,074	744,454
-16,936	9,387	1399,455	743,897
-15,921	9,353	1398,617	743,261
-14,906	9,353	1397,516	742,647
-13,892	9,427	1396,480	742,412
-12,877	9,396	1395,707	741,829
-11,863	9,372	1394,756	741,181
-10,848	9,377	1393,990	740,769
-9,833	9,326	1393,023	739,987
-8,819	9,278	1392,197	739,300
-7,804	9,305	1391,224	738,880
-6,790	9,269	1390,397	738,244
-5,775	9,259	1389,106	737,479
-4,760	9,274	1388,227	737,053
-3,746	9,318	1387,115	736,636
-2,731	9,299	1386,491	736,192
-1,717	9,294	1385,557	735,640
-0,702	9,275	1383,875	734,634
0,313	13,388	1295,727	706,582
1,327	29,667	686,742	411,222
2,342	45,979	118,723	77,334
3,356	0,182	16,597	8,318
4,371	2,022	3,567	1,809
5,386	1,651	1,182	0,598
6,400	-200,000	0,184	0,679
7,415	-105,252	-0,124	0,020
8,429	42,379	-0,300	-0,192
9,444	-43,324	-0,533	-0,189
10,459	-93,924	-0,385	-0,074
11,473	10,676	-0,262	-0,140
12,488	-112,973	-0,364	0,050
13,502	-154,971	-0,357	-0,016
14,517	7,036	-0,252	-0,132
15,531	177,233	-0,334	-0,343
16,546	-92,034	-0,436	-0,086
17,561	-34,201	-0,376	-0,145
18,575	-37,266	-0,182	-0,068
19,590	800,000	-0,092	-0,253
20,604	-11,593	-0,342	-0,158
21,619	17,176	-0,468	-0,261
22,634	181,259	-0,342	-0,354
23,648	122,412	-0,435	-0,382
24,663	395,239	-0,204	-0,300
25,677	19,824	-0,172	-0,097
26,692	12,611	-0,393	-0,213
27,707	5,337	-0,232	-0,120
28,721	79,968	-0,303	-0,229
29,736	-55,796	-0,418	-0,131
30,750	271,905	-0,320	-0,398
31,765	26,610	-0,373	-0,219
32,780	48,552	-0,356	-0,234
33,794	-65,467	-0,386	-0,108
34,809	-72,620	-0,427	-0,110
35,823	-0,526	-0,393	-0,195
36,838	85,969	-0,345	-0,267
37,853	208,758	-0,380	-0,418
38,867	-8,619	-0,414	-0,194
39,882	-65,463	-0,355	-0,100
40,896	3,752	-0,278	-0,142
41,911	-96,010	-0,382	-0,071
42,926	-36,298	-0,434	-0,164
43,940	11,487	-0,392	-0,210
44,955	23,205	-0,352	-0,203
45,969	221,017	-0,315	-0,356
46,984	67,777	-0,366	-0,263
47,999	156,925	-0,285	-0,277
49,013	513,469	-0,142	-0,233
50,028	-127,784	-0,362	-0,036
51,042	22,081	-0,254	-0,145
52,057	3,167	-0,521	-0,265
53,071	-37,491	-0,354	-0,132
54,086	59,355	-0,181	-0,125
55,101	143,177	-0,322	-0,301
56,115	101,717	-0,320	-0,262
57,130	302,013	-0,159	-0,207
58,144	93,289	-0,262	-0,208
59,159	137,820	-0,306	-0,281
60,174	101,693	-0,476	-0,389
61,188	-133,510	-0,372	-0,032
62,203	75,595	-0,234	-0,173
63,217	27,694	-0,389	-0,229
64,232	12,559	-0,425	-0,229
65,247	17,675	-0,363	-0,202
66,261	152,243	-0,257	-0,246
67,276	-29,378	-0,371	-0,148
68,290	43,838	-0,337	-0,216
69,305	13,989	-0,231	-0,125
70,320	-6,698	-0,306	-0,146
71,334	58,012	-0,270	-0,185
72,349	-29,749	-0,441	-0,175
73,363	-68,613	-0,306	-0,082
74,378	-30,932	-0,345	-0,136
75,393	-49,779	-0,298	-0,099
76,407	-90,962	-0,378	-0,075
77,422	-79,905	-0,198	-0,046
78,436	-36,313	-0,293	-0,110
79,451	-54,415	-0,372	-0,117
80,466	-34,280	-0,445	-0,170
81,480	168,256	-0,224	-0,224
82,495	168,846	-0,241	-0,241
83,509	-3,057	-0,299	-0,145
84,524	-35,932	-0,221	-0,083
85,539	226,406	-0,175	-0,200
86,553	21,069	-0,323	-0,183
87,568	70,599	-0,362	-0,262
88,582	14,663	-0,395	-0,215
89,597	25,062	-0,338	-0,196
90,611	-19,858	-0,276	-0,119
91,626	-125,524	-0,206	-0,022
92,641	28,120	-0,242	-0,143
93,655	468,694	-0,188	-0,297
94,670	-14,028	-0,258	-0,116
95,684	-16,325	-0,266	-0,118
96,699	-124,133	-0,267	-0,029
97,714	268,315	-0,206	-0,254
98,728	110,688	-0,130	-0,110
99,743	58,010	-0,329	-0,225
100,757	28,254	-0,321	-0,189
101,772	-10,347	-0,303	-0,140
102,787	-29,053	-0,407	-0,162
103,801	1,954	-0,379	-0,190
104,816	215,009	-0,157	-0,174
105,830	23,310	-0,287	-0,165
106,845	-115,413	-0,187	-0,024
107,860	120,627	-0,235	-0,204
108,874	187,820	-0,198	-0,207
109,889	168,067	-0,157	-0,156
110,903	260,227	-0,201	-0,243
111,918	98,266	-0,259	-0,208
112,933	-60,004	-0,236	-0,070
113,947	-19,106	-0,179	-0,077
114,962	-88,156	-0,153	-0,032
115,976	109,106	-0,301	-0,251
116,991	-23,778	-0,348	-0,145
118,006	-88,261	-0,353	-0,073
119,020	142,979	-0,246	-0,228
120,035	-108,037	-0,224	0,034
121,049	-200,000	-0,012	-0,119
122,064	86,111	-0,253	-0,195
123,079	-32,722	-0,213	-0,082
124,093	242,152	-0,177	-0,206
125,108	246,281	-0,162	-0,191
126,122	261,839	-0,220	-0,266
127,137	-21,519	-0,279	-0,118
128,151	-123,706	-0,203	-0,022
129,166	-122,524	-0,363	-0,041
130,181	-67,112	-0,159	-0,043
131,195	342,912	-0,176	-0,241
132,210	-38,737	-0,316	-0,116
133,224	88,514	-0,261	-0,202
134,239	227,563	-0,187	-0,212
135,254	117,219	-0,215	-0,184
136,268	-144,969	-0,190	0,012
137,283	4,650	-0,275	-0,140
138,297	-136,299	-0,272	-0,022
139,312	151,018	-0,241	-0,228
140,327	74,400	-0,275	-0,201
141,341	32,716	-0,192	-0,116
142,356	43,638	-0,181	-0,115
143,370	-123,411	-0,234	-0,026
144,385	84,984	-0,354	-0,270
145,400	-200,000	-0,087	-0,269
146,414	-34,956	-0,366	-0,138
147,429	-12,919	-0,290	-0,131
148,443	168,801	-0,282	-0,280
149,458	-46,652	-0,228	-0,077
150,473	-133,533	-0,307	-0,026
151,487	-20,395	-0,206	-0,088
152,502	-46,621	-0,302	-0,102
153,516	295,031	-0,229	-0,292
154,531	11,118	-0,258	-0,137
155,546	-57,550	-0,221	-0,067
156,560	15,312	-0,306	-0,166
157,575	-3,922	-0,284	-0,137
158,589	-30,163	-0,163	-0,064
159,604	90,864	-0,319	-0,249
160,619	40,527	-0,270	-0,169
161,633	41,109	-0,159	-0,100
162,648	-34,264	-0,174	-0,066
163,662	53,330	-0,247	-0,165
164,677	-145,841	-0,269	0,016
165,692	-103,435	-0,250	0,041
166,706	-152,954	-0,245	0,012
167,721	30,528	-0,268	-0,159
168,735	97,236	-0,220	-0,176
169,750	-37,095	-0,197	-0,073
170,764	1,836	-0,195	-0,098
171,779	800,000	-0,103	-0,206
172,794	62,115	-0,073	-0,050
173,808	150,480	-0,246	-0,232
174,823	-200,000	-0,061	-0,230
175,837	177,837	-0,151	-0,153
176,852	244,779	-0,209	-0,245
177,867	-82,902	-0,282	-0,063
178,881	-167,149	-0,214	-0,006
179,896	-24,105	-0,264	-0,109
180,910	-3,536	-0,275	-0,132
181,925	613,101	-0,153	-0,266
182,940	166,373	-0,166	-0,164
183,954	144,414	-0,208	-0,193
184,969	-138,093	-0,229	0,017
185,983	98,019	-0,232	-0,185
186,998	117,566	-0,178	-0,152
188,013	-28,032	-0,152	-0,061
189,027	75,109	-0,207	-0,151
190,042	-146,796	-0,252	0,015
191,056	48,810	-0,173	-0,113
192,071	-36,368	-0,196	-0,073
193,086	722,195	-0,168	-0,311
194,100	548,356	-0,063	-0,105
195,115	-85,281	-0,247	-0,053
196,129	-144,841	-0,187	-0,012
197,144	52,328	-0,263	-0,174
198,159	800,000	-0,085	-0,219
199,173	-78,690	-0,233	-0,055
200,188	64,601	-0,232	-0,162
201,202	-13,653	-0,217	-0,097
202,217	-39,212	-0,326	-0,118
203,232	11,149	-0,265	-0,140
204,246	800,000	-0,132	-0,267
205,261	16,073	-0,203	-0,111
206,275	-21,990	-0,248	-0,104
207,290	133,116	-0,146	-0,131
208,304	-177,869	-0,149	-0,002
209,319	-200,000	0,008	0,024
210,334	278,420	-0,107	-0,133
211,348	0,898	-0,237	-0,117
212,363	34,842	-0,259	-0,156
213,377	278,468	-0,199	-0,247
214,392	56,718	-0,116	-0,078
215,407	65,867	-0,162	-0,114
216,421	-169,159	-0,324	-0,008
217,436	130,464	-0,171	-0,151
218,450	-10,780	-0,274	-0,125
219,465	-200,000	-0,057	-0,193
220,480	-77,684	-0,269	-0,064
221,494	71,634	-0,131	-0,094
222,509	-13,304	-0,240	-0,107
223,523	-102,844	-0,174	-0,028
224,538	7,202	-0,133	-0,068
225,553	102,660	-0,233	-0,188
226,567	-200,000	-0,009	-0,212
227,582	-200,000	-0,019	-0,160
228,596	-25,767	-0,155	-0,063
229,611	-91,044	-0,188	-0,037
230,626	301,786	-0,101	-0,129
231,640	302,078	-0,112	-0,143
232,655	-162,308	-0,232	0,008
233,669	-40,700	-0,174	-0,062
234,684	28,190	-0,286	-0,166
235,699	-11,123	-0,246	-0,112
236,713	-26,318	-0,242	-0,098
237,728	-10,964	-0,148	-0,067
238,742	-11,426	-0,175	-0,079
239,757	41,570	-0,255	-0,159
240,772	-26,111	-0,174	-0,070
241,786	62,118	-0,180	0,124
242,801	-74,475	-0,072	0,018
243,815	265,094	-0,098	-0,118
244,830	-81,567	-0,271	-0,061
245,844	-93,540	-0,186	-0,035
246,859	7,681	-0,219	-0,113
247,874	413,258	-0,140	-0,206
248,888	86,886	-0,150	-0,115
249,903	-115,479	-0,162	0,021
250,917	-65,814	-0,114	-0,031
251,932	-108,512	-0,261	-0,038
252,947	-11,679	-0,065	-0,029
253,961	83,645	-0,200	-0,150
254,976	-125,891	-0,129	0,013
255,990	227,489	-0,149	-0,167
257,005	123,911	-0,200	-0,173
258,020	-126,918	-0,168	-0,017
259,034	511,273	-0,098	-0,157
260,049	-28,593	-0,197	-0,078
261,063	26,908	-0,236	-0,136
262,078	323,686	-0,086	-0,114
263,093	763,028	-0,137	-0,257
264,107	146,155	-0,263	-0,243
265,122	-156,390	-0,129	-0,005
266,136	-179,711	-0,206	-0,003
267,151	73,138	-0,148	-0,107
268,166	145,217	-0,174	-0,160
269,180	345,768	-0,102	-0,138
270,195	46,065	-0,177	-0,113
271,209	46,536	-0,080	-0,051
272,224	-110,160	-0,133	0,019
273,239	520,755	-0,065	-0,106
274,253	-26,662	-0,200	-0,080
275,268	402,553	-0,108	-0,157
276,282	283,514	-0,177	-0,220
277,297	57,622	-0,155	-0,104
278,312	25,162	-0,238	-0,136
279,326	68,544	-0,145	0,103
280,341	50,238	-0,088	-0,057
281,355	264,248	-0,111	-0,133
282,370	109,379	-0,227	-0,187
283,384	29,750	-0,145	-0,085
284,399	139,705	-0,121	-0,110
285,414	100,657	-0,218	-0,174
286,428	-123,376	-0,155	-0,017
287,443	-119,106	-0,174	-0,021
288,457	186,126	-0,150	-0,153
289,472	-73,203	-0,100	-0,025
290,487	-34,041	-0,198	-0,075
291,501	-1,307	-0,204	-0,099
292,516	176,887	-0,194	-0,194
293,530	-91,037	-0,158	-0,031
294,545	305,240	-0,055	-0,070
295,560	-134,781	-0,152	-0,012
296,574	234,913	-0,109	-0,124
297,589	-8,221	-0,224	-0,103
298,603	348,703	-0,071	-0,097
299,618	54,873	-0,128	-0,085
300,633	64,604	-0,069	-0,048
301,647	392,705	-0,083	-0,119
302,662	-36,174	-0,082	-0,030
303,676	-138,543	-0,152	-0,011
304,691	14,763	-0,117	-0,063
305,706	-121,455	-0,243	-0,027
306,720	-200,000	-0,009	-0,127
307,735	-22,710	-0,165	-0,068
308,749	-87,433	-0,063	-0,013
309,764	112,430	-0,220	-0,183
310,779	161,575	-0,136	-0,131
311,793	-16,594	-0,116	-0,050
312,808	535,198	-0,103	-0,168
313,822	534,385	-0,060	-0,098
314,837	83,933	-0,100	-0,075
315,852	54,712	-0,167	-0,110
316,866	190,458	-0,110	-0,113
317,881	37,314	-0,102	-0,062
318,895	137,070	-0,098	-0,088
319,910	49,530	-0,229	-0,148
320,925	800,000	-0,084	-0,174
321,939	122,190	-0,185	-0,158
322,954	640,243	-0,068	-0,119
323,968	-200,000	-0,042	-0,175
324,983	603,975	0,063	-0,107
325,997	563,847	-0,078	-0,131
327,012	101,534	-0,159	-0,127
328,027	330,141	-0,087	-0,115
329,041	800,000	-0,043	-0,123
330,056	486,791	-0,064	-0,100
331,070	191,102	-0,143	0,148
332,085	32,295	-0,150	-0,088
333,100	12,499	-0,130	-0,068
334,114	800,000	-0,084	-0,181
335,129	125,054	-0,230	-0,199
336,143	-200,000	-0,024	-0,166
337,158	43,659	-0,020	-0,012
338,173	-200,000	-0,039	-0,238
339,187	72,808	-0,120	-0,086
340,202	26,419	-0,160	-0,092
341,216	-200,000	-0,029	-0,093
342,231	307,904	-0,049	-0,063
343,246	520,148	-0,119	-0,191
344,260	-81,267	-0,104	-0,023
345,275	237,709	-0,075	-0,086
346,289	800,000	-0,055	-0,123
347,304	-188,641	-0,141	-0,001
348,319	-8,017	-0,185	-0,085
349,333	173,355	-0,115	-0,113
350,348	520,398	-0,090	-0,145
351,362	516,955	-0,073	-0,117
352,377	-142,697	-0,183	0,012
353,392	-110,423	-0,138	-0,019
354,406	-33,855	-0,148	-0,055
355,421	204,779	1312,465	1393,669
356,435	157,417	1472,878	1394,129
