DTS Sentinel unit serial number:	SN410029Multiplexer serial number:	ORYXHardware model number:	OX2-SRSoftware version number:	ORYX F/W v4,00 Oryx Data Collector v3.7.2.0data status	okinstallation	B3 Nyhavnadifferential loss correction	single-endedforward channel	channel 1reverse channel	N/Adate	2023/11/28time	20:17:30forward acquisition time	300,00reverse acquisition time	0,00gamma	499,1914k internal	0,3212k external	0,3212temperature offset calibration	1,0000default loss term (dB/km)	0,3820temperature slope calibration	1,0000multiplexer offset coefficient	1,0000multiplexer slope coefficient	1,0000fibre end	0,00T internal ref (°C)	7,89T ext. ref 1 (°C)	-6,65T ext. ref 2 (°C)	-6,80length (m)	temperature (°C)	Stokes	anti-Stokes-744,400	-200,000	-0,092	-0,331
-743,385	800,000	0,070	0,167
-742,371	-200,000	-0,022	-0,252
-741,356	800,000	0,140	0,314
-740,342	-104,779	-0,166	-0,027
-739,327	-200,000	-0,027	0,349
-738,312	165,865	-0,243	-0,249
-737,298	-200,000	-0,030	0,098
-736,283	800,000	-0,085	-0,211
-735,269	-200,000	-0,034	0,316
-734,254	-200,000	-0,045	-0,276
-733,239	-95,817	-0,269	0,052
-732,225	-200,000	-0,025	-0,127
-731,210	800,000	0,113	0,243
-730,196	393,581	0,038	-0,058
-729,181	-167,071	-0,066	0,002
-728,167	381,471	-0,105	-0,156
-727,152	404,499	-0,058	-0,089
-726,137	-98,408	-0,039	0,007
-725,123	105,067	-0,080	0,069
-724,108	-200,000	-0,015	0,132
-723,094	121,915	-0,042	-0,038
-722,079	800,000	-0,010	-0,027
-721,064	800,000	0,024	-0,048
-720,050	-141,560	-0,056	-0,004
-719,035	445,052	0,036	0,057
-718,021	-47,000	-0,064	0,023
-717,006	356,485	-0,069	-0,099
-715,991	-200,000	0,002	-0,008
-714,977	36,308	0,130	-0,083
-713,962	-200,000	0,012	-0,049
-712,948	-75,287	0,182	-0,047
-711,933	-200,000	0,018	-0,152
-710,918	314,075	-0,089	-0,121
-709,904	649,980	-0,018	-0,033
-708,889	-200,000	0,008	-0,143
-707,875	-134,115	-0,091	-0,008
-706,860	-115,066	-0,164	-0,022
-705,845	-200,000	-0,022	-0,094
-704,831	58,387	0,073	-0,052
-703,816	-24,683	0,038	-0,016
-702,802	-200,000	0,010	0,060
-701,787	-22,042	-0,075	-0,033
-700,772	-108,722	0,027	0,004
-699,758	-99,091	-0,043	0,008
-698,743	76,869	0,087	0,067
-697,729	174,662	-0,050	-0,052
-696,714	-200,000	-0,034	0,131
-695,699	799,399	0,057	-0,114
-694,685	-89,207	-0,036	0,008
-693,670	89,233	0,053	-0,042
-692,656	-43,569	-0,042	-0,015
-691,641	-200,000	-0,002	0,031
-690,627	107,526	0,081	0,070
-689,612	-200,000	0,000	0,039
-688,597	-130,773	0,108	0,010
-687,583	3,808	-0,151	-0,080
-686,568	-200,000	-0,040	-0,145
-685,554	19,817	0,027	0,016
-684,539	651,851	-0,018	0,034
-683,524	261,005	0,024	-0,030
-682,510	-65,440	-0,015	0,004
-681,495	-60,878	0,116	0,035
-680,481	-58,173	-0,095	-0,030
-679,466	10,065	-0,154	-0,085
-678,451	800,000	0,041	0,111
-677,437	800,000	0,027	0,072
-676,422	387,458	-0,053	0,080
-675,408	-127,446	0,092	0,010
-674,393	-200,000	-0,010	0,142
-673,378	38,808	0,036	0,023
-672,364	800,000	-0,032	0,073
-671,349	111,130	-0,063	-0,055
-670,335	49,782	0,044	0,030
-669,320	-6,680	0,084	0,041
-668,305	-200,000	-0,017	-0,059
-667,291	71,221	-0,100	-0,075
-666,276	8,053	-0,123	-0,066
-665,262	-1,810	-0,081	0,041
-664,247	-105,799	0,036	-0,006
-663,232	-104,361	-0,101	-0,017
-662,218	502,835	-0,047	0,078
-661,203	581,713	0,058	0,104
-660,189	-17,845	0,033	0,015
-659,174	408,692	-0,035	-0,054
-658,159	800,000	0,063	-0,131
-657,145	-200,000	-0,017	-0,088
-656,130	0,452	0,043	0,022
-655,116	-55,611	0,175	0,056
-654,101	-44,600	-0,041	0,015
-653,086	-200,000	0,005	-0,105
-652,072	-200,000	0,020	-0,093
-651,057	-200,000	-0,006	0,043
-650,043	-107,695	0,048	-0,007
-649,028	1,983	0,062	0,032
-648,014	441,682	0,083	0,132
-646,999	131,867	-0,049	0,046
-645,984	538,519	-0,052	-0,089
-644,970	-200,000	-0,009	-0,212
-643,955	-94,338	0,158	0,031
-642,941	58,498	-0,124	-0,088
-641,926	-200,000	0,023	-0,081
-640,911	-6,869	0,031	0,015
-639,897	-119,833	-0,031	-0,004
-638,882	-200,000	-0,009	0,038
-637,868	116,314	-0,064	0,057
-636,853	800,000	-0,085	-0,193
-635,838	-30,005	-0,082	-0,034
-634,824	-146,919	-0,203	-0,012
-633,809	800,000	-0,072	0,152
-632,795	-192,419	-0,140	-0,001
-631,780	171,332	0,022	-0,023
-630,765	-154,284	0,180	0,009
-629,751	600,831	0,083	-0,150
-628,736	800,000	-0,011	0,024
-627,722	27,688	0,158	-0,096
-626,707	78,356	-0,017	0,013
-625,692	-200,000	-0,012	0,112
-624,678	-99,648	-0,095	-0,017
-623,663	17,693	-0,038	-0,022
-622,649	-200,000	0,004	-0,066
-621,634	687,586	0,098	-0,185
-620,619	319,999	0,031	-0,043
-619,605	800,000	0,047	0,104
-618,590	30,779	0,096	-0,059
-617,576	-200,000	-0,007	0,143
-616,561	5,168	-0,057	0,030
-615,546	-200,000	-0,006	-0,146
-614,532	341,493	-0,120	-0,170
-613,517	124,297	-0,075	-0,068
-612,503	-162,175	0,160	0,006
-611,488	-200,000	0,010	-0,036
-610,474	800,000	-0,018	0,046
-609,459	253,764	-0,025	0,031
-608,444	-52,192	-0,199	-0,066
-607,430	200,523	-0,160	-0,177
-606,415	47,624	-0,224	-0,150
-605,401	122,771	-0,151	-0,136
-604,386	83,862	0,045	-0,035
-603,371	108,561	0,052	0,045
-602,357	352,465	-0,058	-0,083
-601,342	-107,381	0,112	-0,018
-600,328	800,000	-0,050	-0,130
-599,313	31,246	-0,160	-0,099
-598,298	-151,674	-0,133	-0,007
-597,284	-91,872	0,112	0,023
-596,269	-27,820	0,027	0,011
-595,255	56,580	0,070	-0,049
-594,240	42,832	-0,009	0,006
-593,225	-200,000	-0,008	-0,056
-592,211	-200,000	-0,011	-0,062
-591,196	295,337	0,072	-0,095
-590,182	800,000	-0,032	0,095
-589,167	157,072	-0,081	0,080
-588,152	-200,000	-0,002	0,034
-587,138	48,426	0,085	-0,057
-586,123	-197,436	-0,113	-0,000
-585,109	-136,685	0,122	0,010
-584,094	-26,488	-0,135	0,057
-583,079	-93,311	0,095	0,019
-582,065	800,000	0,033	-0,091
-581,050	-68,351	0,110	-0,030
-580,036	493,311	0,021	-0,034
-579,021	-146,494	0,246	0,015
-578,006	142,736	-0,114	-0,109
-576,992	-177,056	0,143	-0,003
-575,977	-42,988	0,101	0,037
-574,963	-200,000	-0,018	0,084
-573,948	0,993	0,173	-0,089
-572,934	266,017	0,010	0,012
-571,919	-200,000	0,003	-0,073
-570,904	800,000	0,024	0,060
-569,890	-200,000	0,010	0,067
-568,875	-59,565	0,123	0,038
-567,861	200,766	0,056	0,062
-566,846	800,000	0,029	0,061
-565,831	-120,123	0,065	0,008
-564,817	91,736	-0,055	-0,044
-563,802	115,364	-0,089	-0,079
-562,788	800,000	0,010	-0,026
-561,773	-18,183	0,055	0,025
-560,758	378,627	0,062	0,092
-559,744	800,000	0,031	0,064
-558,729	-200,000	-0,018	0,150
-557,715	78,182	-0,035	-0,027
-556,700	-100,022	-0,183	0,032
-555,685	467,368	-0,041	0,067
-554,671	-200,000	-0,011	-0,088
-553,656	-200,000	-0,008	0,174
-552,642	204,348	0,039	0,043
-551,627	88,647	0,032	0,026
-550,612	94,234	0,024	0,020
-549,598	800,000	0,046	-0,134
-548,583	192,320	-0,125	-0,136
-547,569	-113,718	0,023	0,003
-546,554	547,145	0,064	0,110
-545,539	-83,486	-0,195	0,045
-544,525	800,000	-0,041	-0,089
-543,510	-70,421	0,042	0,011
-542,496	99,627	0,073	0,061
-541,481	-51,395	-0,066	0,022
-540,466	54,039	0,124	-0,086
-539,452	800,000	0,052	0,121
-538,437	-200,000	-0,003	-0,203
-537,423	67,748	0,107	0,078
-536,408	-200,000	0,030	-0,098
-535,393	600,626	0,090	-0,161
-534,379	131,710	0,092	0,085
-533,364	-200,000	0,003	0,029
-532,350	-134,070	0,054	0,005
-531,335	-200,000	-0,003	-0,045
-530,321	-31,575	-0,070	-0,028
-529,306	-200,000	0,006	0,091
-528,291	-146,902	-0,142	-0,009
-527,277	800,000	0,014	0,029
-526,262	-86,399	-0,041	-0,009
-525,248	151,666	0,074	-0,072
-524,233	-200,000	0,005	0,074
-523,218	195,779	0,090	-0,098
-522,204	-86,179	-0,076	-0,017
-521,189	29,441	0,130	-0,079
-520,175	506,736	0,076	-0,127
-519,160	-35,037	-0,106	0,041
-518,145	230,310	-0,062	-0,073
-517,131	664,980	0,065	0,121
-516,116	51,097	-0,090	0,061
-515,102	145,122	-0,158	0,152
-514,087	-200,000	0,008	0,029
-513,072	-171,548	-0,234	0,005
-512,058	29,031	-0,105	-0,064
-511,043	-200,000	0,005	-0,036
-510,029	113,714	-0,010	0,009
-509,014	474,733	-0,016	-0,026
-507,999	-200,000	0,016	0,062
-506,985	-200,000	0,004	0,104
-505,970	-22,867	-0,116	-0,050
-504,956	-76,053	0,114	-0,029
-503,941	72,898	0,087	-0,065
-502,926	54,575	0,021	-0,014
-501,912	800,000	0,024	0,071
-500,897	40,650	0,115	0,074
-499,883	800,000	-0,089	-0,184
-498,868	102,449	-0,069	-0,058
-497,853	20,389	-0,118	-0,068
-496,839	800,000	-0,044	-0,107
-495,824	800,000	0,015	0,037
-494,810	-37,100	0,197	0,075
-493,795	-200,000	-0,016	-0,064
-492,781	298,976	0,019	-0,025
-491,766	-200,000	-0,013	0,131
-490,751	85,839	0,063	-0,050
-489,737	-200,000	0,009	0,245
-488,722	46,446	-0,049	0,032
-487,708	-34,239	0,110	-0,043
-486,693	-55,043	0,083	0,027
-485,678	81,357	-0,129	0,100
-484,664	-200,000	0,003	-0,100
-483,649	-101,595	-0,034	0,006
-482,635	-200,000	-0,014	0,106
-481,620	-12,825	-0,042	0,019
-480,605	52,999	-0,102	0,070
-479,591	261,488	-0,073	0,091
-478,576	-82,523	0,064	0,015
-477,562	-120,410	-0,131	-0,016
-476,547	-200,000	-0,005	-0,062
-475,532	-18,305	0,107	0,048
-474,518	235,907	0,089	0,106
-473,503	39,915	0,033	-0,021
-472,489	-0,738	-0,189	0,096
-471,474	-200,000	0,002	0,008
-470,459	800,000	0,026	0,058
-469,445	800,000	-0,037	-0,077
-468,430	195,105	0,028	-0,030
-467,416	219,861	-0,013	0,015
-466,401	800,000	-0,014	0,038
-465,386	-7,380	-0,099	0,048
-464,372	-200,000	0,005	0,089
-463,357	-22,308	-0,049	0,021
-462,343	800,000	0,059	0,123
-461,328	98,601	-0,122	0,101
-460,313	18,746	0,026	-0,015
-459,299	-29,220	0,180	0,074
-458,284	-200,000	0,026	-0,127
-457,270	111,197	0,093	0,080
-456,255	-139,707	-0,084	-0,006
-455,241	-200,000	0,000	-0,080
-454,226	190,292	0,052	0,056
-453,211	800,000	-0,018	0,042
-452,197	-200,000	0,006	0,095
-451,182	-128,541	0,067	0,007
-450,168	-200,000	0,017	0,078
-449,153	-200,000	-0,008	-0,109
-448,138	314,197	0,037	-0,050
-447,124	800,000	-0,010	-0,020
-446,109	134,307	0,088	-0,082
-445,095	143,027	0,052	-0,050
-444,080	-124,436	-0,062	0,007
-443,065	359,883	0,056	0,081
-442,051	-159,766	-0,121	-0,005
-441,036	468,024	0,042	-0,067
-440,022	-59,222	0,035	0,011
-439,007	95,862	-0,055	0,045
-437,992	-200,000	0,017	0,077
-436,978	800,000	0,016	0,047
-435,963	394,917	0,142	0,213
-434,949	106,595	-0,055	0,047
-433,934	-88,028	0,202	-0,043
-432,919	-200,000	0,008	0,096
-431,905	800,000	-0,011	-0,031
-430,890	800,000	-0,026	-0,072
-429,876	-200,000	0,010	0,081
-428,861	-200,000	0,036	0,135
-427,846	-84,743	-0,158	0,035
-426,832	250,395	0,059	0,072
-425,817	255,708	-0,052	-0,064
-424,803	489,025	-0,011	-0,018
-423,788	-200,000	0,008	0,035
-422,773	800,000	-0,038	-0,080
-421,759	56,436	0,029	-0,020
-420,744	-83,554	-0,099	-0,022
-419,730	28,311	-0,085	-0,051
-418,715	-66,794	0,044	-0,012
-417,701	-77,729	0,059	0,014
-416,686	-4,137	0,058	0,028
-415,671	-200,000	0,029	-0,121
-414,657	23,580	-0,058	-0,034
-413,642	-21,621	-0,097	0,042
-412,628	84,059	0,085	0,066
-411,613	-198,849	0,072	-0,000
-410,598	-200,000	-0,014	0,105
-409,584	-107,080	0,129	-0,020
-408,569	-119,294	0,128	-0,016
-407,555	12,909	0,089	0,049
-406,540	-5,500	-0,113	0,055
-405,525	253,831	-0,073	0,089
-404,511	163,483	-0,043	0,043
-403,496	-200,000	-0,015	-0,105
-402,482	-80,276	0,091	-0,022
-401,467	-5,584	0,102	-0,050
-400,452	-200,000	-0,003	0,038
-399,438	284,184	-0,062	-0,080
-398,423	75,835	-0,102	-0,077
-397,409	-200,000	-0,010	-0,050
-396,394	467,073	-0,100	-0,160
-395,379	-3,230	0,181	-0,090
-394,365	-39,579	-0,022	-0,008
-393,350	-200,000	0,015	0,126
-392,336	800,000	-0,020	-0,047
-391,321	521,164	0,015	-0,025
-390,306	7,471	0,103	-0,055
-389,292	-200,000	-0,008	-0,101
-388,277	-200,000	-0,002	0,026
-387,263	-136,313	0,107	-0,009
-386,248	405,698	-0,022	0,033
-385,233	-200,000	0,002	0,199
-384,219	-200,000	-0,003	0,056
-383,204	-88,777	-0,188	-0,040
-382,190	-104,741	0,124	0,020
-381,175	16,877	-0,066	0,037
-380,160	24,603	-0,069	0,040
-379,146	-74,893	0,092	-0,023
-378,131	-143,960	0,137	0,009
-377,117	-35,140	-0,037	-0,014
-376,102	287,710	0,108	-0,139
-375,088	470,623	-0,018	0,029
-374,073	-200,000	-0,041	0,174
-373,058	-105,714	0,124	-0,020
-372,044	800,000	-0,016	-0,032
-371,029	98,376	0,083	-0,068
-370,015	-200,000	0,002	-0,072
-369,000	-200,000	0,038	-0,195
-367,985	621,481	-0,086	-0,156
-366,971	-200,000	0,023	0,237
-365,956	-9,164	0,137	-0,065
-364,942	-4,164	-0,141	-0,069
-363,927	501,544	-0,007	0,012
-362,912	199,869	0,047	-0,051
-361,898	318,831	0,038	0,052
-360,883	-200,000	0,002	-0,102
-359,869	-94,328	-0,137	0,027
-358,854	674,218	-0,068	0,127
-357,839	-83,143	-0,014	0,003
-356,825	-108,685	-0,163	-0,025
-355,810	800,000	0,033	0,076
-354,796	25,474	0,071	-0,042
-353,781	10,383	-0,024	0,013
-352,766	30,396	0,143	-0,087
-351,752	123,177	-0,048	-0,043
-350,737	-98,583	0,082	-0,015
-349,723	0,414	0,137	-0,070
-348,708	45,230	0,031	0,020
-347,693	800,000	0,000	0,001
-346,679	-200,000	-0,013	0,046
-345,664	95,735	-0,029	-0,024
-344,650	178,020	-0,028	-0,029
-343,635	150,217	0,014	0,014
-342,620	294,801	0,052	-0,068
-341,606	-200,000	0,003	0,147
-340,591	-200,000	0,008	-0,112
-339,577	-200,000	0,007	-0,033
-338,562	288,812	0,037	0,048
-337,548	800,000	0,032	0,094
-336,533	-200,000	0,018	0,084
-335,518	-200,000	-0,008	-0,038
-334,504	800,000	-0,036	0,080
-333,489	63,127	0,009	0,006
-332,475	-138,821	-0,047	0,004
-331,460	62,766	0,166	-0,118
-330,445	-200,000	0,029	0,098
-329,431	665,326	0,049	0,090
-328,416	-200,000	-0,000	0,055
-327,402	800,000	-0,042	-0,096
-326,387	602,254	-0,047	0,084
-325,372	-36,611	-0,153	-0,058
-324,358	800,000	0,022	-0,048
-323,343	-12,974	-0,071	0,033
-322,329	629,381	-0,026	0,046
-321,314	-95,514	0,071	-0,013
-320,299	-125,127	-0,145	-0,016
-319,285	-101,091	0,085	-0,015
-318,270	47,738	-0,142	-0,094
-317,256	800,000	0,034	-0,075
-316,241	156,305	0,054	0,053
-315,226	-200,000	0,015	-0,062
-314,212	8,022	0,161	0,086
-313,197	-38,284	-0,157	0,059
-312,183	-200,000	-0,006	0,045
-311,168	-37,540	-0,081	-0,031
-310,153	215,677	-0,032	-0,037
-309,139	800,000	-0,087	-0,190
-308,124	-75,879	0,081	0,020
-307,110	408,535	0,072	0,109
-306,095	-125,750	0,034	-0,004
-305,080	800,000	-0,015	0,034
-304,066	94,059	0,045	-0,037
-303,051	-200,000	-0,001	0,039
-302,037	152,997	0,033	-0,033
-301,022	532,764	-0,060	0,101
-300,008	212,726	-0,033	0,038
-298,993	2,461	0,044	0,023
-297,978	-154,554	-0,070	0,003
-296,964	800,000	-0,026	0,061
-295,949	401,311	0,047	-0,070
-294,935	-200,000	0,032	-0,123
-293,920	800,000	0,026	-0,055
-292,905	125,549	0,086	-0,077
-291,891	-86,503	0,126	0,027
-290,876	183,864	-0,026	-0,027
-289,862	-200,000	-0,003	-0,045
-288,847	291,681	-0,081	-0,106
-287,832	-123,630	-0,063	-0,007
-286,818	-200,000	-0,011	0,040
-285,803	221,927	0,045	0,052
-284,789	157,119	-0,028	-0,027
-283,774	87,213	0,113	0,089
-282,759	-200,000	-0,010	-0,105
-281,745	102,140	0,059	-0,049
-280,730	-200,000	-0,027	0,086
-279,716	99,426	-0,043	-0,036
-278,701	604,111	-0,034	0,060
-277,686	-200,000	0,003	-0,023
-276,672	741,254	-0,069	0,132
-275,657	495,203	0,102	0,167
-274,643	192,254	0,029	0,031
-273,628	-200,000	-0,007	-0,096
-272,613	-10,010	-0,061	0,029
-271,599	-28,450	0,064	-0,026
-270,584	-23,710	0,068	0,029
-269,570	221,753	0,091	0,105
-268,555	-200,000	-0,056	-0,193
-267,540	-106,571	-0,128	-0,020
-266,526	20,352	0,019	-0,011
-265,511	-181,115	-0,089	0,001
-264,497	-200,000	-0,032	0,121
-263,482	-67,508	-0,093	-0,026
-262,467	-200,000	0,001	0,082
-261,453	-200,000	-0,070	0,223
-260,438	-16,397	0,020	0,009
-259,424	-200,000	-0,016	-0,070
-258,409	124,816	0,047	0,042
-257,395	32,663	-0,057	0,035
-256,380	63,621	0,045	-0,032
-255,365	-115,206	-0,221	0,029
-254,351	-127,086	-0,067	0,007
-253,336	9,124	-0,095	-0,051
-252,322	-63,674	-0,129	0,037
-251,307	-200,000	0,007	-0,082
-250,292	-62,989	-0,122	-0,036
-249,278	-200,000	0,067	0,229
-248,263	225,360	-0,074	-0,086
-247,249	-200,000	0,007	0,058
-246,234	-66,021	-0,052	0,015
-245,219	398,161	0,014	0,021
-244,205	16,198	-0,167	-0,093
-243,190	74,410	0,128	-0,096
-242,176	537,264	0,043	-0,072
-241,161	332,801	0,013	-0,017
-240,146	-200,000	-0,000	0,066
-239,132	-60,524	-0,049	0,015
-238,117	-200,000	0,037	-0,160
-237,103	-154,392	-0,169	0,008
-236,088	-177,254	-0,090	-0,002
-235,073	424,445	0,077	0,118
-234,059	413,194	0,075	0,113
-233,044	-93,499	-0,077	0,015
-232,030	481,663	-0,021	0,035
-231,015	-200,000	0,035	-0,141
-230,000	61,769	-0,095	-0,067
-228,986	169,741	0,108	0,110
-227,971	109,810	-0,018	0,016
-226,957	-200,000	0,007	0,039
-225,942	800,000	0,034	-0,086
-224,927	-200,000	-0,003	-0,078
-223,913	-115,846	0,117	-0,015
-222,898	-110,473	-0,033	-0,005
-221,884	-200,000	0,006	-0,029
-220,869	111,359	0,080	-0,069
-219,855	134,879	-0,060	0,056
-218,840	-36,501	-0,093	0,035
-217,825	-200,000	0,004	0,063
-216,811	304,028	0,032	-0,042
-215,796	147,325	0,068	-0,065
-214,782	-200,000	0,009	0,075
-213,767	-200,000	0,005	0,021
-212,752	97,618	0,044	-0,036
-211,738	800,000	0,030	-0,081
-210,723	-200,000	0,004	-0,158
-209,709	-200,000	0,025	0,103
-208,694	222,381	-0,078	-0,090
-207,679	-200,000	0,003	0,034
-206,665	319,527	-0,030	0,041
-205,650	-200,000	0,006	-0,064
-204,636	194,682	-0,097	0,104
-203,621	-89,669	0,048	0,010
-202,606	435,000	-0,051	-0,078
-201,592	-200,000	-0,012	0,072
-200,577	-200,000	0,028	0,092
-199,563	800,000	-0,031	0,076
-198,548	-200,000	-0,044	0,160
-197,533	-14,596	0,116	0,053
-196,519	-101,258	-0,151	-0,026
-195,504	26,134	-0,131	0,077
-194,490	2,817	0,048	-0,025
-193,475	-38,673	0,110	0,041
-192,460	-129,344	0,133	-0,013
-191,446	218,466	-0,040	-0,046
-190,431	426,814	0,079	-0,122
-189,417	222,044	-0,078	0,089
-188,402	-114,217	-0,087	-0,012
-187,387	800,000	-0,067	-0,133
-186,373	800,000	-0,045	-0,131
-185,358	132,475	0,011	-0,010
-184,344	367,546	0,017	0,025
-183,329	19,248	0,143	-0,081
-182,315	11,342	0,140	-0,076
-181,300	329,745	-0,022	-0,031
-180,285	-152,285	-0,005	0,000
-179,271	-21,423	-0,051	-0,022
-178,256	-136,454	0,104	-0,008
-177,242	148,442	0,103	0,099
-176,227	-200,000	0,031	0,098
-175,212	800,000	-0,012	-0,029
-174,198	-200,000	0,000	-0,058
-173,183	-124,016	-0,067	-0,007
-172,169	-136,329	-0,144	-0,012
-171,154	277,605	-0,037	0,047
-170,139	-200,000	0,040	-0,183
-169,125	-98,328	0,102	0,018
-168,110	-36,810	0,160	0,061
-167,096	-76,989	-0,079	-0,019
-166,081	-200,000	-0,005	0,027
-165,066	-94,455	-0,082	0,016
-164,052	-200,000	0,026	0,090
-163,037	-200,000	-0,008	0,186
-162,023	122,082	0,052	0,046
-161,008	-56,022	0,088	0,028
-159,993	-142,914	-0,060	-0,004
-158,979	-28,074	0,091	-0,037
-157,964	449,193	-0,050	-0,078
-156,950	-200,000	-0,012	0,079
-155,935	-200,000	0,005	-0,058
-154,920	45,442	0,086	0,056
-153,906	-200,000	-0,073	0,269
-152,891	-58,557	-0,068	0,021
-151,877	-50,845	-0,110	-0,036
-150,862	205,613	0,029	-0,032
-149,847	516,491	-0,039	-0,066
-148,833	-200,000	0,014	0,088
-147,818	280,815	0,107	0,136
-146,804	-16,699	0,140	-0,063
-145,789	169,046	-0,028	0,028
-144,775	800,000	-0,009	0,026
-143,760	20,946	0,076	-0,044
-142,745	-122,439	0,077	0,009
-141,731	800,000	-0,049	0,113
-140,716	-200,000	0,011	0,098
-139,702	-86,119	-0,044	0,009
-138,687	133,585	-0,072	-0,066
-137,672	460,894	-0,033	-0,052
-136,658	-22,241	0,150	-0,064
-135,643	7,072	0,057	-0,030
-134,629	800,000	-0,055	-0,162
-133,614	800,000	-0,041	0,121
-132,599	464,695	0,078	-0,123
-131,585	-200,000	0,044	0,162
-130,570	-15,270	-0,071	-0,032
-129,556	-13,759	0,071	-0,033
-128,541	553,715	0,022	-0,038
-127,526	594,518	-0,051	-0,090
-126,512	-101,644	0,130	0,022
-125,497	800,000	-0,025	-0,061
-124,483	195,319	0,082	0,088
-123,468	800,000	0,013	0,038
-122,453	800,000	0,040	0,106
-121,439	533,915	-0,092	-0,154
-120,424	-7,585	-0,036	0,017
-119,410	-55,865	-0,031	-0,010
-118,395	-200,000	0,002	0,130
-117,380	-17,279	0,088	-0,039
-116,366	53,328	0,189	-0,128
-115,351	591,798	0,037	0,065
-114,337	800,000	-0,038	-0,074
-113,322	-200,000	-0,010	-0,166
-112,307	-170,707	0,214	-0,005
-111,293	130,391	-0,100	0,091
-110,278	-105,449	0,091	0,015
-109,264	-89,136	-0,100	-0,021
-108,249	800,000	0,017	-0,049
-107,234	71,466	-0,110	0,080
-106,220	-133,459	0,103	-0,009
-105,205	135,622	0,016	0,015
-104,191	56,335	0,062	0,043
-103,176	-49,034	-0,054	0,018
-102,162	-34,523	0,119	-0,046
-101,147	229,240	-0,051	0,058
-100,132	-50,298	0,054	0,018
-99,118	-72,380	0,036	-0,009
-98,103	800,000	0,028	-0,076
-97,089	-200,000	0,002	-0,083
-96,074	51,201	-0,101	0,068
-95,059	-200,000	0,016	0,139
-94,045	800,000	-0,027	0,058
-93,030	39,205	-0,072	-0,046
-92,016	-43,222	0,090	-0,032
-91,001	-85,821	0,028	0,006
-89,986	48,078	-0,144	0,095
-88,972	99,495	0,088	-0,072
-87,957	32,375	-0,040	0,025
-86,943	46,788	-0,075	0,049
-85,928	-200,000	0,000	-0,004
-84,913	609,468	-0,022	0,038
-83,899	244,960	-0,064	0,076
-82,884	-200,000	-0,031	0,120
-81,870	81,879	0,082	0,062
-80,855	-200,000	0,018	-0,070
-79,840	-85,652	-0,067	-0,014
-78,826	-110,040	-0,054	0,008
-77,811	290,546	-0,009	0,011
-76,797	-200,000	-0,003	0,075
-75,782	-200,000	0,001	0,016
-74,767	-21,136	0,166	0,072
-73,753	-56,378	-0,057	-0,018
-72,738	297,402	0,108	-0,141
-71,724	50,920	-0,127	-0,085
-70,709	71,696	0,051	0,037
-69,694	-192,706	0,116	0,001
-68,680	-144,884	-0,120	0,008
-67,665	-60,518	0,110	0,033
-66,651	322,696	-0,022	-0,029
-65,636	800,000	0,052	0,114
-64,622	3,867	0,152	0,078
-63,607	336,341	-0,042	-0,058
-62,592	226,888	-0,057	0,066
-61,578	167,386	0,077	-0,077
-60,563	-200,000	0,002	0,071
-59,549	486,550	-0,052	0,084
-58,534	74,431	-2,160	-1,600
-57,519	659,608	-1,007	-1,836
-56,505	-200,000	-0,332	-4,241
-55,490	800,000	0,943	1,874
-54,476	800,000	5,178	11,294
-53,461	-200,000	22,361	344,816
-52,446	800,000	755,420	2287,739
-51,432	532,510	1639,579	2748,095
-50,417	67,581	1637,915	1178,684
-49,403	15,551	1515,414	837,435
-48,388	9,724	1441,458	768,661
-47,373	19,172	1434,502	809,820
-46,359	13,255	1422,809	775,344
-45,344	8,049	1418,742	748,549
-44,330	8,002	1417,006	747,380
-43,315	7,962	1415,049	746,129
-42,300	7,998	1413,088	745,237
-41,286	8,056	1412,122	744,970
-40,271	7,963	1411,018	743,923
-39,257	7,989	1409,705	743,322
-38,242	7,993	1408,821	742,845
-37,227	7,992	1407,606	742,173
-36,213	7,965	1406,196	741,270
-35,198	8,004	1404,889	740,736
-34,184	8,014	1404,243	740,412
-33,169	7,894	1402,863	739,095
-32,154	7,966	1401,909	738,897
-31,140	7,958	1400,690	738,192
-30,125	7,979	1399,479	737,620
-29,111	7,983	1398,221	736,944
-28,096	7,971	1397,060	736,251
-27,082	7,923	1395,956	735,416
-26,067	7,895	1395,014	734,761
-25,052	7,949	1393,866	734,375
-24,038	7,949	1392,945	733,861
-23,023	7,884	1392,057	733,064
-22,009	7,885	1391,285	732,634
-20,994	7,928	1390,014	732,135
-19,979	7,886	1388,942	731,347
-18,965	7,883	1387,959	730,786
-17,950	7,825	1387,275	730,129
-16,936	7,896	1386,275	729,898
-15,921	7,783	1385,219	728,797
-14,906	7,861	1384,293	728,639
-13,892	7,930	1383,329	728,420
-12,877	7,872	1382,502	727,686
-11,863	7,848	1381,606	727,078
-10,848	7,826	1380,957	726,604
-9,833	7,761	1380,282	725,922
-8,819	7,728	1379,198	725,172
-7,804	7,793	1377,855	724,734
-6,790	7,769	1377,069	724,183
-5,775	7,746	1376,228	723,609
-4,760	7,741	1375,209	723,020
-3,746	7,788	1374,137	722,643
-2,731	7,784	1373,390	722,204
-1,717	7,752	1372,793	721,716
-0,702	7,717	1370,993	720,581
0,313	11,702	1281,374	691,474
1,327	27,316	674,664	398,750
2,342	42,644	115,765	74,161
3,356	0,134	16,494	8,262
4,371	-0,886	3,841	1,911
5,386	-4,254	1,474	0,716
6,400	680,726	0,374	0,690
7,415	-131,487	-0,188	0,017
8,429	145,265	-0,151	-0,143
9,444	54,396	-0,270	-0,183
10,459	104,626	-0,194	-0,161
11,473	41,379	-0,210	-0,134
12,488	181,510	-0,124	-0,129
13,502	273,862	-0,307	-0,384
14,517	136,788	-0,258	-0,237
15,531	-118,923	-0,448	-0,055
16,546	124,551	-0,196	-0,174
17,561	38,985	-0,341	-0,214
18,575	100,937	-0,217	-0,177
19,590	160,654	-0,237	-0,233
20,604	-41,527	-0,260	-0,093
21,619	180,714	-0,292	-0,302
22,634	3,048	-0,516	-0,263
23,648	156,717	-0,325	-0,316
24,663	19,327	-0,369	-0,208
25,677	139,428	-0,310	-0,287
26,692	95,208	-0,346	-0,277
27,707	-75,203	-0,255	-0,064
28,721	168,357	-0,280	-0,280
29,736	106,581	-0,380	-0,317
30,750	180,886	-0,338	-0,349
31,765	-2,489	-0,441	-0,217
32,780	155,851	-0,315	-0,306
33,794	139,694	-0,320	-0,296
34,809	-4,629	-0,264	-0,127
35,823	18,289	-0,390	-0,218
36,838	55,662	-0,373	-0,253
37,853	70,263	-0,392	-0,284
38,867	113,285	-0,385	-0,328
39,882	-93,947	-0,331	-0,063
40,896	-2,411	-0,303	-0,149
41,911	-64,953	-0,315	-0,089
42,926	-38,829	-0,481	-0,177
43,940	159,278	-0,307	-0,300
44,955	36,731	-0,326	-0,202
45,969	-38,820	-0,367	-0,135
46,984	93,658	-0,287	-0,228
47,999	26,491	-0,360	-0,211
49,013	147,372	-0,337	-0,319
50,028	190,356	-0,291	-0,308
51,042	306,716	-0,239	-0,313
52,057	38,059	-0,324	-0,202
53,071	99,372	-0,418	-0,339
54,086	4,219	-0,310	-0,159
55,101	-73,572	-0,320	-0,081
56,115	51,057	-0,295	-0,196
57,130	63,882	-0,244	-0,172
58,144	422,729	-0,256	-0,388
59,159	-23,292	-0,512	-0,215
60,174	21,620	-0,244	-0,139
61,188	61,406	-0,285	-0,199
62,203	156,971	-0,213	-0,207
63,217	1,110	-0,393	-0,197
64,232	144,824	-0,308	-0,289
65,247	-58,164	-0,228	-0,069
66,261	-28,781	-0,418	-0,168
67,276	105,790	-0,367	-0,304
68,290	265,998	-0,213	-0,261
69,305	423,432	-0,155	-0,235
70,320	-182,856	-0,240	-0,003
71,334	120,657	-0,258	-0,225
72,349	-27,459	-0,312	-0,127
73,363	191,739	-0,262	-0,277
74,378	-54,942	-0,331	-0,104
75,393	-17,189	-0,326	-0,143
76,407	89,308	-0,132	-0,103
77,422	44,179	-0,341	-0,219
78,436	40,012	-0,251	-0,158
79,451	123,682	-0,181	-0,159
80,466	419,895	-0,190	-0,287
81,480	-6,535	-0,347	-0,165
82,495	-20,031	-0,283	-0,122
83,509	105,874	-0,265	-0,219
84,524	201,500	-0,216	-0,233
85,539	102,968	-0,292	-0,239
86,553	-59,680	-0,311	-0,093
87,568	258,378	-0,357	-0,431
88,582	486,624	-0,203	-0,324
89,597	35,149	-0,247	-0,151
90,611	-130,546	-0,329	-0,031
91,626	-11,573	-0,143	-0,066
92,641	-99,308	-0,274	-0,048
93,655	-48,389	-0,328	-0,110
94,670	117,716	-0,155	-0,133
95,684	394,828	-0,191	-0,279
96,699	-102,694	-0,327	-0,054
97,714	63,387	-0,278	-0,194
98,728	342,946	-0,204	-0,280
99,743	21,605	-0,222	-0,126
100,757	139,062	-0,249	-0,229
101,772	-79,671	-0,410	-0,096
102,787	180,810	-0,220	-0,226
103,801	28,194	-0,356	-0,210
104,816	236,640	-0,198	-0,229
105,830	15,046	-0,322	-0,176
106,845	26,847	-0,150	-0,087
107,860	196,124	-0,187	-0,200
108,874	107,427	-0,187	-0,156
109,889	3,245	-0,346	-0,175
110,903	-10,570	-0,351	-0,162
111,918	-84,669	-0,258	-0,056
112,933	89,638	-0,102	-0,080
113,947	-113,720	-0,060	-0,008
114,962	-61,839	-0,175	-0,051
115,976	315,644	-0,216	-0,285
116,991	119,328	-0,330	-0,285
118,006	53,118	-0,370	-0,247
119,020	194,058	-0,218	-0,230
120,035	0,600	-0,263	-0,131
121,049	-62,913	-0,298	-0,085
122,064	-52,439	-0,284	-0,091
123,079	171,584	-0,203	-0,203
124,093	18,504	-0,350	-0,195
125,108	14,867	-0,240	-0,131
126,122	800,000	-0,138	-0,277
127,137	159,086	-0,168	-0,163
128,151	-68,237	-0,234	-0,063
129,166	163,023	-0,184	-0,180
130,181	85,816	-0,269	-0,206
131,195	-75,836	-0,277	-0,068
132,210	62,667	-0,282	-0,196
133,224	800,000	-0,108	-0,268
134,239	9,987	-0,264	-0,139
135,254	206,523	-0,147	-0,159
136,268	73,431	-0,302	-0,220
137,283	188,654	-0,168	-0,176
138,297	-40,081	-0,322	-0,116
139,312	-2,679	-0,250	-0,122
140,327	122,107	-0,261	-0,227
141,341	54,367	-0,270	-0,181
142,356	18,916	-0,238	-0,132
143,370	-120,414	-0,127	-0,015
144,385	-29,163	-0,228	-0,091
145,400	387,170	-0,196	-0,283
146,414	48,594	-0,419	-0,273
147,429	249,203	-0,200	-0,236
148,443	-3,883	-0,175	-0,084
149,458	238,714	-0,112	-0,129
150,473	333,730	-0,122	-0,165
151,487	-33,219	-0,198	-0,076
152,502	173,305	-0,248	-0,249
153,516	40,814	-0,128	-0,080
154,531	177,953	-0,207	-0,211
155,546	-143,092	-0,317	-0,021
156,560	-127,721	-0,254	-0,025
157,575	293,543	-0,125	-0,159
158,589	285,922	-0,238	-0,299
159,604	33,366	-0,299	-0,180
160,619	221,443	-0,272	-0,304
161,633	167,840	-0,169	-0,167
162,648	27,293	-0,231	-0,135
163,662	181,092	-0,093	-0,095
164,677	55,606	-0,212	-0,143
165,692	56,453	-0,203	-0,137
166,706	146,979	-0,221	-0,207
167,721	240,551	-0,293	-0,340
168,735	658,744	-0,158	-0,283
169,750	-8,883	-0,291	-0,135
170,764	-35,759	-0,153	-0,057
171,779	143,828	-0,138	-0,128
172,794	-8,114	-0,279	-0,130
173,808	-34,369	-0,282	-0,107
174,823	281,571	-0,179	-0,223
175,837	89,288	-0,236	-0,182
176,852	789,903	-0,157	-0,300
177,867	-149,940	-0,234	0,012
178,881	-117,415	-0,307	-0,038
179,896	134,529	-0,133	-0,120
180,910	-77,255	-0,227	-0,054
181,925	727,894	-0,193	-0,360
182,940	270,929	-0,141	-0,173
183,954	29,325	-0,221	-0,130
184,969	228,067	-0,228	-0,258
185,983	-36,625	-0,187	-0,069
186,998	46,564	-0,223	-0,143
188,013	116,570	-0,122	-0,104
189,027	102,008	-0,286	-0,231
190,042	800,000	-0,132	-0,258
191,056	16,715	-0,299	-0,164
192,071	47,795	-0,232	-0,150
193,086	20,919	-0,114	-0,064
194,100	-107,134	-0,263	-0,040
195,115	337,025	-0,147	-0,199
196,129	429,441	-0,131	-0,197
197,144	412,035	-0,191	-0,282
198,159	100,390	-0,299	-0,240
199,173	198,086	-0,155	-0,164
200,188	42,894	-0,130	-0,082
201,202	-48,930	-0,148	-0,049
202,217	-56,442	-0,277	-0,085
203,232	23,760	-0,158	-0,090
204,246	259,747	-0,136	-0,163
205,261	116,221	-0,208	-0,177
206,275	135,241	-0,214	-0,192
207,290	19,928	-0,268	-0,149
208,304	-147,758	-0,264	-0,015
209,319	54,447	-0,184	-0,123
210,334	11,601	-0,224	-0,118
211,348	172,727	-0,169	-0,168
212,363	-93,178	-0,176	0,034
213,377	102,482	-0,251	-0,203
214,392	44,674	-0,139	-0,089
215,407	-198,093	-0,152	-0,001
216,421	360,830	-0,138	-0,192
217,436	17,715	-0,270	-0,148
218,450	295,545	-0,155	-0,197
219,465	-136,997	-0,099	-0,008
220,480	105,458	-0,152	-0,124
221,494	-72,084	-0,209	-0,053
222,509	284,419	-0,128	-0,160
223,523	101,624	-0,231	-0,186
224,538	800,000	-0,111	-0,328
225,553	102,391	-0,283	-0,229
226,567	17,179	-0,228	-0,125
227,582	532,545	-0,143	-0,235
228,596	27,540	-0,216	-0,125
229,611	800,000	-0,069	-0,171
230,626	6,724	-0,225	-0,116
231,640	-39,428	-0,347	-0,125
232,655	156,505	-0,164	-0,156
233,669	592,488	-0,157	-0,270
234,684	251,403	-0,122	-0,143
235,699	174,813	-0,212	-0,212
236,713	448,916	-0,126	-0,192
237,728	51,023	-0,199	-0,130
238,742	800,000	-0,088	-0,179
239,757	18,094	-0,147	-0,081
240,772	-0,507	-0,259	-0,127
241,786	169,867	-0,215	-0,213
242,801	68,826	-0,243	-0,172
243,815	42,525	-0,213	-0,133
244,830	-35,741	-0,120	-0,045
245,844	-49,427	-0,130	-0,043
246,859	21,387	-0,164	-0,092
247,874	65,182	-0,147	-0,103
248,888	302,162	-0,189	-0,242
249,903	58,737	-0,194	-0,131
250,917	186,791	-0,050	0,052
251,932	-200,000	-0,050	-0,210
252,947	-37,195	-0,237	-0,087
253,961	-58,218	-0,219	-0,066
254,976	-58,251	-0,267	-0,080
255,990	21,210	-0,206	-0,115
257,005	42,016	-0,142	-0,089
258,020	181,126	-0,104	-0,106
259,034	-4,002	-0,084	-0,040
260,049	64,548	-0,227	-0,158
261,063	-166,941	-0,147	0,004
262,078	-44,157	-0,288	-0,099
263,093	231,747	-0,169	-0,191
264,107	229,087	-0,181	-0,204
265,122	272,462	-0,121	-0,148
266,136	22,639	-0,153	-0,086
267,151	-147,678	-0,194	-0,011
268,166	-189,576	-0,189	-0,001
269,180	257,686	-0,221	-0,262
270,195	225,376	-0,104	-0,116
271,209	261,812	-0,163	-0,194
272,224	72,939	-0,065	-0,047
273,239	465,194	-0,054	-0,084
274,253	-89,132	-0,155	-0,031
275,268	800,000	-0,159	-0,334
276,282	79,267	-0,171	-0,126
277,297	179,829	-0,164	-0,166
278,312	27,687	-0,049	-0,028
279,326	98,093	-0,168	-0,133
280,341	4,492	-0,072	-0,036
281,355	489,892	-0,099	-0,157
282,370	40,833	-0,118	-0,073
283,384	215,173	-0,146	-0,160
284,399	102,000	-0,234	-0,188
285,414	386,893	-0,072	-0,103
286,428	-28,837	-0,216	-0,085
287,443	-52,180	-0,185	-0,059
288,457	-108,437	0,096	0,014
289,472	389,751	-0,031	-0,044
290,487	-69,082	-0,144	0,038
291,501	511,866	-0,038	-0,061
292,516	249,434	-0,123	-0,144
293,530	354,649	-0,165	-0,226
294,545	664,376	-0,090	-0,160
295,560	-120,787	-0,104	0,012
296,574	-40,803	-0,221	-0,078
297,589	-97,321	-0,261	-0,046
298,603	207,257	-0,206	-0,221
299,618	800,000	-0,086	-0,184
300,633	772,176	-0,078	-0,146
301,647	10,951	-0,184	-0,096
302,662	55,617	-0,152	-0,101
303,676	-169,004	-0,152	-0,004
304,691	-55,538	-0,190	-0,058
305,706	51,611	-0,126	-0,082
306,720	-43,639	-0,138	-0,047
307,735	52,979	-0,245	-0,161
308,749	-8,217	-0,114	0,052
309,764	-7,538	-0,118	-0,054
310,779	-24,485	0,020	-0,008
311,793	155,727	-0,124	-0,118
312,808	800,000	-0,060	-0,124
313,822	-200,000	-0,061	-0,212
314,837	-27,287	-0,185	0,074
315,852	-105,722	-0,078	0,012
316,866	-129,751	-0,130	-0,012
317,881	-42,061	-0,069	0,024
318,895	368,702	-0,109	-0,151
319,910	-12,849	-0,148	-0,066
320,925	27,606	-0,217	-0,125
321,939	-6,882	-0,011	-0,005
322,954	-123,951	-0,135	0,014
323,968	-58,933	-0,130	0,038
324,983	136,650	-0,120	-0,107
325,997	800,000	-0,092	-0,274
327,012	800,000	-0,104	-0,273
328,027	171,273	-0,178	-0,175
329,041	-58,978	-0,200	0,059
330,056	-200,000	-0,006	-0,153
331,070	-68,852	-0,076	0,020
332,085	51,737	-0,113	-0,073
333,100	-23,189	-0,179	-0,074
334,114	65,525	-0,091	0,063
335,129	-25,704	-0,125	-0,050
336,143	47,375	-0,110	-0,070
337,158	-145,058	-0,135	0,008
338,173	800,000	-0,076	-0,153
339,187	265,270	-0,045	0,053
340,202	-33,884	0,015	-0,006
341,216	-128,501	-0,217	-0,021
342,231	-87,290	-0,195	0,040
343,246	77,762	-0,177	-0,129
344,260	126,014	-0,070	-0,060
345,275	-17,130	-0,077	0,033
346,289	-3,408	-0,170	-0,081
347,304	751,810	-0,034	-0,063
348,319	-200,000	-0,024	-0,118
349,333	168,893	-0,228	-0,223
350,348	-171,977	-0,173	0,004
351,362	395,883	-0,150	-0,215
352,377	-200,000	-0,041	-0,150
353,392	-63,664	-0,172	-0,048
354,406	-200,000	-0,037	-0,165
355,421	207,320	1304,857	1393,047
356,435	159,484	1464,328	1393,515
