DTS Sentinel unit serial number:	SN410029Multiplexer serial number:	ORYXHardware model number:	OX2-SRSoftware version number:	ORYX F/W v4,00 Oryx Data Collector v3.7.2.0data status	okinstallation	B3 Nyhavnadifferential loss correction	single-endedforward channel	channel 1reverse channel	N/Adate	2023/12/01time	23:17:30forward acquisition time	300,00reverse acquisition time	0,00gamma	499,1914k internal	0,3196k external	0,3196temperature offset calibration	1,0000default loss term (dB/km)	0,3820temperature slope calibration	1,0000multiplexer offset coefficient	1,0000multiplexer slope coefficient	1,0000fibre end	0,00T internal ref (°C)	15,87T ext. ref 1 (°C)	1,28T ext. ref 2 (°C)	1,27length (m)	temperature (°C)	Stokes	anti-Stokes-744,400	690,078	-0,100	-0,192
-743,385	-200,000	-0,049	0,264
-742,371	326,575	-0,120	-0,168
-741,356	-200,000	-0,013	0,445
-740,342	151,992	-0,257	-0,255
-739,327	-200,000	0,049	0,296
-738,312	108,019	-0,296	-0,256
-737,298	-200,000	0,071	0,289
-736,283	139,787	-0,222	-0,213
-735,269	-200,000	0,070	0,306
-734,254	227,016	-0,167	-0,197
-733,239	143,829	-0,197	0,191
-732,225	800,000	-0,080	-0,215
-731,210	6,739	0,150	0,081
-730,196	521,810	-0,002	-0,003
-729,181	-200,000	-0,000	-0,127
-728,167	-84,674	-0,122	0,028
-727,152	-191,616	-0,057	-0,000
-726,137	-200,000	-0,022	-0,101
-725,123	-200,000	0,019	-0,061
-724,108	-200,000	0,068	-0,259
-723,094	94,898	-0,102	-0,084
-722,079	-124,080	-0,166	0,019
-721,064	-200,000	-0,016	-0,126
-720,050	800,000	-0,054	0,144
-719,035	26,508	0,053	0,032
-718,021	-64,199	-0,004	-0,001
-717,006	190,043	-0,184	-0,202
-715,991	-200,000	-0,004	0,023
-714,977	-35,916	0,079	0,031
-713,962	539,146	0,032	0,055
-712,948	-200,000	0,015	-0,060
-711,933	-138,883	-0,149	0,012
-710,918	97,621	-0,028	-0,023
-709,904	-147,980	-0,110	0,007
-708,889	-200,000	-0,018	-0,065
-707,875	-110,022	-0,240	-0,036
-706,860	-95,665	0,058	0,011
-705,845	-200,000	0,007	0,041
-704,831	-200,000	-0,008	0,094
-703,816	-200,000	-0,001	0,010
-702,802	116,457	-0,139	-0,124
-701,787	70,841	-0,077	-0,058
-700,772	-200,000	0,029	-0,121
-699,758	-45,560	-0,077	-0,028
-698,743	-137,451	-0,058	0,005
-697,729	71,387	0,074	0,056
-696,714	64,827	-0,046	0,034
-695,699	-115,587	0,184	0,025
-694,685	587,114	0,062	-0,112
-693,670	-109,550	-0,023	0,003
-692,656	390,521	-0,047	-0,071
-691,641	-3,111	-0,057	-0,029
-690,627	-77,422	0,075	0,019
-689,612	173,320	-0,056	-0,059
-688,597	-200,000	-0,004	0,022
-687,583	-200,000	0,013	0,072
-686,568	-54,577	-0,124	-0,041
-685,554	686,910	-0,042	-0,079
-684,539	-105,030	0,118	-0,020
-683,524	-65,446	-0,057	0,017
-682,510	800,000	0,030	-0,077
-681,495	216,884	-0,090	-0,105
-680,481	-200,000	-0,055	-0,176
-679,466	-120,845	-0,078	0,009
-678,451	101,427	-0,030	-0,026
-677,437	334,957	0,101	-0,143
-676,422	23,832	-0,102	-0,061
-675,408	-200,000	-0,001	0,112
-674,393	-112,268	-0,010	-0,001
-673,378	800,000	-0,039	-0,097
-672,364	-11,195	0,083	-0,040
-671,349	85,353	-0,056	-0,044
-670,335	316,278	-0,070	0,096
-669,320	12,539	-0,125	0,070
-668,305	-124,964	0,201	-0,022
-667,291	445,072	-0,043	0,069
-666,276	246,695	-0,043	-0,052
-665,262	468,779	0,063	-0,103
-664,247	641,758	0,005	-0,010
-663,232	-108,918	-0,108	0,017
-662,218	-136,657	-0,109	0,009
-661,203	540,269	0,010	-0,018
-660,189	-58,139	0,087	-0,028
-659,174	800,000	-0,033	0,071
-658,159	242,120	-0,107	-0,130
-657,145	800,000	-0,018	-0,053
-656,130	-200,000	-0,017	-0,105
-655,116	278,933	-0,061	-0,079
-654,101	32,570	-0,060	-0,038
-653,086	-39,661	0,137	0,052
-652,072	64,847	-0,106	-0,077
-651,057	-200,000	-0,002	-0,008
-650,043	-137,641	0,033	0,003
-649,028	-200,000	-0,005	0,065
-648,014	-88,230	0,118	0,026
-646,999	120,445	-0,051	0,046
-645,984	-200,000	-0,002	0,069
-644,970	800,000	0,007	-0,016
-643,955	800,000	0,050	-0,142
-642,941	-48,455	-0,229	-0,079
-641,926	86,498	-0,075	-0,060
-640,911	98,929	-0,075	0,063
-639,897	133,081	-0,022	0,021
-638,882	800,000	-0,021	-0,067
-637,868	-86,955	0,011	-0,002
-636,853	272,702	-0,084	-0,108
-635,838	-116,910	-0,123	0,016
-634,824	222,579	-0,067	0,079
-633,809	-200,000	0,010	-0,068
-632,795	514,573	-0,087	-0,148
-631,780	-63,716	-0,122	0,036
-630,765	200,572	-0,095	-0,106
-629,751	-200,000	-0,002	-0,055
-628,736	406,673	-0,059	0,091
-627,722	-24,812	0,116	0,050
-626,707	-16,829	-0,075	-0,034
-625,692	58,795	0,043	-0,030
-624,678	262,974	0,031	0,039
-623,663	492,973	-0,054	-0,089
-622,649	725,103	-0,022	0,043
-621,634	123,885	-0,113	0,103
-620,619	282,914	0,040	-0,052
-619,605	84,236	0,142	-0,112
-618,590	-200,000	0,007	0,073
-617,576	789,063	-0,053	0,107
-616,561	-29,589	0,072	-0,030
-615,546	-73,726	-0,046	0,012
-614,532	183,514	0,042	-0,045
-613,517	-28,860	-0,054	-0,022
-612,503	-105,400	0,085	-0,014
-611,488	-73,866	-0,125	-0,033
-610,474	59,868	-0,080	0,057
-609,459	715,120	0,039	-0,075
-608,444	18,887	-0,109	-0,063
-607,430	51,239	-0,050	-0,035
-606,415	302,587	0,052	-0,070
-605,401	239,164	-0,056	0,068
-604,386	94,752	0,059	0,049
-603,371	-49,277	-0,138	0,047
-602,357	201,297	0,014	-0,016
-601,342	-80,748	-0,083	-0,020
-600,328	143,323	-0,037	0,036
-599,313	-200,000	-0,028	-0,122
-598,298	419,342	0,053	-0,083
-597,284	-200,000	0,023	0,127
-596,269	-152,683	0,016	0,001
-595,255	-52,194	0,128	0,043
-594,240	800,000	-0,012	0,035
-593,225	185,691	-0,059	0,064
-592,211	800,000	0,013	-0,037
-591,196	91,501	0,054	-0,044
-590,182	7,228	0,075	0,041
-589,167	115,767	0,051	-0,045
-588,152	151,756	-0,070	0,069
-587,138	-79,594	-0,040	-0,010
-586,123	224,427	-0,042	-0,049
-585,109	644,659	0,045	0,084
-584,094	-70,334	0,120	0,033
-583,079	136,093	0,094	-0,089
-582,065	628,508	-0,050	0,091
-581,050	-200,000	0,001	0,102
-580,036	780,484	0,041	-0,081
-579,021	800,000	-0,044	-0,102
-578,006	800,000	0,024	-0,052
-576,992	-30,258	-0,121	-0,049
-575,977	-94,516	0,184	0,036
-574,963	-58,267	0,049	-0,015
-573,948	-89,820	0,082	-0,017
-572,934	800,000	0,022	0,068
-571,919	435,785	-0,037	-0,059
-570,904	-27,568	-0,087	-0,036
-569,890	-187,095	-0,030	0,000
-568,875	-200,000	-0,049	0,286
-567,861	51,189	0,098	0,067
-566,846	-200,000	-0,034	0,131
-565,831	24,371	-0,057	-0,034
-564,817	-200,000	-0,002	-0,018
-563,802	294,912	0,008	-0,010
-562,788	330,701	-0,039	-0,054
-561,773	-200,000	-0,004	0,047
-560,758	-52,503	0,191	0,064
-559,744	800,000	0,044	0,102
-558,729	32,688	0,017	0,011
-557,715	87,308	-0,093	0,074
-556,700	800,000	0,013	-0,031
-555,685	800,000	-0,036	-0,086
-554,671	-200,000	-0,039	-0,166
-553,656	247,508	0,020	-0,024
-552,642	-0,329	0,047	-0,024
-551,627	558,100	-0,017	0,030
-550,612	438,673	0,054	0,085
-549,598	-150,613	-0,019	0,001
-548,583	36,687	0,062	-0,039
-547,569	-1,757	0,071	-0,036
-546,554	-69,186	0,028	0,008
-545,539	66,933	-0,034	-0,025
-544,525	-131,260	-0,123	-0,012
-543,510	-117,075	-0,184	0,024
-542,496	-70,992	-0,051	-0,014
-541,481	-26,123	-0,040	-0,017
-540,466	398,151	0,060	-0,092
-539,452	25,130	0,123	-0,073
-538,437	122,829	0,067	0,061
-537,423	-55,923	-0,097	0,031
-536,408	-200,000	-0,045	0,155
-535,393	-134,969	-0,107	-0,009
-534,379	-200,000	-0,001	-0,103
-533,364	175,060	0,028	-0,029
-532,350	435,223	0,047	0,075
-531,335	-200,000	-0,002	0,135
-530,321	18,857	0,083	0,048
-529,306	141,577	0,059	0,056
-528,291	119,247	-0,113	0,101
-527,277	-200,000	0,030	-0,128
-526,262	800,000	-0,010	0,024
-525,248	800,000	0,048	-0,139
-524,233	-30,583	0,065	-0,026
-523,218	-200,000	-0,024	0,127
-522,204	31,161	0,038	0,023
-521,189	96,457	-0,122	-0,101
-520,175	-200,000	-0,021	-0,097
-519,160	70,264	-0,080	-0,060
-518,145	-200,000	0,021	0,108
-517,131	-1,877	0,109	-0,055
-516,116	211,202	0,077	0,087
-515,102	-137,657	0,136	0,011
-514,087	-200,000	0,007	0,027
-513,072	-18,437	0,068	0,031
-512,058	800,000	-0,044	-0,107
-511,043	63,469	0,081	0,059
-510,029	70,354	0,168	0,125
-509,014	674,183	-0,027	-0,051
-507,999	132,835	0,055	0,051
-506,985	-121,384	0,087	-0,010
-505,970	52,545	-0,070	-0,048
-504,956	-94,448	-0,119	-0,023
-503,941	-147,688	0,114	-0,007
-502,926	585,491	-0,020	0,036
-501,912	-200,000	-0,005	-0,029
-500,897	115,194	-0,028	0,025
-499,883	-93,256	-0,213	0,042
-498,868	66,023	0,009	-0,006
-497,853	271,126	-0,048	-0,062
-496,839	-200,000	0,041	-0,185
-495,824	-110,488	-0,020	-0,003
-494,810	108,928	0,043	-0,037
-493,795	626,087	0,013	0,025
-492,781	-200,000	-0,011	0,042
-491,766	475,152	0,048	-0,079
-490,751	-64,425	0,096	-0,028
-489,737	-2,089	-0,036	-0,018
-488,722	238,581	0,100	-0,120
-487,708	-56,026	0,065	0,021
-486,693	-111,001	-0,110	0,016
-485,678	455,992	-0,074	-0,118
-484,664	184,249	0,032	-0,034
-483,649	230,245	-0,064	-0,075
-482,635	625,035	-0,041	0,075
-481,620	673,423	0,121	0,228
-480,605	800,000	-0,042	0,103
-479,591	-98,318	-0,075	0,014
-478,576	133,656	-0,119	-0,111
-477,562	-200,000	0,008	-0,042
-476,547	650,247	-0,041	0,077
-475,532	800,000	-0,025	0,052
-474,518	11,898	0,114	-0,063
-473,503	42,729	0,071	-0,047
-472,489	-60,840	0,034	0,010
-471,474	126,690	0,134	0,122
-470,459	800,000	0,022	0,063
-469,445	204,876	-0,086	-0,096
-468,430	800,000	-0,012	0,031
-467,416	140,833	-0,161	-0,153
-466,401	627,187	-0,033	-0,061
-465,386	315,801	0,043	0,059
-464,372	-86,320	-0,074	0,016
-463,357	24,293	0,103	-0,061
-462,343	95,023	-0,062	-0,051
-461,328	90,557	-0,056	0,045
-460,313	800,000	0,033	-0,085
-459,299	5,439	0,129	0,068
-458,284	-153,519	-0,034	-0,002
-457,270	-200,000	0,007	0,102
-456,255	-145,760	0,074	-0,005
-455,241	800,000	-0,036	-0,096
-454,226	-200,000	0,004	-0,060
-453,211	364,478	-0,033	-0,049
-452,197	800,000	0,037	-0,074
-451,182	333,533	0,076	-0,106
-450,168	78,725	0,055	-0,042
-449,153	-200,000	-0,019	-0,132
-448,138	-83,609	0,097	0,022
-447,124	-47,279	-0,049	-0,017
-446,109	-200,000	0,008	0,033
-445,095	-63,832	0,165	0,048
-444,080	800,000	-0,009	0,026
-443,065	25,241	0,089	0,053
-442,051	-57,771	-0,099	-0,031
-441,036	-200,000	-0,001	-0,121
-440,022	12,319	-0,079	-0,044
-439,007	336,681	0,082	-0,116
-437,992	556,016	0,039	0,068
-436,978	-137,726	0,107	-0,008
-435,963	156,399	0,043	0,042
-434,949	-82,908	0,174	0,040
-433,934	800,000	0,027	0,057
-432,919	-200,000	0,006	-0,051
-431,905	267,654	0,041	0,051
-430,890	486,209	0,073	-0,120
-429,876	-90,902	0,108	0,022
-428,861	175,682	0,079	-0,083
-427,846	-113,278	-0,168	-0,023
-426,832	34,725	-0,084	0,053
-425,817	-200,000	-0,013	0,088
-424,803	159,944	0,100	-0,100
-423,788	-66,872	0,052	0,015
-422,773	88,202	0,090	-0,072
-421,759	-101,253	-0,030	0,005
-420,744	800,000	-0,029	-0,061
-419,730	75,890	-0,098	-0,074
-418,715	-200,000	-0,002	0,049
-417,701	547,942	-0,026	-0,044
-416,686	-200,000	0,010	-0,035
-415,671	25,540	0,027	-0,016
-414,657	-200,000	-0,024	0,108
-413,642	-55,491	-0,166	0,053
-412,628	-70,028	-0,123	-0,033
-411,613	-200,000	-0,010	-0,067
-410,598	54,984	-0,032	-0,022
-409,584	337,583	-0,064	-0,090
-408,569	230,725	0,037	0,044
-407,555	142,904	0,094	0,090
-406,540	-200,000	-0,011	-0,044
-405,525	-129,194	-0,136	0,013
-404,511	40,906	-0,154	-0,100
-403,496	-73,076	0,045	0,012
-402,482	-29,639	0,098	0,040
-401,467	-129,736	-0,101	0,010
-400,452	800,000	0,047	-0,119
-399,438	290,981	-0,039	-0,051
-398,423	236,600	-0,163	-0,194
-397,409	-200,000	-0,001	-0,091
-396,394	-110,332	0,114	-0,017
-395,379	-146,442	0,160	-0,010
-394,365	-200,000	0,111	0,000
-393,350	-200,000	0,003	0,017
-392,336	-88,021	0,142	0,030
-391,321	-200,000	0,011	0,095
-390,306	-36,939	-0,182	-0,070
-389,292	100,743	-0,091	-0,076
-388,277	-21,747	0,043	-0,019
-387,263	800,000	-0,036	0,088
-386,248	144,752	-0,021	0,020
-385,233	800,000	0,015	0,032
-384,219	202,765	-0,094	-0,104
-383,204	-200,000	0,017	-0,061
-382,190	202,103	0,140	-0,156
-381,175	-200,000	-0,004	-0,164
-380,160	103,152	0,108	-0,091
-379,146	800,000	-0,051	-0,138
-378,131	-75,549	0,038	-0,010
-377,117	-200,000	0,002	0,105
-376,102	797,824	-0,068	0,135
-375,088	749,380	0,015	0,029
-374,073	-153,101	-0,086	0,004
-373,058	-61,628	-0,054	0,016
-372,044	-200,000	-0,010	0,093
-371,029	-200,000	0,022	0,158
-370,015	-200,000	0,049	-0,161
-369,000	-54,671	-0,056	0,018
-367,985	-79,662	-0,186	0,045
-366,971	122,711	0,037	-0,033
-365,956	-200,000	0,014	0,096
-364,942	-90,402	-0,176	0,036
-363,927	800,000	0,030	0,059
-362,912	-7,618	0,074	0,036
-361,898	-200,000	-0,005	0,018
-360,883	147,805	-0,073	-0,070
-359,869	218,903	-0,027	-0,031
-358,854	-105,684	-0,098	-0,016
-357,839	33,531	0,102	0,063
-356,825	800,000	-0,034	0,074
-355,810	-182,450	0,023	-0,000
-354,796	800,000	-0,056	-0,131
-353,781	-200,000	0,011	-0,145
-352,766	-112,932	0,155	-0,022
-351,752	800,000	0,013	0,041
-350,737	177,441	0,027	0,029
-349,723	-200,000	0,040	0,165
-348,708	-82,368	0,029	0,007
-347,693	14,551	-0,149	-0,083
-346,679	78,899	-0,080	-0,062
-345,664	-80,425	-0,102	-0,024
-344,650	-200,000	-0,024	0,180
-343,635	150,770	0,029	0,028
-342,620	7,794	0,127	-0,068
-341,606	788,453	0,010	-0,020
-340,591	-9,078	-0,109	0,052
-339,577	-200,000	0,026	-0,124
-338,562	800,000	-0,041	-0,085
-337,548	-147,828	0,095	-0,006
-336,533	-200,000	-0,001	-0,053
-335,518	-200,000	0,030	0,098
-334,504	-200,000	0,031	0,119
-333,489	253,883	-0,068	0,084
-332,475	49,976	0,102	0,069
-331,460	-21,896	-0,125	0,054
-330,445	800,000	0,017	-0,039
-329,431	800,000	-0,046	0,145
-328,416	-200,000	0,029	0,232
-327,402	172,831	0,073	0,076
-326,387	-200,000	0,013	0,158
-325,372	102,029	-0,120	-0,100
-324,358	800,000	0,063	-0,127
-323,343	800,000	-0,025	0,077
-322,329	432,657	0,052	0,081
-321,314	-200,000	-0,034	0,144
-320,299	-19,946	0,036	0,016
-319,285	62,939	0,075	-0,054
-318,270	-200,000	0,000	0,005
-317,256	800,000	0,043	-0,131
-316,241	-200,000	0,011	0,148
-315,226	-200,000	0,023	0,160
-314,212	-40,413	0,151	-0,056
-313,197	38,496	0,035	-0,022
-312,183	-200,000	-0,001	0,069
-311,168	-109,372	-0,086	0,013
-310,153	13,175	-0,111	-0,061
-309,139	-191,796	-0,115	0,001
-308,124	215,789	0,062	-0,071
-307,110	800,000	0,045	-0,105
-306,095	800,000	-0,044	0,109
-305,080	-200,000	0,018	0,197
-304,066	147,153	-0,114	0,110
-303,051	70,556	-0,106	-0,079
-302,037	155,085	0,086	-0,085
-301,022	94,769	-0,078	0,064
-300,008	247,676	-0,067	0,081
-298,993	214,850	0,064	0,072
-297,978	-59,029	0,149	0,046
-296,964	10,627	0,045	-0,024
-295,949	800,000	-0,041	-0,105
-294,935	401,004	-0,039	-0,059
-293,920	57,159	0,081	0,057
-292,905	234,828	0,100	0,118
-291,891	-200,000	-0,033	0,185
-290,876	46,053	0,114	0,076
-289,862	76,204	-0,025	-0,019
-288,847	-200,000	-0,010	0,053
-287,832	16,197	-0,065	0,037
-286,818	145,337	0,025	0,024
-285,803	-156,622	0,079	0,003
-284,789	81,098	-0,083	0,064
-283,774	800,000	-0,040	0,111
-282,759	-20,811	0,066	0,029
-281,745	520,675	-0,021	-0,036
-280,730	-28,564	-0,160	-0,066
-279,716	-200,000	0,008	-0,043
-278,701	86,149	0,042	0,033
-277,686	385,299	-0,045	-0,067
-276,672	800,000	-0,040	0,096
-275,657	-200,000	-0,020	0,088
-274,643	-144,939	-0,125	-0,008
-273,628	-200,000	0,018	-0,138
-272,613	-200,000	-0,039	-0,169
-271,599	8,681	0,111	0,060
-270,584	90,381	0,132	0,106
-269,570	-56,968	-0,131	0,041
-268,555	-180,920	0,064	0,001
-267,540	-200,000	-0,011	-0,088
-266,526	800,000	-0,010	-0,021
-265,511	307,586	0,069	-0,092
-264,497	-200,000	0,008	0,050
-263,482	-200,000	0,015	0,117
-262,467	304,812	0,021	0,028
-261,453	-200,000	-0,024	-0,094
-260,438	244,339	-0,063	0,076
-259,424	-200,000	-0,010	-0,158
-258,409	64,787	0,055	-0,039
-257,395	2,258	0,080	0,041
-256,380	655,068	0,013	0,025
-255,365	498,240	-0,028	0,046
-254,351	167,097	0,010	0,010
-253,336	376,119	-0,109	-0,160
-252,322	333,317	-0,018	0,025
-251,307	696,195	0,028	0,052
-250,292	257,121	-0,022	-0,027
-249,278	-1,204	0,042	-0,021
-248,263	-24,011	0,026	0,011
-247,249	-8,468	0,084	-0,040
-246,234	800,000	0,023	-0,065
-245,219	141,658	-0,072	-0,068
-244,205	-200,000	-0,005	0,035
-243,190	-200,000	-0,041	-0,132
-242,176	-109,040	0,098	0,015
-241,161	-200,000	0,024	0,113
-240,146	-200,000	0,010	0,040
-239,132	236,006	0,138	-0,163
-238,117	-140,908	0,067	-0,005
-237,103	-200,000	-0,027	-0,094
-236,088	86,485	-0,054	-0,042
-235,073	-101,391	0,094	-0,016
-234,059	-200,000	0,006	0,041
-233,044	-108,020	0,104	0,016
-232,030	800,000	0,088	-0,203
-231,015	27,951	-0,097	-0,058
-230,000	-85,165	-0,127	-0,028
-228,986	-141,225	0,100	-0,007
-227,971	-38,791	-0,051	-0,019
-226,957	-200,000	-0,010	0,059
-225,942	-200,000	-0,007	0,061
-224,927	-17,349	-0,121	0,054
-223,913	0,281	-0,130	0,066
-222,898	-151,811	-0,092	0,005
-221,884	94,898	0,039	-0,031
-220,869	108,397	0,013	0,011
-219,855	-115,851	0,154	0,020
-218,840	-176,995	0,048	0,001
-217,825	83,858	-0,064	-0,050
-216,811	-10,658	-0,012	-0,005
-215,796	-200,000	-0,002	0,016
-214,782	800,000	-0,018	-0,037
-213,767	19,239	0,041	0,024
-212,752	-200,000	-0,030	-0,101
-211,738	-200,000	0,008	0,061
-210,723	-200,000	0,009	0,050
-209,709	-200,000	0,003	-0,129
-208,694	192,442	-0,030	0,033
-207,679	-113,207	-0,180	0,025
-206,665	85,431	0,043	0,034
-205,650	144,267	0,056	0,053
-204,636	-103,630	-0,022	-0,004
-203,621	-200,000	-0,006	-0,026
-202,606	-5,818	0,155	-0,075
-201,592	-51,076	0,091	0,030
-200,577	647,922	0,050	-0,092
-199,563	324,406	-0,089	-0,122
-198,548	51,522	0,122	-0,083
-197,533	17,107	-0,083	0,047
-196,519	-200,000	0,003	0,040
-195,504	-73,952	0,013	0,003
-194,490	26,414	-0,021	0,012
-193,475	705,886	-0,052	0,098
-192,460	14,912	0,259	0,144
-191,446	631,972	-0,049	0,089
-190,431	216,260	0,015	0,017
-189,417	-200,000	-0,019	0,063
-188,402	638,569	-0,046	0,083
-187,387	800,000	-0,049	-0,123
-186,373	-28,079	-0,068	-0,028
-185,358	-200,000	-0,065	0,217
-184,344	117,616	-0,053	-0,047
-183,329	385,017	-0,024	0,035
-182,315	-200,000	0,013	0,067
-181,300	272,944	0,074	-0,093
-180,285	285,725	-0,022	-0,028
-179,271	130,086	0,036	0,033
-178,256	800,000	-0,057	-0,142
-177,242	116,898	0,080	-0,070
-176,227	-4,273	0,104	0,051
-175,212	-62,913	0,060	0,018
-174,198	344,497	-0,030	0,042
-173,183	-99,341	-0,062	-0,011
-172,169	800,000	-0,017	0,050
-171,154	800,000	-0,033	-0,086
-170,139	369,292	-0,059	0,085
-169,125	64,758	0,051	-0,037
-168,110	800,000	0,035	0,084
-167,096	-60,247	0,017	-0,005
-166,081	800,000	-0,027	0,082
-165,066	-47,024	0,020	0,007
-164,052	-200,000	0,023	0,086
-163,037	-200,000	-0,005	-0,094
-162,023	146,733	0,118	0,113
-161,008	-109,173	-0,121	0,018
-159,993	-200,000	-0,014	0,059
-158,979	-115,447	0,043	0,006
-157,964	800,000	0,030	0,069
-156,950	-27,660	0,017	0,007
-155,935	-200,000	0,004	0,055
-154,920	662,188	-0,059	0,109
-153,906	545,831	0,063	-0,107
-152,891	-189,498	-0,103	-0,001
-151,877	-200,000	-0,002	-0,023
-150,862	-200,000	0,023	-0,090
-149,847	284,701	0,064	0,083
-148,833	-200,000	0,008	0,083
-147,818	10,294	0,029	-0,016
-146,804	77,214	0,091	0,069
-145,789	800,000	0,010	0,028
-144,775	-200,000	-0,010	0,131
-143,760	-6,551	-0,080	-0,039
-142,745	800,000	0,008	-0,020
-141,731	-77,222	0,115	-0,028
-140,716	-49,588	-0,019	0,006
-139,702	202,857	0,044	0,048
-138,687	85,780	-0,045	-0,035
-137,672	-200,000	0,003	-0,012
-136,658	-121,436	-0,050	-0,006
-135,643	-26,958	-0,064	-0,026
-134,629	100,334	-0,129	-0,107
-133,614	-200,000	0,016	0,098
-132,599	98,347	-0,067	0,055
-131,585	338,903	-0,013	0,018
-130,570	53,350	-0,062	-0,042
-129,556	800,000	-0,033	0,081
-128,541	49,922	0,149	0,100
-127,526	-200,000	0,025	0,079
-126,512	546,267	-0,020	-0,034
-125,497	-200,000	-0,014	0,077
-124,483	-94,325	0,093	0,018
-123,468	-200,000	-0,002	0,083
-122,453	-69,601	-0,066	0,018
-121,439	172,588	0,039	0,039
-120,424	52,124	-0,062	0,042
-119,410	111,741	0,091	0,078
-118,395	323,739	0,100	0,136
-117,380	42,621	0,060	0,039
-116,366	-200,000	-0,007	-0,036
-115,351	-200,000	0,015	-0,093
-114,337	-200,000	0,007	-0,069
-113,322	206,747	0,033	0,037
-112,307	-163,055	0,143	-0,005
-111,293	-200,000	-0,005	-0,057
-110,278	-200,000	-0,006	0,049
-109,264	155,714	-0,119	-0,117
-108,249	61,258	-0,026	-0,018
-107,234	-67,813	0,090	0,025
-106,220	147,029	-0,099	-0,095
-105,205	-200,000	-0,004	-0,027
-104,191	348,371	0,037	0,052
-103,176	-200,000	-0,036	0,145
-102,162	-200,000	0,008	-0,073
-101,147	800,000	-0,055	-0,126
-100,132	226,872	-0,026	0,030
-99,118	294,499	0,136	-0,177
-98,103	527,534	-0,029	-0,049
-97,089	-200,000	-0,015	-0,070
-96,074	74,354	0,080	0,060
-95,059	-14,021	0,092	0,042
-94,045	-33,646	0,124	0,048
-93,030	675,134	-0,014	-0,026
-92,016	13,001	-0,105	-0,058
-91,001	-123,960	-0,113	0,012
-89,986	-200,000	-0,005	0,075
-88,972	211,853	0,088	0,098
-87,957	-45,494	-0,063	-0,022
-86,943	-200,000	0,026	0,093
-85,928	738,058	0,049	-0,093
-84,913	-200,000	0,012	-0,119
-83,899	-83,897	-0,109	0,024
-82,884	-180,579	0,066	0,001
-81,870	-200,000	-0,003	-0,062
-80,855	-200,000	-0,037	0,126
-79,840	-181,419	-0,114	0,002
-78,826	20,989	-0,096	-0,055
-77,811	-200,000	0,037	-0,125
-76,797	800,000	0,008	-0,017
-75,782	800,000	0,040	-0,089
-74,767	196,518	0,093	0,100
-73,753	800,000	-0,020	-0,042
-72,738	-102,716	-0,124	0,021
-71,724	-200,000	0,006	-0,099
-70,709	364,570	-0,037	-0,052
-69,694	800,000	-0,019	-0,040
-68,680	121,787	0,046	-0,041
-67,665	98,089	-0,065	0,053
-66,651	800,000	-0,033	-0,067
-65,636	62,328	-0,042	0,030
-64,622	42,206	-0,050	-0,032
-63,607	800,000	0,040	0,090
-62,592	800,000	-0,038	-0,087
-61,578	347,080	0,038	0,053
-60,563	217,234	-0,140	-0,158
-59,549	634,610	0,011	0,021
-58,534	-80,870	-1,456	-0,340
-57,519	382,897	-1,525	-2,230
-56,505	-200,000	-0,489	-4,467
-55,490	110,778	0,859	0,733
-54,476	800,000	4,695	11,399
-53,461	-200,000	17,564	281,163
-52,446	800,000	720,170	2225,167
-51,432	563,938	1634,807	2818,534
-50,417	81,003	1658,405	1267,842
-49,403	23,760	1532,612	892,831
-48,388	17,734	1455,977	819,120
-47,373	18,211	1445,597	815,536
-46,359	17,813	1436,137	808,271
-45,344	15,972	1431,643	796,952
-44,330	15,881	1429,821	795,475
-43,315	15,920	1428,008	794,620
-42,300	15,960	1426,197	793,770
-41,286	16,035	1424,946	793,399
-40,271	15,975	1423,759	792,423
-39,257	15,971	1422,601	791,728
-38,242	16,020	1421,261	791,180
-37,227	16,000	1419,955	790,327
-36,213	16,023	1418,492	789,592
-35,198	15,938	1417,566	788,644
-34,184	16,030	1416,561	788,486
-33,169	15,932	1415,416	787,357
-32,154	15,960	1414,155	786,758
-31,140	15,960	1412,892	786,023
-30,125	16,002	1411,720	785,535
-29,111	15,960	1410,681	784,731
-28,096	15,964	1409,515	784,069
-27,082	15,910	1408,492	783,216
-26,067	15,928	1407,241	782,573
-25,052	15,938	1406,295	782,062
-24,038	15,933	1405,178	781,386
-23,023	15,877	1404,549	780,747
-22,009	15,896	1403,112	780,005
-20,994	15,845	1402,406	779,342
-19,979	15,839	1401,514	778,791
-18,965	15,862	1400,326	778,206
-17,950	15,813	1399,528	777,505
-16,936	15,832	1398,573	777,031
-15,921	15,821	1397,347	776,265
-14,906	15,797	1396,451	775,626
-13,892	15,808	1395,538	775,142
-12,877	15,805	1394,639	774,595
-11,863	15,833	1393,650	774,147
-10,848	15,777	1392,844	773,408
-9,833	15,764	1391,773	772,721
-8,819	15,746	1390,687	772,005
-7,804	15,714	1390,065	771,483
-6,790	15,703	1389,038	770,831
-5,775	15,704	1387,819	770,130
-4,760	15,703	1386,966	769,618
-3,746	15,688	1386,411	769,210
-2,731	15,662	1385,657	768,643
-1,717	15,662	1384,630	768,044
-0,702	15,698	1382,684	767,098
0,313	19,467	1303,479	740,553
1,327	35,702	706,753	439,163
2,342	55,088	125,171	85,562
3,356	3,395	16,521	8,498
4,371	-5,453	3,161	1,532
5,386	-3,043	0,528	0,260
6,400	800,000	0,023	0,049
7,415	125,349	-0,261	-0,233
8,429	-4,761	-0,328	-0,160
9,444	159,710	-0,174	-0,171
10,459	46,878	-0,254	-0,167
11,473	234,234	-0,205	-0,240
12,488	76,502	-0,232	-0,174
13,502	-24,154	-0,287	-0,121
14,517	27,746	-0,365	-0,217
15,531	119,850	-0,332	-0,291
16,546	64,206	-0,427	-0,304
17,561	132,675	-0,305	-0,278
18,575	67,049	-0,152	-0,109
19,590	158,598	-0,286	-0,281
20,604	31,633	-0,289	-0,175
21,619	-2,823	-0,442	-0,218
22,634	132,756	-0,357	-0,326
23,648	103,161	-0,375	-0,310
24,663	88,190	-0,413	-0,324
25,677	7,262	-0,385	-0,203
26,692	303,711	-0,212	-0,279
27,707	96,518	-0,294	-0,238
28,721	95,907	-0,458	-0,369
29,736	162,371	-0,322	-0,319
30,750	-46,560	-0,458	-0,158
31,765	-13,157	-0,470	-0,215
32,780	234,278	-0,284	-0,331
33,794	170,673	-0,299	-0,303
34,809	49,034	-0,379	-0,251
35,823	-34,346	-0,365	-0,141
36,838	53,588	-0,424	-0,287
37,853	-13,811	-0,411	-0,187
38,867	51,411	-0,331	-0,222
39,882	56,116	-0,344	-0,236
40,896	145,188	-0,244	-0,230
41,911	255,843	-0,255	-0,309
42,926	48,848	-0,371	-0,245
43,940	-118,330	-0,300	-0,037
44,955	127,701	-0,341	-0,306
45,969	492,661	-0,174	-0,282
46,984	119,665	-0,329	-0,288
47,999	41,984	-0,405	-0,259
49,013	43,148	-0,311	-0,200
50,028	135,045	-0,278	-0,255
51,042	-71,948	-0,393	-0,102
52,057	116,938	-0,232	-0,201
53,071	58,584	-0,373	-0,258
54,086	103,815	-0,325	-0,269
55,101	-6,760	-0,400	-0,191
56,115	149,820	-0,316	-0,302
57,130	106,131	-0,258	-0,215
58,144	157,990	-0,324	-0,317
59,159	-3,093	-0,550	-0,270
60,174	59,418	-0,436	-0,303
61,188	-54,031	-0,428	-0,137
62,203	130,882	-0,222	-0,201
63,217	49,055	-0,279	-0,185
64,232	23,099	-0,340	-0,196
65,247	237,944	-0,321	-0,376
66,261	-2,836	-0,323	-0,159
67,276	-46,325	-0,373	-0,129
68,290	183,174	-0,211	-0,220
69,305	111,926	-0,262	-0,223
70,320	-85,300	-0,328	-0,072
71,334	245,354	-0,275	-0,327
72,349	2,377	-0,351	-0,178
73,363	73,367	-0,373	-0,274
74,378	133,221	-0,356	-0,324
75,393	29,712	-0,423	-0,253
76,407	36,335	-0,277	-0,172
77,422	14,789	-0,418	-0,229
78,436	-109,482	-0,369	-0,054
79,451	94,247	-0,362	-0,289
80,466	-91,005	-0,310	-0,062
81,480	33,575	-0,367	-0,224
82,495	-63,575	-0,509	-0,146
83,509	351,144	-0,159	-0,221
84,524	147,597	-0,220	-0,209
85,539	-77,992	-0,275	-0,066
86,553	9,935	-0,405	-0,216
87,568	175,222	-0,176	-0,179
88,582	133,819	-0,313	-0,285
89,597	217,601	-0,306	-0,343
90,611	53,989	-0,292	-0,197
91,626	3,565	-0,330	-0,169
92,641	800,000	-0,093	-0,283
93,655	4,120	-0,391	-0,200
94,670	-78,246	-0,338	-0,081
95,684	38,265	-0,349	-0,218
96,699	-1,847	-0,358	-0,176
97,714	3,616	-0,301	-0,154
98,728	49,051	-0,163	-0,107
99,743	27,144	-0,196	-0,115
100,757	-83,113	-0,214	0,048
101,772	125,512	-0,219	-0,194
102,787	107,693	-0,293	-0,245
103,801	312,152	-0,159	-0,210
104,816	126,588	-0,187	-0,166
105,830	-40,386	-0,132	-0,048
106,845	271,314	-0,158	-0,195
107,860	-30,504	-0,224	-0,089
108,874	-29,642	-0,331	-0,132
109,889	-7,912	-0,306	-0,145
110,903	111,955	-0,256	-0,217
111,918	40,916	-0,201	-0,127
112,933	74,932	-0,150	-0,111
113,947	8,329	-0,298	-0,157
114,962	-12,967	-0,334	-0,152
115,976	-102,760	-0,230	-0,038
116,991	43,937	-0,288	-0,185
118,006	-83,304	-0,271	-0,061
119,020	-11,277	-0,219	-0,101
120,035	146,117	-0,225	-0,212
121,049	21,375	-0,265	-0,151
122,064	-45,800	-0,333	-0,115
123,079	26,104	-0,281	-0,164
124,093	20,673	-0,278	-0,157
125,108	800,000	-0,157	-0,315
126,122	55,891	-0,262	-0,178
127,137	-29,506	-0,217	-0,087
128,151	-34,098	-0,365	-0,140
129,166	-50,372	-0,252	-0,083
130,181	24,455	-0,193	-0,112
131,195	32,481	-0,246	-0,149
132,210	-10,812	-0,420	-0,194
133,224	42,187	-0,232	-0,147
134,239	-87,838	-0,216	-0,045
135,254	244,375	-0,173	-0,204
136,268	66,464	-0,209	-0,149
137,283	125,616	-0,164	-0,145
138,297	95,921	-0,190	-0,152
139,312	100,602	-0,333	-0,271
140,327	135,372	-0,241	-0,220
141,341	81,395	-0,260	-0,196
142,356	69,327	-0,224	-0,161
143,370	54,925	-0,326	-0,220
144,385	38,214	-0,246	-0,153
145,400	63,716	-0,277	-0,194
146,414	99,796	-0,237	-0,192
147,429	147,621	-0,291	-0,274
148,443	800,000	-0,105	-0,256
149,458	-36,073	-0,230	-0,086
150,473	29,951	-0,266	-0,158
151,487	-2,648	-0,218	-0,106
152,502	-59,879	-0,357	-0,106
153,516	152,624	-0,281	-0,268
154,531	43,548	-0,285	-0,182
155,546	184,679	-0,221	-0,229
156,560	-162,308	-0,201	0,007
157,575	87,070	-0,200	-0,154
158,589	-12,420	-0,280	-0,127
159,604	24,733	-0,332	-0,192
160,619	-11,597	-0,364	-0,167
161,633	37,805	-0,349	-0,216
162,648	142,527	-0,236	-0,219
163,662	-200,000	-0,100	-0,327
164,677	187,726	-0,137	-0,143
165,692	72,497	-0,236	-0,172
166,706	197,864	-0,196	-0,210
167,721	795,896	-0,141	-0,273
168,735	195,016	-0,124	-0,132
169,750	-172,101	-0,222	0,005
170,764	11,728	-0,180	-0,096
171,779	-69,920	-0,306	-0,081
172,794	174,768	-0,265	-0,268
173,808	114,793	-0,155	-0,132
174,823	40,034	-0,230	-0,144
175,837	127,576	-0,247	-0,219
176,852	57,033	-0,232	-0,158
177,867	-3,714	-0,289	-0,139
178,881	546,875	-0,094	-0,157
179,896	-21,005	-0,163	-0,069
180,910	30,019	-0,208	-0,124
181,925	146,599	-0,273	-0,256
182,940	119,126	-0,235	-0,203
183,954	214,881	-0,237	-0,262
184,969	800,000	-0,063	-0,147
185,983	555,475	-0,068	-0,115
186,998	139,443	-0,092	-0,085
188,013	208,934	-0,122	-0,133
189,027	61,036	-0,187	-0,129
190,042	-97,751	-0,249	-0,044
191,056	140,347	-0,208	-0,191
192,071	9,747	-0,129	-0,068
193,086	160,209	-0,187	-0,182
194,100	57,552	-0,195	-0,132
195,115	-56,654	-0,312	-0,096
196,129	-59,997	-0,196	-0,058
197,144	73,397	-0,274	-0,200
198,159	654,306	-0,124	-0,222
199,173	205,148	-0,196	-0,212
200,188	54,095	-0,225	-0,151
201,202	70,165	-0,198	-0,142
202,217	9,645	-0,191	-0,100
203,232	34,651	-0,249	-0,151
204,246	106,108	-0,173	-0,142
205,261	800,000	-0,078	-0,168
206,275	156,008	-0,154	-0,147
207,290	-41,674	-0,152	-0,054
208,304	41,967	-0,221	-0,139
209,319	-175,752	-0,185	-0,003
210,334	-100,374	-0,205	-0,035
211,348	35,425	-0,181	-0,110
212,363	479,231	-0,222	-0,351
213,377	221,754	-0,209	-0,234
214,392	191,703	-0,211	-0,222
215,407	-40,646	-0,192	-0,069
216,421	-57,688	-0,202	-0,061
217,436	800,000	-0,030	0,063
218,450	63,764	-0,192	-0,134
219,465	48,886	-0,241	-0,157
220,480	-1,237	-0,255	-0,125
221,494	218,238	-0,166	-0,185
222,509	1,061	-0,264	-0,131
223,523	-68,254	-0,303	-0,081
224,538	164,279	-0,212	-0,207
225,553	-66,238	-0,312	-0,086
226,567	376,761	-0,185	-0,263
227,582	155,790	-0,261	-0,250
228,596	188,951	-0,127	-0,132
229,611	120,260	-0,174	-0,150
230,626	454,403	-0,107	-0,164
231,640	15,072	-0,319	-0,173
232,655	214,196	-0,117	-0,129
233,669	-38,345	-0,212	-0,078
234,684	104,597	-0,197	-0,161
235,699	110,276	-0,154	-0,128
236,713	508,376	-0,046	-0,074
237,728	88,775	-0,191	-0,147
238,742	-136,227	-0,226	-0,018
239,757	39,343	-0,200	-0,124
240,772	85,942	-0,273	-0,209
241,786	310,536	-0,125	-0,163
242,801	-45,859	-0,206	-0,070
243,815	-115,432	-0,152	-0,020
244,830	370,238	-0,049	-0,068
245,844	265,610	-0,245	-0,297
246,859	89,342	-0,207	-0,160
247,874	195,479	-0,171	-0,180
248,888	352,809	-0,168	-0,232
249,903	85,807	-0,230	-0,175
250,917	-200,000	-0,016	-0,153
251,932	343,434	-0,132	-0,180
252,947	105,400	-0,187	-0,153
253,961	427,324	-0,183	-0,274
254,976	254,740	-0,139	-0,165
255,990	157,946	-0,152	-0,146
257,005	-146,605	-0,123	-0,007
258,020	81,785	-0,122	-0,091
259,034	-161,348	-0,165	-0,006
260,049	-179,140	-0,166	-0,003
261,063	-82,308	-0,171	-0,038
262,078	134,379	-0,145	-0,130
263,093	321,120	-0,115	-0,151
264,107	194,166	-0,217	-0,228
265,122	67,163	-0,227	-0,160
266,136	-172,945	-0,179	0,004
267,151	105,184	-0,181	-0,148
268,166	232,738	-0,125	-0,143
269,180	429,471	-0,066	-0,099
270,195	-152,586	-0,181	0,009
271,209	54,403	-0,177	-0,118
272,224	164,684	-0,162	-0,158
273,239	6,498	-0,205	-0,105
274,253	31,362	-0,189	-0,112
275,268	192,977	-0,083	-0,086
276,282	88,084	-0,148	-0,113
277,297	1,032	-0,198	-0,098
278,312	101,601	-0,139	-0,112
279,326	752,620	-0,049	-0,093
280,341	-117,109	-0,149	-0,019
281,355	800,000	-0,044	-0,133
282,370	800,000	-0,094	-0,255
283,384	-41,699	-0,322	-0,114
284,399	351,342	-0,108	-0,148
285,414	216,359	-0,169	-0,186
286,428	-7,529	-0,168	-0,078
287,443	-41,268	-0,106	-0,038
288,457	-68,494	-0,095	-0,025
289,472	319,978	-0,140	-0,184
290,487	-12,926	-0,192	-0,086
291,501	76,675	-0,093	-0,068
292,516	94,840	-0,126	-0,099
293,530	186,842	-0,116	-0,120
294,545	126,361	-0,088	-0,077
295,560	-153,837	-0,078	-0,004
296,574	70,969	-0,109	-0,078
297,589	289,677	-0,258	-0,324
298,603	32,885	-0,218	-0,130
299,618	134,820	-0,092	-0,082
300,633	76,309	-0,180	-0,132
301,647	-88,518	-0,161	-0,033
302,662	162,581	-0,106	-0,102
303,676	-90,356	-0,198	0,039
304,691	800,000	-0,076	-0,174
305,706	157,408	-0,092	-0,088
306,720	158,379	-0,180	-0,172
307,735	129,863	-0,132	-0,116
308,749	44,382	-0,139	-0,088
309,764	800,000	-0,115	-0,227
310,779	133,371	-0,073	-0,065
311,793	691,031	-0,095	-0,172
312,808	179,673	-0,225	-0,227
313,822	161,654	-0,218	-0,211
314,837	111,684	-0,140	-0,116
315,852	-8,583	-0,243	-0,112
316,866	-200,000	-0,013	-0,042
317,881	-42,023	-0,123	0,043
318,895	-200,000	0,041	-0,155
319,910	141,641	-0,142	-0,129
320,925	-2,839	-0,220	-0,105
321,939	-23,449	-0,174	-0,072
322,954	-99,403	-0,156	0,027
323,968	-85,979	-0,132	0,028
324,983	247,667	-0,083	-0,097
325,997	31,319	-0,164	-0,097
327,012	198,399	-0,126	-0,133
328,027	-96,591	-0,241	-0,043
329,041	-108,276	-0,064	-0,009
330,056	80,979	-0,270	-0,200
331,070	-200,000	-0,012	-0,125
332,085	-200,000	0,001	-0,155
333,100	-42,945	-0,138	-0,048
334,114	111,266	-0,185	-0,153
335,129	-74,534	-0,141	-0,035
336,143	744,461	-0,078	-0,146
337,158	198,280	-0,122	-0,129
338,173	-136,390	-0,139	0,011
339,187	216,981	-0,034	0,037
340,202	206,399	-0,154	-0,165
341,216	800,000	-0,082	-0,184
342,231	102,164	-0,281	-0,226
343,246	25,116	-0,175	-0,100
344,260	59,621	-0,145	-0,098
345,275	392,353	-0,135	-0,193
346,289	-200,000	-0,004	0,028
347,304	-97,388	-0,230	-0,041
348,319	21,012	-0,173	-0,096
349,333	-200,000	-0,020	-0,188
350,348	172,170	-0,132	-0,130
351,362	800,000	-0,109	-0,214
352,377	-200,000	0,015	-0,101
353,392	-70,831	0,028	0,007
354,406	111,128	-0,160	-0,132
355,421	210,546	1313,422	1418,961
356,435	162,084	1474,033	1419,479
