DTS Sentinel unit serial number:	SN410029Multiplexer serial number:	ORYXHardware model number:	OX2-SRSoftware version number:	ORYX F/W v4,00 Oryx Data Collector v3.7.2.0data status	okinstallation	B3 Nyhavnadifferential loss correction	single-endedforward channel	channel 1reverse channel	N/Adate	2023/11/29time	02:57:30forward acquisition time	300,00reverse acquisition time	0,00gamma	499,1914k internal	0,3211k external	0,3211temperature offset calibration	1,0000default loss term (dB/km)	0,3820temperature slope calibration	1,0000multiplexer offset coefficient	1,0000multiplexer slope coefficient	1,0000fibre end	0,00T internal ref (°C)	9,57T ext. ref 1 (°C)	-5,76T ext. ref 2 (°C)	-5,89length (m)	temperature (°C)	Stokes	anti-Stokes-744,400	28,266	-0,194	-0,119
-743,385	-200,000	0,004	0,244
-742,371	-200,000	-0,032	-0,178
-741,356	-200,000	0,028	0,424
-740,342	86,408	-0,138	-0,110
-739,327	-200,000	-0,050	0,179
-738,312	47,465	-0,219	-0,148
-737,298	-200,000	-0,031	0,189
-736,283	800,000	-0,161	-0,339
-735,269	-200,000	-0,064	0,326
-734,254	477,944	-0,147	-0,241
-733,239	39,058	-0,258	0,167
-732,225	-200,000	-0,021	-0,234
-731,210	77,511	0,074	0,057
-730,196	45,148	-0,126	0,084
-729,181	-78,456	-0,056	-0,014
-728,167	762,147	0,016	-0,031
-727,152	435,505	-0,045	-0,071
-726,137	-156,330	-0,103	-0,005
-725,123	-200,000	0,006	0,025
-724,108	385,801	-0,112	-0,168
-723,094	-66,195	-0,153	-0,044
-722,079	-84,889	-0,142	-0,032
-721,064	78,262	-0,019	0,015
-720,050	-200,000	-0,006	-0,035
-719,035	800,000	-0,043	-0,098
-718,021	-97,753	0,035	0,006
-717,006	-58,605	-0,072	0,022
-715,991	61,868	0,045	0,032
-714,977	-61,349	-0,151	-0,046
-713,962	800,000	0,055	-0,129
-712,948	192,970	-0,065	0,071
-711,933	-200,000	0,007	0,091
-710,918	800,000	0,038	0,081
-709,904	-200,000	-0,024	-0,081
-708,889	800,000	-0,085	-0,185
-707,875	-23,179	-0,154	-0,067
-706,860	531,975	0,037	0,064
-705,845	-73,935	0,042	-0,011
-704,831	93,795	0,039	-0,032
-703,816	-200,000	-0,024	-0,085
-702,802	-63,834	-0,081	0,024
-701,787	-132,773	-0,107	-0,010
-700,772	188,721	-0,042	-0,045
-699,758	5,988	0,101	-0,054
-698,743	24,340	-0,028	-0,017
-697,729	-200,000	0,040	-0,149
-696,714	-156,339	0,025	-0,001
-695,699	-200,000	0,057	-0,186
-694,685	-22,750	-0,112	-0,049
-693,670	171,317	0,044	-0,046
-692,656	21,024	-0,061	0,036
-691,641	-143,920	0,128	-0,009
-690,627	-200,000	-0,022	0,073
-689,612	-200,000	-0,036	-0,115
-688,597	-78,369	0,096	0,024
-687,583	607,682	-0,017	-0,031
-686,568	-75,073	-0,064	-0,016
-685,554	430,327	0,011	0,018
-684,539	-103,503	0,028	-0,005
-683,524	-200,000	0,009	-0,054
-682,510	72,222	-0,040	0,030
-681,495	-200,000	-0,007	-0,080
-680,481	-200,000	-0,013	-0,103
-679,466	800,000	-0,023	-0,065
-678,451	33,582	-0,022	-0,014
-677,437	-43,199	0,025	-0,009
-676,422	157,946	-0,050	0,050
-675,408	39,098	0,058	-0,038
-674,393	50,071	0,099	-0,068
-673,378	293,097	-0,069	-0,091
-672,364	-55,207	-0,010	-0,003
-671,349	91,310	-0,121	-0,098
-670,335	-84,197	0,018	0,004
-669,320	327,118	-0,037	0,051
-668,305	113,558	0,159	0,139
-667,291	-200,000	0,008	0,029
-666,276	-125,537	-0,220	-0,024
-665,262	-15,247	-0,089	0,041
-664,247	-200,000	-0,032	-0,134
-663,232	-54,392	0,088	0,029
-662,218	489,419	-0,046	0,076
-661,203	193,863	-0,056	0,062
-660,189	-200,000	0,022	0,082
-659,174	-200,000	-0,003	-0,087
-658,159	-200,000	0,021	-0,112
-657,145	-160,044	-0,052	-0,002
-656,130	-200,000	0,002	-0,019
-655,116	233,656	0,035	0,042
-654,101	75,538	0,028	0,021
-653,086	591,403	0,038	-0,068
-652,072	-200,000	-0,002	0,098
-651,057	753,957	-0,082	-0,162
-650,043	-200,000	0,011	-0,045
-649,028	-200,000	0,040	-0,164
-648,014	47,665	0,067	-0,045
-646,999	200,807	0,095	0,106
-645,984	-200,000	-0,001	0,115
-644,970	145,472	-0,049	-0,048
-643,955	-77,263	-0,112	-0,028
-642,941	-200,000	-0,028	-0,107
-641,926	-127,737	0,210	-0,022
-640,911	301,972	0,066	-0,088
-639,897	-61,662	0,166	0,050
-638,882	-57,263	-0,103	-0,033
-637,868	800,000	-0,025	-0,050
-636,853	800,000	-0,056	-0,151
-635,838	117,197	-0,042	0,037
-634,824	800,000	-0,020	0,051
-633,809	-200,000	-0,047	0,176
-632,795	800,000	0,030	0,087
-631,780	-200,000	0,037	0,127
-630,765	46,814	-0,075	-0,050
-629,751	-56,826	-0,162	0,051
-628,736	-36,690	0,020	-0,008
-627,722	332,948	-0,055	-0,076
-626,707	329,111	0,079	0,110
-625,692	203,138	-0,069	0,077
-624,678	82,671	0,142	0,111
-623,663	-115,465	-0,053	0,007
-622,649	-46,210	-0,021	-0,007
-621,634	-200,000	-0,004	0,073
-620,619	298,001	-0,032	-0,043
-619,605	-0,696	-0,022	-0,011
-618,590	-200,000	0,040	0,194
-617,576	800,000	0,026	-0,079
-616,561	-200,000	0,049	0,164
-615,546	-200,000	0,017	-0,069
-614,532	27,418	-0,106	-0,064
-613,517	457,758	-0,123	-0,197
-612,503	4,130	0,149	-0,079
-611,488	145,873	-0,015	0,015
-610,474	55,342	0,066	0,046
-609,459	-200,000	-0,016	-0,077
-608,444	-36,686	-0,133	-0,051
-607,430	-200,000	0,004	0,020
-606,415	800,000	-0,022	-0,057
-605,401	800,000	-0,028	0,064
-604,386	28,030	0,075	0,045
-603,371	-200,000	0,006	-0,066
-602,357	-8,922	-0,191	-0,092
-601,342	-200,000	-0,015	0,059
-600,328	772,786	0,077	-0,151
-599,313	151,491	-0,088	-0,086
-598,298	53,178	0,113	-0,078
-597,284	-70,831	0,060	0,016
-596,269	192,286	-0,123	-0,134
-595,255	800,000	0,026	0,064
-594,240	-159,108	-0,058	0,002
-593,225	-200,000	0,032	0,114
-592,211	-33,117	0,019	-0,008
-591,196	-200,000	-0,008	0,045
-590,182	82,067	0,061	0,047
-589,167	-44,240	0,109	-0,039
-588,152	273,302	-0,086	0,110
-587,138	-200,000	-0,010	0,063
-586,123	-200,000	-0,000	-0,082
-585,109	-85,662	-0,088	0,020
-584,094	404,409	-0,026	-0,040
-583,079	554,019	0,071	0,123
-582,065	345,824	0,094	0,134
-581,050	800,000	0,022	0,059
-580,036	456,464	-0,070	-0,113
-579,021	-200,000	-0,002	0,043
-578,006	800,000	0,059	-0,123
-576,992	-161,389	-0,224	0,008
-575,977	800,000	-0,020	0,062
-574,963	64,984	-0,127	0,092
-573,948	190,969	0,062	-0,068
-572,934	354,080	0,047	-0,068
-571,919	-200,000	-0,016	-0,122
-570,904	-112,604	-0,195	0,028
-569,890	202,083	0,091	0,101
-568,875	-200,000	-0,027	0,188
-567,861	20,280	-0,036	-0,021
-566,846	110,780	0,017	-0,015
-565,831	-111,050	-0,061	-0,009
-564,817	-156,981	0,053	-0,002
-563,802	-73,128	-0,103	0,027
-562,788	-55,677	-0,090	0,029
-561,773	-18,117	-0,148	0,066
-560,758	-200,000	-0,017	0,123
-559,744	-200,000	0,034	0,114
-558,729	181,319	-0,046	0,049
-557,715	-200,000	-0,008	-0,137
-556,700	-200,000	0,030	-0,127
-555,685	-119,358	0,069	-0,008
-554,671	8,422	-0,061	0,033
-553,656	27,045	-0,060	0,036
-552,642	-32,215	0,093	0,037
-551,627	583,244	0,022	-0,039
-550,612	98,877	-0,052	0,043
-549,598	101,516	-0,051	-0,043
-548,583	-126,682	-0,110	0,012
-547,569	538,502	-0,060	0,103
-546,554	-200,000	0,029	0,100
-545,539	-200,000	0,019	-0,118
-544,525	325,016	-0,054	-0,074
-543,510	-173,351	0,118	0,003
-542,496	-200,000	-0,011	-0,071
-541,481	-171,763	-0,062	0,001
-540,466	-200,000	-0,003	0,048
-539,452	455,490	0,057	0,091
-538,437	56,448	-0,040	0,028
-537,423	361,338	-0,064	0,093
-536,408	800,000	0,024	-0,050
-535,393	126,387	-0,020	-0,018
-534,379	133,371	-0,076	-0,071
-533,364	-66,082	-0,145	-0,041
-532,350	-91,396	0,068	-0,014
-531,335	-5,906	0,091	-0,045
-530,321	-133,124	-0,082	-0,007
-529,306	-161,575	0,091	-0,003
-528,291	-200,000	0,019	0,069
-527,277	6,481	0,050	0,027
-526,262	51,304	0,018	0,012
-525,248	-200,000	-0,014	-0,043
-524,233	-51,774	0,095	0,032
-523,218	-200,000	-0,010	0,075
-522,204	800,000	-0,048	-0,144
-521,189	-147,434	-0,073	0,004
-520,175	84,816	0,074	0,059
-519,160	-200,000	0,019	0,074
-518,145	-128,405	-0,136	-0,014
-517,131	206,191	0,113	0,127
-516,116	-73,641	0,089	0,023
-515,102	-200,000	0,007	0,058
-514,087	-5,208	-0,077	0,038
-513,072	-123,777	-0,053	0,006
-512,058	101,809	0,015	0,013
-511,043	717,241	-0,041	-0,079
-510,029	287,295	-0,058	0,076
-509,014	-96,443	-0,028	0,005
-507,999	-200,000	-0,009	0,146
-506,985	800,000	-0,039	0,096
-505,970	-200,000	-0,008	-0,105
-504,956	-54,622	-0,141	-0,045
-503,941	-200,000	-0,001	-0,060
-502,926	214,365	0,038	-0,043
-501,912	800,000	-0,038	0,080
-500,897	-82,460	0,039	0,009
-499,883	-8,588	0,080	0,039
-498,868	-200,000	-0,018	-0,081
-497,853	50,064	0,038	-0,026
-496,839	-58,578	0,048	-0,015
-495,824	-200,000	-0,026	-0,098
-494,810	-130,325	0,055	-0,005
-493,795	-162,028	0,092	-0,003
-492,781	800,000	0,032	0,074
-491,766	-200,000	-0,028	-0,119
-490,751	-49,280	-0,075	0,026
-489,737	-200,000	0,011	0,072
-488,722	-42,618	-0,058	0,021
-487,708	490,112	0,099	0,162
-486,693	800,000	-0,032	0,068
-485,678	23,359	-0,087	0,051
-484,664	6,315	-0,109	-0,058
-483,649	-200,000	0,022	-0,073
-482,635	-33,291	0,049	0,019
-481,620	-12,714	-0,054	-0,025
-480,605	-114,846	0,019	0,003
-479,591	432,798	-0,025	0,040
-478,576	-113,450	0,152	-0,021
-477,562	-26,885	-0,205	-0,086
-476,547	-14,102	0,072	0,033
-475,532	-3,754	-0,032	-0,016
-474,518	-43,827	0,048	0,017
-473,503	165,658	0,116	-0,118
-472,489	-162,609	0,095	0,003
-471,474	-65,883	-0,064	-0,018
-470,459	-200,000	-0,011	-0,106
-469,445	-200,000	-0,013	0,126
-468,430	238,908	-0,079	0,094
-467,416	77,793	0,072	-0,055
-466,401	107,139	0,072	0,061
-465,386	209,363	-0,038	-0,042
-464,372	382,907	-0,006	0,009
-463,357	-200,000	-0,001	-0,072
-462,343	800,000	-0,049	-0,140
-461,328	-160,624	-0,067	-0,003
-460,313	-200,000	0,001	0,075
-459,299	482,325	0,026	0,042
-458,284	109,200	-0,025	-0,021
-457,270	-200,000	-0,008	-0,074
-456,255	216,989	-0,078	0,089
-455,241	22,696	0,070	-0,041
-454,226	-200,000	0,011	-0,056
-453,211	373,953	0,111	-0,162
-452,197	48,838	0,073	0,049
-451,182	281,371	0,143	0,183
-450,168	328,060	0,109	-0,150
-449,153	135,784	-0,076	0,071
-448,138	-111,265	-0,182	-0,026
-447,124	-94,053	-0,027	-0,005
-446,109	341,452	-0,049	0,069
-445,095	268,587	-0,054	0,067
-444,080	-200,000	0,009	-0,084
-443,065	156,595	0,037	-0,037
-442,051	-36,517	-0,051	-0,020
-441,036	296,612	-0,112	-0,147
-440,022	161,874	-0,059	-0,059
-439,007	96,219	-0,116	0,095
-437,992	72,671	0,038	0,028
-436,978	-118,094	0,165	0,021
-435,963	771,324	-0,018	0,035
-434,949	500,506	0,063	0,105
-433,934	-200,000	0,022	-0,098
-432,919	-200,000	-0,022	-0,103
-431,905	-200,000	0,026	0,110
-430,890	-200,000	0,002	-0,011
-429,876	800,000	-0,043	-0,107
-428,861	244,499	0,050	0,060
-427,846	-8,484	0,077	-0,037
-426,832	-200,000	-0,007	-0,047
-425,817	72,694	-0,214	-0,160
-424,803	-41,480	0,157	-0,058
-423,788	-200,000	-0,006	0,054
-422,773	800,000	-0,040	0,100
-421,759	-200,000	0,010	0,109
-420,744	-200,000	-0,015	0,145
-419,730	442,025	-0,028	-0,043
-418,715	-58,359	0,009	0,003
-417,701	-170,038	0,084	0,002
-416,686	800,000	0,042	-0,112
-415,671	-134,453	-0,062	-0,005
-414,657	-161,310	-0,118	0,004
-413,642	167,485	0,012	-0,012
-412,628	-119,212	-0,099	-0,012
-411,613	800,000	-0,075	-0,176
-410,598	800,000	0,033	-0,088
-409,584	25,823	0,132	-0,078
-408,569	202,238	0,068	-0,075
-407,555	42,128	-0,087	-0,057
-406,540	-28,627	-0,149	-0,061
-405,525	13,468	-0,100	0,055
-404,511	-200,000	-0,012	-0,132
-403,496	147,675	0,137	-0,132
-402,482	241,675	-0,045	-0,054
-401,467	-200,000	-0,001	-0,084
-400,452	-166,814	0,164	0,005
-399,438	254,000	-0,007	-0,008
-398,423	800,000	-0,018	-0,051
-397,409	22,514	0,050	0,029
-396,394	232,827	0,036	-0,042
-395,379	-82,622	-0,074	-0,017
-394,365	-200,000	0,012	0,065
-393,350	-200,000	0,001	0,008
-392,336	330,840	0,014	0,020
-391,321	-36,450	0,098	-0,037
-390,306	-200,000	0,003	-0,023
-389,292	-200,000	-0,018	-0,193
-388,277	800,000	0,019	0,046
-387,263	368,412	0,047	0,067
-386,248	800,000	-0,053	-0,146
-385,233	-156,738	-0,022	-0,001
-384,219	-200,000	-0,013	-0,110
-383,204	325,999	0,031	0,043
-382,190	786,935	0,040	-0,080
-381,175	-87,182	0,053	0,011
-380,160	-200,000	0,030	0,109
-379,146	541,001	-0,019	-0,032
-378,131	125,443	0,033	-0,030
-377,117	-200,000	-0,020	0,074
-376,102	-200,000	-0,007	-0,055
-375,088	-54,050	0,177	0,057
-374,073	57,349	-0,096	0,067
-373,058	-107,554	0,046	0,007
-372,044	800,000	-0,026	-0,080
-371,029	-71,772	0,110	0,029
-370,015	180,607	0,059	0,062
-369,000	-81,860	-0,046	-0,011
-367,985	-121,096	0,097	-0,011
-366,971	235,699	-0,049	0,058
-365,956	-136,940	-0,099	0,008
-364,942	-111,187	0,119	-0,017
-363,927	380,017	0,066	-0,097
-362,912	-200,000	-0,026	0,144
-361,898	54,783	0,069	0,047
-360,883	-88,865	-0,149	0,031
-359,869	-200,000	0,036	-0,136
-358,854	-167,651	0,130	0,004
-357,839	-37,171	-0,093	0,035
-356,825	13,520	-0,099	0,055
-355,810	-135,615	0,111	0,009
-354,796	153,119	-0,085	-0,083
-353,781	-200,000	0,016	-0,108
-352,766	-46,315	-0,209	-0,073
-351,752	107,670	0,049	0,041
-350,737	139,450	-0,103	0,097
-349,723	396,303	0,014	0,020
-348,708	20,370	0,070	0,040
-347,693	88,139	0,044	-0,035
-346,679	645,731	0,007	-0,014
-345,664	-55,236	0,080	-0,025
-344,650	-133,101	-0,102	0,009
-343,635	704,998	-0,011	0,021
-342,620	5,367	-0,016	0,008
-341,606	-200,000	0,014	-0,099
-340,591	-24,579	-0,089	0,038
-339,577	-148,481	-0,008	-0,000
-338,562	115,284	0,130	-0,114
-337,548	73,168	0,070	-0,052
-336,533	800,000	0,012	0,033
-335,518	26,828	0,049	0,029
-334,504	-200,000	-0,040	-0,130
-333,489	-200,000	-0,074	-0,000
-332,475	-84,080	-0,038	-0,009
-331,460	555,008	-0,037	0,064
-330,445	80,677	-0,039	0,030
-329,431	-82,789	0,090	0,020
-328,416	-39,788	-0,109	0,040
-327,402	-106,091	-0,014	-0,002
-326,387	-158,230	-0,018	-0,001
-325,372	208,292	-0,063	-0,070
-324,358	-200,000	0,002	-0,087
-323,343	181,876	-0,052	-0,055
-322,329	-200,000	0,003	-0,103
-321,314	764,886	0,076	0,147
-320,299	-200,000	-0,008	0,047
-319,285	800,000	-0,040	-0,102
-318,270	-120,685	0,154	-0,018
-317,256	-134,985	0,149	-0,013
-316,241	88,110	-0,124	-0,098
-315,226	124,118	0,056	-0,051
-314,212	800,000	-0,049	0,153
-313,197	-200,000	0,043	0,190
-312,183	800,000	0,025	0,074
-311,168	187,711	-0,064	-0,068
-310,153	296,596	-0,045	-0,059
-309,139	-40,600	0,087	-0,032
-308,124	-200,000	0,018	-0,061
-307,110	-13,833	0,034	0,016
-306,095	-200,000	-0,015	0,064
-305,080	-177,039	0,144	-0,003
-304,066	161,479	0,013	0,013
-303,051	-5,102	-0,110	-0,054
-302,037	255,012	0,020	-0,025
-301,022	-200,000	0,018	0,076
-300,008	251,691	0,047	0,057
-298,993	800,000	-0,014	-0,032
-297,978	-51,918	-0,077	0,025
-296,964	-143,624	0,145	0,010
-295,949	3,152	-0,031	0,016
-294,935	-79,693	-0,015	-0,004
-293,920	198,052	-0,063	0,069
-292,905	800,000	0,073	0,161
-291,891	800,000	0,038	-0,085
-290,876	800,000	-0,075	0,158
-289,862	106,624	0,088	-0,074
-288,847	544,193	-0,064	-0,109
-287,832	62,573	-0,065	-0,046
-286,818	-200,000	0,026	-0,150
-285,803	-200,000	0,029	0,146
-284,789	239,514	0,116	0,138
-283,774	113,003	-0,037	-0,032
-282,759	-200,000	-0,029	-0,123
-281,745	182,887	-0,118	0,124
-280,730	755,219	-0,024	-0,047
-279,716	-92,259	0,077	-0,015
-278,701	-87,965	-0,038	0,008
-277,686	535,877	0,056	0,096
-276,672	-39,314	0,068	0,025
-275,657	247,226	-0,083	0,100
-274,643	800,000	0,040	-0,079
-273,628	119,212	-0,064	-0,056
-272,613	83,399	-0,008	0,007
-271,599	175,478	0,104	0,108
-270,584	-200,000	0,025	0,095
-269,570	800,000	-0,034	0,102
-268,555	800,000	0,023	0,070
-267,540	-170,501	-0,119	-0,003
-266,526	253,846	-0,134	-0,163
-265,511	103,301	0,100	0,084
-264,497	90,590	0,026	0,021
-263,482	236,806	-0,047	0,055
-262,467	-200,000	-0,013	0,183
-261,453	-84,474	0,101	-0,022
-260,438	82,158	-0,026	0,020
-259,424	-200,000	-0,014	-0,128
-258,409	17,400	-0,131	-0,074
-257,395	51,121	-0,012	0,008
-256,380	306,265	0,017	0,022
-255,365	319,748	-0,070	0,095
-254,351	-200,000	-0,009	0,036
-253,336	800,000	-0,046	0,121
-252,322	-200,000	0,023	-0,090
-251,307	149,044	0,043	-0,042
-250,292	-37,943	-0,106	0,040
-249,278	-93,139	0,111	0,022
-248,263	800,000	0,050	-0,128
-247,249	800,000	0,043	0,108
-246,234	-12,512	0,070	0,033
-245,219	800,000	-0,014	0,029
-244,205	135,635	-0,126	0,117
-243,190	-200,000	0,030	0,142
-242,176	-17,197	-0,086	0,038
-241,161	15,745	0,070	0,039
-240,146	-31,016	-0,027	-0,011
-239,132	69,252	0,109	-0,080
-238,117	531,059	-0,052	-0,088
-237,103	-200,000	-0,002	-0,080
-236,088	774,034	0,017	0,034
-235,073	15,124	-0,052	0,029
-234,059	-66,481	0,076	-0,021
-233,044	-20,659	0,061	-0,027
-232,030	702,734	-0,034	0,063
-231,015	-45,628	-0,056	-0,020
-230,000	89,275	0,076	-0,060
-228,986	14,840	0,082	-0,046
-227,971	179,996	-0,103	-0,108
-226,957	-200,000	0,027	0,106
-225,942	800,000	0,015	-0,041
-224,927	101,007	-0,075	0,062
-223,913	-78,661	-0,039	0,009
-222,898	121,944	-0,051	0,046
-221,884	-157,771	0,138	0,006
-220,869	-1,635	0,062	-0,031
-219,855	-84,130	0,060	-0,013
-218,840	-102,918	-0,083	0,014
-217,825	398,059	0,128	0,191
-216,811	-200,000	0,002	-0,026
-215,796	28,402	-0,109	-0,065
-214,782	-44,458	0,076	-0,027
-213,767	-64,495	-0,029	-0,008
-212,752	59,268	0,047	-0,033
-211,738	151,713	0,088	0,085
-210,723	800,000	-0,028	-0,073
-209,709	-147,931	0,115	0,007
-208,694	49,615	0,069	0,046
-207,679	800,000	-0,038	-0,117
-206,665	-200,000	-0,024	-0,125
-205,650	104,125	0,091	0,076
-204,636	443,098	-0,076	0,119
-203,621	-200,000	0,000	0,045
-202,606	-200,000	-0,029	-0,091
-201,592	43,194	-0,026	-0,017
-200,577	784,462	0,021	0,042
-199,563	-109,243	0,146	-0,022
-198,548	-10,896	0,094	-0,044
-197,533	-1,506	-0,091	-0,045
-196,519	-8,825	0,050	0,024
-195,504	42,105	0,027	-0,017
-194,490	-53,243	-0,035	-0,011
-193,475	-7,734	0,172	-0,082
-192,460	510,956	0,028	0,046
-191,446	450,115	0,028	0,044
-190,431	-200,000	0,023	-0,095
-189,417	35,493	-0,029	-0,018
-188,402	-200,000	0,014	-0,063
-187,387	-42,665	-0,061	0,022
-186,373	-200,000	0,002	-0,105
-185,358	-85,310	-0,078	0,017
-184,344	-200,000	-0,005	0,054
-183,329	-200,000	0,030	-0,138
-182,315	-76,693	-0,041	0,010
-181,300	522,894	-0,055	0,092
-180,285	784,935	-0,068	0,134
-179,271	-200,000	-0,003	0,044
-178,256	46,832	0,080	-0,052
-177,242	-56,566	0,023	0,007
-176,227	282,413	0,082	0,105
-175,212	368,121	0,092	0,133
-174,198	-57,035	0,238	-0,074
-173,183	147,932	-0,123	-0,117
-172,169	-200,000	0,008	0,144
-171,154	114,261	-0,072	-0,062
-170,139	29,058	-0,042	-0,025
-169,125	217,902	0,048	-0,054
-168,110	-200,000	-0,002	0,074
-167,096	-200,000	0,010	-0,097
-166,081	-200,000	0,036	-0,115
-165,066	-200,000	0,004	0,036
-164,052	365,865	-0,054	-0,077
-163,037	277,564	0,010	-0,012
-162,023	-50,839	0,101	-0,034
-161,008	-41,017	0,119	-0,043
-159,993	800,000	0,029	0,069
-158,979	25,821	-0,096	0,057
-157,964	-200,000	-0,030	-0,136
-156,950	-130,048	-0,132	-0,013
-155,935	-200,000	0,024	0,204
-154,920	-200,000	-0,038	0,148
-153,906	243,724	0,042	0,050
-152,891	-46,420	0,066	-0,023
-151,877	155,121	0,031	0,031
-150,862	200,300	-0,030	0,033
-149,847	-57,461	-0,065	-0,020
-148,833	80,546	-0,062	0,047
-147,818	-123,387	-0,087	-0,010
-146,804	68,472	0,087	0,063
-145,789	800,000	0,074	0,150
-144,775	-99,131	-0,068	-0,012
-143,760	800,000	-0,032	-0,072
-142,745	-200,000	-0,008	-0,045
-141,731	-200,000	0,014	0,102
-140,716	787,329	-0,030	0,058
-139,702	-92,556	0,062	-0,012
-138,687	800,000	-0,031	0,079
-137,672	-37,096	-0,092	-0,035
-136,658	-200,000	0,024	-0,100
-135,643	-200,000	0,010	-0,148
-134,629	-47,541	-0,109	-0,037
-133,614	-62,387	0,175	0,051
-132,599	-65,349	-0,100	-0,028
-131,585	29,644	0,100	0,060
-130,570	-19,596	0,063	0,027
-129,556	800,000	0,036	0,075
-128,541	162,930	-0,066	-0,065
-127,526	18,450	0,057	-0,032
-126,512	-200,000	-0,019	0,068
-125,497	-72,061	0,235	-0,061
-124,483	-200,000	0,020	0,125
-123,468	-200,000	0,027	0,086
-122,453	-200,000	-0,007	-0,095
-121,439	258,854	0,108	-0,132
-120,424	-44,981	-0,103	0,036
-119,410	150,869	-0,089	0,086
-118,395	5,775	0,117	0,061
-117,380	-200,000	0,006	0,199
-116,366	181,664	-0,098	0,102
-115,351	-200,000	0,028	-0,154
-114,337	72,146	-0,043	-0,031
-113,322	431,436	-0,052	-0,079
-112,307	-200,000	-0,005	-0,025
-111,293	63,319	0,038	0,027
-110,278	-8,188	0,094	-0,045
-109,264	577,441	-0,089	-0,155
-108,249	-7,354	-0,205	-0,098
-107,234	-27,561	-0,133	-0,054
-106,220	-17,359	0,082	-0,037
-105,205	-200,000	0,006	-0,096
-104,191	-200,000	0,040	0,182
-103,176	-149,914	0,170	-0,009
-102,162	-200,000	0,004	0,020
-101,147	800,000	-0,028	-0,068
-100,132	415,354	0,059	0,089
-99,118	26,734	0,074	-0,044
-98,103	-31,322	-0,077	-0,030
-97,089	800,000	0,064	0,159
-96,074	-132,943	0,005	-0,000
-95,059	-101,493	0,055	-0,009
-94,045	-200,000	0,000	-0,098
-93,030	20,629	-0,158	-0,090
-92,016	-200,000	-0,009	-0,045
-91,001	-200,000	0,003	-0,141
-89,986	800,000	0,050	-0,111
-88,972	290,498	-0,028	-0,035
-87,957	-90,144	-0,052	0,011
-86,943	-157,506	0,035	-0,001
-85,928	672,753	0,039	0,071
-84,913	-34,900	-0,168	-0,064
-83,899	31,649	-0,059	-0,036
-82,884	-127,057	0,087	0,009
-81,870	20,265	0,071	-0,040
-80,855	520,492	0,079	-0,132
-79,840	-44,170	0,119	0,042
-78,826	0,810	0,039	0,020
-77,811	-118,659	-0,138	0,017
-76,797	86,885	-0,046	0,036
-75,782	375,738	0,039	-0,056
-74,767	-200,000	0,020	0,144
-73,753	-200,000	0,065	-0,214
-72,738	682,320	0,031	0,057
-71,724	115,647	-0,159	-0,137
-70,709	-200,000	0,011	0,039
-69,694	800,000	-0,059	-0,182
-68,680	800,000	0,029	-0,089
-67,665	96,693	-0,050	-0,040
-66,651	547,800	0,012	0,020
-65,636	-65,908	-0,044	0,012
-64,622	-144,228	-0,104	-0,007
-63,607	-6,729	-0,126	-0,060
-62,592	256,704	0,070	-0,085
-61,578	378,096	-0,098	-0,142
-60,563	-95,572	-0,037	0,007
-59,549	36,957	0,069	0,043
-58,534	39,522	-2,067	-1,305
-57,519	553,759	-1,181	-2,012
-56,505	-200,000	-0,268	-4,366
-55,490	672,471	0,880	1,617
-54,476	800,000	5,195	11,036
-53,461	-200,000	21,612	343,534
-52,446	800,000	763,058	2351,654
-51,432	549,897	1662,626	2824,420
-50,417	71,921	1658,228	1215,913
-49,403	17,368	1531,728	855,952
-48,388	11,389	1455,687	784,581
-47,373	19,351	1447,106	818,071
-46,359	14,879	1436,361	790,733
-45,344	9,693	1431,994	763,644
-44,330	9,599	1430,200	762,209
-43,315	9,592	1428,436	761,207
-42,300	9,596	1426,850	760,346
-41,286	9,636	1425,460	759,769
-40,271	9,578	1424,296	758,841
-39,257	9,623	1423,086	758,380
-38,242	9,609	1421,853	757,628
-37,227	9,635	1420,824	757,172
-36,213	9,658	1419,556	756,574
-35,198	9,642	1418,445	755,877
-34,184	9,698	1417,286	755,495
-33,169	9,616	1416,016	754,398
-32,154	9,657	1414,906	753,972
-31,140	9,640	1413,755	753,247
-30,125	9,699	1412,549	752,854
-29,111	9,640	1411,389	751,928
-28,096	9,665	1410,213	751,389
-27,082	9,589	1409,083	750,400
-26,067	9,565	1408,004	749,685
-25,052	9,608	1406,919	749,279
-24,038	9,578	1406,078	748,659
-23,023	9,602	1405,182	748,265
-22,009	9,575	1404,182	747,579
-20,994	9,615	1403,137	747,178
-19,979	9,609	1402,026	746,530
-18,965	9,588	1400,995	745,849
-17,950	9,567	1400,307	745,356
-16,936	9,529	1399,361	744,647
-15,921	9,509	1398,543	744,092
-14,906	9,496	1397,775	743,594
-13,892	9,539	1396,684	743,179
-12,877	9,500	1395,881	742,544
-11,863	9,531	1395,030	742,205
-10,848	9,482	1393,985	741,394
-9,833	9,457	1393,152	740,806
-8,819	9,409	1392,291	740,097
-7,804	9,405	1391,381	739,565
-6,790	9,381	1390,378	738,889
-5,775	9,444	1389,415	738,642
-4,760	9,406	1388,514	737,954
-3,746	9,419	1387,486	737,443
-2,731	9,427	1386,467	736,905
-1,717	9,389	1385,731	736,311
-0,702	9,411	1383,997	735,460
0,313	13,409	1296,174	707,047
1,327	29,204	687,116	410,488
2,342	45,568	118,602	77,114
3,356	-0,397	16,428	8,203
4,371	0,605	3,499	1,759
5,386	-19,647	1,115	0,485
6,400	800,000	0,245	0,607
7,415	-125,027	-0,213	0,023
8,429	41,273	-0,352	-0,224
9,444	116,665	-0,325	-0,281
10,459	53,462	-0,225	-0,152
11,473	22,400	-0,265	-0,152
12,488	130,168	-0,199	-0,179
13,502	-48,612	-0,261	-0,088
14,517	251,583	-0,172	-0,207
15,531	-107,400	-0,450	0,069
16,546	157,195	-0,250	-0,244
17,561	102,350	-0,432	-0,355
18,575	35,897	-0,191	-0,118
19,590	403,584	-0,241	-0,358
20,604	-36,712	-0,284	-0,107
21,619	85,418	-0,410	-0,317
22,634	82,770	-0,378	-0,289
23,648	280,630	-0,304	-0,384
24,663	104,097	-0,322	-0,267
25,677	84,739	-0,343	-0,264
26,692	48,843	-0,305	-0,201
27,707	98,351	-0,390	-0,316
28,721	174,379	-0,272	-0,277
29,736	-9,235	-0,438	-0,205
30,750	131,212	-0,470	-0,424
31,765	58,957	-0,301	-0,208
32,780	114,151	-0,365	-0,312
33,794	-17,334	-0,364	-0,160
34,809	112,274	-0,432	-0,367
35,823	48,212	-0,420	-0,276
36,838	234,103	-0,343	-0,398
37,853	57,550	-0,433	-0,297
38,867	149,077	-0,300	-0,286
39,882	109,892	-0,365	-0,308
40,896	136,016	-0,257	-0,235
41,911	155,634	-0,281	-0,272
42,926	563,414	-0,237	-0,405
43,940	-4,400	-0,414	-0,200
44,955	175,975	-0,222	-0,227
45,969	221,939	-0,380	-0,430
46,984	155,621	-0,290	-0,281
47,999	-200,000	-0,247	-0,001
49,013	87,294	-0,276	-0,214
50,028	-106,343	-0,206	-0,032
51,042	233,741	-0,297	-0,344
52,057	-22,798	-0,462	-0,195
53,071	66,327	-0,278	-0,198
54,086	2,907	-0,429	-0,218
55,101	-24,135	-0,261	-0,109
56,115	-85,010	-0,441	-0,096
57,130	286,518	-0,236	-0,300
58,144	1,880	-0,407	-0,205
59,159	434,471	-0,207	-0,317
60,174	18,412	-0,256	-0,143
61,188	172,054	-0,327	-0,330
62,203	-3,483	-0,328	-0,159
63,217	235,623	-0,213	-0,247
64,232	102,086	-0,311	-0,255
65,247	-0,837	-0,329	-0,163
66,261	1,902	-0,404	-0,204
67,276	-1,185	-0,335	-0,166
68,290	-61,535	-0,413	-0,121
69,305	-47,714	-0,299	-0,101
70,320	98,370	-0,266	-0,214
71,334	116,849	-0,318	-0,274
72,349	82,993	-0,294	-0,224
73,363	107,325	-0,305	-0,254
74,378	125,164	-0,374	-0,330
75,393	492,498	-0,144	-0,233
76,407	-91,917	-0,294	-0,058
77,422	40,537	-0,315	-0,198
78,436	800,000	-0,120	-0,254
79,451	43,302	-0,367	-0,234
80,466	13,431	-0,407	-0,220
81,480	4,077	-0,279	-0,142
82,495	-37,243	-0,381	-0,142
83,509	26,539	-0,227	-0,133
84,524	261,711	-0,259	-0,315
85,539	333,016	-0,170	-0,231
86,553	-69,121	-0,515	-0,138
87,568	70,595	-0,328	-0,237
88,582	-65,051	-0,457	-0,128
89,597	292,111	-0,242	-0,309
90,611	407,401	-0,149	-0,221
91,626	127,882	-0,214	-0,190
92,641	-87,458	-0,325	-0,068
93,655	251,633	-0,164	-0,196
94,670	-79,890	-0,394	-0,092
95,684	562,863	-0,135	-0,229
96,699	8,994	-0,332	-0,175
97,714	248,275	-0,167	-0,198
98,728	267,276	-0,199	-0,245
99,743	52,597	-0,251	-0,167
100,757	-40,848	-0,230	-0,083
101,772	-66,887	-0,334	-0,092
102,787	90,335	-0,307	-0,240
103,801	439,487	-0,177	-0,271
104,816	31,344	-0,238	-0,143
105,830	87,905	-0,237	-0,183
106,845	-132,888	-0,251	-0,022
107,860	54,556	-0,236	-0,159
108,874	-90,486	-0,397	-0,080
109,889	-121,204	-0,222	-0,026
110,903	242,401	-0,241	-0,283
111,918	-18,098	-0,364	-0,159
112,933	168,346	-0,098	-0,098
113,947	40,098	-0,287	-0,180
114,962	-163,281	-0,266	0,009
115,976	181,105	-0,289	-0,296
116,991	73,812	-0,218	-0,159
118,006	73,784	-0,305	-0,223
119,020	225,468	-0,100	-0,113
120,035	800,000	-0,084	-0,167
121,049	77,217	-0,301	-0,223
122,064	61,034	-0,238	-0,165
123,079	17,936	-0,342	-0,190
124,093	137,295	-0,256	-0,234
125,108	-200,000	-0,053	-0,171
126,122	74,618	-0,305	-0,223
127,137	136,372	-0,169	-0,154
128,151	-114,718	-0,262	-0,035
129,166	69,136	-0,153	-0,109
130,181	185,921	-0,237	-0,246
131,195	128,809	-0,234	-0,208
132,210	-12,619	-0,381	-0,173
133,224	170,350	-0,333	-0,333
134,239	-134,255	-0,317	0,027
135,254	87,560	-0,179	-0,138
136,268	64,624	-0,254	-0,178
137,283	367,769	-0,192	-0,270
138,297	-43,757	-0,324	-0,113
139,312	20,148	-0,241	-0,135
140,327	227,750	-0,146	-0,166
141,341	76,450	-0,318	-0,235
142,356	-99,742	-0,244	-0,042
143,370	-138,407	-0,262	0,020
144,385	32,194	-0,252	-0,151
145,400	56,642	-0,221	-0,149
146,414	181,794	-0,229	-0,235
147,429	187,503	-0,119	-0,124
148,443	-73,704	-0,361	-0,091
149,458	-107,604	-0,275	-0,041
150,473	-63,963	-0,167	-0,047
151,487	331,337	-0,169	-0,227
152,502	-17,803	-0,275	-0,120
153,516	611,132	-0,087	-0,153
154,531	-84,561	-0,214	-0,047
155,546	-26,458	-0,323	-0,131
156,560	-78,792	-0,117	0,027
157,575	105,611	-0,264	-0,217
158,589	43,676	-0,234	-0,149
159,604	355,991	-0,207	-0,287
160,619	248,474	-0,224	-0,264
161,633	17,057	-0,302	-0,166
162,648	542,103	-0,105	-0,174
163,662	-143,976	-0,157	0,010
164,677	254,391	-0,146	-0,174
165,692	-38,645	-0,196	-0,072
166,706	566,143	-0,119	-0,201
167,721	8,460	-0,265	-0,138
168,735	345,679	-0,173	-0,237
169,750	191,471	-0,094	-0,098
170,764	331,530	-0,171	-0,229
171,779	-0,012	-0,274	-0,135
172,794	602,160	-0,090	-0,156
173,808	-16,243	-0,281	-0,123
174,823	1,344	-0,152	-0,076
175,837	7,192	-0,313	-0,162
176,852	256,268	-0,221	-0,264
177,867	443,751	-0,103	-0,158
178,881	8,280	-0,232	-0,121
179,896	35,823	-0,186	-0,113
180,910	80,501	-0,174	-0,130
181,925	10,460	-0,345	-0,182
182,940	254,856	-0,148	-0,176
183,954	-23,186	-0,225	-0,094
184,969	204,137	-0,135	-0,146
185,983	-104,372	-0,273	-0,043
186,998	-119,793	-0,170	-0,020
188,013	37,224	-0,142	-0,087
189,027	-49,126	-0,342	-0,113
190,042	138,511	-0,166	-0,151
191,056	157,633	-0,202	-0,195
192,071	27,055	-0,197	-0,115
193,086	-24,589	-0,183	-0,075
194,100	-79,536	-0,204	-0,047
195,115	224,326	-0,181	-0,204
196,129	112,742	-0,213	-0,179
197,144	115,174	-0,225	-0,190
198,159	24,366	-0,230	-0,131
199,173	-7,911	-0,245	-0,114
200,188	198,482	-0,162	-0,172
201,202	5,228	-0,186	-0,095
202,217	733,489	-0,116	-0,216
203,232	13,716	-0,212	-0,114
204,246	-54,849	-0,216	-0,067
205,261	186,514	-0,193	-0,199
206,275	25,477	-0,174	-0,100
207,290	494,410	0,056	-0,089
208,304	101,946	-0,097	-0,078
209,319	280,913	-0,171	-0,212
210,334	4,876	-0,249	-0,126
211,348	234,626	-0,221	-0,252
212,363	81,731	-0,256	-0,192
213,377	-15,795	-0,341	-0,150
214,392	-79,043	-0,314	-0,073
215,407	800,000	-0,080	-0,204
216,421	292,934	-0,093	-0,118
217,436	41,117	-0,268	-0,167
218,450	-110,456	-0,269	0,038
219,465	800,000	-0,059	-0,160
220,480	24,993	-0,111	-0,064
221,494	208,209	-0,093	-0,101
222,509	-95,108	-0,147	-0,027
223,523	428,243	-0,119	-0,179
224,538	-6,717	-0,336	-0,158
225,553	229,691	-0,223	-0,252
226,567	181,998	-0,260	-0,265
227,582	39,686	-0,173	-0,107
228,596	503,618	-0,077	-0,124
229,611	20,594	-0,290	-0,162
230,626	65,958	-0,213	-0,149
231,640	236,409	-0,184	-0,211
232,655	-122,098	-0,198	-0,022
233,669	800,000	-0,122	-0,335
234,684	108,826	-0,186	-0,154
235,699	279,078	-0,139	-0,172
236,713	26,602	-0,118	-0,068
237,728	-49,149	-0,115	-0,038
238,742	47,787	-0,238	-0,153
239,757	211,054	-0,165	-0,179
240,772	216,284	-0,234	-0,257
241,786	121,549	-0,177	-0,152
242,801	800,000	-0,119	-0,265
243,815	800,000	-0,058	-0,158
244,830	15,583	-0,132	-0,071
245,844	44,763	-0,230	-0,146
246,859	105,727	-0,196	-0,160
247,874	-40,723	-0,089	-0,032
248,888	800,000	-0,088	-0,237
249,903	800,000	-0,053	-0,146
250,917	-31,742	-0,168	-0,065
251,932	203,732	-0,129	-0,138
252,947	90,384	-0,130	-0,100
253,961	238,412	-0,215	-0,247
254,976	716,323	-0,130	-0,239
255,990	30,064	-0,270	-0,159
257,005	800,000	-0,051	-0,104
258,020	372,465	-0,031	-0,044
259,034	-75,687	-0,162	-0,039
260,049	141,931	-0,198	-0,181
261,063	131,604	-0,254	-0,225
262,078	103,650	-0,157	-0,127
263,093	-15,036	-0,164	-0,072
264,107	-28,900	-0,191	-0,075
265,122	-24,032	-0,113	0,046
266,136	-56,426	0,020	-0,006
267,151	157,685	-0,206	-0,197
268,166	-18,115	-0,103	-0,044
269,180	-58,873	-0,201	-0,059
270,195	-122,979	-0,162	-0,018
271,209	-95,165	-0,241	-0,044
272,224	800,000	-0,018	-0,046
273,239	127,564	-0,157	-0,137
274,253	-65,776	-0,178	0,049
275,268	-200,000	-0,019	-0,119
276,282	44,465	-0,244	-0,154
277,297	237,788	-0,102	-0,116
278,312	45,355	-0,145	-0,092
279,326	656,135	-0,073	-0,130
280,341	584,945	-0,097	-0,164
281,355	790,300	-0,038	-0,072
282,370	137,674	-0,181	-0,163
283,384	132,060	-0,230	-0,203
284,399	63,548	-0,235	-0,162
285,414	194,929	-0,145	-0,151
286,428	-25,631	-0,132	-0,053
287,443	800,000	-0,054	-0,142
288,457	637,373	-0,058	-0,101
289,472	-87,550	-0,226	-0,047
290,487	-200,000	-0,031	-0,167
291,501	59,472	-0,165	-0,111
292,516	272,057	-0,165	-0,201
293,530	107,756	-0,140	-0,114
294,545	-100,424	-0,032	0,005
295,560	800,000	0,047	-0,122
296,574	68,563	-0,147	-0,103
297,589	124,546	-0,184	-0,159
298,603	-200,000	-0,005	-0,179
299,618	800,000	-0,126	-0,303
300,633	284,907	-0,180	-0,224
301,647	-15,008	-0,210	-0,092
302,662	-99,358	-0,071	0,012
303,676	794,893	-0,039	0,073
304,691	-28,350	-0,154	-0,061
305,706	-66,403	-0,244	-0,066
306,720	98,367	-0,176	-0,139
307,735	800,000	-0,081	-0,187
308,749	80,908	-0,078	-0,058
309,764	800,000	-0,047	-0,110
310,779	-200,000	-0,006	-0,096
311,793	-63,273	-0,111	0,031
312,808	184,619	-0,162	-0,165
313,822	116,680	-0,106	-0,089
314,837	36,124	-0,070	-0,043
315,852	121,937	-0,121	-0,104
316,866	-146,780	-0,136	-0,008
317,881	-2,189	-0,143	-0,069
318,895	-29,180	-0,114	-0,044
319,910	-80,375	-0,153	0,035
320,925	59,850	-0,158	-0,107
321,939	23,526	-0,061	-0,034
322,954	-200,000	-0,015	-0,073
323,968	-79,450	-0,098	-0,023
324,983	-89,133	-0,184	-0,037
325,997	-169,345	-0,207	-0,005
327,012	-48,324	-0,131	-0,043
328,027	-74,269	-0,222	-0,055
329,041	-200,000	-0,044	-0,206
330,056	642,346	-0,013	0,022
331,070	-49,186	-0,142	0,046
332,085	239,898	-0,081	-0,093
333,100	800,000	-0,065	-0,153
334,114	-35,106	-0,305	-0,113
335,129	800,000	-0,054	-0,126
336,143	800,000	-0,040	-0,103
337,158	56,946	-0,145	-0,096
338,173	139,553	-0,089	-0,080
339,187	704,497	-0,087	-0,158
340,202	517,629	-0,043	-0,068
341,216	800,000	-0,062	-0,152
342,231	800,000	-0,090	-0,171
343,246	-200,000	-0,021	-0,287
344,260	260,288	-0,076	0,090
345,275	-128,090	-0,148	0,014
346,289	37,629	-0,152	-0,092
347,304	94,278	-0,172	-0,134
348,319	-180,918	-0,138	-0,002
349,333	-8,359	-0,182	-0,083
350,348	167,455	-0,236	-0,229
351,362	283,419	-0,132	-0,162
352,377	-51,527	-0,154	-0,049
353,392	-151,647	-0,199	0,010
354,406	241,757	-0,107	-0,123
355,421	207,283	1306,369	1395,033
356,435	159,458	1466,030	1395,521
