DTS Sentinel unit serial number:	SN410029Multiplexer serial number:	ORYXHardware model number:	OX2-SRSoftware version number:	ORYX F/W v4,00 Oryx Data Collector v3.7.2.0data status	okinstallation	B3 Nyhavnadifferential loss correction	single-endedforward channel	channel 1reverse channel	N/Adate	2023/12/02time	19:22:30forward acquisition time	300,00reverse acquisition time	0,00gamma	499,1914k internal	0,3200k external	0,3200temperature offset calibration	1,0000default loss term (dB/km)	0,3820temperature slope calibration	1,0000multiplexer offset coefficient	1,0000multiplexer slope coefficient	1,0000fibre end	0,00T internal ref (°C)	13,39T ext. ref 1 (°C)	-1,84T ext. ref 2 (°C)	-1,84length (m)	temperature (°C)	Stokes	anti-Stokes-744,400	161,307	-0,238	-0,242
-743,385	-200,000	0,018	0,268
-742,371	800,000	-0,108	-0,260
-741,356	-200,000	0,048	0,268
-740,342	800,000	-0,133	-0,276
-739,327	-200,000	0,098	0,471
-738,312	-17,537	-0,263	-0,120
-737,298	800,000	-0,062	0,133
-736,283	284,438	-0,204	-0,268
-735,269	800,000	-0,054	0,154
-734,254	34,496	-0,323	-0,205
-733,239	60,513	-0,078	0,056
-732,225	301,288	-0,159	-0,214
-731,210	60,715	0,202	0,145
-730,196	195,863	0,090	-0,099
-729,181	413,832	0,021	-0,033
-728,167	-33,024	0,197	0,079
-727,152	-200,000	-0,006	0,066
-726,137	54,370	-0,084	-0,059
-725,123	-15,188	-0,093	-0,043
-724,108	-200,000	-0,024	-0,153
-723,094	87,136	-0,082	-0,066
-722,079	751,316	-0,118	-0,233
-721,064	-39,952	-0,164	0,062
-720,050	-24,457	-0,053	0,023
-719,035	495,206	-0,032	-0,054
-718,021	-200,000	-0,051	0,197
-717,006	-156,239	0,062	-0,003
-715,991	784,934	-0,061	-0,123
-714,977	-114,729	-0,128	-0,018
-713,962	569,878	-0,081	-0,144
-712,948	28,674	0,047	0,029
-711,933	73,584	-0,065	-0,050
-710,918	-200,000	-0,006	-0,024
-709,904	800,000	0,022	-0,055
-708,889	-34,209	-0,080	0,032
-707,875	220,198	-0,066	-0,077
-706,860	-200,000	-0,011	0,092
-705,845	-91,814	0,068	0,014
-704,831	139,507	0,094	0,090
-703,816	-83,212	0,140	0,032
-702,802	327,933	-0,079	-0,111
-701,787	-200,000	-0,022	-0,078
-700,772	-156,808	-0,111	0,005
-699,758	183,898	0,048	0,052
-698,743	208,906	0,032	0,036
-697,729	-107,618	0,093	0,015
-696,714	514,889	-0,003	-0,006
-695,699	-46,616	-0,078	0,028
-694,685	129,037	-0,096	0,089
-693,670	419,497	-0,051	-0,080
-692,656	-200,000	0,004	-0,041
-691,641	-82,064	0,128	0,030
-690,627	800,000	-0,021	0,051
-689,612	41,270	0,114	0,075
-688,597	199,900	-0,099	-0,111
-687,583	-102,313	-0,099	-0,017
-686,568	-40,915	-0,035	0,013
-685,554	800,000	0,055	-0,140
-684,539	-102,381	-0,130	-0,022
-683,524	29,160	0,084	0,052
-682,510	-200,000	-0,029	0,143
-681,495	-43,213	-0,019	0,007
-680,481	-128,142	0,025	-0,003
-679,466	-41,520	-0,064	-0,024
-678,451	-200,000	-0,028	-0,094
-677,437	268,877	0,094	-0,120
-676,422	97,082	-0,022	0,019
-675,408	570,086	0,071	-0,125
-674,393	800,000	0,027	-0,057
-673,378	-110,695	0,058	0,009
-672,364	104,437	-0,085	-0,073
-671,349	8,220	-0,103	0,056
-670,335	90,855	-0,053	-0,043
-669,320	26,220	-0,046	-0,028
-668,305	206,730	0,020	-0,023
-667,291	407,878	-0,088	-0,135
-666,276	-164,643	-0,119	0,004
-665,262	-136,701	-0,110	-0,009
-664,247	-106,635	-0,100	-0,016
-663,232	-89,673	0,144	0,030
-662,218	-200,000	-0,006	0,083
-661,203	145,423	0,131	0,127
-660,189	-120,951	0,110	-0,013
-659,174	-200,000	0,020	0,067
-658,159	119,528	-0,081	-0,073
-657,145	422,214	0,051	-0,079
-656,130	800,000	-0,054	0,114
-655,116	-150,238	0,052	0,003
-654,101	800,000	0,057	0,118
-653,086	-30,830	-0,084	0,034
-652,072	101,555	-0,059	0,050
-651,057	586,151	-0,003	0,006
-650,043	99,216	-0,035	0,029
-649,028	-200,000	-0,002	0,009
-648,014	-200,000	0,021	0,082
-646,999	20,992	0,101	0,059
-645,984	-200,000	0,033	0,138
-644,970	-200,000	0,006	-0,062
-643,955	-200,000	-0,019	-0,099
-642,941	-138,324	0,083	-0,007
-641,926	800,000	-0,037	-0,098
-640,911	252,011	-0,020	-0,025
-639,897	-36,407	-0,069	-0,027
-638,882	182,668	-0,070	0,075
-637,868	800,000	-0,035	-0,079
-636,853	-200,000	-0,008	-0,034
-635,838	-47,588	0,057	0,020
-634,824	340,085	0,033	-0,046
-633,809	-86,904	0,145	-0,032
-632,795	-200,000	0,006	0,146
-631,780	800,000	-0,021	-0,067
-630,765	-138,438	-0,083	0,007
-629,751	-179,320	-0,182	0,003
-628,736	-4,371	-0,096	-0,048
-627,722	800,000	0,018	-0,052
-626,707	-200,000	-0,008	0,080
-625,692	461,811	0,097	-0,158
-624,678	-124,553	-0,085	-0,009
-623,663	-109,869	0,048	0,007
-622,649	-200,000	-0,013	-0,063
-621,634	51,222	-0,147	0,101
-620,619	5,067	-0,121	-0,064
-619,605	-17,998	0,086	0,039
-618,590	621,751	0,059	0,107
-617,576	82,483	-0,132	0,104
-616,561	94,681	0,039	0,032
-615,546	-200,000	-0,003	0,010
-614,532	-13,011	0,126	-0,059
-613,517	32,117	0,007	-0,004
-612,503	800,000	-0,006	-0,018
-611,488	92,845	0,105	-0,086
-610,474	198,522	0,045	0,050
-609,459	139,883	0,091	0,087
-608,444	-103,398	-0,031	0,005
-607,430	-48,011	-0,081	-0,028
-606,415	-200,000	-0,000	-0,069
-605,401	800,000	0,024	0,052
-604,386	-200,000	0,015	0,178
-603,371	-39,381	-0,056	-0,021
-602,357	-3,770	0,054	-0,027
-601,342	-137,166	-0,041	-0,003
-600,328	111,996	-0,192	-0,168
-599,313	238,978	0,030	0,036
-598,298	-200,000	0,022	0,097
-597,284	-192,574	0,127	-0,001
-596,269	-200,000	-0,019	0,089
-595,255	411,670	0,038	-0,058
-594,240	15,780	-0,067	0,038
-593,225	-200,000	-0,031	-0,140
-592,211	800,000	0,027	-0,081
-591,196	-200,000	-0,011	-0,082
-590,182	31,758	0,077	0,048
-589,167	28,160	0,106	0,065
-588,152	-96,278	0,091	0,017
-587,138	143,160	0,044	-0,042
-586,123	-30,013	-0,069	0,028
-585,109	-200,000	0,014	0,061
-584,094	321,516	0,039	-0,054
-583,079	101,784	0,109	0,092
-582,065	-121,363	0,084	0,010
-581,050	131,891	0,024	-0,022
-580,036	-54,048	0,056	-0,018
-579,021	-200,000	-0,010	0,164
-578,006	-17,927	-0,093	0,042
-576,992	-86,886	-0,100	-0,022
-575,977	-200,000	-0,002	0,016
-574,963	-151,126	0,082	-0,004
-573,948	169,174	0,038	-0,039
-572,934	768,452	0,037	-0,073
-571,919	-200,000	-0,006	-0,105
-570,904	56,080	0,069	-0,049
-569,890	800,000	-0,020	0,047
-568,875	-172,742	0,133	0,003
-567,861	-66,942	-0,045	-0,013
-566,846	-200,000	-0,010	0,071
-565,831	457,730	0,077	0,124
-564,817	21,328	-0,146	-0,085
-563,802	-200,000	0,012	-0,146
-562,788	-200,000	0,004	-0,131
-561,773	61,783	0,121	0,087
-560,758	-200,000	-0,002	-0,046
-559,744	800,000	0,033	0,078
-558,729	-25,764	0,061	-0,026
-557,715	166,574	0,068	0,070
-556,700	519,049	0,073	-0,125
-555,685	625,843	-0,044	-0,081
-554,671	-200,000	-0,002	0,141
-553,656	-200,000	-0,027	0,145
-552,642	-200,000	-0,000	0,081
-551,627	372,347	-0,038	0,055
-550,612	-200,000	-0,020	0,087
-549,598	800,000	-0,030	-0,078
-548,583	-106,920	-0,084	-0,013
-547,569	394,918	-0,083	-0,125
-546,554	123,955	0,100	0,091
-545,539	147,581	-0,034	0,033
-544,525	30,046	0,114	0,070
-543,510	-200,000	-0,000	0,017
-542,496	477,208	-0,055	0,090
-541,481	45,885	-0,050	-0,033
-540,466	-200,000	0,057	0,183
-539,452	800,000	0,069	0,156
-538,437	-28,962	-0,048	-0,020
-537,423	-200,000	0,015	0,074
-536,408	165,811	0,019	-0,019
-535,393	-200,000	0,013	-0,144
-534,379	7,610	-0,049	-0,027
-533,364	-198,448	-0,064	-0,000
-532,350	-200,000	-0,002	-0,056
-531,335	345,043	0,040	0,057
-530,321	-200,000	-0,011	0,062
-529,306	307,907	0,062	-0,083
-528,291	-96,029	-0,101	-0,019
-527,277	-200,000	0,011	-0,157
-526,262	135,562	-0,061	-0,057
-525,248	-200,000	-0,010	-0,067
-524,233	-137,098	0,127	-0,010
-523,218	-41,316	0,059	0,022
-522,204	-104,280	-0,186	0,031
-521,189	-200,000	-0,017	-0,059
-520,175	629,960	-0,024	-0,044
-519,160	-200,000	-0,044	0,166
-518,145	-0,634	-0,019	0,010
-517,131	538,537	-0,023	-0,039
-516,116	75,136	0,064	0,049
-515,102	-200,000	0,005	-0,075
-514,087	-15,630	-0,018	-0,008
-513,072	-59,980	-0,154	-0,047
-512,058	-88,014	-0,090	0,019
-511,043	800,000	0,039	-0,080
-510,029	691,627	-0,056	0,106
-509,014	800,000	0,020	0,063
-507,999	577,884	-0,035	0,062
-506,985	-1,483	-0,101	-0,051
-505,970	343,188	-0,072	-0,102
-504,956	800,000	0,040	-0,122
-503,941	168,108	-0,115	-0,118
-502,926	800,000	-0,057	0,128
-501,912	-49,740	0,118	0,040
-500,897	162,953	0,006	0,006
-499,883	311,808	-0,111	0,151
-498,868	-53,775	0,055	-0,018
-497,853	96,406	-0,060	-0,050
-496,839	-60,424	-0,083	0,025
-495,824	-42,698	-0,096	0,035
-494,810	-194,530	0,109	0,001
-493,795	-200,000	0,002	0,090
-492,781	800,000	0,017	-0,035
-491,766	-200,000	-0,016	-0,103
-490,751	-100,623	-0,122	0,022
-489,737	800,000	0,018	-0,037
-488,722	74,361	-0,057	0,043
-487,708	240,216	0,094	0,113
-486,693	-200,000	-0,002	0,214
-485,678	19,361	-0,120	0,069
-484,664	800,000	-0,047	-0,147
-483,649	-200,000	-0,003	-0,033
-482,635	55,972	-0,067	-0,047
-481,620	-200,000	0,003	-0,020
-480,605	-15,077	-0,045	-0,020
-479,591	-200,000	0,007	-0,058
-478,576	451,335	0,039	-0,062
-477,562	-200,000	-0,032	0,143
-476,547	56,804	-0,083	-0,058
-475,532	-51,718	0,144	-0,048
-474,518	-200,000	-0,001	-0,113
-473,503	-200,000	-0,015	0,096
-472,489	-200,000	-0,035	0,119
-471,474	-200,000	0,026	-0,094
-470,459	800,000	-0,015	-0,043
-469,445	39,125	-0,045	0,029
-468,430	-200,000	-0,022	-0,077
-467,416	206,333	0,024	0,027
-466,401	425,533	0,042	0,066
-465,386	-200,000	0,009	-0,055
-464,372	-200,000	0,007	0,040
-463,357	-10,105	-0,028	0,014
-462,343	-12,015	0,116	-0,055
-461,328	-156,195	-0,152	-0,007
-460,313	179,644	-0,042	0,045
-459,299	-19,071	0,067	0,030
-458,284	800,000	-0,018	0,048
-457,270	-200,000	0,022	0,102
-456,255	231,329	0,105	0,124
-455,241	447,021	-0,069	0,109
-454,226	-200,000	-0,016	-0,122
-453,211	-33,074	0,018	-0,007
-452,197	37,861	0,062	0,039
-451,182	-200,000	-0,003	0,124
-450,168	800,000	0,048	-0,100
-449,153	280,652	0,120	-0,155
-448,138	115,400	-0,049	0,043
-447,124	-74,732	0,073	-0,019
-446,109	800,000	-0,058	-0,165
-445,095	800,000	0,019	-0,057
-444,080	790,743	0,064	0,127
-443,065	-134,219	-0,029	0,003
-442,051	188,014	-0,116	-0,125
-441,036	17,986	0,093	0,053
-440,022	-144,909	-0,133	0,009
-439,007	-200,000	-0,020	0,069
-437,992	800,000	0,025	0,064
-436,978	10,715	0,063	0,034
-435,963	-200,000	-0,008	0,131
-434,949	-59,405	-0,058	-0,018
-433,934	-88,241	0,082	-0,018
-432,919	-200,000	0,004	-0,132
-431,905	55,386	0,067	0,047
-430,890	372,980	-0,011	-0,016
-429,876	-200,000	-0,011	-0,090
-428,861	-200,000	0,000	0,043
-427,846	36,093	-0,049	0,031
-426,832	166,039	0,040	-0,041
-425,817	-200,000	0,020	0,081
-424,803	-200,000	0,005	0,026
-423,788	755,916	0,049	0,096
-422,773	-200,000	0,004	-0,017
-421,759	800,000	0,038	0,086
-420,744	-178,915	0,070	0,001
-419,730	-112,452	-0,116	-0,016
-418,715	143,260	0,044	0,042
-417,701	365,590	-0,022	-0,032
-416,686	800,000	-0,067	0,139
-415,671	-124,864	0,111	0,012
-414,657	-58,488	-0,105	0,033
-413,642	208,647	0,109	0,123
-412,628	-13,039	0,044	0,020
-411,613	-149,248	-0,169	-0,010
-410,598	-46,322	-0,117	0,041
-409,584	-184,820	0,045	0,001
-408,569	-86,741	0,137	0,030
-407,555	-43,056	0,046	0,017
-406,540	-200,000	0,009	-0,098
-405,525	-162,473	0,156	-0,005
-404,511	800,000	-0,058	-0,165
-403,496	-200,000	0,019	-0,188
-402,482	-28,617	-0,022	-0,009
-401,467	104,295	0,077	0,065
-400,452	-136,322	-0,035	-0,003
-399,438	-200,000	-0,009	-0,089
-398,423	-200,000	-0,012	-0,053
-397,409	93,397	0,048	0,039
-396,394	708,086	-0,022	0,041
-395,379	115,300	0,093	0,082
-394,365	347,904	-0,114	0,162
-393,350	9,730	-0,107	0,058
-392,336	-60,079	-0,080	-0,024
-391,321	-200,000	0,001	-0,050
-390,306	-53,221	0,103	0,034
-389,292	800,000	-0,052	-0,115
-388,277	800,000	-0,044	0,134
-387,263	800,000	0,037	0,112
-386,248	-200,000	-0,002	0,079
-385,233	-145,053	0,096	-0,006
-384,219	800,000	0,041	0,104
-383,204	5,848	-0,137	0,072
-382,190	31,119	-0,095	-0,059
-381,175	238,248	-0,100	-0,119
-380,160	800,000	0,038	0,112
-379,146	-200,000	-0,013	0,141
-378,131	-94,387	0,157	0,030
-377,117	196,471	0,048	0,052
-376,102	-102,771	-0,146	-0,025
-375,088	-157,580	0,012	0,001
-374,073	-200,000	-0,006	0,059
-373,058	-11,026	0,137	-0,065
-372,044	551,939	0,040	0,069
-371,029	-30,606	0,045	-0,018
-370,015	336,973	-0,051	0,071
-369,000	62,120	0,101	-0,072
-367,985	668,661	0,012	0,023
-366,971	-200,000	0,003	-0,143
-365,956	-5,038	0,094	0,046
-364,942	-56,330	0,106	0,033
-363,927	173,176	0,037	-0,038
-362,912	63,104	-0,033	-0,023
-361,898	15,650	-0,091	-0,051
-360,883	-20,788	-0,116	-0,051
-359,869	-200,000	-0,023	-0,076
-358,854	-200,000	0,008	0,085
-357,839	-200,000	-0,004	0,148
-356,825	93,488	-0,064	-0,052
-355,810	-200,000	-0,003	-0,069
-354,796	-29,516	-0,080	-0,033
-353,781	-200,000	-0,012	-0,103
-352,766	95,400	0,038	0,031
-351,752	-117,566	-0,137	-0,018
-350,737	-200,000	-0,002	0,071
-349,723	-138,678	0,117	-0,009
-348,708	111,144	0,074	-0,064
-347,693	-200,000	-0,007	-0,076
-346,679	257,175	0,110	-0,136
-345,664	105,366	-0,109	-0,092
-344,650	70,299	-0,030	0,022
-343,635	-200,000	-0,004	0,100
-342,620	711,538	-0,015	0,029
-341,606	-200,000	0,001	0,070
-340,591	633,198	-0,045	-0,082
-339,577	800,000	0,021	-0,053
-338,562	800,000	0,016	-0,032
-337,548	129,330	0,003	0,003
-336,533	-200,000	-0,014	0,080
-335,518	-75,201	0,044	0,011
-334,504	53,724	0,029	0,020
-333,489	390,816	-0,085	0,126
-332,475	151,845	-0,039	0,038
-331,460	800,000	-0,099	-0,201
-330,445	-200,000	-0,033	-0,146
-329,431	257,305	0,041	0,050
-328,416	42,165	-0,177	-0,115
-327,402	-95,928	0,128	0,024
-326,387	368,472	0,087	0,126
-325,372	800,000	-0,032	-0,070
-324,358	12,325	-0,036	-0,020
-323,343	-200,000	0,060	-0,193
-322,329	-200,000	0,008	0,074
-321,314	16,644	-0,109	-0,062
-320,299	524,782	0,093	0,158
-319,285	480,549	-0,029	0,046
-318,270	-43,258	-0,073	0,026
-317,256	-5,013	-0,063	0,031
-316,241	-8,440	-0,031	0,015
-315,226	-59,836	-0,031	-0,009
-314,212	360,384	0,044	0,063
-313,197	233,107	0,058	0,068
-312,183	212,349	0,081	0,092
-311,168	336,181	-0,077	-0,107
-310,153	59,134	-0,069	-0,049
-309,139	-189,221	0,022	-0,000
-308,124	283,311	-0,029	-0,037
-307,110	149,498	-0,019	-0,019
-306,095	556,203	0,031	0,053
-305,080	-45,124	0,090	-0,032
-304,066	-200,000	0,002	0,018
-303,051	-136,762	0,017	-0,001
-302,037	-200,000	0,031	-0,161
-301,022	-140,307	-0,064	0,005
-300,008	205,482	0,056	0,063
-298,993	602,875	0,031	-0,056
-297,978	53,022	0,102	0,070
-296,964	-16,266	-0,060	-0,027
-295,949	-200,000	-0,034	-0,121
-294,935	-17,477	-0,012	0,005
-293,920	-66,198	-0,163	-0,046
-292,905	33,490	0,141	-0,087
-291,891	626,467	0,078	0,141
-290,876	56,083	0,061	0,042
-289,862	800,000	-0,036	-0,110
-288,847	-200,000	0,002	-0,040
-287,832	240,396	0,116	-0,138
-286,818	409,480	-0,092	-0,139
-285,803	-200,000	0,004	0,115
-284,789	-4,084	-0,046	0,023
-283,774	486,728	0,072	0,118
-282,759	158,752	0,036	-0,035
-281,745	800,000	0,007	-0,021
-280,730	-149,885	-0,064	-0,004
-279,716	16,043	0,075	-0,042
-278,701	800,000	-0,047	-0,122
-277,686	-200,000	0,017	0,130
-276,672	-152,608	0,144	-0,007
-275,657	800,000	0,016	0,044
-274,643	233,723	-0,066	-0,078
-273,628	-97,239	-0,149	0,028
-272,613	266,583	-0,071	-0,089
-271,599	-200,000	0,001	0,155
-270,584	685,410	0,032	0,060
-269,570	301,990	0,030	0,040
-268,555	-200,000	0,000	0,145
-267,540	-183,407	-0,166	0,002
-266,526	800,000	-0,083	-0,191
-265,511	-136,839	0,108	0,009
-264,497	-94,246	-0,057	-0,011
-263,482	-35,444	0,100	0,039
-262,467	103,265	0,110	0,092
-261,453	162,961	-0,017	0,017
-260,438	800,000	0,040	-0,098
-259,424	338,990	0,060	-0,083
-258,409	-105,056	0,088	0,014
-257,395	-200,000	-0,003	0,023
-256,380	-107,311	0,038	-0,006
-255,365	618,160	0,041	-0,074
-254,351	225,304	0,099	-0,115
-253,336	800,000	0,036	-0,096
-252,322	295,391	-0,082	0,107
-251,307	-63,599	-0,085	0,025
-250,292	132,241	-0,008	0,007
-249,278	593,921	0,047	0,083
-248,263	144,837	0,122	0,117
-247,249	-69,843	-0,082	-0,022
-246,234	47,167	0,038	-0,025
-245,219	-53,193	-0,203	0,066
-244,205	800,000	-0,034	-0,069
-243,190	113,554	0,048	0,042
-242,176	279,215	-0,050	-0,064
-241,161	-54,055	-0,051	0,017
-240,146	48,048	-0,051	0,034
-239,132	391,337	0,074	-0,109
-238,117	-12,619	0,066	-0,031
-237,103	159,126	-0,068	-0,067
-236,088	372,222	-0,032	-0,047
-235,073	-88,742	-0,087	-0,018
-234,059	277,329	0,135	0,171
-233,044	72,281	0,071	0,053
-232,030	-200,000	0,027	0,093
-231,015	-200,000	0,028	0,110
-230,000	-60,415	-0,116	-0,035
-228,986	41,452	0,110	-0,071
-227,971	-54,092	-0,083	0,027
-226,957	-148,545	0,118	0,007
-225,942	-200,000	0,021	0,105
-224,927	-200,000	-0,003	-0,089
-223,913	-200,000	0,005	-0,136
-222,898	48,453	-0,099	-0,066
-221,884	-200,000	-0,022	-0,213
-220,869	240,178	0,048	0,057
-219,855	800,000	0,027	0,079
-218,840	800,000	0,106	0,243
-217,825	-89,535	0,130	0,027
-216,811	-200,000	0,016	-0,139
-215,796	422,514	-0,027	-0,042
-214,782	31,473	0,072	0,044
-213,767	487,278	-0,057	0,093
-212,752	243,980	0,102	0,122
-211,738	147,772	0,052	0,050
-210,723	-200,000	-0,009	0,058
-209,709	-200,000	0,017	-0,237
-208,694	59,912	-0,102	0,072
-207,679	-200,000	-0,004	0,026
-206,665	296,825	-0,035	0,046
-205,650	76,712	0,144	0,109
-204,636	283,276	-0,010	-0,013
-203,621	415,583	-0,051	0,077
-202,606	800,000	-0,011	-0,030
-201,592	800,000	-0,019	0,053
-200,577	265,685	-0,092	-0,115
-199,563	48,966	-0,062	-0,041
-198,548	800,000	-0,034	0,100
-197,533	-53,592	0,086	-0,028
-196,519	-76,914	-0,060	-0,015
-195,504	-200,000	0,018	-0,119
-194,490	-200,000	-0,037	-0,148
-193,475	151,010	-0,059	0,057
-192,460	800,000	0,009	-0,023
-191,446	-60,386	0,078	-0,023
-190,431	-200,000	-0,017	-0,132
-189,417	745,719	-0,077	0,149
-188,402	-200,000	-0,009	-0,132
-187,387	800,000	-0,040	-0,107
-186,373	190,626	0,010	0,011
-185,358	285,229	-0,069	-0,089
-184,344	329,701	0,040	-0,055
-183,329	70,608	0,137	-0,101
-182,315	-200,000	0,023	-0,103
-181,300	-12,250	-0,159	0,074
-180,285	-200,000	0,000	0,024
-179,271	25,667	0,094	-0,056
-178,256	-106,361	-0,070	0,011
-177,242	91,577	-0,051	-0,041
-176,227	-98,746	0,047	-0,008
-175,212	40,056	0,057	-0,036
-174,198	390,869	0,057	0,084
-173,183	800,000	-0,041	-0,107
-172,169	-60,040	-0,105	-0,032
-171,154	507,784	0,058	0,096
-170,139	154,769	-0,032	0,031
-169,125	-4,392	-0,058	0,028
-168,110	63,123	0,045	0,032
-167,096	-38,017	-0,046	-0,017
-166,081	-200,000	-0,001	-0,136
-165,066	609,017	-0,044	-0,079
-164,052	403,767	-0,061	-0,091
-163,037	154,970	0,104	0,101
-162,023	-200,000	-0,017	0,095
-161,008	101,944	0,110	0,091
-159,993	-131,653	0,114	-0,011
-158,979	576,143	-0,054	-0,095
-157,964	575,204	-0,092	-0,160
-156,950	265,822	0,011	-0,014
-155,935	-144,140	-0,098	0,006
-154,920	73,855	0,076	0,056
-153,906	-200,000	-0,014	-0,062
-152,891	112,313	0,012	0,010
-151,877	-200,000	0,010	-0,067
-150,862	68,173	0,136	-0,099
-149,847	46,228	-0,076	-0,050
-148,833	-200,000	0,005	-0,029
-147,818	134,704	-0,043	0,039
-146,804	-200,000	0,012	0,204
-145,789	-59,163	-0,068	0,021
-144,775	199,673	-0,091	-0,100
-143,760	-200,000	-0,001	-0,014
-142,745	-120,239	-0,132	-0,016
-141,731	609,331	0,085	-0,151
-140,716	-200,000	0,030	0,094
-139,702	-143,628	-0,106	-0,007
-138,687	11,796	-0,147	0,080
-137,672	349,740	0,060	-0,084
-136,658	162,987	-0,127	-0,127
-135,643	-90,829	0,096	0,020
-134,629	-16,034	-0,029	0,013
-133,614	75,513	0,058	-0,043
-132,599	624,019	-0,028	0,051
-131,585	-200,000	-0,004	-0,100
-130,570	369,039	-0,075	0,108
-129,556	-103,809	-0,111	0,018
-128,541	-200,000	-0,023	-0,084
-127,526	-147,587	0,061	-0,004
-126,512	-133,711	0,016	-0,001
-125,497	-200,000	-0,021	0,147
-124,483	-137,427	-0,084	-0,007
-123,468	77,209	0,099	0,075
-122,453	-59,196	-0,106	-0,032
-121,439	800,000	0,029	0,078
-120,424	-45,753	-0,126	0,044
-119,410	800,000	0,015	0,043
-118,395	-51,692	0,134	0,044
-117,380	-200,000	0,035	0,131
-116,366	243,771	-0,066	0,079
-115,351	-200,000	-0,015	0,091
-114,337	250,188	-0,020	0,024
-113,322	-35,216	0,102	0,039
-112,307	68,907	0,043	0,031
-111,293	287,974	0,052	0,067
-110,278	800,000	-0,031	0,093
-109,264	800,000	-0,056	-0,161
-108,249	-200,000	-0,007	0,029
-107,234	-200,000	0,016	-0,096
-106,220	-60,009	0,086	0,026
-105,205	45,164	0,063	0,041
-104,191	586,687	0,042	0,074
-103,176	-53,714	0,087	0,028
-102,162	428,304	-0,033	-0,051
-101,147	71,972	0,169	0,125
-100,132	800,000	-0,034	-0,095
-99,118	-200,000	0,038	-0,141
-98,103	-200,000	0,004	0,044
-97,089	413,543	0,101	0,153
-96,074	623,676	0,025	-0,046
-95,059	58,352	0,068	-0,047
-94,045	-30,692	-0,033	0,013
-93,030	-157,005	-0,139	0,006
-92,016	-87,517	-0,046	-0,010
-91,001	-96,699	-0,121	0,022
-89,986	800,000	0,025	-0,078
-88,972	-177,750	0,138	-0,002
-87,957	562,413	-0,039	0,068
-86,943	411,439	0,117	-0,176
-85,928	-13,673	-0,158	-0,072
-84,913	-106,265	0,174	0,027
-83,899	193,254	-0,072	0,078
-82,884	323,852	0,010	-0,013
-81,870	89,048	0,051	-0,040
-80,855	800,000	0,038	0,087
-79,840	-200,000	-0,022	-0,125
-78,826	-127,328	-0,091	0,009
-77,811	-200,000	-0,005	-0,080
-76,797	800,000	-0,011	0,025
-75,782	294,560	0,048	0,062
-74,767	199,055	0,014	0,016
-73,753	-73,231	0,108	-0,028
-72,738	-200,000	-0,010	0,137
-71,724	131,184	-0,044	-0,040
-70,709	-92,206	-0,099	0,020
-69,694	51,650	0,025	0,017
-68,680	24,886	0,113	-0,066
-67,665	16,342	0,083	0,046
-66,651	-200,000	-0,011	0,046
-65,636	33,352	-0,085	-0,052
-64,622	193,702	-0,070	0,075
-63,607	800,000	-0,066	-0,143
-62,592	245,685	-0,070	-0,084
-61,578	800,000	0,037	-0,075
-60,563	406,560	0,036	0,054
-59,549	-113,817	-0,103	-0,014
-58,534	-4,955	-1,671	-0,813
-57,519	370,113	-1,384	-1,993
-56,505	-200,000	-0,512	-4,612
-55,490	159,963	1,012	1,000
-54,476	800,000	5,032	11,312
-53,461	-200,000	19,235	321,375
-52,446	-200,000	740,412	2337,840
-51,432	573,998	1655,803	2872,054
-50,417	78,529	1671,684	1264,076
-49,403	21,376	1544,635	886,757
-48,388	15,251	1466,990	812,374
-47,373	18,053	1457,298	820,524
-46,359	16,773	1447,042	808,574
-45,344	13,502	1442,546	790,348
-44,330	13,410	1440,660	788,844
-43,315	13,423	1438,801	787,855
-42,300	13,456	1437,087	787,045
-41,286	13,497	1435,753	786,481
-40,271	13,406	1434,721	785,448
-39,257	13,431	1433,227	784,719
-38,242	13,485	1431,832	784,179
-37,227	13,478	1430,802	783,551
-36,213	13,450	1429,468	782,658
-35,198	13,475	1428,297	782,104
-34,184	13,567	1427,317	781,972
-33,169	13,442	1426,158	780,711
-32,154	13,536	1424,905	780,443
-31,140	13,501	1423,635	779,550
-30,125	13,542	1422,649	779,171
-29,111	13,519	1421,318	778,302
-28,096	13,482	1420,254	777,515
-27,082	13,440	1419,197	776,709
-26,067	13,435	1418,123	776,065
-25,052	13,411	1417,149	775,390
-24,038	13,407	1416,024	774,724
-23,023	13,374	1415,025	773,991
-22,009	13,428	1413,894	773,595
-20,994	13,395	1413,147	772,999
-19,979	13,363	1412,320	772,370
-18,965	13,342	1411,302	771,680
-17,950	13,382	1410,395	771,342
-16,936	13,378	1409,382	770,740
-15,921	13,339	1408,271	769,918
-14,906	13,319	1407,346	769,291
-13,892	13,370	1406,567	769,073
-12,877	13,302	1405,615	768,204
-11,863	13,328	1404,699	767,795
-10,848	13,314	1404,011	767,322
-9,833	13,264	1403,033	766,523
-8,819	13,231	1402,184	765,877
-7,804	13,227	1401,269	765,324
-6,790	13,247	1400,126	764,764
-5,775	13,223	1399,028	764,024
-4,760	13,241	1397,961	763,492
-3,746	13,179	1397,384	762,861
-2,731	13,217	1396,540	762,547
-1,717	13,176	1395,662	761,846
-0,702	13,183	1393,674	760,761
0,313	16,961	1310,632	732,966
1,327	33,128	704,186	431,220
2,342	51,215	123,444	82,777
3,356	-0,248	16,701	8,377
4,371	5,512	3,151	1,641
5,386	-38,626	0,599	0,223
6,400	-200,000	0,008	0,233
7,415	87,293	-0,274	-0,214
8,429	142,698	-0,347	-0,327
9,444	-6,710	-0,354	-0,170
10,459	-24,134	-0,364	-0,153
11,473	-8,318	-0,313	-0,148
12,488	-33,882	-0,250	-0,097
13,502	-44,377	-0,377	-0,133
14,517	-91,287	-0,346	-0,069
15,531	107,541	-0,314	-0,264
16,546	-23,311	-0,343	-0,145
17,561	259,133	-0,270	-0,330
18,575	-23,758	-0,219	-0,092
19,590	115,659	-0,267	-0,231
20,604	-87,963	-0,303	0,064
21,619	79,954	-0,432	-0,328
22,634	106,558	-0,453	-0,380
23,648	93,767	-0,484	-0,387
24,663	5,208	-0,476	-0,247
25,677	-10,791	-0,284	-0,132
26,692	120,773	-0,299	-0,262
27,707	52,206	-0,256	-0,172
28,721	96,169	-0,348	-0,281
29,736	241,947	-0,312	-0,369
30,750	9,567	-0,450	-0,240
31,765	-17,128	-0,445	-0,197
32,780	217,804	-0,325	-0,367
33,794	144,157	-0,286	-0,270
34,809	62,903	-0,276	-0,194
35,823	134,416	-0,372	-0,341
36,838	387,968	-0,323	-0,473
37,853	55,004	-0,490	-0,333
38,867	132,623	-0,292	-0,266
39,882	44,696	-0,368	-0,238
40,896	135,864	-0,268	-0,246
41,911	47,800	-0,410	-0,270
42,926	49,901	-0,262	-0,174
43,940	170,648	-0,228	-0,230
44,955	75,181	-0,332	-0,247
45,969	174,997	-0,275	-0,281
46,984	82,599	-0,233	-0,179
47,999	27,415	-0,363	-0,215
49,013	60,658	-0,284	-0,198
50,028	151,474	-0,326	-0,313
51,042	135,381	-0,317	-0,291
52,057	50,773	-0,347	-0,231
53,071	71,031	-0,317	-0,231
54,086	65,683	-0,385	-0,275
55,101	25,827	-0,440	-0,258
56,115	98,987	-0,291	-0,236
57,130	-22,132	-0,235	-0,100
58,144	98,520	-0,381	-0,309
59,159	85,975	-0,290	-0,225
60,174	-21,467	-0,355	-0,152
61,188	20,725	-0,463	-0,263
62,203	46,323	-0,279	-0,182
63,217	33,428	-0,299	-0,182
64,232	95,264	-0,287	-0,230
65,247	-44,388	-0,401	-0,141
66,261	83,607	-0,340	-0,261
67,276	-27,235	-0,367	-0,150
68,290	424,403	-0,222	-0,338
69,305	13,200	-0,308	-0,167
70,320	101,023	-0,302	-0,247
71,334	229,985	-0,245	-0,282
72,349	88,582	-0,317	-0,248
73,363	-54,114	-0,312	-0,099
74,378	-45,930	-0,339	-0,117
75,393	41,943	-0,305	-0,194
76,407	-91,603	-0,390	-0,077
77,422	99,149	-0,247	-0,201
78,436	-7,912	-0,398	-0,188
79,451	-47,621	-0,397	-0,135
80,466	91,105	-0,314	-0,247
81,480	49,976	-0,334	-0,221
82,495	84,213	-0,293	-0,225
83,509	120,472	-0,229	-0,200
84,524	22,771	-0,238	-0,137
85,539	-160,219	-0,262	0,010
86,553	125,302	-0,270	-0,239
87,568	-10,180	-0,340	-0,158
88,582	198,838	-0,193	-0,208
89,597	91,634	-0,176	-0,139
90,611	-106,865	-0,291	-0,045
91,626	124,906	-0,222	-0,197
92,641	8,506	-0,400	-0,211
93,655	33,478	-0,334	-0,203
94,670	63,902	-0,328	-0,231
95,684	-22,187	-0,274	-0,116
96,699	38,804	-0,311	-0,194
97,714	588,902	-0,146	-0,254
98,728	42,832	-0,343	-0,219
99,743	77,210	-0,293	-0,218
100,757	118,782	-0,151	-0,131
101,772	171,725	-0,293	-0,296
102,787	-12,319	-0,314	-0,144
103,801	229,981	-0,272	-0,312
104,816	253,271	-0,214	-0,256
105,830	60,492	-0,262	-0,182
106,845	344,666	-0,104	-0,143
107,860	102,167	-0,204	-0,167
108,874	-32,543	-0,225	-0,087
109,889	65,570	-0,301	-0,213
110,903	13,371	-0,260	-0,141
111,918	-37,430	-0,400	-0,149
112,933	-36,688	-0,304	-0,114
113,947	130,666	-0,191	-0,171
114,962	-78,570	-0,267	-0,064
115,976	22,560	-0,220	-0,126
116,991	-104,852	-0,320	-0,051
118,006	184,337	-0,363	-0,377
119,020	-64,717	-0,202	-0,057
120,035	71,631	-0,169	-0,123
121,049	23,244	-0,227	-0,130
122,064	-7,154	-0,278	-0,131
123,079	52,865	-0,239	-0,160
124,093	438,569	-0,228	-0,349
125,108	117,186	-0,183	-0,158
126,122	383,735	-0,192	-0,278
127,137	-85,326	-0,266	-0,058
128,151	-131,396	-0,243	0,022
129,166	4,142	-0,313	-0,160
130,181	51,230	-0,271	-0,180
131,195	57,257	-0,325	-0,222
132,210	229,684	-0,172	-0,197
133,224	120,655	-0,065	-0,056
134,239	163,472	-0,170	-0,167
135,254	56,663	-0,293	-0,199
136,268	-105,808	-0,160	-0,025
137,283	-112,137	-0,362	-0,050
138,297	63,933	-0,177	-0,124
139,312	70,386	-0,432	-0,312
140,327	38,213	-0,298	-0,185
141,341	128,440	-0,269	-0,239
142,356	531,483	-0,130	-0,216
143,370	300,901	-0,180	-0,233
144,385	-17,029	-0,170	-0,075
145,400	-106,205	-0,403	-0,062
146,414	-200,000	-0,043	-0,166
147,429	83,496	-0,335	-0,255
148,443	228,657	-0,183	-0,209
149,458	126,064	-0,260	-0,230
150,473	-200,000	-0,011	-0,107
151,487	-120,362	-0,225	0,026
152,502	321,535	-0,121	-0,162
153,516	57,441	-0,265	-0,181
154,531	158,763	-0,318	-0,309
155,546	-72,007	-0,325	-0,084
156,560	21,461	-0,146	-0,083
157,575	143,077	-0,130	-0,121
158,589	35,346	-0,296	-0,181
159,604	118,866	-0,233	-0,201
160,619	-3,533	-0,303	-0,147
161,633	26,207	-0,374	-0,218
162,648	800,000	-0,069	-0,206
163,662	141,176	-0,211	-0,195
164,677	-100,464	-0,132	0,023
165,692	301,556	-0,187	-0,242
166,706	129,248	-0,247	-0,220
167,721	143,924	-0,237	-0,221
168,735	76,275	-0,249	-0,184
169,750	502,512	-0,109	-0,176
170,764	-36,522	-0,274	-0,102
171,779	138,170	-0,172	-0,157
172,794	448,638	-0,143	-0,221
173,808	260,260	-0,174	-0,210
174,823	6,967	-0,178	-0,092
175,837	-41,915	-0,257	-0,091
176,852	-103,970	-0,428	-0,069
177,867	135,809	-0,209	-0,190
178,881	-16,128	-0,325	-0,143
179,896	800,000	-0,092	-0,184
180,910	-36,127	-0,265	-0,099
181,925	482,816	-0,191	-0,304
182,940	141,868	-0,148	-0,136
183,954	235,498	-0,200	-0,231
184,969	-2,248	-0,177	-0,086
185,983	-128,835	-0,271	-0,026
186,998	94,487	-0,103	-0,082
188,013	477,830	-0,173	-0,274
189,027	262,310	-0,208	-0,252
190,042	18,421	-0,272	-0,151
191,056	198,156	-0,208	-0,222
192,071	302,327	-0,136	-0,175
193,086	85,533	-0,239	-0,183
194,100	800,000	-0,127	-0,256
195,115	47,894	-0,198	-0,128
196,129	95,674	-0,183	-0,145
197,144	106,136	-0,175	-0,144
198,159	205,996	-0,178	-0,193
199,173	114,599	-0,175	-0,149
200,188	436,839	-0,093	-0,141
201,202	-35,615	-0,194	-0,073
202,217	85,226	-0,036	-0,027
203,232	-182,808	-0,189	-0,002
204,246	4,348	-0,220	-0,112
205,261	122,704	-0,172	-0,149
206,275	59,196	-0,243	-0,166
207,290	170,168	-0,265	-0,264
208,304	160,482	-0,190	-0,185
209,319	-80,398	-0,135	-0,031
210,334	131,816	-0,170	-0,152
211,348	21,806	-0,279	-0,158
212,363	-121,786	-0,270	-0,031
213,377	-80,760	-0,160	-0,037
214,392	-200,000	-0,072	-0,247
215,407	96,561	-0,069	0,055
216,421	-116,096	-0,315	-0,040
217,436	88,724	-0,183	-0,141
218,450	146,897	-0,162	-0,151
219,465	-131,603	-0,215	-0,019
220,480	403,317	-0,125	-0,182
221,494	800,000	-0,079	-0,183
222,509	-79,738	-0,176	-0,041
223,523	91,186	-0,195	-0,151
224,538	49,031	-0,269	-0,175
225,553	-137,038	-0,273	0,021
226,567	-147,571	-0,356	-0,020
227,582	110,878	-0,248	-0,207
228,596	189,794	-0,168	-0,175
229,611	800,000	-0,106	-0,207
230,626	71,411	-0,156	-0,112
231,640	-3,632	-0,205	-0,099
232,655	32,573	-0,258	-0,155
233,669	758,913	-0,132	-0,250
234,684	664,440	-0,122	-0,220
235,699	159,486	-0,189	-0,183
236,713	36,948	-0,162	-0,099
237,728	-108,728	-0,277	-0,041
238,742	-18,792	-0,227	-0,097
239,757	120,111	-0,209	-0,180
240,772	-44,026	-0,213	-0,074
241,786	203,487	-0,157	-0,169
242,801	-93,880	-0,308	-0,058
243,815	68,523	-0,098	-0,069
244,830	218,214	-0,156	-0,172
245,844	180,031	-0,141	-0,144
246,859	86,120	-0,227	-0,173
247,874	102,347	-0,145	-0,117
248,888	67,078	-0,207	-0,146
249,903	344,785	-0,074	-0,101
250,917	12,040	-0,231	-0,122
251,932	158,339	-0,226	-0,218
252,947	41,743	-0,170	-0,106
253,961	-48,934	-0,206	-0,068
254,976	800,000	-0,145	-0,328
255,990	-16,505	-0,256	-0,112
257,005	-200,000	-0,031	-0,152
258,020	11,562	-0,092	-0,049
259,034	-164,052	-0,152	0,005
260,049	-114,876	-0,185	0,024
261,063	-112,657	-0,150	-0,020
262,078	200,017	-0,190	-0,202
263,093	19,859	-0,195	-0,109
264,107	202,430	-0,141	-0,151
265,122	-29,179	-0,262	-0,103
266,136	-200,000	-0,021	-0,167
267,151	-24,779	-0,166	-0,068
268,166	-109,279	-0,158	0,023
269,180	-19,032	-0,216	-0,093
270,195	-7,702	-0,126	-0,059
271,209	800,000	-0,043	-0,122
272,224	425,924	-0,097	-0,146
273,239	-90,478	-0,175	-0,035
274,253	496,827	-0,131	-0,209
275,268	800,000	-0,123	-0,243
276,282	103,584	-0,264	-0,214
277,297	-15,799	-0,243	-0,107
278,312	-53,498	-0,170	-0,053
279,326	318,302	-0,129	-0,169
280,341	485,014	-0,065	-0,103
281,355	71,419	-0,153	-0,110
282,370	-32,453	-0,209	-0,080
283,384	-117,803	-0,134	-0,016
284,399	225,354	-0,228	-0,255
285,414	195,615	-0,163	-0,171
286,428	84,923	-0,183	-0,139
287,443	181,000	-0,150	-0,152
288,457	423,508	-0,112	-0,167
289,472	655,994	-0,096	-0,171
290,487	46,824	-0,221	-0,141
291,501	-83,757	-0,300	-0,066
292,516	86,786	-0,167	-0,127
293,530	-200,000	-0,018	-0,100
294,545	270,716	-0,142	-0,173
295,560	174,969	-0,096	-0,096
296,574	-15,611	-0,273	-0,120
297,589	393,915	-0,099	-0,143
298,603	-76,480	-0,188	-0,045
299,618	32,873	-0,243	-0,145
300,633	660,996	-0,058	-0,104
301,647	-142,228	-0,111	0,007
302,662	800,000	-0,068	-0,141
303,676	106,194	-0,121	-0,098
304,691	284,591	-0,153	-0,191
305,706	631,084	-0,104	-0,182
306,720	183,190	-0,206	-0,210
307,735	-120,842	-0,077	0,009
308,749	-51,876	-0,116	-0,037
309,764	-124,436	-0,280	-0,030
310,779	396,585	-0,155	-0,223
311,793	800,000	-0,054	-0,143
312,808	-44,462	-0,124	-0,042
313,822	-123,079	-0,143	-0,016
314,837	-200,000	-0,021	-0,140
315,852	-56,300	-0,100	-0,031
316,866	800,000	-0,020	-0,050
317,881	308,133	-0,084	-0,108
318,895	15,289	-0,302	-0,162
319,910	-127,763	-0,255	-0,025
320,925	131,891	-0,087	-0,077
321,939	-139,242	-0,187	0,014
322,954	-38,752	-0,185	-0,067
323,968	-87,100	-0,051	-0,011
324,983	132,453	-0,225	-0,200
325,997	800,000	-0,051	-0,140
327,012	-84,983	-0,177	-0,038
328,027	469,728	-0,078	-0,121
329,041	123,186	-0,136	-0,117
330,056	38,352	-0,047	-0,029
331,070	-200,000	-0,003	-0,132
332,085	-200,000	-0,006	-0,043
333,100	798,022	-0,029	-0,054
334,114	-54,258	-0,269	-0,083
335,129	-41,677	-0,220	-0,077
336,143	-114,567	-0,124	-0,016
337,158	800,000	-0,052	-0,110
338,173	223,517	-0,114	-0,127
339,187	-47,746	-0,129	0,043
340,202	149,885	-0,112	-0,104
341,216	-109,499	-0,133	-0,019
342,231	-5,021	-0,130	-0,061
343,246	87,081	-0,149	-0,113
344,260	56,378	-0,185	-0,124
345,275	-200,000	0,003	-0,080
346,289	224,656	-0,129	-0,144
347,304	-139,517	-0,088	0,006
348,319	142,176	-0,130	-0,118
349,333	0,443	-0,193	-0,094
350,348	15,557	-0,186	-0,100
351,362	-23,728	-0,053	0,022
352,377	-77,888	-0,056	-0,013
353,392	-122,248	-0,160	0,018
354,406	30,485	-0,126	0,073
355,421	208,791	1311,997	1410,650
356,435	160,672	1472,375	1411,139
