DTS Sentinel unit serial number:	SN410029Multiplexer serial number:	ORYXHardware model number:	OX2-SRSoftware version number:	ORYX F/W v4,00 Oryx Data Collector v3.7.2.0data status	okinstallation	B3 Nyhavnadifferential loss correction	single-endedforward channel	channel 1reverse channel	N/Adate	2023/11/29time	18:17:30forward acquisition time	300,00reverse acquisition time	0,00gamma	499,1914k internal	0,3210k external	0,3210temperature offset calibration	1,0000default loss term (dB/km)	0,3820temperature slope calibration	1,0000multiplexer offset coefficient	1,0000multiplexer slope coefficient	1,0000fibre end	0,00T internal ref (°C)	11,18T ext. ref 1 (°C)	-4,07T ext. ref 2 (°C)	-4,17length (m)	temperature (°C)	Stokes	anti-Stokes-744,400	28,410	-0,362	-0,221
-743,385	-200,000	-0,019	0,187
-742,371	-200,000	-0,036	-0,162
-741,356	800,000	0,075	0,183
-740,342	-143,146	-0,146	-0,010
-739,327	-200,000	-0,009	0,416
-738,312	800,000	-0,119	-0,297
-737,298	295,217	-0,158	0,211
-736,283	283,788	-0,193	-0,252
-735,269	-200,000	0,045	0,249
-734,254	117,280	-0,131	-0,117
-733,239	-172,916	-0,129	-0,003
-732,225	800,000	-0,116	-0,300
-731,210	38,034	0,195	0,125
-730,196	66,344	-0,090	0,066
-729,181	800,000	0,029	-0,077
-728,167	-200,000	0,005	-0,054
-727,152	-200,000	0,026	-0,086
-726,137	241,935	0,017	-0,021
-725,123	-54,995	-0,064	-0,021
-724,108	14,359	-0,265	-0,149
-723,094	132,135	0,091	-0,085
-722,079	336,691	-0,098	-0,139
-721,064	378,403	-0,054	0,080
-720,050	99,120	0,048	0,040
-719,035	303,361	-0,028	0,038
-718,021	314,737	-0,020	-0,027
-717,006	113,177	0,041	-0,036
-715,991	71,609	-0,091	-0,068
-714,977	-200,000	-0,006	-0,075
-713,962	-118,201	-0,136	-0,017
-712,948	-200,000	0,003	-0,034
-711,933	-200,000	0,028	-0,156
-710,918	-200,000	0,025	-0,099
-709,904	97,219	-0,130	-0,108
-708,889	-17,917	-0,154	-0,070
-707,875	-10,656	-0,040	-0,019
-706,860	800,000	0,043	-0,106
-705,845	286,410	0,074	-0,097
-704,831	126,563	0,076	0,070
-703,816	46,015	-0,066	0,044
-702,802	143,375	-0,054	-0,052
-701,787	79,921	-0,119	-0,092
-700,772	-200,000	-0,006	-0,161
-699,758	800,000	-0,088	-0,184
-698,743	318,282	0,010	-0,013
-697,729	5,975	0,048	0,026
-696,714	-50,970	-0,067	-0,022
-695,699	800,000	0,034	-0,096
-694,685	610,186	0,086	-0,156
-693,670	-200,000	-0,017	-0,107
-692,656	-41,617	-0,056	-0,021
-691,641	-35,352	0,111	0,044
-690,627	522,004	-0,057	0,097
-689,612	-200,000	0,010	-0,089
-688,597	-200,000	-0,005	0,032
-687,583	-173,094	0,110	-0,002
-686,568	-200,000	-0,002	-0,132
-685,554	49,621	-0,098	0,067
-684,539	599,485	-0,040	0,072
-683,524	19,478	0,165	0,096
-682,510	-65,279	-0,019	-0,006
-681,495	-200,000	-0,029	0,130
-680,481	-200,000	-0,008	-0,051
-679,466	-94,832	-0,164	0,032
-678,451	190,452	0,050	0,054
-677,437	-30,250	-0,066	-0,027
-676,422	800,000	-0,030	0,090
-675,408	266,485	0,054	0,069
-674,393	-97,792	-0,162	-0,030
-673,378	-33,291	0,080	-0,032
-672,364	-200,000	0,004	-0,040
-671,349	483,132	0,020	-0,033
-670,335	11,618	-0,038	-0,021
-669,320	-200,000	0,016	0,080
-668,305	39,481	0,065	0,042
-667,291	-73,355	-0,237	0,062
-666,276	-50,814	-0,035	-0,012
-665,262	-200,000	-0,012	-0,154
-664,247	385,005	-0,020	0,030
-663,232	800,000	0,034	-0,092
-662,218	-165,327	-0,140	-0,004
-661,203	-38,604	0,013	0,005
-660,189	-200,000	0,000	-0,119
-659,174	-200,000	0,001	0,139
-658,159	193,561	-0,140	-0,153
-657,145	614,650	-0,071	-0,130
-656,130	-200,000	-0,016	-0,152
-655,116	-81,928	0,095	-0,022
-654,101	274,356	0,040	-0,052
-653,086	-200,000	0,021	0,085
-652,072	-200,000	-0,015	-0,056
-651,057	-125,416	-0,131	-0,014
-650,043	-200,000	0,025	-0,214
-649,028	-5,560	-0,074	0,037
-648,014	-200,000	-0,023	-0,132
-646,999	-1,017	0,103	-0,052
-645,984	-48,892	-0,059	0,020
-644,970	110,284	-0,048	-0,042
-643,955	-109,474	-0,033	-0,005
-642,941	207,742	0,050	-0,056
-641,926	429,750	-0,068	-0,107
-640,911	483,143	-0,040	-0,067
-639,897	-62,538	-0,090	-0,027
-638,882	550,505	-0,030	0,052
-637,868	-200,000	0,009	0,089
-636,853	-57,957	-0,110	-0,034
-635,838	-200,000	0,012	-0,221
-634,824	-147,881	0,062	0,004
-633,809	166,075	-0,130	-0,133
-632,795	-66,952	0,116	-0,033
-631,780	-22,731	-0,036	-0,016
-630,765	-200,000	-0,007	-0,120
-629,751	-109,912	-0,108	-0,016
-628,736	-84,313	-0,123	-0,028
-627,722	231,658	0,066	0,078
-626,707	595,368	0,030	-0,054
-625,692	-200,000	-0,016	0,083
-624,678	-103,529	0,103	-0,017
-623,663	-200,000	-0,051	-0,225
-622,649	136,014	-0,135	-0,127
-621,634	130,666	-0,027	-0,025
-620,619	800,000	0,070	-0,182
-619,605	800,000	-0,049	-0,147
-618,590	-200,000	0,015	-0,051
-617,576	-94,624	0,078	-0,015
-616,561	-28,840	-0,089	-0,037
-615,546	-200,000	-0,002	-0,039
-614,532	8,961	-0,091	-0,049
-613,517	4,272	-0,111	-0,058
-612,503	-6,560	-0,110	-0,054
-611,488	-39,154	-0,044	0,017
-610,474	123,678	0,056	0,051
-609,459	48,096	0,083	-0,056
-608,444	-115,009	-0,124	-0,017
-607,430	563,434	0,023	0,040
-606,415	50,054	-0,046	0,031
-605,401	129,168	-0,009	0,008
-604,386	800,000	-0,092	0,195
-603,371	126,777	-0,098	-0,090
-602,357	800,000	-0,039	0,079
-601,342	800,000	-0,043	-0,127
-600,328	-34,760	-0,139	-0,054
-599,313	-57,202	0,116	-0,037
-598,298	255,589	0,065	0,081
-597,284	-200,000	0,024	-0,173
-596,269	-85,316	0,076	0,017
-595,255	800,000	-0,046	0,104
-594,240	78,596	-0,084	-0,064
-593,225	-74,299	-0,078	-0,020
-592,211	-103,139	0,103	0,017
-591,196	631,272	-0,054	-0,100
-590,182	-94,130	0,040	0,008
-589,167	379,774	-0,044	-0,065
-588,152	800,000	-0,017	0,037
-587,138	-132,531	-0,078	0,007
-586,123	320,704	0,020	-0,027
-585,109	4,511	-0,090	-0,047
-584,094	316,089	0,047	-0,064
-583,079	-134,640	-0,129	-0,011
-582,065	-15,404	-0,103	0,047
-581,050	800,000	0,043	0,129
-580,036	-200,000	0,007	0,142
-579,021	41,935	-0,159	0,104
-578,006	435,457	-0,033	-0,052
-576,992	236,811	0,033	0,040
-575,977	187,713	0,003	-0,003
-574,963	391,238	0,044	-0,066
-573,948	377,018	0,015	0,022
-572,934	-31,092	-0,145	0,059
-571,919	61,647	-0,145	0,104
-570,904	-200,000	-0,008	-0,104
-569,890	-1,842	0,106	-0,053
-568,875	-200,000	0,019	-0,090
-567,861	-24,592	-0,099	0,042
-566,846	800,000	0,032	0,097
-565,831	-200,000	0,006	0,089
-564,817	-200,000	-0,001	0,113
-563,802	-200,000	0,013	-0,132
-562,788	231,547	0,060	-0,072
-561,773	176,654	-0,089	0,094
-560,758	316,992	0,061	-0,083
-559,744	800,000	0,101	0,220
-558,729	800,000	-0,004	0,011
-557,715	-200,000	0,002	-0,142
-556,700	-91,635	-0,038	0,008
-555,685	-82,933	-0,017	0,004
-554,671	19,786	-0,021	-0,012
-553,656	-200,000	-0,008	-0,150
-552,642	-60,398	0,050	-0,015
-551,627	-200,000	0,016	-0,076
-550,612	-73,115	0,060	0,016
-549,598	158,303	-0,146	-0,146
-548,583	-24,450	0,051	-0,022
-547,569	26,092	0,203	0,122
-546,554	-200,000	0,005	0,036
-545,539	740,916	-0,048	-0,094
-544,525	70,976	0,106	0,079
-543,510	15,804	0,081	-0,046
-542,496	800,000	0,006	-0,018
-541,481	800,000	0,047	-0,094
-540,466	-127,682	-0,128	0,013
-539,452	-200,000	-0,009	0,090
-538,437	292,938	0,066	-0,087
-537,423	-23,889	0,120	-0,052
-536,408	330,947	-0,053	0,074
-535,393	337,176	-0,043	-0,060
-534,379	24,704	0,111	-0,066
-533,364	785,475	0,042	-0,084
-532,350	-200,000	-0,012	0,077
-531,335	94,515	-0,087	-0,071
-530,321	187,334	-0,048	-0,052
-529,306	745,976	-0,066	0,129
-528,291	118,343	0,067	0,060
-527,277	432,586	-0,019	-0,030
-526,262	0,572	-0,117	-0,060
-525,248	75,552	-0,042	0,032
-524,233	738,907	0,014	0,028
-523,218	-200,000	0,018	-0,073
-522,204	-200,000	0,024	0,163
-521,189	-86,212	-0,035	0,008
-520,175	-200,000	-0,012	-0,064
-519,160	110,621	-0,086	-0,074
-518,145	-14,915	-0,058	-0,027
-517,131	45,788	0,125	0,083
-516,116	-200,000	0,009	0,066
-515,102	-12,251	-0,126	-0,059
-514,087	-200,000	0,011	-0,071
-513,072	613,563	-0,046	-0,083
-512,058	-95,968	-0,086	0,016
-511,043	-0,244	0,049	0,025
-510,029	-121,585	0,116	0,014
-509,014	-200,000	0,013	-0,058
-507,999	-2,836	0,140	0,070
-506,985	-94,279	0,075	-0,015
-505,970	-200,000	0,003	-0,032
-504,956	61,926	-0,036	-0,026
-503,941	-200,000	-0,009	0,039
-502,926	467,979	0,014	0,023
-501,912	800,000	0,054	-0,124
-500,897	-29,202	0,093	-0,038
-499,883	-129,291	-0,239	0,024
-498,868	486,119	-0,021	0,034
-497,853	800,000	-0,007	0,020
-496,839	-200,000	0,004	0,016
-495,824	293,371	0,065	-0,086
-494,810	800,000	0,053	0,155
-493,795	-170,871	-0,033	-0,001
-492,781	2,157	-0,130	0,067
-491,766	-200,000	0,021	-0,069
-490,751	-4,442	-0,095	0,047
-489,737	17,826	-0,086	0,049
-488,722	151,443	0,112	0,109
-487,708	-70,029	0,129	0,035
-486,693	-200,000	0,012	-0,040
-485,678	113,524	0,046	0,040
-484,664	201,735	-0,033	-0,037
-483,649	-60,450	0,065	-0,020
-482,635	79,813	0,074	0,057
-481,620	800,000	0,019	0,047
-480,605	395,865	-0,008	-0,011
-479,591	-35,556	-0,128	0,050
-478,576	160,417	0,052	-0,052
-477,562	-200,000	0,021	0,084
-476,547	15,111	-0,063	0,035
-475,532	-90,284	-0,037	0,008
-474,518	96,201	-0,064	0,053
-473,503	12,910	0,025	-0,014
-472,489	800,000	0,052	0,135
-471,474	-200,000	-0,018	-0,058
-470,459	91,622	0,103	-0,083
-469,445	-57,870	-0,066	0,021
-468,430	-200,000	-0,045	-0,143
-467,416	547,387	-0,018	-0,032
-466,401	-55,516	0,154	0,049
-465,386	49,740	0,143	0,096
-464,372	8,663	-0,024	-0,013
-463,357	800,000	-0,069	0,139
-462,343	47,740	0,083	-0,055
-461,328	225,188	-0,079	-0,092
-460,313	-200,000	0,003	0,021
-459,299	57,977	0,023	0,016
-458,284	-76,067	-0,045	-0,011
-457,270	800,000	-0,046	0,096
-456,255	178,243	-0,047	0,049
-455,241	327,451	-0,102	0,140
-454,226	-200,000	0,021	0,080
-453,211	-200,000	0,023	0,091
-452,197	-200,000	0,014	0,115
-451,182	350,534	0,066	-0,094
-450,168	-200,000	-0,016	-0,074
-449,153	178,197	0,023	-0,025
-448,138	11,302	-0,083	0,045
-447,124	68,288	0,066	-0,048
-446,109	-200,000	0,022	-0,091
-445,095	189,280	0,091	0,098
-444,080	-145,451	-0,084	-0,005
-443,065	-75,971	-0,077	-0,019
-442,051	-143,641	0,072	0,005
-441,036	-200,000	0,022	0,098
-440,022	-43,132	-0,122	-0,044
-439,007	104,086	-0,091	-0,077
-437,992	-173,053	0,096	-0,002
-436,978	-115,417	0,061	0,008
-435,963	-80,371	0,066	-0,016
-434,949	-58,903	-0,022	0,007
-433,934	-84,382	0,064	0,014
-432,919	-200,000	0,021	-0,093
-431,905	17,582	0,035	-0,020
-430,890	-125,957	-0,061	0,006
-429,876	120,697	0,072	-0,064
-428,861	2,357	0,031	0,016
-427,846	-124,948	-0,119	0,013
-426,832	-200,000	-0,014	-0,144
-425,817	768,015	-0,036	0,071
-424,803	153,283	-0,030	0,030
-423,788	-13,176	-0,084	-0,039
-422,773	-200,000	-0,013	0,075
-421,759	-200,000	-0,021	0,097
-420,744	-64,732	-0,111	-0,032
-419,730	-200,000	0,000	-0,047
-418,715	783,254	-0,007	-0,014
-417,701	65,770	-0,110	-0,080
-416,686	259,873	0,032	0,040
-415,671	-40,219	0,112	0,041
-414,657	727,188	-0,035	0,068
-413,642	-135,704	0,113	0,009
-412,628	152,091	-0,059	0,058
-411,613	156,690	-0,032	0,032
-410,598	271,630	0,098	-0,124
-409,584	-11,921	0,047	0,022
-408,569	220,986	-0,139	0,160
-407,555	-90,414	-0,110	0,023
-406,540	246,854	-0,089	0,108
-405,525	-50,647	0,083	0,028
-404,511	95,688	0,087	-0,071
-403,496	166,924	-0,073	-0,075
-402,482	-200,000	-0,024	-0,080
-401,467	-26,977	0,070	-0,029
-400,452	24,280	0,096	0,057
-399,438	784,040	0,037	-0,072
-398,423	289,373	-0,054	-0,070
-397,409	215,498	0,074	-0,084
-396,394	108,713	-0,081	0,070
-395,379	-200,000	0,006	-0,107
-394,365	-200,000	-0,006	-0,131
-393,350	-24,934	0,174	0,074
-392,336	100,763	0,045	0,037
-391,321	800,000	0,046	-0,094
-390,306	-200,000	-0,005	0,033
-389,292	541,881	0,057	0,098
-388,277	800,000	-0,066	-0,170
-387,263	-200,000	0,003	0,015
-386,248	252,548	0,041	-0,050
-385,233	-154,609	0,093	-0,004
-384,219	800,000	0,009	0,030
-383,204	-200,000	0,002	-0,070
-382,190	-11,414	-0,046	-0,022
-381,175	-97,428	0,075	0,014
-380,160	-131,010	-0,057	0,005
-379,146	91,517	0,021	0,017
-378,131	354,601	-0,037	0,052
-377,117	-200,000	0,022	0,185
-376,102	287,461	-0,025	-0,032
-375,088	187,389	-0,041	0,044
-374,073	-199,136	-0,036	-0,000
-373,058	8,497	0,077	0,041
-372,044	45,929	0,111	0,074
-371,029	28,391	-0,139	0,084
-370,015	-50,518	0,025	0,008
-369,000	800,000	0,012	0,034
-367,985	-53,162	-0,135	-0,044
-366,971	-200,000	0,001	0,012
-365,956	-18,937	0,115	0,051
-364,942	158,175	0,109	0,108
-363,927	124,778	0,087	0,078
-362,912	230,329	0,030	0,035
-361,898	-200,000	-0,014	-0,130
-360,883	-42,642	-0,083	0,030
-359,869	75,258	0,039	0,029
-358,854	-129,087	0,020	0,002
-357,839	328,609	0,042	0,057
-356,825	519,044	-0,043	0,073
-355,810	471,736	-0,018	-0,029
-354,796	800,000	-0,020	-0,041
-353,781	-24,321	0,050	-0,021
-352,766	-7,802	-0,149	0,071
-351,752	-200,000	0,024	-0,087
-350,737	149,822	0,122	0,118
-349,723	-200,000	-0,018	0,082
-348,708	800,000	0,048	-0,095
-347,693	404,850	0,067	-0,102
-346,679	-37,197	0,099	0,038
-345,664	-200,000	0,038	0,126
-344,650	534,850	0,056	-0,096
-343,635	295,861	0,020	0,027
-342,620	81,034	-0,101	0,078
-341,606	-1,365	0,036	-0,018
-340,591	125,943	0,034	-0,031
-339,577	-94,842	0,079	0,015
-338,562	17,779	-0,086	0,049
-337,548	79,672	0,094	-0,072
-336,533	-73,042	0,129	-0,034
-335,518	-200,000	-0,020	0,124
-334,504	341,292	0,062	-0,086
-333,489	-200,000	-0,017	0,153
-332,475	-126,695	-0,054	-0,006
-331,460	140,702	-0,020	0,019
-330,445	498,207	-0,060	0,099
-329,431	800,000	0,034	0,083
-328,416	757,054	0,044	-0,085
-327,402	-200,000	0,006	0,046
-326,387	0,655	0,020	-0,010
-325,372	130,223	-0,050	-0,046
-324,358	800,000	0,037	-0,101
-323,343	315,815	0,035	-0,047
-322,329	800,000	0,031	-0,096
-321,314	203,112	0,076	0,084
-320,299	-17,787	-0,042	-0,019
-319,285	800,000	0,032	0,098
-318,270	177,344	-0,119	-0,124
-317,256	-98,222	-0,160	0,029
-316,241	-56,314	-0,068	0,021
-315,226	-115,083	0,119	-0,016
-314,212	38,176	0,068	-0,043
-313,197	91,949	-0,094	0,075
-312,183	-111,245	0,021	-0,003
-311,168	53,483	-0,034	-0,023
-310,153	-122,813	-0,152	0,017
-309,139	-170,689	-0,198	-0,005
-308,124	158,383	-0,012	0,012
-307,110	-79,368	0,172	-0,041
-306,095	288,286	0,044	-0,057
-305,080	800,000	0,049	-0,127
-304,066	-200,000	0,052	-0,261
-303,051	-200,000	0,032	-0,129
-302,037	238,780	-0,084	-0,100
-301,022	-200,000	0,013	-0,059
-300,008	56,749	0,104	-0,072
-298,993	-6,944	0,079	-0,038
-297,978	-97,961	0,098	0,018
-296,964	800,000	-0,051	0,140
-295,949	-11,878	-0,143	-0,067
-294,935	-200,000	0,014	-0,129
-293,920	70,261	0,085	0,063
-292,905	197,910	-0,038	0,041
-291,891	-200,000	0,019	0,096
-290,876	69,180	0,132	0,097
-289,862	127,733	-0,135	-0,122
-288,847	-200,000	0,009	-0,093
-287,832	435,600	-0,045	-0,070
-286,818	-99,277	0,068	-0,012
-285,803	-104,983	0,069	-0,011
-284,789	-200,000	-0,004	-0,057
-283,774	800,000	0,030	0,081
-282,759	-146,952	-0,080	0,005
-281,745	139,436	-0,144	-0,135
-280,730	-200,000	0,038	-0,129
-279,716	-200,000	-0,015	-0,071
-278,701	-200,000	0,018	-0,088
-277,686	-42,953	0,084	0,030
-276,672	-33,918	0,218	0,085
-275,657	9,132	-0,131	0,071
-274,643	-200,000	0,020	-0,097
-273,628	356,210	0,019	0,027
-272,613	-138,095	-0,151	-0,012
-271,599	10,914	0,127	0,069
-270,584	-87,263	-0,021	-0,005
-269,570	670,304	0,113	0,209
-268,555	-200,000	-0,002	0,123
-267,540	173,443	-0,015	0,016
-266,526	708,415	-0,050	-0,095
-265,511	-22,337	0,029	0,013
-264,497	-144,289	0,019	0,001
-263,482	10,950	0,213	0,115
-262,467	-18,457	0,118	0,052
-261,453	-26,283	0,070	0,029
-260,438	-200,000	-0,018	0,069
-259,424	800,000	0,038	-0,117
-258,409	380,612	0,032	0,047
-257,395	-200,000	0,048	0,168
-256,380	101,267	0,051	0,042
-255,365	800,000	0,020	-0,057
-254,351	112,624	0,065	-0,056
-253,336	-200,000	-0,004	-0,018
-252,322	-151,229	-0,101	0,005
-251,307	-127,966	-0,152	0,015
-250,292	-144,881	0,101	0,006
-249,278	46,725	-0,033	0,022
-248,263	-200,000	0,006	0,100
-247,249	29,835	-0,062	0,037
-246,234	6,404	0,090	0,047
-245,219	-200,000	0,004	-0,062
-244,205	800,000	0,057	-0,175
-243,190	800,000	0,022	0,052
-242,176	-200,000	0,013	0,092
-241,161	352,909	-0,114	0,161
-240,146	800,000	0,055	0,113
-239,132	-200,000	0,013	-0,067
-238,117	-127,250	-0,061	0,006
-237,103	-6,240	0,051	0,025
-236,088	800,000	0,010	0,024
-235,073	67,427	-0,073	-0,053
-234,059	11,951	0,069	-0,038
-233,044	-200,000	0,012	0,171
-232,030	706,289	0,049	0,093
-231,015	-167,655	-0,047	-0,001
-230,000	-49,283	-0,108	-0,036
-228,986	-200,000	0,040	0,151
-227,971	662,980	0,012	0,021
-226,957	-200,000	0,022	-0,084
-225,942	800,000	0,026	0,079
-224,927	20,676	-0,112	-0,064
-223,913	-200,000	0,022	-0,135
-222,898	314,375	-0,054	-0,073
-221,884	-200,000	-0,001	-0,015
-220,869	-124,653	-0,129	-0,014
-219,855	-101,166	0,106	0,018
-218,840	-20,444	0,139	-0,060
-217,825	-200,000	-0,003	-0,043
-216,811	-200,000	0,042	-0,149
-215,796	99,415	-0,038	-0,031
-214,782	800,000	0,076	0,156
-213,767	-126,317	0,075	-0,008
-212,752	800,000	0,044	0,124
-211,738	-200,000	0,004	-0,102
-210,723	800,000	-0,039	0,079
-209,709	130,391	0,050	-0,046
-208,694	476,729	-0,034	0,055
-207,679	12,532	-0,044	-0,024
-206,665	-28,050	0,157	0,064
-205,650	-83,653	0,109	0,025
-204,636	446,236	0,041	-0,065
-203,621	509,532	0,043	0,071
-202,606	167,069	-0,120	0,121
-201,592	-109,910	-0,067	0,010
-200,577	354,963	-0,016	0,022
-199,563	-29,491	0,078	0,032
-198,548	145,275	-0,041	-0,039
-197,533	-200,000	0,007	0,120
-196,519	-119,039	0,020	0,002
-195,504	-173,693	-0,142	-0,003
-194,490	47,387	-0,123	0,081
-193,475	62,193	0,048	0,034
-192,460	800,000	0,026	0,054
-191,446	-200,000	0,028	0,111
-190,431	-200,000	-0,001	0,008
-189,417	800,000	-0,017	0,034
-188,402	-200,000	0,026	-0,107
-187,387	-200,000	0,009	-0,029
-186,373	-200,000	-0,018	-0,134
-185,358	100,241	-0,098	-0,080
-184,344	131,201	0,094	-0,086
-183,329	665,816	0,021	0,039
-182,315	-200,000	0,047	0,175
-181,300	19,926	-0,137	-0,078
-180,285	200,281	0,084	-0,092
-179,271	-160,027	0,063	-0,002
-178,256	3,381	0,065	-0,033
-177,242	653,140	-0,022	0,040
-176,227	71,190	-0,094	0,069
-175,212	472,413	-0,112	0,179
-174,198	52,949	-0,061	-0,041
-173,183	257,471	0,043	-0,052
-172,169	800,000	-0,051	-0,107
-171,154	-200,000	0,002	-0,049
-170,139	-200,000	0,008	0,129
-169,125	-89,614	0,220	-0,045
-168,110	317,715	0,031	-0,041
-167,096	800,000	-0,017	0,050
-166,081	49,992	0,091	0,061
-165,066	-13,820	-0,123	0,056
-164,052	-45,081	-0,112	-0,039
-163,037	-128,318	-0,021	0,002
-162,023	800,000	0,054	0,157
-161,008	567,179	0,080	0,139
-159,993	-114,898	-0,071	-0,010
-158,979	-200,000	0,001	-0,064
-157,964	98,353	-0,153	0,125
-156,950	31,772	-0,028	0,017
-155,935	41,446	-0,096	-0,062
-154,920	434,828	0,075	0,117
-153,906	800,000	0,048	0,115
-152,891	463,944	0,046	0,073
-151,877	656,686	0,017	-0,031
-150,862	-200,000	0,014	0,063
-149,847	-88,898	0,107	0,022
-148,833	378,467	-0,044	-0,063
-147,818	-40,978	0,090	0,033
-146,804	-51,045	-0,063	0,021
-145,789	65,958	0,029	0,021
-144,775	396,499	0,036	-0,053
-143,760	-47,481	-0,120	-0,041
-142,745	116,911	-0,074	-0,064
-141,731	-169,638	-0,008	0,000
-140,716	133,155	0,124	0,114
-139,702	-200,000	-0,015	0,137
-138,687	709,077	0,048	0,089
-137,672	-47,651	0,062	0,021
-136,658	-200,000	-0,008	0,128
-135,643	255,573	0,014	-0,016
-134,629	132,445	-0,095	0,087
-133,614	-200,000	0,007	0,148
-132,599	209,910	0,097	-0,108
-131,585	-77,523	0,093	0,023
-130,570	56,686	-0,136	0,094
-129,556	800,000	-0,071	-0,155
-128,541	800,000	0,025	-0,054
-127,526	245,747	-0,032	-0,039
-126,512	293,497	0,076	0,098
-125,497	800,000	0,020	0,052
-124,483	218,225	-0,068	0,077
-123,468	682,227	0,017	-0,031
-122,453	79,434	-0,064	-0,049
-121,439	-88,885	-0,036	-0,008
-120,424	700,070	0,082	-0,153
-119,410	-167,190	-0,180	0,005
-118,395	800,000	0,122	0,271
-117,380	-178,160	0,080	-0,001
-116,366	127,409	-0,085	-0,076
-115,351	-200,000	-0,008	-0,138
-114,337	230,154	0,054	-0,062
-113,322	-200,000	0,003	0,014
-112,307	-200,000	-0,025	-0,088
-111,293	-106,561	0,040	-0,006
-110,278	-77,864	0,075	0,018
-109,264	-162,625	-0,010	-0,000
-108,249	342,374	0,043	-0,060
-107,234	50,521	-0,179	-0,119
-106,220	-15,156	0,070	-0,032
-105,205	67,882	0,060	-0,043
-104,191	-78,828	0,086	-0,021
-103,176	-48,069	0,057	0,019
-102,162	-200,000	0,013	0,142
-101,147	800,000	0,031	0,088
-100,132	292,166	0,065	-0,084
-99,118	-200,000	-0,019	0,090
-98,103	83,962	0,085	0,065
-97,089	170,586	0,095	-0,096
-96,074	40,299	0,078	-0,049
-95,059	-200,000	0,008	0,049
-94,045	-90,683	0,104	0,021
-93,030	331,941	-0,149	-0,204
-92,016	5,908	-0,055	0,029
-91,001	-108,341	-0,027	-0,004
-89,986	-200,000	-0,023	-0,105
-88,972	-101,047	-0,069	0,012
-87,957	478,373	-0,073	0,117
-86,943	476,893	0,026	-0,042
-85,928	-200,000	0,023	-0,224
-84,913	589,542	-0,025	-0,044
-83,899	-200,000	0,025	-0,205
-82,884	-37,126	-0,137	0,051
-81,870	-200,000	0,072	0,248
-80,855	-200,000	0,009	-0,058
-79,840	351,640	-0,026	0,036
-78,826	94,170	-0,032	0,026
-77,811	171,970	-0,008	-0,008
-76,797	304,836	0,060	0,079
-75,782	-135,933	-0,008	0,001
-74,767	-200,000	0,005	0,050
-73,753	-200,000	-0,001	0,092
-72,738	360,812	-0,042	0,059
-71,724	258,317	-0,024	-0,030
-70,709	-200,000	-0,010	0,086
-69,694	-117,580	0,040	0,005
-68,680	-200,000	-0,017	0,079
-67,665	165,528	0,048	0,048
-66,651	-57,669	0,135	-0,041
-65,636	43,886	-0,113	-0,073
-64,622	800,000	0,034	-0,104
-63,607	-200,000	0,036	-0,170
-62,592	-18,361	0,077	-0,034
-61,578	4,945	0,035	-0,018
-60,563	-200,000	-0,001	0,056
-59,549	-200,000	0,012	0,068
-58,534	23,834	-1,786	-1,037
-57,519	548,127	-1,232	-2,091
-56,505	-200,000	-0,371	-4,549
-55,490	525,811	0,866	1,445
-54,476	800,000	4,946	11,115
-53,461	-200,000	20,634	328,830
-52,446	800,000	755,071	2319,623
-51,432	551,339	1660,743	2825,580
-50,417	73,860	1664,515	1231,024
-49,403	19,030	1537,813	868,213
-48,388	13,007	1460,381	795,340
-47,373	19,044	1451,238	819,337
-46,359	16,059	1440,402	798,971
-45,344	11,313	1436,418	774,115
-44,330	11,197	1434,452	772,468
-43,315	11,222	1432,476	771,492
-42,300	11,246	1430,649	770,592
-41,286	11,282	1429,590	770,164
-40,271	11,218	1428,388	769,183
-39,257	11,209	1426,920	768,317
-38,242	11,229	1426,027	767,902
-37,227	11,239	1424,692	767,197
-36,213	11,276	1423,294	766,591
-35,198	11,233	1422,608	765,988
-34,184	11,311	1421,581	765,776
-33,169	11,225	1420,164	764,573
-32,154	11,273	1419,070	764,182
-31,140	11,302	1417,823	763,617
-30,125	11,327	1416,653	763,072
-29,111	11,344	1415,495	762,500
-28,096	11,271	1414,527	761,604
-27,082	11,219	1413,411	760,730
-26,067	11,239	1412,185	760,134
-25,052	11,205	1411,260	759,445
-24,038	11,231	1410,219	758,975
-23,023	11,231	1409,215	758,404
-22,009	11,172	1408,330	757,622
-20,994	11,217	1407,210	757,201
-19,979	11,207	1406,359	756,667
-18,965	11,117	1405,484	755,747
-17,950	11,172	1404,422	755,401
-16,936	11,103	1403,845	754,740
-15,921	11,129	1402,695	754,212
-14,906	11,114	1401,709	753,580
-13,892	11,126	1400,810	753,125
-12,877	11,117	1400,018	752,625
-11,863	11,110	1399,027	752,031
-10,848	11,135	1398,171	751,658
-9,833	11,035	1397,463	750,785
-8,819	11,035	1396,486	750,231
-7,804	10,981	1395,701	749,529
-6,790	11,031	1394,506	749,087
-5,775	11,024	1393,412	748,439
-4,760	11,068	1392,654	748,202
-3,746	11,077	1391,682	747,693
-2,731	11,097	1390,769	747,266
-1,717	11,044	1389,955	746,556
-0,702	10,959	1388,304	745,248
0,313	14,995	1302,055	717,446
1,327	31,093	694,271	419,237
2,342	47,949	120,567	79,346
3,356	4,089	16,469	8,474
4,371	-5,586	3,359	1,619
5,386	-30,442	0,803	0,320
6,400	-200,000	0,101	0,365
7,415	65,662	-0,128	-0,091
8,429	31,058	-0,315	-0,190
9,444	3,800	-0,329	-0,169
10,459	41,544	-0,385	-0,245
11,473	44,826	-0,282	-0,182
12,488	124,946	-0,318	-0,283
13,502	112,812	-0,185	-0,158
14,517	39,312	-0,240	-0,151
15,531	98,999	-0,349	-0,284
16,546	95,541	-0,295	-0,237
17,561	181,971	-0,357	-0,371
18,575	-41,013	-0,251	-0,091
19,590	120,063	-0,334	-0,292
20,604	37,311	-0,251	-0,156
21,619	95,242	-0,449	-0,360
22,634	50,404	-0,486	-0,323
23,648	115,557	-0,369	-0,318
24,663	55,407	-0,418	-0,285
25,677	89,455	-0,394	-0,309
26,692	-7,425	-0,423	-0,201
27,707	58,456	-0,195	-0,134
28,721	136,186	-0,413	-0,380
29,736	-8,978	-0,373	-0,175
30,750	235,038	-0,277	-0,322
31,765	37,724	-0,429	-0,268
32,780	123,933	-0,409	-0,361
33,794	-32,730	-0,298	-0,116
34,809	5,028	-0,409	-0,211
35,823	-1,443	-0,392	-0,194
36,838	-48,305	-0,452	-0,153
37,853	346,582	-0,344	-0,477
38,867	49,108	-0,410	-0,270
39,882	110,966	-0,231	-0,196
40,896	112,341	-0,373	-0,317
41,911	67,131	-0,277	-0,198
42,926	22,557	-0,459	-0,264
43,940	226,398	-0,266	-0,303
44,955	69,181	-0,397	-0,286
45,969	364,870	-0,275	-0,391
46,984	155,497	-0,312	-0,302
47,999	-2,774	-0,353	-0,173
49,013	-80,203	-0,335	-0,078
50,028	52,226	-0,369	-0,247
51,042	-12,800	-0,339	-0,155
52,057	147,850	-0,247	-0,234
53,071	513,623	-0,218	-0,359
54,086	142,635	-0,269	-0,251
55,101	40,247	-0,344	-0,217
56,115	-200,000	-0,110	-0,341
57,130	21,052	-0,275	-0,156
58,144	56,548	-0,388	-0,264
59,159	145,669	-0,385	-0,362
60,174	256,137	-0,209	-0,252
61,188	243,065	-0,263	-0,310
62,203	289,781	-0,298	-0,381
63,217	106,667	-0,304	-0,253
64,232	64,230	-0,334	-0,235
65,247	171,345	-0,290	-0,292
66,261	-4,131	-0,372	-0,180
67,276	98,330	-0,384	-0,310
68,290	57,493	-0,319	-0,218
69,305	286,858	-0,232	-0,295
70,320	21,820	-0,393	-0,224
71,334	136,419	-0,257	-0,235
72,349	-39,553	-0,388	-0,142
73,363	137,774	-0,308	-0,283
74,378	17,882	-0,313	-0,174
75,393	287,081	-0,250	-0,318
76,407	-4,628	-0,291	-0,140
77,422	-3,153	-0,283	-0,138
78,436	-30,742	-0,313	-0,124
79,451	-47,247	-0,335	-0,114
80,466	88,307	-0,275	-0,213
81,480	37,541	-0,482	-0,299
82,495	-86,666	-0,256	-0,055
83,509	46,900	-0,296	-0,192
84,524	-23,346	-0,277	-0,116
85,539	124,791	-0,292	-0,258
86,553	24,910	-0,251	-0,145
87,568	86,746	-0,357	-0,276
88,582	115,828	-0,324	-0,278
89,597	119,695	-0,232	-0,201
90,611	55,781	-0,268	-0,182
91,626	264,520	-0,129	-0,157
92,641	-91,493	-0,297	-0,059
93,655	40,251	-0,189	-0,119
94,670	151,311	-0,269	-0,257
95,684	-42,120	-0,294	-0,105
96,699	61,938	-0,204	-0,142
97,714	186,931	-0,212	-0,221
98,728	41,906	-0,273	-0,173
99,743	-44,198	-0,219	-0,076
100,757	15,735	-0,319	-0,175
101,772	96,387	-0,299	-0,239
102,787	-55,204	-0,127	-0,040
103,801	129,110	-0,287	-0,256
104,816	47,985	-0,270	-0,176
105,830	208,118	-0,148	-0,162
106,845	103,910	-0,167	-0,137
107,860	31,260	-0,314	-0,188
108,874	110,627	-0,243	-0,204
109,889	92,050	-0,340	-0,268
110,903	139,656	-0,223	-0,205
111,918	-124,519	-0,282	-0,030
112,933	19,548	-0,236	-0,132
113,947	-150,577	-0,263	0,014
114,962	115,989	-0,201	-0,172
115,976	-51,002	-0,296	-0,096
116,991	72,215	-0,290	-0,211
118,006	35,859	-0,261	-0,160
119,020	-2,257	-0,368	-0,180
120,035	12,945	-0,224	-0,120
121,049	78,426	-0,290	-0,216
122,064	-30,080	-0,213	-0,084
123,079	30,130	-0,236	-0,140
124,093	800,000	-0,116	-0,246
125,108	157,275	-0,271	-0,262
126,122	-130,996	-0,267	-0,025
127,137	-50,443	-0,252	-0,083
128,151	-30,195	-0,233	-0,092
129,166	-21,473	-0,255	-0,108
130,181	-32,274	-0,325	-0,126
131,195	243,001	-0,242	-0,283
132,210	107,817	-0,267	-0,222
133,224	115,867	-0,231	-0,197
134,239	43,656	-0,340	-0,217
135,254	70,687	-0,278	-0,201
136,268	-11,968	-0,203	-0,092
137,283	22,603	-0,283	-0,161
138,297	88,684	-0,279	-0,216
139,312	48,224	-0,218	-0,142
140,327	132,120	-0,301	-0,270
141,341	220,144	-0,089	-0,100
142,356	-155,663	-0,315	-0,014
143,370	52,926	-0,188	-0,125
144,385	399,191	-0,152	-0,223
145,400	-114,306	-0,247	-0,033
146,414	141,130	-0,189	-0,174
147,429	7,521	-0,352	-0,183
148,443	-55,554	-0,310	-0,096
149,458	9,415	-0,156	-0,082
150,473	121,246	-0,157	-0,136
151,487	156,028	-0,171	-0,165
152,502	334,950	-0,202	-0,273
153,516	71,441	-0,292	-0,211
154,531	168,332	-0,232	-0,230
155,546	-27,575	-0,257	-0,103
156,560	-76,082	-0,294	-0,072
157,575	644,045	-0,142	-0,252
158,589	-26,038	-0,241	-0,098
159,604	800,000	-0,142	-0,328
160,619	-11,841	-0,264	-0,120
161,633	65,728	-0,233	-0,164
162,648	308,261	-0,271	-0,353
163,662	364,412	-0,155	-0,218
164,677	-30,777	-0,348	-0,136
165,692	612,602	-0,174	-0,304
166,706	77,511	-0,200	-0,148
167,721	-41,696	-0,296	-0,105
168,735	45,321	-0,242	-0,155
169,750	65,148	-0,218	-0,153
170,764	306,261	-0,117	-0,152
171,779	-15,968	-0,161	-0,071
172,794	800,000	-0,089	-0,172
173,808	-105,237	-0,322	-0,051
174,823	134,770	-0,289	-0,261
175,837	219,896	-0,212	-0,236
176,852	241,691	-0,183	-0,213
177,867	800,000	-0,070	-0,200
178,881	-200,000	0,003	-0,159
179,896	4,122	-0,304	-0,154
180,910	-22,802	-0,292	-0,122
181,925	71,329	-0,176	-0,127
182,940	43,244	-0,309	-0,195
183,954	35,946	-0,201	-0,123
184,969	131,179	-0,238	-0,212
185,983	184,665	-0,192	-0,198
186,998	334,016	-0,165	-0,223
188,013	41,829	-0,242	-0,152
189,027	458,741	-0,145	-0,225
190,042	800,000	-0,122	-0,239
191,056	19,682	-0,245	-0,137
192,071	-61,899	-0,222	-0,064
193,086	341,087	-0,142	-0,192
194,100	97,708	-0,252	-0,201
195,115	132,389	-0,168	-0,151
196,129	209,596	-0,234	-0,255
197,144	204,482	-0,158	-0,170
198,159	163,654	-0,200	-0,196
199,173	138,966	-0,050	-0,046
200,188	-57,971	-0,118	-0,036
201,202	359,214	-0,132	-0,183
202,217	134,453	-0,214	-0,192
203,232	103,628	-0,266	-0,216
204,246	800,000	-0,054	-0,152
205,261	-79,994	-0,155	-0,036
206,275	138,679	-0,094	-0,086
207,290	68,985	-0,203	-0,144
208,304	-64,750	-0,239	-0,067
209,319	185,599	-0,186	-0,192
210,334	800,000	-0,031	-0,087
211,348	63,854	-0,225	-0,157
212,363	81,567	-0,230	-0,172
213,377	544,703	-0,097	-0,161
214,392	800,000	-0,114	-0,253
215,407	248,025	-0,141	-0,165
216,421	69,554	-0,201	-0,143
217,436	199,981	-0,159	-0,169
218,450	-26,990	-0,163	-0,065
219,465	229,427	-0,169	-0,192
220,480	-200,000	-0,068	-0,259
221,494	165,600	-0,077	-0,076
222,509	150,447	-0,155	-0,146
223,523	-32,292	-0,232	-0,089
224,538	194,756	-0,193	-0,203
225,553	125,214	-0,266	-0,232
226,567	20,606	-0,149	-0,083
227,582	448,305	-0,085	-0,130
228,596	-51,183	-0,133	-0,043
229,611	-142,794	-0,187	-0,012
230,626	-200,000	-0,095	0,000
231,640	-147,265	-0,209	-0,012
232,655	223,444	-0,227	-0,253
233,669	-200,000	-0,083	-0,299
234,684	111,966	-0,129	-0,108
235,699	397,582	-0,196	-0,284
236,713	800,000	-0,107	-0,210
237,728	402,680	-0,117	-0,171
238,742	-30,022	-0,157	-0,061
239,757	524,933	-0,153	-0,250
240,772	49,914	-0,137	-0,089
241,786	-200,000	-0,061	-0,215
242,801	115,510	-0,237	-0,200
243,815	38,814	-0,178	-0,110
244,830	-200,000	-0,041	-0,131
245,844	417,528	-0,153	-0,226
246,859	-106,330	-0,252	-0,039
247,874	332,586	-0,144	-0,192
248,888	-24,803	-0,275	-0,112
249,903	-130,611	-0,153	-0,014
250,917	-21,217	-0,196	-0,082
251,932	35,954	-0,256	-0,155
252,947	99,603	-0,239	-0,191
253,961	24,892	-0,208	-0,119
254,976	155,613	-0,185	-0,176
255,990	390,940	-0,144	-0,207
257,005	-87,017	-0,127	-0,026
258,020	595,987	-0,095	-0,163
259,034	256,057	-0,134	-0,159
260,049	-83,412	-0,187	0,041
261,063	192,869	-0,147	-0,153
262,078	71,753	-0,240	-0,172
263,093	-31,921	-0,224	-0,086
264,107	800,000	-0,142	-0,319
265,122	172,784	-0,114	-0,113
266,136	-173,862	-0,162	0,003
267,151	800,000	-0,062	-0,122
268,166	-73,368	-0,162	-0,041
269,180	540,376	-0,100	-0,165
270,195	518,791	-0,179	-0,290
271,209	106,748	-0,225	-0,184
272,224	290,395	-0,161	-0,203
273,239	-200,000	0,020	-0,202
274,253	71,150	-0,272	-0,194
275,268	84,980	-0,130	-0,098
276,282	62,819	-0,258	-0,178
277,297	-0,323	-0,168	-0,082
278,312	263,378	-0,253	-0,303
279,326	656,054	-0,062	-0,111
280,341	-119,355	-0,122	-0,014
281,355	114,311	-0,173	-0,145
282,370	-32,106	-0,138	-0,053
283,384	92,713	-0,134	-0,104
284,399	80,700	-0,271	-0,201
285,414	55,462	-0,173	-0,115
286,428	260,244	-0,115	-0,137
287,443	800,000	-0,088	-0,183
288,457	22,786	-0,144	-0,081
289,472	-125,877	-0,113	0,012
290,487	-20,515	-0,228	-0,096
291,501	11,667	-0,221	-0,116
292,516	-88,460	-0,102	0,021
293,530	239,662	-0,117	-0,134
294,545	196,799	-0,118	-0,124
295,560	-130,980	-0,244	0,022
296,574	13,984	-0,147	0,079
297,589	-57,470	-0,233	-0,070
298,603	-110,123	-0,280	-0,040
299,618	147,106	-0,101	-0,094
300,633	-71,328	-0,173	-0,044
301,647	-200,000	0,042	-0,134
302,662	79,183	-0,083	-0,061
303,676	-128,580	-0,096	-0,009
304,691	193,905	-0,090	-0,094
305,706	290,798	-0,160	-0,200
306,720	272,386	-0,218	-0,265
307,735	160,092	-0,150	-0,144
308,749	80,085	-0,217	-0,160
309,764	-13,087	-0,144	-0,064
310,779	99,480	-0,102	-0,081
311,793	443,740	-0,109	-0,164
312,808	210,147	-0,181	-0,196
313,822	262,288	-0,119	-0,142
314,837	60,074	-0,121	-0,082
315,852	-122,457	-0,116	-0,013
316,866	19,237	-0,201	-0,110
317,881	800,000	-0,081	-0,171
318,895	117,857	-0,175	-0,148
319,910	-66,174	-0,249	-0,068
320,925	-94,560	-0,256	0,047
321,939	215,635	-0,069	-0,075
322,954	800,000	-0,058	-0,153
323,968	42,925	-0,071	-0,044
324,983	302,209	-0,105	-0,134
325,997	96,892	-0,157	-0,123
327,012	-8,946	-0,242	-0,111
328,027	456,111	-0,088	-0,134
329,041	33,622	-0,202	-0,120
330,056	496,044	0,050	-0,078
331,070	-21,414	-0,078	-0,032
332,085	260,630	-0,027	0,032
333,100	228,133	-0,140	-0,156
334,114	800,000	-0,088	-0,200
335,129	-25,623	-0,161	0,065
336,143	-54,687	-0,110	-0,034
337,158	-200,000	-0,013	-0,137
338,173	-37,428	-0,118	-0,043
339,187	58,354	-0,161	-0,108
340,202	49,426	-0,151	-0,097
341,216	473,308	-0,094	-0,145
342,231	148,752	-0,173	0,160
343,246	800,000	-0,099	-0,218
344,260	-108,188	-0,160	-0,023
345,275	-43,160	-0,065	0,022
346,289	90,645	-0,118	-0,090
347,304	800,000	-0,052	-0,139
348,319	145,937	-0,187	-0,171
349,333	-152,582	-0,193	0,009
350,348	94,933	-0,050	-0,039
351,362	-200,000	0,013	-0,087
352,377	16,298	-0,084	-0,045
353,392	-79,310	-0,148	-0,034
354,406	40,677	-0,121	-0,075
355,421	207,625	1308,713	1399,246
356,435	159,728	1468,706	1399,751
