DTS Sentinel unit serial number:	SN410029Multiplexer serial number:	ORYXHardware model number:	OX2-SRSoftware version number:	ORYX F/W v4,00 Oryx Data Collector v3.7.2.0data status	okinstallation	B3 Nyhavnadifferential loss correction	single-endedforward channel	channel 1reverse channel	N/Adate	2023/11/30time	06:12:30forward acquisition time	300,00reverse acquisition time	0,00gamma	499,1914k internal	0,3210k external	0,3210temperature offset calibration	1,0000default loss term (dB/km)	0,3820temperature slope calibration	1,0000multiplexer offset coefficient	1,0000multiplexer slope coefficient	1,0000fibre end	0,00T internal ref (°C)	10,27T ext. ref 1 (°C)	-5,14T ext. ref 2 (°C)	-5,24length (m)	temperature (°C)	Stokes	anti-Stokes-744,400	129,395	-0,289	-0,268
-743,385	-200,000	-0,029	0,250
-742,371	800,000	-0,089	-0,221
-741,356	-200,000	0,006	0,240
-740,342	223,033	-0,139	-0,163
-739,327	-200,000	0,010	0,300
-738,312	-200,000	-0,096	-0,391
-737,298	-200,000	-0,042	0,307
-736,283	161,760	-0,188	-0,191
-735,269	800,000	0,135	0,334
-734,254	459,402	-0,152	-0,246
-733,239	-186,465	-0,223	0,002
-732,225	-200,000	-0,001	-0,252
-731,210	-32,175	0,099	0,040
-730,196	-45,049	-0,093	-0,033
-729,181	42,497	0,070	-0,046
-728,167	800,000	0,050	-0,102
-727,152	-200,000	-0,011	0,050
-726,137	-128,627	-0,039	0,004
-725,123	800,000	0,073	-0,165
-724,108	-56,826	-0,063	0,020
-723,094	436,680	0,077	-0,122
-722,079	-57,992	-0,055	0,017
-721,064	136,569	0,043	0,041
-720,050	452,879	-0,027	-0,044
-719,035	791,566	-0,038	0,077
-718,021	-200,000	0,003	-0,027
-717,006	-121,790	-0,117	-0,014
-715,991	800,000	-0,037	-0,095
-714,977	-200,000	-0,022	-0,092
-713,962	139,142	0,009	-0,008
-712,948	-38,283	-0,046	0,018
-711,933	-130,421	-0,109	-0,011
-710,918	-52,852	0,081	0,027
-709,904	23,656	-0,074	0,044
-708,889	189,297	-0,075	-0,082
-707,875	-200,000	0,012	-0,107
-706,860	-25,110	-0,153	-0,065
-705,845	384,935	0,065	0,098
-704,831	132,172	-0,017	-0,016
-703,816	-200,000	0,003	-0,067
-702,802	588,131	0,034	-0,061
-701,787	800,000	-0,073	-0,191
-700,772	571,199	-0,069	-0,122
-699,758	-64,323	-0,070	-0,020
-698,743	-200,000	0,031	-0,141
-697,729	296,249	0,105	-0,139
-696,714	-133,835	-0,064	0,006
-695,699	14,635	0,122	-0,069
-694,685	190,255	-0,098	-0,107
-693,670	-56,912	-0,196	0,062
-692,656	140,994	-0,035	0,033
-691,641	-180,141	-0,140	-0,002
-690,627	370,275	0,015	0,022
-689,612	-75,433	-0,122	0,031
-688,597	372,426	-0,146	-0,216
-687,583	-200,000	0,007	-0,129
-686,568	800,000	0,029	-0,071
-685,554	455,734	-0,012	0,019
-684,539	441,368	0,065	-0,103
-683,524	-86,638	-0,091	0,020
-682,510	143,174	-0,058	0,056
-681,495	-200,000	0,013	-0,076
-680,481	710,159	-0,097	-0,186
-679,466	-200,000	-0,025	-0,102
-678,451	798,485	-0,019	-0,037
-677,437	-78,960	-0,106	0,026
-676,422	800,000	-0,017	-0,053
-675,408	-200,000	-0,005	0,034
-674,393	-200,000	0,004	-0,047
-673,378	53,646	-0,078	-0,054
-672,364	-200,000	-0,021	-0,113
-671,349	10,480	-0,106	-0,058
-670,335	-200,000	0,007	0,109
-669,320	61,265	0,061	-0,044
-668,305	800,000	-0,004	0,010
-667,291	385,557	-0,042	-0,063
-666,276	-92,549	-0,137	-0,028
-665,262	800,000	-0,009	0,027
-664,247	800,000	-0,039	0,100
-663,232	-143,241	0,086	0,006
-662,218	30,380	-0,104	0,064
-661,203	-65,182	0,056	-0,016
-660,189	32,439	-0,104	-0,065
-659,174	800,000	-0,058	-0,130
-658,159	-115,293	-0,095	-0,013
-657,145	130,006	0,067	-0,062
-656,130	-115,932	-0,081	-0,011
-655,116	-130,116	-0,084	0,008
-654,101	-200,000	0,002	-0,024
-653,086	800,000	0,030	-0,074
-652,072	50,518	-0,104	0,071
-651,057	-197,774	-0,137	-0,001
-650,043	-119,553	-0,040	-0,005
-649,028	261,612	-0,100	0,125
-648,014	14,270	0,125	-0,070
-646,999	1,004	-0,069	-0,035
-645,984	45,607	-0,052	0,035
-644,970	-100,089	0,008	-0,001
-643,955	-200,000	0,003	-0,031
-642,941	-71,418	-0,069	-0,019
-641,926	-154,928	0,086	-0,004
-640,911	-200,000	0,002	0,140
-639,897	800,000	0,059	-0,157
-638,882	800,000	-0,032	-0,069
-637,868	15,600	0,065	-0,037
-636,853	-200,000	0,032	-0,132
-635,838	42,192	-0,161	-0,105
-634,824	176,905	0,022	-0,023
-633,809	800,000	-0,022	0,058
-632,795	800,000	-0,031	0,089
-631,780	93,607	0,085	0,069
-630,765	603,699	0,016	0,029
-629,751	-96,860	-0,100	-0,019
-628,736	388,064	-0,029	-0,043
-627,722	-143,024	-0,003	0,000
-626,707	553,277	-0,076	-0,132
-625,692	-82,313	0,154	0,036
-624,678	65,964	-0,091	0,067
-623,663	-200,000	-0,031	-0,154
-622,649	294,545	-0,046	-0,060
-621,634	-200,000	-0,015	-0,152
-620,619	-10,937	-0,105	-0,050
-619,605	800,000	-0,029	-0,061
-618,590	425,852	0,026	-0,041
-617,576	188,212	-0,046	0,050
-616,561	264,653	0,072	0,090
-615,546	-94,671	-0,146	0,028
-614,532	2,290	-0,044	0,023
-613,517	-48,058	-0,095	-0,033
-612,503	-200,000	-0,002	-0,118
-611,488	-200,000	0,033	0,108
-610,474	-3,846	-0,038	0,019
-609,459	800,000	0,025	-0,056
-608,444	-58,728	0,031	-0,010
-607,430	213,142	0,085	-0,097
-606,415	-200,000	-0,023	-0,173
-605,401	82,777	-0,112	-0,088
-604,386	14,802	-0,017	-0,010
-603,371	-45,713	-0,089	0,032
-602,357	-103,618	-0,067	-0,011
-601,342	-106,158	-0,107	0,017
-600,328	-200,000	0,041	-0,151
-599,313	629,832	0,026	-0,048
-598,298	32,105	-0,115	-0,071
-597,284	-200,000	0,025	0,112
-596,269	-200,000	-0,027	0,116
-595,255	-200,000	-0,002	0,044
-594,240	-200,000	-0,006	0,037
-593,225	-200,000	0,002	0,105
-592,211	-118,650	0,223	-0,028
-591,196	11,357	-0,107	-0,059
-590,182	-200,000	-0,003	0,053
-589,167	-69,823	0,095	-0,026
-588,152	800,000	-0,082	0,171
-587,138	585,247	0,021	-0,038
-586,123	367,144	0,038	-0,055
-585,109	16,127	-0,093	-0,053
-584,094	-97,682	-0,134	-0,025
-583,079	800,000	-0,019	0,043
-582,065	-26,004	-0,022	-0,009
-581,050	463,949	-0,016	0,026
-580,036	-200,000	0,000	0,036
-579,021	-174,788	0,028	-0,001
-578,006	-200,000	-0,033	-0,147
-576,992	-17,829	0,075	-0,034
-575,977	351,206	0,076	0,109
-574,963	-200,000	-0,004	0,060
-573,948	-200,000	-0,014	0,076
-572,934	178,491	0,054	0,057
-571,919	-200,000	0,153	0,000
-570,904	289,464	-0,064	-0,084
-569,890	244,561	-0,049	-0,059
-568,875	-200,000	0,040	-0,151
-567,861	351,871	-0,005	-0,008
-566,846	800,000	0,045	0,113
-565,831	-162,486	0,106	-0,004
-564,817	-54,501	-0,115	0,037
-563,802	634,644	0,007	0,013
-562,788	-92,093	-0,046	-0,009
-561,773	-200,000	0,004	0,091
-560,758	-161,205	0,059	-0,002
-559,744	-200,000	-0,004	-0,024
-558,729	800,000	-0,036	0,080
-557,715	-200,000	0,001	0,037
-556,700	-200,000	-0,000	0,036
-555,685	-139,522	-0,113	-0,009
-554,671	-131,736	-0,045	0,004
-553,656	-33,028	0,010	0,004
-552,642	431,704	-0,027	-0,042
-551,627	268,268	-0,029	0,037
-550,612	800,000	-0,016	0,038
-549,598	-43,449	0,068	0,025
-548,583	-115,771	-0,117	-0,016
-547,569	-144,294	0,076	0,005
-546,554	320,425	-0,102	0,140
-545,539	800,000	-0,040	0,111
-544,525	13,082	-0,016	0,009
-543,510	-195,840	-0,057	0,000
-542,496	320,777	-0,037	-0,051
-541,481	5,059	-0,141	0,074
-540,466	242,217	0,075	-0,090
-539,452	-55,509	-0,129	0,041
-538,437	-38,338	0,076	-0,029
-537,423	-76,718	-0,100	-0,025
-536,408	-7,005	-0,097	0,047
-535,393	-63,530	0,034	0,010
-534,379	276,681	-0,058	0,075
-533,364	238,072	0,054	-0,065
-532,350	47,924	-0,078	-0,052
-531,335	24,027	-0,018	0,011
-530,321	-32,576	-0,079	0,032
-529,306	-45,410	0,025	-0,009
-528,291	-141,666	-0,051	0,004
-527,277	800,000	0,012	-0,034
-526,262	537,234	-0,044	0,076
-525,248	-200,000	-0,000	-0,067
-524,233	263,695	0,028	0,036
-523,218	-200,000	0,015	0,101
-522,204	204,628	-0,073	-0,081
-521,189	800,000	-0,017	-0,043
-520,175	-200,000	0,006	-0,037
-519,160	225,904	-0,082	-0,096
-518,145	101,427	-0,071	0,059
-517,131	-200,000	-0,001	0,065
-516,116	1,918	-0,098	-0,050
-515,102	-200,000	0,006	0,126
-514,087	-200,000	-0,017	-0,055
-513,072	125,443	-0,129	-0,117
-512,058	-68,303	-0,096	-0,027
-511,043	800,000	-0,021	-0,043
-510,029	-49,968	-0,020	0,007
-509,014	394,372	0,013	-0,019
-507,999	800,000	-0,014	0,029
-506,985	-123,379	-0,049	0,006
-505,970	800,000	-0,023	-0,061
-504,956	-200,000	0,019	-0,074
-503,941	200,326	-0,030	-0,033
-502,926	135,308	0,059	-0,055
-501,912	462,848	0,130	0,210
-500,897	-161,099	0,080	-0,003
-499,883	449,497	-0,047	-0,075
-498,868	-84,057	0,047	-0,011
-497,853	-107,167	0,054	-0,008
-496,839	-13,821	0,011	-0,005
-495,824	-200,000	-0,004	0,083
-494,810	-200,000	0,011	0,096
-493,795	-65,095	-0,060	-0,017
-492,781	2,727	-0,126	-0,066
-491,766	135,217	-0,079	-0,074
-490,751	-200,000	0,022	-0,079
-489,737	39,624	0,016	0,011
-488,722	-200,000	0,007	-0,036
-487,708	49,109	-0,079	-0,053
-486,693	30,945	-0,076	-0,047
-485,678	-200,000	0,027	-0,106
-484,664	-40,698	-0,099	-0,037
-483,649	-74,851	0,129	0,033
-482,635	128,989	-0,093	-0,085
-481,620	-21,986	-0,023	-0,010
-480,605	86,477	0,072	0,057
-479,591	800,000	-0,007	-0,017
-478,576	-64,624	0,097	0,028
-477,562	-136,816	0,064	0,005
-476,547	520,547	-0,065	0,111
-475,532	-70,419	-0,014	-0,004
-474,518	777,460	-0,048	-0,096
-473,503	-200,000	-0,008	0,036
-472,489	-43,558	0,134	0,048
-471,474	-200,000	-0,005	0,019
-470,459	-139,579	-0,147	-0,011
-469,445	800,000	-0,031	-0,070
-468,430	283,896	0,072	0,093
-467,416	56,148	-0,041	-0,029
-466,401	33,839	0,120	-0,075
-465,386	297,663	0,067	-0,089
-464,372	109,448	0,069	0,059
-463,357	-147,819	-0,106	-0,006
-462,343	-200,000	0,005	-0,069
-461,328	-200,000	0,006	-0,099
-460,313	-161,041	0,066	0,002
-459,299	190,745	0,069	0,074
-458,284	-107,403	-0,166	0,026
-457,270	330,194	0,067	0,093
-456,255	-69,418	-0,172	-0,047
-455,241	-103,526	0,102	-0,017
-454,226	-200,000	-0,052	-0,172
-453,211	-46,184	0,139	0,049
-452,197	643,656	0,031	0,057
-451,182	-57,924	0,052	0,016
-450,168	17,446	0,012	-0,007
-449,153	-17,090	0,056	-0,025
-448,138	-200,000	-0,008	-0,033
-447,124	396,467	0,023	0,034
-446,109	-200,000	-0,027	0,090
-445,095	94,260	0,125	0,101
-444,080	130,617	0,101	0,093
-443,065	300,015	0,019	0,025
-442,051	-115,493	0,056	-0,007
-441,036	-200,000	-0,121	0,000
-440,022	-200,000	0,006	-0,030
-439,007	-98,983	-0,024	-0,004
-437,992	45,533	0,113	-0,075
-436,978	-150,071	0,128	0,007
-435,963	-81,452	0,155	-0,036
-434,949	-39,088	0,044	-0,017
-433,934	800,000	0,060	-0,162
-432,919	133,391	-0,119	0,110
-431,905	-133,572	0,072	-0,006
-430,890	-179,752	-0,158	-0,002
-429,876	270,675	-0,105	0,133
-428,861	47,926	0,025	0,017
-427,846	-22,716	0,155	-0,067
-426,832	70,353	-0,067	0,050
-425,817	117,733	0,040	0,035
-424,803	182,636	0,138	0,146
-423,788	193,613	-0,003	0,004
-422,773	56,059	0,028	-0,020
-421,759	-87,920	0,105	0,022
-420,744	603,607	-0,005	0,009
-419,730	114,855	0,071	0,062
-418,715	-177,736	-0,128	-0,002
-417,701	800,000	-0,039	-0,106
-416,686	-155,642	0,062	0,003
-415,671	800,000	-0,082	0,170
-414,657	109,365	0,128	0,110
-413,642	-27,819	0,108	-0,045
-412,628	-115,972	-0,100	0,013
-411,613	-27,041	-0,074	0,031
-410,598	-200,000	0,012	-0,117
-409,584	-19,731	-0,113	0,050
-408,569	243,560	-0,060	0,073
-407,555	115,167	0,019	-0,016
-406,540	-200,000	0,002	0,104
-405,525	-44,544	-0,049	0,018
-404,511	-11,346	-0,093	0,044
-403,496	-1,619	0,076	-0,038
-402,482	-121,233	-0,087	-0,010
-401,467	-200,000	-0,004	0,044
-400,452	-200,000	-0,004	-0,070
-399,438	-200,000	0,002	0,141
-398,423	44,879	-0,090	-0,059
-397,409	458,907	-0,002	-0,003
-396,394	314,876	0,020	-0,026
-395,379	96,892	-0,124	0,101
-394,365	-182,819	0,180	0,002
-393,350	800,000	-0,037	0,073
-392,336	-136,881	0,025	0,002
-391,321	109,448	0,041	0,035
-390,306	66,221	0,030	-0,022
-389,292	-200,000	0,007	0,047
-388,277	231,292	0,071	-0,083
-387,263	157,415	0,062	0,062
-386,248	174,357	-0,084	0,087
-385,233	-200,000	0,004	-0,101
-384,219	-200,000	0,008	-0,085
-383,204	111,179	-0,063	-0,054
-382,190	-124,598	-0,077	0,008
-381,175	154,651	0,074	-0,073
-380,160	-141,958	-0,042	-0,003
-379,146	-200,000	0,006	0,051
-378,131	-32,251	0,052	-0,021
-377,117	-149,436	-0,115	-0,006
-376,102	-12,870	0,112	-0,052
-375,088	-200,000	0,011	-0,240
-374,073	-200,000	0,006	-0,026
-373,058	-93,817	0,141	-0,028
-372,044	-139,929	0,052	0,004
-371,029	-27,038	-0,096	0,040
-370,015	-177,070	0,056	-0,001
-369,000	-66,908	-0,101	0,028
-367,985	85,470	-0,090	-0,071
-366,971	-35,504	0,089	-0,034
-365,956	-148,878	0,107	-0,006
-364,942	-109,188	0,081	-0,012
-363,927	393,215	-0,043	-0,064
-362,912	191,092	0,084	0,091
-361,898	-82,043	-0,102	0,024
-360,883	-200,000	-0,026	-0,097
-359,869	56,828	-0,115	-0,080
-358,854	-200,000	-0,029	0,137
-357,839	6,701	0,057	0,030
-356,825	45,129	-0,045	0,030
-355,810	-200,000	-0,027	-0,094
-354,796	-200,000	-0,032	-0,112
-353,781	581,014	0,058	-0,102
-352,766	-117,437	-0,103	-0,013
-351,752	800,000	-0,044	-0,097
-350,737	166,956	0,034	0,035
-349,723	-115,920	0,108	-0,014
-348,708	61,266	-0,073	-0,052
-347,693	12,377	0,044	-0,024
-346,679	-127,612	-0,083	0,008
-345,664	-200,000	0,014	-0,179
-344,650	-118,648	-0,097	0,012
-343,635	-200,000	0,018	-0,145
-342,620	295,465	-0,032	0,042
-341,606	-200,000	0,042	0,166
-340,591	-75,146	-0,192	0,049
-339,577	-54,131	0,041	-0,013
-338,562	-87,408	-0,120	-0,026
-337,548	-200,000	0,013	0,051
-336,533	-81,439	0,023	-0,005
-335,518	-200,000	-0,011	-0,053
-334,504	800,000	-0,015	-0,042
-333,489	469,191	-0,031	0,050
-332,475	-200,000	-0,008	-0,045
-331,460	-200,000	-0,018	-0,096
-330,445	41,566	0,075	-0,048
-329,431	247,231	0,040	0,049
-328,416	-118,960	0,093	-0,011
-327,402	800,000	-0,047	0,135
-326,387	357,954	-0,035	0,050
-325,372	9,409	-0,089	-0,048
-324,358	98,084	0,076	-0,062
-323,343	-200,000	-0,030	0,115
-322,329	-200,000	-0,022	0,075
-321,314	-200,000	0,016	-0,141
-320,299	800,000	0,061	0,140
-319,285	-9,451	0,098	0,046
-318,270	80,803	-0,013	0,010
-317,256	-200,000	0,018	-0,156
-316,241	-77,863	0,070	0,017
-315,226	18,092	0,180	0,102
-314,212	36,056	0,039	-0,024
-313,197	-95,529	0,125	-0,024
-312,183	35,105	0,090	-0,056
-311,168	195,125	-0,027	-0,030
-310,153	66,206	-0,082	-0,060
-309,139	-45,702	-0,136	-0,048
-308,124	-200,000	-0,029	0,114
-307,110	-200,000	-0,006	0,077
-306,095	-11,562	0,076	0,036
-305,080	-200,000	-0,019	0,134
-304,066	-200,000	-0,008	-0,052
-303,051	-39,723	-0,163	-0,060
-302,037	800,000	-0,004	-0,011
-301,022	-94,918	0,142	0,027
-300,008	114,046	0,115	0,100
-298,993	800,000	0,037	0,096
-297,978	-200,000	0,023	0,101
-296,964	-200,000	0,002	0,033
-295,949	135,717	-0,172	-0,160
-294,935	79,959	-0,093	0,071
-293,920	-200,000	-0,005	-0,103
-292,905	27,773	0,067	-0,040
-291,891	349,766	0,084	0,119
-290,876	327,198	0,023	-0,031
-289,862	-200,000	-0,004	0,020
-288,847	-200,000	-0,130	0,000
-287,832	-200,000	-0,008	-0,117
-286,818	-200,000	-0,001	0,132
-285,803	-200,000	-0,001	-0,007
-284,789	-200,000	0,023	0,077
-283,774	656,029	0,059	0,108
-282,759	800,000	-0,083	0,180
-281,745	-99,195	-0,121	-0,022
-280,730	-126,291	0,064	0,007
-279,716	-200,000	-0,018	0,110
-278,701	450,725	0,076	-0,120
-277,686	-200,000	-0,020	0,122
-276,672	-144,967	0,180	0,012
-275,657	-200,000	-0,013	0,126
-274,643	-28,603	-0,040	-0,016
-273,628	-200,000	0,018	-0,174
-272,613	-200,000	-0,015	-0,079
-271,599	-166,044	0,060	-0,002
-270,584	165,618	-0,035	-0,035
-269,570	6,621	-0,014	0,008
-268,555	29,170	-0,093	0,056
-267,540	-200,000	0,033	-0,122
-266,526	-23,586	0,121	-0,052
-265,511	37,474	-0,122	-0,077
-264,497	67,929	-0,057	0,042
-263,482	77,967	0,098	0,075
-262,467	800,000	-0,027	0,083
-261,453	79,061	0,173	0,132
-260,438	508,555	0,040	-0,067
-259,424	27,800	0,134	-0,080
-258,409	668,325	-0,044	-0,082
-257,395	46,522	0,093	0,061
-256,380	-1,825	0,140	0,070
-255,365	207,812	0,034	-0,038
-254,351	754,376	-0,057	0,109
-253,336	93,669	0,088	-0,071
-252,322	42,084	-0,044	-0,029
-251,307	-117,866	-0,118	-0,015
-250,292	6,707	0,031	-0,016
-249,278	198,169	-0,074	0,080
-248,263	110,775	0,072	0,062
-247,249	800,000	-0,074	0,149
-246,234	-32,693	-0,109	0,043
-245,219	35,827	0,119	-0,075
-244,205	-200,000	0,019	-0,068
-243,190	-200,000	-0,007	0,034
-242,176	-200,000	0,013	0,055
-241,161	-52,464	0,102	-0,033
-240,146	120,998	0,043	0,038
-239,132	-80,768	0,056	0,013
-238,117	-200,000	-0,013	-0,087
-237,103	-200,000	-0,013	0,055
-236,088	357,686	-0,024	-0,034
-235,073	78,271	0,049	0,037
-234,059	73,696	0,222	0,165
-233,044	133,926	-0,187	0,172
-232,030	98,696	0,043	-0,035
-231,015	116,066	-0,059	0,052
-230,000	403,906	-0,048	-0,072
-228,986	43,960	0,066	0,043
-227,971	176,026	-0,100	0,103
-226,957	-138,892	0,215	-0,016
-225,942	1,186	0,078	0,040
-224,927	29,017	-0,133	0,080
-223,913	-200,000	-0,008	0,042
-222,898	686,792	0,041	-0,076
-221,884	-200,000	-0,009	-0,059
-220,869	-200,000	0,019	-0,100
-219,855	10,013	0,070	0,038
-218,840	-79,521	-0,033	0,008
-217,825	-25,956	-0,185	0,077
-216,811	800,000	0,010	-0,029
-215,796	120,634	0,030	-0,026
-214,782	-200,000	-0,005	0,074
-213,767	-74,731	0,199	-0,050
-212,752	92,123	0,084	-0,068
-211,738	-200,000	0,022	0,122
-210,723	800,000	-0,048	0,099
-209,709	147,077	0,089	-0,085
-208,694	132,782	0,015	0,014
-207,679	608,898	0,060	-0,107
-206,665	-58,582	0,066	-0,020
-205,650	800,000	0,017	0,050
-204,636	-200,000	-0,009	-0,084
-203,621	340,128	0,042	0,058
-202,606	68,959	0,067	-0,049
-201,592	462,687	-0,111	-0,176
-200,577	800,000	-0,012	0,026
-199,563	45,475	0,073	0,048
-198,548	86,995	0,118	0,092
-197,533	374,996	0,045	-0,065
-196,519	262,661	0,049	-0,060
-195,504	22,710	-0,022	-0,013
-194,490	15,098	-0,037	0,020
-193,475	16,677	-0,120	-0,067
-192,460	800,000	0,021	0,058
-191,446	108,768	0,061	-0,052
-190,431	161,491	0,029	-0,029
-189,417	-200,000	0,050	0,162
-188,402	-31,708	-0,070	-0,028
-187,387	780,687	-0,058	0,113
-186,373	-200,000	0,013	0,085
-185,358	130,020	-0,147	-0,133
-184,344	-92,739	0,133	-0,026
-183,329	-200,000	0,002	-0,069
-182,315	186,333	0,090	-0,095
-181,300	-16,933	-0,064	0,029
-180,285	-200,000	-0,011	-0,078
-179,271	-180,414	-0,052	0,001
-178,256	800,000	-0,047	-0,116
-177,242	-66,203	0,070	-0,020
-176,227	80,422	0,049	0,038
-175,212	453,969	0,054	0,085
-174,198	278,125	-0,044	-0,055
-173,183	-200,000	-0,014	-0,070
-172,169	-29,040	-0,055	-0,022
-171,154	-200,000	-0,007	0,051
-170,139	-200,000	0,019	-0,071
-169,125	-65,311	0,168	-0,048
-168,110	-200,000	0,034	-0,119
-167,096	-200,000	0,007	0,151
-166,081	102,132	-0,088	-0,073
-165,066	-120,786	0,040	0,005
-164,052	10,658	0,040	0,022
-163,037	800,000	0,030	-0,071
-162,023	-117,868	-0,094	0,012
-161,008	-200,000	-0,006	-0,054
-159,993	95,468	-0,056	0,045
-158,979	800,000	0,048	0,116
-157,964	60,398	0,023	0,016
-156,950	-200,000	0,000	0,046
-155,935	84,091	0,174	0,135
-154,920	184,024	0,094	0,099
-153,906	76,291	-0,030	-0,022
-152,891	-5,505	-0,084	0,040
-151,877	-120,145	-0,114	0,014
-150,862	-200,000	-0,055	-0,000
-149,847	-137,226	-0,210	0,017
-148,833	-36,774	0,054	0,020
-147,818	-200,000	0,005	0,079
-146,804	-200,000	-0,015	0,062
-145,789	113,051	0,037	-0,032
-144,775	-141,931	0,132	-0,009
-143,760	-200,000	-0,015	-0,088
-142,745	-200,000	-0,018	-0,171
-141,731	-153,242	0,138	-0,007
-140,716	-200,000	-0,031	0,104
-139,702	-40,903	0,079	-0,029
-138,687	-200,000	0,006	0,071
-137,672	800,000	-0,035	-0,092
-136,658	800,000	-0,025	0,074
-135,643	256,469	-0,068	-0,083
-134,629	800,000	0,035	0,076
-133,614	-200,000	0,003	-0,130
-132,599	-200,000	0,023	0,157
-131,585	100,041	-0,157	0,129
-130,570	-200,000	-0,037	0,162
-129,556	-200,000	0,001	-0,054
-128,541	269,827	0,032	0,040
-127,526	-200,000	0,051	-0,214
-126,512	365,256	-0,008	0,011
-125,497	-153,113	0,067	-0,003
-124,483	800,000	0,013	0,035
-123,468	2,222	0,060	0,031
-122,453	-2,528	0,137	-0,068
-121,439	-200,000	0,005	-0,094
-120,424	284,156	0,068	-0,087
-119,410	-200,000	0,029	-0,159
-118,395	426,892	0,036	-0,056
-117,380	-200,000	-0,017	-0,067
-116,366	-200,000	0,027	0,111
-115,351	468,651	-0,040	0,064
-114,337	-200,000	0,002	-0,025
-113,322	115,676	0,032	0,027
-112,307	92,521	0,073	0,058
-111,293	300,951	0,082	0,107
-110,278	124,212	-0,075	0,067
-109,264	800,000	-0,039	0,090
-108,249	800,000	-0,025	0,060
-107,234	800,000	-0,008	0,019
-106,220	800,000	0,038	-0,103
-105,205	-41,113	0,077	0,028
-104,191	27,514	-0,174	-0,103
-103,176	181,950	0,090	0,094
-102,162	-200,000	0,011	-0,081
-101,147	215,302	-0,137	-0,154
-100,132	385,777	0,070	-0,102
-99,118	800,000	-0,010	-0,023
-98,103	800,000	-0,028	-0,085
-97,089	-152,830	0,192	0,009
-96,074	11,282	0,078	0,042
-95,059	11,714	0,110	0,060
-94,045	216,126	-0,050	0,056
-93,030	800,000	-0,071	-0,191
-92,016	177,946	0,039	0,040
-91,001	800,000	0,064	-0,177
-89,986	-98,951	0,083	-0,015
-88,972	-169,965	-0,125	0,003
-87,957	-72,906	0,091	-0,024
-86,943	706,074	-0,030	-0,057
-85,928	-200,000	0,022	-0,214
-84,913	47,268	0,109	-0,072
-83,899	269,064	-0,084	0,105
-82,884	800,000	0,048	0,105
-81,870	-200,000	-0,005	0,088
-80,855	218,772	-0,113	-0,128
-79,840	-200,000	-0,008	-0,089
-78,826	491,143	0,050	-0,080
-77,811	-200,000	-0,039	-0,146
-76,797	92,057	-0,119	0,094
-75,782	37,801	-0,037	0,023
-74,767	800,000	-0,036	0,082
-73,753	800,000	-0,019	0,054
-72,738	-200,000	0,040	-0,222
-71,724	800,000	-0,038	-0,088
-70,709	89,851	-0,107	-0,085
-69,694	496,344	0,019	-0,031
-68,680	-135,031	0,177	0,015
-67,665	-200,000	-0,011	0,056
-66,651	440,678	-0,018	0,028
-65,636	-133,836	-0,128	0,011
-64,622	800,000	-0,023	-0,069
-63,607	800,000	-0,025	0,051
-62,592	-90,775	0,113	-0,023
-61,578	391,190	-0,058	-0,086
-60,563	314,049	-0,051	-0,067
-59,549	174,946	0,100	0,102
-58,534	40,444	-1,999	-1,268
-57,519	403,701	-1,400	-2,087
-56,505	-200,000	-0,347	-4,301
-55,490	498,781	0,918	1,499
-54,476	800,000	5,147	11,177
-53,461	-200,000	21,027	337,367
-52,446	800,000	758,395	2350,060
-51,432	557,993	1661,401	2839,832
-50,417	73,601	1661,715	1227,372
-49,403	18,111	1535,316	861,960
-48,388	12,092	1458,508	789,720
-47,373	19,228	1449,357	818,978
-46,359	15,518	1438,710	795,288
-45,344	10,348	1434,524	768,326
-44,330	10,351	1432,702	767,332
-43,315	10,262	1430,990	765,964
-42,300	10,306	1428,994	765,073
-41,286	10,363	1427,803	764,677
-40,271	10,295	1426,611	763,683
-39,257	10,312	1425,442	763,107
-38,242	10,325	1424,368	762,567
-37,227	10,317	1423,304	761,925
-36,213	10,360	1421,901	761,350
-35,198	10,354	1420,811	760,708
-34,184	10,417	1419,790	760,429
-33,169	10,330	1418,422	759,254
-32,154	10,338	1417,672	758,860
-31,140	10,379	1416,222	758,249
-30,125	10,424	1414,990	757,768
-29,111	10,397	1414,112	757,142
-28,096	10,398	1412,830	756,431
-27,082	10,293	1411,728	755,319
-26,067	10,282	1410,814	754,749
-25,052	10,286	1409,796	754,192
-24,038	10,269	1408,701	753,494
-23,023	10,331	1407,855	753,302
-22,009	10,338	1406,536	752,599
-20,994	10,305	1405,353	751,783
-19,979	10,271	1404,684	751,236
-18,965	10,260	1403,818	750,694
-17,950	10,248	1403,040	750,191
-16,936	10,274	1402,053	749,756
-15,921	10,206	1400,936	748,810
-14,906	10,189	1400,304	748,362
-13,892	10,226	1399,147	747,887
-12,877	10,182	1398,486	747,302
-11,863	10,175	1397,587	746,759
-10,848	10,178	1396,587	746,207
-9,833	10,179	1395,744	745,735
-8,819	10,125	1394,863	744,984
-7,804	10,115	1393,963	744,428
-6,790	10,082	1393,110	743,786
-5,775	10,117	1391,809	743,226
-4,760	10,116	1391,011	742,764
-3,746	10,112	1389,895	742,122
-2,731	10,113	1389,168	741,708
-1,717	10,104	1388,271	741,157
-0,702	10,130	1386,526	740,316
0,313	14,077	1299,433	711,894
1,327	30,245	690,321	414,856
2,342	47,168	119,546	78,360
3,356	-0,969	16,470	8,195
4,371	3,749	3,457	1,774
5,386	2,554	0,793	0,404
6,400	-200,000	0,176	0,553
7,415	323,831	-0,121	-0,164
8,429	225,390	-0,266	-0,304
9,444	61,013	-0,357	-0,250
10,459	91,201	-0,318	-0,252
11,473	105,933	-0,327	-0,273
12,488	228,773	-0,188	-0,216
13,502	39,784	-0,206	-0,130
14,517	2,930	-0,277	-0,141
15,531	157,376	-0,354	-0,345
16,546	19,410	-0,310	-0,175
17,561	383,042	-0,258	-0,375
18,575	261,036	-0,140	-0,171
19,590	156,571	-0,199	-0,194
20,604	-6,980	-0,097	-0,046
21,619	11,480	-0,424	-0,228
22,634	114,697	-0,495	-0,425
23,648	-5,743	-0,432	-0,208
24,663	-5,866	-0,335	-0,161
25,677	-0,112	-0,390	-0,195
26,692	16,479	-0,345	-0,192
27,707	226,688	-0,190	-0,217
28,721	54,953	-0,319	-0,216
29,736	-84,025	-0,406	-0,090
30,750	-19,822	-0,377	-0,163
31,765	102,385	-0,319	-0,262
32,780	80,054	-0,288	-0,218
33,794	72,600	-0,369	-0,270
34,809	129,627	-0,330	-0,296
35,823	-1,334	-0,377	-0,187
36,838	-31,284	-0,312	-0,123
37,853	171,941	-0,289	-0,292
38,867	-16,419	-0,411	-0,182
39,882	-124,554	-0,347	-0,037
40,896	-62,839	-0,331	-0,096
41,911	128,580	-0,275	-0,247
42,926	57,373	-0,367	-0,251
43,940	50,137	-0,336	-0,223
44,955	111,297	-0,356	-0,302
45,969	400,381	-0,248	-0,366
46,984	87,890	-0,372	-0,290
47,999	-21,774	-0,328	-0,140
49,013	-15,857	-0,369	-0,164
50,028	107,290	-0,302	-0,253
51,042	-39,909	-0,351	-0,128
52,057	84,474	-0,303	-0,233
53,071	-54,049	-0,322	-0,102
54,086	800,000	-0,144	-0,320
55,101	-54,411	-0,404	-0,128
56,115	523,457	-0,195	-0,323
57,130	-30,649	-0,383	-0,151
58,144	20,082	-0,355	-0,200
59,159	8,866	-0,379	-0,200
60,174	52,928	-0,383	-0,257
61,188	530,852	-0,206	-0,343
62,203	113,710	-0,320	-0,273
63,217	162,284	-0,268	-0,264
64,232	-87,215	-0,383	-0,081
65,247	122,276	-0,299	-0,262
66,261	51,714	-0,377	-0,251
67,276	7,731	-0,384	-0,201
68,290	42,074	-0,356	-0,226
69,305	-25,079	-0,383	-0,158
70,320	-41,293	-0,365	-0,131
71,334	-27,228	-0,409	-0,166
72,349	-93,721	-0,269	-0,052
73,363	256,187	-0,281	-0,339
74,378	-26,670	-0,359	-0,147
75,393	-35,372	-0,254	-0,096
76,407	-23,519	-0,221	-0,093
77,422	39,365	-0,246	-0,154
78,436	-26,601	-0,256	-0,104
79,451	6,060	-0,290	-0,150
80,466	217,316	-0,220	-0,246
81,480	153,651	-0,297	-0,285
82,495	51,481	-0,381	-0,253
83,509	-80,739	-0,353	-0,082
84,524	26,657	-0,205	-0,120
85,539	37,561	-0,242	-0,150
86,553	20,093	-0,227	-0,128
87,568	105,806	-0,213	-0,176
88,582	101,077	-0,334	-0,272
89,597	-29,061	-0,307	-0,123
90,611	-4,866	-0,214	-0,103
91,626	233,760	-0,194	-0,224
92,641	27,802	-0,152	-0,089
93,655	21,125	-0,115	-0,065
94,670	28,134	-0,264	-0,156
95,684	133,684	-0,321	-0,290
96,699	671,926	-0,194	-0,354
97,714	-200,000	-0,033	-0,331
98,728	-27,445	-0,403	-0,163
99,743	11,396	-0,209	-0,112
100,757	-25,200	-0,321	-0,132
101,772	-11,358	-0,268	-0,123
102,787	77,677	-0,277	-0,206
103,801	-65,337	-0,346	-0,097
104,816	132,833	-0,223	-0,202
105,830	546,910	-0,180	-0,301
106,845	35,904	-0,245	-0,151
107,860	132,870	-0,164	-0,148
108,874	173,271	-0,188	-0,189
109,889	137,984	-0,259	-0,237
110,903	-52,964	-0,291	-0,093
111,918	92,931	-0,220	-0,173
112,933	117,130	-0,177	-0,152
113,947	197,008	-0,125	-0,134
114,962	198,532	-0,278	-0,297
115,976	61,119	-0,258	-0,179
116,991	528,932	-0,115	-0,190
118,006	174,095	-0,160	-0,162
119,020	22,701	-0,300	-0,171
120,035	-90,239	-0,309	-0,062
121,049	27,689	-0,195	-0,114
122,064	-132,302	-0,335	-0,030
123,079	135,044	-0,203	-0,184
124,093	17,174	-0,199	-0,110
125,108	-35,559	-0,283	-0,106
126,122	208,197	-0,235	-0,257
127,137	-178,781	-0,188	-0,003
128,151	-103,135	-0,286	-0,047
129,166	-55,159	-0,208	-0,065
130,181	-156,709	-0,261	-0,011
131,195	156,006	-0,399	-0,384
132,210	-38,843	-0,335	-0,122
133,224	170,289	-0,284	-0,284
134,239	142,084	-0,270	-0,250
135,254	-85,446	-0,231	-0,050
136,268	10,671	-0,157	-0,083
137,283	260,631	-0,077	-0,092
138,297	151,629	-0,310	-0,294
139,312	507,846	-0,183	-0,297
140,327	416,859	-0,220	-0,328
141,341	88,213	-0,238	-0,184
142,356	-200,000	-0,049	-0,262
143,370	15,590	-0,231	-0,126
144,385	-31,552	-0,269	-0,105
145,400	68,687	-0,343	-0,245
146,414	228,681	-0,236	-0,268
147,429	-160,818	-0,233	-0,008
148,443	400,536	-0,205	-0,301
149,458	-100,052	-0,286	-0,049
150,473	80,598	-0,306	-0,230
151,487	22,610	-0,207	-0,118
152,502	10,290	-0,265	-0,140
153,516	527,246	-0,215	-0,354
154,531	800,000	-0,105	-0,307
155,546	31,787	-0,297	-0,178
156,560	139,732	-0,249	-0,228
157,575	106,012	-0,126	-0,104
158,589	-49,447	-0,175	-0,058
159,604	170,883	-0,206	-0,206
160,619	418,955	-0,181	-0,271
161,633	145,429	-0,226	-0,211
162,648	131,101	-0,255	-0,228
163,662	51,940	-0,124	-0,082
164,677	-127,923	-0,245	-0,024
165,692	30,136	-0,328	-0,194
166,706	-10,759	-0,233	-0,107
167,721	396,296	-0,120	-0,174
168,735	146,714	-0,235	-0,219
169,750	169,385	-0,139	-0,138
170,764	233,161	-0,182	-0,209
171,779	-38,917	-0,214	-0,078
172,794	93,294	-0,253	-0,199
173,808	26,839	-0,194	-0,113
174,823	33,233	-0,266	-0,160
175,837	-45,498	-0,227	-0,078
176,852	800,000	-0,047	-0,139
177,867	571,037	-0,133	-0,225
178,881	26,560	-0,190	-0,110
179,896	-200,000	-0,049	-0,158
180,910	573,746	-0,170	-0,288
181,925	146,532	-0,300	-0,280
182,940	227,688	-0,176	-0,199
183,954	65,905	-0,139	-0,098
184,969	201,227	-0,165	-0,176
185,983	64,263	-0,231	-0,161
186,998	14,012	-0,192	-0,103
188,013	-200,000	-0,040	-0,242
189,027	232,706	-0,180	-0,205
190,042	63,964	-0,182	-0,127
191,056	230,423	-0,165	-0,188
192,071	60,687	-0,263	-0,181
193,086	-14,833	-0,185	-0,082
194,100	73,893	-0,154	-0,112
195,115	81,230	-0,146	-0,109
196,129	12,347	-0,169	-0,090
197,144	53,361	-0,351	-0,233
198,159	272,030	-0,201	-0,246
199,173	94,072	-0,245	-0,193
200,188	147,582	-0,206	-0,192
201,202	379,615	-0,158	-0,225
202,217	188,591	-0,146	-0,152
203,232	800,000	-0,113	-0,221
204,246	1,126	-0,244	-0,121
205,261	46,215	-0,278	-0,178
206,275	634,550	-0,091	-0,161
207,290	-118,724	-0,104	0,013
208,304	-34,270	-0,186	-0,070
209,319	800,000	-0,119	-0,252
210,334	-25,803	-0,191	-0,078
211,348	45,256	-0,277	-0,176
212,363	-37,821	-0,227	-0,083
213,377	31,403	-0,205	-0,122
214,392	-200,000	0,012	-0,163
215,407	-170,740	-0,179	0,004
216,421	487,976	-0,102	-0,162
217,436	123,519	-0,115	-0,100
218,450	-120,851	-0,056	-0,006
219,465	-56,847	-0,198	-0,060
220,480	154,161	-0,154	-0,146
221,494	-101,469	-0,134	-0,022
222,509	225,501	-0,130	-0,146
223,523	-94,855	-0,204	-0,038
224,538	800,000	-0,101	-0,235
225,553	20,493	-0,201	-0,112
226,567	-200,000	-0,059	-0,205
227,582	-89,696	-0,236	-0,047
228,596	13,695	-0,244	-0,131
229,611	-52,720	-0,052	0,016
230,626	-36,942	-0,144	-0,053
231,640	-169,711	-0,231	-0,006
232,655	87,160	-0,219	-0,167
233,669	29,928	-0,253	-0,149
234,684	81,632	-0,128	-0,096
235,699	18,264	-0,215	-0,118
236,713	55,099	-0,165	-0,110
237,728	-46,355	-0,093	-0,031
238,742	20,252	-0,165	-0,092
239,757	80,622	-0,246	-0,183
240,772	77,358	-0,273	-0,200
241,786	213,272	-0,199	-0,217
242,801	277,406	-0,174	-0,214
243,815	223,244	-0,078	-0,087
244,830	-18,474	-0,160	-0,069
245,844	-90,705	-0,228	-0,045
246,859	51,162	-0,211	-0,138
247,874	164,903	-0,219	-0,214
248,888	226,350	-0,209	-0,234
249,903	266,243	-0,172	-0,207
250,917	456,377	-0,085	-0,131
251,932	74,078	-0,202	-0,146
252,947	-200,000	0,001	-0,164
253,961	519,695	-0,192	-0,311
254,976	800,000	-0,091	-0,255
255,990	190,433	-0,181	-0,188
257,005	-200,000	0,000	-0,059
258,020	269,712	-0,156	-0,190
259,034	800,000	-0,071	-0,150
260,049	310,962	-0,114	-0,148
261,063	222,381	-0,132	-0,147
262,078	32,113	-0,264	-0,157
263,093	800,000	-0,064	-0,128
264,107	-2,232	-0,085	-0,041
265,122	-25,267	-0,156	-0,063
266,136	-43,996	-0,186	-0,064
267,151	23,416	-0,165	-0,093
268,166	2,645	-0,129	-0,064
269,180	160,912	-0,137	-0,132
270,195	241,069	-0,186	-0,214
271,209	457,920	-0,131	-0,201
272,224	1,787	-0,063	0,031
273,239	-134,496	-0,217	0,018
274,253	772,926	-0,055	-0,104
275,268	-200,000	-0,017	-0,073
276,282	163,365	-0,164	-0,159
277,297	-179,938	-0,217	0,003
278,312	73,983	-0,120	-0,087
279,326	800,000	-0,074	-0,177
280,341	479,328	-0,062	-0,097
281,355	22,291	-0,145	-0,081
282,370	90,479	-0,197	-0,152
283,384	14,091	-0,193	-0,103
284,399	670,373	-0,080	-0,143
285,414	358,457	-0,177	-0,244
286,428	27,524	-0,112	-0,064
287,443	-48,863	-0,096	-0,032
288,457	139,861	-0,196	-0,178
289,472	50,772	-0,109	-0,071
290,487	-80,500	-0,268	-0,061
291,501	44,654	-0,213	-0,134
292,516	12,750	-0,169	-0,089
293,530	2,469	-0,102	-0,050
294,545	800,000	-0,069	-0,197
295,560	659,800	0,044	0,078
296,574	-41,018	-0,069	-0,024
297,589	136,617	-0,225	-0,202
298,603	602,364	-0,073	-0,125
299,618	-200,000	-0,017	-0,181
300,633	304,665	-0,147	-0,189
301,647	135,592	-0,087	-0,078
302,662	-9,850	-0,158	0,072
303,676	21,742	-0,245	-0,137
304,691	377,241	-0,175	-0,246
305,706	-74,478	-0,103	-0,025
306,720	-148,287	-0,269	0,015
307,735	-172,993	-0,177	-0,004
308,749	-4,448	-0,107	-0,050
309,764	-76,064	-0,037	0,009
310,779	175,439	-0,119	-0,119
311,793	225,511	-0,126	-0,140
312,808	-1,494	-0,222	-0,107
313,822	-39,791	-0,148	-0,053
314,837	-200,000	-0,064	-0,204
315,852	-142,158	-0,205	-0,014
316,866	-200,000	-0,035	-0,179
317,881	103,575	-0,097	-0,078
318,895	-69,346	-0,106	0,028
319,910	49,460	-0,230	-0,148
320,925	-157,658	-0,200	-0,008
321,939	-133,111	-0,169	-0,014
322,954	-64,096	-0,198	-0,055
323,968	-82,216	-0,119	-0,026
324,983	670,385	-0,064	-0,114
325,997	81,094	-0,234	-0,173
327,012	242,535	-0,222	-0,255
328,027	192,673	-0,123	-0,128
329,041	-72,278	-0,134	-0,034
330,056	800,000	-0,066	-0,164
331,070	55,608	-0,106	-0,071
332,085	88,099	-0,079	-0,060
333,100	105,531	-0,148	-0,120
334,114	-200,000	-0,085	-0,338
335,129	177,319	-0,058	-0,058
336,143	474,643	-0,102	-0,159
337,158	97,866	-0,130	-0,102
338,173	46,344	-0,121	0,077
339,187	38,817	-0,134	-0,082
340,202	88,020	-0,124	-0,094
341,216	292,795	-0,147	-0,184
342,231	-34,679	-0,147	-0,055
343,246	319,927	-0,113	-0,148
344,260	-200,000	-0,076	-0,238
345,275	-65,725	-0,145	0,039
346,289	256,917	-0,041	-0,048
347,304	26,560	-0,178	-0,102
348,319	61,902	-0,068	-0,046
349,333	248,446	-0,176	-0,205
350,348	-50,922	-0,163	-0,052
351,362	67,627	-0,155	-0,108
352,377	-65,145	-0,086	-0,023
353,392	190,167	-0,078	-0,080
354,406	553,345	0,026	0,043
355,421	206,356	1311,498	1398,078
356,435	158,705	1471,781	1398,560
