DTS Sentinel unit serial number:	SN410029Multiplexer serial number:	ORYXHardware model number:	OX2-SRSoftware version number:	ORYX F/W v4,00 Oryx Data Collector v3.7.2.0data status	okinstallation	B3 Nyhavnadifferential loss correction	single-endedforward channel	channel 1reverse channel	N/Adate	2023/12/01time	20:17:30forward acquisition time	300,00reverse acquisition time	0,00gamma	499,1914k internal	0,3198k external	0,3198temperature offset calibration	1,0000default loss term (dB/km)	0,3820temperature slope calibration	1,0000multiplexer offset coefficient	1,0000multiplexer slope coefficient	1,0000fibre end	0,00T internal ref (°C)	15,81T ext. ref 1 (°C)	1,48T ext. ref 2 (°C)	1,47length (m)	temperature (°C)	Stokes	anti-Stokes-744,400	648,459	-0,151	-0,283
-743,385	-200,000	0,049	0,393
-742,371	319,792	-0,252	-0,349
-741,356	800,000	0,075	0,204
-740,342	769,123	-0,093	-0,185
-739,327	-200,000	-0,005	0,268
-738,312	67,868	-0,232	-0,173
-737,298	-200,000	-0,074	0,321
-736,283	-25,542	-0,110	-0,047
-735,269	800,000	0,135	0,401
-734,254	158,826	-0,259	-0,262
-733,239	-125,200	-0,210	0,023
-732,225	800,000	-0,113	-0,319
-731,210	800,000	0,045	0,121
-730,196	349,450	-0,058	0,083
-729,181	800,000	-0,007	0,020
-728,167	-94,899	0,120	0,023
-727,152	-16,539	0,035	0,016
-726,137	46,047	-0,065	0,044
-725,123	-23,899	-0,106	0,046
-724,108	736,294	-0,076	-0,148
-723,094	295,148	-0,102	-0,136
-722,079	-200,000	-0,003	-0,152
-721,064	-200,000	0,007	-0,081
-720,050	35,352	0,033	0,021
-719,035	104,205	-0,107	-0,091
-718,021	-200,000	-0,016	-0,073
-717,006	52,084	-0,136	-0,094
-715,991	800,000	0,045	-0,105
-714,977	30,206	-0,068	0,042
-713,962	221,253	-0,075	-0,087
-712,948	163,631	-0,066	0,067
-711,933	131,402	-0,070	0,066
-710,918	-200,000	-0,007	0,065
-709,904	556,573	0,011	0,019
-708,889	175,233	-0,191	-0,201
-707,875	-181,313	-0,158	-0,002
-706,860	800,000	0,062	-0,151
-705,845	800,000	0,012	-0,027
-704,831	781,184	0,092	0,183
-703,816	-181,142	0,049	-0,001
-702,802	564,085	-0,054	-0,096
-701,787	-200,000	-0,013	-0,047
-700,772	-0,768	-0,123	0,063
-699,758	-200,000	0,008	0,031
-698,743	-200,000	0,014	0,141
-697,729	800,000	-0,048	-0,145
-696,714	800,000	0,035	0,111
-695,699	-112,790	-0,081	-0,011
-694,685	-200,000	0,025	-0,114
-693,670	87,955	-0,099	-0,080
-692,656	499,637	-0,032	0,054
-691,641	228,796	-0,034	-0,041
-690,627	-37,286	-0,092	-0,036
-689,612	800,000	0,076	0,165
-688,597	-200,000	-0,017	-0,131
-687,583	-71,182	-0,166	0,045
-686,568	-117,837	-0,077	-0,010
-685,554	145,540	-0,109	-0,106
-684,539	-200,000	-0,017	-0,090
-683,524	-200,000	-0,003	-0,118
-682,510	800,000	-0,019	-0,049
-681,495	179,619	-0,046	0,049
-680,481	121,485	0,021	-0,019
-679,466	-13,993	0,031	-0,015
-678,451	800,000	0,031	0,082
-677,437	-200,000	-0,017	0,157
-676,422	209,594	0,093	-0,106
-675,408	-138,836	0,056	-0,004
-674,393	77,758	-0,066	-0,051
-673,378	18,282	-0,130	-0,075
-672,364	-200,000	0,018	-0,109
-671,349	-73,132	-0,043	-0,011
-670,335	145,947	0,027	-0,027
-669,320	622,783	0,033	0,060
-668,305	-200,000	-0,011	0,063
-667,291	-200,000	0,005	0,068
-666,276	104,437	0,047	-0,040
-665,262	-200,000	0,012	-0,070
-664,247	-200,000	-0,026	-0,087
-663,232	394,182	-0,041	-0,062
-662,218	-200,000	0,044	-0,147
-661,203	-200,000	-0,002	0,119
-660,189	168,446	-0,077	0,079
-659,174	-16,879	-0,124	-0,057
-658,159	800,000	-0,050	-0,119
-657,145	91,124	-0,120	-0,098
-656,130	-200,000	0,030	-0,151
-655,116	-124,159	-0,027	0,003
-654,101	-37,745	0,033	0,013
-653,086	-37,987	0,048	-0,018
-652,072	-51,173	0,017	-0,006
-651,057	-200,000	0,016	-0,098
-650,043	-200,000	0,001	0,008
-649,028	-124,159	0,072	-0,008
-648,014	-65,911	-0,113	0,033
-646,999	-112,957	0,047	-0,007
-645,984	568,762	0,079	0,140
-644,970	800,000	-0,037	-0,114
-643,955	-200,000	-0,008	-0,048
-642,941	800,000	0,029	-0,062
-641,926	-127,949	-0,157	0,016
-640,911	234,134	0,040	0,048
-639,897	33,845	0,099	0,062
-638,882	-13,657	0,055	-0,026
-637,868	-200,000	-0,019	-0,188
-636,853	-200,000	-0,023	-0,130
-635,838	-85,609	0,018	-0,004
-634,824	440,755	0,028	0,044
-633,809	-200,000	-0,019	0,077
-632,795	236,595	-0,023	0,028
-631,780	-75,165	0,008	0,002
-630,765	-72,580	-0,130	0,034
-629,751	800,000	-0,072	-0,210
-628,736	800,000	0,032	-0,064
-627,722	-85,936	0,062	-0,014
-626,707	-24,432	-0,137	-0,059
-625,692	800,000	0,023	0,070
-624,678	800,000	-0,023	0,054
-623,663	51,876	0,091	-0,063
-622,649	-200,000	0,005	-0,026
-621,634	75,292	0,068	-0,052
-620,619	-166,306	-0,128	-0,004
-619,605	325,425	0,079	-0,110
-618,590	800,000	-0,059	0,171
-617,576	54,491	-0,037	0,026
-616,561	330,390	-0,060	-0,085
-615,546	-200,000	-0,018	0,066
-614,532	-68,161	-0,069	-0,019
-613,517	485,886	0,050	-0,082
-612,503	-8,657	-0,049	-0,024
-611,488	45,054	-0,057	0,038
-610,474	-173,320	0,093	-0,002
-609,459	-100,687	0,029	0,005
-608,444	-24,529	-0,125	0,054
-607,430	800,000	-0,060	-0,132
-606,415	373,639	-0,030	-0,044
-605,401	-200,000	0,019	-0,117
-604,386	106,886	-0,036	-0,031
-603,371	-200,000	0,023	0,124
-602,357	-200,000	-0,004	0,044
-601,342	800,000	0,047	-0,148
-600,328	-134,383	0,103	-0,009
-599,313	-200,000	-0,011	-0,168
-598,298	112,257	-0,052	-0,046
-597,284	-81,921	0,034	-0,008
-596,269	800,000	-0,037	0,088
-595,255	-89,185	0,053	0,011
-594,240	-200,000	0,010	-0,034
-593,225	-200,000	0,021	-0,180
-592,211	58,129	-0,127	-0,090
-591,196	-200,000	-0,047	-0,197
-590,182	800,000	-0,043	0,122
-589,167	-127,188	-0,060	-0,006
-588,152	800,000	0,010	0,027
-587,138	800,000	-0,019	0,040
-586,123	-69,212	0,072	-0,020
-585,109	280,123	-0,060	-0,077
-584,094	-18,724	-0,064	0,029
-583,079	125,296	-0,054	0,049
-582,065	-43,401	0,034	-0,012
-581,050	-200,000	-0,020	0,083
-580,036	-121,615	-0,103	-0,012
-579,021	21,107	-0,101	-0,059
-578,006	76,032	0,031	-0,024
-576,992	5,799	0,036	-0,019
-575,977	-122,099	-0,029	0,003
-574,963	79,227	0,069	0,053
-573,948	187,021	0,106	0,114
-572,934	-26,677	-0,089	-0,038
-571,919	-200,000	-0,012	0,100
-570,904	317,549	-0,045	-0,061
-569,890	-39,932	-0,086	0,032
-568,875	-52,102	0,089	0,030
-567,861	-200,000	-0,006	0,175
-566,846	-36,925	0,202	-0,078
-565,831	123,481	0,067	0,060
-564,817	-200,000	-0,034	-0,143
-563,802	-200,000	-0,026	-0,129
-562,788	-186,628	-0,205	-0,002
-561,773	-65,649	-0,082	0,024
-560,758	27,137	-0,039	0,024
-559,744	309,502	-0,007	-0,009
-558,729	-97,585	-0,081	-0,015
-557,715	-103,330	-0,078	0,013
-556,700	77,576	-0,055	-0,043
-555,685	-136,302	-0,024	0,002
-554,671	-3,195	-0,128	-0,064
-553,656	11,899	-0,145	-0,081
-552,642	-32,521	0,076	0,031
-551,627	-162,076	0,044	0,002
-550,612	-42,344	-0,081	0,030
-549,598	-5,664	-0,035	-0,017
-548,583	597,312	0,075	-0,135
-547,569	99,297	-0,134	0,112
-546,554	378,308	-0,045	0,067
-545,539	-200,000	-0,011	0,100
-544,525	-77,408	0,131	0,033
-543,510	120,107	-0,038	-0,034
-542,496	77,620	-0,122	0,094
-541,481	-65,639	0,064	-0,019
-540,466	-62,154	0,060	-0,018
-539,452	-142,623	0,071	-0,005
-538,437	-200,000	-0,026	0,131
-537,423	-200,000	0,001	-0,083
-536,408	-4,777	0,055	-0,027
-535,393	163,710	-0,072	-0,073
-534,379	-101,023	-0,202	0,035
-533,364	-118,667	0,096	-0,012
-532,350	-64,217	0,019	-0,006
-531,335	-17,118	0,113	-0,051
-530,321	103,472	0,052	0,044
-529,306	285,209	0,077	-0,101
-528,291	15,570	0,056	0,032
-527,277	-51,080	-0,038	0,013
-526,262	178,931	0,070	0,074
-525,248	-18,248	0,080	0,036
-524,233	-33,263	0,113	-0,045
-523,218	2,988	0,053	0,027
-522,204	-200,000	0,024	0,102
-521,189	-200,000	0,022	-0,105
-520,175	28,547	-0,062	-0,038
-519,160	-153,164	-0,023	0,001
-518,145	402,749	0,073	-0,112
-517,131	-36,322	0,142	-0,055
-516,116	-93,815	0,029	-0,006
-515,102	-23,100	-0,098	0,042
-514,087	-94,019	-0,094	0,018
-513,072	29,434	-0,107	-0,065
-512,058	1,942	0,035	-0,018
-511,043	399,434	0,089	-0,134
-510,029	718,474	0,025	-0,047
-509,014	16,512	0,099	0,056
-507,999	-73,991	0,100	-0,026
-506,985	-200,000	0,035	0,114
-505,970	-32,243	-0,114	0,046
-504,956	94,323	0,052	-0,042
-503,941	-32,216	0,037	0,015
-502,926	800,000	0,068	-0,177
-501,912	-200,000	-0,016	-0,118
-500,897	-109,989	0,119	-0,018
-499,883	-84,752	-0,132	0,030
-498,868	800,000	-0,007	-0,021
-497,853	8,395	0,061	-0,033
-496,839	204,566	0,030	-0,034
-495,824	255,474	0,070	0,087
-494,810	458,764	0,022	-0,036
-493,795	-136,463	0,198	0,016
-492,781	26,691	0,027	0,016
-491,766	25,974	-0,117	-0,070
-490,751	-85,734	-0,166	-0,037
-489,737	450,432	0,023	0,037
-488,722	-88,790	0,126	0,027
-487,708	253,127	-0,071	0,087
-486,693	47,505	0,023	0,016
-485,678	800,000	0,031	-0,078
-484,664	-115,892	-0,117	0,016
-483,649	53,448	-0,042	-0,029
-482,635	258,496	0,070	-0,087
-481,620	-200,000	-0,004	0,037
-480,605	-200,000	0,011	0,134
-479,591	86,096	0,072	0,057
-478,576	-200,000	0,005	-0,038
-477,562	-200,000	-0,039	0,145
-476,547	-26,342	-0,081	-0,034
-475,532	-89,082	0,038	-0,008
-474,518	217,079	0,031	0,035
-473,503	-200,000	0,002	-0,050
-472,489	63,212	-0,017	0,012
-471,474	-76,696	0,094	-0,024
-470,459	-67,117	-0,093	0,026
-469,445	-143,116	-0,091	-0,006
-468,430	-200,000	0,011	-0,045
-467,416	800,000	-0,025	-0,054
-466,401	800,000	-0,039	-0,105
-465,386	502,195	0,093	0,155
-464,372	-75,890	0,077	-0,019
-463,357	-200,000	-0,010	-0,057
-462,343	75,996	0,028	0,021
-461,328	-27,451	-0,081	0,034
-460,313	682,072	0,022	-0,042
-459,299	-16,152	-0,085	-0,039
-458,284	-200,000	-0,002	-0,096
-457,270	800,000	-0,060	0,143
-456,255	-86,158	-0,176	0,039
-455,241	192,345	0,026	0,028
-454,226	-27,372	0,022	-0,009
-453,211	21,733	0,048	0,028
-452,197	59,351	0,034	-0,024
-451,182	269,529	0,051	-0,064
-450,168	-72,457	-0,044	0,012
-449,153	-200,000	-0,016	0,125
-448,138	19,225	-0,182	-0,105
-447,124	-200,000	0,037	-0,130
-446,109	-187,501	0,029	0,000
-445,095	56,587	0,072	0,050
-444,080	524,446	-0,036	0,061
-443,065	36,860	-0,059	0,037
-442,051	-46,157	0,024	0,008
-441,036	114,717	-0,075	-0,066
-440,022	48,256	-0,141	0,095
-439,007	-107,722	0,150	0,023
-437,992	-200,000	0,015	0,115
-436,978	375,559	0,072	0,105
-435,963	-200,000	-0,006	-0,078
-434,949	58,344	0,073	0,051
-433,934	-200,000	0,024	0,136
-432,919	-104,520	0,035	-0,006
-431,905	709,018	-0,036	0,068
-430,890	-69,303	-0,107	-0,029
-429,876	73,765	0,046	0,035
-428,861	-132,843	-0,050	0,005
-427,846	-54,915	0,140	-0,045
-426,832	-200,000	-0,043	-0,228
-425,817	-200,000	-0,005	-0,109
-424,803	-87,039	0,050	-0,011
-423,788	113,311	0,067	-0,059
-422,773	800,000	0,046	0,102
-421,759	127,600	-0,122	0,111
-420,744	104,171	0,078	0,066
-419,730	752,054	0,005	0,010
-418,715	-200,000	0,008	-0,222
-417,701	-125,629	0,031	-0,003
-416,686	-80,232	-0,019	-0,005
-415,671	-196,296	-0,080	0,000
-414,657	-109,054	0,073	-0,011
-413,642	134,935	0,099	0,092
-412,628	-200,000	0,016	-0,254
-411,613	13,147	-0,024	-0,014
-410,598	800,000	0,025	-0,057
-409,584	-81,644	0,165	-0,039
-408,569	-200,000	0,001	0,017
-407,555	285,755	0,112	0,145
-406,540	91,276	-0,049	0,039
-405,525	800,000	-0,017	0,037
-404,511	-69,188	-0,170	0,047
-403,496	-200,000	-0,025	0,093
-402,482	-200,000	0,007	0,058
-401,467	-82,848	-0,077	-0,018
-400,452	800,000	0,080	-0,186
-399,438	63,917	-0,011	-0,008
-398,423	-200,000	0,014	0,054
-397,409	65,279	-0,139	0,101
-396,394	1,566	-0,149	-0,077
-395,379	2,017	0,170	-0,088
-394,365	-4,733	-0,081	0,040
-393,350	-200,000	0,017	0,116
-392,336	800,000	0,055	0,169
-391,321	-28,542	-0,091	0,038
-390,306	-57,978	-0,028	0,009
-389,292	-200,000	0,008	-0,142
-388,277	-61,726	-0,147	0,044
-387,263	-200,000	0,007	-0,078
-386,248	-200,000	-0,066	0,228
-385,233	369,903	-0,014	0,021
-384,219	-148,496	-0,198	0,011
-383,204	-40,917	0,052	0,019
-382,190	129,084	-0,047	-0,043
-381,175	-200,000	0,020	-0,120
-380,160	-200,000	-0,026	-0,221
-379,146	115,457	0,018	0,016
-378,131	-200,000	-0,047	0,166
-377,117	800,000	-0,027	0,081
-376,102	176,751	-0,097	-0,102
-375,088	-59,015	-0,063	0,019
-374,073	-0,577	0,149	0,076
-373,058	-200,000	0,007	0,083
-372,044	-200,000	-0,004	0,131
-371,029	800,000	-0,009	-0,021
-370,015	431,680	-0,037	-0,057
-369,000	280,532	0,058	-0,075
-367,985	71,651	-0,073	0,054
-366,971	800,000	0,017	0,037
-365,956	298,604	-0,013	-0,017
-364,942	800,000	-0,037	0,094
-363,927	-200,000	-0,019	-0,095
-362,912	-86,519	-0,089	0,019
-361,898	-200,000	0,022	-0,073
-360,883	767,231	0,047	-0,092
-359,869	125,902	0,035	-0,032
-358,854	-15,658	0,029	0,013
-357,839	155,436	-0,112	0,111
-356,825	-3,065	0,129	-0,064
-355,810	-200,000	-0,004	-0,026
-354,796	800,000	0,035	-0,090
-353,781	800,000	-0,031	0,083
-352,766	542,724	-0,059	-0,101
-351,752	341,174	0,036	0,051
-350,737	280,074	0,067	-0,086
-349,723	434,715	-0,058	-0,090
-348,708	-200,000	0,034	0,147
-347,693	364,215	-0,070	-0,102
-346,679	31,595	-0,056	0,035
-345,664	800,000	0,048	0,102
-344,650	504,398	-0,060	-0,099
-343,635	800,000	-0,037	0,086
-342,620	181,728	-0,097	0,103
-341,606	11,917	0,141	0,078
-340,591	-73,835	0,057	0,015
-339,577	-69,802	-0,062	0,017
-338,562	800,000	-0,036	-0,100
-337,548	-101,477	0,078	0,014
-336,533	-200,000	0,007	-0,036
-335,518	-79,734	0,095	-0,023
-334,504	-48,351	0,080	-0,028
-333,489	80,351	-0,027	0,021
-332,475	-85,273	-0,043	-0,009
-331,460	-200,000	-0,026	0,087
-330,445	229,104	0,080	-0,094
-329,431	-200,000	-0,007	0,032
-328,416	-200,000	0,004	0,163
-327,402	-122,785	-0,058	0,007
-326,387	78,272	0,054	-0,041
-325,372	41,188	-0,098	-0,063
-324,358	-200,000	-0,004	0,056
-323,343	-200,000	0,001	0,011
-322,329	3,844	0,070	-0,037
-321,314	184,215	0,129	0,137
-320,299	-100,212	0,120	0,021
-319,285	293,420	-0,056	0,073
-318,270	-3,075	0,158	-0,079
-317,256	53,367	0,040	-0,027
-316,241	-200,000	-0,007	-0,047
-315,226	-157,990	-0,045	0,002
-314,212	257,267	0,050	-0,062
-313,197	117,671	0,039	0,035
-312,183	-200,000	0,027	-0,145
-311,168	279,815	0,050	-0,064
-310,153	800,000	0,016	0,041
-309,139	-200,000	-0,000	-0,133
-308,124	89,118	0,066	0,052
-307,110	471,829	0,042	0,069
-306,095	-105,326	0,071	0,011
-305,080	-186,460	-0,088	0,001
-304,066	-31,207	-0,130	0,052
-303,051	263,528	-0,058	-0,072
-302,037	59,584	0,085	-0,060
-301,022	-34,624	0,004	0,002
-300,008	273,344	0,037	0,046
-298,993	182,772	-0,067	0,071
-297,978	140,635	0,048	0,046
-296,964	-106,876	-0,078	-0,012
-295,949	-12,982	0,028	-0,013
-294,935	251,723	-0,052	0,064
-293,920	193,886	-0,011	0,012
-292,905	183,906	0,121	0,128
-291,891	183,622	0,108	0,114
-290,876	-200,000	-0,001	0,104
-289,862	230,480	-0,076	0,089
-288,847	249,000	-0,051	-0,061
-287,832	105,004	0,036	-0,030
-286,818	800,000	-0,048	0,116
-285,803	-89,773	0,084	-0,017
-284,789	-200,000	0,031	-0,101
-283,774	208,428	0,083	-0,092
-282,759	-200,000	0,026	-0,088
-281,745	-200,000	0,024	-0,086
-280,730	-200,000	0,019	-0,092
-279,716	-2,107	-0,093	-0,046
-278,701	-77,559	0,212	0,052
-277,686	48,971	0,138	-0,093
-276,672	41,155	-0,100	0,065
-275,657	-24,596	-0,152	-0,064
-274,643	629,568	-0,039	-0,071
-273,628	-200,000	-0,027	0,086
-272,613	-200,000	-0,004	0,017
-271,599	-30,937	-0,166	-0,067
-270,584	57,158	0,052	-0,036
-269,570	-132,224	-0,177	-0,016
-268,555	800,000	-0,018	0,048
-267,540	160,878	0,049	-0,049
-266,526	73,617	0,086	-0,065
-265,511	137,193	-0,084	0,078
-264,497	139,677	0,055	-0,051
-263,482	-50,557	-0,116	-0,039
-262,467	187,591	0,108	0,115
-261,453	609,473	-0,056	0,100
-260,438	800,000	0,103	-0,218
-259,424	-12,942	0,114	0,053
-258,409	440,191	0,037	-0,058
-257,395	-200,000	-0,014	0,067
-256,380	650,799	0,050	0,091
-255,365	264,467	-0,004	-0,005
-254,351	-67,949	0,119	-0,033
-253,336	-200,000	-0,027	-0,117
-252,322	500,641	-0,063	0,104
-251,307	-84,824	-0,022	0,005
-250,292	800,000	-0,051	0,107
-249,278	122,443	-0,014	0,012
-248,263	559,015	0,044	0,075
-247,249	-91,154	-0,088	-0,018
-246,234	-64,832	0,094	-0,027
-245,219	44,077	-0,092	-0,060
-244,205	-200,000	-0,015	0,105
-243,190	-200,000	0,029	0,126
-242,176	46,045	0,069	-0,046
-241,161	800,000	0,030	-0,087
-240,146	-18,405	-0,158	-0,070
-239,132	438,507	0,018	-0,028
-238,117	103,914	0,055	-0,046
-237,103	-111,685	-0,086	0,012
-236,088	-53,018	-0,093	-0,030
-235,073	60,855	0,083	-0,059
-234,059	9,185	0,093	-0,050
-233,044	800,000	0,033	0,081
-232,030	-200,000	-0,022	0,138
-231,015	174,778	0,012	0,012
-230,000	40,960	-0,077	0,050
-228,986	-200,000	0,020	-0,082
-227,971	-200,000	-0,002	-0,204
-226,957	-103,911	0,191	-0,031
-225,942	800,000	-0,019	-0,044
-224,927	-69,479	0,125	0,034
-223,913	-200,000	0,022	0,080
-222,898	430,649	-0,076	-0,117
-221,884	800,000	-0,059	-0,181
-220,869	358,881	0,090	0,129
-219,855	-200,000	-0,008	0,069
-218,840	800,000	-0,011	0,033
-217,825	-179,606	-0,079	0,001
-216,811	236,300	-0,045	0,054
-215,796	281,661	-0,055	-0,071
-214,782	10,672	-0,152	0,082
-213,767	800,000	-0,045	0,125
-212,752	-42,876	-0,045	0,016
-211,738	-114,475	0,180	-0,024
-210,723	-104,114	-0,051	0,008
-209,709	-17,060	0,096	-0,043
-208,694	270,349	-0,089	-0,112
-207,679	249,851	0,077	-0,094
-206,665	-116,293	-0,105	-0,014
-205,650	800,000	0,030	0,085
-204,636	800,000	-0,045	0,131
-203,621	112,544	0,062	0,054
-202,606	-47,287	-0,068	0,024
-201,592	653,883	0,033	0,060
-200,577	249,712	-0,086	0,104
-199,563	-48,479	-0,115	-0,039
-198,548	245,157	0,070	-0,084
-197,533	-200,000	0,035	0,114
-196,519	273,355	-0,083	0,105
-195,504	284,549	-0,135	0,173
-194,490	323,163	-0,104	0,142
-193,475	-150,285	0,062	-0,003
-192,460	800,000	-0,022	0,053
-191,446	636,338	-0,041	0,074
-190,431	186,139	0,157	0,166
-189,417	-134,635	0,115	0,010
-188,402	-70,398	-0,037	0,010
-187,387	800,000	-0,015	-0,035
-186,373	35,882	0,037	-0,023
-185,358	-131,630	-0,149	-0,014
-184,344	800,000	0,048	0,109
-183,329	40,292	-0,093	0,060
-182,315	546,061	-0,030	-0,051
-181,300	-15,917	0,113	0,051
-180,285	59,627	0,075	-0,052
-179,271	138,152	0,084	0,079
-178,256	635,661	0,031	-0,056
-177,242	-200,000	0,019	0,103
-176,227	-12,935	0,189	0,087
-175,212	-130,090	0,031	-0,003
-174,198	336,677	0,059	0,082
-173,183	335,998	-0,012	0,017
-172,169	-200,000	-0,011	-0,091
-171,154	-200,000	0,017	-0,102
-170,139	-111,855	-0,142	-0,020
-169,125	-200,000	-0,004	0,046
-168,110	-200,000	-0,018	-0,088
-167,096	-200,000	-0,029	0,114
-166,081	141,926	-0,034	-0,032
-165,066	800,000	0,036	-0,111
-164,052	468,504	0,013	-0,020
-163,037	106,708	0,055	0,046
-162,023	78,152	0,066	0,050
-161,008	-200,000	0,025	0,152
-159,993	67,402	0,068	0,049
-158,979	-200,000	-0,003	-0,072
-157,964	140,757	0,134	-0,126
-156,950	18,851	0,072	0,041
-155,935	-200,000	0,000	0,108
-154,920	800,000	0,060	-0,129
-153,906	-16,661	0,095	0,043
-152,891	86,261	-0,045	-0,035
-151,877	-110,373	-0,116	0,017
-150,862	-200,000	0,020	-0,131
-149,847	-153,463	0,075	-0,004
-148,833	-6,837	-0,102	0,049
-147,818	12,140	-0,059	0,032
-146,804	-0,472	-0,026	0,013
-145,789	679,561	0,029	0,055
-144,775	-200,000	0,009	0,110
-143,760	137,838	-0,023	-0,022
-142,745	800,000	-0,043	-0,114
-141,731	-102,765	0,049	-0,008
-140,716	-200,000	0,011	0,057
-139,702	-200,000	-0,002	0,019
-138,687	105,641	-0,045	0,038
-137,672	-76,540	-0,099	0,024
-136,658	-96,135	-0,045	0,008
-135,643	197,103	0,083	0,090
-134,629	-200,000	-0,004	0,034
-133,614	-200,000	0,031	-0,110
-132,599	-90,652	-0,030	0,006
-131,585	800,000	0,039	0,079
-130,570	5,191	-0,049	-0,026
-129,556	-200,000	-0,001	0,078
-128,541	187,974	-0,080	0,085
-127,526	214,524	0,083	-0,093
-126,512	79,150	-0,064	0,049
-125,497	800,000	0,063	-0,128
-124,483	741,059	-0,044	-0,084
-123,468	-70,385	0,108	-0,029
-122,453	-200,000	0,013	-0,146
-121,439	800,000	-0,033	-0,074
-120,424	-67,296	-0,109	0,030
-119,410	-108,415	0,089	-0,014
-118,395	-200,000	-0,019	0,092
-117,380	-77,777	0,063	0,015
-116,366	800,000	-0,049	-0,109
-115,351	578,869	-0,107	0,186
-114,337	-200,000	-0,020	-0,077
-113,322	-200,000	0,008	0,028
-112,307	-72,748	-0,127	0,033
-111,293	239,158	0,081	-0,096
-110,278	-67,843	0,091	0,025
-109,264	-91,257	0,059	-0,012
-108,249	138,247	0,053	-0,050
-107,234	-200,000	-0,001	-0,027
-106,220	155,529	-0,140	-0,137
-105,205	62,068	0,105	0,074
-104,191	-200,000	0,002	0,079
-103,176	-25,618	0,205	0,085
-102,162	463,997	-0,074	0,118
-101,147	24,653	0,052	-0,030
-100,132	647,267	-0,031	0,057
-99,118	396,056	-0,042	-0,062
-98,103	478,875	0,061	0,099
-97,089	-31,775	0,107	-0,042
-96,074	800,000	-0,053	0,158
-95,059	-5,177	0,132	-0,064
-94,045	800,000	0,066	-0,154
-93,030	138,241	0,054	-0,050
-92,016	10,330	-0,121	0,065
-91,001	318,763	-0,075	-0,101
-89,986	-73,735	0,093	-0,024
-88,972	-98,059	0,089	0,016
-87,957	800,000	-0,020	0,062
-86,943	259,879	0,044	-0,054
-85,928	-200,000	-0,041	-0,220
-84,913	800,000	-0,059	-0,122
-83,899	-200,000	0,009	0,071
-82,884	-200,000	0,027	0,149
-81,870	-73,807	0,121	-0,031
-80,855	30,693	0,128	-0,077
-79,840	-154,086	-0,133	0,006
-78,826	-200,000	-0,040	-0,129
-77,811	404,364	-0,064	-0,096
-76,797	-200,000	-0,018	0,070
-75,782	-157,544	0,158	-0,007
-74,767	-54,728	0,118	-0,038
-73,753	-200,000	-0,010	-0,084
-72,738	-59,861	-0,023	0,007
-71,724	-109,924	-0,123	-0,018
-70,709	-200,000	-0,022	0,075
-69,694	800,000	-0,045	-0,110
-68,680	-90,641	0,150	0,030
-67,665	-200,000	0,006	0,125
-66,651	-200,000	0,008	0,126
-65,636	-200,000	-0,008	0,108
-64,622	-200,000	0,007	-0,039
-63,607	-46,454	0,043	-0,015
-62,592	-118,641	0,069	0,009
-61,578	-164,745	0,131	-0,004
-60,563	590,601	0,060	-0,104
-59,549	800,000	0,036	0,076
-58,534	-45,241	-1,403	-0,491
-57,519	447,324	-1,408	-2,204
-56,505	-200,000	-0,488	-4,297
-55,490	148,563	0,823	0,789
-54,476	800,000	4,608	11,177
-53,461	-200,000	17,775	282,314
-52,446	800,000	720,578	2224,360
-51,432	561,696	1634,841	2812,968
-50,417	80,852	1658,413	1266,585
-49,403	23,684	1532,392	891,962
-48,388	17,635	1455,875	818,259
-47,373	18,169	1445,569	814,998
-46,359	17,763	1436,172	807,729
-45,344	15,869	1431,570	796,110
-44,330	15,856	1429,458	794,842
-43,315	15,847	1427,677	793,776
-42,300	15,838	1426,278	792,926
-41,286	15,924	1424,878	792,522
-40,271	15,900	1423,639	791,686
-39,257	15,855	1422,385	790,747
-38,242	15,922	1421,014	790,271
-37,227	15,930	1419,787	789,594
-36,213	15,935	1418,512	788,874
-35,198	15,885	1417,473	788,030
-34,184	15,949	1416,353	787,680
-33,169	15,844	1415,308	786,573
-32,154	15,898	1414,093	786,119
-31,140	15,925	1412,785	785,490
-30,125	15,948	1411,563	784,883
-29,111	15,917	1410,397	784,060
-28,096	15,897	1409,387	783,376
-27,082	15,812	1408,504	782,455
-26,067	15,848	1407,227	781,883
-25,052	15,843	1406,191	781,252
-24,038	15,838	1405,067	780,574
-23,023	15,789	1404,184	779,826
-22,009	15,789	1403,128	779,207
-20,994	15,787	1402,222	778,663
-19,979	15,782	1401,400	778,152
-18,965	15,790	1400,116	777,447
-17,950	15,786	1399,277	776,931
-16,936	15,764	1398,289	776,250
-15,921	15,781	1396,944	775,550
-14,906	15,742	1396,194	774,921
-13,892	15,756	1395,256	774,438
-12,877	15,742	1394,511	773,926
-11,863	15,726	1393,553	773,290
-10,848	15,722	1392,560	772,692
-9,833	15,712	1391,740	772,159
-8,819	15,688	1390,681	771,429
-7,804	15,643	1389,903	770,761
-6,790	15,666	1388,694	770,163
-5,775	15,640	1387,710	769,467
-4,760	15,634	1387,041	769,040
-3,746	15,642	1386,052	768,499
-2,731	15,623	1385,369	768,000
-1,717	15,608	1384,237	767,272
-0,702	15,617	1382,478	766,311
0,313	19,389	1303,318	739,834
1,327	35,603	706,584	438,658
2,342	55,045	125,165	85,507
3,356	5,673	16,474	8,596
4,371	16,136	3,107	1,729
5,386	20,917	0,426	0,244
6,400	800,000	0,067	0,136
7,415	318,970	-0,152	-0,204
8,429	36,032	-0,341	-0,212
9,444	60,143	-0,309	-0,216
10,459	-61,521	-0,315	-0,093
11,473	25,509	-0,294	-0,172
12,488	190,892	-0,150	-0,160
13,502	-65,915	-0,430	-0,121
14,517	156,745	-0,349	-0,341
15,531	230,408	-0,330	-0,382
16,546	142,556	-0,314	-0,295
17,561	33,011	-0,406	-0,248
18,575	-73,914	-0,152	0,039
19,590	211,072	-0,188	-0,210
20,604	51,132	-0,327	-0,219
21,619	63,017	-0,399	-0,282
22,634	258,590	-0,339	-0,413
23,648	121,346	-0,437	-0,385
24,663	163,120	-0,354	-0,351
25,677	-10,813	-0,394	-0,183
26,692	89,271	-0,248	-0,195
27,707	125,575	-0,321	-0,287
28,721	15,796	-0,366	-0,203
29,736	127,750	-0,429	-0,385
30,750	124,948	-0,374	-0,333
31,765	362,045	-0,311	-0,442
32,780	180,227	-0,346	-0,359
33,794	85,654	-0,344	-0,267
34,809	143,742	-0,256	-0,241
35,823	203,792	-0,286	-0,313
36,838	50,909	-0,400	-0,267
37,853	22,835	-0,452	-0,261
38,867	64,385	-0,414	-0,294
39,882	108,687	-0,328	-0,276
40,896	-7,276	-0,259	-0,123
41,911	-31,867	-0,196	-0,077
42,926	36,381	-0,436	-0,271
43,940	16,139	-0,356	-0,198
44,955	105,642	-0,303	-0,252
45,969	369,007	-0,201	-0,287
46,984	241,541	-0,218	-0,258
47,999	221,042	-0,249	-0,282
49,013	105,776	-0,218	-0,182
50,028	-52,853	-0,368	-0,119
51,042	86,276	-0,364	-0,283
52,057	60,153	-0,356	-0,248
53,071	516,307	-0,229	-0,380
54,086	-24,550	-0,416	-0,174
55,101	31,731	-0,322	-0,195
56,115	-37,520	-0,369	-0,138
57,130	48,967	-0,271	-0,179
58,144	5,502	-0,378	-0,196
59,159	68,493	-0,390	-0,282
60,174	64,807	-0,384	-0,273
61,188	48,467	-0,408	-0,269
62,203	37,509	-0,331	-0,206
63,217	31,250	-0,148	-0,089
64,232	-28,718	-0,374	-0,151
65,247	75,679	-0,350	-0,260
66,261	-9,946	-0,430	-0,200
67,276	12,867	-0,419	-0,227
68,290	39,501	-0,336	-0,211
69,305	85,716	-0,292	-0,225
70,320	13,121	-0,312	-0,169
71,334	46,474	-0,279	-0,182
72,349	-28,361	-0,333	-0,135
73,363	107,800	-0,424	-0,355
74,378	31,715	-0,344	-0,208
75,393	342,557	-0,293	-0,404
76,407	205,230	-0,240	-0,263
77,422	800,000	-0,124	-0,386
78,436	169,255	-0,232	-0,233
79,451	108,404	-0,236	-0,198
80,466	93,083	-0,313	-0,249
81,480	-4,116	-0,495	-0,241
82,495	143,678	-0,296	-0,278
83,509	151,908	-0,229	-0,220
84,524	25,696	-0,261	-0,153
85,539	115,696	-0,167	-0,144
86,553	60,546	-0,357	-0,248
87,568	23,962	-0,314	-0,182
88,582	-95,420	-0,316	-0,059
89,597	45,733	-0,269	-0,174
90,611	-53,644	-0,353	-0,113
91,626	-55,919	-0,331	-0,103
92,641	-53,185	-0,203	-0,065
93,655	175,616	-0,207	-0,211
94,670	118,226	-0,156	-0,135
95,684	41,585	-0,301	-0,191
96,699	243,174	-0,204	-0,241
97,714	-54,927	-0,268	-0,084
98,728	17,849	-0,186	-0,104
99,743	37,814	-0,353	-0,220
100,757	127,217	-0,315	-0,281
101,772	164,948	-0,286	-0,283
102,787	47,350	-0,269	-0,175
103,801	149,027	-0,237	-0,225
104,816	242,904	-0,177	-0,208
105,830	-96,858	-0,269	-0,049
106,845	543,625	-0,204	-0,343
107,860	-132,716	-0,376	0,033
108,874	36,585	-0,198	-0,123
109,889	5,807	-0,306	-0,158
110,903	-60,169	-0,398	-0,118
111,918	609,859	-0,173	-0,305
112,933	21,011	-0,299	-0,170
113,947	8,376	-0,159	-0,084
114,962	54,546	-0,249	-0,168
115,976	74,124	-0,253	-0,186
116,991	-15,382	-0,264	-0,118
118,006	2,600	-0,265	-0,134
119,020	43,409	-0,398	-0,255
120,035	108,591	-0,141	-0,118
121,049	126,445	-0,230	-0,204
122,064	157,626	-0,217	-0,210
123,079	-35,395	-0,217	-0,082
124,093	59,863	-0,223	-0,154
125,108	220,510	-0,277	-0,312
126,122	167,257	-0,167	-0,166
127,137	23,789	-0,238	-0,137
128,151	18,805	-0,197	-0,110
129,166	90,395	-0,285	-0,223
130,181	35,287	-0,281	-0,172
131,195	800,000	-0,101	-0,244
132,210	34,767	-0,287	-0,176
133,224	27,823	-0,248	-0,146
134,239	87,906	-0,259	-0,201
135,254	31,595	-0,234	-0,140
136,268	199,759	-0,138	-0,148
137,283	69,077	-0,348	-0,250
138,297	311,003	-0,265	-0,348
139,312	15,462	-0,321	-0,176
140,327	612,476	-0,192	-0,337
141,341	64,112	-0,271	-0,191
142,356	209,446	-0,182	-0,200
143,370	72,165	-0,300	-0,218
144,385	97,553	-0,222	-0,178
145,400	-40,032	-0,364	-0,132
146,414	67,043	-0,279	-0,198
147,429	125,568	-0,288	-0,254
148,443	-8,815	-0,271	-0,127
149,458	101,443	-0,278	-0,226
150,473	-134,352	-0,163	-0,014
151,487	165,491	-0,212	-0,210
152,502	279,110	-0,241	-0,301
153,516	21,804	-0,325	-0,184
154,531	183,322	-0,130	-0,134
155,546	800,000	-0,100	-0,208
156,560	200,745	-0,145	-0,156
157,575	74,427	-0,267	-0,196
158,589	-60,688	-0,167	-0,049
159,604	3,264	-0,153	-0,078
160,619	235,216	-0,182	-0,210
161,633	-24,931	-0,350	-0,144
162,648	488,396	-0,154	-0,246
163,662	114,263	-0,199	-0,169
164,677	53,051	-0,171	-0,114
165,692	41,981	-0,240	-0,152
166,706	578,830	-0,152	-0,261
167,721	338,673	-0,139	-0,189
168,735	-36,541	-0,144	-0,054
169,750	195,895	-0,149	-0,159
170,764	800,000	-0,071	-0,182
171,779	-163,463	-0,250	0,008
172,794	-1,001	-0,240	-0,118
173,808	0,781	-0,236	-0,118
174,823	-66,860	-0,180	-0,049
175,837	196,313	-0,168	-0,179
176,852	344,518	-0,210	-0,288
177,867	65,492	-0,187	-0,132
178,881	-45,070	-0,223	-0,077
179,896	224,370	-0,210	-0,237
180,910	24,453	-0,263	-0,151
181,925	97,678	-0,247	-0,198
182,940	777,270	-0,095	-0,183
183,954	-137,129	-0,297	-0,023
184,969	172,136	-0,223	-0,224
185,983	10,306	-0,170	-0,090
186,998	353,483	-0,117	-0,163
188,013	9,916	-0,181	-0,096
189,027	-14,374	-0,177	-0,079
190,042	245,703	-0,200	-0,235
191,056	800,000	-0,077	-0,165
192,071	92,900	-0,257	-0,202
193,086	12,147	-0,124	-0,066
194,100	148,311	-0,127	-0,119
195,115	-4,390	-0,183	-0,088
196,129	-70,300	-0,253	-0,066
197,144	252,850	-0,164	-0,196
198,159	800,000	-0,090	-0,231
199,173	318,386	-0,090	-0,119
200,188	150,484	-0,135	-0,128
201,202	199,951	-0,172	-0,184
202,217	-122,978	-0,219	0,024
203,232	103,342	-0,228	-0,186
204,246	125,939	-0,181	-0,160
205,261	308,039	-0,155	-0,202
206,275	-189,159	-0,240	-0,002
207,290	234,690	-0,156	-0,179
208,304	153,453	-0,151	-0,144
209,319	800,000	-0,103	-0,218
210,334	323,615	-0,184	-0,245
211,348	20,988	-0,227	-0,128
212,363	47,940	-0,287	-0,186
213,377	-38,577	-0,148	-0,054
214,392	89,612	-0,084	-0,065
215,407	9,757	-0,178	-0,093
216,421	12,477	-0,261	-0,139
217,436	-37,996	-0,160	-0,059
218,450	-200,000	-0,111	0,000
219,465	403,524	-0,133	-0,195
220,480	-162,051	-0,292	-0,010
221,494	462,353	-0,101	-0,157
222,509	291,432	-0,176	-0,223
223,523	40,216	-0,156	-0,097
224,538	42,784	-0,217	-0,137
225,553	217,435	-0,201	-0,223
226,567	-138,985	-0,227	-0,017
227,582	800,000	-0,175	-0,362
228,596	-112,764	-0,131	-0,018
229,611	319,296	-0,174	-0,230
230,626	-160,875	-0,225	-0,008
231,640	-200,000	-0,052	-0,253
232,655	444,956	-0,186	-0,284
233,669	182,356	-0,194	-0,199
234,684	211,381	-0,212	-0,232
235,699	-21,238	-0,189	-0,080
236,713	-34,052	-0,266	-0,101
237,728	-74,345	-0,120	-0,030
238,742	-76,819	-0,172	-0,041
239,757	374,665	-0,123	-0,174
240,772	9,530	-0,305	-0,160
241,786	98,995	-0,221	-0,177
242,801	-183,288	-0,311	0,004
243,815	280,228	-0,064	-0,079
244,830	-17,325	-0,170	-0,074
245,844	-141,529	-0,183	0,013
246,859	323,472	-0,121	-0,160
247,874	73,842	-0,128	-0,093
248,888	120,525	-0,069	-0,059
249,903	800,000	-0,045	-0,097
250,917	662,977	-0,118	-0,211
251,932	-10,276	-0,086	-0,039
252,947	179,155	-0,131	-0,133
253,961	85,973	-0,241	-0,183
254,976	95,071	-0,126	-0,099
255,990	-103,117	-0,204	-0,033
257,005	-58,614	-0,094	-0,028
258,020	181,927	-0,103	-0,105
259,034	-82,546	-0,115	-0,026
260,049	-161,622	-0,191	-0,007
261,063	70,556	-0,113	-0,081
262,078	169,282	-0,191	-0,189
263,093	274,026	-0,150	-0,184
264,107	800,000	-0,086	-0,240
265,122	248,584	-0,185	-0,218
266,136	-44,950	-0,089	0,031
267,151	516,922	-0,109	-0,177
268,166	145,860	-0,133	-0,123
269,180	159,896	-0,093	-0,090
270,195	237,619	-0,093	-0,107
271,209	-34,096	-0,243	-0,092
272,224	438,884	-0,137	-0,207
273,239	23,053	-0,177	-0,100
274,253	544,889	-0,053	-0,089
275,268	41,950	-0,177	-0,111
276,282	72,452	-0,312	-0,225
277,297	-55,097	-0,121	-0,037
278,312	800,000	-0,100	-0,278
279,326	91,068	-0,166	-0,129
280,341	-81,929	-0,158	-0,035
281,355	109,096	-0,224	-0,186
282,370	53,563	-0,094	-0,062
283,384	-46,399	-0,231	-0,078
284,399	702,136	-0,065	-0,120
285,414	-19,069	-0,239	-0,102
286,428	107,303	-0,121	-0,099
287,443	-14,410	-0,140	-0,062
288,457	6,370	-0,130	-0,066
289,472	-105,766	-0,156	0,024
290,487	168,755	-0,092	-0,091
291,501	7,347	-0,206	-0,106
292,516	169,756	-0,198	-0,196
293,530	800,000	-0,076	-0,224
294,545	62,357	-0,227	-0,157
295,560	-6,131	-0,106	-0,050
296,574	33,668	-0,178	-0,106
297,589	-45,213	-0,225	-0,077
298,603	1,495	-0,178	-0,088
299,618	800,000	-0,071	-0,177
300,633	155,887	-0,154	-0,146
301,647	173,046	-0,082	-0,081
302,662	56,768	-0,126	-0,084
303,676	-101,251	-0,181	0,030
304,691	15,078	-0,179	-0,096
305,706	-79,055	-0,139	-0,032
306,720	63,014	-0,078	-0,054
307,735	747,949	-0,070	-0,130
308,749	14,858	-0,086	-0,046
309,764	-27,079	-0,141	-0,056
310,779	466,190	-0,067	-0,103
311,793	209,000	-0,098	-0,106
312,808	-60,490	-0,273	-0,079
313,822	197,126	-0,168	-0,177
314,837	49,506	-0,192	-0,125
315,852	-68,031	-0,172	-0,046
316,866	118,320	-0,067	-0,057
317,881	-67,450	-0,088	-0,024
318,895	242,627	-0,114	-0,131
319,910	-48,048	-0,100	0,033
320,925	-2,123	-0,161	-0,078
321,939	-127,970	-0,175	-0,017
322,954	-200,000	-0,047	-0,252
323,968	66,840	-0,033	-0,023
324,983	-77,734	-0,051	-0,012
325,997	-5,569	-0,135	-0,064
327,012	800,000	-0,061	-0,173
328,027	146,948	-0,167	-0,155
329,041	140,072	-0,138	-0,125
330,056	397,117	-0,115	-0,165
331,070	472,766	-0,077	-0,120
332,085	-13,104	-0,149	0,066
333,100	136,890	-0,080	-0,072
334,114	387,130	-0,139	-0,198
335,129	187,385	-0,239	-0,245
336,143	61,910	-0,104	-0,071
337,158	306,751	-0,066	-0,085
338,173	-200,000	-0,038	-0,179
339,187	-84,781	-0,117	0,025
340,202	507,296	-0,054	-0,086
341,216	-200,000	-0,063	-0,207
342,231	800,000	-0,078	-0,187
343,246	143,649	-0,141	-0,129
344,260	-200,000	0,030	-0,125
345,275	800,000	-0,060	-0,131
346,289	800,000	-0,018	-0,037
347,304	442,456	-0,106	-0,160
348,319	109,667	-0,120	-0,099
349,333	181,778	-0,167	-0,169
350,348	-167,691	-0,178	-0,005
351,362	-23,567	0,041	-0,017
352,377	800,000	-0,062	-0,151
353,392	24,005	-0,075	-0,042
354,406	-95,630	-0,147	0,027
355,421	209,183	1313,149	1413,977
356,435	160,990	1473,706	1414,506
