DTS Sentinel unit serial number:	SN410029Multiplexer serial number:	ORYXHardware model number:	OX2-SRSoftware version number:	ORYX F/W v4,00 Oryx Data Collector v3.7.2.0data status	okinstallation	B3 Nyhavnadifferential loss correction	single-endedforward channel	channel 1reverse channel	N/Adate	2023/12/01time	21:02:30forward acquisition time	300,00reverse acquisition time	0,00gamma	499,1914k internal	0,3196k external	0,3196temperature offset calibration	1,0000default loss term (dB/km)	0,3820temperature slope calibration	1,0000multiplexer offset coefficient	1,0000multiplexer slope coefficient	1,0000fibre end	0,00T internal ref (°C)	16,00T ext. ref 1 (°C)	1,35T ext. ref 2 (°C)	1,33length (m)	temperature (°C)	Stokes	anti-Stokes-744,400	111,885	-0,244	-0,215
-743,385	371,374	0,118	0,175
-742,371	800,000	-0,101	-0,252
-741,356	-200,000	0,115	0,373
-740,342	800,000	-0,077	-0,181
-739,327	-200,000	-0,014	0,314
-738,312	800,000	-0,157	-0,374
-737,298	-200,000	-0,065	0,305
-736,283	301,321	-0,197	-0,265
-735,269	561,398	0,124	0,219
-734,254	800,000	-0,076	-0,206
-733,239	-29,572	-0,125	0,052
-732,225	-200,000	-0,067	-0,266
-731,210	172,128	-0,085	0,089
-730,196	-44,376	0,121	-0,044
-729,181	-64,703	-0,048	-0,014
-728,167	-51,727	-0,070	-0,024
-727,152	32,662	-0,054	0,034
-726,137	34,648	-0,215	-0,136
-725,123	800,000	-0,047	0,112
-724,108	-7,098	0,059	0,029
-723,094	-200,000	0,010	-0,046
-722,079	-96,373	-0,152	0,029
-721,064	349,067	-0,119	-0,172
-720,050	396,036	0,064	0,098
-719,035	72,524	-0,135	0,102
-718,021	-200,000	-0,020	0,172
-717,006	-162,031	-0,137	0,005
-715,991	-200,000	-0,017	-0,134
-714,977	100,902	-0,062	-0,053
-713,962	95,928	0,058	0,048
-712,948	800,000	0,034	0,085
-711,933	130,570	0,046	-0,043
-710,918	29,381	-0,092	-0,056
-709,904	-71,673	0,073	-0,020
-708,889	-65,565	-0,174	-0,050
-707,875	78,473	-0,078	-0,061
-706,860	800,000	0,063	-0,159
-705,845	-73,176	0,084	0,022
-704,831	800,000	0,021	-0,064
-703,816	-67,182	-0,028	0,008
-702,802	99,496	0,027	-0,023
-701,787	511,048	-0,048	-0,081
-700,772	-74,843	-0,113	0,029
-699,758	31,737	0,067	0,042
-698,743	-200,000	-0,000	-0,078
-697,729	-200,000	-0,009	0,093
-696,714	-154,932	0,029	0,001
-695,699	163,189	-0,012	-0,012
-694,685	-199,337	0,035	-0,000
-693,670	-200,000	0,018	-0,069
-692,656	-164,898	-0,114	0,004
-691,641	657,779	0,050	-0,094
-690,627	-200,000	-0,018	-0,067
-689,612	800,000	0,028	-0,078
-688,597	800,000	-0,064	-0,154
-687,583	-141,340	-0,053	-0,004
-686,568	-66,574	-0,074	-0,021
-685,554	-200,000	0,023	-0,078
-684,539	-200,000	0,037	0,156
-683,524	136,220	0,049	0,046
-682,510	-200,000	0,026	0,163
-681,495	800,000	-0,023	0,063
-680,481	800,000	0,036	-0,077
-679,466	569,379	-0,096	-0,170
-678,451	129,803	-0,171	-0,159
-677,437	-200,000	-0,003	0,059
-676,422	-200,000	-0,005	0,067
-675,408	-200,000	-0,003	-0,050
-674,393	-109,263	-0,104	-0,016
-673,378	706,468	0,028	0,054
-672,364	-99,421	-0,036	-0,007
-671,349	800,000	0,012	-0,038
-670,335	183,454	-0,036	-0,039
-669,320	-200,000	-0,001	0,004
-668,305	1,401	0,029	0,015
-667,291	800,000	-0,023	-0,063
-666,276	-153,728	-0,199	-0,010
-665,262	-39,083	-0,156	-0,059
-664,247	62,769	-0,046	-0,033
-663,232	800,000	-0,015	0,048
-662,218	800,000	-0,008	-0,024
-661,203	800,000	-0,036	-0,086
-660,189	-31,093	0,041	0,017
-659,174	-166,193	-0,118	0,004
-658,159	186,662	0,028	-0,030
-657,145	-200,000	-0,001	0,110
-656,130	440,422	0,028	0,044
-655,116	191,023	-0,051	0,056
-654,101	214,072	-0,028	0,032
-653,086	800,000	0,017	0,040
-652,072	140,368	0,115	-0,110
-651,057	-52,820	-0,153	0,051
-650,043	-200,000	0,024	-0,122
-649,028	-1,735	-0,096	0,049
-648,014	67,903	-0,080	0,059
-646,999	-12,052	0,107	-0,051
-645,984	526,703	-0,047	-0,081
-644,970	-200,000	-0,022	0,072
-643,955	127,795	-0,028	-0,026
-642,941	11,173	-0,186	-0,103
-641,926	64,141	0,077	0,056
-640,911	-200,000	-0,015	0,195
-639,897	-130,704	-0,219	-0,021
-638,882	-200,000	-0,002	0,047
-637,868	-200,000	-0,038	-0,159
-636,853	-200,000	-0,010	0,098
-635,838	-48,992	0,083	-0,029
-634,824	-200,000	0,009	0,057
-633,809	310,696	0,127	0,173
-632,795	346,903	-0,073	0,104
-631,780	-28,256	-0,059	-0,025
-630,765	83,162	0,048	0,038
-629,751	-151,157	-0,084	0,005
-628,736	275,985	-0,054	-0,069
-627,722	83,751	0,066	0,052
-626,707	-50,410	0,083	0,028
-625,692	800,000	-0,018	0,050
-624,678	-200,000	-0,013	-0,129
-623,663	345,309	0,079	-0,113
-622,649	204,063	-0,101	0,114
-621,634	675,767	0,026	-0,049
-620,619	320,144	-0,061	-0,085
-619,605	36,795	0,076	-0,049
-618,590	75,707	-0,029	0,022
-617,576	-61,465	-0,077	-0,023
-616,561	-75,366	0,048	0,012
-615,546	-20,083	0,036	-0,016
-614,532	-58,310	-0,096	-0,030
-613,517	800,000	-0,034	0,098
-612,503	-179,423	0,070	-0,001
-611,488	84,138	-0,086	0,068
-610,474	181,358	-0,040	-0,042
-609,459	-83,977	0,166	0,038
-608,444	237,259	0,059	-0,071
-607,430	381,011	-0,077	-0,115
-606,415	105,844	0,059	-0,051
-605,401	-108,002	0,088	-0,014
-604,386	800,000	0,036	-0,082
-603,371	23,597	0,058	-0,035
-602,357	-55,391	-0,181	-0,058
-601,342	32,439	-0,089	0,055
-600,328	-57,382	-0,050	-0,016
-599,313	-200,000	-0,003	-0,101
-598,298	-50,640	0,156	-0,053
-597,284	-200,000	-0,003	0,037
-596,269	800,000	-0,017	0,038
-595,255	-200,000	0,013	0,086
-594,240	163,233	0,096	-0,098
-593,225	800,000	-0,055	-0,123
-592,211	-200,000	-0,003	-0,081
-591,196	800,000	0,028	0,081
-590,182	3,349	-0,187	0,098
-589,167	-200,000	-0,007	0,112
-588,152	146,698	0,079	-0,077
-587,138	-50,190	-0,104	0,035
-586,123	-200,000	0,004	0,059
-585,109	-66,994	-0,089	0,025
-584,094	800,000	0,013	0,031
-583,079	118,385	-0,049	-0,043
-582,065	-200,000	-0,009	0,101
-581,050	-200,000	-0,058	0,192
-580,036	800,000	0,039	0,092
-579,021	-73,508	-0,106	-0,028
-578,006	800,000	-0,028	0,068
-576,992	800,000	0,006	-0,016
-575,977	5,536	-0,008	-0,004
-574,963	-200,000	-0,022	0,114
-573,948	-200,000	-0,001	0,004
-572,934	-200,000	-0,006	-0,034
-571,919	-131,992	0,071	0,007
-570,904	38,603	-0,059	-0,038
-569,890	-111,061	-0,036	0,005
-568,875	605,435	0,028	0,050
-567,861	-200,000	0,001	0,091
-566,846	800,000	0,042	-0,117
-565,831	-50,971	0,162	-0,055
-564,817	274,285	-0,098	-0,126
-563,802	-72,868	0,101	-0,027
-562,788	218,568	-0,148	-0,172
-561,773	29,167	0,100	-0,061
-560,758	-200,000	0,017	0,178
-559,744	-200,000	0,007	-0,046
-558,729	-103,245	-0,059	-0,010
-557,715	33,204	-0,050	0,032
-556,700	-200,000	0,013	0,107
-555,685	-35,627	-0,073	-0,029
-554,671	800,000	-0,043	0,110
-553,656	632,244	0,026	0,047
-552,642	-12,963	0,141	0,066
-551,627	86,072	-0,079	0,063
-550,612	208,377	-0,071	-0,081
-549,598	286,483	-0,090	-0,117
-548,583	800,000	0,061	-0,123
-547,569	800,000	0,022	-0,068
-546,554	103,804	0,099	0,084
-545,539	-200,000	-0,007	-0,024
-544,525	-200,000	0,008	-0,026
-543,510	-200,000	0,023	0,125
-542,496	499,780	0,046	0,077
-541,481	54,017	0,034	0,024
-540,466	770,175	-0,022	0,044
-539,452	-200,000	0,005	-0,109
-538,437	308,810	-0,069	-0,093
-537,423	-200,000	-0,035	-0,182
-536,408	-174,399	-0,097	-0,002
-535,393	-200,000	-0,002	0,042
-534,379	800,000	-0,041	-0,088
-533,364	-200,000	0,016	-0,079
-532,350	800,000	-0,035	-0,088
-531,335	-200,000	0,002	0,088
-530,321	-200,000	0,024	0,081
-529,306	173,661	0,026	-0,027
-528,291	-200,000	0,000	-0,056
-527,277	-1,528	0,075	0,038
-526,262	800,000	-0,032	0,074
-525,248	800,000	0,108	0,258
-524,233	-200,000	0,005	-0,020
-523,218	86,201	-0,034	0,027
-522,204	-27,122	0,050	-0,021
-521,189	-130,329	-0,032	0,003
-520,175	800,000	0,047	-0,105
-519,160	37,254	-0,060	0,038
-518,145	629,808	0,018	0,033
-517,131	403,988	0,014	0,021
-516,116	472,794	-0,066	0,108
-515,102	680,683	0,029	0,055
-514,087	115,209	0,043	-0,038
-513,072	-138,945	-0,143	-0,011
-512,058	326,735	-0,058	0,081
-511,043	-196,824	0,024	-0,000
-510,029	-94,703	-0,028	0,005
-509,014	-200,000	0,015	0,084
-507,999	25,324	-0,023	-0,014
-506,985	-97,268	-0,074	-0,014
-505,970	-200,000	-0,025	-0,087
-504,956	800,000	-0,018	-0,054
-503,941	87,404	0,092	-0,073
-502,926	265,797	0,022	0,027
-501,912	-133,774	-0,090	0,008
-500,897	-67,364	0,103	0,029
-499,883	-200,000	-0,031	0,119
-498,868	230,075	-0,088	-0,105
-497,853	-106,637	-0,102	-0,016
-496,839	258,523	0,063	-0,078
-495,824	800,000	-0,032	0,080
-494,810	-200,000	-0,022	0,124
-493,795	289,009	0,072	0,094
-492,781	733,197	-0,048	0,093
-491,766	357,273	-0,041	0,059
-490,751	-87,014	0,010	-0,002
-489,737	596,080	0,067	0,120
-488,722	-200,000	0,017	0,150
-487,708	-122,858	-0,040	-0,005
-486,693	-15,819	0,064	-0,029
-485,678	523,311	-0,024	0,041
-484,664	-200,000	-0,008	-0,062
-483,649	-200,000	0,003	-0,090
-482,635	-25,058	0,090	-0,038
-481,620	-200,000	-0,020	-0,133
-480,605	-200,000	0,004	0,095
-479,591	-200,000	-0,017	0,112
-478,576	185,283	-0,055	-0,059
-477,562	38,404	-0,055	-0,035
-476,547	800,000	-0,044	-0,105
-475,532	-57,176	0,164	0,052
-474,518	-31,095	0,130	-0,053
-473,503	283,519	-0,045	0,059
-472,489	-200,000	0,008	0,127
-471,474	-200,000	-0,005	0,091
-470,459	394,981	0,034	-0,051
-469,445	334,194	0,034	0,048
-468,430	800,000	-0,018	0,046
-467,416	800,000	-0,046	-0,144
-466,401	196,483	0,032	-0,035
-465,386	-28,694	0,096	-0,039
-464,372	200,492	0,068	0,075
-463,357	27,251	-0,099	-0,060
-462,343	800,000	-0,009	-0,020
-461,328	35,145	-0,143	-0,090
-460,313	-200,000	0,026	0,121
-459,299	167,865	-0,066	0,068
-458,284	800,000	-0,034	-0,075
-457,270	-200,000	-0,007	-0,034
-456,255	-104,192	-0,061	-0,010
-455,241	34,104	0,040	-0,025
-454,226	30,273	-0,115	-0,071
-453,211	-200,000	0,001	-0,044
-452,197	-200,000	0,011	-0,078
-451,182	359,661	0,023	-0,033
-450,168	-172,298	-0,125	-0,003
-449,153	-84,484	0,147	-0,033
-448,138	-200,000	0,021	-0,102
-447,124	121,640	0,026	-0,023
-446,109	110,789	-0,027	0,023
-445,095	-200,000	0,023	0,097
-444,080	54,308	0,146	0,101
-443,065	-200,000	0,044	0,167
-442,051	4,278	-0,142	-0,075
-441,036	800,000	-0,076	-0,164
-440,022	-200,000	0,036	-0,191
-439,007	800,000	0,034	-0,083
-437,992	-124,245	0,027	0,003
-436,978	570,878	-0,007	0,012
-435,963	-200,000	0,011	0,036
-434,949	800,000	-0,007	0,017
-433,934	217,696	0,068	0,079
-432,919	-200,000	0,012	-0,056
-431,905	-200,000	-0,002	-0,174
-430,890	-23,212	-0,083	-0,036
-429,876	118,239	0,017	0,015
-428,861	800,000	-0,061	0,125
-427,846	-200,000	-0,022	-0,101
-426,832	800,000	0,042	-0,084
-425,817	271,660	-0,028	0,036
-424,803	-200,000	0,017	0,066
-423,788	353,105	-0,036	-0,052
-422,773	-76,518	0,083	0,021
-421,759	726,868	-0,048	-0,092
-420,744	-39,873	0,045	-0,017
-419,730	306,602	0,032	0,043
-418,715	-41,548	-0,019	-0,007
-417,701	32,656	-0,061	0,038
-416,686	634,878	0,095	0,174
-415,671	-53,049	-0,074	0,024
-414,657	66,078	0,049	0,035
-413,642	-200,000	0,009	-0,057
-412,628	800,000	0,064	0,172
-411,613	171,087	-0,086	-0,089
-410,598	-200,000	-0,014	-0,147
-409,584	-162,947	0,054	-0,002
-408,569	-200,000	0,020	-0,068
-407,555	568,755	0,017	-0,029
-406,540	266,377	-0,054	-0,068
-405,525	-200,000	-0,005	0,097
-404,511	-160,055	-0,085	-0,003
-403,496	144,039	-0,070	-0,067
-402,482	183,510	0,036	-0,039
-401,467	129,304	0,115	0,106
-400,452	-200,000	0,022	0,085
-399,438	-1,261	0,004	0,002
-398,423	-200,000	0,011	-0,061
-397,409	-200,000	-0,012	0,050
-396,394	-200,000	0,007	0,171
-395,379	602,444	0,045	0,080
-394,365	-90,178	-0,047	-0,010
-393,350	-120,257	0,082	-0,010
-392,336	-24,383	-0,060	-0,026
-391,321	-59,531	-0,089	-0,027
-390,306	-200,000	0,016	-0,084
-389,292	285,091	-0,101	-0,131
-388,277	539,473	0,045	0,077
-387,263	-150,140	0,128	0,007
-386,248	108,673	-0,059	0,051
-385,233	-127,970	-0,046	-0,005
-384,219	-200,000	0,011	-0,068
-383,204	140,741	-0,044	-0,041
-382,190	113,166	-0,037	-0,032
-381,175	-200,000	-0,017	-0,063
-380,160	114,323	-0,096	0,084
-379,146	-200,000	0,006	0,036
-378,131	292,994	0,030	-0,040
-377,117	72,801	0,136	0,102
-376,102	-200,000	-0,030	0,111
-375,088	109,709	-0,014	-0,012
-374,073	294,580	0,044	0,058
-373,058	199,709	-0,055	-0,061
-372,044	158,140	0,043	-0,043
-371,029	99,222	0,067	0,056
-370,015	688,739	0,033	-0,063
-369,000	800,000	0,062	-0,143
-367,985	204,370	0,022	-0,025
-366,971	-59,413	0,098	-0,030
-365,956	800,000	0,039	-0,123
-364,942	-81,247	0,091	-0,021
-363,927	-50,484	-0,101	-0,034
-362,912	-44,130	-0,103	0,037
-361,898	-50,030	0,021	-0,007
-360,883	-200,000	-0,039	-0,163
-359,869	-200,000	-0,011	-0,040
-358,854	91,700	0,078	-0,063
-357,839	-200,000	0,015	0,065
-356,825	466,397	0,038	0,062
-355,810	-17,094	-0,015	0,007
-354,796	-200,000	-0,010	0,051
-353,781	-200,000	0,011	0,062
-352,766	35,295	-0,050	0,031
-351,752	56,987	0,079	0,055
-350,737	43,229	-0,075	0,049
-349,723	351,836	-0,045	0,064
-348,708	257,870	0,071	0,088
-347,693	-200,000	0,034	-0,117
-346,679	1,935	-0,139	-0,072
-345,664	800,000	0,072	-0,149
-344,650	-60,022	0,105	-0,032
-343,635	124,736	-0,021	0,019
-342,620	2,326	0,078	-0,040
-341,606	-81,056	-0,015	0,004
-340,591	-200,000	0,005	-0,052
-339,577	-48,587	-0,081	-0,028
-338,562	-124,101	-0,080	0,009
-337,548	800,000	-0,018	0,055
-336,533	-96,101	0,070	-0,013
-335,518	-178,315	0,097	0,002
-334,504	178,968	0,078	0,082
-333,489	194,154	-0,079	-0,086
-332,475	-194,778	-0,140	-0,001
-331,460	-200,000	0,003	-0,030
-330,445	-200,000	-0,017	0,084
-329,431	-200,000	0,031	-0,098
-328,416	800,000	0,030	0,067
-327,402	101,570	0,152	0,127
-326,387	-53,335	-0,061	0,020
-325,372	-75,342	-0,086	-0,022
-324,358	232,514	-0,079	-0,094
-323,343	-200,000	0,019	0,095
-322,329	-200,000	0,021	-0,094
-321,314	-123,940	0,105	-0,012
-320,299	615,168	-0,048	0,087
-319,285	-40,463	0,097	0,036
-318,270	800,000	0,025	-0,075
-317,256	39,848	0,103	-0,066
-316,241	-200,000	-0,001	0,058
-315,226	800,000	0,045	-0,094
-314,212	800,000	0,065	0,192
-313,197	-80,897	-0,038	0,009
-312,183	513,823	0,030	0,050
-311,168	-128,659	-0,144	0,014
-310,153	-22,224	0,007	-0,003
-309,139	-166,091	0,142	-0,004
-308,124	-1,413	0,081	0,041
-307,110	410,842	-0,040	-0,061
-306,095	800,000	0,034	0,096
-305,080	95,986	0,017	0,014
-304,066	800,000	-0,035	0,074
-303,051	241,750	-0,068	-0,081
-302,037	-16,686	-0,025	-0,011
-301,022	800,000	-0,035	-0,111
-300,008	70,903	-0,095	0,070
-298,993	-200,000	-0,012	-0,043
-297,978	436,600	-0,069	-0,107
-296,964	800,000	0,018	-0,041
-295,949	166,305	-0,113	-0,115
-294,935	-200,000	-0,011	-0,134
-293,920	22,530	0,048	-0,028
-292,905	32,761	0,095	0,058
-291,891	-21,202	0,147	-0,064
-290,876	107,413	0,033	0,028
-289,862	177,317	0,029	-0,030
-288,847	-200,000	0,027	-0,111
-287,832	571,509	-0,019	-0,033
-286,818	36,412	-0,039	0,025
-285,803	106,057	0,045	-0,038
-284,789	-47,381	0,045	-0,015
-283,774	-108,957	-0,066	0,010
-282,759	16,734	-0,043	0,024
-281,745	399,907	-0,042	0,064
-280,730	23,375	-0,066	0,039
-279,716	-200,000	0,003	-0,012
-278,701	-200,000	-0,004	-0,049
-277,686	-22,654	0,150	0,065
-276,672	745,635	-0,056	0,108
-275,657	429,055	-0,052	-0,081
-274,643	-200,000	-0,025	-0,091
-273,628	88,803	0,035	0,028
-272,613	800,000	-0,036	-0,082
-271,599	-127,080	-0,071	0,007
-270,584	788,874	0,041	-0,081
-269,570	-76,156	0,141	0,035
-268,555	454,062	0,047	0,075
-267,540	-63,091	0,041	0,012
-266,526	75,997	-0,172	0,130
-265,511	317,277	-0,028	-0,038
-264,497	559,976	0,072	0,126
-263,482	-16,775	0,100	-0,045
-262,467	281,415	0,056	0,072
-261,453	800,000	0,064	0,190
-260,438	-200,000	0,011	0,094
-259,424	-13,811	0,033	-0,015
-258,409	-76,840	-0,050	-0,012
-257,395	-200,000	-0,021	-0,069
-256,380	198,492	0,064	0,070
-255,365	800,000	-0,022	0,054
-254,351	-43,120	0,062	-0,022
-253,336	-133,403	-0,152	-0,013
-252,322	9,136	-0,054	0,029
-251,307	-200,000	-0,065	0,216
-250,292	20,856	0,129	0,074
-249,278	-200,000	-0,014	-0,047
-248,263	-65,766	0,087	-0,025
-247,249	800,000	-0,051	0,104
-246,234	-200,000	-0,008	-0,057
-245,219	800,000	-0,059	-0,141
-244,205	-200,000	-0,002	-0,088
-243,190	-67,014	-0,121	0,034
-242,176	104,120	0,079	0,066
-241,161	279,054	0,107	0,136
-240,146	524,641	0,032	0,054
-239,132	800,000	0,025	0,062
-238,117	685,292	-0,004	0,008
-237,103	126,355	-0,130	-0,117
-236,088	787,230	0,004	-0,009
-235,073	-35,944	0,084	0,032
-234,059	384,638	0,029	-0,042
-233,044	-200,000	-0,018	-0,074
-232,030	-7,553	-0,092	-0,044
-231,015	297,516	-0,115	-0,151
-230,000	-200,000	0,028	0,094
-228,986	-200,000	-0,001	0,012
-227,971	130,574	0,037	0,034
-226,957	391,152	0,082	0,123
-225,942	-200,000	-0,027	0,093
-224,927	-170,888	-0,072	-0,002
-223,913	129,611	-0,043	-0,039
-222,898	800,000	-0,014	0,031
-221,884	-14,109	0,037	-0,017
-220,869	-62,648	0,051	0,015
-219,855	-33,797	0,087	-0,034
-218,840	-45,161	0,125	0,044
-217,825	100,388	0,080	0,066
-216,811	-85,237	0,074	-0,016
-215,796	-200,000	-0,020	-0,071
-214,782	-200,000	-0,008	-0,037
-213,767	-2,347	0,121	0,060
-212,752	-51,011	-0,036	-0,012
-211,738	800,000	0,016	0,049
-210,723	-200,000	0,037	-0,155
-209,709	445,718	-0,019	-0,030
-208,694	-200,000	-0,012	-0,212
-207,679	527,848	-0,089	-0,150
-206,665	-136,525	-0,034	0,003
-205,650	443,072	0,024	0,038
-204,636	-87,334	0,069	-0,015
-203,621	-200,000	-0,003	-0,109
-202,606	-200,000	0,033	-0,171
-201,592	-168,233	-0,087	0,002
-200,577	120,249	0,104	-0,092
-199,563	242,661	0,047	0,056
-198,548	-62,842	-0,092	0,027
-197,533	-126,516	-0,082	-0,009
-196,519	99,537	0,051	0,042
-195,504	65,391	0,047	-0,034
-194,490	471,749	0,034	-0,054
-193,475	-128,854	-0,096	-0,010
-192,460	78,892	-0,021	-0,016
-191,446	-200,000	-0,009	-0,087
-190,431	-127,672	0,035	-0,004
-189,417	248,385	0,050	0,061
-188,402	-67,593	0,187	0,052
-187,387	-143,132	-0,068	0,005
-186,373	-200,000	-0,030	0,124
-185,358	-29,483	0,090	0,037
-184,344	516,213	0,067	0,113
-183,329	800,000	0,064	0,138
-182,315	-200,000	0,055	0,195
-181,300	-200,000	-0,008	0,045
-180,285	104,589	0,074	-0,062
-179,271	425,029	0,102	-0,156
-178,256	800,000	-0,027	-0,083
-177,242	-200,000	0,002	0,056
-176,227	800,000	-0,036	0,103
-175,212	-200,000	-0,017	-0,102
-174,198	-200,000	-0,052	-0,167
-173,183	-100,489	0,056	-0,010
-172,169	-200,000	0,007	0,048
-171,154	160,347	-0,094	-0,093
-170,139	183,193	0,027	0,029
-169,125	-82,435	0,105	0,024
-168,110	-138,910	-0,109	-0,008
-167,096	64,006	0,027	0,020
-166,081	-143,983	-0,156	0,010
-165,066	343,140	-0,075	-0,105
-164,052	-103,598	-0,067	-0,011
-163,037	800,000	0,020	0,056
-162,023	201,644	0,050	0,055
-161,008	800,000	-0,037	0,077
-159,993	-78,160	-0,168	0,041
-158,979	-17,138	0,085	-0,038
-157,964	-200,000	-0,013	0,080
-156,950	-99,285	-0,070	-0,012
-155,935	-200,000	-0,043	-0,138
-154,920	800,000	0,031	0,080
-153,906	-138,548	0,091	0,007
-152,891	32,311	-0,025	0,015
-151,877	683,126	-0,063	-0,117
-150,862	-200,000	0,014	-0,147
-149,847	-110,242	0,119	-0,017
-148,833	-9,917	0,077	-0,036
-147,818	-79,826	0,066	-0,016
-146,804	-200,000	-0,003	0,142
-145,789	121,745	-0,015	-0,013
-144,775	127,775	-0,026	-0,024
-143,760	523,788	0,085	0,143
-142,745	-200,000	-0,007	0,168
-141,731	201,569	-0,025	0,027
-140,716	529,730	-0,031	-0,052
-139,702	546,508	-0,013	0,023
-138,687	-55,690	0,030	-0,009
-137,672	669,544	0,065	0,121
-136,658	572,575	-0,042	-0,073
-135,643	-78,112	0,021	0,005
-134,629	19,037	0,092	0,052
-133,614	-122,752	-0,042	-0,005
-132,599	24,124	0,086	0,051
-131,585	154,549	-0,079	0,077
-130,570	455,786	0,012	-0,020
-129,556	413,001	0,053	-0,081
-128,541	-70,162	0,061	0,016
-127,526	-200,000	0,030	-0,120
-126,512	-49,329	-0,161	-0,054
-125,497	214,970	0,094	0,106
-124,483	-115,885	0,098	0,013
-123,468	-200,000	0,008	-0,053
-122,453	425,337	-0,100	-0,154
-121,439	-121,844	0,069	0,008
-120,424	743,855	0,099	-0,190
-119,410	143,964	0,124	0,118
-118,395	-141,586	0,101	0,007
-117,380	189,214	0,042	-0,044
-116,366	112,063	0,049	-0,042
-115,351	561,093	-0,135	0,233
-114,337	76,899	0,077	0,058
-113,322	-7,909	0,072	0,034
-112,307	49,554	-0,023	0,015
-111,293	-96,575	-0,082	-0,015
-110,278	-200,000	-0,009	0,050
-109,264	800,000	-0,048	0,134
-108,249	-200,000	-0,002	-0,117
-107,234	-132,123	-0,090	0,008
-106,220	-200,000	0,019	0,059
-105,205	-200,000	-0,000	-0,066
-104,191	556,107	0,058	-0,099
-103,176	800,000	-0,031	0,066
-102,162	800,000	-0,032	0,091
-101,147	-69,416	-0,126	0,034
-100,132	800,000	-0,048	-0,115
-99,118	-200,000	-0,021	-0,168
-98,103	-126,518	-0,082	-0,009
-97,089	122,025	0,081	-0,072
-96,074	-126,416	0,098	-0,010
-95,059	800,000	0,015	0,039
-94,045	82,316	-0,082	0,063
-93,030	-77,898	0,096	-0,023
-92,016	140,201	-0,050	-0,047
-91,001	34,614	-0,046	0,028
-89,986	283,531	0,042	0,054
-88,972	-43,100	-0,040	0,014
-87,957	276,684	-0,069	0,088
-86,943	-54,050	-0,152	0,049
-85,928	-200,000	0,046	0,146
-84,913	-129,342	-0,037	0,004
-83,899	800,000	0,030	0,063
-82,884	468,312	-0,043	0,069
-81,870	-59,051	0,068	0,021
-80,855	21,234	0,076	-0,044
-79,840	323,240	0,046	-0,062
-78,826	800,000	0,021	-0,049
-77,811	-69,932	-0,059	-0,016
-76,797	-34,059	0,100	0,039
-75,782	800,000	0,020	0,060
-74,767	-113,955	0,057	0,008
-73,753	-200,000	0,025	-0,146
-72,738	241,147	-0,019	-0,023
-71,724	211,747	-0,114	-0,128
-70,709	21,921	0,028	-0,016
-69,694	-100,460	-0,105	0,018
-68,680	800,000	0,043	0,085
-67,665	-147,425	0,164	0,010
-66,651	-157,074	-0,038	0,002
-65,636	105,388	-0,064	0,054
-64,622	-27,474	-0,076	0,031
-63,607	-200,000	0,036	0,158
-62,592	800,000	0,037	0,116
-61,578	-119,978	0,114	0,014
-60,563	354,892	0,036	0,050
-59,549	800,000	0,098	0,201
-58,534	-81,364	-1,578	-0,366
-57,519	321,859	-1,683	-2,277
-56,505	-200,000	-0,482	-4,457
-55,490	60,968	1,081	0,760
-54,476	800,000	4,732	11,370
-53,461	-200,000	17,597	279,593
-52,446	800,000	719,884	2213,964
-51,432	558,515	1633,840	2805,933
-50,417	80,947	1657,307	1266,717
-49,403	23,837	1531,626	892,641
-48,388	17,817	1455,204	819,084
-47,373	18,209	1444,684	815,012
-46,359	17,890	1435,267	808,147
-45,344	16,133	1430,547	797,111
-44,330	16,002	1428,949	795,564
-43,315	16,052	1427,069	794,725
-42,300	16,071	1425,285	793,789
-41,286	16,089	1424,150	793,210
-40,271	16,082	1422,801	792,394
-39,257	16,088	1421,554	791,695
-38,242	16,073	1420,165	790,823
-37,227	16,147	1418,751	790,349
-36,213	16,089	1417,701	789,463
-35,198	16,096	1416,516	788,805
-34,184	16,120	1415,621	788,386
-33,169	16,043	1414,407	787,319
-32,154	16,091	1413,373	786,938
-31,140	16,109	1411,928	786,184
-30,125	16,175	1410,700	785,780
-29,111	16,126	1409,604	784,906
-28,096	16,089	1408,556	784,118
-27,082	16,026	1407,547	783,232
-26,067	16,099	1406,344	782,875
-25,052	16,037	1405,297	781,971
-24,038	16,042	1404,202	781,351
-23,023	16,022	1403,422	780,794
-22,009	16,030	1402,139	780,087
-20,994	16,009	1401,393	779,545
-19,979	15,939	1400,550	778,717
-18,965	16,016	1399,263	778,330
-17,950	15,938	1398,650	777,596
-16,936	15,960	1397,736	777,160
-15,921	15,934	1396,452	776,293
-14,906	15,966	1395,246	775,742
-13,892	15,966	1394,303	775,185
-12,877	15,936	1393,651	774,652
-11,863	15,937	1392,604	774,047
-10,848	15,914	1391,924	773,532
-9,833	15,884	1390,939	772,813
-8,819	15,879	1389,845	772,151
-7,804	15,902	1388,835	771,665
-6,790	15,806	1387,939	770,693
-5,775	15,770	1386,873	769,906
-4,760	15,813	1386,137	769,665
-3,746	15,830	1385,332	769,264
-2,731	15,781	1384,651	768,634
-1,717	15,791	1383,541	768,032
-0,702	15,827	1381,475	767,021
0,313	19,575	1302,485	740,455
1,327	36,005	706,650	439,795
2,342	55,141	125,277	85,655
3,356	3,545	16,472	8,481
4,371	-4,647	3,082	1,502
5,386	5,375	0,549	0,286
6,400	-47,781	-0,014	0,005
7,415	144,785	-0,200	-0,190
8,429	80,723	-0,242	-0,185
9,444	92,514	-0,268	-0,214
10,459	-64,282	-0,345	-0,099
11,473	32,367	-0,383	-0,234
12,488	31,338	-0,324	-0,196
13,502	2,835	-0,380	-0,194
14,517	6,315	-0,343	-0,179
15,531	38,505	-0,335	-0,211
16,546	112,123	-0,334	-0,286
17,561	370,124	-0,335	-0,481
18,575	-70,914	-0,222	-0,059
19,590	211,540	-0,288	-0,321
20,604	-64,121	-0,205	-0,059
21,619	3,466	-0,471	-0,242
22,634	13,103	-0,574	-0,313
23,648	290,818	-0,321	-0,413
24,663	59,989	-0,357	-0,249
25,677	145,530	-0,303	-0,288
26,692	117,558	-0,340	-0,296
27,707	96,041	-0,397	-0,321
28,721	105,968	-0,360	-0,301
29,736	0,568	-0,298	-0,150
30,750	179,610	-0,393	-0,407
31,765	57,264	-0,442	-0,305
32,780	146,837	-0,295	-0,280
33,794	177,640	-0,368	-0,380
34,809	124,224	-0,345	-0,307
35,823	72,454	-0,397	-0,292
36,838	104,787	-0,408	-0,340
37,853	117,813	-0,302	-0,263
38,867	34,728	-0,306	-0,188
39,882	103,890	-0,428	-0,355
40,896	175,493	-0,283	-0,289
41,911	341,454	-0,250	-0,346
42,926	108,440	-0,290	-0,244
43,940	14,007	-0,375	-0,205
44,955	94,560	-0,419	-0,336
45,969	87,918	-0,345	-0,269
46,984	391,580	-0,206	-0,302
47,999	159,130	-0,287	-0,281
49,013	-26,417	-0,444	-0,183
50,028	-140,661	-0,413	-0,030
51,042	2,116	-0,309	-0,157
52,057	153,705	-0,290	-0,280
53,071	43,459	-0,388	-0,250
54,086	78,126	-0,286	-0,215
55,101	-37,070	-0,367	-0,138
56,115	80,696	-0,236	-0,180
57,130	-9,301	-0,435	-0,204
58,144	57,107	-0,421	-0,289
59,159	179,029	-0,263	-0,271
60,174	39,392	-0,299	-0,189
61,188	95,316	-0,325	-0,261
62,203	10,239	-0,340	-0,182
63,217	-2,364	-0,319	-0,157
64,232	-58,374	-0,418	-0,127
65,247	159,907	-0,299	-0,294
66,261	135,165	-0,333	-0,305
67,276	203,787	-0,260	-0,284
68,290	298,128	-0,244	-0,316
69,305	800,000	-0,121	-0,308
70,320	-5,803	-0,352	-0,169
71,334	-17,021	-0,374	-0,166
72,349	38,879	-0,290	-0,182
73,363	-9,398	-0,359	-0,168
74,378	120,004	-0,363	-0,317
75,393	501,369	-0,212	-0,346
76,407	216,471	-0,271	-0,304
77,422	-12,581	-0,299	-0,137
78,436	92,891	-0,213	-0,169
79,451	294,309	-0,208	-0,268
80,466	-8,030	-0,335	-0,158
81,480	8,362	-0,409	-0,216
82,495	609,772	-0,189	-0,333
83,509	28,787	-0,205	-0,122
84,524	271,109	-0,176	-0,219
85,539	72,311	-0,236	-0,173
86,553	55,571	-0,331	-0,225
87,568	-15,777	-0,284	-0,127
88,582	33,704	-0,243	-0,148
89,597	106,363	-0,243	-0,202
90,611	33,983	-0,290	-0,177
91,626	94,449	-0,237	-0,189
92,641	428,987	-0,245	-0,374
93,655	-25,409	-0,354	-0,146
94,670	-88,973	-0,379	-0,078
95,684	179,801	-0,216	-0,222
96,699	71,061	-0,272	-0,198
97,714	109,254	-0,347	-0,292
98,728	44,314	-0,235	-0,151
99,743	18,511	-0,292	-0,164
100,757	-16,566	-0,292	-0,130
101,772	72,837	-0,333	-0,244
102,787	16,080	-0,338	-0,186
103,801	69,415	-0,233	-0,168
104,816	47,205	-0,237	-0,155
105,830	45,711	-0,244	-0,158
106,845	82,444	-0,265	-0,201
107,860	143,910	-0,233	-0,219
108,874	178,211	-0,290	-0,297
109,889	124,636	-0,240	-0,212
110,903	800,000	-0,121	-0,300
111,918	6,953	-0,287	-0,149
112,933	82,246	-0,268	-0,204
113,947	12,520	-0,200	-0,108
114,962	-65,641	-0,302	-0,084
115,976	-14,683	-0,302	-0,136
116,991	25,712	-0,303	-0,177
118,006	789,693	-0,184	-0,356
119,020	135,491	-0,212	-0,193
120,035	11,580	-0,211	-0,113
121,049	62,429	-0,188	-0,132
122,064	-43,070	-0,321	-0,113
123,079	75,542	-0,290	-0,215
124,093	84,382	-0,313	-0,239
125,108	109,631	-0,285	-0,240
126,122	66,908	-0,224	-0,160
127,137	-37,987	-0,130	-0,048
128,151	-94,696	-0,306	-0,058
129,166	181,905	-0,181	-0,187
130,181	-21,683	-0,170	-0,072
131,195	76,764	-0,397	-0,295
132,210	-1,362	-0,424	-0,209
133,224	-7,044	-0,337	-0,159
134,239	53,193	-0,276	-0,185
135,254	-40,911	-0,257	-0,093
136,268	548,802	-0,121	-0,205
137,283	23,600	-0,277	-0,159
138,297	4,519	-0,314	-0,161
139,312	138,879	-0,225	-0,207
140,327	100,884	-0,249	-0,203
141,341	32,896	-0,181	-0,109
142,356	367,413	-0,114	-0,161
143,370	3,106	-0,330	-0,167
144,385	98,991	-0,234	-0,189
145,400	144,172	-0,224	-0,209
146,414	190,984	-0,115	-0,122
147,429	176,945	-0,253	-0,258
148,443	18,298	-0,301	-0,168
149,458	280,985	-0,229	-0,287
150,473	116,640	-0,179	-0,154
151,487	-13,739	-0,204	-0,092
152,502	57,978	-0,266	-0,182
153,516	124,945	-0,288	-0,254
154,531	119,512	-0,312	-0,270
155,546	139,276	-0,203	-0,186
156,560	598,744	-0,122	-0,212
157,575	60,312	-0,099	-0,068
158,589	122,864	-0,151	-0,132
159,604	166,097	-0,202	-0,200
160,619	396,580	-0,177	-0,259
161,633	115,979	-0,255	-0,218
162,648	89,637	-0,249	-0,194
163,662	263,685	-0,186	-0,227
164,677	383,833	-0,150	-0,216
165,692	119,408	-0,174	-0,151
166,706	-93,423	-0,208	0,040
167,721	-6,176	-0,347	-0,165
168,735	206,410	-0,184	-0,200
169,750	89,860	-0,250	-0,195
170,764	98,597	-0,182	-0,146
171,779	-79,189	-0,230	-0,054
172,794	63,912	-0,146	-0,102
173,808	-2,021	-0,181	-0,088
174,823	-41,676	-0,320	-0,114
175,837	115,535	-0,219	-0,187
176,852	113,720	-0,279	-0,237
177,867	-120,406	-0,317	-0,037
178,881	15,653	-0,187	-0,102
179,896	-23,318	-0,297	-0,124
180,910	636,370	-0,132	-0,234
181,925	52,914	-0,150	-0,100
182,940	182,017	-0,216	-0,222
183,954	101,336	-0,221	-0,179
184,969	-66,818	-0,168	-0,046
185,983	-84,392	-0,202	0,044
186,998	-200,000	-0,054	-0,244
188,013	202,946	-0,177	-0,191
189,027	362,393	-0,229	-0,322
190,042	255,271	-0,194	-0,232
191,056	143,550	-0,240	-0,223
192,071	-51,340	-0,201	-0,065
193,086	-26,311	-0,178	-0,072
194,100	66,843	-0,179	-0,127
195,115	128,599	-0,225	-0,199
196,129	185,069	-0,142	-0,146
197,144	59,587	-0,245	-0,168
198,159	698,089	-0,078	-0,143
199,173	279,865	-0,143	-0,178
200,188	-34,092	-0,164	-0,062
201,202	104,983	-0,165	-0,135
202,217	2,341	-0,148	0,074
203,232	78,817	-0,252	-0,188
204,246	33,280	-0,226	-0,136
205,261	171,194	-0,246	-0,245
206,275	55,559	-0,143	-0,096
207,290	130,085	-0,198	-0,176
208,304	14,442	-0,117	-0,064
209,319	-47,045	-0,290	-0,098
210,334	27,542	-0,222	-0,130
211,348	71,070	-0,237	-0,171
212,363	396,846	-0,172	-0,251
213,377	47,773	-0,175	-0,113
214,392	23,521	-0,136	-0,078
215,407	-25,604	-0,139	-0,057
216,421	214,439	-0,098	-0,108
217,436	800,000	-0,116	-0,236
218,450	187,593	-0,174	-0,181
219,465	70,822	-0,212	-0,152
220,480	-51,624	-0,134	-0,043
221,494	-200,000	0,054	-0,188
222,509	32,043	-0,146	-0,087
223,523	579,401	-0,132	-0,226
224,538	-47,200	-0,254	-0,086
225,553	-104,021	-0,229	-0,037
226,567	10,108	-0,256	-0,135
227,582	99,114	-0,225	-0,181
228,596	56,690	-0,187	-0,126
229,611	800,000	-0,106	-0,274
230,626	-26,248	-0,152	-0,062
231,640	-30,006	-0,159	-0,063
232,655	185,466	-0,140	-0,144
233,669	-20,933	-0,307	-0,130
234,684	64,364	-0,295	-0,206
235,699	11,028	-0,121	-0,064
236,713	-21,365	-0,188	-0,079
237,728	-200,000	0,005	-0,069
238,742	265,977	-0,078	-0,095
239,757	-151,242	-0,135	0,007
240,772	339,378	-0,181	-0,245
241,786	348,112	-0,197	-0,270
242,801	95,455	-0,136	-0,108
243,815	-28,614	-0,149	-0,059
244,830	372,856	-0,131	-0,186
245,844	-32,773	-0,208	-0,080
246,859	38,950	-0,159	-0,099
247,874	182,306	-0,213	-0,218
248,888	150,140	-0,161	-0,152
249,903	-37,710	-0,135	-0,050
250,917	-94,980	-0,104	-0,019
251,932	132,475	-0,203	-0,182
252,947	-12,153	-0,175	-0,079
253,961	158,700	-0,197	-0,190
254,976	230,495	-0,228	-0,259
255,990	-87,374	-0,307	-0,064
257,005	-108,859	-0,212	-0,031
258,020	20,921	-0,226	-0,127
259,034	-16,855	-0,154	-0,067
260,049	228,567	-0,118	-0,133
261,063	-112,759	-0,099	-0,014
262,078	46,965	-0,273	-0,176
263,093	767,838	-0,132	-0,249
264,107	93,516	-0,148	-0,116
265,122	-11,219	-0,125	-0,057
266,136	71,895	-0,290	-0,208
267,151	57,557	-0,164	-0,111
268,166	4,878	-0,106	-0,054
269,180	-8,529	-0,194	-0,090
270,195	332,887	-0,083	-0,111
271,209	-129,799	-0,129	0,012
272,224	-52,678	-0,268	-0,085
273,239	-110,985	-0,252	0,035
274,253	3,043	-0,175	-0,088
275,268	-112,982	-0,214	-0,029
276,282	164,371	-0,141	-0,137
277,297	669,769	-0,066	-0,119
278,312	324,754	-0,065	-0,087
279,326	275,133	-0,083	-0,102
280,341	126,698	-0,071	-0,062
281,355	429,081	-0,115	-0,173
282,370	800,000	-0,082	-0,201
283,384	59,992	-0,279	-0,190
284,399	50,783	-0,232	-0,151
285,414	9,471	-0,187	-0,097
286,428	-113,875	-0,133	-0,018
287,443	-120,228	-0,124	-0,014
288,457	199,401	-0,165	-0,175
289,472	-41,630	-0,249	-0,088
290,487	-1,028	-0,201	0,098
291,501	-136,998	-0,247	-0,019
292,516	88,426	-0,146	-0,112
293,530	800,000	0,034	-0,079
294,545	50,170	-0,160	0,104
295,560	-192,956	-0,139	0,001
296,574	9,426	-0,106	-0,055
297,589	-160,800	-0,199	-0,007
298,603	122,308	-0,210	-0,181
299,618	312,731	-0,188	-0,244
300,633	800,000	-0,100	-0,198
301,647	730,803	-0,134	-0,248
302,662	114,399	-0,158	-0,133
303,676	384,071	-0,117	-0,167
304,691	-147,288	-0,170	-0,010
305,706	120,821	-0,168	-0,144
306,720	150,970	-0,208	-0,196
307,735	-200,000	-0,060	-0,219
308,749	-200,000	-0,080	-0,294
309,764	46,378	-0,023	-0,015
310,779	197,776	-0,154	-0,162
311,793	152,646	-0,197	-0,186
312,808	82,448	-0,111	-0,083
313,822	-19,244	-0,143	-0,061
314,837	75,994	-0,132	-0,096
315,852	-7,483	0,088	-0,041
316,866	800,000	-0,084	-0,166
317,881	-128,122	-0,117	-0,011
318,895	800,000	-0,049	-0,143
319,910	800,000	-0,083	-0,188
320,925	357,674	-0,190	-0,262
321,939	351,373	0,034	-0,046
322,954	461,766	-0,145	-0,223
323,968	144,118	-0,140	-0,129
324,983	-140,349	-0,158	0,011
325,997	32,959	-0,189	-0,113
327,012	335,223	-0,127	-0,170
328,027	679,066	-0,097	-0,175
329,041	800,000	-0,122	-0,265
330,056	-118,536	-0,055	-0,007
331,070	89,138	-0,120	-0,092
332,085	-118,525	-0,179	-0,022
333,100	-91,545	-0,223	-0,043
334,114	800,000	-0,062	-0,134
335,129	130,735	-0,065	-0,057
336,143	-52,728	-0,161	-0,051
337,158	168,060	-0,028	-0,028
338,173	-200,000	-0,032	-0,117
339,187	17,452	-0,183	-0,100
340,202	-29,904	-0,189	-0,074
341,216	-200,000	-0,047	-0,146
342,231	-32,511	-0,127	-0,048
343,246	-200,000	-0,048	-0,233
344,260	-148,148	-0,206	0,012
345,275	100,681	-0,136	-0,108
346,289	-96,528	-0,163	0,029
347,304	11,188	-0,227	-0,119
348,319	45,401	-0,198	-0,126
349,333	779,379	-0,071	-0,134
350,348	162,858	-0,113	-0,109
351,362	38,613	-0,048	0,030
352,377	-91,017	-0,133	-0,026
353,392	659,968	-0,044	-0,079
354,406	-146,856	-0,189	0,011
355,421	210,509	1313,368	1418,789
356,435	162,056	1473,978	1419,317
