DTS Sentinel unit serial number:	SN410029Multiplexer serial number:	ORYXHardware model number:	OX2-SRSoftware version number:	ORYX F/W v4,00 Oryx Data Collector v3.7.2.0data status	okinstallation	B3 Nyhavnadifferential loss correction	single-endedforward channel	channel 1reverse channel	N/Adate	2023/12/04time	21:37:30forward acquisition time	300,00reverse acquisition time	0,00gamma	499,1914k internal	0,3201k external	0,3201temperature offset calibration	1,0000default loss term (dB/km)	0,3820temperature slope calibration	1,0000multiplexer offset coefficient	1,0000multiplexer slope coefficient	1,0000fibre end	0,00T internal ref (°C)	14,56T ext. ref 1 (°C)	-0,31T ext. ref 2 (°C)	-0,31length (m)	temperature (°C)	Stokes	anti-Stokes-744,400	299,860	-0,195	-0,262
-743,385	-200,000	-0,051	0,288
-742,371	348,533	-0,202	-0,291
-741,356	-200,000	0,027	0,297
-740,342	189,093	-0,170	-0,185
-739,327	-200,000	0,050	0,280
-738,312	-200,000	-0,018	-0,199
-737,298	800,000	-0,112	0,242
-736,283	-92,187	-0,230	-0,047
-735,269	453,150	-0,147	0,237
-734,254	228,702	-0,198	-0,235
-733,239	311,785	-0,131	0,179
-732,225	-200,000	-0,023	-0,125
-731,210	-200,000	-0,012	0,122
-730,196	36,123	-0,030	-0,019
-729,181	-200,000	-0,017	0,096
-728,167	-200,000	0,031	-0,107
-727,152	-92,459	0,090	-0,018
-726,137	800,000	-0,084	-0,216
-725,123	-82,186	-0,098	-0,023
-724,108	97,539	-0,135	-0,113
-723,094	-200,000	0,003	-0,039
-722,079	-40,726	-0,087	0,033
-721,064	-176,095	-0,128	-0,002
-720,050	-119,089	0,141	0,018
-719,035	134,092	-0,115	0,108
-718,021	247,854	-0,045	0,056
-717,006	639,302	-0,028	0,052
-715,991	-14,118	-0,217	-0,101
-714,977	800,000	0,033	-0,068
-713,962	800,000	0,051	0,103
-712,948	234,227	0,038	-0,045
-711,933	-200,000	-0,006	0,115
-710,918	43,351	0,064	-0,042
-709,904	-2,981	-0,102	0,052
-708,889	-44,241	-0,115	0,042
-707,875	-200,000	-0,031	-0,128
-706,860	410,475	0,089	-0,138
-705,845	61,587	0,076	-0,055
-704,831	51,870	0,083	-0,057
-703,816	800,000	-0,001	-0,001
-702,802	-200,000	0,029	-0,134
-701,787	703,395	-0,050	-0,097
-700,772	-97,468	0,035	-0,007
-699,758	239,163	-0,033	0,040
-698,743	-200,000	0,025	0,131
-697,729	-200,000	0,003	0,058
-696,714	-65,491	-0,074	0,022
-695,699	-200,000	-0,108	-0,000
-694,685	-130,977	-0,129	0,012
-693,670	800,000	0,016	0,040
-692,656	150,285	0,061	0,060
-691,641	-97,584	0,052	0,010
-690,627	-200,000	0,033	0,149
-689,612	545,676	-0,006	-0,011
-688,597	-200,000	0,001	0,011
-687,583	-17,798	-0,151	-0,069
-686,568	-200,000	0,030	-0,102
-685,554	800,000	-0,009	-0,020
-684,539	186,706	0,057	-0,062
-683,524	15,932	-0,148	-0,084
-682,510	-181,582	0,061	0,001
-681,495	800,000	-0,050	0,109
-680,481	55,897	-0,098	-0,069
-679,466	382,602	-0,081	-0,121
-678,451	800,000	-0,011	-0,028
-677,437	37,452	-0,053	-0,034
-676,422	-121,526	-0,144	-0,017
-675,408	-16,944	0,055	0,025
-674,393	-200,000	0,003	-0,100
-673,378	-131,837	-0,156	-0,015
-672,364	222,886	0,042	-0,049
-671,349	-200,000	0,010	0,051
-670,335	-66,892	-0,120	-0,034
-669,320	307,016	0,054	-0,073
-668,305	-200,000	0,010	0,144
-667,291	-8,792	0,079	0,038
-666,276	-200,000	-0,018	-0,123
-665,262	800,000	-0,040	-0,086
-664,247	353,829	-0,113	-0,163
-663,232	651,596	0,101	-0,189
-662,218	-66,891	0,017	0,005
-661,203	-200,000	0,003	-0,018
-660,189	230,567	-0,057	0,068
-659,174	800,000	0,006	0,014
-658,159	800,000	0,039	-0,078
-657,145	-200,000	0,018	-0,141
-656,130	-49,289	-0,049	0,017
-655,116	-17,571	-0,092	-0,042
-654,101	-170,639	0,087	0,002
-653,086	125,404	-0,046	-0,042
-652,072	-200,000	-0,017	0,168
-651,057	637,794	0,009	0,016
-650,043	-83,230	-0,083	-0,019
-649,028	59,298	-0,109	-0,078
-648,014	-200,000	0,045	0,208
-646,999	-200,000	0,024	0,207
-645,984	800,000	0,040	-0,081
-644,970	-200,000	0,015	-0,074
-643,955	284,449	-0,076	-0,099
-642,941	634,710	-0,037	0,069
-641,926	553,990	0,057	-0,099
-640,911	-200,000	-0,028	-0,091
-639,897	161,594	-0,066	-0,067
-638,882	149,149	0,064	0,062
-637,868	-200,000	-0,026	0,107
-636,853	26,291	0,042	0,026
-635,838	600,899	-0,032	0,059
-634,824	73,757	-0,105	-0,080
-633,809	38,710	-0,080	0,052
-632,795	-4,364	0,040	0,020
-631,780	-200,000	-0,006	0,098
-630,765	-75,692	-0,027	-0,007
-629,751	100,993	-0,024	-0,020
-628,736	13,108	0,040	-0,022
-627,722	-56,558	-0,072	-0,023
-626,707	-200,000	-0,016	0,070
-625,692	190,922	0,039	-0,043
-624,678	-30,653	-0,039	0,016
-623,663	244,255	-0,109	0,132
-622,649	267,965	-0,013	-0,017
-621,634	-173,453	0,097	-0,002
-620,619	-21,449	-0,198	-0,087
-619,605	-200,000	-0,005	-0,061
-618,590	-200,000	0,008	0,109
-617,576	-150,153	-0,042	0,002
-616,561	-200,000	-0,007	-0,070
-615,546	-200,000	-0,016	-0,073
-614,532	800,000	-0,082	-0,197
-613,517	-8,974	0,104	-0,050
-612,503	-167,502	-0,093	-0,003
-611,488	-152,061	0,094	-0,005
-610,474	-200,000	0,002	0,123
-609,459	-200,000	0,003	0,109
-608,444	800,000	0,039	-0,082
-607,430	221,553	-0,054	-0,063
-606,415	18,316	-0,045	0,026
-605,401	386,381	0,009	-0,014
-604,386	33,524	0,038	-0,024
-603,371	-200,000	0,000	-0,108
-602,357	584,982	-0,017	0,030
-601,342	800,000	0,029	-0,077
-600,328	43,041	-0,049	0,032
-599,313	797,770	-0,042	-0,085
-598,298	-27,734	-0,013	-0,005
-597,284	-149,968	-0,036	-0,002
-596,269	-200,000	0,022	0,121
-595,255	800,000	0,027	-0,070
-594,240	100,242	-0,080	-0,067
-593,225	237,145	-0,058	0,069
-592,211	-200,000	-0,050	-0,180
-591,196	-77,241	-0,061	0,015
-590,182	-37,478	0,085	-0,033
-589,167	-200,000	-0,028	-0,184
-588,152	-97,722	-0,099	0,018
-587,138	-71,125	-0,060	-0,016
-586,123	-169,965	-0,114	0,003
-585,109	-50,182	-0,102	-0,035
-584,094	792,552	0,039	-0,079
-583,079	12,831	0,081	0,045
-582,065	583,098	-0,093	0,166
-581,050	800,000	0,023	0,050
-580,036	800,000	0,025	0,063
-579,021	51,805	0,054	0,037
-578,006	-26,204	-0,058	-0,024
-576,992	800,000	0,041	-0,113
-575,977	-65,870	0,103	-0,030
-574,963	106,262	0,103	0,088
-573,948	317,614	-0,121	0,166
-572,934	800,000	-0,050	0,124
-571,919	538,221	-0,081	0,140
-570,904	15,419	-0,084	-0,048
-569,890	-200,000	-0,024	0,120
-568,875	136,585	0,082	0,077
-567,861	-129,325	0,028	-0,003
-566,846	242,786	0,050	0,061
-565,831	800,000	0,061	-0,124
-564,817	-200,000	0,008	-0,158
-563,802	195,136	0,045	0,049
-562,788	139,797	-0,018	-0,017
-561,773	73,747	-0,065	-0,049
-560,758	-47,089	0,075	0,026
-559,744	-46,528	0,085	0,030
-558,729	107,887	-0,092	0,079
-557,715	-200,000	0,012	0,062
-556,700	71,458	-0,034	0,026
-555,685	-200,000	0,000	0,054
-554,671	800,000	-0,029	-0,086
-553,656	106,810	-0,065	-0,055
-552,642	605,490	0,064	0,115
-551,627	-23,716	-0,068	0,029
-550,612	237,821	0,047	0,056
-549,598	256,492	-0,041	0,051
-548,583	-161,909	-0,179	-0,006
-547,569	-158,542	0,094	0,004
-546,554	363,708	-0,041	0,059
-545,539	15,124	-0,084	0,047
-544,525	-101,924	0,128	0,022
-543,510	800,000	0,054	0,144
-542,496	140,788	0,082	0,078
-541,481	800,000	0,017	-0,049
-540,466	-200,000	0,008	-0,079
-539,452	429,208	0,099	0,155
-538,437	800,000	-0,026	0,075
-537,423	-200,000	-0,038	0,128
-536,408	375,812	-0,061	-0,089
-535,393	55,274	-0,074	-0,052
-534,379	-142,746	0,053	0,004
-533,364	-10,239	-0,053	0,025
-532,350	-200,000	0,007	0,054
-531,335	-104,455	0,113	-0,019
-530,321	380,729	-0,075	-0,111
-529,306	-49,990	0,068	-0,023
-528,291	701,393	-0,050	0,094
-527,277	37,107	-0,021	0,013
-526,262	698,574	0,090	-0,171
-525,248	-200,000	0,011	0,095
-524,233	-111,748	-0,015	0,002
-523,218	133,610	0,105	-0,098
-522,204	155,141	0,028	0,027
-521,189	-200,000	0,000	0,103
-520,175	-54,392	-0,128	-0,042
-519,160	800,000	0,026	0,063
-518,145	-144,948	0,155	-0,010
-517,131	-199,536	0,188	-0,001
-516,116	-200,000	0,004	0,037
-515,102	61,532	-0,070	-0,050
-514,087	-41,433	-0,149	0,055
-513,072	81,857	0,033	0,026
-512,058	249,343	0,040	0,049
-511,043	15,275	0,132	-0,074
-510,029	-120,252	0,053	-0,006
-509,014	-102,382	-0,198	-0,034
-507,999	-77,824	0,143	-0,035
-506,985	-200,000	0,010	-0,032
-505,970	-9,883	0,097	-0,046
-504,956	464,260	0,063	-0,102
-503,941	-44,371	0,077	0,028
-502,926	660,896	-0,034	-0,063
-501,912	-200,000	0,004	0,033
-500,897	-200,000	-0,001	-0,013
-499,883	-200,000	0,011	-0,053
-498,868	593,930	-0,107	-0,191
-497,853	104,198	-0,088	-0,075
-496,839	-162,953	-0,149	-0,005
-495,824	-86,827	-0,040	0,009
-494,810	800,000	0,078	0,171
-493,795	-200,000	-0,010	-0,093
-492,781	267,083	-0,059	0,074
-491,766	-185,219	-0,033	-0,000
-490,751	124,413	-0,050	-0,045
-489,737	-59,632	-0,044	-0,014
-488,722	-200,000	0,029	0,095
-487,708	-35,839	0,233	0,091
-486,693	205,830	0,117	0,131
-485,678	-12,727	0,130	-0,061
-484,664	800,000	-0,053	-0,112
-483,649	376,444	0,061	-0,091
-482,635	-200,000	-0,015	0,103
-481,620	-23,468	0,104	0,045
-480,605	44,696	0,075	0,050
-479,591	-200,000	0,028	-0,133
-478,576	-63,392	-0,121	0,036
-477,562	-200,000	-0,013	0,115
-476,547	664,990	-0,054	-0,101
-475,532	12,079	-0,127	-0,070
-474,518	419,102	0,055	0,086
-473,503	-79,886	0,103	0,025
-472,489	29,644	0,111	0,068
-471,474	113,582	-0,057	0,050
-470,459	800,000	0,039	-0,116
-469,445	521,308	-0,044	-0,075
-468,430	800,000	-0,022	-0,052
-467,416	-21,954	0,114	-0,050
-466,401	-200,000	0,020	-0,064
-465,386	-200,000	-0,017	0,138
-464,372	-76,548	0,064	0,016
-463,357	-91,665	-0,124	-0,025
-462,343	-71,126	-0,091	-0,024
-461,328	360,392	0,051	0,074
-460,313	-176,011	0,031	-0,001
-459,299	-65,150	0,150	-0,043
-458,284	-200,000	-0,004	0,048
-457,270	800,000	-0,063	0,135
-456,255	209,116	0,105	0,119
-455,241	-26,742	-0,098	-0,041
-454,226	-200,000	-0,018	-0,217
-453,211	44,244	0,043	-0,028
-452,197	-137,669	0,051	0,004
-451,182	151,438	-0,079	0,077
-450,168	-118,014	-0,029	0,004
-449,153	-200,000	-0,001	-0,063
-448,138	137,806	0,080	-0,075
-447,124	195,900	-0,028	0,030
-446,109	413,429	-0,020	0,030
-445,095	75,436	0,040	0,030
-444,080	64,138	0,069	-0,050
-443,065	228,029	0,041	0,049
-442,051	-200,000	-0,016	0,177
-441,036	-200,000	0,009	-0,038
-440,022	132,468	-0,091	0,084
-439,007	179,215	0,039	0,041
-437,992	153,493	-0,088	0,087
-436,978	-200,000	0,002	-0,106
-435,963	-200,000	-0,005	-0,026
-434,949	-200,000	-0,018	-0,086
-433,934	800,000	-0,048	-0,102
-432,919	44,095	0,066	-0,044
-431,905	208,565	-0,072	-0,082
-430,890	51,813	-0,031	-0,021
-429,876	-200,000	0,001	-0,008
-428,861	236,421	0,068	0,081
-427,846	-117,713	0,046	0,006
-426,832	348,985	0,028	0,040
-425,817	-200,000	-0,055	-0,194
-424,803	4,915	-0,161	-0,085
-423,788	16,039	-0,029	0,016
-422,773	-22,585	0,020	0,009
-421,759	800,000	0,060	0,180
-420,744	291,939	-0,045	-0,059
-419,730	-200,000	-0,015	-0,054
-418,715	-200,000	-0,020	-0,078
-417,701	800,000	0,026	-0,074
-416,686	429,088	0,064	-0,100
-415,671	-30,633	-0,093	0,038
-414,657	76,064	-0,014	0,010
-413,642	116,249	-0,015	-0,013
-412,628	-50,674	-0,117	-0,039
-411,613	-36,253	-0,069	-0,027
-410,598	-68,398	-0,104	-0,029
-409,584	-200,000	-0,002	-0,159
-408,569	-100,081	0,049	0,009
-407,555	485,686	0,078	0,128
-406,540	800,000	-0,021	-0,055
-405,525	800,000	-0,029	0,077
-404,511	13,817	0,031	-0,017
-403,496	378,346	-0,011	0,016
-402,482	-200,000	-0,005	-0,031
-401,467	800,000	0,052	0,121
-400,452	-200,000	-0,084	-0,000
-399,438	-48,489	0,128	0,044
-398,423	800,000	0,042	0,126
-397,409	47,019	-0,112	0,075
-396,394	40,593	-0,098	0,063
-395,379	-200,000	0,024	0,160
-394,365	-94,177	0,178	-0,035
-393,350	-8,945	0,048	0,023
-392,336	209,062	0,055	0,062
-391,321	-55,656	-0,055	0,018
-390,306	800,000	-0,038	-0,085
-389,292	800,000	-0,035	-0,111
-388,277	-200,000	0,023	-0,078
-387,263	-200,000	-0,015	0,075
-386,248	-99,359	0,034	0,006
-385,233	221,653	-0,081	0,094
-384,219	769,433	-0,019	-0,036
-383,204	-200,000	-0,007	0,107
-382,190	-200,000	-0,008	-0,166
-381,175	6,194	0,044	-0,023
-380,160	208,264	-0,036	-0,040
-379,146	-72,250	0,066	0,017
-378,131	18,133	0,122	0,069
-377,117	640,416	-0,026	-0,047
-376,102	800,000	0,030	-0,075
-375,088	97,105	-0,082	-0,068
-374,073	-57,235	0,052	0,016
-373,058	291,463	0,067	0,088
-372,044	130,443	-0,016	-0,015
-371,029	-86,786	0,099	-0,022
-370,015	29,648	0,027	0,016
-369,000	-200,000	-0,031	0,101
-367,985	264,410	-0,070	-0,087
-366,971	800,000	0,058	-0,179
-365,956	520,894	-0,024	-0,040
-364,942	40,249	0,059	0,038
-363,927	-200,000	-0,023	0,183
-362,912	800,000	-0,020	0,062
-361,898	493,691	-0,086	-0,141
-360,883	-200,000	-0,021	-0,080
-359,869	-200,000	-0,016	0,057
-358,854	371,708	0,043	0,062
-357,839	15,005	0,152	0,085
-356,825	211,546	0,074	0,084
-355,810	-82,480	0,041	-0,010
-354,796	800,000	-0,099	-0,247
-353,781	259,120	-0,110	-0,136
-352,766	102,438	-0,047	0,039
-351,752	-86,123	-0,134	-0,029
-350,737	800,000	-0,066	0,140
-349,723	132,154	-0,021	0,019
-348,708	-116,105	0,025	-0,003
-347,693	-16,249	-0,129	-0,058
-346,679	596,138	0,079	-0,141
-345,664	-38,071	-0,115	0,044
-344,650	-26,960	0,163	0,068
-343,635	368,763	0,031	-0,045
-342,620	-55,597	-0,114	-0,036
-341,606	800,000	0,059	0,174
-340,591	800,000	-0,005	0,012
-339,577	-200,000	0,037	-0,186
-338,562	446,758	-0,030	0,047
-337,548	-34,278	0,079	0,031
-336,533	207,807	0,042	-0,047
-335,518	476,612	0,073	0,118
-334,504	95,374	-0,082	0,067
-333,489	569,941	-0,092	-0,162
-332,475	-5,717	-0,055	-0,027
-331,460	800,000	-0,030	0,069
-330,445	150,508	0,042	-0,041
-329,431	141,969	0,064	0,061
-328,416	3,341	0,037	0,019
-327,402	59,076	0,143	0,100
-326,387	573,343	-0,043	-0,075
-325,372	243,464	-0,039	-0,047
-324,358	156,705	-0,023	0,023
-323,343	-94,313	0,094	0,018
-322,329	-200,000	0,019	-0,127
-321,314	35,418	-0,028	-0,017
-320,299	-153,481	0,064	0,003
-319,285	288,328	0,075	-0,097
-318,270	23,765	-0,071	-0,042
-317,256	-125,272	0,085	-0,009
-316,241	-48,834	0,100	-0,034
-315,226	241,825	-0,065	0,077
-314,212	-200,000	-0,011	0,048
-313,197	93,909	0,043	0,035
-312,183	61,813	0,117	0,083
-311,168	174,030	-0,088	-0,091
-310,153	-66,565	-0,047	0,013
-309,139	-23,761	-0,033	0,014
-308,124	800,000	-0,012	-0,027
-307,110	-105,254	0,055	-0,009
-306,095	800,000	0,033	0,085
-305,080	106,751	-0,153	-0,130
-304,066	175,480	-0,002	0,002
-303,051	-200,000	-0,005	0,063
-302,037	372,308	-0,010	-0,015
-301,022	-174,964	0,076	0,001
-300,008	62,583	-0,023	0,016
-298,993	308,661	-0,031	-0,041
-297,978	-60,619	0,078	-0,023
-296,964	116,529	-0,058	0,051
-295,949	244,907	0,018	-0,022
-294,935	7,490	-0,030	-0,016
-293,920	195,706	0,021	-0,023
-292,905	108,320	0,050	-0,043
-291,891	-26,831	0,114	-0,047
-290,876	528,884	0,034	0,058
-289,862	-200,000	0,010	0,136
-288,847	676,328	0,042	-0,077
-287,832	407,312	-0,140	-0,211
-286,818	16,648	0,028	-0,016
-285,803	-137,977	0,014	-0,001
-284,789	299,736	-0,053	-0,069
-283,774	800,000	0,028	-0,068
-282,759	56,091	0,111	0,077
-281,745	-200,000	-0,012	0,056
-280,730	800,000	0,076	0,155
-279,716	800,000	-0,018	-0,036
-278,701	-200,000	0,013	0,081
-277,686	694,673	0,035	-0,065
-276,672	-200,000	-0,001	0,032
-275,657	220,432	0,101	-0,116
-274,643	-172,900	-0,108	0,002
-273,628	-177,438	0,084	-0,001
-272,613	-200,000	-0,021	0,158
-271,599	-60,235	0,101	-0,031
-270,584	-200,000	0,032	-0,146
-269,570	800,000	0,035	-0,093
-268,555	168,449	0,010	-0,010
-267,540	107,526	-0,042	-0,036
-266,526	489,865	-0,058	-0,095
-265,511	800,000	-0,016	-0,033
-264,497	-35,494	0,074	-0,029
-263,482	-155,891	0,147	0,007
-262,467	320,094	-0,121	0,165
-261,453	-200,000	0,012	0,057
-260,438	800,000	-0,024	-0,048
-259,424	-200,000	-0,004	-0,064
-258,409	-20,485	0,164	-0,072
-257,395	-191,693	0,058	0,000
-256,380	266,784	-0,044	-0,055
-255,365	172,100	0,075	0,077
-254,351	800,000	-0,032	0,071
-253,336	-113,065	0,053	-0,007
-252,322	112,934	0,011	0,010
-251,307	-200,000	-0,005	-0,106
-250,292	158,587	0,085	0,085
-249,278	102,600	0,029	-0,024
-248,263	-200,000	0,005	0,097
-247,249	-200,000	-0,008	-0,045
-246,234	-82,459	-0,049	-0,011
-245,219	-101,688	-0,078	0,013
-244,205	194,147	-0,134	0,145
-243,190	-200,000	-0,026	-0,219
-242,176	-60,189	-0,045	0,014
-241,161	800,000	0,035	-0,089
-240,146	16,843	0,079	0,044
-239,132	210,037	-0,027	-0,030
-238,117	-200,000	0,011	-0,118
-237,103	800,000	-0,021	-0,062
-236,088	-25,448	0,071	-0,030
-235,073	-200,000	0,001	-0,050
-234,059	130,057	0,101	0,093
-233,044	-17,853	0,026	0,012
-232,030	-75,097	0,090	-0,023
-231,015	800,000	-0,048	0,132
-230,000	471,480	0,053	0,085
-228,986	392,957	0,015	-0,022
-227,971	800,000	0,039	-0,092
-226,957	-45,088	0,159	0,056
-225,942	19,491	-0,108	0,062
-224,927	433,065	0,052	0,081
-223,913	124,109	-0,037	-0,034
-222,898	-200,000	0,039	-0,122
-221,884	-49,441	-0,061	0,021
-220,869	800,000	-0,025	-0,052
-219,855	800,000	-0,072	0,155
-218,840	91,771	0,046	0,037
-217,825	93,857	-0,116	-0,094
-216,811	-102,881	-0,117	-0,020
-215,796	-200,000	0,009	0,140
-214,782	-200,000	-0,001	-0,112
-213,767	800,000	0,065	0,131
-212,752	-200,000	0,000	0,163
-211,738	-21,084	0,062	0,027
-210,723	-55,333	-0,096	0,030
-209,709	205,310	0,049	-0,054
-208,694	15,089	-0,053	0,029
-207,679	338,271	0,015	-0,021
-206,665	309,433	0,067	0,089
-205,650	104,292	-0,060	0,050
-204,636	800,000	0,049	-0,141
-203,621	117,625	-0,047	-0,042
-202,606	-19,525	-0,029	-0,013
-201,592	800,000	-0,057	-0,162
-200,577	92,058	-0,067	0,054
-199,563	236,363	0,052	0,061
-198,548	-200,000	0,005	0,067
-197,533	65,028	0,160	0,115
-196,519	792,107	-0,052	-0,103
-195,504	-95,004	-0,065	0,012
-194,490	-72,418	0,052	0,013
-193,475	-200,000	0,027	-0,156
-192,460	-20,703	-0,078	0,034
-191,446	571,738	0,056	-0,098
-190,431	-200,000	0,041	0,178
-189,417	417,394	-0,018	0,027
-188,402	-200,000	-0,010	0,098
-187,387	183,792	-0,049	0,051
-186,373	51,137	-0,054	0,036
-185,358	-200,000	-0,028	0,115
-184,344	671,220	0,009	-0,017
-183,329	-121,234	-0,138	0,016
-182,315	-55,519	-0,055	0,017
-181,300	-69,571	-0,006	0,002
-180,285	-200,000	0,003	-0,032
-179,271	-69,668	-0,025	0,007
-178,256	189,868	0,042	0,045
-177,242	-92,182	0,050	0,010
-176,227	-200,000	-0,013	0,071
-175,212	88,968	-0,088	0,070
-174,198	3,110	0,033	-0,017
-173,183	800,000	-0,038	-0,094
-172,169	139,111	-0,028	-0,026
-171,154	437,551	-0,036	0,056
-170,139	-31,339	-0,035	0,014
-169,125	191,233	-0,055	-0,059
-168,110	62,425	-0,029	-0,020
-167,096	800,000	0,039	0,084
-166,081	3,355	0,078	-0,040
-165,066	-150,260	-0,069	0,004
-164,052	-200,000	-0,051	-0,162
-163,037	524,103	-0,018	-0,030
-162,023	-200,000	0,010	0,091
-161,008	-200,000	-0,040	0,149
-159,993	-200,000	0,027	-0,162
-158,979	-11,640	0,030	0,014
-157,964	661,497	0,074	-0,136
-156,950	236,245	0,078	-0,092
-155,935	-80,728	-0,138	0,032
-154,920	-200,000	0,031	0,130
-153,906	104,478	0,113	-0,095
-152,891	-185,223	-0,168	0,002
-151,877	800,000	0,012	0,036
-150,862	-7,105	-0,016	-0,008
-149,847	-170,498	0,017	0,000
-148,833	334,210	-0,044	0,061
-147,818	57,616	0,031	0,021
-146,804	-18,025	-0,049	-0,022
-145,789	86,790	-0,064	-0,050
-144,775	45,922	0,024	0,016
-143,760	170,936	0,068	-0,070
-142,745	-56,603	-0,133	-0,042
-141,731	28,238	0,186	0,111
-140,716	-28,508	-0,092	-0,037
-139,702	-200,000	-0,010	0,051
-138,687	800,000	0,047	0,134
-137,672	17,021	-0,066	-0,037
-136,658	-200,000	0,029	-0,144
-135,643	800,000	-0,071	-0,216
-134,629	71,817	-0,100	-0,074
-133,614	4,168	-0,040	0,020
-132,599	-183,793	0,076	-0,001
-131,585	-178,020	0,057	0,001
-130,570	-143,301	-0,147	-0,010
-129,556	-200,000	0,009	0,090
-128,541	800,000	-0,035	-0,092
-127,526	-200,000	0,033	-0,122
-126,512	575,372	0,010	0,017
-125,497	161,367	0,040	0,040
-124,483	-6,567	-0,137	0,066
-123,468	-123,614	0,028	0,003
-122,453	-200,000	-0,034	-0,132
-121,439	800,000	0,016	-0,048
-120,424	798,816	-0,085	-0,167
-119,410	-200,000	0,019	-0,125
-118,395	-200,000	-0,001	-0,127
-117,380	349,637	0,124	0,174
-116,366	590,101	0,027	0,047
-115,351	-111,563	-0,181	-0,026
-114,337	-90,849	-0,074	0,015
-113,322	61,505	-0,060	-0,042
-112,307	38,434	0,088	0,055
-111,293	100,365	0,063	0,051
-110,278	800,000	-0,008	0,016
-109,264	-200,000	-0,010	0,088
-108,249	-24,714	-0,071	0,030
-107,234	-200,000	-0,010	-0,088
-106,220	800,000	0,061	-0,130
-105,205	276,018	0,038	-0,048
-104,191	715,740	-0,017	0,032
-103,176	-28,004	0,154	0,063
-102,162	99,696	0,060	0,049
-101,147	145,860	-0,054	0,051
-100,132	-101,589	-0,166	0,028
-99,118	548,252	0,070	-0,120
-98,103	-128,263	-0,105	0,010
-97,089	-165,017	0,127	-0,004
-96,074	-200,000	0,013	-0,082
-95,059	-0,111	0,078	-0,039
-94,045	-71,200	-0,073	-0,019
-93,030	-200,000	0,012	0,074
-92,016	551,476	-0,050	-0,085
-91,001	800,000	0,016	0,041
-89,986	-23,013	0,049	0,021
-88,972	651,636	0,066	0,121
-87,957	-200,000	0,009	-0,075
-86,943	80,382	0,032	0,024
-85,928	162,369	-0,078	0,077
-84,913	-90,605	0,058	0,012
-83,899	429,629	-0,019	-0,029
-82,884	-123,362	0,148	-0,017
-81,870	29,378	-0,073	0,044
-80,855	-7,583	0,101	0,048
-79,840	-200,000	-0,014	0,067
-78,826	-96,403	0,119	-0,022
-77,811	248,595	0,117	-0,141
-76,797	-200,000	0,011	-0,075
-75,782	134,816	0,055	-0,050
-74,767	-200,000	-0,021	-0,106
-73,753	-78,357	0,023	-0,006
-72,738	-145,179	0,093	-0,006
-71,724	57,062	0,003	-0,002
-70,709	800,000	0,032	-0,067
-69,694	113,368	-0,143	-0,123
-68,680	-152,301	0,163	0,008
-67,665	145,519	-0,044	0,042
-66,651	-6,242	-0,056	0,027
-65,636	32,138	0,163	0,099
-64,622	-200,000	0,009	0,040
-63,607	26,836	0,079	-0,047
-62,592	646,619	-0,054	0,098
-61,578	-200,000	0,008	-0,042
-60,563	-91,878	0,112	0,022
-59,549	-200,000	-0,010	-0,043
-58,534	-56,658	-1,512	-0,471
-57,519	417,409	-1,446	-2,194
-56,505	-200,000	-0,518	-4,735
-55,490	116,687	1,031	0,895
-54,476	800,000	4,785	11,260
-53,461	-200,000	18,374	295,431
-52,446	800,000	730,313	2253,677
-51,432	559,313	1646,838	2826,180
-50,417	79,089	1667,741	1263,592
-49,403	22,510	1541,200	890,306
-48,388	16,458	1464,124	816,427
-47,373	17,815	1453,974	817,279
-46,359	17,048	1444,322	808,151
-45,344	14,662	1439,885	794,225
-44,330	14,650	1437,663	792,915
-43,315	14,623	1436,140	791,913
-42,300	14,631	1434,625	791,085
-41,286	14,711	1433,156	790,621
-40,271	14,662	1431,913	789,671
-39,257	14,655	1430,766	788,975
-38,242	14,643	1429,335	788,099
-37,227	14,673	1428,200	787,586
-36,213	14,678	1426,888	786,853
-35,198	14,655	1425,753	786,086
-34,184	14,728	1424,797	785,873
-33,169	14,616	1423,521	784,609
-32,154	14,697	1422,507	784,402
-31,140	14,659	1421,169	783,455
-30,125	14,686	1420,125	782,973
-29,111	14,695	1418,732	782,219
-28,096	14,654	1417,705	781,429
-27,082	14,607	1416,811	780,684
-26,067	14,590	1415,641	779,929
-25,052	14,561	1414,759	779,275
-24,038	14,592	1413,600	778,751
-23,023	14,592	1412,577	778,157
-22,009	14,522	1411,704	777,313
-20,994	14,570	1410,787	777,003
-19,979	14,544	1409,902	776,363
-18,965	14,507	1408,764	775,536
-17,950	14,519	1407,697	774,971
-16,936	14,487	1407,094	774,461
-15,921	14,533	1405,764	773,910
-14,906	14,514	1404,846	773,285
-13,892	14,528	1403,937	772,819
-12,877	14,504	1403,260	772,304
-11,863	14,507	1402,197	771,702
-10,848	14,454	1401,299	770,932
-9,833	14,470	1400,531	770,556
-8,819	14,419	1399,645	769,800
-7,804	14,410	1398,628	769,168
-6,790	14,417	1397,629	768,620
-5,775	14,375	1396,685	767,875
-4,760	14,398	1395,626	767,369
-3,746	14,400	1394,705	766,844
-2,731	14,417	1394,064	766,536
-1,717	14,345	1393,210	765,703
-0,702	14,375	1391,434	764,839
0,313	18,228	1309,719	737,755
1,327	34,580	706,489	435,849
2,342	53,250	124,426	84,217
3,356	4,719	16,621	8,612
4,371	7,738	3,294	1,740
5,386	47,568	0,457	0,301
6,400	800,000	-0,015	0,044
7,415	356,811	-0,227	-0,321
8,429	101,416	-0,278	-0,229
9,444	375,206	-0,229	-0,331
10,459	-22,943	-0,310	-0,132
11,473	-80,763	-0,343	-0,080
12,488	577,334	-0,129	-0,223
13,502	-0,803	-0,317	-0,158
14,517	-28,286	-0,434	-0,176
15,531	9,915	-0,365	-0,195
16,546	-49,338	-0,376	-0,126
17,561	84,761	-0,229	-0,177
18,575	60,185	-0,341	-0,238
19,590	272,959	-0,230	-0,287
20,604	56,251	-0,224	-0,154
21,619	65,605	-0,521	-0,372
22,634	145,174	-0,423	-0,400
23,648	135,351	-0,420	-0,386
24,663	98,418	-0,439	-0,357
25,677	96,064	-0,290	-0,234
26,692	129,948	-0,239	-0,216
27,707	39,902	-0,368	-0,233
28,721	156,951	-0,285	-0,278
29,736	32,480	-0,482	-0,293
30,750	130,135	-0,408	-0,368
31,765	-0,549	-0,462	-0,231
32,780	-9,781	-0,496	-0,232
33,794	145,136	-0,302	-0,286
34,809	91,551	-0,260	-0,206
35,823	47,020	-0,332	-0,218
36,838	-12,095	-0,474	-0,218
37,853	-24,363	-0,374	-0,157
38,867	128,152	-0,314	-0,282
39,882	178,786	-0,381	-0,393
40,896	189,659	-0,312	-0,330
41,911	290,090	-0,151	-0,194
42,926	144,250	-0,301	-0,283
43,940	136,467	-0,405	-0,373
44,955	800,000	-0,225	-0,488
45,969	124,199	-0,386	-0,342
46,984	126,091	-0,207	-0,185
47,999	-12,300	-0,377	-0,173
49,013	222,774	-0,315	-0,359
50,028	114,159	-0,296	-0,254
51,042	244,969	-0,320	-0,380
52,057	143,094	-0,271	-0,254
53,071	0,673	-0,329	-0,165
54,086	38,541	-0,317	-0,199
55,101	145,470	-0,322	-0,304
56,115	-40,162	-0,374	-0,137
57,130	46,522	-0,217	-0,141
58,144	120,117	-0,326	-0,284
59,159	33,660	-0,347	-0,212
60,174	53,504	-0,336	-0,226
61,188	53,020	-0,460	-0,309
62,203	135,912	-0,404	-0,370
63,217	65,398	-0,341	-0,243
64,232	-88,626	-0,273	-0,057
65,247	-4,101	-0,366	-0,178
66,261	162,896	-0,375	-0,371
67,276	20,300	-0,345	-0,195
68,290	2,770	-0,412	-0,210
69,305	47,865	-0,360	-0,236
70,320	-52,070	-0,225	-0,073
71,334	23,261	-0,152	-0,088
72,349	-39,025	-0,178	-0,066
73,363	58,901	-0,361	-0,250
74,378	31,436	-0,382	-0,230
75,393	107,271	-0,277	-0,231
76,407	-33,923	-0,337	-0,130
77,422	-37,383	-0,294	-0,110
78,436	142,633	-0,247	-0,231
79,451	79,926	-0,292	-0,220
80,466	150,880	-0,390	-0,373
81,480	-87,235	-0,212	-0,045
82,495	196,518	-0,280	-0,300
83,509	39,149	-0,246	-0,154
84,524	175,540	-0,176	-0,179
85,539	67,653	-0,247	-0,177
86,553	2,295	-0,325	-0,165
87,568	99,815	-0,262	-0,213
88,582	55,321	-0,306	-0,207
89,597	184,562	-0,294	-0,306
90,611	30,355	-0,375	-0,225
91,626	-62,177	-0,296	-0,086
92,641	-41,787	-0,364	-0,130
93,655	135,973	-0,251	-0,230
94,670	4,098	-0,286	-0,147
95,684	167,910	-0,332	-0,332
96,699	134,028	-0,289	-0,263
97,714	39,323	-0,306	-0,192
98,728	37,320	-0,306	-0,190
99,743	132,348	-0,272	-0,246
100,757	-116,150	-0,263	-0,034
101,772	-24,284	-0,353	-0,147
102,787	-12,604	-0,310	-0,141
103,801	108,059	-0,241	-0,201
104,816	155,325	-0,169	-0,163
105,830	44,157	-0,252	-0,162
106,845	216,543	-0,129	-0,144
107,860	88,282	-0,254	-0,198
108,874	5,021	-0,240	-0,124
109,889	64,091	-0,258	-0,181
110,903	-66,936	-0,308	-0,085
111,918	132,810	-0,244	-0,220
112,933	800,000	-0,092	-0,244
113,947	245,094	-0,142	-0,168
114,962	6,435	-0,228	-0,118
115,976	-10,872	-0,354	-0,163
116,991	-16,758	-0,428	-0,189
118,006	-115,027	-0,366	-0,048
119,020	431,613	-0,183	-0,278
120,035	-41,037	-0,299	-0,108
121,049	47,639	-0,269	-0,175
122,064	-7,035	-0,215	-0,102
123,079	-7,019	-0,199	-0,094
124,093	26,658	-0,309	-0,180
125,108	68,656	-0,268	-0,192
126,122	38,890	-0,228	-0,142
127,137	127,861	-0,263	-0,234
128,151	-11,022	-0,361	-0,166
129,166	177,742	-0,135	-0,138
130,181	259,794	-0,216	-0,261
131,195	8,616	-0,316	-0,166
132,210	0,530	-0,305	-0,152
133,224	259,101	-0,148	-0,179
134,239	141,005	-0,200	-0,185
135,254	161,980	-0,165	-0,161
136,268	28,795	-0,269	-0,159
137,283	-15,956	-0,315	-0,139
138,297	-23,139	-0,141	-0,059
139,312	113,404	-0,202	-0,171
140,327	9,153	-0,267	-0,141
141,341	92,999	-0,273	-0,215
142,356	99,249	-0,280	-0,226
143,370	189,344	-0,179	-0,188
144,385	254,967	-0,217	-0,260
145,400	188,046	-0,125	-0,131
146,414	267,238	-0,206	-0,253
147,429	133,915	-0,331	-0,299
148,443	-16,072	-0,446	-0,197
149,458	81,555	-0,260	-0,196
150,473	10,014	-0,284	-0,150
151,487	373,623	-0,147	-0,210
152,502	232,584	-0,209	-0,241
153,516	169,211	-0,213	-0,213
154,531	82,844	-0,291	-0,221
155,546	64,005	-0,257	-0,180
156,560	41,319	-0,169	-0,107
157,575	188,829	-0,211	-0,221
158,589	-9,901	-0,209	-0,097
159,604	37,550	-0,254	-0,157
160,619	-8,170	-0,328	-0,154
161,633	212,660	-0,277	-0,306
162,648	162,604	-0,101	-0,099
163,662	76,026	-0,209	-0,154
164,677	141,965	-0,285	-0,264
165,692	27,074	-0,295	-0,172
166,706	184,501	-0,217	-0,224
167,721	52,786	-0,290	-0,193
168,735	541,752	-0,190	-0,317
169,750	244,886	-0,223	-0,262
170,764	62,282	-0,265	-0,184
171,779	-63,293	-0,335	-0,095
172,794	30,295	-0,138	-0,082
173,808	140,963	-0,222	-0,205
174,823	131,341	-0,166	-0,149
175,837	-79,841	-0,276	-0,064
176,852	47,167	-0,350	-0,227
177,867	-58,501	-0,210	-0,063
178,881	-200,000	-0,056	-0,190
179,896	196,925	-0,158	-0,168
180,910	113,221	-0,156	-0,132
181,925	181,582	-0,294	-0,301
182,940	-24,488	-0,318	-0,131
183,954	555,098	-0,186	-0,313
184,969	12,516	-0,368	-0,197
185,983	-22,510	-0,224	-0,094
186,998	58,400	-0,061	-0,042
188,013	-131,602	-0,307	0,028
189,027	-68,545	-0,079	0,021
190,042	367,088	-0,188	-0,265
191,056	800,000	-0,116	-0,242
192,071	800,000	-0,103	-0,201
193,086	71,864	-0,247	-0,178
194,100	269,938	-0,106	-0,130
195,115	286,688	-0,213	-0,268
196,129	44,418	-0,240	-0,153
197,144	40,807	-0,247	-0,155
198,159	63,316	-0,294	-0,205
199,173	786,384	-0,186	-0,356
200,188	800,000	-0,118	-0,287
201,202	42,190	-0,147	-0,093
202,217	800,000	-0,120	-0,257
203,232	119,770	-0,224	-0,193
204,246	42,560	-0,301	-0,190
205,261	494,338	-0,138	-0,220
206,275	14,932	-0,265	-0,144
207,290	-22,578	-0,106	-0,045
208,304	139,705	-0,190	-0,174
209,319	166,741	-0,164	-0,161
210,334	11,086	-0,198	-0,105
211,348	120,662	-0,210	-0,182
212,363	584,295	-0,089	-0,152
213,377	14,037	-0,245	-0,132
214,392	162,697	-0,207	-0,202
215,407	-48,656	-0,115	-0,038
216,421	-46,126	-0,259	-0,088
217,436	176,221	-0,198	-0,200
218,450	316,582	-0,103	-0,135
219,465	-50,681	-0,239	-0,078
220,480	-49,233	-0,175	-0,058
221,494	89,056	-0,220	-0,170
222,509	-77,470	-0,195	-0,047
223,523	-106,772	-0,194	0,030
224,538	-110,549	-0,119	-0,017
225,553	338,364	-0,111	-0,151
226,567	89,094	-0,263	-0,203
227,582	333,616	-0,159	-0,214
228,596	10,462	-0,225	-0,118
229,611	226,937	-0,230	-0,260
230,626	88,810	-0,255	-0,197
231,640	213,298	-0,178	-0,196
232,655	85,836	-0,283	-0,215
233,669	117,612	-0,249	-0,212
234,684	201,173	-0,158	-0,169
235,699	80,757	-0,228	-0,170
236,713	145,660	-0,088	-0,082
237,728	135,369	-0,115	-0,104
238,742	153,779	-0,165	-0,157
239,757	51,868	-0,283	-0,186
240,772	231,566	-0,219	-0,249
241,786	449,099	-0,137	-0,210
242,801	-57,629	-0,138	-0,042
243,815	64,971	-0,167	-0,117
244,830	37,733	-0,220	-0,135
245,844	-68,919	-0,132	0,035
246,859	104,473	-0,204	-0,166
247,874	74,971	-0,301	-0,220
248,888	451,179	-0,169	-0,259
249,903	-190,296	-0,186	0,001
250,917	-88,583	-0,242	-0,049
251,932	19,726	-0,091	-0,051
252,947	201,635	-0,184	-0,196
253,961	152,467	-0,139	-0,131
254,976	36,754	-0,336	-0,205
255,990	74,135	-0,221	-0,160
257,005	108,118	-0,161	-0,133
258,020	-145,508	-0,213	0,013
259,034	790,166	-0,045	-0,085
260,049	152,720	-0,149	-0,141
261,063	99,350	-0,084	-0,067
262,078	147,043	-0,133	-0,124
263,093	15,212	-0,195	-0,106
264,107	29,096	-0,250	-0,146
265,122	75,459	-0,169	-0,123
266,136	61,193	-0,103	-0,070
267,151	313,833	-0,167	-0,218
268,166	800,000	-0,113	-0,242
269,180	41,982	-0,199	-0,125
270,195	183,123	-0,128	-0,131
271,209	-20,316	-0,187	-0,079
272,224	-17,562	-0,186	-0,080
273,239	-200,000	-0,060	-0,194
274,253	383,107	-0,070	-0,100
275,268	158,412	-0,088	-0,084
276,282	71,179	-0,177	-0,127
277,297	137,259	-0,259	-0,234
278,312	18,084	-0,225	-0,124
279,326	-86,334	-0,175	-0,037
280,341	-59,520	-0,114	-0,034
281,355	-108,790	-0,138	-0,020
282,370	218,595	-0,155	-0,171
283,384	643,745	-0,102	-0,180
284,399	276,269	-0,211	-0,259
285,414	52,226	-0,168	-0,110
286,428	-15,717	-0,093	-0,041
287,443	-31,879	-0,085	-0,033
288,457	-200,000	0,000	0,029
289,472	800,000	-0,099	-0,225
290,487	-71,623	-0,120	-0,031
291,501	-29,614	-0,216	-0,085
292,516	140,228	-0,228	-0,207
293,530	686,010	-0,098	-0,178
294,545	-108,280	-0,184	0,027
295,560	172,017	-0,100	0,099
296,574	-42,719	-0,132	-0,046
297,589	800,000	-0,075	-0,189
298,603	311,943	-0,181	-0,235
299,618	-18,409	-0,095	-0,041
300,633	484,349	-0,131	-0,207
301,647	-22,439	-0,211	-0,088
302,662	32,879	-0,192	-0,114
303,676	72,986	-0,150	-0,108
304,691	537,188	-0,087	-0,144
305,706	309,432	-0,208	-0,269
306,720	476,347	-0,109	-0,171
307,735	326,882	-0,186	-0,247
308,749	-200,000	-0,025	-0,199
309,764	24,817	-0,262	-0,149
310,779	-70,640	-0,150	-0,039
311,793	-95,649	-0,147	0,027
312,808	-129,070	-0,193	0,018
313,822	183,610	-0,147	-0,149
314,837	-53,554	-0,092	-0,029
315,852	435,603	-0,020	-0,030
316,866	-16,525	-0,184	-0,080
317,881	192,538	-0,163	-0,169
318,895	65,869	-0,206	-0,143
319,910	99,082	-0,131	-0,104
320,925	424,582	-0,100	-0,149
321,939	-45,600	-0,299	-0,101
322,954	71,829	-0,101	-0,072
323,968	66,963	-0,156	-0,109
324,983	-86,620	-0,109	-0,023
325,997	539,976	-0,034	-0,055
327,012	50,843	-0,103	-0,067
328,027	632,303	-0,079	-0,138
329,041	344,416	-0,119	-0,161
330,056	-200,000	-0,024	-0,086
331,070	-106,543	-0,037	-0,006
332,085	-19,046	-0,105	-0,045
333,100	800,000	-0,038	-0,099
334,114	-102,951	-0,205	-0,033
335,129	-42,854	-0,276	-0,096
336,143	230,407	-0,194	-0,219
337,158	-200,000	-0,019	-0,195
338,173	-18,003	-0,100	-0,043
339,187	356,449	-0,097	-0,133
340,202	-70,582	-0,081	-0,021
341,216	469,591	-0,093	-0,144
342,231	37,365	-0,135	-0,082
343,246	800,000	-0,089	-0,218
344,260	455,827	-0,163	-0,249
345,275	800,000	-0,101	-0,211
346,289	90,907	-0,224	-0,172
347,304	110,878	-0,103	-0,085
348,319	163,454	-0,084	-0,081
349,333	-69,390	-0,178	-0,046
350,348	-45,120	-0,251	-0,085
351,362	317,596	-0,119	-0,155
352,377	800,000	-0,104	-0,214
353,392	487,461	-0,126	-0,197
354,406	59,941	-0,133	-0,090
355,421	209,232	1316,524	1416,464
356,435	161,025	1477,473	1416,959
