DTS Sentinel unit serial number:	SN410029Multiplexer serial number:	ORYXHardware model number:	OX2-SRSoftware version number:	ORYX F/W v4,00 Oryx Data Collector v3.7.2.0data status	okinstallation	B3 Nyhavnadifferential loss correction	single-endedforward channel	channel 1reverse channel	N/Adate	2023/11/29time	23:32:30forward acquisition time	300,00reverse acquisition time	0,00gamma	499,1914k internal	0,3210k external	0,3210temperature offset calibration	1,0000default loss term (dB/km)	0,3820temperature slope calibration	1,0000multiplexer offset coefficient	1,0000multiplexer slope coefficient	1,0000fibre end	0,00T internal ref (°C)	10,88T ext. ref 1 (°C)	-4,01T ext. ref 2 (°C)	-4,09length (m)	temperature (°C)	Stokes	anti-Stokes-744,400	212,661	-0,184	-0,211
-743,385	-200,000	-0,014	0,346
-742,371	193,143	-0,153	-0,168
-741,356	800,000	0,106	0,287
-740,342	95,711	-0,289	-0,239
-739,327	-200,000	0,018	0,168
-738,312	77,514	-0,276	-0,213
-737,298	-200,000	0,015	0,224
-736,283	-200,000	-0,094	-0,315
-735,269	-200,000	-0,030	0,463
-734,254	204,735	-0,190	-0,214
-733,239	-133,486	-0,149	0,013
-732,225	263,461	-0,144	-0,181
-731,210	800,000	0,060	0,140
-730,196	-70,879	-0,086	-0,023
-729,181	-87,194	-0,075	-0,016
-728,167	800,000	0,036	-0,078
-727,152	-65,097	0,043	-0,012
-726,137	724,644	-0,049	0,095
-725,123	590,014	-0,035	-0,063
-724,108	184,282	0,025	0,027
-723,094	-25,840	-0,174	-0,074
-722,079	-200,000	-0,009	-0,192
-721,064	572,543	0,032	-0,056
-720,050	-200,000	0,012	-0,054
-719,035	-20,351	0,130	0,058
-718,021	-10,750	-0,083	-0,039
-717,006	319,460	-0,111	-0,153
-715,991	-93,557	-0,142	-0,028
-714,977	-83,621	0,052	0,012
-713,962	-200,000	0,027	-0,115
-712,948	46,358	-0,081	-0,054
-711,933	205,311	-0,047	0,053
-710,918	-126,792	-0,043	-0,005
-709,904	800,000	-0,059	-0,158
-708,889	-24,499	-0,178	-0,076
-707,875	-200,000	-0,024	-0,158
-706,860	22,458	0,036	0,022
-705,845	-200,000	0,036	-0,222
-704,831	163,315	0,078	-0,080
-703,816	-200,000	0,009	0,120
-702,802	-87,685	-0,065	0,014
-701,787	-200,000	-0,001	-0,038
-700,772	-109,829	0,184	0,028
-699,758	188,444	-0,070	-0,076
-698,743	-80,462	0,037	0,009
-697,729	146,124	0,116	-0,113
-696,714	-5,989	-0,084	-0,041
-695,699	657,733	0,049	-0,091
-694,685	172,760	-0,048	0,050
-693,670	-200,000	0,004	0,017
-692,656	-200,000	-0,006	0,034
-691,641	-126,647	0,063	0,007
-690,627	-84,073	-0,133	0,030
-689,612	208,971	0,060	0,069
-688,597	106,133	-0,120	0,103
-687,583	552,592	-0,049	0,086
-686,568	212,178	-0,106	0,121
-685,554	-200,000	-0,026	0,087
-684,539	-61,575	0,125	-0,038
-683,524	75,956	-0,132	-0,101
-682,510	-72,812	-0,004	-0,001
-681,495	-200,000	0,003	-0,022
-680,481	800,000	0,022	0,053
-679,466	467,965	-0,054	-0,087
-678,451	-86,186	-0,124	-0,028
-677,437	-200,000	-0,001	0,086
-676,422	-6,454	0,174	0,086
-675,408	-200,000	-0,019	-0,116
-674,393	0,336	0,104	-0,054
-673,378	-200,000	-0,021	-0,123
-672,364	145,145	-0,082	-0,079
-671,349	324,906	-0,080	-0,112
-670,335	611,486	0,049	0,089
-669,320	800,000	-0,022	0,054
-668,305	3,389	-0,038	-0,020
-667,291	560,956	-0,050	0,088
-666,276	145,555	-0,055	0,053
-665,262	-32,160	0,054	0,022
-664,247	-81,139	0,020	0,005
-663,232	-70,991	-0,040	0,011
-662,218	77,425	0,076	0,058
-661,203	32,543	-0,172	0,107
-660,189	-158,921	-0,093	-0,004
-659,174	8,171	-0,040	-0,021
-658,159	-200,000	-0,017	-0,111
-657,145	-68,599	0,201	-0,056
-656,130	-46,154	-0,104	0,037
-655,116	65,293	0,051	-0,037
-654,101	-172,693	-0,043	-0,001
-653,086	-20,746	0,097	-0,043
-652,072	-24,063	-0,070	0,030
-651,057	-112,229	-0,023	0,003
-650,043	493,968	-0,062	-0,104
-649,028	800,000	0,029	-0,064
-648,014	800,000	0,058	0,138
-646,999	289,415	-0,059	-0,078
-645,984	-200,000	-0,005	0,142
-644,970	20,471	-0,050	0,029
-643,955	-13,520	-0,079	0,037
-642,941	-82,383	-0,138	-0,032
-641,926	-90,270	0,133	-0,028
-640,911	132,324	0,037	0,034
-639,897	47,333	0,113	-0,076
-638,882	-4,792	0,185	0,092
-637,868	426,912	-0,022	0,035
-636,853	-73,327	0,055	-0,014
-635,838	62,369	-0,029	-0,021
-634,824	-153,987	-0,135	0,007
-633,809	205,122	0,037	-0,042
-632,795	-200,000	0,020	0,133
-631,780	251,740	0,049	0,060
-630,765	-200,000	-0,017	0,148
-629,751	207,436	0,106	-0,119
-628,736	223,052	-0,065	0,075
-627,722	-111,355	-0,079	-0,012
-626,707	800,000	0,015	0,046
-625,692	128,374	0,118	-0,109
-624,678	-200,000	0,018	0,069
-623,663	787,493	0,053	-0,106
-622,649	97,348	-0,109	-0,090
-621,634	-32,217	0,087	-0,035
-620,619	9,501	0,027	-0,015
-619,605	711,333	0,016	0,031
-618,590	-200,000	-0,034	0,143
-617,576	-200,000	-0,029	0,132
-616,561	19,145	-0,129	0,075
-615,546	-200,000	-0,030	-0,120
-614,532	-200,000	0,034	-0,109
-613,517	-200,000	-0,001	-0,096
-612,503	-118,733	0,087	0,011
-611,488	-69,596	-0,093	0,026
-610,474	-200,000	0,028	-0,097
-609,459	-12,186	-0,064	-0,030
-608,444	-33,438	-0,049	0,019
-607,430	29,950	-0,123	0,075
-606,415	422,895	-0,021	0,032
-605,401	800,000	-0,038	0,097
-604,386	73,456	-0,017	0,013
-603,371	-95,684	-0,063	0,012
-602,357	-103,254	-0,023	0,004
-601,342	800,000	-0,080	-0,172
-600,328	-46,774	0,081	0,029
-599,313	321,050	-0,060	-0,083
-598,298	42,776	0,132	0,087
-597,284	-2,829	-0,175	0,088
-596,269	800,000	-0,034	0,080
-595,255	-200,000	0,014	0,047
-594,240	32,365	-0,048	-0,030
-593,225	3,263	-0,175	-0,091
-592,211	237,866	0,084	-0,100
-591,196	686,836	0,038	-0,071
-590,182	10,430	-0,113	0,062
-589,167	-57,571	0,167	-0,052
-588,152	-0,620	-0,029	-0,015
-587,138	329,545	-0,067	0,092
-586,123	800,000	0,044	-0,101
-585,109	327,286	0,011	-0,015
-584,094	126,608	-0,019	-0,017
-583,079	696,417	0,019	-0,037
-582,065	4,711	-0,169	-0,089
-581,050	800,000	-0,052	0,127
-580,036	-25,766	-0,056	0,024
-579,021	225,504	0,053	-0,062
-578,006	75,487	-0,098	-0,075
-576,992	6,597	0,024	0,013
-575,977	-152,455	-0,060	0,003
-574,963	800,000	0,027	0,065
-573,948	-48,102	0,091	-0,031
-572,934	-95,620	-0,132	-0,025
-571,919	74,650	-0,163	-0,123
-570,904	368,797	-0,067	-0,098
-569,890	-200,000	0,053	-0,174
-568,875	59,435	0,101	0,071
-567,861	194,609	-0,017	-0,018
-566,846	-61,380	0,034	0,010
-565,831	-200,000	-0,003	0,034
-564,817	99,811	0,068	0,057
-563,802	-59,584	0,103	-0,032
-562,788	448,569	-0,094	0,150
-561,773	-200,000	-0,007	-0,028
-560,758	-200,000	0,011	0,046
-559,744	-50,433	0,110	-0,037
-558,729	-45,311	0,067	-0,024
-557,715	160,100	-0,077	0,077
-556,700	191,097	-0,043	-0,047
-555,685	-200,000	0,010	0,070
-554,671	-80,471	0,093	0,022
-553,656	123,210	0,052	-0,047
-552,642	770,536	-0,003	-0,006
-551,627	113,881	0,086	-0,075
-550,612	125,582	0,028	-0,025
-549,598	60,571	-0,125	-0,089
-548,583	800,000	-0,036	-0,086
-547,569	76,324	-0,059	-0,045
-546,554	-115,488	0,019	0,003
-545,539	295,602	0,122	0,161
-544,525	646,751	-0,017	0,032
-543,510	-77,909	-0,115	-0,028
-542,496	-200,000	-0,004	-0,030
-541,481	237,473	-0,115	-0,138
-540,466	-61,536	0,133	0,040
-539,452	327,480	0,075	0,104
-538,437	610,703	0,017	0,030
-537,423	256,041	-0,026	0,032
-536,408	165,636	-0,085	0,086
-535,393	595,249	0,009	0,017
-534,379	-200,000	-0,006	-0,086
-533,364	-152,487	-0,109	0,006
-532,350	-10,826	0,065	0,031
-531,335	438,992	0,099	0,155
-530,321	284,520	0,068	0,089
-529,306	6,251	-0,071	-0,038
-528,291	100,998	-0,046	-0,038
-527,277	797,607	-0,063	-0,125
-526,262	108,737	-0,040	0,035
-525,248	800,000	0,036	0,076
-524,233	646,985	0,060	0,110
-523,218	-22,666	0,142	0,062
-522,204	39,766	-0,089	0,057
-521,189	-60,913	0,082	0,025
-520,175	23,042	0,100	0,059
-519,160	-200,000	-0,022	0,080
-518,145	-98,402	0,100	0,018
-517,131	800,000	-0,007	-0,022
-516,116	-200,000	0,006	0,171
-515,102	-200,000	-0,016	0,090
-514,087	-200,000	0,008	-0,076
-513,072	4,421	-0,132	-0,070
-512,058	-200,000	0,019	0,069
-511,043	-200,000	-0,004	-0,088
-510,029	108,296	0,053	-0,046
-509,014	49,683	-0,019	-0,013
-507,999	-200,000	0,008	0,204
-506,985	800,000	-0,017	-0,039
-505,970	-93,217	-0,093	0,018
-504,956	748,017	-0,055	-0,107
-503,941	17,326	-0,055	0,031
-502,926	-128,028	-0,042	0,004
-501,912	-156,731	-0,029	-0,001
-500,897	5,888	0,051	0,027
-499,883	-46,039	-0,170	0,060
-498,868	-200,000	0,013	0,098
-497,853	-200,000	0,002	0,039
-496,839	519,439	0,034	-0,058
-495,824	-79,313	0,063	-0,015
-494,810	800,000	0,062	0,125
-493,795	339,493	0,038	-0,053
-492,781	-200,000	-0,163	0,000
-491,766	-200,000	0,003	0,014
-490,751	14,004	0,096	-0,054
-489,737	-116,518	-0,131	-0,017
-488,722	-200,000	0,046	-0,146
-487,708	-115,174	-0,050	-0,007
-486,693	103,201	0,051	-0,043
-485,678	-35,927	-0,088	0,034
-484,664	-15,075	0,037	-0,017
-483,649	-200,000	0,031	-0,135
-482,635	-70,760	-0,089	0,024
-481,620	-120,034	0,111	0,014
-480,605	8,942	0,138	-0,075
-479,591	215,472	-0,035	-0,040
-478,576	800,000	-0,026	0,059
-477,562	8,004	-0,064	0,034
-476,547	156,537	0,021	0,020
-475,532	112,837	-0,059	0,052
-474,518	-26,639	0,125	0,052
-473,503	579,197	0,012	-0,021
-472,489	88,016	0,062	0,049
-471,474	-62,386	0,095	0,028
-470,459	99,832	-0,079	-0,066
-469,445	56,133	0,010	0,007
-468,430	-200,000	-0,009	-0,213
-467,416	376,368	-0,036	-0,053
-466,401	459,588	0,111	-0,178
-465,386	800,000	0,041	-0,105
-464,372	-200,000	0,011	0,143
-463,357	-200,000	-0,013	-0,091
-462,343	96,058	-0,109	-0,089
-461,328	-200,000	-0,020	0,085
-460,313	115,069	0,132	0,116
-459,299	119,985	-0,104	0,093
-458,284	125,984	-0,079	0,071
-457,270	140,345	-0,110	-0,104
-456,255	800,000	-0,087	-0,246
-455,241	-200,000	-0,024	-0,156
-454,226	20,412	-0,088	0,051
-453,211	-123,560	0,166	0,019
-452,197	377,416	-0,020	-0,029
-451,182	229,133	0,087	0,102
-450,168	21,852	0,112	-0,066
-449,153	34,131	-0,088	-0,055
-448,138	31,345	-0,081	0,050
-447,124	-200,000	0,067	0,000
-446,109	-70,061	0,082	-0,022
-445,095	45,200	0,061	0,040
-444,080	148,197	0,066	0,064
-443,065	-200,000	-0,015	0,116
-442,051	124,551	0,044	-0,040
-441,036	-99,967	-0,024	0,004
-440,022	-115,382	0,076	-0,010
-439,007	800,000	-0,072	-0,158
-437,992	156,016	0,112	0,111
-436,978	-102,037	-0,099	0,017
-435,963	-57,040	-0,075	-0,024
-434,949	599,575	-0,045	-0,080
-433,934	82,772	0,148	-0,115
-432,919	123,618	-0,110	-0,099
-431,905	116,014	-0,042	-0,037
-430,890	167,160	-0,095	-0,097
-429,876	469,733	0,098	0,159
-428,861	419,999	-0,015	0,023
-427,846	561,594	-0,021	-0,036
-426,832	-200,000	-0,005	-0,034
-425,817	170,075	-0,047	0,048
-424,803	267,729	-0,022	0,028
-423,788	800,000	0,039	0,090
-422,773	-50,814	0,074	-0,025
-421,759	-196,500	-0,085	-0,000
-420,744	800,000	-0,061	0,170
-419,730	-30,686	-0,144	-0,058
-418,715	5,368	0,070	-0,037
-417,701	800,000	0,015	-0,044
-416,686	-200,000	0,002	-0,044
-415,671	25,909	0,149	0,089
-414,657	-200,000	0,008	0,111
-413,642	466,454	0,068	-0,110
-412,628	-112,270	0,028	-0,004
-411,613	665,950	0,076	-0,141
-410,598	-10,621	-0,088	0,041
-409,584	-129,101	0,097	-0,010
-408,569	-55,545	-0,038	-0,012
-407,555	800,000	-0,030	0,090
-406,540	-200,000	-0,008	0,078
-405,525	-35,334	0,153	0,059
-404,511	54,596	-0,140	-0,096
-403,496	-83,760	0,118	-0,027
-402,482	-200,000	-0,021	-0,104
-401,467	800,000	0,017	-0,041
-400,452	800,000	-0,041	0,129
-399,438	-29,359	0,055	0,022
-398,423	38,711	-0,067	0,042
-397,409	-200,000	0,033	0,242
-396,394	541,604	-0,056	-0,096
-395,379	800,000	-0,044	-0,115
-394,365	72,500	-0,056	0,042
-393,350	744,600	0,013	-0,025
-392,336	134,980	0,028	0,026
-391,321	91,533	-0,134	-0,108
-390,306	448,385	0,041	-0,064
-389,292	189,375	0,057	-0,061
-388,277	-86,516	0,078	0,017
-387,263	170,820	0,081	0,083
-386,248	-81,736	-0,017	-0,004
-385,233	800,000	-0,027	0,081
-384,219	37,538	-0,043	0,027
-383,204	78,371	-0,024	0,018
-382,190	141,110	0,093	-0,088
-381,175	-200,000	0,020	0,066
-380,160	132,941	0,192	0,177
-379,146	-48,186	-0,069	-0,024
-378,131	-200,000	-0,000	0,056
-377,117	-158,734	-0,138	0,006
-376,102	-200,000	-0,016	-0,051
-375,088	-160,815	-0,081	-0,003
-374,073	-160,554	-0,087	0,003
-373,058	531,446	0,091	0,155
-372,044	16,849	-0,072	-0,041
-371,029	-200,000	-0,006	0,094
-370,015	-200,000	-0,041	0,152
-369,000	-200,000	0,013	-0,052
-367,985	800,000	-0,040	-0,090
-366,971	800,000	0,035	-0,101
-365,956	-148,842	-0,143	0,008
-364,942	756,972	0,070	0,135
-363,927	170,777	0,025	-0,025
-362,912	24,767	0,129	0,076
-361,898	-200,000	-0,031	-0,114
-360,883	800,000	0,025	-0,057
-359,869	-88,116	0,156	0,033
-358,854	-174,494	-0,018	0,000
-357,839	124,855	0,063	0,056
-356,825	-173,942	-0,206	0,004
-355,810	112,002	0,166	-0,143
-354,796	-121,248	-0,231	0,027
-353,781	-200,000	-0,014	-0,091
-352,766	-68,392	0,024	0,007
-351,752	151,039	0,046	0,045
-350,737	-39,635	0,075	0,028
-349,723	67,014	0,120	0,087
-348,708	-200,000	-0,012	0,118
-347,693	800,000	0,062	-0,196
-346,679	-73,874	0,075	-0,019
-345,664	280,880	-0,114	-0,146
-344,650	-200,000	-0,003	-0,019
-343,635	800,000	-0,014	-0,029
-342,620	-200,000	-0,014	0,150
-341,606	-200,000	0,017	0,134
-340,591	74,987	0,067	0,050
-339,577	-81,307	-0,049	-0,011
-338,562	-62,793	-0,044	-0,013
-337,548	-6,650	0,067	-0,032
-336,533	-200,000	-0,019	-0,123
-335,518	800,000	-0,063	0,159
-334,504	-200,000	0,020	-0,066
-333,489	800,000	-0,010	0,031
-332,475	152,399	0,070	-0,068
-331,460	427,295	-0,016	-0,024
-330,445	175,720	0,070	0,072
-329,431	144,847	0,084	-0,080
-328,416	-200,000	0,009	0,065
-327,402	-200,000	0,007	-0,076
-326,387	-200,000	-0,009	-0,062
-325,372	124,019	-0,107	-0,096
-324,358	172,685	-0,041	-0,042
-323,343	-13,765	-0,012	-0,006
-322,329	-72,987	0,075	0,020
-321,314	-200,000	0,007	0,034
-320,299	-200,000	0,005	0,163
-319,285	223,141	0,074	-0,085
-318,270	800,000	-0,006	-0,017
-317,256	186,096	-0,057	-0,061
-316,241	800,000	-0,068	-0,168
-315,226	366,473	-0,030	-0,044
-314,212	45,922	-0,052	0,034
-313,197	217,021	-0,070	0,080
-312,183	-200,000	0,001	-0,035
-311,168	-74,406	-0,101	-0,026
-310,153	-27,275	-0,113	-0,047
-309,139	-169,092	-0,121	0,003
-308,124	381,667	-0,062	0,091
-307,110	-82,283	0,190	0,044
-306,095	176,236	0,118	-0,122
-305,080	785,946	0,037	0,073
-304,066	173,512	-0,137	-0,142
-303,051	-200,000	0,016	-0,066
-302,037	800,000	-0,025	-0,079
-301,022	119,763	0,041	0,036
-300,008	-10,047	0,058	0,028
-298,993	544,163	-0,002	0,003
-297,978	-76,345	-0,087	0,022
-296,964	-200,000	-0,001	-0,083
-295,949	-200,000	-0,002	-0,009
-294,935	-200,000	-0,001	0,035
-293,920	18,171	0,041	-0,023
-292,905	-23,974	0,095	-0,040
-291,891	800,000	0,028	0,061
-290,876	-41,930	-0,027	0,010
-289,862	-68,210	-0,236	-0,065
-288,847	-200,000	0,012	-0,040
-287,832	139,436	-0,078	-0,073
-286,818	-36,384	0,020	0,007
-285,803	-200,000	0,002	0,089
-284,789	89,695	0,096	0,076
-283,774	361,395	-0,105	0,150
-282,759	-200,000	0,015	0,114
-281,745	-75,747	-0,065	0,016
-280,730	6,977	-0,058	0,031
-279,716	-200,000	0,013	-0,064
-278,701	-143,498	0,057	0,004
-277,686	34,089	0,031	0,019
-276,672	198,694	0,046	0,050
-275,657	566,276	0,082	0,142
-274,643	-200,000	0,026	0,083
-273,628	800,000	-0,045	-0,101
-272,613	90,523	0,031	-0,025
-271,599	-200,000	0,039	0,147
-270,584	430,649	0,050	-0,077
-269,570	24,486	0,140	0,083
-268,555	68,785	-0,056	-0,041
-267,540	-200,000	0,013	0,055
-266,526	-200,000	-0,002	-0,064
-265,511	-200,000	-0,025	0,179
-264,497	-165,732	-0,123	0,004
-263,482	-89,154	0,124	-0,026
-262,467	23,892	-0,098	0,058
-261,453	-146,025	0,076	-0,005
-260,438	-71,288	-0,032	0,009
-259,424	-71,692	-0,041	-0,011
-258,409	-112,407	0,109	0,015
-257,395	46,731	0,180	0,119
-256,380	-73,840	0,068	-0,018
-255,365	-200,000	0,009	0,082
-254,351	8,526	-0,050	0,027
-253,336	2,491	0,034	-0,017
-252,322	-111,655	-0,054	-0,008
-251,307	264,271	0,075	-0,093
-250,292	-200,000	0,007	-0,127
-249,278	800,000	0,023	-0,052
-248,263	800,000	-0,045	-0,123
-247,249	-200,000	0,021	-0,100
-246,234	-200,000	0,015	-0,072
-245,219	67,976	-0,162	-0,118
-244,205	387,343	0,081	-0,120
-243,190	237,650	0,055	0,066
-242,176	-200,000	-0,002	0,055
-241,161	-52,888	-0,118	0,038
-240,146	-136,820	-0,015	0,001
-239,132	101,740	-0,036	-0,030
-238,117	262,903	0,037	-0,046
-237,103	-127,755	-0,103	0,010
-236,088	-68,881	0,127	-0,035
-235,073	-126,611	0,127	0,013
-234,059	800,000	0,047	0,115
-233,044	-200,000	0,001	-0,060
-232,030	-137,822	0,049	-0,004
-231,015	357,363	0,035	-0,049
-230,000	800,000	-0,040	-0,089
-228,986	130,865	0,041	-0,037
-227,971	70,083	0,033	0,024
-226,957	193,782	0,058	0,062
-225,942	560,687	-0,014	0,024
-224,927	234,142	-0,083	-0,098
-223,913	-59,014	0,137	-0,042
-222,898	-200,000	0,045	0,147
-221,884	-200,000	0,004	0,113
-220,869	800,000	-0,025	0,077
-219,855	-4,330	0,073	0,036
-218,840	-200,000	0,009	0,045
-217,825	800,000	-0,029	-0,084
-216,811	386,412	-0,055	-0,081
-215,796	-50,661	-0,086	-0,029
-214,782	603,712	-0,101	-0,179
-213,767	-200,000	0,001	-0,012
-212,752	12,872	0,103	-0,056
-211,738	-200,000	0,001	0,129
-210,723	292,196	0,090	-0,117
-209,709	-200,000	-0,008	-0,060
-208,694	-106,979	-0,128	0,020
-207,679	-61,617	-0,077	-0,023
-206,665	800,000	-0,061	-0,163
-205,650	72,388	0,071	0,052
-204,636	-56,094	0,102	-0,032
-203,621	-6,774	-0,151	0,073
-202,606	462,668	-0,046	-0,074
-201,592	-200,000	0,003	-0,049
-200,577	167,239	-0,066	-0,066
-199,563	-96,411	0,118	-0,022
-198,548	800,000	0,037	0,085
-197,533	-200,000	-0,009	0,136
-196,519	-200,000	-0,010	-0,066
-195,504	83,339	0,057	0,044
-194,490	-200,000	-0,036	-0,134
-193,475	-200,000	0,002	-0,017
-192,460	376,540	0,037	-0,054
-191,446	-200,000	-0,007	0,077
-190,431	-200,000	-0,001	0,016
-189,417	-49,490	-0,043	-0,014
-188,402	-55,538	-0,156	-0,049
-187,387	800,000	-0,045	-0,097
-186,373	800,000	-0,019	0,040
-185,358	141,553	-0,052	0,049
-184,344	-200,000	-0,022	-0,112
-183,329	212,045	-0,050	-0,055
-182,315	709,339	-0,035	0,065
-181,300	-200,000	-0,005	-0,076
-180,285	-200,000	0,009	-0,065
-179,271	-200,000	0,006	-0,076
-178,256	-65,105	0,129	0,037
-177,242	-154,535	0,054	0,003
-176,227	-200,000	0,009	-0,116
-175,212	800,000	-0,030	0,066
-174,198	180,894	0,061	0,064
-173,183	-191,933	-0,132	0,001
-172,169	800,000	-0,049	0,139
-171,154	44,861	0,088	0,057
-170,139	105,174	0,128	0,107
-169,125	258,848	0,022	-0,027
-168,110	85,260	-0,052	0,041
-167,096	-200,000	-0,012	0,038
-166,081	-72,068	-0,077	0,020
-165,066	776,819	0,026	0,051
-164,052	-81,356	-0,174	0,040
-163,037	-142,865	-0,025	-0,002
-162,023	-134,553	0,043	-0,004
-161,008	-175,148	0,142	0,003
-159,993	-63,008	0,129	0,038
-158,979	256,073	0,063	-0,076
-157,964	84,354	-0,128	0,099
-156,950	58,113	0,092	0,064
-155,935	80,181	0,071	0,054
-154,920	-62,391	0,045	-0,013
-153,906	603,387	0,072	0,128
-152,891	585,171	0,046	0,081
-151,877	121,447	0,146	0,129
-150,862	150,654	-0,110	-0,106
-149,847	173,768	-0,019	0,019
-148,833	137,701	0,063	0,059
-147,818	104,306	0,054	-0,045
-146,804	-68,576	-0,080	-0,022
-145,789	-200,000	-0,006	0,030
-144,775	-110,274	-0,113	-0,016
-143,760	131,749	-0,078	-0,071
-142,745	208,017	-0,047	0,052
-141,731	37,698	-0,058	-0,037
-140,716	-200,000	0,003	0,108
-139,702	31,035	0,117	0,071
-138,687	-200,000	0,012	0,075
-137,672	-200,000	0,035	-0,128
-136,658	354,596	-0,067	-0,095
-135,643	119,123	-0,091	0,080
-134,629	111,107	-0,149	-0,127
-133,614	-200,000	0,061	0,196
-132,599	-24,651	0,051	0,021
-131,585	-111,704	0,174	0,025
-130,570	-66,964	-0,236	0,065
-129,556	-142,928	0,146	-0,010
-128,541	-134,920	-0,102	-0,009
-127,526	-200,000	0,006	-0,157
-126,512	396,050	-0,003	-0,004
-125,497	-156,553	0,093	0,004
-124,483	441,554	0,041	0,064
-123,468	-200,000	0,028	0,091
-122,453	-97,043	0,063	-0,012
-121,439	-6,057	0,031	0,015
-120,424	475,082	0,050	0,081
-119,410	731,731	-0,058	-0,110
-118,395	-179,210	0,156	0,002
-117,380	-200,000	-0,011	-0,059
-116,366	-137,892	0,065	-0,005
-115,351	296,810	-0,106	0,138
-114,337	-137,896	-0,110	0,009
-113,322	-1,437	0,119	0,059
-112,307	26,573	-0,050	-0,030
-111,293	513,238	-0,123	0,204
-110,278	729,659	-0,053	-0,101
-109,264	-2,859	-0,108	0,053
-108,249	-31,212	0,152	-0,060
-107,234	25,149	-0,026	-0,015
-106,220	604,824	-0,080	0,141
-105,205	-200,000	-0,046	-0,189
-104,191	21,646	-0,131	0,075
-103,176	15,837	0,021	0,012
-102,162	239,253	-0,054	-0,064
-101,147	-200,000	0,009	-0,033
-100,132	-44,344	-0,077	0,027
-99,118	800,000	-0,060	-0,131
-98,103	-19,772	0,030	-0,013
-97,089	-200,000	-0,011	-0,048
-96,074	530,530	0,035	-0,058
-95,059	-151,782	-0,094	0,005
-94,045	157,687	0,040	-0,039
-93,030	452,102	-0,024	0,037
-92,016	-104,653	-0,105	-0,017
-91,001	179,766	-0,072	-0,075
-89,986	800,000	-0,064	0,143
-88,972	-200,000	-0,004	0,089
-87,957	13,164	-0,036	-0,020
-86,943	80,537	-0,070	-0,053
-85,928	800,000	-0,038	0,101
-84,913	70,163	0,085	-0,062
-83,899	18,619	-0,115	-0,065
-82,884	-59,330	0,037	-0,011
-81,870	800,000	-0,022	-0,059
-80,855	-200,000	-0,011	-0,044
-79,840	77,506	-0,066	-0,049
-78,826	277,100	-0,146	-0,184
-77,811	-200,000	0,016	-0,169
-76,797	327,038	-0,094	-0,128
-75,782	800,000	-0,020	0,054
-74,767	-200,000	0,019	0,183
-73,753	-200,000	-0,019	-0,159
-72,738	800,000	-0,009	0,026
-71,724	321,334	-0,040	-0,053
-70,709	800,000	-0,047	0,121
-69,694	116,198	-0,050	-0,043
-68,680	-91,242	0,062	0,012
-67,665	666,004	-0,021	-0,039
-66,651	-200,000	-0,005	-0,019
-65,636	800,000	-0,060	0,150
-64,622	-154,990	-0,034	0,002
-63,607	42,660	-0,122	0,078
-62,592	-200,000	0,003	0,099
-61,578	-18,621	0,047	0,021
-60,563	-200,000	-0,015	0,079
-59,549	800,000	0,040	0,093
-58,534	39,210	-1,897	-1,196
-57,519	540,294	-1,215	-2,051
-56,505	-200,000	-0,483	-4,426
-55,490	541,579	0,909	1,535
-54,476	800,000	4,997	11,161
-53,461	-200,000	20,913	329,185
-52,446	800,000	757,403	2322,801
-51,432	550,353	1662,192	2825,716
-50,417	73,550	1663,811	1228,803
-49,403	18,731	1537,138	866,229
-48,388	12,716	1460,253	793,781
-47,373	18,968	1450,851	818,670
-46,359	15,847	1440,136	797,733
-45,344	10,993	1436,152	772,366
-44,330	10,943	1434,060	770,972
-43,315	10,954	1432,042	769,909
-42,300	10,909	1430,426	768,796
-41,286	10,959	1429,123	768,303
-40,271	10,938	1427,923	767,527
-39,257	10,895	1426,798	766,688
-38,242	10,930	1425,585	766,169
-37,227	10,935	1424,545	765,607
-36,213	10,954	1423,158	764,919
-35,198	10,937	1422,242	764,317
-34,184	11,022	1421,138	764,096
-33,169	10,963	1420,022	763,185
-32,154	11,007	1418,815	762,715
-31,140	10,972	1417,744	761,944
-30,125	11,026	1416,534	761,519
-29,111	10,999	1415,544	760,829
-28,096	11,012	1414,073	760,069
-27,082	10,899	1413,238	759,055
-26,067	10,940	1412,188	758,658
-25,052	10,943	1410,905	757,949
-24,038	10,942	1409,989	757,422
-23,023	10,908	1408,982	756,693
-22,009	10,919	1407,906	756,137
-20,994	10,897	1406,895	755,461
-19,979	10,897	1405,980	754,938
-18,965	10,897	1405,277	754,531
-17,950	10,833	1404,467	753,767
-16,936	10,871	1403,522	753,411
-15,921	10,798	1402,359	752,415
-14,906	10,807	1401,593	752,015
-13,892	10,849	1400,392	751,538
-12,877	10,824	1399,529	750,926
-11,863	10,818	1398,915	750,542
-10,848	10,825	1397,918	750,009
-9,833	10,806	1396,930	749,363
-8,819	10,715	1396,182	748,510
-7,804	10,734	1395,375	748,133
-6,790	10,716	1394,288	747,435
-5,775	10,725	1393,359	746,949
-4,760	10,731	1392,379	746,423
-3,746	10,736	1391,429	745,908
-2,731	10,771	1390,449	745,515
-1,717	10,726	1389,716	744,887
-0,702	10,703	1387,885	743,766
0,313	14,769	1301,815	716,267
1,327	31,230	693,137	418,820
2,342	48,484	120,237	79,326
3,356	2,436	16,492	8,394
4,371	8,777	3,412	1,809
5,386	63,868	0,723	0,512
6,400	800,000	0,206	0,501
7,415	-176,414	-0,210	-0,004
8,429	92,997	-0,171	-0,136
9,444	-52,043	-0,331	-0,108
10,459	-1,291	-0,344	-0,170
11,473	33,389	-0,341	-0,208
12,488	111,939	-0,230	-0,196
13,502	-62,020	-0,486	-0,142
14,517	135,635	-0,305	-0,280
15,531	185,807	-0,311	-0,326
16,546	137,128	-0,339	-0,312
17,561	55,582	-0,367	-0,250
18,575	110,611	-0,149	-0,126
19,590	29,030	-0,269	-0,161
20,604	275,669	-0,145	-0,181
21,619	86,370	-0,361	-0,280
22,634	-2,279	-0,517	-0,254
23,648	49,408	-0,474	-0,314
24,663	260,238	-0,245	-0,298
25,677	159,277	-0,374	-0,367
26,692	-136,253	-0,405	0,033
27,707	25,264	-0,218	-0,127
28,721	21,201	-0,417	-0,238
29,736	-67,863	-0,329	-0,090
30,750	176,223	-0,295	-0,301
31,765	42,608	-0,388	-0,248
32,780	143,437	-0,458	-0,429
33,794	120,760	-0,300	-0,262
34,809	16,588	-0,253	-0,140
35,823	-19,140	-0,379	-0,165
36,838	12,505	-0,392	-0,212
37,853	258,702	-0,218	-0,265
38,867	9,564	-0,420	-0,223
39,882	6,953	-0,301	-0,157
40,896	69,662	-0,330	-0,239
41,911	29,049	-0,424	-0,252
42,926	121,953	-0,362	-0,317
43,940	56,282	-0,315	-0,215
44,955	117,649	-0,404	-0,349
45,969	138,350	-0,304	-0,280
46,984	-4,078	-0,257	-0,125
47,999	29,834	-0,359	-0,215
49,013	-20,448	-0,356	-0,153
50,028	-15,489	-0,381	-0,170
51,042	127,751	-0,315	-0,282
52,057	434,088	-0,301	-0,460
53,071	5,917	-0,471	-0,244
54,086	33,658	-0,367	-0,223
55,101	138,861	-0,392	-0,362
56,115	132,084	-0,228	-0,206
57,130	9,183	-0,442	-0,234
58,144	162,164	-0,437	-0,430
59,159	38,040	-0,383	-0,239
60,174	61,385	-0,346	-0,241
61,188	-95,487	-0,351	-0,066
62,203	43,738	-0,350	-0,224
63,217	-56,803	-0,377	-0,116
64,232	-7,252	-0,320	-0,152
65,247	63,705	-0,439	-0,309
66,261	14,580	-0,319	-0,174
67,276	173,247	-0,353	-0,357
68,290	-32,978	-0,328	-0,127
69,305	13,704	-0,456	-0,248
70,320	-82,435	-0,303	-0,069
71,334	9,280	-0,350	-0,185
72,349	66,999	-0,351	-0,250
73,363	117,218	-0,250	-0,216
74,378	113,836	-0,283	-0,241
75,393	68,195	-0,296	-0,212
76,407	67,298	-0,323	-0,231
77,422	199,031	-0,107	-0,115
78,436	32,348	-0,303	-0,183
79,451	145,252	-0,288	-0,270
80,466	39,517	-0,343	-0,215
81,480	30,244	-0,387	-0,231
82,495	-34,272	-0,425	-0,163
83,509	-45,344	-0,265	-0,092
84,524	-7,527	-0,190	-0,089
85,539	-37,098	-0,253	-0,094
86,553	-30,754	-0,377	-0,149
87,568	-14,372	-0,385	-0,173
88,582	21,855	-0,267	-0,152
89,597	-21,074	-0,381	-0,163
90,611	54,663	-0,234	-0,158
91,626	57,458	-0,287	-0,196
92,641	69,579	-0,335	-0,241
93,655	407,970	-0,183	-0,272
94,670	-64,252	-0,420	-0,119
95,684	-77,842	-0,393	-0,094
96,699	338,068	-0,199	-0,271
97,714	226,748	-0,239	-0,272
98,728	110,954	-0,307	-0,258
99,743	198,908	-0,197	-0,212
100,757	-78,843	-0,365	-0,086
101,772	35,984	-0,252	-0,155
102,787	102,049	-0,319	-0,260
103,801	216,528	-0,166	-0,184
104,816	378,097	-0,177	-0,254
105,830	-79,090	-0,251	-0,059
106,845	341,572	-0,170	-0,233
107,860	4,371	-0,291	-0,148
108,874	53,745	-0,379	-0,254
109,889	144,515	-0,316	-0,296
110,903	10,012	-0,405	-0,215
111,918	317,302	-0,209	-0,277
112,933	260,569	-0,147	-0,178
113,947	118,465	-0,229	-0,197
114,962	-27,711	-0,246	-0,099
115,976	84,037	-0,211	-0,161
116,991	296,365	-0,191	-0,245
118,006	-8,545	-0,303	-0,142
119,020	113,986	-0,261	-0,221
120,035	91,857	-0,133	-0,104
121,049	-142,272	-0,300	-0,020
122,064	-49,505	-0,413	-0,136
123,079	247,124	-0,198	-0,234
124,093	163,724	-0,179	-0,176
125,108	148,304	-0,220	-0,207
126,122	211,902	-0,116	-0,128
127,137	146,289	-0,145	-0,136
128,151	17,447	-0,243	-0,134
129,166	71,254	-0,271	-0,196
130,181	-97,616	-0,201	0,036
131,195	39,329	-0,385	-0,240
132,210	292,221	-0,229	-0,292
133,224	146,439	-0,241	-0,226
134,239	92,237	-0,351	-0,275
135,254	23,946	-0,200	-0,115
136,268	-113,218	-0,159	-0,022
137,283	121,426	-0,235	-0,204
138,297	-52,333	-0,428	-0,137
139,312	17,802	-0,263	-0,146
140,327	-58,365	-0,328	-0,099
141,341	-81,422	-0,228	-0,052
142,356	52,668	-0,233	-0,155
143,370	-8,979	-0,216	-0,100
144,385	-107,620	-0,427	-0,064
145,400	46,361	-0,370	-0,238
146,414	270,327	-0,166	-0,204
147,429	-70,831	-0,243	-0,063
148,443	66,124	-0,250	-0,176
149,458	-70,398	-0,275	-0,072
150,473	-134,081	-0,208	-0,018
151,487	-40,817	-0,223	-0,080
152,502	67,813	-0,287	-0,204
153,516	-42,713	-0,360	-0,127
154,531	267,100	-0,258	-0,315
155,546	318,712	-0,204	-0,269
156,560	-133,178	-0,256	-0,022
157,575	-88,697	-0,379	-0,078
158,589	163,971	-0,183	-0,179
159,604	32,679	-0,282	-0,169
160,619	-48,231	-0,308	-0,103
161,633	-116,173	-0,178	-0,023
162,648	98,566	-0,195	-0,157
163,662	-144,671	-0,119	-0,008
164,677	13,072	-0,170	-0,091
165,692	-33,996	-0,222	-0,084
166,706	163,987	-0,199	-0,195
167,721	-24,042	-0,284	-0,117
168,735	118,091	-0,194	-0,166
169,750	-85,103	-0,188	-0,041
170,764	-200,000	-0,044	-0,272
171,779	6,555	-0,212	-0,109
172,794	-55,806	-0,221	-0,068
173,808	15,636	-0,363	-0,198
174,823	-160,029	-0,441	-0,016
175,837	181,549	-0,243	-0,248
176,852	162,477	-0,270	-0,263
177,867	57,355	-0,221	-0,150
178,881	-116,192	-0,187	0,024
179,896	20,981	-0,259	-0,145
180,910	-51,459	-0,333	-0,108
181,925	288,663	-0,176	-0,222
182,940	152,401	-0,188	-0,178
183,954	42,282	-0,142	-0,090
184,969	800,000	-0,087	-0,223
185,983	68,244	-0,095	-0,068
186,998	-6,596	-0,296	-0,140
188,013	90,088	-0,211	-0,164
189,027	244,101	-0,135	-0,158
190,042	98,339	-0,167	-0,134
191,056	33,641	-0,316	-0,190
192,071	212,753	-0,179	-0,196
193,086	800,000	-0,128	-0,254
194,100	-61,412	-0,220	-0,064
195,115	-15,700	-0,217	-0,095
196,129	-109,599	-0,149	0,022
197,144	231,393	-0,148	-0,169
198,159	-40,527	-0,254	-0,091
199,173	-115,743	-0,236	-0,030
200,188	294,483	-0,117	-0,149
201,202	800,000	-0,040	-0,096
202,217	-44,360	-0,153	-0,053
203,232	-9,130	-0,221	-0,102
204,246	45,223	-0,282	-0,180
205,261	91,288	-0,177	-0,138
206,275	-91,253	-0,093	0,018
207,290	104,691	-0,119	-0,097
208,304	-117,783	-0,217	-0,027
209,319	77,454	-0,222	-0,163
210,334	28,219	-0,215	-0,126
211,348	15,605	-0,270	-0,147
212,363	297,959	-0,168	-0,214
213,377	53,177	-0,249	-0,165
214,392	-60,140	-0,270	-0,079
215,407	800,000	-0,073	-0,167
216,421	25,059	-0,190	-0,109
217,436	30,063	-0,344	-0,203
218,450	194,322	-0,112	-0,117
219,465	244,890	-0,155	-0,180
220,480	103,057	-0,198	-0,160
221,494	-6,090	-0,124	-0,058
222,509	-19,794	-0,166	-0,070
223,523	280,238	-0,208	-0,258
224,538	177,852	-0,126	-0,128
225,553	41,621	-0,245	-0,153
226,567	348,876	-0,155	-0,212
227,582	156,535	-0,229	-0,219
228,596	800,000	-0,146	-0,317
229,611	-57,962	-0,137	-0,041
230,626	163,918	-0,185	-0,180
231,640	111,944	-0,255	-0,213
232,655	357,100	-0,105	-0,145
233,669	9,520	-0,257	-0,134
234,684	-84,467	-0,250	0,054
235,699	-67,009	-0,393	-0,107
236,713	93,671	-0,148	-0,116
237,728	-176,582	-0,098	-0,002
238,742	-99,626	-0,296	-0,051
239,757	-42,043	-0,273	-0,096
240,772	-122,270	-0,229	-0,026
241,786	800,000	-0,098	-0,243
242,801	121,856	-0,084	-0,072
243,815	269,937	-0,141	-0,171
244,830	-192,704	-0,302	0,002
245,844	-104,671	-0,244	0,038
246,859	-47,133	-0,208	-0,070
247,874	-200,000	-0,032	-0,193
248,888	224,019	-0,168	-0,187
249,903	92,835	-0,197	-0,153
250,917	134,468	-0,079	-0,071
251,932	445,593	-0,138	-0,209
252,947	507,776	-0,167	-0,269
253,961	800,000	-0,100	-0,209
254,976	139,796	-0,144	-0,131
255,990	750,944	-0,071	-0,133
257,005	-66,509	-0,266	-0,072
258,020	278,051	-0,163	-0,201
259,034	800,000	-0,070	-0,155
260,049	800,000	-0,092	-0,235
261,063	324,664	-0,158	-0,209
262,078	188,642	-0,135	-0,139
263,093	800,000	-0,119	-0,230
264,107	132,949	-0,175	-0,155
265,122	163,631	-0,118	-0,114
266,136	37,708	-0,251	-0,154
267,151	610,389	-0,078	-0,135
268,166	167,030	-0,146	-0,143
269,180	36,933	-0,216	-0,131
270,195	48,874	-0,234	-0,151
271,209	-6,895	-0,287	-0,134
272,224	79,289	-0,098	-0,073
273,239	341,241	-0,178	-0,240
274,253	800,000	-0,113	-0,235
275,268	-200,000	-0,038	-0,197
276,282	41,592	-0,245	-0,153
277,297	800,000	-0,131	-0,323
278,312	92,530	-0,120	-0,093
279,326	451,326	-0,127	-0,194
280,341	-54,262	-0,128	-0,040
281,355	154,466	-0,190	-0,179
282,370	-60,748	-0,113	-0,033
283,384	157,043	-0,167	-0,159
284,399	-132,517	-0,092	-0,008
285,414	27,295	-0,244	-0,141
286,428	800,000	-0,079	-0,158
287,443	-200,000	-0,021	-0,131
288,457	585,878	-0,026	-0,044
289,472	30,295	-0,178	-0,105
290,487	122,776	-0,083	-0,072
291,501	-47,460	-0,247	-0,082
292,516	-69,869	-0,167	-0,044
293,530	-200,000	0,019	-0,110
294,545	-52,247	-0,087	-0,028
295,560	-88,182	-0,221	0,045
296,574	169,716	-0,179	-0,176
297,589	69,314	-0,169	-0,119
298,603	800,000	-0,060	-0,145
299,618	-49,382	-0,046	-0,015
300,633	-75,292	-0,124	0,030
301,647	144,233	-0,085	-0,078
302,662	17,229	-0,148	-0,080
303,676	-74,975	-0,173	-0,042
304,691	-143,570	-0,144	-0,009
305,706	350,495	-0,221	-0,301
306,720	82,460	-0,252	-0,188
307,735	-53,666	-0,180	-0,056
308,749	800,000	-0,043	-0,108
309,764	-122,125	-0,150	-0,017
310,779	-200,000	-0,007	-0,120
311,793	-77,529	-0,268	-0,063
312,808	-9,791	-0,089	0,040
313,822	31,789	-0,193	-0,114
314,837	-17,330	-0,192	0,083
315,852	259,044	-0,101	-0,120
316,866	583,902	-0,125	-0,211
317,881	295,482	-0,097	-0,122
318,895	-43,556	-0,189	-0,065
319,910	-39,736	-0,095	0,034
320,925	63,487	-0,182	-0,125
321,939	-169,974	-0,157	-0,004
322,954	77,455	-0,077	-0,056
323,968	-30,564	-0,249	-0,096
324,983	-180,612	-0,155	-0,002
325,997	800,000	-0,084	-0,208
327,012	119,570	-0,181	-0,154
328,027	-117,848	-0,246	-0,030
329,041	-84,486	-0,167	-0,036
330,056	800,000	-0,051	-0,145
331,070	10,795	-0,161	-0,084
332,085	-61,836	-0,158	0,045
333,100	-125,668	-0,250	0,026
334,114	-91,759	-0,214	-0,041
335,129	343,547	-0,123	-0,166
336,143	145,065	-0,108	-0,099
337,158	135,639	-0,073	-0,066
338,173	129,647	0,072	-0,063
339,187	-109,138	-0,071	0,010
340,202	-200,000	-0,017	-0,116
341,216	-32,828	-0,151	0,057
342,231	250,303	-0,136	-0,158
343,246	199,242	-0,102	-0,107
344,260	-200,000	-0,015	-0,129
345,275	-52,888	-0,148	-0,046
346,289	-58,975	-0,112	-0,033
347,304	-200,000	-0,002	-0,078
348,319	-21,083	-0,188	-0,078
349,333	87,773	-0,153	-0,116
350,348	71,252	-0,184	-0,130
351,362	24,633	-0,087	-0,049
352,377	235,649	-0,077	-0,088
353,392	-200,000	-0,003	-0,185
354,406	112,013	-0,226	-0,187
355,421	207,172	1311,326	1400,527
356,435	159,356	1471,625	1401,004
