DTS Sentinel unit serial number:	SN410029Multiplexer serial number:	ORYXHardware model number:	OX2-SRSoftware version number:	ORYX F/W v4,00 Oryx Data Collector v3.7.2.0data status	okinstallation	B3 Nyhavnadifferential loss correction	single-endedforward channel	channel 1reverse channel	N/Adate	2023/12/04time	12:27:30forward acquisition time	300,00reverse acquisition time	0,00gamma	499,1914k internal	0,3202k external	0,3202temperature offset calibration	1,0000default loss term (dB/km)	0,3820temperature slope calibration	1,0000multiplexer offset coefficient	1,0000multiplexer slope coefficient	1,0000fibre end	0,00T internal ref (°C)	14,47T ext. ref 1 (°C)	0,14T ext. ref 2 (°C)	0,11length (m)	temperature (°C)	Stokes	anti-Stokes-744,400	278,521	-0,203	-0,263
-743,385	800,000	0,112	0,254
-742,371	-200,000	-0,018	-0,249
-741,356	800,000	0,109	0,231
-740,342	260,751	-0,224	-0,282
-739,327	800,000	-0,097	0,299
-738,312	800,000	-0,101	-0,278
-737,298	-200,000	-0,022	0,217
-736,283	260,570	-0,241	-0,303
-735,269	-200,000	0,059	0,408
-734,254	305,059	-0,179	-0,242
-733,239	-76,160	-0,285	0,072
-732,225	52,228	-0,206	-0,143
-731,210	800,000	0,085	0,225
-730,196	100,202	0,077	-0,065
-729,181	-20,655	-0,028	0,012
-728,167	-130,500	-0,091	-0,009
-727,152	-200,000	0,034	-0,145
-726,137	-162,090	-0,188	0,007
-725,123	-152,533	-0,064	0,003
-724,108	-200,000	-0,003	0,031
-723,094	-200,000	-0,001	0,010
-722,079	385,810	-0,097	-0,146
-721,064	800,000	-0,028	0,088
-720,050	679,509	-0,075	0,141
-719,035	378,505	-0,028	0,042
-718,021	204,589	-0,083	-0,094
-717,006	-4,095	-0,107	-0,054
-715,991	51,384	-0,126	-0,087
-714,977	264,479	-0,052	-0,066
-713,962	800,000	-0,019	-0,059
-712,948	-35,703	-0,126	0,049
-711,933	85,583	0,004	0,003
-710,918	462,590	-0,012	-0,019
-709,904	-102,183	0,027	-0,005
-708,889	-163,539	-0,164	0,006
-707,875	96,458	-0,136	-0,113
-706,860	138,950	-0,102	-0,097
-705,845	170,310	-0,067	-0,070
-704,831	-16,170	-0,172	0,079
-703,816	295,990	0,022	0,030
-702,802	-99,614	-0,062	-0,011
-701,787	-200,000	-0,010	-0,178
-700,772	-200,000	-0,012	-0,066
-699,758	-200,000	-0,013	0,055
-698,743	-28,225	0,057	-0,024
-697,729	55,024	0,040	0,028
-696,714	800,000	-0,030	-0,064
-695,699	72,198	0,006	0,005
-694,685	-200,000	-0,022	-0,074
-693,670	588,631	-0,063	-0,113
-692,656	105,354	-0,122	0,104
-691,641	132,610	-0,083	-0,078
-690,627	748,351	0,055	-0,107
-689,612	87,758	-0,088	0,071
-688,597	-9,240	0,015	-0,007
-687,583	800,000	-0,061	-0,184
-686,568	-200,000	-0,003	-0,125
-685,554	294,720	-0,028	-0,037
-684,539	-200,000	0,030	0,101
-683,524	254,400	-0,062	0,077
-682,510	800,000	-0,054	0,130
-681,495	-200,000	0,020	-0,128
-680,481	20,063	-0,183	-0,107
-679,466	233,990	0,052	-0,062
-678,451	-34,032	0,104	0,041
-677,437	25,780	-0,019	0,012
-676,422	-200,000	0,108	0,000
-675,408	-200,000	0,015	0,097
-674,393	-200,000	0,050	0,164
-673,378	-96,614	-0,104	-0,020
-672,364	800,000	0,044	-0,125
-671,349	16,825	-0,035	-0,020
-670,335	31,474	-0,036	-0,022
-669,320	65,887	0,049	0,036
-668,305	-200,000	0,008	0,126
-667,291	23,742	-0,047	0,028
-666,276	-28,517	-0,064	0,027
-665,262	103,805	-0,127	-0,108
-664,247	465,155	0,046	-0,074
-663,232	238,462	0,041	0,049
-662,218	759,997	0,059	0,116
-661,203	481,899	0,049	0,080
-660,189	78,693	0,018	-0,014
-659,174	286,794	-0,097	-0,127
-658,159	-31,296	0,062	-0,025
-657,145	-90,962	0,071	-0,015
-656,130	722,317	0,060	-0,116
-655,116	-98,947	-0,050	-0,009
-654,101	-89,658	0,067	-0,014
-653,086	-156,267	-0,182	0,008
-652,072	677,464	0,036	0,069
-651,057	-200,000	-0,045	-0,204
-650,043	-200,000	0,002	-0,011
-649,028	-200,000	0,026	-0,093
-648,014	-200,000	-0,005	0,119
-646,999	-83,198	0,057	-0,013
-645,984	-200,000	0,004	-0,062
-644,970	79,248	-0,036	-0,028
-643,955	75,291	-0,118	-0,090
-642,941	246,651	0,051	-0,062
-641,926	-79,748	-0,034	0,008
-640,911	-200,000	0,022	-0,085
-639,897	-79,021	0,099	-0,024
-638,882	135,662	0,101	0,095
-637,868	-88,762	0,118	0,025
-636,853	236,676	0,078	0,093
-635,838	-57,043	-0,025	0,008
-634,824	66,550	-0,099	0,072
-633,809	-139,403	0,027	-0,002
-632,795	-31,215	0,096	0,039
-631,780	-100,712	-0,059	0,010
-630,765	-200,000	0,016	-0,185
-629,751	-200,000	-0,032	-0,178
-628,736	48,160	-0,143	-0,096
-627,722	341,372	-0,052	0,074
-626,707	381,184	0,062	-0,093
-625,692	103,525	-0,098	-0,083
-624,678	-200,000	0,006	-0,032
-623,663	-93,793	-0,097	0,019
-622,649	-194,035	-0,024	0,000
-621,634	-158,237	0,011	0,000
-620,619	-66,753	0,074	-0,021
-619,605	-200,000	0,033	0,171
-618,590	223,668	0,041	-0,047
-617,576	89,155	0,057	-0,046
-616,561	93,147	-0,052	0,043
-615,546	-82,708	0,115	0,027
-614,532	222,655	-0,099	-0,115
-613,517	-31,504	-0,048	0,019
-612,503	-200,000	0,012	-0,114
-611,488	33,783	0,099	-0,062
-610,474	545,840	-0,055	0,096
-609,459	-200,000	0,012	-0,076
-608,444	222,920	0,057	0,067
-607,430	11,389	-0,038	-0,021
-606,415	-9,153	0,019	0,009
-605,401	-13,906	-0,074	-0,034
-604,386	97,940	-0,049	-0,041
-603,371	-48,158	0,011	0,004
-602,357	-168,938	-0,172	0,005
-601,342	800,000	0,072	-0,156
-600,328	-56,851	-0,104	-0,033
-599,313	-200,000	-0,000	-0,164
-598,298	66,985	0,078	0,058
-597,284	-34,595	-0,108	-0,042
-596,269	-156,834	0,160	-0,007
-595,255	275,424	-0,008	-0,011
-594,240	354,386	-0,173	-0,249
-593,225	-54,884	-0,044	-0,014
-592,211	151,624	0,060	-0,060
-591,196	-200,000	0,007	0,057
-590,182	199,155	-0,066	-0,073
-589,167	-200,000	0,005	0,069
-588,152	-111,397	-0,021	-0,003
-587,138	-1,144	0,137	0,070
-586,123	-47,681	0,048	-0,017
-585,109	110,167	-0,032	-0,028
-584,094	800,000	0,025	-0,078
-583,079	416,475	-0,067	-0,103
-582,065	-154,330	0,139	0,007
-581,050	-200,000	0,017	0,100
-580,036	460,596	-0,055	-0,088
-579,021	-5,944	-0,060	0,029
-578,006	16,077	-0,099	0,056
-576,992	-200,000	-0,013	-0,043
-575,977	-118,120	0,043	-0,005
-574,963	-200,000	-0,012	0,107
-573,948	-2,602	0,107	0,054
-572,934	482,982	-0,027	0,044
-571,919	68,670	0,025	-0,019
-570,904	-200,000	0,041	-0,171
-569,890	-74,880	0,068	-0,017
-568,875	800,000	0,036	-0,111
-567,861	78,211	0,104	-0,080
-566,846	800,000	-0,058	0,182
-565,831	-46,603	-0,079	0,028
-564,817	-200,000	-0,017	-0,155
-563,802	192,318	-0,074	-0,080
-562,788	451,545	0,043	-0,069
-561,773	-200,000	-0,008	-0,097
-560,758	-200,000	0,024	0,186
-559,744	248,422	-0,074	0,091
-558,729	119,362	0,152	0,136
-557,715	126,146	-0,029	0,027
-556,700	573,618	-0,071	-0,126
-555,685	800,000	-0,039	-0,084
-554,671	-93,188	0,086	0,017
-553,656	702,866	0,029	-0,056
-552,642	8,186	0,158	0,085
-551,627	267,201	-0,033	0,042
-550,612	22,944	0,022	0,013
-549,598	-149,970	-0,068	-0,004
-548,583	274,099	0,014	-0,018
-547,569	-159,779	0,148	0,006
-546,554	800,000	0,040	-0,091
-545,539	64,289	-0,113	-0,082
-544,525	-32,110	0,067	-0,027
-543,510	800,000	0,029	-0,080
-542,496	31,979	-0,079	-0,049
-541,481	162,739	-0,060	0,060
-540,466	598,169	0,073	0,130
-539,452	21,385	-0,029	-0,017
-538,437	200,851	0,041	-0,046
-537,423	86,420	0,033	0,026
-536,408	-200,000	-0,006	0,040
-535,393	321,271	-0,042	0,058
-534,379	800,000	-0,018	0,041
-533,364	-22,166	-0,078	-0,034
-532,350	800,000	0,017	-0,035
-531,335	-66,508	-0,043	0,012
-530,321	-200,000	0,001	0,060
-529,306	30,372	0,063	0,039
-528,291	35,574	-0,079	-0,050
-527,277	170,009	0,091	-0,094
-526,262	146,112	0,108	-0,105
-525,248	800,000	0,031	-0,089
-524,233	-71,892	0,076	0,020
-523,218	-47,452	-0,095	-0,033
-522,204	-69,854	0,064	-0,018
-521,189	247,845	-0,086	0,105
-520,175	-200,000	-0,089	-0,000
-519,160	-181,913	0,083	0,001
-518,145	5,580	-0,156	-0,083
-517,131	109,019	0,132	-0,114
-516,116	-200,000	0,004	0,068
-515,102	-200,000	0,006	-0,021
-514,087	-200,000	-0,009	-0,054
-513,072	423,651	-0,042	-0,066
-512,058	800,000	-0,015	-0,035
-511,043	-111,690	-0,095	-0,014
-510,029	120,868	-0,091	0,081
-509,014	263,435	-0,083	-0,104
-507,999	800,000	0,046	-0,141
-506,985	755,283	-0,054	-0,105
-505,970	315,232	-0,085	-0,116
-504,956	-200,000	-0,002	0,008
-503,941	-200,000	-0,007	0,033
-502,926	-46,409	0,027	0,010
-501,912	-11,330	-0,129	-0,061
-500,897	152,462	0,063	-0,062
-499,883	800,000	0,036	-0,096
-498,868	100,984	-0,008	0,007
-497,853	24,400	0,041	-0,024
-496,839	800,000	0,026	0,069
-495,824	800,000	0,025	-0,070
-494,810	-12,037	0,080	0,037
-493,795	-200,000	-0,000	-0,047
-492,781	-200,000	0,042	0,146
-491,766	8,355	0,008	0,004
-490,751	-38,892	-0,065	0,025
-489,737	-56,604	-0,095	-0,030
-488,722	130,056	0,031	0,029
-487,708	-18,784	-0,067	0,030
-486,693	800,000	-0,028	0,062
-485,678	241,753	-0,056	0,068
-484,664	-200,000	0,014	-0,184
-483,649	-0,762	-0,114	0,058
-482,635	10,651	0,061	-0,033
-481,620	-173,153	0,139	-0,003
-480,605	33,981	0,050	0,031
-479,591	127,215	-0,050	-0,045
-478,576	386,131	-0,029	0,043
-477,562	-200,000	0,001	-0,073
-476,547	271,465	-0,044	-0,056
-475,532	-200,000	-0,019	0,126
-474,518	20,346	-0,067	0,039
-473,503	121,154	-0,101	0,090
-472,489	24,235	0,052	0,031
-471,474	800,000	-0,013	0,035
-470,459	800,000	-0,028	0,076
-469,445	-200,000	-0,029	0,094
-468,430	-95,634	0,050	-0,010
-467,416	800,000	-0,009	-0,023
-466,401	-47,750	-0,089	0,031
-465,386	-200,000	-0,016	0,110
-464,372	-33,566	0,093	0,037
-463,357	-149,516	-0,073	-0,004
-462,343	-9,414	0,106	-0,051
-461,328	-32,236	-0,109	-0,043
-460,313	-42,535	0,087	-0,032
-459,299	-23,603	0,163	-0,070
-458,284	-200,000	0,000	0,123
-457,270	-200,000	0,018	0,118
-456,255	58,810	-0,058	0,041
-455,241	270,343	-0,088	-0,112
-454,226	-200,000	0,000	-0,034
-453,211	-1,281	-0,024	0,012
-452,197	-82,015	0,155	0,036
-451,182	267,948	0,076	0,096
-450,168	-200,000	-0,024	0,092
-449,153	800,000	-0,044	-0,113
-448,138	-78,085	-0,095	0,023
-447,124	159,914	-0,063	-0,063
-446,109	-27,808	0,105	-0,043
-445,095	107,694	0,014	0,012
-444,080	800,000	-0,021	-0,042
-443,065	-38,453	0,081	-0,031
-442,051	31,475	0,031	0,019
-441,036	-88,465	-0,149	-0,032
-440,022	-200,000	-0,008	0,156
-439,007	329,168	0,062	-0,086
-437,992	-37,928	0,051	0,019
-436,978	-200,000	-0,026	0,121
-435,963	-200,000	-0,023	0,076
-434,949	-200,000	0,001	0,159
-433,934	-46,219	0,155	0,054
-432,919	-167,386	-0,085	0,002
-431,905	-153,700	-0,104	-0,005
-430,890	-92,465	0,087	0,017
-429,876	762,095	0,050	0,098
-428,861	-200,000	0,012	-0,040
-427,846	-200,000	-0,007	-0,046
-426,832	-165,224	-0,128	-0,004
-425,817	292,874	-0,035	0,045
-424,803	486,057	0,048	0,078
-423,788	-61,168	-0,011	0,003
-422,773	-200,000	0,007	0,031
-421,759	370,068	-0,097	0,142
-420,744	-200,000	-0,032	0,141
-419,730	606,699	-0,124	-0,222
-418,715	70,412	-0,055	-0,040
-417,701	-166,911	-0,063	-0,002
-416,686	529,863	0,087	-0,148
-415,671	779,041	0,036	-0,070
-414,657	-9,329	0,164	0,079
-413,642	-200,000	-0,002	-0,120
-412,628	-200,000	0,004	0,052
-411,613	800,000	0,024	-0,073
-410,598	286,923	0,091	-0,118
-409,584	-171,049	-0,078	0,002
-408,569	800,000	-0,031	0,062
-407,555	15,283	0,056	-0,031
-406,540	275,037	-0,072	0,092
-405,525	207,851	-0,059	0,066
-404,511	800,000	0,044	-0,117
-403,496	800,000	0,036	-0,087
-402,482	589,711	0,013	0,023
-401,467	216,886	0,046	0,053
-400,452	622,628	0,034	0,063
-399,438	-163,178	-0,100	0,003
-398,423	-200,000	0,025	-0,084
-397,409	110,188	-0,113	-0,097
-396,394	-2,952	0,060	0,030
-395,379	242,277	0,057	-0,069
-394,365	109,429	-0,053	-0,045
-393,350	400,498	-0,032	-0,049
-392,336	-200,000	0,031	-0,179
-391,321	800,000	-0,058	0,120
-390,306	64,894	-0,019	0,013
-389,292	800,000	0,036	0,084
-388,277	-200,000	0,048	-0,239
-387,263	-121,225	0,165	-0,020
-386,248	-200,000	-0,017	-0,117
-385,233	389,103	0,028	0,041
-384,219	401,117	-0,012	0,018
-383,204	85,042	0,103	0,081
-382,190	257,155	0,101	0,125
-381,175	-200,000	0,004	-0,085
-380,160	-200,000	-0,029	0,120
-379,146	238,428	-0,066	-0,079
-378,131	-200,000	-0,057	0,212
-377,117	190,187	-0,053	0,058
-376,102	80,132	-0,070	-0,054
-375,088	-200,000	-0,014	0,058
-374,073	-69,290	-0,117	0,032
-373,058	0,638	0,057	0,029
-372,044	-200,000	0,038	0,196
-371,029	140,559	0,106	0,101
-370,015	-75,017	-0,137	-0,035
-369,000	800,000	-0,051	-0,134
-367,985	-200,000	0,018	-0,103
-366,971	-200,000	-0,023	-0,102
-365,956	35,671	-0,037	0,023
-364,942	-200,000	-0,006	-0,108
-363,927	-85,166	0,097	0,022
-362,912	-200,000	-0,044	-0,168
-361,898	-38,698	0,042	0,016
-360,883	-200,000	-0,004	-0,114
-359,869	-125,683	0,041	0,004
-358,854	8,555	0,077	0,041
-357,839	800,000	0,132	0,285
-356,825	-200,000	-0,029	0,113
-355,810	-47,341	-0,065	0,022
-354,796	-111,225	0,030	-0,004
-353,781	384,966	0,020	-0,029
-352,766	275,404	-0,040	-0,050
-351,752	56,940	0,145	0,101
-350,737	60,408	0,136	0,096
-349,723	-200,000	0,030	0,182
-348,708	645,090	-0,056	0,103
-347,693	195,273	0,032	-0,035
-346,679	535,445	0,019	0,032
-345,664	-3,145	-0,052	0,026
-344,650	761,141	0,023	0,045
-343,635	-169,357	0,012	-0,000
-342,620	683,040	0,027	0,051
-341,606	17,540	0,050	-0,028
-340,591	-5,932	0,101	-0,049
-339,577	654,056	-0,102	-0,187
-338,562	-200,000	-0,018	0,172
-337,548	-44,926	0,158	-0,056
-336,533	-200,000	-0,014	-0,061
-335,518	334,730	-0,064	-0,089
-334,504	-73,459	-0,054	-0,014
-333,489	150,629	0,024	0,023
-332,475	207,368	-0,130	-0,145
-331,460	-108,734	-0,078	0,012
-330,445	144,307	-0,048	0,045
-329,431	-51,520	0,023	0,008
-328,416	21,182	-0,067	0,039
-327,402	800,000	0,065	0,189
-326,387	-200,000	0,151	0,000
-325,372	800,000	-0,022	0,065
-324,358	79,076	-0,100	-0,077
-323,343	162,394	-0,072	0,072
-322,329	800,000	-0,042	0,088
-321,314	-200,000	0,010	0,122
-320,299	-58,936	0,082	0,025
-319,285	-200,000	-0,004	-0,023
-318,270	800,000	-0,028	-0,071
-317,256	92,362	0,035	-0,028
-316,241	-200,000	0,021	-0,074
-315,226	291,608	0,023	-0,030
-314,212	722,119	0,006	0,011
-313,197	39,212	0,092	-0,059
-312,183	800,000	0,042	-0,116
-311,168	352,625	-0,034	0,049
-310,153	-200,000	-0,004	-0,080
-309,139	-8,672	-0,115	-0,055
-308,124	-90,426	-0,026	-0,005
-307,110	-28,830	0,152	0,062
-306,095	201,773	0,033	0,036
-305,080	151,834	-0,114	0,111
-304,066	-200,000	0,003	0,121
-303,051	-116,129	0,133	0,017
-302,037	158,582	0,034	-0,034
-301,022	-200,000	0,100	0,000
-300,008	-200,000	-0,023	0,108
-298,993	216,971	0,168	0,192
-297,978	-1,856	0,025	-0,012
-296,964	199,285	-0,087	-0,096
-295,949	-54,993	-0,199	-0,064
-294,935	419,549	0,116	0,178
-293,920	85,458	-0,106	-0,083
-292,905	-112,402	-0,018	-0,003
-291,891	3,339	-0,066	0,034
-290,876	65,909	0,133	0,096
-289,862	-147,495	0,025	-0,001
-288,847	-19,269	-0,143	-0,063
-287,832	-98,264	-0,079	0,014
-286,818	611,748	-0,016	0,028
-285,803	486,353	-0,033	0,054
-284,789	276,893	0,028	-0,036
-283,774	35,433	0,070	-0,043
-282,759	-200,000	0,024	-0,156
-281,745	800,000	-0,022	-0,062
-280,730	800,000	-0,014	0,033
-279,716	-9,863	0,090	0,043
-278,701	-36,024	-0,101	-0,039
-277,686	-200,000	0,026	0,114
-276,672	-200,000	0,016	0,092
-275,657	128,759	-0,038	0,035
-274,643	80,876	0,075	0,058
-273,628	-200,000	0,008	-0,061
-272,613	800,000	0,056	-0,156
-271,599	47,259	-0,010	-0,007
-270,584	-200,000	-0,005	-0,017
-269,570	-0,195	0,203	0,103
-268,555	47,184	0,052	0,035
-267,540	-101,608	-0,112	0,019
-266,526	35,877	-0,125	0,078
-265,511	-200,000	0,002	-0,104
-264,497	503,839	0,048	0,079
-263,482	800,000	-0,066	0,155
-262,467	-200,000	-0,004	-0,071
-261,453	419,698	0,028	0,042
-260,438	-9,327	0,038	-0,018
-259,424	353,686	-0,062	-0,088
-258,409	-108,202	-0,151	0,023
-257,395	58,548	-0,073	0,051
-256,380	99,858	0,065	-0,054
-255,365	289,294	0,006	0,008
-254,351	-96,059	0,075	-0,014
-253,336	-63,700	0,055	0,016
-252,322	230,483	0,038	-0,045
-251,307	7,516	-0,030	0,016
-250,292	-199,826	-0,067	0,000
-249,278	461,981	0,028	0,044
-248,263	401,929	-0,059	0,089
-247,249	800,000	0,035	0,106
-246,234	800,000	-0,024	-0,072
-245,219	-101,426	0,058	-0,010
-244,205	260,945	-0,051	-0,063
-243,190	-107,337	0,101	0,016
-242,176	-108,917	0,012	0,002
-241,161	-78,717	0,020	-0,005
-240,146	800,000	-0,044	-0,098
-239,132	179,721	0,008	0,008
-238,117	-47,990	-0,056	0,019
-237,103	-200,000	-0,013	-0,041
-236,088	-200,000	-0,038	-0,156
-235,073	-200,000	0,007	0,049
-234,059	343,139	0,059	-0,082
-233,044	228,696	-0,108	0,125
-232,030	-155,740	0,051	0,002
-231,015	-200,000	-0,154	-0,001
-230,000	-200,000	0,019	-0,122
-228,986	-200,000	-0,033	-0,127
-227,971	-200,000	0,021	-0,111
-226,957	122,147	0,108	0,096
-225,942	162,298	0,030	0,030
-224,927	90,392	0,069	-0,055
-223,913	800,000	-0,019	-0,050
-222,898	-200,000	0,041	-0,139
-221,884	93,818	-0,073	-0,059
-220,869	800,000	-0,003	-0,009
-219,855	169,368	0,072	0,073
-218,840	800,000	0,056	0,113
-217,825	-79,004	-0,043	-0,010
-216,811	-200,000	0,018	-0,137
-215,796	90,974	-0,057	-0,045
-214,782	15,962	0,030	-0,017
-213,767	-200,000	0,007	0,079
-212,752	-109,086	0,069	0,010
-211,738	-57,509	0,041	-0,013
-210,723	-200,000	0,000	0,222
-209,709	33,360	0,004	-0,003
-208,694	-200,000	0,013	-0,058
-207,679	409,698	-0,038	0,057
-206,665	800,000	0,009	-0,026
-205,650	134,861	-0,070	0,064
-204,636	49,354	-0,042	-0,028
-203,621	71,945	-0,115	-0,085
-202,606	300,967	-0,024	-0,032
-201,592	800,000	-0,009	-0,026
-200,577	-200,000	0,003	0,051
-199,563	-200,000	-0,015	-0,116
-198,548	629,157	-0,010	0,019
-197,533	113,615	0,009	-0,008
-196,519	273,688	0,025	0,031
-195,504	-200,000	-0,001	0,075
-194,490	-200,000	-0,003	0,101
-193,475	269,654	-0,080	0,100
-192,460	-200,000	0,003	0,096
-191,446	93,115	-0,030	-0,024
-190,431	800,000	0,051	0,114
-189,417	-13,508	0,010	-0,005
-188,402	-200,000	0,020	-0,072
-187,387	-143,910	-0,055	-0,004
-186,373	281,670	-0,114	0,146
-185,358	-98,774	0,069	-0,012
-184,344	-149,464	0,103	-0,006
-183,329	75,845	0,063	0,047
-182,315	14,332	0,047	-0,026
-181,300	-53,070	-0,074	-0,024
-180,285	494,662	0,031	-0,051
-179,271	294,332	-0,020	0,027
-178,256	800,000	-0,037	0,103
-177,242	-191,430	0,033	0,000
-176,227	-200,000	0,028	0,120
-175,212	722,961	0,041	-0,079
-174,198	-70,081	-0,120	0,032
-173,183	-124,141	-0,135	-0,015
-172,169	501,431	0,021	0,035
-171,154	-200,000	0,012	-0,177
-170,139	-53,124	-0,082	-0,027
-169,125	-200,000	-0,031	0,197
-168,110	461,586	0,037	0,058
-167,096	738,928	0,069	0,132
-166,081	800,000	0,016	0,040
-165,066	291,052	-0,098	-0,127
-164,052	-148,231	0,068	0,004
-163,037	-200,000	-0,012	0,082
-162,023	800,000	-0,057	0,130
-161,008	51,370	0,106	0,071
-159,993	47,318	-0,074	0,049
-158,979	176,581	-0,027	0,028
-157,964	800,000	0,040	0,082
-156,950	357,780	-0,021	0,030
-155,935	10,863	-0,114	-0,062
-154,920	-48,765	0,076	0,026
-153,906	-200,000	-0,019	0,065
-152,891	-53,507	0,137	-0,044
-151,877	-128,910	-0,071	-0,007
-150,862	60,371	-0,154	0,108
-149,847	-104,191	-0,059	-0,010
-148,833	-165,603	0,101	0,003
-147,818	-200,000	-0,012	-0,047
-146,804	-108,859	0,141	-0,021
-145,789	53,175	0,049	0,033
-144,775	30,318	-0,095	-0,058
-143,760	-180,081	-0,098	0,001
-142,745	-200,000	-0,003	0,038
-141,731	27,794	-0,017	-0,010
-140,716	-69,154	-0,038	0,010
-139,702	-96,724	-0,010	0,002
-138,687	210,639	0,104	0,116
-137,672	-30,447	0,094	0,038
-136,658	371,606	0,030	0,043
-135,643	-200,000	-0,010	-0,034
-134,629	-200,000	0,024	-0,113
-133,614	800,000	0,063	0,137
-132,599	-124,505	0,040	0,004
-131,585	302,823	0,083	-0,109
-130,570	-8,930	-0,041	-0,020
-129,556	-156,397	0,035	0,002
-128,541	-200,000	-0,019	-0,068
-127,526	-200,000	0,036	-0,162
-126,512	-94,178	0,050	-0,010
-125,497	-145,166	-0,118	0,007
-124,483	-200,000	-0,011	0,059
-123,468	326,986	0,081	-0,110
-122,453	-200,000	-0,011	-0,148
-121,439	-200,000	-0,020	-0,155
-120,424	-200,000	0,009	0,081
-119,410	-97,303	-0,026	-0,005
-118,395	-154,183	0,110	0,005
-117,380	800,000	-0,005	-0,013
-116,366	-173,412	-0,109	0,002
-115,351	-200,000	0,012	-0,148
-114,337	270,511	0,087	-0,109
-113,322	-200,000	0,020	0,123
-112,307	43,267	0,070	-0,045
-111,293	63,843	-0,071	0,050
-110,278	-6,845	-0,084	0,040
-109,264	800,000	0,047	-0,106
-108,249	-200,000	0,004	-0,058
-107,234	256,232	-0,083	-0,101
-106,220	-200,000	0,001	0,149
-105,205	-111,451	0,080	-0,011
-104,191	149,986	0,092	0,088
-103,176	-200,000	0,010	0,139
-102,162	269,045	-0,040	0,049
-101,147	-200,000	-0,032	-0,119
-100,132	-200,000	-0,014	-0,045
-99,118	-128,477	-0,064	0,006
-98,103	-75,406	0,091	0,023
-97,089	-7,858	0,064	-0,031
-96,074	-200,000	0,019	0,117
-95,059	59,877	0,097	0,068
-94,045	700,787	0,037	0,070
-93,030	459,175	0,018	0,029
-92,016	-157,903	-0,107	-0,004
-91,001	92,820	0,055	-0,044
-89,986	-200,000	0,024	0,085
-88,972	-200,000	-0,019	-0,061
-87,957	-200,000	-0,017	0,057
-86,943	800,000	-0,056	0,131
-85,928	-120,549	-0,063	-0,007
-84,913	-200,000	-0,032	-0,206
-83,899	-25,645	0,052	0,022
-82,884	800,000	0,017	0,034
-81,870	-112,707	0,132	-0,018
-80,855	-200,000	0,004	-0,054
-79,840	-200,000	0,023	0,112
-78,826	-132,460	-0,067	-0,006
-77,811	-200,000	-0,011	-0,092
-76,797	-200,000	-0,006	-0,151
-75,782	800,000	-0,013	-0,039
-74,767	502,211	-0,046	0,076
-73,753	273,545	0,047	0,060
-72,738	391,527	-0,014	0,021
-71,724	800,000	0,013	-0,035
-70,709	30,542	0,013	0,008
-69,694	-93,401	0,041	0,008
-68,680	-200,000	-0,002	-0,016
-67,665	163,364	0,069	-0,069
-66,651	40,086	-0,105	-0,067
-65,636	800,000	-0,071	-0,171
-64,622	800,000	0,055	-0,164
-63,607	232,168	0,000	0,000
-62,592	177,062	0,061	-0,063
-61,578	-198,447	-0,161	-0,001
-60,563	-200,000	-0,006	-0,134
-59,549	399,645	-0,085	0,127
-58,534	-54,356	-1,624	-0,518
-57,519	372,345	-1,426	-2,056
-56,505	-200,000	-0,499	-4,578
-55,490	166,626	1,028	1,032
-54,476	800,000	4,693	11,063
-53,461	-200,000	18,448	296,267
-52,446	800,000	731,029	2253,599
-51,432	557,770	1647,028	2821,669
-50,417	78,752	1667,431	1260,891
-49,403	22,376	1540,675	888,789
-48,388	16,307	1463,962	815,117
-47,373	17,705	1453,836	816,181
-46,359	16,997	1443,851	807,159
-45,344	14,657	1439,187	793,343
-44,330	14,561	1437,306	791,816
-43,315	14,539	1435,752	790,822
-42,300	14,515	1434,168	789,805
-41,286	14,598	1432,888	789,465
-40,271	14,515	1431,656	788,359
-39,257	14,535	1430,276	787,662
-38,242	14,610	1428,937	787,249
-37,227	14,571	1427,773	786,394
-36,213	14,555	1426,512	785,593
-35,198	14,546	1425,401	784,907
-34,184	14,621	1424,430	784,693
-33,169	14,484	1423,199	783,337
-32,154	14,587	1422,034	783,152
-31,140	14,593	1420,708	782,418
-30,125	14,600	1419,528	781,773
-29,111	14,587	1418,534	781,131
-28,096	14,554	1417,348	780,293
-27,082	14,541	1416,323	779,638
-26,067	14,479	1415,331	778,767
-25,052	14,516	1414,095	778,232
-24,038	14,461	1413,296	777,502
-23,023	14,459	1412,418	776,978
-22,009	14,459	1411,365	776,369
-20,994	14,470	1410,329	775,817
-19,979	14,456	1409,395	775,207
-18,965	14,457	1408,305	774,583
-17,950	14,408	1407,656	773,969
-16,936	14,424	1406,697	773,483
-15,921	14,423	1405,601	772,844
-14,906	14,415	1404,537	772,191
-13,892	14,444	1403,745	771,861
-12,877	14,380	1402,858	771,046
-11,863	14,382	1401,963	770,533
-10,848	14,388	1401,026	770,015
-9,833	14,352	1400,200	769,364
-8,819	14,343	1399,185	768,734
-7,804	14,297	1398,406	768,060
-6,790	14,276	1397,306	767,327
-5,775	14,299	1395,903	766,636
-4,760	14,297	1395,273	766,251
-3,746	14,295	1394,630	765,857
-2,731	14,270	1393,785	765,245
-1,717	14,285	1392,849	764,772
-0,702	14,284	1391,100	763,774
0,313	18,129	1309,580	736,803
1,327	34,531	705,973	435,157
2,342	53,144	124,113	83,913
3,356	4,509	16,623	8,596
4,371	14,901	3,182	1,756
5,386	37,408	0,514	0,322
6,400	-200,000	0,029	0,187
7,415	-39,919	-0,311	-0,114
8,429	37,899	-0,334	-0,210
9,444	-42,815	-0,314	-0,112
10,459	-73,552	-0,400	-0,102
11,473	166,519	-0,232	-0,233
12,488	17,731	-0,343	-0,192
13,502	13,303	-0,297	-0,162
14,517	-30,278	-0,533	-0,213
15,531	-50,340	-0,443	-0,147
16,546	135,200	-0,332	-0,305
17,561	32,886	-0,405	-0,247
18,575	-26,330	-0,175	-0,072
19,590	243,559	-0,236	-0,280
20,604	70,673	-0,235	-0,172
21,619	167,639	-0,407	-0,409
22,634	103,299	-0,438	-0,363
23,648	270,647	-0,311	-0,387
24,663	51,089	-0,333	-0,223
25,677	-4,938	-0,368	-0,178
26,692	367,962	-0,223	-0,319
27,707	-31,373	-0,424	-0,167
28,721	53,289	-0,400	-0,270
29,736	93,594	-0,315	-0,252
30,750	127,800	-0,278	-0,249
31,765	67,908	-0,405	-0,292
32,780	522,538	-0,254	-0,422
33,794	2,976	-0,452	-0,231
34,809	115,830	-0,373	-0,321
35,823	77,581	-0,393	-0,295
36,838	31,754	-0,438	-0,265
37,853	131,913	-0,288	-0,261
38,867	100,896	-0,355	-0,291
39,882	78,408	-0,326	-0,245
40,896	144,001	-0,303	-0,285
41,911	-75,394	-0,362	-0,090
42,926	-6,401	-0,366	-0,175
43,940	53,737	-0,325	-0,220
44,955	192,628	-0,250	-0,266
45,969	207,347	-0,277	-0,304
46,984	-77,088	-0,530	-0,129
47,999	48,296	-0,300	-0,197
49,013	-18,227	-0,350	-0,154
50,028	28,410	-0,365	-0,217
51,042	125,072	-0,281	-0,250
52,057	11,630	-0,311	-0,168
53,071	72,795	-0,416	-0,306
54,086	27,744	-0,248	-0,146
55,101	55,147	-0,313	-0,213
56,115	43,001	-0,338	-0,217
57,130	33,963	-0,377	-0,231
58,144	88,102	-0,333	-0,260
59,159	-7,472	-0,447	-0,212
60,174	63,602	-0,403	-0,285
61,188	-30,248	-0,427	-0,170
62,203	63,021	-0,262	-0,184
63,217	256,566	-0,242	-0,293
64,232	96,768	-0,344	-0,277
65,247	-31,878	-0,426	-0,167
66,261	52,796	-0,411	-0,276
67,276	-55,499	-0,408	-0,128
68,290	245,955	-0,238	-0,283
69,305	-58,732	-0,293	-0,089
70,320	-31,970	-0,347	-0,136
71,334	-88,673	-0,334	-0,069
72,349	46,203	-0,324	-0,211
73,363	106,754	-0,392	-0,327
74,378	119,669	-0,286	-0,249
75,393	56,797	-0,285	-0,195
76,407	122,686	-0,278	-0,244
77,422	44,110	-0,245	-0,158
78,436	800,000	-0,126	-0,320
79,451	31,695	-0,426	-0,257
80,466	128,736	-0,260	-0,232
81,480	47,640	-0,296	-0,194
82,495	-19,741	-0,405	-0,175
83,509	23,354	-0,236	-0,136
84,524	115,400	-0,235	-0,201
85,539	58,550	-0,126	-0,087
86,553	4,181	-0,306	-0,157
87,568	131,275	-0,265	-0,239
88,582	800,000	-0,189	-0,393
89,597	105,706	-0,316	-0,262
90,611	-200,000	-0,397	-0,001
91,626	8,466	-0,294	-0,155
92,641	623,861	-0,034	-0,060
93,655	133,364	-0,247	-0,224
94,670	-111,463	-0,290	-0,041
95,684	34,364	-0,316	-0,193
96,699	72,410	-0,340	-0,248
97,714	-22,487	-0,381	-0,161
98,728	24,649	-0,265	-0,153
99,743	8,755	-0,282	-0,148
100,757	-52,470	-0,358	-0,115
101,772	59,505	-0,222	-0,153
102,787	-1,030	-0,491	-0,243
103,801	26,735	-0,266	-0,156
104,816	28,139	-0,300	-0,177
105,830	-177,487	-0,282	-0,005
106,845	2,519	-0,196	-0,099
107,860	-15,836	-0,401	-0,178
108,874	64,106	-0,213	-0,150
109,889	41,230	-0,327	-0,206
110,903	66,883	-0,328	-0,234
111,918	-26,997	-0,281	-0,115
112,933	165,419	-0,228	-0,226
113,947	-115,839	-0,199	-0,026
114,962	93,674	-0,191	-0,151
115,976	113,791	-0,194	-0,165
116,991	-22,911	-0,241	-0,101
118,006	21,017	-0,271	-0,153
119,020	95,450	-0,209	-0,167
120,035	166,163	-0,215	-0,213
121,049	4,625	-0,299	-0,153
122,064	95,259	-0,270	-0,215
123,079	-28,926	-0,353	-0,141
124,093	35,825	-0,306	-0,188
125,108	-40,760	-0,369	-0,133
126,122	419,604	-0,182	-0,273
127,137	65,821	-0,268	-0,190
128,151	-5,520	-0,242	-0,116
129,166	39,663	-0,232	-0,145
130,181	270,249	-0,245	-0,302
131,195	510,046	-0,180	-0,293
132,210	133,929	-0,265	-0,240
133,224	69,779	-0,185	-0,133
134,239	9,107	-0,179	-0,094
135,254	-12,896	-0,133	-0,060
136,268	-26,404	-0,331	-0,135
137,283	65,614	-0,261	-0,184
138,297	-21,642	-0,247	-0,104
139,312	35,187	-0,246	-0,150
140,327	102,325	-0,351	-0,286
141,341	109,638	-0,281	-0,235
142,356	330,193	-0,201	-0,271
143,370	134,863	-0,117	-0,106
144,385	498,510	-0,092	-0,149
145,400	45,524	-0,265	-0,171
146,414	45,412	-0,324	-0,208
147,429	123,283	-0,251	-0,220
148,443	-19,408	-0,191	-0,082
149,458	242,005	-0,136	-0,159
150,473	10,408	-0,239	-0,127
151,487	375,598	-0,140	-0,199
152,502	65,750	-0,202	-0,143
153,516	-37,768	-0,413	-0,153
154,531	52,341	-0,334	-0,222
155,546	297,801	-0,211	-0,271
156,560	800,000	-0,116	-0,280
157,575	152,505	-0,193	-0,184
158,589	205,733	-0,171	-0,185
159,604	114,077	-0,219	-0,186
160,619	-131,361	-0,284	-0,026
161,633	-200,000	-0,068	-0,257
162,648	-34,449	-0,291	-0,111
163,662	-139,924	-0,084	0,006
164,677	-37,842	-0,225	-0,083
165,692	-78,714	-0,263	-0,062
166,706	69,634	-0,239	-0,171
167,721	15,574	-0,207	-0,113
168,735	42,819	-0,344	-0,218
169,750	60,521	-0,196	-0,135
170,764	134,332	-0,203	-0,183
171,779	173,956	-0,114	-0,115
172,794	170,341	-0,132	-0,131
173,808	755,345	-0,120	-0,226
174,823	800,000	-0,151	-0,329
175,837	-59,409	-0,210	-0,063
176,852	14,969	-0,305	-0,166
177,867	449,542	-0,130	-0,200
178,881	79,661	-0,107	-0,080
179,896	-26,500	-0,259	-0,105
180,910	433,014	-0,121	-0,184
181,925	-25,334	-0,258	-0,106
182,940	95,807	-0,161	-0,127
183,954	-114,639	-0,283	-0,037
184,969	9,197	-0,228	-0,120
185,983	-109,161	-0,206	-0,030
186,998	-21,464	-0,215	-0,091
188,013	-133,010	-0,245	-0,021
189,027	181,861	-0,181	-0,185
190,042	-46,391	-0,308	-0,105
191,056	-68,194	-0,244	-0,066
192,071	-74,664	-0,302	-0,075
193,086	200,384	-0,155	-0,166
194,100	-64,152	-0,290	-0,082
195,115	99,238	-0,141	-0,113
196,129	43,714	-0,269	-0,171
197,144	42,381	-0,356	-0,225
198,159	183,053	-0,147	-0,151
199,173	155,451	-0,282	-0,270
200,188	532,376	-0,139	-0,229
201,202	800,000	-0,112	-0,236
202,217	46,472	-0,256	-0,165
203,232	48,148	-0,208	-0,135
204,246	360,415	-0,194	-0,271
205,261	298,903	-0,193	-0,247
206,275	507,696	-0,092	-0,149
207,290	81,604	-0,229	-0,172
208,304	106,487	-0,154	-0,127
209,319	291,586	-0,201	-0,255
210,334	140,097	-0,117	-0,107
211,348	800,000	-0,103	-0,257
212,363	66,752	-0,254	-0,179
213,377	670,874	-0,112	-0,203
214,392	79,502	-0,122	-0,091
215,407	-25,780	-0,150	-0,061
216,421	800,000	-0,095	-0,265
217,436	284,003	-0,127	-0,159
218,450	59,681	-0,231	-0,158
219,465	800,000	-0,034	-0,087
220,480	41,690	-0,190	-0,119
221,494	-200,000	-0,077	-0,253
222,509	130,274	-0,166	-0,147
223,523	253,665	-0,118	-0,140
224,538	3,571	-0,243	-0,122
225,553	-49,799	-0,230	-0,075
226,567	40,923	-0,279	-0,174
227,582	68,612	-0,228	-0,162
228,596	512,987	-0,073	-0,119
229,611	-120,388	-0,182	-0,021
230,626	535,914	-0,069	-0,114
231,640	-19,438	-0,227	-0,097
232,655	185,691	-0,233	-0,241
233,669	209,290	-0,211	-0,229
234,684	168,076	-0,200	-0,198
235,699	29,876	-0,059	-0,035
236,713	-0,665	-0,066	-0,032
237,728	56,996	-0,159	-0,107
238,742	-14,424	-0,204	-0,091
239,757	343,690	-0,099	-0,135
240,772	415,876	-0,172	-0,255
241,786	202,016	-0,191	-0,204
242,801	-37,795	-0,115	0,042
243,815	-5,718	-0,149	-0,070
244,830	45,574	-0,288	-0,184
245,844	-135,697	-0,178	-0,014
246,859	28,738	-0,188	-0,110
247,874	-51,585	-0,198	-0,063
248,888	111,669	-0,182	-0,152
249,903	123,032	-0,286	-0,248
250,917	-119,428	-0,142	-0,017
251,932	-29,131	-0,237	-0,094
252,947	-26,641	-0,188	-0,076
253,961	188,808	-0,175	-0,181
254,976	1,887	-0,230	-0,114
255,990	135,981	-0,138	-0,125
257,005	-54,325	-0,286	-0,089
258,020	153,550	-0,118	-0,112
259,034	211,202	-0,095	-0,103
260,049	101,784	-0,254	-0,205
261,063	132,985	-0,132	-0,118
262,078	285,284	-0,164	-0,204
263,093	-103,246	-0,184	-0,030
264,107	-156,205	-0,280	-0,012
265,122	-151,196	-0,113	0,006
266,136	112,002	-0,155	-0,130
267,151	139,666	-0,141	-0,128
268,166	-117,256	-0,216	-0,027
269,180	19,035	-0,212	-0,117
270,195	231,919	-0,201	-0,228
271,209	-103,812	-0,217	0,035
272,224	-163,624	-0,109	0,003
273,239	17,443	-0,106	-0,058
274,253	-101,448	-0,107	-0,018
275,268	-81,670	-0,175	-0,039
276,282	31,075	-0,206	-0,122
277,297	29,670	-0,270	-0,158
278,312	-67,788	-0,281	-0,075
279,326	72,225	-0,214	-0,154
280,341	348,331	-0,098	-0,134
281,355	317,303	-0,031	-0,040
282,370	-40,957	-0,176	-0,063
283,384	-150,717	-0,159	0,008
284,399	179,616	-0,229	-0,232
285,414	-52,019	-0,186	-0,059
286,428	800,000	-0,083	-0,226
287,443	116,622	-0,146	-0,123
288,457	-160,431	-0,093	0,003
289,472	-26,179	-0,197	-0,079
290,487	37,548	-0,238	-0,146
291,501	12,735	-0,201	-0,107
292,516	66,391	-0,104	-0,073
293,530	-200,000	-0,004	-0,192
294,545	47,717	-0,170	-0,109
295,560	18,670	-0,204	-0,112
296,574	-200,000	-0,065	-0,205
297,589	450,816	-0,140	-0,213
298,603	100,063	-0,204	-0,163
299,618	238,419	-0,130	-0,150
300,633	-39,786	-0,206	-0,074
301,647	-75,384	-0,028	-0,007
302,662	-46,924	-0,126	-0,042
303,676	83,597	-0,130	-0,097
304,691	187,299	-0,120	-0,124
305,706	726,389	-0,135	-0,249
306,720	199,946	-0,137	-0,144
307,735	17,751	-0,131	-0,072
308,749	86,526	-0,173	-0,132
309,764	800,000	-0,043	-0,122
310,779	365,293	-0,045	-0,063
311,793	-88,670	-0,189	-0,038
312,808	1,561	-0,293	-0,145
313,822	800,000	-0,138	-0,302
314,837	-34,499	-0,062	0,023
315,852	59,524	-0,055	-0,037
316,866	296,928	-0,103	-0,131
317,881	-132,309	-0,246	-0,022
318,895	512,726	-0,084	-0,135
319,910	312,681	-0,134	-0,174
320,925	54,348	-0,164	-0,108
321,939	-40,694	-0,189	-0,067
322,954	54,978	-0,102	-0,068
323,968	-200,000	0,032	-0,157
324,983	-200,000	-0,025	-0,184
325,997	-63,529	-0,176	-0,049
327,012	800,000	-0,086	-0,172
328,027	153,579	-0,059	-0,056
329,041	133,916	-0,154	-0,137
330,056	131,544	-0,134	-0,119
331,070	45,116	-0,208	-0,132
332,085	-149,413	-0,100	-0,005
333,100	34,067	-0,176	-0,105
334,114	44,785	-0,137	-0,086
335,129	-184,904	-0,181	-0,002
336,143	133,232	-0,190	-0,169
337,158	-118,148	-0,170	-0,021
338,173	800,000	0,023	-0,061
339,187	115,949	0,054	0,045
340,202	-70,549	-0,198	-0,051
341,216	145,509	-0,152	-0,140
342,231	-76,085	-0,192	-0,046
343,246	158,718	-0,114	-0,109
344,260	220,742	-0,098	-0,108
345,275	-113,366	-0,095	-0,013
346,289	-83,551	-0,151	0,033
347,304	-200,000	-0,027	-0,128
348,319	-134,482	-0,197	0,016
349,333	28,070	-0,101	-0,058
350,348	-86,904	-0,125	-0,026
351,362	57,108	-0,026	0,018
352,377	65,442	-0,058	-0,040
353,392	8,388	-0,115	0,059
354,406	-66,477	-0,123	-0,033
355,421	209,219	1315,975	1414,987
356,435	161,013	1476,866	1415,484
