DTS Sentinel unit serial number:	SN410029Multiplexer serial number:	ORYXHardware model number:	OX2-SRSoftware version number:	ORYX F/W v4,00 Oryx Data Collector v3.7.2.0data status	okinstallation	B3 Nyhavnadifferential loss correction	single-endedforward channel	channel 1reverse channel	N/Adate	2023/12/01time	19:52:30forward acquisition time	300,00reverse acquisition time	0,00gamma	499,1914k internal	0,3198k external	0,3198temperature offset calibration	1,0000default loss term (dB/km)	0,3820temperature slope calibration	1,0000multiplexer offset coefficient	1,0000multiplexer slope coefficient	1,0000fibre end	0,00T internal ref (°C)	15,64T ext. ref 1 (°C)	1,43T ext. ref 2 (°C)	1,43length (m)	temperature (°C)	Stokes	anti-Stokes-744,400	754,555	-0,142	-0,281
-743,385	690,526	0,130	0,249
-742,371	4,381	-0,210	-0,112
-741,356	-200,000	-0,010	0,148
-740,342	235,990	-0,225	-0,271
-739,327	740,997	0,205	0,403
-738,312	-64,944	-0,214	-0,063
-737,298	359,327	-0,181	0,265
-736,283	-200,000	-0,029	-0,210
-735,269	-200,000	0,095	0,364
-734,254	800,000	-0,128	-0,303
-733,239	614,924	-0,084	0,153
-732,225	800,000	-0,088	-0,235
-731,210	800,000	0,055	0,125
-730,196	-8,311	-0,057	0,028
-729,181	-89,447	0,138	-0,029
-728,167	-41,512	-0,010	0,004
-727,152	65,830	-0,046	0,034
-726,137	800,000	-0,044	-0,097
-725,123	-146,271	0,029	0,002
-724,108	-78,075	-0,100	0,025
-723,094	800,000	-0,045	-0,115
-722,079	-200,000	0,002	-0,150
-721,064	-33,001	0,213	0,086
-720,050	530,641	0,062	0,107
-719,035	-97,182	0,044	-0,008
-718,021	-37,202	-0,114	-0,044
-717,006	624,565	0,078	-0,144
-715,991	800,000	-0,038	-0,094
-714,977	79,306	-0,039	0,031
-713,962	82,675	-0,018	0,014
-712,948	192,887	0,035	-0,039
-711,933	-200,000	-0,005	0,025
-710,918	257,241	-0,067	-0,084
-709,904	213,215	-0,060	-0,069
-708,889	333,749	0,005	-0,007
-707,875	-200,000	0,001	0,042
-706,860	585,426	0,087	-0,156
-705,845	800,000	-0,011	-0,036
-704,831	195,546	-0,008	0,008
-703,816	140,868	-0,091	0,088
-702,802	1,608	0,035	-0,018
-701,787	-200,000	-0,003	-0,081
-700,772	-200,000	0,012	-0,147
-699,758	-200,000	0,003	-0,117
-698,743	77,727	-0,033	-0,025
-697,729	-200,000	-0,009	0,065
-696,714	-200,000	0,005	0,132
-695,699	-104,010	-0,104	0,018
-694,685	-200,000	-0,014	0,061
-693,670	-168,163	-0,184	0,005
-692,656	399,752	-0,014	-0,021
-691,641	60,202	-0,026	0,018
-690,627	800,000	0,039	0,081
-689,612	256,585	-0,081	0,101
-688,597	326,429	-0,127	-0,178
-687,583	-108,616	-0,152	0,023
-686,568	-200,000	-0,014	-0,186
-685,554	90,258	-0,140	-0,114
-684,539	-200,000	-0,038	-0,153
-683,524	35,922	-0,058	-0,037
-682,510	800,000	-0,021	-0,050
-681,495	26,268	0,096	0,058
-680,481	800,000	-0,038	-0,093
-679,466	336,872	-0,109	-0,154
-678,451	2,338	-0,096	0,051
-677,437	-200,000	0,008	-0,115
-676,422	800,000	0,018	-0,045
-675,408	-200,000	-0,004	0,032
-674,393	-200,000	-0,132	-0,000
-673,378	-190,291	-0,142	0,001
-672,364	123,036	-0,045	0,041
-671,349	-9,364	-0,173	-0,084
-670,335	114,296	-0,113	0,100
-669,320	-44,144	0,100	-0,036
-668,305	-200,000	-0,022	0,125
-667,291	-164,087	0,014	0,000
-666,276	-149,469	-0,041	0,002
-665,262	-200,000	-0,014	-0,073
-664,247	-200,000	-0,005	-0,106
-663,232	749,409	0,027	0,053
-662,218	99,615	0,051	-0,043
-661,203	-200,000	-0,053	0,174
-660,189	-113,749	0,110	-0,015
-659,174	-37,954	-0,146	-0,056
-658,159	385,663	0,081	-0,122
-657,145	800,000	-0,005	-0,014
-656,130	8,045	0,023	-0,012
-655,116	34,645	-0,087	0,055
-654,101	12,268	0,094	0,052
-653,086	-7,418	0,037	-0,018
-652,072	15,123	-0,064	0,036
-651,057	209,168	0,038	-0,043
-650,043	-200,000	0,011	-0,145
-649,028	-90,293	0,152	-0,032
-648,014	335,629	0,038	0,053
-646,999	-200,000	0,067	-0,000
-645,984	-200,000	0,018	0,072
-644,970	-200,000	-0,007	-0,044
-643,955	122,801	-0,036	-0,033
-642,941	-31,308	-0,179	-0,073
-641,926	97,670	-0,073	0,061
-640,911	-200,000	-0,002	-0,081
-639,897	251,447	0,116	0,144
-638,882	137,138	-0,146	0,138
-637,868	-22,130	-0,110	-0,048
-636,853	674,817	-0,099	-0,187
-635,838	324,305	0,041	0,057
-634,824	180,847	0,133	-0,142
-633,809	-200,000	-0,003	0,069
-632,795	253,431	0,069	0,086
-631,780	149,845	-0,038	-0,037
-630,765	82,088	0,141	-0,111
-629,751	-200,000	-0,017	-0,066
-628,736	234,799	-0,106	-0,127
-627,722	120,179	-0,049	0,044
-626,707	280,379	-0,062	-0,081
-625,692	-80,812	0,071	-0,017
-624,678	800,000	0,050	0,137
-623,663	408,226	-0,074	0,114
-622,649	88,477	0,125	-0,101
-621,634	-34,510	-0,115	0,045
-620,619	-200,000	-0,025	-0,090
-619,605	523,765	-0,092	-0,157
-618,590	16,523	0,053	0,030
-617,576	800,000	-0,050	0,132
-616,561	-79,067	0,111	-0,027
-615,546	85,682	-0,061	-0,049
-614,532	489,334	0,055	-0,091
-613,517	-200,000	-0,004	0,048
-612,503	800,000	0,029	-0,078
-611,488	-3,407	0,036	0,018
-610,474	-51,863	-0,027	-0,009
-609,459	254,796	0,031	0,038
-608,444	-127,288	-0,097	-0,010
-607,430	205,740	-0,061	0,069
-606,415	-200,000	-0,012	0,038
-605,401	-200,000	0,001	0,105
-604,386	-153,473	0,085	-0,004
-603,371	56,186	-0,018	-0,012
-602,357	314,730	0,031	0,042
-601,342	-167,197	-0,074	0,002
-600,328	225,402	0,027	0,032
-599,313	47,640	0,069	-0,046
-598,298	27,793	-0,112	-0,068
-597,284	476,175	-0,050	0,082
-596,269	687,104	0,056	-0,106
-595,255	800,000	0,029	0,075
-594,240	800,000	0,048	-0,138
-593,225	-200,000	-0,005	-0,052
-592,211	-32,865	-0,095	-0,038
-591,196	-132,223	-0,095	0,009
-590,182	366,139	0,048	-0,071
-589,167	-106,367	-0,064	0,010
-588,152	800,000	0,019	0,051
-587,138	-75,560	-0,090	-0,023
-586,123	298,800	-0,111	-0,148
-585,109	-79,282	-0,112	-0,027
-584,094	-69,577	-0,087	0,024
-583,079	71,900	0,105	0,079
-582,065	-174,862	0,015	-0,000
-581,050	-89,760	0,019	0,004
-580,036	-108,232	-0,053	0,008
-579,021	89,076	0,147	0,118
-578,006	-16,775	-0,153	0,070
-576,992	-200,000	-0,013	-0,052
-575,977	-4,033	-0,113	0,056
-574,963	800,000	0,007	-0,017
-573,948	362,040	0,105	0,152
-572,934	159,426	-0,095	-0,096
-571,919	523,055	-0,090	-0,154
-570,904	-106,679	0,084	-0,013
-569,890	448,308	-0,039	-0,062
-568,875	39,498	0,066	-0,043
-567,861	-167,359	0,045	-0,001
-566,846	560,028	0,045	0,078
-565,831	-26,168	-0,061	0,026
-564,817	289,514	-0,022	0,030
-563,802	-98,499	-0,142	0,026
-562,788	256,891	-0,079	0,099
-561,773	201,110	0,106	0,118
-560,758	612,962	-0,029	-0,053
-559,744	-200,000	-0,015	-0,057
-558,729	39,332	-0,091	-0,059
-557,715	800,000	-0,015	0,037
-556,700	800,000	-0,023	-0,060
-555,685	7,466	-0,068	-0,036
-554,671	582,359	-0,071	0,127
-553,656	-104,122	0,055	0,009
-552,642	641,824	0,044	0,082
-551,627	85,376	-0,073	0,058
-550,612	-200,000	-0,027	0,120
-549,598	-200,000	-0,032	0,105
-548,583	-57,572	-0,176	0,055
-547,569	132,778	-0,034	0,031
-546,554	-145,572	0,023	-0,001
-545,539	197,904	-0,090	0,100
-544,525	273,914	-0,024	0,031
-543,510	-149,494	0,097	-0,005
-542,496	-200,000	-0,004	-0,143
-541,481	-56,051	-0,042	-0,013
-540,466	84,605	0,094	-0,074
-539,452	45,264	0,101	0,067
-538,437	-11,989	0,150	0,071
-537,423	203,633	-0,093	0,105
-536,408	343,315	-0,013	-0,018
-535,393	-200,000	-0,008	-0,070
-534,379	76,422	-0,145	-0,111
-533,364	130,280	-0,097	-0,090
-532,350	-200,000	-0,008	-0,155
-531,335	277,918	-0,021	0,027
-530,321	-200,000	-0,016	0,132
-529,306	-82,429	0,044	0,010
-528,291	-200,000	-0,006	-0,059
-527,277	-200,000	-0,029	-0,137
-526,262	312,769	-0,091	-0,124
-525,248	-78,310	0,185	-0,046
-524,233	-81,480	-0,072	0,017
-523,218	-200,000	0,022	0,086
-522,204	800,000	0,024	0,076
-521,189	128,295	-0,066	-0,060
-520,175	115,272	-0,073	-0,064
-519,160	-46,880	0,088	-0,031
-518,145	259,749	0,030	-0,037
-517,131	-45,087	-0,057	0,020
-516,116	116,293	0,064	-0,056
-515,102	97,202	-0,021	0,018
-514,087	-114,007	-0,038	-0,005
-513,072	-200,000	0,009	-0,147
-512,058	83,937	-0,062	-0,049
-511,043	110,958	-0,044	0,038
-510,029	10,304	0,025	-0,014
-509,014	-131,032	0,056	0,005
-507,999	800,000	-0,059	-0,125
-506,985	-200,000	-0,037	-0,198
-505,970	-92,147	-0,113	0,023
-504,956	-200,000	0,047	0,000
-503,941	-57,138	0,079	0,025
-502,926	788,647	-0,086	0,171
-501,912	-76,623	-0,039	0,010
-500,897	277,834	0,031	0,040
-499,883	-146,117	-0,096	0,006
-498,868	381,562	0,047	-0,069
-497,853	-200,000	0,031	0,148
-496,839	-200,000	-0,083	-0,000
-495,824	-165,960	0,074	0,002
-494,810	-200,000	-0,027	0,191
-493,795	382,899	0,134	0,199
-492,781	-155,054	0,060	-0,003
-491,766	8,058	-0,142	-0,077
-490,751	-4,842	-0,065	0,032
-489,737	-200,000	0,033	-0,112
-488,722	42,339	-0,045	-0,029
-487,708	800,000	-0,067	0,160
-486,693	-200,000	0,045	0,215
-485,678	800,000	-0,023	0,058
-484,664	85,416	0,082	-0,065
-483,649	92,190	0,007	-0,005
-482,635	-72,915	0,109	-0,029
-481,620	-20,365	-0,053	0,023
-480,605	-200,000	0,010	0,126
-479,591	612,518	0,080	0,144
-478,576	-141,671	0,064	0,005
-477,562	20,320	0,056	-0,033
-476,547	800,000	-0,010	-0,027
-475,532	-150,530	-0,026	-0,001
-474,518	-200,000	0,009	0,072
-473,503	-80,376	-0,097	0,023
-472,489	519,313	-0,050	0,084
-471,474	-200,000	-0,001	-0,088
-470,459	-200,000	-0,011	0,041
-469,445	-91,218	0,104	-0,021
-468,430	-200,000	-0,004	0,020
-467,416	38,357	0,040	0,026
-466,401	800,000	0,025	0,059
-465,386	45,651	-0,020	0,013
-464,372	228,901	0,059	0,069
-463,357	168,721	0,018	-0,018
-462,343	-47,300	-0,121	0,042
-461,328	-120,402	0,059	-0,007
-460,313	800,000	0,015	-0,042
-459,299	-71,783	0,080	-0,021
-458,284	-136,716	0,128	0,010
-457,270	-31,803	0,189	-0,076
-456,255	436,727	0,007	-0,011
-455,241	-200,000	0,003	0,054
-454,226	800,000	-0,028	0,077
-453,211	411,547	0,031	0,048
-452,197	632,892	-0,051	0,093
-451,182	-136,858	0,133	0,011
-450,168	-38,002	-0,064	-0,024
-449,153	-200,000	0,000	-0,002
-448,138	17,774	-0,093	-0,053
-447,124	-9,190	0,126	-0,061
-446,109	3,054	-0,196	-0,102
-445,095	-99,279	0,098	0,018
-444,080	252,005	0,146	-0,179
-443,065	800,000	0,016	-0,040
-442,051	545,837	0,043	-0,075
-441,036	100,300	-0,044	-0,036
-440,022	-127,607	-0,090	-0,009
-439,007	461,863	-0,026	0,042
-437,992	293,666	-0,017	0,023
-436,978	9,406	0,122	0,066
-435,963	-13,236	0,198	0,092
-434,949	800,000	0,012	-0,028
-433,934	-200,000	0,022	-0,091
-432,919	-200,000	-0,009	-0,087
-431,905	800,000	-0,027	0,066
-430,890	343,574	-0,024	-0,034
-429,876	209,635	0,158	0,178
-428,861	407,088	0,039	-0,059
-427,846	-200,000	0,000	-0,053
-426,832	-200,000	0,008	-0,056
-425,817	-52,959	-0,152	-0,050
-424,803	-21,380	-0,090	-0,039
-423,788	66,969	0,087	0,064
-422,773	-144,824	0,139	-0,009
-421,759	423,655	0,051	0,079
-420,744	476,908	0,031	0,051
-419,730	426,304	-0,038	-0,059
-418,715	30,721	0,106	-0,065
-417,701	204,287	0,104	-0,116
-416,686	17,552	0,002	0,001
-415,671	407,209	0,020	0,031
-414,657	-49,177	0,075	0,026
-413,642	-86,605	-0,056	0,012
-412,628	-200,000	-0,005	-0,097
-411,613	-200,000	-0,021	-0,147
-410,598	118,854	-0,072	-0,064
-409,584	708,621	-0,057	-0,109
-408,569	-200,000	0,018	-0,134
-407,555	168,527	0,079	-0,081
-406,540	445,801	0,032	0,051
-405,525	800,000	0,039	0,101
-404,511	-51,893	0,028	-0,009
-403,496	15,157	0,080	0,045
-402,482	-128,896	-0,154	0,015
-401,467	36,652	-0,043	0,027
-400,452	-102,542	0,018	0,003
-399,438	800,000	-0,008	0,025
-398,423	263,261	-0,005	-0,006
-397,409	-200,000	0,002	-0,044
-396,394	-123,906	-0,017	0,002
-395,379	-200,000	-0,003	-0,128
-394,365	-92,189	0,040	-0,008
-393,350	-200,000	-0,010	0,052
-392,336	-77,585	0,066	-0,016
-391,321	-30,268	-0,046	-0,019
-390,306	17,208	-0,224	-0,127
-389,292	-15,593	0,125	-0,057
-388,277	-200,000	0,051	-0,175
-387,263	-144,264	-0,156	0,010
-386,248	800,000	-0,009	0,026
-385,233	153,627	-0,088	0,086
-384,219	-29,455	0,060	0,024
-383,204	297,665	-0,032	-0,042
-382,190	-50,164	-0,215	-0,072
-381,175	39,641	-0,052	-0,033
-380,160	-21,176	0,100	0,044
-379,146	800,000	0,035	0,076
-378,131	-125,887	0,206	0,022
-377,117	135,168	-0,112	-0,104
-376,102	-16,893	-0,023	-0,010
-375,088	438,111	0,101	-0,158
-374,073	-9,496	-0,163	-0,078
-373,058	-200,000	-0,004	-0,095
-372,044	800,000	0,063	0,183
-371,029	800,000	-0,061	0,160
-370,015	-200,000	0,030	0,141
-369,000	-200,000	-0,013	0,201
-367,985	92,537	-0,031	-0,025
-366,971	193,123	-0,021	-0,023
-365,956	-29,372	0,138	-0,056
-364,942	113,449	0,007	-0,006
-363,927	505,137	0,105	0,176
-362,912	800,000	-0,043	0,104
-361,898	-99,499	0,148	-0,026
-360,883	572,082	-0,033	-0,057
-359,869	208,402	-0,099	0,111
-358,854	72,210	0,046	0,034
-357,839	800,000	-0,058	-0,123
-356,825	22,844	0,132	-0,077
-355,810	-129,939	0,056	-0,005
-354,796	-189,513	-0,056	0,000
-353,781	800,000	0,019	-0,041
-352,766	-200,000	0,004	0,113
-351,752	173,451	-0,060	0,062
-350,737	213,635	0,095	0,108
-349,723	120,947	0,138	0,123
-348,708	800,000	0,018	-0,045
-347,693	-200,000	-0,010	0,047
-346,679	7,664	-0,129	0,069
-345,664	63,537	-0,037	-0,027
-344,650	-99,226	0,071	-0,013
-343,635	-31,303	0,012	0,005
-342,620	-42,913	-0,148	-0,053
-341,606	110,380	0,072	-0,062
-340,591	58,959	0,026	0,018
-339,577	5,023	0,085	0,045
-338,562	230,568	-0,011	-0,013
-337,548	-107,671	0,082	-0,013
-336,533	-192,800	0,133	-0,001
-335,518	-110,978	0,080	-0,012
-334,504	800,000	0,063	0,127
-333,489	-117,127	-0,041	-0,005
-332,475	164,670	-0,029	0,029
-331,460	672,370	0,060	-0,113
-330,445	201,702	0,042	0,047
-329,431	-134,596	0,127	-0,011
-328,416	23,445	0,190	-0,112
-327,402	91,776	-0,098	0,079
-326,387	136,172	-0,049	0,046
-325,372	800,000	0,028	-0,057
-324,358	-200,000	0,001	0,004
-323,343	18,145	-0,089	-0,050
-322,329	55,259	0,077	0,053
-321,314	-79,793	-0,061	0,015
-320,299	-103,249	0,076	0,013
-319,285	-97,702	-0,078	0,014
-318,270	800,000	0,032	-0,088
-317,256	175,735	-0,007	0,007
-316,241	-169,106	0,053	-0,001
-315,226	56,357	0,112	0,078
-314,212	24,517	0,160	-0,095
-313,197	800,000	0,018	-0,046
-312,183	605,865	0,022	-0,040
-311,168	494,078	0,080	0,131
-310,153	-32,515	0,119	0,047
-309,139	-200,000	-0,003	-0,081
-308,124	-35,007	-0,115	0,045
-307,110	374,377	0,046	-0,067
-306,095	800,000	-0,007	-0,021
-305,080	29,301	0,077	0,047
-304,066	-200,000	-0,019	0,075
-303,051	-96,488	0,061	-0,011
-302,037	800,000	-0,025	-0,077
-301,022	-200,000	0,018	0,120
-300,008	-200,000	0,017	-0,153
-298,993	196,188	0,105	0,115
-297,978	-200,000	-0,010	-0,080
-296,964	83,978	-0,099	-0,078
-295,949	153,268	-0,065	-0,064
-294,935	-37,451	-0,116	-0,044
-293,920	229,575	-0,069	-0,081
-292,905	586,715	-0,077	-0,135
-291,891	529,802	0,091	0,154
-290,876	75,447	-0,043	-0,032
-289,862	756,932	0,035	-0,068
-288,847	-165,231	-0,097	0,003
-287,832	45,322	-0,150	0,099
-286,818	124,802	0,022	-0,020
-285,803	800,000	0,076	0,220
-284,789	137,342	0,119	0,112
-283,774	-56,581	0,009	-0,003
-282,759	-200,000	0,002	0,015
-281,745	-77,851	0,089	-0,022
-280,730	69,771	-0,099	-0,073
-279,716	397,716	-0,039	0,058
-278,701	800,000	0,048	-0,120
-277,686	800,000	0,002	-0,006
-276,672	143,575	0,035	-0,034
-275,657	-139,558	-0,080	-0,006
-274,643	-35,447	-0,097	0,037
-273,628	-200,000	-0,013	-0,128
-272,613	-5,944	-0,084	0,041
-271,599	-200,000	-0,003	-0,040
-270,584	-200,000	0,005	0,023
-269,570	13,564	0,083	0,046
-268,555	133,908	-0,136	-0,126
-267,540	-68,806	0,078	0,021
-266,526	428,693	-0,109	-0,169
-265,511	-200,000	0,006	-0,068
-264,497	800,000	0,016	-0,050
-263,482	-82,093	-0,033	-0,008
-262,467	-104,570	0,030	0,005
-261,453	126,989	-0,100	0,090
-260,438	-20,563	0,100	-0,044
-259,424	-200,000	-0,048	-0,154
-258,409	22,277	-0,035	-0,020
-257,395	-92,887	0,009	0,002
-256,380	-200,000	-0,026	0,151
-255,365	655,666	0,035	0,064
-254,351	46,106	0,103	0,068
-253,336	-19,125	-0,141	-0,062
-252,322	387,914	-0,077	-0,114
-251,307	184,912	0,074	-0,078
-250,292	21,460	0,010	-0,006
-249,278	-116,916	0,084	0,011
-248,263	-200,000	0,046	0,156
-247,249	460,734	-0,093	-0,148
-246,234	-139,634	-0,149	0,011
-245,219	800,000	0,018	0,050
-244,205	388,041	0,034	-0,050
-243,190	78,987	-0,081	-0,062
-242,176	344,889	0,042	0,058
-241,161	-200,000	0,007	0,109
-240,146	283,119	0,066	-0,085
-239,132	374,028	-0,012	0,017
-238,117	-71,829	-0,066	-0,017
-237,103	800,000	-0,005	0,014
-236,088	-6,594	0,025	-0,012
-235,073	800,000	-0,030	0,062
-234,059	-172,298	-0,071	0,002
-233,044	800,000	-0,033	0,079
-232,030	800,000	0,059	0,163
-231,015	238,399	0,037	-0,044
-230,000	-78,587	-0,022	0,005
-228,986	43,646	0,074	-0,048
-227,971	51,204	0,060	-0,040
-226,957	-200,000	-0,002	0,078
-225,942	96,611	0,122	0,100
-224,927	25,285	-0,046	0,027
-223,913	98,983	-0,047	0,039
-222,898	-172,347	0,146	0,003
-221,884	800,000	-0,039	-0,087
-220,869	800,000	0,023	0,061
-219,855	68,058	0,068	0,049
-218,840	-81,130	-0,102	-0,024
-217,825	111,762	-0,071	-0,061
-216,811	800,000	0,047	-0,110
-215,796	-64,522	-0,083	-0,024
-214,782	800,000	-0,050	0,127
-213,767	800,000	-0,022	0,049
-212,752	-200,000	-0,003	0,031
-211,738	800,000	0,043	-0,097
-210,723	-90,427	-0,017	-0,004
-209,709	-200,000	0,013	-0,067
-208,694	-132,148	0,030	0,003
-207,679	387,303	-0,023	0,034
-206,665	800,000	0,066	0,144
-205,650	-172,074	-0,064	-0,001
-204,636	-200,000	-0,047	0,169
-203,621	800,000	-0,053	0,124
-202,606	34,673	-0,006	-0,003
-201,592	392,947	0,041	-0,061
-200,577	-82,285	-0,024	-0,006
-199,563	761,151	0,066	0,129
-198,548	198,476	0,051	-0,055
-197,533	800,000	0,057	0,169
-196,519	352,544	-0,080	0,113
-195,504	800,000	-0,040	-0,114
-194,490	-20,663	-0,110	-0,048
-193,475	800,000	0,038	-0,098
-192,460	-200,000	0,036	0,140
-191,446	-200,000	0,005	-0,150
-190,431	800,000	0,037	0,074
-189,417	504,492	0,006	-0,010
-188,402	146,963	0,051	0,049
-187,387	65,722	-0,160	-0,115
-186,373	-200,000	-0,047	-0,178
-185,358	-64,630	0,092	-0,026
-184,344	-93,201	-0,030	0,006
-183,329	-93,115	0,051	-0,010
-182,315	-200,000	0,028	0,200
-181,300	35,396	-0,107	0,067
-180,285	-81,244	-0,101	0,023
-179,271	-91,376	-0,090	0,018
-178,256	49,539	0,011	-0,008
-177,242	145,402	0,073	0,069
-176,227	149,057	0,032	0,030
-175,212	800,000	-0,078	0,199
-174,198	-28,971	0,085	0,035
-173,183	240,241	0,046	-0,055
-172,169	800,000	-0,042	-0,113
-171,154	205,674	-0,090	0,100
-170,139	99,995	-0,029	0,024
-169,125	-179,447	-0,125	0,002
-168,110	-200,000	0,001	-0,017
-167,096	-193,168	0,164	-0,001
-166,081	800,000	-0,050	-0,134
-165,066	800,000	0,034	-0,096
-164,052	-25,502	0,064	-0,027
-163,037	800,000	0,079	-0,169
-162,023	800,000	-0,025	0,074
-161,008	-200,000	-0,012	0,129
-159,993	-52,287	0,099	0,032
-158,979	415,870	-0,048	-0,074
-157,964	59,754	-0,065	0,045
-156,950	38,546	0,100	-0,063
-155,935	-200,000	0,011	-0,069
-154,920	551,242	0,027	-0,047
-153,906	552,161	-0,023	-0,039
-152,891	9,390	-0,110	-0,059
-151,877	494,633	0,032	-0,053
-150,862	-159,409	0,065	-0,003
-149,847	-19,965	-0,050	-0,022
-148,833	-200,000	-0,010	-0,128
-147,818	-94,533	0,051	0,010
-146,804	-167,214	-0,082	-0,002
-145,789	-163,855	-0,072	-0,002
-144,775	-145,394	-0,192	-0,012
-143,760	-200,000	0,004	0,081
-142,745	-200,000	0,015	-0,048
-141,731	-104,214	0,136	-0,022
-140,716	800,000	0,047	0,095
-139,702	-200,000	0,012	-0,115
-138,687	-200,000	0,034	-0,133
-137,672	-63,368	0,062	0,018
-136,658	800,000	-0,010	-0,022
-135,643	-200,000	-0,001	-0,046
-134,629	88,947	-0,052	0,041
-133,614	-200,000	0,013	0,091
-132,599	-200,000	-0,002	-0,029
-131,585	800,000	0,034	0,082
-130,570	-200,000	0,038	0,152
-129,556	292,989	0,025	0,033
-128,541	212,611	0,095	-0,106
-127,526	-200,000	-0,000	0,097
-126,512	25,108	0,117	-0,069
-125,497	-130,437	0,093	-0,009
-124,483	-190,008	0,032	-0,000
-123,468	-200,000	-0,002	0,126
-122,453	-120,507	-0,239	-0,028
-121,439	561,304	0,063	-0,109
-120,424	-2,567	0,053	-0,026
-119,410	526,256	0,015	-0,025
-118,395	16,923	0,078	-0,044
-117,380	272,737	-0,049	-0,062
-116,366	-200,000	-0,018	-0,075
-115,351	19,196	-0,098	-0,056
-114,337	-200,000	-0,013	-0,138
-113,322	156,018	-0,077	-0,076
-112,307	-19,261	0,053	-0,023
-111,293	297,897	-0,045	-0,059
-110,278	-200,000	-0,017	0,084
-109,264	-200,000	-0,034	0,185
-108,249	56,313	0,065	0,045
-107,234	800,000	-0,033	-0,068
-106,220	28,698	0,082	0,049
-105,205	519,451	0,049	-0,082
-104,191	800,000	0,043	-0,101
-103,176	-35,224	-0,052	-0,020
-102,162	184,979	0,064	0,067
-101,147	-200,000	0,007	-0,085
-100,132	-134,674	-0,158	0,013
-99,118	301,352	0,024	-0,032
-98,103	429,408	-0,058	-0,089
-97,089	-179,248	0,104	-0,002
-96,074	-31,051	0,032	-0,013
-95,059	565,447	-0,041	0,071
-94,045	344,397	0,017	0,023
-93,030	-200,000	-0,011	-0,074
-92,016	-200,000	-0,032	-0,116
-91,001	-68,058	0,057	0,016
-89,986	-111,407	-0,044	0,006
-88,972	506,074	0,067	0,111
-87,957	14,936	-0,037	-0,021
-86,943	141,934	0,088	-0,083
-85,928	124,566	-0,069	-0,062
-84,913	359,584	-0,089	0,126
-83,899	208,225	0,065	-0,072
-82,884	79,372	0,089	0,068
-81,870	184,807	0,067	0,071
-80,855	-23,187	0,041	0,017
-79,840	158,991	0,049	0,048
-78,826	800,000	-0,051	-0,134
-77,811	-200,000	-0,001	-0,118
-76,797	-200,000	0,002	0,069
-75,782	-37,033	0,086	0,032
-74,767	354,337	-0,072	0,101
-73,753	800,000	-0,010	-0,021
-72,738	-124,676	0,153	0,017
-71,724	-29,547	-0,045	0,018
-70,709	-66,832	-0,118	0,033
-69,694	-117,977	-0,036	-0,005
-68,680	-8,765	0,068	-0,032
-67,665	-88,503	0,076	0,016
-66,651	551,503	0,030	-0,052
-65,636	124,664	0,058	0,052
-64,622	-98,052	-0,149	0,027
-63,607	-200,000	-0,004	0,058
-62,592	191,563	-0,079	-0,085
-61,578	184,681	0,045	-0,047
-60,563	-200,000	-0,009	-0,030
-59,549	800,000	-0,028	0,071
-58,534	-59,227	-1,467	-0,445
-57,519	399,948	-1,567	-2,335
-56,505	-200,000	-0,569	-4,486
-55,490	73,972	0,969	0,720
-54,476	800,000	4,804	11,189
-53,461	-200,000	17,722	284,378
-52,446	800,000	721,591	2230,321
-51,432	562,788	1635,742	2816,186
-50,417	80,717	1659,064	1266,159
-49,403	23,559	1533,153	891,607
-48,388	17,522	1456,472	817,893
-47,373	18,147	1446,141	815,061
-46,359	17,690	1436,837	807,606
-45,344	15,733	1432,388	795,763
-44,330	15,699	1430,329	794,431
-43,315	15,692	1428,419	793,302
-42,300	15,718	1426,864	792,532
-41,286	15,732	1425,883	792,020
-40,271	15,766	1424,391	791,325
-39,257	15,677	1423,420	790,330
-38,242	15,764	1421,742	789,776
-37,227	15,705	1420,691	788,885
-36,213	15,734	1419,451	788,300
-35,198	15,758	1418,170	787,672
-34,184	15,789	1417,201	787,247
-33,169	15,728	1415,846	786,178
-32,154	15,749	1414,769	785,646
-31,140	15,777	1413,509	785,047
-30,125	15,792	1412,614	784,588
-29,111	15,779	1411,166	783,696
-28,096	15,748	1410,103	782,925
-27,082	15,676	1408,960	781,925
-26,067	15,709	1407,889	781,453
-25,052	15,683	1407,078	780,852
-24,038	15,680	1405,966	780,189
-23,023	15,667	1404,892	779,501
-22,009	15,652	1403,947	778,876
-20,994	15,646	1403,049	778,317
-19,979	15,613	1402,030	777,571
-18,965	15,614	1401,140	777,051
-17,950	15,605	1400,155	776,431
-16,936	15,615	1399,170	775,899
-15,921	15,561	1398,032	774,986
-14,906	15,604	1396,923	774,541
-13,892	15,596	1396,160	774,050
-12,877	15,560	1395,383	773,424
-11,863	15,569	1394,428	772,902
-10,848	15,557	1393,526	772,316
-9,833	15,490	1392,630	771,478
-8,819	15,509	1391,522	770,924
-7,804	15,516	1390,393	770,299
-6,790	15,439	1389,756	769,560
-5,775	15,476	1388,633	769,079
-4,760	15,471	1387,761	768,543
-3,746	15,480	1387,055	768,163
-2,731	15,458	1386,189	767,552
-1,717	15,441	1385,264	766,929
-0,702	15,474	1383,455	766,052
0,313	19,334	1304,027	739,858
1,327	35,709	706,590	438,822
2,342	55,202	124,975	85,423
3,356	4,874	16,509	8,569
4,371	12,203	3,094	1,682
5,386	-79,489	0,510	0,121
6,400	760,862	0,033	0,064
7,415	79,305	-0,267	-0,203
8,429	-123,791	-0,399	0,044
9,444	105,863	-0,302	-0,253
10,459	190,308	-0,288	-0,307
11,473	79,640	-0,343	-0,261
12,488	85,820	-0,197	-0,153
13,502	42,900	-0,375	-0,241
14,517	-79,340	-0,233	-0,055
15,531	-14,237	-0,478	-0,217
16,546	52,625	-0,375	-0,253
17,561	98,323	-0,380	-0,309
18,575	85,404	-0,210	-0,163
19,590	95,537	-0,377	-0,304
20,604	156,326	-0,176	-0,172
21,619	132,208	-0,281	-0,256
22,634	192,991	-0,316	-0,337
23,648	133,774	-0,451	-0,413
24,663	-9,310	-0,456	-0,215
25,677	4,321	-0,357	-0,184
26,692	-50,971	-0,423	-0,140
27,707	35,262	-0,331	-0,204
28,721	232,899	-0,314	-0,366
29,736	27,093	-0,480	-0,284
30,750	15,953	-0,496	-0,275
31,765	63,233	-0,397	-0,281
32,780	81,870	-0,356	-0,272
33,794	6,359	-0,373	-0,195
34,809	3,080	-0,347	-0,177
35,823	274,513	-0,379	-0,475
36,838	188,634	-0,219	-0,232
37,853	-31,084	-0,376	-0,149
38,867	107,409	-0,270	-0,226
39,882	117,854	-0,366	-0,318
40,896	272,352	-0,207	-0,259
41,911	-51,940	-0,377	-0,123
42,926	9,521	-0,402	-0,214
43,940	88,753	-0,373	-0,292
44,955	117,284	-0,463	-0,401
45,969	14,782	-0,432	-0,237
46,984	94,916	-0,331	-0,266
47,999	265,893	-0,207	-0,255
49,013	93,439	-0,272	-0,217
50,028	34,434	-0,373	-0,229
51,042	-24,103	-0,391	-0,164
52,057	220,491	-0,221	-0,250
53,071	159,356	-0,330	-0,323
54,086	128,339	-0,367	-0,330
55,101	133,011	-0,290	-0,264
56,115	775,668	-0,166	-0,322
57,130	303,724	-0,241	-0,316
58,144	107,313	-0,348	-0,291
59,159	-8,594	-0,514	-0,242
60,174	31,618	-0,300	-0,181
61,188	62,961	-0,274	-0,193
62,203	144,584	-0,209	-0,197
63,217	539,659	-0,242	-0,408
64,232	-0,067	-0,318	-0,159
65,247	23,140	-0,302	-0,174
66,261	122,055	-0,407	-0,358
67,276	-9,375	-0,356	-0,167
68,290	47,234	-0,367	-0,240
69,305	-65,662	-0,460	-0,129
70,320	58,917	-0,368	-0,254
71,334	16,534	-0,204	-0,113
72,349	-99,193	-0,411	-0,072
73,363	209,158	-0,192	-0,212
74,378	333,712	-0,230	-0,314
75,393	64,556	-0,324	-0,230
76,407	649,292	-0,142	-0,257
77,422	81,116	-0,250	-0,190
78,436	371,543	-0,212	-0,304
79,451	120,629	-0,283	-0,247
80,466	27,121	-0,210	-0,124
81,480	69,034	-0,355	-0,256
82,495	-100,733	-0,324	-0,056
83,509	-93,321	-0,287	-0,055
84,524	245,522	-0,173	-0,205
85,539	85,267	-0,210	-0,162
86,553	266,351	-0,199	-0,245
87,568	-56,252	-0,312	-0,097
88,582	27,656	-0,312	-0,184
89,597	47,791	-0,375	-0,246
90,611	56,679	-0,200	-0,137
91,626	71,609	-0,091	-0,066
92,641	-22,027	-0,321	-0,137
93,655	-16,174	-0,229	-0,102
94,670	99,290	-0,208	-0,169
95,684	10,537	-0,317	-0,169
96,699	-44,540	-0,235	-0,082
97,714	47,812	-0,253	-0,165
98,728	188,063	-0,138	-0,145
99,743	-49,122	-0,259	-0,087
100,757	-99,650	-0,272	0,047
101,772	-63,860	-0,303	-0,086
102,787	170,482	-0,255	-0,257
103,801	124,065	-0,280	-0,247
104,816	141,026	-0,231	-0,214
105,830	113,767	-0,220	-0,187
106,845	65,925	-0,304	-0,216
107,860	5,159	-0,248	-0,128
108,874	-2,240	-0,242	-0,118
109,889	76,878	-0,207	-0,154
110,903	33,810	-0,291	-0,177
111,918	-10,469	-0,373	-0,173
112,933	18,862	-0,307	-0,172
113,947	-36,090	-0,133	-0,050
114,962	140,853	-0,228	-0,211
115,976	-0,961	-0,329	-0,163
116,991	-0,319	-0,281	-0,140
118,006	54,663	-0,286	-0,193
119,020	129,725	-0,288	-0,258
120,035	-73,886	-0,298	-0,075
121,049	-11,390	-0,268	-0,123
122,064	76,169	-0,215	-0,159
123,079	59,126	-0,293	-0,202
124,093	18,672	-0,356	-0,199
125,108	282,723	-0,236	-0,297
126,122	148,419	-0,300	-0,283
127,137	-122,733	-0,132	-0,015
128,151	293,027	-0,126	-0,161
129,166	262,476	-0,170	-0,207
130,181	45,177	-0,151	-0,097
131,195	19,313	-0,279	-0,156
132,210	99,080	-0,253	-0,205
133,224	697,632	-0,175	-0,323
134,239	206,465	-0,219	-0,239
135,254	20,742	-0,250	-0,141
136,268	591,894	-0,155	-0,269
137,283	88,759	-0,307	-0,239
138,297	0,788	-0,348	-0,174
139,312	751,657	-0,168	-0,318
140,327	-6,001	-0,337	-0,161
141,341	1,556	-0,277	-0,139
142,356	109,631	-0,240	-0,201
143,370	126,272	-0,191	-0,169
144,385	135,819	-0,227	-0,207
145,400	800,000	-0,083	-0,184
146,414	173,534	-0,180	-0,182
147,429	-9,195	-0,350	-0,163
148,443	413,149	-0,181	-0,270
149,458	800,000	-0,148	-0,329
150,473	252,616	-0,150	-0,179
151,487	31,027	-0,337	-0,201
152,502	-9,378	-0,237	-0,110
153,516	126,365	-0,361	-0,320
154,531	-23,212	-0,193	-0,081
155,546	344,678	-0,223	-0,307
156,560	60,974	-0,250	-0,173
157,575	-122,313	-0,171	-0,019
158,589	56,221	-0,211	-0,143
159,604	-11,884	-0,298	-0,136
160,619	106,674	-0,227	-0,188
161,633	14,042	-0,277	-0,150
162,648	86,419	-0,295	-0,227
163,662	105,163	-0,251	-0,207
164,677	39,655	-0,245	-0,153
165,692	108,438	-0,200	-0,166
166,706	292,640	-0,164	-0,210
167,721	90,281	-0,277	-0,216
168,735	309,328	-0,131	-0,172
169,750	64,635	-0,234	-0,164
170,764	166,918	-0,270	-0,268
171,779	173,108	-0,213	-0,215
172,794	40,214	-0,287	-0,180
173,808	800,000	-0,062	-0,121
174,823	-15,851	-0,235	-0,104
175,837	249,819	-0,144	-0,171
176,852	230,949	-0,227	-0,259
177,867	33,976	-0,183	-0,111
178,881	-103,048	-0,111	-0,018
179,896	800,000	-0,084	-0,188
180,910	38,459	-0,176	-0,109
181,925	44,956	-0,286	-0,183
182,940	408,119	-0,200	-0,295
183,954	13,575	-0,305	-0,165
184,969	168,653	-0,220	-0,219
185,983	-54,397	-0,019	-0,006
186,998	236,648	-0,119	-0,138
188,013	-77,533	-0,209	-0,050
189,027	-20,716	-0,253	-0,108
190,042	47,520	-0,229	-0,148
191,056	113,069	-0,212	-0,179
192,071	208,202	-0,145	-0,159
193,086	471,081	-0,145	-0,228
194,100	189,059	-0,194	-0,203
195,115	95,891	-0,233	-0,185
196,129	48,373	-0,183	-0,119
197,144	-86,376	-0,114	-0,024
198,159	115,662	-0,218	-0,186
199,173	158,091	-0,207	-0,200
200,188	-26,507	-0,127	-0,052
201,202	-108,046	-0,185	-0,028
202,217	386,496	-0,160	-0,230
203,232	-29,436	-0,277	-0,110
204,246	90,134	-0,246	-0,191
205,261	85,819	-0,325	-0,248
206,275	-99,968	-0,125	0,021
207,290	186,651	-0,086	-0,089
208,304	174,589	-0,184	-0,185
209,319	113,703	-0,186	-0,157
210,334	800,000	-0,141	-0,307
211,348	-14,310	-0,141	-0,063
212,363	347,580	-0,191	-0,262
213,377	133,113	-0,228	-0,205
214,392	19,090	-0,231	-0,128
215,407	-78,108	-0,318	-0,076
216,421	65,971	-0,225	-0,158
217,436	-200,000	-0,051	-0,250
218,450	-17,196	-0,188	-0,082
219,465	177,828	-0,205	-0,208
220,480	800,000	-0,084	-0,204
221,494	-200,000	0,017	-0,132
222,509	-30,471	-0,116	-0,045
223,523	-9,576	-0,257	-0,118
224,538	-89,936	-0,256	-0,051
225,553	154,038	-0,190	-0,181
226,567	111,304	-0,183	-0,153
227,582	187,838	-0,147	-0,152
228,596	234,327	-0,172	-0,197
229,611	-96,306	-0,241	-0,044
230,626	-143,149	-0,305	-0,020
231,640	-188,957	-0,210	-0,002
232,655	-163,089	-0,163	0,005
233,669	2,011	-0,166	-0,083
234,684	6,405	-0,258	-0,133
235,699	45,695	-0,151	-0,097
236,713	51,703	-0,214	-0,141
237,728	-200,000	-0,048	-0,152
238,742	5,125	-0,207	-0,106
239,757	71,349	-0,256	-0,184
240,772	98,510	-0,195	-0,156
241,786	76,455	-0,208	-0,153
242,801	248,141	-0,183	-0,215
243,815	-150,197	-0,195	0,010
244,830	-42,262	-0,159	-0,056
245,844	158,197	-0,214	-0,206
246,859	-200,000	-0,043	-0,252
247,874	555,008	-0,141	-0,236
248,888	152,605	-0,205	-0,194
249,903	11,134	-0,281	-0,148
250,917	55,800	-0,032	-0,021
251,932	-15,140	-0,144	-0,064
252,947	7,787	-0,151	-0,078
253,961	3,083	-0,244	-0,122
254,976	101,671	-0,266	-0,215
255,990	-121,738	-0,206	-0,023
257,005	261,598	-0,179	-0,216
258,020	68,532	-0,065	-0,046
259,034	154,506	-0,131	-0,124
260,049	378,758	-0,026	0,036
261,063	414,749	-0,177	-0,262
262,078	5,672	-0,320	-0,163
263,093	-33,147	-0,323	-0,123
264,107	-57,364	-0,271	-0,082
265,122	49,519	-0,039	-0,025
266,136	-200,000	-0,008	-0,128
267,151	107,294	-0,192	-0,158
268,166	-74,586	-0,071	-0,017
269,180	800,000	-0,066	-0,130
270,195	17,349	-0,254	-0,139
271,209	64,206	-0,246	-0,171
272,224	51,111	-0,135	-0,088
273,239	654,970	-0,077	-0,137
274,253	-200,000	-0,023	-0,139
275,268	522,713	-0,107	-0,175
276,282	95,892	-0,210	-0,165
277,297	-163,447	-0,200	0,006
278,312	285,124	-0,197	-0,245
279,326	226,762	-0,162	-0,182
280,341	100,873	-0,162	-0,130
281,355	800,000	-0,027	-0,063
282,370	326,417	-0,022	-0,030
283,384	47,133	-0,144	-0,093
284,399	800,000	-0,093	-0,258
285,414	274,532	-0,160	-0,196
286,428	173,158	-0,187	-0,187
287,443	-200,000	-0,016	0,107
288,457	800,000	0,020	-0,051
289,472	208,061	-0,152	-0,164
290,487	125,835	-0,196	-0,171
291,501	-0,028	-0,091	-0,045
292,516	149,329	-0,062	-0,058
293,530	310,512	-0,156	-0,202
294,545	-13,889	-0,163	-0,073
295,560	50,278	-0,084	-0,055
296,574	27,414	-0,174	-0,101
297,589	195,414	-0,134	-0,140
298,603	406,905	-0,172	-0,252
299,618	-25,663	-0,151	-0,061
300,633	248,583	-0,045	-0,052
301,647	472,476	-0,101	-0,157
302,662	-132,206	-0,181	0,016
303,676	625,994	-0,094	-0,165
304,691	72,804	-0,169	-0,122
305,706	359,551	-0,156	-0,215
306,720	118,370	-0,122	-0,104
307,735	35,901	-0,181	-0,110
308,749	-82,637	-0,199	-0,044
309,764	-56,006	-0,156	0,048
310,779	-121,392	-0,147	0,017
311,793	349,041	-0,097	-0,132
312,808	17,352	-0,211	-0,115
313,822	119,665	-0,201	-0,172
314,837	66,829	-0,270	-0,189
315,852	-129,180	-0,209	-0,020
316,866	-16,223	-0,047	-0,020
317,881	600,787	-0,107	-0,183
318,895	163,401	-0,099	0,096
319,910	800,000	-0,074	-0,145
320,925	66,237	-0,153	-0,107
321,939	14,773	-0,187	-0,100
322,954	-80,211	-0,162	-0,037
323,968	-97,359	-0,127	0,023
324,983	636,847	-0,023	-0,040
325,997	-46,201	-0,253	0,085
327,012	10,979	-0,081	-0,043
328,027	172,374	-0,137	-0,136
329,041	96,284	-0,163	-0,128
330,056	800,000	0,020	0,049
331,070	-34,996	-0,047	0,018
332,085	118,880	-0,073	0,062
333,100	409,123	-0,110	-0,161
334,114	61,139	-0,195	-0,133
335,129	-200,000	-0,037	-0,161
336,143	101,103	-0,195	-0,156
337,158	800,000	-0,053	-0,114
338,173	-200,000	0,030	-0,168
339,187	189,571	-0,117	0,121
340,202	800,000	-0,064	-0,126
341,216	-60,313	-0,092	0,027
342,231	101,657	-0,252	-0,202
343,246	224,168	-0,196	-0,218
344,260	-200,000	-0,007	-0,117
345,275	-63,429	-0,065	-0,018
346,289	-16,447	-0,090	0,039
347,304	224,924	-0,163	-0,182
348,319	238,622	-0,196	-0,224
349,333	-18,683	-0,209	-0,089
350,348	23,420	-0,237	-0,134
351,362	800,000	-0,042	-0,108
352,377	-200,000	-0,041	-0,160
353,392	-135,545	-0,065	-0,005
354,406	472,599	-0,076	-0,117
355,421	208,405	1312,721	1410,886
356,435	160,354	1473,234	1411,404
