DTS Sentinel unit serial number:	SN410029Multiplexer serial number:	ORYXHardware model number:	OX2-SRSoftware version number:	ORYX F/W v4,00 Oryx Data Collector v3.7.2.0data status	okinstallation	B3 Nyhavnadifferential loss correction	single-endedforward channel	channel 1reverse channel	N/Adate	2023/11/30time	19:32:30forward acquisition time	300,00reverse acquisition time	0,00gamma	499,1914k internal	0,3206k external	0,3206temperature offset calibration	1,0000default loss term (dB/km)	0,3820temperature slope calibration	1,0000multiplexer offset coefficient	1,0000multiplexer slope coefficient	1,0000fibre end	0,00T internal ref (°C)	11,93T ext. ref 1 (°C)	-3,35T ext. ref 2 (°C)	-3,47length (m)	temperature (°C)	Stokes	anti-Stokes-744,400	570,788	-0,190	-0,338
-743,385	-200,000	-0,018	0,241
-742,371	221,958	-0,137	-0,161
-741,356	-200,000	-0,014	0,197
-740,342	415,048	-0,110	-0,170
-739,327	-200,000	0,010	0,441
-738,312	-200,000	-0,111	-0,385
-737,298	-200,000	0,048	0,212
-736,283	800,000	-0,140	-0,296
-735,269	800,000	0,154	0,331
-734,254	172,701	-0,119	-0,125
-733,239	-55,244	-0,179	0,058
-732,225	800,000	-0,143	-0,321
-731,210	191,137	0,079	0,087
-730,196	80,910	0,073	-0,057
-729,181	-200,000	-0,015	0,082
-728,167	51,387	-0,046	0,031
-727,152	800,000	0,073	-0,152
-726,137	0,886	-0,052	-0,027
-725,123	353,164	-0,097	-0,140
-724,108	800,000	0,027	-0,056
-723,094	-200,000	-0,002	0,032
-722,079	-200,000	-0,017	-0,113
-721,064	-132,658	-0,043	0,004
-720,050	492,236	-0,130	-0,216
-719,035	800,000	-0,028	-0,060
-718,021	-68,070	-0,097	-0,027
-717,006	-153,496	-0,131	0,006
-715,991	-200,000	0,016	-0,098
-714,977	-170,848	-0,143	-0,003
-713,962	146,144	-0,033	-0,032
-712,948	800,000	0,043	0,089
-711,933	-82,809	-0,083	0,019
-710,918	-83,338	0,061	-0,014
-709,904	800,000	-0,028	0,087
-708,889	-200,000	-0,007	-0,143
-707,875	116,101	-0,123	-0,109
-706,860	-86,825	-0,232	0,051
-705,845	-72,266	-0,020	-0,005
-704,831	800,000	-0,054	-0,133
-703,816	-18,321	-0,074	0,033
-702,802	-142,615	-0,065	0,005
-701,787	-200,000	-0,006	-0,062
-700,772	17,129	-0,081	-0,046
-699,758	-200,000	0,009	-0,063
-698,743	-46,466	0,092	0,032
-697,729	-200,000	-0,028	0,113
-696,714	-200,000	0,011	-0,075
-695,699	-108,570	-0,069	0,011
-694,685	57,744	0,099	-0,070
-693,670	800,000	-0,046	0,108
-692,656	800,000	-0,039	-0,089
-691,641	38,717	0,033	0,022
-690,627	462,935	-0,037	-0,061
-689,612	-60,835	-0,027	-0,008
-688,597	404,499	-0,106	-0,163
-687,583	11,670	0,128	-0,071
-686,568	800,000	0,103	-0,264
-685,554	-200,000	0,005	-0,040
-684,539	156,734	-0,096	-0,096
-683,524	514,575	-0,044	-0,075
-682,510	-76,450	-0,151	0,038
-681,495	-132,683	-0,179	0,016
-680,481	6,766	-0,057	0,031
-679,466	639,119	-0,038	-0,071
-678,451	-200,000	-0,032	0,128
-677,437	800,000	-0,064	0,161
-676,422	-88,121	-0,178	0,038
-675,408	-45,986	0,108	-0,038
-674,393	40,726	-0,029	-0,019
-673,378	222,134	-0,071	-0,083
-672,364	-61,934	-0,040	0,012
-671,349	800,000	-0,035	-0,072
-670,335	465,220	-0,025	-0,041
-669,320	172,432	0,160	0,166
-668,305	-200,000	-0,014	-0,060
-667,291	-87,998	0,031	-0,007
-666,276	-200,000	-0,023	-0,169
-665,262	35,404	-0,044	0,028
-664,247	-200,000	0,029	-0,110
-663,232	-200,000	-0,002	0,126
-662,218	-159,399	0,120	-0,005
-661,203	-123,145	-0,051	0,006
-660,189	-79,923	-0,131	-0,032
-659,174	-200,000	-0,004	-0,121
-658,159	-200,000	-0,010	-0,165
-657,145	429,294	-0,025	0,039
-656,130	163,821	-0,078	0,080
-655,116	800,000	0,052	0,117
-654,101	227,283	0,069	0,082
-653,086	-200,000	0,004	0,075
-652,072	83,225	-0,090	-0,071
-651,057	-200,000	0,012	-0,099
-650,043	800,000	-0,032	-0,099
-649,028	-200,000	-0,008	0,055
-648,014	71,257	0,017	0,012
-646,999	166,648	-0,004	0,005
-645,984	-12,213	0,083	-0,039
-644,970	-200,000	0,018	-0,076
-643,955	-61,278	0,107	-0,032
-642,941	85,012	0,087	-0,069
-641,926	-200,000	0,020	-0,067
-640,911	125,033	0,129	-0,118
-639,897	-122,453	-0,038	-0,004
-638,882	112,152	-0,074	0,064
-637,868	325,636	-0,022	0,031
-636,853	-200,000	-0,019	-0,117
-635,838	-45,872	0,080	-0,028
-634,824	-136,670	-0,125	0,010
-633,809	-200,000	0,001	0,030
-632,795	12,014	-0,096	0,053
-631,780	-139,838	0,087	0,007
-630,765	-200,000	-0,001	0,078
-629,751	122,152	-0,051	-0,046
-628,736	-200,000	-0,034	-0,125
-627,722	-200,000	-0,003	-0,059
-626,707	-35,714	-0,110	0,043
-625,692	-10,060	0,117	0,056
-624,678	274,023	0,025	-0,031
-623,663	-84,581	-0,091	0,020
-622,649	89,533	-0,154	0,124
-621,634	132,169	-0,038	0,035
-620,619	366,787	0,082	0,120
-619,605	238,585	0,087	-0,104
-618,590	230,043	-0,086	0,102
-617,576	800,000	-0,041	0,103
-616,561	-113,144	-0,061	-0,009
-615,546	-124,634	0,106	-0,012
-614,532	-144,266	0,070	0,005
-613,517	-7,154	-0,102	0,050
-612,503	229,744	-0,072	0,085
-611,488	28,224	0,167	-0,102
-610,474	17,211	-0,076	0,043
-609,459	-29,511	0,025	0,010
-608,444	-132,151	-0,144	0,013
-607,430	800,000	0,028	0,058
-606,415	-194,899	-0,098	-0,001
-605,401	-200,000	-0,013	-0,108
-604,386	738,064	-0,020	0,039
-603,371	-200,000	-0,028	0,132
-602,357	-7,910	-0,120	-0,058
-601,342	-107,071	-0,128	-0,020
-600,328	180,648	-0,074	-0,078
-599,313	482,064	-0,078	-0,128
-598,298	-200,000	0,024	0,094
-597,284	-200,000	-0,015	0,096
-596,269	-200,000	-0,006	-0,171
-595,255	-59,170	-0,085	0,026
-594,240	26,142	0,027	0,016
-593,225	-5,577	-0,069	-0,034
-592,211	-111,989	-0,060	-0,009
-591,196	-1,303	0,068	-0,034
-590,182	626,494	0,040	0,074
-589,167	687,381	-0,035	0,066
-588,152	-69,702	0,073	0,020
-587,138	53,143	-0,012	-0,008
-586,123	800,000	-0,031	-0,097
-585,109	-200,000	0,005	-0,034
-584,094	-200,000	0,011	-0,135
-583,079	-83,310	0,142	0,033
-582,065	72,737	0,096	0,072
-581,050	-141,084	-0,049	0,004
-580,036	-163,759	-0,052	0,002
-579,021	-104,525	-0,119	-0,020
-578,006	152,375	0,060	-0,060
-576,992	12,123	0,075	0,042
-575,977	55,711	0,088	0,061
-574,963	29,096	0,109	-0,067
-573,948	-43,789	-0,136	-0,049
-572,934	800,000	-0,026	0,074
-571,919	800,000	-0,041	0,088
-570,904	-91,415	0,102	0,021
-569,890	226,750	-0,119	0,139
-568,875	167,709	-0,117	-0,120
-567,861	800,000	-0,056	-0,134
-566,846	293,502	0,076	0,100
-565,831	800,000	0,028	0,064
-564,817	-95,504	-0,189	-0,036
-563,802	800,000	-0,035	-0,070
-562,788	23,388	-0,067	0,040
-561,773	143,086	0,027	-0,026
-560,758	-175,688	-0,137	-0,003
-559,744	7,435	0,066	0,035
-558,729	800,000	0,046	0,100
-557,715	-200,000	0,005	0,061
-556,700	-167,335	-0,088	-0,002
-555,685	287,660	0,046	-0,061
-554,671	800,000	0,021	0,052
-553,656	16,623	0,162	-0,092
-552,642	-200,000	-0,029	-0,096
-551,627	48,645	0,075	0,051
-550,612	221,885	0,013	0,015
-549,598	133,877	-0,031	-0,029
-548,583	-27,410	-0,155	-0,065
-547,569	-178,689	0,108	0,002
-546,554	-168,505	0,093	-0,002
-545,539	-30,221	-0,104	0,043
-544,525	290,495	-0,048	0,064
-543,510	281,025	-0,033	-0,042
-542,496	352,789	-0,065	0,093
-541,481	-20,877	0,038	-0,017
-540,466	41,444	-0,095	-0,062
-539,452	222,636	-0,021	0,025
-538,437	-87,123	0,024	0,005
-537,423	-99,778	0,160	0,029
-536,408	-44,676	-0,051	0,018
-535,393	-132,118	-0,132	-0,012
-534,379	-49,162	0,088	-0,030
-533,364	-91,214	0,050	0,010
-532,350	139,144	0,040	0,038
-531,335	-38,020	-0,009	0,004
-530,321	-200,000	-0,035	0,149
-529,306	-200,000	0,015	0,108
-528,291	9,986	-0,121	-0,066
-527,277	22,806	-0,057	0,034
-526,262	257,098	-0,060	-0,075
-525,248	-155,331	0,177	0,008
-524,233	-34,712	-0,107	-0,042
-523,218	-65,728	-0,100	0,029
-522,204	81,623	0,080	0,062
-521,189	102,485	0,024	0,020
-520,175	-103,209	0,078	-0,013
-519,160	-200,000	0,031	0,126
-518,145	-103,960	0,144	-0,024
-517,131	318,600	0,072	0,099
-516,116	800,000	0,051	0,154
-515,102	-43,127	-0,145	-0,053
-514,087	154,565	0,092	0,091
-513,072	-66,165	0,077	0,022
-512,058	13,059	-0,153	-0,085
-511,043	-92,073	0,207	0,042
-510,029	800,000	0,045	0,143
-509,014	-163,273	-0,103	0,003
-507,999	-200,000	-0,008	0,047
-506,985	-200,000	0,016	0,106
-505,970	418,141	0,087	0,134
-504,956	-58,253	-0,055	0,017
-503,941	-200,000	-0,002	0,112
-502,926	245,250	0,108	0,131
-501,912	-161,160	0,129	0,005
-500,897	375,660	-0,076	-0,112
-499,883	3,002	-0,080	0,042
-498,868	-10,226	-0,040	-0,019
-497,853	-148,058	0,039	-0,002
-496,839	-45,915	0,119	-0,042
-495,824	-200,000	0,007	0,082
-494,810	-200,000	-0,012	-0,055
-493,795	56,311	-0,053	-0,037
-492,781	21,201	0,075	-0,044
-491,766	-200,000	-0,027	0,100
-490,751	515,942	-0,052	-0,088
-489,737	624,504	0,057	0,103
-488,722	528,483	-0,020	-0,035
-487,708	226,412	-0,062	0,073
-486,693	198,842	0,044	0,049
-485,678	103,656	-0,091	-0,077
-484,664	104,641	-0,037	-0,031
-483,649	165,054	-0,023	-0,023
-482,635	239,540	0,052	0,062
-481,620	-59,908	-0,062	-0,019
-480,605	-118,872	0,137	-0,017
-479,591	-66,351	0,113	0,032
-478,576	-200,000	0,003	0,128
-477,562	-200,000	0,005	-0,073
-476,547	-200,000	-0,003	0,070
-475,532	-101,725	-0,068	-0,012
-474,518	4,782	0,127	0,067
-473,503	227,611	0,097	0,113
-472,489	-200,000	0,008	0,100
-471,474	466,660	0,048	-0,077
-470,459	13,381	-0,052	0,029
-469,445	-200,000	0,013	0,049
-468,430	174,783	-0,058	-0,060
-467,416	219,003	0,064	0,073
-466,401	-33,313	0,127	0,050
-465,386	68,515	-0,089	-0,065
-464,372	147,819	-0,056	-0,054
-463,357	458,396	-0,027	-0,043
-462,343	182,043	0,067	-0,071
-461,328	-119,884	-0,040	-0,005
-460,313	-200,000	-0,018	-0,091
-459,299	15,790	-0,075	-0,042
-458,284	-200,000	0,029	0,120
-457,270	91,445	0,074	0,059
-456,255	-200,000	0,000	-0,166
-455,241	441,210	0,032	0,050
-454,226	-23,588	0,062	-0,026
-453,211	-44,921	-0,104	-0,037
-452,197	204,557	0,144	0,161
-451,182	5,855	0,138	0,073
-450,168	-75,902	0,029	0,007
-449,153	-61,275	-0,154	-0,046
-448,138	172,996	-0,101	-0,104
-447,124	11,429	0,090	-0,050
-446,109	-200,000	0,000	0,048
-445,095	-200,000	0,000	-0,071
-444,080	800,000	-0,061	0,157
-443,065	-48,922	-0,070	0,024
-442,051	138,022	-0,049	0,046
-441,036	-16,181	-0,099	-0,045
-440,022	800,000	0,058	-0,149
-439,007	-200,000	-0,048	-0,158
-437,992	-35,800	0,142	-0,055
-436,978	352,690	-0,068	0,097
-435,963	533,772	0,045	0,076
-434,949	-140,951	-0,095	0,007
-433,934	1,876	0,092	-0,047
-432,919	120,573	0,076	-0,067
-431,905	-120,216	0,172	-0,021
-430,890	-107,739	-0,011	-0,002
-429,876	24,044	0,023	0,014
-428,861	-200,000	0,005	0,078
-427,846	-200,000	0,017	0,126
-426,832	-123,321	-0,082	0,009
-425,817	800,000	-0,028	-0,075
-424,803	-200,000	-0,004	-0,149
-423,788	-140,588	0,093	0,007
-422,773	-200,000	-0,022	0,102
-421,759	-134,334	-0,149	0,013
-420,744	-200,000	-0,009	-0,129
-419,730	425,014	-0,039	-0,060
-418,715	-200,000	-0,021	-0,125
-417,701	-200,000	0,014	-0,166
-416,686	19,150	-0,105	-0,060
-415,671	-200,000	0,005	0,052
-414,657	-0,917	0,162	0,082
-413,642	-117,690	0,057	0,007
-412,628	800,000	-0,054	-0,121
-411,613	800,000	-0,082	-0,207
-410,598	-200,000	0,016	0,074
-409,584	54,671	-0,082	0,056
-408,569	271,876	0,144	0,182
-407,555	782,667	-0,055	-0,108
-406,540	411,370	-0,019	-0,028
-405,525	-200,000	0,025	0,134
-404,511	800,000	-0,012	-0,033
-403,496	754,203	-0,076	-0,149
-402,482	127,185	0,084	-0,077
-401,467	494,224	0,017	0,028
-400,452	-34,466	-0,082	0,032
-399,438	109,206	-0,073	0,063
-398,423	-200,000	-0,008	-0,069
-397,409	23,791	-0,042	-0,025
-396,394	137,739	-0,024	0,023
-395,379	800,000	0,022	-0,047
-394,365	-38,401	-0,080	-0,030
-393,350	800,000	0,034	-0,089
-392,336	800,000	0,014	0,034
-391,321	800,000	-0,028	-0,079
-390,306	800,000	-0,019	0,051
-389,292	90,770	-0,087	0,070
-388,277	271,363	-0,007	0,008
-387,263	-200,000	-0,002	0,010
-386,248	335,467	0,032	-0,045
-385,233	38,955	-0,042	-0,027
-384,219	-200,000	-0,016	-0,121
-383,204	220,450	-0,084	-0,097
-382,190	800,000	0,009	0,025
-381,175	50,582	-0,040	-0,027
-380,160	800,000	-0,020	-0,041
-379,146	-53,495	0,039	-0,013
-378,131	800,000	-0,019	0,053
-377,117	-200,000	0,012	0,089
-376,102	258,375	-0,050	0,061
-375,088	240,277	-0,053	-0,063
-374,073	800,000	0,005	0,011
-373,058	-72,527	0,055	0,014
-372,044	-74,917	-0,039	-0,010
-371,029	-60,917	-0,043	-0,013
-370,015	-200,000	0,014	-0,077
-369,000	-22,220	0,090	0,039
-367,985	240,949	0,060	0,072
-366,971	-31,635	0,086	-0,035
-365,956	-176,454	0,180	-0,003
-364,942	132,805	0,161	0,149
-363,927	-51,867	0,057	-0,019
-362,912	20,030	-0,071	0,041
-361,898	-200,000	0,000	-0,026
-360,883	65,020	0,009	-0,006
-359,869	226,135	0,084	0,097
-358,854	-200,000	-0,031	0,119
-357,839	105,637	0,092	0,078
-356,825	-146,323	-0,123	0,008
-355,810	-200,000	0,004	0,089
-354,796	-162,448	-0,044	0,002
-353,781	704,377	-0,081	-0,153
-352,766	-1,378	-0,102	-0,051
-351,752	-79,055	0,100	-0,024
-350,737	-200,000	0,014	-0,157
-349,723	70,674	0,033	0,024
-348,708	-125,307	0,118	-0,013
-347,693	-175,722	-0,016	0,000
-346,679	125,482	-0,128	0,116
-345,664	-55,661	0,100	-0,032
-344,650	-200,000	0,014	0,060
-343,635	-200,000	-0,015	0,072
-342,620	461,382	0,068	0,109
-341,606	35,560	-0,096	-0,060
-340,591	-200,000	-0,001	-0,095
-339,577	-98,485	0,132	-0,024
-338,562	409,146	0,032	-0,049
-337,548	800,000	0,050	0,124
-336,533	-200,000	0,006	0,020
-335,518	102,934	-0,063	-0,053
-334,504	-200,000	0,042	-0,139
-333,489	800,000	-0,016	0,038
-332,475	-200,000	-0,036	-0,133
-331,460	800,000	0,061	-0,150
-330,445	-19,537	-0,089	-0,039
-329,431	517,069	0,032	-0,054
-328,416	26,074	-0,044	-0,026
-327,402	127,258	0,056	0,051
-326,387	-200,000	0,010	0,110
-325,372	800,000	-0,033	0,072
-324,358	-200,000	0,043	-0,154
-323,343	13,617	0,046	0,026
-322,329	-107,860	0,095	0,015
-321,314	89,776	0,096	0,077
-320,299	-64,759	0,082	0,024
-319,285	74,658	0,116	0,087
-318,270	-98,891	-0,112	0,020
-317,256	-70,278	0,054	0,014
-316,241	141,307	-0,066	-0,062
-315,226	602,865	0,022	-0,039
-314,212	116,123	0,103	0,090
-313,197	306,758	0,035	-0,046
-312,183	112,495	-0,089	-0,077
-311,168	77,608	-0,062	0,047
-310,153	800,000	-0,023	-0,057
-309,139	800,000	-0,016	-0,046
-308,124	-15,747	-0,067	0,030
-307,110	-200,000	-0,001	0,157
-306,095	-200,000	0,002	-0,039
-305,080	800,000	-0,033	0,078
-304,066	-200,000	-0,029	0,117
-303,051	24,125	-0,102	-0,060
-302,037	-200,000	0,003	-0,047
-301,022	-200,000	0,002	-0,019
-300,008	-101,440	0,093	-0,016
-298,993	-35,702	0,079	0,030
-297,978	-200,000	-0,014	0,060
-296,964	-113,601	0,010	0,001
-295,949	-200,000	0,006	0,121
-294,935	61,575	0,032	0,023
-293,920	330,633	0,055	-0,075
-292,905	43,979	-0,052	-0,034
-291,891	-200,000	0,013	0,059
-290,876	-97,624	0,021	-0,004
-289,862	-133,273	-0,263	0,023
-288,847	8,791	0,060	-0,032
-287,832	633,433	0,059	-0,108
-286,818	282,104	-0,027	-0,035
-285,803	-106,616	0,079	-0,012
-284,789	343,779	-0,039	0,055
-283,774	-200,000	-0,014	-0,047
-282,759	-49,572	0,120	0,040
-281,745	31,305	-0,070	0,043
-280,730	-200,000	-0,017	-0,181
-279,716	-108,921	0,056	-0,008
-278,701	280,435	0,015	-0,019
-277,686	-12,376	-0,095	-0,044
-276,672	-200,000	-0,016	0,079
-275,657	677,257	-0,054	-0,101
-274,643	-200,000	-0,002	0,024
-273,628	-45,902	-0,099	-0,035
-272,613	-118,280	0,141	0,018
-271,599	323,489	0,070	0,096
-270,584	422,921	0,073	0,112
-269,570	30,679	-0,081	0,049
-268,555	355,542	0,066	-0,094
-267,540	800,000	0,022	0,067
-266,526	85,653	-0,139	0,109
-265,511	800,000	-0,037	0,077
-264,497	553,117	0,061	0,106
-263,482	7,566	0,036	0,019
-262,467	-200,000	0,012	-0,077
-261,453	444,285	-0,037	-0,057
-260,438	-200,000	-0,020	0,069
-259,424	328,321	-0,009	-0,012
-258,409	-53,025	0,079	-0,026
-257,395	-143,604	0,060	-0,004
-256,380	-41,726	-0,073	-0,026
-255,365	24,814	0,159	0,094
-254,351	-200,000	-0,021	-0,103
-253,336	214,287	0,082	0,092
-252,322	-0,081	-0,058	0,029
-251,307	800,000	0,010	-0,032
-250,292	-42,397	-0,016	-0,006
-249,278	531,160	-0,033	-0,055
-248,263	-200,000	0,020	0,087
-247,249	-200,000	-0,034	0,136
-246,234	-26,165	0,061	-0,026
-245,219	206,967	-0,019	-0,021
-244,205	80,627	-0,085	-0,066
-243,190	124,240	-0,082	-0,073
-242,176	-200,000	-0,003	0,084
-241,161	-95,787	-0,046	-0,009
-240,146	-200,000	-0,011	0,080
-239,132	29,491	0,056	-0,034
-238,117	632,772	-0,050	0,091
-237,103	16,697	-0,068	0,038
-236,088	-147,049	-0,020	-0,001
-235,073	-23,476	0,035	-0,015
-234,059	318,446	0,025	-0,034
-233,044	164,451	-0,047	-0,047
-232,030	-15,588	-0,099	-0,045
-231,015	-200,000	-0,012	-0,118
-230,000	800,000	-0,033	-0,078
-228,986	-125,836	-0,100	0,011
-227,971	-200,000	-0,015	-0,131
-226,957	-113,209	0,059	0,008
-225,942	-18,593	-0,045	-0,020
-224,927	240,695	0,055	-0,065
-223,913	80,788	-0,078	0,060
-222,898	-110,539	-0,084	-0,012
-221,884	-200,000	-0,001	0,006
-220,869	-37,360	0,090	0,034
-219,855	167,506	0,079	0,080
-218,840	-34,514	0,128	0,050
-217,825	-77,822	-0,102	-0,025
-216,811	143,814	0,034	-0,032
-215,796	-200,000	0,009	-0,087
-214,782	-97,260	0,053	-0,010
-213,767	-95,992	0,051	-0,010
-212,752	-200,000	-0,029	0,216
-211,738	800,000	0,044	-0,126
-210,723	-200,000	-0,002	0,059
-209,709	-147,313	-0,100	-0,006
-208,694	-106,309	-0,124	-0,020
-207,679	16,883	-0,060	0,033
-206,665	582,451	0,088	0,155
-205,650	800,000	0,027	0,074
-204,636	-200,000	0,015	-0,088
-203,621	800,000	-0,012	-0,032
-202,606	-200,000	-0,008	-0,168
-201,592	198,209	-0,097	-0,105
-200,577	-6,825	0,115	-0,055
-199,563	-200,000	0,013	-0,125
-198,548	37,351	-0,072	-0,045
-197,533	-75,111	-0,111	0,028
-196,519	173,111	0,051	-0,052
-195,504	-200,000	-0,007	-0,089
-194,490	137,541	-0,157	-0,146
-193,475	14,159	0,103	0,057
-192,460	-200,000	0,005	-0,034
-191,446	20,315	-0,078	-0,045
-190,431	-31,567	0,077	0,030
-189,417	-200,000	0,006	-0,027
-188,402	190,466	-0,122	-0,131
-187,387	754,966	-0,044	-0,085
-186,373	800,000	-0,023	-0,067
-185,358	-200,000	0,016	-0,071
-184,344	-200,000	-0,034	0,121
-183,329	61,450	0,074	0,052
-182,315	300,717	0,086	0,113
-181,300	800,000	-0,016	-0,050
-180,285	253,344	0,044	-0,053
-179,271	336,831	0,041	-0,057
-178,256	-200,000	-0,010	0,130
-177,242	117,643	0,105	0,092
-176,227	-200,000	0,000	0,070
-175,212	-200,000	-0,004	-0,119
-174,198	800,000	-0,015	-0,046
-173,183	800,000	-0,052	0,114
-172,169	306,810	0,048	-0,064
-171,154	-200,000	0,012	-0,120
-170,139	-44,528	0,062	0,022
-169,125	-200,000	0,032	-0,107
-168,110	141,600	-0,082	0,077
-167,096	393,902	0,022	0,033
-166,081	-86,105	0,093	-0,020
-165,066	-110,070	-0,102	0,015
-164,052	-200,000	-0,046	-0,203
-163,037	86,644	-0,029	-0,023
-162,023	800,000	0,029	0,084
-161,008	-200,000	-0,012	0,099
-159,993	109,323	0,064	0,054
-158,979	-200,000	-0,004	0,047
-157,964	-96,137	0,033	-0,006
-156,950	-200,000	-0,002	-0,111
-155,935	44,971	0,066	-0,043
-154,920	800,000	0,060	-0,131
-153,906	-200,000	-0,015	0,129
-152,891	62,745	0,042	-0,030
-151,877	-186,572	-0,122	0,001
-150,862	-200,000	-0,038	-0,125
-149,847	312,265	-0,069	-0,092
-148,833	-58,686	-0,020	-0,006
-147,818	800,000	0,099	0,206
-146,804	162,322	-0,092	0,092
-145,789	-119,925	0,056	-0,007
-144,775	125,653	0,084	0,075
-143,760	61,870	-0,121	-0,086
-142,745	746,474	0,024	-0,047
-141,731	-200,000	0,030	0,105
-140,716	514,405	-0,024	-0,039
-139,702	125,602	-0,081	-0,072
-138,687	50,715	-0,078	0,052
-137,672	-200,000	-0,023	0,072
-136,658	-200,000	0,025	-0,124
-135,643	800,000	-0,040	-0,103
-134,629	392,230	-0,095	-0,141
-133,614	-111,103	0,046	0,007
-132,599	-200,000	0,027	0,089
-131,585	421,843	0,036	0,054
-130,570	76,866	-0,159	-0,119
-129,556	-200,000	-0,015	-0,180
-128,541	70,014	0,142	-0,103
-127,526	637,529	-0,101	-0,183
-126,512	800,000	-0,009	0,019
-125,497	-104,735	0,107	-0,017
-124,483	-85,667	0,048	0,011
-123,468	-70,598	0,031	0,008
-122,453	411,177	-0,055	-0,083
-121,439	58,555	-0,142	-0,099
-120,424	-200,000	0,021	0,103
-119,410	-78,065	-0,033	-0,008
-118,395	5,476	0,036	0,019
-117,380	-200,000	-0,016	0,171
-116,366	260,747	-0,072	-0,089
-115,351	800,000	0,018	0,036
-114,337	18,148	0,071	-0,040
-113,322	-81,089	0,083	0,019
-112,307	68,986	0,108	-0,079
-111,293	-200,000	-0,020	-0,125
-110,278	-200,000	0,033	0,116
-109,264	179,015	0,061	-0,063
-108,249	320,529	0,071	-0,095
-107,234	-94,790	-0,026	-0,005
-106,220	457,456	-0,039	-0,061
-105,205	-200,000	0,047	0,172
-104,191	-200,000	-0,021	-0,097
-103,176	349,867	0,100	0,141
-102,162	-94,903	0,022	0,004
-101,147	-80,174	-0,139	-0,033
-100,132	-200,000	-0,002	-0,030
-99,118	120,454	0,043	-0,038
-98,103	35,580	0,012	-0,007
-97,089	-136,912	0,051	-0,004
-96,074	-11,611	-0,197	0,091
-95,059	-116,710	0,102	0,013
-94,045	-22,327	-0,146	-0,063
-93,030	800,000	-0,037	-0,113
-92,016	150,699	0,099	0,095
-91,001	-161,927	0,105	0,004
-89,986	86,809	-0,024	0,018
-88,972	213,073	0,028	-0,031
-87,957	800,000	-0,032	0,070
-86,943	800,000	0,023	-0,048
-85,928	-90,107	0,136	-0,028
-84,913	-200,000	0,008	-0,184
-83,899	-200,000	0,001	0,101
-82,884	136,515	-0,017	-0,016
-81,870	-200,000	0,000	0,073
-80,855	269,623	-0,021	0,026
-79,840	-121,555	0,055	0,006
-78,826	245,136	-0,080	-0,096
-77,811	579,110	-0,032	-0,055
-76,797	75,279	-0,039	0,029
-75,782	180,716	0,108	-0,113
-74,767	-36,889	0,143	-0,054
-73,753	800,000	-0,081	-0,176
-72,738	102,510	-0,057	0,047
-71,724	-38,522	-0,073	-0,027
-70,709	800,000	0,018	-0,038
-69,694	-141,140	-0,166	-0,012
-68,680	97,122	0,011	-0,009
-67,665	69,466	-0,077	-0,056
-66,651	303,271	0,096	0,126
-65,636	-70,593	-0,123	-0,033
-64,622	-200,000	0,007	-0,078
-63,607	16,237	-0,147	-0,082
-62,592	-200,000	-0,017	0,055
-61,578	14,466	-0,040	0,022
-60,563	-4,898	0,131	-0,064
-59,549	-85,990	0,020	-0,004
-58,534	3,572	-1,874	-0,963
-57,519	454,861	-1,261	-1,982
-56,505	-200,000	-0,327	-4,498
-55,490	413,754	0,897	1,354
-54,476	800,000	4,926	11,342
-53,461	-200,000	20,173	327,913
-52,446	800,000	752,393	2313,710
-51,432	548,418	1660,402	2821,889
-50,417	74,596	1667,727	1238,464
-49,403	19,768	1540,550	874,426
-48,388	13,745	1462,943	801,159
-47,373	18,872	1453,212	820,484
-46,359	16,506	1442,871	803,317
-45,344	12,047	1438,281	779,443
-44,330	12,005	1436,267	778,123
-43,315	12,012	1434,776	777,314
-42,300	11,958	1433,113	776,129
-41,286	11,981	1431,756	775,470
-40,271	11,933	1430,615	774,593
-39,257	11,961	1429,477	774,079
-38,242	11,978	1428,232	773,456
-37,227	12,008	1426,861	772,827
-36,213	12,003	1425,798	772,193
-35,198	11,988	1424,645	771,468
-34,184	12,056	1423,353	771,063
-33,169	11,980	1422,075	769,979
-32,154	12,024	1420,977	769,561
-31,140	12,026	1419,959	768,989
-30,125	12,095	1418,668	768,585
-29,111	12,071	1417,429	767,767
-28,096	12,011	1416,507	766,957
-27,082	11,971	1415,370	766,123
-26,067	12,024	1414,298	765,762
-25,052	11,998	1413,168	764,995
-24,038	11,960	1412,128	764,225
-23,023	11,974	1411,169	763,743
-22,009	11,942	1410,073	762,968
-20,994	11,907	1409,157	762,278
-19,979	11,909	1408,540	761,925
-18,965	11,905	1407,493	761,307
-17,950	11,915	1406,520	760,797
-16,936	11,922	1405,821	760,423
-15,921	11,878	1404,491	759,470
-14,906	11,863	1403,812	759,000
-13,892	11,889	1402,828	758,562
-12,877	11,833	1402,157	757,907
-11,863	11,869	1401,074	757,456
-10,848	11,836	1400,235	756,820
-9,833	11,799	1399,296	756,110
-8,819	11,772	1398,466	755,509
-7,804	11,771	1397,440	754,918
-6,790	11,786	1396,478	754,440
-5,775	11,768	1395,571	753,833
-4,760	11,773	1394,463	753,228
-3,746	11,776	1393,672	752,786
-2,731	11,762	1392,944	752,300
-1,717	11,679	1392,206	751,484
-0,702	11,740	1390,114	750,610
0,313	15,721	1304,848	722,883
1,327	31,992	697,242	423,516
2,342	49,919	121,431	80,761
3,356	3,029	16,507	8,444
4,371	3,918	3,262	1,678
5,386	11,445	0,615	0,332
6,400	616,445	0,153	0,273
7,415	-62,117	-0,221	-0,065
8,429	68,700	-0,232	-0,168
9,444	242,287	-0,102	-0,121
10,459	624,247	-0,144	-0,257
11,473	26,968	-0,189	-0,112
12,488	-62,650	-0,272	-0,079
13,502	113,070	-0,191	-0,163
14,517	61,660	-0,266	-0,187
15,531	77,535	-0,330	-0,247
16,546	-0,807	-0,359	-0,179
17,561	220,728	-0,280	-0,317
18,575	131,100	-0,160	0,145
19,590	96,566	-0,282	-0,228
20,604	-59,384	-0,297	-0,089
21,619	56,831	-0,524	-0,360
22,634	144,494	-0,448	-0,422
23,648	-9,367	-0,497	-0,233
24,663	132,984	-0,402	-0,366
25,677	28,925	-0,319	-0,190
26,692	-42,390	-0,290	-0,104
27,707	31,547	-0,327	-0,198
28,721	16,816	-0,487	-0,271
29,736	31,029	-0,229	-0,138
30,750	137,757	-0,365	-0,337
31,765	94,747	-0,376	-0,301
32,780	181,172	-0,358	-0,371
33,794	-46,595	-0,386	-0,132
34,809	17,031	-0,313	-0,174
35,823	138,269	-0,401	-0,370
36,838	196,336	-0,314	-0,337
37,853	-53,810	-0,422	-0,135
38,867	204,668	-0,286	-0,313
39,882	800,000	-0,194	-0,416
40,896	99,179	-0,273	-0,222
41,911	55,195	-0,409	-0,278
42,926	-38,974	-0,421	-0,155
43,940	107,852	-0,265	-0,222
44,955	32,372	-0,347	-0,211
45,969	70,682	-0,366	-0,266
46,984	80,443	-0,323	-0,245
47,999	144,812	-0,285	-0,268
49,013	176,419	-0,279	-0,285
50,028	-53,382	-0,270	-0,087
51,042	52,826	-0,326	-0,219
52,057	284,061	-0,297	-0,376
53,071	-4,370	-0,294	-0,142
54,086	5,780	-0,281	-0,146
55,101	137,902	-0,309	-0,284
56,115	-87,949	-0,347	-0,073
57,130	-19,572	-0,496	-0,215
58,144	16,435	-0,463	-0,256
59,159	99,269	-0,373	-0,303
60,174	83,525	-0,356	-0,272
61,188	89,527	-0,335	-0,263
62,203	50,516	-0,344	-0,228
63,217	187,101	-0,287	-0,301
64,232	-19,861	-0,335	-0,145
65,247	170,564	-0,291	-0,293
66,261	20,837	-0,486	-0,276
67,276	31,972	-0,394	-0,238
68,290	128,576	-0,296	-0,265
69,305	21,298	-0,407	-0,232
70,320	-11,886	-0,254	-0,117
71,334	142,007	-0,201	-0,188
72,349	-1,602	-0,355	-0,175
73,363	14,698	-0,419	-0,229
74,378	18,219	-0,347	-0,194
75,393	254,352	-0,185	-0,222
76,407	16,051	-0,351	-0,194
77,422	63,400	-0,270	-0,190
78,436	48,475	-0,288	-0,189
79,451	-90,721	-0,250	-0,050
80,466	27,411	-0,346	-0,204
81,480	147,168	-0,275	-0,260
82,495	-13,331	-0,276	-0,125
83,509	103,392	-0,224	-0,185
84,524	143,444	-0,173	-0,162
85,539	125,768	-0,323	-0,286
86,553	26,629	-0,347	-0,203
87,568	296,314	-0,224	-0,288
88,582	-22,464	-0,364	-0,154
89,597	48,097	-0,311	-0,203
90,611	150,146	-0,247	-0,235
91,626	-55,075	-0,268	-0,084
92,641	-26,949	-0,204	-0,083
93,655	-0,148	-0,384	-0,191
94,670	174,856	-0,292	-0,296
95,684	96,539	-0,367	-0,294
96,699	196,082	-0,272	-0,290
97,714	37,885	-0,274	-0,170
98,728	42,526	-0,358	-0,228
99,743	27,093	-0,273	-0,160
100,757	32,025	-0,316	-0,190
101,772	141,879	-0,297	-0,276
102,787	-114,375	-0,321	-0,043
103,801	164,198	-0,239	-0,236
104,816	7,480	-0,382	-0,199
105,830	-45,039	-0,348	-0,121
106,845	113,022	-0,164	-0,139
107,860	103,076	-0,233	-0,191
108,874	36,698	-0,274	-0,169
109,889	-32,971	-0,379	-0,147
110,903	188,583	-0,320	-0,335
111,918	-92,736	-0,326	-0,063
112,933	-12,110	-0,300	-0,137
113,947	-87,295	-0,313	-0,066
114,962	-11,607	-0,245	-0,112
115,976	181,388	-0,292	-0,301
116,991	22,925	-0,322	-0,184
118,006	-120,297	-0,414	-0,049
119,020	95,721	-0,167	-0,134
120,035	20,877	-0,110	-0,062
121,049	-66,498	-0,343	-0,095
122,064	334,133	-0,179	-0,242
123,079	217,183	-0,263	-0,294
124,093	167,784	-0,184	-0,183
125,108	-40,298	-0,323	-0,117
126,122	-13,496	-0,218	-0,098
127,137	-91,006	-0,182	-0,036
128,151	516,242	-0,142	-0,233
129,166	41,310	-0,245	-0,155
130,181	12,960	-0,190	-0,102
131,195	262,107	-0,229	-0,278
132,210	55,242	-0,360	-0,243
133,224	310,289	-0,149	-0,195
134,239	-21,509	-0,223	-0,094
135,254	105,447	-0,252	-0,207
136,268	-200,000	-0,297	-0,000
137,283	-39,953	-0,121	-0,044
138,297	105,544	-0,338	-0,279
139,312	262,722	-0,216	-0,262
140,327	180,050	-0,221	-0,226
141,341	-62,929	-0,283	-0,081
142,356	-114,354	-0,259	-0,034
143,370	166,006	-0,186	-0,184
144,385	118,698	-0,221	-0,191
145,400	-97,643	-0,213	-0,038
146,414	84,583	-0,298	-0,227
147,429	-6,036	-0,267	-0,127
148,443	226,765	-0,223	-0,253
149,458	-145,292	-0,174	-0,011
150,473	109,751	-0,214	-0,179
151,487	48,409	-0,322	-0,210
152,502	577,161	-0,134	-0,229
153,516	68,642	-0,365	-0,261
154,531	294,893	-0,237	-0,302
155,546	72,481	-0,217	-0,158
156,560	16,293	-0,265	-0,146
157,575	115,979	-0,180	-0,153
158,589	717,751	-0,116	-0,216
159,604	111,939	-0,214	-0,180
160,619	-76,487	-0,335	-0,081
161,633	151,010	-0,277	-0,262
162,648	314,977	-0,139	-0,183
163,662	49,464	-0,126	-0,082
164,677	7,898	-0,097	-0,051
165,692	-20,133	-0,245	-0,105
166,706	-97,304	-0,228	0,041
167,721	189,025	-0,268	-0,279
168,735	-30,698	-0,197	-0,077
169,750	-143,697	-0,258	-0,017
170,764	18,024	-0,168	-0,093
171,779	49,964	-0,253	-0,166
172,794	-168,215	-0,147	-0,004
173,808	-105,924	-0,344	-0,053
174,823	65,127	-0,268	-0,188
175,837	44,732	-0,386	-0,246
176,852	208,590	-0,165	-0,180
177,867	475,731	-0,177	-0,279
178,881	290,802	-0,162	-0,205
179,896	226,234	-0,213	-0,241
180,910	13,888	-0,253	-0,136
181,925	87,774	-0,131	-0,101
182,940	159,169	-0,231	-0,223
183,954	94,708	-0,263	-0,208
184,969	-62,412	-0,251	-0,072
185,983	83,814	-0,195	-0,148
186,998	80,491	-0,199	-0,149
188,013	557,394	-0,148	-0,249
189,027	156,321	-0,253	-0,243
190,042	688,374	-0,105	-0,191
191,056	194,964	-0,226	-0,239
192,071	52,985	-0,129	-0,086
193,086	31,326	-0,302	-0,180
194,100	-167,397	-0,119	-0,003
195,115	-200,000	-0,011	-0,196
196,129	267,783	-0,229	-0,279
197,144	388,299	-0,131	-0,188
198,159	-29,939	-0,252	-0,099
199,173	421,660	-0,136	-0,203
200,188	99,669	-0,142	-0,114
201,202	324,460	-0,088	0,117
202,217	29,926	-0,093	-0,055
203,232	414,411	-0,097	-0,144
204,246	30,383	-0,279	-0,165
205,261	139,324	-0,254	-0,232
206,275	-89,879	-0,185	-0,037
207,290	800,000	-0,065	-0,186
208,304	-61,338	-0,184	-0,053
209,319	79,524	-0,208	-0,155
210,334	-24,809	-0,178	-0,073
211,348	238,468	-0,130	-0,150
212,363	69,540	-0,138	-0,098
213,377	-53,693	-0,120	-0,038
214,392	42,058	-0,234	-0,147
215,407	20,769	-0,261	-0,146
216,421	180,675	-0,178	-0,181
217,436	-9,440	-0,209	-0,096
218,450	82,030	-0,258	-0,193
219,465	455,743	-0,148	-0,228
220,480	-9,547	-0,274	-0,126
221,494	628,484	-0,132	-0,232
222,509	186,942	-0,105	-0,108
223,523	228,403	-0,171	-0,193
224,538	105,064	-0,191	-0,156
225,553	88,454	-0,318	-0,245
226,567	800,000	-0,059	-0,163
227,582	-200,000	-0,075	-0,312
228,596	-109,626	-0,210	-0,030
229,611	79,073	-0,104	-0,077
230,626	168,611	-0,228	-0,225
231,640	-100,385	-0,352	-0,060
232,655	646,434	-0,142	-0,253
233,669	186,560	-0,164	-0,169
234,684	72,686	-0,279	-0,202
235,699	124,903	-0,159	-0,138
236,713	-70,215	-0,209	-0,055
237,728	67,916	-0,198	-0,140
238,742	-17,494	-0,095	0,041
239,757	-200,000	-0,033	-0,133
240,772	85,545	-0,245	-0,186
241,786	97,052	-0,108	-0,085
242,801	-52,023	-0,272	-0,087
243,815	-200,000	-0,197	0,000
244,830	111,990	-0,013	0,011
245,844	-38,919	-0,106	-0,038
246,859	408,651	-0,167	-0,245
247,874	316,015	-0,240	-0,314
248,888	169,343	-0,171	-0,169
249,903	-157,244	-0,176	-0,007
250,917	-200,000	-0,029	-0,181
251,932	-4,627	-0,078	-0,037
252,947	178,290	-0,150	-0,152
253,961	301,181	-0,224	-0,287
254,976	62,500	-0,176	-0,121
255,990	687,746	-0,120	-0,217
257,005	800,000	-0,094	-0,209
258,020	-175,616	-0,183	-0,003
259,034	-46,208	-0,240	-0,081
260,049	24,851	-0,200	-0,114
261,063	-46,757	-0,145	-0,049
262,078	446,731	-0,105	-0,161
263,093	23,504	-0,220	-0,125
264,107	213,007	-0,195	-0,213
265,122	86,108	-0,159	-0,121
266,136	140,180	-0,315	-0,287
267,151	389,019	-0,077	-0,111
268,166	169,620	-0,121	-0,119
269,180	56,632	-0,188	-0,126
270,195	125,192	-0,182	-0,159
271,209	4,919	-0,228	-0,116
272,224	505,597	-0,124	-0,199
273,239	146,020	-0,149	-0,138
274,253	-157,269	-0,195	-0,008
275,268	196,804	-0,216	-0,228
276,282	206,468	-0,170	-0,183
277,297	104,164	-0,208	-0,169
278,312	-46,379	-0,174	-0,059
279,326	-160,754	-0,184	-0,007
280,341	-34,064	-0,175	-0,066
281,355	25,797	-0,155	-0,089
282,370	87,445	-0,175	-0,133
283,384	143,704	-0,243	-0,223
284,399	423,949	-0,100	-0,149
285,414	665,083	-0,090	-0,162
286,428	173,994	-0,162	-0,161
287,443	-35,382	-0,185	-0,069
288,457	-118,183	-0,125	0,015
289,472	-27,831	-0,115	-0,046
290,487	-20,462	-0,219	-0,092
291,501	800,000	-0,101	-0,206
292,516	-76,572	-0,203	-0,049
293,530	-40,573	-0,198	-0,071
294,545	-153,274	-0,107	-0,005
295,560	-136,943	-0,115	0,009
296,574	-60,158	-0,082	-0,024
297,589	-43,533	-0,148	-0,051
298,603	-12,637	-0,192	-0,086
299,618	-200,000	-0,006	-0,089
300,633	800,000	-0,087	-0,206
301,647	166,880	-0,105	-0,103
302,662	118,878	-0,130	-0,110
303,676	291,775	-0,099	-0,124
304,691	339,904	-0,164	-0,220
305,706	86,283	-0,207	-0,157
306,720	79,659	-0,176	-0,130
307,735	-59,801	-0,185	-0,054
308,749	169,603	-0,145	-0,142
309,764	-71,190	-0,120	-0,031
310,779	-76,040	-0,079	0,019
311,793	69,841	-0,181	-0,128
312,808	-100,306	-0,139	0,024
313,822	-69,139	-0,229	-0,060
314,837	393,413	-0,101	-0,145
315,852	-200,000	-0,060	-0,206
316,866	280,827	-0,186	-0,230
317,881	-53,652	-0,285	-0,089
318,895	206,768	-0,191	-0,205
319,910	-200,000	0,005	-0,107
320,925	-200,000	0,005	-0,105
321,939	57,040	-0,125	-0,083
322,954	-28,711	-0,141	-0,055
323,968	800,000	-0,078	-0,194
324,983	165,211	-0,170	-0,165
325,997	36,209	-0,069	0,042
327,012	297,974	-0,084	-0,107
328,027	190,559	-0,136	-0,140
329,041	800,000	-0,118	-0,305
330,056	-12,548	-0,112	-0,050
331,070	494,957	-0,141	-0,223
332,085	-162,008	-0,206	0,007
333,100	-153,907	-0,249	0,011
334,114	626,212	-0,123	-0,214
335,129	200,463	-0,178	-0,188
336,143	-37,316	-0,086	-0,031
337,158	-200,000	-0,020	-0,060
338,173	-114,109	-0,167	-0,022
339,187	50,176	-0,124	-0,080
340,202	-82,637	-0,165	0,036
341,216	-32,501	-0,169	-0,064
342,231	-116,428	-0,219	-0,027
343,246	-96,883	-0,099	-0,018
344,260	-64,000	-0,147	-0,041
345,275	20,051	-0,072	0,040
346,289	10,418	-0,133	-0,069
347,304	800,000	-0,099	-0,266
348,319	600,880	-0,090	-0,154
349,333	697,598	-0,051	-0,093
350,348	478,284	-0,140	-0,217
351,362	77,179	-0,085	-0,062
352,377	-12,094	-0,124	-0,055
353,392	-62,885	-0,233	-0,066
354,406	236,930	-0,159	-0,180
355,421	206,787	1312,436	1402,157
356,435	159,049	1472,864	1402,648
