DTS Sentinel unit serial number:	SN410029Multiplexer serial number:	ORYXHardware model number:	OX2-SRSoftware version number:	ORYX F/W v4,00 Oryx Data Collector v3.7.2.0data status	okinstallation	B3 Nyhavnadifferential loss correction	single-endedforward channel	channel 1reverse channel	N/Adate	2023/12/01time	03:22:30forward acquisition time	300,00reverse acquisition time	0,00gamma	499,1914k internal	0,3212k external	0,3212temperature offset calibration	1,0000default loss term (dB/km)	0,3820temperature slope calibration	1,0000multiplexer offset coefficient	1,0000multiplexer slope coefficient	1,0000fibre end	0,00T internal ref (°C)	8,34T ext. ref 1 (°C)	-6,91T ext. ref 2 (°C)	-7,03length (m)	temperature (°C)	Stokes	anti-Stokes-744,400	101,642	-0,193	-0,163
-743,385	800,000	-0,093	0,198
-742,371	-200,000	-0,026	-0,119
-741,356	-200,000	-0,097	0,370
-740,342	49,630	-0,207	-0,141
-739,327	699,852	-0,101	0,193
-738,312	-200,000	-0,070	-0,285
-737,298	800,000	-0,097	0,251
-736,283	-69,824	-0,230	-0,063
-735,269	-200,000	0,025	0,108
-734,254	226,593	-0,198	-0,233
-733,239	-119,881	-0,223	0,027
-732,225	800,000	-0,103	-0,214
-731,210	-8,130	0,044	0,022
-730,196	-91,775	-0,033	-0,007
-729,181	-19,895	-0,116	0,052
-728,167	800,000	-0,054	0,119
-727,152	745,263	0,069	-0,136
-726,137	-85,858	-0,209	-0,047
-725,123	575,072	-0,056	0,100
-724,108	-200,000	-0,005	-0,047
-723,094	200,535	-0,117	-0,131
-722,079	800,000	-0,070	-0,211
-721,064	19,846	0,092	-0,053
-720,050	-156,075	-0,094	-0,004
-719,035	617,454	0,035	-0,064
-718,021	376,077	0,033	0,049
-717,006	-33,539	-0,165	-0,066
-715,991	261,285	-0,076	-0,095
-714,977	-71,767	-0,163	-0,044
-713,962	-200,000	-0,001	0,084
-712,948	-200,000	0,022	-0,089
-711,933	5,420	0,061	0,032
-710,918	87,539	-0,035	-0,028
-709,904	800,000	-0,000	-0,001
-708,889	-200,000	0,001	-0,021
-707,875	-119,668	-0,126	-0,016
-706,860	153,077	0,097	0,096
-705,845	800,000	0,040	0,095
-704,831	-190,563	0,059	0,000
-703,816	-90,996	-0,088	-0,018
-702,802	-76,569	-0,149	-0,038
-701,787	-138,242	-0,099	-0,008
-700,772	209,479	-0,070	-0,080
-699,758	-72,294	-0,075	0,020
-698,743	293,225	0,078	-0,104
-697,729	800,000	-0,037	0,096
-696,714	7,076	-0,078	0,042
-695,699	110,952	-0,042	-0,036
-694,685	-113,831	-0,232	0,032
-693,670	-79,081	-0,090	0,022
-692,656	800,000	-0,029	-0,069
-691,641	-98,134	0,079	-0,015
-690,627	-60,505	0,048	-0,015
-689,612	-200,000	-0,009	-0,107
-688,597	-66,093	-0,144	-0,041
-687,583	-200,000	-0,009	-0,133
-686,568	255,564	-0,103	-0,128
-685,554	800,000	-0,016	0,032
-684,539	350,074	0,066	-0,094
-683,524	800,000	0,033	-0,098
-682,510	170,539	-0,093	-0,097
-681,495	347,762	0,023	0,033
-680,481	800,000	0,009	-0,018
-679,466	-115,021	-0,053	0,007
-678,451	-200,000	0,009	-0,078
-677,437	196,270	0,062	-0,068
-676,422	-73,016	0,102	0,027
-675,408	-180,020	-0,088	-0,001
-674,393	-31,965	-0,010	-0,004
-673,378	-1,024	0,037	0,019
-672,364	-200,000	-0,006	-0,118
-671,349	-45,399	-0,059	-0,021
-670,335	-49,037	0,074	-0,025
-669,320	656,613	-0,048	0,089
-668,305	99,014	0,051	-0,042
-667,291	-2,068	-0,012	0,006
-666,276	135,792	-0,097	-0,091
-665,262	-94,176	-0,075	0,015
-664,247	-200,000	-0,029	-0,137
-663,232	-22,549	-0,129	0,056
-662,218	-200,000	-0,002	0,027
-661,203	-200,000	-0,009	0,100
-660,189	-155,926	-0,039	0,002
-659,174	15,597	-0,104	0,059
-658,159	194,010	-0,147	-0,161
-657,145	-200,000	-0,012	-0,175
-656,130	800,000	0,050	-0,103
-655,116	9,409	0,077	0,042
-654,101	-3,918	-0,095	0,047
-653,086	15,888	-0,062	-0,035
-652,072	-144,069	-0,036	0,002
-651,057	7,690	-0,048	-0,026
-650,043	-12,637	-0,107	-0,050
-649,028	36,386	0,107	-0,068
-648,014	-108,222	0,106	0,016
-646,999	15,931	0,040	0,023
-645,984	124,861	0,068	-0,062
-644,970	11,497	-0,106	0,059
-643,955	179,025	-0,039	-0,041
-642,941	-200,000	0,000	-0,081
-641,926	24,023	0,018	0,011
-640,911	-36,828	-0,061	0,023
-639,897	-9,456	-0,062	-0,030
-638,882	-33,576	0,095	-0,038
-637,868	-200,000	-0,009	-0,053
-636,853	800,000	-0,037	-0,078
-635,838	-200,000	0,010	-0,120
-634,824	800,000	0,047	-0,098
-633,809	476,997	0,050	0,081
-632,795	-200,000	-0,008	0,079
-631,780	-150,251	0,004	0,000
-630,765	-200,000	-0,002	0,011
-629,751	-62,102	-0,179	0,054
-628,736	7,845	-0,092	-0,049
-627,722	-200,000	0,041	0,135
-626,707	99,254	0,091	-0,076
-625,692	212,588	-0,034	-0,039
-624,678	-200,000	0,019	0,127
-623,663	78,578	0,016	0,012
-622,649	730,939	-0,066	-0,127
-621,634	800,000	0,043	-0,094
-620,619	800,000	0,042	0,118
-619,605	243,415	0,031	-0,037
-618,590	464,546	0,025	0,040
-617,576	-200,000	0,028	-0,176
-616,561	-58,138	-0,086	0,027
-615,546	166,197	-0,089	-0,091
-614,532	800,000	0,027	-0,078
-613,517	-200,000	-0,028	0,123
-612,503	182,225	-0,047	0,050
-611,488	31,078	-0,031	-0,019
-610,474	-200,000	0,018	0,090
-609,459	800,000	0,024	-0,055
-608,444	-121,879	-0,155	-0,018
-607,430	115,225	0,034	-0,030
-606,415	95,257	-0,121	-0,099
-605,401	255,221	0,105	-0,130
-604,386	62,459	-0,077	0,055
-603,371	393,678	-0,020	0,030
-602,357	-44,673	-0,080	-0,029
-601,342	77,617	0,105	-0,081
-600,328	-88,815	-0,180	-0,038
-599,313	23,761	0,073	0,043
-598,298	-100,044	-0,098	0,017
-597,284	-200,000	0,001	-0,163
-596,269	163,786	0,010	-0,010
-595,255	-40,708	0,082	-0,030
-594,240	-200,000	0,001	0,015
-593,225	107,556	-0,078	-0,067
-592,211	-84,826	-0,141	-0,032
-591,196	148,236	-0,013	0,013
-590,182	-120,648	0,131	-0,016
-589,167	579,841	0,035	0,063
-588,152	61,217	0,079	-0,057
-587,138	366,843	0,008	-0,011
-586,123	-112,606	-0,035	0,005
-585,109	-15,746	0,066	0,030
-584,094	140,218	0,008	-0,007
-583,079	-200,000	0,011	0,043
-582,065	46,103	0,025	0,016
-581,050	290,456	-0,083	0,109
-580,036	99,296	-0,025	0,021
-579,021	-76,754	0,139	-0,035
-578,006	610,943	-0,053	-0,095
-576,992	502,594	0,041	-0,069
-575,977	-200,000	-0,034	-0,210
-574,963	-200,000	0,006	0,092
-573,948	367,420	0,126	-0,184
-572,934	-150,411	0,063	-0,003
-571,919	-200,000	0,000	-0,020
-570,904	476,003	-0,027	-0,044
-569,890	699,886	-0,019	-0,036
-568,875	-200,000	-0,012	-0,154
-567,861	-200,000	-0,000	0,054
-566,846	-153,835	-0,038	-0,002
-565,831	342,912	0,046	-0,064
-564,817	-161,032	-0,020	-0,001
-563,802	800,000	-0,042	-0,093
-562,788	51,247	-0,210	-0,143
-561,773	-142,155	-0,191	-0,013
-560,758	-97,202	0,038	-0,007
-559,744	-168,262	-0,066	0,002
-558,729	446,375	-0,046	0,073
-557,715	-39,447	-0,109	0,041
-556,700	4,605	-0,049	-0,026
-555,685	116,610	-0,114	-0,101
-554,671	120,734	0,167	-0,149
-553,656	25,551	0,073	-0,044
-552,642	17,500	0,032	-0,018
-551,627	-48,051	0,089	-0,031
-550,612	-2,692	-0,077	-0,039
-549,598	277,768	-0,036	-0,046
-548,583	-129,299	0,008	0,001
-547,569	127,936	0,055	-0,051
-546,554	643,581	-0,017	0,031
-545,539	-123,383	0,025	0,003
-544,525	-90,935	0,056	0,011
-543,510	557,130	-0,034	-0,059
-542,496	-13,732	-0,093	-0,043
-541,481	-200,000	-0,015	0,131
-540,466	800,000	-0,037	-0,089
-539,452	-49,795	0,081	0,028
-538,437	515,426	-0,056	0,094
-537,423	-76,809	-0,025	0,006
-536,408	313,822	-0,061	-0,083
-535,393	-63,822	-0,041	-0,012
-534,379	265,728	-0,067	-0,084
-533,364	800,000	-0,009	-0,018
-532,350	-200,000	-0,002	0,010
-531,335	800,000	0,041	0,111
-530,321	-30,546	-0,162	0,066
-529,306	-9,435	-0,090	-0,043
-528,291	-169,955	-0,029	-0,001
-527,277	160,831	0,105	-0,105
-526,262	-145,400	0,106	-0,007
-525,248	373,869	0,020	0,029
-524,233	229,193	-0,077	0,091
-523,218	800,000	0,021	-0,042
-522,204	313,292	0,046	-0,063
-521,189	125,901	-0,083	0,075
-520,175	-200,000	-0,008	0,066
-519,160	228,112	-0,134	-0,157
-518,145	-54,000	-0,105	0,034
-517,131	120,044	0,023	-0,021
-516,116	420,762	0,049	-0,076
-515,102	-176,695	0,188	-0,003
-514,087	239,066	-0,037	-0,044
-513,072	229,213	-0,083	0,097
-512,058	533,144	-0,078	0,133
-511,043	132,442	-0,039	-0,036
-510,029	244,713	-0,063	-0,076
-509,014	487,304	-0,095	0,156
-507,999	30,930	0,102	-0,063
-506,985	383,908	0,062	0,092
-505,970	-158,877	-0,080	-0,003
-504,956	-86,522	0,137	-0,030
-503,941	316,764	0,063	0,086
-502,926	-81,073	0,057	0,013
-501,912	800,000	0,064	0,185
-500,897	5,432	0,053	0,028
-499,883	611,045	-0,027	0,049
-498,868	139,694	-0,052	-0,049
-497,853	-200,000	-0,013	0,127
-496,839	-11,725	0,072	-0,034
-495,824	396,042	0,066	-0,099
-494,810	-161,873	0,181	0,006
-493,795	-200,000	0,008	0,085
-492,781	52,010	-0,042	-0,029
-491,766	29,975	0,120	-0,073
-490,751	0,323	-0,062	0,032
-489,737	-44,834	-0,054	0,019
-488,722	195,591	0,031	0,034
-487,708	99,574	0,109	0,091
-486,693	93,061	0,163	0,132
-485,678	-185,457	0,008	0,000
-484,664	-38,351	-0,108	-0,041
-483,649	-65,955	0,037	-0,011
-482,635	14,121	0,104	-0,058
-481,620	800,000	0,033	-0,075
-480,605	-200,000	-0,028	0,093
-479,591	-24,696	0,060	-0,026
-478,576	-118,381	-0,057	0,007
-477,562	800,000	-0,024	0,063
-476,547	74,327	-0,109	-0,082
-475,532	800,000	-0,027	0,075
-474,518	268,359	0,072	-0,090
-473,503	-200,000	-0,006	0,044
-472,489	-200,000	0,003	0,071
-471,474	-200,000	0,001	0,034
-470,459	-138,852	-0,097	-0,007
-469,445	-200,000	0,005	-0,074
-468,430	-174,565	-0,061	-0,001
-467,416	800,000	0,054	-0,154
-466,401	-200,000	0,004	0,056
-465,386	-91,726	0,076	0,015
-464,372	-200,000	-0,023	0,093
-463,357	-200,000	0,016	0,057
-462,343	-200,000	-0,008	-0,029
-461,328	556,049	-0,019	0,032
-460,313	274,550	0,111	0,142
-459,299	18,394	-0,049	-0,028
-458,284	-71,616	-0,058	0,015
-457,270	-98,019	0,073	0,013
-456,255	140,226	0,090	0,085
-455,241	-200,000	0,013	0,138
-454,226	800,000	-0,046	-0,100
-453,211	800,000	-0,034	0,072
-452,197	-200,000	-0,009	-0,030
-451,182	40,609	-0,045	-0,029
-450,168	-163,348	0,144	0,005
-449,153	-200,000	0,003	-0,096
-448,138	-200,000	-0,041	-0,131
-447,124	-127,708	0,103	0,010
-446,109	305,172	-0,023	0,031
-445,095	800,000	0,063	0,160
-444,080	-200,000	0,002	0,132
-443,065	-134,150	0,081	0,007
-442,051	-66,366	0,142	-0,040
-441,036	-85,310	-0,140	0,031
-440,022	-200,000	-0,003	0,026
-439,007	-125,006	-0,067	0,007
-437,992	179,673	0,062	0,065
-436,978	-62,336	0,097	0,029
-435,963	-200,000	-0,033	0,135
-434,949	245,071	0,104	0,126
-433,934	-52,133	-0,077	-0,026
-432,919	-12,261	0,120	0,056
-431,905	499,153	-0,059	-0,098
-430,890	538,245	-0,006	-0,011
-429,876	292,411	0,067	0,087
-428,861	-39,330	-0,135	0,051
-427,846	-31,486	-0,108	-0,043
-426,832	800,000	0,038	-0,108
-425,817	-200,000	-0,008	-0,029
-424,803	-55,543	-0,002	-0,001
-423,788	181,235	0,063	-0,067
-422,773	-200,000	-0,014	0,122
-421,759	-200,000	0,000	0,056
-420,744	425,153	-0,040	0,062
-419,730	656,649	-0,018	-0,034
-418,715	-200,000	0,014	0,114
-417,701	-27,916	-0,019	-0,008
-416,686	-18,307	-0,019	-0,008
-415,671	-76,579	0,076	0,019
-414,657	43,798	-0,055	0,036
-413,642	-104,498	-0,083	-0,014
-412,628	-36,875	-0,082	-0,031
-411,613	457,157	-0,055	0,088
-410,598	-14,836	0,123	-0,056
-409,584	313,231	-0,052	0,070
-408,569	115,535	-0,038	0,033
-407,555	-200,000	0,016	0,056
-406,540	800,000	-0,048	0,120
-405,525	140,261	0,119	-0,112
-404,511	216,713	-0,118	-0,134
-403,496	-200,000	-0,009	0,050
-402,482	-25,885	0,109	-0,046
-401,467	43,573	-0,056	-0,037
-400,452	31,170	0,083	-0,051
-399,438	93,331	0,065	0,053
-398,423	240,771	-0,091	0,108
-397,409	-200,000	-0,024	-0,093
-396,394	-43,585	-0,119	0,043
-395,379	-90,053	0,063	-0,013
-394,365	128,067	-0,072	0,066
-393,350	25,436	0,041	0,024
-392,336	3,477	-0,133	0,069
-391,321	-28,191	-0,079	0,032
-390,306	800,000	0,070	-0,158
-389,292	800,000	-0,056	-0,149
-388,277	157,920	0,022	-0,022
-387,263	465,682	-0,031	-0,049
-386,248	-51,676	-0,124	-0,041
-385,233	-200,000	-0,004	-0,032
-384,219	-28,640	0,179	-0,073
-383,204	-143,467	-0,041	-0,003
-382,190	-103,434	-0,092	0,015
-381,175	-200,000	0,034	0,129
-380,160	-200,000	0,039	0,128
-379,146	188,108	0,059	-0,063
-378,131	-61,104	0,059	0,018
-377,117	-131,425	0,057	-0,005
-376,102	-115,303	-0,073	0,010
-375,088	-57,398	0,021	0,007
-374,073	-200,000	-0,013	0,084
-373,058	800,000	-0,026	0,082
-372,044	25,115	0,031	0,018
-371,029	499,734	0,092	0,152
-370,015	-200,000	-0,004	0,080
-369,000	-200,000	-0,006	-0,047
-367,985	-132,154	-0,030	-0,003
-366,971	800,000	0,022	-0,068
-365,956	438,707	0,059	-0,092
-364,942	-144,400	-0,005	-0,000
-363,927	12,375	0,140	0,077
-362,912	30,925	-0,134	-0,082
-361,898	-200,000	-0,012	-0,040
-360,883	7,832	0,044	0,024
-359,869	54,389	-0,193	-0,133
-358,854	147,006	-0,114	0,110
-357,839	-200,000	-0,004	0,030
-356,825	-164,379	-0,083	0,003
-355,810	-200,000	0,014	-0,080
-354,796	71,372	0,122	-0,090
-353,781	-140,450	-0,208	-0,015
-352,766	-102,123	0,126	-0,022
-351,752	529,439	0,049	0,083
-350,737	239,171	0,038	0,045
-349,723	289,077	0,065	0,084
-348,708	-148,973	0,078	0,004
-347,693	-55,482	0,075	0,024
-346,679	-13,378	-0,126	-0,058
-345,664	126,960	0,151	-0,136
-344,650	-73,663	0,030	0,008
-343,635	121,700	0,083	0,074
-342,620	-117,734	0,052	-0,007
-341,606	742,511	-0,053	0,102
-340,591	2,738	-0,151	-0,078
-339,577	32,527	-0,015	0,009
-338,562	-200,000	0,023	-0,081
-337,548	0,562	0,101	0,051
-336,533	-200,000	-0,020	0,104
-335,518	-200,000	0,037	0,122
-334,504	422,991	-0,062	0,095
-333,489	-200,000	-0,021	0,076
-332,475	263,265	-0,012	0,015
-331,460	-47,115	0,170	-0,059
-330,445	62,785	-0,033	-0,024
-329,431	246,396	-0,072	-0,087
-328,416	-200,000	0,019	0,161
-327,402	-200,000	-0,026	-0,153
-326,387	-200,000	0,060	0,215
-325,372	211,827	0,034	-0,038
-324,358	-191,818	-0,091	0,001
-323,343	-53,048	0,165	0,054
-322,329	-200,000	0,003	-0,063
-321,314	25,202	-0,054	-0,032
-320,299	800,000	0,021	0,047
-319,285	-9,305	0,039	0,018
-318,270	24,568	0,056	0,033
-317,256	753,802	-0,052	-0,101
-316,241	-78,296	0,165	-0,040
-315,226	273,646	-0,057	0,072
-314,212	-51,432	-0,107	-0,035
-313,197	24,544	0,018	-0,010
-312,183	20,031	0,127	0,073
-311,168	-21,203	0,076	-0,033
-310,153	204,499	0,021	0,023
-309,139	800,000	-0,024	-0,076
-308,124	708,053	0,025	0,047
-307,110	-200,000	-0,010	-0,093
-306,095	290,053	0,058	0,075
-305,080	6,423	0,043	0,022
-304,066	-200,000	-0,029	-0,134
-303,051	-86,158	-0,060	0,013
-302,037	-80,027	-0,019	0,005
-301,022	-200,000	-0,022	-0,120
-300,008	-12,645	0,115	0,053
-298,993	134,467	0,050	-0,046
-297,978	-19,179	0,068	0,030
-296,964	-54,994	-0,045	0,014
-295,949	26,870	-0,079	-0,047
-294,935	197,096	0,072	-0,078
-293,920	800,000	-0,045	-0,122
-292,905	333,297	0,030	-0,041
-291,891	191,774	-0,126	0,135
-290,876	-45,008	-0,090	-0,032
-289,862	-200,000	-0,005	0,169
-288,847	640,656	-0,063	-0,115
-287,832	-200,000	-0,003	-0,025
-286,818	-200,000	-0,004	0,069
-285,803	484,802	0,065	0,105
-284,789	496,892	0,024	0,040
-283,774	503,874	0,065	0,108
-282,759	254,805	-0,152	0,186
-281,745	489,739	-0,082	-0,133
-280,730	-165,249	0,071	0,002
-279,716	44,060	-0,151	0,099
-278,701	269,244	0,088	-0,111
-277,686	-200,000	-0,002	0,092
-276,672	-200,000	0,028	0,118
-275,657	800,000	0,026	-0,060
-274,643	-64,350	-0,117	-0,034
-273,628	800,000	-0,076	-0,221
-272,613	-42,025	0,027	0,010
-271,599	-120,340	0,080	-0,010
-270,584	-28,062	-0,091	-0,037
-269,570	-133,312	0,136	0,012
-268,555	-14,097	0,042	0,019
-267,540	-120,353	-0,110	-0,013
-266,526	-108,184	0,109	-0,017
-265,511	-200,000	0,028	-0,120
-264,497	-200,000	-0,009	0,105
-263,482	-200,000	0,022	0,205
-262,467	170,460	0,082	0,083
-261,453	90,480	-0,061	0,049
-260,438	800,000	0,019	0,040
-259,424	-71,731	-0,105	-0,028
-258,409	-33,596	0,085	0,033
-257,395	-200,000	-0,029	-0,239
-256,380	-41,019	0,045	-0,016
-255,365	458,842	0,028	0,045
-254,351	136,634	0,018	-0,017
-253,336	800,000	0,013	-0,032
-252,322	-11,780	-0,143	-0,066
-251,307	800,000	0,021	0,055
-250,292	148,862	0,061	0,058
-249,278	-200,000	-0,001	0,100
-248,263	118,760	0,136	0,119
-247,249	250,173	-0,100	-0,121
-246,234	-200,000	-0,006	0,197
-245,219	800,000	-0,061	-0,134
-244,205	-200,000	0,004	-0,112
-243,190	-156,804	-0,090	0,004
-242,176	144,209	0,077	0,073
-241,161	66,375	0,021	0,015
-240,146	-130,071	0,029	-0,003
-239,132	-200,000	-0,009	-0,035
-238,117	-200,000	-0,008	-0,167
-237,103	412,464	0,138	-0,209
-236,088	800,000	0,015	-0,044
-235,073	-121,373	0,128	-0,015
-234,059	486,585	0,065	0,106
-233,044	-200,000	-0,016	0,055
-232,030	-88,601	-0,220	-0,046
-231,015	800,000	-0,026	-0,075
-230,000	-35,193	-0,068	-0,026
-228,986	-21,527	-0,086	0,037
-227,971	800,000	0,016	0,044
-226,957	-200,000	-0,029	0,167
-225,942	-6,643	-0,170	0,082
-224,927	391,145	-0,067	0,100
-223,913	-12,017	-0,069	-0,032
-222,898	129,111	0,038	-0,034
-221,884	-200,000	0,017	0,053
-220,869	-75,131	0,132	0,033
-219,855	39,379	0,085	-0,054
-218,840	147,870	0,113	0,109
-217,825	-200,000	0,005	-0,129
-216,811	-154,094	0,021	-0,001
-215,796	-200,000	0,014	-0,102
-214,782	-200,000	-0,009	-0,090
-213,767	176,835	-0,057	0,059
-212,752	-113,560	0,141	0,019
-211,738	-200,000	-0,002	0,023
-210,723	-200,000	-0,011	0,151
-209,709	89,464	-0,041	0,032
-208,694	217,924	-0,110	-0,125
-207,679	120,380	-0,111	-0,098
-206,665	99,910	0,063	0,051
-205,650	-47,530	0,090	-0,031
-204,636	-200,000	0,017	-0,064
-203,621	126,758	0,045	-0,040
-202,606	-200,000	0,012	0,056
-201,592	28,080	-0,043	-0,026
-200,577	-109,292	-0,063	-0,009
-199,563	190,650	-0,107	-0,115
-198,548	-33,366	0,081	0,032
-197,533	-193,584	0,131	0,001
-196,519	-108,248	-0,055	-0,008
-195,504	179,288	-0,029	-0,030
-194,490	248,165	-0,053	-0,064
-193,475	-200,000	0,003	-0,039
-192,460	-30,886	0,156	-0,062
-191,446	800,000	-0,027	0,069
-190,431	-200,000	-0,032	0,127
-189,417	132,719	0,083	-0,076
-188,402	-85,734	-0,054	0,012
-187,387	-44,327	-0,047	-0,017
-186,373	577,440	-0,049	0,085
-185,358	800,000	-0,027	0,059
-184,344	-87,623	0,130	-0,028
-183,329	25,539	0,081	0,048
-182,315	47,802	0,025	-0,016
-181,300	68,451	-0,103	0,075
-180,285	800,000	-0,012	-0,031
-179,271	-200,000	-0,027	-0,136
-178,256	389,954	0,034	-0,050
-177,242	800,000	-0,048	0,131
-176,227	108,939	0,114	0,097
-175,212	118,699	-0,069	-0,060
-174,198	-35,230	0,088	-0,034
-173,183	270,622	-0,166	-0,208
-172,169	-119,951	0,123	-0,015
-171,154	800,000	0,023	-0,052
-170,139	-132,097	-0,040	-0,004
-169,125	4,224	-0,062	0,032
-168,110	-13,570	-0,054	0,025
-167,096	800,000	0,008	0,024
-166,081	541,043	0,066	-0,112
-165,066	4,586	0,125	0,065
-164,052	29,935	-0,123	-0,074
-163,037	-200,000	-0,020	0,065
-162,023	-200,000	-0,026	0,180
-161,008	-200,000	-0,003	0,090
-159,993	714,836	0,070	0,132
-158,979	49,275	0,038	-0,025
-157,964	-200,000	0,009	-0,050
-156,950	-90,132	-0,050	0,010
-155,935	26,680	0,022	-0,013
-154,920	-120,533	-0,035	0,004
-153,906	-200,000	0,010	-0,075
-152,891	-200,000	-0,073	0,233
-151,877	-128,413	-0,015	0,001
-150,862	800,000	-0,084	0,188
-149,847	-200,000	0,033	-0,133
-148,833	-200,000	-0,013	-0,129
-147,818	491,592	0,014	-0,023
-146,804	249,160	-0,035	-0,043
-145,789	-84,050	-0,122	0,027
-144,775	315,059	0,056	-0,074
-143,760	-200,000	-0,045	-0,206
-142,745	800,000	-0,020	-0,056
-141,731	-200,000	0,018	0,094
-140,716	596,935	0,087	0,153
-139,702	90,707	0,017	0,014
-138,687	-200,000	-0,028	0,108
-137,672	98,440	-0,020	0,016
-136,658	-113,293	-0,117	-0,016
-135,643	-104,869	-0,046	0,007
-134,629	-200,000	0,041	-0,144
-133,614	-127,578	0,099	-0,010
-132,599	-99,018	0,027	-0,005
-131,585	800,000	0,037	-0,092
-130,570	622,813	0,053	-0,095
-129,556	800,000	-0,043	0,093
-128,541	127,783	0,034	0,030
-127,526	-59,696	0,005	0,002
-126,512	261,322	0,027	0,033
-125,497	182,743	-0,052	0,054
-124,483	-200,000	-0,005	0,042
-123,468	622,813	0,078	-0,139
-122,453	69,298	-0,179	-0,130
-121,439	-41,185	-0,081	-0,029
-120,424	-200,000	0,001	-0,119
-119,410	216,728	0,026	-0,029
-118,395	-200,000	-0,014	0,073
-117,380	96,637	0,086	0,069
-116,366	323,109	0,062	0,084
-115,351	71,476	-0,083	-0,061
-114,337	325,985	-0,063	-0,086
-113,322	623,091	-0,062	-0,111
-112,307	76,492	0,098	0,073
-111,293	107,014	0,009	-0,008
-110,278	144,091	0,127	0,120
-109,264	-1,522	0,075	-0,038
-108,249	13,730	-0,034	0,018
-107,234	-200,000	-0,013	0,128
-106,220	-137,477	-0,100	-0,008
-105,205	236,080	0,013	0,015
-104,191	-86,826	0,158	-0,034
-103,176	210,844	-0,077	-0,085
-102,162	297,068	-0,044	-0,057
-101,147	-73,442	0,112	0,029
-100,132	-95,139	-0,106	-0,020
-99,118	800,000	0,056	0,128
-98,103	800,000	-0,025	0,062
-97,089	-200,000	0,023	0,088
-96,074	-200,000	-0,002	0,014
-95,059	800,000	-0,032	0,081
-94,045	-200,000	0,003	-0,020
-93,030	-200,000	-0,004	-0,037
-92,016	-138,761	-0,158	0,012
-91,001	108,893	-0,026	-0,022
-89,986	244,632	-0,123	-0,146
-88,972	-104,906	0,115	-0,018
-87,957	163,266	-0,022	0,022
-86,943	-50,701	0,133	0,044
-85,928	10,483	-0,080	0,043
-84,913	-12,821	-0,014	-0,006
-83,899	-200,000	-0,016	-0,132
-82,884	800,000	0,015	-0,038
-81,870	593,673	0,014	0,024
-80,855	117,697	0,046	-0,040
-79,840	-147,349	-0,166	-0,010
-78,826	-92,115	0,086	-0,017
-77,811	-4,627	-0,102	-0,050
-76,797	-152,908	0,049	-0,002
-75,782	-106,957	-0,096	0,015
-74,767	-200,000	-0,001	-0,064
-73,753	-88,025	-0,101	-0,021
-72,738	-97,725	-0,018	0,003
-71,724	-200,000	0,006	-0,045
-70,709	-45,871	-0,049	0,017
-69,694	10,809	0,059	0,032
-68,680	138,859	0,056	-0,052
-67,665	-83,138	0,111	-0,025
-66,651	32,036	-0,133	0,081
-65,636	72,287	0,117	-0,086
-64,622	-30,839	-0,141	0,056
-63,607	461,557	-0,100	-0,158
-62,592	382,946	-0,070	-0,102
-61,578	800,000	0,028	0,056
-60,563	-17,087	0,065	0,029
-59,549	800,000	-0,030	0,091
-58,534	52,142	-2,109	-1,416
-57,519	601,148	-1,039	-1,830
-56,505	-200,000	-0,474	-4,705
-55,490	773,003	0,762	1,474
-54,476	800,000	5,402	12,092
-53,461	-200,000	22,301	345,606
-52,446	800,000	757,851	2303,691
-51,432	536,950	1647,227	2770,549
-50,417	68,711	1645,528	1190,012
-49,403	16,017	1522,365	843,699
-48,388	10,173	1447,929	774,345
-47,373	19,310	1440,165	813,744
-46,359	13,647	1429,050	780,670
-45,344	8,499	1425,064	754,086
-44,330	8,407	1423,063	752,561
-43,315	8,396	1421,109	751,444
-42,300	8,434	1419,287	750,634
-41,286	8,452	1418,266	750,149
-40,271	8,427	1416,975	749,320
-39,257	8,440	1415,588	748,614
-38,242	8,469	1414,531	748,166
-37,227	8,462	1413,402	747,503
-36,213	8,443	1412,181	746,741
-35,198	8,431	1411,153	746,111
-34,184	8,498	1409,922	745,743
-33,169	8,321	1409,022	744,409
-32,154	8,414	1407,731	744,131
-31,140	8,420	1406,412	743,435
-30,125	8,423	1405,225	742,789
-29,111	8,458	1404,068	742,313
-28,096	8,444	1402,934	741,620
-27,082	8,339	1401,884	740,546
-26,067	8,336	1400,761	739,906
-25,052	8,399	1399,685	739,604
-24,038	8,371	1398,800	738,974
-23,023	8,368	1397,862	738,438
-22,009	8,342	1396,763	737,707
-20,994	8,339	1395,729	737,117
-19,979	8,392	1394,606	736,740
-18,965	8,295	1394,009	735,944
-17,950	8,331	1392,719	735,404
-16,936	8,301	1391,852	734,777
-15,921	8,259	1391,039	734,125
-14,906	8,275	1390,126	733,685
-13,892	8,323	1388,960	733,262
-12,877	8,296	1388,467	732,851
-11,863	8,309	1387,607	732,425
-10,848	8,308	1386,605	731,863
-9,833	8,228	1385,667	730,970
-8,819	8,186	1384,784	730,284
-7,804	8,168	1383,828	729,668
-6,790	8,224	1382,900	729,406
-5,775	8,213	1381,852	728,773
-4,760	8,176	1380,951	728,102
-3,746	8,193	1380,007	727,652
-2,731	8,197	1379,287	727,260
-1,717	8,201	1378,218	726,686
-0,702	8,169	1376,636	725,680
0,313	12,269	1287,289	697,151
1,327	28,228	679,072	403,412
2,342	44,266	116,813	75,446
3,356	-2,394	16,493	8,123
4,371	5,819	3,761	1,955
5,386	-14,143	1,348	0,611
6,400	800,000	0,339	0,697
7,415	-87,769	-0,311	0,065
8,429	49,401	-0,218	-0,144
9,444	74,023	-0,238	-0,176
10,459	93,799	-0,320	-0,255
11,473	199,096	-0,284	-0,307
12,488	-10,951	-0,220	-0,102
13,502	-142,747	-0,402	-0,027
14,517	168,157	-0,218	-0,219
15,531	86,166	-0,240	-0,186
16,546	-56,767	-0,371	-0,115
17,561	639,505	-0,185	-0,333
18,575	-109,861	-0,319	-0,047
19,590	150,846	-0,169	-0,162
20,604	-66,431	-0,315	-0,088
21,619	144,363	-0,410	-0,385
22,634	142,231	-0,391	-0,365
23,648	-70,745	-0,412	-0,109
24,663	73,719	-0,445	-0,328
25,677	174,298	-0,307	-0,312
26,692	71,545	-0,372	-0,272
27,707	-39,933	-0,448	-0,164
28,721	183,110	-0,305	-0,317
29,736	146,957	-0,375	-0,355
30,750	101,405	-0,395	-0,323
31,765	-52,044	-0,392	-0,127
32,780	62,918	-0,313	-0,220
33,794	95,570	-0,293	-0,235
34,809	86,178	-0,385	-0,298
35,823	14,077	-0,262	-0,143
36,838	220,288	-0,353	-0,398
37,853	177,915	-0,425	-0,436
38,867	229,927	-0,297	-0,341
39,882	256,131	-0,273	-0,329
40,896	211,064	-0,293	-0,324
41,911	155,477	-0,253	-0,245
42,926	40,902	-0,332	-0,210
43,940	379,710	-0,261	-0,376
44,955	29,274	-0,360	-0,214
45,969	0,455	-0,382	-0,191
46,984	-12,982	-0,359	-0,164
47,999	260,138	-0,218	-0,266
49,013	168,225	-0,371	-0,371
50,028	-94,138	-0,358	-0,068
51,042	-8,894	-0,322	-0,151
52,057	256,590	-0,246	-0,297
53,071	114,459	-0,379	-0,324
54,086	206,301	-0,285	-0,312
55,101	447,277	-0,232	-0,359
56,115	383,069	-0,244	-0,353
57,130	89,079	-0,366	-0,285
58,144	306,120	-0,366	-0,479
59,159	159,276	-0,276	-0,270
60,174	143,560	-0,368	-0,344
61,188	57,927	-0,365	-0,250
62,203	138,244	-0,170	-0,156
63,217	426,836	-0,177	-0,269
64,232	78,903	-0,312	-0,234
65,247	132,821	-0,293	-0,265
66,261	67,187	-0,321	-0,229
67,276	82,969	-0,312	-0,238
68,290	43,945	-0,471	-0,302
69,305	485,037	-0,112	-0,180
70,320	90,964	-0,238	-0,187
71,334	109,835	-0,217	-0,182
72,349	-36,048	-0,285	-0,107
73,363	-32,604	-0,329	-0,128
74,378	-1,809	-0,403	-0,198
75,393	12,359	-0,269	-0,145
76,407	-111,644	-0,281	-0,040
77,422	-124,617	-0,295	-0,032
78,436	-59,842	-0,358	-0,106
79,451	9,749	-0,283	-0,150
80,466	165,108	-0,204	-0,201
81,480	143,142	-0,319	-0,297
82,495	-13,552	-0,405	-0,183
83,509	-95,378	-0,303	-0,057
84,524	97,938	-0,209	-0,169
85,539	-41,714	-0,300	-0,107
86,553	64,164	-0,245	-0,172
87,568	-97,334	-0,455	-0,082
88,582	161,014	-0,244	-0,239
89,597	-40,585	-0,231	-0,083
90,611	27,948	-0,342	-0,201
91,626	-21,750	-0,286	-0,121
92,641	175,015	-0,267	-0,271
93,655	40,464	-0,343	-0,216
94,670	59,968	-0,257	-0,177
95,684	93,102	-0,203	-0,160
96,699	-86,623	-0,455	-0,097
97,714	20,947	-0,294	-0,166
98,728	-18,707	-0,245	-0,106
99,743	85,488	-0,206	-0,158
100,757	42,346	-0,182	-0,115
101,772	57,433	-0,333	-0,227
102,787	351,765	-0,134	-0,185
103,801	395,952	-0,211	-0,308
104,816	-22,133	-0,318	-0,134
105,830	30,929	-0,292	-0,175
106,845	34,416	-0,210	-0,128
107,860	106,935	-0,221	-0,183
108,874	18,720	-0,253	-0,141
109,889	-38,507	-0,350	-0,129
110,903	387,819	-0,181	-0,263
111,918	-111,687	-0,286	-0,040
112,933	9,510	-0,287	-0,151
113,947	258,418	-0,138	-0,166
114,962	195,894	-0,207	-0,221
115,976	227,020	-0,225	-0,256
116,991	499,738	-0,175	-0,283
118,006	-29,638	-0,292	-0,116
119,020	255,413	-0,212	-0,254
120,035	190,939	-0,090	-0,095
121,049	269,682	-0,215	-0,264
122,064	-62,127	-0,191	-0,055
123,079	148,011	-0,211	-0,199
124,093	217,955	-0,149	-0,167
125,108	725,599	-0,145	-0,271
126,122	-23,995	-0,213	-0,089
127,137	696,864	-0,102	-0,188
128,151	95,485	-0,188	-0,150
129,166	6,295	-0,233	-0,120
130,181	-34,410	-0,216	-0,082
131,195	31,160	-0,184	-0,110
132,210	118,389	-0,279	-0,240
133,224	56,507	-0,253	-0,171
134,239	0,667	-0,234	-0,116
135,254	-45,946	-0,318	-0,109
136,268	87,926	-0,171	-0,132
137,283	3,846	-0,284	-0,144
138,297	-112,383	-0,298	-0,041
139,312	375,098	-0,131	-0,187
140,327	8,677	-0,326	-0,170
141,341	174,995	-0,248	-0,251
142,356	-6,405	-0,275	-0,130
143,370	582,176	-0,161	-0,276
144,385	676,556	-0,113	-0,205
145,400	94,883	-0,194	-0,153
146,414	20,667	-0,332	-0,187
147,429	-3,754	-0,221	-0,107
148,443	-43,440	-0,174	-0,061
149,458	-61,250	-0,285	-0,083
150,473	308,583	-0,132	-0,172
151,487	-83,200	-0,310	-0,069
152,502	144,636	-0,251	-0,233
153,516	-29,610	-0,225	-0,089
154,531	103,985	-0,259	-0,211
155,546	-40,052	-0,322	-0,116
156,560	145,881	-0,063	-0,059
157,575	31,394	-0,270	-0,161
158,589	-200,000	-0,047	-0,242
159,604	55,240	-0,299	-0,201
160,619	116,419	-0,199	-0,170
161,633	103,301	-0,253	-0,206
162,648	-64,657	-0,241	-0,068
163,662	-119,569	-0,402	-0,048
164,677	-200,000	-0,035	-0,125
165,692	-11,074	-0,249	-0,114
166,706	1,281	-0,115	-0,057
167,721	66,399	-0,336	-0,237
168,735	175,114	-0,182	-0,183
169,750	51,797	-0,291	-0,192
170,764	800,000	-0,083	-0,168
171,779	-61,576	-0,287	-0,083
172,794	442,872	-0,111	-0,170
173,808	144,736	-0,188	-0,174
174,823	148,810	-0,322	-0,302
175,837	284,911	-0,166	-0,208
176,852	56,042	-0,256	-0,172
177,867	419,740	-0,171	-0,255
178,881	22,601	-0,153	-0,087
179,896	53,194	-0,341	-0,227
180,910	139,907	-0,229	-0,210
181,925	116,380	-0,274	-0,233
182,940	448,966	-0,196	-0,300
183,954	-43,979	-0,270	-0,094
184,969	226,227	-0,132	-0,149
185,983	189,299	-0,149	-0,155
186,998	208,042	-0,194	-0,211
188,013	-19,055	-0,323	-0,139
189,027	-10,641	-0,152	-0,069
190,042	423,730	-0,200	-0,299
191,056	192,653	-0,185	-0,194
192,071	78,633	-0,201	-0,149
193,086	160,014	-0,091	-0,088
194,100	5,925	-0,212	0,108
195,115	348,387	-0,146	-0,200
196,129	126,645	-0,209	-0,183
197,144	-31,970	-0,347	-0,134
198,159	71,375	-0,143	-0,103
199,173	296,429	-0,142	-0,181
200,188	-73,515	-0,143	0,036
201,202	-22,218	-0,205	-0,086
202,217	168,087	-0,228	-0,225
203,232	800,000	-0,085	-0,186
204,246	46,291	-0,259	-0,166
205,261	-43,029	-0,255	-0,089
206,275	320,090	-0,207	-0,273
207,290	46,681	-0,176	-0,113
208,304	553,391	-0,140	-0,233
209,319	85,975	-0,205	-0,156
210,334	61,917	-0,147	-0,101
211,348	326,451	-0,118	-0,157
212,363	800,000	-0,099	-0,226
213,377	20,031	-0,188	-0,105
214,392	142,482	-0,116	-0,107
215,407	-54,086	-0,257	-0,080
216,421	21,620	-0,244	-0,137
217,436	-131,195	-0,213	0,019
218,450	699,340	-0,114	-0,208
219,465	161,288	-0,212	-0,205
220,480	349,157	-0,241	-0,330
221,494	20,461	-0,163	-0,091
222,509	-25,828	-0,145	-0,059
223,523	73,152	-0,098	-0,071
224,538	-6,709	-0,219	-0,103
225,553	312,125	-0,216	-0,281
226,567	406,519	-0,162	-0,237
227,582	164,714	-0,221	-0,216
228,596	209,987	-0,097	-0,106
229,611	-200,000	-0,044	-0,260
230,626	-168,427	-0,200	0,005
231,640	-97,648	-0,348	-0,062
232,655	-99,425	-0,230	-0,040
233,669	-26,896	-0,380	-0,153
234,684	57,642	-0,306	-0,206
235,699	-200,000	-0,004	-0,156
236,713	48,565	-0,247	-0,160
237,728	28,095	-0,046	-0,027
238,742	178,030	-0,204	-0,205
239,757	800,000	-0,128	-0,257
240,772	212,871	-0,182	-0,198
241,786	-14,435	-0,163	-0,072
242,801	800,000	-0,077	-0,220
243,815	800,000	-0,086	-0,192
244,830	43,553	-0,180	-0,113
245,844	800,000	-0,115	-0,253
246,859	-38,158	-0,280	-0,102
247,874	-54,878	-0,179	-0,055
248,888	231,721	-0,165	-0,187
249,903	800,000	-0,099	-0,215
250,917	310,042	-0,068	-0,088
251,932	147,389	-0,068	-0,064
252,947	800,000	-0,051	-0,133
253,961	66,567	-0,261	-0,183
254,976	74,140	-0,224	-0,162
255,990	80,207	-0,192	-0,142
257,005	-200,000	-0,015	-0,106
258,020	106,675	-0,151	-0,124
259,034	-177,891	-0,119	-0,002
260,049	583,484	-0,107	-0,181
261,063	94,429	-0,139	-0,109
262,078	-21,124	-0,160	-0,067
263,093	135,881	-0,192	-0,172
264,107	-65,305	-0,201	-0,055
265,122	203,528	-0,127	-0,135
266,136	51,276	-0,182	-0,119
267,151	-20,379	-0,119	0,050
268,166	7,744	-0,201	-0,103
269,180	266,312	-0,214	-0,258
270,195	106,332	-0,143	-0,117
271,209	279,458	-0,061	-0,075
272,224	-200,000	-0,062	-0,235
273,239	250,076	-0,141	-0,165
274,253	-33,563	-0,192	-0,073
275,268	340,166	-0,171	-0,230
276,282	140,071	-0,157	-0,143
277,297	2,054	-0,267	-0,132
278,312	221,400	-0,194	-0,215
279,326	10,107	-0,133	0,069
280,341	17,593	-0,164	-0,089
281,355	-6,068	-0,152	-0,071
282,370	-118,737	-0,236	-0,028
283,384	53,705	-0,144	-0,095
284,399	-18,499	-0,193	-0,083
285,414	13,521	-0,206	-0,110
286,428	-104,167	-0,149	0,024
287,443	24,632	-0,140	-0,080
288,457	-62,611	-0,266	-0,075
289,472	149,391	-0,074	-0,069
290,487	5,974	-0,086	-0,044
291,501	190,353	-0,199	-0,206
292,516	800,000	-0,105	-0,210
293,530	-62,766	-0,168	0,047
294,545	61,759	-0,024	-0,016
295,560	83,410	-0,165	-0,124
296,574	-20,338	-0,105	-0,044
297,589	800,000	-0,145	-0,314
298,603	800,000	-0,109	-0,216
299,618	331,372	-0,136	-0,181
300,633	-135,373	-0,236	-0,019
301,647	-28,526	-0,100	-0,039
302,662	-136,000	-0,182	-0,015
303,676	0,945	-0,134	-0,066
304,691	224,212	-0,084	-0,093
305,706	42,961	-0,131	-0,082
306,720	256,724	-0,065	-0,077
307,735	52,437	-0,151	-0,099
308,749	-71,693	-0,120	-0,030
309,764	27,690	-0,028	-0,016
310,779	-53,475	-0,153	-0,048
311,793	10,276	-0,161	-0,084
312,808	622,250	-0,057	-0,098
313,822	-94,780	-0,242	-0,045
314,837	333,834	-0,120	-0,160
315,852	-87,866	-0,155	-0,032
316,866	-153,026	-0,112	-0,005
317,881	800,000	-0,054	-0,110
318,895	62,006	-0,160	-0,109
319,910	502,745	-0,122	-0,193
320,925	-30,339	-0,229	-0,089
321,939	800,000	-0,100	-0,211
322,954	-130,184	-0,282	0,026
323,968	152,288	-0,026	-0,024
324,983	-44,141	-0,198	-0,068
325,997	249,457	-0,092	-0,107
327,012	72,017	-0,242	-0,172
328,027	-101,034	-0,213	-0,036
329,041	326,655	-0,057	-0,075
330,056	-101,961	-0,041	-0,007
331,070	-200,000	-0,012	-0,115
332,085	400,354	-0,068	-0,098
333,100	-15,770	-0,193	-0,084
334,114	43,296	-0,173	-0,108
335,129	702,290	-0,087	-0,157
336,143	-38,694	-0,302	-0,109
337,158	60,299	-0,158	-0,107
338,173	176,143	-0,076	-0,076
339,187	-158,900	-0,126	0,005
340,202	-104,988	-0,234	-0,036
341,216	131,279	-0,143	-0,125
342,231	155,120	-0,213	-0,201
343,246	112,740	-0,044	-0,037
344,260	-98,875	-0,099	-0,017
345,275	94,141	-0,179	-0,139
346,289	-105,001	-0,163	-0,025
347,304	-0,418	-0,097	-0,047
348,319	56,884	-0,150	-0,100
349,333	-159,168	-0,124	-0,005
350,348	-92,729	-0,268	-0,051
351,362	14,581	-0,108	-0,058
352,377	57,741	-0,132	-0,088
353,392	-88,700	-0,139	-0,028
354,406	267,176	-0,152	-0,182
355,421	207,234	1311,207	1399,686
356,435	159,409	1471,444	1400,129
