DTS Sentinel unit serial number:	SN410029Multiplexer serial number:	ORYXHardware model number:	OX2-SRSoftware version number:	ORYX F/W v4,00 Oryx Data Collector v3.7.2.0data status	okinstallation	B3 Nyhavnadifferential loss correction	single-endedforward channel	channel 1reverse channel	N/Adate	2023/12/02time	15:22:30forward acquisition time	300,00reverse acquisition time	0,00gamma	499,1914k internal	0,3197k external	0,3197temperature offset calibration	1,0000default loss term (dB/km)	0,3820temperature slope calibration	1,0000multiplexer offset coefficient	1,0000multiplexer slope coefficient	1,0000fibre end	0,00T internal ref (°C)	14,71T ext. ref 1 (°C)	-0,79T ext. ref 2 (°C)	-0,80length (m)	temperature (°C)	Stokes	anti-Stokes-744,400	159,902	-0,231	-0,235
-743,385	800,000	0,095	0,286
-742,371	476,966	-0,111	-0,183
-741,356	-200,000	0,065	0,368
-740,342	178,691	-0,265	-0,283
-739,327	-200,000	-0,038	0,299
-738,312	27,768	-0,237	-0,145
-737,298	-200,000	0,021	0,225
-736,283	317,905	-0,173	-0,239
-735,269	800,000	0,093	0,296
-734,254	-200,000	-0,085	-0,294
-733,239	72,587	-0,187	0,142
-732,225	56,792	-0,281	-0,199
-731,210	214,907	0,049	0,057
-730,196	800,000	0,038	-0,113
-729,181	-200,000	0,031	0,139
-728,167	218,006	0,005	-0,006
-727,152	800,000	0,006	-0,013
-726,137	-47,303	-0,102	-0,036
-725,123	-200,000	-0,017	-0,120
-724,108	415,138	-0,043	-0,068
-723,094	575,503	-0,065	-0,116
-722,079	-200,000	0,011	-0,142
-721,064	567,293	-0,018	0,031
-720,050	-200,000	0,002	-0,095
-719,035	248,361	-0,058	-0,071
-718,021	-200,000	-0,003	-0,139
-717,006	-200,000	-0,005	0,079
-715,991	274,362	-0,044	-0,057
-714,977	134,537	0,032	-0,031
-713,962	238,737	-0,063	0,076
-712,948	-200,000	0,017	0,114
-711,933	365,350	0,016	-0,023
-710,918	-200,000	0,038	-0,148
-709,904	-200,000	0,001	0,020
-708,889	125,888	-0,142	-0,131
-707,875	-200,000	0,034	-0,191
-706,860	66,934	-0,147	-0,109
-705,845	486,541	0,012	0,020
-704,831	604,479	0,014	0,026
-703,816	-200,000	0,017	-0,145
-702,802	87,766	-0,119	0,096
-701,787	-43,526	-0,064	-0,023
-700,772	301,544	-0,018	0,024
-699,758	-57,756	0,088	-0,028
-698,743	52,973	-0,061	0,043
-697,729	127,543	0,049	-0,045
-696,714	-200,000	0,000	0,185
-695,699	-24,190	-0,090	0,039
-694,685	-200,000	-0,015	-0,051
-693,670	50,005	-0,044	0,030
-692,656	-200,000	-0,029	0,098
-691,641	157,662	0,034	0,034
-690,627	-101,349	0,074	-0,013
-689,612	-49,884	-0,141	0,048
-688,597	-19,832	0,067	-0,030
-687,583	602,823	0,074	-0,134
-686,568	-141,840	0,110	0,008
-685,554	78,697	0,053	0,041
-684,539	-200,000	0,011	-0,168
-683,524	-200,000	0,017	0,081
-682,510	-98,907	0,099	-0,018
-681,495	-50,427	-0,050	-0,017
-680,481	-200,000	0,000	0,033
-679,466	-158,578	-0,049	0,002
-678,451	-200,000	-0,004	0,027
-677,437	-178,825	0,043	-0,001
-676,422	90,781	0,037	0,030
-675,408	148,607	0,022	0,022
-674,393	556,835	-0,040	-0,070
-673,378	-58,206	-0,029	0,009
-672,364	-66,023	0,013	0,004
-671,349	133,577	-0,088	-0,083
-670,335	76,631	-0,062	-0,047
-669,320	-51,633	0,035	0,012
-668,305	-200,000	0,006	-0,022
-667,291	-9,250	-0,127	-0,061
-666,276	572,878	-0,028	-0,049
-665,262	800,000	-0,058	-0,128
-664,247	-66,282	0,081	-0,023
-663,232	800,000	-0,036	0,088
-662,218	-200,000	-0,011	-0,098
-661,203	16,611	0,134	0,077
-660,189	127,078	0,002	0,002
-659,174	-200,000	-0,000	0,092
-658,159	4,770	-0,078	-0,041
-657,145	-25,511	-0,040	0,017
-656,130	-89,355	-0,168	0,036
-655,116	-200,000	-0,014	-0,047
-654,101	800,000	-0,070	0,175
-653,086	800,000	0,041	0,120
-652,072	63,668	-0,034	0,025
-651,057	800,000	-0,047	-0,142
-650,043	-200,000	-0,022	-0,080
-649,028	153,131	0,075	0,075
-648,014	235,237	0,039	-0,047
-646,999	800,000	-0,027	0,073
-645,984	-200,000	-0,001	0,082
-644,970	276,670	0,012	-0,015
-643,955	-200,000	-0,040	-0,143
-642,941	122,392	-0,035	-0,032
-641,926	377,878	-0,053	-0,079
-640,911	-163,473	0,078	-0,003
-639,897	-200,000	-0,002	0,036
-638,882	102,256	0,015	0,013
-637,868	-136,392	0,164	0,014
-636,853	-77,891	-0,047	-0,012
-635,838	-45,423	0,163	-0,058
-634,824	-200,000	-0,040	-0,150
-633,809	-87,103	-0,121	-0,026
-632,795	800,000	-0,047	-0,102
-631,780	125,280	-0,076	0,070
-630,765	-200,000	0,020	0,117
-629,751	36,051	-0,042	0,027
-628,736	800,000	-0,040	-0,091
-627,722	502,931	-0,012	-0,020
-626,707	-74,702	0,227	0,059
-625,692	4,843	0,113	0,060
-624,678	216,439	-0,124	0,143
-623,663	-200,000	0,021	-0,116
-622,649	-139,668	0,097	0,007
-621,634	114,705	-0,046	-0,041
-620,619	800,000	0,030	0,091
-619,605	-200,000	-0,017	-0,060
-618,590	161,441	0,069	0,070
-617,576	-200,000	-0,010	0,042
-616,561	140,655	-0,034	-0,032
-615,546	-95,915	-0,063	0,012
-614,532	1,994	-0,112	-0,058
-613,517	-53,994	-0,174	-0,057
-612,503	-106,434	0,168	-0,027
-611,488	184,975	0,043	-0,046
-610,474	131,179	0,113	0,105
-609,459	77,689	-0,047	0,036
-608,444	-0,117	0,038	0,019
-607,430	-45,805	-0,099	0,035
-606,415	20,489	-0,068	-0,040
-605,401	-47,150	0,003	-0,001
-604,386	-17,826	0,121	0,055
-603,371	3,360	0,079	-0,041
-602,357	207,675	-0,046	-0,052
-601,342	800,000	-0,046	-0,095
-600,328	-154,365	-0,179	-0,009
-599,313	178,467	-0,045	-0,048
-598,298	800,000	-0,087	-0,193
-597,284	56,925	0,127	0,090
-596,269	-200,000	-0,040	-0,130
-595,255	-195,785	0,091	-0,000
-594,240	-17,091	0,052	0,024
-593,225	-200,000	-0,026	0,086
-592,211	147,065	-0,127	-0,124
-591,196	-167,288	-0,031	-0,001
-590,182	421,076	0,037	0,058
-589,167	-40,408	0,057	0,021
-588,152	-200,000	0,010	0,041
-587,138	-2,977	-0,069	-0,035
-586,123	800,000	-0,050	-0,143
-585,109	190,010	-0,070	-0,076
-584,094	800,000	-0,072	-0,184
-583,079	138,970	0,037	-0,036
-582,065	147,460	-0,044	0,043
-581,050	800,000	-0,039	-0,088
-580,036	800,000	-0,052	-0,115
-579,021	-200,000	-0,022	-0,145
-578,006	-92,188	0,099	0,020
-576,992	-123,610	0,112	-0,013
-575,977	-8,144	0,095	0,046
-574,963	15,292	0,026	0,015
-573,948	166,954	-0,113	-0,117
-572,934	-78,003	-0,031	0,008
-571,919	-200,000	0,010	-0,053
-570,904	198,656	-0,099	-0,110
-569,890	800,000	-0,052	-0,147
-568,875	-146,674	-0,010	0,001
-567,861	-125,125	0,128	0,014
-566,846	800,000	0,062	-0,196
-565,831	150,565	-0,033	-0,033
-564,817	800,000	0,026	0,052
-563,802	-141,700	-0,213	0,015
-562,788	173,489	-0,062	-0,065
-561,773	202,513	-0,025	-0,028
-560,758	-200,000	-0,034	0,138
-559,744	-93,560	-0,130	-0,026
-558,729	755,999	-0,030	-0,058
-557,715	-37,196	-0,111	-0,043
-556,700	366,552	-0,039	-0,057
-555,685	296,859	-0,107	-0,142
-554,671	-62,673	0,098	-0,029
-553,656	30,639	-0,035	0,021
-552,642	800,000	-0,018	0,057
-551,627	800,000	0,043	0,106
-550,612	-200,000	0,029	-0,110
-549,598	-200,000	0,010	-0,090
-548,583	-117,198	0,077	-0,010
-547,569	-200,000	0,018	-0,174
-546,554	250,002	-0,062	0,076
-545,539	132,337	0,099	0,092
-544,525	-200,000	-0,003	0,039
-543,510	800,000	-0,055	-0,161
-542,496	-200,000	0,007	-0,049
-541,481	41,656	0,049	-0,032
-540,466	-200,000	-0,011	-0,107
-539,452	-200,000	-0,023	-0,127
-538,437	-69,396	0,081	0,022
-537,423	267,267	-0,077	0,097
-536,408	-200,000	-0,010	-0,114
-535,393	110,157	-0,076	-0,066
-534,379	-62,882	-0,139	-0,041
-533,364	-46,229	0,061	-0,022
-532,350	150,058	0,079	0,077
-531,335	800,000	-0,023	0,051
-530,321	-200,000	-0,009	0,030
-529,306	246,630	0,034	0,041
-528,291	-200,000	0,006	0,141
-527,277	800,000	-0,020	-0,060
-526,262	-135,629	-0,163	0,014
-525,248	800,000	-0,022	0,057
-524,233	800,000	0,076	0,155
-523,218	800,000	0,030	0,072
-522,204	-200,000	-0,002	-0,056
-521,189	544,171	-0,086	-0,149
-520,175	-200,000	0,019	-0,184
-519,160	-200,000	-0,029	0,115
-518,145	-80,110	-0,060	0,014
-517,131	-200,000	-0,014	-0,070
-516,116	115,412	0,140	0,124
-515,102	280,630	-0,061	-0,079
-514,087	-64,504	-0,051	0,015
-513,072	199,917	-0,034	0,038
-512,058	110,965	0,155	-0,135
-511,043	-200,000	-0,004	-0,038
-510,029	-200,000	0,029	0,095
-509,014	63,662	0,114	0,082
-507,999	-200,000	-0,002	0,081
-506,985	9,312	0,028	0,015
-505,970	741,411	0,031	-0,060
-504,956	18,325	-0,111	0,064
-503,941	333,172	0,052	-0,072
-502,926	33,328	0,148	0,092
-501,912	800,000	0,034	0,073
-500,897	-19,326	0,073	-0,032
-499,883	330,931	-0,069	-0,096
-498,868	-200,000	-0,009	-0,057
-497,853	-200,000	0,004	-0,078
-496,839	-62,665	0,070	-0,021
-495,824	20,573	-0,147	-0,085
-494,810	-200,000	0,032	0,153
-493,795	85,547	0,096	0,076
-492,781	-200,000	-0,037	0,177
-491,766	743,111	0,047	0,091
-490,751	-200,000	0,011	-0,103
-489,737	-109,892	-0,112	0,017
-488,722	800,000	0,024	-0,062
-487,708	-39,177	-0,010	-0,004
-486,693	39,812	0,057	-0,037
-485,678	-4,109	-0,081	-0,040
-484,664	308,731	-0,050	-0,067
-483,649	-200,000	-0,003	-0,048
-482,635	-135,863	-0,043	0,004
-481,620	395,289	0,055	-0,083
-480,605	-141,495	0,196	0,014
-479,591	800,000	-0,037	-0,117
-478,576	-57,342	0,029	-0,009
-477,562	5,781	-0,130	-0,069
-476,547	-29,217	-0,211	-0,087
-475,532	-200,000	-0,007	0,059
-474,518	-200,000	-0,018	0,071
-473,503	232,073	-0,072	0,085
-472,489	-27,109	0,074	-0,031
-471,474	800,000	-0,051	0,105
-470,459	356,697	0,030	0,043
-469,445	275,139	-0,035	-0,045
-468,430	-200,000	-0,004	-0,114
-467,416	-200,000	0,001	0,054
-466,401	-95,537	-0,035	0,007
-465,386	457,964	0,035	0,056
-464,372	-36,969	0,063	-0,024
-463,357	-200,000	0,024	-0,103
-462,343	14,222	-0,164	-0,092
-461,328	276,831	-0,070	-0,090
-460,313	-200,000	0,006	0,106
-459,299	-61,834	0,129	-0,039
-458,284	-200,000	-0,002	0,119
-457,270	-200,000	-0,027	0,086
-456,255	-200,000	-0,047	-0,158
-455,241	800,000	-0,011	-0,028
-454,226	176,027	-0,030	-0,031
-453,211	-145,995	0,053	0,003
-452,197	271,444	-0,061	0,077
-451,182	96,852	0,108	-0,089
-450,168	-200,000	-0,002	-0,039
-449,153	-68,901	-0,035	-0,010
-448,138	-59,701	-0,117	0,036
-447,124	0,960	-0,044	-0,022
-446,109	800,000	0,036	-0,078
-445,095	-103,511	0,153	-0,026
-444,080	-155,502	-0,023	0,001
-443,065	800,000	-0,042	-0,094
-442,051	-60,861	0,158	-0,048
-441,036	699,444	-0,074	-0,141
-440,022	-200,000	-0,014	-0,060
-439,007	-141,145	-0,111	-0,008
-437,992	-136,813	0,183	-0,015
-436,978	-200,000	-0,006	0,038
-435,963	-18,554	0,087	0,039
-434,949	-2,619	-0,131	0,066
-433,934	73,637	-0,045	0,034
-432,919	82,795	0,007	0,005
-431,905	298,079	-0,025	-0,033
-430,890	120,619	-0,033	-0,030
-429,876	-58,718	0,101	0,031
-428,861	-200,000	0,004	0,144
-427,846	119,621	0,091	-0,081
-426,832	-200,000	-0,046	-0,166
-425,817	-200,000	-0,024	-0,133
-424,803	114,280	-0,078	0,068
-423,788	-135,158	0,194	-0,017
-422,773	289,466	-0,067	0,088
-421,759	78,990	0,161	0,124
-420,744	210,477	-0,035	0,040
-419,730	56,731	-0,020	0,014
-418,715	800,000	-0,025	0,071
-417,701	-110,397	0,064	0,009
-416,686	-104,291	-0,121	0,020
-415,671	-80,314	0,113	0,027
-414,657	-33,148	0,097	0,039
-413,642	800,000	-0,032	-0,084
-412,628	-73,024	0,081	0,021
-411,613	149,144	-0,081	0,079
-410,598	-43,057	-0,103	-0,038
-409,584	-88,095	0,151	0,032
-408,569	367,989	-0,029	0,042
-407,555	-126,128	-0,033	0,004
-406,540	-147,595	0,120	-0,007
-405,525	-58,567	-0,062	0,019
-404,511	86,404	-0,088	-0,070
-403,496	800,000	-0,032	-0,067
-402,482	-90,801	0,107	0,022
-401,467	-200,000	-0,020	-0,108
-400,452	-200,000	-0,004	-0,053
-399,438	295,249	0,086	0,114
-398,423	259,917	-0,044	-0,054
-397,409	246,150	0,071	-0,086
-396,394	418,772	-0,079	-0,122
-395,379	-48,944	0,147	0,050
-394,365	800,000	-0,071	0,173
-393,350	7,238	0,021	-0,011
-392,336	398,531	0,152	0,229
-391,321	-200,000	-0,009	-0,079
-390,306	-120,171	0,042	0,005
-389,292	174,569	-0,075	-0,078
-388,277	77,813	-0,128	0,098
-387,263	-11,032	0,057	-0,027
-386,248	244,434	0,056	0,067
-385,233	-118,790	0,012	0,001
-384,219	582,183	-0,021	-0,038
-383,204	-87,995	-0,010	-0,002
-382,190	-63,466	-0,089	-0,026
-381,175	498,115	-0,075	-0,125
-380,160	800,000	0,043	0,089
-379,146	-200,000	0,021	0,095
-378,131	13,041	0,036	0,020
-377,117	-77,507	-0,061	0,015
-376,102	-28,965	0,085	0,035
-375,088	-26,787	-0,033	-0,014
-374,073	-200,000	0,022	-0,150
-373,058	396,289	-0,045	-0,067
-372,044	-200,000	-0,032	0,143
-371,029	-200,000	0,001	0,111
-370,015	-102,121	0,038	0,006
-369,000	800,000	-0,021	-0,067
-367,985	143,662	-0,081	-0,078
-366,971	800,000	-0,035	0,069
-365,956	26,250	0,053	-0,031
-364,942	800,000	0,034	-0,085
-363,927	91,441	-0,181	0,146
-362,912	-200,000	-0,016	0,053
-361,898	-109,604	-0,148	0,022
-360,883	153,301	0,054	0,053
-359,869	11,406	-0,123	-0,068
-358,854	327,789	-0,041	0,056
-357,839	-200,000	-0,007	0,160
-356,825	361,580	0,122	0,175
-355,810	386,129	-0,030	-0,044
-354,796	-19,359	-0,054	-0,024
-353,781	-200,000	0,017	-0,119
-352,766	104,679	-0,057	0,048
-351,752	-93,029	0,078	-0,015
-350,737	503,459	0,056	0,093
-349,723	-75,483	-0,129	0,033
-348,708	-126,790	-0,081	-0,008
-347,693	205,023	0,037	-0,041
-346,679	-200,000	0,007	-0,145
-345,664	-149,672	-0,135	-0,007
-344,650	157,026	0,077	-0,077
-343,635	4,323	0,131	0,068
-342,620	112,212	0,181	0,157
-341,606	36,931	-0,098	0,062
-340,591	-142,694	-0,038	0,003
-339,577	-144,750	-0,079	-0,005
-338,562	6,082	-0,143	-0,076
-337,548	800,000	0,011	0,032
-336,533	236,803	0,010	-0,012
-335,518	-76,157	0,048	0,012
-334,504	800,000	-0,046	0,093
-333,489	-50,719	0,099	-0,033
-332,475	145,283	-0,065	-0,062
-331,460	87,095	-0,068	0,054
-330,445	-200,000	-0,002	0,106
-329,431	378,703	-0,051	0,074
-328,416	131,626	0,153	0,141
-327,402	-200,000	0,010	-0,041
-326,387	-45,985	0,132	0,046
-325,372	7,966	-0,018	-0,009
-324,358	265,434	0,051	-0,063
-323,343	-200,000	-0,010	-0,062
-322,329	37,903	-0,073	-0,046
-321,314	-200,000	0,020	0,102
-320,299	-58,697	-0,048	0,015
-319,285	-200,000	0,008	0,029
-318,270	4,269	-0,083	-0,043
-317,256	760,853	0,115	-0,224
-316,241	-5,061	-0,023	0,011
-315,226	-200,000	-0,000	0,090
-314,212	399,669	-0,126	0,189
-313,197	-200,000	0,026	0,113
-312,183	-200,000	0,044	0,191
-311,168	-200,000	-0,020	-0,071
-310,153	-68,015	-0,042	0,012
-309,139	800,000	0,041	-0,083
-308,124	800,000	-0,047	-0,128
-307,110	-200,000	0,015	0,110
-306,095	144,123	0,024	-0,023
-305,080	-17,841	-0,104	-0,046
-304,066	-186,338	0,059	-0,001
-303,051	-200,000	0,002	-0,128
-302,037	-200,000	-0,024	-0,172
-301,022	-200,000	0,018	0,122
-300,008	-200,000	-0,009	0,186
-298,993	73,048	0,128	0,096
-297,978	800,000	-0,043	-0,098
-296,964	-58,564	-0,028	-0,009
-295,949	674,788	0,060	0,111
-294,935	800,000	0,008	0,025
-293,920	-12,174	0,091	0,042
-292,905	-200,000	-0,020	0,070
-291,891	459,316	0,061	-0,097
-290,876	-110,121	0,103	0,015
-289,862	-5,949	-0,021	-0,010
-288,847	-92,890	0,097	-0,019
-287,832	-83,158	-0,076	0,017
-286,818	-200,000	0,003	-0,072
-285,803	-28,583	-0,113	0,046
-284,789	-183,020	0,124	-0,002
-283,774	57,613	-0,016	0,011
-282,759	176,221	0,117	-0,122
-281,745	-75,706	-0,088	0,022
-280,730	-200,000	-0,032	-0,219
-279,716	-126,842	0,137	-0,014
-278,701	800,000	0,015	0,031
-277,686	115,968	0,061	0,054
-276,672	187,763	-0,091	0,097
-275,657	-200,000	-0,027	-0,092
-274,643	-200,000	-0,016	-0,088
-273,628	4,412	-0,070	0,037
-272,613	800,000	-0,006	0,016
-271,599	-56,380	-0,031	-0,010
-270,584	800,000	0,059	0,146
-269,570	800,000	-0,011	-0,022
-268,555	348,287	0,017	-0,024
-267,540	-200,000	-0,025	0,103
-266,526	22,079	-0,036	-0,021
-265,511	13,563	-0,070	-0,039
-264,497	39,009	-0,090	-0,058
-263,482	-125,468	0,049	-0,005
-262,467	800,000	-0,094	0,253
-261,453	-200,000	0,003	0,125
-260,438	80,900	-0,072	0,055
-259,424	285,526	0,062	0,080
-258,409	800,000	-0,034	0,083
-257,395	23,221	0,102	0,060
-256,380	-200,000	0,008	-0,091
-255,365	435,052	-0,021	0,033
-254,351	-110,805	0,119	0,017
-253,336	-94,110	-0,151	-0,029
-252,322	800,000	0,020	-0,044
-251,307	800,000	-0,015	-0,030
-250,292	-200,000	-0,016	0,161
-249,278	-144,673	0,093	0,006
-248,263	-181,873	0,120	0,002
-247,249	-200,000	0,030	-0,200
-246,234	-200,000	0,009	0,031
-245,219	800,000	-0,050	-0,113
-244,205	-57,784	0,045	-0,014
-243,190	-200,000	-0,020	0,069
-242,176	362,711	0,089	0,129
-241,161	-200,000	-0,022	0,135
-240,146	-200,000	-0,022	0,109
-239,132	-67,268	-0,043	0,012
-238,117	117,100	-0,166	-0,146
-237,103	-79,008	-0,062	-0,015
-236,088	-58,492	-0,043	-0,013
-235,073	-200,000	-0,013	-0,066
-234,059	104,082	0,065	0,054
-233,044	231,602	0,090	-0,105
-232,030	-101,204	-0,095	-0,016
-231,015	312,464	-0,048	0,064
-230,000	-20,621	-0,018	0,008
-228,986	29,091	-0,070	0,042
-227,971	10,951	-0,041	0,023
-226,957	-144,264	0,184	0,012
-225,942	96,333	0,099	0,081
-224,927	26,508	-0,085	0,051
-223,913	-15,950	0,087	-0,039
-222,898	-45,440	-0,107	-0,038
-221,884	800,000	-0,021	0,067
-220,869	10,390	0,086	-0,047
-219,855	-147,828	0,108	0,006
-218,840	111,050	-0,109	0,094
-217,825	695,562	-0,043	-0,081
-216,811	800,000	-0,032	0,066
-215,796	800,000	0,006	-0,017
-214,782	31,543	0,135	0,083
-213,767	-200,000	0,000	0,009
-212,752	-200,000	0,001	0,050
-211,738	-139,042	0,112	0,009
-210,723	800,000	-0,032	0,074
-209,709	-88,830	-0,050	0,010
-208,694	-102,697	-0,140	-0,023
-207,679	154,796	-0,082	-0,080
-206,665	-122,915	-0,133	-0,015
-205,650	-95,491	0,080	0,015
-204,636	24,950	0,050	0,029
-203,621	-200,000	-0,016	-0,066
-202,606	187,950	-0,057	0,061
-201,592	-110,071	-0,013	-0,002
-200,577	134,202	0,128	0,118
-199,563	-200,000	0,023	-0,142
-198,548	800,000	0,014	-0,031
-197,533	144,771	-0,051	0,049
-196,519	-31,898	-0,068	-0,027
-195,504	800,000	-0,047	0,094
-194,490	800,000	0,066	-0,140
-193,475	-200,000	-0,012	-0,052
-192,460	196,464	-0,090	0,098
-191,446	-8,221	0,140	0,067
-190,431	-164,934	0,130	-0,004
-189,417	-7,769	0,081	0,039
-188,402	-200,000	-0,010	0,094
-187,387	78,218	-0,064	-0,048
-186,373	-200,000	-0,001	0,023
-185,358	-105,210	0,161	0,026
-184,344	622,744	0,033	-0,060
-183,329	-84,990	-0,023	0,005
-182,315	800,000	-0,043	0,102
-181,300	19,642	0,131	0,075
-180,285	-45,720	-0,134	0,047
-179,271	344,159	0,063	-0,088
-178,256	146,378	0,055	-0,052
-177,242	-200,000	0,003	0,059
-176,227	-52,302	-0,050	-0,016
-175,212	763,420	0,074	0,144
-174,198	800,000	0,044	0,114
-173,183	-132,275	0,101	0,009
-172,169	-200,000	0,021	-0,070
-171,154	800,000	0,034	-0,098
-170,139	29,395	0,096	0,058
-169,125	-3,915	0,081	-0,040
-168,110	692,930	-0,073	0,136
-167,096	-1,726	-0,060	-0,030
-166,081	-158,095	0,099	-0,004
-165,066	800,000	0,042	-0,119
-164,052	-200,000	-0,027	-0,219
-163,037	-104,218	-0,039	0,006
-162,023	371,147	0,054	0,078
-161,008	221,093	0,039	0,044
-159,993	278,012	-0,073	0,093
-158,979	-124,850	0,035	-0,004
-157,964	653,887	0,057	0,104
-156,950	124,513	-0,049	-0,044
-155,935	-200,000	-0,040	-0,136
-154,920	-200,000	0,038	0,174
-153,906	620,451	0,119	0,214
-152,891	800,000	0,068	0,167
-151,877	267,940	-0,011	0,013
-150,862	-34,003	0,037	-0,014
-149,847	736,920	-0,039	0,074
-148,833	151,200	0,062	-0,060
-147,818	85,264	-0,068	0,053
-146,804	-200,000	0,002	0,019
-145,789	547,272	0,051	0,087
-144,775	-200,000	0,000	-0,155
-143,760	72,874	0,130	-0,097
-142,745	556,791	0,053	-0,091
-141,731	-200,000	0,009	0,178
-140,716	338,553	0,079	0,109
-139,702	107,328	0,088	0,074
-138,687	-66,481	0,127	0,036
-137,672	152,890	-0,033	-0,032
-136,658	205,856	0,046	-0,051
-135,643	-200,000	-0,005	-0,092
-134,629	-144,526	-0,053	0,003
-133,614	-200,000	-0,020	-0,075
-132,599	-8,464	-0,146	0,070
-131,585	320,586	-0,081	0,109
-130,570	518,999	-0,017	-0,028
-129,556	-52,361	-0,096	-0,031
-128,541	280,853	0,052	-0,066
-127,526	800,000	0,063	-0,162
-126,512	14,717	0,008	-0,005
-125,497	800,000	-0,052	0,107
-124,483	-82,902	-0,037	-0,008
-123,468	366,558	-0,051	-0,073
-122,453	-200,000	0,000	-0,054
-121,439	-34,552	-0,076	0,029
-120,424	119,690	-0,053	-0,047
-119,410	800,000	-0,032	0,088
-118,395	303,032	0,040	-0,052
-117,380	527,466	-0,021	0,036
-116,366	148,154	0,034	-0,033
-115,351	-35,705	-0,027	-0,010
-114,337	-14,254	-0,124	0,056
-113,322	-51,294	0,077	-0,026
-112,307	-22,898	-0,048	0,020
-111,293	-60,804	-0,076	0,023
-110,278	142,618	-0,061	-0,058
-109,264	-10,597	0,031	0,015
-108,249	413,118	0,050	-0,076
-107,234	178,551	0,062	-0,065
-106,220	800,000	-0,032	-0,072
-105,205	-30,456	0,135	-0,054
-104,191	119,520	-0,067	0,059
-103,176	305,561	-0,052	0,069
-102,162	600,452	0,117	0,206
-101,147	670,172	0,011	0,020
-100,132	-95,008	-0,085	-0,016
-99,118	30,947	-0,121	-0,073
-98,103	800,000	0,032	-0,071
-97,089	-200,000	0,030	0,095
-96,074	-28,968	-0,162	0,066
-95,059	56,937	0,115	0,079
-94,045	12,844	0,163	0,089
-93,030	-43,473	-0,061	-0,022
-92,016	-200,000	-0,013	-0,099
-91,001	-200,000	-0,050	-0,236
-89,986	27,475	0,076	0,046
-88,972	-4,605	0,048	0,023
-87,957	29,611	0,093	-0,056
-86,943	27,413	-0,064	-0,038
-85,928	679,840	0,036	0,066
-84,913	481,274	0,056	-0,090
-83,899	440,957	-0,023	-0,036
-82,884	38,206	-0,092	0,058
-81,870	209,141	-0,064	0,071
-80,855	83,703	0,075	0,058
-79,840	800,000	-0,041	0,120
-78,826	-61,306	0,069	-0,020
-77,811	-200,000	-0,035	-0,133
-76,797	91,108	-0,116	-0,092
-75,782	800,000	0,008	-0,021
-74,767	-200,000	0,035	-0,131
-73,753	-200,000	0,001	-0,102
-72,738	-10,454	-0,066	-0,031
-71,724	78,932	0,068	0,051
-70,709	106,300	-0,130	-0,109
-69,694	352,553	0,038	0,054
-68,680	800,000	0,051	-0,118
-67,665	-200,000	0,018	0,083
-66,651	-200,000	-0,009	0,039
-65,636	262,332	-0,103	0,128
-64,622	337,577	-0,048	-0,066
-63,607	367,315	0,075	-0,107
-62,592	60,451	-0,047	-0,033
-61,578	-200,000	0,034	0,183
-60,563	-200,000	0,019	0,161
-59,549	800,000	0,048	0,100
-58,534	-30,792	-1,586	-0,633
-57,519	479,291	-1,349	-2,174
-56,505	-200,000	-0,493	-4,458
-55,490	143,579	0,965	0,912
-54,476	800,000	4,898	11,288
-53,461	-200,000	18,407	292,514
-52,446	800,000	729,365	2245,558
-51,432	558,346	1645,830	2825,527
-50,417	78,981	1666,229	1263,264
-49,403	22,623	1539,442	890,822
-48,388	16,570	1462,594	816,998
-47,373	17,879	1452,427	817,600
-46,359	17,178	1442,754	808,766
-45,344	14,823	1438,184	794,913
-44,330	14,791	1436,284	793,679
-43,315	14,768	1434,498	792,552
-42,300	14,738	1433,246	791,687
-41,286	14,823	1431,578	791,138
-40,271	14,811	1430,627	790,525
-39,257	14,787	1429,376	789,688
-38,242	14,797	1428,196	789,050
-37,227	14,832	1426,757	788,392
-36,213	14,819	1425,332	787,509
-35,198	14,819	1424,278	786,896
-34,184	14,821	1423,456	786,422
-33,169	14,776	1422,011	785,380
-32,154	14,776	1420,970	784,775
-31,140	14,801	1419,661	784,138
-30,125	14,882	1418,598	783,904
-29,111	14,833	1417,434	782,998
-28,096	14,785	1416,410	782,172
-27,082	14,773	1415,292	781,467
-26,067	14,769	1414,176	780,803
-25,052	14,758	1413,152	780,153
-24,038	14,715	1412,223	779,410
-23,023	14,734	1411,067	778,829
-22,009	14,694	1410,210	778,137
-20,994	14,703	1409,263	777,624
-19,979	14,696	1408,442	777,110
-18,965	14,624	1407,624	776,290
-17,950	14,628	1406,583	775,702
-16,936	14,692	1405,483	775,365
-15,921	14,640	1404,479	774,539
-14,906	14,633	1403,574	773,973
-13,892	14,605	1402,680	773,323
-12,877	14,648	1401,720	772,961
-11,863	14,657	1400,754	772,438
-10,848	14,609	1399,982	771,759
-9,833	14,595	1398,988	771,115
-8,819	14,547	1398,091	770,370
-7,804	14,606	1397,141	770,091
-6,790	14,540	1396,078	769,167
-5,775	14,558	1395,088	768,676
-4,760	14,565	1394,186	768,179
-3,746	14,539	1393,406	767,598
-2,731	14,612	1392,496	767,404
-1,717	14,516	1391,911	766,605
-0,702	14,543	1389,709	765,489
0,313	18,243	1308,814	738,102
1,327	34,450	706,052	435,751
2,342	52,722	124,445	84,112
3,356	3,125	16,563	8,502
4,371	2,886	3,263	1,672
5,386	-46,568	0,605	0,209
6,400	800,000	-0,034	0,073
7,415	-120,923	-0,273	-0,032
8,429	58,804	-0,389	-0,270
9,444	-76,041	-0,255	-0,063
10,459	2,126	-0,394	-0,201
11,473	4,871	-0,377	-0,196
12,488	-68,782	-0,457	-0,124
13,502	150,472	-0,291	-0,280
14,517	75,788	-0,289	-0,216
15,531	168,941	-0,302	-0,305
16,546	157,779	-0,325	-0,319
17,561	142,307	-0,444	-0,417
18,575	-116,841	-0,162	-0,021
19,590	113,666	-0,322	-0,277
20,604	57,998	-0,343	-0,237
21,619	147,993	-0,324	-0,309
22,634	36,996	-0,507	-0,316
23,648	19,897	-0,446	-0,253
24,663	46,266	-0,538	-0,352
25,677	49,949	-0,283	-0,188
26,692	59,811	-0,341	-0,237
27,707	193,543	-0,319	-0,341
28,721	68,922	-0,315	-0,228
29,736	14,974	-0,412	-0,227
30,750	189,558	-0,424	-0,450
31,765	43,122	-0,444	-0,286
32,780	29,415	-0,334	-0,200
33,794	442,306	-0,212	-0,329
34,809	255,118	-0,291	-0,353
35,823	164,979	-0,379	-0,378
36,838	33,649	-0,482	-0,296
37,853	50,447	-0,397	-0,265
38,867	-74,028	-0,418	-0,106
39,882	-33,693	-0,307	-0,119
40,896	125,758	-0,384	-0,343
41,911	22,036	-0,390	-0,224
42,926	13,140	-0,306	-0,167
43,940	68,578	-0,289	-0,209
44,955	140,138	-0,282	-0,262
45,969	46,801	-0,379	-0,248
46,984	800,000	-0,200	-0,419
47,999	175,790	-0,265	-0,271
49,013	-57,918	-0,502	-0,154
50,028	75,855	-0,347	-0,258
51,042	-60,341	-0,517	-0,154
52,057	93,202	-0,325	-0,259
53,071	112,725	-0,433	-0,370
54,086	120,029	-0,336	-0,294
55,101	-45,239	-0,274	-0,095
56,115	-53,444	-0,496	-0,159
57,130	14,436	-0,308	-0,169
58,144	105,916	-0,267	-0,223
59,159	242,198	-0,315	-0,372
60,174	-20,094	-0,449	-0,194
61,188	82,769	-0,409	-0,313
62,203	77,196	-0,416	-0,311
63,217	34,343	-0,314	-0,192
64,232	16,508	-0,383	-0,212
65,247	40,739	-0,338	-0,214
66,261	83,975	-0,241	-0,185
67,276	338,719	-0,273	-0,375
68,290	424,556	-0,274	-0,416
69,305	49,950	-0,327	-0,217
70,320	126,790	-0,299	-0,267
71,334	12,691	-0,251	-0,136
72,349	-74,627	-0,491	-0,123
73,363	441,831	-0,202	-0,313
74,378	65,064	-0,232	-0,165
75,393	26,189	-0,372	-0,218
76,407	89,363	-0,285	-0,223
77,422	-42,440	-0,353	-0,126
78,436	1,855	-0,246	-0,125
79,451	27,158	-0,317	-0,187
80,466	142,912	-0,356	-0,333
81,480	94,712	-0,452	-0,362
82,495	162,841	-0,245	-0,242
83,509	-84,206	-0,151	-0,033
84,524	217,470	-0,172	-0,193
85,539	-3,950	-0,334	-0,162
86,553	46,705	-0,279	-0,182
87,568	247,178	-0,266	-0,316
88,582	13,132	-0,432	-0,235
89,597	-53,019	-0,316	-0,101
90,611	-118,897	-0,368	-0,045
91,626	123,550	-0,190	-0,168
92,641	236,338	-0,226	-0,263
93,655	6,236	-0,271	-0,141
94,670	-53,929	-0,374	-0,119
95,684	61,654	-0,361	-0,252
96,699	158,631	-0,252	-0,246
97,714	159,918	-0,299	-0,293
98,728	270,981	-0,212	-0,263
99,743	82,460	-0,181	-0,138
100,757	-30,721	-0,267	-0,106
101,772	16,669	-0,374	-0,207
102,787	9,916	-0,381	-0,203
103,801	155,789	-0,256	-0,248
104,816	-10,517	-0,312	-0,144
105,830	-103,833	-0,192	0,031
106,845	168,185	-0,180	-0,180
107,860	16,109	-0,215	-0,119
108,874	527,960	-0,104	-0,173
109,889	12,639	-0,358	-0,193
110,903	125,253	-0,269	-0,238
111,918	-4,755	-0,343	-0,166
112,933	82,975	-0,325	-0,248
113,947	38,946	-0,267	-0,167
114,962	-41,622	-0,253	-0,091
115,976	248,866	-0,230	-0,273
116,991	133,367	-0,205	-0,186
118,006	-3,205	-0,230	-0,112
119,020	372,524	-0,145	-0,207
120,035	32,233	-0,237	-0,143
121,049	-47,454	-0,310	-0,105
122,064	-37,427	-0,211	-0,079
123,079	61,754	-0,241	-0,168
124,093	-31,332	-0,348	-0,136
125,108	21,242	-0,225	-0,128
126,122	20,221	-0,193	-0,109
127,137	-14,836	-0,250	-0,112
128,151	77,215	-0,252	-0,188
129,166	-143,587	-0,261	-0,017
130,181	101,318	-0,283	-0,231
131,195	-77,224	-0,448	-0,108
132,210	-83,867	-0,263	-0,058
133,224	-63,757	-0,247	-0,070
134,239	235,433	-0,148	-0,171
135,254	-124,767	-0,315	0,034
136,268	68,439	-0,315	-0,225
137,283	274,895	-0,172	-0,214
138,297	306,912	-0,197	-0,258
139,312	-48,137	-0,292	-0,098
140,327	77,475	-0,300	-0,223
141,341	388,266	-0,077	-0,112
142,356	11,832	-0,256	-0,137
143,370	709,030	-0,052	-0,097
144,385	42,502	-0,237	-0,151
145,400	53,059	-0,176	-0,118
146,414	68,838	-0,101	-0,072
147,429	-65,643	-0,327	-0,091
148,443	22,265	-0,360	-0,205
149,458	34,799	-0,191	-0,117
150,473	-3,951	-0,294	-0,142
151,487	-67,192	-0,308	-0,084
152,502	126,561	-0,224	-0,199
153,516	261,591	-0,169	-0,205
154,531	-60,515	-0,318	-0,094
155,546	3,759	-0,266	-0,135
156,560	-28,543	-0,213	-0,085
157,575	14,430	-0,308	-0,167
158,589	-148,135	-0,132	-0,008
159,604	-16,271	-0,212	-0,093
160,619	446,279	-0,130	-0,201
161,633	45,234	-0,244	-0,157
162,648	14,022	-0,224	-0,121
163,662	17,085	-0,185	-0,102
164,677	13,609	-0,240	-0,130
165,692	51,412	-0,257	-0,170
166,706	108,446	-0,248	-0,207
167,721	-8,518	-0,288	-0,135
168,735	16,651	-0,391	-0,215
169,750	221,277	-0,227	-0,255
170,764	137,292	-0,127	-0,116
171,779	-94,934	-0,178	-0,033
172,794	-0,315	-0,193	-0,096
173,808	22,573	-0,292	-0,166
174,823	11,241	-0,325	-0,173
175,837	11,101	-0,301	-0,160
176,852	697,009	-0,163	-0,301
177,867	-76,352	-0,228	-0,056
178,881	255,604	-0,182	-0,217
179,896	30,993	-0,209	-0,125
180,910	800,000	-0,113	-0,255
181,925	61,156	-0,244	-0,169
182,940	800,000	-0,105	-0,204
183,954	273,094	-0,194	-0,240
184,969	176,578	-0,190	-0,193
185,983	-108,487	-0,259	-0,038
186,998	-7,245	-0,378	-0,178
188,013	212,285	-0,108	-0,118
189,027	726,338	-0,134	-0,250
190,042	287,185	-0,203	-0,256
191,056	0,196	-0,285	-0,141
192,071	-12,766	-0,229	-0,104
193,086	291,949	-0,119	-0,151
194,100	96,613	-0,157	-0,125
195,115	40,809	-0,303	-0,190
196,129	800,000	-0,090	-0,177
197,144	181,358	-0,203	-0,208
198,159	117,318	-0,194	-0,166
199,173	-82,593	-0,330	-0,074
200,188	-50,690	-0,216	-0,070
201,202	278,523	-0,081	-0,101
202,217	-89,969	-0,144	-0,029
203,232	-37,421	-0,173	-0,064
204,246	307,135	-0,218	-0,284
205,261	88,431	-0,268	-0,207
206,275	175,225	-0,150	-0,151
207,290	221,493	-0,176	-0,197
208,304	28,625	-0,205	-0,121
209,319	441,221	-0,138	-0,211
210,334	-71,154	-0,233	-0,061
211,348	112,633	-0,260	-0,219
212,363	-70,959	-0,295	-0,077
213,377	41,493	-0,234	-0,147
214,392	-54,935	-0,160	-0,050
215,407	16,177	-0,154	-0,084
216,421	-1,900	-0,194	-0,095
217,436	145,063	-0,157	-0,146
218,450	48,982	-0,300	-0,195
219,465	33,110	-0,228	-0,137
220,480	-40,051	-0,237	-0,086
221,494	21,864	-0,183	-0,103
222,509	40,967	-0,241	-0,151
223,523	123,784	-0,122	-0,107
224,538	535,224	-0,088	-0,145
225,553	-200,000	-0,060	-0,192
226,567	-200,000	-0,025	-0,098
227,582	121,887	-0,146	-0,126
228,596	233,715	-0,232	-0,266
229,611	190,136	-0,212	-0,221
230,626	201,139	-0,129	-0,138
231,640	-130,234	-0,079	-0,007
232,655	-61,890	-0,300	-0,087
233,669	159,366	-0,219	-0,212
234,684	-200,000	-0,006	-0,045
235,699	618,029	-0,096	-0,167
236,713	528,190	-0,059	-0,097
237,728	40,731	-0,147	-0,092
238,742	237,555	-0,080	-0,093
239,757	189,681	-0,159	-0,165
240,772	212,623	-0,186	-0,204
241,786	109,411	-0,191	-0,158
242,801	800,000	-0,090	-0,214
243,815	77,702	-0,158	-0,116
244,830	-113,894	-0,275	-0,037
245,844	-175,678	-0,192	0,004
246,859	-53,539	-0,309	-0,098
247,874	337,094	-0,164	-0,222
248,888	-200,000	-0,001	-0,209
249,903	120,683	-0,126	-0,109
250,917	-200,000	-0,027	-0,340
251,932	232,025	-0,199	-0,227
252,947	-200,000	-0,240	-0,000
253,961	99,452	-0,246	-0,197
254,976	495,850	-0,183	-0,293
255,990	-84,925	-0,249	-0,054
257,005	-32,914	-0,260	-0,100
258,020	160,369	-0,227	-0,219
259,034	187,143	-0,127	-0,131
260,049	-9,738	-0,115	-0,053
261,063	175,314	-0,201	-0,202
262,078	-89,509	-0,231	-0,046
263,093	-110,262	-0,146	-0,021
264,107	106,789	-0,210	-0,173
265,122	501,929	-0,077	-0,123
266,136	45,417	-0,088	-0,056
267,151	-8,515	-0,231	-0,107
268,166	-70,128	-0,198	-0,052
269,180	291,001	-0,193	-0,244
270,195	-50,353	-0,138	-0,045
271,209	30,687	-0,104	-0,062
272,224	-141,243	-0,144	-0,010
273,239	-63,303	-0,221	-0,062
274,253	-89,989	-0,284	-0,057
275,268	144,085	-0,112	-0,103
276,282	-9,149	-0,269	-0,124
277,297	-74,655	-0,290	-0,072
278,312	116,033	-0,195	-0,165
279,326	742,149	-0,038	-0,070
280,341	153,756	-0,178	-0,168
281,355	138,076	-0,085	-0,077
282,370	598,339	-0,104	-0,180
283,384	-53,529	-0,098	0,031
284,399	91,437	-0,152	-0,118
285,414	-21,900	-0,211	-0,088
286,428	294,911	-0,123	-0,156
287,443	-160,914	-0,169	0,006
288,457	-145,152	-0,181	-0,011
289,472	-101,167	-0,318	-0,053
290,487	-95,590	-0,192	0,035
291,501	614,960	-0,180	-0,313
292,516	29,009	-0,326	-0,191
293,530	131,681	-0,044	0,039
294,545	221,030	-0,075	-0,083
295,560	-169,690	-0,059	-0,001
296,574	574,140	-0,085	-0,143
297,589	279,262	-0,063	-0,078
298,603	800,000	-0,121	-0,237
299,618	728,923	-0,122	-0,226
300,633	151,388	-0,105	-0,099
301,647	-34,919	-0,134	-0,050
302,662	-109,967	-0,197	-0,028
303,676	34,452	-0,127	-0,076
304,691	800,000	-0,108	-0,213
305,706	687,658	-0,097	-0,176
306,720	72,847	-0,240	-0,173
307,735	-35,682	-0,143	-0,053
308,749	209,413	-0,071	-0,077
309,764	154,360	-0,100	-0,094
310,779	398,892	-0,107	-0,156
311,793	-125,320	-0,171	-0,018
312,808	140,141	-0,146	-0,132
313,822	-68,923	-0,291	-0,077
314,837	39,179	-0,176	-0,108
315,852	-84,351	-0,204	0,044
316,866	-22,597	-0,089	-0,037
317,881	121,609	-0,109	-0,093
318,895	320,447	-0,143	-0,188
319,910	120,491	-0,144	-0,123
320,925	-1,886	-0,216	-0,104
321,939	-110,562	-0,113	-0,016
322,954	-50,606	-0,120	-0,039
323,968	800,000	-0,005	0,015
324,983	206,206	-0,151	-0,162
325,997	800,000	-0,047	-0,098
327,012	-2,566	-0,187	-0,090
328,027	164,447	-0,113	-0,109
329,041	800,000	-0,092	-0,274
330,056	-108,119	-0,171	-0,025
331,070	800,000	-0,095	-0,201
332,085	-200,000	-0,067	-0,224
333,100	-200,000	-0,078	-0,242
334,114	124,097	-0,088	-0,076
335,129	-200,000	-0,047	-0,151
336,143	457,349	-0,078	-0,119
337,158	731,470	-0,114	-0,211
338,173	-85,000	-0,218	-0,047
339,187	-1,960	-0,170	-0,082
340,202	-61,423	-0,125	-0,036
341,216	73,031	-0,132	-0,095
342,231	33,935	-0,090	0,054
343,246	89,983	-0,134	-0,103
344,260	40,517	-0,098	-0,061
345,275	800,000	-0,043	-0,089
346,289	800,000	0,020	-0,042
347,304	251,608	-0,090	-0,105
348,319	21,215	-0,088	-0,049
349,333	123,221	-0,092	-0,079
350,348	-200,000	0,023	-0,132
351,362	800,000	-0,010	0,024
352,377	-200,000	-0,008	-0,126
353,392	-115,052	0,048	-0,006
354,406	501,941	-0,097	-0,154
355,421	207,636	1314,128	1410,558
356,435	159,732	1474,803	1411,069
