DTS Sentinel unit serial number:	SN410029Multiplexer serial number:	ORYXHardware model number:	OX2-SRSoftware version number:	ORYX F/W v4,00 Oryx Data Collector v3.7.2.0data status	okinstallation	B3 Nyhavnadifferential loss correction	single-endedforward channel	channel 1reverse channel	N/Adate	2023/11/30time	07:57:30forward acquisition time	300,00reverse acquisition time	0,00gamma	499,1914k internal	0,3211k external	0,3211temperature offset calibration	1,0000default loss term (dB/km)	0,3820temperature slope calibration	1,0000multiplexer offset coefficient	1,0000multiplexer slope coefficient	1,0000fibre end	0,00T internal ref (°C)	9,94T ext. ref 1 (°C)	-5,43T ext. ref 2 (°C)	-5,53length (m)	temperature (°C)	Stokes	anti-Stokes-744,400	-200,000	-0,076	-0,430
-743,385	-200,000	0,001	0,273
-742,371	800,000	-0,125	-0,271
-741,356	-200,000	-0,055	0,462
-740,342	101,817	-0,194	-0,164
-739,327	-200,000	0,045	0,312
-738,312	635,216	-0,125	-0,232
-737,298	800,000	-0,118	0,256
-736,283	-200,000	-0,033	-0,251
-735,269	-200,000	0,034	0,271
-734,254	336,120	-0,152	-0,215
-733,239	-34,794	-0,299	0,118
-732,225	800,000	-0,084	-0,183
-731,210	-148,070	0,140	-0,008
-730,196	378,560	0,015	-0,022
-729,181	78,370	-0,100	-0,077
-728,167	-39,410	-0,061	0,023
-727,152	30,295	-0,057	0,035
-726,137	-93,185	-0,047	-0,009
-725,123	28,918	-0,197	-0,121
-724,108	145,483	0,076	0,073
-723,094	474,036	-0,032	0,053
-722,079	136,998	0,075	-0,071
-721,064	800,000	-0,019	-0,057
-720,050	-109,144	-0,153	-0,023
-719,035	135,234	-0,056	-0,053
-718,021	-168,670	-0,129	0,003
-717,006	245,387	-0,029	-0,036
-715,991	-200,000	-0,049	-0,194
-714,977	-200,000	-0,014	-0,101
-713,962	-200,000	-0,005	-0,040
-712,948	-189,505	-0,112	0,001
-711,933	429,496	0,042	0,066
-710,918	15,967	0,046	-0,026
-709,904	-200,000	0,007	-0,266
-708,889	-200,000	-0,028	-0,120
-707,875	78,380	-0,047	-0,037
-706,860	361,337	0,065	-0,095
-705,845	-200,000	-0,012	-0,081
-704,831	56,397	0,012	-0,009
-703,816	800,000	-0,012	0,032
-702,802	26,578	0,103	-0,062
-701,787	451,625	-0,067	0,108
-700,772	800,000	0,018	0,045
-699,758	82,476	-0,042	-0,033
-698,743	-200,000	0,009	0,060
-697,729	-200,000	-0,000	0,047
-696,714	800,000	-0,047	0,128
-695,699	-168,688	-0,093	0,003
-694,685	7,562	-0,127	-0,068
-693,670	800,000	-0,013	-0,031
-692,656	91,730	-0,097	-0,079
-691,641	-34,871	0,139	-0,055
-690,627	100,230	-0,039	0,033
-689,612	-119,474	-0,094	-0,012
-688,597	-200,000	0,043	-0,211
-687,583	590,412	-0,051	-0,091
-686,568	552,941	-0,041	-0,072
-685,554	252,321	-0,026	0,032
-684,539	-200,000	-0,003	-0,044
-683,524	800,000	0,051	-0,116
-682,510	231,031	-0,067	0,080
-681,495	18,882	-0,148	0,086
-680,481	157,006	0,058	-0,058
-679,466	425,555	-0,051	0,079
-678,451	-200,000	-0,005	-0,028
-677,437	-170,382	0,095	-0,002
-676,422	-40,074	-0,082	0,031
-675,408	72,761	-0,155	-0,117
-674,393	-138,122	-0,122	0,010
-673,378	-200,000	0,008	-0,040
-672,364	800,000	-0,058	-0,119
-671,349	229,764	-0,096	-0,113
-670,335	-59,399	0,042	-0,013
-669,320	-200,000	0,007	0,103
-668,305	-90,523	0,110	0,023
-667,291	-30,428	-0,088	0,036
-666,276	-68,097	0,048	-0,013
-665,262	390,307	-0,085	-0,128
-664,247	34,785	-0,010	0,007
-663,232	-2,775	0,057	-0,029
-662,218	268,100	0,035	-0,044
-661,203	-200,000	0,020	0,209
-660,189	-200,000	-0,003	-0,052
-659,174	-200,000	-0,049	-0,171
-658,159	17,014	-0,090	-0,051
-657,145	-22,116	-0,092	-0,040
-656,130	-200,000	-0,009	-0,129
-655,116	274,313	-0,059	0,076
-654,101	-200,000	0,095	0,325
-653,086	-115,630	0,032	0,004
-652,072	-0,191	0,061	-0,031
-651,057	-10,436	-0,103	0,049
-650,043	23,828	-0,100	-0,059
-649,028	-200,000	0,030	-0,107
-648,014	533,005	0,065	0,112
-646,999	800,000	-0,035	0,084
-645,984	-200,000	0,007	0,046
-644,970	-190,195	-0,191	-0,001
-643,955	-15,958	0,009	-0,004
-642,941	-126,348	-0,132	0,014
-641,926	800,000	-0,038	-0,104
-640,911	50,856	0,086	0,059
-639,897	-65,972	0,046	-0,013
-638,882	-42,532	0,126	-0,046
-637,868	168,229	0,057	-0,059
-636,853	89,490	-0,177	0,142
-635,838	-200,000	-0,028	-0,136
-634,824	-59,428	-0,038	-0,012
-633,809	800,000	0,044	-0,097
-632,795	-130,334	0,063	0,006
-631,780	309,910	0,047	-0,063
-630,765	-200,000	-0,010	-0,188
-629,751	-200,000	0,045	-0,219
-628,736	280,299	-0,132	-0,171
-627,722	29,138	-0,075	-0,046
-626,707	-200,000	-0,034	-0,119
-625,692	-97,500	0,097	0,018
-624,678	-200,000	0,009	0,119
-623,663	241,370	0,030	-0,036
-622,649	-200,000	-0,033	-0,253
-621,634	185,570	-0,070	-0,076
-620,619	-200,000	-0,013	-0,075
-619,605	602,513	0,023	0,041
-618,590	-200,000	0,023	0,229
-617,576	16,629	-0,088	0,050
-616,561	35,751	-0,177	-0,112
-615,546	-200,000	0,035	-0,147
-614,532	190,413	0,058	-0,063
-613,517	-200,000	0,001	0,003
-612,503	115,405	0,092	-0,081
-611,488	-200,000	0,007	0,103
-610,474	-177,155	0,097	-0,002
-609,459	-180,296	-0,048	-0,001
-608,444	-5,619	-0,037	-0,018
-607,430	159,242	0,067	-0,067
-606,415	-17,978	-0,165	-0,074
-605,401	-200,000	0,042	0,214
-604,386	-13,774	0,086	0,040
-603,371	-200,000	0,007	-0,058
-602,357	800,000	0,075	0,166
-601,342	35,277	-0,097	-0,061
-600,328	-200,000	0,004	-0,069
-599,313	800,000	0,030	-0,072
-598,298	800,000	-0,034	-0,092
-597,284	-101,435	-0,162	-0,028
-596,269	60,034	-0,062	0,044
-595,255	302,776	0,085	0,114
-594,240	-132,595	-0,075	-0,007
-593,225	-6,366	-0,139	-0,068
-592,211	48,946	0,124	-0,084
-591,196	-200,000	0,019	-0,090
-590,182	622,768	-0,058	0,106
-589,167	38,204	0,065	-0,042
-588,152	91,387	0,066	0,053
-587,138	800,000	-0,025	-0,078
-586,123	87,362	-0,095	0,076
-585,109	59,105	-0,122	0,086
-584,094	-75,868	-0,029	0,007
-583,079	800,000	0,003	-0,008
-582,065	-175,077	-0,084	0,002
-581,050	800,000	-0,028	0,064
-580,036	15,882	0,064	-0,036
-579,021	-200,000	0,000	0,060
-578,006	96,487	-0,093	0,077
-576,992	800,000	-0,015	0,038
-575,977	-179,234	0,050	0,001
-574,963	800,000	-0,023	-0,061
-573,948	203,856	-0,077	0,086
-572,934	96,603	-0,092	-0,076
-571,919	-200,000	-0,008	-0,030
-570,904	-104,811	0,091	-0,015
-569,890	46,447	-0,074	-0,049
-568,875	9,595	0,090	0,049
-567,861	117,909	0,008	-0,008
-566,846	-200,000	0,019	0,095
-565,831	800,000	0,019	0,045
-564,817	800,000	-0,018	-0,038
-563,802	153,723	0,084	-0,083
-562,788	-126,439	-0,036	-0,004
-561,773	-66,580	-0,115	-0,033
-560,758	-200,000	0,041	0,143
-559,744	-133,939	-0,166	0,015
-558,729	215,516	-0,113	-0,129
-557,715	72,590	0,022	-0,017
-556,700	799,398	-0,053	0,105
-555,685	31,751	0,048	0,030
-554,671	-150,029	0,117	-0,006
-553,656	800,000	-0,042	0,087
-552,642	800,000	-0,061	-0,130
-551,627	9,974	0,121	0,066
-550,612	350,686	0,013	-0,019
-549,598	800,000	-0,029	0,066
-548,583	-139,570	0,062	-0,005
-547,569	164,511	0,074	0,075
-546,554	81,669	0,129	0,101
-545,539	800,000	0,035	0,083
-544,525	800,000	0,016	-0,041
-543,510	464,918	-0,051	-0,082
-542,496	35,447	-0,036	0,023
-541,481	136,105	-0,047	0,044
-540,466	-143,278	0,121	0,008
-539,452	49,403	-0,056	0,038
-538,437	549,926	-0,060	-0,104
-537,423	-200,000	-0,026	0,133
-536,408	-50,410	-0,213	-0,072
-535,393	-200,000	-0,036	-0,171
-534,379	800,000	-0,057	0,131
-533,364	-200,000	0,000	0,012
-532,350	-68,545	0,001	-0,000
-531,335	200,700	-0,017	0,019
-530,321	93,096	-0,052	0,042
-529,306	-200,000	-0,002	-0,046
-528,291	-200,000	0,014	-0,057
-527,277	151,162	-0,080	-0,078
-526,262	-62,501	-0,006	0,002
-525,248	273,415	-0,013	-0,016
-524,233	-134,906	-0,028	0,002
-523,218	12,992	-0,051	-0,028
-522,204	130,110	-0,025	0,023
-521,189	4,248	-0,076	-0,040
-520,175	800,000	0,027	0,063
-519,160	-133,995	-0,073	-0,006
-518,145	-200,000	-0,032	-0,113
-517,131	-3,645	-0,047	0,023
-516,116	135,457	-0,137	0,128
-515,102	184,960	0,052	0,056
-514,087	-200,000	0,010	-0,054
-513,072	800,000	0,060	-0,126
-512,058	-143,686	-0,049	0,003
-511,043	13,105	0,124	0,069
-510,029	21,952	0,034	-0,020
-509,014	171,620	0,055	0,057
-507,999	661,484	-0,085	-0,157
-506,985	573,822	0,036	-0,064
-505,970	232,442	0,023	0,028
-504,956	350,118	0,044	0,063
-503,941	-5,619	0,031	0,015
-502,926	-200,000	-0,009	-0,038
-501,912	-200,000	0,016	0,135
-500,897	800,000	-0,013	-0,040
-499,883	800,000	-0,041	-0,100
-498,868	-134,730	-0,123	-0,011
-497,853	18,531	0,099	-0,057
-496,839	-10,671	-0,069	0,033
-495,824	800,000	0,050	0,110
-494,810	52,004	-0,122	0,083
-493,795	2,477	0,079	-0,041
-492,781	87,466	0,034	0,027
-491,766	-121,994	-0,062	0,007
-490,751	-200,000	-0,012	-0,179
-489,737	-200,000	0,007	0,022
-488,722	683,774	0,044	0,082
-487,708	800,000	-0,025	-0,056
-486,693	-200,000	-0,031	0,139
-485,678	3,698	0,094	0,049
-484,664	49,786	-0,116	-0,078
-483,649	445,148	-0,029	0,045
-482,635	786,543	0,033	-0,065
-481,620	800,000	-0,021	-0,060
-480,605	586,705	-0,039	0,069
-479,591	28,414	0,130	0,078
-478,576	105,289	-0,068	-0,058
-477,562	169,934	-0,135	0,138
-476,547	-200,000	0,019	0,110
-475,532	-200,000	0,141	0,000
-474,518	-62,200	0,075	-0,022
-473,503	69,207	-0,036	-0,027
-472,489	190,511	0,076	0,082
-471,474	166,887	0,025	-0,026
-470,459	-200,000	0,021	-0,089
-469,445	-174,594	0,100	0,002
-468,430	-134,265	0,028	0,002
-467,416	800,000	0,027	0,065
-466,401	-200,000	0,006	0,063
-465,386	726,077	0,025	-0,047
-464,372	800,000	-0,050	0,154
-463,357	-128,277	-0,121	0,012
-462,343	143,303	0,069	-0,066
-461,328	-146,211	0,067	-0,004
-460,313	120,329	-0,010	0,009
-459,299	36,879	0,022	0,014
-458,284	333,075	0,056	0,078
-457,270	-200,000	-0,008	0,129
-456,255	14,197	0,067	0,037
-455,241	800,000	-0,043	0,117
-454,226	-115,099	-0,052	-0,007
-453,211	-34,898	0,195	0,076
-452,197	486,682	-0,009	0,014
-451,182	98,545	0,176	0,146
-450,168	-9,469	0,081	0,039
-449,153	-135,862	-0,074	-0,006
-448,138	-200,000	0,014	-0,124
-447,124	197,442	0,055	-0,060
-446,109	-56,239	-0,146	-0,046
-445,095	622,553	-0,035	0,063
-444,080	88,320	0,024	0,019
-443,065	-200,000	0,013	0,120
-442,051	544,804	0,050	0,086
-441,036	800,000	-0,025	-0,060
-440,022	-81,580	0,014	-0,003
-439,007	-200,000	-0,009	0,058
-437,992	800,000	0,045	0,093
-436,978	-200,000	0,007	0,080
-435,963	573,285	0,053	-0,093
-434,949	-128,469	-0,072	-0,007
-433,934	-200,000	0,012	-0,044
-432,919	26,849	0,026	0,016
-431,905	-143,710	0,113	0,008
-430,890	-120,343	-0,044	-0,005
-429,876	-200,000	-0,022	-0,151
-428,861	752,271	-0,035	-0,067
-427,846	276,368	0,023	0,029
-426,832	337,727	-0,129	-0,180
-425,817	-15,023	-0,136	-0,062
-424,803	133,032	-0,101	0,094
-423,788	-2,042	0,032	0,016
-422,773	800,000	0,062	-0,134
-421,759	108,479	-0,066	0,057
-420,744	-103,510	0,060	-0,010
-419,730	-126,131	-0,047	0,005
-418,715	714,277	-0,084	0,159
-417,701	379,848	0,024	-0,035
-416,686	-169,221	0,027	-0,001
-415,671	-169,212	0,084	0,002
-414,657	-200,000	-0,036	0,156
-413,642	-131,066	0,089	-0,008
-412,628	214,907	0,066	-0,075
-411,613	125,834	-0,084	-0,076
-410,598	-100,812	0,024	0,004
-409,584	-93,358	-0,146	0,029
-408,569	4,128	0,109	0,057
-407,555	800,000	-0,025	0,075
-406,540	-59,865	-0,108	0,033
-405,525	295,775	-0,089	-0,117
-404,511	133,508	0,034	-0,032
-403,496	134,576	0,029	0,027
-402,482	-200,000	-0,018	0,110
-401,467	48,872	0,083	0,055
-400,452	-93,152	0,094	0,019
-399,438	800,000	0,013	-0,029
-398,423	74,553	-0,074	0,055
-397,409	388,114	-0,062	-0,092
-396,394	75,730	-0,123	-0,093
-395,379	-200,000	-0,003	0,152
-394,365	358,842	-0,031	0,045
-393,350	-57,850	0,146	-0,045
-392,336	24,155	0,077	-0,045
-391,321	231,536	-0,072	-0,085
-390,306	116,310	-0,057	0,050
-389,292	-200,000	-0,017	-0,100
-388,277	196,136	0,107	0,117
-387,263	240,524	0,075	0,090
-386,248	61,871	0,075	0,054
-385,233	-200,000	0,016	0,120
-384,219	399,331	0,071	-0,107
-383,204	90,406	0,050	-0,040
-382,190	-141,155	-0,092	-0,007
-381,175	-200,000	0,009	0,091
-380,160	-99,173	0,091	-0,016
-379,146	-200,000	-0,003	0,137
-378,131	-200,000	-0,005	0,065
-377,117	61,113	-0,067	-0,047
-376,102	-158,026	-0,171	-0,007
-375,088	800,000	-0,044	-0,112
-374,073	123,533	-0,099	-0,089
-373,058	215,003	-0,062	0,071
-372,044	-96,550	0,099	-0,019
-371,029	-193,188	0,075	0,000
-370,015	90,475	-0,107	-0,086
-369,000	-155,426	0,033	-0,001
-367,985	800,000	0,057	0,124
-366,971	-200,000	0,009	-0,256
-365,956	672,468	0,046	-0,085
-364,942	-93,013	-0,052	0,010
-363,927	-200,000	0,013	0,081
-362,912	13,692	0,148	0,082
-361,898	-29,798	-0,071	-0,029
-360,883	-122,430	-0,080	-0,009
-359,869	-135,219	0,099	-0,008
-358,854	78,559	0,101	-0,077
-357,839	44,698	0,049	-0,032
-356,825	15,744	0,102	-0,057
-355,810	-109,686	-0,156	-0,023
-354,796	-79,094	-0,124	-0,030
-353,781	-111,152	-0,125	-0,018
-352,766	98,757	-0,078	-0,064
-351,752	-200,000	0,028	-0,130
-350,737	477,289	0,085	0,139
-349,723	283,382	0,063	0,081
-348,708	800,000	0,025	0,051
-347,693	800,000	-0,055	-0,129
-346,679	309,925	-0,112	-0,149
-345,664	199,371	-0,053	-0,058
-344,650	152,895	0,108	0,105
-343,635	10,145	-0,072	0,039
-342,620	113,095	-0,140	0,121
-341,606	-94,846	0,111	-0,021
-340,591	188,406	-0,046	-0,049
-339,577	-41,065	-0,075	0,027
-338,562	148,945	-0,125	-0,121
-337,548	80,423	0,073	0,056
-336,533	-178,581	-0,052	-0,001
-335,518	-76,919	0,080	0,020
-334,504	800,000	0,045	-0,109
-333,489	76,086	-0,075	0,057
-332,475	-200,000	0,028	-0,171
-331,460	800,000	-0,028	-0,083
-330,445	-60,955	-0,088	-0,026
-329,431	800,000	-0,029	0,069
-328,416	153,765	-0,163	-0,159
-327,402	726,506	0,059	0,112
-326,387	253,771	0,042	-0,051
-325,372	335,201	0,112	-0,155
-324,358	781,648	-0,064	0,125
-323,343	-64,311	0,047	-0,014
-322,329	200,084	-0,002	0,002
-321,314	-64,542	0,069	0,020
-320,299	-200,000	0,003	-0,097
-319,285	-137,704	-0,154	-0,012
-318,270	-27,222	0,094	-0,039
-317,256	606,512	-0,052	-0,092
-316,241	-200,000	0,002	0,028
-315,226	41,583	0,182	0,117
-314,212	-200,000	0,008	-0,037
-313,197	54,632	0,097	-0,066
-312,183	141,323	-0,076	-0,072
-311,168	-53,524	-0,092	-0,030
-310,153	-200,000	0,035	-0,122
-309,139	85,574	-0,150	-0,117
-308,124	-133,305	0,126	0,011
-307,110	-83,967	-0,052	0,012
-306,095	161,580	0,146	0,145
-305,080	-127,390	0,072	0,007
-304,066	-95,181	-0,027	0,005
-303,051	-128,566	-0,133	-0,013
-302,037	-67,423	-0,016	0,004
-301,022	150,917	-0,016	0,015
-300,008	638,157	-0,034	0,063
-298,993	-52,062	0,140	0,046
-297,978	-56,903	0,185	0,058
-296,964	-12,518	-0,196	-0,091
-295,949	-200,000	-0,019	-0,164
-294,935	-29,083	-0,104	-0,042
-293,920	800,000	0,036	-0,095
-292,905	109,682	0,068	-0,058
-291,891	-200,000	-0,038	0,148
-290,876	-63,978	0,004	0,001
-289,862	380,706	-0,052	-0,076
-288,847	33,774	0,032	-0,020
-287,832	30,821	-0,029	-0,018
-286,818	66,423	0,084	-0,061
-285,803	13,596	0,011	0,006
-284,789	-200,000	0,001	-0,062
-283,774	800,000	0,040	0,080
-282,759	-200,000	0,008	-0,100
-281,745	-177,125	-0,061	-0,001
-280,730	761,028	-0,036	-0,071
-279,716	800,000	-0,042	-0,095
-278,701	134,476	0,052	0,048
-277,686	186,092	0,033	0,035
-276,672	-200,000	0,010	0,145
-275,657	713,963	0,024	0,045
-274,643	578,652	0,056	0,098
-273,628	-200,000	-0,037	0,125
-272,613	-67,285	0,041	0,011
-271,599	631,105	-0,051	0,093
-270,584	800,000	0,104	0,257
-269,570	239,926	0,156	0,185
-268,555	-75,254	-0,061	0,015
-267,540	483,857	-0,013	0,021
-266,526	232,411	-0,128	-0,150
-265,511	34,944	0,094	0,058
-264,497	544,044	0,053	-0,091
-263,482	-200,000	-0,006	-0,086
-262,467	-200,000	0,018	0,091
-261,453	-146,536	0,132	-0,008
-260,438	-200,000	0,018	-0,064
-259,424	-103,647	-0,049	-0,008
-258,409	800,000	0,021	0,053
-257,395	-200,000	-0,005	-0,022
-256,380	14,243	-0,039	-0,022
-255,365	-200,000	0,013	-0,126
-254,351	42,074	-0,102	0,065
-253,336	800,000	0,036	-0,084
-252,322	-200,000	0,023	0,100
-251,307	-200,000	0,030	0,146
-250,292	329,150	-0,045	0,062
-249,278	174,095	0,082	0,084
-248,263	-200,000	0,013	-0,055
-247,249	-200,000	-0,017	-0,061
-246,234	226,789	-0,136	-0,157
-245,219	0,944	-0,054	0,028
-244,205	-159,863	-0,097	-0,004
-243,190	800,000	0,047	-0,097
-242,176	-62,936	0,049	-0,014
-241,161	31,736	-0,053	0,033
-240,146	16,545	-0,024	-0,014
-239,132	-200,000	-0,152	-0,000
-238,117	8,766	-0,134	-0,072
-237,103	-200,000	-0,024	-0,094
-236,088	-164,367	0,073	-0,002
-235,073	-65,993	0,097	0,027
-234,059	-33,844	0,086	0,034
-233,044	-200,000	0,037	0,122
-232,030	231,830	-0,057	-0,067
-231,015	144,154	-0,151	-0,143
-230,000	97,054	0,070	0,057
-228,986	410,462	0,063	0,095
-227,971	202,805	0,062	0,069
-226,957	-27,637	0,141	0,058
-225,942	164,193	-0,035	0,035
-224,927	148,735	-0,062	-0,060
-223,913	-200,000	-0,039	-0,137
-222,898	61,419	0,070	-0,050
-221,884	10,219	0,044	-0,024
-220,869	11,640	0,159	0,086
-219,855	-101,470	-0,109	0,019
-218,840	-39,128	0,086	-0,032
-217,825	-200,000	0,012	0,062
-216,811	505,430	0,055	-0,091
-215,796	-98,115	-0,059	0,011
-214,782	-200,000	-0,008	0,069
-213,767	-200,000	-0,034	0,201
-212,752	416,578	-0,004	-0,005
-211,738	-200,000	0,037	0,157
-210,723	186,672	-0,010	-0,010
-209,709	363,488	-0,027	0,039
-208,694	88,149	0,034	-0,027
-207,679	120,322	0,129	-0,114
-206,665	-200,000	-0,011	-0,085
-205,650	31,353	0,106	0,065
-204,636	-116,734	0,141	-0,018
-203,621	136,490	0,107	0,099
-202,606	800,000	-0,050	0,154
-201,592	-200,000	-0,031	-0,122
-200,577	70,967	-0,117	0,086
-199,563	800,000	0,045	-0,115
-198,548	-133,634	0,065	-0,006
-197,533	800,000	-0,014	0,029
-196,519	-200,000	-0,010	0,111
-195,504	744,964	-0,042	-0,080
-194,490	-200,000	0,002	0,029
-193,475	796,229	0,076	-0,149
-192,460	800,000	0,041	0,100
-191,446	59,700	0,156	0,109
-190,431	800,000	0,066	0,139
-189,417	-200,000	0,000	0,111
-188,402	-200,000	0,020	0,114
-187,387	33,019	0,024	0,015
-186,373	-49,972	-0,142	-0,047
-185,358	477,684	-0,067	0,108
-184,344	761,694	0,050	0,097
-183,329	800,000	0,084	0,192
-182,315	170,210	-0,081	0,082
-181,300	-127,772	-0,111	0,011
-180,285	409,341	-0,033	0,050
-179,271	-200,000	-0,015	-0,131
-178,256	-161,744	0,132	0,005
-177,242	270,442	-0,034	-0,042
-176,227	399,576	0,056	-0,083
-175,212	-200,000	-0,015	0,085
-174,198	-94,640	0,195	0,037
-173,183	160,115	-0,063	-0,062
-172,169	-37,886	-0,118	-0,044
-171,154	-28,677	-0,113	-0,046
-170,139	-105,170	0,083	-0,013
-169,125	121,912	-0,025	0,022
-168,110	800,000	0,009	0,022
-167,096	-119,474	0,102	-0,012
-166,081	800,000	0,062	-0,138
-165,066	-138,994	-0,129	-0,010
-164,052	77,124	0,063	0,047
-163,037	32,604	0,086	0,052
-162,023	715,097	0,075	-0,142
-161,008	-129,106	0,097	0,009
-159,993	25,518	-0,004	-0,003
-158,979	-200,000	-0,042	-0,216
-157,964	-0,842	0,139	0,070
-156,950	800,000	0,008	0,023
-155,935	-121,266	-0,105	0,012
-154,920	47,677	0,108	-0,071
-153,906	800,000	-0,030	0,059
-152,891	-196,423	0,126	0,001
-151,877	-87,779	0,110	0,023
-150,862	-36,230	-0,085	-0,032
-149,847	220,742	0,004	0,005
-148,833	0,926	0,077	0,039
-147,818	73,501	0,102	0,076
-146,804	81,004	0,009	-0,007
-145,789	-98,206	-0,106	-0,019
-144,775	-91,030	-0,073	-0,015
-143,760	-118,236	-0,015	0,002
-142,745	292,761	0,080	0,103
-141,731	-129,889	0,093	0,009
-140,716	-143,000	-0,103	0,007
-139,702	-200,000	-0,023	-0,116
-138,687	800,000	-0,033	0,101
-137,672	-125,369	-0,083	-0,009
-136,658	759,088	-0,063	-0,121
-135,643	-124,068	-0,135	0,015
-134,629	-200,000	-0,006	0,130
-133,614	-118,912	0,054	-0,007
-132,599	-200,000	0,014	0,052
-131,585	42,756	0,026	0,017
-130,570	-94,478	-0,070	0,013
-129,556	567,640	-0,060	-0,103
-128,541	9,549	0,089	0,047
-127,526	193,840	-0,068	0,073
-126,512	-78,788	0,117	0,028
-125,497	-200,000	0,004	0,098
-124,483	-143,811	0,155	0,010
-123,468	-200,000	-0,015	0,077
-122,453	-200,000	0,012	-0,048
-121,439	-8,391	-0,073	0,035
-120,424	-159,577	-0,063	-0,002
-119,410	-69,792	0,023	0,006
-118,395	521,451	-0,046	0,077
-117,380	89,081	0,128	-0,101
-116,366	-126,098	-0,125	0,013
-115,351	162,587	-0,076	-0,076
-114,337	216,554	-0,021	0,024
-113,322	-180,877	-0,218	0,003
-112,307	-21,143	0,202	-0,087
-111,293	-200,000	0,019	-0,127
-110,278	332,917	-0,074	0,101
-109,264	-84,047	-0,130	0,029
-108,249	91,102	0,058	0,046
-107,234	800,000	-0,060	-0,143
-106,220	800,000	0,032	-0,090
-105,205	289,553	-0,051	-0,066
-104,191	-84,260	0,142	0,032
-103,176	675,952	0,052	0,097
-102,162	-89,544	-0,086	0,018
-101,147	420,437	-0,025	-0,038
-100,132	42,347	-0,116	-0,075
-99,118	18,220	-0,014	0,008
-98,103	62,216	0,064	-0,045
-97,089	146,592	0,052	-0,049
-96,074	-200,000	0,027	0,189
-95,059	51,744	-0,104	0,070
-94,045	96,081	-0,175	0,141
-93,030	49,162	0,132	0,087
-92,016	800,000	0,012	-0,030
-91,001	167,100	-0,073	0,074
-89,986	556,269	0,007	-0,013
-88,972	140,344	0,064	0,059
-87,957	-200,000	0,022	-0,117
-86,943	1,980	-0,168	-0,085
-85,928	800,000	0,009	-0,027
-84,913	-145,273	-0,105	0,007
-83,899	364,450	0,036	-0,051
-82,884	497,577	0,070	-0,115
-81,870	113,015	0,086	0,073
-80,855	42,135	0,077	-0,049
-79,840	-200,000	-0,004	-0,070
-78,826	498,144	-0,059	-0,097
-77,811	329,175	-0,056	-0,076
-76,797	800,000	-0,038	0,096
-75,782	800,000	-0,015	-0,045
-74,767	800,000	0,054	0,146
-73,753	800,000	0,071	0,162
-72,738	179,514	0,091	0,094
-71,724	-51,255	-0,097	-0,032
-70,709	188,960	-0,090	0,095
-69,694	334,291	0,055	-0,075
-68,680	-200,000	-0,003	-0,067
-67,665	394,921	-0,062	0,092
-66,651	-35,246	0,013	-0,005
-65,636	-84,919	-0,114	-0,025
-64,622	-200,000	-0,015	-0,054
-63,607	222,201	-0,073	-0,083
-62,592	800,000	0,019	-0,049
-61,578	-200,000	-0,014	0,137
-60,563	-200,000	-0,000	0,102
-59,549	478,286	-0,041	0,065
-58,534	46,529	-1,969	-1,288
-57,519	482,141	-1,232	-1,983
-56,505	-200,000	-0,258	-4,277
-55,490	465,715	0,962	1,526
-54,476	800,000	5,120	11,082
-53,461	-200,000	21,372	341,572
-52,446	800,000	761,353	2364,724
-51,432	559,862	1664,024	2847,736
-50,417	73,361	1661,332	1225,689
-49,403	17,855	1534,474	860,064
-48,388	11,772	1458,271	787,925
-47,373	19,428	1449,392	819,836
-46,359	15,358	1438,721	794,416
-45,344	10,070	1434,469	766,855
-44,330	9,993	1432,619	765,473
-43,315	10,031	1430,753	764,623
-42,300	9,988	1428,988	763,448
-41,286	10,020	1427,728	762,895
-40,271	9,973	1426,638	762,061
-39,257	9,978	1425,547	761,468
-38,242	9,969	1424,613	760,899
-37,227	10,001	1423,251	760,290
-36,213	10,046	1422,137	759,880
-35,198	10,011	1420,927	759,036
-34,184	10,084	1419,832	758,769
-33,169	9,990	1418,525	757,597
-32,154	10,040	1417,459	757,232
-31,140	10,032	1416,238	756,511
-30,125	10,070	1415,128	756,069
-29,111	10,060	1413,952	755,361
-28,096	10,011	1412,845	754,509
-27,082	9,934	1411,774	753,549
-26,067	9,957	1410,539	752,966
-25,052	9,985	1409,366	752,442
-24,038	9,998	1408,509	752,014
-23,023	10,006	1407,486	751,478
-22,009	9,992	1406,563	750,889
-20,994	9,929	1405,532	750,015
-19,979	9,941	1404,903	749,703
-18,965	9,915	1403,846	748,989
-17,950	9,944	1402,720	748,494
-16,936	9,934	1402,031	748,051
-15,921	9,893	1401,209	747,390
-14,906	9,856	1400,375	746,746
-13,892	9,967	1398,841	746,414
-12,877	9,921	1398,313	745,887
-11,863	9,901	1397,432	745,296
-10,848	9,859	1396,728	744,695
-9,833	9,808	1395,710	743,883
-8,819	9,804	1394,828	743,369
-7,804	9,779	1393,919	742,736
-6,790	9,807	1392,911	742,299
-5,775	9,796	1391,821	741,640
-4,760	9,767	1390,870	740,968
-3,746	9,780	1389,983	740,528
-2,731	9,815	1389,021	740,146
-1,717	9,751	1388,424	739,503
-0,702	9,726	1386,575	738,374
0,313	13,923	1299,028	710,908
1,327	30,266	689,833	414,549
2,342	47,549	119,158	78,239
3,356	1,626	16,506	8,355
4,371	9,685	3,538	1,886
5,386	6,555	1,018	0,532
6,400	800,000	0,183	0,553
7,415	-79,900	-0,170	-0,040
8,429	76,394	-0,261	-0,195
9,444	292,825	-0,149	-0,192
10,459	121,020	-0,327	-0,287
11,473	160,394	-0,294	-0,289
12,488	69,674	-0,294	-0,213
13,502	26,754	-0,367	-0,216
14,517	92,108	-0,288	-0,228
15,531	270,529	-0,326	-0,405
16,546	210,954	-0,224	-0,249
17,561	71,152	-0,344	-0,251
18,575	7,035	-0,133	-0,070
19,590	800,000	-0,119	-0,297
20,604	63,200	-0,227	-0,160
21,619	100,927	-0,418	-0,342
22,634	-26,889	-0,484	-0,198
23,648	62,086	-0,409	-0,287
24,663	57,048	-0,448	-0,307
25,677	-12,567	-0,396	-0,181
26,692	280,035	-0,222	-0,280
27,707	51,053	-0,395	-0,263
28,721	136,789	-0,329	-0,303
29,736	16,480	-0,449	-0,249
30,750	77,827	-0,415	-0,311
31,765	202,498	-0,358	-0,389
32,780	4,524	-0,438	-0,226
33,794	186,898	-0,272	-0,286
34,809	-32,953	-0,389	-0,151
35,823	111,352	-0,383	-0,325
36,838	174,863	-0,214	-0,218
37,853	288,642	-0,272	-0,347
38,867	195,784	-0,335	-0,358
39,882	43,531	-0,301	-0,193
40,896	-98,693	-0,398	-0,071
41,911	84,390	-0,308	-0,237
42,926	34,910	-0,372	-0,228
43,940	32,191	-0,396	-0,240
44,955	122,949	-0,341	-0,300
45,969	152,470	-0,292	-0,280
46,984	-25,939	-0,463	-0,191
47,999	78,297	-0,295	-0,221
49,013	50,967	-0,399	-0,265
50,028	37,793	-0,339	-0,211
51,042	4,198	-0,455	-0,233
52,057	20,181	-0,340	-0,192
53,071	87,029	-0,226	-0,175
54,086	275,603	-0,272	-0,340
55,101	21,259	-0,425	-0,242
56,115	62,168	-0,346	-0,242
57,130	156,031	-0,414	-0,401
58,144	111,291	-0,357	-0,302
59,159	28,994	-0,369	-0,219
60,174	-30,084	-0,421	-0,167
61,188	62,214	-0,313	-0,219
62,203	-68,473	-0,228	-0,062
63,217	-10,690	-0,252	-0,117
64,232	22,544	-0,317	-0,181
65,247	50,267	-0,283	-0,187
66,261	4,179	-0,336	-0,172
67,276	125,463	-0,310	-0,274
68,290	144,141	-0,254	-0,237
69,305	88,132	-0,296	-0,230
70,320	399,170	-0,189	-0,279
71,334	194,936	-0,285	-0,304
72,349	-61,994	-0,385	-0,112
73,363	-128,000	-0,446	-0,044
74,378	-8,586	-0,289	-0,135
75,393	57,590	-0,218	-0,149
76,407	-49,788	-0,258	-0,085
77,422	99,373	-0,200	-0,162
78,436	39,495	-0,402	-0,252
79,451	135,038	-0,400	-0,364
80,466	275,495	-0,272	-0,338
81,480	12,782	-0,363	-0,196
82,495	148,689	-0,291	-0,276
83,509	96,583	-0,284	-0,228
84,524	94,537	-0,197	-0,157
85,539	91,768	-0,298	-0,235
86,553	121,280	-0,248	-0,216
87,568	82,052	-0,272	-0,206
88,582	391,325	-0,214	-0,313
89,597	-6,799	-0,223	-0,106
90,611	22,100	-0,248	-0,141
91,626	36,076	-0,226	-0,139
92,641	41,155	-0,283	-0,179
93,655	-60,037	-0,311	-0,092
94,670	60,226	-0,258	-0,178
95,684	32,931	-0,310	-0,188
96,699	100,855	-0,358	-0,291
97,714	261,520	-0,292	-0,354
98,728	215,512	-0,163	-0,181
99,743	-4,748	-0,380	-0,183
100,757	7,120	-0,268	-0,139
101,772	-15,637	-0,372	-0,165
102,787	133,488	-0,289	-0,262
103,801	105,572	-0,303	-0,250
104,816	-42,965	-0,211	-0,074
105,830	59,871	-0,250	-0,172
106,845	-62,834	-0,242	-0,069
107,860	23,417	-0,239	-0,137
108,874	369,808	-0,173	-0,245
109,889	72,811	-0,288	-0,210
110,903	38,361	-0,264	-0,164
111,918	225,917	-0,191	-0,217
112,933	-29,298	-0,244	-0,097
113,947	-39,192	-0,347	-0,127
114,962	69,825	-0,329	-0,236
115,976	-13,127	-0,309	-0,140
116,991	-53,031	-0,319	-0,102
118,006	32,489	-0,323	-0,195
119,020	83,315	-0,176	-0,134
120,035	6,629	-0,275	-0,142
121,049	-150,761	-0,247	-0,013
122,064	-77,158	-0,299	-0,072
123,079	193,041	-0,132	-0,139
124,093	30,452	-0,241	-0,144
125,108	66,120	-0,188	-0,133
126,122	-68,729	-0,297	-0,080
127,137	45,126	-0,247	-0,159
128,151	9,398	-0,197	-0,103
129,166	683,870	-0,073	-0,133
130,181	19,262	-0,213	-0,119
131,195	-85,658	-0,280	-0,060
132,210	231,925	-0,205	-0,235
133,224	95,532	-0,257	-0,204
134,239	79,059	-0,190	-0,142
135,254	26,684	-0,206	-0,120
136,268	51,774	-0,216	-0,143
137,283	-31,302	-0,259	-0,101
138,297	-52,984	-0,352	-0,112
139,312	126,842	-0,164	-0,145
140,327	-119,932	-0,122	-0,014
141,341	-124,473	-0,239	-0,026
142,356	147,099	-0,155	-0,146
143,370	-62,251	-0,255	-0,074
144,385	14,240	-0,233	-0,126
145,400	-138,219	-0,252	-0,019
146,414	16,260	-0,311	-0,171
147,429	37,126	-0,268	-0,165
148,443	224,134	-0,182	-0,206
149,458	355,302	-0,146	-0,202
150,473	22,762	-0,213	-0,121
151,487	294,357	-0,221	-0,282
152,502	289,325	-0,209	-0,265
153,516	109,414	-0,230	-0,192
154,531	51,121	-0,212	-0,139
155,546	293,217	-0,153	-0,195
156,560	75,801	-0,161	-0,119
157,575	26,719	-0,235	-0,137
158,589	105,807	-0,226	-0,186
159,604	-11,892	-0,166	-0,076
160,619	36,664	-0,234	-0,143
161,633	129,766	-0,202	-0,180
162,648	260,302	-0,131	-0,157
163,662	111,693	-0,132	-0,111
164,677	-21,891	-0,150	-0,063
165,692	26,984	-0,243	-0,141
166,706	-5,176	-0,270	-0,129
167,721	-47,581	-0,144	-0,048
168,735	-13,763	-0,279	-0,125
169,750	727,434	-0,174	-0,324
170,764	386,938	-0,098	-0,141
171,779	65,118	-0,248	-0,174
172,794	72,991	-0,278	-0,201
173,808	63,759	-0,206	-0,144
174,823	88,390	-0,269	-0,208
175,837	569,462	-0,134	-0,227
176,852	103,720	-0,252	-0,206
177,867	76,152	-0,126	-0,093
178,881	110,101	-0,211	-0,176
179,896	-36,069	-0,274	-0,102
180,910	-53,084	-0,311	-0,099
181,925	101,948	-0,186	-0,150
182,940	159,781	-0,303	-0,293
183,954	260,067	-0,241	-0,289
184,969	171,912	-0,165	-0,165
185,983	-135,434	-0,224	-0,018
186,998	-79,027	-0,206	-0,048
188,013	185,589	-0,147	-0,151
189,027	-26,760	-0,252	-0,102
190,042	15,565	-0,300	-0,163
191,056	92,733	-0,186	-0,146
192,071	65,170	-0,219	-0,153
193,086	32,415	-0,160	-0,096
194,100	198,539	-0,206	-0,219
195,115	28,624	-0,241	-0,141
196,129	625,342	-0,142	-0,249
197,144	146,702	-0,187	-0,174
198,159	800,000	-0,067	-0,182
199,173	10,815	-0,251	-0,133
200,188	180,142	-0,206	-0,210
201,202	219,171	-0,134	-0,149
202,217	-16,233	-0,145	-0,064
203,232	408,548	-0,173	-0,254
204,246	-103,525	-0,258	-0,042
205,261	51,433	-0,166	-0,109
206,275	-125,824	-0,173	-0,018
207,290	-69,978	-0,233	-0,061
208,304	92,549	-0,183	-0,143
209,319	84,559	-0,192	-0,146
210,334	90,600	-0,165	-0,128
211,348	96,237	-0,245	-0,194
212,363	-23,005	-0,168	-0,070
213,377	-98,388	-0,243	-0,043
214,392	45,245	-0,088	-0,056
215,407	453,257	-0,119	-0,183
216,421	358,108	-0,142	-0,197
217,436	4,299	-0,222	-0,112
218,450	195,131	-0,105	-0,110
219,465	148,731	-0,195	-0,183
220,480	201,121	-0,210	-0,224
221,494	162,592	-0,142	-0,138
222,509	137,871	-0,138	-0,125
223,523	-76,470	-0,131	-0,032
224,538	800,000	-0,183	-0,409
225,553	90,739	-0,221	-0,171
226,567	37,841	-0,293	-0,180
227,582	-63,632	-0,264	-0,074
228,596	-48,038	-0,248	-0,082
229,611	-22,626	-0,203	-0,085
230,626	-170,584	-0,108	-0,003
231,640	192,740	-0,182	-0,191
232,655	51,608	-0,180	-0,118
233,669	26,257	-0,323	-0,186
234,684	217,184	-0,127	-0,140
235,699	73,876	-0,172	-0,125
236,713	800,000	-0,063	-0,133
237,728	461,167	-0,092	-0,142
238,742	208,823	-0,157	-0,170
239,757	-151,448	-0,218	-0,011
240,772	-86,650	-0,255	-0,054
241,786	32,919	-0,240	-0,143
242,801	41,201	-0,179	-0,112
243,815	-89,185	-0,130	-0,026
244,830	208,126	-0,163	-0,176
245,844	-39,886	-0,197	-0,071
246,859	0,461	-0,101	-0,050
247,874	-200,000	-0,031	-0,188
248,888	800,000	-0,061	-0,152
249,903	800,000	-0,061	-0,117
250,917	31,896	-0,087	-0,052
251,932	800,000	-0,074	-0,152
252,947	-94,058	-0,228	-0,043
253,961	70,668	-0,258	-0,184
254,976	-28,549	-0,272	-0,108
255,990	148,550	-0,227	-0,212
257,005	-6,680	-0,126	-0,059
258,020	27,166	-0,242	-0,140
259,034	800,000	-0,074	-0,176
260,049	13,613	-0,199	-0,106
261,063	-143,469	-0,314	-0,020
262,078	331,138	-0,101	-0,134
263,093	27,033	-0,242	-0,139
264,107	87,670	-0,260	-0,199
265,122	157,564	-0,145	-0,138
266,136	-189,354	-0,250	0,002
267,151	88,272	-0,184	-0,141
268,166	212,778	-0,227	-0,247
269,180	191,192	-0,170	-0,176
270,195	-22,986	-0,322	-0,133
271,209	165,987	-0,173	-0,169
272,224	34,066	-0,232	-0,139
273,239	-200,000	-0,045	-0,148
274,253	18,245	-0,068	-0,037
275,268	24,005	-0,197	-0,112
276,282	47,127	-0,134	-0,085
277,297	41,235	-0,253	-0,157
278,312	337,385	-0,256	-0,344
279,326	18,592	-0,174	-0,096
280,341	651,083	-0,160	-0,283
281,355	-167,718	-0,200	0,005
282,370	571,672	-0,148	-0,249
283,384	178,335	-0,171	-0,172
284,399	800,000	-0,094	-0,205
285,414	800,000	-0,103	-0,229
286,428	-200,000	-0,020	-0,116
287,443	-200,000	-0,003	-0,142
288,457	192,265	-0,195	-0,202
289,472	800,000	-0,082	-0,174
290,487	166,350	-0,130	-0,126
291,501	13,183	-0,251	-0,133
292,516	-112,783	-0,138	0,019
293,530	-200,000	-0,038	-0,121
294,545	-200,000	-0,147	0,000
295,560	-65,936	-0,199	-0,054
296,574	-104,104	-0,187	0,030
297,589	-195,476	-0,210	-0,001
298,603	-55,532	-0,102	-0,031
299,618	29,419	-0,203	-0,118
300,633	171,589	-0,112	-0,111
301,647	-152,845	-0,150	0,007
302,662	-56,960	-0,142	0,043
303,676	138,650	-0,132	-0,119
304,691	302,659	-0,120	-0,153
305,706	105,301	-0,096	-0,078
306,720	14,675	-0,216	-0,116
307,735	-88,379	-0,136	0,028
308,749	-19,702	-0,244	-0,103
309,764	800,000	-0,081	-0,159
310,779	100,805	-0,188	-0,150
311,793	-83,177	-0,297	-0,065
312,808	45,232	-0,308	-0,195
313,822	19,132	-0,171	-0,094
314,837	235,022	-0,215	-0,244
315,852	-127,568	-0,206	-0,020
316,866	-53,032	-0,227	0,071
317,881	121,346	-0,107	-0,091
318,895	45,833	-0,222	-0,141
319,910	-86,905	-0,214	-0,044
320,925	800,000	-0,034	-0,089
321,939	277,040	-0,114	-0,140
322,954	40,652	-0,099	-0,061
323,968	800,000	-0,068	-0,186
324,983	222,419	-0,201	-0,222
325,997	162,237	-0,091	-0,087
327,012	-99,713	-0,170	-0,029
328,027	527,322	-0,103	-0,167
329,041	114,766	-0,177	-0,148
330,056	93,215	-0,114	-0,088
331,070	-200,000	-0,005	-0,171
332,085	-64,964	-0,070	-0,019
333,100	-12,977	-0,143	-0,064
334,114	85,540	-0,206	-0,155
335,129	555,279	-0,060	-0,099
336,143	222,067	-0,095	-0,105
337,158	435,486	-0,023	0,035
338,173	9,385	-0,129	-0,067
339,187	381,433	-0,149	-0,210
340,202	8,347	-0,217	-0,111
341,216	-46,994	-0,122	-0,041
342,231	415,483	-0,107	-0,156
343,246	325,149	-0,201	-0,263
344,260	-57,527	-0,188	-0,056
345,275	13,330	-0,158	-0,084
346,289	405,416	-0,031	0,045
347,304	15,145	-0,138	-0,074
348,319	150,294	-0,128	-0,119
349,333	13,417	-0,170	-0,090
350,348	133,211	-0,057	-0,050
351,362	747,044	-0,072	-0,133
352,377	601,280	-0,099	-0,169
353,392	371,829	-0,142	-0,198
354,406	506,356	-0,099	-0,158
355,421	207,562	1310,488	1400,452
356,435	159,676	1470,666	1400,924
