DTS Sentinel unit serial number:	SN410029Multiplexer serial number:	ORYXHardware model number:	OX2-SRSoftware version number:	ORYX F/W v4,00 Oryx Data Collector v3.7.2.0data status	okinstallation	B3 Nyhavnadifferential loss correction	single-endedforward channel	channel 1reverse channel	N/Adate	2023/11/30time	09:52:30forward acquisition time	300,00reverse acquisition time	0,00gamma	499,1914k internal	0,3211k external	0,3211temperature offset calibration	1,0000default loss term (dB/km)	0,3820temperature slope calibration	1,0000multiplexer offset coefficient	1,0000multiplexer slope coefficient	1,0000fibre end	0,00T internal ref (°C)	9,52T ext. ref 1 (°C)	-5,23T ext. ref 2 (°C)	-5,33length (m)	temperature (°C)	Stokes	anti-Stokes-744,400	231,203	-0,240	-0,285
-743,385	-200,000	0,032	0,323
-742,371	-200,000	-0,033	-0,114
-741,356	-200,000	-0,075	0,292
-740,342	-35,669	-0,138	-0,054
-739,327	800,000	-0,092	0,274
-738,312	230,419	-0,225	-0,267
-737,298	-200,000	-0,044	0,206
-736,283	341,799	-0,186	-0,265
-735,269	-200,000	-0,031	0,135
-734,254	75,960	-0,208	-0,159
-733,239	175,658	-0,137	0,145
-732,225	-200,000	-0,018	-0,184
-731,210	548,551	0,063	0,110
-730,196	5,247	0,104	0,055
-729,181	22,555	0,095	-0,056
-728,167	-29,374	0,158	-0,065
-727,152	-77,691	-0,159	-0,040
-726,137	-121,225	-0,146	-0,017
-725,123	-200,000	0,020	-0,083
-724,108	800,000	-0,040	-0,090
-723,094	-112,464	-0,142	0,020
-722,079	415,598	0,045	-0,070
-721,064	800,000	-0,041	0,088
-720,050	-200,000	0,004	0,071
-719,035	800,000	-0,063	-0,137
-718,021	800,000	0,057	-0,150
-717,006	-90,960	-0,094	-0,019
-715,991	-42,143	-0,071	0,026
-714,977	-200,000	-0,038	-0,123
-713,962	-111,213	0,097	0,014
-712,948	800,000	0,024	-0,065
-711,933	800,000	0,042	-0,110
-710,918	-200,000	-0,015	0,075
-709,904	-85,011	-0,098	0,022
-708,889	-200,000	-0,021	-0,108
-707,875	320,894	0,050	-0,069
-706,860	-200,000	0,010	-0,109
-705,845	96,532	0,022	-0,018
-704,831	-200,000	0,005	-0,058
-703,816	-200,000	0,047	0,200
-702,802	-2,673	0,051	-0,026
-701,787	-200,000	-0,005	0,052
-700,772	58,346	-0,010	0,007
-699,758	427,440	0,024	0,038
-698,743	162,130	0,044	0,045
-697,729	-200,000	0,001	0,097
-696,714	336,649	0,080	-0,112
-695,699	800,000	0,043	0,113
-694,685	800,000	0,008	-0,017
-693,670	-200,000	-0,002	0,096
-692,656	800,000	0,030	-0,066
-691,641	350,743	0,063	0,091
-690,627	-137,839	0,122	-0,010
-689,612	91,614	-0,112	0,091
-688,597	91,616	-0,050	-0,041
-687,583	88,720	-0,018	0,014
-686,568	650,938	0,046	-0,086
-685,554	800,000	-0,035	-0,071
-684,539	184,879	0,053	0,057
-683,524	800,000	-0,031	0,070
-682,510	-200,000	-0,005	0,064
-681,495	-200,000	0,027	0,132
-680,481	68,502	-0,182	-0,135
-679,466	615,781	0,025	-0,046
-678,451	158,803	-0,036	-0,036
-677,437	-200,000	0,031	-0,194
-676,422	800,000	-0,056	-0,160
-675,408	22,333	0,028	0,016
-674,393	556,484	0,008	0,015
-673,378	-41,355	0,082	-0,030
-672,364	-17,899	0,027	-0,012
-671,349	243,721	-0,043	0,053
-670,335	-76,472	0,154	0,039
-669,320	-114,114	-0,032	-0,004
-668,305	800,000	0,008	0,021
-667,291	392,618	-0,017	-0,026
-666,276	389,419	0,087	-0,131
-665,262	23,700	-0,080	-0,048
-664,247	-200,000	-0,025	-0,160
-663,232	800,000	-0,050	-0,111
-662,218	42,353	-0,058	-0,038
-661,203	800,000	-0,028	0,066
-660,189	-117,544	0,075	-0,010
-659,174	43,195	-0,078	0,051
-658,159	247,487	-0,113	-0,138
-657,145	800,000	-0,037	-0,105
-656,130	-92,828	0,058	0,012
-655,116	-8,641	-0,032	0,015
-654,101	-200,000	0,005	0,050
-653,086	-80,166	-0,129	-0,031
-652,072	446,773	-0,045	-0,071
-651,057	117,280	-0,073	-0,065
-650,043	486,230	-0,072	-0,119
-649,028	-200,000	-0,024	0,112
-648,014	-135,369	0,181	0,015
-646,999	-124,518	-0,051	0,006
-645,984	188,897	-0,065	0,070
-644,970	-200,000	-0,007	-0,129
-643,955	-200,000	-0,008	-0,089
-642,941	89,415	-0,069	0,055
-641,926	496,458	-0,101	0,169
-640,911	-36,046	0,055	0,021
-639,897	-61,355	0,156	0,047
-638,882	-119,901	0,015	-0,002
-637,868	-200,000	0,001	0,069
-636,853	800,000	-0,044	-0,131
-635,838	-200,000	-0,007	-0,026
-634,824	0,899	0,034	-0,017
-633,809	-98,592	-0,037	0,007
-632,795	-200,000	0,001	-0,049
-631,780	456,088	0,037	0,059
-630,765	-78,394	-0,094	-0,023
-629,751	-61,465	-0,056	0,017
-628,736	183,667	0,011	0,012
-627,722	-200,000	0,007	-0,062
-626,707	-84,611	0,132	-0,030
-625,692	305,690	-0,051	-0,069
-624,678	161,053	0,081	0,082
-623,663	800,000	-0,038	0,104
-622,649	273,699	0,095	-0,121
-621,634	69,536	-0,030	-0,022
-620,619	25,371	-0,108	-0,064
-619,605	-200,000	-0,001	0,069
-618,590	-84,957	0,105	-0,023
-617,576	-22,978	-0,115	0,050
-616,561	139,297	-0,136	0,130
-615,546	-200,000	0,022	0,171
-614,532	-15,746	-0,087	-0,040
-613,517	767,119	0,027	-0,054
-612,503	800,000	-0,022	-0,050
-611,488	296,071	0,053	0,070
-610,474	-34,151	-0,039	0,015
-609,459	-100,126	0,132	-0,023
-608,444	446,283	-0,047	-0,075
-607,430	800,000	0,019	0,040
-606,415	32,766	0,113	-0,070
-605,401	-200,000	-0,001	-0,033
-604,386	-200,000	-0,004	0,046
-603,371	-200,000	0,002	0,043
-602,357	136,670	0,066	-0,062
-601,342	-141,714	-0,077	-0,006
-600,328	519,836	-0,039	0,067
-599,313	322,973	0,062	-0,085
-598,298	-126,480	0,063	-0,007
-597,284	111,123	-0,070	-0,061
-596,269	-200,000	0,008	0,037
-595,255	-156,111	-0,051	-0,002
-594,240	64,946	-0,097	-0,070
-593,225	267,298	-0,115	-0,146
-592,211	800,000	-0,036	-0,109
-591,196	229,291	-0,048	0,056
-590,182	437,874	-0,056	-0,088
-589,167	-82,710	0,128	-0,030
-588,152	2,011	0,057	0,030
-587,138	14,978	-0,037	0,021
-586,123	207,929	-0,107	-0,120
-585,109	-200,000	-0,024	0,093
-584,094	-15,253	0,060	-0,027
-583,079	-131,478	0,121	0,011
-582,065	735,201	0,058	0,112
-581,050	800,000	-0,036	0,098
-580,036	56,417	0,043	-0,030
-579,021	-200,000	0,006	-0,114
-578,006	-19,502	-0,066	-0,029
-576,992	-200,000	-0,003	-0,031
-575,977	224,534	0,035	-0,041
-574,963	156,770	0,094	-0,094
-573,948	250,539	-0,073	0,089
-572,934	590,701	-0,027	-0,048
-571,919	70,490	-0,085	-0,063
-570,904	-31,625	-0,101	-0,041
-569,890	157,256	0,052	-0,052
-568,875	483,211	0,071	0,117
-567,861	-121,729	0,051	0,006
-566,846	-121,267	0,116	-0,014
-565,831	-45,583	0,021	0,008
-564,817	47,666	-0,130	-0,087
-563,802	-200,000	-0,024	-0,085
-562,788	47,433	0,025	0,017
-561,773	800,000	-0,040	0,088
-560,758	-113,239	-0,014	-0,002
-559,744	202,101	0,068	-0,076
-558,729	104,368	-0,149	0,127
-557,715	100,172	-0,071	-0,059
-556,700	-63,099	0,027	0,008
-555,685	800,000	-0,028	-0,070
-554,671	48,830	0,038	-0,026
-553,656	213,401	0,035	-0,040
-552,642	-49,145	-0,085	-0,029
-551,627	800,000	0,035	-0,075
-550,612	-57,997	-0,181	-0,056
-549,598	-0,394	-0,187	-0,095
-548,583	-200,000	-0,014	-0,142
-547,569	-0,157	-0,053	-0,027
-546,554	-200,000	0,024	0,113
-545,539	441,484	0,085	0,134
-544,525	94,499	0,051	0,042
-543,510	89,968	-0,073	0,059
-542,496	159,118	0,051	-0,051
-541,481	32,087	0,025	-0,016
-540,466	39,764	-0,047	-0,030
-539,452	386,479	0,091	-0,135
-538,437	324,116	-0,032	0,044
-537,423	-130,458	-0,125	-0,012
-536,408	-48,319	0,075	0,026
-535,393	-150,787	0,133	-0,007
-534,379	135,642	-0,069	0,064
-533,364	-200,000	0,010	-0,162
-532,350	290,439	0,018	0,024
-531,335	-200,000	-0,024	0,144
-530,321	388,803	0,019	0,028
-529,306	-200,000	-0,005	0,101
-528,291	626,367	-0,048	-0,088
-527,277	-200,000	0,013	-0,117
-526,262	-83,617	-0,093	0,021
-525,248	-33,194	0,085	-0,034
-524,233	-121,385	0,097	0,011
-523,218	-43,864	0,120	0,043
-522,204	-200,000	-0,019	-0,089
-521,189	-96,876	0,070	-0,013
-520,175	166,634	-0,058	-0,059
-519,160	795,779	0,032	-0,063
-518,145	-38,930	0,099	0,037
-517,131	-19,943	-0,117	-0,052
-516,116	-62,951	0,157	-0,046
-515,102	413,764	0,028	-0,042
-514,087	210,872	-0,067	0,076
-513,072	595,788	0,008	-0,014
-512,058	-173,378	-0,183	-0,004
-511,043	-200,000	0,005	0,119
-510,029	161,795	0,067	0,067
-509,014	-0,696	0,082	-0,042
-507,999	-200,000	0,014	0,092
-506,985	-139,504	0,111	0,008
-505,970	-0,596	-0,067	-0,034
-504,956	-200,000	-0,008	0,043
-503,941	-200,000	0,019	-0,089
-502,926	21,473	0,106	-0,062
-501,912	306,224	-0,057	0,076
-500,897	24,413	0,139	0,082
-499,883	39,584	0,059	-0,038
-498,868	800,000	-0,085	-0,175
-497,853	-200,000	-0,009	-0,040
-496,839	800,000	0,056	-0,142
-495,824	-77,186	-0,089	-0,022
-494,810	-200,000	-0,014	0,117
-493,795	-200,000	0,013	0,157
-492,781	128,664	-0,034	-0,032
-491,766	-200,000	-0,006	-0,034
-490,751	120,498	-0,031	-0,028
-489,737	138,812	0,016	-0,015
-488,722	800,000	-0,062	-0,178
-487,708	356,488	0,097	0,140
-486,693	-76,133	-0,048	-0,012
-485,678	211,351	-0,064	0,072
-484,664	173,287	-0,079	0,082
-483,649	284,032	-0,126	-0,164
-482,635	-200,000	0,017	-0,063
-481,620	-200,000	-0,004	-0,032
-480,605	-45,915	0,033	-0,011
-479,591	-200,000	-0,023	-0,082
-478,576	694,639	-0,103	-0,195
-477,562	800,000	-0,039	-0,082
-476,547	-84,141	-0,225	0,051
-475,532	-20,747	0,121	0,053
-474,518	57,274	0,055	0,038
-473,503	-93,837	0,109	0,021
-472,489	-200,000	0,018	0,074
-471,474	49,520	-0,140	-0,094
-470,459	-96,492	0,143	0,027
-469,445	-74,901	0,125	0,032
-468,430	8,071	-0,135	-0,073
-467,416	800,000	-0,044	-0,119
-466,401	128,047	0,090	0,082
-465,386	691,577	-0,044	0,083
-464,372	271,541	-0,123	0,156
-463,357	-200,000	0,024	-0,199
-462,343	262,075	-0,085	-0,106
-461,328	800,000	-0,008	0,024
-460,313	-200,000	0,003	0,090
-459,299	-200,000	-0,003	0,025
-458,284	72,017	-0,131	0,098
-457,270	-200,000	-0,017	0,096
-456,255	-200,000	-0,011	-0,061
-455,241	119,757	0,018	0,016
-454,226	-44,729	-0,021	0,007
-453,211	3,402	0,067	-0,035
-452,197	300,931	0,149	0,198
-451,182	800,000	0,059	0,139
-450,168	-105,297	0,121	0,020
-449,153	195,924	-0,074	-0,081
-448,138	-48,641	0,169	-0,058
-447,124	-200,000	0,018	-0,059
-446,109	-124,715	0,089	-0,010
-445,095	-137,963	-0,079	0,006
-444,080	-200,000	-0,021	0,067
-443,065	56,891	-0,018	0,012
-442,051	-200,000	0,019	0,171
-441,036	569,962	-0,032	0,056
-440,022	477,009	-0,052	-0,084
-439,007	-125,252	-0,127	0,014
-437,992	-110,818	-0,075	0,011
-436,978	-200,000	0,012	0,111
-435,963	-200,000	-0,018	-0,060
-434,949	-129,783	-0,020	-0,002
-433,934	-64,800	-0,087	0,025
-432,919	800,000	0,025	-0,063
-431,905	-200,000	0,002	0,053
-430,890	800,000	0,024	0,050
-429,876	-200,000	0,006	0,046
-428,861	-129,769	-0,076	-0,007
-427,846	-115,709	0,065	0,009
-426,832	287,810	-0,045	0,059
-425,817	193,967	-0,026	0,028
-424,803	-200,000	0,027	-0,111
-423,788	-21,800	0,156	0,068
-422,773	354,961	-0,046	-0,065
-421,759	-121,417	0,052	-0,006
-420,744	-26,362	-0,011	-0,004
-419,730	204,203	-0,059	-0,066
-418,715	800,000	-0,064	-0,171
-417,701	601,793	-0,028	0,050
-416,686	578,607	0,026	0,046
-415,671	113,816	0,117	0,102
-414,657	-200,000	0,034	0,162
-413,642	800,000	-0,047	0,097
-412,628	66,436	0,159	-0,116
-411,613	45,791	-0,035	-0,023
-410,598	64,707	-0,075	0,054
-409,584	165,209	-0,158	0,160
-408,569	-56,358	0,050	0,016
-407,555	-98,522	-0,121	0,022
-406,540	543,813	0,080	-0,137
-405,525	800,000	-0,040	-0,087
-404,511	46,358	-0,135	-0,089
-403,496	-40,573	-0,066	-0,025
-402,482	-50,876	0,130	-0,043
-401,467	268,488	0,089	-0,112
-400,452	-14,368	0,112	0,051
-399,438	762,679	0,052	0,101
-398,423	106,181	0,073	0,062
-397,409	-200,000	0,008	-0,039
-396,394	800,000	0,040	-0,111
-395,379	84,404	-0,125	-0,098
-394,365	131,309	0,096	0,088
-393,350	3,312	0,059	0,031
-392,336	43,123	0,028	0,018
-391,321	-135,051	-0,101	-0,009
-390,306	-12,093	-0,095	-0,045
-389,292	251,916	-0,043	-0,053
-388,277	46,506	-0,059	0,039
-387,263	74,563	0,041	-0,031
-386,248	-200,000	0,053	0,188
-385,233	-200,000	-0,002	0,113
-384,219	-200,000	0,031	-0,112
-383,204	-6,930	-0,040	0,019
-382,190	-200,000	0,007	0,102
-381,175	-200,000	-0,001	0,019
-380,160	-63,811	0,069	0,020
-379,146	-58,650	0,060	0,019
-378,131	248,409	0,057	0,069
-377,117	136,847	-0,129	-0,121
-376,102	-200,000	0,005	-0,038
-375,088	-152,290	-0,088	-0,004
-374,073	-156,927	-0,078	-0,003
-373,058	-200,000	0,006	0,115
-372,044	276,684	-0,013	0,016
-371,029	-44,843	0,046	-0,016
-370,015	-200,000	0,007	-0,098
-369,000	210,399	-0,073	0,082
-367,985	-200,000	-0,014	-0,104
-366,971	385,932	-0,027	-0,040
-365,956	745,179	0,041	0,078
-364,942	618,020	0,056	-0,101
-363,927	47,808	0,101	-0,067
-362,912	800,000	-0,022	0,062
-361,898	-200,000	-0,003	-0,064
-360,883	161,087	-0,069	0,069
-359,869	651,313	-0,034	0,062
-358,854	287,774	0,039	-0,050
-357,839	59,643	0,106	0,075
-356,825	-107,936	-0,101	-0,015
-355,810	80,022	-0,012	0,009
-354,796	158,961	-0,049	-0,048
-353,781	-200,000	0,009	-0,132
-352,766	9,405	0,085	0,046
-351,752	-26,154	0,119	-0,050
-350,737	496,244	0,011	-0,018
-349,723	294,324	0,128	0,168
-348,708	-194,628	-0,084	-0,000
-347,693	142,727	0,027	0,026
-346,679	128,404	-0,149	-0,135
-345,664	-200,000	0,023	0,087
-344,650	-114,132	0,080	-0,011
-343,635	350,380	0,028	0,039
-342,620	-3,490	0,023	-0,011
-341,606	378,149	-0,059	-0,086
-340,591	-89,331	0,024	-0,005
-339,577	437,415	0,039	-0,061
-338,562	800,000	-0,053	-0,122
-337,548	173,571	0,022	0,022
-336,533	-200,000	-0,007	0,062
-335,518	-64,639	0,100	0,029
-334,504	-91,294	-0,110	0,022
-333,489	41,234	-0,089	-0,057
-332,475	-17,187	-0,066	0,030
-331,460	201,479	-0,111	0,122
-330,445	291,978	0,022	-0,029
-329,431	-200,000	0,026	0,094
-328,416	-200,000	0,000	0,020
-327,402	301,437	-0,032	0,042
-326,387	-26,916	-0,013	0,005
-325,372	128,863	-0,089	-0,081
-324,358	-200,000	0,001	0,093
-323,343	41,085	-0,064	0,041
-322,329	698,611	0,038	0,071
-321,314	-200,000	0,011	0,137
-320,299	-20,049	0,100	-0,044
-319,285	-7,980	-0,141	-0,068
-318,270	-10,685	0,058	-0,027
-317,256	-135,958	0,066	0,005
-316,241	92,840	0,104	-0,084
-315,226	-200,000	-0,001	-0,006
-314,212	-35,227	-0,055	-0,021
-313,197	224,533	-0,027	0,031
-312,183	-52,240	0,049	0,016
-311,168	-133,045	-0,047	-0,004
-310,153	90,105	-0,098	-0,078
-309,139	-200,000	-0,003	0,075
-308,124	476,024	-0,058	0,093
-307,110	342,798	-0,039	0,055
-306,095	183,459	0,091	0,096
-305,080	64,511	0,126	0,090
-304,066	-67,913	-0,048	-0,013
-303,051	-54,727	0,055	-0,018
-302,037	800,000	0,077	-0,177
-301,022	653,312	0,017	-0,030
-300,008	255,725	0,034	0,042
-298,993	800,000	0,051	0,132
-297,978	369,906	-0,009	-0,013
-296,964	78,311	0,131	-0,099
-295,949	-200,000	-0,002	-0,033
-294,935	101,429	-0,040	-0,033
-293,920	129,793	0,105	0,095
-292,905	462,939	0,062	0,100
-291,891	78,329	0,142	-0,108
-290,876	156,309	0,043	-0,043
-289,862	104,554	-0,033	-0,028
-288,847	191,348	0,065	-0,070
-287,832	-155,115	0,035	0,002
-286,818	-38,812	-0,049	0,018
-285,803	274,504	0,063	0,080
-284,789	-200,000	0,011	0,079
-283,774	111,862	0,050	0,043
-282,759	-83,035	-0,030	-0,007
-281,745	-54,651	-0,142	0,045
-280,730	-18,286	0,133	0,059
-279,716	50,795	-0,084	0,056
-278,701	-200,000	0,021	0,085
-277,686	63,152	0,038	0,027
-276,672	-148,269	-0,090	0,005
-275,657	90,083	0,089	0,070
-274,643	142,003	-0,065	0,061
-273,628	-178,424	-0,049	-0,001
-272,613	12,158	-0,111	-0,060
-271,599	-97,041	-0,046	-0,009
-270,584	43,306	0,116	0,075
-269,570	800,000	-0,021	0,043
-268,555	-9,387	-0,063	-0,030
-267,540	398,813	0,114	-0,170
-266,526	-200,000	0,017	-0,118
-265,511	166,969	-0,060	-0,060
-264,497	-134,530	0,092	-0,008
-263,482	-1,595	0,087	0,043
-262,467	41,146	0,094	0,060
-261,453	-200,000	0,021	-0,133
-260,438	217,181	0,023	-0,026
-259,424	-112,380	0,052	-0,007
-258,409	-116,412	-0,153	-0,020
-257,395	-200,000	0,022	0,080
-256,380	-200,000	-0,005	0,075
-255,365	35,885	0,043	0,027
-254,351	-200,000	0,007	-0,058
-253,336	113,220	-0,098	-0,084
-252,322	266,099	-0,030	-0,037
-251,307	-43,981	-0,073	0,026
-250,292	-200,000	0,009	-0,049
-249,278	25,948	0,132	0,078
-248,263	-200,000	0,102	0,000
-247,249	-114,643	-0,068	0,009
-246,234	-193,651	0,021	-0,000
-245,219	-200,000	0,001	0,025
-244,205	-126,379	-0,084	0,009
-243,190	-81,261	0,174	-0,041
-242,176	-137,503	0,107	-0,008
-241,161	-200,000	-0,022	-0,079
-240,146	290,192	-0,044	-0,057
-239,132	-200,000	-0,050	-0,166
-238,117	-200,000	-0,015	-0,057
-237,103	800,000	0,036	-0,078
-236,088	800,000	-0,064	-0,135
-235,073	-200,000	0,010	0,116
-234,059	167,897	-0,052	-0,053
-233,044	-200,000	-0,000	0,024
-232,030	7,140	-0,060	-0,032
-231,015	800,000	0,031	-0,063
-230,000	-125,262	-0,077	0,008
-228,986	800,000	0,008	0,022
-227,971	-200,000	0,035	-0,116
-226,957	800,000	0,015	0,042
-225,942	-147,673	0,098	-0,006
-224,927	523,683	0,030	-0,050
-223,913	-84,606	-0,131	-0,029
-222,898	113,663	-0,120	0,104
-221,884	-200,000	-0,001	-0,055
-220,869	-22,993	-0,070	0,030
-219,855	-200,000	-0,020	0,110
-218,840	377,232	0,108	0,158
-217,825	-200,000	0,020	-0,102
-216,811	-200,000	0,008	0,056
-215,796	299,754	-0,033	0,044
-214,782	83,657	0,072	0,055
-213,767	-130,834	-0,029	-0,003
-212,752	453,033	0,115	0,181
-211,738	800,000	0,041	0,100
-210,723	796,116	0,034	0,066
-209,709	188,381	-0,078	0,083
-208,694	-200,000	0,002	-0,145
-207,679	550,457	-0,097	-0,165
-206,665	-200,000	0,001	0,103
-205,650	504,325	0,023	-0,038
-204,636	-200,000	0,016	0,121
-203,621	-200,000	0,011	0,040
-202,606	-21,473	-0,034	-0,015
-201,592	280,837	-0,033	-0,042
-200,577	-87,055	0,021	0,005
-199,563	800,000	0,050	-0,126
-198,548	-200,000	0,041	0,217
-197,533	642,216	0,076	0,138
-196,519	107,350	-0,141	0,119
-195,504	-200,000	0,000	-0,016
-194,490	-23,530	0,032	-0,014
-193,475	-13,424	-0,150	-0,069
-192,460	47,004	-0,086	0,056
-191,446	371,408	0,097	0,140
-190,431	89,789	0,067	-0,053
-189,417	-32,437	-0,035	-0,014
-188,402	800,000	-0,028	0,067
-187,387	-200,000	-0,008	-0,105
-186,373	-32,543	0,020	-0,008
-185,358	-80,367	-0,049	-0,011
-184,344	-200,000	0,185	0,000
-183,329	103,030	-0,090	0,075
-182,315	-11,949	-0,032	0,015
-181,300	-200,000	0,039	-0,171
-180,285	-53,847	-0,028	0,009
-179,271	340,771	0,043	-0,059
-178,256	-200,000	-0,004	-0,014
-177,242	-200,000	-0,022	0,106
-176,227	38,050	-0,138	0,087
-175,212	139,915	-0,087	-0,081
-174,198	-47,474	-0,074	-0,025
-173,183	-17,072	0,088	-0,039
-172,169	800,000	-0,031	-0,062
-171,154	-8,061	0,102	0,049
-170,139	380,583	0,074	-0,108
-169,125	-20,671	-0,137	0,059
-168,110	122,684	0,117	-0,104
-167,096	126,389	-0,092	-0,082
-166,081	-81,106	0,020	-0,005
-165,066	-52,831	-0,084	-0,027
-164,052	712,375	-0,085	0,161
-163,037	107,103	0,059	0,050
-162,023	577,123	0,090	0,156
-161,008	250,978	0,066	0,079
-159,993	-200,000	0,003	0,067
-158,979	210,513	0,046	0,052
-157,964	12,313	-0,136	-0,074
-156,950	-129,573	0,106	-0,010
-155,935	-136,396	0,051	-0,004
-154,920	800,000	-0,032	-0,096
-153,906	495,087	0,019	-0,031
-152,891	280,126	0,051	-0,065
-151,877	162,192	-0,018	-0,018
-150,862	-39,962	-0,088	-0,032
-149,847	-63,393	-0,025	-0,007
-148,833	-200,000	0,019	0,121
-147,818	163,388	-0,069	-0,069
-146,804	694,846	-0,018	0,033
-145,789	-119,988	0,122	0,015
-144,775	129,847	0,034	0,031
-143,760	792,025	-0,054	-0,106
-142,745	731,332	-0,072	0,137
-141,731	-2,779	-0,082	0,040
-140,716	-50,053	0,067	-0,022
-139,702	5,894	0,124	-0,065
-138,687	201,596	0,108	0,118
-137,672	18,172	0,103	-0,058
-136,658	-47,433	-0,045	0,015
-135,643	800,000	-0,045	0,110
-134,629	422,841	0,042	-0,064
-133,614	64,871	-0,028	-0,020
-132,599	17,571	0,151	0,085
-131,585	-200,000	0,007	0,028
-130,570	-54,755	0,072	0,023
-129,556	606,907	-0,044	0,078
-128,541	310,100	-0,045	0,060
-127,526	88,626	0,082	-0,064
-126,512	-31,776	0,091	-0,036
-125,497	-43,418	0,046	0,016
-124,483	-42,887	0,018	0,006
-123,468	103,573	0,044	-0,036
-122,453	-200,000	-0,011	-0,083
-121,439	-155,188	-0,110	-0,005
-120,424	800,000	0,061	-0,164
-119,410	12,028	0,064	-0,035
-118,395	800,000	0,043	0,101
-117,380	724,604	0,031	-0,058
-116,366	92,956	-0,057	-0,046
-115,351	-200,000	-0,000	0,155
-114,337	-2,715	-0,012	0,006
-113,322	293,718	0,022	0,028
-112,307	41,849	0,072	0,046
-111,293	89,885	0,053	-0,042
-110,278	-88,813	-0,100	0,021
-109,264	516,671	-0,061	0,101
-108,249	800,000	0,013	-0,036
-107,234	50,509	-0,091	-0,061
-106,220	274,465	0,076	-0,096
-105,205	82,277	-0,086	0,066
-104,191	-80,655	0,136	0,032
-103,176	173,432	0,085	-0,087
-102,162	158,191	-0,090	0,088
-101,147	-105,781	-0,105	-0,017
-100,132	-200,000	-0,022	-0,069
-99,118	8,682	0,047	0,025
-98,103	-200,000	-0,006	0,028
-97,089	168,782	0,062	0,062
-96,074	26,354	0,069	0,041
-95,059	-101,146	-0,111	0,019
-94,045	800,000	-0,049	0,129
-93,030	-200,000	-0,014	0,084
-92,016	223,996	-0,007	-0,008
-91,001	-43,790	0,112	0,040
-89,986	-13,188	0,041	-0,019
-88,972	232,768	0,040	0,047
-87,957	-60,677	0,069	0,021
-86,943	-17,032	0,019	0,008
-85,928	800,000	-0,022	0,045
-84,913	526,759	0,053	-0,089
-83,899	-65,304	0,128	0,036
-82,884	-200,000	0,014	-0,052
-81,870	-185,794	0,043	-0,000
-80,855	467,176	0,025	-0,040
-79,840	-78,265	-0,184	0,044
-78,826	-110,801	0,067	0,010
-77,811	-47,255	-0,073	-0,025
-76,797	128,966	-0,100	0,090
-75,782	4,895	-0,179	0,093
-74,767	-32,251	0,189	-0,074
-73,753	-136,307	0,069	-0,006
-72,738	-200,000	-0,008	0,085
-71,724	-200,000	0,015	0,090
-70,709	503,782	-0,040	0,065
-69,694	222,018	0,038	0,043
-68,680	-200,000	-0,037	-0,155
-67,665	-200,000	0,020	-0,165
-66,651	-200,000	-0,017	-0,171
-65,636	218,644	0,044	-0,050
-64,622	682,123	-0,038	0,071
-63,607	-12,750	0,203	-0,093
-62,592	84,862	0,109	-0,084
-61,578	-104,541	0,062	-0,010
-60,563	297,164	0,085	0,110
-59,549	447,483	0,081	0,126
-58,534	31,618	-2,003	-1,213
-57,519	429,773	-1,340	-2,053
-56,505	-200,000	-0,221	-4,424
-55,490	800,000	0,774	1,560
-54,476	800,000	5,249	11,355
-53,461	-200,000	21,643	345,027
-52,446	800,000	763,520	2347,390
-51,432	548,009	1663,219	2821,871
-50,417	71,665	1659,620	1215,795
-49,403	17,310	1532,729	856,330
-48,388	11,321	1456,728	784,918
-47,373	19,462	1448,338	819,409
-46,359	14,905	1437,456	791,567
-45,344	9,633	1433,169	764,087
-44,330	9,587	1431,340	762,862
-43,315	9,569	1429,477	761,752
-42,300	9,562	1427,624	760,701
-41,286	9,584	1426,437	760,145
-40,271	9,533	1425,410	759,325
-39,257	9,531	1424,273	758,679
-38,242	9,627	1423,031	758,442
-37,227	9,586	1421,994	757,665
-36,213	9,589	1420,631	756,922
-35,198	9,617	1419,308	756,320
-34,184	9,671	1418,422	756,074
-33,169	9,527	1417,247	754,737
-32,154	9,600	1416,161	754,472
-31,140	9,612	1414,879	753,818
-30,125	9,642	1413,690	753,296
-29,111	9,632	1412,697	752,687
-28,096	9,628	1411,334	751,915
-27,082	9,534	1410,285	750,886
-26,067	9,526	1409,140	750,207
-25,052	9,586	1408,127	749,920
-24,038	9,565	1407,125	749,256
-23,023	9,580	1406,314	748,864
-22,009	9,568	1405,197	748,185
-20,994	9,530	1404,002	747,343
-19,979	9,564	1403,182	747,036
-18,965	9,547	1402,135	746,365
-17,950	9,566	1401,283	745,975
-16,936	9,494	1400,688	745,291
-15,921	9,459	1399,621	744,532
-14,906	9,470	1398,794	744,114
-13,892	9,512	1397,641	743,665
-12,877	9,490	1397,062	743,225
-11,863	9,460	1396,061	742,523
-10,848	9,434	1395,245	741,939
-9,833	9,426	1394,187	741,311
-8,819	9,359	1393,379	740,540
-7,804	9,356	1392,586	740,075
-6,790	9,355	1391,374	739,398
-5,775	9,347	1390,432	738,834
-4,760	9,358	1389,478	738,347
-3,746	9,408	1388,495	738,025
-2,731	9,397	1387,626	737,485
-1,717	9,338	1386,851	736,769
-0,702	9,359	1385,040	735,877
0,313	13,351	1297,255	707,482
1,327	29,385	687,989	411,469
2,342	46,012	118,888	77,479
3,356	1,031	16,567	8,353
4,371	6,520	3,706	1,936
5,386	-15,123	1,192	0,536
6,400	800,000	0,213	0,554
7,415	-73,323	-0,267	-0,068
8,429	10,135	-0,276	-0,148
9,444	-92,811	-0,384	-0,075
10,459	79,725	-0,252	-0,191
11,473	128,490	-0,286	-0,257
12,488	-128,115	-0,283	-0,028
13,502	-60,113	-0,304	-0,091
14,517	-29,447	-0,301	-0,121
15,531	100,300	-0,209	-0,171
16,546	-87,688	-0,388	-0,082
17,561	-19,817	-0,435	-0,188
18,575	53,637	-0,229	0,155
19,590	211,502	-0,168	-0,187
20,604	-139,571	-0,409	-0,030
21,619	103,478	-0,472	-0,390
22,634	15,998	-0,382	-0,211
23,648	12,959	-0,547	-0,297
24,663	7,406	-0,414	-0,217
25,677	45,772	-0,332	-0,216
26,692	31,492	-0,339	-0,204
27,707	-15,281	-0,326	-0,146
28,721	18,556	-0,396	-0,222
29,736	175,877	-0,455	-0,465
30,750	6,991	-0,397	-0,208
31,765	192,205	-0,346	-0,368
32,780	39,178	-0,432	-0,271
33,794	37,067	-0,228	-0,141
34,809	-9,309	-0,551	-0,258
35,823	42,432	-0,355	-0,227
36,838	42,298	-0,439	-0,280
37,853	33,331	-0,349	-0,213
38,867	117,397	-0,361	-0,312
39,882	175,166	-0,358	-0,365
40,896	244,840	-0,184	-0,217
41,911	75,686	-0,475	-0,352
42,926	-22,824	-0,324	-0,137
43,940	-40,011	-0,504	-0,184
44,955	138,651	-0,351	-0,324
45,969	114,595	-0,363	-0,311
46,984	430,129	-0,184	-0,281
47,999	47,028	-0,397	-0,259
49,013	413,623	-0,150	-0,225
50,028	-21,578	-0,288	-0,123
51,042	-8,512	-0,251	-0,118
52,057	-29,133	-0,355	-0,142
53,071	411,520	-0,173	-0,259
54,086	99,237	-0,333	-0,270
55,101	76,637	-0,376	-0,279
56,115	92,888	-0,331	-0,262
57,130	31,398	-0,393	-0,236
58,144	125,741	-0,372	-0,330
59,159	350,510	-0,190	-0,264
60,174	29,001	-0,365	-0,217
61,188	84,296	-0,282	-0,216
62,203	30,267	-0,390	-0,233
63,217	242,751	-0,241	-0,284
64,232	-11,319	-0,418	-0,192
65,247	117,310	-0,297	-0,256
66,261	223,759	-0,285	-0,323
67,276	213,143	-0,390	-0,432
68,290	-9,297	-0,390	-0,182
69,305	34,510	-0,309	-0,189
70,320	-61,022	-0,238	-0,070
71,334	-127,865	-0,276	-0,027
72,349	-91,638	-0,279	-0,055
73,363	81,885	-0,308	-0,233
74,378	80,342	-0,294	-0,222
75,393	-3,923	-0,278	-0,135
76,407	262,712	-0,231	-0,281
77,422	385,289	-0,099	-0,144
78,436	-63,756	-0,183	-0,052
79,451	-39,200	-0,316	-0,116
80,466	26,677	-0,483	-0,283
81,480	109,906	-0,437	-0,367
82,495	151,343	-0,266	-0,254
83,509	0,343	-0,339	-0,169
84,524	168,232	-0,119	-0,118
85,539	-117,568	-0,343	-0,043
86,553	-49,344	-0,267	-0,089
87,568	-19,387	-0,256	-0,111
88,582	-83,425	-0,315	-0,070
89,597	36,054	-0,257	-0,158
90,611	12,357	-0,299	-0,161
91,626	-50,078	-0,188	-0,062
92,641	-31,519	-0,367	-0,144
93,655	26,118	-0,256	-0,149
94,670	51,998	-0,294	-0,195
95,684	319,187	-0,243	-0,324
96,699	209,112	-0,267	-0,293
97,714	290,956	-0,136	-0,173
98,728	163,990	-0,246	-0,243
99,743	77,243	-0,236	-0,175
100,757	51,801	-0,251	-0,167
101,772	36,973	-0,315	-0,195
102,787	161,347	-0,237	-0,232
103,801	132,162	-0,225	-0,202
104,816	432,465	-0,170	-0,259
105,830	800,000	-0,118	-0,283
106,845	175,830	-0,249	-0,253
107,860	-98,622	-0,291	-0,051
108,874	-62,906	-0,162	-0,047
109,889	50,367	-0,229	-0,151
110,903	82,227	-0,296	-0,224
111,918	-75,878	-0,240	-0,059
112,933	321,364	-0,134	-0,178
113,947	405,310	-0,166	-0,245
114,962	-97,561	-0,276	-0,050
115,976	155,997	-0,197	-0,190
116,991	101,573	-0,277	-0,225
118,006	260,901	-0,222	-0,269
119,020	229,168	-0,279	-0,319
120,035	173,757	-0,240	-0,242
121,049	60,644	-0,212	-0,146
122,064	464,683	-0,120	-0,188
123,079	-64,924	-0,165	-0,046
124,093	17,975	-0,287	-0,159
125,108	485,201	-0,190	-0,304
126,122	476,225	-0,173	-0,273
127,137	252,575	-0,261	-0,311
128,151	62,729	-0,065	-0,046
129,166	194,215	-0,186	-0,197
130,181	-164,561	-0,258	-0,008
131,195	64,302	-0,311	-0,218
132,210	20,332	-0,419	-0,235
133,224	12,671	-0,293	-0,157
134,239	0,789	-0,331	-0,165
135,254	70,492	-0,249	-0,179
136,268	68,100	-0,200	-0,143
137,283	61,760	-0,289	-0,200
138,297	60,901	-0,234	-0,161
139,312	-41,008	-0,212	-0,076
140,327	289,962	-0,182	-0,231
141,341	149,523	-0,151	-0,143
142,356	220,042	-0,242	-0,270
143,370	123,587	-0,160	-0,140
144,385	113,424	-0,209	-0,177
145,400	25,999	-0,251	-0,145
146,414	-78,576	-0,319	-0,075
147,429	-82,285	-0,280	-0,063
148,443	4,253	-0,147	-0,075
149,458	117,666	-0,159	-0,136
150,473	-71,561	-0,273	-0,071
151,487	152,514	-0,109	-0,104
152,502	5,665	-0,323	-0,165
153,516	257,576	-0,224	-0,268
154,531	112,749	-0,228	-0,192
155,546	564,164	-0,130	-0,220
156,560	182,317	-0,224	-0,230
157,575	72,981	-0,199	-0,144
158,589	-200,000	-0,029	-0,179
159,604	142,864	-0,245	-0,226
160,619	107,021	-0,324	-0,268
161,633	-112,657	-0,369	-0,051
162,648	-82,276	-0,171	-0,038
163,662	-34,746	-0,195	-0,074
164,677	64,049	-0,234	-0,164
165,692	58,718	-0,194	-0,132
166,706	20,614	-0,272	-0,153
167,721	107,888	-0,333	-0,276
168,735	178,343	-0,217	-0,220
169,750	-71,421	-0,179	-0,046
170,764	183,802	-0,220	-0,227
171,779	109,740	-0,152	-0,127
172,794	262,694	-0,142	-0,171
173,808	-16,842	-0,272	-0,119
174,823	-5,832	-0,175	-0,083
175,837	66,590	-0,238	-0,168
176,852	-99,612	-0,200	-0,034
177,867	175,192	-0,162	-0,163
178,881	20,637	-0,220	-0,124
179,896	-162,220	-0,161	0,005
180,910	8,982	-0,214	-0,112
181,925	50,042	-0,255	-0,167
182,940	800,000	-0,126	-0,248
183,954	800,000	-0,091	-0,204
184,969	800,000	-0,076	-0,150
185,983	374,395	-0,152	-0,215
186,998	-43,648	-0,295	-0,103
188,013	243,451	-0,144	-0,168
189,027	91,306	-0,186	-0,145
190,042	671,484	-0,090	-0,162
191,056	33,396	-0,256	-0,154
192,071	139,123	-0,172	-0,157
193,086	-7,000	-0,251	-0,118
194,100	-35,580	-0,140	-0,052
195,115	9,891	-0,297	-0,156
196,129	52,117	-0,230	-0,152
197,144	800,000	-0,112	-0,215
198,159	570,699	-0,165	-0,279
199,173	113,772	-0,243	-0,204
200,188	43,319	-0,224	-0,142
201,202	210,946	-0,142	-0,155
202,217	91,541	-0,227	-0,177
203,232	170,522	-0,286	-0,284
204,246	328,411	-0,111	-0,148
205,261	-38,015	-0,255	-0,093
206,275	313,689	-0,181	-0,236
207,290	430,300	-0,227	-0,341
208,304	33,485	-0,195	-0,117
209,319	707,903	0,036	-0,066
210,334	119,948	-0,262	-0,225
211,348	403,533	-0,161	-0,235
212,363	800,000	-0,130	-0,262
213,377	-9,836	-0,250	-0,115
214,392	223,370	-0,202	-0,226
215,407	123,254	-0,162	-0,141
216,421	-103,443	-0,159	-0,026
217,436	-160,948	-0,330	-0,012
218,450	128,205	-0,155	-0,136
219,465	51,561	-0,136	-0,089
220,480	800,000	-0,103	-0,198
221,494	800,000	-0,118	-0,241
222,509	-149,056	-0,125	-0,007
223,523	43,555	-0,215	-0,136
224,538	133,266	-0,194	-0,174
225,553	248,696	-0,206	-0,242
226,567	76,393	-0,124	-0,091
227,582	28,444	-0,240	-0,140
228,596	-3,635	-0,114	0,055
229,611	13,967	-0,120	0,064
230,626	-24,196	-0,132	0,054
231,640	-23,291	-0,202	-0,084
232,655	91,730	-0,221	-0,172
233,669	654,383	-0,071	-0,126
234,684	43,240	-0,284	-0,179
235,699	-24,333	-0,133	-0,055
236,713	-110,079	-0,154	-0,022
237,728	172,482	-0,084	-0,084
238,742	-26,489	-0,220	-0,089
239,757	76,047	-0,179	-0,131
240,772	84,180	-0,030	0,023
241,786	47,869	-0,214	-0,138
242,801	20,339	-0,193	-0,107
243,815	670,521	-0,070	-0,126
244,830	381,311	-0,094	-0,134
245,844	18,537	-0,153	-0,084
246,859	32,372	-0,189	-0,112
247,874	-56,135	-0,150	-0,046
248,888	110,237	-0,166	-0,138
249,903	-36,307	-0,339	-0,125
250,917	107,334	-0,063	-0,052
251,932	497,848	-0,062	-0,099
252,947	88,293	-0,329	-0,252
253,961	152,480	-0,210	-0,198
254,976	800,000	-0,134	-0,260
255,990	-18,809	-0,154	-0,066
257,005	415,111	-0,128	-0,189
258,020	31,056	-0,135	-0,080
259,034	425,052	-0,098	-0,145
260,049	50,565	-0,167	-0,109
261,063	-128,302	-0,182	-0,018
262,078	223,498	-0,151	-0,168
263,093	-200,000	-0,034	-0,279
264,107	459,639	-0,111	-0,170
265,122	-200,000	-0,020	-0,070
266,136	257,382	-0,138	-0,163
267,151	-26,304	-0,140	-0,056
268,166	359,426	-0,137	-0,190
269,180	144,716	-0,186	-0,172
270,195	475,042	-0,140	-0,218
271,209	224,626	-0,183	-0,204
272,224	154,445	-0,236	-0,223
273,239	800,000	-0,107	-0,213
274,253	-101,753	-0,153	0,025
275,268	-43,148	-0,088	-0,030
276,282	800,000	-0,136	-0,264
277,297	3,554	-0,143	-0,072
278,312	66,570	-0,198	-0,139
279,326	269,643	-0,128	-0,155
280,341	531,237	-0,087	-0,142
281,355	482,239	-0,062	-0,097
282,370	-147,561	-0,201	-0,011
283,384	195,778	-0,171	-0,179
284,399	-200,000	-0,049	-0,161
285,414	328,831	-0,139	-0,184
286,428	-89,586	-0,145	-0,029
287,443	-49,485	-0,197	-0,064
288,457	800,000	-0,043	-0,094
289,472	-67,060	-0,259	-0,070
290,487	-50,840	-0,309	-0,099
291,501	-93,139	-0,231	-0,044
292,516	785,851	-0,061	-0,116
293,530	125,958	-0,160	-0,139
294,545	-200,000	0,023	-0,084
295,560	58,779	-0,112	-0,076
296,574	554,627	-0,073	0,122
297,589	538,800	-0,091	-0,149
298,603	249,606	-0,110	-0,129
299,618	-88,256	-0,194	-0,040
300,633	-134,266	-0,063	-0,005
301,647	-142,352	-0,215	0,014
302,662	90,333	-0,028	-0,022
303,676	469,953	-0,098	-0,152
304,691	-84,336	-0,161	-0,035
305,706	-200,000	-0,004	0,129
306,720	-126,917	-0,171	-0,017
307,735	98,066	-0,054	-0,042
308,749	-176,770	-0,052	-0,001
309,764	-59,918	-0,136	0,040
310,779	60,660	-0,181	-0,123
311,793	-154,936	-0,236	0,010
312,808	329,854	-0,143	-0,190
313,822	258,162	-0,075	-0,089
314,837	-115,324	-0,244	-0,031
315,852	-200,000	0,014	-0,088
316,866	142,035	0,029	-0,027
317,881	170,223	-0,096	-0,094
318,895	184,602	-0,169	-0,172
319,910	-87,970	-0,148	-0,030
320,925	35,018	-0,181	-0,109
321,939	-56,063	-0,138	-0,042
322,954	-75,927	-0,181	0,044
323,968	365,877	-0,069	0,096
324,983	296,806	-0,089	-0,112
325,997	210,082	-0,161	-0,173
327,012	800,000	-0,116	-0,233
328,027	47,176	-0,140	-0,089
329,041	648,060	-0,077	-0,136
330,056	-200,000	0,010	-0,095
331,070	397,134	0,020	-0,029
332,085	-143,734	-0,115	-0,007
333,100	197,539	-0,174	-0,183
334,114	6,246	-0,193	-0,098
335,129	102,581	-0,231	-0,185
336,143	-60,206	-0,162	-0,047
337,158	-81,286	-0,112	0,025
338,173	60,196	-0,069	-0,047
339,187	-60,859	-0,071	-0,020
340,202	234,769	-0,114	-0,129
341,216	-17,309	-0,244	-0,105
342,231	73,627	-0,227	-0,163
343,246	-71,839	-0,140	-0,035
344,260	-200,000	-0,023	0,117
345,275	800,000	-0,028	0,064
346,289	191,562	-0,066	-0,068
347,304	-200,000	-0,023	-0,147
348,319	-33,129	-0,054	0,021
349,333	79,207	-0,246	-0,181
350,348	110,997	-0,219	-0,180
351,362	201,107	-0,100	-0,105
352,377	32,429	-0,092	-0,054
353,392	77,480	-0,111	-0,081
354,406	800,000	-0,053	-0,127
355,421	207,083	1310,545	1399,075
356,435	159,288	1470,717	1399,537
