DTS Sentinel unit serial number:	SN410029Multiplexer serial number:	ORYXHardware model number:	OX2-SRSoftware version number:	ORYX F/W v4,00 Oryx Data Collector v3.7.2.0data status	okinstallation	B3 Nyhavnadifferential loss correction	single-endedforward channel	channel 1reverse channel	N/Adate	2023/12/05time	06:37:30forward acquisition time	300,00reverse acquisition time	0,00gamma	499,1914k internal	0,3201k external	0,3201temperature offset calibration	1,0000default loss term (dB/km)	0,3820temperature slope calibration	1,0000multiplexer offset coefficient	1,0000multiplexer slope coefficient	1,0000fibre end	0,00T internal ref (°C)	13,93T ext. ref 1 (°C)	-0,93T ext. ref 2 (°C)	-0,95length (m)	temperature (°C)	Stokes	anti-Stokes-744,400	109,679	-0,192	-0,168
-743,385	-200,000	0,069	0,261
-742,371	17,239	-0,245	-0,141
-741,356	-200,000	0,056	0,210
-740,342	244,942	-0,119	-0,146
-739,327	-200,000	0,053	0,230
-738,312	161,579	-0,266	-0,271
-737,298	-200,000	-0,019	0,166
-736,283	800,000	-0,090	-0,219
-735,269	-200,000	0,031	0,199
-734,254	516,230	-0,087	-0,148
-733,239	43,664	-0,177	0,118
-732,225	-200,000	0,053	-0,224
-731,210	-200,000	-0,001	0,078
-730,196	-164,600	0,026	0,001
-729,181	-111,732	-0,138	-0,020
-728,167	262,581	0,031	0,039
-727,152	-200,000	-0,017	0,063
-726,137	450,959	-0,029	-0,046
-725,123	-200,000	0,000	-0,029
-724,108	-147,634	-0,138	0,008
-723,094	443,700	-0,030	-0,048
-722,079	800,000	-0,056	-0,129
-721,064	-143,427	0,156	-0,011
-720,050	-138,326	-0,215	0,017
-719,035	-200,000	0,024	0,122
-718,021	-200,000	-0,001	-0,096
-717,006	679,648	-0,061	-0,115
-715,991	600,396	-0,075	-0,136
-714,977	-200,000	-0,023	-0,101
-713,962	800,000	-0,031	0,063
-712,948	75,264	0,092	0,071
-711,933	83,583	-0,062	-0,049
-710,918	-162,549	-0,225	0,008
-709,904	-11,609	-0,116	-0,055
-708,889	53,407	-0,022	-0,015
-707,875	-200,000	-0,010	-0,221
-706,860	8,638	0,063	-0,034
-705,845	-200,000	0,002	0,063
-704,831	432,168	0,033	0,052
-703,816	18,565	-0,062	0,036
-702,802	466,511	-0,024	-0,040
-701,787	800,000	0,048	-0,125
-700,772	800,000	-0,023	-0,070
-699,758	-200,000	0,025	0,092
-698,743	99,132	0,028	0,024
-697,729	-67,838	0,087	-0,024
-696,714	-200,000	0,008	0,116
-695,699	2,322	-0,065	0,034
-694,685	37,953	0,033	-0,021
-693,670	200,351	0,039	-0,044
-692,656	84,256	-0,074	-0,059
-691,641	356,520	0,097	0,141
-690,627	140,902	0,049	0,047
-689,612	121,182	0,019	0,017
-688,597	65,222	-0,120	0,088
-687,583	259,314	-0,124	-0,156
-686,568	-200,000	0,017	-0,215
-685,554	0,307	0,044	0,023
-684,539	4,180	0,033	-0,017
-683,524	601,074	0,030	0,055
-682,510	800,000	0,070	-0,142
-681,495	172,310	0,069	-0,072
-680,481	-200,000	-0,030	0,152
-679,466	-200,000	0,020	-0,074
-678,451	32,301	-0,016	0,010
-677,437	504,619	-0,042	0,071
-676,422	-200,000	-0,007	0,026
-675,408	56,868	0,053	0,037
-674,393	98,936	-0,096	-0,080
-673,378	-129,196	-0,124	0,012
-672,364	-16,300	-0,078	-0,036
-671,349	-112,536	0,100	-0,014
-670,335	261,697	-0,020	-0,025
-669,320	-4,727	0,044	-0,022
-668,305	450,032	0,041	-0,067
-667,291	-200,000	0,007	0,100
-666,276	-200,000	0,004	-0,052
-665,262	182,507	0,019	-0,021
-664,247	-54,298	0,164	-0,054
-663,232	-200,000	-0,035	-0,150
-662,218	251,376	0,036	0,045
-661,203	-200,000	-0,035	-0,115
-660,189	9,022	-0,064	0,035
-659,174	-27,785	0,023	-0,010
-658,159	800,000	-0,025	-0,059
-657,145	500,909	0,085	-0,142
-656,130	-54,739	-0,116	-0,038
-655,116	-125,848	0,027	0,003
-654,101	800,000	0,016	0,049
-653,086	79,622	-0,145	-0,113
-652,072	248,540	-0,064	-0,078
-651,057	146,045	0,064	-0,063
-650,043	154,002	-0,006	0,006
-649,028	800,000	-0,042	-0,098
-648,014	738,765	0,061	-0,120
-646,999	-200,000	-0,027	0,109
-645,984	48,593	0,049	0,033
-644,970	127,382	-0,088	-0,081
-643,955	-200,000	0,021	-0,177
-642,941	104,090	-0,113	-0,096
-641,926	800,000	0,039	-0,105
-640,911	43,788	0,130	-0,086
-639,897	800,000	-0,047	0,100
-638,882	-17,098	-0,081	-0,037
-637,868	-200,000	0,013	-0,077
-636,853	-41,354	-0,112	-0,042
-635,838	-200,000	-0,031	-0,166
-634,824	-68,564	-0,069	0,019
-633,809	200,445	0,071	0,079
-632,795	-117,220	-0,015	-0,002
-631,780	73,678	0,059	-0,045
-630,765	-200,000	-0,004	-0,083
-629,751	331,728	-0,043	-0,060
-628,736	47,822	-0,130	-0,088
-627,722	800,000	0,038	-0,086
-626,707	-200,000	0,001	-0,019
-625,692	765,058	0,033	-0,066
-624,678	412,944	0,089	-0,137
-623,663	-200,000	-0,007	-0,039
-622,649	-200,000	0,012	0,044
-621,634	-151,923	0,106	0,006
-620,619	8,836	-0,128	0,070
-619,605	337,159	-0,032	-0,045
-618,590	197,269	0,098	0,109
-617,576	-200,000	0,001	-0,079
-616,561	-10,240	0,060	0,029
-615,546	-108,894	-0,105	0,016
-614,532	154,939	0,081	-0,081
-613,517	800,000	-0,016	-0,034
-612,503	-200,000	0,000	-0,055
-611,488	241,933	0,039	-0,047
-610,474	-200,000	0,019	-0,068
-609,459	587,273	0,046	-0,082
-608,444	418,699	-0,106	-0,165
-607,430	127,036	0,065	-0,060
-606,415	391,100	0,024	-0,037
-605,401	253,040	0,082	-0,101
-604,386	466,398	-0,061	0,099
-603,371	6,410	-0,017	-0,009
-602,357	26,775	0,030	-0,018
-601,342	369,349	0,059	0,086
-600,328	-99,179	0,027	0,005
-599,313	800,000	0,011	-0,024
-598,298	-200,000	0,018	-0,086
-597,284	-17,364	-0,046	-0,021
-596,269	800,000	0,098	0,198
-595,255	259,864	-0,021	0,026
-594,240	649,082	-0,037	-0,068
-593,225	718,978	-0,098	-0,189
-592,211	-196,117	0,026	-0,000
-591,196	-200,000	0,009	0,050
-590,182	192,696	0,004	0,004
-589,167	25,780	-0,079	-0,047
-588,152	151,076	-0,057	-0,056
-587,138	3,171	-0,058	0,030
-586,123	-99,653	-0,153	-0,027
-585,109	-39,254	0,025	-0,009
-584,094	-20,517	0,062	-0,027
-583,079	160,364	-0,040	-0,040
-582,065	-200,000	-0,026	0,164
-581,050	-114,342	0,130	-0,018
-580,036	-110,299	-0,153	0,023
-579,021	-43,108	-0,070	-0,025
-578,006	323,216	-0,090	0,125
-576,992	-139,640	0,023	-0,002
-575,977	-49,219	0,176	-0,060
-574,963	800,000	0,034	0,073
-573,948	-200,000	-0,020	-0,136
-572,934	-69,918	0,120	-0,033
-571,919	-200,000	0,033	-0,148
-570,904	-146,019	-0,171	-0,011
-569,890	563,619	-0,035	-0,062
-568,875	675,517	0,018	-0,034
-567,861	676,771	0,048	-0,091
-566,846	-200,000	-0,022	0,083
-565,831	354,854	0,024	-0,035
-564,817	461,946	0,049	-0,079
-563,802	-105,119	0,059	-0,010
-562,788	213,086	0,040	-0,046
-561,773	-91,879	-0,100	-0,020
-560,758	-124,229	-0,048	0,005
-559,744	-52,121	-0,028	0,009
-558,729	166,538	-0,069	0,071
-557,715	-121,158	-0,108	-0,013
-556,700	-101,333	-0,104	-0,018
-555,685	800,000	0,042	-0,109
-554,671	71,193	0,053	0,040
-553,656	-176,371	0,129	0,002
-552,642	-200,000	-0,009	0,080
-551,627	521,628	0,055	0,093
-550,612	800,000	-0,011	0,033
-549,598	-25,086	-0,146	-0,062
-548,583	-96,347	-0,102	-0,019
-547,569	29,042	0,093	0,057
-546,554	363,847	-0,020	0,029
-545,539	-200,000	0,003	0,118
-544,525	-75,494	-0,093	0,024
-543,510	-101,140	0,170	0,030
-542,496	800,000	-0,013	-0,033
-541,481	262,687	0,081	-0,101
-540,466	272,132	-0,084	0,107
-539,452	800,000	-0,057	0,136
-538,437	-75,705	-0,043	-0,011
-537,423	-177,884	0,046	-0,001
-536,408	-32,946	-0,136	0,054
-535,393	-200,000	-0,037	-0,119
-534,379	197,594	-0,119	-0,131
-533,364	-4,756	0,050	0,025
-532,350	-200,000	-0,001	-0,096
-531,335	-34,602	0,085	0,033
-530,321	114,918	-0,022	-0,020
-529,306	-3,461	-0,144	-0,072
-528,291	-56,666	-0,093	-0,029
-527,277	-200,000	0,035	-0,149
-526,262	18,703	0,064	-0,037
-525,248	297,227	0,042	0,056
-524,233	42,694	0,060	-0,039
-523,218	-200,000	-0,000	-0,076
-522,204	-118,901	0,086	-0,011
-521,189	-108,002	-0,147	0,023
-520,175	800,000	-0,019	-0,046
-519,160	305,563	-0,060	0,080
-518,145	-70,207	0,166	-0,045
-517,131	-111,426	0,036	-0,005
-516,116	800,000	0,036	-0,106
-515,102	-40,771	-0,080	0,030
-514,087	-58,305	0,115	-0,036
-513,072	-38,591	-0,058	0,022
-512,058	50,974	0,063	-0,043
-511,043	800,000	-0,042	-0,090
-510,029	-160,043	0,101	0,004
-509,014	-86,985	0,103	-0,022
-507,999	78,614	-0,112	-0,087
-506,985	800,000	0,074	-0,174
-505,970	-53,748	-0,029	-0,009
-504,956	-120,617	-0,107	0,013
-503,941	228,526	0,044	0,052
-502,926	264,930	0,129	0,163
-501,912	-155,429	-0,033	0,002
-500,897	58,308	0,069	-0,049
-499,883	218,013	-0,066	0,076
-498,868	69,857	-0,046	0,034
-497,853	167,948	-0,087	0,089
-496,839	34,077	-0,110	0,069
-495,824	-76,722	0,093	-0,023
-494,810	-91,603	-0,014	-0,003
-493,795	-132,762	-0,057	-0,005
-492,781	-57,007	-0,115	-0,036
-491,766	800,000	-0,051	-0,108
-490,751	800,000	0,063	-0,153
-489,737	-200,000	-0,017	-0,105
-488,722	-200,000	-0,001	-0,047
-487,708	132,029	0,030	0,028
-486,693	331,688	0,064	0,089
-485,678	39,607	0,117	0,076
-484,664	800,000	-0,061	0,136
-483,649	73,057	0,056	-0,042
-482,635	-105,959	-0,125	-0,020
-481,620	134,116	0,112	0,105
-480,605	-200,000	-0,011	-0,069
-479,591	-200,000	-0,013	-0,170
-478,576	-164,884	0,178	-0,006
-477,562	800,000	-0,038	0,087
-476,547	120,684	-0,055	-0,049
-475,532	86,818	-0,148	-0,117
-474,518	800,000	0,039	0,104
-473,503	-26,231	0,081	0,034
-472,489	800,000	0,043	-0,110
-471,474	800,000	-0,027	0,069
-470,459	-200,000	0,027	-0,093
-469,445	84,326	-0,123	-0,097
-468,430	-200,000	0,027	-0,155
-467,416	-200,000	0,006	0,000
-466,401	-14,848	0,062	0,028
-465,386	237,644	-0,117	0,140
-464,372	536,443	0,083	0,143
-463,357	219,578	0,038	-0,043
-462,343	644,928	-0,062	-0,115
-461,328	187,424	0,017	0,018
-460,313	800,000	-0,050	0,129
-459,299	-200,000	-0,003	0,047
-458,284	283,664	-0,051	-0,066
-457,270	319,040	-0,063	0,086
-456,255	26,533	-0,080	0,048
-455,241	800,000	-0,006	0,016
-454,226	-200,000	-0,020	-0,087
-453,211	-171,488	0,013	-0,000
-452,197	-200,000	-0,007	-0,119
-451,182	539,798	0,070	0,121
-450,168	556,752	0,022	-0,039
-449,153	598,191	0,050	-0,090
-448,138	-22,983	-0,092	0,040
-447,124	-188,722	-0,103	0,001
-446,109	116,552	0,064	-0,057
-445,095	-200,000	-0,004	0,084
-444,080	280,631	-0,051	-0,066
-443,065	-200,000	0,014	0,177
-442,051	718,792	-0,024	-0,046
-441,036	-200,000	0,003	-0,109
-440,022	-70,780	-0,095	-0,026
-439,007	-6,028	0,073	-0,036
-437,992	472,095	-0,045	0,073
-436,978	-200,000	-0,007	-0,023
-435,963	-83,087	0,104	0,024
-434,949	2,633	-0,179	0,093
-433,934	-96,788	-0,066	0,012
-432,919	-110,367	0,081	0,012
-431,905	-200,000	0,002	0,084
-430,890	-86,950	0,046	-0,010
-429,876	-200,000	-0,009	-0,134
-428,861	-200,000	-0,013	-0,052
-427,846	800,000	-0,034	-0,105
-426,832	-175,278	-0,066	-0,001
-425,817	-13,281	0,037	-0,017
-424,803	163,853	-0,057	-0,057
-423,788	-200,000	-0,011	0,052
-422,773	-200,000	-0,015	0,101
-421,759	-40,201	-0,083	0,031
-420,744	-51,386	0,123	0,041
-419,730	63,694	-0,108	-0,078
-418,715	-200,000	0,003	-0,025
-417,701	-189,492	-0,135	-0,001
-416,686	174,481	0,029	0,030
-415,671	-73,228	-0,041	0,011
-414,657	106,842	-0,071	-0,061
-413,642	-200,000	0,001	-0,040
-412,628	-55,643	-0,041	0,013
-411,613	81,113	0,103	-0,080
-410,598	-200,000	0,011	-0,158
-409,584	-150,676	0,050	0,003
-408,569	800,000	-0,075	0,149
-407,555	794,606	-0,041	0,081
-406,540	248,567	0,091	0,111
-405,525	119,287	-0,121	-0,108
-404,511	103,481	-0,104	0,088
-403,496	-145,448	0,121	-0,008
-402,482	800,000	0,050	-0,115
-401,467	-200,000	-0,007	-0,088
-400,452	800,000	0,033	0,103
-399,438	-200,000	-0,031	0,143
-398,423	247,163	0,028	0,033
-397,409	137,273	-0,090	0,084
-396,394	-4,928	-0,065	-0,032
-395,379	-200,000	0,036	0,136
-394,365	-200,000	-0,016	0,104
-393,350	165,543	0,073	0,074
-392,336	635,558	-0,022	-0,041
-391,321	800,000	0,038	0,094
-390,306	62,662	-0,021	0,015
-389,292	800,000	-0,068	-0,155
-388,277	490,928	-0,029	0,047
-387,263	467,471	0,030	0,048
-386,248	-60,679	0,040	0,012
-385,233	14,563	0,067	0,038
-384,219	800,000	0,015	-0,032
-383,204	-200,000	-0,016	0,115
-382,190	163,764	-0,110	-0,111
-381,175	-162,365	-0,074	0,003
-380,160	-157,916	0,016	0,001
-379,146	173,332	0,069	0,071
-378,131	101,126	0,172	0,144
-377,117	-85,587	0,125	-0,028
-376,102	14,344	-0,134	-0,075
-375,088	57,176	0,031	-0,022
-374,073	800,000	-0,040	0,087
-373,058	-7,907	-0,079	-0,038
-372,044	101,167	-0,014	0,012
-371,029	70,294	0,117	0,087
-370,015	-200,000	-0,008	-0,062
-369,000	-200,000	0,009	-0,105
-367,985	102,286	0,007	0,006
-366,971	-200,000	-0,013	0,059
-365,956	800,000	0,034	-0,073
-364,942	501,938	-0,040	0,067
-363,927	-10,758	0,095	-0,045
-362,912	190,306	-0,144	0,155
-361,898	427,689	0,020	-0,031
-360,883	-200,000	-0,016	0,100
-359,869	800,000	-0,023	-0,067
-358,854	-200,000	-0,017	-0,084
-357,839	-65,519	0,052	0,015
-356,825	-129,699	0,054	-0,005
-355,810	168,083	-0,072	0,074
-354,796	-200,000	0,052	0,170
-353,781	1,966	-0,081	0,041
-352,766	-94,215	0,024	0,005
-351,752	-38,019	-0,046	0,018
-350,737	-23,111	0,140	-0,060
-349,723	800,000	0,032	0,092
-348,708	-113,340	-0,136	0,019
-347,693	-200,000	-0,047	0,000
-346,679	-67,470	-0,067	0,019
-345,664	-112,962	-0,067	-0,009
-344,650	111,909	0,071	-0,062
-343,635	268,206	0,048	0,060
-342,620	-200,000	0,019	-0,172
-341,606	-51,981	0,132	0,044
-340,591	-200,000	0,029	-0,122
-339,577	-200,000	0,016	-0,100
-338,562	186,698	-0,098	0,105
-337,548	125,662	0,032	0,029
-336,533	-200,000	-0,022	0,089
-335,518	516,269	-0,017	-0,028
-334,504	46,417	-0,127	0,084
-333,489	43,795	0,030	0,020
-332,475	800,000	0,081	-0,245
-331,460	540,247	-0,045	-0,077
-330,445	352,058	0,076	0,108
-329,431	-91,933	0,052	-0,010
-328,416	800,000	-0,025	-0,059
-327,402	-200,000	-0,028	0,152
-326,387	116,004	0,045	0,039
-325,372	123,804	0,071	-0,064
-324,358	-57,938	-0,103	0,032
-323,343	-200,000	-0,007	-0,036
-322,329	-70,688	0,053	-0,014
-321,314	146,922	-0,083	-0,080
-320,299	115,215	0,113	-0,099
-319,285	800,000	0,013	-0,032
-318,270	-200,000	-0,007	0,115
-317,256	-94,649	-0,087	-0,017
-316,241	18,708	-0,042	-0,024
-315,226	-200,000	0,012	-0,046
-314,212	-200,000	-0,001	-0,033
-313,197	-200,000	-0,021	0,073
-312,183	-200,000	-0,005	-0,037
-311,168	800,000	0,013	0,033
-310,153	800,000	-0,036	-0,093
-309,139	-63,761	-0,067	0,020
-308,124	-55,947	0,040	0,013
-307,110	-18,578	0,150	0,066
-306,095	-6,612	-0,087	0,042
-305,080	-200,000	0,015	0,121
-304,066	-200,000	0,023	0,172
-303,051	117,056	-0,122	0,107
-302,037	185,050	0,102	0,108
-301,022	-200,000	-0,003	-0,117
-300,008	-200,000	0,017	0,154
-298,993	550,337	-0,038	-0,066
-297,978	-54,020	0,062	0,020
-296,964	228,361	-0,116	-0,135
-295,949	-200,000	-0,010	-0,047
-294,935	800,000	-0,007	0,017
-293,920	-200,000	-0,017	-0,099
-292,905	219,143	0,093	0,106
-291,891	800,000	0,042	0,092
-290,876	800,000	0,078	0,161
-289,862	800,000	0,030	0,078
-288,847	-106,895	0,061	-0,009
-287,832	-200,000	-0,004	-0,034
-286,818	-200,000	0,004	-0,045
-285,803	-143,364	0,091	0,006
-284,789	-28,876	0,101	0,041
-283,774	-134,065	0,184	-0,016
-282,759	-42,084	0,024	-0,009
-281,745	108,691	-0,047	0,040
-280,730	-200,000	-0,029	-0,092
-279,716	77,444	-0,094	-0,072
-278,701	-200,000	0,038	-0,127
-277,686	-117,618	-0,155	-0,020
-276,672	-200,000	-0,006	0,137
-275,657	-200,000	-0,019	0,125
-274,643	-200,000	0,003	-0,020
-273,628	-200,000	0,047	0,154
-272,613	-56,929	0,141	0,044
-271,599	98,330	-0,036	-0,030
-270,584	-129,553	0,093	0,009
-269,570	-200,000	-0,006	-0,032
-268,555	-200,000	-0,029	-0,125
-267,540	-128,794	-0,102	-0,010
-266,526	203,040	-0,034	-0,038
-265,511	-200,000	0,024	0,148
-264,497	-138,128	-0,114	0,009
-263,482	-176,199	0,113	-0,002
-262,467	94,235	-0,030	0,025
-261,453	-21,129	-0,142	-0,062
-260,438	396,584	0,027	0,040
-259,424	-166,504	0,045	-0,001
-258,409	-101,241	0,061	-0,010
-257,395	-139,818	0,055	0,004
-256,380	-195,206	0,149	0,001
-255,365	37,911	-0,111	0,070
-254,351	-80,630	0,132	0,031
-253,336	113,970	0,129	0,112
-252,322	151,119	0,071	-0,069
-251,307	-103,456	0,064	0,011
-250,292	800,000	0,031	0,074
-249,278	129,980	-0,083	0,076
-248,263	-23,656	-0,052	-0,022
-247,249	233,786	0,020	0,023
-246,234	312,799	-0,093	0,124
-245,219	-200,000	0,018	-0,077
-244,205	215,087	0,025	-0,029
-243,190	125,294	0,097	-0,087
-242,176	81,722	0,170	0,131
-241,161	239,518	-0,045	0,054
-240,146	567,918	0,062	-0,108
-239,132	132,510	0,029	-0,026
-238,117	-85,208	-0,145	0,032
-237,103	411,880	0,034	-0,051
-236,088	800,000	0,021	0,063
-235,073	558,904	0,083	0,143
-234,059	-200,000	0,031	0,159
-233,044	13,494	0,056	0,031
-232,030	-200,000	-0,005	-0,123
-231,015	-29,801	-0,164	-0,066
-230,000	-152,136	-0,061	-0,003
-228,986	381,609	0,105	-0,154
-227,971	38,816	0,066	0,042
-226,957	656,123	-0,059	0,109
-225,942	800,000	-0,068	0,145
-224,927	-200,000	0,010	0,059
-223,913	-134,794	-0,066	-0,006
-222,898	189,632	-0,028	0,030
-221,884	-22,656	0,031	0,013
-220,869	-200,000	0,005	0,024
-219,855	-85,801	0,125	0,027
-218,840	439,014	0,067	-0,105
-217,825	-8,171	0,070	0,033
-216,811	-131,074	-0,050	-0,005
-215,796	2,862	-0,086	0,044
-214,782	-108,173	0,060	-0,009
-213,767	-127,454	0,065	-0,007
-212,752	-83,905	0,151	0,034
-211,738	-200,000	-0,021	0,150
-210,723	98,034	-0,039	-0,032
-209,709	-109,623	-0,105	0,016
-208,694	-200,000	0,010	0,060
-207,679	-55,149	0,075	0,024
-206,665	-200,000	-0,002	0,038
-205,650	800,000	0,061	0,138
-204,636	-200,000	0,015	0,118
-203,621	-200,000	0,021	0,178
-202,606	545,520	-0,058	0,098
-201,592	-35,337	-0,074	0,029
-200,577	15,069	-0,075	-0,041
-199,563	-101,154	-0,142	0,024
-198,548	-189,050	0,054	-0,000
-197,533	326,630	0,102	-0,140
-196,519	97,831	0,050	-0,041
-195,504	-200,000	-0,022	0,090
-194,490	123,375	-0,155	0,138
-193,475	117,766	0,101	-0,089
-192,460	800,000	0,059	-0,128
-191,446	-200,000	0,007	-0,032
-190,431	34,780	-0,106	0,066
-189,417	269,545	-0,084	0,105
-188,402	-143,054	0,020	0,001
-187,387	800,000	-0,079	0,167
-186,373	-59,440	0,035	0,011
-185,358	-175,834	-0,030	0,001
-184,344	53,526	-0,032	-0,022
-183,329	-200,000	0,011	0,055
-182,315	28,992	0,057	-0,034
-181,300	25,348	-0,151	-0,089
-180,285	6,206	-0,049	-0,026
-179,271	-136,769	0,124	-0,010
-178,256	-104,814	-0,051	0,008
-177,242	-200,000	-0,003	0,030
-176,227	-75,550	0,029	-0,007
-175,212	-6,606	0,075	-0,036
-174,198	83,282	0,074	-0,057
-173,183	667,024	-0,021	-0,038
-172,169	7,692	0,082	0,044
-171,154	-103,592	-0,049	-0,008
-170,139	-41,308	0,043	0,016
-169,125	2,984	-0,083	-0,043
-168,110	-26,741	0,100	0,041
-167,096	-48,146	-0,127	-0,044
-166,081	323,970	0,027	0,037
-165,066	-200,000	-0,005	0,060
-164,052	-15,609	0,080	0,036
-163,037	-200,000	0,020	-0,121
-162,023	123,011	-0,077	0,068
-161,008	211,279	0,082	-0,092
-159,993	800,000	0,041	-0,103
-158,979	7,343	-0,030	-0,016
-157,964	47,101	0,123	0,081
-156,950	800,000	-0,029	0,066
-155,935	60,941	0,118	0,083
-154,920	-200,000	-0,000	0,100
-153,906	54,480	-0,030	0,020
-152,891	-77,259	0,102	-0,025
-151,877	-200,000	-0,051	-0,214
-150,862	-200,000	0,002	-0,043
-149,847	800,000	0,033	-0,075
-148,833	450,700	0,011	-0,017
-147,818	130,318	0,094	-0,086
-146,804	800,000	0,034	0,088
-145,789	800,000	0,031	-0,065
-144,775	-200,000	-0,004	-0,051
-143,760	28,706	-0,186	-0,111
-142,745	-200,000	0,026	-0,128
-141,731	-200,000	-0,033	0,125
-140,716	-13,207	0,121	0,056
-139,702	-200,000	0,019	0,072
-138,687	-200,000	0,002	0,125
-137,672	-52,226	-0,098	-0,032
-136,658	87,211	-0,056	-0,044
-135,643	52,790	0,056	-0,038
-134,629	46,587	-0,040	-0,027
-133,614	800,000	0,047	0,120
-132,599	184,056	-0,005	-0,005
-131,585	-45,555	0,040	-0,014
-130,570	-141,005	0,101	0,007
-129,556	800,000	0,014	0,030
-128,541	315,830	-0,038	0,051
-127,526	-200,000	-0,010	0,032
-126,512	800,000	0,022	0,048
-125,497	101,105	0,144	0,119
-124,483	677,444	-0,063	0,116
-123,468	571,897	-0,098	0,171
-122,453	800,000	0,042	-0,111
-121,439	800,000	0,045	-0,100
-120,424	-200,000	0,017	-0,063
-119,410	-119,737	0,127	-0,015
-118,395	7,190	0,060	-0,032
-117,380	244,739	0,054	-0,065
-116,366	-200,000	-0,009	0,158
-115,351	-200,000	-0,044	0,142
-114,337	800,000	-0,035	-0,084
-113,322	673,285	-0,037	0,069
-112,307	800,000	-0,088	-0,185
-111,293	-130,036	0,077	0,007
-110,278	104,392	-0,057	0,048
-109,264	-50,936	-0,205	0,068
-108,249	108,355	0,052	0,044
-107,234	262,143	-0,100	-0,123
-106,220	5,563	0,091	0,048
-105,205	38,019	-0,061	-0,038
-104,191	-200,000	0,003	0,021
-103,176	-19,409	0,151	-0,066
-102,162	152,921	-0,065	-0,063
-101,147	302,469	-0,006	-0,007
-100,132	-200,000	0,001	0,127
-99,118	-39,168	-0,085	0,032
-98,103	-200,000	0,009	0,041
-97,089	-61,324	0,116	-0,034
-96,074	-200,000	0,003	0,058
-95,059	800,000	-0,042	0,113
-94,045	-78,650	-0,124	0,030
-93,030	215,961	-0,059	0,067
-92,016	92,124	-0,063	0,050
-91,001	800,000	-0,053	-0,127
-89,986	672,980	-0,044	-0,081
-88,972	-36,685	0,116	0,044
-87,957	10,196	0,031	0,017
-86,943	278,120	0,047	0,059
-85,928	729,697	-0,031	-0,059
-84,913	-200,000	0,004	-0,070
-83,899	256,464	0,013	0,016
-82,884	-144,671	0,175	-0,011
-81,870	-111,807	0,125	0,018
-80,855	350,227	0,056	0,079
-79,840	-200,000	-0,012	0,095
-78,826	-200,000	0,006	-0,108
-77,811	73,688	0,058	-0,043
-76,797	-200,000	-0,039	0,161
-75,782	-157,313	0,113	0,005
-74,767	40,033	0,037	-0,024
-73,753	-200,000	0,002	0,104
-72,738	98,999	0,080	-0,066
-71,724	-200,000	-0,007	-0,070
-70,709	800,000	-0,051	-0,115
-69,694	-200,000	0,002	0,018
-68,680	564,823	-0,021	-0,036
-67,665	-21,129	0,051	0,022
-66,651	412,394	-0,025	-0,038
-65,636	800,000	0,044	-0,092
-64,622	800,000	0,031	0,063
-63,607	-62,155	0,028	0,008
-62,592	-169,155	0,093	-0,002
-61,578	800,000	-0,050	-0,130
-60,563	-130,344	0,096	-0,009
-59,549	-200,000	0,012	0,055
-58,534	-27,808	-1,609	-0,658
-57,519	339,890	-1,470	-2,036
-56,505	-200,000	-0,669	-4,465
-55,490	88,298	1,096	0,861
-54,476	800,000	5,010	11,402
-53,461	-200,000	18,839	310,285
-52,446	-200,000	738,393	2314,290
-51,432	573,175	1654,511	2867,339
-50,417	79,163	1670,996	1266,423
-49,403	21,953	1544,066	889,114
-48,388	15,786	1466,738	814,605
-47,373	17,786	1456,293	818,433
-46,359	16,776	1446,841	808,243
-45,344	14,049	1442,108	792,504
-44,330	13,978	1440,186	791,075
-43,315	13,997	1438,401	790,156
-42,300	13,969	1436,847	789,135
-41,286	14,027	1435,558	788,676
-40,271	13,908	1434,544	787,516
-39,257	13,903	1433,242	786,750
-38,242	14,038	1431,640	786,479
-37,227	14,034	1430,438	785,769
-36,213	14,051	1429,299	785,192
-35,198	14,034	1427,984	784,358
-34,184	14,054	1427,101	783,938
-33,169	13,993	1425,919	782,968
-32,154	14,070	1424,583	782,569
-31,140	14,008	1423,535	781,669
-30,125	14,044	1422,331	781,145
-29,111	14,081	1421,164	780,650
-28,096	14,004	1420,055	779,644
-27,082	13,964	1419,185	778,948
-26,067	13,952	1417,960	778,189
-25,052	13,974	1416,893	777,676
-24,038	13,960	1415,917	777,046
-23,023	13,954	1414,997	776,479
-22,009	13,921	1413,984	775,740
-20,994	13,916	1413,024	775,159
-19,979	13,903	1412,096	774,557
-18,965	13,916	1411,145	774,066
-17,950	13,866	1410,484	773,435
-16,936	13,894	1409,330	772,903
-15,921	13,925	1408,025	772,304
-14,906	13,883	1407,243	771,648
-13,892	13,877	1406,491	771,175
-12,877	13,844	1405,508	770,452
-11,863	13,911	1404,580	770,224
-10,848	13,911	1403,550	769,628
-9,833	13,782	1403,028	768,711
-8,819	13,799	1402,086	768,244
-7,804	13,768	1400,978	767,465
-6,790	13,809	1399,855	767,008
-5,775	13,759	1398,928	766,238
-4,760	13,790	1397,995	765,838
-3,746	13,727	1397,204	765,084
-2,731	13,757	1396,219	764,652
-1,717	13,759	1395,257	764,105
-0,702	13,712	1393,827	763,072
0,313	17,583	1311,232	735,792
1,327	33,807	705,730	433,599
2,342	51,938	123,938	83,370
3,356	5,964	16,485	8,610
4,371	14,801	3,326	1,835
5,386	-53,778	0,593	0,190
6,400	-200,000	0,056	0,203
7,415	-143,961	-0,234	0,015
8,429	90,251	-0,239	-0,189
9,444	34,685	-0,331	-0,204
10,459	-23,527	-0,223	-0,094
11,473	56,687	-0,372	-0,256
12,488	-12,364	-0,317	-0,146
13,502	79,925	-0,289	-0,219
14,517	92,261	-0,273	-0,217
15,531	-21,515	-0,296	-0,127
16,546	45,008	-0,267	-0,174
17,561	202,685	-0,319	-0,348
18,575	-27,972	-0,098	0,040
19,590	307,517	-0,184	-0,243
20,604	241,664	-0,178	-0,210
21,619	54,550	-0,341	-0,232
22,634	154,943	-0,346	-0,337
23,648	51,749	-0,530	-0,356
24,663	293,078	-0,294	-0,379
25,677	142,519	-0,368	-0,345
26,692	27,995	-0,344	-0,204
27,707	129,452	-0,333	-0,300
28,721	-71,899	-0,419	-0,109
29,736	110,596	-0,332	-0,282
30,750	245,572	-0,362	-0,430
31,765	256,478	-0,228	-0,277
32,780	46,758	-0,410	-0,269
33,794	58,764	-0,316	-0,219
34,809	83,169	-0,327	-0,251
35,823	281,683	-0,216	-0,274
36,838	54,024	-0,562	-0,381
37,853	68,400	-0,384	-0,277
38,867	345,083	-0,264	-0,367
39,882	172,731	-0,348	-0,354
40,896	138,004	-0,319	-0,295
41,911	76,569	-0,240	-0,179
42,926	101,724	-0,445	-0,365
43,940	25,914	-0,397	-0,233
44,955	85,404	-0,432	-0,334
45,969	34,461	-0,387	-0,238
46,984	16,722	-0,322	-0,179
47,999	200,436	-0,292	-0,317
49,013	53,752	-0,425	-0,287
50,028	-48,914	-0,382	-0,128
51,042	107,239	-0,296	-0,248
52,057	31,559	-0,403	-0,244
53,071	18,681	-0,319	-0,179
54,086	161,412	-0,253	-0,249
55,101	43,423	-0,330	-0,212
56,115	114,530	-0,329	-0,283
57,130	152,206	-0,384	-0,369
58,144	52,101	-0,483	-0,324
59,159	234,171	-0,305	-0,354
60,174	75,679	-0,324	-0,241
61,188	33,413	-0,324	-0,197
62,203	216,259	-0,270	-0,303
63,217	38,053	-0,283	-0,177
64,232	9,647	-0,367	-0,195
65,247	110,429	-0,308	-0,260
66,261	-43,908	-0,312	-0,110
67,276	144,328	-0,234	-0,220
68,290	154,575	-0,273	-0,264
69,305	316,908	-0,201	-0,268
70,320	167,551	-0,293	-0,293
71,334	130,037	-0,258	-0,232
72,349	-49,470	-0,336	-0,112
73,363	46,104	-0,343	-0,223
74,378	98,060	-0,340	-0,275
75,393	479,125	-0,242	-0,386
76,407	77,827	-0,220	-0,165
77,422	9,544	-0,268	-0,142
78,436	5,899	-0,278	-0,144
79,451	0,866	-0,265	-0,133
80,466	37,692	-0,214	-0,133
81,480	171,529	-0,327	-0,330
82,495	148,996	-0,334	-0,318
83,509	179,061	-0,211	-0,217
84,524	-49,563	-0,235	-0,078
85,539	-94,923	-0,349	-0,066
86,553	89,284	-0,290	-0,227
87,568	53,299	-0,264	-0,177
88,582	385,062	-0,109	-0,159
89,597	-81,707	-0,430	-0,098
90,611	561,162	-0,199	-0,338
91,626	35,657	-0,328	-0,202
92,641	88,087	-0,310	-0,241
93,655	-118,915	-0,305	-0,037
94,670	23,910	-0,414	-0,239
95,684	133,444	-0,259	-0,235
96,699	176,860	-0,227	-0,232
97,714	29,284	-0,222	-0,132
98,728	8,886	-0,327	-0,172
99,743	219,598	-0,258	-0,291
100,757	261,069	-0,189	-0,229
101,772	-53,802	-0,336	-0,107
102,787	113,228	-0,313	-0,266
103,801	15,969	-0,289	-0,159
104,816	125,050	-0,215	-0,190
105,830	-52,751	-0,166	-0,053
106,845	-131,158	-0,194	0,018
107,860	-34,069	-0,203	-0,078
108,874	154,620	-0,142	-0,137
109,889	94,914	-0,230	-0,183
110,903	28,884	-0,277	-0,164
111,918	233,024	-0,075	-0,087
112,933	181,276	-0,209	-0,215
113,947	83,694	-0,238	-0,182
114,962	33,688	-0,236	-0,143
115,976	53,464	-0,380	-0,255
116,991	-33,895	-0,332	-0,127
118,006	-46,339	-0,289	-0,099
119,020	473,938	-0,169	-0,269
120,035	-128,439	-0,278	-0,027
121,049	-172,921	-0,281	0,006
122,064	42,138	-0,284	-0,180
123,079	182,602	-0,105	-0,109
124,093	131,695	-0,153	-0,138
125,108	313,546	-0,210	-0,277
126,122	-29,868	-0,326	-0,130
127,137	108,650	-0,246	-0,205
128,151	203,234	-0,212	-0,230
129,166	255,602	-0,223	-0,268
130,181	-73,665	-0,214	-0,054
131,195	407,305	-0,185	-0,275
132,210	61,977	-0,392	-0,273
133,224	-28,238	-0,327	-0,131
134,239	132,584	-0,178	-0,161
135,254	53,234	-0,208	-0,139
136,268	11,376	-0,232	-0,124
137,283	-16,570	-0,353	-0,156
138,297	204,997	-0,210	-0,228
139,312	65,936	-0,222	-0,157
140,327	20,557	-0,253	-0,143
141,341	-38,294	-0,118	-0,044
142,356	265,888	-0,165	-0,202
143,370	259,346	-0,213	-0,258
144,385	83,714	-0,257	-0,196
145,400	298,608	-0,204	-0,263
146,414	97,823	-0,324	-0,260
147,429	675,610	-0,119	-0,217
148,443	185,431	-0,264	-0,275
149,458	19,184	-0,392	-0,219
150,473	-179,837	-0,154	0,002
151,487	-55,607	-0,255	-0,079
152,502	238,791	-0,271	-0,316
153,516	91,418	-0,276	-0,217
154,531	146,046	-0,218	-0,204
155,546	161,163	-0,212	-0,207
156,560	139,289	-0,275	-0,253
157,575	33,988	-0,172	-0,104
158,589	68,781	-0,336	-0,240
159,604	114,425	-0,281	-0,239
160,619	-25,134	-0,405	-0,167
161,633	243,228	-0,191	-0,224
162,648	125,598	-0,219	-0,192
163,662	45,831	-0,163	-0,105
164,677	162,880	-0,222	-0,218
165,692	-40,210	-0,216	-0,078
166,706	210,777	-0,121	-0,133
167,721	77,702	-0,214	-0,159
168,735	-9,804	-0,246	-0,114
169,750	211,997	-0,178	-0,196
170,764	-0,928	-0,077	-0,038
171,779	-121,183	-0,204	0,023
172,794	41,628	-0,151	-0,095
173,808	179,436	-0,153	-0,157
174,823	43,755	-0,306	-0,195
175,837	189,840	-0,215	-0,225
176,852	83,011	-0,240	-0,182
177,867	63,004	-0,203	-0,141
178,881	-127,513	-0,169	0,017
179,896	-91,636	-0,248	-0,049
180,910	119,250	-0,067	-0,058
181,925	111,489	-0,157	-0,132
182,940	95,560	-0,303	-0,241
183,954	21,276	-0,130	-0,073
184,969	690,295	-0,147	-0,269
185,983	-21,216	-0,129	-0,055
186,998	18,761	-0,244	-0,136
188,013	109,941	-0,124	-0,103
189,027	180,174	-0,160	-0,163
190,042	20,215	-0,211	-0,118
191,056	347,232	-0,110	-0,151
192,071	464,825	-0,116	-0,181
193,086	331,313	-0,170	-0,229
194,100	41,036	-0,244	-0,153
195,115	252,250	-0,064	-0,076
196,129	-49,682	-0,369	-0,121
197,144	-3,573	-0,312	-0,150
198,159	261,052	-0,197	-0,238
199,173	174,778	-0,161	-0,162
200,188	-33,372	-0,196	-0,075
201,202	-35,765	-0,211	-0,079
202,217	-65,450	-0,109	0,030
203,232	167,747	-0,185	-0,183
204,246	56,478	-0,245	-0,166
205,261	-200,000	-0,032	-0,128
206,275	61,335	-0,136	-0,094
207,290	46,593	-0,250	-0,161
208,304	162,395	-0,107	-0,105
209,319	800,000	-0,133	-0,261
210,334	344,176	-0,113	-0,154
211,348	544,351	-0,120	-0,200
212,363	84,143	-0,233	-0,177
213,377	800,000	-0,089	-0,205
214,392	379,692	-0,103	-0,147
215,407	-10,760	-0,150	-0,069
216,421	55,318	-0,201	-0,135
217,436	46,517	-0,160	-0,103
218,450	534,186	-0,160	-0,265
219,465	297,188	-0,197	-0,252
220,480	-153,924	-0,151	0,007
221,494	-200,000	-0,081	-0,265
222,509	-38,764	-0,232	-0,084
223,523	110,943	-0,120	-0,100
224,538	89,306	0,027	-0,020
225,553	54,766	-0,240	-0,160
226,567	381,123	-0,161	-0,229
227,582	94,577	-0,132	-0,104
228,596	62,171	-0,157	-0,108
229,611	-36,898	-0,262	-0,097
230,626	-57,267	-0,084	-0,026
231,640	-200,000	-0,028	-0,123
232,655	203,554	-0,131	-0,141
233,669	-13,817	-0,359	-0,160
234,684	276,147	-0,191	-0,236
235,699	249,301	-0,146	-0,172
236,713	20,572	-0,219	-0,122
237,728	-150,220	-0,321	0,017
238,742	122,927	-0,119	-0,104
239,757	64,169	-0,194	-0,135
240,772	224,269	-0,237	-0,266
241,786	100,728	-0,225	-0,181
242,801	7,739	-0,256	-0,132
243,815	800,000	-0,028	-0,083
244,830	42,873	-0,235	-0,148
245,844	-131,016	-0,222	0,020
246,859	25,732	-0,210	0,121
247,874	-130,981	-0,260	-0,024
248,888	-53,638	-0,253	-0,080
249,903	-72,205	-0,176	0,045
250,917	166,740	-0,101	-0,099
251,932	155,968	-0,193	-0,184
252,947	85,797	-0,106	-0,081
253,961	334,525	-0,139	-0,187
254,976	40,304	-0,207	-0,128
255,990	404,904	-0,146	-0,213
257,005	131,751	-0,255	-0,227
258,020	800,000	-0,018	-0,053
259,034	72,997	-0,247	-0,178
260,049	736,557	-0,121	-0,226
261,063	73,296	-0,276	-0,199
262,078	13,547	-0,134	-0,072
263,093	-149,577	-0,189	0,010
264,107	597,039	-0,107	-0,184
265,122	-150,711	-0,235	-0,012
266,136	-176,532	0,069	-0,001
267,151	139,790	-0,162	-0,148
268,166	460,901	-0,136	-0,210
269,180	-89,027	-0,049	-0,010
270,195	35,981	-0,170	-0,103
271,209	7,806	-0,137	-0,071
272,224	-56,699	-0,219	-0,067
273,239	-94,390	-0,072	0,014
274,253	205,235	-0,119	-0,128
275,268	-200,000	0,009	-0,078
276,282	800,000	-0,112	-0,222
277,297	21,680	-0,226	-0,127
278,312	95,864	-0,217	-0,171
279,326	196,379	-0,075	-0,079
280,341	43,883	-0,265	-0,167
281,355	227,806	-0,099	-0,112
282,370	-54,571	-0,097	-0,030
283,384	-38,226	-0,134	-0,049
284,399	207,481	-0,211	-0,228
285,414	586,091	-0,103	-0,175
286,428	51,854	-0,150	-0,098
287,443	-200,000	-0,021	-0,165
288,457	-18,901	-0,171	-0,073
289,472	-27,508	-0,157	-0,063
290,487	800,000	-0,109	-0,236
291,501	217,618	-0,176	-0,194
292,516	1,418	-0,174	-0,086
293,530	-64,195	-0,174	0,049
294,545	-26,600	-0,170	-0,068
295,560	-79,980	-0,131	-0,030
296,574	94,066	-0,085	-0,066
297,589	79,344	-0,186	-0,137
298,603	-42,840	-0,195	-0,068
299,618	187,863	-0,108	-0,111
300,633	231,834	-0,184	-0,209
301,647	-111,079	-0,063	-0,009
302,662	-78,420	-0,139	0,033
303,676	239,641	-0,115	-0,132
304,691	693,460	-0,163	-0,297
305,706	374,552	-0,096	-0,135
306,720	800,000	-0,092	-0,242
307,735	800,000	-0,043	-0,089
308,749	264,029	-0,103	-0,124
309,764	-108,778	-0,030	0,004
310,779	-44,295	-0,164	-0,056
311,793	103,513	-0,117	-0,094
312,808	222,147	-0,102	-0,113
313,822	192,940	-0,125	-0,131
314,837	42,773	-0,253	-0,158
315,852	-55,458	-0,086	0,026
316,866	-178,700	-0,240	-0,004
317,881	-151,145	-0,200	-0,010
318,895	-90,273	-0,132	-0,026
319,910	457,108	-0,117	-0,180
320,925	100,410	-0,174	-0,139
321,939	-200,000	-0,018	-0,119
322,954	356,167	-0,157	-0,215
323,968	438,122	-0,172	-0,259
324,983	-113,183	-0,180	0,024
325,997	-25,966	-0,190	-0,077
327,012	208,771	-0,176	-0,189
328,027	81,452	-0,238	-0,177
329,041	-4,838	-0,151	-0,071
330,056	34,690	-0,046	-0,028
331,070	434,973	-0,038	-0,056
332,085	800,000	-0,024	0,055
333,100	800,000	-0,091	-0,194
334,114	-44,158	-0,170	-0,058
335,129	81,133	-0,118	-0,088
336,143	239,520	-0,122	-0,140
337,158	-71,312	-0,117	0,030
338,173	459,261	-0,069	-0,107
339,187	41,058	-0,093	-0,057
340,202	194,770	-0,144	-0,150
341,216	135,699	-0,107	-0,095
342,231	-200,000	0,001	-0,015
343,246	723,747	-0,063	-0,116
344,260	-148,706	-0,101	0,006
345,275	561,737	-0,124	-0,206
346,289	-101,002	-0,047	0,008
347,304	800,000	0,019	-0,043
348,319	88,866	-0,116	-0,088
349,333	-0,286	-0,137	-0,067
350,348	44,949	-0,184	-0,116
351,362	-200,000	-0,025	-0,078
352,377	152,029	-0,091	-0,085
353,392	-200,000	-0,052	-0,166
354,406	-90,929	-0,230	-0,045
355,421	209,571	1314,368	1415,154
356,435	161,293	1475,069	1415,639
