DTS Sentinel unit serial number:	SN410029Multiplexer serial number:	ORYXHardware model number:	OX2-SRSoftware version number:	ORYX F/W v4,00 Oryx Data Collector v3.7.2.0data status	okinstallation	B3 Nyhavnadifferential loss correction	single-endedforward channel	channel 1reverse channel	N/Adate	2023/11/30time	21:12:30forward acquisition time	300,00reverse acquisition time	0,00gamma	499,1914k internal	0,3209k external	0,3209temperature offset calibration	1,0000default loss term (dB/km)	0,3820temperature slope calibration	1,0000multiplexer offset coefficient	1,0000multiplexer slope coefficient	1,0000fibre end	0,00T internal ref (°C)	10,76T ext. ref 1 (°C)	-4,54T ext. ref 2 (°C)	-4,67length (m)	temperature (°C)	Stokes	anti-Stokes-744,400	-200,000	-0,033	-0,192
-743,385	-200,000	0,046	0,222
-742,371	-67,115	-0,196	0,056
-741,356	-200,000	0,037	0,476
-740,342	800,000	-0,098	-0,262
-739,327	-200,000	-0,060	0,309
-738,312	149,204	-0,269	-0,264
-737,298	-200,000	-0,039	0,133
-736,283	10,735	-0,190	-0,105
-735,269	-200,000	0,044	0,396
-734,254	-200,000	-0,009	-0,213
-733,239	2,328	-0,242	0,127
-732,225	-200,000	-0,093	-0,319
-731,210	153,023	0,092	0,091
-730,196	-200,000	0,019	-0,123
-729,181	111,654	-0,152	-0,133
-728,167	-200,000	-0,016	-0,224
-727,152	-3,324	-0,014	0,007
-726,137	213,752	-0,091	0,105
-725,123	11,753	-0,186	0,103
-724,108	17,664	-0,070	-0,040
-723,094	-200,000	0,011	-0,158
-722,079	-36,598	-0,118	-0,046
-721,064	-26,045	0,131	0,056
-720,050	-142,259	-0,181	0,013
-719,035	-200,000	-0,010	-0,039
-718,021	388,124	0,069	-0,104
-717,006	65,047	-0,073	0,053
-715,991	-200,000	-0,043	-0,198
-714,977	115,251	0,105	-0,093
-713,962	451,460	-0,064	-0,104
-712,948	187,874	-0,079	-0,086
-711,933	-200,000	-0,013	0,066
-710,918	71,456	-0,098	0,074
-709,904	-108,316	-0,120	-0,019
-708,889	208,824	-0,083	-0,094
-707,875	139,484	-0,080	-0,077
-706,860	131,284	0,043	-0,040
-705,845	800,000	0,028	-0,079
-704,831	67,030	0,014	-0,010
-703,816	28,999	-0,067	0,041
-702,802	288,207	-0,047	-0,062
-701,787	133,324	-0,036	-0,034
-700,772	-180,955	-0,110	-0,002
-699,758	113,343	-0,062	-0,054
-698,743	42,640	0,065	0,043
-697,729	93,130	0,145	-0,119
-696,714	481,449	-0,046	0,076
-695,699	440,732	0,063	-0,101
-694,685	-90,415	-0,179	-0,037
-693,670	-10,186	0,030	-0,014
-692,656	800,000	0,035	0,077
-691,641	-200,000	0,004	0,079
-690,627	58,920	0,109	0,077
-689,612	285,490	0,094	0,123
-688,597	150,978	0,112	-0,111
-687,583	62,843	-0,196	0,142
-686,568	18,688	-0,060	0,035
-685,554	-117,122	-0,095	0,012
-684,539	468,535	-0,036	0,058
-683,524	800,000	-0,034	0,073
-682,510	-200,000	-0,027	0,109
-681,495	-62,890	0,026	0,008
-680,481	538,379	-0,051	-0,088
-679,466	-42,070	-0,020	-0,008
-678,451	-200,000	-0,056	0,266
-677,437	-200,000	0,033	0,135
-676,422	132,933	-0,067	-0,063
-675,408	12,672	0,171	0,095
-674,393	-200,000	0,007	-0,051
-673,378	800,000	-0,028	-0,062
-672,364	364,254	0,021	-0,031
-671,349	-149,108	-0,131	-0,008
-670,335	-60,488	-0,138	0,042
-669,320	52,687	-0,133	-0,092
-668,305	227,619	-0,073	0,086
-667,291	12,460	-0,025	-0,014
-666,276	210,208	-0,022	-0,025
-665,262	70,269	-0,082	-0,061
-664,247	451,468	-0,066	-0,105
-663,232	-131,375	-0,037	0,004
-662,218	800,000	-0,046	0,111
-661,203	54,955	-0,030	-0,021
-660,189	157,903	0,058	0,058
-659,174	800,000	-0,021	0,049
-658,159	-200,000	-0,009	0,031
-657,145	800,000	0,013	0,036
-656,130	-200,000	-0,007	-0,069
-655,116	262,435	0,073	0,091
-654,101	-11,205	0,057	-0,027
-653,086	375,868	-0,077	0,114
-652,072	-81,420	0,051	0,012
-651,057	-66,323	0,047	0,014
-650,043	800,000	-0,035	0,074
-649,028	60,422	-0,042	0,030
-648,014	-22,183	-0,060	-0,026
-646,999	-6,617	-0,043	-0,021
-645,984	-200,000	0,011	-0,114
-644,970	206,360	-0,152	-0,172
-643,955	-82,473	-0,085	-0,020
-642,941	193,867	-0,077	-0,084
-641,926	24,601	0,095	0,057
-640,911	800,000	0,027	0,069
-639,897	16,603	0,116	-0,066
-638,882	147,382	-0,070	-0,068
-637,868	-10,982	-0,079	0,037
-636,853	-200,000	-0,002	-0,042
-635,838	-200,000	-0,003	0,143
-634,824	274,270	-0,036	-0,046
-633,809	389,686	0,085	0,128
-632,795	16,976	0,177	0,101
-631,780	-96,534	-0,229	0,043
-630,765	-200,000	0,013	0,059
-629,751	2,433	-0,071	-0,037
-628,736	-200,000	0,002	-0,057
-627,722	430,248	-0,022	-0,034
-626,707	289,631	0,064	0,084
-625,692	17,547	-0,017	-0,010
-624,678	-200,000	0,019	0,146
-623,663	-31,052	-0,029	-0,012
-622,649	212,050	-0,048	-0,055
-621,634	-200,000	0,020	-0,097
-620,619	232,677	0,048	0,057
-619,605	-200,000	-0,003	0,133
-618,590	-200,000	0,012	0,039
-617,576	386,770	0,037	-0,056
-616,561	-93,267	-0,038	-0,008
-615,546	-200,000	-0,029	-0,221
-614,532	-32,719	-0,127	-0,051
-613,517	430,725	0,117	-0,184
-612,503	440,791	0,073	0,115
-611,488	133,019	-0,028	-0,026
-610,474	73,642	-0,042	0,032
-609,459	-21,782	-0,070	0,031
-608,444	-59,521	-0,115	0,035
-607,430	-200,000	-0,026	-0,090
-606,415	263,953	-0,018	0,023
-605,401	-99,257	-0,191	0,034
-604,386	705,894	0,037	0,070
-603,371	511,781	-0,045	-0,076
-602,357	285,141	0,039	0,051
-601,342	800,000	-0,100	-0,215
-600,328	-200,000	0,005	-0,219
-599,313	-200,000	0,025	-0,109
-598,298	-27,575	0,036	0,015
-597,284	95,236	0,047	0,039
-596,269	800,000	-0,022	0,054
-595,255	120,825	-0,148	0,132
-594,240	-15,633	-0,019	-0,009
-593,225	108,650	-0,139	-0,120
-592,211	-200,000	0,012	0,147
-591,196	-2,054	0,022	0,011
-590,182	-84,000	0,106	0,024
-589,167	-200,000	-0,005	0,080
-588,152	702,841	0,030	0,058
-587,138	-165,355	-0,113	-0,004
-586,123	81,516	-0,138	0,108
-585,109	-44,636	0,033	-0,012
-584,094	-200,000	-0,021	-0,099
-583,079	115,322	0,045	-0,039
-582,065	208,426	0,051	0,058
-581,050	-200,000	-0,008	-0,062
-580,036	-66,231	-0,052	-0,015
-579,021	75,460	0,130	0,099
-578,006	800,000	0,070	-0,161
-576,992	-200,000	0,007	-0,122
-575,977	800,000	-0,042	0,107
-574,963	146,841	0,058	-0,056
-573,948	36,095	0,018	0,011
-572,934	800,000	0,034	0,108
-571,919	-200,000	-0,002	0,009
-570,904	800,000	-0,057	-0,133
-569,890	-200,000	0,026	-0,202
-568,875	352,414	0,029	0,041
-567,861	-8,094	0,065	-0,032
-566,846	200,884	-0,006	0,007
-565,831	800,000	-0,031	-0,078
-564,817	-1,522	0,069	-0,035
-563,802	-200,000	0,005	0,095
-562,788	-200,000	0,001	0,005
-561,773	-200,000	0,001	0,048
-560,758	375,401	-0,087	0,128
-559,744	91,046	0,073	0,059
-558,729	-26,321	-0,027	-0,012
-557,715	-200,000	0,001	-0,114
-556,700	-200,000	-0,011	-0,088
-555,685	50,906	-0,025	-0,017
-554,671	-82,458	-0,099	0,023
-553,656	-200,000	0,016	0,116
-552,642	170,317	0,070	0,073
-551,627	-66,741	0,083	-0,023
-550,612	109,355	-0,120	0,104
-549,598	-131,724	-0,041	-0,004
-548,583	350,763	-0,107	0,153
-547,569	-100,904	-0,128	-0,023
-546,554	800,000	-0,064	-0,173
-545,539	-100,493	0,071	0,013
-544,525	182,766	0,056	-0,059
-543,510	-200,000	0,003	0,031
-542,496	157,549	0,016	-0,016
-541,481	800,000	0,028	0,073
-540,466	213,734	-0,038	-0,043
-539,452	-113,779	0,101	0,014
-538,437	174,977	0,042	-0,043
-537,423	-200,000	-0,002	0,041
-536,408	800,000	-0,048	-0,124
-535,393	800,000	-0,035	-0,088
-534,379	-154,400	-0,142	-0,007
-533,364	-22,661	0,039	0,017
-532,350	343,633	-0,030	0,042
-531,335	286,524	-0,021	0,028
-530,321	-200,000	-0,016	-0,168
-529,306	-200,000	0,012	0,050
-528,291	-71,694	0,142	-0,038
-527,277	40,122	-0,141	-0,091
-526,262	360,095	-0,015	-0,021
-525,248	525,456	0,040	-0,068
-524,233	-148,480	0,070	0,004
-523,218	239,899	-0,140	0,168
-522,204	439,508	-0,046	-0,072
-521,189	-54,871	-0,101	-0,033
-520,175	-44,241	-0,083	-0,030
-519,160	157,035	0,043	-0,043
-518,145	800,000	-0,080	-0,193
-517,131	91,310	-0,067	-0,054
-516,116	218,958	0,015	0,017
-515,102	237,203	-0,038	-0,046
-514,087	-77,259	0,048	0,012
-513,072	473,797	-0,021	-0,035
-512,058	125,146	-0,085	-0,077
-511,043	200,998	0,070	0,078
-510,029	60,438	0,147	-0,104
-509,014	-200,000	0,001	0,093
-507,999	122,570	0,026	0,023
-506,985	-90,676	0,022	-0,004
-505,970	-95,448	-0,031	-0,006
-504,956	183,197	-0,117	0,124
-503,941	-10,222	0,031	0,015
-502,926	396,755	0,083	0,125
-501,912	-147,541	0,071	0,004
-500,897	-200,000	-0,005	0,023
-499,883	-200,000	0,016	-0,117
-498,868	52,481	-0,134	-0,092
-497,853	-65,482	-0,062	0,018
-496,839	800,000	0,027	0,084
-495,824	-73,744	0,065	0,017
-494,810	303,120	0,027	-0,036
-493,795	-117,731	0,189	0,024
-492,781	-14,496	-0,125	-0,058
-491,766	207,568	-0,077	-0,086
-490,751	8,859	0,127	-0,069
-489,737	329,966	-0,078	0,108
-488,722	800,000	0,026	0,056
-487,708	800,000	0,027	-0,067
-486,693	-90,229	-0,030	-0,006
-485,678	293,314	-0,040	0,053
-484,664	-200,000	-0,002	-0,068
-483,649	703,586	-0,027	-0,052
-482,635	50,433	-0,097	0,066
-481,620	-131,495	-0,045	-0,004
-480,605	162,441	-0,121	-0,122
-479,591	78,588	-0,041	-0,031
-478,576	188,154	0,083	0,089
-477,562	-69,676	-0,086	-0,023
-476,547	-76,650	-0,137	0,034
-475,532	114,476	-0,082	0,072
-474,518	74,965	0,072	0,054
-473,503	-65,728	0,120	0,034
-472,489	110,861	-0,026	0,023
-471,474	200,152	0,073	0,081
-470,459	-200,000	-0,007	-0,062
-469,445	-200,000	-0,015	-0,071
-468,430	364,289	0,073	-0,106
-467,416	-200,000	0,001	-0,034
-466,401	444,965	0,054	0,086
-465,386	-200,000	0,004	0,132
-464,372	765,148	0,036	-0,070
-463,357	-50,675	-0,018	0,006
-462,343	130,173	-0,117	-0,108
-461,328	206,073	-0,115	-0,128
-460,313	800,000	0,058	0,167
-459,299	28,791	0,049	0,030
-458,284	744,757	-0,073	0,142
-457,270	26,641	-0,019	-0,011
-456,255	24,127	-0,092	0,054
-455,241	800,000	0,018	-0,050
-454,226	13,869	0,043	-0,024
-453,211	256,329	-0,034	-0,042
-452,197	-75,229	0,086	0,022
-451,182	800,000	-0,016	-0,034
-450,168	570,630	0,020	0,035
-449,153	328,945	-0,075	0,104
-448,138	-128,988	0,041	-0,004
-447,124	-82,322	0,048	-0,011
-446,109	-42,056	0,075	-0,027
-445,095	1,379	0,070	0,036
-444,080	-33,679	0,056	0,022
-443,065	-11,390	0,141	-0,066
-442,051	337,740	-0,067	0,094
-441,036	108,888	-0,040	0,034
-440,022	-121,876	-0,022	0,003
-439,007	38,005	0,124	0,079
-437,992	-200,000	-0,006	-0,101
-436,978	-77,016	0,016	0,004
-435,963	-33,199	-0,171	0,068
-434,949	-200,000	0,013	0,212
-433,934	-95,363	0,031	-0,006
-432,919	733,764	-0,037	-0,071
-431,905	-50,606	-0,155	-0,052
-430,890	139,628	0,098	0,092
-429,876	155,478	0,085	0,084
-428,861	800,000	0,045	0,115
-427,846	-104,164	0,076	0,012
-426,832	-200,000	0,004	-0,013
-425,817	215,096	-0,082	-0,093
-424,803	17,678	0,091	-0,052
-423,788	-40,913	0,074	-0,027
-422,773	-31,941	-0,062	0,025
-421,759	-200,000	-0,024	0,147
-420,744	-66,377	-0,043	0,012
-419,730	-200,000	0,011	-0,130
-418,715	800,000	-0,020	0,045
-417,701	-31,495	-0,085	-0,034
-416,686	-98,624	0,260	0,047
-415,671	75,692	0,162	-0,122
-414,657	-200,000	0,008	0,046
-413,642	139,492	-0,025	-0,023
-412,628	258,837	-0,029	0,036
-411,613	-200,000	0,002	-0,020
-410,598	116,243	0,077	-0,068
-409,584	-127,366	-0,284	0,029
-408,569	-151,996	0,110	-0,006
-407,555	132,519	0,129	0,119
-406,540	-103,102	0,044	0,007
-405,525	-200,000	0,024	-0,119
-404,511	176,929	-0,084	-0,088
-403,496	263,275	0,026	-0,033
-402,482	49,569	0,044	-0,029
-401,467	778,819	-0,024	0,048
-400,452	119,538	0,118	0,105
-399,438	-80,748	0,113	0,027
-398,423	60,473	-0,065	0,046
-397,409	-110,950	-0,114	0,017
-396,394	-141,543	0,116	-0,008
-395,379	800,000	0,025	-0,054
-394,365	514,367	0,044	-0,074
-393,350	396,345	-0,046	-0,069
-392,336	353,933	-0,061	0,087
-391,321	-22,672	-0,068	0,029
-390,306	-42,839	-0,058	-0,021
-389,292	488,099	0,044	0,072
-388,277	352,561	-0,061	-0,087
-387,263	302,244	0,073	-0,097
-386,248	-77,030	-0,049	-0,012
-385,233	166,032	-0,079	0,080
-384,219	-200,000	-0,030	0,131
-383,204	21,755	-0,062	0,036
-382,190	800,000	-0,027	-0,054
-381,175	-200,000	-0,000	0,014
-380,160	800,000	0,026	-0,080
-379,146	-95,894	0,131	0,025
-378,131	-37,426	-0,054	-0,021
-377,117	-29,633	0,078	0,032
-376,102	117,546	-0,010	-0,008
-375,088	269,921	-0,032	-0,040
-374,073	289,373	-0,028	-0,036
-373,058	27,745	0,100	0,060
-372,044	41,198	0,114	0,074
-371,029	-57,969	0,051	0,016
-370,015	800,000	-0,049	0,143
-369,000	-33,341	-0,186	-0,073
-367,985	483,427	0,142	-0,231
-366,971	-200,000	-0,006	-0,058
-365,956	-86,310	0,094	0,021
-364,942	359,459	0,058	-0,084
-363,927	-200,000	-0,002	0,091
-362,912	-98,547	0,099	0,018
-361,898	-90,203	-0,075	0,015
-360,883	-200,000	-0,026	-0,104
-359,869	-200,000	-0,001	0,045
-358,854	-150,376	-0,037	0,002
-357,839	-24,727	0,140	-0,059
-356,825	-200,000	0,009	0,083
-355,810	-35,138	-0,041	0,016
-354,796	-200,000	-0,025	-0,104
-353,781	-187,633	0,041	0,000
-352,766	800,000	-0,007	-0,019
-351,752	63,974	0,066	-0,047
-350,737	391,257	0,057	-0,084
-349,723	60,822	0,183	0,129
-348,708	-196,510	-0,151	0,001
-347,693	1,146	-0,107	-0,054
-346,679	525,277	-0,062	0,105
-345,664	-200,000	-0,001	0,062
-344,650	800,000	-0,017	-0,039
-343,635	27,415	-0,149	0,089
-342,620	-12,097	-0,018	0,008
-341,606	-3,375	-0,089	0,044
-340,591	-200,000	-0,005	-0,134
-339,577	221,161	-0,104	-0,120
-338,562	-200,000	0,007	-0,047
-337,548	-200,000	-0,007	0,025
-336,533	-0,078	0,140	-0,071
-335,518	60,021	-0,204	0,144
-334,504	-200,000	0,002	0,053
-333,489	-100,625	-0,086	-0,015
-332,475	-200,000	0,015	-0,089
-331,460	-200,000	0,006	-0,025
-330,445	315,060	-0,014	-0,019
-329,431	-64,224	0,110	0,032
-328,416	-90,997	-0,077	0,016
-327,402	130,089	0,085	-0,077
-326,387	-82,643	0,074	0,017
-325,372	-200,000	0,006	-0,070
-324,358	-136,703	0,063	-0,005
-323,343	-76,761	-0,072	0,018
-322,329	116,967	0,019	0,017
-321,314	390,885	0,037	-0,055
-320,299	561,917	0,073	0,127
-319,285	-128,542	0,100	-0,010
-318,270	-15,456	-0,091	-0,041
-317,256	592,552	0,024	-0,043
-316,241	-200,000	0,011	-0,089
-315,226	327,140	0,012	0,017
-314,212	-169,227	0,081	-0,002
-313,197	-200,000	0,021	0,132
-312,183	278,792	0,098	0,125
-311,168	-200,000	-0,017	0,091
-310,153	800,000	0,057	-0,119
-309,139	800,000	-0,022	-0,045
-308,124	-13,961	0,077	0,035
-307,110	-200,000	-0,004	0,046
-306,095	692,914	0,123	0,231
-305,080	-200,000	0,016	0,072
-304,066	-200,000	0,001	0,024
-303,051	572,281	-0,053	-0,093
-302,037	-80,146	-0,064	-0,015
-301,022	800,000	-0,017	-0,035
-300,008	-66,669	0,070	0,020
-298,993	-32,862	0,115	0,046
-297,978	-122,717	-0,059	0,007
-296,964	168,084	0,060	0,061
-295,949	87,341	0,039	-0,031
-294,935	235,253	-0,074	0,087
-293,920	-200,000	-0,032	0,126
-292,905	800,000	0,064	0,183
-291,891	800,000	-0,045	0,110
-290,876	800,000	-0,018	-0,042
-289,862	-46,784	0,125	-0,043
-288,847	615,333	-0,042	-0,076
-287,832	527,980	-0,056	-0,095
-286,818	500,187	0,024	0,040
-285,803	800,000	0,015	-0,046
-284,789	800,000	-0,072	0,158
-283,774	-200,000	-0,020	-0,127
-282,759	139,684	-0,024	0,023
-281,745	-93,142	-0,148	0,029
-280,730	-200,000	0,032	0,120
-279,716	101,105	-0,022	0,018
-278,701	-200,000	-0,004	0,111
-277,686	-81,122	0,178	0,042
-276,672	222,068	0,003	0,004
-275,657	-200,000	0,006	-0,067
-274,643	-200,000	-0,062	-0,227
-273,628	-200,000	-0,027	-0,120
-272,613	-106,545	0,029	0,004
-271,599	9,235	-0,056	-0,030
-270,584	61,100	0,020	0,014
-269,570	-56,286	0,041	-0,013
-268,555	-200,000	-0,006	0,055
-267,540	-200,000	0,017	-0,070
-266,526	70,617	-0,016	-0,012
-265,511	210,079	-0,096	-0,108
-264,497	-200,000	-0,044	0,214
-263,482	800,000	0,049	0,144
-262,467	312,444	0,040	0,053
-261,453	-97,506	0,200	0,037
-260,438	-200,000	-0,002	-0,087
-259,424	164,198	0,056	-0,056
-258,409	-84,898	0,034	0,008
-257,395	183,838	0,090	0,095
-256,380	-26,707	-0,132	-0,055
-255,365	-200,000	-0,003	-0,036
-254,351	28,353	0,099	0,059
-253,336	800,000	-0,020	-0,045
-252,322	50,086	-0,030	-0,020
-251,307	-52,135	0,136	0,045
-250,292	185,597	0,007	-0,007
-249,278	-0,328	-0,097	0,049
-248,263	-70,451	0,204	0,055
-247,249	800,000	0,030	0,083
-246,234	-200,000	-0,013	-0,059
-245,219	-200,000	-0,052	-0,230
-244,205	-144,499	0,111	0,007
-243,190	-127,061	0,028	0,003
-242,176	-67,320	0,005	0,001
-241,161	-192,226	-0,173	0,001
-240,146	316,952	0,064	-0,086
-239,132	-143,624	-0,043	-0,003
-238,117	-25,898	-0,063	-0,026
-237,103	495,378	0,030	-0,049
-236,088	-59,175	-0,051	-0,016
-235,073	77,325	0,027	0,020
-234,059	-65,470	0,018	-0,005
-233,044	-200,000	0,006	-0,040
-232,030	800,000	0,032	-0,063
-231,015	-200,000	-0,002	-0,012
-230,000	-200,000	-0,018	-0,198
-228,986	-5,379	0,115	0,056
-227,971	-200,000	-0,049	0,217
-226,957	-80,513	0,059	-0,014
-225,942	58,821	0,031	-0,022
-224,927	45,730	0,063	-0,041
-223,913	314,075	0,025	0,034
-222,898	-60,715	0,084	-0,025
-221,884	-200,000	-0,046	-0,200
-220,869	-200,000	-0,024	-0,086
-219,855	-64,924	-0,054	0,015
-218,840	-200,000	0,002	-0,022
-217,825	-83,702	-0,009	0,002
-216,811	800,000	-0,034	0,080
-215,796	120,972	0,084	-0,075
-214,782	649,807	0,003	-0,006
-213,767	-200,000	0,019	0,074
-212,752	-34,657	0,032	-0,012
-211,738	-118,793	0,095	-0,012
-210,723	-63,434	-0,094	0,027
-209,709	208,973	-0,045	-0,050
-208,694	-200,000	0,010	-0,076
-207,679	-200,000	-0,017	-0,127
-206,665	-124,545	-0,078	-0,008
-205,650	-200,000	0,000	-0,010
-204,636	-200,000	-0,009	0,038
-203,621	800,000	-0,031	0,062
-202,606	-81,127	0,003	-0,001
-201,592	800,000	-0,034	-0,090
-200,577	-123,149	-0,067	-0,008
-199,563	-200,000	0,018	0,101
-198,548	-200,000	-0,012	0,049
-197,533	81,428	0,074	0,057
-196,519	-96,023	0,097	-0,018
-195,504	-138,063	0,008	-0,001
-194,490	800,000	0,026	0,059
-193,475	445,554	0,062	-0,097
-192,460	-6,574	0,049	-0,024
-191,446	-200,000	0,014	0,132
-190,431	327,648	-0,049	0,067
-189,417	21,900	-0,124	-0,071
-188,402	800,000	0,008	0,023
-187,387	-3,285	0,053	-0,026
-186,373	688,413	-0,064	0,119
-185,358	182,802	0,015	0,015
-184,344	579,565	0,046	0,081
-183,329	92,702	0,102	0,082
-182,315	-172,576	0,071	-0,002
-181,300	-200,000	-0,011	0,215
-180,285	100,216	0,098	0,080
-179,271	-200,000	0,003	0,111
-178,256	-146,536	-0,024	-0,001
-177,242	-60,726	0,137	0,041
-176,227	290,969	-0,049	0,063
-175,212	-19,583	-0,083	0,036
-174,198	800,000	-0,008	-0,018
-173,183	-38,215	-0,072	-0,027
-172,169	101,131	-0,072	0,059
-171,154	-177,822	-0,126	0,002
-170,139	283,078	0,084	-0,108
-169,125	-30,903	0,091	0,036
-168,110	-200,000	-0,018	-0,142
-167,096	-99,372	0,091	0,016
-166,081	634,782	-0,120	-0,216
-165,066	358,881	0,036	-0,052
-164,052	-28,027	0,074	-0,030
-163,037	332,673	-0,009	-0,012
-162,023	676,905	0,032	-0,060
-161,008	-88,043	-0,150	0,032
-159,993	-200,000	0,023	0,088
-158,979	87,960	0,049	0,039
-157,964	-44,009	-0,101	0,036
-156,950	450,882	-0,041	0,065
-155,935	-107,793	-0,039	0,006
-154,920	-200,000	-0,006	0,066
-153,906	-52,176	-0,022	0,007
-152,891	38,208	0,020	0,013
-151,877	-200,000	0,022	-0,091
-150,862	-81,828	0,091	0,021
-149,847	-173,618	-0,075	-0,002
-148,833	-136,859	0,017	-0,001
-147,818	800,000	-0,050	0,102
-146,804	5,061	0,067	0,035
-145,789	-128,957	-0,017	-0,002
-144,775	-200,000	-0,001	-0,173
-143,760	-107,878	-0,084	0,013
-142,745	700,966	-0,005	-0,009
-141,731	490,717	-0,058	-0,094
-140,716	-200,000	0,010	-0,073
-139,702	276,471	0,074	0,094
-138,687	189,695	-0,063	0,067
-137,672	-200,000	-0,001	0,043
-136,658	519,811	0,006	-0,010
-135,643	800,000	-0,021	-0,043
-134,629	375,980	0,083	-0,121
-133,614	94,511	0,082	-0,066
-132,599	-200,000	0,017	0,090
-131,585	-152,806	0,034	0,002
-130,570	-200,000	-0,018	0,174
-129,556	266,718	-0,050	0,062
-128,541	-200,000	0,002	-0,116
-127,526	-200,000	0,049	-0,210
-126,512	-200,000	-0,005	0,133
-125,497	746,670	-0,029	0,056
-124,483	84,222	-0,063	0,049
-123,468	-200,000	0,005	0,119
-122,453	-200,000	-0,001	-0,182
-121,439	30,376	0,090	0,055
-120,424	252,245	0,109	-0,132
-119,410	199,253	0,072	-0,079
-118,395	167,050	0,067	0,067
-117,380	800,000	0,023	-0,064
-116,366	120,497	-0,116	-0,102
-115,351	-75,855	0,085	0,021
-114,337	-200,000	-0,002	-0,057
-113,322	-167,222	-0,191	0,005
-112,307	202,636	-0,008	0,009
-111,293	26,651	0,063	0,037
-110,278	-200,000	-0,005	0,065
-109,264	-200,000	-0,010	0,039
-108,249	-200,000	0,010	-0,047
-107,234	-116,704	-0,083	0,011
-106,220	17,113	-0,083	-0,047
-105,205	21,997	-0,043	-0,025
-104,191	-200,000	-0,018	-0,061
-103,176	387,350	0,073	0,107
-102,162	-169,328	0,125	0,003
-101,147	-200,000	0,013	-0,147
-100,132	-200,000	-0,023	-0,103
-99,118	-113,863	0,126	0,017
-98,103	-146,921	0,013	0,001
-97,089	800,000	0,029	0,060
-96,074	101,019	-0,046	-0,038
-95,059	-104,016	0,027	0,004
-94,045	451,708	0,044	-0,070
-93,030	-200,000	0,019	-0,168
-92,016	-19,728	-0,065	-0,028
-91,001	70,641	0,022	0,016
-89,986	-10,222	0,080	-0,037
-88,972	-86,748	0,075	0,016
-87,957	97,498	0,048	-0,039
-86,943	-66,593	0,050	0,014
-85,928	49,178	-0,100	0,066
-84,913	-68,328	-0,148	0,040
-83,899	616,394	0,010	0,018
-82,884	109,718	0,164	-0,139
-81,870	-32,250	0,056	-0,022
-80,855	-23,757	0,117	0,049
-79,840	800,000	-0,041	-0,101
-78,826	245,310	-0,013	-0,015
-77,811	-200,000	0,008	-0,122
-76,797	155,056	0,059	0,058
-75,782	-74,255	0,118	0,030
-74,767	137,370	0,062	0,057
-73,753	800,000	-0,010	-0,029
-72,738	-50,825	0,088	-0,029
-71,724	800,000	0,023	-0,059
-70,709	-83,469	-0,124	0,028
-69,694	-200,000	-0,012	0,133
-68,680	-84,354	0,077	0,017
-67,665	287,125	0,065	-0,084
-66,651	-28,025	0,082	0,033
-65,636	-109,622	-0,063	0,009
-64,622	-200,000	0,040	-0,137
-63,607	241,147	-0,072	-0,085
-62,592	-200,000	-0,005	-0,025
-61,578	-88,400	-0,113	0,024
-60,563	229,482	-0,113	0,131
-59,549	-62,366	-0,032	0,009
-58,534	39,302	-1,832	-1,156
-57,519	355,277	-1,424	-2,006
-56,505	-200,000	-0,384	-4,550
-55,490	321,404	0,951	1,281
-54,476	800,000	5,310	11,734
-53,461	-200,000	21,001	335,356
-52,446	800,000	759,007	2337,409
-51,432	552,202	1663,590	2832,919
-50,417	73,544	1665,513	1230,453
-49,403	18,584	1538,888	866,766
-48,388	12,578	1462,086	794,383
-47,373	19,341	1452,588	821,724
-46,359	15,910	1442,098	799,400
-45,344	10,901	1437,857	773,110
-44,330	10,818	1435,996	771,682
-43,315	10,800	1434,242	770,623
-42,300	10,815	1432,352	769,648
-41,286	10,841	1431,083	769,061
-40,271	10,810	1429,859	768,227
-39,257	10,791	1428,824	767,546
-38,242	10,835	1427,584	767,062
-37,227	10,813	1426,604	766,398
-36,213	10,848	1425,098	765,724
-35,198	10,862	1424,065	765,205
-34,184	10,864	1423,267	764,758
-33,169	10,808	1421,841	763,694
-32,154	10,870	1420,790	763,392
-31,140	10,857	1419,645	762,685
-30,125	10,915	1418,401	762,259
-29,111	10,837	1417,557	761,409
-28,096	10,877	1416,147	760,812
-27,082	10,760	1415,156	759,696
-26,067	10,798	1413,881	759,161
-25,052	10,854	1412,857	758,845
-24,038	10,789	1411,905	758,000
-23,023	10,768	1411,051	757,409
-22,009	10,813	1409,769	756,902
-20,994	10,727	1408,990	756,052
-19,979	10,780	1408,064	755,776
-18,965	10,748	1407,049	755,050
-17,950	10,737	1406,066	754,441
-16,936	10,760	1405,437	754,181
-15,921	10,697	1404,398	753,297
-14,906	10,659	1403,302	752,504
-13,892	10,728	1402,453	752,340
-12,877	10,705	1401,734	751,819
-11,863	10,695	1400,692	751,185
-10,848	10,695	1399,842	750,697
-9,833	10,626	1399,108	749,952
-8,819	10,578	1398,219	749,225
-7,804	10,551	1397,459	748,662
-6,790	10,602	1396,273	748,234
-5,775	10,614	1395,049	747,601
-4,760	10,654	1394,206	747,306
-3,746	10,609	1393,415	746,646
-2,731	10,607	1392,574	746,154
-1,717	10,584	1391,636	745,518
-0,702	10,584	1389,695	744,449
0,313	14,532	1302,656	715,957
1,327	30,550	693,037	417,370
2,342	47,190	120,342	78,927
3,356	1,014	16,421	8,283
4,371	5,181	3,489	1,808
5,386	9,751	0,896	0,478
6,400	800,000	0,221	0,434
7,415	800,000	-0,145	-0,318
8,429	-28,747	-0,265	-0,107
9,444	-7,038	-0,293	-0,140
10,459	-121,391	-0,370	-0,043
11,473	-41,588	-0,310	-0,112
12,488	-3,354	-0,300	-0,147
13,502	36,191	-0,246	-0,152
14,517	45,170	-0,380	-0,246
15,531	-1,169	-0,300	-0,149
16,546	16,889	-0,346	-0,193
17,561	56,719	-0,338	-0,231
18,575	-81,738	-0,220	-0,050
19,590	108,429	-0,187	-0,157
20,604	-42,399	-0,255	-0,091
21,619	-9,638	-0,459	-0,215
22,634	155,874	-0,342	-0,332
23,648	85,312	-0,417	-0,322
24,663	287,791	-0,362	-0,462
25,677	141,998	-0,254	-0,237
26,692	87,671	-0,216	-0,168
27,707	89,897	-0,279	-0,219
28,721	248,315	-0,333	-0,398
29,736	-29,268	-0,375	-0,151
30,750	31,625	-0,331	-0,200
31,765	165,085	-0,379	-0,377
32,780	161,556	-0,303	-0,299
33,794	145,496	-0,324	-0,305
34,809	46,632	-0,369	-0,240
35,823	19,385	-0,443	-0,250
36,838	-2,028	-0,497	-0,245
37,853	31,066	-0,407	-0,245
38,867	133,719	-0,291	-0,265
39,882	-53,260	-0,408	-0,131
40,896	46,939	-0,383	-0,250
41,911	-71,587	-0,216	-0,056
42,926	-10,888	-0,337	-0,156
43,940	201,555	-0,366	-0,397
44,955	178,677	-0,292	-0,300
45,969	-7,951	-0,421	-0,199
46,984	133,948	-0,198	-0,181
47,999	140,622	-0,361	-0,336
49,013	160,705	-0,229	-0,225
50,028	-58,624	-0,300	-0,091
51,042	0,427	-0,452	-0,226
52,057	100,722	-0,287	-0,234
53,071	-6,133	-0,381	-0,182
54,086	205,614	-0,311	-0,340
55,101	-45,752	-0,197	-0,068
56,115	95,199	-0,370	-0,296
57,130	-62,736	-0,462	-0,134
58,144	67,223	-0,258	-0,185
59,159	100,110	-0,369	-0,300
60,174	-28,100	-0,245	-0,099
61,188	66,683	-0,309	-0,221
62,203	181,033	-0,340	-0,351
63,217	-18,807	-0,329	-0,143
64,232	64,716	-0,362	-0,256
65,247	38,227	-0,337	-0,210
66,261	26,024	-0,311	-0,182
67,276	12,671	-0,347	-0,187
68,290	36,868	-0,504	-0,312
69,305	17,274	-0,307	-0,170
70,320	-21,492	-0,269	-0,115
71,334	22,161	-0,276	-0,158
72,349	93,867	-0,333	-0,264
73,363	214,515	-0,249	-0,277
74,378	214,897	-0,311	-0,347
75,393	154,225	-0,297	-0,286
76,407	77,671	-0,259	-0,193
77,422	-116,174	-0,320	-0,041
78,436	93,312	-0,210	-0,167
79,451	-158,318	-0,341	-0,014
80,466	-23,678	-0,353	-0,147
81,480	73,594	-0,375	-0,275
82,495	485,366	-0,192	-0,308
83,509	3,285	-0,260	-0,132
84,524	-42,786	-0,230	-0,082
85,539	-76,389	-0,210	-0,051
86,553	-140,884	-0,291	0,021
87,568	0,364	-0,267	-0,133
88,582	-13,493	-0,450	-0,204
89,597	-58,369	-0,174	-0,053
90,611	-85,247	-0,372	-0,081
91,626	226,765	-0,159	-0,181
92,641	76,786	-0,277	-0,206
93,655	79,249	-0,253	-0,190
94,670	27,880	-0,332	-0,196
95,684	380,389	-0,253	-0,364
96,699	377,308	-0,219	-0,314
97,714	63,179	-0,203	-0,142
98,728	-113,501	-0,222	-0,030
99,743	503,196	-0,104	-0,168
100,757	-81,315	-0,180	-0,041
101,772	-2,603	-0,366	-0,178
102,787	-17,924	-0,424	-0,185
103,801	-17,571	-0,291	-0,127
104,816	70,708	-0,244	-0,176
105,830	-131,295	-0,184	-0,017
106,845	52,065	-0,336	-0,223
107,860	133,118	-0,171	-0,155
108,874	322,578	-0,116	-0,155
109,889	57,028	-0,310	-0,211
110,903	13,433	-0,273	-0,147
111,918	-127,317	-0,202	-0,020
112,933	-3,940	-0,238	-0,115
113,947	240,431	-0,163	-0,191
114,962	-29,361	-0,212	-0,084
115,976	93,272	-0,259	-0,205
116,991	45,503	-0,360	-0,232
118,006	86,741	-0,327	-0,252
119,020	170,961	-0,215	-0,216
120,035	-185,370	-0,109	0,001
121,049	107,075	-0,142	-0,118
122,064	68,819	-0,169	-0,121
123,079	-16,239	-0,239	-0,106
124,093	-6,543	-0,326	-0,155
125,108	-51,155	-0,181	-0,059
126,122	0,970	-0,353	-0,176
127,137	44,106	-0,226	-0,144
128,151	-105,857	-0,313	-0,049
129,166	137,741	-0,222	-0,203
130,181	-77,903	-0,216	-0,052
131,195	-35,258	-0,214	-0,081
132,210	74,513	-0,208	-0,153
133,224	74,905	-0,181	-0,133
134,239	-32,363	-0,297	-0,115
135,254	-22,434	-0,279	-0,117
136,268	-15,127	-0,112	-0,050
137,283	68,013	-0,249	-0,178
138,297	115,581	-0,293	-0,250
139,312	150,388	-0,255	-0,242
140,327	75,212	-0,359	-0,263
141,341	154,982	-0,215	-0,206
142,356	-14,227	-0,219	-0,098
143,370	187,451	-0,221	-0,230
144,385	159,986	-0,150	-0,145
145,400	522,277	-0,167	-0,274
146,414	553,742	-0,202	-0,340
147,429	222,907	-0,203	-0,228
148,443	103,505	-0,253	-0,207
149,458	11,575	-0,300	-0,160
150,473	-35,450	-0,331	-0,125
151,487	-16,856	-0,239	-0,105
152,502	800,000	-0,111	-0,235
153,516	86,207	-0,385	-0,295
154,531	118,158	-0,275	-0,236
155,546	98,261	-0,237	-0,190
156,560	30,689	-0,196	-0,117
157,575	18,007	-0,260	-0,144
158,589	71,644	-0,119	-0,086
159,604	299,126	-0,168	-0,216
160,619	-26,895	-0,300	-0,122
161,633	-0,627	-0,375	-0,185
162,648	-24,694	-0,405	-0,167
163,662	105,417	-0,110	-0,090
164,677	133,352	-0,234	-0,211
165,692	199,363	-0,131	-0,139
166,706	-66,507	-0,437	-0,120
167,721	504,431	-0,177	-0,286
168,735	316,205	-0,211	-0,278
169,750	366,444	-0,146	-0,205
170,764	147,433	-0,185	-0,174
171,779	43,586	-0,223	-0,142
172,794	800,000	-0,079	-0,222
173,808	144,481	-0,126	-0,117
174,823	-19,389	-0,206	-0,088
175,837	670,614	-0,124	-0,224
176,852	66,215	-0,268	-0,189
177,867	765,438	-0,121	-0,229
178,881	-73,598	-0,174	-0,044
179,896	74,068	-0,197	-0,143
180,910	32,423	-0,206	-0,124
181,925	79,637	-0,214	-0,160
182,940	299,028	-0,193	-0,247
183,954	0,572	-0,145	-0,072
184,969	119,601	-0,200	-0,172
185,983	83,118	-0,116	-0,087
186,998	35,095	-0,131	-0,080
188,013	-132,308	-0,292	-0,026
189,027	68,855	-0,245	-0,174
190,042	124,042	-0,258	-0,225
191,056	46,571	-0,264	-0,170
192,071	236,560	-0,154	-0,178
193,086	83,877	-0,213	-0,161
194,100	-39,823	-0,251	-0,091
195,115	206,078	-0,083	-0,090
196,129	249,273	-0,110	-0,129
197,144	145,171	-0,139	-0,130
198,159	60,597	-0,297	-0,204
199,173	498,420	-0,111	-0,179
200,188	205,279	-0,142	-0,153
201,202	-71,576	-0,269	-0,069
202,217	-17,334	-0,203	-0,088
203,232	-0,429	-0,213	-0,105
204,246	74,223	-0,241	-0,176
205,261	-200,000	0,005	-0,152
206,275	49,607	-0,217	-0,141
207,290	145,353	-0,165	-0,153
208,304	-200,000	-0,021	-0,193
209,319	92,897	-0,133	-0,104
210,334	-89,731	-0,172	-0,035
211,348	137,920	-0,285	-0,259
212,363	61,974	-0,358	-0,247
213,377	76,923	-0,191	-0,140
214,392	130,776	-0,173	-0,154
215,407	-123,052	-0,140	-0,015
216,421	-32,314	-0,212	-0,081
217,436	241,360	-0,186	-0,215
218,450	139,411	-0,159	-0,145
219,465	-200,000	-0,069	-0,278
220,480	-200,000	-0,057	-0,188
221,494	160,441	-0,190	-0,183
222,509	-7,305	-0,140	-0,065
223,523	800,000	-0,097	-0,268
224,538	70,847	-0,207	-0,148
225,553	-30,878	-0,204	-0,080
226,567	-22,984	-0,123	-0,051
227,582	347,172	-0,098	-0,134
228,596	13,401	-0,123	-0,066
229,611	-200,000	0,006	-0,087
230,626	-60,293	-0,270	-0,079
231,640	414,942	-0,165	-0,244
232,655	43,818	-0,295	-0,186
233,669	-14,442	-0,226	-0,100
234,684	800,000	-0,068	-0,143
235,699	207,645	-0,210	-0,227
236,713	171,581	-0,096	-0,095
237,728	31,976	-0,196	-0,116
238,742	30,901	-0,266	-0,157
239,757	-74,289	-0,262	-0,065
240,772	-64,413	-0,167	0,047
241,786	800,000	-0,082	-0,199
242,801	237,724	-0,041	-0,047
243,815	-14,967	-0,123	-0,054
244,830	-151,359	-0,163	-0,008
245,844	105,813	-0,196	-0,160
246,859	-6,184	-0,271	-0,128
247,874	19,251	-0,252	-0,139
248,888	107,243	-0,325	-0,267
249,903	86,944	-0,187	-0,142
250,917	56,149	-0,039	0,026
251,932	-160,852	-0,032	0,001
252,947	192,320	-0,139	-0,145
253,961	-200,000	-0,049	-0,359
254,976	299,479	-0,200	-0,255
255,990	675,334	-0,149	-0,268
257,005	106,177	-0,171	-0,140
258,020	487,155	-0,050	-0,079
259,034	120,884	-0,130	-0,111
260,049	161,821	-0,146	-0,141
261,063	800,000	-0,096	-0,217
262,078	-8,075	-0,256	-0,119
263,093	305,373	-0,167	-0,215
264,107	800,000	-0,107	-0,227
265,122	-56,481	-0,196	-0,060
266,136	-74,911	-0,114	-0,028
267,151	-200,000	-0,027	-0,176
268,166	-75,121	-0,087	-0,021
269,180	-127,879	-0,123	0,012
270,195	205,336	-0,126	-0,135
271,209	87,436	-0,275	-0,210
272,224	-179,660	-0,174	-0,003
273,239	511,472	-0,115	-0,185
274,253	201,557	-0,116	-0,123
275,268	109,535	-0,147	-0,121
276,282	244,902	-0,174	-0,202
277,297	500,730	-0,141	-0,225
278,312	164,953	-0,198	-0,192
279,326	57,536	-0,103	-0,069
280,341	172,000	-0,078	-0,077
281,355	199,096	-0,112	-0,118
282,370	-9,363	-0,246	-0,112
283,384	-40,983	-0,256	-0,090
284,399	-34,532	-0,159	-0,060
285,414	63,064	-0,196	-0,135
286,428	179,390	-0,056	-0,057
287,443	529,108	-0,051	-0,083
288,457	-96,067	-0,225	-0,041
289,472	88,037	-0,204	-0,156
290,487	182,492	-0,194	-0,197
291,501	130,820	-0,181	-0,160
292,516	-41,114	-0,144	-0,051
293,530	24,767	-0,192	-0,109
294,545	11,694	-0,249	-0,131
295,560	-175,161	-0,136	0,003
296,574	-19,182	-0,170	-0,072
297,589	128,775	-0,109	-0,095
298,603	-138,185	0,037	0,003
299,618	-200,000	-0,011	0,064
300,633	9,449	-0,234	-0,122
301,647	-178,118	-0,303	0,005
302,662	118,742	-0,178	-0,151
303,676	3,391	-0,095	0,047
304,691	800,000	-0,085	-0,168
305,706	403,829	-0,152	-0,220
306,720	8,163	-0,284	-0,146
307,735	800,000	-0,065	-0,152
308,749	-118,086	-0,140	-0,017
309,764	-200,000	-0,045	-0,190
310,779	-106,113	-0,181	-0,028
311,793	32,293	-0,165	-0,098
312,808	624,787	-0,125	-0,217
313,822	46,798	-0,207	-0,132
314,837	-44,123	-0,234	-0,080
315,852	56,791	-0,138	0,092
316,866	-119,237	-0,151	-0,018
317,881	-200,000	-0,016	-0,093
318,895	-200,000	-0,066	-0,272
319,910	-31,377	-0,136	-0,052
320,925	417,398	-0,130	-0,192
321,939	-54,835	-0,155	-0,048
322,954	-133,505	-0,183	-0,015
323,968	-101,145	-0,088	0,015
324,983	58,941	-0,090	-0,060
325,997	-200,000	-0,057	-0,215
327,012	-6,788	-0,137	-0,063
328,027	-200,000	-0,035	-0,146
329,041	800,000	0,036	-0,091
330,056	800,000	-0,047	-0,116
331,070	-200,000	-0,025	-0,122
332,085	-128,184	-0,117	0,011
333,100	-50,463	-0,147	-0,047
334,114	54,675	-0,157	-0,104
335,129	800,000	-0,115	-0,249
336,143	193,682	-0,140	-0,145
337,158	93,210	-0,236	-0,182
338,173	70,488	-0,049	-0,034
339,187	-25,139	-0,149	-0,060
340,202	-20,624	-0,195	-0,082
341,216	45,418	-0,164	-0,104
342,231	-76,478	-0,117	0,028
343,246	691,184	-0,089	-0,160
344,260	-147,489	-0,092	-0,005
345,275	113,403	-0,101	-0,084
346,289	21,537	-0,179	-0,099
347,304	724,353	-0,071	-0,129
348,319	237,914	-0,204	-0,233
349,333	728,358	-0,123	-0,226
350,348	-114,108	-0,170	-0,022
351,362	-200,000	0,006	-0,018
352,377	-200,000	-0,029	-0,134
353,392	148,813	-0,127	-0,117
354,406	800,000	-0,059	-0,114
355,421	207,865	1312,398	1404,259
356,435	159,925	1472,805	1404,743
