DTS Sentinel unit serial number:	SN410029Multiplexer serial number:	ORYXHardware model number:	OX2-SRSoftware version number:	ORYX F/W v4,00 Oryx Data Collector v3.7.2.0data status	okinstallation	B3 Nyhavnadifferential loss correction	single-endedforward channel	channel 1reverse channel	N/Adate	2023/12/02time	04:22:30forward acquisition time	300,00reverse acquisition time	0,00gamma	499,1914k internal	0,3194k external	0,3194temperature offset calibration	1,0000default loss term (dB/km)	0,3820temperature slope calibration	1,0000multiplexer offset coefficient	1,0000multiplexer slope coefficient	1,0000fibre end	0,00T internal ref (°C)	16,53T ext. ref 1 (°C)	1,36T ext. ref 2 (°C)	1,34length (m)	temperature (°C)	Stokes	anti-Stokes-744,400	7,655	-0,291	-0,158
-743,385	-200,000	0,047	0,297
-742,371	101,364	-0,294	-0,250
-741,356	800,000	0,143	0,412
-740,342	45,137	-0,297	-0,199
-739,327	-200,000	0,009	0,294
-738,312	800,000	-0,159	-0,330
-737,298	-200,000	-0,096	0,415
-736,283	800,000	-0,126	-0,263
-735,269	-200,000	-0,045	0,298
-734,254	130,688	-0,184	-0,172
-733,239	225,104	-0,073	0,086
-732,225	800,000	-0,067	-0,155
-731,210	-118,541	0,187	0,024
-730,196	-16,705	0,105	0,048
-729,181	-140,421	-0,083	-0,006
-728,167	-4,912	-0,089	-0,044
-727,152	187,489	-0,049	-0,054
-726,137	-34,156	-0,074	-0,029
-725,123	800,000	-0,023	0,059
-724,108	119,879	-0,077	0,070
-723,094	226,524	-0,076	-0,090
-722,079	-96,046	0,041	-0,008
-721,064	794,442	-0,062	0,126
-720,050	-200,000	-0,018	0,141
-719,035	-71,792	-0,144	0,039
-718,021	-94,189	-0,122	0,024
-717,006	603,864	-0,038	-0,070
-715,991	87,047	-0,137	-0,110
-714,977	800,000	-0,055	-0,131
-713,962	800,000	-0,026	-0,057
-712,948	-163,084	-0,045	0,002
-711,933	-200,000	0,007	0,039
-710,918	-171,991	0,087	-0,002
-709,904	-200,000	0,001	-0,098
-708,889	-200,000	-0,022	-0,097
-707,875	-58,616	-0,051	-0,016
-706,860	114,974	0,089	-0,079
-705,845	-200,000	-0,007	-0,120
-704,831	237,646	0,029	0,035
-703,816	-200,000	0,015	0,089
-702,802	-40,589	0,036	-0,014
-701,787	-4,748	-0,070	-0,035
-700,772	188,844	-0,067	-0,073
-699,758	74,887	-0,040	-0,030
-698,743	-200,000	-0,002	-0,011
-697,729	81,072	-0,036	-0,028
-696,714	22,054	-0,073	0,043
-695,699	93,818	-0,070	-0,058
-694,685	-28,705	0,092	-0,038
-693,670	362,837	-0,019	-0,028
-692,656	-200,000	0,002	0,018
-691,641	46,118	0,044	-0,030
-690,627	-142,881	0,052	-0,004
-689,612	30,502	-0,061	0,038
-688,597	-99,151	0,040	0,007
-687,583	370,553	-0,056	-0,083
-686,568	182,356	0,068	0,073
-685,554	-200,000	-0,011	-0,069
-684,539	44,082	-0,133	0,088
-683,524	-135,513	0,009	0,001
-682,510	51,085	-0,104	0,071
-681,495	566,505	0,087	-0,154
-680,481	-200,000	0,035	-0,140
-679,466	-200,000	0,009	0,040
-678,451	319,720	0,042	0,058
-677,437	800,000	-0,020	-0,060
-676,422	-74,855	0,039	-0,010
-675,408	-15,623	-0,046	-0,021
-674,393	784,346	-0,039	-0,079
-673,378	-200,000	-0,016	0,067
-672,364	79,223	-0,181	-0,141
-671,349	-115,597	-0,031	0,004
-670,335	-90,797	-0,044	-0,009
-669,320	201,675	-0,108	0,121
-668,305	-200,000	-0,025	0,159
-667,291	291,872	0,037	-0,049
-666,276	-34,186	-0,164	-0,065
-665,262	-200,000	0,003	-0,017
-664,247	-23,345	-0,134	-0,058
-663,232	800,000	-0,042	-0,112
-662,218	258,498	0,065	0,082
-661,203	800,000	-0,083	0,185
-660,189	-88,335	-0,040	0,009
-659,174	800,000	-0,006	0,015
-658,159	-113,493	0,072	0,010
-657,145	178,941	0,030	-0,031
-656,130	-200,000	0,056	-0,195
-655,116	108,722	-0,047	-0,041
-654,101	554,578	0,035	-0,061
-653,086	-200,000	0,035	0,135
-652,072	-33,991	-0,120	-0,048
-651,057	624,907	-0,022	0,040
-650,043	-200,000	0,031	-0,151
-649,028	800,000	-0,044	-0,089
-648,014	-58,772	0,022	-0,007
-646,999	669,747	0,069	0,130
-645,984	800,000	-0,026	0,065
-644,970	-200,000	0,008	0,149
-643,955	181,589	0,084	0,089
-642,941	-200,000	-0,017	-0,116
-641,926	-7,242	-0,027	0,013
-640,911	-77,210	0,143	0,036
-639,897	-200,000	0,024	0,102
-638,882	-52,156	0,051	0,017
-637,868	-200,000	-0,018	-0,067
-636,853	-45,021	-0,091	-0,033
-635,838	252,370	-0,061	-0,076
-634,824	800,000	0,037	-0,098
-633,809	634,845	0,032	-0,059
-632,795	-98,369	-0,099	0,018
-631,780	-130,211	0,121	-0,012
-630,765	-200,000	-0,011	-0,034
-629,751	23,942	-0,069	0,041
-628,736	113,509	-0,086	0,075
-627,722	160,575	-0,090	-0,091
-626,707	-137,036	-0,056	0,005
-625,692	317,768	0,059	0,082
-624,678	800,000	-0,025	0,057
-623,663	-21,402	0,062	0,027
-622,649	-75,792	-0,188	0,048
-621,634	800,000	-0,066	-0,182
-620,619	800,000	0,035	0,080
-619,605	800,000	-0,055	0,140
-618,590	59,874	-0,033	0,024
-617,576	108,501	0,065	0,056
-616,561	161,752	-0,024	0,025
-615,546	233,007	-0,102	-0,122
-614,532	-117,117	-0,059	-0,008
-613,517	335,923	-0,023	0,032
-612,503	321,973	0,049	0,067
-611,488	153,476	0,054	0,053
-610,474	7,932	-0,113	0,061
-609,459	800,000	-0,040	-0,096
-608,444	547,191	0,008	-0,014
-607,430	-81,518	-0,099	0,023
-606,415	502,677	-0,055	-0,093
-605,401	732,860	0,035	-0,067
-604,386	-119,933	0,069	0,008
-603,371	666,424	0,028	-0,052
-602,357	12,200	-0,065	0,036
-601,342	-200,000	-0,005	-0,096
-600,328	3,437	-0,070	0,037
-599,313	60,563	-0,052	0,037
-598,298	-200,000	-0,036	-0,122
-597,284	800,000	0,052	0,121
-596,269	-200,000	0,005	0,063
-595,255	-200,000	0,001	0,017
-594,240	-200,000	-0,008	0,173
-593,225	101,732	0,040	-0,033
-592,211	-120,052	0,028	0,003
-591,196	-200,000	-0,020	0,137
-590,182	12,606	-0,128	0,072
-589,167	0,483	0,085	0,044
-588,152	-200,000	-0,001	0,087
-587,138	-76,398	-0,072	0,018
-586,123	-47,431	-0,205	-0,072
-585,109	-106,024	-0,048	0,008
-584,094	-77,354	-0,096	-0,024
-583,079	27,321	0,099	0,060
-582,065	28,040	-0,051	0,031
-581,050	-200,000	-0,034	0,169
-580,036	473,918	0,031	-0,050
-579,021	-18,245	0,132	0,060
-578,006	300,564	-0,050	-0,067
-576,992	-130,699	0,019	0,002
-575,977	-17,918	-0,145	0,065
-574,963	-76,758	0,190	0,048
-573,948	233,640	-0,054	0,065
-572,934	-200,000	0,004	0,061
-571,919	800,000	-0,037	0,088
-570,904	-111,149	-0,040	-0,006
-569,890	-200,000	-0,028	-0,118
-568,875	800,000	0,012	0,036
-567,861	-200,000	-0,005	-0,073
-566,846	-15,212	0,047	0,022
-565,831	-46,976	-0,072	0,025
-564,817	-200,000	-0,010	-0,097
-563,802	49,298	0,048	-0,033
-562,788	-1,128	-0,123	-0,063
-561,773	-85,617	-0,158	0,035
-560,758	253,459	0,067	-0,083
-559,744	-150,934	0,150	-0,008
-558,729	800,000	0,058	0,181
-557,715	-96,760	0,014	-0,003
-556,700	-200,000	0,010	-0,102
-555,685	157,761	-0,098	-0,099
-554,671	-64,930	0,126	0,037
-553,656	98,560	-0,106	0,088
-552,642	263,328	0,052	0,066
-551,627	510,171	-0,006	0,009
-550,612	118,865	-0,039	0,035
-549,598	72,437	0,085	-0,064
-548,583	75,078	-0,075	-0,057
-547,569	-15,811	-0,108	-0,049
-546,554	-200,000	-0,007	-0,064
-545,539	-77,534	-0,072	0,018
-544,525	-200,000	0,040	-0,135
-543,510	-200,000	-0,016	-0,067
-542,496	219,973	-0,123	-0,142
-541,481	800,000	-0,063	-0,173
-540,466	-69,751	0,046	-0,012
-539,452	69,764	-0,056	-0,042
-538,437	10,316	0,069	0,038
-537,423	-200,000	0,013	0,067
-536,408	23,361	-0,043	-0,025
-535,393	800,000	-0,029	-0,083
-534,379	167,819	-0,161	-0,165
-533,364	-200,000	0,031	-0,104
-532,350	-200,000	0,003	0,138
-531,335	800,000	-0,027	-0,058
-530,321	-110,878	-0,102	-0,015
-529,306	-94,344	0,105	0,020
-528,291	11,286	-0,132	-0,073
-527,277	-200,000	0,023	-0,098
-526,262	97,852	-0,019	-0,016
-525,248	-60,776	-0,123	0,037
-524,233	400,200	0,072	0,110
-523,218	94,681	0,162	0,133
-522,204	800,000	0,048	-0,101
-521,189	247,938	0,056	-0,069
-520,175	-6,335	-0,140	0,069
-519,160	-200,000	0,018	-0,070
-518,145	-49,134	0,195	-0,067
-517,131	-200,000	0,031	0,206
-516,116	-200,000	-0,020	0,147
-515,102	-44,422	-0,109	-0,039
-514,087	145,360	0,104	0,101
-513,072	-18,371	-0,087	0,039
-512,058	-128,022	0,103	-0,011
-511,043	-200,000	0,027	0,086
-510,029	-200,000	-0,005	0,023
-509,014	-102,773	0,125	-0,021
-507,999	215,045	-0,044	0,050
-506,985	800,000	-0,040	-0,107
-505,970	49,104	0,101	0,068
-504,956	-200,000	-0,003	-0,057
-503,941	-200,000	0,010	0,117
-502,926	105,997	0,038	-0,033
-501,912	59,925	0,129	0,092
-500,897	-30,938	0,105	0,043
-499,883	800,000	-0,008	-0,022
-498,868	-49,901	-0,122	-0,041
-497,853	229,939	-0,120	-0,142
-496,839	221,336	-0,021	-0,025
-495,824	35,932	0,128	0,081
-494,810	800,000	0,051	0,142
-493,795	-47,076	-0,167	0,058
-492,781	188,410	-0,057	-0,062
-491,766	-200,000	0,048	-0,154
-490,751	-200,000	0,007	0,035
-489,737	800,000	0,018	0,047
-488,722	800,000	-0,027	0,064
-487,708	-153,119	0,111	0,006
-486,693	-51,456	0,065	-0,022
-485,678	-125,771	-0,080	-0,009
-484,664	-47,422	0,082	-0,028
-483,649	-69,389	-0,002	0,001
-482,635	-200,000	0,005	-0,033
-481,620	-200,000	0,039	0,191
-480,605	-200,000	-0,019	-0,077
-479,591	800,000	-0,032	-0,089
-478,576	-82,808	0,089	-0,021
-477,562	543,781	-0,033	0,057
-476,547	26,014	-0,114	0,069
-475,532	-200,000	-0,007	0,131
-474,518	800,000	0,040	-0,109
-473,503	-47,636	-0,089	-0,031
-472,489	800,000	-0,036	-0,098
-471,474	7,416	-0,085	-0,046
-470,459	25,533	-0,102	-0,061
-469,445	446,958	-0,039	-0,062
-468,430	-17,702	-0,085	-0,038
-467,416	-200,000	0,016	-0,090
-466,401	800,000	0,092	0,207
-465,386	104,822	-0,055	0,047
-464,372	-64,240	0,118	0,034
-463,357	800,000	0,057	-0,148
-462,343	110,134	0,111	-0,096
-461,328	-200,000	-0,003	-0,009
-460,313	-11,416	-0,161	0,076
-459,299	-200,000	-0,006	-0,201
-458,284	-178,674	0,097	-0,002
-457,270	794,769	-0,024	-0,048
-456,255	77,353	-0,167	-0,128
-455,241	115,587	0,045	-0,040
-454,226	-200,000	-0,012	0,075
-453,211	374,435	0,071	0,105
-452,197	-106,467	0,208	-0,033
-451,182	93,309	0,089	-0,073
-450,168	-67,932	0,062	-0,017
-449,153	331,497	-0,092	-0,128
-448,138	11,823	0,036	0,020
-447,124	141,849	-0,114	0,109
-446,109	800,000	0,069	-0,167
-445,095	10,138	-0,081	-0,044
-444,080	-54,111	-0,011	0,004
-443,065	312,246	0,082	0,111
-442,051	-7,010	-0,179	-0,087
-441,036	112,027	0,038	-0,033
-440,022	800,000	0,088	-0,191
-439,007	143,150	-0,044	-0,042
-437,992	444,070	-0,019	0,031
-436,978	451,540	0,091	0,145
-435,963	424,196	0,107	0,166
-434,949	-115,466	-0,079	-0,011
-433,934	-83,033	0,088	-0,020
-432,919	-183,940	0,049	0,001
-431,905	-200,000	-0,017	-0,056
-430,890	800,000	0,043	-0,087
-429,876	216,404	0,142	0,163
-428,861	-200,000	-0,017	0,071
-427,846	-70,745	0,057	-0,015
-426,832	30,197	-0,087	-0,053
-425,817	-200,000	-0,002	0,089
-424,803	337,759	0,081	-0,114
-423,788	800,000	0,005	-0,014
-422,773	450,966	0,059	0,093
-421,759	-200,000	0,015	-0,060
-420,744	795,913	0,075	-0,150
-419,730	279,041	-0,126	-0,163
-418,715	800,000	-0,075	0,157
-417,701	800,000	-0,011	0,035
-416,686	-200,000	0,005	0,025
-415,671	281,383	0,074	-0,096
-414,657	-83,384	-0,047	0,011
-413,642	-5,329	-0,080	0,039
-412,628	262,048	-0,026	0,032
-411,613	156,502	-0,094	-0,094
-410,598	-200,000	0,022	-0,112
-409,584	-200,000	-0,013	-0,062
-408,569	101,381	-0,053	0,044
-407,555	-129,436	0,098	0,010
-406,540	65,982	-0,038	0,028
-405,525	140,432	0,077	-0,073
-404,511	800,000	0,031	-0,071
-403,496	78,122	0,048	-0,036
-402,482	446,359	0,057	-0,091
-401,467	-7,297	-0,094	0,046
-400,452	-108,984	0,090	0,014
-399,438	-200,000	-0,006	0,032
-398,423	-142,111	-0,076	0,005
-397,409	161,174	-0,105	-0,105
-396,394	-200,000	0,019	-0,066
-395,379	-142,416	0,125	-0,009
-394,365	-74,388	-0,074	0,019
-393,350	-200,000	0,042	0,202
-392,336	-200,000	0,004	-0,068
-391,321	548,482	0,017	-0,030
-390,306	415,290	-0,012	0,019
-389,292	-96,592	-0,086	0,016
-388,277	62,340	-0,069	0,049
-387,263	-26,257	-0,032	-0,014
-386,248	-49,714	-0,063	-0,022
-385,233	-188,822	-0,134	-0,001
-384,219	-25,130	-0,007	-0,003
-383,204	668,374	-0,048	0,090
-382,190	-23,873	-0,124	-0,053
-381,175	-200,000	-0,030	-0,106
-380,160	80,541	-0,030	-0,023
-379,146	46,388	-0,005	0,004
-378,131	-181,596	-0,066	0,001
-377,117	483,433	0,048	0,079
-376,102	39,987	-0,054	0,035
-375,088	471,389	-0,078	0,126
-374,073	800,000	0,015	-0,045
-373,058	-200,000	0,031	0,107
-372,044	-200,000	0,014	-0,098
-371,029	800,000	-0,043	0,115
-370,015	-123,530	-0,055	0,006
-369,000	-200,000	0,006	-0,036
-367,985	-75,231	-0,029	0,007
-366,971	-200,000	-0,012	0,180
-365,956	400,299	0,033	-0,050
-364,942	-200,000	-0,005	0,129
-363,927	11,588	0,108	0,059
-362,912	201,152	0,037	0,041
-361,898	241,302	-0,048	-0,058
-360,883	117,620	0,102	0,090
-359,869	-200,000	0,020	-0,124
-358,854	141,836	0,062	-0,059
-357,839	14,621	0,024	0,013
-356,825	-200,000	0,010	-0,044
-355,810	-111,957	0,158	-0,023
-354,796	800,000	0,067	-0,151
-353,781	103,118	-0,029	-0,024
-352,766	-131,359	-0,018	0,002
-351,752	-106,287	0,161	-0,026
-350,737	257,883	-0,025	0,031
-349,723	-200,000	0,012	0,063
-348,708	140,619	-0,045	0,042
-347,693	131,101	-0,087	0,080
-346,679	75,690	0,099	-0,075
-345,664	-200,000	-0,021	-0,123
-344,650	-30,345	-0,115	-0,047
-343,635	-200,000	-0,003	0,056
-342,620	31,317	0,130	-0,080
-341,606	83,658	0,039	0,030
-340,591	800,000	0,053	-0,142
-339,577	95,465	-0,031	0,026
-338,562	-17,222	-0,122	-0,055
-337,548	-43,405	-0,045	-0,016
-336,533	306,523	0,104	-0,140
-335,518	-70,341	0,084	-0,023
-334,504	190,884	0,119	0,128
-333,489	-200,000	0,010	-0,045
-332,475	-111,614	-0,027	-0,004
-331,460	119,673	-0,049	-0,044
-330,445	527,930	-0,004	-0,007
-329,431	-36,763	0,048	0,018
-328,416	-200,000	-0,038	0,205
-327,402	-200,000	-0,009	0,095
-326,387	74,342	-0,093	0,070
-325,372	27,059	0,015	0,009
-324,358	110,671	-0,117	-0,101
-323,343	0,244	-0,143	0,073
-322,329	244,987	0,125	0,151
-321,314	-53,454	0,085	0,028
-320,299	41,271	-0,036	-0,024
-319,285	412,815	-0,017	-0,025
-318,270	-44,193	-0,118	0,042
-317,256	-86,864	-0,052	-0,011
-316,241	-99,089	0,066	-0,012
-315,226	-58,525	-0,087	0,027
-314,212	317,035	-0,071	0,096
-313,197	-200,000	-0,016	0,152
-312,183	-130,943	-0,054	-0,005
-311,168	-56,886	-0,072	-0,023
-310,153	-127,660	0,143	0,015
-309,139	157,386	-0,111	-0,111
-308,124	562,946	-0,074	-0,129
-307,110	800,000	0,016	-0,045
-306,095	-136,718	0,146	0,012
-305,080	-200,000	0,014	0,142
-304,066	800,000	0,032	-0,092
-303,051	-200,000	0,050	-0,169
-302,037	2,068	-0,132	-0,068
-301,022	345,293	0,042	-0,059
-300,008	-178,783	0,126	-0,002
-298,993	-71,237	-0,083	-0,022
-297,978	-158,833	-0,061	-0,002
-296,964	-200,000	0,016	0,057
-295,949	-194,148	-0,009	0,000
-294,935	-200,000	0,017	0,056
-293,920	-168,491	0,167	0,004
-292,905	-200,000	0,005	-0,049
-291,891	-200,000	-0,007	0,292
-290,876	221,331	-0,041	0,047
-289,862	136,191	0,062	0,058
-288,847	17,540	-0,080	-0,045
-287,832	195,024	-0,101	-0,110
-286,818	-41,569	-0,097	-0,035
-285,803	800,000	-0,031	0,092
-284,789	485,906	0,013	-0,022
-283,774	-200,000	0,002	0,048
-282,759	-179,244	-0,074	-0,001
-281,745	89,173	-0,027	0,022
-280,730	-1,438	0,077	-0,039
-279,716	211,609	0,074	-0,084
-278,701	-12,304	0,152	0,071
-277,686	156,310	0,044	0,044
-276,672	800,000	-0,045	-0,108
-275,657	152,583	0,107	-0,105
-274,643	-200,000	-0,031	-0,180
-273,628	-200,000	0,003	-0,075
-272,613	-200,000	0,008	-0,045
-271,599	800,000	-0,063	0,151
-270,584	-79,019	0,136	0,033
-269,570	89,658	0,078	-0,062
-268,555	-191,660	0,178	0,001
-267,540	-200,000	-0,010	-0,120
-266,526	-200,000	-0,027	0,090
-265,511	-200,000	0,011	-0,084
-264,497	152,640	0,055	0,053
-263,482	800,000	0,038	0,078
-262,467	800,000	0,026	0,053
-261,453	-200,000	-0,031	-0,097
-260,438	-6,626	-0,188	-0,091
-259,424	488,648	0,009	-0,014
-258,409	-200,000	0,023	0,103
-257,395	31,729	0,098	-0,060
-256,380	109,604	-0,023	-0,019
-255,365	50,458	0,082	-0,055
-254,351	96,751	-0,026	-0,021
-253,336	-86,751	-0,161	0,035
-252,322	172,076	-0,041	0,042
-251,307	330,693	-0,027	0,037
-250,292	800,000	0,045	0,106
-249,278	-200,000	0,014	-0,063
-248,263	146,957	0,071	0,069
-247,249	81,330	-0,067	0,052
-246,234	-200,000	0,004	0,055
-245,219	-85,486	-0,054	-0,012
-244,205	-200,000	0,003	0,019
-243,190	-200,000	-0,006	0,054
-242,176	-95,133	0,144	-0,028
-241,161	-133,260	0,058	0,005
-240,146	-87,562	0,108	0,023
-239,132	-200,000	-0,009	0,048
-238,117	-130,365	-0,144	-0,014
-237,103	43,858	0,164	-0,107
-236,088	800,000	-0,029	-0,070
-235,073	800,000	0,038	-0,110
-234,059	-125,725	-0,106	0,011
-233,044	8,922	-0,039	0,021
-232,030	800,000	0,028	-0,064
-231,015	45,320	0,073	-0,048
-230,000	523,001	-0,011	0,019
-228,986	58,378	0,046	-0,032
-227,971	-200,000	-0,032	0,191
-226,957	800,000	0,034	0,091
-225,942	-200,000	0,014	-0,072
-224,927	35,670	0,097	0,061
-223,913	-200,000	0,010	-0,088
-222,898	-128,097	-0,031	-0,003
-221,884	-181,575	-0,067	0,001
-220,869	272,842	-0,044	-0,055
-219,855	-200,000	-0,009	-0,056
-218,840	75,957	0,072	0,054
-217,825	-172,028	-0,049	0,001
-216,811	800,000	0,022	-0,060
-215,796	-110,013	-0,224	0,033
-214,782	62,904	-0,098	0,070
-213,767	-200,000	0,006	0,080
-212,752	88,688	0,051	0,040
-211,738	-200,000	0,002	0,197
-210,723	-159,670	0,077	-0,003
-209,709	-200,000	0,013	-0,061
-208,694	-54,003	0,066	0,021
-207,679	-200,000	0,024	-0,198
-206,665	29,945	0,048	0,029
-205,650	-200,000	0,005	0,016
-204,636	-200,000	0,016	0,083
-203,621	-38,513	-0,014	0,005
-202,606	48,392	0,018	-0,012
-201,592	-67,156	0,037	-0,010
-200,577	-60,555	-0,043	0,013
-199,563	344,281	-0,050	0,071
-198,548	800,000	-0,020	0,042
-197,533	800,000	0,026	0,058
-196,519	716,447	0,106	0,202
-195,504	122,220	0,076	-0,068
-194,490	21,086	0,132	0,076
-193,475	-200,000	0,011	-0,051
-192,460	345,807	-0,042	0,059
-191,446	-200,000	-0,006	0,083
-190,431	354,460	0,092	-0,131
-189,417	36,723	0,078	-0,049
-188,402	-200,000	0,033	0,110
-187,387	-122,771	0,076	0,009
-186,373	95,024	-0,136	-0,110
-185,358	-17,138	0,096	-0,043
-184,344	193,784	-0,025	-0,027
-183,329	411,363	0,027	0,041
-182,315	-200,000	0,030	0,099
-181,300	1,843	0,081	-0,042
-180,285	141,189	-0,048	-0,046
-179,271	-95,494	-0,151	-0,029
-178,256	-58,825	0,072	0,022
-177,242	-93,815	0,033	-0,006
-176,227	-24,425	0,107	0,045
-175,212	800,000	-0,037	0,083
-174,198	571,543	-0,033	0,058
-173,183	-200,000	0,020	0,099
-172,169	150,421	-0,076	-0,074
-171,154	800,000	0,032	-0,068
-170,139	306,147	-0,040	-0,054
-169,125	281,984	-0,020	0,025
-168,110	-200,000	0,006	0,052
-167,096	40,247	0,081	-0,052
-166,081	800,000	-0,043	-0,086
-165,066	-200,000	0,006	0,080
-164,052	-49,937	0,108	-0,036
-163,037	-44,069	0,010	-0,004
-162,023	1,175	0,131	-0,067
-161,008	-200,000	0,061	0,233
-159,993	800,000	0,030	0,078
-158,979	-65,496	-0,108	-0,031
-157,964	8,893	-0,163	-0,088
-156,950	8,441	-0,146	-0,078
-155,935	800,000	0,025	-0,060
-154,920	66,572	0,113	-0,082
-153,906	-106,579	0,117	0,018
-152,891	-89,286	0,070	-0,015
-151,877	-25,397	-0,012	0,005
-150,862	158,729	-0,012	0,012
-149,847	-12,416	-0,057	-0,027
-148,833	800,000	0,049	-0,119
-147,818	-200,000	0,004	-0,100
-146,804	-200,000	-0,009	-0,043
-145,789	226,424	-0,110	-0,127
-144,775	492,095	-0,055	-0,089
-143,760	800,000	-0,017	-0,054
-142,745	175,825	-0,108	-0,112
-141,731	-72,903	-0,009	-0,002
-140,716	-200,000	-0,015	-0,087
-139,702	-166,988	0,100	0,003
-138,687	-94,934	-0,122	-0,023
-137,672	-200,000	-0,031	-0,103
-136,658	-35,396	-0,195	-0,075
-135,643	149,137	-0,060	0,058
-134,629	-7,507	0,052	-0,025
-133,614	-200,000	0,037	-0,145
-132,599	30,091	0,031	0,019
-131,585	-22,012	0,060	0,026
-130,570	800,000	-0,051	-0,109
-129,556	43,646	-0,116	-0,075
-128,541	68,243	0,012	-0,009
-127,526	-43,927	0,098	-0,035
-126,512	-200,000	-0,037	0,155
-125,497	800,000	0,038	-0,096
-124,483	-93,432	0,113	-0,022
-123,468	-14,552	0,129	0,059
-122,453	101,473	0,022	-0,018
-121,439	27,856	0,052	0,031
-120,424	-200,000	0,043	-0,221
-119,410	-40,367	0,021	-0,008
-118,395	-52,327	0,041	-0,013
-117,380	111,431	-0,056	0,048
-116,366	-169,769	0,040	0,001
-115,351	-24,126	-0,168	-0,071
-114,337	15,195	-0,067	-0,037
-113,322	38,400	0,049	-0,031
-112,307	273,912	0,008	-0,009
-111,293	-15,107	-0,032	0,015
-110,278	-98,812	-0,228	-0,041
-109,264	800,000	-0,033	0,090
-108,249	749,112	0,043	-0,083
-107,234	-200,000	0,014	-0,129
-106,220	295,199	0,025	-0,032
-105,205	-9,336	-0,143	0,067
-104,191	-183,904	0,089	-0,001
-103,176	-104,938	0,154	-0,025
-102,162	354,133	0,046	0,065
-101,147	69,882	0,030	-0,022
-100,132	-54,126	-0,028	-0,009
-99,118	-126,702	0,122	0,013
-98,103	-200,000	0,030	-0,125
-97,089	-200,000	-0,018	-0,123
-96,074	-135,901	-0,102	0,008
-95,059	5,709	-0,046	0,024
-94,045	-98,827	-0,105	-0,019
-93,030	294,097	-0,095	-0,123
-92,016	145,431	0,036	0,035
-91,001	-200,000	0,010	0,078
-89,986	326,511	-0,030	0,041
-88,972	-4,860	0,128	0,062
-87,957	675,010	-0,070	0,130
-86,943	800,000	0,058	-0,120
-85,928	350,135	-0,066	0,092
-84,913	-96,949	-0,136	0,025
-83,899	28,701	0,089	0,053
-82,884	800,000	-0,093	0,198
-81,870	-168,235	0,095	-0,003
-80,855	416,061	0,063	0,096
-79,840	800,000	0,017	0,038
-78,826	-83,246	-0,086	-0,019
-77,811	800,000	0,046	-0,103
-76,797	587,141	-0,068	-0,120
-75,782	208,828	0,066	0,073
-74,767	-54,430	0,058	-0,019
-73,753	-178,252	-0,130	-0,002
-72,738	744,488	0,068	0,131
-71,724	219,941	-0,098	-0,112
-70,709	312,674	-0,045	-0,060
-69,694	107,865	0,052	-0,044
-68,680	221,138	-0,041	0,047
-67,665	-87,540	0,046	-0,010
-66,651	-200,000	-0,016	0,053
-65,636	800,000	0,012	-0,024
-64,622	350,923	-0,037	-0,052
-63,607	40,157	-0,063	-0,040
-62,592	800,000	-0,063	-0,131
-61,578	58,980	0,064	-0,044
-60,563	800,000	0,059	0,129
-59,549	-91,542	0,066	-0,013
-58,534	-81,555	-1,351	-0,313
-57,519	407,669	-1,477	-2,222
-56,505	-200,000	-0,364	-4,301
-55,490	98,333	0,862	0,704
-54,476	800,000	4,787	11,489
-53,461	-200,000	17,329	271,851
-52,446	800,000	716,346	2189,638
-51,432	553,986	1630,600	2793,193
-50,417	81,422	1655,675	1268,778
-49,403	24,357	1530,053	894,995
-48,388	18,330	1453,729	821,319
-47,373	18,531	1442,867	816,115
-46,359	18,207	1433,922	809,480
-45,344	16,638	1429,101	799,279
-44,330	16,597	1427,087	797,928
-43,315	16,606	1425,395	796,990
-42,300	16,638	1423,926	796,290
-41,286	16,654	1422,688	795,640
-40,271	16,643	1421,341	794,802
-39,257	16,645	1419,913	793,984
-38,242	16,668	1418,725	793,397
-37,227	16,703	1417,477	792,832
-36,213	16,674	1416,155	791,926
-35,198	16,626	1415,093	791,075
-34,184	16,638	1414,075	790,527
-33,169	16,592	1412,747	789,540
-32,154	16,622	1412,017	789,241
-31,140	16,639	1410,623	788,510
-30,125	16,680	1409,460	788,022
-29,111	16,653	1408,355	787,244
-28,096	16,615	1407,231	786,410
-27,082	16,555	1406,118	785,476
-26,067	16,562	1404,878	784,781
-25,052	16,575	1403,935	784,287
-24,038	16,553	1402,889	783,567
-23,023	16,556	1401,789	782,937
-22,009	16,527	1400,873	782,257
-20,994	16,481	1400,033	781,543
-19,979	16,512	1399,200	781,193
-18,965	16,480	1398,144	780,423
-17,950	16,462	1397,227	779,799
-16,936	16,439	1396,246	779,110
-15,921	16,485	1394,849	778,517
-14,906	16,484	1393,909	777,953
-13,892	16,497	1393,083	777,521
-12,877	16,410	1392,492	776,759
-11,863	16,481	1391,296	776,388
-10,848	16,430	1390,405	775,624
-9,833	16,469	1389,569	775,309
-8,819	16,435	1388,453	774,499
-7,804	16,360	1387,699	773,704
-6,790	16,334	1386,550	772,913
-5,775	16,363	1385,509	772,435
-4,760	16,346	1384,789	771,925
-3,746	16,298	1384,052	771,259
-2,731	16,333	1383,253	770,946
-1,717	16,295	1382,100	770,098
-0,702	16,319	1380,297	769,172
0,313	20,154	1301,753	743,066
1,327	36,568	707,568	441,980
2,342	56,035	125,745	86,393
3,356	4,735	16,633	8,637
4,371	1,499	3,063	1,557
5,386	-31,183	0,624	0,248
6,400	-190,195	0,021	0,000
7,415	7,285	-0,315	-0,166
8,429	-70,578	-0,264	-0,070
9,444	153,487	-0,324	-0,314
10,459	69,850	-0,349	-0,255
11,473	109,150	-0,287	-0,244
12,488	166,477	-0,201	-0,202
13,502	-31,724	-0,463	-0,183
14,517	68,804	-0,430	-0,312
15,531	23,858	-0,452	-0,263
16,546	118,930	-0,220	-0,193
17,561	53,067	-0,399	-0,270
18,575	800,000	-0,065	-0,154
19,590	68,382	-0,355	-0,257
20,604	5,193	-0,236	-0,123
21,619	81,354	-0,375	-0,287
22,634	84,133	-0,400	-0,309
23,648	144,767	-0,303	-0,286
24,663	80,635	-0,323	-0,246
25,677	95,032	-0,279	-0,225
26,692	136,789	-0,235	-0,217
27,707	800,000	-0,107	-0,240
28,721	88,220	-0,372	-0,292
29,736	22,738	-0,442	-0,255
30,750	24,864	-0,448	-0,262
31,765	35,136	-0,387	-0,239
32,780	23,385	-0,240	-0,139
33,794	-7,756	-0,362	-0,172
34,809	-17,949	-0,319	-0,141
35,823	168,078	-0,267	-0,269
36,838	84,690	-0,433	-0,335
37,853	30,238	-0,377	-0,227
38,867	-24,962	-0,393	-0,164
39,882	144,159	-0,271	-0,256
40,896	-36,601	-0,371	-0,140
41,911	19,817	-0,259	-0,147
42,926	1,521	-0,479	-0,243
43,940	31,728	-0,375	-0,228
44,955	23,506	-0,362	-0,210
45,969	800,000	-0,175	-0,350
46,984	34,275	-0,295	-0,181
47,999	-12,238	-0,352	-0,162
49,013	104,041	-0,299	-0,248
50,028	22,692	-0,391	-0,225
51,042	119,053	-0,288	-0,251
52,057	63,117	-0,430	-0,304
53,071	265,383	-0,252	-0,311
54,086	26,487	-0,410	-0,241
55,101	72,403	-0,369	-0,271
56,115	125,460	-0,298	-0,265
57,130	-9,497	-0,513	-0,241
58,144	84,544	-0,433	-0,334
59,159	74,690	-0,380	-0,282
60,174	80,136	-0,463	-0,351
61,188	56,157	-0,332	-0,227
62,203	310,261	-0,314	-0,415
63,217	-12,147	-0,310	-0,143
64,232	233,643	-0,211	-0,245
65,247	-12,831	-0,388	-0,177
66,261	69,493	-0,407	-0,295
67,276	28,818	-0,345	-0,205
68,290	154,268	-0,325	-0,314
69,305	71,720	-0,385	-0,281
70,320	41,358	-0,288	-0,183
71,334	97,840	-0,238	-0,193
72,349	-113,107	-0,322	-0,044
73,363	-3,173	-0,409	-0,200
74,378	9,357	-0,239	-0,127
75,393	48,285	-0,447	-0,294
76,407	79,024	-0,349	-0,263
77,422	227,216	-0,239	-0,274
78,436	15,079	-0,251	-0,138
79,451	169,410	-0,284	-0,286
80,466	44,794	-0,426	-0,276
81,480	92,822	-0,357	-0,284
82,495	14,870	-0,413	-0,227
83,509	38,051	-0,362	-0,226
84,524	-14,431	-0,270	-0,122
85,539	800,000	-0,148	-0,325
86,553	80,543	-0,247	-0,187
87,568	41,285	-0,325	-0,206
88,582	56,787	-0,391	-0,267
89,597	57,395	-0,240	-0,164
90,611	-97,909	-0,293	0,053
91,626	23,818	-0,244	-0,141
92,641	-24,146	-0,208	-0,087
93,655	43,039	-0,336	-0,215
94,670	71,815	-0,291	-0,213
95,684	24,268	-0,291	-0,169
96,699	51,211	-0,416	-0,277
97,714	-31,939	-0,309	-0,121
98,728	36,674	-0,274	-0,170
99,743	-23,003	-0,346	-0,146
100,757	175,597	-0,248	-0,253
101,772	71,387	-0,278	-0,203
102,787	-117,302	-0,370	-0,047
103,801	-83,237	-0,451	-0,101
104,816	76,974	-0,188	-0,140
105,830	-37,145	-0,281	-0,105
106,845	-30,372	-0,271	-0,108
107,860	-93,132	-0,321	-0,062
108,874	139,426	-0,332	-0,307
109,889	158,314	-0,274	-0,268
110,903	52,313	-0,247	-0,165
111,918	4,295	-0,364	-0,187
112,933	-96,690	-0,334	-0,061
113,947	-77,141	-0,249	-0,060
114,962	-82,429	-0,294	-0,066
115,976	127,941	-0,228	-0,203
116,991	519,631	-0,209	-0,344
118,006	366,421	-0,235	-0,333
119,020	89,160	-0,222	-0,174
120,035	267,899	-0,144	-0,178
121,049	-66,852	-0,226	-0,062
122,064	50,054	-0,291	-0,192
123,079	89,624	-0,219	-0,171
124,093	329,703	-0,160	-0,217
125,108	-80,681	-0,242	-0,056
126,122	222,036	-0,278	-0,314
127,137	-31,532	-0,274	-0,108
128,151	-48,354	-0,197	-0,066
129,166	-55,241	-0,078	-0,024
130,181	9,040	-0,329	-0,174
131,195	105,458	-0,248	-0,205
132,210	208,380	-0,209	-0,229
133,224	-4,600	-0,423	-0,204
134,239	95,165	-0,261	-0,208
135,254	-37,623	-0,234	-0,087
136,268	-40,556	-0,233	-0,084
137,283	-73,387	-0,183	-0,047
138,297	167,825	-0,208	-0,207
139,312	113,986	-0,349	-0,297
140,327	-13,303	-0,265	-0,120
141,341	-35,418	-0,253	-0,096
142,356	102,556	-0,253	-0,207
143,370	91,739	-0,204	-0,160
144,385	200,357	-0,187	-0,201
145,400	79,066	-0,269	-0,201
146,414	39,687	-0,191	-0,120
147,429	161,573	-0,259	-0,253
148,443	77,266	-0,263	-0,195
149,458	-34,627	-0,261	-0,100
150,473	214,494	-0,189	-0,210
151,487	308,826	-0,211	-0,277
152,502	17,245	-0,314	-0,174
153,516	276,985	-0,266	-0,332
154,531	6,845	-0,313	-0,163
155,546	111,635	-0,247	-0,209
156,560	136,723	-0,200	-0,183
157,575	-2,799	-0,176	-0,086
158,589	2,575	-0,260	-0,131
159,604	80,927	-0,241	-0,182
160,619	119,554	-0,308	-0,267
161,633	155,866	-0,266	-0,257
162,648	423,446	-0,200	-0,301
163,662	75,259	-0,175	-0,129
164,677	611,249	-0,217	-0,381
165,692	119,378	-0,205	-0,177
166,706	174,670	-0,326	-0,330
167,721	56,212	-0,254	-0,172
168,735	169,778	-0,213	-0,213
169,750	800,000	-0,150	-0,302
170,764	60,906	-0,259	-0,180
171,779	800,000	-0,070	-0,147
172,794	-49,361	-0,299	-0,099
173,808	-45,965	-0,359	-0,123
174,823	-31,029	-0,276	-0,108
175,837	-62,472	-0,299	-0,086
176,852	-12,229	-0,265	-0,121
177,867	-15,637	-0,221	-0,098
178,881	403,313	-0,173	-0,255
179,896	-80,657	-0,237	-0,054
180,910	-25,376	-0,325	-0,134
181,925	117,092	-0,230	-0,197
182,940	-200,000	-0,073	-0,311
183,954	90,644	-0,223	-0,174
184,969	-200,000	-0,063	-0,194
185,983	-200,000	0,008	-0,223
186,998	-62,748	-0,282	-0,081
188,013	641,986	-0,105	-0,187
189,027	-148,368	-0,218	-0,012
190,042	184,567	-0,246	-0,254
191,056	-47,681	-0,231	-0,078
192,071	800,000	-0,116	-0,255
193,086	457,531	-0,156	-0,242
194,100	190,258	-0,095	-0,100
195,115	-200,000	-0,027	-0,155
196,129	60,772	-0,252	-0,174
197,144	314,759	-0,216	-0,285
198,159	59,324	-0,213	-0,146
199,173	32,504	-0,309	-0,186
200,188	9,851	-0,270	-0,142
201,202	37,931	-0,157	-0,097
202,217	353,407	-0,058	-0,080
203,232	234,629	-0,144	-0,165
204,246	33,741	-0,234	-0,141
205,261	796,203	-0,119	-0,229
206,275	211,019	-0,172	-0,189
207,290	664,888	-0,099	-0,179
208,304	-27,535	-0,180	-0,072
209,319	15,472	-0,262	-0,143
210,334	-10,120	-0,158	-0,073
211,348	37,335	-0,274	-0,169
212,363	-38,684	-0,300	-0,110
213,377	800,000	-0,164	-0,333
214,392	400,522	-0,159	-0,233
215,407	492,013	-0,038	-0,060
216,421	-46,525	-0,177	-0,060
217,436	104,381	-0,308	-0,252
218,450	107,679	-0,299	-0,248
219,465	283,046	-0,179	-0,224
220,480	-115,573	-0,251	-0,032
221,494	-152,249	-0,136	0,007
222,509	49,988	-0,106	-0,069
223,523	-46,787	-0,160	-0,054
224,538	800,000	-0,093	-0,233
225,553	-28,311	-0,190	-0,076
226,567	800,000	-0,172	-0,344
227,582	-1,203	-0,233	-0,114
228,596	-60,855	-0,126	-0,037
229,611	-51,379	-0,081	-0,026
230,626	800,000	-0,118	-0,255
231,640	-49,443	-0,208	-0,068
232,655	10,067	-0,237	-0,125
233,669	68,842	-0,272	-0,194
234,684	447,957	-0,159	-0,244
235,699	432,213	-0,172	-0,260
236,713	-40,558	-0,110	-0,039
237,728	-87,856	-0,209	0,043
238,742	218,456	-0,191	-0,212
239,757	28,365	-0,213	-0,125
240,772	39,125	-0,171	-0,106
241,786	274,728	-0,117	-0,145
242,801	16,761	-0,251	-0,137
243,815	-10,759	-0,095	-0,044
244,830	-61,478	-0,236	-0,068
245,844	-13,124	-0,191	-0,086
246,859	33,061	-0,184	-0,110
247,874	198,394	-0,134	-0,142
248,888	201,123	-0,182	-0,194
249,903	63,065	-0,134	-0,093
250,917	-135,111	-0,169	-0,014
251,932	-2,399	-0,077	-0,037
252,947	-87,943	-0,108	-0,022
253,961	-17,208	-0,289	-0,126
254,976	50,390	-0,166	-0,108
255,990	339,362	-0,155	-0,210
257,005	170,378	-0,157	-0,156
258,020	-5,034	-0,194	-0,092
259,034	-72,785	-0,233	-0,059
260,049	-124,106	-0,194	0,021
261,063	-83,851	-0,192	-0,042
262,078	243,891	-0,152	-0,177
263,093	-17,962	-0,260	-0,112
264,107	284,431	-0,145	-0,181
265,122	94,859	-0,130	-0,102
266,136	800,000	-0,074	-0,198
267,151	-52,382	-0,197	-0,063
268,166	34,900	-0,111	-0,067
269,180	116,784	-0,137	-0,116
270,195	69,410	-0,299	-0,213
271,209	433,515	-0,120	-0,181
272,224	-200,000	-0,034	-0,150
273,239	100,974	-0,038	0,031
274,253	-102,428	-0,106	0,017
275,268	-107,281	-0,224	-0,034
276,282	27,562	-0,250	-0,145
277,297	520,356	-0,115	-0,187
278,312	211,428	-0,105	-0,114
279,326	493,293	-0,101	-0,162
280,341	-6,339	-0,127	0,060
281,355	305,597	-0,077	0,099
282,370	800,000	-0,065	-0,156
283,384	-10,071	-0,253	-0,116
284,399	-1,751	-0,193	-0,094
285,414	31,995	-0,061	-0,036
286,428	215,700	-0,098	-0,108
287,443	144,182	-0,087	-0,081
288,457	-177,259	-0,268	-0,004
289,472	-82,002	-0,116	-0,026
290,487	133,038	-0,225	-0,200
291,501	143,977	-0,102	-0,094
292,516	-15,106	-0,212	-0,094
293,530	33,602	-0,084	-0,051
294,545	224,317	-0,089	-0,099
295,560	-11,542	-0,106	-0,048
296,574	-145,835	-0,138	0,008
297,589	136,301	-0,150	-0,135
298,603	94,010	-0,245	-0,192
299,618	529,828	-0,184	-0,302
300,633	263,927	-0,151	-0,182
301,647	-200,000	-0,026	-0,124
302,662	-24,079	-0,144	-0,059
303,676	-30,734	-0,133	-0,052
304,691	-200,000	0,005	-0,118
305,706	178,889	-0,138	-0,139
306,720	-88,351	-0,215	-0,044
307,735	66,779	-0,123	-0,086
308,749	229,303	-0,250	-0,282
309,764	800,000	-0,019	-0,040
310,779	19,667	-0,168	-0,093
311,793	75,056	-0,153	-0,111
312,808	66,074	-0,163	-0,114
313,822	466,678	-0,106	-0,164
314,837	-1,938	-0,091	0,044
315,852	800,000	-0,030	-0,062
316,866	60,374	-0,104	-0,071
317,881	134,655	-0,139	-0,124
318,895	21,145	-0,146	-0,081
319,910	182,031	-0,245	-0,250
320,925	29,521	-0,130	-0,076
321,939	86,773	-0,116	-0,088
322,954	-51,884	-0,243	-0,077
323,968	449,952	-0,075	0,114
324,983	-92,364	-0,088	0,017
325,997	-74,288	-0,104	-0,026
327,012	-88,710	-0,157	0,032
328,027	1,990	-0,132	-0,065
329,041	114,502	-0,139	-0,117
330,056	0,034	-0,224	0,110
331,070	-113,161	-0,168	-0,023
332,085	-88,194	-0,230	-0,047
333,100	-13,127	-0,129	-0,058
334,114	119,390	-0,122	-0,104
335,129	517,287	-0,096	-0,154
336,143	465,284	0,068	-0,106
337,158	102,732	-0,259	-0,209
338,173	-134,104	-0,155	0,013
339,187	-119,094	-0,097	-0,012
340,202	-34,132	-0,125	0,047
341,216	409,512	-0,144	-0,211
342,231	199,474	-0,192	-0,203
343,246	307,614	-0,218	-0,280
344,260	111,673	-0,171	-0,142
345,275	-125,080	-0,122	-0,013
346,289	238,697	-0,102	-0,117
347,304	-47,852	-0,219	-0,073
348,319	-117,468	-0,134	0,016
349,333	141,039	-0,220	-0,200
350,348	23,501	-0,199	-0,112
351,362	186,602	-0,177	-0,181
352,377	-22,405	-0,276	-0,114
353,392	111,374	-0,093	-0,077
354,406	-200,000	-0,047	-0,154
355,421	210,784	1313,732	1421,042
356,435	162,284	1474,372	1421,576
