DTS Sentinel unit serial number:	SN410029Multiplexer serial number:	ORYXHardware model number:	OX2-SRSoftware version number:	ORYX F/W v4,00 Oryx Data Collector v3.7.2.0data status	okinstallation	B3 Nyhavnadifferential loss correction	single-endedforward channel	channel 1reverse channel	N/Adate	2023/12/01time	09:17:30forward acquisition time	300,00reverse acquisition time	0,00gamma	499,1914k internal	0,3213k external	0,3213temperature offset calibration	1,0000default loss term (dB/km)	0,3820temperature slope calibration	1,0000multiplexer offset coefficient	1,0000multiplexer slope coefficient	1,0000fibre end	0,00T internal ref (°C)	7,97T ext. ref 1 (°C)	-6,37T ext. ref 2 (°C)	-6,50length (m)	temperature (°C)	Stokes	anti-Stokes-744,400	800,000	-0,123	-0,268
-743,385	800,000	-0,096	0,272
-742,371	91,390	-0,265	-0,215
-741,356	800,000	-0,096	0,234
-740,342	68,998	-0,040	0,030
-739,327	800,000	-0,069	0,204
-738,312	87,888	-0,257	-0,206
-737,298	-200,000	-0,092	0,372
-736,283	-200,000	-0,026	-0,171
-735,269	-200,000	-0,034	0,211
-734,254	-200,000	-0,062	-0,304
-733,239	-128,818	-0,119	0,012
-732,225	-200,000	-0,093	-0,320
-731,210	616,444	0,065	0,118
-730,196	800,000	0,046	0,100
-729,181	424,300	-0,053	-0,083
-728,167	-84,706	0,142	0,032
-727,152	187,509	-0,078	-0,085
-726,137	781,127	0,017	0,034
-725,123	67,028	-0,134	0,099
-724,108	800,000	0,030	0,071
-723,094	-200,000	-0,028	-0,113
-722,079	561,286	-0,074	-0,131
-721,064	-200,000	0,066	0,231
-720,050	-200,000	-0,009	0,078
-719,035	65,624	-0,074	0,054
-718,021	-151,955	-0,062	-0,003
-717,006	-41,355	-0,265	-0,098
-715,991	-59,623	-0,069	-0,021
-714,977	-200,000	0,019	-0,096
-713,962	-200,000	0,045	0,182
-712,948	-140,738	0,079	-0,006
-711,933	-26,876	0,060	-0,025
-710,918	-94,994	-0,169	0,033
-709,904	42,812	-0,043	-0,028
-708,889	-200,000	-0,002	-0,068
-707,875	-200,000	-0,011	-0,155
-706,860	-60,828	-0,046	0,014
-705,845	-12,464	0,107	0,050
-704,831	78,113	0,058	0,045
-703,816	-5,885	0,114	-0,056
-702,802	-200,000	-0,055	0,185
-701,787	-200,000	-0,003	-0,105
-700,772	-80,958	-0,060	-0,014
-699,758	-70,216	-0,111	0,030
-698,743	-89,106	0,110	-0,023
-697,729	334,748	-0,059	-0,083
-696,714	34,207	0,046	0,029
-695,699	-156,758	0,199	-0,009
-694,685	-120,244	-0,222	0,027
-693,670	800,000	0,060	-0,148
-692,656	129,873	-0,044	-0,041
-691,641	-200,000	-0,010	-0,106
-690,627	-200,000	0,010	-0,176
-689,612	-200,000	0,017	0,090
-688,597	-17,369	0,029	-0,013
-687,583	92,151	-0,043	0,035
-686,568	-200,000	-0,022	-0,130
-685,554	-123,303	0,039	0,004
-684,539	-149,102	0,056	-0,003
-683,524	212,204	0,120	0,137
-682,510	-168,041	0,038	-0,001
-681,495	314,626	-0,083	0,114
-680,481	800,000	-0,082	-0,220
-679,466	-200,000	-0,021	-0,078
-678,451	-200,000	0,022	0,080
-677,437	-200,000	0,041	0,153
-676,422	288,304	-0,013	-0,017
-675,408	-23,003	0,152	-0,066
-674,393	-200,000	-0,027	-0,095
-673,378	-200,000	0,011	-0,067
-672,364	402,111	-0,063	-0,096
-671,349	-200,000	0,013	-0,102
-670,335	-25,421	0,067	-0,029
-669,320	11,327	-0,017	0,010
-668,305	98,977	0,063	0,052
-667,291	-55,328	-0,138	-0,044
-666,276	-81,768	-0,144	-0,034
-665,262	-63,549	0,125	0,037
-664,247	800,000	-0,044	-0,089
-663,232	207,102	-0,057	-0,064
-662,218	263,103	0,052	-0,066
-661,203	-200,000	0,021	-0,165
-660,189	-200,000	-0,001	0,124
-659,174	800,000	0,037	-0,074
-658,159	-200,000	-0,016	-0,122
-657,145	-152,453	-0,190	-0,010
-656,130	-52,617	0,064	-0,021
-655,116	541,853	-0,071	-0,122
-654,101	-11,799	0,033	-0,016
-653,086	145,609	-0,111	-0,108
-652,072	-200,000	-0,007	0,070
-651,057	-45,882	-0,059	0,021
-650,043	-76,103	-0,069	-0,017
-649,028	306,759	-0,064	0,086
-648,014	-200,000	0,026	0,103
-646,999	-200,000	0,018	-0,084
-645,984	800,000	0,042	0,111
-644,970	-185,446	-0,118	-0,001
-643,955	457,792	0,050	-0,080
-642,941	-200,000	0,031	-0,162
-641,926	77,513	-0,151	0,116
-640,911	151,037	-0,021	0,021
-639,897	-130,565	0,025	0,002
-638,882	-64,387	-0,099	-0,029
-637,868	800,000	0,020	0,045
-636,853	-88,436	0,069	-0,015
-635,838	-42,889	-0,090	0,033
-634,824	-200,000	-0,027	0,096
-633,809	320,833	-0,075	0,104
-632,795	500,607	0,057	0,095
-631,780	-103,863	0,155	0,026
-630,765	339,989	-0,065	-0,092
-629,751	538,133	0,040	-0,069
-628,736	-163,632	-0,154	-0,005
-627,722	800,000	0,024	-0,049
-626,707	225,619	0,050	0,058
-625,692	3,152	-0,070	0,037
-624,678	-98,237	-0,041	0,008
-623,663	-56,537	-0,058	0,018
-622,649	29,436	-0,148	-0,091
-621,634	192,555	0,094	-0,102
-620,619	398,111	-0,045	-0,068
-619,605	84,286	0,101	-0,079
-618,590	-17,962	-0,027	0,012
-617,576	-117,648	-0,144	0,018
-616,561	103,202	-0,054	-0,045
-615,546	-106,859	-0,103	-0,016
-614,532	-200,000	-0,023	-0,092
-613,517	-97,641	0,040	-0,007
-612,503	329,598	0,048	0,067
-611,488	-140,932	-0,110	0,008
-610,474	-200,000	-0,004	-0,041
-609,459	-118,632	0,260	-0,033
-608,444	-46,960	-0,158	0,055
-607,430	-27,558	-0,039	-0,016
-606,415	124,486	-0,075	-0,068
-605,401	-41,326	-0,033	-0,012
-604,386	-24,134	0,100	0,043
-603,371	-146,867	0,088	-0,005
-602,357	-200,000	-0,012	0,043
-601,342	-200,000	-0,009	0,051
-600,328	-127,926	-0,172	0,018
-599,313	-142,802	-0,151	-0,010
-598,298	96,606	0,063	-0,052
-597,284	-200,000	0,009	0,043
-596,269	551,969	-0,026	0,044
-595,255	260,154	-0,092	0,115
-594,240	233,295	-0,072	0,086
-593,225	-200,000	-0,006	0,029
-592,211	96,436	0,072	0,059
-591,196	314,639	-0,024	0,033
-590,182	800,000	0,026	-0,067
-589,167	44,827	0,064	0,042
-588,152	-200,000	0,003	-0,036
-587,138	800,000	-0,025	-0,052
-586,123	219,196	-0,122	-0,140
-585,109	64,205	-0,053	0,038
-584,094	104,881	0,063	-0,054
-583,079	800,000	0,026	-0,064
-582,065	-137,588	0,069	0,006
-581,050	-55,145	-0,172	-0,055
-580,036	451,764	0,043	0,068
-579,021	-200,000	0,003	-0,022
-578,006	-114,057	-0,091	-0,013
-576,992	800,000	-0,025	0,064
-575,977	-179,177	-0,054	-0,001
-574,963	-88,530	0,048	-0,010
-573,948	800,000	-0,066	0,190
-572,934	379,194	0,070	0,103
-571,919	-144,041	-0,015	0,001
-570,904	-200,000	-0,009	0,047
-569,890	-132,608	-0,086	0,008
-568,875	131,018	-0,044	0,041
-567,861	800,000	0,021	0,064
-566,846	173,755	0,041	-0,043
-565,831	-108,722	0,045	0,007
-564,817	-103,029	-0,061	0,010
-563,802	-200,000	0,002	-0,008
-562,788	12,696	-0,053	0,029
-561,773	182,463	-0,075	-0,079
-560,758	-22,552	-0,067	0,029
-559,744	-200,000	0,040	0,193
-558,729	147,271	0,047	0,045
-557,715	-200,000	0,012	-0,147
-556,700	49,718	-0,173	-0,117
-555,685	-200,000	0,026	0,088
-554,671	-164,419	0,073	-0,002
-553,656	-200,000	-0,000	0,051
-552,642	-200,000	-0,034	0,167
-551,627	-200,000	0,004	-0,158
-550,612	-200,000	0,023	-0,076
-549,598	-20,769	0,097	0,043
-548,583	-200,000	-0,002	-0,059
-547,569	-118,320	-0,065	-0,008
-546,554	800,000	-0,016	-0,036
-545,539	-200,000	-0,006	-0,060
-544,525	-6,520	0,130	0,063
-543,510	171,345	-0,040	-0,041
-542,496	14,603	-0,051	-0,029
-541,481	278,108	0,065	-0,083
-540,466	-10,523	-0,091	0,043
-539,452	-200,000	-0,017	0,062
-538,437	733,035	0,053	0,103
-537,423	197,950	-0,075	0,083
-536,408	-151,339	-0,072	0,004
-535,393	800,000	-0,026	0,061
-534,379	-200,000	-0,035	-0,117
-533,364	-137,632	-0,138	0,011
-532,350	45,230	0,027	-0,018
-531,335	-200,000	-0,008	0,029
-530,321	-76,748	-0,112	0,028
-529,306	-200,000	-0,012	0,135
-528,291	233,126	-0,007	-0,008
-527,277	-200,000	-0,004	-0,085
-526,262	-119,173	0,109	-0,013
-525,248	-135,636	-0,099	-0,008
-524,233	-139,929	-0,111	0,008
-523,218	800,000	0,043	0,100
-522,204	61,502	-0,045	0,032
-521,189	-32,218	0,117	-0,047
-520,175	102,121	-0,067	-0,056
-519,160	-119,967	-0,055	-0,007
-518,145	-53,713	0,075	-0,024
-517,131	163,834	0,013	-0,014
-516,116	-200,000	0,004	0,052
-515,102	52,140	-0,050	0,034
-514,087	-150,488	-0,145	-0,008
-513,072	800,000	-0,052	0,111
-512,058	-55,850	-0,029	-0,009
-511,043	251,161	-0,050	-0,061
-510,029	627,319	0,045	0,082
-509,014	-200,000	0,022	0,110
-507,999	27,105	-0,080	0,048
-506,985	-69,244	-0,097	-0,027
-505,970	39,105	-0,081	-0,052
-504,956	-200,000	0,001	-0,115
-503,941	800,000	0,040	0,097
-502,926	-123,705	0,099	0,011
-501,912	-2,830	0,035	-0,017
-500,897	-200,000	0,011	0,057
-499,883	-127,933	-0,109	-0,011
-498,868	-9,973	-0,086	-0,041
-497,853	307,746	0,088	0,118
-496,839	-147,384	-0,026	0,002
-495,824	152,689	0,028	-0,027
-494,810	-200,000	-0,010	0,144
-493,795	497,422	0,003	-0,004
-492,781	-128,862	-0,028	-0,003
-491,766	800,000	-0,014	0,033
-490,751	-200,000	-0,005	-0,095
-489,737	209,227	0,066	0,074
-488,722	-123,784	0,127	0,014
-487,708	704,873	0,045	-0,086
-486,693	137,239	0,068	-0,064
-485,678	-33,249	-0,046	0,018
-484,664	-200,000	-0,001	-0,008
-483,649	136,177	-0,073	-0,068
-482,635	26,032	0,037	-0,022
-481,620	-116,882	0,219	-0,028
-480,605	280,604	0,025	0,032
-479,591	-69,363	0,077	-0,021
-478,576	182,668	0,123	-0,130
-477,562	-200,000	0,001	-0,106
-476,547	584,994	0,030	0,053
-475,532	666,477	-0,011	-0,020
-474,518	562,896	-0,081	-0,142
-473,503	84,006	0,025	-0,020
-472,489	-56,668	-0,067	0,021
-471,474	203,526	0,046	0,051
-470,459	9,973	-0,022	0,012
-469,445	-200,000	-0,013	-0,078
-468,430	252,607	-0,033	0,040
-467,416	-200,000	-0,002	-0,019
-466,401	-47,634	0,014	-0,005
-465,386	722,980	0,026	0,050
-464,372	-200,000	0,010	-0,064
-463,357	4,442	0,101	-0,053
-462,343	117,633	-0,098	-0,086
-461,328	140,494	-0,066	-0,062
-460,313	471,049	-0,035	-0,057
-459,299	800,000	-0,054	-0,149
-458,284	-62,961	0,111	-0,033
-457,270	186,126	0,105	0,113
-456,255	495,875	-0,066	0,110
-455,241	233,797	-0,079	-0,093
-454,226	-200,000	0,003	-0,120
-453,211	135,405	0,070	-0,065
-452,197	-87,347	0,099	-0,021
-451,182	-200,000	-0,025	0,113
-450,168	-200,000	0,011	0,075
-449,153	72,734	0,068	-0,051
-448,138	454,820	0,075	-0,120
-447,124	-200,000	-0,011	0,071
-446,109	84,873	0,065	-0,051
-445,095	23,896	0,048	0,028
-444,080	-200,000	0,015	0,119
-443,065	69,945	0,091	0,067
-442,051	463,246	0,055	0,088
-441,036	-200,000	0,019	-0,099
-440,022	-200,000	-0,021	-0,086
-439,007	800,000	-0,039	-0,103
-437,992	-200,000	-0,016	0,073
-436,978	130,865	0,122	0,112
-435,963	-26,719	-0,072	-0,030
-434,949	800,000	-0,097	0,212
-433,934	-9,459	0,167	0,079
-432,919	128,731	-0,037	0,034
-431,905	17,256	0,076	0,043
-430,890	67,526	0,186	-0,136
-429,876	276,960	0,023	0,029
-428,861	-81,588	0,084	0,020
-427,846	-57,888	-0,075	0,023
-426,832	121,516	-0,088	-0,078
-425,817	-28,129	-0,127	0,052
-424,803	800,000	0,038	0,096
-423,788	303,606	0,056	0,074
-422,773	-72,339	0,084	-0,022
-421,759	14,053	0,088	0,049
-420,744	800,000	-0,056	0,115
-419,730	800,000	0,046	-0,101
-418,715	-200,000	-0,044	-0,178
-417,701	-200,000	-0,035	-0,151
-416,686	42,947	0,216	-0,140
-415,671	-200,000	0,010	0,124
-414,657	-4,801	-0,056	-0,028
-413,642	445,781	-0,087	0,137
-412,628	73,753	-0,043	0,032
-411,613	800,000	-0,040	-0,088
-410,598	800,000	0,024	0,053
-409,584	-77,759	0,084	-0,020
-408,569	-122,530	-0,065	0,007
-407,555	413,036	0,071	0,108
-406,540	-89,488	-0,096	0,020
-405,525	-200,000	-0,013	-0,178
-404,511	800,000	-0,037	0,073
-403,496	-18,096	-0,040	0,018
-402,482	76,807	-0,033	-0,025
-401,467	162,975	0,084	0,084
-400,452	800,000	0,016	-0,045
-399,438	101,978	0,089	0,074
-398,423	-200,000	0,000	0,063
-397,409	311,783	-0,126	-0,169
-396,394	-124,853	-0,077	0,008
-395,379	-36,067	-0,055	-0,021
-394,365	119,751	-0,022	0,019
-393,350	-200,000	-0,017	-0,091
-392,336	-37,405	0,090	-0,034
-391,321	800,000	0,028	-0,073
-390,306	56,002	-0,144	-0,100
-389,292	-26,078	0,106	-0,044
-388,277	-200,000	0,036	0,123
-387,263	-105,649	0,167	-0,027
-386,248	-71,794	0,114	0,030
-385,233	783,173	0,029	-0,057
-384,219	800,000	-0,036	-0,092
-383,204	-200,000	-0,020	0,156
-382,190	147,838	-0,058	-0,056
-381,175	-200,000	-0,002	0,083
-380,160	800,000	0,036	0,107
-379,146	-145,610	0,103	-0,006
-378,131	-101,084	0,039	0,007
-377,117	248,545	-0,101	-0,122
-376,102	-74,918	-0,072	0,018
-375,088	800,000	-0,049	0,108
-374,073	405,586	-0,049	-0,074
-373,058	-63,161	0,108	-0,032
-372,044	-73,427	0,108	0,028
-371,029	300,573	0,086	0,114
-370,015	800,000	-0,025	-0,075
-369,000	374,989	0,051	-0,075
-367,985	100,335	-0,161	-0,134
-366,971	800,000	-0,061	0,145
-365,956	-12,393	-0,043	0,020
-364,942	184,468	0,047	-0,049
-363,927	-200,000	0,010	0,065
-362,912	800,000	-0,018	0,046
-361,898	57,704	-0,069	0,048
-360,883	-51,984	-0,094	0,031
-359,869	-200,000	0,000	-0,096
-358,854	-118,575	-0,029	-0,004
-357,839	-200,000	0,015	0,113
-356,825	362,847	-0,036	-0,052
-355,810	-12,301	0,125	0,058
-354,796	-15,295	0,061	-0,028
-353,781	-30,269	-0,039	-0,016
-352,766	-200,000	-0,088	0,000
-351,752	-200,000	0,011	0,095
-350,737	-67,283	0,110	-0,031
-349,723	39,807	0,097	-0,062
-348,708	316,884	-0,036	0,049
-347,693	800,000	-0,036	-0,096
-346,679	748,279	0,094	-0,182
-345,664	800,000	-0,037	-0,079
-344,650	-200,000	0,003	-0,013
-343,635	-178,484	0,059	-0,001
-342,620	800,000	0,014	0,035
-341,606	-125,387	0,026	0,003
-340,591	-0,247	0,097	0,049
-339,577	-200,000	-0,025	-0,123
-338,562	189,995	-0,039	-0,042
-337,548	360,262	0,076	0,109
-336,533	543,363	-0,025	0,043
-335,518	800,000	0,019	0,056
-334,504	-200,000	-0,052	0,205
-333,489	52,991	0,088	-0,060
-332,475	-113,650	-0,081	0,011
-331,460	-200,000	-0,001	-0,099
-330,445	-56,051	0,078	-0,025
-329,431	-200,000	0,005	0,037
-328,416	664,193	-0,082	-0,151
-327,402	63,752	-0,069	-0,050
-326,387	156,794	0,092	0,090
-325,372	-68,160	0,043	0,012
-324,358	624,865	0,057	-0,103
-323,343	-200,000	0,000	-0,042
-322,329	-148,883	-0,179	-0,010
-321,314	69,148	0,122	-0,089
-320,299	26,473	0,111	0,066
-319,285	492,119	-0,012	-0,020
-318,270	-200,000	-0,017	-0,132
-317,256	-200,000	-0,008	-0,181
-316,241	-200,000	-0,010	-0,066
-315,226	-167,491	0,032	0,001
-314,212	130,288	-0,032	0,029
-313,197	74,782	0,139	0,104
-312,183	501,224	-0,017	-0,028
-311,168	-165,308	-0,127	0,004
-310,153	-200,000	-0,009	-0,096
-309,139	-200,000	-0,030	-0,104
-308,124	-27,990	0,060	0,025
-307,110	81,752	0,075	-0,058
-306,095	-163,197	-0,173	-0,006
-305,080	22,375	-0,118	-0,069
-304,066	316,346	0,070	0,094
-303,051	-200,000	0,019	-0,061
-302,037	-40,878	-0,120	0,044
-301,022	193,273	0,044	-0,048
-300,008	-0,352	-0,046	-0,023
-298,993	92,911	-0,039	0,031
-297,978	383,014	0,045	0,066
-296,964	-61,055	0,081	0,024
-295,949	800,000	0,017	0,034
-294,935	-80,668	-0,090	-0,021
-293,920	-200,000	0,004	-0,025
-292,905	-65,752	0,189	-0,054
-291,891	-200,000	-0,043	-0,149
-290,876	-139,000	-0,116	-0,009
-289,862	204,639	0,078	-0,086
-288,847	-200,000	0,018	-0,101
-287,832	800,000	0,063	-0,144
-286,818	-200,000	-0,001	-0,115
-285,803	-152,336	0,181	-0,009
-284,789	-128,633	0,139	-0,014
-283,774	56,708	0,079	0,054
-282,759	-33,450	-0,061	-0,024
-281,745	-17,264	-0,112	-0,050
-280,730	16,121	-0,029	-0,016
-279,716	307,116	-0,055	0,073
-278,701	-200,000	0,011	0,081
-277,686	-108,964	0,155	0,023
-276,672	519,066	-0,071	0,119
-275,657	84,402	0,020	-0,015
-274,643	314,287	-0,059	-0,080
-273,628	449,241	-0,051	-0,080
-272,613	-200,000	0,016	-0,140
-271,599	312,772	0,061	-0,082
-270,584	800,000	-0,024	-0,063
-269,570	-200,000	-0,002	0,054
-268,555	449,743	-0,061	0,096
-267,540	34,873	-0,054	-0,033
-266,526	800,000	-0,088	-0,190
-265,511	11,527	0,031	-0,017
-264,497	-200,000	0,003	0,091
-263,482	214,473	0,061	0,069
-262,467	97,906	0,022	0,018
-261,453	-67,614	0,142	-0,039
-260,438	343,922	-0,090	-0,126
-259,424	6,275	0,088	-0,046
-258,409	800,000	0,011	-0,024
-257,395	84,459	0,054	0,042
-256,380	-200,000	-0,033	0,109
-255,365	406,909	-0,043	0,065
-254,351	145,390	-0,062	0,059
-253,336	800,000	0,027	0,072
-252,322	-200,000	0,021	-0,076
-251,307	-200,000	-0,017	0,063
-250,292	-200,000	-0,028	-0,139
-249,278	-66,578	0,028	-0,008
-248,263	-155,505	0,031	-0,001
-247,249	53,245	-0,111	-0,075
-246,234	311,641	-0,059	0,079
-245,219	800,000	0,044	-0,104
-244,205	67,339	-0,085	-0,061
-243,190	-68,497	0,127	-0,035
-242,176	-200,000	0,014	0,091
-241,161	-200,000	-0,006	0,039
-240,146	36,105	0,121	-0,076
-239,132	76,859	0,047	-0,035
-238,117	651,218	-0,034	0,063
-237,103	-147,620	0,093	-0,005
-236,088	-2,016	-0,062	-0,031
-235,073	50,992	-0,018	-0,012
-234,059	134,605	0,032	-0,029
-233,044	322,831	0,015	-0,021
-232,030	-76,651	0,215	0,053
-231,015	-200,000	0,010	-0,118
-230,000	102,742	0,073	-0,060
-228,986	-179,251	0,058	0,001
-227,971	106,039	0,054	0,045
-226,957	73,856	0,099	0,073
-225,942	42,415	0,047	0,030
-224,927	67,155	-0,089	0,064
-223,913	-49,878	-0,042	0,014
-222,898	177,607	0,075	0,078
-221,884	413,580	0,089	0,134
-220,869	-110,391	0,126	0,018
-219,855	-48,208	-0,074	0,025
-218,840	133,493	0,174	0,159
-217,825	-200,000	-0,002	-0,033
-216,811	-200,000	-0,035	0,153
-215,796	217,703	0,021	0,024
-214,782	104,417	0,035	-0,029
-213,767	-120,649	0,064	-0,008
-212,752	-200,000	0,007	0,111
-211,738	429,664	-0,071	0,110
-210,723	110,516	-0,048	0,041
-209,709	800,000	0,060	0,172
-208,694	466,028	-0,067	-0,107
-207,679	-200,000	0,010	-0,047
-206,665	-88,385	-0,043	0,009
-205,650	230,307	-0,066	0,076
-204,636	139,155	0,078	0,073
-203,621	-200,000	-0,010	-0,063
-202,606	345,514	0,062	0,087
-201,592	800,000	-0,023	0,053
-200,577	800,000	0,020	-0,054
-199,563	800,000	-0,015	0,047
-198,548	-200,000	-0,003	0,111
-197,533	100,155	-0,013	0,011
-196,519	428,843	-0,029	0,044
-195,504	800,000	0,027	0,064
-194,490	-200,000	0,001	0,083
-193,475	800,000	-0,040	-0,119
-192,460	800,000	-0,086	0,177
-191,446	-200,000	-0,017	0,062
-190,431	718,795	0,029	-0,055
-189,417	523,017	0,075	0,125
-188,402	-88,823	0,037	0,008
-187,387	258,685	0,008	0,010
-186,373	800,000	-0,031	-0,069
-185,358	722,310	-0,037	-0,071
-184,344	-50,150	0,087	-0,029
-183,329	-126,651	0,108	0,011
-182,315	-27,422	-0,176	0,072
-181,300	563,046	-0,049	0,084
-180,285	547,668	-0,050	-0,086
-179,271	110,379	0,016	0,013
-178,256	-18,898	-0,092	-0,040
-177,242	-85,581	0,069	-0,015
-176,227	-31,924	-0,050	0,020
-175,212	196,982	0,049	0,053
-174,198	-200,000	-0,001	-0,019
-173,183	-200,000	-0,015	-0,114
-172,169	60,776	-0,030	-0,021
-171,154	800,000	-0,091	0,197
-170,139	67,065	-0,076	-0,055
-169,125	-200,000	0,001	0,029
-168,110	-5,537	0,062	0,030
-167,096	191,341	0,045	-0,048
-166,081	208,114	-0,020	0,023
-165,066	284,255	-0,026	0,034
-164,052	-200,000	-0,120	0,000
-163,037	-52,427	-0,081	0,026
-162,023	-200,000	0,028	-0,149
-161,008	-107,305	0,155	0,024
-159,993	369,538	-0,042	0,060
-158,979	-72,488	-0,115	-0,030
-157,964	333,105	-0,032	-0,045
-156,950	-45,961	-0,036	-0,013
-155,935	10,398	0,055	-0,029
-154,920	-67,520	0,049	0,014
-153,906	-33,606	-0,027	-0,010
-152,891	-169,904	0,031	0,001
-151,877	360,619	-0,089	0,127
-150,862	209,767	0,016	-0,017
-149,847	800,000	-0,003	-0,007
-148,833	670,133	0,060	-0,110
-147,818	-139,836	0,117	0,009
-146,804	-69,918	-0,068	0,018
-145,789	-200,000	-0,012	-0,128
-144,775	145,880	-0,083	-0,078
-143,760	-200,000	0,034	-0,106
-142,745	73,518	-0,152	0,113
-141,731	491,193	-0,079	0,128
-140,716	133,165	0,140	0,128
-139,702	-94,851	0,103	-0,020
-138,687	41,666	-0,108	0,069
-137,672	-200,000	-0,012	0,051
-136,658	599,782	0,048	0,084
-135,643	-200,000	-0,009	-0,083
-134,629	202,468	-0,025	0,027
-133,614	-200,000	0,020	0,095
-132,599	-86,622	0,144	0,031
-131,585	-67,038	0,210	0,058
-130,570	-143,047	-0,179	-0,012
-129,556	-31,195	-0,085	0,034
-128,541	156,847	-0,130	0,128
-127,526	370,242	0,045	-0,064
-126,512	92,993	0,137	0,109
-125,497	-200,000	-0,026	0,122
-124,483	-66,549	0,041	-0,011
-123,468	-83,770	-0,074	-0,016
-122,453	-149,769	0,036	0,002
-121,439	800,000	0,068	-0,140
-120,424	-200,000	0,011	-0,039
-119,410	-200,000	0,025	0,107
-118,395	-128,962	0,067	0,007
-117,380	-114,253	-0,041	-0,006
-116,366	217,877	-0,050	-0,057
-115,351	309,902	-0,071	0,095
-114,337	-200,000	0,018	0,072
-113,322	-72,103	-0,153	0,040
-112,307	800,000	0,054	-0,114
-111,293	101,668	0,022	0,018
-110,278	-200,000	0,023	0,130
-109,264	-200,000	0,006	0,153
-108,249	492,485	0,053	-0,086
-107,234	293,075	-0,144	-0,186
-106,220	-143,554	0,080	-0,005
-105,205	-142,204	0,066	0,005
-104,191	-76,992	-0,078	0,019
-103,176	800,000	-0,061	0,121
-102,162	800,000	0,020	0,047
-101,147	-65,031	-0,157	0,044
-100,132	58,122	-0,071	-0,049
-99,118	301,066	0,030	-0,039
-98,103	-200,000	-0,022	0,126
-97,089	-200,000	-0,023	-0,110
-96,074	800,000	0,104	0,224
-95,059	211,846	0,064	0,071
-94,045	48,961	0,055	-0,037
-93,030	289,080	-0,061	-0,078
-92,016	32,647	-0,033	0,020
-91,001	-200,000	-0,006	0,050
-89,986	4,868	0,094	-0,049
-88,972	-111,894	0,041	0,006
-87,957	86,221	0,082	0,064
-86,943	-200,000	0,011	0,094
-85,928	-105,863	-0,035	0,006
-84,913	-200,000	-0,015	-0,063
-83,899	-200,000	0,006	-0,121
-82,884	800,000	-0,016	0,049
-81,870	-160,542	-0,067	-0,002
-80,855	432,738	0,018	0,028
-79,840	130,725	0,037	0,034
-78,826	47,058	-0,053	-0,035
-77,811	180,917	-0,055	-0,057
-76,797	-63,159	-0,081	-0,024
-75,782	-143,933	0,175	-0,011
-74,767	-0,739	0,125	0,062
-73,753	-200,000	-0,002	-0,084
-72,738	504,790	0,039	-0,064
-71,724	-45,760	-0,119	-0,041
-70,709	115,257	-0,023	-0,020
-69,694	-15,297	0,209	-0,094
-68,680	-130,311	0,027	-0,003
-67,665	-12,132	-0,091	-0,042
-66,651	282,950	-0,121	0,154
-65,636	33,265	-0,014	-0,008
-64,622	-9,387	-0,085	-0,040
-63,607	655,618	-0,040	0,073
-62,592	800,000	0,018	-0,037
-61,578	-200,000	-0,000	0,045
-60,563	267,309	-0,093	0,115
-59,549	800,000	-0,008	0,016
-58,534	72,190	-2,105	-1,545
-57,519	338,490	-1,258	-1,733
-56,505	-200,000	-0,473	-4,440
-55,490	525,274	1,035	1,726
-54,476	800,000	5,255	11,349
-53,461	-200,000	22,575	347,282
-52,446	800,000	757,539	2292,640
-51,432	532,888	1643,595	2755,362
-50,417	67,875	1642,026	1183,022
-49,403	15,578	1519,860	839,946
-48,388	9,803	1445,723	771,243
-47,373	19,297	1438,301	812,480
-46,359	13,327	1426,864	777,819
-45,344	8,150	1422,863	751,132
-44,330	8,038	1421,008	749,590
-43,315	8,007	1419,263	748,494
-42,300	8,054	1417,304	747,653
-41,286	8,117	1415,946	747,205
-40,271	8,044	1414,854	746,255
-39,257	8,080	1413,586	745,727
-38,242	8,087	1412,637	745,229
-37,227	8,026	1411,451	744,287
-36,213	8,071	1410,203	743,809
-35,198	8,071	1408,916	743,104
-34,184	8,096	1407,930	742,669
-33,169	7,985	1406,822	741,536
-32,154	8,075	1405,740	741,356
-31,140	8,065	1404,358	740,551
-30,125	8,082	1403,290	740,038
-29,111	8,028	1402,227	739,194
-28,096	7,987	1401,161	738,416
-27,082	8,029	1399,815	737,871
-26,067	7,964	1398,895	737,056
-25,052	8,038	1397,569	736,669
-24,038	8,035	1396,674	736,157
-23,023	8,022	1395,845	735,628
-22,009	7,990	1394,912	734,960
-20,994	7,955	1393,863	734,216
-19,979	8,001	1392,884	733,885
-18,965	7,968	1391,837	733,150
-17,950	7,975	1390,764	732,590
-16,936	7,955	1390,125	732,130
-15,921	7,909	1389,139	731,371
-14,906	7,897	1388,221	730,800
-13,892	7,984	1387,030	730,547
-12,877	7,946	1386,366	729,991
-11,863	7,889	1385,702	729,351
-10,848	7,894	1384,726	728,832
-9,833	7,905	1383,769	728,350
-8,819	7,809	1382,966	727,457
-7,804	7,791	1382,086	726,882
-6,790	7,827	1381,101	726,502
-5,775	7,854	1379,877	725,954
-4,760	7,853	1378,984	725,447
-3,746	7,830	1377,950	724,771
-2,731	7,863	1377,066	724,427
-1,717	7,860	1376,249	723,955
-0,702	7,850	1374,579	723,005
0,313	11,798	1284,885	693,715
1,327	27,387	676,927	400,205
2,342	42,453	116,398	74,487
3,356	-0,620	16,532	8,239
4,371	7,010	3,922	2,055
5,386	-3,092	1,328	0,651
6,400	800,000	0,314	0,664
7,415	261,771	-0,175	-0,214
8,429	-43,155	-0,280	-0,099
9,444	-36,431	-0,265	-0,100
10,459	237,437	-0,139	-0,162
11,473	221,264	-0,238	-0,269
12,488	-29,629	-0,398	-0,159
13,502	26,372	-0,266	-0,156
14,517	-40,042	-0,309	-0,113
15,531	156,223	-0,299	-0,290
16,546	-4,542	-0,423	-0,205
17,561	-0,592	-0,354	-0,176
18,575	-131,182	-0,188	-0,017
19,590	587,553	-0,136	-0,236
20,604	-8,758	-0,249	-0,117
21,619	50,383	-0,383	-0,254
22,634	9,365	-0,388	-0,206
23,648	96,258	-0,490	-0,394
24,663	90,356	-0,399	-0,314
25,677	-28,460	-0,312	-0,126
26,692	6,211	-0,283	-0,147
27,707	-14,284	-0,361	-0,163
28,721	-42,820	-0,432	-0,154
29,736	127,476	-0,421	-0,376
30,750	196,724	-0,377	-0,405
31,765	142,236	-0,395	-0,368
32,780	159,171	-0,357	-0,349
33,794	182,348	-0,351	-0,364
34,809	26,907	-0,468	-0,275
35,823	54,272	-0,252	-0,170
36,838	64,792	-0,441	-0,313
37,853	308,716	-0,318	-0,418
38,867	-26,602	-0,426	-0,174
39,882	183,427	-0,222	-0,231
40,896	143,661	-0,270	-0,253
41,911	-42,455	-0,324	-0,115
42,926	196,890	-0,237	-0,255
43,940	88,049	-0,380	-0,296
44,955	-24,159	-0,402	-0,168
45,969	53,134	-0,321	-0,215
46,984	213,410	-0,254	-0,283
47,999	4,398	-0,336	-0,172
49,013	84,513	-0,235	-0,180
50,028	213,142	-0,154	-0,171
51,042	380,347	-0,243	-0,351
52,057	199,856	-0,338	-0,365
53,071	71,598	-0,344	-0,251
54,086	104,777	-0,339	-0,281
55,101	47,050	-0,436	-0,284
56,115	-17,199	-0,375	-0,165
57,130	144,548	-0,224	-0,210
58,144	15,847	-0,418	-0,230
59,159	297,525	-0,334	-0,432
60,174	54,489	-0,375	-0,253
61,188	198,749	-0,312	-0,335
62,203	60,877	-0,312	-0,216
63,217	31,816	-0,325	-0,196
64,232	60,423	-0,326	-0,226
65,247	-28,575	-0,372	-0,149
66,261	4,571	-0,413	-0,212
67,276	88,143	-0,321	-0,250
68,290	-108,576	-0,378	-0,056
69,305	30,099	-0,344	-0,205
70,320	-12,120	-0,246	-0,113
71,334	10,311	-0,364	-0,193
72,349	-87,719	-0,389	-0,081
73,363	408,987	-0,255	-0,380
74,378	-3,734	-0,399	-0,193
75,393	335,669	-0,222	-0,303
76,407	46,131	-0,279	-0,181
77,422	18,277	-0,257	-0,143
78,436	44,464	-0,190	-0,122
79,451	98,194	-0,286	-0,231
80,466	67,227	-0,381	-0,272
81,480	87,843	-0,331	-0,257
82,495	30,694	-0,364	-0,218
83,509	64,355	-0,322	-0,226
84,524	-62,046	-0,204	-0,059
85,539	172,305	-0,254	-0,256
86,553	-1,876	-0,282	-0,139
87,568	10,498	-0,290	-0,154
88,582	-27,091	-0,392	-0,159
89,597	214,581	-0,299	-0,331
90,611	160,009	-0,161	-0,157
91,626	310,882	-0,244	-0,321
92,641	-51,828	-0,215	-0,070
93,655	-2,551	-0,264	-0,129
94,670	329,463	-0,242	-0,326
95,684	3,895	-0,225	-0,115
96,699	150,531	-0,189	-0,179
97,714	20,574	-0,293	-0,165
98,728	97,691	-0,285	-0,229
99,743	38,589	-0,305	-0,190
100,757	32,509	-0,307	-0,185
101,772	-58,751	-0,340	-0,102
102,787	-10,377	-0,237	-0,110
103,801	-77,990	-0,286	-0,068
104,816	162,755	-0,259	-0,254
105,830	114,898	-0,221	-0,188
106,845	51,516	-0,297	-0,197
107,860	-94,924	-0,137	0,026
108,874	-23,102	-0,319	-0,134
109,889	278,800	-0,203	-0,253
110,903	149,647	-0,272	-0,258
111,918	276,883	-0,167	-0,208
112,933	279,567	-0,194	-0,243
113,947	224,698	-0,100	-0,113
114,962	-60,882	-0,153	-0,045
115,976	38,015	-0,245	-0,152
116,991	-142,837	-0,291	-0,019
118,006	18,741	-0,391	-0,218
119,020	256,766	-0,152	-0,182
120,035	101,649	-0,205	-0,167
121,049	117,811	-0,144	-0,123
122,064	-78,477	-0,255	-0,060
123,079	6,416	-0,212	-0,109
124,093	161,396	-0,228	-0,223
125,108	-113,843	-0,357	-0,048
126,122	-34,974	-0,297	-0,112
127,137	-90,505	-0,294	-0,059
128,151	200,197	-0,152	-0,163
129,166	208,892	-0,192	-0,210
130,181	26,127	-0,222	-0,129
131,195	-6,948	-0,213	-0,101
132,210	125,457	-0,192	-0,169
133,224	327,633	-0,180	-0,241
134,239	-10,052	-0,294	-0,136
135,254	-108,877	-0,281	-0,041
136,268	215,943	-0,241	-0,267
137,283	-37,848	-0,248	-0,091
138,297	181,130	-0,274	-0,281
139,312	-158,217	-0,337	-0,013
140,327	20,886	-0,274	-0,154
141,341	-106,968	-0,187	-0,028
142,356	396,534	-0,142	-0,207
143,370	533,205	-0,146	-0,242
144,385	-40,623	-0,262	-0,094
145,400	25,342	-0,319	-0,184
146,414	431,854	-0,128	-0,194
147,429	156,956	-0,222	-0,214
148,443	67,869	-0,178	-0,127
149,458	-5,521	-0,170	-0,081
150,473	216,282	-0,220	-0,244
151,487	-141,817	-0,232	0,016
152,502	-9,875	-0,218	-0,101
153,516	67,080	-0,297	-0,210
154,531	800,000	-0,153	-0,298
155,546	17,554	-0,181	-0,100
156,560	-108,158	-0,183	-0,027
157,575	111,188	-0,145	-0,122
158,589	49,472	-0,250	-0,163
159,604	124,612	-0,293	-0,256
160,619	157,346	-0,263	-0,253
161,633	21,897	-0,268	-0,151
162,648	221,944	-0,103	-0,115
163,662	-63,036	-0,134	-0,038
164,677	157,379	-0,220	-0,212
165,692	3,766	-0,242	-0,122
166,706	118,756	-0,121	-0,104
167,721	-27,176	-0,349	-0,141
168,735	-0,739	-0,126	-0,062
169,750	150,374	-0,202	-0,190
170,764	-11,114	-0,176	-0,080
171,779	-22,772	-0,241	-0,101
172,794	-65,524	-0,193	-0,053
173,808	76,074	-0,174	-0,128
174,823	800,000	-0,077	-0,163
175,837	-22,498	-0,307	-0,128
176,852	58,551	-0,272	-0,185
177,867	79,087	-0,160	-0,119
178,881	9,319	-0,257	-0,134
179,896	18,823	-0,114	-0,063
180,910	161,471	-0,239	-0,232
181,925	10,335	-0,262	-0,138
182,940	246,904	-0,147	-0,172
183,954	68,476	-0,179	-0,127
184,969	115,605	-0,167	-0,142
185,983	-12,224	-0,251	-0,113
186,998	141,074	-0,196	-0,179
188,013	800,000	-0,136	-0,283
189,027	250,614	-0,150	-0,177
190,042	279,281	-0,204	-0,253
191,056	265,368	-0,195	-0,236
192,071	-24,209	-0,281	-0,116
193,086	800,000	-0,068	-0,156
194,100	-200,000	-0,073	-0,254
195,115	-27,427	-0,183	-0,074
196,129	-7,675	-0,278	-0,130
197,144	119,754	-0,222	-0,191
198,159	27,479	-0,233	-0,136
199,173	800,000	-0,102	-0,284
200,188	109,442	-0,127	-0,105
201,202	62,636	-0,220	-0,152
202,217	-3,545	-0,181	-0,087
203,232	-48,955	-0,174	-0,057
204,246	800,000	-0,121	-0,283
205,261	120,076	-0,220	-0,189
206,275	147,068	-0,180	-0,167
207,290	38,452	-0,187	-0,115
208,304	-154,907	-0,243	-0,011
209,319	114,562	-0,185	-0,156
210,334	23,321	-0,199	-0,113
211,348	38,280	-0,208	-0,128
212,363	172,454	-0,266	-0,265
213,377	56,064	-0,102	-0,068
214,392	-83,332	-0,153	-0,034
215,407	-138,208	-0,176	0,013
216,421	138,994	-0,157	0,143
217,436	-93,584	-0,124	-0,024
218,450	56,176	-0,304	-0,204
219,465	109,770	-0,269	-0,223
220,480	280,331	-0,161	-0,199
221,494	123,638	-0,175	-0,152
222,509	227,539	-0,089	-0,100
223,523	588,034	-0,092	-0,158
224,538	-15,883	-0,286	-0,125
225,553	280,572	-0,211	-0,261
226,567	597,174	-0,071	-0,122
227,582	181,505	-0,163	-0,166
228,596	-142,240	-0,213	-0,014
229,611	-31,804	-0,206	-0,079
230,626	-69,635	-0,214	-0,056
231,640	377,207	-0,134	-0,190
232,655	499,274	-0,115	-0,184
233,669	-35,929	-0,217	-0,081
234,684	-28,400	-0,263	-0,104
235,699	79,114	-0,218	-0,161
236,713	85,007	-0,200	-0,151
237,728	17,771	-0,215	-0,118
238,742	445,759	-0,094	-0,143
239,757	134,561	-0,112	-0,100
240,772	360,867	-0,244	-0,339
241,786	107,707	-0,269	-0,221
242,801	501,651	-0,093	-0,149
243,815	392,502	-0,092	-0,132
244,830	9,087	-0,215	-0,112
245,844	153,736	-0,096	-0,091
246,859	73,928	-0,194	-0,140
247,874	371,478	-0,170	-0,239
248,888	126,294	-0,147	-0,129
249,903	-200,000	-0,095	-0,292
250,917	17,889	-0,237	-0,130
251,932	-162,849	-0,163	-0,005
252,947	195,670	-0,167	-0,175
253,961	-2,328	-0,126	-0,061
254,976	283,172	-0,156	-0,193
255,990	34,906	-0,253	-0,152
257,005	445,875	-0,154	-0,235
258,020	-185,951	-0,150	-0,001
259,034	45,514	-0,139	-0,088
260,049	304,117	-0,122	-0,156
261,063	40,266	-0,182	-0,113
262,078	-57,473	-0,261	-0,079
263,093	178,063	-0,195	-0,196
264,107	426,333	-0,084	-0,125
265,122	-133,899	-0,164	0,014
266,136	206,369	-0,125	-0,134
267,151	-26,023	-0,053	-0,021
268,166	153,250	-0,130	-0,122
269,180	88,897	-0,214	-0,164
270,195	-133,911	-0,235	0,020
271,209	417,429	-0,081	-0,119
272,224	279,617	-0,102	-0,125
273,239	-20,189	-0,189	-0,080
274,253	-99,976	-0,231	0,039
275,268	279,121	-0,110	-0,136
276,282	52,116	-0,146	-0,096
277,297	63,850	-0,182	-0,126
278,312	64,967	-0,199	-0,138
279,326	387,776	-0,113	-0,162
280,341	53,773	-0,186	-0,122
281,355	-81,452	-0,227	0,051
282,370	-127,625	-0,142	0,014
283,384	-64,684	-0,307	-0,085
284,399	191,110	-0,138	-0,143
285,414	86,925	-0,150	-0,114
286,428	121,451	-0,185	-0,158
287,443	314,491	-0,100	-0,129
288,457	115,801	-0,209	-0,176
289,472	-127,451	-0,111	0,011
290,487	800,000	-0,139	-0,296
291,501	800,000	-0,117	-0,264
292,516	206,224	-0,193	-0,207
293,530	-25,652	-0,223	-0,090
294,545	121,808	-0,141	-0,121
295,560	609,440	0,032	-0,056
296,574	25,360	-0,218	-0,124
297,589	7,376	-0,283	-0,145
298,603	-159,622	-0,170	-0,006
299,618	1,558	-0,195	-0,096
300,633	532,049	-0,133	-0,216
301,647	12,907	-0,107	-0,057
302,662	800,000	-0,047	-0,117
303,676	103,636	-0,125	-0,100
304,691	800,000	-0,102	-0,288
305,706	362,754	-0,140	-0,194
306,720	62,932	-0,124	-0,085
307,735	-104,486	-0,139	-0,022
308,749	102,024	-0,144	-0,115
309,764	-39,866	-0,257	0,091
310,779	-200,000	-0,046	-0,191
311,793	-32,613	-0,089	0,034
312,808	648,034	-0,099	-0,174
313,822	89,826	-0,151	-0,115
314,837	139,716	-0,114	-0,103
315,852	-84,203	-0,278	0,060
316,866	390,036	-0,094	-0,134
317,881	-92,759	-0,238	-0,045
318,895	737,747	-0,117	-0,216
319,910	31,216	-0,137	-0,080
320,925	-200,000	-0,055	-0,182
321,939	165,190	-0,136	-0,131
322,954	-118,108	0,081	-0,010
323,968	-24,905	-0,053	-0,022
324,983	203,877	-0,080	-0,085
325,997	-120,126	-0,186	-0,022
327,012	-200,000	-0,061	-0,235
328,027	-200,000	-0,019	-0,308
329,041	-17,369	-0,121	-0,052
330,056	62,359	-0,085	0,058
331,070	477,694	-0,022	-0,034
332,085	-136,385	-0,055	0,004
333,100	800,000	-0,018	-0,050
334,114	485,017	-0,146	-0,229
335,129	-6,284	-0,126	0,059
336,143	-200,000	-0,038	-0,178
337,158	302,651	-0,107	-0,136
338,173	34,348	-0,142	-0,085
339,187	-200,000	-0,111	0,000
340,202	-95,702	-0,124	0,022
341,216	110,552	-0,168	-0,138
342,231	29,436	-0,218	-0,126
343,246	26,939	-0,200	-0,114
344,260	79,195	-0,123	-0,090
345,275	-8,645	-0,118	-0,054
346,289	-54,310	-0,161	-0,050
347,304	49,881	-0,202	-0,130
348,319	-50,674	-0,077	-0,025
349,333	800,000	-0,040	-0,105
350,348	800,000	-0,066	-0,186
351,362	213,606	-0,112	-0,121
352,377	-200,000	0,009	0,044
353,392	151,606	-0,063	-0,059
354,406	-124,871	-0,199	-0,021
355,421	207,476	1311,093	1400,042
356,435	159,606	1471,318	1400,487
