DTS Sentinel unit serial number:	SN410029Multiplexer serial number:	ORYXHardware model number:	OX2-SRSoftware version number:	ORYX F/W v4,00 Oryx Data Collector v3.7.2.0data status	okinstallation	B3 Nyhavnadifferential loss correction	single-endedforward channel	channel 1reverse channel	N/Adate	2023/12/03time	22:32:30forward acquisition time	300,00reverse acquisition time	0,00gamma	499,1914k internal	0,3200k external	0,3200temperature offset calibration	1,0000default loss term (dB/km)	0,3820temperature slope calibration	1,0000multiplexer offset coefficient	1,0000multiplexer slope coefficient	1,0000fibre end	0,00T internal ref (°C)	13,18T ext. ref 1 (°C)	-2,15T ext. ref 2 (°C)	-2,18length (m)	temperature (°C)	Stokes	anti-Stokes-744,400	209,089	-0,231	-0,263
-743,385	-200,000	-0,027	0,373
-742,371	112,107	-0,143	-0,126
-741,356	-200,000	-0,051	0,222
-740,342	-200,000	-0,068	-0,240
-739,327	-200,000	-0,095	0,343
-738,312	77,293	-0,319	-0,247
-737,298	800,000	0,071	0,196
-736,283	271,234	-0,140	-0,180
-735,269	-200,000	0,044	0,358
-734,254	347,878	-0,181	-0,261
-733,239	800,000	-0,103	0,236
-732,225	144,730	-0,090	-0,087
-731,210	440,160	-0,006	-0,009
-730,196	800,000	0,043	0,117
-729,181	-102,986	-0,057	0,010
-728,167	-51,115	-0,043	0,015
-727,152	-51,703	-0,108	-0,037
-726,137	-200,000	-0,034	-0,244
-725,123	-156,726	-0,147	-0,006
-724,108	-78,131	-0,139	-0,035
-723,094	245,428	-0,069	0,085
-722,079	-155,583	-0,163	-0,008
-721,064	-140,813	0,127	0,009
-720,050	-200,000	0,001	-0,051
-719,035	-154,077	0,067	-0,003
-718,021	447,090	-0,071	-0,114
-717,006	-200,000	0,009	-0,061
-715,991	800,000	-0,057	0,159
-714,977	208,897	-0,069	-0,079
-713,962	-57,846	0,044	-0,014
-712,948	393,078	0,022	-0,033
-711,933	-71,985	-0,100	-0,027
-710,918	64,178	-0,005	-0,004
-709,904	-200,000	-0,031	-0,099
-708,889	58,916	-0,129	-0,092
-707,875	469,528	-0,074	-0,121
-706,860	471,318	-0,029	0,048
-705,845	774,525	-0,037	0,073
-704,831	48,426	-0,023	0,016
-703,816	-200,000	-0,032	-0,169
-702,802	484,429	-0,051	-0,084
-701,787	171,007	0,065	-0,067
-700,772	-200,000	0,007	-0,056
-699,758	174,120	0,073	0,077
-698,743	-75,718	0,030	-0,008
-697,729	800,000	-0,012	0,025
-696,714	800,000	0,058	-0,140
-695,699	85,839	0,052	-0,041
-694,685	43,836	-0,174	0,116
-693,670	-200,000	0,005	-0,125
-692,656	-2,182	-0,087	0,044
-691,641	-108,285	-0,129	-0,020
-690,627	-200,000	-0,004	0,070
-689,612	487,307	0,009	-0,016
-688,597	-106,389	-0,071	-0,011
-687,583	-117,743	0,021	-0,003
-686,568	39,688	-0,060	-0,039
-685,554	-101,720	-0,121	-0,021
-684,539	-200,000	0,007	-0,030
-683,524	-13,087	-0,043	0,020
-682,510	3,955	-0,074	0,039
-681,495	541,638	0,082	-0,142
-680,481	797,127	-0,073	-0,147
-679,466	-131,930	-0,127	-0,012
-678,451	-122,790	0,110	-0,013
-677,437	-200,000	-0,026	-0,166
-676,422	123,380	0,093	-0,085
-675,408	-110,481	-0,095	-0,014
-674,393	800,000	-0,065	-0,138
-673,378	-200,000	0,003	0,016
-672,364	100,705	-0,133	-0,112
-671,349	-200,000	-0,006	0,049
-670,335	-138,942	-0,114	0,009
-669,320	173,657	0,048	-0,050
-668,305	592,840	0,044	-0,079
-667,291	619,650	-0,039	0,072
-666,276	-190,057	-0,107	0,001
-665,262	-141,998	-0,153	-0,011
-664,247	103,230	-0,072	-0,062
-663,232	137,596	-0,037	-0,035
-662,218	167,917	0,070	-0,072
-661,203	-200,000	0,035	0,151
-660,189	800,000	0,040	-0,088
-659,174	-129,756	-0,122	-0,012
-658,159	800,000	-0,064	-0,143
-657,145	-200,000	0,005	-0,074
-656,130	-137,586	-0,154	-0,012
-655,116	-29,298	0,068	0,028
-654,101	-52,212	-0,113	0,038
-653,086	-69,083	0,029	-0,008
-652,072	494,454	-0,056	0,093
-651,057	-200,000	0,016	0,058
-650,043	800,000	-0,046	-0,099
-649,028	82,590	0,072	-0,056
-648,014	213,486	-0,048	0,055
-646,999	-128,836	-0,141	0,014
-645,984	-16,420	-0,127	-0,058
-644,970	180,084	-0,025	0,027
-643,955	120,134	-0,081	-0,073
-642,941	-107,000	0,098	-0,016
-641,926	800,000	0,019	-0,039
-640,911	800,000	-0,025	-0,067
-639,897	354,169	0,042	0,061
-638,882	-200,000	-0,008	0,204
-637,868	-116,607	0,057	-0,008
-636,853	718,820	-0,013	0,025
-635,838	223,107	-0,015	-0,017
-634,824	38,029	0,034	-0,022
-633,809	-200,000	-0,018	0,114
-632,795	-200,000	0,023	-0,117
-631,780	193,509	-0,109	-0,120
-630,765	75,204	-0,081	0,062
-629,751	8,612	0,082	0,045
-628,736	571,575	-0,061	-0,107
-627,722	566,559	-0,048	0,085
-626,707	373,221	0,045	0,067
-625,692	-200,000	0,018	0,064
-624,678	800,000	0,019	0,038
-623,663	234,603	-0,091	0,109
-622,649	-200,000	0,006	0,067
-621,634	800,000	-0,035	-0,095
-620,619	513,379	0,041	0,069
-619,605	231,716	-0,009	0,011
-618,590	37,669	-0,021	-0,013
-617,576	-200,000	-0,004	0,075
-616,561	76,689	-0,028	0,021
-615,546	38,079	-0,026	0,017
-614,532	-200,000	0,023	-0,145
-613,517	-200,000	-0,038	-0,208
-612,503	-53,458	-0,100	-0,033
-611,488	483,019	-0,069	-0,114
-610,474	800,000	-0,045	-0,093
-609,459	-95,866	-0,128	-0,025
-608,444	800,000	-0,017	0,050
-607,430	-162,540	-0,110	0,004
-606,415	329,964	-0,010	-0,014
-605,401	-200,000	0,018	-0,118
-604,386	-106,560	-0,080	-0,013
-603,371	800,000	0,041	0,107
-602,357	-200,000	-0,002	0,106
-601,342	-200,000	-0,008	-0,046
-600,328	-200,000	0,009	-0,051
-599,313	163,334	-0,098	0,099
-598,298	-99,619	0,068	-0,012
-597,284	-53,746	0,061	0,020
-596,269	-200,000	-0,027	0,184
-595,255	-74,469	0,143	0,037
-594,240	-200,000	-0,000	-0,114
-593,225	10,381	-0,193	-0,106
-592,211	-69,445	0,103	0,028
-591,196	-200,000	0,016	-0,099
-590,182	-115,687	0,182	0,024
-589,167	-92,595	0,077	0,015
-588,152	800,000	0,041	-0,095
-587,138	281,917	0,071	-0,092
-586,123	721,027	0,069	-0,133
-585,109	-175,983	-0,162	-0,003
-584,094	147,264	-0,058	0,057
-583,079	-200,000	-0,003	-0,055
-582,065	-200,000	0,016	0,062
-581,050	-200,000	0,018	0,063
-580,036	-200,000	-0,024	-0,083
-579,021	403,002	-0,051	-0,078
-578,006	800,000	-0,056	-0,154
-576,992	184,292	0,015	-0,016
-575,977	193,348	0,072	-0,079
-574,963	-1,127	0,084	0,043
-573,948	394,858	0,018	0,027
-572,934	800,000	-0,030	0,074
-571,919	-80,517	0,074	-0,018
-570,904	-200,000	0,020	-0,119
-569,890	50,130	-0,048	-0,033
-568,875	-99,147	-0,113	0,020
-567,861	-137,834	0,095	0,008
-566,846	262,176	-0,014	-0,017
-565,831	-200,000	0,009	0,029
-564,817	-200,000	-0,039	-0,130
-563,802	-20,638	-0,109	0,048
-562,788	-72,349	-0,090	0,024
-561,773	-142,375	0,127	-0,009
-560,758	546,283	0,102	-0,177
-559,744	-37,272	-0,055	-0,021
-558,729	-200,000	0,010	0,036
-557,715	-200,000	0,022	-0,123
-556,700	-200,000	-0,001	0,016
-555,685	-200,000	0,022	-0,172
-554,671	533,519	0,036	-0,062
-553,656	52,987	0,033	0,023
-552,642	-64,534	0,121	-0,035
-551,627	800,000	-0,070	-0,160
-550,612	-200,000	-0,022	-0,163
-549,598	-183,384	-0,234	-0,003
-548,583	-25,690	0,064	0,027
-547,569	-33,769	-0,063	-0,025
-546,554	800,000	-0,021	-0,050
-545,539	279,080	0,030	0,039
-544,525	-200,000	-0,002	0,115
-543,510	120,286	0,059	-0,053
-542,496	-89,778	-0,126	-0,026
-541,481	-200,000	-0,019	-0,114
-540,466	-49,749	-0,022	-0,007
-539,452	800,000	0,022	0,070
-538,437	-8,620	0,077	0,037
-537,423	427,584	-0,029	-0,045
-536,408	-39,507	0,009	-0,003
-535,393	-200,000	0,001	-0,019
-534,379	-170,929	-0,183	0,004
-533,364	-200,000	-0,001	0,028
-532,350	-81,852	0,155	0,036
-531,335	-80,534	0,153	0,036
-530,321	-122,442	0,093	-0,011
-529,306	92,768	-0,024	0,019
-528,291	263,050	0,071	0,089
-527,277	177,863	0,084	-0,088
-526,262	652,446	0,017	0,032
-525,248	-200,000	0,011	0,081
-524,233	491,224	-0,075	0,125
-523,218	287,180	-0,038	0,050
-522,204	-97,831	-0,042	-0,008
-521,189	-121,883	0,091	-0,011
-520,175	562,886	-0,066	-0,117
-519,160	-72,436	0,086	-0,023
-518,145	344,399	0,069	0,098
-517,131	-29,536	0,146	-0,060
-516,116	-126,092	0,067	0,007
-515,102	-200,000	-0,010	-0,076
-514,087	-31,086	-0,070	0,028
-513,072	-200,000	-0,003	-0,147
-512,058	-120,152	-0,109	-0,013
-511,043	22,888	0,064	0,038
-510,029	513,224	-0,033	-0,056
-509,014	307,419	0,034	0,046
-507,999	53,879	0,093	0,064
-506,985	0,931	-0,219	-0,113
-505,970	-200,000	-0,022	-0,159
-504,956	90,653	0,108	-0,087
-503,941	-200,000	-0,005	-0,091
-502,926	-21,984	-0,103	-0,045
-501,912	106,571	0,056	0,048
-500,897	-200,000	0,023	0,129
-499,883	-200,000	0,015	0,074
-498,868	-200,000	-0,021	-0,163
-497,853	64,122	-0,066	-0,048
-496,839	0,974	0,028	-0,015
-495,824	800,000	-0,061	-0,145
-494,810	-70,048	0,072	-0,020
-493,795	-200,000	-0,033	0,261
-492,781	-200,000	-0,015	0,103
-491,766	-21,778	0,034	-0,015
-490,751	-47,655	-0,098	0,034
-489,737	800,000	0,019	0,042
-488,722	-62,448	0,237	-0,070
-487,708	-64,638	0,146	0,042
-486,693	800,000	-0,036	0,083
-485,678	-200,000	-0,016	-0,088
-484,664	-200,000	0,003	-0,065
-483,649	-27,074	-0,145	-0,061
-482,635	478,160	0,067	0,110
-481,620	8,623	0,191	0,103
-480,605	103,973	-0,117	0,099
-479,591	-149,435	0,125	-0,007
-478,576	308,123	0,091	0,122
-477,562	589,662	-0,021	-0,037
-476,547	-200,000	-0,008	0,025
-475,532	800,000	0,021	-0,063
-474,518	22,671	0,042	-0,024
-473,503	-153,129	0,087	-0,004
-472,489	291,802	0,073	0,096
-471,474	299,945	-0,007	0,010
-470,459	-91,679	-0,211	-0,043
-469,445	-16,646	0,074	-0,033
-468,430	-200,000	0,002	-0,087
-467,416	293,429	0,022	-0,029
-466,401	175,657	0,095	-0,099
-465,386	-57,915	0,048	-0,015
-464,372	800,000	-0,021	0,055
-463,357	200,721	-0,076	-0,085
-462,343	122,429	-0,072	-0,065
-461,328	800,000	-0,070	-0,188
-460,313	-82,738	-0,121	0,028
-459,299	102,124	0,041	0,034
-458,284	-200,000	0,015	0,075
-457,270	-51,775	-0,049	0,016
-456,255	503,339	-0,028	-0,046
-455,241	172,060	-0,075	-0,078
-454,226	-200,000	-0,005	0,083
-453,211	-200,000	-0,025	-0,105
-452,197	-93,076	0,033	0,007
-451,182	-106,144	0,030	0,005
-450,168	-200,000	-0,013	0,151
-449,153	-86,321	0,052	-0,011
-448,138	-200,000	-0,007	-0,131
-447,124	725,758	0,085	-0,164
-446,109	537,002	-0,035	0,061
-445,095	728,008	0,023	0,045
-444,080	-200,000	-0,015	0,155
-443,065	379,902	-0,105	0,155
-442,051	588,785	-0,021	-0,038
-441,036	90,464	-0,039	-0,031
-440,022	-200,000	-0,006	0,095
-439,007	-200,000	0,024	0,088
-437,992	-200,000	0,003	-0,034
-436,978	-200,000	0,000	0,020
-435,963	-11,953	0,135	0,063
-434,949	800,000	-0,045	0,097
-433,934	-40,303	0,059	-0,022
-432,919	-88,431	-0,059	-0,013
-431,905	800,000	0,018	-0,045
-430,890	-22,589	0,039	-0,017
-429,876	-200,000	0,031	0,121
-428,861	1,440	0,087	0,045
-427,846	-66,541	0,041	-0,012
-426,832	-200,000	0,001	-0,009
-425,817	146,709	-0,122	0,118
-424,803	134,819	0,059	0,055
-423,788	-200,000	0,009	0,054
-422,773	414,406	0,026	-0,040
-421,759	-81,838	-0,145	0,034
-420,744	-200,000	-0,019	0,067
-419,730	-148,996	0,194	0,011
-418,715	25,476	-0,128	-0,076
-417,701	-200,000	-0,020	0,070
-416,686	538,572	-0,028	0,047
-415,671	-46,571	-0,091	0,032
-414,657	-200,000	0,007	0,088
-413,642	79,213	-0,180	-0,138
-412,628	555,902	-0,028	0,049
-411,613	169,810	0,056	-0,058
-410,598	7,628	-0,024	0,013
-409,584	800,000	0,008	-0,025
-408,569	-77,455	0,079	0,020
-407,555	-200,000	0,015	-0,067
-406,540	31,450	-0,073	-0,045
-405,525	59,419	-0,104	-0,074
-404,511	194,835	0,072	-0,079
-403,496	-200,000	-0,035	-0,195
-402,482	-200,000	-0,015	-0,057
-401,467	800,000	0,024	0,065
-400,452	800,000	0,035	0,108
-399,438	-200,000	0,024	0,145
-398,423	518,892	-0,060	0,102
-397,409	-200,000	-0,066	-0,209
-396,394	800,000	0,113	-0,229
-395,379	-26,740	-0,037	0,016
-394,365	10,185	0,117	0,064
-393,350	-200,000	0,007	0,070
-392,336	800,000	0,048	-0,128
-391,321	-102,295	-0,133	-0,023
-390,306	-200,000	-0,019	-0,082
-389,292	-200,000	-0,017	0,082
-388,277	-200,000	-0,007	0,071
-387,263	-135,158	-0,032	-0,003
-386,248	800,000	0,036	0,074
-385,233	-200,000	-0,023	0,127
-384,219	636,740	0,037	0,068
-383,204	-200,000	0,008	-0,032
-382,190	-80,527	0,113	-0,027
-381,175	-200,000	-0,023	-0,206
-380,160	148,087	0,064	-0,062
-379,146	800,000	-0,055	0,120
-378,131	-86,050	0,138	-0,030
-377,117	639,297	-0,121	0,222
-376,102	21,389	0,104	-0,061
-375,088	77,996	-0,035	-0,027
-374,073	-2,751	0,167	-0,083
-373,058	227,957	0,098	0,115
-372,044	-80,391	0,071	-0,017
-371,029	-66,138	0,066	-0,019
-370,015	-200,000	0,043	0,203
-369,000	-68,127	-0,124	0,034
-367,985	-48,785	0,026	0,009
-366,971	800,000	-0,041	0,126
-365,956	-200,000	0,001	-0,035
-364,942	-51,645	0,075	0,025
-363,927	-200,000	-0,011	0,100
-362,912	-200,000	0,006	0,047
-361,898	-190,148	-0,039	0,000
-360,883	-200,000	0,004	-0,016
-359,869	-200,000	0,020	-0,065
-358,854	-94,950	0,106	-0,020
-357,839	-200,000	0,016	0,070
-356,825	108,235	-0,029	0,025
-355,810	-136,880	-0,061	0,005
-354,796	-91,148	0,102	-0,021
-353,781	114,545	-0,128	-0,112
-352,766	-89,287	-0,168	-0,035
-351,752	800,000	0,021	0,054
-350,737	-103,711	-0,077	0,013
-349,723	-200,000	-0,007	0,048
-348,708	-25,280	0,129	-0,054
-347,693	54,081	-0,044	0,030
-346,679	-200,000	-0,007	-0,054
-345,664	-200,000	0,012	0,041
-344,650	7,712	0,019	0,010
-343,635	105,144	-0,037	0,031
-342,620	250,796	-0,071	0,087
-341,606	-200,000	-0,038	0,151
-340,591	-200,000	0,004	0,041
-339,577	800,000	0,022	-0,064
-338,562	-200,000	-0,033	-0,109
-337,548	-200,000	0,036	0,163
-336,533	119,569	0,091	0,080
-335,518	800,000	-0,009	0,026
-334,504	800,000	-0,049	-0,123
-333,489	168,191	-0,076	0,078
-332,475	-71,089	-0,091	0,024
-331,460	67,865	-0,094	-0,069
-330,445	-200,000	-0,016	-0,177
-329,431	287,217	0,018	0,023
-328,416	209,592	0,086	0,096
-327,402	-72,515	-0,090	0,024
-326,387	439,985	-0,035	-0,055
-325,372	-139,960	-0,122	0,009
-324,358	107,953	0,035	-0,030
-323,343	-118,421	-0,113	0,014
-322,329	71,643	0,057	0,042
-321,314	-144,895	0,226	-0,015
-320,299	324,968	-0,013	0,018
-319,285	91,831	0,096	0,077
-318,270	-200,000	0,016	-0,198
-317,256	-200,000	-0,011	-0,136
-316,241	-200,000	0,004	-0,075
-315,226	-69,314	0,130	0,036
-314,212	-94,295	-0,050	0,010
-313,197	-88,502	0,028	0,006
-312,183	223,911	-0,099	0,115
-311,168	-200,000	0,015	0,056
-310,153	-200,000	0,038	-0,160
-309,139	317,093	-0,058	-0,078
-308,124	-200,000	-0,007	-0,025
-307,110	151,141	0,108	0,105
-306,095	-151,975	0,132	-0,007
-305,080	-54,647	0,033	0,010
-304,066	-200,000	0,001	-0,020
-303,051	-200,000	0,016	-0,182
-302,037	800,000	-0,043	-0,114
-301,022	-44,865	0,132	-0,047
-300,008	381,779	0,040	0,060
-298,993	680,223	0,073	0,136
-297,978	-81,464	-0,073	0,017
-296,964	-90,163	-0,162	-0,033
-295,949	29,718	0,038	-0,023
-294,935	-24,370	-0,022	-0,010
-293,920	-146,545	-0,066	0,004
-292,905	584,797	0,051	0,090
-291,891	-200,000	0,019	0,136
-290,876	39,829	0,110	-0,071
-289,862	-200,000	0,008	-0,035
-288,847	-79,313	-0,113	-0,027
-287,832	408,444	-0,061	-0,093
-286,818	4,894	0,039	0,021
-285,803	576,895	0,090	0,158
-284,789	47,603	-0,031	0,020
-283,774	339,814	0,052	-0,073
-282,759	-200,000	0,000	0,147
-281,745	-64,841	0,087	0,025
-280,730	-200,000	-0,017	-0,120
-279,716	-20,790	0,123	-0,054
-278,701	439,409	-0,047	-0,074
-277,686	-66,300	0,136	0,038
-276,672	208,532	0,060	-0,067
-275,657	-180,199	-0,048	-0,001
-274,643	150,303	-0,047	0,045
-273,628	-34,537	-0,081	-0,032
-272,613	-200,000	0,020	-0,071
-271,599	-200,000	0,005	0,060
-270,584	-161,987	0,059	-0,002
-269,570	-192,801	0,059	0,000
-268,555	-123,383	-0,136	-0,015
-267,540	363,151	0,033	0,047
-266,526	748,484	-0,073	-0,141
-265,511	447,436	0,098	0,154
-264,497	-200,000	-0,009	0,089
-263,482	-200,000	0,074	0,273
-262,467	197,941	0,094	0,103
-261,453	-200,000	-0,012	0,146
-260,438	-112,520	-0,099	-0,014
-259,424	-97,164	0,040	0,007
-258,409	-200,000	-0,009	0,127
-257,395	-69,029	0,267	0,073
-256,380	375,751	-0,048	0,071
-255,365	800,000	0,026	0,078
-254,351	458,551	-0,028	0,044
-253,336	177,107	-0,059	0,061
-252,322	800,000	-0,019	-0,050
-251,307	800,000	0,007	0,018
-250,292	-64,003	-0,080	0,023
-249,278	16,824	0,135	0,076
-248,263	627,866	0,024	0,043
-247,249	-177,508	-0,092	-0,002
-246,234	206,183	0,040	0,045
-245,219	-147,484	-0,035	0,002
-244,205	160,177	0,140	-0,140
-243,190	-168,396	-0,070	0,002
-242,176	-43,896	0,061	-0,022
-241,161	-200,000	-0,022	0,184
-240,146	306,071	-0,054	0,072
-239,132	139,432	0,044	-0,041
-238,117	-63,481	-0,081	-0,023
-237,103	-200,000	-0,033	0,113
-236,088	-200,000	0,007	-0,111
-235,073	21,973	0,143	-0,083
-234,059	-200,000	0,005	0,037
-233,044	800,000	0,024	0,070
-232,030	-200,000	0,000	0,090
-231,015	-166,337	0,020	-0,001
-230,000	588,716	-0,050	0,088
-228,986	-200,000	0,026	-0,147
-227,971	-46,553	0,093	0,032
-226,957	800,000	0,050	0,114
-225,942	800,000	-0,059	0,178
-224,927	-91,700	-0,202	-0,041
-223,913	-143,318	-0,042	-0,003
-222,898	-190,793	0,111	-0,001
-221,884	224,907	0,007	-0,008
-220,869	439,451	-0,092	0,144
-219,855	338,534	0,018	0,026
-218,840	-200,000	0,032	0,106
-217,825	-200,000	-0,015	-0,061
-216,811	800,000	-0,077	-0,216
-215,796	607,732	0,041	0,072
-214,782	-1,123	-0,063	-0,032
-213,767	165,786	-0,061	0,062
-212,752	800,000	0,013	0,027
-211,738	-200,000	0,004	0,058
-210,723	-1,686	-0,082	0,041
-209,709	800,000	0,035	-0,070
-208,694	-113,924	0,060	-0,008
-207,679	204,162	-0,105	-0,116
-206,665	74,596	0,088	-0,066
-205,650	7,327	0,102	0,054
-204,636	-200,000	-0,014	-0,120
-203,621	-200,000	0,037	0,157
-202,606	-71,240	-0,206	0,055
-201,592	800,000	0,009	-0,026
-200,577	-200,000	-0,011	0,087
-199,563	441,733	0,070	-0,109
-198,548	188,901	0,051	0,055
-197,533	800,000	-0,032	0,063
-196,519	-200,000	0,002	-0,068
-195,504	505,430	-0,038	0,063
-194,490	800,000	-0,034	-0,071
-193,475	-200,000	0,008	-0,148
-192,460	122,488	-0,156	0,139
-191,446	-200,000	-0,005	0,074
-190,431	800,000	-0,029	-0,068
-189,417	800,000	-0,026	-0,080
-188,402	-125,389	-0,112	0,012
-187,387	-200,000	0,015	-0,073
-186,373	800,000	0,010	0,024
-185,358	-171,128	-0,070	-0,002
-184,344	-110,018	0,099	-0,015
-183,329	307,658	0,065	-0,087
-182,315	12,389	0,094	0,051
-181,300	-87,884	-0,138	-0,029
-180,285	-153,213	-0,162	0,008
-179,271	800,000	0,058	-0,155
-178,256	-101,773	0,045	-0,008
-177,242	108,149	-0,032	-0,028
-176,227	-200,000	0,035	-0,126
-175,212	228,152	-0,112	0,130
-174,198	-76,550	-0,071	-0,018
-173,183	-169,316	-0,190	-0,005
-172,169	-200,000	-0,017	-0,114
-171,154	-39,483	0,027	-0,010
-170,139	65,461	0,052	-0,038
-169,125	-200,000	0,017	0,123
-168,110	20,973	0,046	0,027
-167,096	-7,974	0,124	0,059
-166,081	-32,637	-0,089	-0,035
-165,066	-100,163	-0,118	-0,021
-164,052	338,836	-0,077	-0,107
-163,037	-118,891	0,060	-0,007
-162,023	28,344	0,057	-0,034
-161,008	-68,894	0,156	0,042
-159,993	-53,985	-0,048	0,015
-158,979	725,933	-0,051	0,097
-157,964	-200,000	0,043	-0,173
-156,950	-200,000	-0,016	-0,102
-155,935	119,243	-0,065	-0,057
-154,920	175,739	0,053	-0,055
-153,906	-200,000	-0,021	0,079
-152,891	-200,000	-0,031	0,146
-151,877	-22,625	-0,067	0,029
-150,862	454,902	-0,075	-0,119
-149,847	-83,227	-0,047	-0,011
-148,833	-200,000	-0,009	-0,118
-147,818	136,497	-0,067	-0,062
-146,804	-200,000	0,010	0,079
-145,789	-13,726	0,075	0,034
-144,775	-41,283	-0,111	-0,040
-143,760	622,698	0,040	-0,072
-142,745	-200,000	0,001	-0,154
-141,731	-103,603	-0,050	-0,008
-140,716	19,169	0,168	-0,095
-139,702	-200,000	-0,012	-0,069
-138,687	69,628	0,056	-0,041
-137,672	800,000	-0,035	-0,082
-136,658	800,000	-0,086	-0,234
-135,643	282,845	0,074	-0,094
-134,629	137,409	-0,079	-0,074
-133,614	-200,000	0,003	-0,034
-132,599	594,483	0,064	-0,112
-131,585	56,405	-0,116	-0,080
-130,570	-200,000	-0,033	-0,126
-129,556	232,023	-0,083	-0,096
-128,541	177,307	0,023	0,024
-127,526	42,795	-0,081	0,052
-126,512	-24,898	0,035	0,015
-125,497	-200,000	-0,032	0,205
-124,483	-130,233	0,046	0,004
-123,468	-200,000	0,022	0,081
-122,453	-200,000	0,024	0,151
-121,439	57,905	-0,053	-0,037
-120,424	-132,852	-0,246	-0,022
-119,410	121,270	0,052	-0,046
-118,395	82,481	0,040	-0,031
-117,380	-200,000	0,024	0,081
-116,366	-200,000	-0,010	-0,094
-115,351	-70,608	-0,050	-0,013
-114,337	19,458	-0,074	0,042
-113,322	-108,999	-0,054	-0,008
-112,307	-200,000	-0,010	-0,035
-111,293	143,620	0,132	0,124
-110,278	330,021	0,041	0,057
-109,264	46,704	-0,070	0,046
-108,249	427,968	-0,046	-0,071
-107,234	23,425	0,127	0,074
-106,220	89,249	-0,020	-0,016
-105,205	-80,985	0,042	-0,010
-104,191	130,345	0,042	0,038
-103,176	34,411	0,142	0,088
-102,162	542,834	0,024	0,041
-101,147	169,200	0,098	0,099
-100,132	-200,000	0,016	-0,071
-99,118	-59,621	-0,091	-0,027
-98,103	231,157	-0,016	-0,019
-97,089	-200,000	-0,007	-0,046
-96,074	345,122	0,057	-0,080
-95,059	-200,000	0,026	0,110
-94,045	142,904	0,034	-0,032
-93,030	-200,000	-0,014	-0,085
-92,016	-180,277	0,128	-0,002
-91,001	-179,599	0,060	0,001
-89,986	-200,000	-0,012	0,090
-88,972	-55,119	-0,083	0,026
-87,957	146,506	0,113	0,108
-86,943	-101,122	0,127	0,022
-85,928	-47,781	-0,094	-0,032
-84,913	211,880	0,100	-0,111
-83,899	58,945	0,089	0,062
-82,884	335,771	0,073	0,100
-81,870	800,000	0,017	0,042
-80,855	344,111	0,078	0,108
-79,840	214,389	-0,026	-0,030
-78,826	393,065	-0,041	-0,061
-77,811	-200,000	0,009	-0,084
-76,797	638,594	0,006	-0,010
-75,782	572,044	-0,053	0,091
-74,767	-200,000	-0,007	0,125
-73,753	-59,797	-0,032	-0,010
-72,738	-128,588	-0,135	0,013
-71,724	-86,601	0,070	0,015
-70,709	-35,495	-0,047	0,018
-69,694	-43,735	-0,039	-0,014
-68,680	123,052	-0,016	-0,015
-67,665	660,841	0,020	0,036
-66,651	98,791	-0,124	0,102
-65,636	205,956	-0,037	0,040
-64,622	320,135	0,034	-0,046
-63,607	-200,000	-0,036	0,121
-62,592	409,113	-0,057	0,086
-61,578	-52,771	-0,068	-0,022
-60,563	800,000	-0,025	0,064
-59,549	-200,000	0,024	0,130
-58,534	-33,722	-1,701	-0,661
-57,519	364,699	-1,423	-2,035
-56,505	-200,000	-0,577	-4,583
-55,490	274,441	1,042	1,309
-54,476	800,000	4,906	11,271
-53,461	-200,000	19,333	321,489
-52,446	-200,000	742,380	2334,892
-51,432	571,358	1656,918	2868,093
-50,417	78,054	1671,968	1261,600
-49,403	21,151	1544,908	885,576
-48,388	15,083	1467,225	811,513
-47,373	18,062	1457,529	820,526
-46,359	16,704	1447,416	808,281
-45,344	13,302	1442,738	789,328
-44,330	13,195	1440,965	787,811
-43,315	13,232	1439,157	786,970
-42,300	13,229	1437,504	786,018
-41,286	13,254	1436,141	785,362
-40,271	13,252	1434,803	784,590
-39,257	13,218	1433,618	783,747
-38,242	13,240	1432,474	783,196
-37,227	13,265	1431,087	782,525
-36,213	13,243	1429,791	781,682
-35,198	13,299	1428,795	781,374
-34,184	13,330	1427,689	780,886
-33,169	13,290	1426,213	779,855
-32,154	13,294	1425,190	779,286
-31,140	13,326	1423,982	778,747
-30,125	13,306	1422,810	777,980
-29,111	13,301	1421,817	777,383
-28,096	13,296	1420,472	776,594
-27,082	13,218	1419,671	775,757
-26,067	13,187	1418,492	774,936
-25,052	13,213	1417,508	774,488
-24,038	13,211	1416,534	773,914
-23,023	13,224	1415,165	773,199
-22,009	13,196	1414,381	772,609
-20,994	13,175	1413,330	771,902
-19,979	13,153	1412,568	771,354
-18,965	13,156	1411,554	770,784
-17,950	13,155	1410,701	770,282
-16,936	13,176	1409,907	769,918
-15,921	13,112	1408,688	768,922
-14,906	13,063	1407,792	768,171
-13,892	13,149	1406,752	767,976
-12,877	13,114	1406,077	767,416
-11,863	13,146	1404,828	766,852
-10,848	13,111	1404,090	766,252
-9,833	13,111	1403,313	765,799
-8,819	13,033	1402,508	764,968
-7,804	13,022	1401,648	764,414
-6,790	13,028	1400,407	763,736
-5,775	13,044	1399,422	763,242
-4,760	13,056	1398,373	762,698
-3,746	13,011	1397,639	762,057
-2,731	13,036	1396,813	761,693
-1,717	12,980	1395,923	760,917
-0,702	12,984	1394,269	760,004
0,313	16,885	1310,420	732,364
1,327	33,187	703,504	430,846
2,342	51,305	123,297	82,697
3,356	3,922	16,688	8,603
4,371	13,885	3,267	1,793
5,386	-26,945	0,520	0,214
6,400	800,000	0,118	0,336
7,415	302,445	-0,172	-0,226
8,429	21,098	-0,313	-0,179
9,444	-7,716	-0,315	-0,150
10,459	-103,171	-0,416	-0,069
11,473	-32,824	-0,305	-0,119
12,488	126,293	-0,229	-0,205
13,502	-64,481	-0,300	-0,086
14,517	84,242	-0,369	-0,285
15,531	414,448	-0,226	-0,341
16,546	98,333	-0,319	-0,260
17,561	68,713	-0,460	-0,333
18,575	-1,864	-0,100	-0,049
19,590	449,863	-0,223	-0,349
20,604	89,132	-0,237	-0,186
21,619	22,479	-0,417	-0,240
22,634	126,170	-0,380	-0,339
23,648	15,705	-0,371	-0,206
24,663	145,687	-0,377	-0,357
25,677	88,236	-0,416	-0,326
26,692	162,312	-0,309	-0,306
27,707	150,098	-0,340	-0,325
28,721	-31,723	-0,475	-0,187
29,736	174,868	-0,353	-0,361
30,750	65,422	-0,379	-0,270
31,765	123,499	-0,363	-0,321
32,780	66,857	-0,301	-0,216
33,794	6,447	-0,286	-0,150
34,809	146,833	-0,288	-0,273
35,823	77,341	-0,306	-0,229
36,838	72,731	-0,308	-0,226
37,853	19,995	-0,336	-0,191
38,867	111,000	-0,396	-0,336
39,882	34,003	-0,446	-0,274
40,896	178,586	-0,289	-0,298
41,911	25,906	-0,390	-0,229
42,926	93,733	-0,352	-0,281
43,940	143,854	-0,280	-0,263
44,955	33,063	-0,424	-0,259
45,969	177,669	-0,339	-0,349
46,984	7,952	-0,395	-0,208
47,999	88,751	-0,242	-0,189
49,013	0,633	-0,314	-0,158
50,028	84,117	-0,291	-0,224
51,042	24,179	-0,360	-0,209
52,057	337,173	-0,290	-0,398
53,071	246,026	-0,283	-0,337
54,086	59,229	-0,316	-0,219
55,101	170,040	-0,217	-0,219
56,115	159,188	-0,255	-0,250
57,130	-21,096	-0,421	-0,181
58,144	40,068	-0,321	-0,203
59,159	58,836	-0,389	-0,269
60,174	52,373	-0,369	-0,247
61,188	50,755	-0,304	-0,202
62,203	5,136	-0,458	-0,237
63,217	-54,955	-0,420	-0,132
64,232	800,000	-0,152	-0,315
65,247	38,994	-0,381	-0,239
66,261	-93,932	-0,399	-0,077
67,276	62,667	-0,400	-0,281
68,290	18,943	-0,418	-0,235
69,305	-55,819	-0,380	-0,119
70,320	38,218	-0,344	-0,215
71,334	-21,756	-0,158	-0,067
72,349	-13,570	-0,263	-0,119
73,363	24,145	-0,439	-0,254
74,378	235,207	-0,201	-0,234
75,393	27,980	-0,352	-0,208
76,407	344,735	-0,163	-0,226
77,422	165,151	-0,284	-0,282
78,436	4,807	-0,268	-0,138
79,451	25,089	-0,295	-0,172
80,466	82,377	-0,314	-0,239
81,480	63,075	-0,372	-0,261
82,495	5,592	-0,310	-0,160
83,509	78,459	-0,264	-0,198
84,524	36,791	-0,201	-0,125
85,539	55,065	-0,275	-0,186
86,553	-116,600	-0,373	-0,048
87,568	-6,953	-0,288	-0,137
88,582	374,912	-0,187	-0,269
89,597	661,203	-0,231	-0,420
90,611	-4,235	-0,247	-0,119
91,626	-28,042	-0,374	-0,151
92,641	17,609	-0,363	-0,202
93,655	-28,159	-0,341	-0,138
94,670	36,936	-0,231	-0,143
95,684	117,780	-0,282	-0,244
96,699	60,588	-0,299	-0,207
97,714	-35,931	-0,299	-0,113
98,728	12,271	-0,197	-0,106
99,743	228,526	-0,223	-0,255
100,757	84,915	-0,327	-0,251
101,772	66,871	-0,129	-0,092
102,787	42,704	-0,205	-0,130
103,801	107,019	-0,207	-0,172
104,816	30,740	-0,160	-0,096
105,830	-79,035	-0,286	-0,068
106,845	106,450	-0,244	-0,203
107,860	-51,825	-0,319	-0,104
108,874	75,792	-0,177	-0,131
109,889	37,746	-0,419	-0,261
110,903	-3,240	-0,224	-0,109
111,918	6,083	-0,362	-0,187
112,933	-6,316	-0,384	-0,183
113,947	197,794	-0,257	-0,275
114,962	98,903	-0,139	-0,112
115,976	-31,114	-0,316	-0,124
116,991	212,013	-0,203	-0,225
118,006	658,887	-0,204	-0,369
119,020	37,992	-0,385	-0,239
120,035	-71,035	-0,235	-0,061
121,049	103,328	-0,166	-0,137
122,064	501,689	-0,123	-0,199
123,079	87,507	-0,193	-0,149
124,093	157,259	-0,305	-0,296
125,108	124,706	-0,246	-0,217
126,122	324,307	-0,155	-0,207
127,137	366,843	-0,194	-0,274
128,151	-188,692	-0,188	-0,002
129,166	800,000	-0,122	-0,250
130,181	22,957	-0,289	-0,165
131,195	-51,430	-0,337	-0,110
132,210	-87,921	-0,266	-0,056
133,224	181,364	-0,234	-0,240
134,239	180,552	-0,208	-0,214
135,254	155,055	-0,215	-0,207
136,268	-23,087	-0,248	-0,104
137,283	-86,438	-0,299	-0,064
138,297	20,632	-0,210	-0,118
139,312	-41,607	-0,315	-0,113
140,327	800,000	-0,070	-0,183
141,341	176,205	-0,189	-0,192
142,356	91,588	-0,243	-0,191
143,370	87,278	-0,221	-0,171
144,385	-3,952	-0,217	-0,105
145,400	88,307	-0,382	-0,297
146,414	73,033	-0,108	-0,078
147,429	-57,221	-0,244	-0,075
148,443	9,060	-0,247	-0,130
149,458	-104,856	-0,296	-0,047
150,473	-19,855	-0,279	-0,120
151,487	-57,689	-0,205	-0,062
152,502	10,390	-0,310	-0,164
153,516	87,296	-0,180	-0,139
154,531	67,459	-0,209	-0,149
155,546	-200,000	-0,021	-0,229
156,560	102,410	-0,240	-0,196
157,575	43,561	-0,338	-0,215
158,589	669,498	-0,130	-0,235
159,604	32,330	-0,232	-0,140
160,619	391,491	-0,152	-0,220
161,633	406,642	-0,153	-0,226
162,648	58,769	-0,303	-0,207
163,662	164,717	-0,163	-0,161
164,677	16,978	-0,308	-0,170
165,692	-150,820	-0,195	-0,010
166,706	94,045	-0,161	-0,127
167,721	15,926	-0,253	-0,138
168,735	173,379	-0,233	-0,235
169,750	-137,696	-0,322	-0,025
170,764	-83,929	-0,173	-0,038
171,779	-200,000	-0,185	0,000
172,794	-126,407	-0,261	0,027
173,808	191,002	-0,160	-0,168
174,823	410,711	-0,216	-0,320
175,837	-26,335	-0,241	-0,098
176,852	85,160	-0,265	-0,202
177,867	83,198	-0,283	-0,215
178,881	243,844	-0,236	-0,277
179,896	-80,922	-0,133	-0,031
180,910	28,722	-0,194	-0,114
181,925	166,678	-0,177	-0,175
182,940	69,472	-0,226	-0,162
183,954	23,553	-0,331	-0,189
184,969	2,699	-0,257	-0,129
185,983	800,000	-0,084	-0,225
186,998	-15,813	-0,190	-0,084
188,013	75,680	-0,208	-0,153
189,027	800,000	-0,062	-0,128
190,042	49,522	-0,320	-0,209
191,056	49,200	-0,233	-0,152
192,071	75,088	-0,290	-0,213
193,086	241,421	-0,215	-0,250
194,100	-107,291	-0,285	-0,043
195,115	72,657	-0,272	-0,197
196,129	181,428	-0,198	-0,202
197,144	129,925	-0,210	-0,187
198,159	172,912	-0,312	-0,313
199,173	133,357	-0,168	-0,151
200,188	370,615	-0,157	-0,221
201,202	93,129	-0,168	-0,132
202,217	781,969	-0,138	-0,265
203,232	71,477	-0,256	-0,185
204,246	401,602	-0,141	-0,206
205,261	-3,877	-0,357	-0,171
206,275	202,836	-0,227	-0,244
207,290	-22,957	-0,274	-0,114
208,304	116,545	-0,257	-0,219
209,319	800,000	-0,122	-0,263
210,334	366,214	-0,185	-0,259
211,348	150,052	-0,299	-0,282
212,363	-6,714	-0,208	-0,098
213,377	800,000	-0,104	-0,218
214,392	-167,243	-0,224	-0,006
215,407	59,162	-0,141	-0,096
216,421	4,345	-0,264	-0,134
217,436	266,893	-0,196	-0,238
218,450	74,151	-0,195	-0,142
219,465	269,546	-0,196	-0,239
220,480	203,498	-0,240	-0,258
221,494	-94,690	-0,141	-0,026
222,509	12,259	-0,235	-0,125
223,523	357,678	-0,134	-0,187
224,538	547,369	-0,185	-0,308
225,553	-19,150	-0,180	-0,077
226,567	-48,800	-0,163	-0,054
227,582	-81,171	-0,235	-0,053
228,596	-24,187	-0,236	-0,097
229,611	-12,620	-0,113	-0,051
230,626	79,799	-0,151	-0,112
231,640	125,806	-0,127	-0,111
232,655	211,552	-0,075	-0,082
233,669	349,763	-0,124	-0,171
234,684	-16,429	-0,332	-0,145
235,699	-76,322	-0,268	-0,065
236,713	76,756	-0,221	-0,162
237,728	-183,845	-0,270	-0,003
238,742	6,324	-0,253	-0,130
239,757	800,000	-0,120	-0,275
240,772	137,809	-0,181	-0,165
241,786	800,000	-0,093	-0,232
242,801	353,391	-0,185	-0,256
243,815	107,280	-0,203	-0,167
244,830	-108,614	-0,216	-0,032
245,844	135,996	-0,143	-0,129
246,859	9,660	-0,253	-0,133
247,874	240,781	-0,249	-0,289
248,888	800,000	-0,137	-0,265
249,903	101,437	-0,227	-0,183
250,917	-81,990	-0,172	0,039
251,932	800,000	-0,120	-0,298
252,947	-78,383	-0,088	-0,021
253,961	-26,444	-0,177	-0,072
254,976	-23,152	-0,244	-0,101
255,990	800,000	-0,100	-0,249
257,005	95,270	-0,216	-0,170
258,020	546,715	-0,040	-0,066
259,034	-90,041	-0,328	-0,066
260,049	85,952	-0,213	-0,162
261,063	179,821	-0,152	-0,154
262,078	-11,902	-0,151	-0,068
263,093	89,381	-0,148	-0,114
264,107	3,135	-0,259	-0,130
265,122	37,139	-0,118	-0,072
266,136	228,001	-0,101	-0,114
267,151	800,000	-0,077	-0,181
268,166	14,422	-0,153	-0,082
269,180	262,447	-0,180	-0,217
270,195	174,494	-0,136	-0,136
271,209	-18,684	-0,300	-0,129
272,224	139,759	-0,135	-0,123
273,239	-102,860	-0,141	0,023
274,253	-35,312	-0,087	-0,032
275,268	4,043	-0,157	-0,079
276,282	369,507	-0,126	-0,177
277,297	30,310	-0,219	-0,129
278,312	205,476	-0,142	-0,153
279,326	381,551	-0,118	-0,167
280,341	226,724	-0,149	-0,167
281,355	-108,601	-0,150	-0,022
282,370	107,246	-0,184	-0,151
283,384	21,101	-0,145	-0,081
284,399	-111,645	-0,202	-0,028
285,414	217,938	-0,150	-0,165
286,428	-33,987	-0,180	-0,068
287,443	29,100	-0,083	0,049
288,457	-19,158	-0,178	-0,076
289,472	50,940	-0,141	-0,092
290,487	-26,888	-0,249	-0,100
291,501	125,847	-0,110	-0,096
292,516	173,596	-0,204	-0,203
293,530	156,614	-0,128	-0,122
294,545	72,991	-0,154	-0,111
295,560	-117,616	-0,083	0,010
296,574	33,609	-0,177	-0,106
297,589	-108,795	-0,145	-0,021
298,603	144,284	-0,147	-0,135
299,618	-200,000	-0,007	-0,079
300,633	107,916	-0,147	-0,121
301,647	-88,056	-0,180	-0,037
302,662	-85,856	-0,112	0,024
303,676	-41,900	-0,163	-0,057
304,691	800,000	-0,125	-0,251
305,706	-200,000	-0,006	-0,061
306,720	37,101	-0,237	-0,144
307,735	-129,743	-0,092	-0,009
308,749	257,147	-0,106	-0,126
309,764	212,985	-0,092	-0,100
310,779	145,871	-0,132	-0,122
311,793	142,619	-0,092	-0,084
312,808	-67,018	-0,239	-0,064
313,822	188,440	-0,094	-0,097
314,837	-200,000	0,002	0,008
315,852	-52,023	-0,121	0,038
316,866	-44,724	-0,152	-0,052
317,881	13,623	-0,133	-0,071
318,895	615,609	-0,059	-0,102
319,910	55,878	-0,209	-0,140
320,925	150,909	-0,174	-0,163
321,939	-146,044	-0,088	0,005
322,954	413,682	-0,155	-0,227
323,968	800,000	-0,098	-0,234
324,983	800,000	-0,060	0,128
325,997	197,146	-0,123	-0,129
327,012	183,214	-0,125	-0,127
328,027	583,328	-0,119	-0,202
329,041	208,416	-0,170	-0,183
330,056	108,280	-0,200	-0,164
331,070	800,000	-0,044	-0,092
332,085	136,557	-0,081	-0,073
333,100	-37,208	-0,200	-0,073
334,114	-118,718	-0,202	-0,024
335,129	16,038	-0,204	-0,110
336,143	-44,599	-0,035	0,012
337,158	-1,921	-0,140	-0,067
338,173	-200,000	-0,015	-0,137
339,187	53,490	-0,161	-0,106
340,202	151,532	-0,226	-0,212
341,216	-200,000	-0,041	-0,221
342,231	270,712	-0,146	-0,177
343,246	27,651	-0,129	-0,074
344,260	800,000	-0,049	-0,109
345,275	800,000	-0,057	-0,135
346,289	-50,759	-0,176	-0,056
347,304	-131,755	-0,184	0,016
348,319	164,996	-0,088	-0,085
349,333	800,000	-0,062	-0,174
350,348	769,596	-0,072	-0,134
351,362	29,139	-0,141	-0,082
352,377	800,000	0,053	-0,110
353,392	-103,325	-0,100	0,016
354,406	45,717	-0,062	-0,039
355,421	209,150	1313,920	1413,506
356,435	160,961	1474,533	1413,993
