DTS Sentinel unit serial number:	SN410029Multiplexer serial number:	ORYXHardware model number:	OX2-SRSoftware version number:	ORYX F/W v4,00 Oryx Data Collector v3.7.2.0data status	okinstallation	B3 Nyhavnadifferential loss correction	single-endedforward channel	channel 1reverse channel	N/Adate	2023/12/02time	02:32:30forward acquisition time	300,00reverse acquisition time	0,00gamma	499,1914k internal	0,3194k external	0,3194temperature offset calibration	1,0000default loss term (dB/km)	0,3820temperature slope calibration	1,0000multiplexer offset coefficient	1,0000multiplexer slope coefficient	1,0000fibre end	0,00T internal ref (°C)	16,65T ext. ref 1 (°C)	1,85T ext. ref 2 (°C)	1,85length (m)	temperature (°C)	Stokes	anti-Stokes-744,400	175,696	-0,255	-0,269
-743,385	-200,000	0,050	0,264
-742,371	468,724	-0,198	-0,326
-741,356	-200,000	0,115	0,440
-740,342	199,185	-0,198	-0,222
-739,327	-200,000	-0,009	0,256
-738,312	120,728	-0,206	-0,187
-737,298	-200,000	0,066	0,238
-736,283	149,170	-0,245	-0,242
-735,269	800,000	0,135	0,325
-734,254	94,000	-0,195	-0,161
-733,239	-200,000	-0,050	0,212
-732,225	175,374	-0,113	-0,119
-731,210	151,914	0,186	0,185
-730,196	-152,362	-0,067	-0,003
-729,181	-110,944	-0,119	0,018
-728,167	-150,504	-0,076	-0,004
-727,152	-70,102	-0,051	0,014
-726,137	-9,737	-0,155	-0,075
-725,123	717,303	-0,012	-0,022
-724,108	-83,819	0,007	0,002
-723,094	-158,640	-0,163	0,007
-722,079	-127,165	-0,176	-0,019
-721,064	-66,026	-0,089	0,026
-720,050	222,177	-0,056	-0,065
-719,035	63,279	0,050	-0,037
-718,021	190,552	-0,070	0,076
-717,006	-156,307	-0,123	-0,006
-715,991	-200,000	-0,002	-0,051
-714,977	-129,901	-0,135	-0,013
-713,962	337,265	0,042	-0,059
-712,948	562,267	-0,050	0,088
-711,933	-200,000	0,007	0,025
-710,918	-108,280	-0,140	0,022
-709,904	-5,513	-0,062	-0,031
-708,889	99,968	-0,149	-0,126
-707,875	97,613	-0,047	-0,039
-706,860	-200,000	0,014	-0,058
-705,845	-200,000	-0,002	0,091
-704,831	-200,000	0,017	0,055
-703,816	145,093	-0,085	-0,083
-702,802	118,430	0,113	-0,101
-701,787	570,614	0,030	0,054
-700,772	5,466	-0,124	-0,066
-699,758	-200,000	-0,028	-0,117
-698,743	354,190	-0,011	-0,017
-697,729	-92,778	0,072	0,014
-696,714	73,594	0,057	-0,044
-695,699	-200,000	-0,018	-0,134
-694,685	-200,000	-0,014	-0,104
-693,670	-69,818	0,137	0,038
-692,656	-172,204	-0,127	0,003
-691,641	-200,000	0,001	-0,091
-690,627	27,924	-0,131	0,080
-689,612	378,284	-0,093	0,139
-688,597	-200,000	-0,001	0,048
-687,583	236,684	-0,038	0,046
-686,568	-63,538	-0,146	0,043
-685,554	-200,000	-0,003	-0,066
-684,539	-200,000	0,025	0,166
-683,524	800,000	-0,036	0,075
-682,510	-200,000	-0,010	0,068
-681,495	800,000	-0,025	-0,051
-680,481	-200,000	0,010	-0,056
-679,466	-65,942	0,071	-0,021
-678,451	-200,000	-0,026	-0,089
-677,437	-192,267	0,079	-0,001
-676,422	6,717	-0,062	0,034
-675,408	800,000	0,024	-0,061
-674,393	126,906	0,034	-0,031
-673,378	469,346	0,033	0,053
-672,364	-33,359	0,047	-0,019
-671,349	-200,000	0,012	-0,045
-670,335	381,719	0,042	-0,063
-669,320	-200,000	-0,007	0,037
-668,305	-59,118	0,060	-0,019
-667,291	800,000	0,033	-0,084
-666,276	-161,888	0,087	-0,003
-665,262	100,083	-0,090	-0,076
-664,247	-25,761	0,125	-0,053
-663,232	-200,000	-0,009	0,069
-662,218	800,000	0,012	0,029
-661,203	-130,451	0,188	-0,018
-660,189	-79,258	0,169	-0,041
-659,174	-121,691	-0,142	-0,017
-658,159	-12,597	0,092	-0,043
-657,145	-29,329	-0,191	-0,079
-656,130	-200,000	0,002	-0,067
-655,116	-200,000	0,009	0,033
-654,101	57,830	0,032	0,023
-653,086	800,000	-0,005	0,013
-652,072	800,000	0,009	-0,026
-651,057	-200,000	-0,006	-0,031
-650,043	-200,000	-0,034	-0,137
-649,028	-200,000	-0,016	-0,072
-648,014	-200,000	-0,006	0,064
-646,999	-183,045	0,035	0,000
-645,984	89,272	0,034	-0,028
-644,970	88,457	-0,145	-0,116
-643,955	-200,000	0,004	0,044
-642,941	623,221	-0,069	-0,126
-641,926	107,512	-0,026	-0,022
-640,911	257,338	-0,078	0,097
-639,897	173,126	0,068	-0,071
-638,882	36,035	-0,014	-0,009
-637,868	-35,352	-0,104	-0,041
-636,853	342,381	0,067	0,096
-635,838	800,000	-0,040	-0,084
-634,824	194,701	0,047	0,052
-633,809	-87,624	-0,100	-0,022
-632,795	-93,663	-0,058	0,012
-631,780	-200,000	0,016	-0,092
-630,765	800,000	0,015	0,037
-629,751	40,446	-0,064	-0,042
-628,736	-139,343	-0,160	0,012
-627,722	22,877	0,106	-0,063
-626,707	156,973	-0,044	-0,044
-625,692	800,000	0,023	0,064
-624,678	-7,364	0,148	0,073
-623,663	793,360	0,060	-0,121
-622,649	382,757	-0,123	-0,184
-621,634	-128,252	-0,124	0,013
-620,619	142,472	-0,117	-0,113
-619,605	-67,045	0,134	0,038
-618,590	-200,000	0,024	0,107
-617,576	28,928	0,047	0,029
-616,561	261,225	-0,044	0,055
-615,546	179,364	0,016	0,017
-614,532	16,410	-0,045	0,026
-613,517	123,600	0,016	0,015
-612,503	93,557	0,015	-0,012
-611,488	-36,477	-0,056	-0,022
-610,474	800,000	-0,011	-0,030
-609,459	800,000	0,076	0,158
-608,444	494,066	0,105	-0,176
-607,430	75,189	-0,066	-0,050
-606,415	55,243	-0,039	0,028
-605,401	-140,071	0,049	0,004
-604,386	24,069	-0,039	0,023
-603,371	8,536	-0,019	-0,010
-602,357	-200,000	-0,006	-0,059
-601,342	-101,287	-0,031	-0,005
-600,328	-61,518	-0,178	-0,054
-599,313	-110,027	-0,097	0,015
-598,298	-16,480	-0,045	0,021
-597,284	778,167	0,031	-0,061
-596,269	-102,341	0,036	-0,006
-595,255	800,000	-0,016	0,046
-594,240	-16,280	-0,077	-0,035
-593,225	-187,132	-0,122	0,001
-592,211	36,116	-0,065	0,041
-591,196	-200,000	0,011	0,049
-590,182	800,000	-0,017	-0,044
-589,167	-200,000	-0,007	0,056
-588,152	335,654	0,028	0,040
-587,138	615,930	0,026	0,047
-586,123	-200,000	0,006	0,025
-585,109	800,000	-0,045	-0,120
-584,094	-200,000	0,041	-0,219
-583,079	-200,000	0,006	0,043
-582,065	18,346	0,060	0,035
-581,050	-200,000	-0,016	-0,067
-580,036	-36,988	0,070	0,027
-579,021	159,606	0,044	-0,045
-578,006	52,504	-0,095	0,066
-576,992	156,647	-0,048	0,048
-575,977	-200,000	0,034	-0,118
-574,963	-138,023	0,046	-0,004
-573,948	45,986	-0,070	0,047
-572,934	-200,000	0,022	0,101
-571,919	286,001	-0,024	0,032
-570,904	-67,902	-0,046	0,013
-569,890	800,000	0,065	-0,139
-568,875	800,000	-0,035	-0,103
-567,861	163,928	0,131	-0,134
-566,846	54,050	-0,047	-0,033
-565,831	9,877	-0,023	0,013
-564,817	-200,000	0,012	-0,135
-563,802	800,000	0,011	-0,026
-562,788	22,464	-0,062	-0,037
-561,773	36,769	0,068	-0,043
-560,758	20,398	-0,106	-0,062
-559,744	-200,000	-0,001	-0,080
-558,729	143,478	-0,086	0,083
-557,715	-200,000	-0,002	-0,122
-556,700	-200,000	-0,010	-0,120
-555,685	260,004	0,038	0,048
-554,671	518,045	-0,051	-0,087
-553,656	2,419	0,177	-0,093
-552,642	-200,000	0,027	0,225
-551,627	800,000	-0,017	0,050
-550,612	71,965	-0,029	0,022
-549,598	800,000	-0,061	-0,184
-548,583	246,144	0,026	0,031
-547,569	119,681	0,026	-0,023
-546,554	11,005	-0,067	-0,037
-545,539	132,633	0,022	-0,021
-544,525	22,085	0,093	0,055
-543,510	-200,000	-0,017	0,084
-542,496	86,866	-0,076	-0,060
-541,481	-149,743	-0,058	0,003
-540,466	144,174	0,132	0,128
-539,452	-19,628	0,088	-0,039
-538,437	36,358	0,040	-0,025
-537,423	79,286	0,096	0,074
-536,408	800,000	0,052	-0,122
-535,393	-200,000	0,011	-0,091
-534,379	-200,000	-0,028	-0,099
-533,364	-140,443	-0,092	0,007
-532,350	-16,659	0,146	-0,066
-531,335	51,094	0,049	0,033
-530,321	-142,203	-0,058	-0,004
-529,306	-200,000	0,017	0,093
-528,291	75,189	-0,116	-0,088
-527,277	-19,278	-0,034	0,015
-526,262	459,203	0,073	-0,118
-525,248	-200,000	0,020	-0,117
-524,233	-200,000	0,005	0,091
-523,218	780,411	0,032	0,064
-522,204	343,203	-0,023	-0,032
-521,189	800,000	-0,034	-0,108
-520,175	-200,000	0,022	-0,140
-519,160	-98,542	0,073	0,013
-518,145	-200,000	-0,020	-0,091
-517,131	-200,000	0,015	0,179
-516,116	-81,718	0,084	-0,020
-515,102	7,411	0,053	-0,028
-514,087	800,000	0,015	-0,042
-513,072	-200,000	-0,003	-0,112
-512,058	-47,227	0,053	0,018
-511,043	-200,000	0,000	-0,041
-510,029	-200,000	-0,005	0,070
-509,014	-12,777	0,144	0,068
-507,999	-200,000	-0,003	-0,085
-506,985	-153,548	0,103	-0,005
-505,970	2,827	-0,066	-0,035
-504,956	25,676	0,035	0,021
-503,941	800,000	0,014	-0,036
-502,926	10,763	-0,110	0,060
-501,912	1,940	0,035	0,018
-500,897	-166,616	-0,114	0,003
-499,883	637,995	-0,037	-0,069
-498,868	65,286	-0,119	0,087
-497,853	93,753	0,158	0,129
-496,839	308,785	0,028	-0,038
-495,824	-103,698	0,027	0,005
-494,810	-200,000	0,000	0,043
-493,795	-200,000	-0,008	0,106
-492,781	97,460	0,048	-0,040
-491,766	281,627	-0,023	-0,030
-490,751	-98,981	0,092	-0,017
-489,737	800,000	-0,034	-0,072
-488,722	-84,756	0,076	0,017
-487,708	-200,000	-0,005	0,090
-486,693	-200,000	0,013	0,134
-485,678	800,000	-0,047	0,129
-484,664	-90,442	-0,104	-0,021
-483,649	118,179	-0,085	0,075
-482,635	29,375	-0,096	-0,059
-481,620	3,721	0,151	-0,079
-480,605	254,429	0,019	0,023
-479,591	-200,000	0,030	-0,115
-478,576	800,000	-0,019	0,038
-477,562	74,403	0,125	-0,094
-476,547	174,231	-0,081	-0,084
-475,532	800,000	-0,020	0,048
-474,518	-102,998	-0,165	-0,028
-473,503	25,270	0,131	0,078
-472,489	-200,000	0,014	0,060
-471,474	784,004	-0,092	0,182
-470,459	78,759	0,070	0,054
-469,445	10,613	-0,129	-0,071
-468,430	-70,750	0,102	0,028
-467,416	354,927	-0,028	0,040
-466,401	56,235	0,136	0,095
-465,386	-200,000	-0,009	-0,029
-464,372	147,332	0,055	-0,053
-463,357	-159,283	-0,060	0,002
-462,343	-164,778	-0,108	-0,003
-461,328	-93,420	-0,041	0,008
-460,313	-200,000	0,006	-0,041
-459,299	134,393	0,175	0,164
-458,284	800,000	0,042	0,088
-457,270	-38,047	-0,054	-0,020
-456,255	465,384	-0,082	-0,133
-455,241	-200,000	-0,041	-0,187
-454,226	-58,142	0,105	-0,033
-453,211	-200,000	0,005	0,078
-452,197	-20,122	-0,076	0,034
-451,182	-129,893	-0,009	-0,001
-450,168	-200,000	0,023	0,104
-449,153	259,101	0,062	-0,078
-448,138	294,296	-0,069	-0,092
-447,124	105,732	0,015	-0,013
-446,109	-200,000	0,007	-0,137
-445,095	-169,394	0,129	0,003
-444,080	734,992	-0,098	0,190
-443,065	-20,576	0,122	-0,054
-442,051	763,337	0,031	-0,062
-441,036	175,796	0,018	0,018
-440,022	-200,000	-0,008	0,170
-439,007	90,079	-0,125	0,100
-437,992	142,813	-0,077	0,074
-436,978	-157,398	0,038	-0,002
-435,963	274,985	-0,038	-0,048
-434,949	-13,935	-0,056	0,026
-433,934	-26,479	-0,123	0,052
-432,919	-200,000	0,046	-0,150
-431,905	-114,906	0,071	-0,010
-430,890	-94,492	0,059	-0,011
-429,876	-107,627	0,071	-0,011
-428,861	568,453	-0,021	-0,037
-427,846	75,695	0,114	-0,087
-426,832	237,861	-0,072	-0,086
-425,817	346,097	-0,012	-0,017
-424,803	80,008	0,067	0,052
-423,788	-200,000	0,025	0,147
-422,773	800,000	0,052	0,136
-421,759	27,975	0,046	-0,028
-420,744	179,417	-0,086	0,090
-419,730	87,299	0,056	-0,045
-418,715	297,222	-0,032	-0,043
-417,701	-200,000	0,023	0,099
-416,686	6,970	0,066	-0,036
-415,671	800,000	0,082	0,191
-414,657	100,308	0,086	-0,072
-413,642	67,599	-0,064	-0,047
-412,628	62,593	-0,089	0,064
-411,613	-4,431	0,072	-0,036
-410,598	-25,089	0,049	0,021
-409,584	285,322	0,057	0,074
-408,569	800,000	0,004	0,007
-407,555	222,641	0,030	0,035
-406,540	800,000	0,018	-0,045
-405,525	800,000	-0,034	-0,073
-404,511	-200,000	0,003	-0,039
-403,496	800,000	-0,034	-0,087
-402,482	800,000	0,019	0,046
-401,467	-200,000	0,077	0,000
-400,452	42,594	0,030	0,019
-399,438	800,000	0,058	0,164
-398,423	-178,255	-0,131	0,002
-397,409	-17,642	-0,096	-0,043
-396,394	94,747	0,073	-0,060
-395,379	800,000	0,036	-0,089
-394,365	-82,462	0,154	-0,036
-393,350	473,117	-0,117	0,190
-392,336	-113,721	0,033	-0,005
-391,321	-200,000	0,042	-0,203
-390,306	-200,000	0,005	-0,113
-389,292	-103,004	0,059	0,010
-388,277	310,631	0,063	-0,085
-387,263	78,126	0,045	-0,034
-386,248	-30,356	0,042	0,017
-385,233	-95,566	0,132	-0,025
-384,219	734,141	0,045	-0,087
-383,204	86,810	-0,146	-0,116
-382,190	628,137	0,046	-0,085
-381,175	800,000	-0,005	-0,011
-380,160	-0,452	-0,064	0,033
-379,146	-90,093	0,080	-0,017
-378,131	78,149	0,031	0,024
-377,117	229,482	-0,083	0,098
-376,102	614,091	-0,057	-0,103
-375,088	-200,000	0,002	-0,163
-374,073	-2,796	-0,031	0,016
-373,058	-102,881	0,098	0,017
-372,044	-75,973	0,101	0,026
-371,029	800,000	-0,074	0,232
-370,015	800,000	-0,050	-0,105
-369,000	-92,790	-0,101	-0,020
-367,985	-200,000	-0,026	0,130
-366,971	-137,116	-0,140	0,011
-365,956	45,788	0,019	0,013
-364,942	-200,000	-0,015	-0,100
-363,927	762,180	-0,041	0,081
-362,912	255,038	-0,046	-0,057
-361,898	608,733	-0,035	-0,063
-360,883	-147,369	0,086	-0,005
-359,869	-200,000	-0,003	-0,063
-358,854	85,178	-0,081	0,064
-357,839	800,000	0,041	0,125
-356,825	48,805	-0,084	0,056
-355,810	800,000	-0,043	0,133
-354,796	-200,000	-0,019	0,146
-353,781	-200,000	-0,007	0,038
-352,766	526,139	0,052	-0,088
-351,752	-200,000	0,042	-0,143
-350,737	800,000	-0,034	0,100
-349,723	-200,000	-0,013	0,138
-348,708	800,000	0,045	-0,119
-347,693	473,127	-0,037	0,061
-346,679	-103,906	0,119	0,020
-345,664	97,115	-0,057	0,047
-344,650	-61,724	0,117	0,035
-343,635	-200,000	0,040	0,130
-342,620	-59,965	0,195	-0,059
-341,606	800,000	0,054	0,133
-340,591	-132,524	0,049	0,004
-339,577	390,577	0,034	0,051
-338,562	69,096	-0,086	-0,064
-337,548	-3,817	-0,065	-0,033
-336,533	-173,650	0,149	-0,003
-335,518	543,224	0,075	0,129
-334,504	212,697	0,076	0,086
-333,489	-200,000	0,025	0,130
-332,475	97,434	-0,055	0,045
-331,460	-86,094	-0,039	-0,009
-330,445	-200,000	-0,036	-0,167
-329,431	563,706	0,012	-0,020
-328,416	-68,226	0,199	0,055
-327,402	129,617	0,069	0,064
-326,387	71,872	-0,026	0,020
-325,372	127,134	-0,047	-0,043
-324,358	226,176	0,037	-0,043
-323,343	30,703	0,209	-0,128
-322,329	-77,769	0,061	0,015
-321,314	-200,000	0,012	0,086
-320,299	185,961	-0,028	0,030
-319,285	-196,856	0,117	0,001
-318,270	649,809	-0,051	-0,094
-317,256	28,295	-0,098	0,059
-316,241	-200,000	0,002	-0,041
-315,226	200,090	-0,063	0,069
-314,212	-200,000	0,017	0,122
-313,197	-30,055	0,151	-0,061
-312,183	800,000	0,036	-0,110
-311,168	2,164	-0,109	-0,056
-310,153	671,247	-0,082	-0,154
-309,139	-200,000	0,003	-0,110
-308,124	30,959	-0,061	0,037
-307,110	-200,000	-0,011	0,045
-306,095	-29,104	0,127	0,052
-305,080	784,959	-0,025	0,050
-304,066	31,030	0,020	-0,012
-303,051	800,000	-0,067	-0,134
-302,037	800,000	-0,033	0,091
-301,022	44,927	0,077	-0,051
-300,008	800,000	0,031	0,075
-298,993	-200,000	0,044	-0,151
-297,978	-200,000	0,003	-0,059
-296,964	800,000	-0,030	0,065
-295,949	-5,211	-0,138	-0,068
-294,935	447,834	-0,032	0,050
-293,920	94,996	-0,046	0,038
-292,905	274,426	0,029	-0,037
-291,891	-200,000	0,002	0,099
-290,876	-200,000	0,004	0,116
-289,862	-200,000	0,022	-0,077
-288,847	639,338	0,023	-0,043
-287,832	-200,000	0,008	0,086
-286,818	321,583	0,043	-0,059
-285,803	800,000	0,073	0,158
-284,789	-87,822	0,086	-0,018
-283,774	800,000	-0,017	0,035
-282,759	147,801	0,052	0,050
-281,745	800,000	0,016	0,042
-280,730	159,027	-0,062	-0,062
-279,716	91,456	0,071	-0,057
-278,701	800,000	-0,037	-0,081
-277,686	181,403	0,110	0,115
-276,672	55,646	0,026	-0,018
-275,657	-200,000	0,002	0,023
-274,643	212,862	-0,137	0,155
-273,628	365,848	-0,043	-0,062
-272,613	-86,219	-0,108	0,024
-271,599	152,417	0,031	0,030
-270,584	46,327	0,152	0,100
-269,570	-60,619	-0,124	0,037
-268,555	770,888	0,064	0,126
-267,540	-68,760	-0,080	0,022
-266,526	-73,215	-0,110	0,029
-265,511	-200,000	-0,004	-0,041
-264,497	116,151	0,091	0,080
-263,482	-200,000	-0,057	0,187
-262,467	-200,000	0,009	0,037
-261,453	-2,728	-0,083	0,041
-260,438	-37,461	-0,030	0,012
-259,424	265,139	-0,024	0,030
-258,409	247,249	0,098	-0,118
-257,395	-200,000	0,024	-0,086
-256,380	-118,436	-0,081	0,010
-255,365	-157,128	-0,098	-0,004
-254,351	800,000	0,028	0,058
-253,336	-200,000	0,025	0,093
-252,322	-200,000	0,008	-0,132
-251,307	88,021	-0,106	-0,084
-250,292	-174,036	0,190	-0,004
-249,278	-200,000	-0,030	0,114
-248,263	-116,919	-0,114	0,015
-247,249	126,835	0,028	-0,026
-246,234	-129,896	-0,023	-0,002
-245,219	-59,669	-0,066	0,020
-244,205	-38,580	-0,160	-0,060
-243,190	-115,207	0,098	-0,013
-242,176	-121,308	-0,091	-0,011
-241,161	-13,563	0,208	0,096
-240,146	73,210	-0,120	0,090
-239,132	203,136	0,048	-0,053
-238,117	-20,069	-0,091	0,040
-237,103	113,295	-0,104	0,090
-236,088	101,025	-0,057	-0,048
-235,073	274,370	-0,025	-0,032
-234,059	19,161	0,110	0,063
-233,044	-117,328	0,055	-0,007
-232,030	157,864	0,052	0,051
-231,015	-159,267	0,172	-0,007
-230,000	-53,505	-0,023	-0,008
-228,986	-100,138	-0,122	-0,021
-227,971	729,079	0,096	0,183
-226,957	380,513	0,065	0,095
-225,942	-136,946	-0,066	-0,005
-224,927	751,096	-0,070	0,135
-223,913	-53,474	0,053	-0,017
-222,898	171,331	-0,057	-0,058
-221,884	-200,000	-0,009	-0,042
-220,869	-200,000	0,004	0,082
-219,855	-126,209	-0,159	-0,017
-218,840	800,000	0,010	0,025
-217,825	189,146	-0,068	0,072
-216,811	432,618	0,063	-0,098
-215,796	800,000	0,024	0,049
-214,782	359,256	0,061	-0,087
-213,767	310,440	-0,040	0,054
-212,752	-11,463	0,123	0,058
-211,738	-46,334	0,146	0,051
-210,723	-200,000	-0,004	0,061
-209,709	62,076	-0,171	-0,121
-208,694	92,894	-0,137	-0,110
-207,679	46,869	-0,131	-0,087
-206,665	359,646	-0,058	-0,083
-205,650	55,287	0,114	-0,078
-204,636	-200,000	0,004	0,040
-203,621	37,086	-0,029	0,018
-202,606	171,918	-0,133	-0,137
-201,592	82,894	-0,110	-0,086
-200,577	-200,000	0,017	-0,164
-199,563	-99,725	-0,052	0,009
-198,548	800,000	-0,013	0,026
-197,533	314,786	0,083	0,112
-196,519	-200,000	-0,039	0,212
-195,504	208,023	-0,111	-0,124
-194,490	150,878	0,035	-0,034
-193,475	272,156	-0,068	-0,085
-192,460	-177,785	0,020	0,000
-191,446	-188,682	0,165	-0,001
-190,431	22,148	0,118	-0,069
-189,417	-9,027	-0,052	-0,025
-188,402	800,000	-0,009	0,019
-187,387	-200,000	0,015	-0,109
-186,373	-200,000	0,040	-0,179
-185,358	-43,270	0,095	0,034
-184,344	392,347	-0,088	0,131
-183,329	547,800	-0,027	-0,046
-182,315	800,000	0,016	-0,043
-181,300	67,615	0,044	0,032
-180,285	-47,999	-0,084	-0,029
-179,271	-200,000	-0,019	-0,114
-178,256	-44,247	0,079	0,028
-177,242	800,000	-0,043	0,097
-176,227	-200,000	0,019	0,111
-175,212	-200,000	-0,054	0,170
-174,198	15,573	-0,072	0,040
-173,183	-106,996	-0,041	-0,006
-172,169	82,773	-0,142	-0,110
-171,154	-200,000	-0,007	0,144
-170,139	446,587	0,038	-0,060
-169,125	-93,676	0,037	0,007
-168,110	2,000	-0,058	0,030
-167,096	800,000	-0,061	0,124
-166,081	800,000	0,012	-0,035
-165,066	299,529	-0,070	-0,092
-164,052	611,976	-0,020	0,036
-163,037	-6,664	0,049	-0,024
-162,023	-125,732	0,033	0,003
-161,008	-38,815	-0,170	0,064
-159,993	115,858	-0,026	0,022
-158,979	-200,000	0,004	-0,055
-157,964	-200,000	-0,023	-0,085
-156,950	-200,000	0,017	-0,108
-155,935	713,794	0,012	-0,022
-154,920	214,745	0,077	0,087
-153,906	800,000	-0,078	0,183
-152,891	800,000	0,059	0,135
-151,877	275,241	0,045	-0,057
-150,862	-200,000	0,004	0,121
-149,847	-200,000	0,002	-0,119
-148,833	30,853	0,170	-0,104
-147,818	-93,608	0,082	-0,016
-146,804	-200,000	0,041	0,163
-145,789	265,917	-0,084	0,105
-144,775	-46,844	-0,128	0,044
-143,760	109,070	-0,056	-0,047
-142,745	-150,204	-0,096	-0,005
-141,731	380,090	0,056	0,082
-140,716	206,692	0,081	0,090
-139,702	97,460	0,129	0,105
-138,687	-200,000	0,017	0,152
-137,672	-33,302	-0,160	0,063
-136,658	155,771	-0,055	-0,054
-135,643	182,374	0,031	-0,032
-134,629	-200,000	0,015	0,131
-133,614	-200,000	0,006	-0,146
-132,599	800,000	0,024	0,052
-131,585	648,455	-0,057	0,104
-130,570	-200,000	0,010	-0,051
-129,556	-85,542	-0,050	0,011
-128,541	-105,418	0,064	-0,010
-127,526	191,995	-0,037	0,040
-126,512	-200,000	0,020	-0,087
-125,497	-200,000	0,022	0,082
-124,483	-200,000	-0,062	0,000
-123,468	604,632	-0,045	0,080
-122,453	544,012	-0,052	0,089
-121,439	112,766	-0,096	0,083
-120,424	-200,000	-0,008	0,045
-119,410	-200,000	-0,003	0,057
-118,395	-58,569	0,091	0,028
-117,380	-68,382	0,059	0,016
-116,366	-192,635	0,120	-0,001
-115,351	132,338	0,044	-0,040
-114,337	-124,378	-0,086	-0,009
-113,322	147,074	-0,051	0,049
-112,307	46,498	0,013	0,009
-111,293	375,665	0,034	-0,050
-110,278	-200,000	-0,018	-0,094
-109,264	217,242	0,058	-0,066
-108,249	-121,811	-0,042	-0,005
-107,234	197,943	-0,068	0,074
-106,220	-37,612	-0,093	0,035
-105,205	800,000	0,027	-0,065
-104,191	-70,228	0,100	0,027
-103,176	-128,029	0,107	-0,011
-102,162	-84,421	-0,046	-0,010
-101,147	457,834	0,047	-0,074
-100,132	249,969	0,048	-0,058
-99,118	189,572	-0,119	-0,127
-98,103	-29,821	-0,062	0,025
-97,089	396,829	0,049	0,072
-96,074	561,969	-0,012	0,020
-95,059	626,571	0,036	-0,065
-94,045	262,795	-0,079	-0,098
-93,030	-200,000	-0,033	-0,149
-92,016	282,775	0,030	0,039
-91,001	357,847	-0,056	0,080
-89,986	-103,854	-0,161	-0,026
-88,972	-57,033	0,021	-0,007
-87,957	-124,007	-0,098	-0,011
-86,943	58,887	0,139	0,097
-85,928	74,225	-0,032	-0,024
-84,913	-200,000	-0,004	-0,080
-83,899	156,413	-0,009	-0,009
-82,884	-108,766	0,111	0,017
-81,870	-200,000	0,020	0,250
-80,855	635,400	0,084	-0,152
-79,840	25,974	-0,094	-0,056
-78,826	490,983	0,035	-0,057
-77,811	212,755	0,026	0,029
-76,797	800,000	0,030	-0,087
-75,782	-67,052	0,189	-0,053
-74,767	178,580	0,038	0,040
-73,753	-200,000	-0,011	0,088
-72,738	-79,606	0,038	0,009
-71,724	21,940	-0,039	-0,022
-70,709	-200,000	0,000	0,102
-69,694	-6,031	0,136	-0,066
-68,680	-17,772	0,080	-0,035
-67,665	109,469	-0,033	0,028
-66,651	800,000	0,030	0,066
-65,636	230,279	0,032	0,037
-64,622	800,000	0,081	-0,168
-63,607	227,289	-0,078	-0,090
-62,592	-200,000	0,008	-0,063
-61,578	-41,869	-0,085	-0,031
-60,563	319,869	0,083	0,112
-59,549	131,454	0,029	-0,026
-58,534	-78,491	-1,437	-0,346
-57,519	363,058	-1,531	-2,189
-56,505	-200,000	-0,439	-4,360
-55,490	22,321	0,926	0,536
-54,476	800,000	4,683	11,052
-53,461	-200,000	17,195	267,356
-52,446	800,000	713,945	2176,899
-51,432	552,256	1628,528	2785,953
-50,417	81,487	1654,912	1268,448
-49,403	24,461	1529,537	895,167
-48,388	18,466	1452,777	821,389
-47,373	18,548	1442,279	815,814
-46,359	18,277	1433,147	809,327
-45,344	16,819	1428,291	799,637
-44,330	16,717	1426,435	798,081
-43,315	16,724	1424,753	797,144
-42,300	16,761	1423,057	796,337
-41,286	16,771	1422,074	795,804
-40,271	16,772	1420,645	794,979
-39,257	16,729	1419,591	794,154
-38,242	16,766	1418,023	793,419
-37,227	16,807	1416,859	792,930
-36,213	16,786	1415,557	792,071
-35,198	16,739	1414,441	791,191
-34,184	16,788	1413,397	790,807
-33,169	16,659	1412,441	789,638
-32,154	16,711	1411,308	789,216
-31,140	16,827	1409,777	788,869
-30,125	16,818	1408,799	788,250
-29,111	16,742	1407,632	787,213
-28,096	16,750	1406,421	786,540
-27,082	16,694	1405,259	785,598
-26,067	16,674	1404,260	784,914
-25,052	16,718	1403,011	784,392
-24,038	16,683	1402,184	783,732
-23,023	16,641	1401,196	782,956
-22,009	16,649	1400,197	782,400
-20,994	16,574	1399,403	781,578
-19,979	16,625	1398,425	781,238
-18,965	16,621	1397,358	780,595
-17,950	16,603	1396,389	779,937
-16,936	16,606	1395,508	779,428
-15,921	16,568	1394,257	778,522
-14,906	16,568	1393,524	778,084
-13,892	16,608	1392,546	777,691
-12,877	16,621	1391,592	777,186
-11,863	16,579	1390,726	776,476
-10,848	16,535	1390,023	775,850
-9,833	16,550	1388,799	775,208
-8,819	16,540	1387,958	774,659
-7,804	16,486	1387,062	773,883
-6,790	16,506	1385,849	773,265
-5,775	16,475	1385,065	772,654
-4,760	16,429	1384,201	771,929
-3,746	16,434	1383,322	771,434
-2,731	16,429	1382,702	771,032
-1,717	16,439	1381,501	770,382
-0,702	16,467	1379,605	769,418
0,313	20,259	1301,676	743,432
1,327	36,591	708,197	442,399
2,342	56,567	125,961	86,749
3,356	2,325	16,523	8,445
4,371	9,367	3,049	1,630
5,386	52,999	0,474	0,321
6,400	-200,000	-0,002	0,076
7,415	6,393	-0,187	-0,098
8,429	108,243	-0,345	-0,292
9,444	241,895	-0,206	-0,245
10,459	-10,444	-0,331	-0,155
11,473	59,181	-0,214	-0,149
12,488	-24,233	-0,313	-0,132
13,502	73,311	-0,262	-0,194
14,517	105,016	-0,267	-0,223
15,531	276,708	-0,342	-0,431
16,546	32,907	-0,222	-0,136
17,561	56,415	-0,438	-0,301
18,575	520,633	-0,109	-0,181
19,590	-46,332	-0,311	-0,108
20,604	-56,709	-0,198	-0,062
21,619	47,857	-0,386	-0,255
22,634	47,531	-0,329	-0,217
23,648	96,033	-0,322	-0,260
24,663	155,830	-0,453	-0,442
25,677	0,232	-0,474	-0,239
26,692	15,474	-0,397	-0,220
27,707	-99,307	-0,368	-0,065
28,721	140,252	-0,331	-0,309
29,736	100,298	-0,433	-0,355
30,750	33,457	-0,400	-0,245
31,765	175,332	-0,334	-0,343
32,780	-3,630	-0,458	-0,224
33,794	91,358	-0,292	-0,231
34,809	79,683	-0,354	-0,269
35,823	-37,853	-0,458	-0,171
36,838	-87,750	-0,344	-0,073
37,853	223,653	-0,319	-0,364
38,867	43,765	-0,490	-0,316
39,882	16,943	-0,374	-0,209
40,896	-18,235	-0,469	-0,206
41,911	81,710	-0,291	-0,222
42,926	111,918	-0,284	-0,243
43,940	136,323	-0,365	-0,336
44,955	119,309	-0,339	-0,296
45,969	217,420	-0,342	-0,385
46,984	319,202	-0,284	-0,382
47,999	2,008	-0,318	-0,161
49,013	245,619	-0,274	-0,327
50,028	75,699	-0,272	-0,203
51,042	8,824	-0,360	-0,191
52,057	51,511	-0,368	-0,247
53,071	-16,172	-0,478	-0,213
54,086	800,000	-0,178	-0,403
55,101	57,296	-0,327	-0,225
56,115	47,275	-0,356	-0,233
57,130	171,385	-0,290	-0,294
58,144	151,869	-0,280	-0,270
59,159	71,969	-0,515	-0,378
60,174	12,449	-0,346	-0,187
61,188	234,876	-0,232	-0,271
62,203	-79,910	-0,343	-0,081
63,217	92,125	-0,330	-0,262
64,232	14,003	-0,347	-0,190
65,247	604,730	-0,231	-0,407
66,261	78,881	-0,392	-0,295
67,276	307,464	-0,289	-0,380
68,290	-22,681	-0,377	-0,160
69,305	24,695	-0,436	-0,254
70,320	148,273	-0,289	-0,275
71,334	153,723	-0,243	-0,235
72,349	-23,277	-0,296	-0,125
73,363	-75,558	-0,360	-0,090
74,378	34,499	-0,342	-0,210
75,393	68,942	-0,273	-0,197
76,407	61,975	-0,351	-0,246
77,422	347,927	-0,232	-0,323
78,436	-32,131	-0,309	-0,121
79,451	-24,331	-0,335	-0,140
80,466	-125,610	-0,256	-0,027
81,480	-1,715	-0,441	-0,218
82,495	44,834	-0,306	-0,198
83,509	28,745	-0,222	-0,132
84,524	-3,324	-0,365	-0,178
85,539	95,567	-0,181	-0,145
86,553	-42,946	-0,256	-0,091
87,568	-54,972	-0,406	-0,128
88,582	325,684	-0,238	-0,321
89,597	153,938	-0,206	-0,199
90,611	134,403	-0,189	-0,173
91,626	-110,040	-0,372	-0,054
92,641	-51,802	-0,243	-0,079
93,655	34,634	-0,164	-0,100
94,670	178,714	-0,205	-0,211
95,684	16,321	-0,279	-0,154
96,699	546,487	-0,202	-0,341
97,714	191,614	-0,301	-0,319
98,728	195,743	-0,274	-0,293
99,743	0,287	-0,307	-0,154
100,757	-3,300	-0,402	-0,196
101,772	289,181	-0,215	-0,275
102,787	32,875	-0,242	-0,147
103,801	44,543	-0,176	-0,113
104,816	-60,714	-0,316	-0,094
105,830	275,617	-0,134	-0,167
106,845	244,332	-0,115	-0,136
107,860	111,511	-0,244	-0,206
108,874	17,561	-0,245	-0,136
109,889	-41,111	-0,369	-0,133
110,903	148,062	-0,261	-0,248
111,918	-90,692	-0,295	-0,059
112,933	320,896	-0,112	-0,150
113,947	147,577	-0,325	-0,307
114,962	180,640	-0,188	-0,194
115,976	108,254	-0,198	-0,166
116,991	65,313	-0,237	-0,168
118,006	110,939	-0,291	-0,246
119,020	-103,164	-0,158	-0,026
120,035	160,711	-0,205	-0,201
121,049	-0,670	-0,340	-0,169
122,064	125,664	-0,188	-0,166
123,079	2,143	-0,335	-0,169
124,093	5,249	-0,299	-0,154
125,108	205,072	-0,218	-0,238
126,122	165,885	-0,328	-0,326
127,137	154,900	-0,207	-0,199
128,151	206,547	-0,203	-0,222
129,166	-82,391	-0,172	-0,039
130,181	90,182	-0,262	-0,205
131,195	248,967	-0,219	-0,261
132,210	80,811	-0,239	-0,181
133,224	-49,886	-0,322	-0,106
134,239	-15,456	-0,047	0,021
135,254	73,971	-0,253	-0,186
136,268	-12,897	-0,253	-0,115
137,283	285,144	-0,178	-0,226
138,297	-27,599	-0,409	-0,166
139,312	93,658	-0,383	-0,304
140,327	61,093	-0,229	-0,159
141,341	313,042	-0,122	-0,161
142,356	72,618	-0,360	-0,262
143,370	332,087	-0,261	-0,353
144,385	309,080	-0,151	-0,198
145,400	175,014	-0,218	-0,221
146,414	166,585	-0,259	-0,257
147,429	425,828	-0,153	-0,232
148,443	8,900	-0,304	-0,160
149,458	-6,428	-0,191	-0,091
150,473	39,701	-0,221	-0,138
151,487	145,987	-0,222	-0,209
152,502	45,777	-0,363	-0,234
153,516	253,026	-0,163	-0,195
154,531	-9,596	-0,292	-0,136
155,546	97,015	-0,268	-0,215
156,560	473,565	-0,135	-0,214
157,575	544,426	-0,112	-0,188
158,589	58,010	-0,306	-0,210
159,604	80,098	-0,204	-0,154
160,619	75,407	-0,292	-0,215
161,633	257,376	-0,272	-0,327
162,648	-17,739	-0,243	-0,106
163,662	19,334	-0,281	-0,157
164,677	136,704	-0,229	-0,209
165,692	89,111	-0,172	-0,134
166,706	-110,454	-0,235	-0,034
167,721	61,741	-0,227	-0,158
168,735	33,794	-0,288	-0,175
169,750	54,943	-0,170	-0,115
170,764	336,563	-0,179	-0,244
171,779	271,910	-0,204	-0,252
172,794	157,476	-0,331	-0,321
173,808	-49,225	-0,240	-0,080
174,823	19,502	-0,229	-0,128
175,837	308,347	-0,225	-0,294
176,852	-107,219	-0,299	-0,045
177,867	-39,225	-0,200	-0,073
178,881	36,719	-0,302	-0,186
179,896	-30,839	-0,181	-0,071
180,910	73,321	-0,212	-0,154
181,925	20,479	-0,268	-0,151
182,940	15,874	-0,251	-0,137
183,954	-34,807	-0,282	-0,107
184,969	800,000	-0,112	-0,259
185,983	-90,232	-0,124	0,025
186,998	-48,253	-0,223	-0,075
188,013	8,135	-0,226	-0,118
189,027	129,271	-0,213	-0,190
190,042	-200,000	-0,053	-0,240
191,056	148,244	-0,234	-0,221
192,071	201,701	-0,149	-0,160
193,086	342,001	-0,182	-0,250
194,100	-129,383	-0,240	-0,023
195,115	2,654	-0,288	-0,145
196,129	221,539	-0,183	-0,205
197,144	172,815	-0,201	-0,202
198,159	605,183	-0,194	-0,338
199,173	800,000	-0,133	-0,279
200,188	361,309	-0,171	-0,239
201,202	800,000	-0,082	-0,208
202,217	359,962	-0,131	-0,183
203,232	226,456	-0,247	-0,280
204,246	-200,000	-0,043	-0,212
205,261	101,363	-0,211	-0,171
206,275	800,000	-0,042	-0,104
207,290	130,408	-0,159	-0,142
208,304	274,113	-0,163	-0,201
209,319	-27,293	-0,188	-0,076
210,334	207,853	-0,108	-0,117
211,348	-17,085	-0,330	-0,145
212,363	206,008	-0,181	-0,196
213,377	-39,643	-0,249	-0,090
214,392	800,000	-0,084	-0,187
215,407	-55,536	-0,226	-0,070
216,421	-48,310	-0,136	-0,045
217,436	-112,506	-0,190	0,026
218,450	172,093	-0,204	-0,204
219,465	92,658	-0,256	-0,201
220,480	-7,165	-0,143	-0,067
221,494	203,302	-0,135	-0,146
222,509	40,748	-0,116	-0,073
223,523	399,307	-0,138	-0,202
224,538	183,324	-0,172	-0,177
225,553	74,030	-0,233	-0,170
226,567	-141,895	-0,238	-0,016
227,582	605,207	-0,154	-0,268
228,596	-37,018	-0,212	-0,079
229,611	-98,754	-0,190	-0,033
230,626	-40,010	-0,153	-0,055
231,640	31,102	-0,255	-0,152
232,655	-89,503	-0,384	-0,078
233,669	147,244	-0,163	-0,153
234,684	157,409	-0,194	-0,187
235,699	-200,000	-0,055	-0,179
236,713	73,053	-0,059	-0,043
237,728	84,276	-0,221	-0,168
238,742	171,725	-0,131	-0,131
239,757	202,253	-0,194	-0,209
240,772	100,517	-0,226	-0,182
241,786	16,941	-0,225	-0,123
242,801	-77,964	-0,206	-0,049
243,815	271,115	-0,166	-0,203
244,830	107,934	-0,237	-0,196
245,844	92,696	-0,238	-0,186
246,859	800,000	-0,110	-0,242
247,874	-200,000	-0,065	-0,269
248,888	445,750	-0,208	-0,318
249,903	-61,884	-0,289	-0,083
250,917	-94,685	-0,129	-0,024
251,932	198,620	-0,093	-0,099
252,947	122,812	-0,033	0,028
253,961	47,905	-0,226	-0,146
254,976	143,180	-0,182	-0,168
255,990	590,917	-0,172	-0,296
257,005	74,257	-0,277	-0,201
258,020	153,141	-0,177	-0,168
259,034	-12,472	-0,200	-0,090
260,049	251,365	-0,075	-0,088
261,063	67,678	-0,127	-0,090
262,078	248,676	-0,171	-0,201
263,093	15,594	-0,182	-0,099
264,107	98,801	-0,108	-0,086
265,122	-54,301	-0,159	-0,050
266,136	85,220	-0,218	-0,166
267,151	-123,712	-0,257	0,028
268,166	9,669	-0,213	-0,111
269,180	285,033	-0,163	-0,204
270,195	333,573	-0,186	-0,250
271,209	-58,941	-0,162	-0,048
272,224	63,511	-0,225	-0,156
273,239	200,230	-0,109	-0,116
274,253	-72,430	-0,096	0,024
275,268	-7,398	-0,199	-0,093
276,282	478,713	-0,124	-0,195
277,297	282,454	-0,157	-0,196
278,312	182,944	-0,080	-0,082
279,326	336,060	-0,096	-0,129
280,341	186,685	-0,129	-0,133
281,355	590,788	-0,043	-0,074
282,370	16,845	-0,129	-0,070
283,384	272,012	-0,087	-0,106
284,399	396,174	-0,167	-0,242
285,414	32,226	-0,105	-0,063
286,428	800,000	-0,039	-0,084
287,443	440,587	-0,059	-0,089
288,457	121,795	-0,168	-0,145
289,472	87,430	-0,174	-0,133
290,487	197,131	-0,210	-0,222
291,501	15,229	-0,179	-0,097
292,516	-22,008	-0,317	-0,133
293,530	-200,000	-0,025	-0,098
294,545	320,489	-0,144	-0,189
295,560	800,000	-0,022	-0,063
296,574	137,758	-0,136	-0,123
297,589	63,353	-0,148	-0,103
298,603	-200,000	-0,061	-0,325
299,618	673,035	-0,081	-0,146
300,633	71,608	-0,186	-0,134
301,647	-200,000	0,001	-0,075
302,662	800,000	-0,053	-0,121
303,676	326,535	-0,179	-0,237
304,691	259,013	-0,190	-0,227
305,706	121,464	-0,072	-0,062
306,720	347,956	-0,119	-0,162
307,735	-64,232	-0,104	-0,029
308,749	705,961	-0,086	-0,158
309,764	290,874	-0,125	-0,157
310,779	126,405	-0,052	-0,045
311,793	362,521	-0,091	-0,126
312,808	-122,004	-0,219	-0,024
313,822	307,453	-0,070	-0,090
314,837	-16,763	-0,098	-0,043
315,852	46,144	-0,171	-0,109
316,866	-25,197	-0,033	-0,013
317,881	-10,252	-0,109	0,050
318,895	281,250	-0,095	-0,118
319,910	-200,000	-0,019	-0,246
320,925	81,920	-0,144	-0,108
321,939	-35,072	-0,189	0,070
322,954	-127,622	-0,088	-0,009
323,968	-131,789	-0,192	-0,017
324,983	36,435	-0,112	-0,068
325,997	59,772	-0,170	-0,116
327,012	256,422	-0,098	-0,116
328,027	-14,827	-0,147	0,065
329,041	530,931	-0,154	-0,251
330,056	156,698	-0,063	-0,060
331,070	90,299	-0,119	-0,091
332,085	-47,232	-0,129	0,043
333,100	-3,290	-0,137	-0,066
334,114	100,298	-0,139	-0,111
335,129	13,168	-0,253	-0,134
336,143	264,623	-0,205	-0,246
337,158	78,376	-0,178	-0,130
338,173	-128,708	-0,161	-0,015
339,187	754,708	-0,093	-0,175
340,202	-66,479	-0,194	-0,053
341,216	-76,806	-0,069	-0,017
342,231	32,354	-0,133	-0,079
343,246	-200,000	-0,069	-0,250
344,260	21,376	-0,102	-0,057
345,275	554,745	-0,101	-0,167
346,289	92,466	-0,086	0,066
347,304	45,794	-0,184	-0,117
348,319	92,234	-0,195	-0,151
349,333	800,000	-0,073	-0,160
350,348	-200,000	-0,041	-0,192
351,362	21,416	-0,119	-0,067
352,377	-43,163	-0,126	0,044
353,392	-72,904	-0,005	0,001
354,406	-51,166	-0,129	0,041
355,421	211,662	1313,721	1423,602
356,435	162,991	1474,385	1424,149
