DTS Sentinel unit serial number:	SN410029Multiplexer serial number:	ORYXHardware model number:	OX2-SRSoftware version number:	ORYX F/W v4,00 Oryx Data Collector v3.7.2.0data status	okinstallation	B3 Nyhavnadifferential loss correction	single-endedforward channel	channel 1reverse channel	N/Adate	2023/12/01time	09:12:30forward acquisition time	300,00reverse acquisition time	0,00gamma	499,1914k internal	0,3213k external	0,3213temperature offset calibration	1,0000default loss term (dB/km)	0,3820temperature slope calibration	1,0000multiplexer offset coefficient	1,0000multiplexer slope coefficient	1,0000fibre end	0,00T internal ref (°C)	7,98T ext. ref 1 (°C)	-6,34T ext. ref 2 (°C)	-6,49length (m)	temperature (°C)	Stokes	anti-Stokes-744,400	800,000	-0,106	-0,231
-743,385	-200,000	0,002	0,291
-742,371	783,609	-0,083	-0,165
-741,356	-200,000	-0,032	0,335
-740,342	127,486	-0,148	-0,136
-739,327	-200,000	-0,038	0,191
-738,312	98,763	-0,251	-0,209
-737,298	177,079	-0,138	0,146
-736,283	800,000	-0,100	-0,201
-735,269	-200,000	-0,054	0,254
-734,254	13,806	-0,282	-0,158
-733,239	-74,061	-0,237	0,062
-732,225	-200,000	-0,008	-0,153
-731,210	366,340	0,084	0,123
-730,196	-200,000	-0,005	-0,099
-729,181	-4,508	0,077	0,038
-728,167	-168,582	0,139	0,004
-727,152	-29,380	-0,059	-0,024
-726,137	-58,012	-0,085	0,027
-725,123	-200,000	-0,019	-0,111
-724,108	-48,576	-0,093	-0,032
-723,094	-154,751	-0,172	-0,008
-722,079	94,488	-0,075	0,062
-721,064	177,170	0,138	0,145
-720,050	-200,000	0,041	0,218
-719,035	139,604	-0,040	0,038
-718,021	-200,000	-0,006	-0,189
-717,006	250,618	-0,142	-0,175
-715,991	800,000	0,020	-0,060
-714,977	99,790	0,021	0,018
-713,962	-200,000	-0,033	-0,125
-712,948	157,933	-0,142	-0,143
-711,933	130,458	0,059	0,055
-710,918	5,158	0,041	0,022
-709,904	-51,056	-0,062	-0,021
-708,889	7,865	-0,057	-0,031
-707,875	-200,000	-0,027	-0,106
-706,860	-45,238	-0,078	-0,028
-705,845	800,000	0,024	0,077
-704,831	110,533	0,072	-0,063
-703,816	-118,757	0,057	0,007
-702,802	490,539	-0,032	-0,053
-701,787	-200,000	-0,014	-0,104
-700,772	-121,425	-0,028	0,003
-699,758	158,917	-0,085	-0,086
-698,743	-144,200	0,060	-0,004
-697,729	-200,000	0,022	0,082
-696,714	484,056	0,070	-0,116
-695,699	591,673	-0,081	-0,145
-694,685	-200,000	-0,014	-0,149
-693,670	112,545	-0,051	-0,044
-692,656	800,000	-0,038	-0,078
-691,641	-28,326	0,167	-0,069
-690,627	-147,019	-0,117	0,007
-689,612	-14,055	-0,152	-0,071
-688,597	800,000	0,059	0,128
-687,583	509,325	-0,030	0,050
-686,568	567,298	0,100	-0,177
-685,554	-200,000	-0,007	0,028
-684,539	-80,545	0,043	-0,010
-683,524	-200,000	-0,007	-0,023
-682,510	-200,000	0,030	0,102
-681,495	-35,669	-0,054	-0,021
-680,481	53,840	-0,135	-0,093
-679,466	-200,000	-0,038	-0,170
-678,451	596,069	0,026	0,048
-677,437	-96,586	0,116	0,022
-676,422	800,000	0,044	0,097
-675,408	-200,000	0,000	0,004
-674,393	-200,000	0,018	0,082
-673,378	-200,000	-0,016	-0,136
-672,364	-60,058	-0,085	-0,026
-671,349	-106,134	-0,147	-0,024
-670,335	-43,055	0,103	-0,038
-669,320	-200,000	0,008	0,064
-668,305	-133,632	-0,155	-0,014
-667,291	-16,253	0,020	0,009
-666,276	-84,274	-0,057	0,013
-665,262	510,335	0,030	0,051
-664,247	48,496	-0,121	-0,081
-663,232	800,000	-0,022	-0,055
-662,218	135,490	-0,099	0,093
-661,203	-200,000	-0,017	-0,063
-660,189	187,471	0,075	0,081
-659,174	355,281	-0,112	-0,161
-658,159	5,712	0,049	-0,026
-657,145	-22,057	0,079	-0,034
-656,130	-3,658	0,098	-0,049
-655,116	800,000	-0,036	-0,075
-654,101	211,575	0,120	-0,137
-653,086	109,921	0,022	0,019
-652,072	91,945	-0,021	0,017
-651,057	244,920	-0,063	-0,077
-650,043	-115,659	0,132	-0,018
-649,028	800,000	-0,054	-0,137
-648,014	-200,000	-0,002	-0,013
-646,999	-182,148	-0,063	0,001
-645,984	104,174	-0,077	-0,066
-644,970	-200,000	0,020	-0,120
-643,955	54,559	-0,150	-0,104
-642,941	-47,512	-0,122	-0,043
-641,926	-200,000	0,034	-0,150
-640,911	-18,892	0,091	-0,041
-639,897	-33,671	0,037	-0,015
-638,882	81,701	0,170	-0,133
-637,868	52,355	-0,115	0,079
-636,853	512,675	-0,057	0,096
-635,838	-50,642	-0,233	-0,079
-634,824	-200,000	-0,000	-0,004
-633,809	800,000	0,022	0,056
-632,795	58,499	-0,195	0,138
-631,780	419,915	-0,053	0,083
-630,765	-108,200	0,052	-0,008
-629,751	541,862	-0,102	0,175
-628,736	47,138	0,065	-0,044
-627,722	431,432	-0,042	0,066
-626,707	-119,726	0,114	-0,014
-625,692	800,000	0,013	0,036
-624,678	-200,000	-0,019	0,101
-623,663	103,746	-0,045	0,038
-622,649	91,744	-0,070	0,056
-621,634	691,019	0,079	-0,151
-620,619	-200,000	0,006	-0,051
-619,605	-26,806	0,007	0,003
-618,590	800,000	0,036	-0,082
-617,576	-200,000	0,017	0,060
-616,561	-9,084	0,073	0,035
-615,546	800,000	0,028	-0,078
-614,532	-41,547	-0,129	-0,048
-613,517	382,927	0,070	-0,104
-612,503	-200,000	0,058	0,000
-611,488	-166,009	0,054	0,002
-610,474	-104,589	0,237	-0,039
-609,459	800,000	0,016	0,047
-608,444	161,780	0,069	0,070
-607,430	320,243	-0,043	-0,059
-606,415	800,000	-0,038	-0,080
-605,401	-58,986	0,073	-0,023
-604,386	800,000	0,039	0,091
-603,371	-200,000	-0,019	0,087
-602,357	-200,000	-0,005	0,150
-601,342	773,783	-0,018	-0,036
-600,328	-200,000	0,001	-0,060
-599,313	-200,000	-0,039	0,140
-598,298	800,000	-0,010	-0,019
-597,284	-84,174	0,119	0,027
-596,269	-200,000	0,001	-0,076
-595,255	1,819	0,040	0,021
-594,240	-200,000	0,000	-0,099
-593,225	-106,094	0,111	-0,018
-592,211	263,600	-0,055	-0,069
-591,196	800,000	0,047	0,111
-590,182	192,409	-0,061	-0,066
-589,167	-60,599	-0,190	0,058
-588,152	-200,000	0,009	0,038
-587,138	-78,427	-0,048	-0,012
-586,123	178,488	-0,040	-0,042
-585,109	40,599	-0,103	-0,067
-584,094	-16,837	-0,116	0,053
-583,079	-152,295	0,118	0,006
-582,065	644,768	-0,058	0,107
-581,050	-200,000	-0,015	-0,144
-580,036	-79,373	-0,051	-0,012
-579,021	515,348	-0,049	-0,082
-578,006	81,345	0,068	-0,053
-576,992	800,000	0,053	-0,108
-575,977	262,524	-0,034	0,043
-574,963	-43,680	-0,098	-0,035
-573,948	800,000	-0,050	0,135
-572,934	145,873	-0,022	-0,021
-571,919	-69,689	-0,047	-0,013
-570,904	799,634	-0,029	-0,059
-569,890	87,484	-0,170	-0,135
-568,875	-200,000	0,007	0,071
-567,861	-44,295	-0,087	0,031
-566,846	537,744	-0,070	0,120
-565,831	213,890	-0,096	0,110
-564,817	-150,993	0,087	0,005
-563,802	800,000	-0,032	-0,072
-562,788	800,000	0,029	-0,071
-561,773	-122,398	0,131	0,015
-560,758	25,415	0,065	0,039
-559,744	-200,000	0,025	-0,081
-558,729	-200,000	-0,025	0,091
-557,715	630,942	0,045	-0,082
-556,700	-200,000	-0,043	-0,203
-555,685	65,366	-0,063	-0,046
-554,671	-133,684	0,229	-0,020
-553,656	25,369	0,068	-0,041
-552,642	800,000	-0,024	0,072
-551,627	11,888	0,060	-0,033
-550,612	317,487	-0,025	0,034
-549,598	-200,000	-0,006	-0,045
-548,583	37,608	-0,093	0,059
-547,569	116,234	0,112	0,099
-546,554	91,446	0,154	0,124
-545,539	-13,153	-0,062	-0,029
-544,525	624,189	0,042	0,077
-543,510	-200,000	0,006	0,026
-542,496	800,000	0,012	0,030
-541,481	35,621	-0,063	-0,039
-540,466	-149,858	0,121	-0,007
-539,452	11,787	0,116	-0,064
-538,437	286,935	0,112	0,145
-537,423	373,589	0,055	-0,081
-536,408	345,063	-0,078	-0,110
-535,393	221,832	-0,004	-0,004
-534,379	-116,196	-0,085	0,011
-533,364	-200,000	-0,009	0,130
-532,350	800,000	0,005	-0,015
-531,335	-116,922	0,120	0,016
-530,321	16,724	-0,097	-0,055
-529,306	-200,000	-0,013	-0,204
-528,291	-200,000	0,032	-0,139
-527,277	233,730	0,015	0,018
-526,262	221,536	-0,099	-0,115
-525,248	72,724	0,015	-0,011
-524,233	800,000	0,056	0,150
-523,218	129,335	-0,050	-0,046
-522,204	-200,000	0,018	-0,070
-521,189	800,000	-0,048	-0,117
-520,175	-126,345	-0,040	0,004
-519,160	-166,592	0,071	-0,002
-518,145	-18,495	0,064	0,028
-517,131	-29,261	0,090	0,037
-516,116	800,000	-0,034	-0,099
-515,102	800,000	-0,030	0,061
-514,087	-200,000	-0,015	-0,081
-513,072	33,752	-0,181	0,113
-512,058	279,423	-0,056	-0,073
-511,043	-5,025	-0,062	0,030
-510,029	800,000	-0,054	0,133
-509,014	-200,000	-0,021	0,149
-507,999	471,289	0,033	-0,054
-506,985	-200,000	0,013	0,087
-505,970	800,000	-0,057	-0,140
-504,956	56,257	0,124	-0,086
-503,941	37,421	-0,089	-0,057
-502,926	738,131	-0,019	0,038
-501,912	57,511	-0,118	0,083
-500,897	-200,000	0,021	0,096
-499,883	567,664	-0,026	-0,046
-498,868	-109,241	-0,155	0,023
-497,853	-57,621	-0,068	-0,021
-496,839	615,823	0,031	-0,056
-495,824	17,229	0,068	0,038
-494,810	-200,000	-0,019	-0,107
-493,795	-83,874	-0,122	0,028
-492,781	-110,462	-0,066	0,010
-491,766	11,035	-0,079	0,043
-490,751	-172,627	0,104	-0,002
-489,737	230,079	0,021	-0,025
-488,722	-200,000	-0,004	0,080
-487,708	149,706	0,039	0,038
-486,693	-200,000	-0,025	0,115
-485,678	204,785	-0,025	0,028
-484,664	435,054	0,036	-0,056
-483,649	-102,476	-0,088	-0,015
-482,635	-200,000	-0,022	0,128
-481,620	-118,588	0,025	-0,003
-480,605	234,903	0,082	0,097
-479,591	-200,000	-0,020	0,078
-478,576	139,727	-0,060	-0,056
-477,562	59,993	-0,148	-0,105
-476,547	-81,395	0,089	0,021
-475,532	450,190	-0,018	-0,028
-474,518	-25,006	0,079	0,033
-473,503	25,781	-0,079	0,047
-472,489	800,000	-0,068	0,138
-471,474	-200,000	0,001	0,044
-470,459	-39,702	-0,193	-0,072
-469,445	-200,000	0,008	-0,074
-468,430	98,599	-0,072	0,059
-467,416	-120,402	0,065	-0,008
-466,401	800,000	0,037	-0,095
-465,386	-30,988	-0,023	-0,009
-464,372	-200,000	0,012	-0,038
-463,357	800,000	0,064	-0,132
-462,343	-112,437	0,048	0,007
-461,328	91,172	0,156	-0,126
-460,313	177,678	-0,056	-0,059
-459,299	16,685	0,051	0,029
-458,284	-30,158	0,036	-0,015
-457,270	75,596	0,034	-0,026
-456,255	-200,000	-0,028	-0,109
-455,241	466,413	0,016	0,026
-454,226	-200,000	-0,001	0,078
-453,211	-200,000	-0,004	-0,151
-452,197	29,511	0,081	0,049
-451,182	-200,000	-0,009	0,038
-450,168	-6,025	-0,050	-0,024
-449,153	-105,582	-0,072	0,012
-448,138	140,178	0,117	0,111
-447,124	278,805	-0,114	-0,147
-446,109	800,000	-0,015	-0,037
-445,095	-66,099	0,086	0,024
-444,080	349,799	0,042	0,059
-443,065	-200,000	-0,009	0,076
-442,051	116,896	0,114	-0,101
-441,036	383,323	0,050	-0,074
-440,022	-200,000	-0,030	-0,121
-439,007	-145,683	-0,053	-0,003
-437,992	-200,000	0,003	0,048
-436,978	183,760	0,083	-0,088
-435,963	208,310	0,057	-0,064
-434,949	186,125	-0,019	-0,021
-433,934	-62,302	0,162	0,048
-432,919	-91,054	-0,040	-0,008
-431,905	431,904	-0,019	-0,029
-430,890	652,498	-0,042	-0,078
-429,876	93,443	0,112	0,090
-428,861	-200,000	-0,013	0,174
-427,846	-200,000	0,035	-0,121
-426,832	-200,000	-0,004	0,085
-425,817	15,296	-0,058	-0,032
-424,803	800,000	-0,049	-0,106
-423,788	-200,000	-0,011	-0,066
-422,773	-98,029	0,176	-0,032
-421,759	-200,000	-0,012	0,272
-420,744	-166,881	-0,146	0,004
-419,730	107,755	0,044	0,038
-418,715	574,226	-0,064	-0,112
-417,701	-87,312	0,011	0,002
-416,686	125,014	0,096	0,087
-415,671	155,817	-0,051	-0,050
-414,657	-21,849	0,082	-0,035
-413,642	-102,937	-0,063	0,011
-412,628	-200,000	-0,020	-0,078
-411,613	29,726	0,067	0,041
-410,598	800,000	-0,022	0,044
-409,584	-200,000	-0,007	-0,036
-408,569	367,590	-0,046	0,067
-407,555	-200,000	-0,017	0,060
-406,540	-200,000	0,010	0,059
-405,525	-200,000	-0,011	0,080
-404,511	176,367	-0,016	0,016
-403,496	47,771	-0,054	0,036
-402,482	-184,446	0,077	-0,001
-401,467	195,072	-0,022	-0,024
-400,452	703,659	-0,018	-0,033
-399,438	330,549	-0,030	0,041
-398,423	-37,234	0,043	0,016
-397,409	130,170	0,045	0,042
-396,394	800,000	-0,033	-0,079
-395,379	7,746	0,033	-0,017
-394,365	-200,000	0,002	0,064
-393,350	-87,276	0,089	-0,019
-392,336	107,217	-0,032	0,028
-391,321	-200,000	0,000	0,011
-390,306	83,494	-0,029	-0,023
-389,292	-62,554	-0,112	0,033
-388,277	-200,000	0,042	0,148
-387,263	-200,000	-0,040	0,156
-386,248	-45,921	0,125	0,044
-385,233	-200,000	0,015	0,081
-384,219	-52,187	-0,012	0,004
-383,204	-200,000	-0,009	-0,110
-382,190	-200,000	0,031	-0,160
-381,175	138,260	0,046	0,043
-380,160	65,597	-0,033	-0,024
-379,146	-200,000	0,001	-0,095
-378,131	12,288	-0,060	-0,033
-377,117	52,808	0,013	-0,009
-376,102	442,545	0,030	-0,047
-375,088	113,820	-0,020	-0,017
-374,073	73,311	0,041	-0,030
-373,058	-29,177	0,106	0,043
-372,044	42,678	0,063	0,041
-371,029	178,813	0,023	0,024
-370,015	-62,198	0,144	0,043
-369,000	-200,000	-0,045	-0,162
-367,985	298,297	-0,020	-0,026
-366,971	-200,000	-0,008	0,027
-365,956	-42,558	0,164	-0,059
-364,942	73,129	-0,084	0,062
-363,927	800,000	0,043	0,112
-362,912	386,957	-0,054	-0,080
-361,898	90,091	-0,042	0,033
-360,883	-200,000	-0,008	-0,030
-359,869	-200,000	0,032	-0,108
-358,854	-200,000	-0,023	0,094
-357,839	-200,000	-0,002	0,093
-356,825	-200,000	0,028	0,142
-355,810	12,270	-0,178	0,098
-354,796	-9,335	-0,142	-0,068
-353,781	-99,846	-0,107	-0,019
-352,766	-4,014	-0,042	0,021
-351,752	25,203	0,052	-0,031
-350,737	800,000	0,035	0,072
-349,723	68,988	0,060	-0,044
-348,708	-200,000	-0,002	0,015
-347,693	-173,713	0,083	0,002
-346,679	54,806	-0,063	-0,044
-345,664	800,000	-0,028	-0,076
-344,650	516,049	-0,030	0,050
-343,635	-98,942	0,021	0,004
-342,620	800,000	0,012	0,032
-341,606	-45,176	0,089	-0,031
-340,591	-39,713	-0,150	-0,056
-339,577	800,000	0,029	0,060
-338,562	-200,000	0,016	-0,089
-337,548	800,000	-0,011	0,028
-336,533	-80,217	0,108	0,026
-335,518	-200,000	0,019	0,133
-334,504	38,598	0,018	0,011
-333,489	-200,000	-0,010	0,094
-332,475	-135,216	-0,071	-0,006
-331,460	77,915	0,009	0,007
-330,445	347,573	-0,121	-0,171
-329,431	666,917	-0,060	0,112
-328,416	800,000	0,033	-0,075
-327,402	-136,026	-0,009	0,001
-326,387	-72,665	-0,164	-0,043
-325,372	435,911	-0,070	-0,109
-324,358	-78,339	0,059	-0,014
-323,343	-136,610	-0,109	-0,009
-322,329	88,386	-0,059	-0,046
-321,314	188,056	-0,042	0,045
-320,299	800,000	0,023	0,067
-319,285	401,936	0,036	0,054
-318,270	-148,740	-0,098	0,006
-317,256	-109,576	-0,075	0,011
-316,241	215,431	0,061	-0,069
-315,226	38,711	-0,058	-0,037
-314,212	-39,319	0,007	0,003
-313,197	-27,599	0,072	-0,029
-312,183	-121,702	-0,052	-0,006
-311,168	81,461	-0,174	-0,134
-310,153	302,986	0,034	-0,044
-309,139	103,298	-0,069	0,058
-308,124	-200,000	0,030	0,143
-307,110	147,189	0,021	0,020
-306,095	800,000	0,016	0,044
-305,080	17,048	0,099	0,056
-304,066	109,200	-0,028	-0,024
-303,051	-77,879	-0,201	-0,049
-302,037	-17,754	0,038	0,017
-301,022	4,083	-0,099	0,052
-300,008	800,000	0,027	0,076
-298,993	-109,658	0,113	0,017
-297,978	800,000	-0,047	0,139
-296,964	-200,000	-0,005	-0,024
-295,949	800,000	-0,068	-0,134
-294,935	157,491	-0,033	0,033
-293,920	85,489	0,079	-0,061
-292,905	176,864	0,139	0,144
-291,891	-140,985	-0,097	0,007
-290,876	800,000	-0,026	0,071
-289,862	-163,843	0,107	-0,003
-288,847	116,268	0,064	-0,056
-287,832	-84,515	0,105	-0,023
-286,818	106,427	-0,113	-0,096
-285,803	-87,915	-0,019	0,004
-284,789	-200,000	-0,021	0,069
-283,774	110,155	-0,059	0,050
-282,759	-87,868	0,097	-0,021
-281,745	800,000	-0,054	-0,124
-280,730	64,581	0,021	-0,015
-279,716	800,000	0,021	-0,065
-278,701	538,039	0,057	0,098
-277,686	172,310	0,160	-0,164
-276,672	-200,000	0,011	-0,058
-275,657	110,695	-0,040	-0,034
-274,643	-4,365	-0,129	-0,063
-273,628	-200,000	0,003	-0,064
-272,613	82,617	-0,050	-0,038
-271,599	213,816	0,052	0,059
-270,584	49,924	0,040	-0,026
-269,570	117,115	0,054	-0,047
-268,555	-200,000	-0,017	-0,147
-267,540	7,966	-0,037	0,020
-266,526	722,557	-0,107	-0,204
-265,511	-193,918	0,025	-0,000
-264,497	178,743	0,078	0,081
-263,482	-68,362	0,120	0,033
-262,467	108,303	0,124	0,105
-261,453	-138,879	-0,137	0,010
-260,438	216,326	0,019	0,021
-259,424	70,185	0,048	0,035
-258,409	150,311	0,043	-0,042
-257,395	-200,000	0,003	-0,069
-256,380	79,180	0,123	-0,094
-255,365	282,124	-0,022	0,028
-254,351	19,800	0,043	-0,024
-253,336	606,132	-0,028	-0,050
-252,322	800,000	-0,022	0,053
-251,307	129,596	0,085	-0,077
-250,292	-200,000	0,025	-0,100
-249,278	-69,276	-0,110	-0,030
-248,263	46,070	-0,049	0,033
-247,249	-136,391	0,036	-0,003
-246,234	-45,266	0,052	-0,018
-245,219	733,060	-0,076	-0,145
-244,205	204,065	0,046	0,050
-243,190	377,840	-0,078	0,114
-242,176	3,410	0,041	0,021
-241,161	-97,951	-0,029	-0,005
-240,146	27,478	0,119	-0,071
-239,132	395,396	-0,106	-0,158
-238,117	36,143	0,141	0,088
-237,103	800,000	0,014	0,030
-236,088	321,798	-0,015	0,021
-235,073	-14,267	0,066	0,030
-234,059	-20,392	-0,052	0,023
-233,044	321,692	0,035	0,047
-232,030	-1,912	0,043	-0,021
-231,015	374,654	-0,060	-0,087
-230,000	-200,000	-0,002	-0,041
-228,986	-200,000	0,027	0,181
-227,971	124,105	0,130	-0,116
-226,957	-64,954	0,046	0,013
-225,942	-200,000	-0,014	0,055
-224,927	800,000	0,026	-0,053
-223,913	800,000	0,010	-0,030
-222,898	105,334	0,024	0,020
-221,884	-0,790	0,080	0,040
-220,869	-124,712	0,161	-0,017
-219,855	-94,784	0,051	-0,010
-218,840	71,938	0,115	0,085
-217,825	454,439	-0,060	0,094
-216,811	-107,449	-0,115	0,018
-215,796	-183,051	-0,061	0,001
-214,782	-123,907	-0,114	-0,013
-213,767	800,000	-0,053	-0,106
-212,752	6,119	0,115	0,060
-211,738	-190,999	-0,089	0,001
-210,723	455,967	0,028	-0,044
-209,709	-200,000	-0,006	-0,024
-208,694	-200,000	-0,024	-0,151
-207,679	-47,767	-0,111	0,038
-206,665	-136,142	0,080	-0,007
-205,650	149,989	-0,041	0,040
-204,636	800,000	0,040	0,123
-203,621	-200,000	0,010	0,077
-202,606	783,515	0,035	-0,068
-201,592	800,000	-0,026	-0,073
-200,577	560,299	-0,065	-0,112
-199,563	-53,315	0,129	0,042
-198,548	294,376	-0,057	0,074
-197,533	800,000	-0,059	0,128
-196,519	53,222	-0,066	0,045
-195,504	255,057	-0,063	-0,076
-194,490	-30,472	-0,100	-0,040
-193,475	359,305	0,007	-0,010
-192,460	-200,000	0,046	0,158
-191,446	-23,185	0,094	0,040
-190,431	-136,495	-0,077	0,006
-189,417	-112,532	0,086	-0,012
-188,402	-200,000	-0,004	-0,040
-187,387	190,395	-0,094	0,100
-186,373	505,448	-0,037	0,061
-185,358	-200,000	0,003	-0,050
-184,344	-92,964	0,036	-0,007
-183,329	-200,000	-0,011	0,059
-182,315	800,000	-0,010	0,031
-181,300	-200,000	0,024	0,155
-180,285	208,574	-0,045	0,050
-179,271	-119,441	0,114	-0,014
-178,256	-165,027	-0,100	0,003
-177,242	-200,000	0,023	0,089
-176,227	800,000	0,036	0,098
-175,212	-200,000	0,030	0,134
-174,198	147,460	0,076	0,072
-173,183	-46,789	-0,030	0,010
-172,169	7,315	0,127	0,067
-171,154	157,096	-0,023	-0,022
-170,139	22,099	0,062	0,036
-169,125	-200,000	0,038	-0,199
-168,110	-200,000	0,030	0,196
-167,096	-200,000	-0,040	0,194
-166,081	800,000	0,025	-0,063
-165,066	-200,000	0,014	-0,077
-164,052	800,000	0,058	0,121
-163,037	119,355	0,069	-0,060
-162,023	-82,636	0,043	-0,010
-161,008	481,015	0,049	0,080
-159,993	408,480	-0,073	-0,109
-158,979	476,515	-0,065	-0,105
-157,964	232,198	0,070	-0,081
-156,950	-200,000	0,001	0,120
-155,935	800,000	0,055	-0,138
-154,920	800,000	0,079	0,167
-153,906	-200,000	-0,003	0,128
-152,891	538,668	0,065	0,110
-151,877	-28,247	-0,134	-0,054
-150,862	587,617	0,032	-0,056
-149,847	-200,000	-0,004	0,048
-148,833	-77,308	0,147	0,036
-147,818	-200,000	-0,004	0,020
-146,804	603,017	0,107	0,189
-145,789	316,126	-0,087	0,116
-144,775	131,839	0,090	0,082
-143,760	800,000	0,029	-0,067
-142,745	-200,000	-0,020	0,149
-141,731	-200,000	-0,005	0,085
-140,716	147,946	-0,022	0,021
-139,702	710,639	0,052	-0,098
-138,687	452,489	0,023	0,035
-137,672	-46,359	-0,064	-0,022
-136,658	-38,597	0,061	0,023
-135,643	126,647	0,035	-0,032
-134,629	-200,000	0,011	-0,039
-133,614	-71,958	0,012	-0,003
-132,599	172,752	0,094	-0,096
-131,585	-125,661	-0,068	0,007
-130,570	-200,000	-0,006	0,052
-129,556	-54,284	-0,109	0,035
-128,541	196,676	-0,129	0,139
-127,526	800,000	0,032	0,078
-126,512	-154,595	0,107	-0,005
-125,497	472,495	0,035	0,055
-124,483	-200,000	-0,009	-0,094
-123,468	14,252	-0,090	-0,049
-122,453	-200,000	0,004	-0,097
-121,439	800,000	-0,029	0,059
-120,424	800,000	-0,026	-0,054
-119,410	86,693	0,037	-0,029
-118,395	78,652	-0,089	-0,067
-117,380	800,000	0,049	-0,096
-116,366	-200,000	-0,018	0,105
-115,351	555,768	0,016	-0,027
-114,337	68,488	-0,160	-0,116
-113,322	0,675	0,039	0,020
-112,307	364,448	-0,033	-0,047
-111,293	-53,265	0,053	0,017
-110,278	528,150	0,025	-0,041
-109,264	-174,980	-0,116	0,002
-108,249	-70,813	-0,073	-0,019
-107,234	204,171	-0,077	-0,084
-106,220	318,503	-0,068	-0,091
-105,205	80,264	-0,045	0,034
-104,191	552,789	-0,046	0,079
-103,176	259,385	0,097	0,119
-102,162	286,026	-0,048	0,061
-101,147	800,000	0,028	0,067
-100,132	76,321	0,021	0,015
-99,118	122,322	0,056	-0,050
-98,103	-6,413	0,116	0,056
-97,089	471,731	-0,005	-0,009
-96,074	800,000	-0,067	0,135
-95,059	442,601	-0,071	0,110
-94,045	43,974	-0,051	-0,033
-93,030	754,756	-0,033	-0,064
-92,016	-57,331	0,124	0,038
-91,001	-67,518	-0,060	0,016
-89,986	463,182	0,050	-0,080
-88,972	-146,172	-0,108	-0,007
-87,957	0,751	0,045	-0,022
-86,943	-200,000	-0,006	0,035
-85,928	213,849	0,081	-0,091
-84,913	10,796	-0,135	-0,073
-83,899	158,058	0,110	-0,108
-82,884	609,744	0,030	0,053
-81,870	-200,000	-0,007	0,141
-80,855	240,758	0,048	0,057
-79,840	-200,000	0,034	-0,147
-78,826	278,892	-0,048	0,060
-77,811	-200,000	-0,011	-0,128
-76,797	94,481	0,067	0,054
-75,782	-169,090	-0,025	-0,001
-74,767	-114,008	0,092	-0,012
-73,753	95,274	0,060	-0,048
-72,738	230,824	-0,033	0,038
-71,724	-200,000	0,004	0,073
-70,709	68,449	-0,085	0,061
-69,694	221,788	0,047	-0,053
-68,680	-200,000	0,031	-0,123
-67,665	-33,468	-0,111	0,043
-66,651	-21,707	0,140	0,060
-65,636	552,506	0,007	0,012
-64,622	-90,801	-0,052	-0,011
-63,607	-14,506	-0,230	-0,104
-62,592	37,065	-0,009	0,006
-61,578	-103,869	0,102	-0,017
-60,563	-105,092	0,079	-0,013
-59,549	-200,000	-0,018	0,106
-58,534	55,722	-2,191	-1,496
-57,519	633,494	-0,980	-1,760
-56,505	-200,000	-0,458	-4,431
-55,490	800,000	0,796	1,704
-54,476	800,000	5,200	11,419
-53,461	-200,000	22,337	346,655
-52,446	800,000	757,081	2291,441
-51,432	533,154	1643,360	2755,069
-50,417	67,928	1642,037	1183,100
-49,403	15,659	1519,523	840,026
-48,388	9,809	1445,494	771,018
-47,373	19,252	1438,496	812,237
-46,359	13,398	1426,672	777,922
-45,344	8,193	1422,729	751,138
-44,330	8,132	1420,697	749,746
-43,315	8,059	1419,237	748,599
-42,300	8,074	1417,384	747,662
-41,286	8,092	1416,025	747,000
-40,271	8,070	1414,838	746,245
-39,257	8,105	1413,527	745,686
-38,242	8,139	1412,395	745,220
-37,227	8,122	1411,252	744,509
-36,213	8,089	1410,156	743,744
-35,198	8,104	1408,685	743,009
-34,184	8,113	1407,925	742,620
-33,169	8,000	1406,828	741,486
-32,154	8,057	1405,793	741,176
-31,140	8,055	1404,598	740,508
-30,125	8,042	1403,174	739,665
-29,111	8,035	1402,163	739,070
-28,096	8,016	1401,068	738,377
-27,082	8,022	1399,797	737,706
-26,067	8,034	1398,548	737,074
-25,052	8,046	1397,540	736,567
-24,038	8,018	1396,463	735,842
-23,023	7,999	1395,684	735,314
-22,009	8,004	1394,707	734,794
-20,994	7,998	1393,704	734,209
-19,979	7,999	1392,678	733,641
-18,965	7,934	1391,934	732,920
-17,950	7,935	1390,950	732,378
-16,936	7,902	1390,193	731,797
-15,921	7,860	1389,274	731,093
-14,906	7,915	1388,091	730,695
-13,892	7,964	1387,088	730,361
-12,877	7,898	1386,498	729,721
-11,863	7,885	1385,679	729,197
-10,848	7,917	1384,516	728,705
-9,833	7,878	1383,763	728,100
-8,819	7,856	1382,718	727,422
-7,804	7,845	1381,863	726,893
-6,790	7,856	1380,845	726,378
-5,775	7,858	1379,868	725,845
-4,760	7,837	1378,905	725,211
-3,746	7,851	1378,130	724,839
-2,731	7,869	1377,259	724,435
-1,717	7,817	1376,575	723,807
-0,702	7,850	1374,406	722,791
0,313	11,794	1284,953	693,615
1,327	27,460	676,829	400,243
2,342	43,034	116,366	74,672
3,356	0,855	16,515	8,310
4,371	2,647	3,814	1,942
5,386	6,843	1,372	0,718
6,400	800,000	0,233	0,676
7,415	-42,565	-0,143	-0,051
8,429	74,282	-0,270	-0,200
9,444	45,504	-0,216	-0,140
10,459	66,013	-0,229	-0,164
11,473	15,824	-0,334	-0,185
12,488	-84,960	-0,274	-0,060
13,502	-110,570	-0,368	-0,053
14,517	-39,630	-0,392	-0,144
15,531	-3,262	-0,324	-0,159
16,546	29,997	-0,477	-0,286
17,561	36,139	-0,363	-0,224
18,575	62,226	-0,154	0,108
19,590	0,061	-0,175	-0,088
20,604	108,514	-0,336	-0,282
21,619	137,249	-0,320	-0,295
22,634	159,666	-0,349	-0,342
23,648	72,836	-0,395	-0,290
24,663	60,513	-0,467	-0,325
25,677	-55,024	-0,310	-0,098
26,692	35,611	-0,330	-0,204
27,707	-8,584	-0,266	-0,125
28,721	98,608	-0,339	-0,275
29,736	67,433	-0,481	-0,345
30,750	116,130	-0,372	-0,320
31,765	138,978	-0,303	-0,280
32,780	-28,509	-0,331	-0,133
33,794	-41,026	-0,306	-0,111
34,809	78,328	-0,314	-0,235
35,823	61,827	-0,414	-0,289
36,838	34,924	-0,501	-0,307
37,853	103,397	-0,422	-0,348
38,867	38,537	-0,323	-0,202
39,882	38,484	-0,308	-0,193
40,896	166,626	-0,165	-0,165
41,911	402,404	-0,198	-0,293
42,926	16,422	-0,453	-0,251
43,940	115,343	-0,269	-0,231
44,955	68,784	-0,352	-0,254
45,969	800,000	-0,245	-0,514
46,984	757,684	-0,212	-0,405
47,999	140,106	-0,236	-0,219
49,013	19,837	-0,356	-0,201
50,028	216,321	-0,276	-0,308
51,042	130,144	-0,411	-0,370
52,057	115,573	-0,232	-0,199
53,071	70,263	-0,307	-0,222
54,086	376,834	-0,238	-0,342
55,101	683,069	-0,177	-0,324
56,115	40,178	-0,330	-0,208
57,130	-27,723	-0,483	-0,196
58,144	-6,135	-0,345	-0,165
59,159	56,465	-0,447	-0,305
60,174	4,273	-0,383	-0,196
61,188	-29,504	-0,403	-0,161
62,203	-1,340	-0,353	-0,174
63,217	-51,989	-0,360	-0,116
64,232	-30,991	-0,377	-0,148
65,247	52,055	-0,304	-0,203
66,261	386,923	-0,244	-0,354
67,276	225,076	-0,294	-0,334
68,290	90,677	-0,252	-0,198
69,305	78,354	-0,285	-0,213
70,320	60,659	-0,373	-0,259
71,334	287,291	-0,245	-0,311
72,349	-25,858	-0,434	-0,178
73,363	193,235	-0,354	-0,376
74,378	107,840	-0,323	-0,269
75,393	98,999	-0,255	-0,206
76,407	462,678	-0,146	-0,229
77,422	-93,889	-0,334	-0,064
78,436	109,126	-0,154	-0,129
79,451	-16,583	-0,443	-0,196
80,466	148,626	-0,249	-0,236
81,480	169,995	-0,276	-0,276
82,495	-45,036	-0,256	-0,089
83,509	-23,848	-0,344	-0,144
84,524	29,326	-0,339	-0,201
85,539	-3,074	-0,351	-0,171
86,553	-90,550	-0,247	-0,050
87,568	108,705	-0,307	-0,257
88,582	574,990	-0,166	-0,285
89,597	418,646	-0,185	-0,277
90,611	-99,450	-0,242	-0,042
91,626	90,013	-0,164	-0,128
92,641	-93,076	-0,241	-0,047
93,655	150,963	-0,234	-0,222
94,670	65,390	-0,282	-0,199
95,684	177,600	-0,290	-0,295
96,699	1,198	-0,243	-0,122
97,714	-133,071	-0,422	-0,037
98,728	-80,996	-0,200	-0,046
99,743	-199,943	-0,277	0,001
100,757	233,869	-0,172	-0,198
101,772	42,613	-0,292	-0,186
102,787	-114,659	-0,373	-0,049
103,801	330,815	-0,163	-0,220
104,816	-189,523	-0,261	-0,002
105,830	215,945	-0,216	-0,240
106,845	65,449	-0,199	-0,140
107,860	128,015	-0,268	-0,238
108,874	134,652	-0,171	-0,155
109,889	17,274	-0,270	-0,149
110,903	103,772	-0,278	-0,228
111,918	-6,922	-0,351	-0,166
112,933	19,348	-0,328	-0,183
113,947	41,110	-0,164	-0,103
114,962	-90,408	-0,254	-0,051
115,976	12,512	-0,273	-0,146
116,991	118,821	-0,251	-0,216
118,006	24,599	-0,299	-0,172
119,020	-26,705	-0,135	-0,055
120,035	157,035	-0,205	-0,198
121,049	60,359	-0,188	-0,130
122,064	259,961	-0,256	-0,309
123,079	-18,195	-0,326	-0,142
124,093	-35,033	-0,200	-0,076
125,108	232,046	-0,250	-0,287
126,122	107,435	-0,239	-0,198
127,137	296,400	-0,162	-0,207
128,151	-73,149	-0,357	-0,091
129,166	162,329	-0,152	-0,148
130,181	29,260	-0,393	-0,232
131,195	-134,217	-0,249	-0,021
132,210	104,451	-0,253	-0,207
133,224	274,070	-0,162	-0,201
134,239	-146,689	-0,250	-0,015
135,254	49,490	-0,164	-0,108
136,268	113,166	-0,241	-0,203
137,283	155,145	-0,231	-0,221
138,297	-52,211	-0,281	-0,090
139,312	16,095	-0,297	-0,163
140,327	217,852	-0,184	-0,205
141,341	149,084	-0,120	-0,114
142,356	60,540	-0,181	-0,124
143,370	142,983	-0,193	-0,179
144,385	66,849	-0,296	-0,209
145,400	6,579	-0,312	-0,161
146,414	71,093	-0,158	-0,114
147,429	800,000	-0,135	-0,344
148,443	10,313	-0,233	-0,123
149,458	-35,799	-0,218	-0,082
150,473	-53,707	-0,305	-0,096
151,487	116,564	-0,215	-0,184
152,502	-58,722	-0,354	-0,106
153,516	3,756	-0,264	-0,134
154,531	32,214	-0,292	-0,175
155,546	1,133	-0,187	-0,093
156,560	-22,362	-0,167	-0,070
157,575	31,903	-0,224	-0,134
158,589	73,773	-0,233	-0,170
159,604	165,090	-0,243	-0,239
160,619	63,482	-0,302	-0,210
161,633	119,026	-0,260	-0,224
162,648	270,364	-0,244	-0,298
163,662	-200,000	-0,012	-0,196
164,677	-85,268	-0,184	0,040
165,692	28,905	-0,182	-0,107
166,706	322,450	-0,123	-0,163
167,721	87,761	-0,312	-0,240
168,735	137,374	-0,285	-0,259
169,750	-12,840	-0,297	-0,134
170,764	166,835	-0,136	-0,134
171,779	-41,805	-0,156	-0,055
172,794	466,223	-0,144	-0,224
173,808	50,377	-0,240	-0,157
174,823	175,166	-0,183	-0,184
175,837	28,745	-0,145	-0,085
176,852	262,644	-0,210	-0,254
177,867	140,418	-0,238	-0,218
178,881	-70,078	-0,212	-0,056
179,896	-4,155	-0,218	-0,104
180,910	40,673	-0,184	-0,115
181,925	-171,968	-0,157	-0,003
182,940	-47,303	-0,247	-0,083
183,954	-26,439	-0,221	-0,090
184,969	180,375	-0,193	-0,197
185,983	148,601	-0,209	-0,196
186,998	16,846	-0,102	-0,056
188,013	75,864	-0,233	-0,171
189,027	271,723	-0,155	-0,190
190,042	-60,576	-0,226	-0,066
191,056	56,551	-0,186	-0,125
192,071	249,102	-0,197	-0,232
193,086	79,104	-0,182	-0,135
194,100	-165,008	-0,232	0,007
195,115	223,644	-0,196	-0,219
196,129	186,941	-0,264	-0,272
197,144	-27,655	-0,250	-0,100
198,159	65,423	-0,133	-0,093
199,173	-104,434	-0,312	-0,049
200,188	-162,112	-0,263	0,009
201,202	-137,344	-0,134	-0,010
202,217	706,820	-0,092	-0,169
203,232	800,000	-0,128	-0,272
204,246	-19,678	-0,288	-0,123
205,261	800,000	-0,103	-0,203
206,275	-76,436	-0,191	-0,046
207,290	426,779	-0,150	-0,224
208,304	61,022	-0,270	-0,185
209,319	-0,928	-0,057	-0,028
210,334	-76,073	-0,203	-0,049
211,348	401,155	-0,161	-0,235
212,363	-47,401	-0,149	-0,050
213,377	173,655	-0,158	-0,158
214,392	800,000	-0,104	-0,250
215,407	210,535	-0,163	-0,177
216,421	305,503	-0,195	-0,251
217,436	304,919	-0,178	-0,229
218,450	794,241	-0,129	-0,247
219,465	85,323	-0,286	-0,217
220,480	-88,557	-0,099	-0,020
221,494	800,000	-0,069	-0,174
222,509	671,961	-0,117	-0,211
223,523	84,111	-0,304	-0,230
224,538	-34,161	-0,213	-0,081
225,553	713,692	-0,162	-0,299
226,567	12,643	-0,316	-0,168
227,582	472,838	-0,186	-0,290
228,596	399,111	-0,088	-0,127
229,611	-200,000	-0,052	-0,226
230,626	155,120	-0,226	-0,215
231,640	346,566	-0,239	-0,326
232,655	41,603	-0,240	-0,150
233,669	440,378	-0,227	-0,345
234,684	37,238	-0,241	-0,147
235,699	-16,371	-0,242	-0,106
236,713	319,595	-0,142	-0,186
237,728	0,174	-0,246	-0,121
238,742	-9,232	-0,202	-0,093
239,757	106,268	-0,290	-0,237
240,772	67,923	-0,224	-0,158
241,786	800,000	-0,106	-0,244
242,801	84,055	-0,238	-0,179
243,815	41,963	-0,343	-0,215
244,830	-13,912	-0,154	-0,068
245,844	148,243	-0,206	-0,192
246,859	-4,942	-0,246	-0,117
247,874	371,794	-0,167	-0,234
248,888	800,000	-0,088	-0,255
249,903	-6,834	-0,172	-0,080
250,917	-200,000	-0,037	-0,178
251,932	113,175	-0,170	-0,142
252,947	361,657	-0,082	-0,113
253,961	-200,000	-0,042	-0,130
254,976	800,000	-0,126	-0,301
255,990	715,375	-0,148	-0,272
257,005	58,016	-0,200	-0,134
258,020	162,562	-0,171	-0,166
259,034	59,183	-0,237	-0,160
260,049	800,000	-0,053	-0,130
261,063	-100,752	-0,125	0,021
262,078	-3,766	-0,193	-0,092
263,093	577,270	-0,096	-0,162
264,107	-62,008	-0,231	0,066
265,122	-130,855	-0,208	-0,019
266,136	-6,496	-0,092	-0,043
267,151	-137,791	-0,084	0,006
268,166	34,372	-0,215	-0,129
269,180	-41,512	-0,269	-0,095
270,195	-45,555	-0,230	-0,078
271,209	181,521	-0,157	-0,159
272,224	-200,000	-0,044	-0,173
273,239	-84,340	-0,026	-0,006
274,253	-32,014	-0,264	-0,101
275,268	-108,999	-0,168	-0,024
276,282	751,566	-0,093	-0,173
277,297	146,706	-0,290	-0,268
278,312	176,988	-0,162	-0,162
279,326	33,157	-0,215	-0,128
280,341	-39,721	-0,151	-0,054
281,355	-12,694	-0,104	0,047
282,370	-109,532	-0,166	-0,024
283,384	13,293	-0,117	-0,062
284,399	8,795	-0,202	-0,104
285,414	142,811	-0,157	-0,144
286,428	474,254	-0,115	-0,178
287,443	800,000	-0,093	-0,180
288,457	-136,720	-0,085	-0,007
289,472	340,655	-0,085	-0,114
290,487	-30,921	-0,323	-0,125
291,501	86,582	-0,356	-0,270
292,516	-86,913	-0,164	-0,034
293,530	800,000	-0,045	-0,105
294,545	317,419	-0,059	-0,076
295,560	-196,147	-0,048	-0,000
296,574	-57,815	-0,242	-0,072
297,589	375,743	-0,086	-0,120
298,603	67,069	-0,191	-0,134
299,618	-105,432	-0,105	0,016
300,633	603,871	-0,108	-0,186
301,647	212,351	-0,070	-0,076
302,662	-200,000	-0,033	-0,159
303,676	714,943	-0,087	-0,159
304,691	800,000	-0,062	-0,180
305,706	-100,929	-0,294	-0,049
306,720	-200,000	-0,042	-0,153
307,735	391,770	-0,122	-0,174
308,749	37,621	-0,143	-0,087
309,764	108,748	-0,161	-0,132
310,779	-45,755	-0,148	-0,050
311,793	-19,371	-0,077	-0,033
312,808	140,493	-0,138	-0,125
313,822	800,000	-0,108	-0,231
314,837	17,755	-0,178	-0,097
315,852	-73,042	-0,137	-0,034
316,866	183,572	-0,135	0,137
317,881	800,000	-0,083	-0,159
318,895	131,613	-0,065	0,057
319,910	235,451	-0,069	-0,079
320,925	399,359	-0,124	-0,179
321,939	244,837	-0,105	-0,121
322,954	-169,366	-0,248	0,006
323,968	491,386	-0,123	-0,194
324,983	800,000	-0,076	-0,188
325,997	800,000	-0,073	-0,157
327,012	672,544	-0,086	-0,153
328,027	467,602	-0,114	-0,176
329,041	-200,000	-0,057	-0,227
330,056	268,570	-0,140	-0,169
331,070	107,622	-0,094	-0,077
332,085	-200,000	-0,008	-0,054
333,100	-20,014	-0,170	-0,071
334,114	-42,712	-0,094	0,033
335,129	201,847	-0,119	-0,126
336,143	755,942	-0,071	-0,133
337,158	68,970	-0,184	-0,129
338,173	-76,618	-0,103	-0,025
339,187	452,085	-0,039	-0,059
340,202	-116,363	-0,085	-0,011
341,216	687,913	-0,114	-0,204
342,231	197,354	-0,153	-0,160
343,246	17,858	-0,127	-0,069
344,260	281,317	-0,147	-0,180
345,275	147,388	-0,045	-0,042
346,289	90,212	-0,151	-0,115
347,304	96,495	-0,201	-0,157
348,319	-108,983	-0,144	-0,021
349,333	379,606	-0,152	-0,213
350,348	487,064	-0,117	-0,183
351,362	106,869	-0,123	-0,100
352,377	591,114	-0,036	-0,061
353,392	-1,322	-0,076	-0,037
354,406	135,204	-0,058	-0,051
355,421	206,055	1312,968	1397,496
356,435	158,455	1473,410	1397,938
