DTS Sentinel unit serial number:	SN410029Multiplexer serial number:	ORYXHardware model number:	OX2-SRSoftware version number:	ORYX F/W v4,00 Oryx Data Collector v3.7.2.0data status	okinstallation	B3 Nyhavnadifferential loss correction	single-endedforward channel	channel 1reverse channel	N/Adate	2023/11/30time	17:02:30forward acquisition time	300,00reverse acquisition time	0,00gamma	499,1914k internal	0,3203k external	0,3203temperature offset calibration	1,0000default loss term (dB/km)	0,3820temperature slope calibration	1,0000multiplexer offset coefficient	1,0000multiplexer slope coefficient	1,0000fibre end	0,00T internal ref (°C)	13,09T ext. ref 1 (°C)	-1,58T ext. ref 2 (°C)	-1,63length (m)	temperature (°C)	Stokes	anti-Stokes-744,400	395,758	-0,185	-0,281
-743,385	-200,000	-0,074	0,328
-742,371	570,010	-0,169	-0,299
-741,356	800,000	0,089	0,248
-740,342	268,138	-0,186	-0,237
-739,327	-200,000	-0,063	0,413
-738,312	152,925	-0,297	-0,295
-737,298	800,000	-0,083	0,245
-736,283	119,918	-0,129	-0,116
-735,269	-200,000	0,023	0,286
-734,254	2,394	-0,175	-0,092
-733,239	23,368	-0,163	0,097
-732,225	-200,000	-0,055	-0,228
-731,210	-158,034	0,094	-0,004
-730,196	800,000	0,011	0,023
-729,181	800,000	-0,025	0,070
-728,167	89,320	-0,078	0,063
-727,152	-83,021	-0,072	0,017
-726,137	234,362	-0,093	-0,112
-725,123	147,133	0,117	-0,114
-724,108	-14,209	-0,110	-0,052
-723,094	793,772	-0,075	-0,151
-722,079	-52,168	-0,128	-0,043
-721,064	34,999	0,062	0,039
-720,050	-98,683	0,076	0,014
-719,035	800,000	-0,018	-0,046
-718,021	-121,429	-0,144	-0,017
-717,006	201,764	-0,130	-0,146
-715,991	800,000	-0,023	-0,062
-714,977	-60,773	-0,039	0,012
-713,962	24,427	0,089	0,053
-712,948	-2,313	0,074	0,038
-711,933	183,633	-0,116	-0,125
-710,918	-200,000	-0,014	0,049
-709,904	774,716	-0,059	-0,117
-708,889	800,000	0,025	-0,053
-707,875	-200,000	0,045	-0,171
-706,860	800,000	-0,063	0,186
-705,845	561,968	0,016	-0,029
-704,831	-200,000	0,001	-0,005
-703,816	-83,821	0,045	0,010
-702,802	35,032	0,061	0,039
-701,787	-33,837	-0,051	-0,020
-700,772	-200,000	-0,007	-0,087
-699,758	212,454	-0,119	0,136
-698,743	800,000	0,012	-0,032
-697,729	-64,635	0,131	0,038
-696,714	26,332	-0,106	0,064
-695,699	-102,266	-0,146	-0,025
-694,685	-42,135	-0,038	0,014
-693,670	-26,274	0,090	-0,038
-692,656	-200,000	-0,006	-0,081
-691,641	243,197	0,057	0,069
-690,627	-142,059	0,165	0,012
-689,612	-66,075	-0,087	-0,025
-688,597	142,208	-0,029	0,028
-687,583	-109,884	-0,069	0,010
-686,568	39,876	-0,067	-0,043
-685,554	115,221	-0,044	-0,039
-684,539	-112,540	0,178	-0,025
-683,524	-66,024	0,097	0,028
-682,510	661,853	-0,011	-0,020
-681,495	800,000	0,009	-0,024
-680,481	800,000	0,005	0,012
-679,466	217,774	-0,007	-0,008
-678,451	269,840	-0,107	-0,137
-677,437	800,000	0,033	-0,083
-676,422	221,044	0,128	0,149
-675,408	60,199	0,089	0,064
-674,393	800,000	0,091	0,203
-673,378	-200,000	0,011	-0,054
-672,364	118,629	0,046	-0,041
-671,349	800,000	-0,078	-0,201
-670,335	260,253	-0,056	0,071
-669,320	161,663	-0,014	-0,015
-668,305	208,944	-0,021	-0,024
-667,291	-200,000	-0,006	-0,034
-666,276	308,652	-0,034	0,046
-665,262	-157,379	0,034	-0,001
-664,247	-7,392	-0,056	0,028
-663,232	-74,457	-0,104	-0,027
-662,218	32,115	0,090	-0,056
-661,203	-159,137	0,072	0,003
-660,189	99,472	0,123	-0,103
-659,174	5,291	-0,075	0,040
-658,159	96,508	-0,022	-0,018
-657,145	-23,969	-0,157	0,068
-656,130	53,455	-0,104	0,072
-655,116	21,478	-0,117	-0,069
-654,101	-200,000	-0,010	0,075
-653,086	-146,347	-0,034	0,002
-652,072	348,276	-0,063	-0,090
-651,057	-200,000	0,004	-0,079
-650,043	-200,000	-0,028	-0,101
-649,028	23,682	0,204	0,121
-648,014	-8,476	-0,047	-0,023
-646,999	-59,417	0,074	-0,023
-645,984	2,705	-0,006	0,003
-644,970	23,129	0,047	0,028
-643,955	-38,685	-0,156	-0,059
-642,941	-72,820	0,070	-0,018
-641,926	-59,176	-0,066	-0,020
-640,911	800,000	0,040	0,127
-639,897	596,118	0,023	0,042
-638,882	71,414	-0,124	0,093
-637,868	116,065	-0,052	0,046
-636,853	-98,066	0,011	-0,002
-635,838	-200,000	0,036	-0,130
-634,824	-130,698	-0,046	0,004
-633,809	13,652	-0,016	0,009
-632,795	-200,000	-0,011	0,074
-631,780	174,562	0,040	0,042
-630,765	-200,000	-0,000	-0,077
-629,751	168,759	-0,033	0,034
-628,736	306,049	-0,139	-0,187
-627,722	-200,000	-0,013	-0,150
-626,707	-172,769	-0,067	0,001
-625,692	-200,000	-0,037	0,139
-624,678	-111,579	-0,087	0,013
-623,663	-87,223	0,060	0,013
-622,649	691,984	-0,030	0,058
-621,634	-23,554	-0,101	-0,043
-620,619	-33,112	0,049	0,020
-619,605	-53,374	-0,216	0,071
-618,590	-111,892	0,091	-0,013
-617,576	-200,000	-0,016	0,053
-616,561	378,784	0,019	-0,028
-615,546	11,963	-0,053	0,029
-614,532	-200,000	-0,048	-0,157
-613,517	-200,000	0,001	-0,006
-612,503	-64,604	0,064	-0,019
-611,488	97,479	-0,095	0,079
-610,474	422,897	0,073	0,115
-609,459	-175,981	-0,067	-0,001
-608,444	-200,000	-0,057	-0,185
-607,430	-91,519	0,139	-0,028
-606,415	-76,972	0,048	0,012
-605,401	-148,227	-0,078	-0,005
-604,386	284,202	0,068	-0,088
-603,371	-200,000	0,003	0,149
-602,357	194,149	0,053	0,058
-601,342	82,685	-0,122	-0,096
-600,328	800,000	0,013	-0,032
-599,313	-200,000	-0,000	0,052
-598,298	80,313	-0,164	-0,127
-597,284	-15,070	0,134	-0,062
-596,269	-200,000	-0,011	0,036
-595,255	665,539	-0,077	0,144
-594,240	283,974	-0,053	-0,068
-593,225	-200,000	0,004	-0,203
-592,211	-82,724	-0,140	-0,033
-591,196	-200,000	-0,001	0,183
-590,182	521,737	0,063	0,108
-589,167	-196,482	0,127	-0,001
-588,152	-172,960	0,023	0,001
-587,138	800,000	-0,024	-0,050
-586,123	-79,752	-0,110	-0,026
-585,109	-96,141	-0,046	0,009
-584,094	800,000	-0,045	-0,143
-583,079	-200,000	-0,002	0,066
-582,065	122,856	0,095	-0,086
-581,050	-101,278	-0,032	0,006
-580,036	420,855	0,032	-0,050
-579,021	-200,000	0,004	0,082
-578,006	599,030	0,063	-0,114
-576,992	106,892	0,097	-0,083
-575,977	88,748	-0,054	-0,043
-574,963	-155,752	0,058	-0,003
-573,948	-153,923	0,066	0,003
-572,934	-82,260	-0,140	-0,033
-571,919	-200,000	0,027	-0,102
-570,904	-200,000	-0,002	0,066
-569,890	79,441	0,075	0,058
-568,875	-111,298	0,038	-0,006
-567,861	-2,768	-0,006	-0,003
-566,846	-200,000	-0,004	0,040
-565,831	-53,661	0,069	0,023
-564,817	7,730	-0,094	-0,051
-563,802	-41,410	-0,087	-0,032
-562,788	-75,523	0,062	0,016
-561,773	800,000	0,026	-0,072
-560,758	730,928	-0,076	0,146
-559,744	101,913	0,052	-0,044
-558,729	-200,000	0,008	-0,037
-557,715	-160,363	-0,069	-0,003
-556,700	-181,909	0,142	-0,002
-555,685	-200,000	-0,002	-0,110
-554,671	-200,000	-0,001	-0,024
-553,656	800,000	0,013	-0,037
-552,642	46,493	0,098	0,065
-551,627	-58,581	0,085	-0,026
-550,612	18,521	-0,117	0,067
-549,598	30,865	-0,115	0,071
-548,583	-200,000	0,035	0,112
-547,569	-16,216	-0,043	0,020
-546,554	-61,276	0,061	0,018
-545,539	-11,797	0,049	-0,023
-544,525	800,000	0,008	-0,018
-543,510	-26,132	-0,055	0,023
-542,496	-200,000	-0,001	-0,198
-541,481	610,075	0,039	-0,071
-540,466	287,766	-0,072	-0,094
-539,452	121,222	-0,087	-0,078
-538,437	167,234	0,087	0,089
-537,423	170,211	-0,127	0,132
-536,408	-138,736	-0,133	-0,010
-535,393	41,472	-0,086	-0,056
-534,379	-200,000	-0,011	-0,044
-533,364	-200,000	0,007	0,074
-532,350	220,602	0,053	0,062
-531,335	-4,486	0,120	-0,060
-530,321	800,000	0,034	0,101
-529,306	664,148	0,037	-0,069
-528,291	21,760	0,039	-0,023
-527,277	800,000	0,036	-0,090
-526,262	352,339	-0,044	-0,063
-525,248	-200,000	0,029	0,110
-524,233	800,000	0,021	0,047
-523,218	407,340	-0,108	0,165
-522,204	-200,000	0,000	0,102
-521,189	-185,655	0,156	-0,002
-520,175	5,821	-0,085	-0,045
-519,160	-138,638	0,030	0,002
-518,145	63,168	-0,067	-0,048
-517,131	-86,705	0,132	0,029
-516,116	-70,850	0,053	-0,014
-515,102	-103,804	-0,075	0,012
-514,087	116,605	0,070	0,062
-513,072	264,115	-0,031	-0,039
-512,058	108,283	-0,028	0,024
-511,043	-107,159	0,115	-0,018
-510,029	800,000	0,001	0,003
-509,014	-127,977	-0,051	-0,005
-507,999	338,676	-0,040	0,056
-506,985	-101,166	-0,050	-0,009
-505,970	72,197	-0,061	-0,045
-504,956	-200,000	0,000	0,050
-503,941	-103,926	0,144	0,024
-502,926	237,670	-0,032	-0,038
-501,912	-10,163	0,072	0,034
-500,897	15,172	0,186	-0,105
-499,883	194,689	-0,022	0,024
-498,868	-200,000	0,027	0,201
-497,853	-200,000	-0,055	-0,177
-496,839	800,000	-0,099	0,216
-495,824	-126,166	0,056	0,006
-494,810	-200,000	0,007	-0,064
-493,795	96,201	-0,061	0,050
-492,781	175,817	0,103	0,107
-491,766	150,797	-0,065	-0,064
-490,751	157,277	0,088	0,088
-489,737	800,000	-0,020	0,049
-488,722	131,739	0,098	-0,091
-487,708	-1,736	-0,168	0,085
-486,693	800,000	-0,038	-0,106
-485,678	-200,000	0,004	0,057
-484,664	256,401	0,034	0,042
-483,649	-96,355	-0,079	0,015
-482,635	800,000	0,037	-0,098
-481,620	-200,000	0,027	-0,142
-480,605	-55,641	0,083	0,027
-479,591	67,711	0,105	0,077
-478,576	766,409	0,020	0,040
-477,562	-200,000	-0,060	-0,257
-476,547	-200,000	0,008	-0,089
-475,532	292,938	0,022	0,028
-474,518	-93,817	0,029	-0,006
-473,503	9,685	-0,158	-0,086
-472,489	-77,432	0,126	-0,031
-471,474	-13,844	0,042	-0,019
-470,459	-159,004	-0,188	0,008
-469,445	128,556	0,130	-0,119
-468,430	-57,842	-0,195	-0,061
-467,416	224,894	0,033	-0,038
-466,401	-200,000	0,005	0,104
-465,386	-51,611	-0,087	-0,029
-464,372	245,380	0,080	-0,097
-463,357	-54,790	0,030	-0,010
-462,343	275,170	0,036	0,046
-461,328	261,132	-0,082	-0,103
-460,313	-105,718	0,110	-0,018
-459,299	-200,000	0,004	0,065
-458,284	151,659	0,102	0,100
-457,270	27,733	-0,055	0,033
-456,255	-56,528	-0,096	0,030
-455,241	441,010	-0,057	0,090
-454,226	800,000	-0,005	0,013
-453,211	690,829	-0,025	0,047
-452,197	107,050	0,099	0,084
-451,182	110,364	-0,060	0,052
-450,168	-75,711	0,095	0,024
-449,153	0,493	-0,089	0,046
-448,138	800,000	-0,038	-0,100
-447,124	140,955	-0,028	-0,026
-446,109	-43,088	0,023	0,008
-445,095	404,203	-0,030	-0,046
-444,080	-200,000	0,013	-0,067
-443,065	-200,000	0,002	0,076
-442,051	-200,000	0,008	0,104
-441,036	-200,000	-0,023	0,084
-440,022	53,134	0,010	-0,007
-439,007	-179,323	-0,135	0,002
-437,992	-75,679	0,087	0,022
-436,978	-200,000	-0,000	0,086
-435,963	-50,019	0,079	0,027
-434,949	-109,103	-0,171	-0,026
-433,934	-200,000	0,001	-0,065
-432,919	-51,254	-0,130	-0,043
-431,905	200,317	0,095	-0,105
-430,890	800,000	-0,025	0,074
-429,876	-72,262	0,119	-0,032
-428,861	148,470	0,030	0,029
-427,846	-100,208	0,052	-0,009
-426,832	-36,006	-0,061	-0,023
-425,817	190,615	-0,053	-0,057
-424,803	-200,000	-0,016	-0,110
-423,788	-139,938	-0,099	-0,007
-422,773	-34,919	0,126	-0,049
-421,759	347,170	-0,010	0,014
-420,744	-200,000	-0,003	0,067
-419,730	-39,342	-0,170	-0,064
-418,715	297,074	0,062	-0,082
-417,701	800,000	0,041	0,095
-416,686	-200,000	0,006	0,085
-415,671	800,000	-0,033	0,096
-414,657	7,915	0,105	-0,056
-413,642	22,610	0,027	0,016
-412,628	-200,000	0,012	-0,093
-411,613	-30,566	-0,098	-0,040
-410,598	-53,607	0,100	0,033
-409,584	512,725	-0,020	-0,033
-408,569	462,625	0,044	0,071
-407,555	84,261	-0,065	-0,051
-406,540	-18,677	0,077	-0,034
-405,525	-200,000	-0,003	0,052
-404,511	-85,285	-0,080	-0,018
-403,496	598,832	-0,065	-0,117
-402,482	366,896	0,040	0,058
-401,467	-200,000	0,035	0,145
-400,452	96,859	0,127	0,104
-399,438	-183,241	0,108	-0,001
-398,423	-200,000	-0,004	-0,031
-397,409	-105,878	0,057	-0,009
-396,394	800,000	-0,079	-0,182
-395,379	492,120	-0,076	-0,125
-394,365	-200,000	0,016	0,122
-393,350	166,013	-0,099	0,100
-392,336	-51,852	-0,081	-0,027
-391,321	-200,000	0,006	0,047
-390,306	229,677	0,086	-0,101
-389,292	75,814	-0,121	-0,091
-388,277	516,241	0,084	-0,142
-387,263	-84,097	0,112	0,025
-386,248	-200,000	0,028	0,190
-385,233	183,805	0,072	0,077
-384,219	-115,853	-0,100	0,013
-383,204	-4,775	0,075	0,037
-382,190	109,380	-0,046	0,040
-381,175	70,900	-0,075	-0,055
-380,160	-200,000	0,035	0,191
-379,146	-159,645	0,162	-0,006
-378,131	-54,899	-0,075	0,024
-377,117	167,565	0,068	0,069
-376,102	800,000	-0,048	-0,124
-375,088	85,952	-0,045	-0,036
-374,073	-9,449	-0,049	0,023
-373,058	-90,064	0,136	-0,028
-372,044	343,456	0,082	-0,116
-371,029	800,000	0,040	0,124
-370,015	408,966	0,062	-0,094
-369,000	88,705	-0,026	0,021
-367,985	-58,899	-0,104	0,032
-366,971	50,722	-0,095	-0,064
-365,956	36,766	0,101	0,064
-364,942	800,000	0,042	0,105
-363,927	358,588	-0,015	0,022
-362,912	800,000	0,072	0,174
-361,898	-81,107	-0,034	-0,008
-360,883	-200,000	-0,066	-0,220
-359,869	800,000	-0,084	-0,190
-358,854	-72,352	-0,072	-0,019
-357,839	654,809	0,047	-0,087
-356,825	460,045	0,014	0,023
-355,810	-102,111	0,075	-0,013
-354,796	61,477	-0,054	-0,038
-353,781	-200,000	-0,019	-0,067
-352,766	45,541	0,060	0,040
-351,752	119,640	0,118	-0,105
-350,737	800,000	-0,043	0,119
-349,723	-200,000	-0,019	0,186
-348,708	-170,894	0,111	0,003
-347,693	800,000	0,008	0,026
-346,679	11,939	0,075	0,041
-345,664	567,386	-0,047	-0,082
-344,650	282,925	-0,052	0,067
-343,635	-200,000	-0,007	0,067
-342,620	-200,000	0,020	0,071
-341,606	77,534	-0,032	-0,025
-340,591	225,498	-0,075	-0,087
-339,577	-56,432	-0,104	0,033
-338,562	-200,000	0,026	0,097
-337,548	-200,000	0,025	0,110
-336,533	-110,264	-0,061	-0,009
-335,518	172,747	0,101	0,104
-334,504	800,000	0,120	0,270
-333,489	-29,857	-0,042	0,017
-332,475	34,741	-0,034	0,021
-331,460	85,678	-0,082	0,064
-330,445	121,845	0,030	-0,027
-329,431	-200,000	0,049	-0,155
-328,416	800,000	-0,065	0,135
-327,402	-75,919	-0,028	0,007
-326,387	-200,000	-0,024	0,093
-325,372	-174,932	-0,207	-0,004
-324,358	-200,000	-0,005	-0,042
-323,343	-200,000	-0,008	-0,092
-322,329	53,698	0,144	0,099
-321,314	-183,083	-0,092	-0,001
-320,299	22,052	-0,072	0,042
-319,285	800,000	-0,040	-0,081
-318,270	-38,784	0,074	0,028
-317,256	-0,763	0,179	0,090
-316,241	-200,000	0,004	0,029
-315,226	-156,146	0,092	-0,004
-314,212	-59,910	0,139	-0,042
-313,197	-115,065	0,124	-0,017
-312,183	436,511	-0,075	-0,117
-311,168	-200,000	0,065	-0,211
-310,153	-200,000	-0,022	-0,106
-309,139	70,424	0,009	0,007
-308,124	272,077	-0,053	0,067
-307,110	-200,000	0,005	-0,127
-306,095	-200,000	0,003	-0,105
-305,080	395,658	0,055	-0,082
-304,066	605,446	0,021	-0,037
-303,051	-200,000	-0,015	0,135
-302,037	-95,518	-0,125	-0,024
-301,022	30,717	0,035	0,021
-300,008	104,796	0,097	0,082
-298,993	800,000	-0,010	0,031
-297,978	128,984	0,021	-0,019
-296,964	249,313	0,074	-0,090
-295,949	34,328	-0,044	0,027
-294,935	377,009	-0,061	0,089
-293,920	120,363	-0,149	0,132
-292,905	143,062	0,070	0,066
-291,891	515,931	0,034	0,057
-290,876	-200,000	0,012	0,126
-289,862	285,481	0,055	-0,071
-288,847	559,393	-0,028	0,049
-287,832	-85,708	-0,152	-0,033
-286,818	20,854	0,065	0,037
-285,803	-200,000	0,017	-0,075
-284,789	-0,025	0,273	0,138
-283,774	610,231	-0,045	0,081
-282,759	162,605	-0,047	0,047
-281,745	75,966	0,048	0,036
-280,730	178,022	-0,108	-0,112
-279,716	-200,000	0,011	0,050
-278,701	-154,692	0,048	-0,002
-277,686	-200,000	-0,034	0,143
-276,672	15,755	-0,042	0,023
-275,657	-81,489	-0,024	-0,006
-274,643	-45,883	-0,044	0,015
-273,628	-44,645	-0,173	-0,061
-272,613	130,012	-0,063	-0,058
-271,599	-86,250	0,074	0,016
-270,584	-38,725	0,138	0,052
-269,570	-200,000	0,025	0,103
-268,555	94,231	-0,044	-0,036
-267,540	423,074	0,051	-0,078
-266,526	800,000	-0,068	-0,207
-265,511	143,536	-0,087	-0,083
-264,497	-200,000	-0,000	-0,058
-263,482	165,842	-0,043	-0,043
-262,467	800,000	0,032	-0,099
-261,453	83,125	0,021	-0,017
-260,438	15,111	-0,089	0,050
-259,424	-96,045	-0,125	-0,023
-258,409	-163,374	0,018	0,001
-257,395	120,057	-0,097	0,086
-256,380	515,185	-0,017	0,029
-255,365	-72,507	0,030	0,008
-254,351	-200,000	0,053	0,226
-253,336	515,068	-0,085	0,142
-252,322	84,461	0,014	-0,011
-251,307	264,189	-0,079	0,098
-250,292	-200,000	-0,006	-0,022
-249,278	-200,000	-0,016	-0,129
-248,263	140,745	0,013	-0,012
-247,249	293,586	0,057	0,074
-246,234	-200,000	0,042	-0,172
-245,219	-64,121	-0,119	-0,034
-244,205	-3,193	0,096	-0,047
-243,190	256,026	0,085	0,105
-242,176	-61,942	0,126	-0,037
-241,161	302,396	0,046	0,060
-240,146	-200,000	-0,012	-0,054
-239,132	800,000	-0,027	0,066
-238,117	134,396	-0,071	0,066
-237,103	-200,000	-0,025	0,099
-236,088	-200,000	0,004	-0,107
-235,073	800,000	0,014	0,041
-234,059	-139,690	0,086	-0,006
-233,044	800,000	0,052	-0,105
-232,030	103,827	-0,124	-0,104
-231,015	-66,690	-0,085	0,024
-230,000	-115,665	0,107	0,014
-228,986	399,629	0,030	-0,045
-227,971	-21,849	0,077	-0,033
-226,957	-200,000	0,008	0,105
-225,942	215,880	-0,145	0,165
-224,927	-39,630	-0,034	0,013
-223,913	-90,934	0,064	-0,013
-222,898	800,000	0,047	-0,095
-221,884	8,896	0,107	-0,057
-220,869	-120,487	-0,071	0,008
-219,855	-33,096	0,080	0,031
-218,840	-137,253	-0,147	0,012
-217,825	800,000	-0,032	0,073
-216,811	-113,574	-0,012	-0,002
-215,796	259,562	-0,035	0,044
-214,782	682,663	0,003	-0,006
-213,767	-132,059	0,065	0,006
-212,752	157,532	-0,110	-0,108
-211,738	103,912	0,039	-0,033
-210,723	-200,000	-0,014	-0,130
-209,709	-200,000	-0,022	-0,229
-208,694	109,281	-0,102	-0,087
-207,679	800,000	0,039	-0,112
-206,665	-8,798	0,117	-0,056
-205,650	-200,000	-0,020	0,164
-204,636	250,933	0,081	-0,099
-203,621	-200,000	-0,140	0,000
-202,606	800,000	-0,013	0,032
-201,592	-200,000	0,004	0,076
-200,577	65,778	-0,120	-0,087
-199,563	800,000	0,051	0,116
-198,548	-67,585	-0,111	0,031
-197,533	-200,000	0,007	0,066
-196,519	104,081	-0,039	0,032
-195,504	-200,000	-0,007	0,029
-194,490	183,357	0,088	-0,093
-193,475	-200,000	0,028	-0,116
-192,460	145,084	0,117	0,111
-191,446	-80,720	0,081	-0,019
-190,431	-93,241	-0,047	0,009
-189,417	-200,000	0,019	0,079
-188,402	800,000	0,032	-0,084
-187,387	800,000	0,037	0,087
-186,373	-200,000	0,004	-0,070
-185,358	-11,084	-0,085	-0,040
-184,344	56,115	0,049	0,034
-183,329	-105,843	0,153	0,024
-182,315	103,399	-0,049	0,041
-181,300	-174,570	0,198	0,004
-180,285	6,988	-0,079	-0,042
-179,271	800,000	-0,030	0,089
-178,256	523,178	0,072	-0,121
-177,242	80,091	0,112	-0,086
-176,227	800,000	0,055	0,132
-175,212	-200,000	-0,016	0,121
-174,198	370,441	-0,070	-0,101
-173,183	93,310	0,114	-0,092
-172,169	318,501	-0,074	-0,100
-171,154	448,591	-0,049	-0,077
-170,139	-200,000	-0,010	-0,037
-169,125	800,000	0,024	0,064
-168,110	126,168	-0,094	0,084
-167,096	-99,019	0,070	-0,012
-166,081	97,492	-0,087	-0,071
-165,066	163,134	0,022	0,022
-164,052	-200,000	-0,004	0,017
-163,037	-95,027	0,117	0,022
-162,023	40,356	-0,065	-0,042
-161,008	-200,000	-0,037	-0,132
-159,993	-200,000	-0,004	-0,032
-158,979	-200,000	0,016	-0,085
-157,964	-120,770	-0,060	-0,007
-156,950	-27,083	-0,089	0,037
-155,935	214,668	0,111	0,125
-154,920	352,673	0,019	0,027
-153,906	265,901	0,065	-0,081
-152,891	122,604	-0,043	0,039
-151,877	-58,758	0,119	-0,036
-150,862	-11,799	-0,131	0,061
-149,847	-200,000	-0,021	-0,129
-148,833	-131,600	0,044	-0,004
-147,818	800,000	0,044	0,128
-146,804	800,000	0,023	0,065
-145,789	-200,000	0,013	0,065
-144,775	776,102	0,039	0,076
-143,760	42,118	0,018	0,011
-142,745	800,000	-0,043	0,091
-141,731	54,185	0,039	-0,026
-140,716	189,781	0,054	-0,057
-139,702	31,811	-0,111	-0,068
-138,687	49,849	-0,083	0,055
-137,672	226,555	0,027	0,031
-136,658	461,325	0,023	-0,037
-135,643	67,363	-0,061	-0,044
-134,629	-200,000	-0,029	0,229
-133,614	-25,076	0,174	0,073
-132,599	800,000	-0,047	-0,099
-131,585	-95,148	0,043	0,008
-130,570	800,000	0,012	0,027
-129,556	165,323	0,052	-0,052
-128,541	-157,722	-0,118	0,005
-127,526	10,865	0,068	-0,037
-126,512	-68,790	0,227	0,062
-125,497	800,000	0,026	-0,057
-124,483	-200,000	0,001	0,039
-123,468	-51,499	0,052	-0,017
-122,453	-37,273	-0,024	0,009
-121,439	-200,000	0,066	-0,261
-120,424	2,973	0,173	-0,089
-119,410	643,273	0,042	-0,076
-118,395	-200,000	0,031	0,162
-117,380	731,342	0,062	0,118
-116,366	-161,210	-0,157	-0,006
-115,351	-200,000	0,006	0,079
-114,337	-50,520	-0,079	-0,026
-113,322	-200,000	0,014	-0,046
-112,307	329,159	0,082	-0,112
-111,293	800,000	0,062	0,170
-110,278	-200,000	0,000	0,071
-109,264	-33,998	-0,119	-0,046
-108,249	-200,000	-0,021	0,073
-107,234	112,578	-0,074	-0,063
-106,220	122,341	-0,049	0,044
-105,205	101,205	-0,074	-0,061
-104,191	792,469	0,039	-0,076
-103,176	-200,000	0,020	0,069
-102,162	308,312	-0,047	0,063
-101,147	-145,122	0,116	-0,007
-100,132	-200,000	0,014	-0,047
-99,118	315,840	0,055	-0,074
-98,103	-200,000	-0,044	0,170
-97,089	49,493	0,069	-0,046
-96,074	305,926	-0,040	0,052
-95,059	-142,006	-0,154	-0,011
-94,045	92,937	-0,077	-0,061
-93,030	-200,000	0,009	-0,079
-92,016	90,238	0,101	-0,080
-91,001	-61,881	-0,186	0,055
-89,986	357,276	-0,055	-0,077
-88,972	65,954	0,065	0,047
-87,957	-50,885	-0,110	0,036
-86,943	-200,000	-0,025	0,099
-85,928	-162,504	-0,124	-0,004
-84,913	-200,000	0,026	-0,119
-83,899	-104,160	0,169	0,027
-82,884	-28,717	-0,110	-0,045
-81,870	389,791	0,065	0,096
-80,855	800,000	0,032	0,084
-79,840	241,198	-0,025	-0,029
-78,826	-81,607	-0,076	-0,018
-77,811	531,665	-0,041	-0,069
-76,797	32,979	-0,038	0,023
-75,782	-200,000	0,007	0,040
-74,767	800,000	0,059	0,124
-73,753	-68,170	0,102	-0,028
-72,738	54,376	-0,034	-0,023
-71,724	72,555	0,120	0,089
-70,709	-136,638	-0,195	0,016
-69,694	73,397	-0,079	-0,059
-68,680	-39,043	0,113	-0,042
-67,665	-20,651	0,074	0,032
-66,651	96,739	0,039	-0,032
-65,636	-200,000	-0,038	-0,171
-64,622	-200,000	0,013	-0,066
-63,607	-96,652	-0,290	-0,054
-62,592	197,667	0,065	-0,071
-61,578	-118,021	0,135	-0,017
-60,563	-70,237	-0,112	-0,030
-59,549	800,000	0,023	0,044
-58,534	-22,893	-1,726	-0,734
-57,519	359,259	-1,503	-2,133
-56,505	-200,000	-0,293	-4,357
-55,490	271,323	0,876	1,094
-54,476	800,000	4,930	11,329
-53,461	-200,000	19,295	324,289
-52,446	-200,000	740,090	2336,482
-51,432	573,178	1651,314	2859,405
-50,417	77,864	1666,578	1255,412
-49,403	21,045	1539,585	881,177
-48,388	14,932	1462,283	807,304
-47,373	18,257	1452,419	817,839
-46,359	16,846	1442,066	805,236
-45,344	13,243	1437,688	785,562
-44,330	13,103	1435,916	783,892
-43,315	13,123	1434,255	783,049
-42,300	13,094	1432,447	781,895
-41,286	13,172	1431,149	781,526
-40,271	13,142	1429,739	780,583
-39,257	13,100	1428,668	779,765
-38,242	13,172	1427,213	779,283
-37,227	13,178	1426,075	778,662
-36,213	13,210	1424,586	777,968
-35,198	13,173	1423,655	777,254
-34,184	13,212	1422,579	776,819
-33,169	13,140	1421,413	775,810
-32,154	13,238	1420,048	775,500
-31,140	13,181	1419,082	774,670
-30,125	13,207	1417,922	774,127
-29,111	13,183	1416,872	773,414
-28,096	13,210	1415,582	772,803
-27,082	13,175	1414,574	772,059
-26,067	13,096	1413,640	771,146
-25,052	13,177	1412,497	770,872
-24,038	13,100	1411,649	770,021
-23,023	13,074	1410,632	769,314
-22,009	13,136	1409,527	768,968
-20,994	13,084	1408,688	768,240
-19,979	13,071	1407,880	767,705
-18,965	13,020	1407,011	766,964
-17,950	13,013	1406,079	766,391
-16,936	13,061	1405,019	766,009
-15,921	13,022	1403,772	765,115
-14,906	13,032	1403,173	764,804
-13,892	13,056	1402,150	764,327
-12,877	13,034	1401,294	763,730
-11,863	13,024	1400,182	763,048
-10,848	13,068	1399,233	762,702
-9,833	12,956	1398,584	761,800
-8,819	12,987	1397,710	761,436
-7,804	12,937	1397,017	760,799
-6,790	12,929	1395,883	760,110
-5,775	12,968	1394,701	759,619
-4,760	12,924	1393,732	758,855
-3,746	12,947	1392,772	758,411
-2,731	12,903	1392,010	757,765
-1,717	12,886	1391,300	757,269
-0,702	12,919	1389,333	756,319
0,313	16,872	1305,896	729,111
1,327	33,410	700,607	429,187
2,342	51,571	122,471	82,171
3,356	3,814	16,494	8,489
4,371	2,679	3,328	1,700
5,386	-58,244	0,525	0,161
6,400	-200,000	0,047	0,395
7,415	800,000	-0,168	-0,341
8,429	104,053	-0,395	-0,328
9,444	102,150	-0,218	-0,180
10,459	209,571	-0,280	-0,310
11,473	-30,634	-0,280	-0,111
12,488	-0,902	-0,304	-0,152
13,502	141,650	-0,382	-0,358
14,517	25,176	-0,367	-0,215
15,531	458,573	-0,181	-0,286
16,546	69,209	-0,314	-0,228
17,561	340,206	-0,257	-0,355
18,575	-70,884	-0,171	-0,045
19,590	58,267	-0,223	-0,154
20,604	-11,268	-0,235	-0,109
21,619	79,539	-0,415	-0,314
22,634	129,565	-0,450	-0,406
23,648	39,048	-0,420	-0,264
24,663	192,339	-0,390	-0,416
25,677	63,821	-0,307	-0,218
26,692	51,138	-0,295	-0,197
27,707	88,199	-0,441	-0,345
28,721	141,350	-0,360	-0,336
29,736	115,279	-0,373	-0,322
30,750	14,723	-0,481	-0,264
31,765	313,607	-0,369	-0,490
32,780	113,062	-0,314	-0,269
33,794	151,759	-0,428	-0,411
34,809	79,928	-0,382	-0,289
35,823	-4,047	-0,511	-0,249
36,838	22,752	-0,450	-0,259
37,853	151,074	-0,395	-0,379
38,867	144,165	-0,339	-0,319
39,882	56,430	-0,377	-0,258
40,896	18,251	-0,350	-0,196
41,911	34,063	-0,422	-0,258
42,926	117,889	-0,373	-0,324
43,940	21,377	-0,476	-0,272
44,955	207,052	-0,284	-0,312
45,969	146,555	-0,339	-0,321
46,984	38,024	-0,328	-0,205
47,999	-4,804	-0,297	-0,144
49,013	177,605	-0,309	-0,317
50,028	25,283	-0,409	-0,239
51,042	73,366	-0,338	-0,248
52,057	76,810	-0,381	-0,284
53,071	31,156	-0,472	-0,284
54,086	-16,838	-0,188	-0,083
55,101	128,191	-0,381	-0,341
56,115	120,780	-0,375	-0,328
57,130	13,187	-0,318	-0,173
58,144	-5,656	-0,365	-0,175
59,159	176,556	-0,346	-0,354
60,174	22,597	-0,357	-0,205
61,188	201,847	-0,331	-0,359
62,203	-9,425	-0,267	-0,125
63,217	69,790	-0,162	-0,117
64,232	-47,900	-0,359	-0,122
65,247	-47,457	-0,323	-0,110
66,261	-8,892	-0,478	-0,225
67,276	-84,862	-0,414	-0,091
68,290	170,807	-0,174	-0,175
69,305	49,112	-0,300	-0,198
70,320	-134,490	-0,227	-0,019
71,334	222,932	-0,258	-0,293
72,349	23,613	-0,377	-0,218
73,363	175,502	-0,381	-0,388
74,378	92,903	-0,221	-0,175
75,393	26,333	-0,245	-0,144
76,407	-142,149	-0,360	-0,025
77,422	23,297	-0,273	-0,157
78,436	143,821	-0,273	-0,256
79,451	44,327	-0,314	-0,202
80,466	86,195	-0,232	-0,180
81,480	126,763	-0,252	-0,224
82,495	-44,790	-0,334	-0,116
83,509	310,709	-0,195	-0,258
84,524	94,335	-0,294	-0,234
85,539	-121,900	-0,297	-0,034
86,553	1,394	-0,261	-0,131
87,568	78,358	-0,206	-0,154
88,582	100,375	-0,249	-0,203
89,597	13,213	-0,298	-0,162
90,611	-61,979	-0,207	-0,060
91,626	-28,081	-0,266	-0,107
92,641	-11,853	-0,228	-0,105
93,655	22,891	-0,289	-0,166
94,670	21,649	-0,289	-0,165
95,684	329,754	-0,276	-0,374
96,699	153,995	-0,187	-0,180
97,714	107,512	-0,211	-0,176
98,728	-57,678	-0,218	-0,066
99,743	16,596	-0,263	-0,145
100,757	-129,749	-0,262	0,025
101,772	63,079	-0,193	-0,135
102,787	-2,984	-0,406	-0,198
103,801	-58,179	-0,464	-0,141
104,816	-26,242	-0,201	-0,082
105,830	455,390	-0,239	-0,372
106,845	605,349	-0,147	-0,258
107,860	38,283	-0,375	-0,233
108,874	-19,718	-0,326	-0,141
109,889	52,713	-0,255	-0,170
110,903	127,857	-0,276	-0,246
111,918	142,565	-0,214	-0,199
112,933	12,645	-0,234	-0,126
113,947	366,551	-0,069	-0,098
114,962	71,010	-0,190	-0,138
115,976	238,467	-0,295	-0,344
116,991	51,712	-0,267	-0,177
118,006	-24,967	-0,321	-0,133
119,020	141,520	-0,271	-0,251
120,035	127,532	-0,138	-0,123
121,049	160,471	-0,146	-0,143
122,064	-9,273	-0,281	-0,131
123,079	-94,239	-0,241	-0,046
124,093	-22,872	-0,319	-0,134
125,108	75,055	-0,306	-0,225
126,122	360,187	-0,166	-0,233
127,137	800,000	-0,067	-0,133
128,151	-200,000	-0,074	-0,237
129,166	-1,961	-0,208	-0,102
130,181	78,090	-0,230	-0,172
131,195	-19,996	-0,308	-0,132
132,210	80,033	-0,325	-0,244
133,224	-0,931	-0,253	-0,125
134,239	800,000	-0,056	-0,146
135,254	-54,664	-0,152	-0,048
136,268	447,510	-0,103	-0,159
137,283	71,252	-0,249	-0,180
138,297	0,088	-0,210	-0,104
139,312	800,000	-0,172	-0,454
140,327	237,145	-0,212	-0,246
141,341	365,590	-0,169	-0,239
142,356	737,441	-0,095	-0,179
143,370	169,363	-0,266	-0,266
144,385	96,895	-0,229	-0,183
145,400	90,381	-0,227	-0,177
146,414	243,590	-0,178	-0,209
147,429	48,188	-0,415	-0,270
148,443	83,490	-0,223	-0,170
149,458	447,974	-0,120	-0,185
150,473	-70,998	-0,203	-0,053
151,487	162,943	-0,253	-0,248
152,502	57,699	-0,302	-0,206
153,516	30,589	-0,390	-0,232
154,531	553,715	-0,211	-0,355
155,546	-124,905	-0,267	-0,028
156,560	-40,389	-0,211	-0,076
157,575	800,000	-0,148	-0,351
158,589	55,343	-0,269	-0,181
159,604	-10,165	-0,274	-0,126
160,619	170,242	-0,258	-0,258
161,633	497,160	-0,192	-0,310
162,648	157,407	-0,173	-0,167
163,662	-6,714	-0,142	-0,067
164,677	247,627	-0,144	-0,170
165,692	-123,170	-0,198	-0,022
166,706	112,712	-0,273	-0,231
167,721	-108,785	-0,290	-0,043
168,735	153,116	-0,212	-0,202
169,750	168,980	-0,223	-0,222
170,764	100,468	-0,177	-0,143
171,779	44,366	-0,303	-0,194
172,794	302,501	-0,090	-0,117
173,808	-39,066	-0,197	-0,072
174,823	47,927	-0,264	-0,171
175,837	-40,647	-0,253	-0,091
176,852	-53,127	-0,230	-0,073
177,867	2,377	-0,259	-0,130
178,881	800,000	-0,130	-0,251
179,896	-151,765	-0,169	-0,008
180,910	6,018	-0,175	-0,090
181,925	248,693	-0,174	-0,205
182,940	123,588	-0,230	-0,201
183,954	-21,521	-0,213	-0,090
184,969	173,957	-0,278	-0,279
185,983	21,713	-0,165	-0,093
186,998	737,629	-0,118	-0,222
188,013	-67,328	-0,252	-0,068
189,027	108,289	-0,288	-0,239
190,042	-9,712	-0,137	-0,063
191,056	260,113	-0,256	-0,308
192,071	394,608	-0,177	-0,258
193,086	26,111	-0,272	-0,158
194,100	446,330	-0,163	-0,250
195,115	22,791	-0,117	-0,067
196,129	87,276	-0,232	-0,179
197,144	-49,543	-0,258	-0,085
198,159	-19,240	-0,256	-0,110
199,173	-68,933	-0,189	-0,050
200,188	-139,253	-0,106	-0,008
201,202	175,324	-0,176	-0,177
202,217	-50,657	-0,203	-0,066
203,232	125,049	-0,160	-0,140
204,246	258,817	-0,162	-0,195
205,261	72,239	-0,252	-0,182
206,275	178,362	-0,122	-0,124
207,290	98,564	-0,225	-0,180
208,304	-39,859	-0,212	-0,076
209,319	63,587	-0,237	-0,165
210,334	99,394	-0,183	-0,147
211,348	-4,383	-0,270	-0,129
212,363	-5,976	-0,268	-0,127
213,377	5,627	-0,202	-0,103
214,392	3,569	-0,210	-0,106
215,407	40,613	-0,326	-0,203
216,421	409,493	-0,130	-0,192
217,436	800,000	-0,159	-0,347
218,450	91,722	-0,227	-0,177
219,465	-13,675	-0,191	-0,085
220,480	-29,631	-0,290	-0,115
221,494	12,524	-0,141	-0,075
222,509	-44,320	-0,192	0,066
223,523	21,085	-0,274	-0,154
224,538	9,719	-0,162	-0,085
225,553	113,725	-0,261	-0,220
226,567	418,547	-0,094	-0,139
227,582	90,125	-0,138	-0,107
228,596	363,344	-0,101	-0,141
229,611	-135,132	-0,146	-0,012
230,626	222,302	-0,176	-0,197
231,640	401,810	-0,176	-0,257
232,655	20,849	-0,321	-0,180
233,669	690,774	-0,162	-0,294
234,684	-200,000	0,007	-0,079
235,699	333,950	-0,045	-0,061
236,713	-41,616	-0,160	-0,057
237,728	-179,115	-0,148	0,002
238,742	-95,355	-0,193	-0,036
239,757	-2,493	-0,218	-0,105
240,772	176,909	-0,161	-0,162
241,786	191,204	-0,239	-0,249
242,801	68,088	-0,157	-0,111
243,815	8,603	-0,254	-0,132
244,830	32,179	-0,134	-0,080
245,844	271,568	-0,194	-0,238
246,859	800,000	-0,150	-0,288
247,874	-200,000	-0,065	-0,251
248,888	114,154	-0,242	-0,204
249,903	70,309	-0,211	-0,151
250,917	-45,749	-0,188	-0,064
251,932	262,332	-0,083	-0,100
252,947	5,407	-0,197	-0,100
253,961	177,258	-0,132	-0,133
254,976	37,616	-0,139	-0,085
255,990	-4,485	-0,280	-0,133
257,005	-32,773	-0,262	-0,100
258,020	116,718	-0,130	-0,110
259,034	24,574	-0,124	-0,071
260,049	-105,818	-0,137	-0,021
261,063	-12,032	-0,172	-0,078
262,078	800,000	-0,078	-0,188
263,093	385,844	-0,198	-0,284
264,107	161,582	-0,164	-0,159
265,122	84,722	-0,138	-0,104
266,136	502,417	-0,151	-0,242
267,151	157,931	-0,185	-0,177
268,166	696,416	-0,113	-0,206
269,180	24,591	-0,161	-0,092
270,195	87,124	-0,227	-0,173
271,209	-22,086	-0,240	0,100
272,224	-88,331	-0,213	-0,044
273,239	800,000	-0,028	-0,077
274,253	39,093	-0,112	-0,069
275,268	-147,709	-0,179	-0,010
276,282	218,272	-0,127	-0,141
277,297	638,662	-0,116	-0,204
278,312	176,172	-0,167	-0,168
279,326	429,128	-0,109	-0,163
280,341	173,872	-0,093	-0,093
281,355	129,823	-0,135	-0,119
282,370	44,310	-0,184	-0,117
283,384	288,635	-0,107	-0,134
284,399	70,495	-0,203	-0,145
285,414	-128,197	-0,243	0,024
286,428	242,757	-0,081	-0,094
287,443	-200,000	0,001	-0,166
288,457	-5,564	-0,108	-0,051
289,472	-200,000	-0,009	-0,171
290,487	96,466	-0,226	-0,178
291,501	27,647	-0,228	-0,132
292,516	85,954	-0,085	-0,064
293,530	-70,339	-0,191	-0,050
294,545	216,806	-0,092	-0,101
295,560	-29,262	-0,080	0,031
296,574	79,985	-0,235	-0,174
297,589	-3,156	-0,116	-0,056
298,603	120,214	-0,205	-0,175
299,618	412,565	-0,165	-0,242
300,633	65,330	-0,116	-0,081
301,647	279,262	-0,102	-0,126
302,662	-75,551	-0,146	-0,035
303,676	116,544	-0,148	-0,125
304,691	17,020	-0,171	-0,093
305,706	-6,822	-0,167	-0,078
306,720	-32,363	-0,114	-0,044
307,735	800,000	-0,067	-0,164
308,749	306,226	-0,116	-0,149
309,764	-58,580	-0,140	-0,042
310,779	-200,000	-0,016	-0,142
311,793	-84,629	-0,193	-0,042
312,808	167,093	-0,138	-0,135
313,822	800,000	-0,058	-0,168
314,837	800,000	-0,140	-0,293
315,852	-38,400	-0,048	0,017
316,866	152,406	-0,137	-0,128
317,881	-131,290	-0,062	-0,006
318,895	386,616	-0,075	-0,106
319,910	-148,479	-0,098	0,005
320,925	-48,863	-0,203	-0,067
321,939	45,963	-0,155	-0,098
322,954	52,581	-0,064	-0,042
323,968	310,348	-0,064	-0,082
324,983	-147,467	-0,098	0,006
325,997	-31,664	-0,247	-0,095
327,012	285,319	-0,112	-0,139
328,027	-11,931	-0,201	-0,090
329,041	426,280	0,080	-0,118
330,056	65,513	-0,087	-0,061
331,070	-95,130	-0,066	0,012
332,085	-111,336	-0,163	-0,023
333,100	107,569	-0,122	-0,100
334,114	291,364	-0,108	-0,136
335,129	-2,357	-0,255	-0,122
336,143	-200,000	-0,057	-0,190
337,158	15,826	-0,093	-0,050
338,173	-166,523	-0,098	0,003
339,187	-200,000	-0,002	-0,116
340,202	450,618	-0,124	-0,188
341,216	614,552	-0,092	-0,159
342,231	-11,844	-0,186	-0,083
343,246	-153,439	-0,250	-0,012
344,260	8,227	-0,112	-0,057
345,275	-58,239	-0,180	0,054
346,289	490,518	-0,149	-0,234
347,304	13,521	-0,173	-0,092
348,319	-75,496	-0,236	-0,057
349,333	99,278	-0,201	-0,159
350,348	-200,000	-0,026	-0,232
351,362	-200,000	-0,026	-0,085
352,377	-200,000	-0,035	-0,140
353,392	189,093	-0,188	-0,193
354,406	-73,987	-0,153	-0,038
355,421	205,666	1313,164	1400,808
356,435	158,141	1473,709	1401,329
