DTS Sentinel unit serial number:	SN410029Multiplexer serial number:	ORYXHardware model number:	OX2-SRSoftware version number:	ORYX F/W v4,00 Oryx Data Collector v3.7.2.0data status	okinstallation	B3 Nyhavnadifferential loss correction	single-endedforward channel	channel 1reverse channel	N/Adate	2023/11/28time	19:57:30forward acquisition time	300,00reverse acquisition time	0,00gamma	499,1914k internal	0,3212k external	0,3212temperature offset calibration	1,0000default loss term (dB/km)	0,3820temperature slope calibration	1,0000multiplexer offset coefficient	1,0000multiplexer slope coefficient	1,0000fibre end	0,00T internal ref (°C)	7,79T ext. ref 1 (°C)	-6,81T ext. ref 2 (°C)	-6,96length (m)	temperature (°C)	Stokes	anti-Stokes-744,400	68,724	-0,267	-0,199
-743,385	-200,000	-0,003	0,326
-742,371	12,249	-0,310	-0,173
-741,356	800,000	0,146	0,371
-740,342	125,490	-0,236	-0,216
-739,327	800,000	0,082	0,246
-738,312	282,356	-0,176	-0,230
-737,298	-200,000	0,052	0,210
-736,283	267,215	-0,200	-0,254
-735,269	-200,000	0,078	0,413
-734,254	72,392	-0,208	-0,157
-733,239	-31,532	-0,131	0,053
-732,225	797,725	-0,097	-0,195
-731,210	157,916	0,146	0,147
-730,196	-129,495	0,135	0,013
-729,181	-80,182	-0,089	0,022
-728,167	10,806	-0,111	-0,061
-727,152	309,824	-0,056	-0,075
-726,137	304,573	0,074	-0,099
-725,123	356,575	0,046	0,067
-724,108	800,000	-0,051	-0,144
-723,094	-200,000	0,000	-0,114
-722,079	499,307	-0,018	0,029
-721,064	52,614	-0,072	-0,050
-720,050	73,448	-0,065	-0,049
-719,035	-200,000	0,021	-0,108
-718,021	-200,000	0,003	-0,034
-717,006	344,269	-0,087	-0,124
-715,991	315,216	0,075	-0,103
-714,977	122,826	-0,043	-0,039
-713,962	67,466	-0,070	-0,051
-712,948	-200,000	0,093	0,000
-711,933	-135,963	-0,065	-0,005
-710,918	-45,631	-0,100	0,036
-709,904	-177,006	-0,077	-0,001
-708,889	-83,616	-0,118	0,027
-707,875	-200,000	-0,034	-0,148
-706,860	-162,584	-0,072	0,003
-705,845	10,471	-0,069	-0,038
-704,831	31,464	0,047	-0,029
-703,816	800,000	0,023	0,055
-702,802	-21,204	-0,070	-0,031
-701,787	-200,000	-0,035	-0,117
-700,772	-200,000	0,004	-0,032
-699,758	-107,676	0,115	0,018
-698,743	178,304	0,125	0,132
-697,729	-42,631	0,095	0,035
-696,714	-5,479	0,106	0,053
-695,699	13,448	-0,046	-0,026
-694,685	-200,000	0,004	-0,085
-693,670	800,000	0,052	-0,163
-692,656	-200,000	0,016	-0,188
-691,641	-64,041	0,120	-0,035
-690,627	800,000	-0,048	0,130
-689,612	800,000	-0,004	0,009
-688,597	-63,601	-0,064	0,019
-687,583	38,501	-0,042	0,027
-686,568	-200,000	0,019	-0,064
-685,554	-200,000	0,019	-0,143
-684,539	83,175	-0,063	-0,050
-683,524	800,000	0,044	0,107
-682,510	-15,495	-0,102	0,047
-681,495	-17,563	-0,103	-0,047
-680,481	308,596	-0,039	-0,053
-679,466	-32,129	-0,090	-0,036
-678,451	800,000	0,013	0,039
-677,437	302,683	-0,055	-0,074
-676,422	-20,199	0,222	0,099
-675,408	-200,000	0,007	-0,035
-674,393	-200,000	0,006	-0,024
-673,378	800,000	-0,045	0,094
-672,364	-155,814	-0,077	0,003
-671,349	575,074	-0,063	-0,111
-670,335	800,000	-0,054	-0,152
-669,320	17,756	-0,023	0,013
-668,305	268,691	-0,073	0,092
-667,291	405,740	0,022	0,034
-666,276	-128,209	-0,040	-0,004
-665,262	171,039	0,027	-0,028
-664,247	-200,000	-0,021	-0,131
-663,232	-200,000	-0,017	0,155
-662,218	797,972	0,044	0,089
-661,203	-200,000	-0,017	-0,070
-660,189	39,036	-0,132	0,085
-659,174	156,163	-0,076	-0,076
-658,159	165,912	-0,099	-0,101
-657,145	800,000	-0,073	-0,190
-656,130	-168,072	-0,041	0,001
-655,116	64,934	0,149	0,108
-654,101	233,015	0,051	-0,061
-653,086	138,668	-0,036	-0,034
-652,072	87,737	-0,072	-0,057
-651,057	-200,000	0,003	-0,047
-650,043	-149,129	0,128	0,007
-649,028	-26,574	-0,133	0,056
-648,014	-200,000	-0,028	0,106
-646,999	800,000	-0,022	0,065
-645,984	-46,296	-0,071	0,025
-644,970	167,617	-0,090	0,093
-643,955	800,000	0,015	-0,032
-642,941	-46,172	-0,051	-0,018
-641,926	-97,941	0,065	-0,012
-640,911	-99,699	0,247	-0,044
-639,897	422,173	0,026	0,040
-638,882	386,698	0,035	0,053
-637,868	542,761	-0,082	-0,141
-636,853	-200,000	0,017	-0,110
-635,838	-45,247	-0,236	-0,084
-634,824	-200,000	-0,013	-0,070
-633,809	105,435	-0,064	-0,055
-632,795	121,649	-0,055	0,050
-631,780	-117,469	-0,062	-0,008
-630,765	152,191	-0,044	-0,043
-629,751	212,228	-0,098	0,111
-628,736	361,852	-0,047	0,068
-627,722	-200,000	-0,000	0,052
-626,707	98,908	0,042	0,035
-625,692	-149,327	-0,094	0,005
-624,678	-200,000	0,016	0,085
-623,663	-35,171	0,059	0,023
-622,649	-63,261	-0,099	0,029
-621,634	-130,781	0,005	0,000
-620,619	-200,000	-0,024	-0,090
-619,605	-200,000	-0,013	0,049
-618,590	43,518	0,096	-0,063
-617,576	-140,640	-0,056	0,004
-616,561	800,000	-0,008	0,024
-615,546	-200,000	-0,010	-0,092
-614,532	-17,993	0,066	-0,030
-613,517	172,163	-0,012	0,012
-612,503	-200,000	-0,020	-0,087
-611,488	-94,519	-0,144	0,028
-610,474	-152,657	-0,127	-0,006
-609,459	-147,876	-0,105	-0,006
-608,444	19,862	-0,071	-0,041
-607,430	800,000	0,063	-0,166
-606,415	800,000	-0,035	-0,103
-605,401	485,196	0,037	-0,061
-604,386	-200,000	-0,037	0,148
-603,371	503,121	-0,038	0,063
-602,357	293,545	0,065	0,086
-601,342	-200,000	-0,024	-0,076
-600,328	-200,000	-0,021	-0,179
-599,313	19,193	-0,155	-0,089
-598,298	-200,000	0,002	-0,054
-597,284	800,000	0,037	0,094
-596,269	28,982	0,080	0,049
-595,255	-200,000	0,008	0,158
-594,240	480,055	-0,095	-0,155
-593,225	59,739	-0,010	0,007
-592,211	-200,000	-0,010	-0,100
-591,196	-143,556	-0,025	-0,002
-590,182	800,000	0,043	-0,097
-589,167	555,697	-0,007	-0,012
-588,152	800,000	-0,022	0,067
-587,138	177,541	-0,035	-0,037
-586,123	-200,000	0,025	-0,191
-585,109	87,353	-0,056	0,044
-584,094	683,534	0,121	-0,229
-583,079	105,716	0,145	0,124
-582,065	179,188	0,083	-0,087
-581,050	-200,000	0,027	0,136
-580,036	78,402	-0,124	-0,095
-579,021	-80,741	0,018	0,004
-578,006	800,000	-0,073	0,158
-576,992	-159,080	0,090	0,004
-575,977	649,367	0,029	0,053
-574,963	40,131	0,068	0,044
-573,948	-200,000	0,002	0,045
-572,934	-44,032	-0,073	-0,026
-571,919	-30,582	-0,047	-0,019
-570,904	-200,000	0,009	0,137
-569,890	667,739	-0,036	-0,068
-568,875	280,030	0,053	-0,068
-567,861	800,000	0,044	0,101
-566,846	-3,418	-0,097	-0,048
-565,831	800,000	0,033	-0,078
-564,817	52,766	0,043	-0,029
-563,802	-200,000	0,037	-0,125
-562,788	284,291	-0,041	-0,053
-561,773	-200,000	0,024	0,087
-560,758	-200,000	-0,009	0,134
-559,744	224,417	-0,044	0,051
-558,729	-200,000	-0,022	-0,072
-557,715	16,007	-0,162	-0,092
-556,700	148,863	-0,031	-0,030
-555,685	358,882	0,057	-0,082
-554,671	-11,894	0,136	0,064
-553,656	-200,000	0,025	-0,097
-552,642	800,000	0,078	-0,181
-551,627	5,263	-0,118	-0,062
-550,612	379,042	-0,073	-0,108
-549,598	-81,155	-0,092	0,022
-548,583	300,368	0,046	0,061
-547,569	800,000	0,029	0,081
-546,554	-55,176	-0,035	-0,011
-545,539	-186,097	-0,070	-0,001
-544,525	79,407	0,044	-0,034
-543,510	800,000	0,019	0,051
-542,496	201,641	-0,034	0,037
-541,481	58,673	-0,112	-0,079
-540,466	156,392	0,055	0,054
-539,452	800,000	-0,026	-0,063
-538,437	162,266	0,071	-0,071
-537,423	87,729	0,118	0,094
-536,408	-195,984	0,096	0,000
-535,393	76,594	-0,082	0,063
-534,379	5,692	-0,017	0,009
-533,364	787,668	0,016	0,032
-532,350	-200,000	-0,011	-0,077
-531,335	-189,623	-0,062	-0,000
-530,321	-200,000	-0,002	0,075
-529,306	333,115	0,046	0,064
-528,291	114,634	0,111	-0,097
-527,277	92,235	-0,077	-0,062
-526,262	18,474	0,052	-0,030
-525,248	402,486	-0,072	0,109
-524,233	39,509	0,137	0,088
-523,218	81,482	-0,132	0,103
-522,204	104,626	-0,069	-0,059
-521,189	-200,000	-0,025	0,096
-520,175	40,555	0,066	-0,043
-519,160	-112,024	-0,086	-0,012
-518,145	-200,000	-0,007	0,059
-517,131	7,218	0,086	0,046
-516,116	-79,560	0,036	-0,009
-515,102	173,304	-0,058	0,060
-514,087	160,980	-0,033	-0,033
-513,072	-143,905	-0,140	0,009
-512,058	800,000	-0,014	-0,030
-511,043	800,000	-0,016	-0,049
-510,029	-135,420	0,122	0,010
-509,014	800,000	0,044	0,090
-507,999	269,219	-0,051	0,065
-506,985	-200,000	-0,002	0,070
-505,970	381,343	-0,107	-0,158
-504,956	207,305	-0,056	-0,063
-503,941	-30,845	-0,055	0,022
-502,926	-131,542	0,146	0,014
-501,912	-200,000	-0,011	0,159
-500,897	78,020	0,151	-0,116
-499,883	188,454	-0,065	0,070
-498,868	1,795	0,084	-0,043
-497,853	-80,407	-0,079	-0,019
-496,839	-90,552	0,050	-0,010
-495,824	294,919	0,109	-0,144
-494,810	-200,000	0,023	-0,087
-493,795	-200,000	0,018	0,066
-492,781	-75,885	-0,058	-0,015
-491,766	-31,554	-0,142	0,057
-490,751	-15,141	0,044	-0,020
-489,737	622,379	-0,055	-0,100
-488,722	505,233	0,009	-0,015
-487,708	571,954	0,056	0,098
-486,693	171,225	-0,088	0,091
-485,678	780,986	0,049	0,097
-484,664	111,583	0,041	-0,035
-483,649	-129,529	0,093	0,009
-482,635	61,883	-0,144	-0,103
-481,620	-102,575	-0,076	0,013
-480,605	-89,305	0,106	0,022
-479,591	-69,325	-0,080	-0,022
-478,576	102,980	-0,016	-0,014
-477,562	-200,000	-0,020	-0,155
-476,547	-111,103	-0,106	0,015
-475,532	-45,943	0,145	-0,051
-474,518	-30,073	0,049	-0,020
-473,503	-40,728	-0,040	-0,015
-472,489	-200,000	0,047	-0,225
-471,474	-200,000	-0,014	0,148
-470,459	800,000	-0,003	-0,009
-469,445	-85,826	-0,134	0,030
-468,430	218,796	-0,044	0,051
-467,416	-200,000	-0,003	0,034
-466,401	1,501	-0,084	0,043
-465,386	-12,540	0,074	-0,035
-464,372	318,528	0,088	0,119
-463,357	800,000	0,018	0,044
-462,343	303,658	0,072	-0,096
-461,328	-200,000	0,031	-0,136
-460,313	-72,209	0,155	0,041
-459,299	93,780	0,090	-0,073
-458,284	-72,734	-0,077	-0,020
-457,270	-200,000	0,046	0,154
-456,255	298,469	-0,110	0,146
-455,241	579,875	0,032	-0,056
-454,226	26,840	-0,046	-0,027
-453,211	800,000	-0,037	0,089
-452,197	546,668	0,037	0,064
-451,182	-200,000	0,015	0,114
-450,168	529,309	0,018	0,030
-449,153	-200,000	0,001	-0,034
-448,138	22,556	-0,039	-0,023
-447,124	45,020	0,067	0,044
-446,109	331,910	-0,022	-0,030
-445,095	-172,325	0,002	0,000
-444,080	-200,000	0,033	0,144
-443,065	800,000	0,032	0,093
-442,051	-200,000	-0,005	-0,072
-441,036	800,000	0,031	-0,070
-440,022	277,566	0,034	-0,044
-439,007	-200,000	-0,005	0,092
-437,992	445,291	0,022	0,035
-436,978	800,000	-0,040	0,085
-435,963	-200,000	0,003	0,178
-434,949	48,898	-0,180	-0,121
-433,934	252,071	-0,100	0,122
-432,919	42,883	0,083	-0,054
-431,905	57,429	0,098	-0,069
-430,890	-200,000	0,019	-0,116
-429,876	-10,301	0,061	-0,029
-428,861	-200,000	0,007	0,088
-427,846	202,949	0,038	-0,042
-426,832	204,712	0,051	0,056
-425,817	800,000	0,022	-0,058
-424,803	-200,000	0,035	-0,201
-423,788	-200,000	-0,048	0,217
-422,773	-200,000	0,017	0,058
-421,759	-200,000	0,044	0,181
-420,744	-200,000	-0,022	-0,073
-419,730	-200,000	-0,005	-0,021
-418,715	132,793	0,077	0,071
-417,701	800,000	-0,017	0,052
-416,686	7,455	0,140	-0,074
-415,671	156,561	0,037	-0,037
-414,657	257,512	0,051	0,063
-413,642	235,050	-0,095	-0,112
-412,628	-54,998	-0,082	0,026
-411,613	-200,000	-0,011	-0,116
-410,598	-77,586	-0,066	0,016
-409,584	-98,522	0,181	0,033
-408,569	800,000	0,053	0,110
-407,555	10,027	-0,098	0,053
-406,540	155,109	-0,089	-0,087
-405,525	800,000	-0,031	0,078
-404,511	-200,000	-0,002	0,053
-403,496	147,659	-0,149	-0,143
-402,482	89,308	-0,033	0,027
-401,467	337,013	0,068	-0,094
-400,452	800,000	0,047	-0,120
-399,438	97,223	-0,022	-0,018
-398,423	268,749	0,080	-0,101
-397,409	140,203	-0,157	-0,149
-396,394	-200,000	-0,004	-0,235
-395,379	94,024	0,085	-0,069
-394,365	-120,163	0,149	0,018
-393,350	-200,000	0,022	0,093
-392,336	270,587	0,032	-0,041
-391,321	800,000	0,037	-0,080
-390,306	63,010	0,057	0,041
-389,292	5,496	-0,117	-0,061
-388,277	-200,000	0,028	0,145
-387,263	-34,623	0,091	0,035
-386,248	541,408	0,059	-0,101
-385,233	156,676	-0,101	0,100
-384,219	115,564	0,050	0,044
-383,204	-12,057	-0,068	-0,032
-382,190	-200,000	0,025	-0,098
-381,175	-200,000	-0,018	-0,191
-380,160	800,000	0,035	-0,093
-379,146	-200,000	0,014	0,088
-378,131	16,696	-0,099	-0,056
-377,117	800,000	-0,034	0,086
-376,102	800,000	-0,063	-0,134
-375,088	26,742	-0,036	0,021
-374,073	216,300	0,074	-0,085
-373,058	81,016	0,083	-0,064
-372,044	800,000	-0,063	0,166
-371,029	-23,304	-0,023	-0,010
-370,015	171,452	-0,055	-0,056
-369,000	92,345	0,071	0,057
-367,985	-103,447	-0,142	-0,024
-366,971	123,694	-0,035	-0,032
-365,956	-86,548	-0,075	-0,016
-364,942	-120,588	0,242	-0,029
-363,927	123,844	0,057	-0,051
-362,912	-200,000	0,002	-0,057
-361,898	98,526	0,115	-0,095
-360,883	-137,512	0,124	-0,010
-359,869	-200,000	0,024	0,087
-358,854	210,823	0,016	-0,018
-357,839	87,936	0,146	0,115
-356,825	118,090	0,031	0,027
-355,810	800,000	0,021	0,059
-354,796	389,485	-0,030	0,045
-353,781	-90,967	0,149	-0,030
-352,766	119,535	-0,120	-0,106
-351,752	41,101	-0,046	0,030
-350,737	338,306	0,113	0,157
-349,723	-94,759	0,085	-0,016
-348,708	-17,356	-0,126	0,056
-347,693	-110,576	-0,079	-0,012
-346,679	74,328	-0,004	0,003
-345,664	387,480	0,015	0,023
-344,650	-181,610	0,075	0,001
-343,635	-200,000	0,009	-0,070
-342,620	-200,000	0,012	0,139
-341,606	-200,000	0,011	0,054
-340,591	90,861	-0,043	-0,034
-339,577	-66,616	-0,131	-0,037
-338,562	-141,391	-0,017	0,001
-337,548	22,143	0,096	0,056
-336,533	80,036	0,056	-0,043
-335,518	-200,000	-0,005	-0,027
-334,504	15,479	0,031	0,017
-333,489	521,058	-0,019	0,032
-332,475	-61,419	0,108	-0,032
-331,460	-200,000	0,014	-0,063
-330,445	623,861	-0,041	0,075
-329,431	-200,000	-0,012	-0,043
-328,416	-200,000	-0,017	-0,055
-327,402	-200,000	-0,017	0,086
-326,387	303,640	0,062	-0,082
-325,372	-47,359	0,080	-0,028
-324,358	13,858	0,056	-0,031
-323,343	251,719	-0,022	-0,027
-322,329	-200,000	0,024	0,093
-321,314	-79,955	0,053	-0,013
-320,299	800,000	-0,026	0,071
-319,285	443,899	0,044	-0,068
-318,270	-83,388	-0,131	-0,030
-317,256	27,756	0,086	0,052
-316,241	-200,000	-0,020	-0,107
-315,226	-70,075	0,057	0,015
-314,212	204,435	0,133	0,147
-313,197	61,166	0,050	-0,035
-312,183	44,018	0,097	0,063
-311,168	-200,000	0,014	-0,175
-310,153	386,996	0,058	-0,085
-309,139	-200,000	0,012	-0,038
-308,124	800,000	-0,026	-0,059
-307,110	-47,576	0,064	-0,022
-306,095	82,106	0,101	-0,078
-305,080	-200,000	0,043	-0,159
-304,066	84,034	-0,067	0,052
-303,051	-75,098	-0,057	0,014
-302,037	726,724	-0,018	-0,035
-301,022	-55,356	-0,115	0,036
-300,008	-3,566	0,102	0,050
-298,993	-72,715	0,065	0,017
-297,978	800,000	-0,027	0,059
-296,964	330,907	-0,014	0,020
-295,949	-200,000	-0,010	-0,090
-294,935	179,261	-0,126	-0,131
-293,920	-200,000	-0,023	0,081
-292,905	407,692	0,045	-0,068
-291,891	125,404	0,079	0,071
-290,876	-200,000	-0,002	0,022
-289,862	10,887	0,047	-0,025
-288,847	199,110	-0,049	0,054
-287,832	-200,000	-0,010	0,032
-286,818	55,859	-0,149	-0,103
-285,803	-200,000	-0,013	0,112
-284,789	221,204	0,054	0,062
-283,774	135,198	0,025	0,023
-282,759	-106,328	-0,137	0,022
-281,745	34,889	0,038	-0,024
-280,730	800,000	-0,031	0,080
-279,716	800,000	-0,038	-0,076
-278,701	-200,000	0,020	0,119
-277,686	-200,000	0,013	0,073
-276,672	-200,000	0,014	0,072
-275,657	-200,000	0,004	0,013
-274,643	-200,000	0,029	-0,163
-273,628	-200,000	0,011	-0,056
-272,613	800,000	-0,029	-0,077
-271,599	800,000	0,072	0,185
-270,584	209,948	0,116	0,130
-269,570	69,670	0,065	0,047
-268,555	-39,693	0,030	0,011
-267,540	144,706	-0,002	-0,002
-266,526	-200,000	0,009	0,028
-265,511	3,456	-0,084	0,043
-264,497	-200,000	0,005	-0,128
-263,482	-133,642	0,096	0,008
-262,467	257,472	0,003	0,003
-261,453	-200,000	-0,015	-0,062
-260,438	180,340	-0,049	0,051
-259,424	628,001	-0,055	-0,099
-258,409	181,283	0,001	0,001
-257,395	118,298	0,022	-0,019
-256,380	-200,000	0,014	-0,084
-255,365	25,396	0,031	-0,018
-254,351	687,332	0,066	0,123
-253,336	-159,815	-0,088	0,003
-252,322	-17,375	-0,101	-0,045
-251,307	670,281	-0,077	0,142
-250,292	-200,000	0,024	0,082
-249,278	-63,278	0,152	0,044
-248,263	800,000	0,025	-0,076
-247,249	634,356	-0,011	-0,019
-246,234	183,963	-0,063	0,067
-245,219	483,333	-0,043	-0,070
-244,205	215,748	-0,060	-0,068
-243,190	-41,842	0,109	-0,039
-242,176	169,080	0,076	0,077
-241,161	800,000	0,073	0,146
-240,146	-200,000	0,017	0,099
-239,132	253,046	0,054	-0,066
-238,117	-110,162	-0,096	-0,014
-237,103	54,727	-0,109	0,074
-236,088	-200,000	0,018	0,096
-235,073	-101,688	0,066	0,011
-234,059	-100,401	0,105	0,018
-233,044	-135,686	-0,106	0,009
-232,030	257,110	-0,038	0,046
-231,015	-39,137	-0,202	-0,075
-230,000	407,646	0,031	-0,047
-228,986	316,164	0,042	0,056
-227,971	-73,209	-0,101	0,026
-226,957	-24,209	0,085	0,036
-225,942	-200,000	0,131	-0,000
-224,927	55,623	-0,101	0,069
-223,913	800,000	0,005	-0,012
-222,898	800,000	0,023	0,067
-221,884	2,540	0,008	0,004
-220,869	-123,851	-0,101	0,011
-219,855	-3,133	-0,107	0,053
-218,840	-200,000	-0,010	-0,068
-217,825	800,000	0,045	0,096
-216,811	800,000	0,015	-0,032
-215,796	9,229	-0,038	0,020
-214,782	-200,000	0,001	0,078
-213,767	800,000	0,061	0,168
-212,752	-200,000	0,014	0,117
-211,738	-200,000	0,013	-0,052
-210,723	-56,407	-0,123	-0,039
-209,709	-143,134	-0,137	-0,009
-208,694	-196,236	-0,082	-0,000
-207,679	800,000	0,017	0,045
-206,665	-200,000	0,013	0,054
-205,650	785,683	-0,020	0,039
-204,636	321,802	0,042	0,057
-203,621	-200,000	-0,010	0,053
-202,606	800,000	-0,035	-0,100
-201,592	800,000	-0,031	0,066
-200,577	-63,776	0,063	-0,018
-199,563	-11,588	-0,164	-0,076
-198,548	7,094	0,133	0,070
-197,533	122,937	-0,031	-0,027
-196,519	-57,611	-0,135	-0,042
-195,504	800,000	0,060	0,119
-194,490	-76,958	0,100	-0,025
-193,475	40,168	-0,093	0,059
-192,460	-162,040	-0,064	-0,002
-191,446	-115,066	-0,103	-0,014
-190,431	-200,000	0,018	0,102
-189,417	609,114	-0,010	0,018
-188,402	-125,801	0,043	0,005
-187,387	-118,749	-0,038	-0,005
-186,373	84,268	0,060	-0,046
-185,358	-83,909	-0,105	-0,024
-184,344	69,547	-0,028	0,020
-183,329	-71,869	0,172	0,045
-182,315	114,707	0,094	-0,081
-181,300	800,000	0,054	-0,118
-180,285	118,775	-0,162	-0,142
-179,271	-200,000	0,032	-0,189
-178,256	-12,990	-0,046	-0,021
-177,242	30,694	0,011	-0,007
-176,227	-9,871	0,013	-0,006
-175,212	513,947	0,059	0,099
-174,198	-200,000	-0,010	0,166
-173,183	-63,030	-0,149	0,043
-172,169	406,080	0,050	-0,075
-171,154	-200,000	0,032	0,277
-170,139	-200,000	-0,007	-0,057
-169,125	800,000	0,037	-0,088
-168,110	-199,956	0,083	-0,000
-167,096	6,562	0,037	-0,020
-166,081	-200,000	-0,003	0,040
-165,066	-46,995	-0,112	-0,038
-164,052	23,560	-0,041	0,024
-163,037	800,000	0,036	-0,094
-162,023	224,452	0,089	-0,102
-161,008	-73,677	0,012	0,003
-159,993	-79,804	0,089	0,021
-158,979	-158,448	-0,047	0,002
-157,964	502,629	0,009	-0,014
-156,950	-96,283	-0,111	-0,021
-155,935	-156,948	0,092	0,004
-154,920	18,824	0,082	0,046
-153,906	-200,000	0,007	0,023
-152,891	800,000	0,025	0,072
-151,877	-200,000	-0,019	0,000
-150,862	-19,268	-0,134	-0,058
-149,847	83,160	-0,054	0,042
-148,833	-200,000	-0,031	-0,141
-147,818	-200,000	0,002	0,036
-146,804	800,000	0,025	0,056
-145,789	-142,800	-0,047	0,003
-144,775	41,996	-0,136	-0,087
-143,760	20,037	-0,093	-0,053
-142,745	800,000	-0,020	-0,056
-141,731	-5,353	0,087	0,042
-140,716	42,573	0,065	-0,042
-139,702	-130,747	0,038	0,004
-138,687	86,567	-0,084	0,065
-137,672	-83,598	-0,156	-0,035
-136,658	219,993	0,015	-0,017
-135,643	8,771	-0,032	-0,017
-134,629	-97,579	-0,125	-0,023
-133,614	29,053	0,078	-0,047
-132,599	-54,805	-0,115	0,037
-131,585	441,298	0,015	0,024
-130,570	167,900	-0,034	-0,034
-129,556	-200,000	-0,012	0,115
-128,541	116,623	0,075	-0,066
-127,526	169,276	-0,038	0,038
-126,512	-200,000	0,025	0,127
-125,497	-113,292	-0,047	0,006
-124,483	325,932	-0,028	-0,038
-123,468	-44,606	-0,111	-0,039
-122,453	366,394	0,091	-0,130
-121,439	-200,000	-0,005	0,058
-120,424	169,711	-0,074	0,075
-119,410	-200,000	-0,005	0,033
-118,395	32,556	0,056	0,034
-117,380	-200,000	0,004	0,014
-116,366	168,348	-0,068	0,069
-115,351	800,000	-0,025	-0,056
-114,337	800,000	-0,039	-0,114
-113,322	-99,634	0,151	0,027
-112,307	-200,000	-0,020	0,110
-111,293	-200,000	0,014	0,137
-110,278	800,000	-0,037	0,085
-109,264	-17,004	0,033	-0,015
-108,249	800,000	-0,040	-0,080
-107,234	800,000	0,030	-0,085
-106,220	87,161	-0,100	-0,078
-105,205	-123,019	0,124	-0,014
-104,191	46,524	0,014	0,009
-103,176	424,494	-0,020	-0,030
-102,162	-38,827	-0,147	0,054
-101,147	-117,965	0,175	0,022
-100,132	67,678	0,104	-0,075
-99,118	-74,972	-0,136	-0,034
-98,103	-96,347	0,065	0,012
-97,089	-200,000	-0,003	0,107
-96,074	-200,000	-0,023	0,098
-95,059	-200,000	0,000	-0,006
-94,045	-200,000	-0,005	0,075
-93,030	-200,000	-0,016	-0,071
-92,016	800,000	0,089	-0,214
-91,001	468,216	0,012	0,019
-89,986	-0,105	0,039	0,019
-88,972	-100,394	-0,038	-0,007
-87,957	258,383	-0,046	-0,056
-86,943	-99,202	-0,188	-0,033
-85,928	473,619	-0,059	-0,095
-84,913	40,193	-0,100	-0,063
-83,899	260,963	-0,061	-0,075
-82,884	377,497	-0,035	-0,050
-81,870	695,892	-0,055	0,102
-80,855	-137,053	-0,112	0,009
-79,840	-46,416	-0,111	0,038
-78,826	-171,030	-0,057	0,001
-77,811	-183,082	-0,129	-0,002
-76,797	800,000	0,016	-0,038
-75,782	-200,000	-0,001	0,046
-74,767	-7,887	0,051	0,024
-73,753	-91,672	0,096	-0,019
-72,738	-51,093	-0,127	0,042
-71,724	800,000	0,030	-0,084
-70,709	-200,000	0,001	-0,120
-69,694	117,777	-0,004	-0,003
-68,680	158,360	0,066	0,065
-67,665	-200,000	0,031	-0,107
-66,651	-200,000	-0,006	0,138
-65,636	13,092	0,177	0,096
-64,622	-200,000	-0,034	0,144
-63,607	-24,443	0,134	-0,056
-62,592	-122,411	-0,139	-0,016
-61,578	-200,000	-0,030	-0,139
-60,563	-62,931	0,017	0,005
-59,549	800,000	-0,118	0,238
-58,534	58,110	-2,250	-1,554
-57,519	572,390	-1,142	-1,971
-56,505	-200,000	-0,309	-4,307
-55,490	738,439	0,959	1,824
-54,476	800,000	5,078	11,143
-53,461	-200,000	22,419	345,352
-52,446	800,000	755,239	2284,119
-51,432	530,432	1639,012	2743,332
-50,417	67,324	1636,889	1176,896
-49,403	15,463	1512,534	835,579
-48,388	9,633	1437,930	766,508
-47,373	19,201	1430,631	807,943
-46,359	13,193	1418,725	772,993
-45,344	7,929	1414,819	746,071
-44,330	7,903	1412,787	744,849
-43,315	7,859	1411,205	743,777
-42,300	7,891	1409,093	742,788
-41,286	7,914	1407,972	742,271
-40,271	7,880	1406,819	741,478
-39,257	7,830	1405,747	740,649
-38,242	7,911	1404,301	740,235
-37,227	7,876	1403,656	739,705
-36,213	7,909	1402,152	739,034
-35,198	7,876	1401,014	738,251
-34,184	7,896	1400,132	737,850
-33,169	7,822	1398,923	736,841
-32,154	7,848	1397,885	736,386
-31,140	7,874	1396,546	735,772
-30,125	7,913	1395,587	735,418
-29,111	7,851	1394,235	734,387
-28,096	7,864	1393,188	733,869
-27,082	7,834	1392,049	733,102
-26,067	7,840	1390,722	732,401
-25,052	7,842	1389,789	731,889
-24,038	7,840	1388,847	731,353
-23,023	7,806	1388,238	730,847
-22,009	7,789	1387,234	730,212
-20,994	7,828	1386,086	729,757
-19,979	7,794	1384,979	728,992
-18,965	7,779	1384,097	728,427
-17,950	7,754	1383,251	727,839
-16,936	7,719	1382,210	727,099
-15,921	7,698	1381,370	726,534
-14,906	7,693	1380,499	726,026
-13,892	7,790	1379,147	725,729
-12,877	7,747	1378,466	725,143
-11,863	7,721	1377,822	724,657
-10,848	7,650	1377,106	723,929
-9,833	7,658	1375,908	723,305
-8,819	7,674	1375,026	722,887
-7,804	7,653	1374,444	722,454
-6,790	7,681	1373,218	721,912
-5,775	7,650	1372,240	721,226
-4,760	7,663	1371,469	720,852
-3,746	7,709	1370,433	720,490
-2,731	7,638	1369,555	719,674
-1,717	7,620	1368,919	719,230
-0,702	7,673	1367,061	718,467
0,313	11,669	1277,684	689,493
1,327	27,475	672,650	397,993
2,342	42,705	115,462	74,005
3,356	1,775	16,466	8,340
4,371	12,305	3,794	2,055
5,386	6,734	1,310	0,685
6,400	800,000	0,326	0,647
7,415	-117,758	-0,120	-0,015
8,429	40,930	-0,239	-0,152
9,444	49,247	-0,329	-0,218
10,459	-101,130	-0,243	-0,041
11,473	23,476	-0,284	-0,164
12,488	-32,489	-0,319	-0,125
13,502	-49,991	-0,362	-0,120
14,517	143,224	-0,352	-0,330
15,531	160,802	-0,337	-0,332
16,546	275,275	-0,294	-0,368
17,561	-1,877	-0,479	-0,237
18,575	-19,512	-0,229	-0,100
19,590	364,971	-0,192	-0,273
20,604	-0,370	-0,221	-0,110
21,619	242,560	-0,367	-0,433
22,634	169,820	-0,360	-0,362
23,648	-54,264	-0,464	-0,147
24,663	76,253	-0,427	-0,318
25,677	220,266	-0,245	-0,276
26,692	132,585	-0,303	-0,275
27,707	-54,235	-0,314	-0,100
28,721	-50,976	-0,436	-0,143
29,736	94,531	-0,336	-0,268
30,750	43,534	-0,452	-0,290
31,765	87,517	-0,313	-0,244
32,780	29,167	-0,369	-0,220
33,794	74,123	-0,291	-0,214
34,809	-89,518	-0,403	-0,082
35,823	131,995	-0,295	-0,267
36,838	22,625	-0,310	-0,178
37,853	77,160	-0,470	-0,351
38,867	112,710	-0,343	-0,292
39,882	8,701	-0,471	-0,249
40,896	190,064	-0,219	-0,231
41,911	224,331	-0,241	-0,274
42,926	8,214	-0,298	-0,157
43,940	-6,460	-0,258	-0,123
44,955	170,844	-0,297	-0,299
45,969	81,332	-0,331	-0,251
46,984	211,494	-0,267	-0,296
47,999	302,085	-0,157	-0,204
49,013	51,726	-0,290	-0,194
50,028	348,197	-0,307	-0,426
51,042	-15,151	-0,381	-0,171
52,057	97,867	-0,351	-0,283
53,071	30,461	-0,415	-0,248
54,086	57,507	-0,327	-0,224
55,101	-77,874	-0,461	-0,111
56,115	108,955	-0,312	-0,262
57,130	-55,047	-0,423	-0,133
58,144	-81,528	-0,411	-0,094
59,159	111,719	-0,284	-0,240
60,174	33,096	-0,302	-0,184
61,188	103,050	-0,223	-0,184
62,203	8,066	-0,272	-0,143
63,217	-58,055	-0,296	-0,090
64,232	-29,106	-0,479	-0,192
65,247	279,569	-0,259	-0,325
66,261	80,639	-0,337	-0,254
67,276	20,162	-0,365	-0,206
68,290	153,189	-0,306	-0,294
69,305	169,911	-0,211	-0,211
70,320	-18,835	-0,299	-0,130
71,334	157,072	-0,269	-0,261
72,349	73,296	-0,218	-0,159
73,363	52,542	-0,360	-0,240
74,378	386,005	-0,200	-0,290
75,393	29,470	-0,305	-0,181
76,407	-54,021	-0,230	-0,073
77,422	-5,518	-0,312	-0,150
78,436	-52,387	-0,317	-0,102
79,451	-9,545	-0,296	-0,138
80,466	-7,445	-0,377	-0,178
81,480	-32,341	-0,268	-0,104
82,495	4,391	-0,357	-0,183
83,509	235,186	-0,228	-0,264
84,524	48,218	-0,207	-0,135
85,539	-18,914	-0,381	-0,165
86,553	242,800	-0,243	-0,285
87,568	205,456	-0,226	-0,246
88,582	67,194	-0,429	-0,306
89,597	360,243	-0,200	-0,281
90,611	-91,813	-0,249	-0,049
91,626	96,673	-0,158	-0,127
92,641	97,361	-0,226	-0,181
93,655	-50,303	-0,216	-0,071
94,670	82,441	-0,266	-0,202
95,684	42,163	-0,210	-0,133
96,699	255,513	-0,222	-0,267
97,714	241,176	-0,253	-0,296
98,728	273,727	-0,169	-0,209
99,743	-102,998	-0,339	-0,056
100,757	-1,623	-0,278	-0,137
101,772	124,580	-0,291	-0,256
102,787	106,330	-0,199	-0,165
103,801	-42,389	-0,329	-0,117
104,816	-71,034	-0,159	-0,042
105,830	-89,964	-0,258	-0,052
106,845	100,978	-0,098	-0,080
107,860	54,833	-0,205	-0,138
108,874	-51,946	-0,306	-0,099
109,889	-127,543	-0,402	-0,040
110,903	157,397	-0,110	-0,107
111,918	159,221	-0,277	-0,270
112,933	29,274	-0,086	-0,051
113,947	-144,027	-0,250	-0,016
114,962	-109,859	-0,356	-0,052
115,976	160,351	-0,357	-0,348
116,991	63,217	-0,201	-0,141
118,006	12,178	-0,299	-0,160
119,020	781,948	-0,087	-0,166
120,035	31,126	-0,208	-0,124
121,049	236,114	-0,156	-0,180
122,064	-45,023	-0,330	-0,114
123,079	53,500	-0,261	-0,174
124,093	-26,409	-0,336	-0,137
125,108	444,924	-0,165	-0,253
126,122	206,152	-0,176	-0,191
127,137	800,000	-0,096	-0,209
128,151	-35,328	-0,271	-0,102
129,166	136,728	-0,145	-0,132
130,181	183,080	-0,232	-0,239
131,195	413,881	-0,183	-0,272
132,210	122,165	-0,325	-0,283
133,224	-4,689	-0,163	-0,078
134,239	176,768	-0,160	-0,162
135,254	-22,921	-0,379	-0,159
136,268	124,411	-0,215	-0,189
137,283	800,000	-0,087	-0,210
138,297	159,528	-0,231	-0,224
139,312	-62,679	-0,416	-0,120
140,327	51,696	-0,338	-0,224
141,341	-3,375	-0,329	-0,159
142,356	90,600	-0,242	-0,188
143,370	211,902	-0,185	-0,203
144,385	267,832	-0,200	-0,245
145,400	260,164	-0,144	-0,174
146,414	92,199	-0,211	-0,166
147,429	211,671	-0,157	-0,172
148,443	-37,169	-0,244	-0,090
149,458	-200,000	0,000	-0,106
150,473	44,988	-0,314	-0,201
151,487	-1,725	-0,305	-0,149
152,502	-27,891	-0,258	-0,103
153,516	234,289	-0,172	-0,197
154,531	105,178	-0,248	-0,204
155,546	287,627	-0,219	-0,276
156,560	190,356	-0,137	-0,143
157,575	170,138	-0,157	-0,157
158,589	-26,156	-0,274	-0,112
159,604	-46,087	-0,395	-0,135
160,619	800,000	-0,162	-0,373
161,633	151,587	-0,205	-0,194
162,648	9,000	-0,232	-0,121
163,662	437,499	-0,094	-0,143
164,677	315,761	-0,173	-0,227
165,692	232,550	-0,109	-0,124
166,706	38,199	-0,257	-0,159
167,721	131,222	-0,261	-0,233
168,735	29,774	-0,264	-0,156
169,750	205,740	-0,193	-0,209
170,764	-62,249	-0,268	-0,077
171,779	-91,413	-0,233	-0,046
172,794	-72,257	-0,339	-0,087
173,808	-70,809	-0,170	0,044
174,823	-5,058	-0,204	-0,097
175,837	75,924	-0,255	-0,187
176,852	102,891	-0,160	-0,130
177,867	246,426	-0,229	-0,269
178,881	244,438	-0,132	-0,154
179,896	-200,000	-0,062	-0,226
180,910	-200,000	-0,030	-0,114
181,925	158,979	-0,161	-0,155
182,940	-57,440	-0,320	-0,097
183,954	-200,000	-0,011	-0,197
184,969	-13,994	-0,227	-0,101
185,983	141,954	-0,240	-0,221
186,998	-90,979	-0,278	-0,055
188,013	7,930	-0,232	-0,120
189,027	315,158	-0,203	-0,266
190,042	-18,553	-0,354	-0,153
191,056	96,874	-0,183	-0,146
192,071	-111,321	-0,155	-0,022
193,086	304,576	-0,159	-0,205
194,100	-24,771	-0,166	-0,068
195,115	58,922	-0,314	-0,214
196,129	165,673	-0,214	-0,210
197,144	169,206	-0,162	-0,161
198,159	-25,599	-0,236	-0,096
199,173	214,214	-0,158	-0,173
200,188	31,501	-0,150	-0,089
201,202	210,373	-0,085	-0,093
202,217	150,597	-0,249	-0,234
203,232	103,028	-0,232	-0,188
204,246	365,015	-0,119	-0,166
205,261	338,625	-0,156	-0,211
206,275	-85,229	-0,295	-0,063
207,290	142,277	-0,222	-0,204
208,304	-17,380	-0,192	-0,083
209,319	40,527	-0,115	-0,072
210,334	498,263	-0,091	-0,146
211,348	-47,480	-0,180	-0,060
212,363	55,543	-0,315	-0,211
213,377	800,000	-0,136	-0,312
214,392	800,000	-0,035	0,100
215,407	15,368	-0,146	-0,079
216,421	160,565	-0,232	-0,224
217,436	68,003	-0,190	-0,135
218,450	45,463	-0,191	-0,122
219,465	-100,708	-0,315	-0,053
220,480	19,551	-0,204	-0,113
221,494	200,107	-0,113	-0,120
222,509	-47,984	-0,202	-0,067
223,523	564,466	-0,128	-0,215
224,538	118,832	-0,235	-0,201
225,553	-44,274	-0,270	-0,093
226,567	-38,189	-0,269	-0,098
227,582	-90,688	-0,228	-0,045
228,596	-29,438	-0,084	-0,033
229,611	101,807	-0,083	0,067
230,626	-148,161	-0,134	-0,008
231,640	-31,730	-0,192	-0,074
232,655	640,618	-0,076	-0,135
233,669	175,747	-0,198	-0,199
234,684	800,000	-0,077	-0,213
235,699	-27,187	-0,210	-0,084
236,713	196,187	-0,141	-0,148
237,728	-144,302	-0,202	0,013
238,742	-7,799	-0,242	-0,112
239,757	17,847	-0,238	-0,131
240,772	-200,000	-0,026	-0,195
241,786	263,347	-0,078	-0,093
242,801	178,754	-0,148	-0,150
243,815	273,126	-0,050	-0,061
244,830	482,304	-0,084	-0,132
245,844	-94,238	-0,119	-0,022
246,859	78,010	-0,148	-0,109
247,874	49,160	-0,159	-0,103
248,888	-9,913	-0,218	-0,100
249,903	25,667	-0,184	-0,105
250,917	-3,663	-0,121	-0,058
251,932	-111,930	-0,073	-0,010
252,947	-134,144	-0,253	0,021
253,961	-128,984	-0,175	0,017
254,976	77,463	-0,131	-0,096
255,990	800,000	-0,055	-0,130
257,005	682,828	-0,091	-0,163
258,020	585,894	-0,066	-0,113
259,034	-172,845	-0,110	0,002
260,049	-144,933	-0,250	-0,016
261,063	-119,964	-0,273	-0,032
262,078	363,585	-0,134	-0,186
263,093	-45,483	-0,128	-0,043
264,107	262,919	-0,148	-0,178
265,122	641,958	-0,091	-0,160
266,136	121,708	-0,143	-0,123
267,151	142,153	-0,119	-0,109
268,166	-200,000	-0,081	-0,246
269,180	137,996	-0,202	-0,183
270,195	131,176	-0,104	-0,092
271,209	80,536	-0,148	-0,110
272,224	-101,691	-0,179	-0,030
273,239	-12,545	-0,079	0,035
274,253	-86,156	-0,156	-0,033
275,268	173,344	-0,131	-0,130
276,282	800,000	-0,090	-0,171
277,297	591,172	-0,133	-0,226
278,312	-11,788	-0,188	-0,085
279,326	800,000	-0,027	-0,065
280,341	-125,756	-0,126	-0,013
281,355	-200,000	-0,038	-0,116
282,370	-13,949	-0,214	-0,095
283,384	-5,096	-0,220	-0,104
284,399	245,219	-0,091	-0,105
285,414	28,688	-0,190	-0,110
286,428	-80,909	-0,114	-0,026
287,443	98,598	-0,066	-0,052
288,457	-45,511	-0,134	-0,045
289,472	96,009	-0,085	-0,067
290,487	187,964	-0,186	-0,191
291,501	107,586	-0,192	-0,157
292,516	-60,899	-0,147	-0,042
293,530	-78,051	-0,142	-0,033
294,545	-81,976	-0,096	0,021
295,560	-50,675	-0,163	-0,052
296,574	85,355	-0,206	-0,155
297,589	-29,428	-0,190	0,074
298,603	166,001	-0,090	-0,087
299,618	17,540	-0,127	-0,069
300,633	-55,403	-0,169	-0,052
301,647	-47,399	-0,155	-0,051
302,662	-20,216	-0,098	-0,041
303,676	-200,000	0,012	-0,063
304,691	16,667	-0,239	-0,129
305,706	800,000	-0,111	-0,221
306,720	800,000	-0,116	-0,296
307,735	26,577	-0,034	0,019
308,749	-64,575	-0,141	-0,039
309,764	-157,940	-0,056	-0,002
310,779	489,675	-0,132	-0,208
311,793	-21,145	-0,136	-0,057
312,808	-63,869	-0,132	-0,037
313,822	-125,202	-0,247	-0,026
314,837	48,043	-0,188	-0,120
315,852	800,000	-0,059	-0,159
316,866	800,000	-0,066	-0,154
317,881	-152,923	-0,165	-0,008
318,895	11,848	-0,127	-0,067
319,910	189,282	-0,177	-0,182
320,925	544,144	-0,161	-0,265
321,939	159,680	-0,148	-0,142
322,954	47,362	-0,104	-0,066
323,968	139,908	-0,191	-0,173
324,983	800,000	-0,037	-0,101
325,997	-200,000	-0,034	-0,127
327,012	-200,000	-0,040	-0,126
328,027	-56,059	-0,148	-0,045
329,041	-89,273	-0,167	-0,033
330,056	56,654	-0,151	-0,101
331,070	409,840	-0,033	-0,048
332,085	42,765	-0,103	-0,064
333,100	143,923	-0,156	-0,143
334,114	101,007	-0,201	-0,160
335,129	-200,000	-0,028	-0,269
336,143	199,178	-0,099	-0,104
337,158	238,444	-0,146	-0,167
338,173	-126,429	-0,118	0,012
339,187	-15,714	-0,095	-0,041
340,202	375,555	-0,069	-0,097
341,216	-200,000	-0,048	-0,219
342,231	-4,899	-0,064	-0,030
343,246	-133,007	-0,225	-0,019
344,260	90,407	-0,190	-0,146
345,275	-49,727	-0,132	-0,043
346,289	-171,760	-0,130	0,003
347,304	85,420	-0,193	-0,145
348,319	50,299	-0,207	-0,134
349,333	-200,000	-0,027	-0,099
350,348	183,139	-0,102	-0,103
351,362	94,596	-0,203	-0,158
352,377	121,323	-0,068	0,058
353,392	-77,219	-0,242	0,057
354,406	35,194	-0,115	-0,069
355,421	207,179	1305,301	1393,393
356,435	159,365	1464,836	1393,851
