DTS Sentinel unit serial number:	SN410029Multiplexer serial number:	ORYXHardware model number:	OX2-SRSoftware version number:	ORYX F/W v4,00 Oryx Data Collector v3.7.2.0data status	okinstallation	B3 Nyhavnadifferential loss correction	single-endedforward channel	channel 1reverse channel	N/Adate	2023/12/02time	01:17:30forward acquisition time	300,00reverse acquisition time	0,00gamma	499,1914k internal	0,3196k external	0,3196temperature offset calibration	1,0000default loss term (dB/km)	0,3820temperature slope calibration	1,0000multiplexer offset coefficient	1,0000multiplexer slope coefficient	1,0000fibre end	0,00T internal ref (°C)	16,45T ext. ref 1 (°C)	1,91T ext. ref 2 (°C)	1,90length (m)	temperature (°C)	Stokes	anti-Stokes-744,400	265,591	-0,176	-0,224
-743,385	800,000	0,063	0,142
-742,371	434,301	-0,082	-0,130
-741,356	800,000	0,120	0,375
-740,342	800,000	-0,052	-0,143
-739,327	-200,000	0,073	0,308
-738,312	515,084	-0,212	-0,363
-737,298	-200,000	0,029	0,251
-736,283	144,895	-0,114	-0,111
-735,269	800,000	0,115	0,323
-734,254	104,251	-0,282	-0,242
-733,239	-196,527	-0,214	-0,001
-732,225	800,000	-0,142	-0,290
-731,210	7,948	0,157	0,085
-730,196	-72,346	0,078	0,021
-729,181	-43,019	-0,103	0,038
-728,167	-200,000	-0,002	-0,142
-727,152	41,574	-0,127	0,083
-726,137	537,293	0,063	0,109
-725,123	-200,000	-0,001	0,037
-724,108	-132,850	-0,242	0,022
-723,094	81,193	-0,136	-0,107
-722,079	800,000	-0,024	-0,064
-721,064	106,444	-0,034	-0,030
-720,050	558,459	0,048	-0,084
-719,035	-156,738	0,077	0,003
-718,021	800,000	-0,015	-0,034
-717,006	29,981	-0,120	0,074
-715,991	118,270	-0,150	-0,135
-714,977	142,141	-0,049	-0,047
-713,962	-200,000	0,013	-0,094
-712,948	148,026	0,082	-0,081
-711,933	-130,982	-0,052	0,005
-710,918	-89,933	-0,033	-0,007
-709,904	-23,256	-0,116	0,050
-708,889	134,881	-0,017	0,016
-707,875	-26,453	-0,063	-0,027
-706,860	-200,000	-0,005	0,019
-705,845	-29,850	0,062	-0,025
-704,831	-15,218	-0,024	-0,011
-703,816	92,063	-0,029	0,024
-702,802	798,908	-0,071	-0,144
-701,787	137,656	-0,147	-0,140
-700,772	-73,197	0,102	-0,027
-699,758	346,892	-0,091	-0,131
-698,743	8,120	0,046	0,025
-697,729	-200,000	0,041	0,137
-696,714	11,138	-0,180	-0,100
-695,699	138,225	0,042	-0,040
-694,685	-200,000	-0,004	-0,055
-693,670	-111,484	-0,084	-0,012
-692,656	800,000	0,032	-0,088
-691,641	183,860	-0,076	-0,081
-690,627	-83,718	-0,097	-0,022
-689,612	665,643	0,030	-0,056
-688,597	202,393	-0,063	-0,070
-687,583	148,853	-0,099	-0,097
-686,568	-162,418	-0,093	-0,003
-685,554	446,737	-0,142	-0,228
-684,539	-2,025	-0,095	-0,048
-683,524	39,238	-0,147	-0,095
-682,510	366,517	0,044	0,065
-681,495	-200,000	-0,021	0,068
-680,481	-61,507	-0,098	-0,030
-679,466	-200,000	-0,010	-0,089
-678,451	800,000	-0,022	0,048
-677,437	78,744	-0,061	-0,047
-676,422	452,766	0,025	-0,040
-675,408	130,080	-0,024	-0,022
-674,393	-79,878	-0,127	0,031
-673,378	257,014	-0,082	-0,103
-672,364	-200,000	0,006	-0,183
-671,349	800,000	0,052	0,110
-670,335	-160,336	-0,131	0,005
-669,320	-200,000	-0,024	0,087
-668,305	106,790	-0,130	0,112
-667,291	112,579	-0,081	0,072
-666,276	-183,977	-0,013	-0,000
-665,262	249,949	-0,046	0,057
-664,247	-121,870	-0,170	0,020
-663,232	-200,000	-0,001	0,118
-662,218	344,754	0,023	0,033
-661,203	716,164	0,032	0,062
-660,189	63,655	-0,101	-0,073
-659,174	297,610	-0,055	-0,073
-658,159	-200,000	-0,006	0,071
-657,145	-17,518	-0,007	-0,003
-656,130	-200,000	0,014	-0,135
-655,116	-78,807	0,111	-0,027
-654,101	800,000	0,035	0,085
-653,086	462,339	-0,053	-0,086
-652,072	214,723	-0,014	0,016
-651,057	-125,242	-0,178	0,020
-650,043	800,000	-0,034	-0,101
-649,028	-200,000	0,002	0,015
-648,014	-167,868	0,126	0,004
-646,999	-200,000	0,045	0,000
-645,984	800,000	-0,009	0,026
-644,970	144,352	0,017	-0,017
-643,955	-111,150	-0,166	-0,024
-642,941	800,000	-0,064	-0,130
-641,926	107,651	0,086	0,074
-640,911	-200,000	-0,012	0,097
-639,897	-84,140	0,093	0,021
-638,882	800,000	-0,014	-0,036
-637,868	644,670	-0,103	-0,192
-636,853	574,067	-0,097	-0,172
-635,838	-24,138	0,058	-0,025
-634,824	-200,000	0,005	0,047
-633,809	-15,285	-0,094	-0,044
-632,795	396,556	-0,059	-0,090
-631,780	135,189	-0,033	0,031
-630,765	334,844	0,069	-0,097
-629,751	-96,400	-0,053	0,010
-628,736	546,134	-0,018	-0,032
-627,722	-20,614	-0,174	-0,077
-626,707	-200,000	0,007	0,063
-625,692	-200,000	-0,048	0,192
-624,678	-200,000	-0,012	0,076
-623,663	-38,083	-0,163	0,062
-622,649	-200,000	0,000	-0,089
-621,634	800,000	-0,069	-0,216
-620,619	800,000	-0,021	-0,058
-619,605	408,292	0,071	0,109
-618,590	-171,682	0,086	0,002
-617,576	228,219	0,016	0,019
-616,561	800,000	-0,021	0,043
-615,546	61,521	-0,080	-0,057
-614,532	46,134	0,072	0,048
-613,517	-64,577	-0,123	-0,036
-612,503	800,000	0,019	0,044
-611,488	-200,000	0,017	-0,064
-610,474	757,682	-0,049	-0,097
-609,459	-73,537	-0,178	-0,047
-608,444	-200,000	0,024	-0,146
-607,430	-125,534	0,015	-0,002
-606,415	107,080	-0,046	-0,040
-605,401	-99,084	0,063	-0,011
-604,386	-44,254	0,136	0,049
-603,371	450,475	0,060	0,096
-602,357	-26,833	-0,040	-0,017
-601,342	-59,820	0,087	-0,027
-600,328	-200,000	0,020	-0,136
-599,313	-200,000	-0,020	-0,100
-598,298	184,896	-0,064	0,069
-597,284	125,823	0,050	0,046
-596,269	800,000	0,052	0,112
-595,255	-133,992	-0,123	-0,011
-594,240	-200,000	-0,005	-0,044
-593,225	-200,000	-0,008	0,067
-592,211	62,882	0,073	-0,053
-591,196	388,801	-0,027	-0,040
-590,182	-200,000	0,021	0,085
-589,167	331,157	0,043	0,060
-588,152	-28,327	0,062	0,026
-587,138	682,170	-0,038	0,071
-586,123	-82,570	-0,118	-0,028
-585,109	800,000	-0,106	-0,281
-584,094	778,942	-0,038	-0,076
-583,079	800,000	-0,040	-0,115
-582,065	272,176	0,034	-0,043
-581,050	800,000	0,017	0,045
-580,036	464,227	0,046	-0,075
-579,021	800,000	-0,078	-0,198
-578,006	127,100	-0,103	-0,095
-576,992	181,971	-0,070	-0,075
-575,977	-200,000	0,016	-0,061
-574,963	365,366	-0,024	-0,035
-573,948	244,267	0,073	-0,089
-572,934	42,627	-0,014	-0,009
-571,919	-127,227	-0,130	0,014
-570,904	-96,941	0,055	-0,010
-569,890	-200,000	0,011	-0,043
-568,875	-200,000	0,013	0,048
-567,861	-76,898	0,026	0,007
-566,846	122,901	0,133	0,121
-565,831	-200,000	-0,039	0,130
-564,817	57,439	-0,075	0,053
-563,802	339,525	0,034	0,049
-562,788	-50,680	-0,016	-0,005
-561,773	320,309	0,079	0,109
-560,758	35,261	-0,039	-0,025
-559,744	688,966	0,109	0,207
-558,729	-200,000	-0,024	0,125
-557,715	-200,000	0,028	-0,093
-556,700	-200,000	0,014	0,103
-555,685	534,734	0,033	-0,056
-554,671	-200,000	0,011	0,128
-553,656	497,920	-0,052	0,087
-552,642	-122,552	0,109	0,013
-551,627	-153,733	-0,041	0,002
-550,612	-137,075	-0,022	-0,002
-549,598	-100,039	-0,132	0,023
-548,583	65,688	0,092	0,068
-547,569	314,889	0,065	0,088
-546,554	-12,115	0,045	0,021
-545,539	-86,034	0,085	-0,019
-544,525	741,921	-0,048	0,093
-543,510	48,900	-0,087	-0,059
-542,496	800,000	-0,012	0,028
-541,481	-3,397	0,066	0,033
-540,466	-59,780	0,125	-0,038
-539,452	-99,341	0,048	0,009
-538,437	47,081	-0,107	0,072
-537,423	86,554	-0,085	0,068
-536,408	-64,448	0,043	-0,013
-535,393	800,000	-0,029	-0,061
-534,379	800,000	-0,018	-0,052
-533,364	248,095	0,051	-0,062
-532,350	179,525	-0,054	0,057
-531,335	-71,777	0,103	-0,027
-530,321	-200,000	0,031	0,120
-529,306	234,749	-0,038	-0,045
-528,291	197,793	0,091	-0,100
-527,277	-106,530	-0,110	-0,018
-526,262	-77,365	-0,035	-0,009
-525,248	440,001	0,074	0,118
-524,233	-40,984	-0,047	0,017
-523,218	-20,380	0,153	0,068
-522,204	156,780	-0,037	-0,037
-521,189	609,131	-0,042	-0,075
-520,175	-49,885	-0,074	-0,025
-519,160	-70,171	0,108	-0,029
-518,145	135,986	-0,065	0,061
-517,131	-169,463	0,144	0,004
-516,116	-200,000	0,015	0,093
-515,102	800,000	-0,008	0,022
-514,087	-34,708	-0,017	-0,007
-513,072	-200,000	-0,001	-0,063
-512,058	-200,000	0,001	-0,029
-511,043	525,306	-0,122	-0,208
-510,029	-140,588	0,116	0,009
-509,014	800,000	-0,037	-0,116
-507,999	800,000	-0,052	0,107
-506,985	-200,000	0,029	-0,148
-505,970	-84,210	-0,120	-0,027
-504,956	-200,000	0,011	-0,104
-503,941	-52,978	0,049	0,016
-502,926	-137,705	0,080	-0,006
-501,912	691,298	0,056	-0,107
-500,897	-200,000	0,007	0,023
-499,883	130,004	-0,036	-0,033
-498,868	3,906	-0,101	-0,053
-497,853	-200,000	-0,045	-0,161
-496,839	0,383	-0,112	-0,057
-495,824	-169,774	0,155	-0,004
-494,810	45,290	0,075	0,050
-493,795	655,070	0,092	0,171
-492,781	44,332	-0,049	0,032
-491,766	230,606	0,054	-0,064
-490,751	515,521	-0,035	-0,059
-489,737	156,831	0,026	-0,026
-488,722	800,000	-0,004	-0,012
-487,708	-8,535	0,120	-0,058
-486,693	-87,722	-0,055	0,012
-485,678	-90,971	0,012	-0,003
-484,664	607,749	-0,061	0,110
-483,649	-79,019	-0,105	0,025
-482,635	40,736	-0,062	0,041
-481,620	-6,074	0,092	-0,045
-480,605	175,293	0,057	0,060
-479,591	323,565	-0,033	0,045
-478,576	-43,977	0,040	0,015
-477,562	326,446	-0,020	-0,028
-476,547	352,935	0,085	-0,121
-475,532	-200,000	-0,014	-0,116
-474,518	-87,768	0,073	0,016
-473,503	42,033	0,014	0,009
-472,489	75,289	-0,035	0,026
-471,474	-200,000	0,005	0,027
-470,459	245,088	-0,024	0,029
-469,445	456,252	-0,099	-0,159
-468,430	229,059	0,012	0,014
-467,416	314,830	-0,028	-0,038
-466,401	800,000	-0,030	0,080
-465,386	10,136	0,071	0,039
-464,372	42,083	-0,025	0,016
-463,357	800,000	-0,042	-0,110
-462,343	29,475	-0,009	0,006
-461,328	154,788	-0,052	0,051
-460,313	87,514	0,061	-0,048
-459,299	-63,420	0,028	0,008
-458,284	-200,000	-0,024	0,102
-457,270	135,257	0,047	0,044
-456,255	-34,337	-0,162	-0,064
-455,241	-200,000	0,017	0,125
-454,226	-81,144	0,064	-0,015
-453,211	800,000	0,032	0,074
-452,197	-152,839	-0,034	0,002
-451,182	800,000	0,058	0,152
-450,168	-63,026	-0,047	0,014
-449,153	-200,000	0,003	-0,079
-448,138	800,000	-0,028	-0,061
-447,124	205,271	-0,094	-0,105
-446,109	-74,109	0,025	-0,007
-445,095	194,543	0,095	0,104
-444,080	-97,768	-0,093	-0,017
-443,065	-52,427	0,079	-0,026
-442,051	109,430	-0,122	0,105
-441,036	800,000	-0,041	0,122
-440,022	-101,624	-0,100	0,017
-439,007	221,134	0,032	-0,037
-437,992	376,698	0,030	-0,044
-436,978	-69,588	0,073	-0,020
-435,963	299,836	-0,057	-0,075
-434,949	800,000	0,003	0,006
-433,934	-200,000	-0,009	-0,073
-432,919	-95,838	-0,039	-0,008
-431,905	-9,939	0,092	0,044
-430,890	314,600	-0,024	0,032
-429,876	-200,000	0,005	0,123
-428,861	-200,000	-0,009	0,031
-427,846	92,940	0,044	-0,036
-426,832	239,203	-0,102	0,122
-425,817	145,333	-0,132	-0,127
-424,803	-127,182	0,199	-0,021
-423,788	25,614	0,060	-0,036
-422,773	800,000	0,033	0,075
-421,759	-161,152	0,145	0,005
-420,744	-3,803	-0,044	0,022
-419,730	112,821	-0,024	-0,021
-418,715	-108,206	0,093	-0,014
-417,701	-200,000	0,014	0,063
-416,686	228,165	-0,048	0,057
-415,671	1,303	0,116	-0,060
-414,657	74,405	0,073	0,055
-413,642	357,468	0,040	-0,057
-412,628	-129,365	0,020	-0,002
-411,613	-30,690	0,153	-0,062
-410,598	114,129	-0,117	-0,102
-409,584	800,000	-0,057	-0,125
-408,569	-200,000	-0,007	0,029
-407,555	-143,757	-0,085	0,006
-406,540	550,878	-0,065	-0,112
-405,525	307,507	0,026	0,035
-404,511	-200,000	0,032	-0,114
-403,496	183,278	-0,099	0,105
-402,482	84,328	-0,060	0,047
-401,467	482,915	-0,018	-0,029
-400,452	-200,000	0,003	0,066
-399,438	-92,478	0,220	-0,044
-398,423	-75,615	0,016	0,004
-397,409	-200,000	0,003	-0,030
-396,394	-200,000	0,030	-0,112
-395,379	318,458	-0,071	-0,096
-394,365	382,543	-0,071	0,105
-393,350	-200,000	0,011	0,035
-392,336	800,000	-0,037	-0,092
-391,321	93,583	-0,066	-0,053
-390,306	-55,414	-0,080	-0,026
-389,292	447,207	-0,021	-0,034
-388,277	-67,701	-0,097	0,027
-387,263	-37,900	0,071	-0,027
-386,248	-200,000	-0,004	-0,111
-385,233	304,249	0,122	0,163
-384,219	-12,739	0,139	-0,065
-383,204	34,110	-0,032	0,020
-382,190	-141,594	0,066	-0,005
-381,175	800,000	-0,011	-0,036
-380,160	-200,000	-0,007	0,129
-379,146	0,515	0,069	0,035
-378,131	-99,241	0,038	0,007
-377,117	-13,542	-0,032	0,015
-376,102	-200,000	-0,007	-0,045
-375,088	800,000	0,036	-0,082
-374,073	122,762	0,067	-0,060
-373,058	56,322	-0,050	0,035
-372,044	669,701	0,033	0,062
-371,029	-200,000	-0,003	-0,064
-370,015	770,152	-0,029	-0,056
-369,000	561,371	-0,011	-0,020
-367,985	26,255	-0,136	-0,081
-366,971	52,990	0,022	-0,015
-365,956	-132,531	-0,152	0,014
-364,942	-174,181	0,066	-0,001
-363,927	-32,749	-0,098	0,039
-362,912	-200,000	-0,020	0,155
-361,898	-66,422	-0,165	0,047
-360,883	-200,000	-0,034	0,120
-359,869	-25,381	-0,102	-0,043
-358,854	35,301	-0,050	0,031
-357,839	-190,281	0,120	0,001
-356,825	-200,000	0,014	-0,074
-355,810	-35,742	-0,029	-0,011
-354,796	-96,090	0,020	0,004
-353,781	-170,096	0,054	0,001
-352,766	160,484	-0,043	-0,043
-351,752	-65,763	0,053	0,015
-350,737	-200,000	-0,005	0,035
-349,723	-200,000	-0,014	0,083
-348,708	-200,000	0,009	0,070
-347,693	108,275	-0,059	0,051
-346,679	800,000	-0,056	-0,122
-345,664	800,000	-0,054	-0,147
-344,650	8,687	-0,027	0,015
-343,635	112,845	0,072	-0,063
-342,620	95,956	0,075	-0,061
-341,606	96,135	0,043	-0,036
-340,591	-116,441	-0,122	-0,016
-339,577	800,000	0,045	-0,104
-338,562	-62,302	-0,271	-0,080
-337,548	237,289	0,067	-0,080
-336,533	79,005	0,070	-0,054
-335,518	-3,552	0,052	0,026
-334,504	-110,058	-0,081	0,012
-333,489	800,000	0,056	-0,113
-332,475	328,786	-0,031	-0,042
-331,460	800,000	-0,053	0,136
-330,445	-200,000	-0,009	-0,043
-329,431	126,646	0,024	-0,022
-328,416	-200,000	0,008	0,027
-327,402	271,313	-0,022	0,028
-326,387	136,390	0,081	0,076
-325,372	-200,000	-0,018	-0,109
-324,358	2,919	-0,070	0,037
-323,343	800,000	0,022	-0,063
-322,329	-200,000	0,021	0,095
-321,314	-53,743	0,167	-0,054
-320,299	227,010	-0,041	-0,048
-319,285	195,584	-0,048	-0,053
-318,270	-27,852	0,057	-0,024
-317,256	-200,000	0,042	-0,212
-316,241	-117,202	-0,108	-0,014
-315,226	100,063	0,045	-0,037
-314,212	-200,000	0,015	0,124
-313,197	89,401	0,078	0,062
-312,183	-200,000	0,015	0,063
-311,168	-200,000	-0,002	-0,127
-310,153	44,374	-0,082	-0,054
-309,139	-200,000	-0,014	0,085
-308,124	-160,424	0,130	-0,005
-307,110	57,149	0,049	0,035
-306,095	227,419	-0,095	0,111
-305,080	148,123	0,089	0,086
-304,066	288,346	-0,016	-0,021
-303,051	-172,483	0,129	0,003
-302,037	64,703	0,014	0,010
-301,022	344,895	0,095	0,134
-300,008	44,105	0,073	0,048
-298,993	727,816	-0,011	0,022
-297,978	-106,943	-0,128	0,020
-296,964	-200,000	-0,030	0,139
-295,949	60,310	0,131	-0,093
-294,935	-200,000	0,031	-0,125
-293,920	276,902	0,093	0,119
-292,905	800,000	0,016	-0,042
-291,891	-157,915	0,082	-0,003
-290,876	2,402	-0,063	-0,032
-289,862	-200,000	-0,018	0,057
-288,847	42,676	-0,054	0,035
-287,832	-2,352	-0,073	-0,036
-286,818	-61,367	0,023	0,007
-285,803	800,000	-0,096	0,227
-284,789	800,000	-0,037	0,093
-283,774	-170,640	-0,033	-0,001
-282,759	-200,000	-0,024	0,104
-281,745	78,924	0,046	-0,035
-280,730	800,000	0,014	0,029
-279,716	-124,983	0,099	-0,011
-278,701	64,197	0,077	0,055
-277,686	-200,000	0,002	-0,046
-276,672	800,000	0,057	0,149
-275,657	-32,109	-0,202	0,080
-274,643	-200,000	0,030	-0,104
-273,628	76,136	0,027	0,020
-272,613	-176,382	0,104	-0,002
-271,599	-200,000	-0,001	-0,037
-270,584	21,475	0,115	0,066
-269,570	800,000	0,048	0,138
-268,555	800,000	-0,025	0,063
-267,540	-10,587	-0,076	-0,036
-266,526	-200,000	-0,020	-0,109
-265,511	187,588	-0,064	-0,069
-264,497	401,393	0,050	-0,076
-263,482	639,598	-0,053	-0,097
-262,467	-49,391	0,047	0,016
-261,453	-47,770	0,081	0,028
-260,438	-200,000	0,001	-0,068
-259,424	154,065	-0,075	0,073
-258,409	114,314	-0,034	0,030
-257,395	-200,000	0,010	0,114
-256,380	-200,000	-0,008	0,167
-255,365	92,264	-0,035	0,029
-254,351	517,613	0,019	0,032
-253,336	-200,000	0,017	-0,071
-252,322	547,123	-0,051	-0,088
-251,307	-151,538	-0,047	-0,002
-250,292	284,171	0,063	-0,081
-249,278	800,000	0,042	0,088
-248,263	123,876	0,144	0,129
-247,249	-136,864	0,073	0,006
-246,234	488,354	0,042	0,069
-245,219	16,008	-0,091	-0,051
-244,205	800,000	-0,024	0,051
-243,190	-146,614	-0,084	0,005
-242,176	-200,000	0,021	0,076
-241,161	54,967	0,093	-0,064
-240,146	3,331	-0,024	0,012
-239,132	302,243	0,102	-0,135
-238,117	-200,000	0,015	0,086
-237,103	92,251	0,018	-0,015
-236,088	136,013	-0,101	-0,094
-235,073	-200,000	0,013	0,157
-234,059	800,000	0,033	0,100
-233,044	-200,000	0,000	0,027
-232,030	-200,000	-0,036	-0,115
-231,015	-200,000	0,003	0,064
-230,000	800,000	-0,088	-0,186
-228,986	-110,389	0,144	-0,021
-227,971	1,489	-0,103	-0,053
-226,957	48,772	0,149	0,100
-225,942	-58,826	0,128	-0,039
-224,927	800,000	0,034	0,095
-223,913	659,445	-0,041	0,077
-222,898	-200,000	0,021	0,073
-221,884	81,594	0,061	0,047
-220,869	-200,000	0,017	0,094
-219,855	216,619	0,053	-0,060
-218,840	-200,000	-0,025	0,114
-217,825	-200,000	-0,009	0,156
-216,811	91,034	-0,070	-0,056
-215,796	81,302	-0,041	-0,031
-214,782	501,006	-0,044	-0,072
-213,767	221,793	-0,055	0,063
-212,752	-124,776	0,095	0,010
-211,738	800,000	0,052	0,134
-210,723	-21,666	0,084	0,037
-209,709	800,000	0,030	-0,092
-208,694	-200,000	-0,008	0,029
-207,679	2,831	-0,040	-0,021
-206,665	800,000	0,032	0,068
-205,650	29,109	0,164	-0,099
-204,636	229,740	0,075	0,088
-203,621	-144,784	0,071	0,005
-202,606	497,327	-0,061	0,101
-201,592	455,670	-0,054	-0,086
-200,577	-93,424	-0,060	-0,012
-199,563	-133,406	-0,088	-0,008
-198,548	-48,189	0,066	0,023
-197,533	83,719	0,010	-0,008
-196,519	35,719	-0,145	-0,091
-195,504	800,000	-0,029	-0,077
-194,490	26,167	-0,093	0,055
-193,475	38,111	0,073	-0,046
-192,460	-200,000	0,005	0,053
-191,446	-200,000	-0,008	-0,031
-190,431	0,273	-0,092	-0,047
-189,417	800,000	0,035	0,073
-188,402	-9,992	-0,065	0,031
-187,387	5,683	-0,098	0,052
-186,373	-59,414	-0,134	0,041
-185,358	85,644	-0,065	-0,051
-184,344	129,008	0,093	0,084
-183,329	292,723	-0,049	-0,064
-182,315	-200,000	-0,011	0,040
-181,300	-200,000	-0,010	0,062
-180,285	180,408	0,063	-0,065
-179,271	-200,000	-0,022	0,069
-178,256	800,000	0,061	-0,176
-177,242	207,857	-0,063	0,070
-176,227	800,000	0,029	0,059
-175,212	444,237	-0,020	0,031
-174,198	-37,205	0,178	0,068
-173,183	123,848	-0,054	-0,048
-172,169	42,215	-0,100	-0,064
-171,154	-200,000	0,003	0,024
-170,139	428,900	0,057	0,088
-169,125	-200,000	0,010	0,054
-168,110	-35,932	0,100	0,038
-167,096	-56,945	-0,045	0,014
-166,081	-200,000	-0,042	-0,133
-165,066	-52,293	0,039	-0,013
-164,052	245,874	-0,082	-0,099
-163,037	-200,000	-0,026	0,115
-162,023	389,877	0,093	0,138
-161,008	800,000	0,050	0,101
-159,993	116,221	-0,036	0,031
-158,979	800,000	-0,055	-0,153
-157,964	22,077	-0,086	-0,050
-156,950	-200,000	-0,021	-0,081
-155,935	800,000	0,019	-0,050
-154,920	291,886	0,113	0,146
-153,906	150,315	0,055	0,053
-152,891	33,848	-0,099	-0,061
-151,877	-200,000	0,051	-0,170
-150,862	640,024	-0,092	-0,168
-149,847	-200,000	0,006	-0,195
-148,833	0,065	-0,050	0,025
-147,818	323,338	0,070	0,095
-146,804	232,999	0,047	0,055
-145,789	-200,000	0,030	0,096
-144,775	-93,231	-0,096	-0,019
-143,760	-106,076	0,011	-0,002
-142,745	209,564	-0,037	0,042
-141,731	687,164	0,016	0,031
-140,716	800,000	0,035	0,073
-139,702	-63,010	0,122	-0,036
-138,687	309,490	0,056	0,074
-137,672	800,000	-0,064	-0,188
-136,658	193,694	0,039	-0,042
-135,643	-200,000	0,002	0,020
-134,629	98,133	0,061	-0,050
-133,614	-200,000	-0,034	0,136
-132,599	39,581	-0,116	-0,074
-131,585	-96,739	0,264	0,049
-130,570	-131,806	-0,123	-0,011
-129,556	155,348	0,079	-0,077
-128,541	423,520	-0,067	-0,103
-127,526	-22,104	-0,048	0,021
-126,512	-134,529	0,085	-0,007
-125,497	-51,357	-0,033	-0,011
-124,483	197,946	-0,072	0,078
-123,468	-10,943	-0,048	-0,023
-122,453	-32,750	-0,076	-0,030
-121,439	-17,747	-0,113	0,050
-120,424	237,807	-0,034	-0,040
-119,410	-32,457	-0,077	0,030
-118,395	-109,208	0,130	-0,019
-117,380	-5,224	0,063	0,031
-116,366	-31,739	-0,057	0,023
-115,351	146,592	-0,078	0,074
-114,337	800,000	-0,036	-0,076
-113,322	690,496	0,037	0,070
-112,307	800,000	-0,053	-0,137
-111,293	113,847	0,114	-0,099
-110,278	-104,506	-0,134	-0,022
-109,264	-200,000	0,007	0,096
-108,249	93,771	0,035	-0,028
-107,234	364,508	-0,064	-0,092
-106,220	800,000	-0,053	-0,123
-105,205	266,365	0,066	0,082
-104,191	423,060	0,029	0,044
-103,176	-200,000	-0,007	0,180
-102,162	77,913	0,018	-0,014
-101,147	-200,000	0,022	-0,084
-100,132	-200,000	0,024	0,132
-99,118	174,605	-0,108	-0,111
-98,103	794,969	0,065	-0,127
-97,089	-200,000	-0,000	0,075
-96,074	-200,000	-0,001	0,146
-95,059	800,000	0,036	0,086
-94,045	-200,000	-0,026	0,126
-93,030	337,244	0,044	-0,061
-92,016	598,510	-0,057	-0,101
-91,001	72,639	0,056	-0,042
-89,986	61,054	0,056	0,040
-88,972	-119,945	0,175	0,021
-87,957	22,044	-0,122	0,071
-86,943	-200,000	-0,042	0,147
-85,928	-200,000	0,011	-0,097
-84,913	800,000	-0,010	0,028
-83,899	-83,274	0,055	-0,012
-82,884	82,142	0,044	0,034
-81,870	800,000	-0,018	0,040
-80,855	-200,000	0,001	0,017
-79,840	100,695	-0,066	-0,054
-78,826	41,772	0,089	-0,057
-77,811	43,022	-0,133	0,086
-76,797	18,133	0,032	0,018
-75,782	767,420	0,073	-0,141
-74,767	800,000	-0,041	0,125
-73,753	314,335	0,071	0,095
-72,738	3,586	-0,080	0,041
-71,724	185,386	0,058	-0,061
-70,709	11,860	0,116	-0,063
-69,694	800,000	0,019	0,056
-68,680	-70,369	0,020	0,005
-67,665	-200,000	-0,002	-0,112
-66,651	800,000	0,043	0,117
-65,636	-12,875	-0,046	0,021
-64,622	-159,497	-0,241	-0,009
-63,607	392,263	-0,083	-0,123
-62,592	11,159	-0,055	-0,030
-61,578	374,436	-0,070	-0,101
-60,563	800,000	0,063	0,153
-59,549	81,548	-0,102	0,078
-58,534	-59,920	-1,185	-0,357
-57,519	383,486	-1,532	-2,244
-56,505	-200,000	-0,500	-4,498
-55,490	47,035	0,946	0,623
-54,476	800,000	4,713	11,301
-53,461	-200,000	17,371	271,567
-52,446	800,000	716,522	2186,697
-51,432	551,705	1631,061	2787,910
-50,417	81,232	1656,087	1267,492
-49,403	24,232	1530,564	894,211
-48,388	18,272	1453,845	820,688
-47,373	18,469	1443,244	815,615
-46,359	18,256	1433,894	809,289
-45,344	16,552	1429,429	798,647
-44,330	16,540	1427,452	797,453
-43,315	16,564	1425,631	796,519
-42,300	16,576	1424,181	795,736
-41,286	16,575	1422,815	794,934
-40,271	16,509	1421,653	793,943
-39,257	16,524	1420,313	793,231
-38,242	16,590	1419,066	792,818
-37,227	16,563	1417,977	792,050
-36,213	16,574	1416,706	791,358
-35,198	16,551	1415,461	790,523
-34,184	16,605	1414,408	790,160
-33,169	16,514	1413,166	789,005
-32,154	16,572	1412,241	788,732
-31,140	16,611	1410,560	787,941
-30,125	16,589	1409,776	787,369
-29,111	16,567	1408,697	786,634
-28,096	16,530	1407,575	785,802
-27,082	16,451	1406,465	784,782
-26,067	16,498	1405,171	784,250
-25,052	16,454	1404,279	783,517
-24,038	16,448	1403,419	782,978
-23,023	16,428	1402,235	782,192
-22,009	16,409	1401,397	781,607
-20,994	16,381	1400,353	780,861
-19,979	16,430	1399,395	780,522
-18,965	16,422	1398,501	779,958
-17,950	16,385	1397,623	779,266
-16,936	16,396	1396,567	778,697
-15,921	16,418	1395,158	777,983
-14,906	16,373	1394,404	777,321
-13,892	16,416	1393,325	776,887
-12,877	16,389	1392,714	776,394
-11,863	16,365	1391,631	775,647
-10,848	16,360	1390,799	775,128
-9,833	16,344	1389,667	774,396
-8,819	16,290	1388,776	773,616
-7,804	16,305	1387,691	773,052
-6,790	16,284	1387,003	772,543
-5,775	16,297	1385,800	771,899
-4,760	16,280	1385,216	771,467
-3,746	16,273	1384,309	770,898
-2,731	16,244	1383,544	770,308
-1,717	16,257	1382,457	769,733
-0,702	16,235	1380,778	768,666
0,313	20,114	1302,487	742,937
1,327	36,645	708,036	442,224
2,342	55,829	125,976	86,426
3,356	5,255	16,498	8,591
4,371	11,859	3,001	1,629
5,386	-45,915	0,568	0,197
6,400	-118,309	-0,041	-0,005
7,415	68,136	-0,309	-0,224
8,429	22,594	-0,233	-0,135
9,444	13,433	-0,303	-0,166
10,459	-12,948	-0,365	-0,168
11,473	75,349	-0,216	-0,161
12,488	-26,007	-0,287	-0,119
13,502	-35,290	-0,467	-0,179
14,517	27,974	-0,357	-0,213
15,531	23,330	-0,424	-0,246
16,546	144,761	-0,316	-0,299
17,561	54,769	-0,322	-0,220
18,575	-38,180	-0,142	-0,053
19,590	97,241	-0,219	-0,178
20,604	-140,242	-0,279	-0,020
21,619	74,044	-0,517	-0,384
22,634	248,648	-0,360	-0,432
23,648	224,436	-0,429	-0,491
24,663	73,835	-0,469	-0,347
25,677	49,062	-0,262	-0,174
26,692	39,319	-0,322	-0,203
27,707	183,639	-0,267	-0,279
28,721	168,045	-0,379	-0,382
29,736	140,514	-0,380	-0,354
30,750	34,751	-0,437	-0,269
31,765	234,113	-0,263	-0,307
32,780	209,563	-0,341	-0,378
33,794	64,947	-0,331	-0,236
34,809	95,177	-0,327	-0,263
35,823	25,451	-0,331	-0,194
36,838	300,113	-0,277	-0,361
37,853	80,675	-0,382	-0,290
38,867	-3,486	-0,363	-0,178
39,882	125,464	-0,433	-0,386
40,896	193,695	-0,253	-0,271
41,911	74,586	-0,328	-0,243
42,926	800,000	-0,217	-0,429
43,940	37,800	-0,488	-0,306
44,955	114,529	-0,385	-0,331
45,969	173,821	-0,281	-0,287
46,984	352,727	-0,174	-0,245
47,999	86,494	-0,368	-0,286
49,013	33,202	-0,368	-0,225
50,028	-2,266	-0,355	-0,175
51,042	377,553	-0,278	-0,403
52,057	800,000	-0,179	-0,440
53,071	128,595	-0,356	-0,320
54,086	61,866	-0,384	-0,270
55,101	14,423	-0,364	-0,200
56,115	86,243	-0,302	-0,235
57,130	130,373	-0,384	-0,347
58,144	53,850	-0,348	-0,235
59,159	17,724	-0,460	-0,257
60,174	35,820	-0,373	-0,231
61,188	97,364	-0,382	-0,309
62,203	-1,331	-0,371	-0,184
63,217	120,579	-0,270	-0,237
64,232	174,488	-0,307	-0,313
65,247	76,296	-0,334	-0,249
66,261	68,222	-0,358	-0,258
67,276	140,893	-0,358	-0,334
68,290	270,337	-0,164	-0,204
69,305	-1,735	-0,377	-0,187
70,320	42,409	-0,325	-0,208
71,334	137,133	-0,146	-0,134
72,349	99,938	-0,285	-0,232
73,363	167,142	-0,267	-0,267
74,378	81,493	-0,287	-0,218
75,393	222,736	-0,298	-0,338
76,407	55,266	-0,256	-0,174
77,422	24,159	-0,320	-0,185
78,436	6,373	-0,240	-0,125
79,451	0,283	-0,365	-0,183
80,466	79,561	-0,320	-0,242
81,480	89,120	-0,392	-0,307
82,495	-64,491	-0,316	-0,090
83,509	338,063	-0,240	-0,330
84,524	-16,940	-0,379	-0,168
85,539	89,468	-0,247	-0,194
86,553	173,041	-0,287	-0,291
87,568	-27,550	-0,341	-0,139
88,582	29,693	-0,369	-0,220
89,597	17,478	-0,297	-0,165
90,611	90,852	-0,365	-0,288
91,626	204,151	-0,216	-0,235
92,641	-13,495	-0,158	-0,072
93,655	141,221	-0,257	-0,239
94,670	68,327	-0,399	-0,287
95,684	-29,035	-0,307	-0,123
96,699	-30,317	-0,385	-0,153
97,714	60,931	-0,194	-0,135
98,728	252,159	-0,174	-0,208
99,743	34,903	-0,243	-0,149
100,757	32,828	-0,219	-0,133
101,772	116,187	-0,250	-0,215
102,787	254,488	-0,280	-0,337
103,801	241,405	-0,192	-0,226
104,816	43,103	-0,289	-0,185
105,830	54,933	-0,256	-0,173
106,845	-45,105	-0,352	-0,122
107,860	-21,970	-0,381	-0,162
108,874	111,518	-0,312	-0,264
109,889	198,583	-0,321	-0,346
110,903	167,109	-0,215	-0,214
111,918	37,868	-0,122	-0,076
112,933	628,154	-0,130	-0,232
113,947	118,204	-0,313	-0,270
114,962	-77,566	-0,314	-0,076
115,976	-48,761	-0,245	-0,082
116,991	0,132	-0,309	-0,154
118,006	106,875	-0,256	-0,213
119,020	101,651	-0,208	-0,170
120,035	8,564	-0,264	-0,139
121,049	-0,409	-0,222	-0,110
122,064	187,137	-0,214	-0,224
123,079	185,889	-0,201	-0,209
124,093	-61,265	-0,327	-0,096
125,108	36,345	-0,203	-0,125
126,122	193,888	-0,244	-0,260
127,137	49,628	-0,210	-0,139
128,151	-136,910	-0,367	-0,029
129,166	-57,383	-0,340	-0,104
130,181	388,752	-0,149	-0,217
131,195	-57,490	-0,302	-0,092
132,210	-200,000	-0,071	-0,220
133,224	374,709	-0,223	-0,320
134,239	-129,027	-0,338	-0,033
135,254	-20,516	-0,215	-0,092
136,268	-88,656	-0,221	-0,046
137,283	-39,216	-0,334	-0,122
138,297	-88,145	-0,453	-0,094
139,312	237,658	-0,198	-0,230
140,327	151,889	-0,340	-0,325
141,341	101,092	-0,289	-0,235
142,356	52,545	-0,232	-0,155
143,370	-70,015	-0,179	-0,047
144,385	-0,351	-0,237	-0,117
145,400	24,981	-0,371	-0,215
146,414	654,491	-0,193	-0,348
147,429	29,771	-0,294	-0,175
148,443	44,420	-0,281	-0,180
149,458	-55,085	-0,150	-0,047
150,473	139,835	-0,139	-0,128
151,487	219,326	-0,217	-0,243
152,502	107,634	-0,315	-0,262
153,516	78,462	-0,303	-0,226
154,531	56,003	-0,329	-0,223
155,546	496,416	-0,140	-0,226
156,560	-39,771	-0,265	-0,096
157,575	-53,637	-0,334	-0,106
158,589	55,431	-0,240	-0,162
159,604	-42,323	-0,369	-0,131
160,619	61,987	-0,237	-0,165
161,633	84,293	-0,278	-0,212
162,648	479,094	-0,156	-0,248
163,662	35,296	-0,223	-0,136
164,677	-49,583	-0,221	-0,073
165,692	401,212	-0,165	-0,242
166,706	453,395	-0,125	-0,195
167,721	25,741	-0,216	-0,125
168,735	48,592	-0,257	-0,168
169,750	92,638	-0,168	-0,132
170,764	-0,525	-0,134	-0,066
171,779	143,331	-0,217	-0,201
172,794	186,210	-0,154	-0,160
173,808	151,481	-0,230	-0,219
174,823	36,248	-0,075	0,046
175,837	610,988	-0,174	-0,304
176,852	-36,124	-0,304	-0,114
177,867	15,847	-0,144	-0,079
178,881	-144,062	-0,244	-0,016
179,896	63,752	-0,106	-0,074
180,910	165,150	-0,259	-0,255
181,925	46,795	-0,264	-0,171
182,940	203,814	-0,275	-0,297
183,954	195,472	-0,196	-0,208
184,969	-37,698	-0,230	-0,085
185,983	236,208	-0,192	-0,221
186,998	407,474	-0,085	-0,126
188,013	364,691	-0,208	-0,293
189,027	5,086	-0,150	-0,077
190,042	51,612	-0,208	-0,137
191,056	57,263	-0,265	-0,180
192,071	84,497	-0,190	-0,144
193,086	-87,451	-0,131	-0,027
194,100	260,802	-0,140	-0,169
195,115	-51,496	-0,286	-0,093
196,129	46,646	-0,269	-0,173
197,144	169,930	-0,235	-0,234
198,159	-200,000	-0,066	-0,274
199,173	-163,194	-0,228	-0,007
200,188	650,116	-0,111	-0,199
201,202	93,602	-0,201	-0,159
202,217	-151,226	-0,298	-0,015
203,232	19,260	-0,298	-0,166
204,246	-91,192	-0,437	-0,086
205,261	36,320	-0,249	-0,153
206,275	109,416	-0,222	-0,185
207,290	461,919	-0,197	-0,306
208,304	10,610	-0,057	-0,030
209,319	-200,000	-0,042	-0,234
210,334	307,836	-0,187	-0,243
211,348	265,932	-0,142	-0,173
212,363	8,888	-0,236	-0,124
213,377	14,597	-0,204	-0,111
214,392	148,415	-0,174	-0,163
215,407	-200,000	-0,075	-0,234
216,421	503,270	-0,149	-0,241
217,436	135,675	-0,186	-0,168
218,450	348,463	-0,129	-0,177
219,465	800,000	-0,118	-0,287
220,480	167,071	-0,206	-0,204
221,494	4,353	-0,172	-0,087
222,509	112,787	-0,157	-0,133
223,523	-73,926	-0,224	0,056
224,538	-19,291	-0,192	-0,082
225,553	19,143	-0,233	-0,129
226,567	253,423	-0,253	-0,301
227,582	-18,202	-0,127	-0,055
228,596	-44,660	-0,043	-0,015
229,611	0,136	-0,036	-0,018
230,626	308,011	-0,155	-0,201
231,640	39,776	-0,151	-0,094
232,655	-16,346	-0,141	-0,062
233,669	89,521	-0,281	-0,218
234,684	-76,294	-0,172	0,042
235,699	109,387	-0,113	-0,094
236,713	84,257	-0,170	-0,129
237,728	-131,907	-0,088	0,008
238,742	166,764	-0,231	-0,228
239,757	-24,794	-0,202	-0,083
240,772	-5,163	-0,144	-0,068
241,786	257,783	-0,232	-0,278
242,801	21,205	-0,234	-0,131
243,815	146,625	-0,164	-0,153
244,830	111,666	-0,197	-0,165
245,844	66,669	-0,205	-0,145
246,859	26,226	-0,247	-0,142
247,874	33,492	-0,172	-0,103
248,888	-44,433	-0,157	-0,054
249,903	92,686	-0,107	-0,084
250,917	211,275	-0,163	-0,179
251,932	-179,924	-0,182	-0,003
252,947	60,694	-0,106	-0,073
253,961	-93,286	-0,236	-0,045
254,976	60,907	-0,209	-0,143
255,990	-155,087	-0,166	-0,007
257,005	-68,224	-0,194	-0,052
258,020	-27,037	-0,128	-0,052
259,034	256,397	-0,209	-0,250
260,049	62,275	-0,265	-0,183
261,063	800,000	-0,108	-0,220
262,078	800,000	-0,084	-0,237
263,093	-84,618	-0,362	-0,078
264,107	736,896	-0,106	-0,198
265,122	659,325	-0,080	-0,143
266,136	-80,097	-0,261	-0,060
267,151	-54,449	-0,131	-0,041
268,166	161,869	-0,241	-0,234
269,180	472,547	-0,104	-0,163
270,195	81,381	-0,166	-0,124
271,209	-165,880	-0,261	-0,008
272,224	-51,797	-0,208	-0,067
273,239	-91,569	-0,121	-0,024
274,253	-200,000	-0,006	0,060
275,268	75,410	-0,191	-0,139
276,282	-145,863	-0,170	-0,010
277,297	319,366	-0,142	-0,186
278,312	376,600	-0,103	-0,146
279,326	-13,544	-0,174	-0,078
280,341	-156,011	-0,177	0,008
281,355	364,853	-0,036	-0,050
282,370	800,000	-0,070	-0,139
283,384	97,952	-0,116	-0,092
284,399	117,673	-0,180	-0,153
285,414	-139,274	-0,136	-0,010
286,428	25,513	-0,082	-0,047
287,443	669,476	-0,093	-0,167
288,457	-120,202	-0,122	-0,014
289,472	-200,000	-0,031	-0,172
290,487	-7,252	-0,067	-0,031
291,501	-146,995	-0,125	-0,007
292,516	75,777	-0,153	-0,112
293,530	-3,424	-0,089	-0,042
294,545	34,919	-0,096	-0,058
295,560	119,490	-0,193	-0,165
296,574	222,695	-0,091	-0,101
297,589	426,043	-0,067	-0,100
298,603	195,751	-0,178	-0,187
299,618	225,401	-0,190	-0,213
300,633	113,624	-0,218	-0,183
301,647	-74,007	-0,108	-0,027
302,662	-200,000	-0,023	-0,150
303,676	800,000	-0,050	0,110
304,691	-53,829	-0,169	-0,053
305,706	27,326	-0,069	-0,040
306,720	139,748	-0,144	-0,131
307,735	126,971	-0,123	-0,107
308,749	-23,665	-0,119	-0,049
309,764	800,000	-0,073	-0,163
310,779	118,183	-0,117	-0,099
311,793	-168,089	-0,125	-0,003
312,808	34,800	-0,231	-0,139
313,822	397,824	-0,165	-0,239
314,837	-200,000	-0,050	-0,161
315,852	-58,312	-0,134	0,040
316,866	123,156	-0,095	-0,082
317,881	214,526	-0,052	0,056
318,895	800,000	-0,040	-0,096
319,910	251,603	-0,107	-0,126
320,925	-40,600	-0,152	-0,054
321,939	27,093	-0,178	-0,103
322,954	245,824	-0,084	-0,097
323,968	-72,938	-0,129	0,032
324,983	-52,328	-0,173	-0,055
325,997	-32,938	-0,162	-0,062
327,012	117,182	-0,090	-0,076
328,027	158,424	-0,139	-0,133
329,041	-200,000	-0,041	-0,234
330,056	-84,173	-0,081	-0,017
331,070	125,485	-0,171	-0,149
332,085	800,000	0,030	-0,059
333,100	-38,968	-0,228	-0,082
334,114	170,329	-0,189	-0,186
335,129	233,924	-0,129	-0,146
336,143	114,879	-0,171	-0,144
337,158	-200,000	-0,026	-0,135
338,173	-200,000	-0,039	-0,189
339,187	94,746	-0,113	-0,089
340,202	-200,000	-0,028	-0,117
341,216	800,000	-0,085	-0,205
342,231	-200,000	0,040	-0,227
343,246	152,381	-0,194	-0,182
344,260	497,774	-0,081	-0,129
345,275	82,186	-0,121	-0,090
346,289	-60,971	-0,088	-0,026
347,304	-20,668	-0,105	0,044
348,319	-134,430	-0,223	0,019
349,333	114,992	-0,178	-0,149
350,348	276,224	-0,171	-0,209
351,362	-115,670	-0,235	-0,030
352,377	180,010	-0,115	-0,116
353,392	112,088	-0,136	-0,113
354,406	772,417	-0,139	-0,261
355,421	209,322	1312,590	1414,655
356,435	161,097	1473,092	1415,178
