DTS Sentinel unit serial number:	SN410029Multiplexer serial number:	ORYXHardware model number:	OX2-SRSoftware version number:	ORYX F/W v4,00 Oryx Data Collector v3.7.2.0data status	okinstallation	B3 Nyhavnadifferential loss correction	single-endedforward channel	channel 1reverse channel	N/Adate	2023/12/02time	17:17:30forward acquisition time	300,00reverse acquisition time	0,00gamma	499,1914k internal	0,3198k external	0,3198temperature offset calibration	1,0000default loss term (dB/km)	0,3820temperature slope calibration	1,0000multiplexer offset coefficient	1,0000multiplexer slope coefficient	1,0000fibre end	0,00T internal ref (°C)	13,91T ext. ref 1 (°C)	-1,56T ext. ref 2 (°C)	-1,58length (m)	temperature (°C)	Stokes	anti-Stokes-744,400	-88,371	-0,305	-0,066
-743,385	-200,000	-0,060	0,256
-742,371	143,825	-0,165	-0,160
-741,356	-200,000	0,036	0,299
-740,342	0,110	-0,194	-0,100
-739,327	-200,000	-0,030	0,306
-738,312	37,141	-0,168	-0,108
-737,298	800,000	-0,053	0,153
-736,283	-200,000	0,036	-0,135
-735,269	-200,000	0,036	0,252
-734,254	527,285	-0,133	-0,229
-733,239	-177,038	-0,401	0,007
-732,225	-200,000	-0,055	-0,296
-731,210	146,440	0,160	0,156
-730,196	451,058	-0,069	-0,111
-729,181	-174,059	-0,164	-0,003
-728,167	800,000	0,004	0,010
-727,152	800,000	0,046	-0,105
-726,137	68,984	0,103	-0,077
-725,123	116,973	-0,099	0,089
-724,108	-120,478	-0,055	-0,007
-723,094	140,257	-0,078	-0,074
-722,079	-46,346	-0,038	-0,014
-721,064	87,512	0,126	0,101
-720,050	139,787	0,040	0,038
-719,035	11,622	0,078	0,043
-718,021	16,536	0,201	0,115
-717,006	14,911	-0,141	-0,080
-715,991	-200,000	0,000	0,072
-714,977	-126,671	-0,167	0,018
-713,962	-137,139	0,038	-0,003
-712,948	126,093	0,042	0,038
-711,933	800,000	0,027	-0,079
-710,918	800,000	-0,053	-0,116
-709,904	123,004	-0,059	0,054
-708,889	434,024	-0,009	0,014
-707,875	185,262	-0,103	-0,111
-706,860	-14,038	0,051	0,024
-705,845	15,087	-0,023	-0,013
-704,831	-85,287	0,094	0,021
-703,816	-13,100	0,103	-0,048
-702,802	-200,000	0,002	-0,092
-701,787	387,630	-0,013	-0,020
-700,772	58,859	-0,093	0,066
-699,758	-84,907	0,097	-0,022
-698,743	318,590	-0,064	0,088
-697,729	-22,110	0,043	0,019
-696,714	800,000	0,059	-0,170
-695,699	-200,000	-0,011	-0,063
-694,685	221,933	-0,079	-0,093
-693,670	-200,000	-0,020	-0,201
-692,656	-200,000	0,013	-0,228
-691,641	-65,186	0,041	-0,012
-690,627	117,291	0,056	-0,050
-689,612	-200,000	-0,025	0,094
-688,597	-178,687	-0,038	-0,001
-687,583	181,560	-0,115	-0,123
-686,568	-200,000	-0,018	-0,170
-685,554	387,641	-0,048	-0,073
-684,539	-126,388	0,056	-0,006
-683,524	-200,000	-0,027	0,095
-682,510	365,069	0,023	0,033
-681,495	-112,817	0,057	-0,008
-680,481	-82,969	0,077	0,018
-679,466	118,977	0,148	-0,133
-678,451	287,432	0,055	-0,073
-677,437	18,750	0,105	0,061
-676,422	129,176	0,110	0,102
-675,408	800,000	-0,048	-0,107
-674,393	-161,553	-0,045	0,002
-673,378	28,529	0,021	-0,013
-672,364	800,000	0,027	-0,061
-671,349	-200,000	-0,002	-0,021
-670,335	-114,817	0,064	-0,009
-669,320	-9,702	-0,068	0,033
-668,305	194,143	0,027	-0,030
-667,291	-86,248	-0,106	-0,024
-666,276	460,112	-0,054	0,088
-665,262	-73,697	-0,149	0,039
-664,247	-81,458	0,103	-0,024
-663,232	-200,000	0,000	-0,106
-662,218	-127,379	0,062	-0,006
-661,203	-200,000	-0,030	0,147
-660,189	15,068	0,166	-0,094
-659,174	79,935	0,045	-0,035
-658,159	-200,000	-0,025	-0,098
-657,145	-105,431	-0,173	0,028
-656,130	72,238	0,036	-0,027
-655,116	189,395	-0,033	0,036
-654,101	117,428	-0,090	0,081
-653,086	-49,153	0,101	0,035
-652,072	-34,801	-0,152	0,060
-651,057	-62,902	0,105	0,031
-650,043	-200,000	0,027	-0,226
-649,028	504,870	0,014	-0,024
-648,014	-200,000	-0,008	-0,029
-646,999	366,310	0,021	0,030
-645,984	446,274	-0,029	0,047
-644,970	-200,000	-0,008	-0,131
-643,955	-31,259	-0,065	-0,027
-642,941	715,896	0,063	-0,121
-641,926	75,220	0,036	0,028
-640,911	-200,000	0,003	0,121
-639,897	209,242	-0,011	0,012
-638,882	-200,000	0,010	0,061
-637,868	-181,709	-0,164	-0,002
-636,853	-97,149	-0,134	0,025
-635,838	-200,000	0,020	0,074
-634,824	800,000	-0,048	0,100
-633,809	-82,668	-0,037	0,009
-632,795	-112,479	0,099	0,014
-631,780	-200,000	0,001	-0,021
-630,765	-128,225	-0,133	-0,014
-629,751	800,000	-0,073	-0,204
-628,736	729,856	0,030	-0,058
-627,722	-65,324	-0,067	-0,019
-626,707	32,554	-0,089	-0,056
-625,692	-13,780	0,103	0,048
-624,678	-148,226	-0,152	0,009
-623,663	800,000	0,006	-0,017
-622,649	-200,000	-0,025	-0,122
-621,634	469,358	-0,120	-0,196
-620,619	319,150	-0,035	-0,048
-619,605	-200,000	-0,000	0,127
-618,590	456,077	0,044	-0,071
-617,576	73,090	-0,058	0,044
-616,561	800,000	0,049	-0,118
-615,546	29,799	-0,117	-0,072
-614,532	-200,000	-0,015	-0,120
-613,517	800,000	0,028	0,068
-612,503	-49,319	-0,030	-0,010
-611,488	8,297	-0,210	0,114
-610,474	800,000	-0,027	0,076
-609,459	-71,272	0,041	0,011
-608,444	-42,178	-0,084	0,031
-607,430	-135,444	-0,135	0,011
-606,415	-72,192	-0,060	-0,016
-605,401	99,834	-0,011	0,010
-604,386	-200,000	-0,002	-0,046
-603,371	-14,268	-0,054	0,025
-602,357	-79,754	-0,041	0,010
-601,342	97,634	-0,124	-0,103
-600,328	120,607	-0,035	0,032
-599,313	-23,792	-0,068	-0,029
-598,298	153,890	-0,086	-0,085
-597,284	8,689	0,088	0,048
-596,269	800,000	-0,027	-0,067
-595,255	-32,420	-0,071	-0,029
-594,240	-122,082	-0,133	0,016
-593,225	800,000	-0,014	-0,041
-592,211	-135,225	-0,026	0,002
-591,196	-200,000	0,056	-0,220
-590,182	13,800	0,092	-0,052
-589,167	150,921	0,116	-0,114
-588,152	-200,000	-0,009	-0,120
-587,138	233,414	-0,038	0,045
-586,123	149,869	-0,080	-0,078
-585,109	800,000	0,056	-0,174
-584,094	-38,103	0,118	0,045
-583,079	135,925	-0,065	-0,062
-582,065	269,102	0,036	0,046
-581,050	-35,204	0,166	-0,065
-580,036	-156,819	-0,060	-0,003
-579,021	501,491	-0,054	0,090
-578,006	-200,000	-0,041	-0,145
-576,992	276,869	0,031	0,039
-575,977	-4,688	0,059	-0,029
-574,963	169,631	0,031	0,032
-573,948	68,756	-0,101	-0,075
-572,934	227,690	-0,034	0,041
-571,919	-82,279	0,112	0,026
-570,904	-87,287	-0,076	-0,017
-569,890	-200,000	0,018	-0,121
-568,875	115,029	-0,069	-0,060
-567,861	234,865	0,097	-0,116
-566,846	13,617	-0,099	0,056
-565,831	-200,000	-0,013	0,123
-564,817	-112,569	0,066	-0,009
-563,802	145,729	-0,059	0,058
-562,788	-77,208	-0,063	-0,016
-561,773	62,864	0,050	-0,036
-560,758	7,830	0,055	0,030
-559,744	136,799	0,055	0,052
-558,729	-75,038	0,061	-0,016
-557,715	164,948	0,024	0,025
-556,700	531,417	0,024	-0,041
-555,685	-87,032	-0,075	0,016
-554,671	-103,023	-0,165	0,028
-553,656	800,000	-0,034	0,076
-552,642	46,251	0,088	-0,059
-551,627	-200,000	-0,012	0,224
-550,612	800,000	-0,063	-0,186
-549,598	184,152	0,110	-0,118
-548,583	-200,000	0,020	-0,097
-547,569	-200,000	-0,015	-0,056
-546,554	-101,749	0,038	0,007
-545,539	-181,995	0,193	0,003
-544,525	-200,000	0,024	-0,091
-543,510	91,133	-0,059	-0,048
-542,496	-200,000	-0,006	0,026
-541,481	-198,422	-0,219	-0,001
-540,466	800,000	-0,047	0,100
-539,452	280,557	-0,041	0,053
-538,437	36,766	0,076	-0,048
-537,423	-200,000	0,027	-0,130
-536,408	-200,000	-0,001	-0,007
-535,393	284,560	-0,069	-0,089
-534,379	132,132	-0,139	-0,129
-533,364	-200,000	-0,005	-0,072
-532,350	30,132	0,104	-0,064
-531,335	83,088	0,058	0,045
-530,321	-200,000	-0,027	0,130
-529,306	-200,000	0,006	-0,061
-528,291	-153,797	0,019	-0,001
-527,277	122,182	-0,086	-0,078
-526,262	108,744	-0,058	-0,050
-525,248	800,000	0,053	0,122
-524,233	334,540	0,065	-0,091
-523,218	800,000	0,056	0,116
-522,204	5,886	0,105	-0,056
-521,189	-200,000	0,034	0,144
-520,175	-200,000	-0,006	-0,089
-519,160	178,925	0,069	-0,073
-518,145	-68,900	0,189	0,052
-517,131	63,348	0,147	0,106
-516,116	394,437	0,114	0,172
-515,102	-200,000	0,020	-0,187
-514,087	800,000	-0,021	-0,050
-513,072	-197,909	0,029	-0,000
-512,058	800,000	-0,033	-0,082
-511,043	324,396	-0,072	0,099
-510,029	161,168	0,105	0,106
-509,014	53,865	0,053	0,037
-507,999	164,394	0,020	-0,020
-506,985	-84,609	-0,123	-0,028
-505,970	92,451	-0,090	-0,074
-504,956	145,375	-0,044	0,043
-503,941	68,405	0,075	0,055
-502,926	-200,000	-0,003	0,019
-501,912	-29,312	0,066	-0,027
-500,897	429,206	-0,039	0,061
-499,883	-200,000	-0,001	-0,109
-498,868	248,482	0,047	-0,057
-497,853	148,578	-0,043	0,042
-496,839	-200,000	0,004	-0,083
-495,824	-200,000	0,001	-0,024
-494,810	800,000	-0,020	0,050
-493,795	104,948	0,043	0,037
-492,781	-200,000	-0,047	-0,179
-491,766	279,804	-0,046	0,059
-490,751	-200,000	0,011	-0,075
-489,737	-18,518	0,082	-0,037
-488,722	188,111	0,033	0,035
-487,708	8,878	0,133	0,072
-486,693	98,297	0,102	0,084
-485,678	800,000	0,044	0,097
-484,664	32,057	0,121	-0,075
-483,649	-200,000	-0,025	-0,086
-482,635	-62,485	0,051	0,015
-481,620	-29,270	-0,071	0,029
-480,605	88,939	-0,050	0,040
-479,591	218,330	0,079	0,091
-478,576	-27,635	-0,050	0,021
-477,562	-33,296	0,108	0,043
-476,547	411,957	-0,122	0,187
-475,532	279,988	0,121	0,156
-474,518	-117,642	0,149	-0,019
-473,503	80,581	0,093	-0,072
-472,489	1,470	0,045	0,023
-471,474	-177,569	0,077	0,001
-470,459	-200,000	-0,031	-0,118
-469,445	-54,026	-0,179	-0,058
-468,430	268,895	0,023	-0,029
-467,416	-79,083	0,118	0,029
-466,401	759,518	-0,062	0,122
-465,386	142,662	0,056	0,053
-464,372	260,803	-0,038	-0,047
-463,357	-36,795	0,065	0,025
-462,343	-200,000	0,028	-0,180
-461,328	-15,064	0,140	0,064
-460,313	800,000	-0,023	0,061
-459,299	-130,069	0,191	-0,019
-458,284	-40,418	0,081	0,030
-457,270	-200,000	-0,020	-0,091
-456,255	265,411	-0,075	0,094
-455,241	228,857	-0,091	-0,106
-454,226	-33,188	-0,048	-0,019
-453,211	53,288	0,096	0,066
-452,197	87,563	0,060	0,047
-451,182	11,720	-0,091	0,050
-450,168	800,000	0,065	0,135
-449,153	100,285	-0,075	0,062
-448,138	800,000	0,010	-0,026
-447,124	50,697	0,183	-0,125
-446,109	220,530	-0,103	-0,119
-445,095	-10,353	0,164	0,078
-444,080	59,663	-0,057	-0,040
-443,065	-200,000	-0,010	0,038
-442,051	-162,004	-0,039	0,001
-441,036	453,007	-0,056	0,089
-440,022	-111,470	0,059	-0,009
-439,007	-200,000	0,001	0,080
-437,992	658,819	-0,052	-0,096
-436,978	139,667	0,036	0,034
-435,963	394,377	-0,106	0,159
-434,949	800,000	-0,043	0,091
-433,934	104,652	0,077	-0,065
-432,919	800,000	-0,046	-0,111
-431,905	358,446	0,075	0,108
-430,890	-200,000	0,010	0,033
-429,876	-200,000	-0,012	0,143
-428,861	-119,243	0,118	-0,015
-427,846	800,000	-0,056	0,160
-426,832	95,288	-0,122	-0,100
-425,817	-11,588	0,029	-0,014
-424,803	800,000	-0,049	-0,102
-423,788	101,522	0,060	-0,051
-422,773	800,000	0,045	-0,101
-421,759	-28,548	0,067	-0,028
-420,744	-85,261	-0,143	0,032
-419,730	800,000	0,016	0,046
-418,715	363,421	-0,135	-0,196
-417,701	639,433	-0,045	0,083
-416,686	-173,316	0,090	-0,002
-415,671	-200,000	0,008	0,140
-414,657	387,053	0,114	0,169
-413,642	-200,000	0,008	0,052
-412,628	-37,366	-0,064	-0,024
-411,613	196,253	-0,196	-0,215
-410,598	160,785	0,047	0,047
-409,584	175,325	0,066	-0,069
-408,569	246,719	0,009	0,011
-407,555	-200,000	0,018	0,222
-406,540	-123,987	-0,043	0,005
-405,525	48,058	-0,065	-0,043
-404,511	600,245	-0,051	-0,091
-403,496	535,940	-0,013	0,023
-402,482	39,641	0,056	0,036
-401,467	-200,000	0,024	0,096
-400,452	-55,109	-0,025	-0,008
-399,438	800,000	-0,069	0,147
-398,423	304,456	-0,017	-0,022
-397,409	135,381	-0,013	0,012
-396,394	-62,146	-0,104	0,031
-395,379	65,270	-0,074	-0,054
-394,365	-200,000	0,012	-0,050
-393,350	-145,129	0,094	0,006
-392,336	47,741	0,063	-0,042
-391,321	99,304	-0,058	-0,048
-390,306	-157,826	0,035	-0,001
-389,292	-163,627	-0,087	0,003
-388,277	29,139	-0,045	-0,027
-387,263	221,595	0,079	0,091
-386,248	15,710	0,137	-0,077
-385,233	-75,243	0,119	-0,030
-384,219	77,692	-0,154	0,117
-383,204	-89,442	0,042	0,009
-382,190	-200,000	-0,015	-0,061
-381,175	-69,692	-0,079	-0,022
-380,160	-200,000	-0,023	0,091
-379,146	-47,915	-0,049	-0,017
-378,131	800,000	0,012	0,027
-377,117	-177,820	0,083	0,001
-376,102	24,628	-0,113	-0,067
-375,088	-50,307	-0,126	-0,042
-374,073	-200,000	-0,010	-0,085
-373,058	28,711	0,081	0,049
-372,044	-200,000	-0,002	0,094
-371,029	169,105	0,026	-0,027
-370,015	67,425	0,075	-0,055
-369,000	-181,332	0,095	-0,001
-367,985	-63,404	-0,100	-0,029
-366,971	340,940	-0,026	0,036
-365,956	350,787	0,089	0,126
-364,942	332,745	-0,046	-0,064
-363,927	-119,088	0,085	0,011
-362,912	-0,317	0,087	-0,044
-361,898	48,483	-0,116	0,078
-360,883	318,100	-0,113	-0,154
-359,869	-200,000	0,005	-0,056
-358,854	-161,700	0,066	0,002
-357,839	-200,000	-0,004	0,028
-356,825	-173,746	0,124	0,003
-355,810	-54,303	0,034	-0,011
-354,796	617,542	-0,066	-0,120
-353,781	-97,358	-0,075	-0,014
-352,766	-200,000	0,029	0,115
-351,752	13,836	0,043	-0,024
-350,737	313,405	0,076	0,103
-349,723	44,849	0,159	-0,105
-348,708	-148,518	0,099	0,006
-347,693	800,000	0,061	0,175
-346,679	-11,657	-0,031	-0,014
-345,664	800,000	-0,043	0,088
-344,650	-200,000	-0,007	-0,070
-343,635	515,605	-0,039	-0,066
-342,620	800,000	-0,031	-0,098
-341,606	-38,627	-0,104	0,039
-340,591	-200,000	-0,026	0,097
-339,577	52,228	-0,140	-0,096
-338,562	-57,382	-0,105	-0,033
-337,548	-108,650	0,012	0,002
-336,533	60,424	0,169	-0,120
-335,518	32,534	-0,114	-0,070
-334,504	142,633	0,045	-0,043
-333,489	-22,273	0,046	-0,020
-332,475	0,116	-0,102	0,052
-331,460	-200,000	-0,008	-0,060
-330,445	-44,452	0,066	0,024
-329,431	800,000	-0,037	0,096
-328,416	-114,936	0,091	-0,012
-327,402	267,850	-0,088	0,110
-326,387	6,876	0,038	0,020
-325,372	147,484	-0,076	-0,074
-324,358	7,808	-0,107	-0,057
-323,343	-48,191	0,075	-0,026
-322,329	800,000	-0,056	0,116
-321,314	318,852	-0,012	-0,017
-320,299	-133,587	0,084	0,007
-319,285	800,000	-0,017	-0,048
-318,270	-86,174	0,053	0,012
-317,256	-10,938	-0,130	-0,061
-316,241	213,840	-0,145	-0,164
-315,226	34,542	0,139	-0,087
-314,212	-164,337	0,051	-0,002
-313,197	800,000	0,008	-0,021
-312,183	-200,000	-0,047	0,152
-311,168	253,218	0,050	0,062
-310,153	154,165	0,037	-0,037
-309,139	286,805	-0,055	0,072
-308,124	64,885	-0,023	-0,016
-307,110	800,000	-0,046	0,103
-306,095	684,836	-0,019	0,036
-305,080	800,000	-0,039	0,097
-304,066	20,448	-0,067	0,038
-303,051	85,539	0,089	0,070
-302,037	161,814	0,040	-0,040
-301,022	-89,766	-0,077	-0,016
-300,008	120,286	0,171	0,152
-298,993	-146,303	0,121	0,007
-297,978	309,739	-0,042	0,057
-296,964	122,145	0,077	0,069
-295,949	267,546	-0,020	-0,026
-294,935	-3,356	-0,090	-0,045
-293,920	-200,000	-0,028	-0,140
-292,905	102,846	0,086	0,072
-291,891	227,575	0,154	0,180
-290,876	800,000	-0,010	0,023
-289,862	-127,177	-0,076	-0,008
-288,847	-101,466	0,094	-0,016
-287,832	10,840	-0,128	0,070
-286,818	-200,000	-0,006	-0,039
-285,803	-200,000	-0,012	0,095
-284,789	-36,777	0,022	0,009
-283,774	169,576	0,083	-0,084
-282,759	231,460	-0,042	0,049
-281,745	-106,923	0,033	-0,005
-280,730	96,997	-0,049	0,040
-279,716	-71,763	0,130	-0,034
-278,701	389,266	0,081	0,121
-277,686	-55,854	0,068	0,022
-276,672	16,340	0,112	0,063
-275,657	-108,796	-0,124	0,019
-274,643	-200,000	0,001	-0,035
-273,628	-200,000	-0,019	-0,163
-272,613	-200,000	-0,004	-0,087
-271,599	70,618	0,089	0,066
-270,584	-63,321	-0,106	0,031
-269,570	-200,000	-0,005	0,113
-268,555	12,332	-0,009	-0,005
-267,540	-200,000	0,015	-0,156
-266,526	211,754	-0,128	-0,144
-265,511	-72,843	0,038	-0,010
-264,497	716,155	-0,019	0,036
-263,482	78,980	0,099	-0,076
-262,467	-200,000	-0,015	0,117
-261,453	142,928	-0,041	0,039
-260,438	198,484	-0,093	-0,102
-259,424	581,920	-0,066	-0,115
-258,409	-200,000	-0,048	-0,215
-257,395	-137,310	-0,057	0,005
-256,380	-193,193	0,058	0,000
-255,365	402,762	0,093	0,140
-254,351	800,000	-0,044	0,108
-253,336	228,932	-0,064	0,074
-252,322	-4,542	0,090	-0,044
-251,307	125,621	0,032	-0,029
-250,292	800,000	0,036	0,108
-249,278	-117,393	0,065	-0,008
-248,263	800,000	0,018	0,045
-247,249	800,000	0,051	0,117
-246,234	-200,000	-0,012	-0,046
-245,219	80,929	-0,030	-0,023
-244,205	239,564	-0,028	0,034
-243,190	-200,000	0,028	0,096
-242,176	800,000	-0,010	0,027
-241,161	-200,000	0,002	-0,038
-240,146	155,345	-0,071	0,070
-239,132	-1,641	0,074	0,037
-238,117	-76,017	-0,153	-0,038
-237,103	5,359	0,121	0,063
-236,088	-200,000	-0,020	0,063
-235,073	22,479	0,113	0,066
-234,059	242,440	0,083	0,099
-233,044	88,344	-0,076	0,060
-232,030	-105,644	-0,048	0,008
-231,015	-200,000	-0,001	0,062
-230,000	-200,000	-0,006	-0,058
-228,986	-164,678	0,116	0,004
-227,971	-122,069	0,115	-0,013
-226,957	-56,326	0,194	0,061
-225,942	67,700	-0,062	0,045
-224,927	141,482	0,118	-0,111
-223,913	725,308	-0,037	0,070
-222,898	52,823	-0,061	0,041
-221,884	68,389	0,037	0,027
-220,869	-14,454	-0,087	0,040
-219,855	-200,000	0,002	0,131
-218,840	635,992	0,032	0,058
-217,825	-200,000	0,026	0,187
-216,811	15,482	0,102	-0,057
-215,796	-5,796	-0,068	0,033
-214,782	57,252	0,086	-0,060
-213,767	-55,907	-0,037	0,012
-212,752	-115,795	-0,120	-0,016
-211,738	-135,421	0,079	-0,007
-210,723	800,000	0,046	-0,110
-209,709	-200,000	-0,020	-0,081
-208,694	-103,104	-0,198	-0,033
-207,679	133,435	-0,061	-0,056
-206,665	800,000	-0,040	0,119
-205,650	-41,107	0,104	0,038
-204,636	-150,644	0,070	0,004
-203,621	79,597	0,077	0,059
-202,606	191,778	-0,061	-0,065
-201,592	514,239	-0,072	-0,119
-200,577	265,000	0,059	0,074
-199,563	-99,825	-0,060	0,011
-198,548	800,000	-0,009	0,023
-197,533	100,088	-0,035	0,029
-196,519	67,192	0,085	-0,062
-195,504	108,381	0,071	0,060
-194,490	280,478	-0,044	-0,056
-193,475	-200,000	0,048	-0,175
-192,460	-27,282	-0,050	-0,021
-191,446	732,892	-0,027	-0,052
-190,431	14,538	0,109	0,061
-189,417	-40,757	-0,170	0,062
-188,402	41,069	-0,088	0,057
-187,387	-154,071	-0,105	0,005
-186,373	-200,000	-0,017	-0,131
-185,358	-200,000	0,006	-0,030
-184,344	422,912	-0,016	0,025
-183,329	-71,698	0,206	0,054
-182,315	128,795	-0,043	0,039
-181,300	-38,971	0,043	0,016
-180,285	86,387	-0,108	-0,085
-179,271	-57,150	0,067	-0,021
-178,256	800,000	0,020	0,048
-177,242	-91,261	0,054	-0,011
-176,227	-200,000	-0,014	0,185
-175,212	-200,000	0,007	-0,029
-174,198	-109,354	0,061	0,009
-173,183	68,457	0,052	0,038
-172,169	-134,239	-0,104	-0,009
-171,154	800,000	-0,024	-0,066
-170,139	166,672	-0,011	0,011
-169,125	255,284	0,064	0,078
-168,110	-170,754	0,067	0,002
-167,096	41,251	0,069	0,045
-166,081	-96,369	-0,098	-0,018
-165,066	-52,977	-0,081	0,026
-164,052	166,756	-0,121	-0,122
-163,037	718,421	0,075	0,142
-162,023	-94,849	-0,061	-0,012
-161,008	800,000	0,044	0,135
-159,993	-86,339	-0,086	0,019
-158,979	-200,000	-0,056	-0,211
-157,964	-200,000	-0,009	-0,029
-156,950	509,913	0,042	-0,070
-155,935	174,487	-0,085	-0,087
-154,920	172,648	-0,068	0,070
-153,906	-68,246	0,068	0,019
-152,891	-200,000	0,003	-0,014
-151,877	800,000	0,044	-0,103
-150,862	42,630	0,074	-0,048
-149,847	-64,177	-0,047	-0,014
-148,833	-11,989	-0,225	0,105
-147,818	241,256	-0,007	0,009
-146,804	137,319	0,104	0,097
-145,789	44,105	0,098	0,063
-144,775	-121,808	-0,039	0,005
-143,760	-119,166	-0,082	-0,010
-142,745	-200,000	-0,022	-0,087
-141,731	-200,000	0,023	0,184
-140,716	-7,434	0,093	0,044
-139,702	-78,861	-0,133	0,032
-138,687	-200,000	0,010	0,100
-137,672	-200,000	-0,038	0,137
-136,658	331,049	-0,119	-0,163
-135,643	800,000	-0,049	-0,108
-134,629	800,000	-0,024	-0,059
-133,614	-200,000	0,035	-0,129
-132,599	-106,732	0,097	0,015
-131,585	-200,000	0,017	-0,054
-130,570	131,419	0,077	0,070
-129,556	-32,828	-0,128	-0,050
-128,541	800,000	0,001	-0,003
-127,526	-93,544	0,139	0,027
-126,512	-200,000	0,029	0,122
-125,497	-2,832	0,079	0,039
-124,483	800,000	0,058	0,117
-123,468	800,000	-0,051	-0,116
-122,453	-200,000	-0,021	-0,119
-121,439	-37,196	-0,119	0,045
-120,424	43,234	-0,035	-0,023
-119,410	368,913	0,094	0,135
-118,395	800,000	0,012	0,029
-117,380	-200,000	-0,008	0,033
-116,366	-200,000	0,007	-0,044
-115,351	2,255	-0,129	-0,066
-114,337	52,044	0,072	0,049
-113,322	-200,000	-0,001	-0,046
-112,307	486,876	0,046	0,074
-111,293	76,308	-0,076	0,057
-110,278	-6,309	0,113	0,055
-109,264	800,000	-0,008	0,016
-108,249	554,586	-0,144	-0,247
-107,234	458,290	0,022	0,035
-106,220	-162,317	0,086	-0,003
-105,205	800,000	-0,011	0,026
-104,191	572,182	0,084	0,145
-103,176	-85,058	0,061	0,013
-102,162	-200,000	0,000	0,027
-101,147	-44,938	-0,148	-0,052
-100,132	-12,131	0,026	-0,012
-99,118	-200,000	-0,001	0,023
-98,103	112,733	-0,046	0,040
-97,089	800,000	-0,024	0,052
-96,074	-111,532	0,101	0,014
-95,059	-49,026	-0,076	-0,026
-94,045	800,000	-0,054	0,107
-93,030	-200,000	-0,067	-0,248
-92,016	-200,000	0,023	-0,113
-91,001	-1,945	-0,040	0,020
-89,986	14,080	-0,057	-0,032
-88,972	263,085	-0,015	-0,019
-87,957	39,772	-0,067	-0,042
-86,943	530,844	0,049	0,082
-85,928	246,434	0,006	-0,007
-84,913	800,000	0,025	-0,064
-83,899	199,005	0,090	-0,098
-82,884	292,455	-0,053	-0,069
-81,870	800,000	0,039	0,092
-80,855	38,013	0,069	0,043
-79,840	-49,155	0,068	0,023
-78,826	-200,000	0,015	-0,202
-77,811	348,984	-0,092	-0,130
-76,797	-107,906	0,075	-0,011
-75,782	59,734	0,110	-0,077
-74,767	114,908	0,067	0,058
-73,753	-58,496	0,127	0,039
-72,738	-70,207	-0,134	0,036
-71,724	-175,205	-0,089	-0,002
-70,709	378,914	-0,025	-0,036
-69,694	-103,885	-0,041	-0,007
-68,680	-140,112	0,042	0,003
-67,665	-200,000	0,007	0,041
-66,651	-200,000	-0,016	0,059
-65,636	800,000	-0,035	0,097
-64,622	-173,365	-0,117	0,002
-63,607	-148,473	-0,092	-0,005
-62,592	256,772	-0,105	-0,128
-61,578	-200,000	0,024	0,142
-60,563	47,506	-0,026	0,017
-59,549	-200,000	-0,002	0,039
-58,534	-35,745	-1,647	-0,629
-57,519	386,637	-1,450	-2,129
-56,505	-200,000	-0,515	-4,501
-55,490	224,804	0,915	1,050
-54,476	800,000	4,900	11,430
-53,461	-200,000	18,907	311,087
-52,446	-200,000	739,323	2317,033
-51,432	572,362	1654,956	2868,381
-50,417	78,878	1670,579	1265,494
-49,403	21,889	1543,349	888,960
-48,388	15,759	1465,826	814,506
-47,373	17,826	1455,966	818,982
-46,359	16,822	1446,185	808,630
-45,344	14,026	1441,482	792,573
-44,330	13,969	1439,273	791,054
-43,315	13,944	1437,680	790,029
-42,300	13,978	1436,105	789,292
-41,286	14,010	1434,702	788,643
-40,271	13,934	1433,577	787,635
-39,257	13,978	1432,176	787,042
-38,242	14,024	1430,894	786,523
-37,227	14,032	1429,716	785,882
-36,213	14,039	1428,427	785,178
-35,198	13,941	1427,487	784,164
-34,184	14,059	1426,389	784,091
-33,169	13,965	1425,102	782,903
-32,154	13,996	1423,991	782,409
-31,140	14,005	1422,805	781,769
-30,125	14,052	1421,650	781,326
-29,111	14,009	1420,489	780,455
-28,096	14,015	1419,434	779,875
-27,082	13,923	1418,188	778,722
-26,067	13,938	1417,263	778,254
-25,052	13,946	1416,110	777,629
-24,038	13,921	1415,168	776,963
-23,023	13,935	1414,153	776,439
-22,009	13,919	1413,257	775,845
-20,994	13,919	1412,343	775,310
-19,979	13,851	1411,529	774,511
-18,965	13,842	1410,361	773,798
-17,950	13,876	1409,564	773,493
-16,936	13,879	1408,494	772,885
-15,921	13,809	1407,456	771,961
-14,906	13,852	1406,342	771,518
-13,892	13,869	1405,580	771,151
-12,877	13,861	1404,752	770,629
-11,863	13,866	1403,835	770,117
-10,848	13,796	1403,177	769,400
-9,833	13,766	1402,238	768,714
-8,819	13,787	1401,212	768,221
-7,804	13,754	1400,295	767,530
-6,790	13,750	1399,238	766,902
-5,775	13,782	1398,069	766,382
-4,760	13,720	1397,321	765,652
-3,746	13,746	1396,385	765,232
-2,731	13,723	1395,657	764,694
-1,717	13,738	1394,755	764,241
-0,702	13,725	1392,870	763,116
0,313	17,621	1310,439	735,999
1,327	33,842	705,347	433,732
2,342	52,153	123,793	83,411
3,356	-0,565	16,725	8,375
4,371	-6,191	3,273	1,577
5,386	148,376	0,455	0,435
6,400	-200,000	0,032	0,150
7,415	-16,552	-0,304	-0,136
8,429	85,187	-0,309	-0,240
9,444	17,362	-0,367	-0,206
10,459	25,079	-0,371	-0,217
11,473	172,255	-0,296	-0,301
12,488	-15,068	-0,334	-0,151
13,502	131,503	-0,213	-0,194
14,517	62,414	-0,323	-0,228
15,531	65,561	-0,460	-0,329
16,546	42,770	-0,327	-0,210
17,561	288,256	-0,198	-0,254
18,575	124,275	-0,232	-0,207
19,590	344,151	-0,215	-0,298
20,604	-109,471	-0,373	-0,055
21,619	127,883	-0,378	-0,340
22,634	88,775	-0,419	-0,329
23,648	153,359	-0,267	-0,258
24,663	42,745	-0,422	-0,271
25,677	169,191	-0,281	-0,284
26,692	103,357	-0,372	-0,309
27,707	28,152	-0,451	-0,268
28,721	105,939	-0,375	-0,314
29,736	87,986	-0,336	-0,263
30,750	56,374	-0,540	-0,370
31,765	333,209	-0,337	-0,461
32,780	263,090	-0,348	-0,428
33,794	205,326	-0,215	-0,236
34,809	61,840	-0,321	-0,225
35,823	124,845	-0,343	-0,305
36,838	45,552	-0,427	-0,278
37,853	120,006	-0,383	-0,335
38,867	29,903	-0,320	-0,192
39,882	-14,682	-0,421	-0,190
40,896	28,724	-0,397	-0,237
41,911	-46,218	-0,391	-0,135
42,926	37,919	-0,291	-0,182
43,940	32,427	-0,427	-0,260
44,955	66,273	-0,408	-0,292
45,969	63,569	-0,400	-0,283
46,984	250,190	-0,402	-0,482
47,999	87,745	-0,251	-0,196
49,013	46,381	-0,274	-0,179
50,028	111,854	-0,354	-0,301
51,042	146,622	-0,317	-0,301
52,057	229,812	-0,256	-0,296
53,071	20,177	-0,328	-0,186
54,086	198,204	-0,331	-0,357
55,101	44,449	-0,284	-0,184
56,115	3,302	-0,305	-0,156
57,130	137,227	-0,322	-0,296
58,144	-47,475	-0,383	-0,130
59,159	48,341	-0,352	-0,231
60,174	268,247	-0,186	-0,230
61,188	118,348	-0,299	-0,260
62,203	-46,536	-0,332	-0,114
63,217	-41,343	-0,412	-0,149
64,232	121,112	-0,339	-0,297
65,247	84,036	-0,342	-0,263
66,261	154,540	-0,218	-0,211
67,276	83,071	-0,401	-0,307
68,290	-45,380	-0,450	-0,156
69,305	71,426	-0,315	-0,230
70,320	-26,760	-0,401	-0,164
71,334	74,293	-0,226	-0,167
72,349	108,241	-0,310	-0,260
73,363	114,930	-0,378	-0,325
74,378	137,628	-0,266	-0,245
75,393	103,917	-0,351	-0,290
76,407	348,770	-0,189	-0,264
77,422	-45,988	-0,441	-0,152
78,436	-37,947	-0,294	-0,109
79,451	84,513	-0,262	-0,202
80,466	177,433	-0,233	-0,239
81,480	62,535	-0,310	-0,218
82,495	137,735	-0,245	-0,226
83,509	101,481	-0,237	-0,194
84,524	153,311	-0,221	-0,213
85,539	83,621	-0,216	-0,166
86,553	306,080	-0,191	-0,250
87,568	49,202	-0,256	-0,169
88,582	73,513	-0,336	-0,247
89,597	1,500	-0,362	-0,182
90,611	-82,596	-0,316	-0,071
91,626	4,290	-0,155	-0,080
92,641	26,557	-0,275	-0,161
93,655	198,220	-0,255	-0,274
94,670	256,096	-0,162	-0,196
95,684	-33,745	-0,382	-0,147
96,699	-81,747	-0,263	-0,060
97,714	2,424	-0,288	-0,146
98,728	179,120	-0,169	-0,174
99,743	25,008	-0,366	-0,213
100,757	12,588	-0,336	-0,182
101,772	152,013	-0,258	-0,248
102,787	-52,250	-0,289	-0,093
103,801	267,256	-0,236	-0,290
104,816	0,207	-0,213	-0,106
105,830	79,996	-0,259	-0,195
106,845	69,645	-0,228	-0,165
107,860	-61,692	-0,265	-0,077
108,874	55,806	-0,322	-0,219
109,889	119,359	-0,286	-0,248
110,903	-29,854	-0,339	-0,135
111,918	85,429	-0,259	-0,199
112,933	-45,207	-0,289	-0,100
113,947	-71,188	-0,285	-0,075
114,962	-20,369	-0,185	-0,079
115,976	11,207	-0,205	-0,109
116,991	24,541	-0,184	-0,106
118,006	30,428	-0,281	-0,168
119,020	63,771	-0,300	-0,211
120,035	11,244	-0,285	-0,153
121,049	643,256	-0,168	-0,301
122,064	26,625	-0,302	-0,177
123,079	47,861	-0,138	-0,090
124,093	231,015	-0,240	-0,276
125,108	61,942	-0,305	-0,212
126,122	788,364	-0,158	-0,305
127,137	11,447	-0,255	-0,136
128,151	109,065	-0,236	-0,198
129,166	43,579	-0,201	-0,128
130,181	153,153	-0,258	-0,248
131,195	79,585	-0,245	-0,184
132,210	-4,158	-0,431	-0,208
133,224	231,569	-0,253	-0,290
134,239	-30,768	-0,272	-0,107
135,254	54,200	-0,286	-0,193
136,268	-15,939	-0,275	-0,122
137,283	-48,224	-0,226	-0,076
138,297	118,080	-0,267	-0,231
139,312	-18,118	-0,253	-0,110
140,327	76,338	-0,257	-0,190
141,341	-100,867	-0,305	-0,052
142,356	800,000	-0,114	-0,241
143,370	384,341	-0,178	-0,257
144,385	-31,041	-0,358	-0,141
145,400	-8,490	-0,259	-0,121
146,414	-15,051	-0,324	-0,145
147,429	439,889	-0,204	-0,313
148,443	155,490	-0,244	-0,235
149,458	228,903	-0,196	-0,223
150,473	-105,803	-0,272	-0,042
151,487	-31,611	-0,208	-0,081
152,502	-28,066	-0,249	-0,100
153,516	13,724	-0,297	-0,161
154,531	239,416	-0,205	-0,238
155,546	137,426	-0,249	-0,228
156,560	323,710	-0,060	-0,080
157,575	-78,645	-0,223	-0,053
158,589	-31,457	-0,259	-0,101
159,604	356,197	-0,171	-0,239
160,619	58,788	-0,253	-0,173
161,633	-36,664	-0,304	-0,114
162,648	-101,954	-0,137	-0,023
163,662	800,000	-0,114	-0,287
164,677	64,112	-0,361	-0,253
165,692	16,173	-0,361	-0,198
166,706	202,832	-0,198	-0,214
167,721	-200,000	-0,092	-0,302
168,735	224,232	-0,168	-0,190
169,750	-72,182	-0,189	-0,048
170,764	711,830	-0,082	-0,152
171,779	5,767	-0,254	-0,131
172,794	-105,593	-0,235	-0,037
173,808	144,745	-0,238	-0,222
174,823	217,040	-0,214	-0,238
175,837	-57,826	-0,213	-0,065
176,852	91,593	-0,235	-0,184
177,867	201,067	-0,162	-0,174
178,881	473,806	-0,184	-0,290
179,896	10,697	-0,276	-0,146
180,910	74,715	-0,275	-0,202
181,925	-12,555	-0,189	-0,086
182,940	23,873	-0,351	-0,201
183,954	119,438	-0,232	-0,200
184,969	103,188	-0,242	-0,198
185,983	800,000	-0,084	-0,203
186,998	162,967	-0,142	-0,139
188,013	15,252	-0,218	-0,119
189,027	-123,426	-0,163	-0,018
190,042	292,246	-0,208	-0,264
191,056	132,973	-0,207	-0,187
192,071	79,677	-0,262	-0,196
193,086	669,360	-0,104	-0,187
194,100	39,458	-0,153	-0,095
195,115	580,240	-0,161	-0,276
196,129	16,130	-0,179	-0,098
197,144	129,502	-0,248	-0,221
198,159	-174,255	-0,182	0,004
199,173	151,253	-0,185	-0,175
200,188	471,273	-0,175	-0,274
201,202	800,000	-0,117	-0,226
202,217	-10,358	-0,192	-0,088
203,232	235,807	-0,110	-0,127
204,246	338,870	-0,221	-0,300
205,261	800,000	-0,159	-0,338
206,275	14,262	-0,249	-0,134
207,290	113,278	-0,124	-0,105
208,304	383,601	-0,076	-0,108
209,319	-42,431	-0,132	0,046
210,334	195,846	-0,160	-0,169
211,348	-147,895	-0,195	0,011
212,363	185,676	-0,191	-0,197
213,377	88,909	-0,246	-0,190
214,392	-155,672	-0,151	0,007
215,407	800,000	-0,085	-0,214
216,421	-200,000	-0,002	-0,068
217,436	285,943	-0,088	-0,111
218,450	-200,000	-0,066	-0,217
219,465	39,402	-0,283	-0,176
220,480	3,622	-0,197	-0,099
221,494	48,678	-0,115	-0,075
222,509	-200,000	-0,046	-0,158
223,523	-132,332	-0,277	-0,025
224,538	12,545	-0,222	-0,118
225,553	-50,014	-0,307	-0,100
226,567	83,404	-0,169	-0,128
227,582	42,424	-0,301	-0,190
228,596	56,007	-0,110	0,074
229,611	122,377	-0,084	-0,073
230,626	-13,701	-0,279	-0,125
231,640	146,465	-0,204	-0,190
232,655	68,833	-0,242	-0,172
233,669	95,003	-0,095	-0,075
234,684	209,395	-0,213	-0,232
235,699	495,596	-0,085	-0,136
236,713	55,099	-0,164	-0,110
237,728	5,037	-0,198	-0,101
238,742	119,484	-0,232	-0,199
239,757	183,729	-0,202	-0,208
240,772	-48,652	-0,109	-0,036
241,786	76,483	-0,188	-0,138
242,801	405,393	-0,159	-0,234
243,815	38,503	-0,184	-0,114
244,830	-30,417	-0,073	-0,029
245,844	121,850	-0,129	-0,111
246,859	468,271	-0,180	-0,280
247,874	-59,782	-0,292	-0,086
248,888	-77,048	-0,280	-0,067
249,903	-41,486	-0,163	-0,058
250,917	129,489	-0,154	-0,136
251,932	97,426	-0,062	-0,049
252,947	-50,646	-0,078	-0,025
253,961	108,657	-0,126	-0,105
254,976	-6,470	-0,281	-0,132
255,990	-62,920	-0,390	-0,111
257,005	-67,907	-0,302	-0,081
258,020	21,657	-0,118	-0,067
259,034	-80,987	-0,106	-0,024
260,049	-186,989	-0,184	0,002
261,063	7,570	-0,179	-0,092
262,078	29,041	-0,239	-0,140
263,093	150,785	-0,207	-0,195
264,107	441,047	-0,165	-0,250
265,122	148,291	-0,060	0,056
266,136	-200,000	-0,020	-0,100
267,151	0,165	-0,124	-0,061
268,166	-200,000	-0,134	-0,000
269,180	-128,905	-0,225	-0,022
270,195	133,821	-0,185	-0,166
271,209	153,101	-0,185	-0,175
272,224	-88,946	-0,180	-0,037
273,239	327,411	-0,127	-0,169
274,253	426,822	-0,078	-0,116
275,268	-20,056	-0,056	-0,024
276,282	92,441	-0,155	-0,121
277,297	-76,123	-0,210	-0,051
278,312	152,456	-0,171	-0,162
279,326	19,479	-0,164	-0,091
280,341	800,000	-0,050	-0,097
281,355	-200,000	0,015	-0,140
282,370	-102,433	-0,150	-0,025
283,384	-42,006	-0,348	-0,123
284,399	72,441	-0,231	-0,166
285,414	53,818	-0,252	-0,167
286,428	208,219	-0,211	-0,228
287,443	46,156	-0,116	-0,074
288,457	209,157	-0,140	-0,151
289,472	238,297	-0,111	-0,128
290,487	79,370	-0,244	-0,180
291,501	82,407	-0,237	-0,177
292,516	429,257	-0,125	-0,187
293,530	-200,000	-0,030	-0,105
294,545	-200,000	-0,014	-0,155
295,560	-24,311	-0,084	-0,034
296,574	-142,375	-0,221	0,015
297,589	255,659	-0,234	-0,278
298,603	6,114	-0,103	-0,052
299,618	74,485	-0,239	-0,173
300,633	-158,854	-0,149	-0,006
301,647	47,418	-0,065	-0,042
302,662	108,005	-0,230	-0,189
303,676	246,425	-0,095	-0,111
304,691	75,764	-0,118	-0,086
305,706	777,875	-0,107	-0,203
306,720	93,035	-0,057	-0,044
307,735	258,311	-0,064	-0,077
308,749	412,513	-0,131	-0,192
309,764	-94,454	-0,112	-0,021
310,779	-50,262	-0,086	-0,028
311,793	25,522	-0,147	-0,084
312,808	201,811	-0,086	-0,092
313,822	36,569	-0,205	-0,124
314,837	800,000	-0,103	-0,205
315,852	-200,000	-0,047	-0,150
316,866	800,000	-0,039	-0,096
317,881	-1,029	-0,138	-0,067
318,895	180,105	-0,153	-0,155
319,910	203,193	-0,193	-0,206
320,925	312,222	-0,060	-0,078
321,939	-102,184	-0,160	0,026
322,954	-36,903	-0,180	0,066
323,968	5,418	0,025	-0,012
324,983	-47,566	-0,187	0,062
325,997	-49,292	-0,113	-0,037
327,012	29,778	-0,169	-0,099
328,027	-200,000	-0,069	-0,239
329,041	415,107	-0,151	-0,222
330,056	302,023	-0,110	-0,141
331,070	48,472	-0,181	-0,117
332,085	411,811	-0,046	0,068
333,100	37,500	-0,045	-0,027
334,114	146,777	-0,153	-0,142
335,129	172,011	-0,109	-0,108
336,143	195,262	-0,098	-0,102
337,158	800,000	-0,073	-0,145
338,173	-79,059	-0,167	-0,039
339,187	-7,284	-0,135	-0,063
340,202	-18,570	-0,137	-0,059
341,216	-49,267	0,010	-0,003
342,231	614,286	-0,113	-0,196
343,246	-11,231	-0,200	-0,090
344,260	799,161	-0,079	-0,151
345,275	800,000	-0,132	-0,294
346,289	68,846	-0,096	0,068
347,304	266,345	-0,122	-0,147
348,319	451,775	-0,080	-0,122
349,333	-20,302	-0,137	-0,058
350,348	800,000	-0,016	0,037
351,362	102,179	-0,103	0,082
352,377	800,000	-0,074	-0,207
353,392	102,976	-0,121	-0,097
354,406	132,898	-0,138	-0,122
355,421	208,659	1313,641	1412,539
356,435	160,556	1474,250	1413,028
