DTS Sentinel unit serial number:	SN410029Multiplexer serial number:	ORYXHardware model number:	OX2-SRSoftware version number:	ORYX F/W v4,00 Oryx Data Collector v3.7.2.0data status	okinstallation	B3 Nyhavnadifferential loss correction	single-endedforward channel	channel 1reverse channel	N/Adate	2023/12/01time	22:22:30forward acquisition time	300,00reverse acquisition time	0,00gamma	499,1914k internal	0,3196k external	0,3196temperature offset calibration	1,0000default loss term (dB/km)	0,3820temperature slope calibration	1,0000multiplexer offset coefficient	1,0000multiplexer slope coefficient	1,0000fibre end	0,00T internal ref (°C)	15,88T ext. ref 1 (°C)	0,83T ext. ref 2 (°C)	0,82length (m)	temperature (°C)	Stokes	anti-Stokes-744,400	769,412	-0,137	-0,274
-743,385	-200,000	0,042	0,278
-742,371	216,367	-0,233	-0,270
-741,356	800,000	-0,089	0,274
-740,342	800,000	-0,133	-0,329
-739,327	-200,000	-0,027	0,224
-738,312	285,155	-0,223	-0,293
-737,298	800,000	0,128	0,298
-736,283	78,003	-0,259	-0,201
-735,269	-200,000	-0,025	0,325
-734,254	229,843	-0,255	-0,304
-733,239	13,153	-0,215	0,121
-732,225	241,111	-0,138	-0,169
-731,210	-200,000	-0,002	0,161
-730,196	800,000	-0,033	-0,070
-729,181	91,367	0,044	-0,036
-728,167	800,000	-0,031	-0,062
-727,152	2,299	-0,079	-0,041
-726,137	43,465	-0,038	0,025
-725,123	-114,720	-0,188	0,026
-724,108	-200,000	-0,007	-0,152
-723,094	-124,333	-0,087	-0,010
-722,079	130,990	-0,047	-0,044
-721,064	93,549	-0,123	-0,101
-720,050	91,234	-0,031	0,025
-719,035	-66,800	0,007	0,002
-718,021	-200,000	0,000	0,101
-717,006	340,938	-0,065	-0,093
-715,991	-50,537	-0,104	-0,036
-714,977	-19,727	0,035	-0,016
-713,962	-200,000	0,002	0,087
-712,948	800,000	0,004	-0,012
-711,933	-200,000	-0,017	0,063
-710,918	-200,000	0,002	0,048
-709,904	-91,672	-0,156	0,032
-708,889	-200,000	0,013	-0,091
-707,875	406,221	-0,034	-0,053
-706,860	-200,000	-0,002	-0,080
-705,845	300,459	0,016	0,021
-704,831	-200,000	-0,034	0,207
-703,816	503,061	-0,026	0,044
-702,802	-200,000	0,009	0,105
-701,787	-93,131	-0,118	-0,024
-700,772	-200,000	-0,032	-0,108
-699,758	35,072	0,033	0,021
-698,743	-9,935	-0,134	-0,064
-697,729	172,850	0,077	-0,081
-696,714	147,574	-0,052	0,051
-695,699	800,000	0,053	0,167
-694,685	173,796	-0,018	0,019
-693,670	-98,201	-0,059	-0,011
-692,656	-148,697	-0,070	-0,004
-691,641	71,535	0,089	-0,067
-690,627	3,601	0,065	-0,034
-689,612	-57,334	-0,064	0,020
-688,597	-200,000	0,029	0,108
-687,583	800,000	-0,017	-0,050
-686,568	-200,000	-0,012	-0,084
-685,554	-200,000	0,044	-0,152
-684,539	745,042	-0,020	-0,039
-683,524	800,000	-0,024	0,057
-682,510	-56,396	-0,108	-0,035
-681,495	223,566	-0,110	-0,129
-680,481	-114,920	-0,102	0,014
-679,466	-200,000	0,007	-0,058
-678,451	-89,007	-0,132	0,028
-677,437	-91,514	-0,025	-0,005
-676,422	0,831	-0,033	0,017
-675,408	-154,075	-0,090	0,004
-674,393	800,000	0,029	0,066
-673,378	110,722	-0,098	-0,086
-672,364	-93,384	-0,060	0,012
-671,349	-43,628	0,063	0,023
-670,335	-80,993	-0,019	-0,005
-669,320	-200,000	0,034	0,138
-668,305	423,063	0,073	0,115
-667,291	-200,000	0,054	0,000
-666,276	551,672	0,092	0,160
-665,262	-200,000	-0,029	-0,093
-664,247	666,664	-0,073	-0,137
-663,232	-200,000	0,009	-0,037
-662,218	-39,947	-0,095	0,036
-661,203	84,819	-0,031	0,025
-660,189	188,387	-0,044	0,048
-659,174	-95,710	-0,107	-0,020
-658,159	192,188	0,033	-0,036
-657,145	-200,000	0,031	-0,116
-656,130	670,666	-0,022	-0,041
-655,116	98,329	0,058	-0,048
-654,101	800,000	0,015	0,032
-653,086	168,295	0,109	0,113
-652,072	-103,896	0,107	-0,018
-651,057	5,656	-0,051	0,027
-650,043	-200,000	-0,005	-0,094
-649,028	398,592	-0,019	0,029
-648,014	800,000	-0,034	-0,100
-646,999	-84,122	-0,067	-0,015
-645,984	-20,204	0,010	0,004
-644,970	-34,806	0,082	-0,032
-643,955	-200,000	-0,010	0,101
-642,941	-16,689	-0,174	-0,079
-641,926	35,720	-0,048	-0,031
-640,911	90,289	0,013	0,010
-639,897	-200,000	0,008	0,092
-638,882	143,778	-0,130	0,126
-637,868	800,000	-0,025	0,080
-636,853	-200,000	-0,025	0,095
-635,838	234,923	-0,012	-0,014
-634,824	-200,000	-0,017	-0,151
-633,809	-200,000	-0,017	0,143
-632,795	-200,000	-0,023	0,077
-631,780	-19,673	0,053	-0,024
-630,765	6,479	-0,141	0,076
-629,751	-62,629	-0,084	-0,025
-628,736	24,519	-0,043	-0,026
-627,722	-69,450	-0,081	-0,022
-626,707	310,620	-0,008	0,011
-625,692	-200,000	0,022	0,091
-624,678	-200,000	-0,002	0,063
-623,663	2,502	-0,098	0,051
-622,649	-200,000	-0,010	-0,069
-621,634	9,443	-0,126	-0,069
-620,619	800,000	0,033	0,099
-619,605	-185,146	-0,021	0,000
-618,590	32,034	0,011	0,007
-617,576	-7,784	0,033	-0,016
-616,561	-200,000	-0,012	-0,119
-615,546	131,135	-0,097	-0,090
-614,532	-200,000	-0,006	-0,096
-613,517	-16,809	-0,161	-0,074
-612,503	23,926	0,085	-0,051
-611,488	397,124	0,045	0,069
-610,474	42,969	0,113	0,074
-609,459	-200,000	0,005	-0,037
-608,444	89,548	-0,054	0,044
-607,430	-172,778	-0,132	0,003
-606,415	273,536	0,022	0,029
-605,401	-200,000	0,016	0,074
-604,386	627,435	0,094	-0,174
-603,371	555,011	0,052	0,091
-602,357	3,417	-0,134	-0,071
-601,342	-35,603	0,034	-0,013
-600,328	-200,000	-0,011	-0,135
-599,313	-200,000	-0,001	-0,191
-598,298	-2,727	-0,044	-0,022
-597,284	35,404	0,067	-0,042
-596,269	-200,000	0,006	0,059
-595,255	414,292	0,022	-0,033
-594,240	800,000	-0,027	-0,059
-593,225	-100,313	-0,149	-0,026
-592,211	128,070	-0,071	0,065
-591,196	-47,760	-0,150	0,052
-590,182	800,000	0,065	0,187
-589,167	156,912	-0,017	-0,017
-588,152	180,853	0,022	-0,024
-587,138	443,816	-0,055	-0,087
-586,123	578,514	0,035	-0,062
-585,109	241,414	0,020	0,024
-584,094	-200,000	-0,018	0,094
-583,079	-200,000	0,013	0,180
-582,065	-200,000	-0,028	-0,100
-581,050	-200,000	0,010	-0,084
-580,036	-133,330	-0,051	-0,005
-579,021	-58,763	-0,022	0,007
-578,006	-200,000	0,001	0,072
-576,992	-45,848	0,023	0,008
-575,977	-200,000	-0,009	-0,073
-574,963	25,249	0,111	0,067
-573,948	219,169	0,022	0,026
-572,934	366,577	-0,026	-0,038
-571,919	-200,000	-0,001	0,005
-570,904	-200,000	-0,024	-0,086
-569,890	-200,000	0,020	-0,093
-568,875	-200,000	-0,046	-0,199
-567,861	-99,113	-0,118	0,021
-566,846	728,180	0,006	0,012
-565,831	89,827	-0,134	-0,108
-564,817	72,684	0,076	-0,057
-563,802	800,000	-0,027	-0,071
-562,788	123,802	0,053	-0,048
-561,773	-200,000	0,025	-0,120
-560,758	430,928	0,084	-0,131
-559,744	-200,000	0,004	0,039
-558,729	-200,000	-0,003	-0,162
-557,715	363,349	-0,016	0,023
-556,700	800,000	-0,033	-0,073
-555,685	-55,915	-0,089	0,028
-554,671	122,692	0,090	0,081
-553,656	166,531	-0,076	-0,078
-552,642	556,237	-0,046	0,080
-551,627	44,572	-0,115	0,076
-550,612	140,065	-0,130	-0,124
-549,598	158,805	-0,057	0,057
-548,583	-66,901	0,027	-0,008
-547,569	300,727	0,010	0,013
-546,554	-11,776	0,016	0,008
-545,539	-200,000	0,023	-0,169
-544,525	-200,000	0,024	0,093
-543,510	-13,195	-0,062	0,029
-542,496	-200,000	-0,003	-0,166
-541,481	-125,655	0,026	0,003
-540,466	441,141	-0,046	-0,072
-539,452	-93,131	0,075	0,015
-538,437	174,567	0,030	0,031
-537,423	204,853	0,047	0,053
-536,408	-139,776	-0,044	0,003
-535,393	141,293	0,093	-0,089
-534,379	55,870	-0,144	-0,101
-533,364	43,954	-0,049	-0,032
-532,350	-51,808	0,099	0,033
-531,335	52,232	0,097	0,067
-530,321	-200,000	-0,020	0,111
-529,306	-181,714	-0,010	0,000
-528,291	-189,331	-0,064	-0,001
-527,277	-200,000	-0,017	0,196
-526,262	-96,215	-0,024	-0,005
-525,248	548,844	0,023	-0,039
-524,233	-200,000	-0,035	0,124
-523,218	800,000	0,021	0,063
-522,204	-123,285	0,048	-0,005
-521,189	597,741	0,045	-0,081
-520,175	-101,408	-0,038	0,007
-519,160	-200,000	-0,004	-0,118
-518,145	-53,776	0,037	0,012
-517,131	15,842	0,023	-0,013
-516,116	800,000	-0,014	0,030
-515,102	214,122	-0,070	-0,080
-514,087	67,281	-0,077	-0,057
-513,072	-200,000	0,005	-0,190
-512,058	-129,452	0,129	-0,013
-511,043	-200,000	-0,039	-0,146
-510,029	261,124	0,106	0,132
-509,014	-122,838	0,068	-0,008
-507,999	-200,000	0,012	0,050
-506,985	-110,448	-0,130	-0,019
-505,970	-200,000	-0,027	-0,105
-504,956	800,000	0,020	-0,058
-503,941	357,580	0,032	0,046
-502,926	146,354	-0,107	0,104
-501,912	463,476	0,029	0,047
-500,897	2,550	0,092	0,048
-499,883	-101,242	-0,078	-0,014
-498,868	-149,494	-0,100	0,006
-497,853	-200,000	-0,005	-0,075
-496,839	-200,000	-0,049	-0,176
-495,824	-200,000	0,008	0,052
-494,810	-132,641	0,096	-0,009
-493,795	27,469	-0,150	-0,091
-492,781	-200,000	0,014	0,057
-491,766	-44,909	-0,028	-0,010
-490,751	4,749	0,067	-0,035
-489,737	350,318	-0,041	-0,059
-488,722	800,000	0,069	0,142
-487,708	7,794	0,043	0,023
-486,693	-87,455	-0,097	0,021
-485,678	800,000	0,093	-0,189
-484,664	-200,000	-0,023	-0,146
-483,649	3,722	-0,031	-0,016
-482,635	165,853	0,053	-0,054
-481,620	374,302	-0,041	0,060
-480,605	-200,000	-0,003	0,121
-479,591	-200,000	0,005	0,053
-478,576	-200,000	0,013	0,172
-477,562	800,000	0,031	-0,094
-476,547	-57,967	0,072	0,022
-475,532	-31,523	-0,028	0,011
-474,518	-111,499	0,174	0,025
-473,503	-131,370	0,107	0,010
-472,489	-200,000	0,024	0,149
-471,474	2,697	-0,080	-0,042
-470,459	-200,000	0,009	0,165
-469,445	-65,456	-0,150	-0,043
-468,430	454,030	-0,042	-0,068
-467,416	-200,000	-0,030	0,125
-466,401	-200,000	-0,007	0,042
-465,386	-123,057	-0,135	-0,015
-464,372	-200,000	-0,011	-0,062
-463,357	-19,041	0,020	-0,009
-462,343	-200,000	0,007	-0,109
-461,328	136,777	-0,038	0,036
-460,313	129,148	-0,104	0,096
-459,299	647,881	0,094	0,174
-458,284	-200,000	0,011	-0,054
-457,270	-200,000	0,003	-0,023
-456,255	-8,687	0,167	0,081
-455,241	-200,000	-0,028	-0,123
-454,226	-25,014	-0,059	0,025
-453,211	-29,335	0,101	0,042
-452,197	800,000	0,017	0,039
-451,182	800,000	0,063	0,158
-450,168	166,462	0,039	0,040
-449,153	0,748	-0,150	0,077
-448,138	800,000	-0,041	0,087
-447,124	-94,878	0,087	-0,017
-446,109	800,000	0,037	-0,114
-445,095	-46,763	-0,048	-0,017
-444,080	-200,000	0,012	0,057
-443,065	-62,228	0,058	-0,017
-442,051	-200,000	0,001	-0,005
-441,036	-200,000	-0,003	-0,019
-440,022	-87,111	-0,149	0,032
-439,007	800,000	-0,019	-0,057
-437,992	110,216	0,007	-0,006
-436,978	226,982	-0,012	0,014
-435,963	668,540	-0,039	-0,074
-434,949	800,000	-0,021	-0,047
-433,934	507,876	-0,043	-0,073
-432,919	73,394	-0,117	-0,088
-431,905	72,344	-0,091	0,068
-430,890	250,219	0,068	0,083
-429,876	-200,000	0,012	0,159
-428,861	-112,967	-0,041	-0,006
-427,846	538,322	-0,059	-0,102
-426,832	18,176	-0,092	-0,053
-425,817	122,881	-0,105	0,094
-424,803	122,187	0,036	0,033
-423,788	6,829	0,037	-0,020
-422,773	187,004	0,085	0,091
-421,759	348,220	-0,006	-0,009
-420,744	360,775	0,058	0,083
-419,730	38,097	-0,047	-0,030
-418,715	-110,917	-0,085	-0,013
-417,701	-200,000	-0,016	-0,087
-416,686	83,850	-0,073	0,058
-415,671	-85,567	0,086	-0,019
-414,657	-111,143	0,206	0,030
-413,642	-128,222	-0,108	0,011
-412,628	-200,000	-0,001	-0,107
-411,613	800,000	-0,022	0,049
-410,598	8,649	0,068	-0,037
-409,584	-200,000	-0,006	-0,051
-408,569	-126,526	0,162	0,017
-407,555	-200,000	0,004	0,095
-406,540	-200,000	-0,021	0,110
-405,525	205,484	-0,040	-0,045
-404,511	-85,133	-0,158	0,035
-403,496	191,975	-0,038	-0,042
-402,482	800,000	0,013	0,029
-401,467	172,347	0,034	0,035
-400,452	800,000	-0,060	0,129
-399,438	-200,000	0,019	0,111
-398,423	72,556	0,058	0,043
-397,409	177,840	0,019	0,020
-396,394	-155,227	-0,050	0,002
-395,379	24,173	0,078	-0,046
-394,365	653,881	0,025	-0,047
-393,350	-146,095	0,172	0,011
-392,336	-200,000	-0,018	0,058
-391,321	-106,243	0,106	-0,017
-390,306	109,152	-0,024	0,021
-389,292	800,000	0,048	0,098
-388,277	265,099	-0,064	0,081
-387,263	-49,828	0,148	0,050
-386,248	-149,801	0,150	-0,008
-385,233	322,750	0,032	0,045
-384,219	292,164	-0,058	0,076
-383,204	337,976	-0,071	-0,099
-382,190	-51,921	-0,038	0,013
-381,175	6,951	-0,116	-0,062
-380,160	800,000	0,058	0,179
-379,146	-99,560	0,042	-0,008
-378,131	-86,145	-0,035	-0,008
-377,117	-200,000	-0,007	-0,049
-376,102	47,209	0,051	-0,034
-375,088	118,014	-0,070	-0,062
-374,073	-41,271	-0,134	0,049
-373,058	-200,000	-0,013	0,061
-372,044	-26,293	0,098	0,041
-371,029	-200,000	0,007	0,098
-370,015	265,343	-0,095	0,119
-369,000	-53,293	-0,053	0,017
-367,985	-200,000	-0,003	0,015
-366,971	-200,000	0,026	-0,173
-365,956	180,821	-0,016	-0,017
-364,942	-200,000	-0,012	0,094
-363,927	-100,639	0,113	-0,020
-362,912	30,598	-0,038	0,023
-361,898	-200,000	-0,007	-0,100
-360,883	800,000	-0,014	-0,036
-359,869	75,637	-0,080	-0,061
-358,854	143,718	0,018	0,017
-357,839	191,751	0,060	0,065
-356,825	25,209	0,099	-0,059
-355,810	-24,974	-0,081	-0,034
-354,796	-200,000	-0,008	0,025
-353,781	-200,000	-0,015	0,102
-352,766	-200,000	-0,004	-0,138
-351,752	-6,719	-0,091	-0,044
-350,737	-90,585	0,140	0,029
-349,723	-133,374	0,206	0,018
-348,708	-38,051	-0,062	0,024
-347,693	-200,000	-0,005	0,055
-346,679	-87,702	-0,115	0,025
-345,664	719,698	-0,055	-0,106
-344,650	-200,000	0,019	-0,097
-343,635	-200,000	-0,002	-0,016
-342,620	-200,000	0,004	0,036
-341,606	-200,000	-0,007	0,053
-340,591	569,174	0,035	-0,061
-339,577	231,639	-0,049	-0,057
-338,562	800,000	-0,061	-0,169
-337,548	278,443	0,056	-0,072
-336,533	760,729	0,024	0,048
-335,518	45,537	0,064	0,043
-334,504	-110,862	0,078	0,011
-333,489	-116,835	-0,118	-0,015
-332,475	108,732	-0,062	0,053
-331,460	68,182	-0,041	-0,030
-330,445	575,463	-0,032	0,056
-329,431	-200,000	0,018	0,086
-328,416	-178,113	-0,080	0,001
-327,402	-154,542	-0,062	-0,003
-326,387	-200,000	0,011	-0,082
-325,372	800,000	-0,015	-0,035
-324,358	-120,438	0,137	0,016
-323,343	4,351	-0,141	0,074
-322,329	-200,000	-0,003	0,021
-321,314	73,876	0,100	0,075
-320,299	-200,000	-0,008	-0,042
-319,285	60,436	0,054	0,038
-318,270	-200,000	0,001	0,080
-317,256	18,331	-0,109	0,062
-316,241	179,440	0,046	-0,049
-315,226	170,704	0,038	-0,039
-314,212	258,109	0,118	0,146
-313,197	128,268	0,073	0,066
-312,183	243,297	-0,077	0,093
-311,168	-148,403	-0,067	-0,004
-310,153	-200,000	-0,001	-0,067
-309,139	330,677	-0,061	-0,085
-308,124	-6,417	-0,057	0,028
-307,110	-160,778	0,131	0,005
-306,095	-200,000	-0,013	0,091
-305,080	-12,846	-0,106	0,049
-304,066	355,241	0,065	-0,093
-303,051	33,066	-0,048	-0,029
-302,037	1,556	-0,035	0,018
-301,022	-200,000	0,013	-0,052
-300,008	-23,935	0,233	-0,099
-298,993	-21,817	0,047	0,021
-297,978	-73,558	0,037	0,010
-296,964	-200,000	0,018	-0,093
-295,949	800,000	-0,019	-0,053
-294,935	-10,653	-0,088	-0,042
-293,920	-93,041	0,266	0,053
-292,905	82,698	-0,044	0,034
-291,891	-21,962	0,039	-0,017
-290,876	295,037	0,072	0,095
-289,862	-18,322	0,059	0,026
-288,847	-71,391	0,089	0,024
-287,832	-144,085	-0,074	0,005
-286,818	62,504	0,022	-0,016
-285,803	-200,000	-0,020	-0,072
-284,789	-122,423	0,065	-0,007
-283,774	-40,665	-0,026	-0,010
-282,759	800,000	0,016	-0,043
-281,745	-92,137	-0,088	0,018
-280,730	-84,552	-0,027	-0,006
-279,716	-112,928	0,060	0,008
-278,701	-118,818	0,159	0,020
-277,686	59,162	-0,041	0,029
-276,672	104,625	0,137	0,115
-275,657	-42,900	-0,095	0,034
-274,643	-173,382	-0,108	0,002
-273,628	101,505	0,052	0,043
-272,613	800,000	0,016	-0,046
-271,599	113,504	0,103	0,090
-270,584	-200,000	-0,023	0,134
-269,570	-28,150	0,085	0,035
-268,555	-100,804	-0,089	-0,015
-267,540	176,911	-0,054	0,056
-266,526	-200,000	-0,014	0,048
-265,511	267,375	0,099	0,124
-264,497	-200,000	-0,003	0,042
-263,482	-200,000	0,021	0,091
-262,467	-200,000	0,009	0,041
-261,453	58,528	0,023	0,016
-260,438	800,000	0,048	0,122
-259,424	126,751	-0,150	-0,136
-258,409	800,000	-0,040	-0,089
-257,395	-52,957	0,096	-0,032
-256,380	429,410	0,069	0,106
-255,365	89,114	0,008	-0,006
-254,351	20,370	0,045	0,026
-253,336	-64,806	-0,068	-0,019
-252,322	116,916	0,076	0,067
-251,307	453,590	0,043	-0,068
-250,292	800,000	0,030	0,075
-249,278	800,000	0,031	0,062
-248,263	-200,000	-0,003	0,254
-247,249	-161,530	0,180	0,007
-246,234	201,654	-0,069	-0,076
-245,219	23,525	0,005	-0,003
-244,205	-150,881	-0,189	-0,010
-243,190	-200,000	0,025	0,085
-242,176	334,914	0,110	-0,153
-241,161	417,277	0,056	0,085
-240,146	-200,000	-0,010	0,100
-239,132	-51,195	-0,014	-0,005
-238,117	644,275	-0,113	-0,206
-237,103	459,859	-0,046	-0,074
-236,088	-29,552	0,142	-0,058
-235,073	127,449	0,080	0,073
-234,059	-200,000	0,028	0,093
-233,044	2,654	0,082	-0,042
-232,030	23,673	0,111	0,065
-231,015	-42,795	-0,118	-0,043
-230,000	-45,017	-0,114	0,040
-228,986	-59,308	-0,041	0,013
-227,971	-85,664	0,128	0,028
-226,957	206,180	-0,026	0,028
-225,942	34,337	-0,018	0,011
-224,927	181,370	0,044	0,046
-223,913	-200,000	0,020	0,100
-222,898	1,443	-0,116	-0,059
-221,884	76,581	0,064	0,048
-220,869	-66,414	-0,034	-0,009
-219,855	451,375	-0,049	-0,078
-218,840	360,896	0,104	0,149
-217,825	304,296	0,052	-0,069
-216,811	212,773	-0,039	0,044
-215,796	-57,698	0,050	-0,016
-214,782	416,825	0,008	-0,013
-213,767	-18,684	0,027	-0,012
-212,752	-74,492	-0,033	-0,009
-211,738	109,040	0,048	0,041
-210,723	40,866	-0,130	-0,083
-209,709	-200,000	-0,031	-0,156
-208,694	381,864	0,073	-0,107
-207,679	175,124	0,059	-0,061
-206,665	68,991	-0,012	-0,009
-205,650	-117,293	-0,082	0,010
-204,636	-102,958	0,092	0,015
-203,621	62,858	-0,053	-0,037
-202,606	389,953	-0,062	0,093
-201,592	-200,000	-0,012	-0,082
-200,577	-109,514	0,065	0,010
-199,563	464,941	0,044	0,070
-198,548	396,321	0,073	-0,109
-197,533	-81,577	0,109	-0,025
-196,519	-200,000	0,004	0,131
-195,504	-200,000	-0,039	-0,145
-194,490	31,123	-0,095	-0,058
-193,475	-103,136	-0,079	-0,013
-192,460	-51,916	0,127	-0,042
-191,446	42,154	0,141	-0,091
-190,431	-126,915	-0,108	-0,011
-189,417	278,491	-0,033	0,041
-188,402	391,498	-0,045	0,066
-187,387	-129,235	0,118	0,012
-186,373	-200,000	-0,035	-0,192
-185,358	226,349	0,140	-0,162
-184,344	-200,000	-0,000	0,093
-183,329	-137,975	0,211	0,017
-182,315	-104,876	-0,105	0,017
-181,300	800,000	-0,017	-0,035
-180,285	207,486	0,045	-0,050
-179,271	428,700	-0,023	-0,035
-178,256	-47,312	0,038	0,013
-177,242	300,605	0,091	0,119
-176,227	800,000	-0,006	0,017
-175,212	22,558	0,039	0,023
-174,198	95,191	-0,086	-0,070
-173,183	800,000	0,044	-0,099
-172,169	254,202	-0,067	-0,081
-171,154	800,000	-0,043	-0,113
-170,139	-65,667	-0,144	0,041
-169,125	800,000	0,003	-0,009
-168,110	800,000	0,034	0,076
-167,096	-200,000	-0,004	-0,149
-166,081	-200,000	-0,017	0,102
-165,066	231,501	-0,048	0,056
-164,052	85,727	0,035	-0,027
-163,037	800,000	0,077	-0,155
-162,023	800,000	0,023	0,071
-161,008	44,068	0,067	-0,044
-159,993	176,452	0,033	0,034
-158,979	800,000	0,042	-0,131
-157,964	-200,000	-0,011	-0,068
-156,950	-100,445	0,055	0,010
-155,935	0,609	0,109	-0,055
-154,920	410,053	-0,039	-0,059
-153,906	-79,633	0,118	-0,028
-152,891	-200,000	-0,012	0,107
-151,877	-6,616	0,085	-0,041
-150,862	93,841	-0,047	-0,038
-149,847	448,416	-0,031	-0,050
-148,833	-147,063	0,167	-0,010
-147,818	3,572	0,131	0,068
-146,804	416,525	0,018	-0,027
-145,789	800,000	-0,027	0,069
-144,775	97,955	0,010	0,008
-143,760	531,072	0,006	-0,009
-142,745	-200,000	0,011	-0,083
-141,731	87,487	-0,099	0,078
-140,716	-200,000	0,019	0,081
-139,702	-200,000	0,026	0,119
-138,687	-200,000	0,015	0,067
-137,672	320,240	-0,119	-0,161
-136,658	-99,300	-0,132	-0,023
-135,643	305,791	-0,113	-0,150
-134,629	-15,157	-0,089	-0,041
-133,614	151,294	-0,008	0,008
-132,599	511,382	-0,077	0,128
-131,585	800,000	0,046	-0,113
-130,570	-200,000	0,009	-0,072
-129,556	-56,588	-0,052	0,016
-128,541	491,028	0,012	-0,020
-127,526	77,416	0,037	-0,028
-126,512	-200,000	0,029	0,098
-125,497	199,440	-0,063	0,069
-124,483	800,000	-0,017	-0,042
-123,468	-200,000	-0,009	0,034
-122,453	87,065	-0,089	0,070
-121,439	167,574	-0,146	-0,147
-120,424	110,017	0,077	-0,066
-119,410	-163,133	0,129	0,004
-118,395	-158,140	-0,082	0,003
-117,380	-122,554	0,109	-0,012
-116,366	800,000	-0,025	-0,059
-115,351	97,313	-0,082	-0,067
-114,337	800,000	-0,014	0,036
-113,322	-200,000	-0,025	-0,092
-112,307	-97,928	-0,092	0,017
-111,293	-200,000	0,009	0,133
-110,278	-87,064	-0,043	0,009
-109,264	393,293	-0,059	-0,088
-108,249	-41,442	-0,126	0,046
-107,234	57,373	0,028	-0,020
-106,220	353,580	-0,056	-0,080
-105,205	34,216	0,086	0,053
-104,191	68,202	-0,020	0,015
-103,176	-124,123	0,120	-0,013
-102,162	-86,655	-0,155	0,033
-101,147	800,000	-0,026	-0,060
-100,132	190,260	0,037	-0,040
-99,118	-84,504	-0,233	-0,052
-98,103	261,461	0,014	-0,017
-97,089	200,963	-0,013	-0,014
-96,074	-85,497	0,118	0,026
-95,059	-200,000	-0,019	0,069
-94,045	-101,236	-0,130	-0,022
-93,030	6,164	-0,125	-0,066
-92,016	-30,871	-0,069	0,028
-91,001	523,028	0,065	0,109
-89,986	-200,000	0,024	0,186
-88,972	252,108	-0,028	-0,033
-87,957	-129,848	-0,048	-0,005
-86,943	465,598	-0,066	0,106
-85,928	-25,660	0,118	-0,049
-84,913	103,964	-0,097	-0,081
-83,899	588,891	-0,087	0,152
-82,884	266,109	-0,051	0,063
-81,870	-102,284	-0,117	-0,020
-80,855	101,550	0,056	0,046
-79,840	-41,465	0,088	-0,032
-78,826	-200,000	0,009	-0,052
-77,811	-200,000	0,038	-0,142
-76,797	-103,719	-0,081	0,013
-75,782	-200,000	-0,002	0,143
-74,767	-43,495	0,128	0,046
-73,753	800,000	0,074	0,178
-72,738	-200,000	0,010	0,077
-71,724	68,037	-0,095	0,069
-70,709	-200,000	0,002	0,078
-69,694	-163,068	0,077	0,003
-68,680	-27,967	0,085	0,035
-67,665	655,033	0,049	0,090
-66,651	-57,970	0,035	-0,011
-65,636	-12,310	0,026	-0,012
-64,622	800,000	0,046	0,126
-63,607	-200,000	-0,009	-0,122
-62,592	277,279	0,017	0,021
-61,578	325,728	-0,065	0,089
-60,563	31,906	-0,043	-0,026
-59,549	-200,000	-0,004	0,030
-58,534	-64,080	-1,522	-0,438
-57,519	387,877	-1,555	-2,288
-56,505	-200,000	-0,510	-4,413
-55,490	131,186	0,937	0,854
-54,476	800,000	4,705	11,336
-53,461	-200,000	17,776	282,745
-52,446	800,000	720,806	2226,437
-51,432	563,146	1634,940	2817,406
-50,417	80,951	1658,744	1267,943
-49,403	23,762	1532,911	893,087
-48,388	17,689	1456,353	819,181
-47,373	18,255	1445,905	815,988
-46,359	17,807	1436,485	808,506
-45,344	15,956	1431,968	797,127
-44,330	15,955	1429,788	795,875
-43,315	15,973	1428,137	795,011
-42,300	15,963	1426,344	793,934
-41,286	16,021	1425,396	793,650
-40,271	15,943	1424,122	792,539
-39,257	15,986	1422,814	791,982
-38,242	16,022	1421,395	791,330
-37,227	16,018	1420,125	790,572
-36,213	15,999	1418,761	789,695
-35,198	15,974	1417,636	788,919
-34,184	16,012	1416,694	788,540
-33,169	15,928	1415,390	787,391
-32,154	15,969	1414,616	787,121
-31,140	15,949	1413,169	786,191
-30,125	16,003	1411,952	785,733
-29,111	16,017	1410,832	785,149
-28,096	15,987	1409,759	784,380
-27,082	15,938	1408,713	783,538
-26,067	15,922	1407,702	782,866
-25,052	15,920	1406,539	782,182
-24,038	15,889	1405,733	781,558
-23,023	15,923	1404,512	781,002
-22,009	15,874	1403,546	780,207
-20,994	15,880	1402,549	779,653
-19,979	15,863	1401,512	778,962
-18,965	15,810	1400,780	778,280
-17,950	15,825	1399,679	777,707
-16,936	15,830	1398,682	777,146
-15,921	15,814	1397,489	776,377
-14,906	15,792	1396,526	775,711
-13,892	15,828	1395,609	775,337
-12,877	15,810	1394,823	774,788
-11,863	15,839	1393,756	774,297
-10,848	15,804	1392,963	773,664
-9,833	15,796	1391,920	773,016
-8,819	15,728	1390,988	772,154
-7,804	15,718	1390,099	771,581
-6,790	15,747	1389,017	771,085
-5,775	15,698	1388,103	770,322
-4,760	15,672	1387,335	769,746
-3,746	15,684	1386,485	769,297
-2,731	15,647	1385,844	768,740
-1,717	15,686	1384,687	768,247
-0,702	15,683	1382,841	767,181
0,313	19,431	1303,331	740,373
1,327	35,752	706,285	439,025
2,342	55,085	125,049	85,484
3,356	4,901	16,602	8,624
4,371	7,858	3,154	1,669
5,386	-9,909	0,517	0,243
6,400	800,000	-0,015	-0,042
7,415	1,163	-0,287	-0,146
8,429	145,002	-0,279	-0,265
9,444	-54,357	-0,363	-0,116
10,459	96,948	-0,235	-0,191
11,473	41,889	-0,232	-0,149
12,488	154,974	-0,157	-0,153
13,502	-4,650	-0,232	-0,113
14,517	22,474	-0,283	-0,164
15,531	312,081	-0,302	-0,402
16,546	135,662	-0,366	-0,338
17,561	28,873	-0,355	-0,212
18,575	-93,324	-0,249	0,048
19,590	10,585	-0,153	-0,082
20,604	-85,546	-0,298	-0,065
21,619	147,621	-0,365	-0,348
22,634	36,277	-0,419	-0,260
23,648	31,027	-0,436	-0,264
24,663	131,133	-0,390	-0,355
25,677	21,616	-0,304	-0,174
26,692	10,035	-0,331	-0,177
27,707	-35,187	-0,435	-0,167
28,721	-54,592	-0,351	-0,112
29,736	47,830	-0,415	-0,273
30,750	54,315	-0,430	-0,292
31,765	81,197	-0,371	-0,283
32,780	-18,523	-0,344	-0,151
33,794	11,125	-0,349	-0,188
34,809	56,543	-0,407	-0,279
35,823	183,666	-0,334	-0,349
36,838	116,822	-0,340	-0,295
37,853	72,398	-0,402	-0,296
38,867	106,733	-0,426	-0,357
39,882	-5,304	-0,432	-0,209
40,896	54,442	-0,336	-0,228
41,911	109,805	-0,182	-0,154
42,926	-21,170	-0,346	-0,149
43,940	3,674	-0,267	-0,137
44,955	54,778	-0,353	-0,240
45,969	210,663	-0,299	-0,332
46,984	76,630	-0,329	-0,246
47,999	-6,962	-0,375	-0,179
49,013	-12,096	-0,410	-0,189
50,028	-12,213	-0,366	-0,168
51,042	39,901	-0,476	-0,301
52,057	42,370	-0,401	-0,257
53,071	112,104	-0,246	-0,210
54,086	55,981	-0,186	-0,127
55,101	157,957	-0,221	-0,216
56,115	185,529	-0,282	-0,295
57,130	168,173	-0,303	-0,305
58,144	46,373	-0,493	-0,322
59,159	110,685	-0,343	-0,291
60,174	98,491	-0,308	-0,250
61,188	19,618	-0,417	-0,236
62,203	0,534	-0,269	-0,135
63,217	104,939	-0,318	-0,264
64,232	10,536	-0,284	-0,152
65,247	7,995	-0,257	-0,135
66,261	13,519	-0,442	-0,241
67,276	221,599	-0,284	-0,323
68,290	331,971	-0,226	-0,308
69,305	17,585	-0,236	-0,132
70,320	139,333	-0,191	-0,177
71,334	57,123	-0,371	-0,254
72,349	108,017	-0,231	-0,194
73,363	-44,578	-0,345	-0,121
74,378	42,015	-0,375	-0,239
75,393	62,259	-0,263	-0,185
76,407	-32,985	-0,372	-0,145
77,422	75,351	-0,264	-0,196
78,436	-17,172	-0,361	-0,160
79,451	42,694	-0,387	-0,247
80,466	73,673	-0,318	-0,234
81,480	7,847	-0,343	-0,180
82,495	30,285	-0,295	-0,177
83,509	158,073	-0,177	-0,173
84,524	-29,204	-0,320	-0,129
85,539	105,957	-0,267	-0,222
86,553	214,880	-0,216	-0,241
87,568	308,835	-0,262	-0,345
88,582	38,548	-0,316	-0,198
89,597	304,939	-0,253	-0,331
90,611	104,004	-0,173	-0,143
91,626	80,445	-0,340	-0,257
92,641	432,338	-0,160	-0,245
93,655	85,628	-0,281	-0,217
94,670	47,935	-0,289	-0,189
95,684	91,825	-0,256	-0,202
96,699	70,695	-0,298	-0,217
97,714	17,783	-0,234	-0,130
98,728	-47,217	-0,412	-0,140
99,743	-1,358	-0,280	-0,138
100,757	-29,166	-0,367	-0,147
101,772	272,214	-0,205	-0,255
102,787	219,423	-0,249	-0,281
103,801	152,546	-0,182	-0,175
104,816	123,758	-0,251	-0,221
105,830	202,942	-0,172	-0,187
106,845	80,682	-0,195	-0,148
107,860	10,566	-0,236	-0,126
108,874	82,084	-0,283	-0,216
109,889	-16,652	-0,346	-0,153
110,903	-32,240	-0,252	-0,098
111,918	19,678	-0,373	-0,210
112,933	800,000	-0,035	-0,081
113,947	-31,286	-0,296	-0,116
114,962	-137,871	-0,327	-0,025
115,976	-12,433	-0,416	-0,190
116,991	36,978	-0,319	-0,198
118,006	515,926	-0,192	-0,315
119,020	151,017	-0,266	-0,254
120,035	167,649	-0,270	-0,269
121,049	237,988	-0,202	-0,235
122,064	69,165	-0,115	-0,083
123,079	205,054	-0,159	-0,173
124,093	-16,231	-0,292	-0,130
125,108	-100,280	-0,329	-0,057
126,122	120,876	-0,321	-0,280
127,137	63,600	-0,188	-0,132
128,151	-30,768	-0,286	-0,113
129,166	-53,373	-0,226	-0,072
130,181	0,931	-0,261	-0,131
131,195	155,632	-0,240	-0,232
132,210	31,740	-0,356	-0,214
133,224	-50,423	-0,196	-0,065
134,239	90,292	-0,226	-0,177
135,254	-40,549	-0,208	-0,075
136,268	-67,430	-0,348	-0,095
137,283	222,986	-0,148	-0,168
138,297	17,657	-0,305	-0,170
139,312	107,930	-0,145	-0,121
140,327	529,126	-0,189	-0,314
141,341	227,804	-0,182	-0,207
142,356	293,738	-0,159	-0,204
143,370	-71,872	-0,142	-0,037
144,385	61,505	-0,178	-0,124
145,400	99,487	-0,277	-0,224
146,414	218,829	-0,172	-0,193
147,429	114,067	-0,336	-0,286
148,443	-12,641	-0,185	-0,084
149,458	-192,216	-0,185	0,001
150,473	14,805	-0,226	-0,123
151,487	82,676	-0,140	-0,106
152,502	56,841	-0,293	-0,199
153,516	-24,794	-0,208	-0,086
154,531	-5,511	-0,278	-0,133
155,546	-89,932	-0,300	-0,061
156,560	-45,044	-0,177	-0,061
157,575	447,763	-0,172	-0,265
158,589	-6,639	-0,224	-0,106
159,604	-46,918	-0,415	-0,141
160,619	59,112	-0,277	-0,190
161,633	-46,963	-0,409	-0,139
162,648	143,261	-0,188	-0,175
163,662	151,343	-0,209	-0,199
164,677	321,524	-0,144	-0,192
165,692	-35,835	-0,224	-0,084
166,706	229,390	-0,212	-0,242
167,721	-65,651	-0,290	-0,081
168,735	119,925	-0,252	-0,218
169,750	108,054	-0,125	-0,104
170,764	-104,524	-0,241	0,038
171,779	29,927	-0,242	0,144
172,794	25,034	-0,281	-0,162
173,808	71,195	-0,227	-0,164
174,823	56,403	-0,217	-0,147
175,837	176,226	-0,281	-0,285
176,852	-119,191	-0,259	-0,031
177,867	45,667	-0,284	-0,183
178,881	94,045	-0,193	-0,153
179,896	145,725	-0,116	-0,109
180,910	80,017	-0,299	-0,224
181,925	-94,098	-0,270	-0,051
182,940	28,154	-0,244	-0,143
183,954	187,414	-0,258	-0,269
184,969	23,206	-0,193	-0,110
185,983	21,582	-0,196	-0,111
186,998	-53,022	-0,238	-0,076
188,013	41,556	-0,129	-0,081
189,027	-68,705	-0,312	-0,084
190,042	-53,039	-0,285	-0,091
191,056	416,786	-0,216	-0,323
192,071	141,956	-0,186	-0,172
193,086	78,265	-0,247	-0,183
194,100	800,000	-0,103	-0,214
195,115	-124,291	-0,155	-0,017
196,129	-10,462	-0,203	-0,093
197,144	86,733	-0,329	-0,252
198,159	-93,689	-0,226	-0,043
199,173	329,029	-0,170	-0,228
200,188	62,369	-0,234	-0,163
201,202	326,394	-0,113	-0,151
202,217	-87,229	-0,206	0,043
203,232	-19,551	-0,208	-0,089
204,246	-13,343	-0,267	-0,120
205,261	272,560	-0,239	-0,294
206,275	213,264	-0,168	-0,185
207,290	126,139	-0,230	-0,202
208,304	-37,347	-0,160	-0,059
209,319	-37,981	-0,263	-0,097
210,334	74,855	-0,256	-0,187
211,348	359,207	-0,123	-0,172
212,363	146,527	-0,162	-0,151
213,377	279,190	-0,166	-0,206
214,392	-15,259	-0,160	-0,071
215,407	140,095	-0,157	-0,144
216,421	87,617	-0,133	-0,102
217,436	-15,443	-0,228	-0,101
218,450	187,244	-0,180	-0,187
219,465	148,460	-0,231	-0,217
220,480	104,598	-0,137	-0,112
221,494	-200,000	-0,023	-0,154
222,509	67,800	-0,185	-0,132
223,523	-2,593	-0,193	-0,094
224,538	615,260	-0,118	-0,207
225,553	-31,772	-0,320	-0,124
226,567	137,428	-0,239	-0,218
227,582	379,969	-0,110	-0,157
228,596	92,972	-0,177	-0,139
229,611	-141,392	-0,218	0,015
230,626	75,101	-0,060	-0,044
231,640	259,489	-0,129	-0,155
232,655	60,642	-0,251	-0,172
233,669	110,975	-0,180	-0,151
234,684	-47,094	-0,334	-0,113
235,699	800,000	-0,104	-0,312
236,713	-136,509	-0,148	-0,012
237,728	-93,295	-0,160	-0,031
238,742	-10,641	-0,185	-0,085
239,757	16,430	-0,163	-0,089
240,772	243,130	-0,157	-0,183
241,786	56,614	-0,215	-0,145
242,801	-110,499	-0,120	0,017
243,815	-118,580	-0,194	-0,024
244,830	-155,025	-0,147	-0,007
245,844	190,565	-0,235	-0,246
246,859	664,566	-0,177	-0,318
247,874	-58,702	-0,258	-0,077
248,888	237,897	-0,206	-0,238
249,903	61,744	-0,233	-0,161
250,917	42,818	0,007	-0,004
251,932	37,434	-0,248	-0,152
252,947	45,525	-0,100	-0,064
253,961	-61,731	-0,239	-0,069
254,976	58,220	-0,219	-0,148
255,990	-40,218	-0,208	-0,075
257,005	458,402	-0,148	-0,229
258,020	89,420	-0,142	-0,109
259,034	-92,562	-0,156	0,030
260,049	-1,238	-0,141	-0,069
261,063	160,617	-0,167	-0,161
262,078	198,104	-0,158	-0,168
263,093	-105,644	-0,211	0,033
264,107	115,121	-0,116	-0,098
265,122	-171,295	-0,242	-0,005
266,136	-174,300	-0,100	0,002
267,151	166,931	-0,148	-0,146
268,166	61,700	-0,237	-0,163
269,180	133,179	-0,230	-0,206
270,195	113,701	-0,298	-0,251
271,209	221,922	-0,152	-0,170
272,224	800,000	-0,144	-0,281
273,239	660,540	-0,049	-0,088
274,253	49,998	-0,139	-0,091
275,268	-116,203	-0,212	-0,027
276,282	93,947	-0,147	-0,115
277,297	277,853	-0,150	-0,185
278,312	800,000	-0,016	-0,039
279,326	-86,928	-0,103	-0,022
280,341	-38,276	-0,190	-0,069
281,355	-63,341	-0,167	-0,047
282,370	-200,000	0,003	-0,224
283,384	91,440	-0,223	-0,173
284,399	63,607	-0,240	-0,166
285,414	-73,833	-0,087	0,022
286,428	117,850	0,095	-0,081
287,443	-117,762	-0,133	0,016
288,457	47,593	-0,206	-0,133
289,472	-200,000	-0,041	-0,210
290,487	-158,514	-0,159	-0,006
291,501	-139,948	-0,218	0,016
292,516	202,411	-0,238	-0,254
293,530	-37,583	-0,170	-0,062
294,545	149,250	-0,095	0,089
295,560	189,484	-0,083	-0,086
296,574	435,069	-0,087	-0,131
297,589	-200,000	-0,180	-0,000
298,603	-139,860	-0,195	-0,014
299,618	-15,069	-0,247	-0,109
300,633	49,777	-0,128	-0,083
301,647	147,180	-0,047	-0,044
302,662	152,955	-0,154	-0,146
303,676	220,335	-0,098	-0,109
304,691	-200,000	-0,044	-0,147
305,706	-5,798	-0,117	-0,055
306,720	-200,000	-0,021	-0,083
307,735	40,366	-0,140	-0,087
308,749	-106,209	-0,183	-0,028
309,764	259,191	-0,049	-0,058
310,779	95,209	-0,086	-0,067
311,793	-92,281	-0,269	-0,052
312,808	249,002	-0,181	-0,212
313,822	800,000	-0,108	-0,247
314,837	89,145	-0,117	-0,090
315,852	75,298	-0,211	-0,153
316,866	-60,972	-0,186	-0,054
317,881	-172,117	-0,130	0,003
318,895	-200,000	-0,049	-0,181
319,910	-200,000	-0,038	-0,159
320,925	2,727	-0,166	-0,083
321,939	-140,428	-0,180	-0,013
322,954	163,608	-0,179	-0,173
323,968	-188,807	-0,157	-0,001
324,983	61,361	-0,118	-0,081
325,997	143,292	-0,191	-0,175
327,012	51,549	-0,149	-0,097
328,027	10,255	-0,208	-0,109
329,041	29,023	-0,141	-0,082
330,056	-42,973	-0,169	-0,059
331,070	-128,147	-0,138	0,013
332,085	-200,000	0,000	0,074
333,100	72,174	-0,043	-0,031
334,114	-57,665	-0,179	-0,054
335,129	-200,000	-0,029	-0,270
336,143	81,371	-0,070	-0,052
337,158	-167,255	-0,150	-0,004
338,173	-126,499	-0,222	0,022
339,187	-80,226	-0,166	-0,038
340,202	-100,154	-0,151	-0,026
341,216	594,831	-0,107	-0,182
342,231	170,926	-0,246	-0,243
343,246	40,475	-0,176	-0,109
344,260	166,907	-0,139	-0,136
345,275	-34,672	-0,178	-0,066
346,289	-22,908	-0,150	-0,062
347,304	163,080	-0,075	-0,073
348,319	-61,984	-0,062	-0,018
349,333	-42,623	-0,139	-0,048
350,348	499,774	-0,080	-0,128
351,362	-97,094	-0,132	0,023
352,377	47,002	-0,163	-0,104
353,392	177,638	-0,168	-0,168
354,406	-168,096	-0,182	0,005
355,421	209,191	1314,925	1416,589
356,435	160,995	1475,718	1417,132
