DTS Sentinel unit serial number:	SN410029Multiplexer serial number:	ORYXHardware model number:	OX2-SRSoftware version number:	ORYX F/W v4,00 Oryx Data Collector v3.7.2.0data status	okinstallation	B3 Nyhavnadifferential loss correction	single-endedforward channel	channel 1reverse channel	N/Adate	2023/12/05time	05:47:30forward acquisition time	300,00reverse acquisition time	0,00gamma	499,1914k internal	0,3201k external	0,3201temperature offset calibration	1,0000default loss term (dB/km)	0,3820temperature slope calibration	1,0000multiplexer offset coefficient	1,0000multiplexer slope coefficient	1,0000fibre end	0,00T internal ref (°C)	14,00T ext. ref 1 (°C)	-0,99T ext. ref 2 (°C)	-1,03length (m)	temperature (°C)	Stokes	anti-Stokes-744,400	165,359	-0,287	-0,295
-743,385	-200,000	0,020	0,274
-742,371	-73,729	-0,249	-0,065
-741,356	-200,000	0,095	0,436
-740,342	-42,171	-0,207	-0,077
-739,327	-200,000	0,018	0,279
-738,312	800,000	-0,157	-0,340
-737,298	800,000	-0,092	0,187
-736,283	20,081	-0,248	-0,145
-735,269	800,000	0,113	0,314
-734,254	38,384	-0,204	-0,132
-733,239	155,513	-0,184	0,185
-732,225	-200,000	-0,057	-0,244
-731,210	-53,282	0,248	-0,082
-730,196	-25,707	0,059	-0,025
-729,181	-134,984	-0,148	-0,013
-728,167	-200,000	-0,020	-0,097
-727,152	-200,000	-0,003	-0,046
-726,137	59,061	-0,086	-0,061
-725,123	57,858	-0,069	-0,049
-724,108	636,564	-0,115	-0,213
-723,094	-62,762	-0,105	0,031
-722,079	44,680	-0,031	0,020
-721,064	379,998	-0,081	-0,121
-720,050	-200,000	0,006	-0,024
-719,035	-169,865	-0,101	-0,003
-718,021	50,062	-0,115	-0,078
-717,006	-200,000	0,016	-0,100
-715,991	-113,432	-0,104	0,015
-714,977	-182,758	0,052	0,001
-713,962	340,238	-0,011	0,016
-712,948	-45,845	0,109	-0,039
-711,933	69,596	0,069	0,052
-710,918	193,278	0,022	0,024
-709,904	800,000	-0,070	-0,183
-708,889	-167,482	-0,052	-0,001
-707,875	-200,000	0,024	-0,152
-706,860	-200,000	-0,014	-0,220
-705,845	-200,000	0,003	-0,047
-704,831	800,000	0,009	-0,023
-703,816	-200,000	-0,017	0,086
-702,802	105,157	0,011	-0,009
-701,787	41,281	0,107	-0,070
-700,772	68,093	-0,101	-0,075
-699,758	-146,599	-0,179	0,011
-698,743	-200,000	0,000	-0,106
-697,729	84,089	-0,098	-0,077
-696,714	-200,000	-0,027	0,124
-695,699	-200,000	-0,005	0,026
-694,685	800,000	-0,020	-0,057
-693,670	-102,057	-0,058	-0,010
-692,656	-200,000	0,028	-0,090
-691,641	262,401	0,061	-0,078
-690,627	9,516	0,062	0,034
-689,612	-189,615	-0,098	-0,001
-688,597	800,000	0,011	0,025
-687,583	-200,000	0,000	-0,019
-686,568	-75,076	-0,010	0,003
-685,554	152,471	-0,070	-0,069
-684,539	340,119	-0,016	0,023
-683,524	-200,000	0,008	0,115
-682,510	-45,905	-0,051	-0,018
-681,495	439,844	0,023	0,036
-680,481	-126,136	-0,059	0,006
-679,466	-64,254	0,070	-0,021
-678,451	-13,681	0,091	0,043
-677,437	195,658	0,088	0,097
-676,422	503,830	0,038	0,063
-675,408	325,112	-0,032	0,045
-674,393	-22,850	0,073	0,032
-673,378	-5,155	-0,068	0,034
-672,364	89,843	-0,164	-0,132
-671,349	-200,000	0,016	-0,151
-670,335	-35,439	0,151	0,059
-669,320	-200,000	0,040	0,153
-668,305	-75,835	-0,117	-0,030
-667,291	194,701	-0,093	0,103
-666,276	-46,818	-0,152	-0,054
-665,262	-183,377	-0,111	0,001
-664,247	423,649	0,058	-0,091
-663,232	-42,329	0,105	0,039
-662,218	-200,000	-0,044	-0,176
-661,203	-200,000	0,003	0,135
-660,189	83,480	-0,144	0,113
-659,174	800,000	-0,048	-0,103
-658,159	92,189	-0,043	0,035
-657,145	-116,334	-0,078	-0,010
-656,130	81,943	-0,067	-0,052
-655,116	-200,000	0,003	-0,040
-654,101	-92,217	-0,116	-0,024
-653,086	93,679	-0,071	-0,058
-652,072	-200,000	0,000	0,140
-651,057	-74,390	-0,172	-0,045
-650,043	264,255	0,093	0,118
-649,028	-200,000	-0,001	-0,005
-648,014	-100,650	0,018	0,003
-646,999	-200,000	0,021	0,129
-645,984	800,000	-0,039	0,097
-644,970	-40,863	-0,071	-0,026
-643,955	-200,000	-0,013	-0,169
-642,941	174,355	0,029	-0,031
-641,926	-200,000	0,033	-0,108
-640,911	441,455	0,021	0,033
-639,897	-78,208	0,029	0,007
-638,882	150,768	-0,096	0,094
-637,868	115,005	-0,057	0,050
-636,853	7,049	-0,030	0,016
-635,838	-200,000	0,032	-0,123
-634,824	800,000	0,047	-0,117
-633,809	-33,123	0,101	0,040
-632,795	800,000	0,026	0,058
-631,780	294,594	0,042	0,056
-630,765	567,553	-0,016	-0,028
-629,751	-31,827	0,071	0,029
-628,736	-200,000	-0,003	-0,077
-627,722	-200,000	-0,013	-0,059
-626,707	-200,000	-0,015	0,119
-625,692	-200,000	0,005	-0,090
-624,678	-102,547	-0,211	0,036
-623,663	-122,680	-0,091	-0,011
-622,649	295,489	-0,154	-0,204
-621,634	169,341	-0,024	-0,025
-620,619	513,130	-0,069	0,116
-619,605	-200,000	0,023	-0,109
-618,590	80,409	-0,078	0,061
-617,576	133,178	-0,169	0,158
-616,561	-200,000	-0,012	-0,065
-615,546	-23,071	-0,064	0,028
-614,532	-200,000	-0,027	-0,122
-613,517	800,000	-0,024	-0,061
-612,503	800,000	0,015	-0,031
-611,488	-200,000	-0,018	-0,213
-610,474	88,867	0,057	0,046
-609,459	-72,131	-0,030	0,008
-608,444	-71,591	0,088	0,024
-607,430	225,007	-0,036	-0,042
-606,415	-25,550	-0,140	0,060
-605,401	-18,477	0,036	-0,016
-604,386	-156,575	0,160	-0,007
-603,371	-94,816	-0,035	0,007
-602,357	-72,158	0,100	0,027
-601,342	32,844	-0,008	-0,005
-600,328	-0,001	-0,151	-0,078
-599,313	-42,462	-0,035	-0,013
-598,298	-45,034	-0,021	0,007
-597,284	-200,000	-0,032	0,134
-596,269	800,000	-0,029	-0,075
-595,255	108,876	-0,019	-0,017
-594,240	-200,000	0,022	0,152
-593,225	-200,000	0,011	0,065
-592,211	800,000	-0,040	-0,108
-591,196	3,141	0,089	-0,046
-590,182	-200,000	-0,015	0,077
-589,167	471,036	-0,025	-0,041
-588,152	-106,489	0,122	0,020
-587,138	38,515	0,054	0,035
-586,123	800,000	-0,030	0,090
-585,109	45,095	0,096	-0,064
-584,094	-200,000	0,004	0,078
-583,079	276,400	-0,042	-0,055
-582,065	231,367	0,062	-0,074
-581,050	226,023	-0,128	0,150
-580,036	-148,531	-0,159	0,009
-579,021	3,357	-0,132	0,069
-578,006	-7,610	-0,062	-0,030
-576,992	-200,000	0,002	0,009
-575,977	37,203	0,087	-0,056
-574,963	-46,493	0,115	0,041
-573,948	-75,112	0,084	-0,021
-572,934	-200,000	0,002	0,073
-571,919	-200,000	-0,001	-0,169
-570,904	379,699	-0,020	-0,030
-569,890	127,306	-0,046	-0,042
-568,875	-2,321	-0,049	-0,025
-567,861	800,000	0,044	0,092
-566,846	-200,000	0,004	0,076
-565,831	174,341	0,029	-0,030
-564,817	-47,997	-0,037	-0,013
-563,802	-65,864	-0,088	0,025
-562,788	2,286	-0,051	-0,027
-561,773	-200,000	-0,039	0,157
-560,758	-200,000	-0,017	-0,079
-559,744	632,386	0,064	-0,119
-558,729	-200,000	-0,034	0,117
-557,715	-10,274	0,026	0,012
-556,700	-81,826	-0,123	0,029
-555,685	214,914	0,072	0,082
-554,671	800,000	0,008	0,024
-553,656	-175,005	0,168	0,003
-552,642	-123,394	0,088	0,010
-551,627	-200,000	-0,005	0,071
-550,612	-200,000	0,026	-0,122
-549,598	73,077	-0,031	0,023
-548,583	-200,000	0,018	0,123
-547,569	-200,000	-0,010	-0,038
-546,554	-166,649	0,018	-0,001
-545,539	526,088	0,068	0,117
-544,525	-200,000	-0,016	0,083
-543,510	620,944	0,091	-0,165
-542,496	-68,433	-0,089	-0,025
-541,481	-200,000	0,018	-0,133
-540,466	-200,000	-0,032	-0,151
-539,452	249,211	0,048	0,058
-538,437	-137,042	0,252	0,021
-537,423	-69,326	0,025	-0,007
-536,408	-16,816	-0,125	-0,057
-535,393	231,187	-0,080	-0,095
-534,379	800,000	0,052	-0,155
-533,364	-94,743	-0,135	-0,026
-532,350	-60,605	0,102	0,031
-531,335	-153,283	0,023	-0,001
-530,321	-191,139	0,071	-0,001
-529,306	-93,469	-0,183	0,036
-528,291	34,358	-0,135	0,085
-527,277	559,258	-0,028	-0,049
-526,262	5,829	-0,056	0,030
-525,248	132,267	-0,074	-0,069
-524,233	-200,000	0,007	0,049
-523,218	425,771	0,076	-0,119
-522,204	-121,929	0,097	0,011
-521,189	-200,000	-0,015	-0,052
-520,175	55,450	-0,030	-0,021
-519,160	-200,000	-0,013	0,078
-518,145	-200,000	0,050	-0,188
-517,131	-200,000	0,001	-0,024
-516,116	-132,648	0,093	0,008
-515,102	35,180	0,089	-0,056
-514,087	-60,848	-0,068	0,021
-513,072	800,000	0,027	-0,064
-512,058	72,308	-0,088	-0,066
-511,043	800,000	-0,050	-0,145
-510,029	-44,504	0,066	-0,024
-509,014	88,276	0,112	0,089
-507,999	87,044	0,097	0,077
-506,985	-200,000	-0,035	-0,118
-505,970	510,903	-0,068	0,114
-504,956	305,644	-0,085	-0,114
-503,941	173,737	-0,073	-0,076
-502,926	149,454	-0,074	0,072
-501,912	-81,425	-0,117	0,028
-500,897	378,610	0,067	-0,099
-499,883	74,968	-0,094	0,071
-498,868	-116,983	-0,109	0,014
-497,853	-200,000	-0,005	-0,147
-496,839	68,931	-0,075	-0,055
-495,824	139,732	0,115	0,109
-494,810	-200,000	-0,007	0,189
-493,795	800,000	-0,064	-0,135
-492,781	-200,000	0,003	0,033
-491,766	-101,310	0,124	0,022
-490,751	800,000	-0,020	0,058
-489,737	331,164	0,037	-0,052
-488,722	-200,000	0,018	0,089
-487,708	571,535	0,043	0,076
-486,693	-200,000	-0,011	0,071
-485,678	27,393	0,106	0,064
-484,664	-200,000	0,009	-0,044
-483,649	-82,121	-0,072	0,017
-482,635	290,968	-0,026	0,034
-481,620	100,286	0,048	0,040
-480,605	-200,000	-0,002	-0,077
-479,591	471,542	0,035	0,058
-478,576	800,000	-0,022	0,049
-477,562	-200,000	0,002	-0,102
-476,547	-6,169	0,046	-0,023
-475,532	527,858	-0,049	0,084
-474,518	258,674	0,050	-0,062
-473,503	-200,000	0,020	0,079
-472,489	7,167	0,158	0,085
-471,474	67,892	0,067	-0,049
-470,459	-154,016	-0,079	-0,004
-469,445	306,608	-0,121	-0,163
-468,430	358,375	0,062	-0,089
-467,416	-200,000	0,011	-0,036
-466,401	-168,193	-0,192	0,005
-465,386	-150,201	-0,119	0,007
-464,372	364,489	-0,027	0,039
-463,357	285,927	-0,019	0,025
-462,343	23,401	-0,125	-0,074
-461,328	-200,000	-0,009	0,045
-460,313	344,916	0,035	0,050
-459,299	-81,210	0,074	0,017
-458,284	-200,000	-0,016	0,081
-457,270	215,273	-0,018	0,020
-456,255	30,917	-0,032	0,020
-455,241	-200,000	0,038	0,120
-454,226	200,336	-0,046	0,050
-453,211	800,000	0,005	-0,013
-452,197	419,304	0,069	0,107
-451,182	147,442	0,135	0,130
-450,168	-200,000	0,004	0,014
-449,153	94,640	-0,082	0,067
-448,138	-200,000	-0,015	-0,086
-447,124	-100,786	-0,084	-0,015
-446,109	-11,129	0,011	-0,005
-445,095	-200,000	0,021	0,167
-444,080	-94,809	0,095	0,018
-443,065	367,574	0,076	-0,110
-442,051	-25,885	0,075	0,032
-441,036	-146,028	0,085	0,005
-440,022	-200,000	-0,002	-0,200
-439,007	-29,736	-0,044	0,018
-437,992	-68,441	0,028	0,008
-436,978	-37,352	-0,062	-0,024
-435,963	-178,518	0,076	-0,001
-434,949	-3,603	0,118	0,059
-433,934	375,224	0,039	0,058
-432,919	197,612	-0,050	0,055
-431,905	-200,000	0,001	-0,106
-430,890	53,568	0,067	0,046
-429,876	45,209	0,085	0,056
-428,861	179,484	-0,049	0,052
-427,846	-31,105	-0,244	0,098
-426,832	-200,000	0,014	-0,073
-425,817	-200,000	-0,024	0,113
-424,803	613,519	0,066	-0,120
-423,788	-5,724	0,145	-0,071
-422,773	368,237	-0,042	-0,061
-421,759	-200,000	0,020	0,156
-420,744	-36,286	-0,079	-0,030
-419,730	-33,271	-0,045	-0,018
-418,715	-200,000	-0,043	-0,139
-417,701	6,612	-0,132	-0,070
-416,686	318,271	0,109	-0,148
-415,671	-20,944	0,053	0,023
-414,657	-200,000	0,044	0,141
-413,642	-200,000	0,009	0,096
-412,628	134,035	-0,030	-0,028
-411,613	317,301	-0,032	0,044
-410,598	-200,000	0,001	-0,010
-409,584	-112,180	0,052	0,007
-408,569	-200,000	-0,012	0,039
-407,555	73,172	0,063	0,047
-406,540	102,399	0,041	0,034
-405,525	345,860	0,014	0,019
-404,511	-200,000	-0,011	-0,111
-403,496	-200,000	0,014	-0,065
-402,482	-200,000	0,023	-0,091
-401,467	441,969	-0,045	-0,070
-400,452	-50,909	0,026	-0,009
-399,438	800,000	0,026	-0,077
-398,423	103,762	-0,037	-0,031
-397,409	-102,673	-0,181	-0,031
-396,394	800,000	-0,012	-0,024
-395,379	800,000	0,023	-0,058
-394,365	-200,000	-0,001	0,017
-393,350	24,270	0,109	0,064
-392,336	118,211	0,039	-0,034
-391,321	-85,986	0,018	-0,004
-390,306	800,000	0,010	0,026
-389,292	-77,378	-0,053	0,013
-388,277	-200,000	-0,011	-0,038
-387,263	94,433	0,038	0,031
-386,248	-18,670	0,119	-0,053
-385,233	-200,000	0,003	0,058
-384,219	-200,000	-0,017	0,065
-383,204	64,437	0,081	-0,058
-382,190	-200,000	0,001	0,027
-381,175	-95,889	-0,115	-0,022
-380,160	53,005	0,038	0,026
-379,146	-200,000	-0,010	0,158
-378,131	418,967	0,075	0,116
-377,117	-112,542	-0,036	-0,005
-376,102	800,000	-0,059	0,146
-375,088	137,544	-0,057	0,053
-374,073	45,429	0,139	-0,092
-373,058	78,373	0,032	-0,024
-372,044	-148,743	0,106	0,006
-371,029	-200,000	-0,000	-0,047
-370,015	-200,000	-0,012	0,047
-369,000	228,026	-0,141	0,165
-367,985	-29,383	-0,036	0,015
-366,971	159,907	0,143	-0,143
-365,956	508,871	-0,046	-0,077
-364,942	150,391	0,032	-0,032
-363,927	-200,000	-0,014	0,107
-362,912	-23,714	-0,047	0,020
-361,898	800,000	-0,016	-0,033
-360,883	113,834	-0,141	0,123
-359,869	-6,016	0,038	-0,019
-358,854	-90,792	0,058	0,012
-357,839	129,698	-0,045	0,041
-356,825	-98,800	0,133	-0,024
-355,810	-112,405	0,033	0,005
-354,796	-79,906	-0,074	-0,018
-353,781	-200,000	-0,002	-0,120
-352,766	-186,449	0,083	0,001
-351,752	137,115	0,061	0,057
-350,737	800,000	0,047	-0,141
-349,723	-200,000	-0,001	0,033
-348,708	625,799	0,012	-0,022
-347,693	-147,938	0,107	0,006
-346,679	218,582	-0,035	-0,040
-345,664	-64,134	-0,121	-0,035
-344,650	-42,594	0,022	0,008
-343,635	-200,000	-0,000	0,077
-342,620	-80,851	0,064	0,015
-341,606	-0,521	0,062	-0,032
-340,591	-20,479	0,136	-0,060
-339,577	-131,533	0,057	-0,005
-338,562	-45,820	-0,193	-0,068
-337,548	-200,000	0,013	-0,055
-336,533	-85,620	-0,018	-0,004
-335,518	106,727	0,071	0,061
-334,504	-200,000	0,069	0,221
-333,489	800,000	-0,014	0,040
-332,475	-9,561	0,037	-0,017
-331,460	-32,368	-0,061	0,024
-330,445	800,000	-0,068	0,140
-329,431	174,502	0,041	-0,043
-328,416	-200,000	0,002	0,047
-327,402	68,735	0,046	-0,034
-326,387	10,296	-0,065	0,035
-325,372	-200,000	0,003	0,045
-324,358	-200,000	-0,049	-0,189
-323,343	210,439	-0,048	0,054
-322,329	-50,551	0,164	0,055
-321,314	763,290	0,029	-0,057
-320,299	-200,000	0,033	-0,115
-319,285	800,000	-0,013	-0,027
-318,270	-200,000	-0,024	0,083
-317,256	132,603	0,062	-0,057
-316,241	-18,682	0,030	-0,014
-315,226	-110,599	0,096	-0,014
-314,212	284,208	0,068	0,088
-313,197	59,744	0,134	0,095
-312,183	120,137	-0,023	-0,021
-311,168	377,918	-0,048	-0,071
-310,153	-115,674	-0,136	-0,018
-309,139	-200,000	0,006	-0,041
-308,124	-61,670	0,060	0,018
-307,110	103,772	0,121	-0,102
-306,095	270,848	0,100	-0,126
-305,080	-21,517	-0,031	0,013
-304,066	-8,554	0,094	-0,045
-303,051	-200,000	-0,025	-0,145
-302,037	243,621	-0,011	0,013
-301,022	233,831	0,077	0,091
-300,008	-200,000	0,037	0,136
-298,993	-200,000	0,004	0,064
-297,978	368,345	0,126	0,183
-296,964	40,057	-0,119	0,076
-295,949	122,793	0,080	-0,071
-294,935	-113,070	-0,129	0,018
-293,920	-200,000	0,007	-0,170
-292,905	70,131	0,108	-0,080
-291,891	800,000	0,069	0,179
-290,876	551,180	-0,057	0,099
-289,862	-82,724	-0,053	0,012
-288,847	-200,000	-0,041	-0,141
-287,832	-200,000	-0,005	-0,041
-286,818	119,276	0,024	0,021
-285,803	-200,000	0,000	0,142
-284,789	147,956	0,021	-0,021
-283,774	374,421	-0,071	0,104
-282,759	-20,551	-0,056	-0,025
-281,745	-77,064	0,029	-0,007
-280,730	157,244	-0,125	0,123
-279,716	36,076	-0,011	-0,007
-278,701	603,152	0,055	0,098
-277,686	23,952	-0,068	0,040
-276,672	258,158	-0,133	0,163
-275,657	42,001	0,037	-0,024
-274,643	-18,387	-0,106	0,047
-273,628	-200,000	-0,011	-0,110
-272,613	-78,292	-0,133	-0,032
-271,599	453,713	0,021	-0,034
-270,584	-200,000	0,013	0,064
-269,570	243,352	-0,070	0,084
-268,555	800,000	0,049	0,122
-267,540	71,465	0,081	-0,060
-266,526	-129,334	-0,128	0,013
-265,511	-115,128	-0,165	0,022
-264,497	-66,246	0,070	-0,020
-263,482	-23,385	0,056	0,024
-262,467	-118,820	0,033	0,004
-261,453	-200,000	0,030	0,123
-260,438	-14,000	-0,019	0,009
-259,424	800,000	0,062	-0,165
-258,409	-87,820	0,046	0,010
-257,395	216,372	-0,031	-0,035
-256,380	85,806	-0,080	0,063
-255,365	-136,414	0,051	0,004
-254,351	-200,000	0,001	-0,105
-253,336	-63,951	0,080	0,023
-252,322	325,487	-0,067	-0,091
-251,307	-56,953	-0,058	0,018
-250,292	-200,000	0,003	0,022
-249,278	383,007	-0,063	-0,092
-248,263	21,836	0,079	-0,046
-247,249	125,375	0,029	-0,026
-246,234	188,121	-0,158	0,168
-245,219	94,171	0,026	0,021
-244,205	609,432	-0,079	-0,142
-243,190	-200,000	-0,009	-0,060
-242,176	-8,885	0,122	0,058
-241,161	-9,279	0,114	0,054
-240,146	800,000	0,026	0,066
-239,132	-200,000	0,038	-0,122
-238,117	308,202	-0,088	-0,118
-237,103	-129,959	0,119	-0,011
-236,088	-200,000	0,001	-0,035
-235,073	-200,000	0,012	0,148
-234,059	-200,000	0,011	0,076
-233,044	238,537	-0,070	0,084
-232,030	561,370	0,064	-0,110
-231,015	-200,000	-0,036	-0,125
-230,000	-200,000	0,004	-0,028
-228,986	135,297	-0,045	-0,042
-227,971	165,866	-0,081	0,081
-226,957	-83,522	0,087	-0,020
-225,942	-170,533	0,115	-0,003
-224,927	800,000	-0,032	-0,072
-223,913	-93,705	-0,161	-0,031
-222,898	-131,990	0,090	-0,008
-221,884	-200,000	0,002	-0,048
-220,869	173,004	0,060	0,061
-219,855	82,786	-0,049	0,038
-218,840	82,698	-0,069	0,053
-217,825	-200,000	-0,012	0,082
-216,811	800,000	0,059	-0,154
-215,796	800,000	0,004	-0,009
-214,782	-200,000	-0,012	0,233
-213,767	-200,000	0,006	0,058
-212,752	1,119	-0,042	0,022
-211,738	-93,387	0,046	-0,009
-210,723	375,607	0,050	0,072
-209,709	-200,000	0,009	-0,122
-208,694	-165,796	-0,078	0,002
-207,679	59,335	0,052	0,036
-206,665	660,006	0,068	-0,125
-205,650	-200,000	-0,005	0,051
-204,636	8,393	0,127	0,068
-203,621	264,443	-0,112	0,140
-202,606	617,770	-0,024	-0,043
-201,592	-152,054	0,210	0,011
-200,577	800,000	-0,045	0,099
-199,563	-86,874	-0,176	-0,038
-198,548	375,653	0,094	-0,138
-197,533	151,463	0,088	-0,085
-196,519	-112,681	0,082	0,012
-195,504	-119,917	-0,051	0,006
-194,490	6,078	0,049	-0,026
-193,475	-200,000	0,021	-0,111
-192,460	-132,165	-0,107	0,010
-191,446	341,776	0,017	0,024
-190,431	-117,737	-0,138	-0,017
-189,417	1,983	-0,051	-0,026
-188,402	-56,170	-0,144	0,045
-187,387	31,835	-0,074	-0,045
-186,373	800,000	-0,025	-0,062
-185,358	-200,000	-0,001	-0,178
-184,344	-200,000	-0,013	-0,071
-183,329	-200,000	-0,001	0,069
-182,315	-200,000	0,004	-0,023
-181,300	-200,000	0,002	0,107
-180,285	508,513	-0,017	-0,028
-179,271	-200,000	-0,043	-0,159
-178,256	-200,000	0,015	-0,118
-177,242	-102,600	0,164	0,028
-176,227	-131,787	-0,051	0,005
-175,212	800,000	0,022	0,064
-174,198	800,000	0,021	-0,047
-173,183	41,638	-0,059	-0,038
-172,169	-200,000	0,020	0,077
-171,154	-29,207	-0,097	-0,039
-170,139	42,915	-0,029	0,019
-169,125	-200,000	-0,033	0,138
-168,110	-42,546	0,046	-0,017
-167,096	-200,000	0,002	-0,027
-166,081	-200,000	-0,004	0,093
-165,066	36,221	0,061	-0,038
-164,052	-78,078	-0,124	-0,030
-163,037	-158,265	-0,106	-0,004
-162,023	652,941	0,050	0,092
-161,008	-32,097	0,055	0,022
-159,993	-104,031	0,110	-0,018
-158,979	800,000	-0,029	-0,064
-157,964	-64,199	-0,064	0,018
-156,950	43,351	0,087	-0,057
-155,935	139,774	-0,082	0,077
-154,920	16,897	0,109	0,061
-153,906	-200,000	0,003	-0,166
-152,891	-200,000	0,002	0,047
-151,877	-200,000	-0,027	-0,089
-150,862	-47,506	0,184	0,063
-149,847	191,248	-0,177	-0,190
-148,833	-200,000	-0,011	-0,038
-147,818	443,225	0,017	-0,027
-146,804	549,050	-0,057	0,098
-145,789	-200,000	0,013	0,134
-144,775	800,000	-0,013	0,033
-143,760	-200,000	0,017	0,085
-142,745	-87,822	0,080	0,017
-141,731	54,305	-0,045	0,031
-140,716	800,000	0,081	0,197
-139,702	800,000	-0,062	0,163
-138,687	-200,000	0,015	0,107
-137,672	-200,000	0,005	-0,060
-136,658	-200,000	0,021	-0,109
-135,643	800,000	-0,110	-0,217
-134,629	14,425	0,079	-0,043
-133,614	800,000	-0,041	-0,090
-132,599	-34,087	0,090	0,035
-131,585	20,375	0,054	0,031
-130,570	12,141	0,106	-0,058
-129,556	800,000	0,017	0,046
-128,541	-28,239	-0,182	-0,074
-127,526	118,092	0,076	0,066
-126,512	-200,000	-0,001	0,013
-125,497	-111,214	0,170	0,024
-124,483	-200,000	0,029	0,200
-123,468	-200,000	0,047	-0,159
-122,453	-200,000	0,001	0,028
-121,439	-78,345	-0,101	0,024
-120,424	-200,000	0,026	-0,133
-119,410	-200,000	0,006	0,061
-118,395	-41,717	0,101	0,037
-117,380	381,321	0,088	0,128
-116,366	36,481	0,077	0,048
-115,351	97,503	0,046	0,038
-114,337	16,330	-0,117	-0,065
-113,322	-108,535	-0,079	-0,012
-112,307	-200,000	0,022	0,121
-111,293	60,558	0,163	0,114
-110,278	-9,709	0,096	0,045
-109,264	-108,674	0,128	-0,019
-108,249	132,918	0,089	0,081
-107,234	-12,054	-0,155	-0,072
-106,220	-200,000	0,017	-0,076
-105,205	800,000	0,055	0,145
-104,191	-200,000	0,005	-0,031
-103,176	-172,468	-0,154	-0,003
-102,162	72,436	0,084	0,062
-101,147	52,542	-0,069	-0,047
-100,132	-59,929	-0,137	-0,041
-99,118	55,367	0,123	-0,084
-98,103	-79,040	-0,075	-0,018
-97,089	35,150	0,041	-0,025
-96,074	46,369	0,023	-0,015
-95,059	-200,000	-0,018	0,224
-94,045	-114,344	-0,088	0,012
-93,030	-34,869	-0,138	-0,053
-92,016	31,579	-0,104	-0,063
-91,001	-48,973	0,145	0,049
-89,986	316,378	-0,116	-0,156
-88,972	-84,972	0,091	0,020
-87,957	-200,000	0,002	-0,068
-86,943	800,000	0,025	-0,051
-85,928	800,000	-0,021	-0,065
-84,913	-200,000	0,021	-0,190
-83,899	147,813	0,088	0,084
-82,884	-166,424	-0,083	-0,002
-81,870	-200,000	-0,036	0,160
-80,855	800,000	-0,008	0,023
-79,840	-26,188	-0,072	-0,030
-78,826	800,000	0,031	-0,065
-77,811	17,066	-0,058	0,032
-76,797	3,554	0,109	-0,056
-75,782	-54,564	-0,108	0,034
-74,767	678,617	0,059	-0,109
-73,753	15,295	0,072	-0,040
-72,738	800,000	-0,024	0,049
-71,724	800,000	0,022	0,058
-70,709	102,117	-0,093	0,077
-69,694	-200,000	-0,005	-0,040
-68,680	-200,000	-0,019	0,096
-67,665	426,311	0,072	0,110
-66,651	224,636	-0,084	0,097
-65,636	-200,000	-0,001	0,003
-64,622	5,929	0,143	-0,075
-63,607	-92,007	-0,052	0,010
-62,592	-200,000	-0,000	-0,072
-61,578	41,604	0,093	0,060
-60,563	-2,651	-0,102	0,050
-59,549	555,616	-0,049	0,085
-58,534	-44,021	-1,515	-0,536
-57,519	445,001	-1,407	-2,195
-56,505	-200,000	-0,472	-4,587
-55,490	173,770	1,000	1,023
-54,476	800,000	5,004	11,480
-53,461	-200,000	18,924	307,975
-52,446	-200,000	737,690	2306,016
-51,432	570,704	1654,319	2861,982
-50,417	79,070	1670,746	1265,726
-49,403	21,951	1543,807	888,928
-48,388	15,856	1466,386	814,726
-47,373	17,751	1456,411	818,306
-46,359	16,843	1446,504	808,354
-45,344	14,159	1441,846	792,866
-44,330	14,020	1440,128	791,227
-43,315	14,035	1438,468	790,354
-42,300	14,079	1436,689	789,554
-41,286	14,114	1435,366	788,961
-40,271	14,073	1434,226	788,111
-39,257	14,032	1433,015	787,216
-38,242	14,101	1431,635	786,757
-37,227	14,080	1430,564	786,036
-36,213	14,139	1428,953	785,401
-35,198	14,133	1427,881	784,754
-34,184	14,107	1426,973	784,099
-33,169	14,030	1425,843	783,082
-32,154	14,100	1424,669	782,737
-31,140	14,152	1423,178	782,135
-30,125	14,148	1422,117	781,499
-29,111	14,136	1420,942	780,769
-28,096	14,089	1419,936	779,962
-27,082	14,036	1418,880	779,098
-26,067	14,014	1417,878	778,417
-25,052	14,069	1416,747	778,024
-24,038	14,011	1415,784	777,191
-23,023	13,975	1414,816	776,459
-22,009	14,011	1413,921	776,104
-20,994	13,992	1412,892	775,419
-19,979	13,985	1411,959	774,845
-18,965	14,001	1410,973	774,347
-17,950	13,948	1410,145	773,616
-16,936	14,020	1409,057	773,325
-15,921	13,913	1408,122	772,281
-14,906	13,901	1407,377	771,784
-13,892	13,968	1406,110	771,370
-12,877	13,925	1405,533	770,826
-11,863	13,922	1404,561	770,244
-10,848	13,936	1403,840	769,884
-9,833	13,896	1402,842	769,120
-8,819	13,838	1401,738	768,214
-7,804	13,837	1401,065	767,811
-6,790	13,845	1399,875	767,166
-5,775	13,862	1398,959	766,714
-4,760	13,849	1397,977	766,082
-3,746	13,847	1397,305	765,677
-2,731	13,812	1396,405	764,990
-1,717	13,843	1395,448	764,578
-0,702	13,821	1393,620	763,446
0,313	17,670	1311,173	736,119
1,327	34,096	705,556	434,146
2,342	52,705	123,967	83,688
3,356	2,214	16,761	8,543
4,371	-3,838	3,223	1,577
5,386	-10,630	0,559	0,261
6,400	-200,000	-0,035	0,156
7,415	195,378	-0,163	-0,175
8,429	-62,061	-0,292	-0,086
9,444	169,755	-0,240	-0,243
10,459	6,935	-0,447	-0,235
11,473	48,188	-0,290	-0,192
12,488	107,567	-0,206	-0,174
13,502	47,159	-0,384	-0,252
14,517	-38,431	-0,333	-0,124
15,531	223,932	-0,278	-0,318
16,546	2,556	-0,409	-0,209
17,561	147,108	-0,461	-0,438
18,575	88,795	-0,175	-0,137
19,590	185,554	-0,182	-0,191
20,604	-200,000	-0,378	-0,001
21,619	-29,572	-0,352	-0,141
22,634	45,164	-0,495	-0,322
23,648	66,391	-0,456	-0,327
24,663	104,707	-0,320	-0,266
25,677	52,845	-0,279	-0,188
26,692	40,801	-0,357	-0,227
27,707	156,248	-0,281	-0,274
28,721	-0,766	-0,417	-0,208
29,736	102,749	-0,417	-0,344
30,750	31,999	-0,410	-0,249
31,765	286,911	-0,262	-0,335
32,780	31,613	-0,457	-0,276
33,794	100,307	-0,227	-0,186
34,809	142,917	-0,383	-0,360
35,823	49,532	-0,436	-0,289
36,838	78,829	-0,338	-0,255
37,853	31,170	-0,372	-0,224
38,867	-12,647	-0,368	-0,169
39,882	85,573	-0,222	-0,172
40,896	-39,417	-0,256	-0,094
41,911	24,659	-0,466	-0,271
42,926	74,632	-0,306	-0,227
43,940	335,106	-0,297	-0,407
44,955	47,267	-0,398	-0,261
45,969	40,259	-0,371	-0,235
46,984	29,929	-0,347	-0,208
47,999	-17,204	-0,369	-0,163
49,013	47,538	-0,351	-0,230
50,028	-32,395	-0,247	-0,097
51,042	146,103	-0,300	-0,283
52,057	-11,296	-0,455	-0,210
53,071	58,922	-0,235	-0,162
54,086	-26,801	-0,344	-0,141
55,101	155,716	-0,240	-0,233
56,115	53,850	-0,348	-0,235
57,130	37,629	-0,351	-0,219
58,144	39,719	-0,399	-0,251
59,159	91,300	-0,371	-0,293
60,174	289,563	-0,278	-0,356
61,188	80,930	-0,358	-0,272
62,203	8,657	-0,305	-0,161
63,217	-30,401	-0,431	-0,171
64,232	81,715	-0,242	-0,184
65,247	-55,656	-0,346	-0,108
66,261	-17,416	-0,311	-0,137
67,276	61,735	-0,361	-0,252
68,290	6,258	-0,235	-0,122
69,305	-8,119	-0,335	-0,158
70,320	179,104	-0,194	-0,200
71,334	36,782	-0,369	-0,229
72,349	-13,031	-0,230	-0,105
73,363	49,620	-0,366	-0,242
74,378	325,217	-0,257	-0,347
75,393	16,972	-0,146	-0,081
76,407	75,671	-0,289	-0,214
77,422	43,432	-0,293	-0,188
78,436	122,170	-0,150	-0,131
79,451	-59,364	-0,348	-0,105
80,466	4,464	-0,334	-0,172
81,480	28,998	-0,331	-0,197
82,495	-180,253	-0,134	-0,002
83,509	25,926	-0,321	-0,188
84,524	66,620	-0,180	-0,128
85,539	-44,318	-0,270	-0,094
86,553	158,815	-0,227	-0,222
87,568	167,752	-0,326	-0,326
88,582	-107,174	-0,390	-0,060
89,597	-122,042	-0,329	-0,038
90,611	8,001	-0,305	-0,160
91,626	-41,294	-0,325	-0,117
92,641	97,894	-0,354	-0,285
93,655	7,158	-0,285	-0,149
94,670	206,455	-0,265	-0,290
95,684	82,454	-0,351	-0,267
96,699	224,127	-0,326	-0,370
97,714	111,686	-0,293	-0,248
98,728	76,354	-0,188	-0,139
99,743	107,241	-0,115	-0,096
100,757	249,602	-0,181	-0,216
101,772	-39,875	-0,179	-0,065
102,787	679,496	-0,136	-0,250
103,801	5,530	-0,296	-0,153
104,816	170,303	-0,225	-0,226
105,830	-169,045	-0,138	0,004
106,845	60,265	-0,330	-0,228
107,860	230,893	-0,211	-0,242
108,874	-36,379	-0,183	-0,069
109,889	3,406	-0,226	-0,115
110,903	54,957	-0,347	-0,235
111,918	72,953	-0,318	-0,233
112,933	80,671	-0,181	-0,137
113,947	405,873	-0,138	-0,204
114,962	122,670	-0,269	-0,236
115,976	132,353	-0,157	-0,142
116,991	84,059	-0,291	-0,222
118,006	114,436	-0,198	-0,169
119,020	-6,264	-0,306	-0,146
120,035	107,663	-0,254	-0,212
121,049	559,758	-0,161	-0,273
122,064	-37,086	-0,259	-0,097
123,079	27,805	-0,227	-0,133
124,093	64,751	-0,241	-0,170
125,108	264,109	-0,233	-0,284
126,122	199,056	-0,166	-0,178
127,137	85,558	-0,179	-0,137
128,151	9,986	-0,127	-0,068
129,166	127,543	-0,266	-0,237
130,181	800,000	-0,165	-0,367
131,195	133,394	-0,176	-0,159
132,210	-59,628	-0,326	-0,097
133,224	-47,732	-0,344	-0,116
134,239	-20,475	-0,439	-0,188
135,254	123,387	-0,190	-0,166
136,268	66,952	-0,221	-0,157
137,283	149,877	-0,214	-0,203
138,297	800,000	-0,167	-0,463
139,312	-59,630	-0,174	-0,052
140,327	-34,014	-0,335	-0,128
141,341	50,090	-0,206	-0,136
142,356	800,000	-0,125	-0,254
143,370	-51,384	-0,187	-0,061
144,385	74,540	-0,278	-0,204
145,400	224,926	-0,238	-0,269
146,414	-18,373	-0,341	-0,148
147,429	61,860	-0,293	-0,204
148,443	171,392	-0,219	-0,220
149,458	-23,444	-0,193	-0,080
150,473	-76,713	-0,298	-0,072
151,487	62,690	-0,267	-0,186
152,502	140,031	-0,223	-0,206
153,516	98,173	-0,189	-0,152
154,531	57,051	-0,225	-0,153
155,546	75,576	-0,240	-0,177
156,560	26,431	-0,307	-0,179
157,575	4,326	-0,121	-0,062
158,589	27,041	-0,129	-0,075
159,604	200,846	-0,144	-0,155
160,619	-35,325	-0,304	-0,115
161,633	43,965	-0,359	-0,229
162,648	42,872	-0,227	-0,144
163,662	-69,573	-0,235	-0,062
164,677	163,102	-0,180	-0,177
165,692	-74,270	-0,199	0,050
166,706	15,536	-0,232	-0,127
167,721	358,959	-0,168	-0,235
168,735	78,487	-0,293	-0,218
169,750	11,073	-0,253	-0,134
170,764	800,000	-0,073	-0,180
171,779	114,760	-0,199	-0,170
172,794	87,056	-0,230	-0,177
173,808	-174,869	-0,176	0,003
174,823	-36,264	-0,231	-0,087
175,837	583,614	-0,129	-0,221
176,852	42,511	-0,254	-0,161
177,867	589,407	-0,146	-0,251
178,881	692,324	-0,091	-0,167
179,896	800,000	-0,106	-0,215
180,910	12,690	-0,207	-0,111
181,925	617,500	-0,160	-0,281
182,940	346,968	-0,201	-0,277
183,954	37,945	-0,182	-0,113
184,969	-1,332	-0,284	-0,139
185,983	159,936	-0,087	-0,085
186,998	219,553	-0,139	-0,155
188,013	-42,237	-0,248	-0,088
189,027	382,326	-0,160	-0,229
190,042	-86,171	-0,132	-0,028
191,056	375,031	-0,156	-0,221
192,071	-113,584	-0,256	0,034
193,086	-18,908	-0,257	-0,111
194,100	67,638	-0,172	-0,122
195,115	34,194	-0,227	-0,137
196,129	800,000	-0,120	-0,273
197,144	25,072	-0,382	-0,220
198,159	58,377	-0,165	-0,113
199,173	113,313	-0,183	-0,154
200,188	66,285	-0,253	-0,179
201,202	57,854	-0,191	-0,130
202,217	-40,200	-0,245	-0,088
203,232	-22,370	-0,258	-0,108
204,246	-154,728	-0,255	0,012
205,261	139,484	-0,223	-0,204
206,275	345,476	-0,176	-0,241
207,290	96,244	-0,138	-0,109
208,304	216,550	-0,108	-0,120
209,319	248,510	-0,127	-0,149
210,334	121,136	-0,246	-0,213
211,348	35,722	-0,260	-0,158
212,363	66,513	-0,220	-0,155
213,377	115,368	-0,234	-0,198
214,392	63,415	-0,106	-0,073
215,407	-60,801	-0,241	-0,070
216,421	242,094	-0,173	-0,201
217,436	376,599	-0,110	-0,156
218,450	104,446	-0,262	-0,214
219,465	-41,519	-0,182	-0,065
220,480	279,393	-0,155	-0,193
221,494	-159,377	-0,211	-0,008
222,509	-200,000	-0,021	-0,094
223,523	404,944	-0,064	-0,093
224,538	245,525	-0,137	-0,160
225,553	162,067	-0,126	-0,122
226,567	68,652	-0,131	-0,093
227,582	-0,371	-0,261	-0,128
228,596	-95,575	-0,096	-0,018
229,611	800,000	-0,108	-0,309
230,626	10,983	-0,156	-0,082
231,640	48,028	-0,233	-0,150
232,655	-83,098	-0,154	0,034
233,669	-67,780	-0,196	-0,053
234,684	298,632	-0,220	-0,282
235,699	154,132	-0,229	-0,218
236,713	800,000	-0,069	-0,136
237,728	-200,000	-0,064	-0,246
238,742	-44,468	-0,250	-0,086
239,757	-200,000	-0,065	-0,206
240,772	584,801	-0,106	-0,181
241,786	555,260	-0,125	-0,210
242,801	800,000	-0,070	-0,163
243,815	54,868	-0,292	-0,195
244,830	800,000	-0,055	-0,109
245,844	29,882	-0,023	-0,013
246,859	-122,018	-0,200	-0,022
247,874	-67,944	-0,175	-0,047
248,888	42,953	-0,273	-0,172
249,903	-169,251	-0,262	0,007
250,917	223,746	-0,139	-0,155
251,932	678,749	-0,097	-0,175
252,947	25,737	-0,207	-0,119
253,961	227,901	-0,136	-0,154
254,976	35,123	-0,323	-0,195
255,990	-12,286	-0,270	-0,122
257,005	-185,507	-0,198	-0,002
258,020	147,641	-0,173	-0,161
259,034	74,048	-0,122	-0,088
260,049	-174,702	-0,210	-0,004
261,063	-94,903	-0,269	0,050
262,078	84,542	-0,335	-0,254
263,093	96,285	-0,151	-0,119
264,107	172,267	-0,235	-0,234
265,122	454,414	-0,021	0,032
266,136	-134,947	-0,220	0,018
267,151	188,266	-0,119	-0,123
268,166	706,187	-0,092	-0,168
269,180	21,992	-0,248	-0,139
270,195	193,819	-0,209	-0,219
271,209	69,827	-0,182	-0,129
272,224	100,747	-0,231	-0,185
273,239	-200,000	-0,049	-0,151
274,253	95,082	-0,194	-0,153
275,268	180,953	-0,141	-0,143
276,282	-84,213	-0,194	-0,042
277,297	-15,302	-0,253	-0,111
278,312	4,064	-0,174	-0,088
279,326	60,263	-0,147	-0,100
280,341	50,323	-0,187	-0,122
281,355	104,054	-0,195	-0,159
282,370	52,860	-0,201	-0,133
283,384	-115,463	-0,170	0,022
284,399	-10,919	-0,126	-0,057
285,414	47,873	-0,156	-0,100
286,428	7,850	-0,085	-0,044
287,443	385,346	-0,098	-0,140
288,457	18,634	-0,131	-0,072
289,472	150,248	-0,118	-0,111
290,487	-42,620	-0,284	-0,099
291,501	93,972	-0,152	-0,119
292,516	6,020	-0,114	-0,058
293,530	419,365	-0,111	-0,165
294,545	-149,015	-0,145	-0,008
295,560	-200,000	0,009	-0,179
296,574	717,438	-0,088	-0,161
297,589	195,001	-0,152	-0,160
298,603	800,000	-0,104	-0,294
299,618	479,739	-0,166	-0,260
300,633	464,464	-0,037	-0,058
301,647	-200,000	-0,015	-0,095
302,662	44,172	-0,169	-0,107
303,676	-70,959	-0,108	-0,028
304,691	-25,350	-0,075	-0,030
305,706	800,000	-0,111	-0,233
306,720	169,778	-0,151	-0,148
307,735	800,000	-0,090	-0,203
308,749	289,843	-0,053	-0,066
309,764	-58,871	-0,112	0,033
310,779	34,054	-0,117	-0,070
311,793	35,986	-0,139	-0,084
312,808	-6,033	-0,148	-0,069
313,822	-157,040	-0,087	0,004
314,837	-30,460	-0,145	-0,056
315,852	-64,806	-0,206	-0,057
316,866	495,990	-0,088	-0,139
317,881	-95,347	-0,235	-0,043
318,895	-108,266	-0,190	-0,028
319,910	334,401	-0,122	-0,163
320,925	289,111	-0,178	-0,222
321,939	-57,394	-0,153	-0,046
322,954	-102,240	-0,085	-0,014
323,968	-183,473	-0,156	-0,002
324,983	-180,534	-0,060	0,001
325,997	-60,588	-0,157	-0,046
327,012	180,404	-0,117	-0,118
328,027	-28,629	-0,150	-0,059
329,041	62,230	-0,154	-0,105
330,056	-80,416	-0,071	-0,016
331,070	800,000	-0,059	-0,153
332,085	56,058	-0,048	0,032
333,100	-144,270	-0,107	-0,007
334,114	-62,942	-0,185	-0,052
335,129	272,196	-0,117	-0,142
336,143	165,067	-0,020	0,019
337,158	408,494	-0,086	-0,126
338,173	800,000	-0,051	-0,144
339,187	-73,546	-0,050	0,012
340,202	162,176	-0,166	-0,160
341,216	-50,833	-0,197	-0,063
342,231	92,205	-0,108	-0,084
343,246	800,000	-0,077	-0,157
344,260	-139,274	-0,112	-0,008
345,275	-68,566	-0,163	-0,043
346,289	-122,459	-0,101	-0,011
347,304	86,826	-0,141	-0,107
348,319	2,944	-0,171	-0,085
349,333	-15,923	-0,230	-0,100
350,348	-47,591	-0,233	-0,077
351,362	75,803	-0,063	-0,045
352,377	-59,101	0,065	-0,019
353,392	329,222	-0,078	-0,103
354,406	218,152	-0,081	-0,088
355,421	209,513	1314,753	1415,357
356,435	161,253	1475,481	1415,846
