DTS Sentinel unit serial number:	SN410029Multiplexer serial number:	ORYXHardware model number:	OX2-SRSoftware version number:	ORYX F/W v4,00 Oryx Data Collector v3.7.2.0data status	okinstallation	B3 Nyhavnadifferential loss correction	single-endedforward channel	channel 1reverse channel	N/Adate	2023/12/04time	03:37:30forward acquisition time	300,00reverse acquisition time	0,00gamma	499,1914k internal	0,3205k external	0,3205temperature offset calibration	1,0000default loss term (dB/km)	0,3820temperature slope calibration	1,0000multiplexer offset coefficient	1,0000multiplexer slope coefficient	1,0000fibre end	0,00T internal ref (°C)	12,07T ext. ref 1 (°C)	-3,07T ext. ref 2 (°C)	-3,09length (m)	temperature (°C)	Stokes	anti-Stokes-744,400	-19,970	-0,212	-0,095
-743,385	-200,000	-0,079	0,273
-742,371	145,894	-0,161	-0,157
-741,356	287,250	-0,202	0,266
-740,342	136,997	-0,120	-0,114
-739,327	800,000	0,106	0,225
-738,312	-5,851	-0,206	-0,102
-737,298	-200,000	-0,046	0,313
-736,283	55,465	-0,256	-0,180
-735,269	-200,000	-0,059	0,248
-734,254	459,188	-0,114	-0,184
-733,239	8,592	-0,358	0,195
-732,225	234,247	-0,120	-0,144
-731,210	800,000	0,057	0,132
-730,196	-200,000	0,051	-0,249
-729,181	-200,000	0,008	-0,034
-728,167	-200,000	-0,023	-0,132
-727,152	-85,477	-0,033	0,007
-726,137	-143,029	-0,054	0,004
-725,123	-85,211	0,023	-0,005
-724,108	434,740	-0,112	-0,178
-723,094	-84,474	-0,013	0,003
-722,079	-200,000	-0,001	0,017
-721,064	136,634	0,050	-0,047
-720,050	-95,875	0,045	-0,009
-719,035	663,229	-0,055	-0,103
-718,021	8,716	-0,047	0,025
-717,006	800,000	-0,048	-0,130
-715,991	-128,864	-0,134	-0,013
-714,977	-84,416	-0,092	0,021
-713,962	-200,000	-0,010	0,082
-712,948	-200,000	-0,012	-0,127
-711,933	800,000	0,074	0,156
-710,918	800,000	-0,043	-0,087
-709,904	303,768	-0,140	-0,189
-708,889	6,137	0,038	-0,020
-707,875	800,000	-0,023	-0,047
-706,860	-0,025	0,074	-0,038
-705,845	-200,000	-0,003	0,086
-704,831	-200,000	0,023	-0,084
-703,816	24,414	0,022	-0,013
-702,802	9,167	-0,020	0,011
-701,787	-108,798	-0,092	0,014
-700,772	-28,540	-0,056	-0,023
-699,758	573,964	0,036	0,064
-698,743	1,425	0,037	-0,019
-697,729	-17,039	0,085	0,039
-696,714	-200,000	-0,006	-0,148
-695,699	3,896	-0,120	-0,063
-694,685	-200,000	-0,027	-0,107
-693,670	-98,830	-0,146	0,027
-692,656	-80,384	-0,168	0,040
-691,641	50,198	-0,036	0,024
-690,627	800,000	-0,022	0,052
-689,612	120,245	-0,062	-0,056
-688,597	-62,065	-0,084	0,025
-687,583	27,746	-0,169	-0,103
-686,568	-200,000	-0,028	-0,124
-685,554	-200,000	-0,004	-0,111
-684,539	-98,778	-0,077	0,014
-683,524	113,574	0,020	-0,018
-682,510	62,673	-0,075	-0,054
-681,495	-57,121	-0,035	-0,011
-680,481	137,127	0,044	0,042
-679,466	-41,843	-0,065	-0,024
-678,451	-200,000	0,007	-0,073
-677,437	-200,000	0,011	0,046
-676,422	155,426	0,058	-0,058
-675,408	722,918	0,063	-0,122
-674,393	-200,000	-0,007	-0,076
-673,378	55,403	-0,078	-0,055
-672,364	-64,582	-0,068	-0,020
-671,349	645,890	0,050	0,094
-670,335	138,846	-0,061	0,058
-669,320	625,630	0,019	-0,035
-668,305	-200,000	-0,020	0,075
-667,291	74,191	-0,144	0,110
-666,276	-100,925	-0,076	-0,013
-665,262	51,688	-0,066	0,045
-664,247	-0,110	0,043	0,022
-663,232	23,806	-0,090	-0,054
-662,218	-70,392	0,089	0,024
-661,203	723,157	-0,041	0,080
-660,189	-61,002	-0,056	-0,017
-659,174	-200,000	0,014	-0,061
-658,159	121,687	-0,070	-0,063
-657,145	-36,967	-0,146	0,056
-656,130	800,000	0,057	0,123
-655,116	-158,445	0,041	-0,002
-654,101	338,893	-0,019	-0,026
-653,086	-200,000	0,013	0,090
-652,072	-200,000	-0,018	-0,062
-651,057	180,412	0,086	-0,091
-650,043	94,825	0,008	-0,007
-649,028	-128,562	-0,108	-0,011
-648,014	48,215	0,099	-0,067
-646,999	-200,000	-0,008	0,167
-645,984	800,000	0,023	-0,071
-644,970	275,420	0,043	0,055
-643,955	-200,000	0,014	-0,054
-642,941	-27,642	-0,051	-0,021
-641,926	572,949	0,089	0,157
-640,911	800,000	0,059	0,167
-639,897	-97,170	-0,092	0,017
-638,882	-87,228	0,061	0,013
-637,868	356,893	-0,081	-0,117
-636,853	433,747	-0,058	-0,092
-635,838	537,652	0,052	-0,090
-634,824	800,000	0,013	-0,036
-633,809	800,000	0,052	-0,105
-632,795	162,931	-0,037	0,038
-631,780	-8,426	-0,136	-0,066
-630,765	800,000	0,033	0,069
-629,751	-200,000	-0,017	0,070
-628,736	-200,000	-0,024	0,079
-627,722	-88,037	-0,069	-0,015
-626,707	401,650	-0,052	0,079
-625,692	678,468	-0,039	0,074
-624,678	-35,009	0,069	0,027
-623,663	-44,546	-0,116	-0,042
-622,649	-200,000	-0,015	-0,055
-621,634	-16,284	-0,054	0,025
-620,619	188,897	0,088	0,095
-619,605	643,161	-0,038	0,070
-618,590	8,173	-0,048	-0,026
-617,576	800,000	0,042	0,095
-616,561	171,277	-0,060	-0,062
-615,546	18,506	-0,077	0,044
-614,532	800,000	0,066	-0,162
-613,517	800,000	0,014	0,035
-612,503	190,875	-0,018	0,020
-611,488	226,761	-0,003	-0,004
-610,474	143,214	-0,046	0,045
-609,459	18,057	0,095	0,054
-608,444	-62,217	-0,186	0,056
-607,430	343,549	-0,148	-0,210
-606,415	-114,176	-0,123	-0,017
-605,401	315,452	0,075	-0,102
-604,386	-50,644	-0,109	-0,037
-603,371	800,000	-0,065	0,152
-602,357	3,029	-0,022	-0,012
-601,342	-200,000	0,009	-0,091
-600,328	-38,655	0,214	-0,081
-599,313	-200,000	-0,015	0,060
-598,298	800,000	-0,020	-0,054
-597,284	-200,000	0,023	-0,086
-596,269	25,633	0,064	0,039
-595,255	800,000	-0,029	-0,064
-594,240	5,789	-0,041	-0,022
-593,225	-64,557	0,092	-0,027
-592,211	800,000	-0,081	-0,183
-591,196	-98,522	-0,004	-0,001
-590,182	-200,000	-0,012	-0,051
-589,167	101,905	0,067	0,057
-588,152	304,325	0,017	-0,023
-587,138	-200,000	-0,048	-0,168
-586,123	-174,138	-0,091	0,002
-585,109	14,998	-0,086	0,048
-584,094	23,096	0,089	-0,053
-583,079	50,590	0,060	-0,041
-582,065	-200,000	-0,009	-0,099
-581,050	-194,458	-0,128	-0,001
-580,036	38,170	0,077	0,050
-579,021	-200,000	0,012	-0,039
-578,006	48,391	0,114	0,077
-576,992	-109,756	-0,125	0,019
-575,977	-200,000	-0,004	-0,099
-574,963	800,000	-0,008	0,024
-573,948	-110,534	-0,066	0,010
-572,934	-185,652	-0,055	0,001
-571,919	-91,153	-0,202	0,041
-570,904	38,499	-0,067	0,043
-569,890	-200,000	0,002	-0,015
-568,875	-200,000	-0,020	0,123
-567,861	-62,116	0,106	-0,032
-566,846	646,384	-0,056	0,104
-565,831	-102,842	0,070	-0,012
-564,817	179,941	0,016	0,017
-563,802	-157,001	-0,051	0,002
-562,788	51,507	0,087	0,059
-561,773	800,000	-0,015	0,038
-560,758	82,256	-0,061	0,048
-559,744	532,644	-0,040	-0,069
-558,729	-138,661	0,119	-0,009
-557,715	260,253	-0,014	-0,018
-556,700	-132,129	-0,111	-0,010
-555,685	-134,560	0,071	0,006
-554,671	26,647	-0,059	-0,036
-553,656	-200,000	0,003	0,178
-552,642	-200,000	0,022	0,078
-551,627	-75,549	0,107	0,027
-550,612	-143,467	-0,073	-0,005
-549,598	184,002	-0,151	-0,161
-548,583	800,000	0,020	-0,047
-547,569	44,829	-0,027	0,018
-546,554	-142,534	0,112	0,008
-545,539	-142,018	0,099	-0,007
-544,525	-200,000	-0,006	-0,067
-543,510	-16,383	-0,094	0,043
-542,496	-200,000	-0,003	-0,215
-541,481	800,000	0,033	-0,082
-540,466	-158,692	0,052	-0,002
-539,452	-38,092	0,155	-0,059
-538,437	-117,624	0,064	-0,008
-537,423	800,000	-0,028	-0,064
-536,408	-200,000	-0,021	-0,107
-535,393	800,000	-0,024	-0,070
-534,379	202,841	-0,129	0,144
-533,364	-77,486	0,084	0,021
-532,350	39,234	0,115	0,074
-531,335	10,193	-0,095	0,052
-530,321	-121,575	0,134	-0,016
-529,306	-200,000	0,019	0,124
-528,291	78,512	-0,080	-0,061
-527,277	-67,562	-0,026	-0,007
-526,262	-200,000	0,018	0,088
-525,248	800,000	0,037	0,113
-524,233	-66,323	-0,043	0,012
-523,218	151,501	0,047	0,046
-522,204	360,209	0,067	0,097
-521,189	-200,000	-0,019	-0,088
-520,175	607,593	-0,030	-0,054
-519,160	-148,663	0,093	-0,005
-518,145	-29,725	0,063	0,026
-517,131	-25,141	0,092	0,039
-516,116	800,000	0,018	-0,037
-515,102	5,100	0,174	-0,092
-514,087	800,000	0,021	0,056
-513,072	68,550	-0,096	0,071
-512,058	-200,000	0,010	0,102
-511,043	247,538	-0,043	-0,052
-510,029	-200,000	-0,001	0,049
-509,014	-200,000	-0,022	0,070
-507,999	96,901	-0,089	-0,073
-506,985	540,574	-0,007	0,011
-505,970	-200,000	0,008	0,060
-504,956	-2,546	-0,111	-0,056
-503,941	208,645	0,087	-0,098
-502,926	800,000	-0,024	0,053
-501,912	-200,000	-0,001	-0,017
-500,897	183,513	0,067	0,071
-499,883	-200,000	0,031	-0,143
-498,868	-200,000	-0,037	-0,168
-497,853	800,000	-0,044	-0,115
-496,839	-51,595	0,052	-0,017
-495,824	-112,094	-0,107	-0,015
-494,810	588,054	-0,055	0,097
-493,795	397,314	-0,049	0,074
-492,781	-64,077	0,058	0,017
-491,766	800,000	0,021	-0,042
-490,751	800,000	0,050	0,129
-489,737	43,481	0,064	0,042
-488,722	-93,990	0,041	-0,008
-487,708	800,000	-0,064	0,142
-486,693	-131,536	0,101	-0,009
-485,678	-200,000	0,005	-0,092
-484,664	-200,000	-0,002	-0,102
-483,649	37,586	0,025	-0,016
-482,635	-200,000	-0,002	0,049
-481,620	23,312	-0,020	-0,012
-480,605	97,921	-0,095	-0,079
-479,591	455,965	0,078	-0,125
-478,576	314,827	0,098	-0,133
-477,562	800,000	0,016	-0,040
-476,547	-200,000	-0,018	-0,116
-475,532	800,000	-0,036	0,095
-474,518	-200,000	0,015	0,097
-473,503	-200,000	0,048	0,193
-472,489	170,484	0,086	0,089
-471,474	-175,933	0,164	0,003
-470,459	-10,511	-0,081	-0,038
-469,445	73,274	0,088	-0,066
-468,430	204,943	0,032	-0,035
-467,416	323,240	-0,041	-0,056
-466,401	111,252	0,054	-0,047
-465,386	-200,000	-0,002	0,041
-464,372	-84,539	-0,156	0,035
-463,357	216,084	-0,109	-0,124
-462,343	38,301	-0,105	-0,067
-461,328	-180,512	-0,094	-0,001
-460,313	800,000	0,011	-0,031
-459,299	800,000	0,076	0,156
-458,284	800,000	0,020	0,040
-457,270	657,128	0,014	0,026
-456,255	-62,234	-0,074	0,022
-455,241	-90,878	0,079	-0,016
-454,226	-200,000	0,024	-0,098
-453,211	-18,978	0,143	0,064
-452,197	800,000	0,068	-0,140
-451,182	-200,000	-0,009	0,090
-450,168	53,882	0,045	0,031
-449,153	-200,000	0,003	0,026
-448,138	-119,185	-0,199	-0,025
-447,124	164,945	-0,084	-0,085
-446,109	-200,000	-0,010	0,156
-445,095	-81,954	0,098	-0,023
-444,080	-200,000	0,000	0,008
-443,065	-103,137	-0,029	-0,005
-442,051	-4,145	-0,028	-0,014
-441,036	-14,253	-0,102	-0,047
-440,022	-167,351	-0,052	-0,001
-439,007	-200,000	0,006	-0,106
-437,992	-200,000	-0,004	-0,137
-436,978	164,225	0,103	0,105
-435,963	-127,691	-0,088	-0,009
-434,949	-3,891	0,137	-0,068
-433,934	800,000	-0,062	-0,151
-432,919	800,000	0,040	-0,102
-431,905	88,393	-0,068	0,054
-430,890	177,732	0,095	0,100
-429,876	-200,000	0,002	0,036
-428,861	-200,000	-0,007	-0,035
-427,846	-200,000	-0,009	0,032
-426,832	33,841	-0,070	0,044
-425,817	-200,000	-0,020	-0,089
-424,803	56,111	-0,028	0,019
-423,788	60,522	0,046	-0,033
-422,773	-200,000	-0,020	0,134
-421,759	800,000	0,011	0,025
-420,744	50,262	-0,012	-0,008
-419,730	-200,000	-0,006	-0,074
-418,715	-140,978	-0,098	-0,007
-417,701	-51,965	0,026	0,009
-416,686	162,489	-0,084	-0,085
-415,671	169,658	-0,041	0,042
-414,657	32,723	-0,132	-0,082
-413,642	-84,766	0,121	-0,027
-412,628	-88,835	0,064	-0,013
-411,613	800,000	-0,092	-0,247
-410,598	-16,225	-0,058	-0,026
-409,584	33,111	-0,069	-0,043
-408,569	-200,000	0,005	0,101
-407,555	800,000	0,040	0,087
-406,540	-200,000	0,023	0,086
-405,525	800,000	0,025	0,074
-404,511	-24,749	0,095	0,040
-403,496	-200,000	-0,034	-0,140
-402,482	13,462	-0,070	-0,039
-401,467	800,000	0,070	-0,153
-400,452	132,338	0,074	-0,068
-399,438	92,690	-0,094	0,076
-398,423	-102,471	0,160	0,027
-397,409	50,871	0,106	-0,072
-396,394	-200,000	-0,014	-0,090
-395,379	-74,692	0,076	-0,020
-394,365	-200,000	0,014	0,096
-393,350	166,399	0,053	0,054
-392,336	-40,138	0,123	0,045
-391,321	78,619	0,054	-0,041
-390,306	20,033	0,034	-0,019
-389,292	-137,913	0,052	-0,004
-388,277	21,767	0,023	-0,013
-387,263	-200,000	-0,001	-0,091
-386,248	-95,279	0,140	0,027
-385,233	800,000	0,090	0,220
-384,219	79,574	-0,077	0,059
-383,204	-200,000	0,001	0,006
-382,190	288,651	-0,051	0,066
-381,175	-72,479	0,055	0,014
-380,160	-95,963	-0,072	0,014
-379,146	-0,499	0,058	0,030
-378,131	-200,000	-0,002	0,098
-377,117	-200,000	0,005	0,053
-376,102	-107,070	0,066	0,010
-375,088	-78,442	0,028	-0,007
-374,073	392,030	-0,034	-0,051
-373,058	-200,000	-0,007	-0,186
-372,044	151,801	-0,083	0,081
-371,029	-200,000	-0,004	0,265
-370,015	800,000	-0,026	-0,077
-369,000	-81,131	0,085	-0,020
-367,985	800,000	-0,008	0,016
-366,971	-136,896	0,091	-0,007
-365,956	-20,092	-0,086	0,038
-364,942	48,927	0,063	0,042
-363,927	149,311	0,050	-0,048
-362,912	-200,000	0,007	-0,105
-361,898	115,241	0,033	-0,029
-360,883	-200,000	-0,008	-0,077
-359,869	-200,000	-0,012	-0,111
-358,854	81,282	-0,079	0,061
-357,839	119,913	-0,068	0,060
-356,825	-17,385	0,109	0,049
-355,810	106,310	0,174	0,147
-354,796	-189,614	-0,117	-0,001
-353,781	178,276	-0,110	-0,115
-352,766	-36,594	-0,051	0,020
-351,752	728,916	0,061	-0,117
-350,737	46,782	-0,129	-0,085
-349,723	357,534	0,056	0,080
-348,708	800,000	-0,045	0,126
-347,693	-200,000	-0,038	-0,153
-346,679	-200,000	0,030	-0,118
-345,664	-65,005	0,125	-0,036
-344,650	12,861	-0,093	-0,051
-343,635	20,278	0,055	-0,032
-342,620	4,632	0,106	-0,055
-341,606	-11,626	-0,076	0,035
-340,591	800,000	-0,057	0,137
-339,577	131,677	-0,097	-0,089
-338,562	800,000	-0,041	-0,116
-337,548	-31,855	-0,071	0,028
-336,533	-94,952	0,103	0,020
-335,518	243,322	0,060	-0,072
-334,504	361,815	-0,074	-0,106
-333,489	34,801	-0,034	-0,021
-332,475	-200,000	-0,007	0,112
-331,460	800,000	0,032	-0,070
-330,445	344,709	0,019	0,027
-329,431	800,000	-0,035	-0,069
-328,416	61,396	0,152	0,108
-327,402	800,000	0,029	0,081
-326,387	393,259	-0,037	-0,056
-325,372	-200,000	0,016	-0,096
-324,358	112,940	-0,045	0,039
-323,343	-133,581	0,054	0,005
-322,329	-1,995	-0,098	0,049
-321,314	485,537	0,037	-0,060
-320,299	175,422	0,062	0,064
-319,285	-63,457	-0,089	0,026
-318,270	-16,781	-0,003	0,001
-317,256	-200,000	0,023	0,082
-316,241	800,000	0,026	-0,064
-315,226	359,536	0,070	0,101
-314,212	239,208	0,022	0,026
-313,197	-200,000	0,042	0,198
-312,183	106,949	0,036	0,030
-311,168	-3,773	-0,067	-0,033
-310,153	153,078	-0,021	0,020
-309,139	4,120	-0,082	-0,043
-308,124	-200,000	-0,004	0,019
-307,110	-78,065	0,050	-0,012
-306,095	499,125	0,041	0,068
-305,080	800,000	0,021	-0,045
-304,066	-158,670	-0,111	0,004
-303,051	527,747	-0,054	-0,091
-302,037	800,000	-0,101	0,206
-301,022	-200,000	0,005	0,107
-300,008	139,807	-0,105	0,099
-298,993	-200,000	0,004	-0,072
-297,978	-37,314	0,136	-0,052
-296,964	58,821	-0,167	-0,117
-295,949	-70,196	-0,022	-0,006
-294,935	171,711	0,069	0,071
-293,920	-200,000	0,024	-0,078
-292,905	63,635	-0,082	0,059
-291,891	214,217	-0,015	0,016
-290,876	-200,000	0,047	0,197
-289,862	-150,036	-0,161	0,009
-288,847	-200,000	0,008	0,053
-287,832	-200,000	0,043	-0,154
-286,818	175,177	-0,090	0,093
-285,803	-32,487	-0,047	-0,019
-284,789	-39,515	-0,073	-0,027
-283,774	800,000	0,028	0,065
-282,759	153,542	0,049	-0,048
-281,745	136,671	-0,008	0,008
-280,730	-62,675	-0,060	-0,018
-279,716	-20,110	-0,076	0,033
-278,701	155,057	0,047	-0,046
-277,686	-200,000	0,019	-0,126
-276,672	552,460	-0,014	-0,025
-275,657	-50,590	0,178	0,060
-274,643	412,532	-0,044	0,067
-273,628	-200,000	0,002	-0,022
-272,613	74,444	0,117	0,088
-271,599	-55,005	-0,131	-0,042
-270,584	-200,000	0,046	0,185
-269,570	301,230	-0,062	-0,082
-268,555	-38,757	0,057	0,021
-267,540	554,326	-0,057	-0,098
-266,526	-200,000	0,011	-0,170
-265,511	-70,235	-0,075	0,020
-264,497	780,893	0,033	0,064
-263,482	707,418	0,011	0,022
-262,467	-200,000	0,035	0,131
-261,453	800,000	0,076	0,181
-260,438	31,510	0,018	0,011
-259,424	779,049	-0,033	-0,064
-258,409	-41,564	0,183	0,067
-257,395	800,000	0,015	0,039
-256,380	50,511	0,048	-0,032
-255,365	386,874	-0,074	-0,110
-254,351	-200,000	-0,035	0,113
-253,336	-171,066	-0,061	0,001
-252,322	-200,000	0,015	-0,144
-251,307	-11,585	-0,059	-0,027
-250,292	250,967	0,051	0,062
-249,278	-200,000	0,009	0,183
-248,263	-200,000	0,027	0,134
-247,249	-200,000	0,003	0,018
-246,234	21,804	-0,061	-0,036
-245,219	522,206	0,021	-0,035
-244,205	-200,000	0,011	-0,065
-243,190	39,664	0,065	-0,042
-242,176	66,878	-0,048	-0,035
-241,161	800,000	0,045	-0,105
-240,146	-35,561	0,028	0,011
-239,132	419,982	-0,024	-0,036
-238,117	-200,000	0,011	-0,067
-237,103	684,398	0,041	-0,076
-236,088	-200,000	0,008	0,134
-235,073	219,339	-0,083	0,095
-234,059	38,218	0,083	-0,053
-233,044	-127,324	-0,020	0,002
-232,030	371,015	-0,021	0,031
-231,015	171,794	-0,086	-0,089
-230,000	172,993	-0,093	0,095
-228,986	-200,000	0,027	0,132
-227,971	-87,324	-0,058	-0,012
-226,957	800,000	0,028	0,083
-225,942	507,088	0,041	0,068
-224,927	-28,288	0,086	-0,035
-223,913	-200,000	0,018	0,079
-222,898	-200,000	0,019	-0,089
-221,884	-45,078	-0,022	0,008
-220,869	-120,041	-0,033	0,004
-219,855	800,000	-0,029	-0,073
-218,840	154,011	0,042	0,041
-217,825	39,334	-0,106	0,068
-216,811	236,449	-0,079	-0,094
-215,796	137,952	-0,034	0,031
-214,782	-44,912	0,085	0,030
-213,767	134,232	0,059	-0,054
-212,752	800,000	-0,037	0,107
-211,738	567,717	-0,102	0,177
-210,723	-35,071	0,126	-0,049
-209,709	44,806	0,034	-0,022
-208,694	426,986	-0,092	-0,141
-207,679	756,379	0,058	-0,113
-206,665	-141,540	0,065	0,005
-205,650	-22,476	0,054	0,023
-204,636	381,593	-0,038	-0,056
-203,621	800,000	0,020	-0,051
-202,606	-101,795	0,092	-0,016
-201,592	-13,835	-0,049	-0,022
-200,577	38,708	0,125	-0,079
-199,563	124,753	0,050	-0,044
-198,548	308,281	0,083	0,110
-197,533	800,000	-0,047	0,137
-196,519	-200,000	0,031	0,106
-195,504	-152,957	0,071	-0,004
-194,490	-200,000	-0,003	-0,046
-193,475	126,059	-0,140	-0,126
-192,460	191,441	-0,054	0,057
-191,446	-75,073	-0,024	-0,006
-190,431	-47,877	-0,010	0,003
-189,417	-200,000	0,015	-0,068
-188,402	215,568	-0,089	-0,100
-187,387	182,140	0,036	-0,037
-186,373	-200,000	-0,020	0,125
-185,358	-30,602	0,013	0,005
-184,344	301,653	0,129	0,169
-183,329	-200,000	0,021	-0,119
-182,315	275,137	-0,046	0,058
-181,300	120,743	-0,028	-0,025
-180,285	800,000	-0,022	0,056
-179,271	15,701	0,013	0,007
-178,256	10,598	0,134	-0,073
-177,242	-154,361	-0,148	0,007
-176,227	-200,000	-0,011	0,132
-175,212	-200,000	-0,010	0,136
-174,198	800,000	-0,070	0,183
-173,183	-51,235	0,123	-0,041
-172,169	75,674	-0,070	0,052
-171,154	132,259	-0,053	-0,049
-170,139	156,944	-0,031	-0,030
-169,125	514,649	0,021	-0,036
-168,110	440,853	0,027	-0,042
-167,096	270,857	0,092	-0,116
-166,081	205,231	0,023	0,025
-165,066	140,384	-0,110	-0,104
-164,052	800,000	-0,029	-0,066
-163,037	-142,660	0,113	0,008
-162,023	-200,000	0,048	0,174
-161,008	427,367	0,032	-0,049
-159,993	800,000	-0,007	0,020
-158,979	223,267	-0,116	-0,134
-157,964	-83,901	-0,011	0,002
-156,950	-32,512	-0,064	-0,025
-155,935	-70,154	0,072	0,019
-154,920	800,000	-0,032	0,078
-153,906	-50,712	0,114	0,038
-152,891	-200,000	0,007	0,052
-151,877	-52,056	0,009	0,003
-150,862	-128,706	-0,126	-0,012
-149,847	63,900	0,059	0,042
-148,833	-200,000	0,022	0,089
-147,818	800,000	0,095	0,219
-146,804	-77,620	0,117	0,028
-145,789	37,059	-0,031	-0,019
-144,775	-200,000	-0,013	-0,042
-143,760	110,888	-0,084	-0,071
-142,745	9,366	-0,041	-0,022
-141,731	175,291	-0,096	-0,099
-140,716	294,903	0,109	-0,141
-139,702	-200,000	0,001	0,004
-138,687	151,181	0,079	-0,077
-137,672	248,432	-0,106	0,127
-136,658	113,923	-0,013	0,011
-135,643	104,916	-0,118	-0,099
-134,629	800,000	0,042	-0,126
-133,614	231,146	-0,009	0,011
-132,599	-200,000	0,013	0,073
-131,585	-200,000	-0,005	0,143
-130,570	350,079	-0,094	0,132
-129,556	8,361	0,088	0,047
-128,541	-200,000	0,011	-0,035
-127,526	-200,000	0,036	0,143
-126,512	-200,000	-0,023	0,099
-125,497	-200,000	-0,026	0,103
-124,483	1,567	0,165	-0,084
-123,468	498,257	-0,020	0,032
-122,453	-43,290	0,054	0,019
-121,439	138,592	-0,057	0,053
-120,424	337,465	0,032	-0,044
-119,410	-36,200	0,109	-0,042
-118,395	453,893	-0,033	-0,051
-117,380	663,595	-0,005	0,010
-116,366	471,850	0,021	0,034
-115,351	-84,464	0,135	0,030
-114,337	-56,197	0,097	-0,031
-113,322	-16,413	-0,111	0,050
-112,307	-101,575	-0,118	-0,020
-111,293	-200,000	-0,006	0,113
-110,278	-115,023	0,113	-0,015
-109,264	476,016	-0,051	-0,081
-108,249	-200,000	0,017	0,204
-107,234	45,386	-0,081	-0,053
-106,220	800,000	0,043	-0,088
-105,205	-193,805	-0,044	0,000
-104,191	-200,000	-0,004	0,017
-103,176	-200,000	-0,005	-0,214
-102,162	707,293	0,079	0,149
-101,147	-200,000	0,003	-0,150
-100,132	-200,000	0,003	-0,072
-99,118	405,415	0,113	-0,169
-98,103	-114,699	0,070	0,009
-97,089	-146,889	0,078	0,005
-96,074	219,803	-0,072	0,081
-95,059	800,000	-0,013	0,034
-94,045	-200,000	0,031	0,096
-93,030	800,000	-0,056	0,159
-92,016	105,427	-0,066	-0,055
-91,001	110,009	0,105	0,089
-89,986	-24,741	0,105	-0,044
-88,972	-126,260	-0,132	-0,014
-87,957	-147,528	-0,062	-0,004
-86,943	387,590	-0,078	0,114
-85,928	471,186	-0,077	-0,124
-84,913	332,710	0,034	0,046
-83,899	-200,000	-0,019	0,125
-82,884	57,817	-0,027	-0,019
-81,870	-200,000	-0,016	-0,141
-80,855	-135,316	-0,090	-0,008
-79,840	510,951	0,026	-0,043
-78,826	113,322	-0,082	-0,070
-77,811	30,366	-0,079	-0,048
-76,797	-200,000	0,016	0,077
-75,782	800,000	0,055	0,135
-74,767	-38,415	-0,018	0,007
-73,753	183,604	0,068	-0,071
-72,738	-200,000	0,026	-0,151
-71,724	646,838	-0,014	-0,026
-70,709	-200,000	0,005	0,121
-69,694	-37,290	-0,041	0,015
-68,680	-200,000	0,007	-0,032
-67,665	-57,252	0,054	0,017
-66,651	397,067	0,043	0,064
-65,636	800,000	-0,008	-0,022
-64,622	-153,546	0,064	0,003
-63,607	-200,000	-0,001	-0,087
-62,592	-144,268	-0,103	-0,007
-61,578	7,223	0,063	0,033
-60,563	159,392	-0,115	0,114
-59,549	590,991	-0,123	0,216
-58,534	2,180	-1,745	-0,889
-57,519	433,586	-1,330	-2,049
-56,505	-200,000	-0,720	-4,532
-55,490	391,212	0,972	1,432
-54,476	800,000	4,770	11,144
-53,461	-200,000	20,247	323,704
-52,446	800,000	752,577	2310,856
-51,432	548,242	1663,538	2828,039
-50,417	74,803	1671,708	1243,004
-49,403	19,952	1544,500	877,976
-48,388	13,945	1466,866	804,621
-47,373	18,350	1457,378	820,667
-46,359	16,243	1446,913	804,647
-45,344	12,184	1442,590	782,765
-44,330	12,108	1440,509	781,242
-43,315	12,127	1438,633	780,283
-42,300	12,151	1436,819	779,384
-41,286	12,161	1435,707	778,795
-40,271	12,135	1434,501	777,987
-39,257	12,141	1433,201	777,279
-38,242	12,176	1432,044	776,788
-37,227	12,159	1430,909	776,063
-36,213	12,142	1429,536	775,207
-35,198	12,167	1428,360	774,654
-34,184	12,191	1427,525	774,287
-33,169	12,177	1425,949	773,336
-32,154	12,202	1424,787	772,794
-31,140	12,203	1423,678	772,166
-30,125	12,207	1422,609	771,574
-29,111	12,191	1421,330	770,775
-28,096	12,149	1420,396	770,036
-27,082	12,096	1419,349	769,189
-26,067	12,064	1418,406	768,496
-25,052	12,153	1416,954	768,100
-24,038	12,084	1416,015	767,234
-23,023	12,092	1415,132	766,763
-22,009	12,082	1414,214	766,190
-20,994	12,083	1413,053	765,536
-19,979	12,067	1412,357	765,050
-18,965	12,002	1411,313	764,151
-17,950	12,088	1410,397	764,026
-16,936	12,069	1409,768	763,566
-15,921	12,004	1408,549	762,572
-14,906	11,997	1407,505	761,944
-13,892	12,000	1406,938	761,621
-12,877	11,984	1405,849	760,927
-11,863	11,973	1404,966	760,369
-10,848	12,010	1403,826	759,892
-9,833	11,954	1403,305	759,318
-8,819	11,929	1402,344	758,653
-7,804	11,898	1401,313	757,919
-6,790	11,934	1400,286	757,504
-5,775	11,909	1399,346	756,848
-4,760	11,945	1398,053	756,285
-3,746	11,930	1397,329	755,794
-2,731	11,901	1396,580	755,222
-1,717	11,875	1395,838	754,674
-0,702	11,895	1393,981	753,733
0,313	15,990	1308,726	726,500
1,327	32,452	699,379	426,041
2,342	50,252	121,780	81,156
3,356	5,793	16,317	8,502
4,371	-9,065	3,317	1,563
5,386	25,635	0,696	0,408
6,400	-200,000	0,120	0,468
7,415	-40,249	-0,316	-0,116
8,429	92,407	-0,327	-0,260
9,444	106,203	-0,307	-0,257
10,459	80,149	-0,313	-0,238
11,473	183,100	-0,237	-0,248
12,488	-27,008	-0,251	-0,103
13,502	102,972	-0,364	-0,301
14,517	-52,795	-0,334	-0,108
15,531	-3,934	-0,478	-0,233
16,546	-57,603	-0,262	-0,081
17,561	137,307	-0,343	-0,317
18,575	-76,437	-0,167	0,041
19,590	130,047	-0,306	-0,277
20,604	-146,711	-0,286	0,017
21,619	172,815	-0,357	-0,363
22,634	133,992	-0,407	-0,372
23,648	120,055	-0,300	-0,263
24,663	178,947	-0,321	-0,332
25,677	230,451	-0,288	-0,333
26,692	104,371	-0,323	-0,268
27,707	84,186	-0,314	-0,242
28,721	-49,369	-0,396	-0,132
29,736	23,964	-0,373	-0,217
30,750	104,691	-0,354	-0,294
31,765	37,498	-0,466	-0,291
32,780	252,840	-0,297	-0,358
33,794	110,245	-0,370	-0,313
34,809	32,538	-0,363	-0,221
35,823	75,203	-0,354	-0,263
36,838	22,936	-0,439	-0,253
37,853	41,351	-0,370	-0,235
38,867	161,188	-0,340	-0,335
39,882	25,570	-0,349	-0,204
40,896	94,315	-0,313	-0,250
41,911	183,058	-0,293	-0,305
42,926	51,333	-0,383	-0,256
43,940	31,733	-0,474	-0,286
44,955	12,722	-0,283	-0,154
45,969	336,739	-0,238	-0,326
46,984	143,590	-0,292	-0,274
47,999	20,489	-0,298	-0,169
49,013	85,832	-0,345	-0,267
50,028	116,562	-0,189	-0,163
51,042	31,504	-0,356	-0,215
52,057	122,861	-0,386	-0,340
53,071	60,266	-0,294	-0,205
54,086	64,106	-0,344	-0,243
55,101	20,234	-0,304	-0,172
56,115	-1,210	-0,249	-0,123
57,130	-38,619	-0,384	-0,142
58,144	12,190	-0,459	-0,248
59,159	0,022	-0,397	-0,198
60,174	3,645	-0,324	-0,166
61,188	111,695	-0,351	-0,298
62,203	149,454	-0,336	-0,320
63,217	3,662	-0,301	-0,154
64,232	44,436	-0,342	-0,220
65,247	121,208	-0,265	-0,231
66,261	1,045	-0,344	-0,173
67,276	102,557	-0,371	-0,304
68,290	178,041	-0,221	-0,226
69,305	-13,376	-0,309	-0,140
70,320	-9,040	-0,232	-0,109
71,334	20,729	-0,312	-0,177
72,349	-27,018	-0,324	-0,132
73,363	89,614	-0,331	-0,259
74,378	46,294	-0,479	-0,311
75,393	107,424	-0,215	-0,180
76,407	94,125	-0,254	-0,202
77,422	-86,399	-0,190	-0,041
78,436	-91,594	-0,231	-0,046
79,451	-48,827	-0,386	-0,129
80,466	81,015	-0,252	-0,191
81,480	13,878	-0,307	-0,167
82,495	44,225	-0,302	-0,194
83,509	143,069	-0,242	-0,226
84,524	-62,800	-0,401	-0,116
85,539	87,276	-0,141	-0,109
86,553	62,197	-0,253	-0,177
87,568	100,551	-0,214	-0,174
88,582	24,672	-0,407	-0,236
89,597	-6,462	-0,272	-0,129
90,611	47,108	-0,308	-0,200
91,626	66,268	-0,187	-0,133
92,641	65,727	-0,275	-0,195
93,655	-120,959	-0,215	0,025
94,670	-37,547	-0,295	-0,110
95,684	93,166	-0,301	-0,239
96,699	4,731	-0,331	-0,170
97,714	140,905	-0,269	-0,249
98,728	184,938	-0,155	-0,161
99,743	534,524	-0,127	-0,211
100,757	43,714	-0,345	-0,221
101,772	55,893	-0,169	-0,114
102,787	34,379	-0,282	-0,172
103,801	-20,545	-0,332	-0,142
104,816	3,258	-0,375	-0,191
105,830	97,435	-0,213	-0,171
106,845	83,754	-0,282	-0,215
107,860	99,350	-0,317	-0,257
108,874	-56,717	-0,372	-0,115
109,889	171,057	-0,209	-0,210
110,903	129,095	-0,280	-0,250
111,918	-163,166	-0,250	0,008
112,933	-122,146	-0,228	0,026
113,947	-73,865	-0,223	-0,056
114,962	-149,867	-0,262	-0,014
115,976	-69,823	-0,341	-0,091
116,991	66,236	-0,264	-0,188
118,006	17,135	-0,334	-0,185
119,020	225,435	-0,185	-0,210
120,035	59,497	-0,232	-0,160
121,049	247,222	-0,182	-0,216
122,064	-36,494	-0,208	-0,078
123,079	44,722	-0,149	-0,096
124,093	1,391	-0,253	-0,127
125,108	13,935	-0,223	-0,121
126,122	-31,241	-0,324	-0,127
127,137	-40,657	-0,151	-0,054
128,151	297,654	-0,100	-0,129
129,166	85,389	-0,183	-0,140
130,181	267,119	-0,223	-0,273
131,195	109,475	-0,216	-0,180
132,210	-29,375	-0,337	-0,134
133,224	-137,213	-0,290	-0,023
134,239	169,169	-0,176	-0,176
135,254	606,269	-0,185	-0,323
136,268	20,648	-0,221	-0,125
137,283	-11,659	-0,371	-0,170
138,297	67,288	-0,302	-0,215
139,312	90,295	-0,220	-0,172
140,327	430,446	-0,209	-0,317
141,341	186,248	-0,095	-0,099
142,356	-75,757	-0,242	-0,059
143,370	-20,578	-0,380	-0,162
144,385	-81,955	-0,308	-0,070
145,400	255,008	-0,191	-0,229
146,414	-66,061	-0,304	-0,084
147,429	455,262	-0,156	-0,243
148,443	163,815	-0,224	-0,220
149,458	74,230	-0,192	-0,140
150,473	23,649	-0,307	-0,176
151,487	92,868	-0,186	-0,147
152,502	11,544	-0,276	-0,147
153,516	226,492	-0,263	-0,298
154,531	800,000	-0,141	-0,319
155,546	149,937	-0,285	-0,270
156,560	609,735	-0,087	-0,153
157,575	147,799	-0,126	-0,118
158,589	317,662	-0,172	-0,227
159,604	-46,145	-0,383	-0,131
160,619	-108,535	-0,356	-0,053
161,633	49,518	-0,135	-0,088
162,648	156,734	-0,224	-0,215
163,662	167,281	-0,219	-0,217
164,677	326,741	-0,190	-0,254
165,692	126,391	-0,261	-0,230
166,706	109,229	-0,292	-0,244
167,721	-39,741	-0,315	-0,114
168,735	185,310	-0,240	-0,248
169,750	21,586	-0,295	-0,167
170,764	-4,290	-0,206	-0,099
171,779	-56,656	-0,319	-0,098
172,794	217,793	-0,085	-0,094
173,808	106,674	-0,236	-0,195
174,823	84,981	-0,207	-0,158
175,837	-87,984	-0,234	-0,049
176,852	-11,878	-0,205	-0,093
177,867	800,000	-0,120	-0,279
178,881	20,551	-0,225	-0,127
179,896	29,383	-0,210	-0,124
180,910	706,174	-0,167	-0,307
181,925	179,563	-0,258	-0,263
182,940	84,380	-0,281	-0,214
183,954	40,022	-0,255	-0,159
184,969	164,333	-0,190	-0,186
185,983	304,697	-0,144	-0,186
186,998	-107,196	-0,214	-0,032
188,013	145,674	-0,296	-0,276
189,027	-5,599	-0,297	-0,141
190,042	302,262	-0,123	-0,159
191,056	181,292	-0,266	-0,272
192,071	618,112	-0,075	-0,132
193,086	-73,405	-0,087	-0,022
194,100	47,564	-0,225	-0,146
195,115	-200,000	-0,065	-0,231
196,129	92,671	-0,171	-0,134
197,144	68,983	-0,354	-0,253
198,159	519,386	-0,154	-0,252
199,173	-27,099	-0,220	-0,089
200,188	-43,705	-0,161	-0,056
201,202	55,071	-0,158	-0,106
202,217	222,085	-0,221	-0,247
203,232	338,521	-0,094	-0,127
204,246	69,348	-0,232	-0,166
205,261	-139,142	-0,170	0,013
206,275	27,341	-0,187	-0,109
207,290	68,126	-0,188	-0,133
208,304	-200,000	-0,102	-0,000
209,319	800,000	-0,073	-0,150
210,334	152,363	-0,170	-0,161
211,348	111,237	-0,302	-0,252
212,363	8,373	-0,180	-0,094
213,377	79,583	-0,115	-0,086
214,392	5,900	-0,268	-0,137
215,407	409,466	-0,054	-0,080
216,421	111,510	-0,183	-0,153
217,436	-86,410	-0,220	-0,047
218,450	20,352	-0,196	-0,109
219,465	533,639	-0,132	-0,217
220,480	177,684	-0,251	-0,253
221,494	-50,081	-0,155	-0,051
222,509	306,858	-0,205	-0,265
223,523	145,427	-0,075	-0,069
224,538	-28,639	-0,275	-0,109
225,553	87,216	-0,209	-0,160
226,567	148,886	-0,230	-0,216
227,582	131,059	-0,246	-0,219
228,596	800,000	-0,059	-0,118
229,611	27,189	-0,200	-0,116
230,626	353,185	-0,132	-0,182
231,640	800,000	-0,094	-0,196
232,655	198,777	-0,183	-0,195
233,669	126,174	-0,243	-0,213
234,684	783,954	-0,103	-0,197
235,699	45,610	-0,134	-0,086
236,713	-61,548	-0,088	-0,026
237,728	87,088	-0,137	-0,104
238,742	43,356	-0,239	-0,151
239,757	47,641	-0,250	-0,161
240,772	149,610	-0,220	-0,207
241,786	344,528	-0,164	-0,223
242,801	181,415	-0,163	-0,166
243,815	-85,273	-0,223	-0,048
244,830	-29,383	-0,170	-0,067
245,844	-37,112	-0,225	-0,083
246,859	12,429	-0,208	-0,111
247,874	-200,000	-0,056	-0,241
248,888	293,414	-0,147	-0,186
249,903	-15,203	-0,144	-0,064
250,917	82,831	-0,179	-0,135
251,932	114,364	-0,110	-0,092
252,947	402,170	-0,110	-0,160
253,961	45,066	-0,229	-0,146
254,976	-200,000	-0,001	-0,123
255,990	20,182	-0,281	-0,156
257,005	243,581	-0,159	-0,185
258,020	800,000	-0,068	-0,163
259,034	-102,075	-0,227	-0,037
260,049	222,641	-0,102	-0,114
261,063	-37,386	-0,144	-0,053
262,078	187,577	-0,085	-0,088
263,093	-169,180	-0,296	-0,007
264,107	712,154	-0,110	-0,203
265,122	800,000	-0,044	-0,121
266,136	275,642	-0,091	-0,112
267,151	112,439	-0,099	-0,083
268,166	446,336	-0,036	-0,054
269,180	324,835	-0,166	-0,220
270,195	298,910	-0,082	-0,104
271,209	143,253	-0,291	-0,267
272,224	134,376	-0,105	-0,094
273,239	71,109	-0,223	-0,159
274,253	-16,725	-0,078	0,034
275,268	452,614	-0,058	-0,088
276,282	256,272	-0,115	-0,137
277,297	800,000	-0,159	-0,353
278,312	12,366	-0,121	-0,064
279,326	121,603	-0,124	-0,107
280,341	-112,690	-0,090	-0,012
281,355	28,352	-0,223	-0,130
282,370	-134,735	-0,114	0,009
283,384	-39,375	-0,098	-0,035
284,399	-200,000	-0,034	-0,115
285,414	-26,717	-0,312	-0,125
286,428	-35,889	-0,160	-0,059
287,443	-0,868	-0,168	-0,082
288,457	-155,523	-0,154	0,007
289,472	-84,336	-0,112	-0,024
290,487	156,167	-0,183	-0,174
291,501	800,000	-0,088	-0,201
292,516	-18,062	-0,230	-0,099
293,530	229,107	-0,151	-0,170
294,545	507,265	-0,016	-0,026
295,560	-142,309	-0,233	0,016
296,574	-96,650	-0,112	-0,020
297,589	800,000	-0,106	-0,221
298,603	60,029	-0,190	-0,129
299,618	105,680	-0,261	-0,213
300,633	121,607	-0,091	-0,078
301,647	-5,214	-0,182	-0,086
302,662	89,085	-0,136	-0,104
303,676	-40,250	-0,152	-0,054
304,691	-7,043	-0,153	0,071
305,706	93,765	-0,164	-0,128
306,720	-86,952	-0,119	-0,025
307,735	-76,265	-0,139	-0,034
308,749	-32,814	-0,158	-0,060
309,764	-118,874	-0,176	0,021
310,779	68,038	0,010	-0,007
311,793	252,851	-0,022	-0,026
312,808	789,869	-0,082	-0,156
313,822	-18,634	-0,247	-0,105
314,837	800,000	-0,047	0,116
315,852	-47,839	-0,215	-0,071
316,866	33,415	-0,131	-0,078
317,881	283,967	-0,130	-0,162
318,895	-119,714	-0,130	-0,015
319,910	4,765	-0,211	-0,106
320,925	103,600	-0,050	-0,041
321,939	-91,196	-0,207	-0,040
322,954	-84,780	-0,068	0,015
323,968	-128,564	-0,055	-0,005
324,983	6,569	-0,140	-0,071
325,997	-36,204	-0,210	-0,078
327,012	-109,958	-0,085	0,012
328,027	119,614	-0,235	-0,200
329,041	86,100	-0,209	-0,158
330,056	-42,050	-0,154	0,054
331,070	-33,813	-0,090	-0,034
332,085	479,863	-0,063	-0,098
333,100	111,859	-0,119	-0,099
334,114	-45,864	-0,316	-0,106
335,129	728,326	-0,121	-0,222
336,143	24,894	-0,254	-0,144
337,158	-169,553	-0,050	0,001
338,173	-200,000	0,005	-0,101
339,187	462,293	-0,024	-0,037
340,202	-109,052	-0,186	-0,027
341,216	-58,978	-0,056	0,016
342,231	800,000	-0,055	-0,162
343,246	-113,431	-0,139	-0,019
344,260	726,123	-0,064	-0,117
345,275	800,000	-0,036	-0,107
346,289	-200,000	0,002	-0,032
347,304	82,549	-0,134	-0,099
348,319	-89,168	-0,191	0,038
349,333	800,000	-0,086	-0,186
350,348	-90,808	-0,194	-0,038
351,362	800,000	-0,045	-0,099
352,377	221,939	-0,041	-0,045
353,392	60,286	-0,143	-0,097
354,406	-71,979	-0,174	0,044
355,421	208,174	1314,460	1409,127
356,435	160,167	1475,132	1409,592
