DTS Sentinel unit serial number:	SN410029Multiplexer serial number:	ORYXHardware model number:	OX2-SRSoftware version number:	ORYX F/W v4,00 Oryx Data Collector v3.7.2.0data status	okinstallation	B3 Nyhavnadifferential loss correction	single-endedforward channel	channel 1reverse channel	N/Adate	2023/12/02time	04:12:30forward acquisition time	300,00reverse acquisition time	0,00gamma	499,1914k internal	0,3194k external	0,3194temperature offset calibration	1,0000default loss term (dB/km)	0,3820temperature slope calibration	1,0000multiplexer offset coefficient	1,0000multiplexer slope coefficient	1,0000fibre end	0,00T internal ref (°C)	16,56T ext. ref 1 (°C)	1,42T ext. ref 2 (°C)	1,40length (m)	temperature (°C)	Stokes	anti-Stokes-744,400	800,000	-0,120	-0,334
-743,385	606,060	0,139	0,253
-742,371	246,747	-0,145	-0,178
-741,356	-200,000	0,039	0,396
-740,342	163,176	-0,133	-0,136
-739,327	-200,000	-0,079	0,358
-738,312	453,580	-0,182	-0,295
-737,298	-200,000	0,049	0,247
-736,283	118,529	-0,113	-0,102
-735,269	800,000	0,147	0,390
-734,254	800,000	-0,093	-0,188
-733,239	-200,000	-0,066	0,279
-732,225	138,977	-0,093	-0,089
-731,210	-200,000	-0,014	0,260
-730,196	-98,254	0,047	0,009
-729,181	757,672	-0,031	0,061
-728,167	800,000	-0,014	-0,042
-727,152	186,540	-0,058	0,063
-726,137	-200,000	0,012	-0,041
-725,123	190,195	-0,048	-0,053
-724,108	61,921	-0,099	-0,072
-723,094	8,172	0,053	-0,029
-722,079	-46,015	-0,076	-0,027
-721,064	119,580	0,071	-0,064
-720,050	-56,999	-0,075	-0,024
-719,035	-125,864	-0,013	-0,001
-718,021	55,540	-0,086	-0,061
-717,006	186,616	-0,051	-0,055
-715,991	-119,619	-0,122	-0,015
-714,977	470,267	0,075	-0,123
-713,962	17,775	0,095	-0,055
-712,948	30,473	-0,096	0,059
-711,933	508,104	-0,039	0,066
-710,918	800,000	-0,007	0,017
-709,904	-200,000	0,003	-0,148
-708,889	-200,000	0,012	-0,111
-707,875	184,963	-0,010	0,011
-706,860	800,000	-0,054	0,126
-705,845	-174,886	-0,033	-0,001
-704,831	78,961	-0,024	-0,019
-703,816	332,186	0,134	-0,189
-702,802	800,000	-0,093	-0,219
-701,787	476,879	-0,067	-0,111
-700,772	-121,624	-0,258	-0,031
-699,758	11,903	0,070	-0,039
-698,743	38,167	0,130	0,084
-697,729	-177,082	0,061	-0,001
-696,714	350,313	-0,151	0,218
-695,699	228,742	-0,019	-0,022
-694,685	800,000	0,015	-0,040
-693,670	-120,055	-0,091	0,011
-692,656	-65,335	-0,156	0,045
-691,641	-200,000	0,030	0,118
-690,627	-96,397	0,096	-0,018
-689,612	-200,000	0,001	-0,099
-688,597	156,213	-0,107	0,108
-687,583	15,914	0,059	-0,034
-686,568	800,000	-0,068	-0,155
-685,554	35,382	-0,095	0,060
-684,539	163,353	0,045	0,046
-683,524	-106,347	-0,054	0,009
-682,510	-200,000	-0,009	-0,073
-681,495	-62,691	0,082	-0,024
-680,481	396,375	-0,025	0,039
-679,466	-41,538	-0,123	0,046
-678,451	800,000	-0,008	-0,020
-677,437	-200,000	0,016	-0,217
-676,422	639,922	0,062	-0,114
-675,408	32,947	-0,148	-0,093
-674,393	4,242	-0,046	0,025
-673,378	590,609	-0,022	-0,041
-672,364	-24,771	0,061	-0,026
-671,349	-200,000	0,023	-0,143
-670,335	-64,448	-0,031	-0,009
-669,320	518,892	-0,049	-0,085
-668,305	-32,046	-0,129	0,052
-667,291	-200,000	-0,018	0,070
-666,276	73,281	0,111	-0,085
-665,262	-200,000	-0,092	0,000
-664,247	-34,111	-0,143	-0,057
-663,232	474,760	-0,026	-0,043
-662,218	-4,343	0,149	-0,075
-661,203	-200,000	-0,037	0,156
-660,189	-23,998	-0,036	-0,016
-659,174	368,423	0,040	-0,060
-658,159	-200,000	-0,042	-0,189
-657,145	-12,282	-0,144	-0,068
-656,130	46,885	0,132	-0,089
-655,116	287,040	0,147	0,193
-654,101	649,381	0,043	0,080
-653,086	-200,000	-0,006	0,059
-652,072	-43,785	0,095	-0,034
-651,057	-74,777	-0,167	0,043
-650,043	447,609	0,073	-0,116
-649,028	-200,000	-0,005	0,081
-648,014	65,517	-0,133	-0,098
-646,999	-87,549	0,089	0,019
-645,984	56,149	-0,043	-0,030
-644,970	30,072	-0,097	0,060
-643,955	133,283	-0,049	0,046
-642,941	3,775	-0,130	0,069
-641,926	167,294	0,138	-0,142
-640,911	-200,000	-0,007	-0,070
-639,897	402,498	-0,067	-0,102
-638,882	-125,152	0,114	0,013
-637,868	-2,709	-0,013	0,007
-636,853	800,000	0,010	0,022
-635,838	-92,731	-0,128	0,026
-634,824	-136,629	0,104	0,009
-633,809	-200,000	0,003	-0,031
-632,795	-200,000	-0,028	-0,126
-631,780	295,190	-0,042	-0,055
-630,765	499,509	-0,014	-0,023
-629,751	18,730	0,112	0,065
-628,736	-89,387	0,128	-0,027
-627,722	-37,493	-0,036	0,014
-626,707	73,403	0,067	0,051
-625,692	-200,000	0,007	0,065
-624,678	36,598	0,066	-0,042
-623,663	-157,559	-0,088	-0,004
-622,649	-107,493	-0,162	-0,025
-621,634	-19,091	-0,083	-0,037
-620,619	663,711	-0,099	-0,185
-619,605	-200,000	-0,012	0,040
-618,590	401,859	0,002	-0,003
-617,576	-200,000	-0,017	-0,077
-616,561	-200,000	-0,122	0,000
-615,546	800,000	-0,075	-0,181
-614,532	-87,248	-0,103	-0,023
-613,517	-200,000	-0,024	0,092
-612,503	366,925	-0,060	-0,088
-611,488	-200,000	-0,019	0,073
-610,474	-49,925	0,082	0,028
-609,459	42,251	-0,114	0,075
-608,444	-63,986	-0,080	-0,024
-607,430	164,632	-0,047	-0,048
-606,415	14,784	-0,112	-0,063
-605,401	379,359	0,067	-0,100
-604,386	90,563	-0,132	0,107
-603,371	285,364	0,147	-0,192
-602,357	560,878	0,034	0,060
-601,342	-200,000	-0,016	-0,109
-600,328	683,866	0,026	-0,050
-599,313	-200,000	0,007	-0,172
-598,298	-109,121	-0,142	0,022
-597,284	800,000	-0,036	0,103
-596,269	800,000	0,031	0,083
-595,255	122,560	-0,037	0,033
-594,240	800,000	-0,017	-0,045
-593,225	-6,474	0,093	-0,046
-592,211	513,287	-0,116	0,197
-591,196	-92,008	0,022	-0,004
-590,182	-27,445	0,066	0,028
-589,167	-200,000	0,006	-0,087
-588,152	-61,537	0,019	0,006
-587,138	-147,783	-0,084	-0,005
-586,123	-187,348	0,012	-0,000
-585,109	319,925	-0,053	-0,073
-584,094	297,612	0,064	0,085
-583,079	-60,326	-0,076	0,023
-582,065	698,175	-0,031	0,059
-581,050	102,873	-0,038	0,032
-580,036	112,860	-0,040	0,035
-579,021	-132,096	0,053	0,005
-578,006	359,014	-0,016	-0,024
-576,992	800,000	0,014	0,043
-575,977	-7,617	-0,118	0,058
-574,963	800,000	-0,024	-0,072
-573,948	211,275	0,025	0,029
-572,934	235,093	0,058	0,070
-571,919	-200,000	-0,005	0,099
-570,904	-200,000	-0,004	-0,050
-569,890	-16,901	-0,153	0,070
-568,875	115,494	-0,096	0,085
-567,861	-5,441	-0,142	0,070
-566,846	295,477	0,028	0,037
-565,831	-7,815	0,127	-0,062
-564,817	800,000	-0,040	0,100
-563,802	800,000	-0,038	0,104
-562,788	-142,639	-0,112	-0,008
-561,773	-200,000	-0,023	-0,090
-560,758	-57,424	0,086	0,027
-559,744	800,000	0,038	0,076
-558,729	275,971	0,035	-0,045
-557,715	8,849	-0,072	0,039
-556,700	-200,000	0,001	-0,057
-555,685	-54,032	-0,006	-0,002
-554,671	800,000	0,017	0,042
-553,656	6,586	0,128	0,069
-552,642	-95,278	0,086	0,017
-551,627	-200,000	-0,001	0,065
-550,612	-200,000	-0,041	0,135
-549,598	-200,000	0,010	-0,033
-548,583	603,557	0,028	-0,051
-547,569	-14,978	0,096	0,044
-546,554	25,565	0,117	-0,070
-545,539	113,616	-0,079	-0,070
-544,525	-200,000	-0,003	0,122
-543,510	131,170	0,013	-0,012
-542,496	270,729	-0,052	-0,067
-541,481	-174,309	-0,169	0,003
-540,466	-153,835	0,056	0,003
-539,452	-7,437	0,106	0,052
-538,437	-200,000	-0,003	-0,050
-537,423	-19,851	-0,177	-0,079
-536,408	-94,398	-0,064	-0,013
-535,393	453,741	-0,068	-0,109
-534,379	57,415	0,093	-0,066
-533,364	800,000	-0,024	-0,058
-532,350	350,169	-0,075	-0,107
-531,335	-34,035	0,009	0,004
-530,321	-200,000	-0,003	0,046
-529,306	-70,992	-0,091	-0,025
-528,291	-200,000	-0,032	-0,110
-527,277	-200,000	0,003	-0,054
-526,262	-73,097	-0,049	-0,013
-525,248	-200,000	0,007	-0,089
-524,233	-61,115	0,103	0,031
-523,218	73,711	-0,069	0,052
-522,204	-81,213	-0,108	0,026
-521,189	336,377	0,067	0,094
-520,175	126,359	-0,124	0,113
-519,160	-88,890	0,017	-0,004
-518,145	145,962	0,015	-0,014
-517,131	87,433	0,010	-0,008
-516,116	-200,000	0,001	0,007
-515,102	168,478	-0,088	0,091
-514,087	800,000	-0,041	-0,086
-513,072	-200,000	-0,032	-0,122
-512,058	87,609	0,067	-0,054
-511,043	-200,000	-0,000	-0,037
-510,029	-39,352	0,039	0,015
-509,014	800,000	-0,003	0,008
-507,999	-173,692	0,099	0,002
-506,985	200,803	0,064	0,071
-505,970	79,476	-0,077	-0,059
-504,956	-11,284	-0,096	-0,045
-503,941	43,153	0,027	-0,018
-502,926	-200,000	0,176	-0,001
-501,912	-118,356	-0,014	0,002
-500,897	71,328	0,079	0,059
-499,883	153,595	-0,072	0,071
-498,868	-191,310	-0,092	-0,001
-497,853	116,052	-0,129	-0,114
-496,839	68,545	0,136	0,101
-495,824	-98,478	0,069	0,013
-494,810	411,502	-0,006	0,009
-493,795	40,891	0,082	0,053
-492,781	358,895	-0,051	0,073
-491,766	575,309	0,010	-0,018
-490,751	-200,000	-0,015	-0,074
-489,737	800,000	0,015	0,031
-488,722	-200,000	-0,025	0,165
-487,708	249,396	0,116	0,142
-486,693	431,326	0,093	0,146
-485,678	79,995	-0,137	-0,106
-484,664	660,663	0,018	-0,034
-483,649	272,231	0,007	0,009
-482,635	-35,976	0,083	-0,032
-481,620	25,075	-0,040	0,024
-480,605	-88,135	0,103	0,022
-479,591	-200,000	0,033	0,146
-478,576	439,230	-0,097	-0,153
-477,562	800,000	0,032	-0,076
-476,547	204,913	-0,025	0,028
-475,532	251,910	-0,077	-0,095
-474,518	-200,000	-0,000	-0,079
-473,503	223,193	0,037	0,043
-472,489	-200,000	-0,001	0,115
-471,474	-163,987	0,074	0,002
-470,459	-62,713	-0,140	0,042
-469,445	80,412	-0,035	0,027
-468,430	365,197	0,096	-0,140
-467,416	-118,301	-0,075	-0,009
-466,401	104,265	-0,087	0,074
-465,386	-44,674	0,240	0,086
-464,372	-200,000	0,004	0,037
-463,357	-8,483	0,074	-0,036
-462,343	-200,000	-0,031	-0,123
-461,328	-144,065	0,078	0,005
-460,313	138,587	-0,078	0,074
-459,299	-98,691	0,107	-0,019
-458,284	-200,000	-0,014	0,156
-457,270	-12,472	0,013	-0,006
-456,255	-117,878	-0,084	-0,011
-455,241	-200,000	-0,052	-0,197
-454,226	-62,057	0,004	-0,001
-453,211	800,000	-0,024	-0,052
-452,197	-57,590	0,102	0,032
-451,182	251,907	0,019	0,023
-450,168	89,146	0,027	0,022
-449,153	-50,560	-0,037	-0,012
-448,138	356,503	-0,037	-0,053
-447,124	800,000	-0,047	-0,135
-446,109	-200,000	-0,003	-0,143
-445,095	-200,000	-0,001	-0,074
-444,080	-200,000	0,009	-0,041
-443,065	116,358	0,118	0,105
-442,051	-8,830	0,063	0,030
-441,036	-200,000	0,002	-0,064
-440,022	450,744	0,065	-0,103
-439,007	-44,590	0,024	0,009
-437,992	87,691	0,110	-0,087
-436,978	194,120	0,106	0,115
-435,963	326,314	-0,090	0,124
-434,949	800,000	0,012	-0,028
-433,934	-106,162	-0,164	-0,026
-432,919	-135,564	-0,072	-0,006
-431,905	-129,993	-0,004	0,000
-430,890	208,874	0,064	-0,072
-429,876	-150,049	0,096	0,005
-428,861	-33,046	0,039	0,016
-427,846	-110,719	-0,077	0,011
-426,832	114,737	0,055	0,048
-425,817	800,000	0,053	-0,134
-424,803	-196,889	-0,127	0,001
-423,788	-200,000	0,006	0,115
-422,773	-133,961	0,155	0,014
-421,759	-200,000	-0,012	0,126
-420,744	-91,611	0,008	0,002
-419,730	165,613	0,199	-0,202
-418,715	-38,689	0,108	0,041
-417,701	800,000	-0,025	0,061
-416,686	346,676	0,042	-0,059
-415,671	800,000	0,028	0,071
-414,657	-137,242	0,130	0,011
-413,642	-129,129	-0,102	0,010
-412,628	-9,763	-0,092	0,044
-411,613	-183,085	-0,043	0,001
-410,598	154,723	-0,099	0,098
-409,584	-143,675	0,019	-0,001
-408,569	-200,000	0,018	0,121
-407,555	800,000	0,042	0,087
-406,540	-64,905	0,089	-0,026
-405,525	89,545	-0,014	-0,011
-404,511	37,117	0,045	0,029
-403,496	-200,000	0,039	-0,132
-402,482	-151,607	-0,086	-0,004
-401,467	-168,051	0,130	-0,004
-400,452	-134,850	0,030	-0,003
-399,438	0,599	-0,058	0,030
-398,423	800,000	0,033	0,072
-397,409	800,000	-0,038	0,102
-396,394	193,559	0,055	-0,060
-395,379	549,164	0,028	-0,049
-394,365	800,000	0,055	-0,125
-393,350	800,000	0,049	-0,111
-392,336	-200,000	0,003	0,076
-391,321	156,178	-0,076	0,076
-390,306	-131,955	-0,137	-0,013
-389,292	-200,000	-0,008	-0,109
-388,277	31,065	0,094	-0,058
-387,263	-84,058	0,176	0,040
-386,248	-200,000	0,020	0,084
-385,233	649,598	-0,041	-0,075
-384,219	94,350	0,048	0,039
-383,204	-136,694	-0,090	0,007
-382,190	800,000	0,015	-0,037
-381,175	367,055	-0,076	-0,111
-380,160	-200,000	-0,003	0,076
-379,146	800,000	0,022	0,048
-378,131	-109,762	-0,134	0,020
-377,117	800,000	0,042	-0,097
-376,102	-200,000	-0,010	0,096
-375,088	-91,267	0,027	0,005
-374,073	-200,000	-0,021	0,141
-373,058	-200,000	0,011	-0,075
-372,044	-200,000	0,022	0,079
-371,029	8,340	-0,036	0,019
-370,015	-200,000	0,010	-0,060
-369,000	-101,578	-0,085	0,015
-367,985	800,000	-0,026	0,053
-366,971	537,445	0,041	-0,070
-365,956	-200,000	0,025	-0,143
-364,942	-73,800	0,148	-0,038
-363,927	652,045	0,051	0,094
-362,912	-200,000	0,003	0,061
-361,898	-21,807	0,147	0,064
-360,883	151,098	0,017	-0,017
-359,869	585,668	-0,087	-0,153
-358,854	457,548	-0,042	-0,068
-357,839	135,164	0,088	0,082
-356,825	-22,069	0,145	0,063
-355,810	-125,377	0,078	-0,008
-354,796	-1,042	-0,156	-0,079
-353,781	-101,656	-0,044	-0,008
-352,766	-200,000	-0,015	-0,193
-351,752	-164,037	0,148	-0,005
-350,737	-200,000	-0,029	0,200
-349,723	-200,000	-0,004	0,167
-348,708	603,988	0,024	0,043
-347,693	209,615	0,055	-0,062
-346,679	800,000	-0,003	-0,009
-345,664	-34,835	-0,178	-0,069
-344,650	129,864	0,113	-0,104
-343,635	412,675	0,032	0,048
-342,620	59,305	-0,035	-0,024
-341,606	-48,112	-0,119	-0,041
-340,591	800,000	-0,025	-0,075
-339,577	169,834	-0,057	0,059
-338,562	-31,190	-0,061	0,024
-337,548	-91,006	-0,190	-0,039
-336,533	154,676	-0,058	0,057
-335,518	800,000	0,012	0,037
-334,504	-200,000	0,002	-0,050
-333,489	800,000	0,032	-0,064
-332,475	800,000	-0,035	0,107
-331,460	-200,000	0,003	-0,186
-330,445	440,534	0,050	0,078
-329,431	800,000	-0,072	0,201
-328,416	-117,105	0,054	-0,007
-327,402	-200,000	-0,011	0,171
-326,387	-13,097	-0,033	0,015
-325,372	227,179	-0,017	-0,020
-324,358	-81,085	0,059	0,014
-323,343	5,109	0,046	-0,024
-322,329	39,466	0,106	0,068
-321,314	-29,873	0,082	0,033
-320,299	-7,748	0,117	-0,056
-319,285	157,188	0,075	0,075
-318,270	60,231	-0,022	-0,016
-317,256	41,987	0,117	0,076
-316,241	-200,000	0,032	-0,127
-315,226	489,696	-0,033	-0,054
-314,212	-200,000	0,020	0,124
-313,197	-76,143	0,044	0,011
-312,183	-149,930	0,039	0,002
-311,168	-55,214	-0,078	-0,025
-310,153	-200,000	-0,035	-0,142
-309,139	-130,069	-0,087	-0,008
-308,124	800,000	-0,022	0,068
-307,110	-72,181	-0,030	0,008
-306,095	547,586	0,039	0,067
-305,080	550,416	0,052	0,089
-304,066	199,386	0,032	-0,035
-303,051	-200,000	-0,033	-0,143
-302,037	26,845	-0,103	-0,062
-301,022	-200,000	-0,010	0,043
-300,008	232,995	0,034	0,040
-298,993	800,000	-0,010	-0,024
-297,978	76,595	0,043	-0,033
-296,964	-200,000	0,012	-0,078
-295,949	800,000	0,008	-0,021
-294,935	49,927	-0,044	0,030
-293,920	127,136	-0,045	-0,041
-292,905	-101,484	0,065	0,011
-291,891	800,000	0,040	0,083
-290,876	94,331	-0,064	-0,052
-289,862	800,000	0,026	-0,074
-288,847	800,000	-0,066	-0,143
-287,832	-200,000	0,018	0,062
-286,818	217,995	-0,115	0,131
-285,803	-50,303	0,147	0,049
-284,789	-43,394	0,139	-0,050
-283,774	7,917	0,068	-0,037
-282,759	-200,000	-0,039	0,189
-281,745	-98,620	0,074	0,013
-280,730	-74,515	-0,112	-0,029
-279,716	800,000	-0,029	-0,073
-278,701	-200,000	0,008	0,082
-277,686	324,924	0,070	0,097
-276,672	292,604	-0,069	-0,091
-275,657	-33,151	-0,084	-0,033
-274,643	372,521	0,060	-0,087
-273,628	-200,000	-0,011	-0,108
-272,613	-56,119	0,061	-0,019
-271,599	800,000	0,005	0,011
-270,584	800,000	0,043	0,115
-269,570	-200,000	0,007	0,033
-268,555	488,015	0,025	0,040
-267,540	23,811	-0,054	-0,032
-266,526	-200,000	-0,050	-0,171
-265,511	-200,000	-0,009	-0,065
-264,497	-93,815	0,062	-0,012
-263,482	-200,000	0,012	0,050
-262,467	531,412	0,028	0,047
-261,453	-124,790	0,190	0,021
-260,438	-69,392	-0,144	0,039
-259,424	800,000	0,032	-0,076
-258,409	-14,426	0,104	-0,048
-257,395	45,410	0,061	-0,040
-256,380	459,356	-0,084	0,135
-255,365	800,000	0,024	0,055
-254,351	476,048	-0,039	0,063
-253,336	23,540	0,017	0,010
-252,322	-200,000	0,027	-0,097
-251,307	394,328	0,068	-0,102
-250,292	363,658	0,016	0,023
-249,278	126,293	-0,056	-0,050
-248,263	375,162	0,029	-0,043
-247,249	-71,976	-0,049	0,013
-246,234	191,772	0,009	0,010
-245,219	235,359	0,057	-0,067
-244,205	-67,055	-0,031	-0,009
-243,190	294,508	0,060	0,079
-242,176	-38,148	0,194	0,073
-241,161	-75,765	-0,039	0,010
-240,146	-163,916	-0,071	0,002
-239,132	-200,000	-0,006	-0,060
-238,117	-61,815	-0,044	0,013
-237,103	16,226	-0,064	-0,036
-236,088	128,403	0,148	-0,135
-235,073	800,000	0,051	0,145
-234,059	177,216	-0,042	0,044
-233,044	217,555	0,045	0,051
-232,030	-31,335	-0,025	0,010
-231,015	94,067	0,063	-0,051
-230,000	-87,512	-0,110	0,023
-228,986	-94,172	0,185	0,036
-227,971	210,692	0,129	0,145
-226,957	237,242	0,018	0,021
-225,942	800,000	0,030	0,083
-224,927	-200,000	-0,040	-0,155
-223,913	-200,000	-0,009	-0,082
-222,898	27,803	0,070	-0,042
-221,884	-90,862	0,018	0,004
-220,869	-200,000	0,002	0,021
-219,855	279,162	0,041	0,052
-218,840	658,609	0,104	0,191
-217,825	-128,471	0,076	-0,008
-216,811	-13,299	-0,102	-0,047
-215,796	-41,941	0,046	0,017
-214,782	-200,000	-0,036	-0,167
-213,767	332,231	-0,036	-0,050
-212,752	-20,257	0,012	0,005
-211,738	76,255	0,118	0,089
-210,723	-76,050	-0,090	0,023
-209,709	-200,000	-0,005	-0,066
-208,694	537,245	-0,037	-0,063
-207,679	-81,546	0,040	0,009
-206,665	553,055	0,017	0,029
-205,650	-198,789	-0,011	0,000
-204,636	-200,000	0,047	0,201
-203,621	728,227	0,039	0,075
-202,606	138,462	-0,023	0,021
-201,592	56,973	-0,067	-0,047
-200,577	689,675	0,012	-0,022
-199,563	-93,736	-0,075	0,015
-198,548	166,486	-0,050	0,051
-197,533	116,417	0,091	0,079
-196,519	-200,000	-0,024	0,086
-195,504	400,125	-0,090	-0,136
-194,490	319,673	-0,071	-0,097
-193,475	131,776	0,023	0,021
-192,460	158,602	0,044	-0,044
-191,446	-200,000	0,006	-0,032
-190,431	-195,756	-0,063	0,000
-189,417	-200,000	-0,016	0,050
-188,402	-54,971	-0,072	0,023
-187,387	37,158	0,049	-0,031
-186,373	-200,000	0,003	-0,086
-185,358	-200,000	-0,064	0,000
-184,344	-154,791	0,149	0,007
-183,329	800,000	-0,009	-0,027
-182,315	298,191	-0,009	-0,012
-181,300	800,000	-0,054	-0,145
-180,285	-133,182	-0,217	0,019
-179,271	-47,340	0,038	0,013
-178,256	96,215	-0,106	-0,087
-177,242	111,259	0,023	-0,020
-176,227	-99,231	0,117	-0,021
-175,212	800,000	-0,070	0,193
-174,198	29,708	-0,143	-0,086
-173,183	-200,000	-0,035	-0,155
-172,169	-200,000	0,005	0,070
-171,154	134,325	-0,041	0,038
-170,139	-13,072	0,045	0,021
-169,125	-200,000	0,002	0,010
-168,110	39,284	-0,027	0,017
-167,096	-88,148	-0,020	-0,004
-166,081	-134,177	0,025	-0,002
-165,066	-170,696	-0,097	-0,002
-164,052	-65,332	-0,053	-0,015
-163,037	200,661	-0,034	0,037
-162,023	12,193	0,055	-0,030
-161,008	135,924	0,082	-0,076
-159,993	59,229	0,086	-0,060
-158,979	-200,000	-0,021	0,074
-157,964	49,832	-0,084	0,056
-156,950	-8,904	-0,113	-0,054
-155,935	-200,000	0,035	0,155
-154,920	39,482	-0,143	0,091
-153,906	-171,858	0,104	0,002
-152,891	800,000	0,041	0,120
-151,877	394,513	-0,039	0,058
-150,862	94,243	-0,135	0,109
-149,847	800,000	0,012	-0,035
-148,833	800,000	-0,062	0,132
-147,818	292,951	0,081	0,106
-146,804	-109,855	0,077	0,011
-145,789	-58,473	-0,028	0,009
-144,775	-122,309	-0,055	0,006
-143,760	34,252	0,106	0,065
-142,745	-98,027	0,100	-0,018
-141,731	380,379	-0,091	0,134
-140,716	648,285	0,025	0,046
-139,702	800,000	0,011	0,030
-138,687	-192,156	0,023	0,000
-137,672	440,685	0,017	-0,026
-136,658	800,000	-0,042	-0,121
-135,643	-200,000	-0,003	-0,134
-134,629	800,000	-0,076	-0,150
-133,614	-111,350	0,013	0,002
-132,599	-200,000	0,015	-0,077
-131,585	120,972	0,051	0,045
-130,570	800,000	0,077	0,179
-129,556	-25,808	-0,056	-0,024
-128,541	-200,000	-0,055	-0,174
-127,526	550,659	0,058	-0,099
-126,512	17,240	0,052	0,029
-125,497	800,000	0,039	0,119
-124,483	-200,000	0,003	-0,017
-123,468	-197,292	-0,048	0,000
-122,453	-87,297	-0,056	0,012
-121,439	-200,000	-0,032	0,116
-120,424	-200,000	-0,022	-0,114
-119,410	-200,000	0,011	0,047
-118,395	-200,000	-0,019	0,060
-117,380	606,490	0,047	0,085
-116,366	245,652	0,044	0,052
-115,351	-75,720	-0,052	-0,013
-114,337	-101,326	-0,074	-0,013
-113,322	105,845	0,057	-0,048
-112,307	-113,797	-0,131	0,018
-111,293	411,570	0,059	-0,090
-110,278	245,383	0,025	-0,031
-109,264	800,000	-0,012	0,035
-108,249	108,018	0,027	-0,023
-107,234	-33,783	-0,013	0,005
-106,220	-200,000	-0,026	0,092
-105,205	169,298	0,057	-0,058
-104,191	111,680	-0,034	-0,029
-103,176	-132,776	0,065	0,006
-102,162	-47,993	-0,037	0,013
-101,147	-50,388	-0,109	0,036
-100,132	414,224	-0,064	-0,097
-99,118	22,832	-0,084	0,049
-98,103	-10,890	0,070	0,033
-97,089	-200,000	0,003	0,038
-96,074	147,231	0,064	0,061
-95,059	-200,000	-0,005	0,017
-94,045	800,000	0,034	-0,072
-93,030	800,000	0,032	0,098
-92,016	31,329	-0,071	-0,043
-91,001	391,033	0,027	0,040
-89,986	800,000	0,052	0,106
-88,972	800,000	0,063	0,137
-87,957	60,892	-0,164	0,115
-86,943	-126,010	-0,140	0,015
-85,928	-146,223	-0,105	-0,006
-84,913	-58,952	-0,118	-0,036
-83,899	-99,714	0,115	-0,020
-82,884	-120,657	0,078	-0,009
-81,870	214,543	-0,070	0,079
-80,855	377,166	0,099	0,144
-79,840	-133,075	-0,100	0,009
-78,826	124,156	-0,105	0,094
-77,811	-46,341	-0,088	-0,030
-76,797	-64,142	-0,127	-0,037
-75,782	16,912	0,155	-0,087
-74,767	-57,679	-0,104	-0,032
-73,753	508,325	0,040	-0,066
-72,738	-200,000	0,002	-0,014
-71,724	-29,968	-0,073	0,030
-70,709	288,478	0,134	-0,173
-69,694	-72,460	-0,126	0,033
-68,680	-38,150	-0,089	-0,033
-67,665	800,000	0,035	0,069
-66,651	-200,000	-0,009	0,042
-65,636	-67,361	-0,101	-0,028
-64,622	0,702	0,097	-0,049
-63,607	68,558	-0,053	-0,038
-62,592	-200,000	-0,021	-0,271
-61,578	800,000	-0,013	-0,030
-60,563	-184,912	0,029	0,000
-59,549	-51,282	-0,194	-0,064
-58,534	-108,804	-1,277	-0,192
-57,519	339,168	-1,546	-2,144
-56,505	-200,000	-0,430	-4,431
-55,490	134,593	0,879	0,810
-54,476	800,000	4,746	11,375
-53,461	-200,000	17,263	270,076
-52,446	800,000	715,654	2185,688
-51,432	553,691	1629,947	2791,644
-50,417	81,414	1655,744	1268,866
-49,403	24,345	1530,055	894,989
-48,388	18,397	1453,265	821,434
-47,373	18,522	1442,752	816,057
-46,359	18,281	1433,482	809,632
-45,344	16,711	1428,903	799,561
-44,330	16,622	1427,032	798,061
-43,315	16,627	1425,454	797,173
-42,300	16,646	1423,751	796,278
-41,286	16,713	1422,534	795,882
-40,271	16,697	1421,035	794,937
-39,257	16,646	1419,818	793,983
-38,242	16,668	1418,634	793,393
-37,227	16,695	1417,475	792,841
-36,213	16,685	1416,091	791,986
-35,198	16,642	1414,986	791,138
-34,184	16,667	1414,058	790,706
-33,169	16,601	1412,731	789,619
-32,154	16,645	1411,820	789,287
-31,140	16,671	1410,545	788,664
-30,125	16,717	1409,325	788,165
-29,111	16,717	1408,133	787,468
-28,096	16,681	1406,914	786,586
-27,082	16,595	1405,856	785,562
-26,067	16,613	1404,692	784,965
-25,052	16,595	1403,741	784,321
-24,038	16,592	1402,737	783,712
-23,023	16,585	1401,643	783,036
-22,009	16,559	1400,459	782,225
-20,994	16,526	1399,870	781,713
-19,979	16,550	1398,965	781,285
-18,965	16,524	1397,940	780,560
-17,950	16,510	1397,028	779,957
-16,936	16,570	1396,058	779,661
-15,921	16,487	1394,908	778,606
-14,906	16,488	1393,808	777,963
-13,892	16,509	1393,014	777,588
-12,877	16,472	1392,204	776,934
-11,863	16,501	1391,233	776,496
-10,848	16,512	1390,242	775,961
-9,833	16,470	1389,418	775,275
-8,819	16,441	1388,325	774,503
-7,804	16,367	1387,585	773,719
-6,790	16,388	1386,409	773,127
-5,775	16,373	1385,329	772,427
-4,760	16,381	1384,844	772,160
-3,746	16,376	1383,828	771,541
-2,731	16,371	1382,979	771,017
-1,717	16,341	1382,020	770,313
-0,702	16,430	1379,889	769,503
0,313	20,147	1302,045	743,253
1,327	36,655	707,705	442,292
2,342	56,340	125,798	86,557
3,356	3,638	16,639	8,579
4,371	27,239	2,913	1,731
5,386	14,245	0,526	0,290
6,400	800,000	-0,018	0,046
7,415	-78,089	-0,338	-0,082
8,429	5,626	-0,233	-0,122
9,444	-46,939	-0,359	-0,124
10,459	-30,970	-0,276	-0,110
11,473	37,582	-0,329	-0,206
12,488	37,576	-0,264	-0,166
13,502	118,442	-0,253	-0,221
14,517	188,150	-0,311	-0,329
15,531	0,323	-0,429	-0,216
16,546	58,254	-0,286	-0,199
17,561	8,574	-0,371	-0,197
18,575	-54,240	-0,226	-0,072
19,590	58,080	-0,206	-0,143
20,604	-151,935	-0,357	0,018
21,619	35,225	-0,479	-0,297
22,634	179,957	-0,401	-0,416
23,648	261,261	-0,403	-0,494
24,663	196,278	-0,343	-0,370
25,677	79,163	-0,240	-0,182
26,692	-53,447	-0,332	-0,107
27,707	22,017	-0,401	-0,231
28,721	118,838	-0,376	-0,329
29,736	225,198	-0,240	-0,275
30,750	-29,538	-0,374	-0,150
31,765	68,863	-0,431	-0,313
32,780	134,975	-0,280	-0,257
33,794	-23,942	-0,368	-0,155
34,809	74,906	-0,332	-0,247
35,823	440,172	-0,236	-0,366
36,838	83,001	-0,395	-0,304
37,853	129,281	-0,401	-0,362
38,867	63,333	-0,446	-0,316
39,882	169,543	-0,312	-0,315
40,896	73,958	-0,237	-0,176
41,911	-38,949	-0,384	-0,142
42,926	54,624	-0,324	-0,220
43,940	178,269	-0,273	-0,281
44,955	76,495	-0,362	-0,271
45,969	-34,652	-0,346	-0,133
46,984	596,720	-0,236	-0,415
47,999	-84,932	-0,253	-0,056
49,013	-91,712	-0,335	-0,067
50,028	28,240	-0,349	-0,208
51,042	-99,706	-0,402	-0,071
52,057	138,052	-0,389	-0,360
53,071	150,781	-0,268	-0,258
54,086	40,378	-0,266	-0,169
55,101	125,737	-0,294	-0,262
56,115	83,016	-0,383	-0,294
57,130	132,569	-0,218	-0,198
58,144	88,308	-0,368	-0,288
59,159	41,454	-0,373	-0,237
60,174	2,570	-0,464	-0,236
61,188	0,360	-0,342	-0,172
62,203	136,491	-0,275	-0,253
63,217	41,598	-0,365	-0,233
64,232	115,761	-0,268	-0,231
65,247	26,037	-0,331	-0,194
66,261	173,808	-0,324	-0,330
67,276	10,378	-0,307	-0,164
68,290	76,268	-0,333	-0,248
69,305	54,842	-0,420	-0,286
70,320	403,444	-0,215	-0,321
71,334	5,784	-0,249	-0,129
72,349	86,098	-0,324	-0,251
73,363	24,636	-0,304	-0,177
74,378	-34,679	-0,360	-0,138
75,393	38,635	-0,290	-0,182
76,407	206,224	-0,159	-0,174
77,422	85,584	-0,247	-0,191
78,436	-191,129	-0,315	-0,002
79,451	195,043	-0,164	-0,175
80,466	-55,228	-0,255	-0,080
81,480	-20,478	-0,414	-0,178
82,495	44,079	-0,325	-0,209
83,509	83,026	-0,339	-0,259
84,524	159,057	-0,241	-0,236
85,539	62,157	-0,238	-0,167
86,553	-12,429	-0,314	-0,144
87,568	109,757	-0,259	-0,219
88,582	-16,537	-0,341	-0,152
89,597	164,142	-0,225	-0,223
90,611	173,789	-0,350	-0,356
91,626	31,223	-0,381	-0,229
92,641	263,488	-0,189	-0,232
93,655	28,526	-0,363	-0,215
94,670	-32,347	-0,205	-0,080
95,684	154,225	-0,252	-0,244
96,699	44,294	-0,330	-0,213
97,714	93,306	-0,340	-0,270
98,728	164,588	-0,267	-0,265
99,743	-45,165	-0,282	-0,098
100,757	20,743	-0,278	-0,158
101,772	-63,754	-0,387	-0,111
102,787	-6,962	-0,302	-0,144
103,801	161,826	-0,287	-0,283
104,816	17,519	-0,247	-0,138
105,830	93,730	-0,301	-0,240
106,845	-3,655	-0,209	-0,102
107,860	130,262	-0,224	-0,202
108,874	22,333	-0,152	-0,087
109,889	-29,261	-0,350	-0,140
110,903	-54,263	-0,428	-0,136
111,918	355,177	-0,160	-0,224
112,933	-8,262	-0,308	-0,145
113,947	-105,246	-0,268	-0,043
114,962	-90,570	-0,378	-0,076
115,976	-21,947	-0,229	-0,097
116,991	76,404	-0,396	-0,294
118,006	100,712	-0,174	-0,142
119,020	-50,963	-0,387	-0,127
120,035	-68,510	-0,226	-0,061
121,049	259,451	-0,219	-0,266
122,064	-46,915	-0,305	-0,104
123,079	222,185	-0,219	-0,248
124,093	565,304	-0,167	-0,285
125,108	49,558	-0,290	-0,191
126,122	-26,891	-0,215	-0,087
127,137	-26,178	-0,313	-0,128
128,151	-34,242	-0,319	-0,122
129,166	131,263	-0,222	-0,200
130,181	-136,723	-0,352	-0,028
131,195	107,943	-0,294	-0,245
132,210	191,916	-0,237	-0,251
133,224	53,384	-0,278	-0,186
134,239	131,827	-0,134	-0,121
135,254	800,000	-0,105	-0,229
136,268	-181,986	-0,249	0,003
137,283	22,667	-0,297	-0,170
138,297	271,422	-0,288	-0,357
139,312	98,146	-0,356	-0,287
140,327	8,132	-0,148	-0,078
141,341	196,214	-0,308	-0,329
142,356	-70,348	-0,292	-0,077
143,370	-82,735	-0,205	0,046
144,385	1,783	-0,208	-0,105
145,400	75,654	-0,275	-0,203
146,414	406,918	-0,206	-0,305
147,429	150,101	-0,150	-0,142
148,443	252,912	-0,198	-0,237
149,458	51,452	-0,224	-0,148
150,473	282,413	-0,219	-0,276
151,487	379,213	-0,124	-0,178
152,502	42,132	-0,362	-0,229
153,516	67,353	-0,352	-0,251
154,531	-15,274	-0,363	-0,162
155,546	24,538	-0,235	-0,136
156,560	152,900	-0,213	-0,204
157,575	-1,906	-0,268	-0,131
158,589	-25,201	-0,231	-0,095
159,604	-29,507	-0,247	-0,098
160,619	92,859	-0,163	-0,129
161,633	37,539	-0,291	-0,180
162,648	5,927	-0,339	-0,175
163,662	-55,642	-0,305	-0,095
164,677	3,244	-0,203	-0,103
165,692	272,973	-0,155	-0,192
166,706	190,249	-0,159	-0,167
167,721	145,436	-0,254	-0,238
168,735	233,543	-0,210	-0,241
169,750	27,326	-0,370	-0,217
170,764	346,394	-0,148	-0,204
171,779	126,443	-0,156	-0,138
172,794	800,000	-0,080	-0,165
173,808	26,911	-0,232	-0,135
174,823	189,194	-0,244	-0,255
175,837	157,116	-0,232	-0,225
176,852	-24,704	-0,221	-0,091
177,867	431,391	-0,199	-0,303
178,881	800,000	-0,148	-0,300
179,896	-63,160	-0,184	-0,053
180,910	80,379	-0,178	-0,134
181,925	77,530	-0,272	-0,202
182,940	-12,213	-0,224	-0,102
183,954	318,358	-0,164	-0,217
184,969	-200,000	0,001	-0,095
185,983	160,496	-0,124	-0,120
186,998	-47,083	-0,221	-0,075
188,013	-67,040	-0,319	-0,087
189,027	119,598	-0,314	-0,271
190,042	26,860	-0,281	-0,164
191,056	140,242	-0,328	-0,301
192,071	-42,952	-0,144	-0,051
193,086	-200,000	-0,064	-0,227
194,100	108,235	-0,171	-0,142
195,115	-115,794	-0,212	-0,027
196,129	10,758	-0,242	-0,128
197,144	216,455	-0,195	-0,216
198,159	454,675	-0,162	-0,251
199,173	74,999	-0,263	-0,193
200,188	227,798	-0,155	-0,176
201,202	44,104	-0,149	-0,095
202,217	7,447	-0,045	-0,023
203,232	112,470	-0,260	-0,219
204,246	14,003	-0,254	-0,137
205,261	-200,000	-0,064	-0,209
206,275	-42,409	-0,174	-0,062
207,290	108,433	-0,155	-0,129
208,304	368,174	-0,102	-0,143
209,319	15,086	-0,185	-0,101
210,334	0,069	-0,232	-0,115
211,348	92,863	-0,262	-0,206
212,363	359,668	-0,179	-0,249
213,377	55,698	-0,207	-0,139
214,392	83,315	-0,133	-0,101
215,407	715,132	-0,142	-0,264
216,421	584,349	-0,101	-0,174
217,436	170,697	-0,180	-0,180
218,450	-86,585	-0,238	-0,050
219,465	141,351	-0,189	-0,174
220,480	425,973	-0,173	-0,260
221,494	126,438	-0,140	-0,123
222,509	-200,000	-0,044	-0,186
223,523	396,175	-0,147	-0,215
224,538	336,297	-0,084	-0,114
225,553	97,488	-0,162	-0,129
226,567	34,237	-0,292	-0,177
227,582	-22,485	-0,284	-0,119
228,596	-5,440	-0,148	-0,071
229,611	-144,299	-0,171	-0,011
230,626	-7,654	-0,294	-0,138
231,640	180,268	-0,112	-0,114
232,655	-200,000	-0,042	-0,169
233,669	153,510	-0,209	-0,199
234,684	388,748	-0,159	-0,229
235,699	118,218	-0,145	-0,124
236,713	13,324	-0,168	-0,090
237,728	-200,000	-0,027	-0,222
238,742	800,000	-0,135	-0,268
239,757	388,295	-0,068	-0,098
240,772	-33,880	-0,184	-0,070
241,786	-200,000	-0,038	-0,174
242,801	-70,661	-0,247	-0,064
243,815	-76,710	-0,233	-0,056
244,830	779,225	-0,136	-0,260
245,844	-82,763	-0,103	-0,023
246,859	200,960	-0,298	-0,319
247,874	-14,304	-0,242	-0,108
248,888	310,661	-0,139	-0,181
249,903	-167,953	-0,118	-0,003
250,917	190,773	-0,175	-0,183
251,932	485,598	-0,146	-0,231
252,947	252,404	-0,168	-0,199
253,961	-155,575	-0,278	-0,012
254,976	149,396	-0,293	-0,275
255,990	800,000	-0,101	-0,236
257,005	-108,339	-0,240	-0,036
258,020	390,698	-0,097	-0,141
259,034	-91,671	-0,185	-0,036
260,049	156,498	-0,169	-0,161
261,063	31,670	-0,190	-0,113
262,078	800,000	-0,073	-0,140
263,093	228,250	-0,223	-0,253
264,107	-200,000	-0,045	-0,221
265,122	139,702	-0,114	-0,104
266,136	318,126	-0,099	-0,131
267,151	108,803	-0,186	-0,154
268,166	-200,000	-0,050	-0,165
269,180	-97,508	-0,228	-0,041
270,195	123,172	-0,105	-0,091
271,209	294,231	-0,189	-0,240
272,224	30,912	-0,196	-0,116
273,239	76,553	-0,059	-0,044
274,253	73,991	-0,156	-0,113
275,268	3,897	-0,225	-0,113
276,282	289,409	-0,209	-0,263
277,297	4,503	-0,291	-0,147
278,312	124,375	-0,219	-0,190
279,326	234,384	-0,106	-0,122
280,341	132,149	-0,139	-0,124
281,355	-155,628	-0,157	0,007
282,370	207,388	-0,136	-0,147
283,384	561,485	-0,116	-0,194
284,399	89,347	-0,233	-0,180
285,414	158,942	-0,170	-0,164
286,428	-200,000	0,015	-0,069
287,443	106,090	-0,081	-0,066
288,457	-39,658	-0,194	-0,070
289,472	800,000	-0,118	-0,260
290,487	-200,000	-0,045	-0,177
291,501	152,526	-0,125	-0,118
292,516	-9,618	-0,178	-0,082
293,530	-95,308	-0,214	-0,039
294,545	-147,720	-0,210	0,012
295,560	-185,395	-0,119	0,001
296,574	800,000	-0,085	-0,189
297,589	63,335	-0,121	-0,084
298,603	-162,564	-0,220	0,007
299,618	82,041	-0,171	-0,128
300,633	78,852	-0,177	-0,131
301,647	157,671	-0,136	-0,130
302,662	800,000	0,047	0,105
303,676	26,273	-0,176	-0,101
304,691	90,848	-0,145	-0,112
305,706	797,695	-0,098	-0,186
306,720	237,148	-0,183	-0,209
307,735	-41,245	-0,148	-0,052
308,749	-6,207	-0,034	-0,016
309,764	-200,000	-0,032	-0,200
310,779	279,714	-0,115	-0,141
311,793	-68,723	-0,108	-0,029
312,808	704,705	-0,143	-0,262
313,822	307,899	-0,111	-0,143
314,837	-79,702	-0,151	-0,035
315,852	-6,749	-0,050	-0,023
316,866	-123,281	-0,151	-0,016
317,881	-139,432	-0,131	0,010
318,895	53,214	-0,154	-0,102
319,910	103,272	-0,156	-0,126
320,925	-119,855	-0,104	-0,012
321,939	225,250	-0,097	-0,108
322,954	454,140	-0,082	-0,125
323,968	-99,528	-0,242	-0,042
324,983	110,528	-0,089	-0,074
325,997	-45,626	-0,237	-0,081
327,012	-163,690	-0,224	0,007
328,027	27,694	-0,227	-0,131
329,041	454,257	-0,102	-0,156
330,056	251,435	-0,059	-0,069
331,070	523,431	-0,042	-0,069
332,085	-200,000	-0,045	-0,159
333,100	-59,184	-0,155	-0,046
334,114	19,486	-0,156	-0,086
335,129	71,190	-0,139	-0,099
336,143	638,915	-0,136	-0,239
337,158	47,155	-0,136	-0,087
338,173	-154,400	-0,094	0,004
339,187	800,000	-0,019	-0,037
340,202	-97,405	-0,120	-0,021
341,216	-149,730	-0,191	-0,010
342,231	-83,881	-0,125	0,027
343,246	-8,035	-0,052	-0,024
344,260	800,000	-0,083	-0,191
345,275	189,442	-0,088	-0,090
346,289	350,036	-0,112	-0,152
347,304	205,920	-0,184	-0,197
348,319	63,068	-0,150	-0,103
349,333	22,691	-0,168	-0,095
350,348	-200,000	-0,079	-0,270
351,362	36,677	-0,104	-0,063
352,377	7,028	-0,159	-0,081
353,392	145,762	-0,133	-0,123
354,406	-42,604	-0,115	-0,040
355,421	210,003	1314,130	1419,189
356,435	161,649	1474,821	1419,715
