DTS Sentinel unit serial number:	SN410029Multiplexer serial number:	ORYXHardware model number:	OX2-SRSoftware version number:	ORYX F/W v4,00 Oryx Data Collector v3.7.2.0data status	okinstallation	B3 Nyhavnadifferential loss correction	single-endedforward channel	channel 1reverse channel	N/Adate	2023/12/04time	08:27:30forward acquisition time	300,00reverse acquisition time	0,00gamma	499,1914k internal	0,3204k external	0,3204temperature offset calibration	1,0000default loss term (dB/km)	0,3820temperature slope calibration	1,0000multiplexer offset coefficient	1,0000multiplexer slope coefficient	1,0000fibre end	0,00T internal ref (°C)	12,70T ext. ref 1 (°C)	-1,63T ext. ref 2 (°C)	-1,67length (m)	temperature (°C)	Stokes	anti-Stokes-744,400	139,091	-0,220	-0,211
-743,385	157,493	0,186	0,187
-742,371	394,546	-0,097	-0,147
-741,356	-200,000	-0,077	0,273
-740,342	135,126	-0,230	-0,217
-739,327	-200,000	0,016	0,223
-738,312	152,561	-0,262	-0,260
-737,298	537,185	-0,116	0,200
-736,283	502,281	-0,163	-0,274
-735,269	-200,000	0,072	0,350
-734,254	800,000	-0,063	-0,180
-733,239	74,584	-0,114	0,087
-732,225	-2,428	-0,098	-0,050
-731,210	231,980	0,129	0,154
-730,196	3,182	-0,120	0,063
-729,181	800,000	-0,020	-0,052
-728,167	-128,947	-0,261	0,026
-727,152	-200,000	0,022	-0,091
-726,137	800,000	-0,065	-0,142
-725,123	543,767	0,087	-0,152
-724,108	-200,000	-0,023	-0,133
-723,094	-6,606	-0,112	-0,055
-722,079	-42,788	-0,051	0,019
-721,064	800,000	0,052	-0,163
-720,050	708,030	-0,019	0,037
-719,035	-59,518	-0,158	-0,049
-718,021	-200,000	-0,043	-0,197
-717,006	492,814	-0,034	-0,056
-715,991	-200,000	-0,012	-0,127
-714,977	800,000	-0,069	-0,151
-713,962	-200,000	0,003	-0,140
-712,948	-78,392	0,065	-0,016
-711,933	297,453	-0,067	-0,089
-710,918	-200,000	-0,019	-0,092
-709,904	800,000	0,023	0,049
-708,889	-69,379	-0,226	-0,062
-707,875	-114,260	-0,070	0,010
-706,860	75,399	-0,031	-0,024
-705,845	-121,094	0,158	0,019
-704,831	-96,698	0,119	-0,022
-703,816	800,000	-0,060	-0,142
-702,802	300,776	-0,025	0,034
-701,787	2,565	-0,055	-0,029
-700,772	775,406	0,014	0,027
-699,758	-64,201	0,152	0,045
-698,743	-60,725	-0,016	0,005
-697,729	-54,312	0,134	0,044
-696,714	255,199	-0,070	0,087
-695,699	391,976	0,032	-0,048
-694,685	303,341	0,033	-0,045
-693,670	58,977	-0,107	0,076
-692,656	-93,140	0,106	0,021
-691,641	91,910	0,105	-0,085
-690,627	66,628	-0,106	-0,078
-689,612	33,163	0,052	0,032
-688,597	125,414	0,088	-0,081
-687,583	-91,345	-0,140	-0,029
-686,568	-17,702	-0,074	0,033
-685,554	-181,753	-0,099	-0,001
-684,539	-86,507	-0,131	-0,029
-683,524	-200,000	0,020	0,068
-682,510	-76,417	0,076	-0,019
-681,495	-45,800	-0,167	-0,059
-680,481	-86,909	-0,052	0,011
-679,466	-171,043	-0,007	-0,000
-678,451	-75,820	-0,121	0,031
-677,437	602,253	0,020	0,036
-676,422	107,177	-0,112	0,096
-675,408	-134,369	-0,044	-0,004
-674,393	-7,293	0,079	-0,038
-673,378	800,000	-0,013	0,043
-672,364	-156,704	0,037	-0,002
-671,349	329,681	0,037	-0,052
-670,335	462,766	-0,020	-0,032
-669,320	-200,000	0,014	0,050
-668,305	-74,067	-0,012	-0,003
-667,291	-200,000	0,008	-0,048
-666,276	800,000	-0,047	-0,146
-665,262	-46,320	-0,111	0,039
-664,247	450,104	0,054	0,087
-663,232	-138,210	-0,125	0,010
-662,218	109,090	0,055	0,047
-661,203	585,462	-0,056	0,101
-660,189	-102,698	-0,068	0,012
-659,174	781,438	-0,011	-0,022
-658,159	314,989	-0,040	-0,054
-657,145	323,378	-0,034	-0,047
-656,130	142,140	0,104	0,100
-655,116	-157,578	-0,115	0,005
-654,101	-200,000	0,039	0,160
-653,086	-200,000	-0,000	-0,091
-652,072	-200,000	0,014	0,051
-651,057	416,379	0,087	-0,134
-650,043	38,834	-0,133	0,086
-649,028	223,369	-0,101	-0,118
-648,014	-143,044	0,100	-0,007
-646,999	-200,000	-0,037	-0,125
-645,984	800,000	0,015	-0,030
-644,970	-35,767	-0,073	-0,028
-643,955	-133,348	-0,174	-0,016
-642,941	42,997	0,103	-0,068
-641,926	800,000	0,007	0,016
-640,911	-200,000	-0,021	-0,084
-639,897	-90,180	0,017	-0,003
-638,882	-121,577	-0,126	0,015
-637,868	-8,165	0,052	0,025
-636,853	38,231	-0,048	-0,031
-635,838	629,371	-0,040	-0,074
-634,824	-13,858	0,035	0,016
-633,809	80,807	0,185	0,144
-632,795	51,191	-0,127	0,087
-631,780	800,000	-0,012	-0,025
-630,765	321,020	-0,064	-0,088
-629,751	363,330	-0,119	0,174
-628,736	-33,091	0,035	-0,014
-627,722	800,000	-0,025	-0,059
-626,707	800,000	0,055	0,166
-625,692	-101,017	-0,086	0,015
-624,678	-19,613	0,072	0,032
-623,663	-85,941	0,111	0,025
-622,649	27,204	-0,067	-0,041
-621,634	270,638	-0,131	-0,167
-620,619	-163,947	-0,060	-0,002
-619,605	-200,000	-0,015	0,090
-618,590	110,120	0,046	0,040
-617,576	107,851	0,037	0,032
-616,561	-63,574	0,087	-0,026
-615,546	800,000	0,031	-0,078
-614,532	375,305	-0,037	-0,055
-613,517	78,434	-0,032	0,025
-612,503	-200,000	-0,025	-0,119
-611,488	-200,000	-0,010	0,114
-610,474	-145,013	-0,171	-0,011
-609,459	800,000	0,038	0,080
-608,444	-152,186	-0,089	0,005
-607,430	54,376	-0,206	-0,143
-606,415	-193,848	0,101	-0,001
-605,401	98,198	0,047	0,039
-604,386	-78,273	0,053	0,013
-603,371	-200,000	0,006	-0,037
-602,357	-181,469	-0,145	-0,002
-601,342	-147,743	0,038	-0,002
-600,328	199,953	-0,033	-0,037
-599,313	481,624	-0,017	-0,029
-598,298	213,394	0,076	0,087
-597,284	292,742	0,123	0,163
-596,269	-200,000	0,023	-0,084
-595,255	343,635	0,083	0,118
-594,240	150,694	0,048	0,047
-593,225	114,002	-0,038	-0,034
-592,211	177,066	0,089	-0,094
-591,196	800,000	-0,034	0,076
-590,182	186,742	-0,106	-0,114
-589,167	-131,287	-0,023	-0,002
-588,152	-200,000	0,003	0,028
-587,138	-200,000	0,010	-0,039
-586,123	-172,254	-0,093	-0,002
-585,109	547,905	-0,029	0,050
-584,094	-200,000	0,011	-0,079
-583,079	-111,992	0,149	-0,021
-582,065	-200,000	0,022	0,109
-581,050	-200,000	0,016	0,134
-580,036	133,585	-0,140	-0,131
-579,021	63,793	-0,051	-0,037
-578,006	140,908	-0,065	-0,062
-576,992	-137,823	0,148	-0,012
-575,977	91,866	-0,134	-0,109
-574,963	145,477	-0,027	-0,026
-573,948	708,825	0,078	0,150
-572,934	800,000	-0,033	0,080
-571,919	-200,000	0,037	-0,177
-570,904	-200,000	0,009	0,052
-569,890	-200,000	0,010	-0,096
-568,875	-4,121	-0,069	-0,034
-567,861	-200,000	0,069	0,231
-566,846	506,787	0,038	-0,064
-565,831	-58,246	0,126	0,039
-564,817	-42,251	-0,095	0,035
-563,802	-200,000	-0,024	-0,119
-562,788	-200,000	0,009	0,065
-561,773	242,880	-0,017	0,021
-560,758	84,036	0,164	0,129
-559,744	-36,179	0,076	-0,030
-558,729	-106,935	0,098	0,016
-557,715	-113,310	0,040	-0,006
-556,700	-92,798	-0,087	-0,017
-555,685	183,636	-0,019	-0,020
-554,671	800,000	0,020	-0,041
-553,656	-200,000	0,011	0,082
-552,642	329,783	0,022	0,030
-551,627	3,391	-0,081	0,042
-550,612	-103,383	0,043	-0,007
-549,598	-165,705	0,108	0,003
-548,583	30,076	-0,137	-0,084
-547,569	-120,891	0,127	-0,015
-546,554	-19,139	-0,037	-0,017
-545,539	-17,283	0,102	-0,046
-544,525	-105,519	-0,058	-0,009
-543,510	-162,366	-0,041	-0,001
-542,496	592,789	-0,043	-0,077
-541,481	-200,000	0,028	0,105
-540,466	58,107	-0,105	-0,074
-539,452	-200,000	0,005	-0,057
-538,437	800,000	0,043	0,087
-537,423	-106,251	-0,028	0,004
-536,408	-200,000	-0,023	-0,137
-535,393	-200,000	0,000	-0,027
-534,379	-47,863	-0,057	-0,020
-533,364	800,000	0,043	-0,092
-532,350	-97,723	-0,060	0,011
-531,335	-109,402	0,127	0,019
-530,321	11,989	0,029	-0,016
-529,306	-188,278	-0,079	-0,001
-528,291	-150,933	-0,083	0,004
-527,277	122,881	0,145	-0,131
-526,262	800,000	-0,009	0,020
-525,248	-144,258	0,107	0,007
-524,233	-64,325	0,116	0,034
-523,218	18,411	-0,123	0,071
-522,204	114,054	0,069	0,060
-521,189	-200,000	0,007	-0,048
-520,175	800,000	-0,061	-0,144
-519,160	-200,000	0,015	-0,063
-518,145	-76,416	0,113	0,028
-517,131	800,000	-0,061	0,140
-516,116	-83,518	0,202	0,046
-515,102	-71,186	0,068	0,018
-514,087	75,927	0,037	0,028
-513,072	-187,465	-0,098	-0,001
-512,058	800,000	0,024	0,070
-511,043	68,222	-0,060	0,044
-510,029	193,944	0,024	-0,026
-509,014	-200,000	0,003	0,078
-507,999	-200,000	-0,005	0,022
-506,985	793,513	-0,021	0,041
-505,970	5,786	-0,094	-0,050
-504,956	-200,000	-0,032	-0,117
-503,941	20,691	0,108	-0,063
-502,926	-140,459	-0,074	-0,005
-501,912	-41,417	0,122	-0,045
-500,897	800,000	-0,008	-0,022
-499,883	340,092	0,070	-0,099
-498,868	-61,062	-0,035	0,010
-497,853	-200,000	-0,006	-0,055
-496,839	385,287	-0,100	-0,150
-495,824	87,440	0,058	-0,046
-494,810	800,000	0,045	0,090
-493,795	-86,406	-0,050	-0,011
-492,781	83,336	-0,109	0,085
-491,766	313,607	0,018	-0,024
-490,751	800,000	-0,073	-0,181
-489,737	12,460	-0,146	0,081
-488,722	158,852	0,087	0,087
-487,708	800,000	0,018	-0,055
-486,693	31,073	0,163	-0,100
-485,678	-123,286	0,039	-0,004
-484,664	46,253	-0,084	-0,056
-483,649	-153,219	-0,037	0,002
-482,635	-26,834	-0,014	0,006
-481,620	315,737	0,097	0,133
-480,605	-71,493	0,154	-0,041
-479,591	800,000	0,043	0,109
-478,576	122,626	0,147	-0,132
-477,562	249,976	0,044	-0,054
-476,547	47,541	-0,146	-0,098
-475,532	26,445	0,111	-0,067
-474,518	-200,000	-0,018	0,089
-473,503	-75,828	-0,129	-0,033
-472,489	-75,835	0,062	-0,016
-471,474	634,047	0,002	0,004
-470,459	-200,000	-0,020	-0,103
-469,445	-200,000	0,000	0,032
-468,430	-27,806	0,110	0,046
-467,416	-128,640	0,092	0,009
-466,401	800,000	0,026	0,054
-465,386	-200,000	0,014	-0,119
-464,372	87,544	0,048	0,038
-463,357	-131,730	-0,077	-0,007
-462,343	-60,336	-0,154	0,047
-461,328	645,074	0,067	-0,124
-460,313	-29,897	0,119	0,049
-459,299	264,078	0,044	0,055
-458,284	294,555	-0,050	0,066
-457,270	-200,000	-0,004	0,015
-456,255	216,448	-0,102	-0,116
-455,241	-29,326	-0,227	-0,093
-454,226	-121,664	-0,197	-0,023
-453,211	-150,093	0,090	0,005
-452,197	800,000	0,019	0,056
-451,182	-78,433	-0,062	-0,015
-450,168	73,645	0,073	0,055
-449,153	-200,000	0,016	-0,073
-448,138	394,918	0,072	-0,108
-447,124	401,335	-0,066	0,100
-446,109	-158,424	0,189	0,008
-445,095	800,000	0,057	0,142
-444,080	-200,000	0,026	0,135
-443,065	-46,999	0,073	0,025
-442,051	163,267	-0,052	0,052
-441,036	26,046	-0,091	0,055
-440,022	141,288	-0,083	-0,079
-439,007	-71,393	-0,050	0,013
-437,992	-2,973	-0,100	-0,050
-436,978	756,745	0,012	-0,023
-435,963	-200,000	-0,010	0,116
-434,949	7,453	0,116	0,062
-433,934	158,243	0,086	0,086
-432,919	719,352	-0,102	-0,195
-431,905	-62,363	0,115	-0,034
-430,890	800,000	0,038	0,077
-429,876	282,966	0,087	0,112
-428,861	800,000	0,057	0,138
-427,846	-139,660	0,075	0,006
-426,832	-90,014	0,072	0,015
-425,817	-200,000	-0,015	-0,098
-424,803	-60,416	-0,062	-0,019
-423,788	-182,755	0,098	0,001
-422,773	179,425	0,066	0,069
-421,759	-118,250	0,052	0,007
-420,744	320,456	-0,082	0,112
-419,730	800,000	0,072	0,169
-418,715	219,787	-0,015	-0,017
-417,701	800,000	-0,039	-0,095
-416,686	51,719	0,051	-0,035
-415,671	1,533	0,032	0,017
-414,657	374,351	-0,028	-0,041
-413,642	-200,000	0,020	-0,064
-412,628	-162,336	0,108	0,004
-411,613	-200,000	0,008	0,074
-410,598	-85,112	-0,176	0,039
-409,584	16,508	0,114	0,065
-408,569	-200,000	-0,012	0,157
-407,555	76,969	0,062	0,047
-406,540	194,914	-0,057	0,062
-405,525	61,988	-0,113	-0,081
-404,511	282,853	0,079	-0,102
-403,496	82,290	-0,065	0,050
-402,482	-200,000	0,007	-0,030
-401,467	8,856	0,037	-0,020
-400,452	-95,433	-0,051	0,010
-399,438	-73,403	-0,133	0,034
-398,423	-200,000	-0,013	-0,056
-397,409	-30,492	-0,120	0,049
-396,394	-59,965	-0,122	-0,037
-395,379	-37,511	-0,116	-0,044
-394,365	228,641	0,085	-0,100
-393,350	-200,000	0,001	0,032
-392,336	800,000	0,021	0,053
-391,321	-200,000	-0,021	-0,137
-390,306	-119,477	-0,107	-0,013
-389,292	305,489	-0,108	0,145
-388,277	243,768	-0,035	0,042
-387,263	800,000	0,006	0,012
-386,248	254,823	0,024	0,029
-385,233	-200,000	-0,006	0,068
-384,219	-200,000	0,022	0,078
-383,204	-97,465	-0,039	-0,007
-382,190	153,849	0,048	0,047
-381,175	800,000	-0,028	-0,084
-380,160	-200,000	-0,018	-0,079
-379,146	506,527	0,048	0,080
-378,131	-181,593	0,175	0,002
-377,117	18,392	-0,091	-0,052
-376,102	576,787	0,064	0,113
-375,088	-200,000	-0,015	-0,107
-374,073	219,459	-0,088	0,101
-373,058	-20,117	0,060	0,027
-372,044	-200,000	0,027	0,127
-371,029	-200,000	-0,003	-0,142
-370,015	-200,000	0,015	-0,103
-369,000	-65,261	-0,131	0,038
-367,985	-32,062	0,175	0,070
-366,971	184,632	0,064	-0,068
-365,956	397,343	0,075	0,112
-364,942	-200,000	0,028	0,126
-363,927	95,254	-0,014	0,012
-362,912	-165,940	-0,045	0,001
-361,898	800,000	-0,011	-0,032
-360,883	800,000	0,082	-0,166
-359,869	-200,000	0,007	-0,031
-358,854	-200,000	0,038	-0,170
-357,839	483,560	-0,060	0,099
-356,825	363,923	0,068	0,098
-355,810	117,451	0,020	0,018
-354,796	596,389	-0,071	0,127
-353,781	-39,732	-0,146	0,055
-352,766	316,224	0,036	0,049
-351,752	-49,797	0,017	0,006
-350,737	-200,000	0,021	0,135
-349,723	800,000	0,070	0,169
-348,708	800,000	-0,039	0,079
-347,693	-200,000	-0,025	0,120
-346,679	-145,021	-0,068	-0,004
-345,664	-200,000	-0,005	-0,036
-344,650	-200,000	-0,019	0,077
-343,635	800,000	0,037	0,106
-342,620	-43,075	0,061	-0,022
-341,606	382,761	0,031	0,045
-340,591	11,084	0,067	-0,037
-339,577	210,881	-0,092	-0,104
-338,562	800,000	-0,006	0,015
-337,548	-200,000	-0,003	0,064
-336,533	-65,974	0,063	0,018
-335,518	-4,932	0,052	0,026
-334,504	-200,000	0,009	0,033
-333,489	-200,000	-0,021	-0,076
-332,475	-98,800	0,144	-0,026
-331,460	323,545	-0,097	-0,132
-330,445	800,000	-0,029	-0,058
-329,431	-200,000	0,000	0,046
-328,416	37,059	0,145	0,092
-327,402	800,000	-0,028	-0,078
-326,387	350,935	-0,035	-0,050
-325,372	174,619	-0,070	-0,072
-324,358	800,000	0,024	-0,066
-323,343	-200,000	0,008	0,039
-322,329	-200,000	0,022	0,113
-321,314	14,943	0,089	-0,050
-320,299	-40,791	0,150	0,055
-319,285	250,686	-0,084	0,103
-318,270	62,709	0,093	-0,066
-317,256	800,000	0,024	0,067
-316,241	-64,705	-0,041	0,012
-315,226	-25,400	-0,038	-0,016
-314,212	-200,000	0,031	0,106
-313,197	-200,000	-0,022	0,124
-312,183	100,532	-0,029	-0,024
-311,168	-200,000	-0,012	-0,098
-310,153	119,112	-0,149	-0,132
-309,139	332,127	0,118	-0,163
-308,124	144,675	-0,010	-0,010
-307,110	-46,525	-0,059	-0,021
-306,095	-200,000	0,007	0,177
-305,080	-200,000	-0,029	0,103
-304,066	-200,000	-0,011	0,106
-303,051	260,096	-0,051	-0,064
-302,037	-85,917	0,089	-0,019
-301,022	14,065	-0,108	-0,060
-300,008	99,705	-0,112	0,093
-298,993	-106,691	-0,003	0,001
-297,978	42,538	-0,089	-0,058
-296,964	800,000	0,015	-0,038
-295,949	-200,000	0,026	-0,095
-294,935	526,851	-0,095	-0,161
-293,920	-10,882	0,027	0,013
-292,905	497,645	0,070	0,115
-291,891	800,000	-0,019	-0,051
-290,876	-42,692	-0,045	-0,016
-289,862	37,378	0,048	0,031
-288,847	25,926	0,019	-0,011
-287,832	584,409	-0,033	-0,059
-286,818	64,552	0,061	0,044
-285,803	258,683	-0,025	-0,031
-284,789	45,626	0,043	-0,028
-283,774	55,658	-0,102	0,070
-282,759	-200,000	-0,008	0,028
-281,745	-200,000	0,000	-0,113
-280,730	51,300	-0,098	-0,066
-279,716	-200,000	0,021	-0,125
-278,701	-112,715	-0,114	-0,016
-277,686	389,293	0,025	0,037
-276,672	800,000	-0,024	-0,075
-275,657	167,011	-0,015	-0,015
-274,643	-94,840	-0,116	-0,022
-273,628	64,776	-0,033	-0,024
-272,613	-22,953	0,080	0,034
-271,599	-200,000	0,001	0,061
-270,584	-200,000	0,002	0,067
-269,570	-200,000	0,006	0,128
-268,555	800,000	-0,032	-0,100
-267,540	-152,614	-0,083	-0,004
-266,526	154,416	0,025	0,025
-265,511	800,000	-0,021	-0,056
-264,497	-200,000	-0,017	0,136
-263,482	-200,000	-0,041	0,179
-262,467	757,895	-0,061	0,118
-261,453	51,204	-0,106	-0,071
-260,438	-15,524	0,103	-0,047
-259,424	25,208	-0,057	-0,034
-258,409	-21,669	-0,073	-0,032
-257,395	-200,000	0,010	-0,070
-256,380	-200,000	0,041	-0,162
-255,365	-200,000	-0,008	0,029
-254,351	112,865	0,097	-0,084
-253,336	-186,672	-0,127	-0,001
-252,322	-43,995	-0,084	0,030
-251,307	-5,431	0,067	-0,033
-250,292	38,501	-0,105	-0,067
-249,278	-200,000	-0,024	0,121
-248,263	366,980	0,025	0,037
-247,249	331,267	0,083	0,114
-246,234	319,524	-0,069	0,094
-245,219	87,710	-0,045	-0,036
-244,205	-200,000	-0,021	-0,155
-243,190	-37,464	-0,044	-0,017
-242,176	-200,000	-0,025	0,141
-241,161	-200,000	0,026	0,086
-240,146	-200,000	0,052	-0,231
-239,132	99,136	0,098	-0,081
-238,117	442,184	0,051	-0,081
-237,103	-20,109	-0,146	-0,064
-236,088	-200,000	-0,040	-0,137
-235,073	800,000	0,077	0,177
-234,059	-200,000	-0,011	0,096
-233,044	425,960	0,093	0,144
-232,030	-82,079	-0,206	-0,048
-231,015	800,000	0,058	-0,131
-230,000	-200,000	-0,018	-0,202
-228,986	-200,000	-0,015	0,155
-227,971	521,637	0,025	0,042
-226,957	-129,826	0,105	0,010
-225,942	643,764	0,047	0,085
-224,927	800,000	0,023	0,046
-223,913	-200,000	-0,011	0,050
-222,898	-131,910	0,109	-0,010
-221,884	-200,000	-0,007	-0,108
-220,869	66,752	0,096	0,070
-219,855	800,000	0,024	0,072
-218,840	-58,761	0,127	0,039
-217,825	-200,000	-0,016	-0,093
-216,811	-200,000	-0,013	-0,091
-215,796	389,535	-0,034	-0,051
-214,782	-84,854	0,083	0,018
-213,767	-71,735	-0,075	-0,020
-212,752	-200,000	-0,003	0,026
-211,738	-69,915	0,104	0,028
-210,723	186,063	0,024	0,025
-209,709	208,176	-0,137	-0,153
-208,694	-200,000	0,023	-0,105
-207,679	108,558	0,051	-0,044
-206,665	-200,000	0,013	0,048
-205,650	-200,000	0,009	-0,151
-204,636	-142,574	0,072	-0,005
-203,621	-200,000	-0,028	0,139
-202,606	-136,641	-0,158	0,013
-201,592	214,296	-0,087	-0,099
-200,577	-166,985	-0,032	0,001
-199,563	2,779	-0,129	0,066
-198,548	-200,000	0,014	0,047
-197,533	800,000	0,041	0,113
-196,519	204,367	-0,013	0,015
-195,504	-129,197	0,174	0,017
-194,490	-200,000	0,033	-0,172
-193,475	800,000	0,025	-0,063
-192,460	333,479	0,021	-0,030
-191,446	78,055	0,043	-0,032
-190,431	88,458	0,118	0,093
-189,417	250,182	0,103	0,124
-188,402	138,003	0,075	0,070
-187,387	234,333	0,033	0,039
-186,373	-200,000	-0,019	0,062
-185,358	16,767	-0,102	-0,057
-184,344	74,119	-0,078	0,058
-183,329	690,235	-0,017	-0,032
-182,315	-200,000	-0,045	0,166
-181,300	-200,000	0,005	-0,025
-180,285	708,954	-0,092	-0,174
-179,271	-200,000	0,016	-0,123
-178,256	192,996	-0,054	-0,058
-177,242	10,505	0,082	-0,044
-176,227	-200,000	0,004	0,082
-175,212	-76,738	0,178	-0,044
-174,198	-165,758	-0,138	0,004
-173,183	-200,000	-0,005	0,111
-172,169	-200,000	-0,032	-0,124
-171,154	47,004	0,109	-0,072
-170,139	5,968	-0,106	0,056
-169,125	-71,899	-0,130	0,034
-168,110	-8,481	0,063	0,030
-167,096	-200,000	0,014	0,073
-166,081	800,000	-0,023	0,061
-165,066	-77,471	-0,026	-0,006
-164,052	-72,649	0,069	0,018
-163,037	-166,448	-0,048	-0,001
-162,023	36,751	0,074	0,046
-161,008	446,784	0,069	0,109
-159,993	-66,168	-0,108	-0,030
-158,979	-200,000	-0,003	-0,073
-157,964	215,872	-0,082	-0,093
-156,950	-200,000	0,026	-0,101
-155,935	-200,000	0,047	-0,167
-154,920	-16,905	0,054	-0,024
-153,906	-200,000	0,008	0,049
-152,891	-33,004	-0,050	0,020
-151,877	200,588	-0,073	0,080
-150,862	251,501	0,020	-0,024
-149,847	23,972	0,020	0,012
-148,833	1,513	0,066	0,034
-147,818	589,406	0,041	0,071
-146,804	-112,680	0,131	0,018
-145,789	800,000	0,044	-0,124
-144,775	-190,361	0,058	-0,000
-143,760	-106,577	-0,168	-0,026
-142,745	662,823	0,035	0,064
-141,731	272,101	0,027	0,034
-140,716	-10,701	0,102	0,048
-139,702	57,079	0,100	0,069
-138,687	-30,400	0,011	0,005
-137,672	800,000	0,008	0,015
-136,658	-200,000	0,009	-0,085
-135,643	-200,000	-0,020	-0,127
-134,629	-200,000	-0,003	-0,081
-133,614	31,219	0,064	0,039
-132,599	-163,539	-0,111	0,004
-131,585	369,985	-0,042	0,061
-130,570	-200,000	0,007	0,079
-129,556	-20,151	-0,163	-0,071
-128,541	800,000	0,030	-0,094
-127,526	-18,724	0,094	-0,042
-126,512	367,439	0,079	-0,113
-125,497	-200,000	0,031	-0,178
-124,483	564,318	-0,070	0,121
-123,468	800,000	-0,071	0,157
-122,453	271,608	-0,061	-0,076
-121,439	368,111	-0,067	0,097
-120,424	296,242	0,071	0,092
-119,410	100,520	0,066	0,055
-118,395	49,573	0,023	-0,015
-117,380	-162,303	0,182	0,006
-116,366	433,958	0,021	0,033
-115,351	-200,000	-0,013	0,069
-114,337	-23,825	-0,060	-0,025
-113,322	800,000	0,036	-0,085
-112,307	-23,404	0,046	0,020
-111,293	311,847	-0,066	0,088
-110,278	294,670	-0,023	0,030
-109,264	-200,000	0,017	-0,161
-108,249	17,851	-0,042	-0,024
-107,234	429,553	0,063	0,096
-106,220	738,331	-0,041	-0,077
-105,205	78,527	-0,100	-0,076
-104,191	-81,160	0,181	-0,042
-103,176	47,617	0,001	-0,001
-102,162	800,000	0,044	0,125
-101,147	800,000	-0,062	0,152
-100,132	341,089	-0,020	-0,028
-99,118	18,311	-0,127	0,072
-98,103	-75,135	-0,044	0,011
-97,089	-30,767	0,098	0,039
-96,074	-200,000	0,024	0,089
-95,059	-200,000	0,048	-0,227
-94,045	213,626	0,125	-0,140
-93,030	-2,860	-0,175	-0,086
-92,016	800,000	-0,047	-0,138
-91,001	151,148	0,045	-0,043
-89,986	18,722	0,167	-0,094
-88,972	331,803	0,047	-0,064
-87,957	20,322	-0,041	0,023
-86,943	-106,076	0,086	-0,014
-85,928	-90,438	-0,119	0,024
-84,913	686,595	0,012	0,023
-83,899	129,887	-0,042	-0,038
-82,884	-200,000	0,003	0,038
-81,870	-106,117	-0,084	-0,013
-80,855	162,655	0,055	-0,054
-79,840	-124,919	-0,024	-0,003
-78,826	-200,000	0,019	0,079
-77,811	-19,553	-0,062	-0,027
-76,797	602,406	-0,052	-0,092
-75,782	-73,355	-0,058	-0,015
-74,767	-200,000	0,038	0,165
-73,753	55,154	0,040	0,028
-72,738	-58,239	0,033	0,010
-71,724	-200,000	0,021	-0,070
-70,709	800,000	-0,028	0,057
-69,694	-200,000	0,026	-0,114
-68,680	800,000	-0,035	0,095
-67,665	209,203	-0,090	0,100
-66,651	-114,397	0,056	0,008
-65,636	800,000	0,024	0,051
-64,622	-70,401	0,069	-0,018
-63,607	800,000	-0,034	-0,095
-62,592	-200,000	-0,045	-0,221
-61,578	312,096	0,112	0,149
-60,563	-200,000	0,008	0,105
-59,549	-200,000	-0,025	0,131
-58,534	-36,537	-1,669	-0,632
-57,519	500,045	-1,299	-2,128
-56,505	-200,000	-0,527	-4,501
-55,490	393,975	1,011	1,494
-54,476	800,000	4,910	10,958
-53,461	-200,000	19,434	324,801
-52,446	-200,000	744,004	2330,956
-51,432	567,931	1655,711	2855,779
-50,417	77,102	1669,848	1253,681
-49,403	20,633	1543,602	881,157
-48,388	14,582	1465,879	807,384
-47,373	18,161	1455,979	819,176
-46,359	16,559	1445,526	805,590
-45,344	12,825	1441,238	785,300
-44,330	12,742	1439,304	783,822
-43,315	12,751	1437,525	782,864
-42,300	12,759	1435,994	782,035
-41,286	12,813	1434,429	781,409
-40,271	12,754	1433,169	780,411
-39,257	12,740	1432,061	779,709
-38,242	12,790	1430,746	779,202
-37,227	12,771	1429,574	778,443
-36,213	12,748	1428,258	777,588
-35,198	12,783	1427,053	777,063
-34,184	12,821	1426,178	776,740
-33,169	12,773	1424,771	775,716
-32,154	12,794	1423,748	775,223
-31,140	12,816	1422,368	774,548
-30,125	12,843	1421,254	774,038
-29,111	12,814	1420,192	773,292
-28,096	12,759	1419,195	772,460
-27,082	12,762	1417,970	771,775
-26,067	12,759	1416,879	771,135
-25,052	12,792	1415,716	770,628
-24,038	12,734	1415,043	769,957
-23,023	12,707	1413,834	769,145
-22,009	12,700	1412,740	768,487
-20,994	12,680	1411,982	767,949
-19,979	12,690	1411,005	767,434
-18,965	12,645	1410,093	766,697
-17,950	12,670	1409,280	766,339
-16,936	12,674	1408,456	765,881
-15,921	12,659	1407,379	765,192
-14,906	12,635	1406,321	764,475
-13,892	12,632	1405,416	763,940
-12,877	12,624	1404,706	763,485
-11,863	12,690	1403,564	763,143
-10,848	12,600	1402,958	762,364
-9,833	12,611	1401,973	761,852
-8,819	12,562	1401,066	761,101
-7,804	12,550	1400,189	760,534
-6,790	12,532	1399,116	759,837
-5,775	12,576	1397,847	759,326
-4,760	12,588	1396,923	758,849
-3,746	12,523	1396,144	758,095
-2,731	12,574	1395,187	757,777
-1,717	12,513	1394,438	757,060
-0,702	12,523	1392,604	756,083
0,313	16,401	1309,056	728,652
1,327	32,766	701,822	428,353
2,342	50,587	122,834	82,010
3,356	1,212	16,519	8,356
4,371	4,278	3,224	1,664
5,386	-1,226	0,605	0,301
6,400	-200,000	-0,058	0,217
7,415	395,753	-0,159	-0,235
8,429	20,807	-0,293	-0,167
9,444	41,569	-0,370	-0,236
10,459	87,429	-0,265	-0,207
11,473	24,215	-0,335	-0,195
12,488	-67,170	-0,217	-0,060
13,502	7,555	-0,331	-0,174
14,517	1,255	-0,266	-0,134
15,531	24,751	-0,327	-0,191
16,546	-5,148	-0,442	-0,214
17,561	135,124	-0,333	-0,305
18,575	-43,790	-0,275	-0,097
19,590	-50,822	-0,210	-0,069
20,604	-66,862	-0,278	-0,077
21,619	195,971	-0,439	-0,472
22,634	48,166	-0,464	-0,305
23,648	198,162	-0,420	-0,454
24,663	113,848	-0,330	-0,283
25,677	113,133	-0,349	-0,298
26,692	43,696	-0,407	-0,262
27,707	71,561	-0,287	-0,210
28,721	142,340	-0,258	-0,242
29,736	70,262	-0,339	-0,246
30,750	129,120	-0,383	-0,345
31,765	87,321	-0,360	-0,280
32,780	88,764	-0,244	-0,191
33,794	34,161	-0,337	-0,206
34,809	36,537	-0,384	-0,238
35,823	-47,321	-0,347	-0,118
36,838	129,250	-0,359	-0,323
37,853	358,088	-0,252	-0,356
38,867	134,032	-0,374	-0,342
39,882	149,182	-0,329	-0,314
40,896	259,291	-0,229	-0,279
41,911	228,395	-0,229	-0,263
42,926	108,884	-0,367	-0,309
43,940	65,247	-0,332	-0,236
44,955	139,959	-0,376	-0,349
45,969	128,255	-0,324	-0,290
46,984	560,824	-0,220	-0,375
47,999	199,452	-0,264	-0,286
49,013	80,558	-0,420	-0,318
50,028	108,120	-0,396	-0,332
51,042	39,313	-0,388	-0,244
52,057	23,245	-0,411	-0,237
53,071	211,167	-0,303	-0,336
54,086	42,884	-0,260	-0,167
55,101	113,222	-0,307	-0,262
56,115	116,543	-0,289	-0,249
57,130	-47,505	-0,306	-0,104
58,144	74,473	-0,307	-0,227
59,159	146,903	-0,403	-0,381
60,174	97,473	-0,339	-0,274
61,188	132,186	-0,313	-0,284
62,203	-24,441	-0,226	-0,094
63,217	194,877	-0,237	-0,254
64,232	212,416	-0,291	-0,323
65,247	25,680	-0,402	-0,235
66,261	201,810	-0,367	-0,398
67,276	56,464	-0,412	-0,281
68,290	138,317	-0,291	-0,269
69,305	-25,541	-0,258	-0,107
70,320	-154,421	-0,240	0,011
71,334	-15,630	-0,471	-0,210
72,349	16,527	-0,235	-0,130
73,363	34,847	-0,315	-0,193
74,378	51,912	-0,398	-0,266
75,393	-33,935	-0,439	-0,169
76,407	14,946	-0,181	-0,099
77,422	6,334	-0,177	-0,092
78,436	50,093	-0,265	-0,175
79,451	800,000	-0,074	-0,196
80,466	202,655	-0,304	-0,330
81,480	-38,122	-0,333	-0,123
82,495	111,897	-0,279	-0,236
83,509	61,034	-0,431	-0,300
84,524	-44,437	-0,386	-0,135
85,539	-40,427	-0,330	-0,120
86,553	56,431	-0,338	-0,230
87,568	-54,449	-0,287	-0,091
88,582	68,156	-0,335	-0,240
89,597	49,111	-0,385	-0,253
90,611	64,495	-0,313	-0,221
91,626	36,134	-0,357	-0,220
92,641	-46,113	-0,219	-0,075
93,655	88,530	-0,300	-0,234
94,670	229,674	-0,298	-0,342
95,684	0,646	-0,480	-0,240
96,699	298,975	-0,244	-0,316
97,714	12,891	-0,357	-0,193
98,728	3,125	-0,274	-0,139
99,743	7,373	-0,277	-0,145
100,757	-40,609	-0,381	-0,138
101,772	59,028	-0,278	-0,191
102,787	-22,094	-0,260	-0,110
103,801	97,774	-0,254	-0,204
104,816	-63,722	-0,357	-0,102
105,830	-68,008	-0,315	-0,085
106,845	162,079	-0,226	-0,222
107,860	433,738	-0,176	-0,268
108,874	145,832	-0,254	-0,238
109,889	165,634	-0,270	-0,268
110,903	800,000	-0,142	-0,282
111,918	45,253	-0,335	-0,216
112,933	-155,924	-0,207	0,009
113,947	-72,928	-0,278	-0,071
114,962	181,260	-0,174	-0,179
115,976	169,363	-0,306	-0,306
116,991	-66,612	-0,333	-0,092
118,006	116,852	-0,224	-0,192
119,020	119,147	-0,296	-0,256
120,035	-105,182	-0,305	-0,048
121,049	-17,115	-0,175	-0,077
122,064	15,055	-0,272	-0,149
123,079	257,643	-0,239	-0,289
124,093	111,432	-0,259	-0,219
125,108	-32,326	-0,288	-0,112
126,122	186,204	-0,160	-0,167
127,137	-62,570	-0,225	-0,065
128,151	126,490	-0,201	-0,178
129,166	33,173	-0,151	-0,092
130,181	40,595	-0,262	-0,164
131,195	647,304	-0,177	-0,317
132,210	35,927	-0,277	-0,170
133,224	174,950	-0,258	-0,261
134,239	185,656	-0,202	-0,210
135,254	800,000	-0,071	-0,151
136,268	52,087	-0,225	-0,150
137,283	124,149	-0,245	-0,215
138,297	105,895	-0,275	-0,227
139,312	35,264	-0,228	-0,139
140,327	138,811	-0,226	-0,208
141,341	-40,233	-0,250	-0,090
142,356	-8,658	-0,227	-0,106
143,370	-128,083	-0,314	-0,031
144,385	537,767	-0,128	-0,213
145,400	800,000	-0,109	-0,259
146,414	37,496	-0,337	-0,208
147,429	107,357	-0,275	-0,228
148,443	83,609	-0,314	-0,239
149,458	366,173	-0,125	-0,176
150,473	513,133	-0,189	-0,309
151,487	-30,016	-0,193	-0,076
152,502	187,883	-0,251	-0,262
153,516	104,294	-0,230	-0,189
154,531	32,084	-0,415	-0,249
155,546	38,221	-0,319	-0,198
156,560	4,297	-0,196	-0,100
157,575	299,858	-0,095	-0,122
158,589	50,721	-0,078	-0,052
159,604	34,717	-0,235	-0,143
160,619	-67,284	-0,338	-0,092
161,633	230,052	-0,126	-0,144
162,648	68,862	-0,278	-0,199
163,662	-74,298	-0,202	-0,051
164,677	75,929	-0,228	-0,168
165,692	632,482	-0,165	-0,292
166,706	-13,805	-0,300	-0,135
167,721	800,000	-0,090	-0,191
168,735	-88,641	-0,248	-0,051
169,750	280,957	-0,144	-0,180
170,764	800,000	-0,170	-0,343
171,779	-5,490	-0,298	-0,142
172,794	-110,859	-0,182	-0,026
173,808	95,330	-0,211	-0,168
174,823	73,192	-0,213	-0,155
175,837	504,196	-0,184	-0,298
176,852	290,146	-0,137	-0,173
177,867	-52,479	-0,176	-0,056
178,881	173,947	-0,181	-0,182
179,896	78,677	-0,209	-0,155
180,910	60,054	-0,244	-0,168
181,925	376,012	-0,146	-0,208
182,940	47,990	-0,304	-0,197
183,954	62,560	-0,197	-0,137
184,969	-168,032	-0,225	-0,006
185,983	-108,079	-0,260	-0,039
186,998	-67,626	-0,158	-0,043
188,013	5,072	-0,186	-0,095
189,027	54,103	-0,335	-0,224
190,042	122,554	-0,203	-0,176
191,056	800,000	-0,143	-0,296
192,071	-4,808	-0,250	-0,119
193,086	286,686	-0,190	-0,239
194,100	167,476	-0,076	-0,075
195,115	-159,572	-0,198	-0,008
196,129	-34,205	-0,263	-0,100
197,144	214,625	-0,158	-0,174
198,159	800,000	-0,069	-0,170
199,173	-46,828	-0,103	-0,035
200,188	400,979	-0,098	-0,144
201,202	48,320	-0,110	-0,071
202,217	-117,905	-0,090	-0,011
203,232	226,397	-0,144	-0,163
204,246	-34,330	-0,283	-0,107
205,261	-30,430	-0,333	-0,130
206,275	800,000	-0,098	-0,212
207,290	0,632	-0,180	-0,089
208,304	154,305	-0,150	-0,143
209,319	-2,460	-0,157	-0,076
210,334	73,836	-0,259	-0,188
211,348	-2,165	-0,172	-0,083
212,363	10,141	-0,165	-0,087
213,377	-38,114	-0,304	-0,111
214,392	158,513	-0,162	-0,156
215,407	-161,251	-0,221	-0,008
216,421	315,886	-0,163	-0,214
217,436	800,000	-0,093	-0,182
218,450	93,656	-0,207	-0,163
219,465	253,678	-0,120	-0,142
220,480	-9,664	-0,197	0,090
221,494	121,649	-0,236	-0,204
222,509	320,068	-0,173	-0,228
223,523	-200,000	-0,074	-0,269
224,538	-47,201	-0,193	-0,065
225,553	-200,000	-0,318	0,001
226,567	800,000	-0,063	-0,124
227,582	114,707	-0,190	-0,161
228,596	534,736	-0,116	-0,192
229,611	-6,769	-0,182	-0,086
230,626	-29,957	-0,283	-0,111
231,640	299,676	-0,199	-0,254
232,655	233,622	-0,156	-0,178
233,669	7,451	-0,141	-0,073
234,684	46,624	-0,261	-0,167
235,699	125,541	-0,198	-0,173
236,713	305,848	-0,145	-0,187
237,728	-61,473	-0,209	-0,061
238,742	327,270	-0,124	-0,165
239,757	164,763	-0,154	-0,151
240,772	457,055	-0,191	-0,294
241,786	84,486	-0,215	-0,163
242,801	-200,000	-0,049	-0,190
243,815	-22,240	-0,211	-0,088
244,830	800,000	-0,091	-0,226
245,844	35,231	-0,184	-0,111
246,859	128,565	-0,243	-0,214
247,874	144,138	-0,076	-0,070
248,888	129,838	-0,181	-0,160
249,903	789,365	-0,105	-0,200
250,917	-200,000	-0,008	-0,181
251,932	189,076	-0,124	-0,128
252,947	-50,640	-0,319	-0,103
253,961	65,759	-0,247	-0,173
254,976	374,855	-0,126	-0,177
255,990	86,163	-0,162	-0,123
257,005	155,609	-0,160	-0,152
258,020	91,749	0,055	-0,043
259,034	147,005	-0,197	-0,183
260,049	512,668	-0,144	-0,233
261,063	152,583	-0,193	-0,182
262,078	-40,337	-0,282	-0,101
263,093	470,174	-0,194	-0,303
264,107	221,124	-0,159	-0,177
265,122	151,400	-0,151	-0,142
266,136	238,998	-0,184	-0,212
267,151	-70,647	-0,243	-0,063
268,166	61,133	-0,328	-0,225
269,180	-16,588	-0,101	-0,044
270,195	80,526	-0,170	-0,126
271,209	140,033	-0,117	0,107
272,224	-96,924	-0,106	-0,019
273,239	-200,000	-0,038	-0,124
274,253	-136,779	-0,264	-0,021
275,268	111,122	-0,128	-0,106
276,282	475,187	-0,096	-0,150
277,297	-72,785	-0,205	-0,052
278,312	-200,000	-0,021	-0,208
279,326	800,000	-0,124	-0,238
280,341	81,190	-0,140	-0,104
281,355	490,317	-0,067	-0,106
282,370	92,568	-0,173	-0,134
283,384	696,183	-0,117	-0,212
284,399	480,676	-0,113	-0,178
285,414	178,673	-0,144	-0,146
286,428	407,012	-0,199	-0,291
287,443	-47,615	-0,128	-0,043
288,457	800,000	-0,062	-0,133
289,472	-65,980	-0,065	0,018
290,487	276,715	-0,136	-0,167
291,501	800,000	-0,072	-0,219
292,516	70,834	-0,147	-0,105
293,530	81,401	-0,214	-0,159
294,545	-13,423	-0,245	-0,109
295,560	-35,058	-0,244	-0,091
296,574	800,000	-0,030	-0,085
297,589	567,061	-0,101	-0,170
298,603	264,821	-0,207	-0,248
299,618	-152,767	-0,265	-0,013
300,633	193,208	-0,137	-0,143
301,647	167,431	-0,079	-0,078
302,662	-200,000	-0,050	-0,222
303,676	-137,722	-0,164	-0,013
304,691	181,629	-0,218	-0,221
305,706	245,504	-0,101	-0,117
306,720	-178,580	-0,178	-0,003
307,735	800,000	-0,082	-0,217
308,749	-139,128	-0,161	-0,012
309,764	114,995	-0,053	-0,045
310,779	299,295	-0,138	-0,175
311,793	269,064	-0,091	-0,110
312,808	23,290	-0,215	-0,121
313,822	107,249	-0,207	-0,169
314,837	64,364	-0,093	-0,065
315,852	199,143	-0,090	-0,095
316,866	210,942	-0,114	-0,124
317,881	135,378	-0,170	-0,152
318,895	759,668	-0,115	-0,215
319,910	246,711	-0,159	-0,184
320,925	331,467	-0,177	-0,236
321,939	-99,067	-0,075	-0,013
322,954	-135,976	-0,190	-0,015
323,968	-200,000	-0,015	-0,054
324,983	-16,338	-0,180	-0,078
325,997	641,023	-0,109	-0,192
327,012	800,000	-0,105	-0,254
328,027	-200,000	-0,026	-0,105
329,041	800,000	-0,070	-0,137
330,056	-37,183	-0,169	-0,062
331,070	58,795	-0,070	-0,047
332,085	73,387	-0,050	-0,036
333,100	434,922	-0,076	-0,114
334,114	43,563	-0,073	0,046
335,129	-26,829	-0,227	-0,091
336,143	800,000	-0,115	-0,220
337,158	414,227	-0,129	-0,189
338,173	-92,504	-0,197	-0,038
339,187	-158,871	-0,195	-0,008
340,202	350,164	-0,058	-0,079
341,216	139,236	-0,165	-0,149
342,231	-43,864	-0,176	-0,060
343,246	186,279	-0,148	-0,151
344,260	800,000	-0,096	-0,194
345,275	-5,215	-0,068	0,032
346,289	635,340	-0,103	-0,179
347,304	94,896	-0,122	-0,095
348,319	78,673	-0,128	-0,094
349,333	-19,770	-0,120	-0,050
350,348	226,301	-0,158	-0,175
351,362	755,704	-0,063	-0,117
352,377	-169,257	-0,113	0,003
353,392	-97,314	-0,071	-0,013
354,406	69,926	-0,157	-0,111
355,421	209,240	1315,910	1414,271
356,435	161,025	1476,784	1414,743
