DTS Sentinel unit serial number:	SN410029Multiplexer serial number:	ORYXHardware model number:	OX2-SRSoftware version number:	ORYX F/W v4,00 Oryx Data Collector v3.7.2.0data status	okinstallation	B3 Nyhavnadifferential loss correction	single-endedforward channel	channel 1reverse channel	N/Adate	2023/11/30time	13:42:30forward acquisition time	300,00reverse acquisition time	0,00gamma	499,1914k internal	0,3214k external	0,3214temperature offset calibration	1,0000default loss term (dB/km)	0,3820temperature slope calibration	1,0000multiplexer offset coefficient	1,0000multiplexer slope coefficient	1,0000fibre end	0,00T internal ref (°C)	10,78T ext. ref 1 (°C)	-2,51T ext. ref 2 (°C)	-2,57length (m)	temperature (°C)	Stokes	anti-Stokes-744,400	800,000	-0,125	-0,328
-743,385	-200,000	-0,065	0,305
-742,371	269,241	-0,136	-0,174
-741,356	-200,000	-0,017	0,297
-740,342	8,355	-0,241	-0,131
-739,327	-200,000	-0,088	0,343
-738,312	800,000	-0,093	-0,285
-737,298	-200,000	-0,004	0,267
-736,283	223,485	-0,164	-0,192
-735,269	-200,000	0,028	0,224
-734,254	210,439	-0,223	-0,254
-733,239	86,689	-0,168	0,134
-732,225	-200,000	-0,034	-0,233
-731,210	538,252	0,051	0,088
-730,196	800,000	-0,062	-0,166
-729,181	616,087	-0,070	-0,128
-728,167	-37,471	-0,057	-0,022
-727,152	170,454	-0,103	-0,107
-726,137	-126,786	-0,078	0,008
-725,123	439,680	0,045	-0,071
-724,108	-21,896	-0,062	-0,027
-723,094	800,000	0,041	-0,124
-722,079	182,672	0,022	-0,023
-721,064	-14,462	-0,088	0,041
-720,050	199,783	0,008	-0,008
-719,035	-35,289	-0,070	0,028
-718,021	139,262	-0,099	0,095
-717,006	736,997	0,044	-0,085
-715,991	-181,133	-0,140	0,002
-714,977	46,090	-0,103	-0,069
-713,962	13,334	-0,082	0,046
-712,948	99,874	-0,079	-0,067
-711,933	-59,855	-0,101	0,031
-710,918	-73,517	0,174	-0,046
-709,904	603,315	0,035	0,062
-708,889	-66,810	-0,067	0,019
-707,875	800,000	0,049	-0,141
-706,860	378,042	-0,026	-0,039
-705,845	41,865	-0,095	-0,062
-704,831	-31,086	-0,097	0,039
-703,816	200,190	0,048	-0,053
-702,802	12,535	-0,016	0,009
-701,787	58,718	-0,098	0,070
-700,772	30,633	-0,060	0,037
-699,758	-13,976	-0,025	-0,012
-698,743	-200,000	0,012	0,118
-697,729	-200,000	0,026	0,163
-696,714	-17,388	-0,079	-0,036
-695,699	-200,000	0,032	0,134
-694,685	800,000	-0,119	-0,240
-693,670	128,243	-0,078	-0,071
-692,656	-200,000	0,020	0,147
-691,641	-85,346	0,216	-0,048
-690,627	233,148	-0,057	0,068
-689,612	639,794	-0,040	-0,073
-688,597	-35,491	0,101	0,039
-687,583	-143,433	-0,053	0,004
-686,568	-33,025	-0,240	-0,096
-685,554	800,000	0,036	-0,079
-684,539	800,000	-0,026	0,075
-683,524	482,695	0,036	0,059
-682,510	-200,000	0,000	-0,076
-681,495	452,236	-0,033	-0,053
-680,481	-200,000	-0,019	0,074
-679,466	-30,125	-0,089	-0,036
-678,451	441,252	-0,073	-0,116
-677,437	2,538	0,009	-0,005
-676,422	346,373	-0,061	0,088
-675,408	-200,000	-0,006	0,067
-674,393	728,337	-0,023	-0,045
-673,378	-200,000	-0,017	-0,062
-672,364	257,243	0,030	0,038
-671,349	800,000	-0,056	0,126
-670,335	-195,978	-0,106	-0,001
-669,320	237,581	-0,032	-0,039
-668,305	26,039	0,043	0,026
-667,291	800,000	0,039	0,082
-666,276	-43,089	-0,115	0,042
-665,262	-121,837	-0,141	0,017
-664,247	114,267	0,057	-0,050
-663,232	800,000	0,040	0,099
-662,218	140,538	0,016	0,015
-661,203	-109,918	-0,167	-0,025
-660,189	-92,069	-0,084	0,017
-659,174	-115,996	-0,050	0,007
-658,159	-200,000	-0,079	-0,000
-657,145	-200,000	0,008	0,045
-656,130	479,058	-0,055	-0,090
-655,116	-123,117	0,029	0,003
-654,101	800,000	0,012	0,030
-653,086	-200,000	-0,004	-0,021
-652,072	-200,000	-0,011	0,054
-651,057	800,000	-0,032	0,070
-650,043	-200,000	-0,028	-0,177
-649,028	346,659	-0,059	-0,084
-648,014	-200,000	-0,032	-0,109
-646,999	210,544	-0,051	-0,058
-645,984	-94,876	-0,125	0,024
-644,970	103,183	-0,106	0,090
-643,955	-85,495	-0,113	-0,025
-642,941	-200,000	0,004	0,064
-641,926	-200,000	-0,003	-0,019
-640,911	194,500	0,074	0,081
-639,897	-200,000	0,007	-0,059
-638,882	63,945	-0,072	0,052
-637,868	184,725	0,095	0,102
-636,853	416,558	-0,065	0,100
-635,838	-200,000	-0,019	-0,130
-634,824	-11,760	-0,096	-0,045
-633,809	-144,602	0,063	0,004
-632,795	-34,340	0,106	-0,042
-631,780	160,786	0,115	0,116
-630,765	278,841	-0,049	0,063
-629,751	-117,882	0,006	0,001
-628,736	800,000	0,032	-0,081
-627,722	599,745	-0,039	0,070
-626,707	-200,000	0,007	0,034
-625,692	-120,923	0,070	0,008
-624,678	15,939	0,054	0,031
-623,663	-200,000	0,015	-0,063
-622,649	10,605	-0,053	0,029
-621,634	-63,705	-0,133	-0,039
-620,619	314,164	-0,010	0,014
-619,605	570,347	-0,083	0,147
-618,590	-200,000	-0,011	-0,110
-617,576	-34,098	-0,098	0,039
-616,561	202,153	-0,118	0,132
-615,546	186,075	-0,012	0,013
-614,532	63,173	-0,098	-0,071
-613,517	-200,000	-0,004	-0,040
-612,503	-200,000	0,004	0,073
-611,488	800,000	0,058	0,175
-610,474	121,844	-0,036	0,033
-609,459	-200,000	-0,003	0,091
-608,444	328,033	-0,085	0,117
-607,430	259,104	-0,117	-0,146
-606,415	-200,000	0,006	-0,240
-605,401	800,000	0,025	-0,050
-604,386	-179,407	-0,113	0,002
-603,371	-184,190	0,045	-0,001
-602,357	-68,841	0,082	-0,023
-601,342	-104,295	-0,129	-0,021
-600,328	147,534	-0,143	0,139
-599,313	-200,000	0,017	0,096
-598,298	-200,000	0,020	-0,123
-597,284	-0,607	-0,061	-0,031
-596,269	-20,063	0,191	0,084
-595,255	86,678	-0,063	0,050
-594,240	181,721	0,039	0,042
-593,225	800,000	-0,039	0,089
-592,211	451,677	0,089	-0,142
-591,196	800,000	0,011	-0,031
-590,182	-103,194	0,021	0,004
-589,167	-200,000	0,055	0,000
-588,152	-18,378	0,095	-0,043
-587,138	47,381	0,037	-0,024
-586,123	629,140	-0,017	0,031
-585,109	6,845	-0,034	-0,018
-584,094	-168,662	0,023	-0,001
-583,079	322,148	0,021	-0,029
-582,065	-84,565	-0,080	0,018
-581,050	-200,000	-0,004	-0,035
-580,036	140,928	0,073	0,070
-579,021	-33,579	0,035	-0,014
-578,006	170,786	-0,023	-0,024
-576,992	-200,000	-0,022	-0,156
-575,977	-200,000	0,033	0,192
-574,963	-200,000	-0,009	0,031
-573,948	59,039	-0,026	-0,019
-572,934	800,000	-0,002	0,007
-571,919	-200,000	0,005	-0,035
-570,904	212,018	-0,052	-0,059
-569,890	800,000	0,068	-0,158
-568,875	486,784	0,067	-0,111
-567,861	-99,235	0,081	0,015
-566,846	325,026	0,024	0,033
-565,831	-200,000	-0,031	0,170
-564,817	-140,448	0,063	-0,005
-563,802	62,282	-0,111	-0,080
-562,788	-8,968	-0,066	-0,032
-561,773	-200,000	-0,026	-0,085
-560,758	-200,000	0,009	0,082
-559,744	491,464	0,040	-0,066
-558,729	800,000	0,030	-0,092
-557,715	-200,000	-0,024	0,079
-556,700	116,684	-0,090	-0,080
-555,685	800,000	0,026	-0,070
-554,671	-52,043	0,066	0,022
-553,656	-200,000	-0,006	0,026
-552,642	800,000	0,009	0,027
-551,627	-200,000	-0,013	0,142
-550,612	-114,467	0,063	-0,009
-549,598	395,480	-0,041	0,062
-548,583	623,783	0,040	0,073
-547,569	-200,000	-0,013	0,113
-546,554	-80,852	-0,182	0,043
-545,539	454,123	-0,044	0,071
-544,525	-200,000	-0,007	0,125
-543,510	-200,000	-0,033	-0,149
-542,496	329,915	0,089	-0,124
-541,481	263,480	-0,018	-0,023
-540,466	-11,632	-0,047	0,022
-539,452	-144,320	0,268	0,018
-538,437	-200,000	-0,027	-0,109
-537,423	8,405	-0,036	-0,019
-536,408	-39,860	-0,173	-0,065
-535,393	29,805	-0,112	-0,068
-534,379	-45,881	0,024	-0,008
-533,364	800,000	-0,006	0,014
-532,350	-200,000	0,016	0,076
-531,335	-200,000	-0,020	0,181
-530,321	711,744	-0,077	-0,147
-529,306	62,291	-0,161	-0,116
-528,291	800,000	-0,053	-0,139
-527,277	34,900	0,118	0,074
-526,262	548,631	-0,035	-0,060
-525,248	-200,000	-0,014	-0,090
-524,233	-200,000	-0,010	-0,100
-523,218	137,113	-0,016	0,015
-522,204	235,611	-0,026	0,031
-521,189	204,682	0,084	-0,094
-520,175	87,210	-0,041	-0,032
-519,160	-74,209	-0,075	0,019
-518,145	14,237	-0,137	-0,077
-517,131	4,110	-0,106	-0,055
-516,116	-200,000	0,000	-0,033
-515,102	177,622	0,019	0,020
-514,087	167,732	-0,018	-0,019
-513,072	800,000	-0,084	-0,183
-512,058	436,668	0,092	-0,144
-511,043	-200,000	0,001	0,030
-510,029	-200,000	0,030	-0,099
-509,014	-108,753	-0,046	-0,007
-507,999	800,000	-0,059	0,133
-506,985	800,000	-0,040	0,100
-505,970	449,116	-0,060	0,096
-504,956	-200,000	0,023	0,100
-503,941	296,041	0,058	0,077
-502,926	800,000	0,027	0,081
-501,912	-200,000	-0,006	0,024
-500,897	24,634	-0,087	-0,052
-499,883	800,000	0,053	0,107
-498,868	70,372	0,009	0,007
-497,853	290,444	-0,097	0,126
-496,839	-200,000	-0,055	-0,190
-495,824	-200,000	-0,020	0,068
-494,810	-109,948	0,033	0,005
-493,795	800,000	0,038	0,112
-492,781	45,954	-0,032	-0,021
-491,766	714,954	-0,047	-0,089
-490,751	165,866	-0,056	0,057
-489,737	-200,000	0,007	-0,097
-488,722	-62,707	0,119	0,035
-487,708	-200,000	0,016	-0,060
-486,693	-200,000	0,008	-0,074
-485,678	800,000	0,065	-0,167
-484,664	-200,000	0,020	-0,080
-483,649	34,773	-0,122	0,077
-482,635	60,676	0,078	0,055
-481,620	800,000	-0,017	0,038
-480,605	800,000	0,024	-0,069
-479,591	-160,704	0,046	-0,002
-478,576	800,000	-0,033	-0,097
-477,562	-74,253	-0,142	0,037
-476,547	800,000	0,024	0,067
-475,532	113,321	0,052	-0,045
-474,518	151,014	0,014	-0,014
-473,503	-127,461	0,028	0,003
-472,489	-30,779	-0,099	0,040
-471,474	-55,960	0,029	0,009
-470,459	608,279	0,088	-0,159
-469,445	90,862	0,054	-0,044
-468,430	800,000	-0,032	-0,075
-467,416	-58,650	0,002	-0,001
-466,401	117,763	0,130	0,115
-465,386	-51,040	0,141	0,047
-464,372	-200,000	0,014	0,093
-463,357	2,486	-0,051	0,026
-462,343	3,015	0,101	0,052
-461,328	-103,512	-0,106	0,018
-460,313	800,000	0,046	0,144
-459,299	-93,524	-0,041	-0,008
-458,284	-93,666	-0,091	0,018
-457,270	-200,000	-0,007	0,093
-456,255	39,042	-0,045	-0,029
-455,241	44,953	-0,108	-0,071
-454,226	-200,000	-0,014	-0,106
-453,211	266,114	0,070	0,088
-452,197	6,206	-0,025	-0,013
-451,182	-123,422	0,135	-0,015
-450,168	-200,000	-0,015	-0,083
-449,153	87,440	-0,083	0,066
-448,138	-200,000	0,000	-0,089
-447,124	800,000	-0,040	-0,096
-446,109	-45,269	0,170	-0,060
-445,095	-200,000	-0,008	-0,033
-444,080	-192,445	0,129	-0,001
-443,065	-200,000	0,000	-0,123
-442,051	200,669	-0,003	0,004
-441,036	236,843	0,054	0,064
-440,022	800,000	0,046	-0,102
-439,007	600,073	-0,029	0,052
-437,992	-148,367	0,148	0,009
-436,978	49,659	0,073	-0,049
-435,963	-100,498	0,079	0,014
-434,949	-200,000	0,007	-0,144
-433,934	-200,000	0,007	-0,040
-432,919	-172,500	-0,004	0,000
-431,905	435,218	0,050	-0,078
-430,890	-31,392	0,147	-0,059
-429,876	-53,742	-0,073	0,024
-428,861	-200,000	0,024	0,153
-427,846	45,294	-0,111	0,073
-426,832	123,009	-0,140	-0,126
-425,817	-16,889	-0,069	0,031
-424,803	-200,000	-0,049	0,180
-423,788	-200,000	-0,001	0,030
-422,773	-73,331	0,155	0,040
-421,759	127,587	-0,037	-0,034
-420,744	125,421	0,120	0,109
-419,730	311,268	-0,032	0,043
-418,715	103,979	-0,123	0,104
-417,701	14,444	-0,084	-0,047
-416,686	-78,115	-0,003	-0,001
-415,671	800,000	-0,058	0,124
-414,657	43,970	0,095	0,062
-413,642	147,851	-0,039	0,038
-412,628	800,000	0,006	0,013
-411,613	-122,791	-0,082	0,009
-410,598	-150,665	0,097	0,005
-409,584	622,166	0,027	0,048
-408,569	800,000	0,067	-0,166
-407,555	-200,000	0,029	-0,125
-406,540	-200,000	0,005	0,014
-405,525	-184,160	0,058	0,001
-404,511	-28,214	0,097	0,040
-403,496	-0,362	-0,098	0,050
-402,482	-88,608	0,074	0,016
-401,467	-200,000	0,019	0,182
-400,452	216,284	-0,068	0,077
-399,438	-70,012	0,036	-0,010
-398,423	38,016	-0,095	-0,061
-397,409	-20,259	0,054	-0,024
-396,394	800,000	-0,064	0,134
-395,379	-24,520	0,067	-0,028
-394,365	-12,386	0,091	0,042
-393,350	81,524	0,129	0,100
-392,336	-27,944	-0,033	0,014
-391,321	165,330	-0,029	-0,029
-390,306	55,145	-0,054	0,037
-389,292	-200,000	0,017	0,063
-388,277	-200,000	0,019	-0,098
-387,263	563,103	0,079	-0,137
-386,248	238,538	0,122	0,145
-385,233	122,348	0,101	0,090
-384,219	-178,673	-0,082	0,001
-383,204	260,002	-0,179	-0,222
-382,190	89,361	0,152	-0,121
-381,175	10,994	0,039	-0,021
-380,160	336,276	0,006	0,008
-379,146	-54,916	0,105	-0,034
-378,131	348,336	0,114	0,160
-377,117	800,000	-0,080	-0,214
-376,102	39,962	-0,047	-0,030
-375,088	-200,000	0,025	-0,170
-374,073	-64,783	0,090	-0,026
-373,058	-200,000	-0,012	0,064
-372,044	39,583	0,086	-0,055
-371,029	98,974	0,102	0,084
-370,015	-62,128	0,082	0,024
-369,000	13,426	-0,048	-0,027
-367,985	-152,301	-0,068	-0,003
-366,971	-37,416	0,132	-0,050
-365,956	-154,022	-0,059	-0,003
-364,942	-200,000	-0,015	0,134
-363,927	517,695	0,068	-0,113
-362,912	800,000	0,013	-0,037
-361,898	56,402	0,056	0,039
-360,883	-23,759	-0,050	-0,021
-359,869	133,658	0,056	-0,052
-358,854	-200,000	0,003	-0,098
-357,839	775,883	0,029	0,057
-356,825	-200,000	0,023	0,130
-355,810	316,165	0,075	0,101
-354,796	800,000	0,036	0,097
-353,781	27,402	-0,107	-0,064
-352,766	361,023	0,009	-0,013
-351,752	-9,335	0,051	-0,024
-350,737	800,000	0,020	-0,042
-349,723	-8,772	0,156	0,074
-348,708	-200,000	0,000	-0,067
-347,693	147,332	0,057	0,054
-346,679	-200,000	0,000	0,091
-345,664	800,000	-0,038	0,096
-344,650	80,660	-0,079	0,061
-343,635	15,033	0,090	0,050
-342,620	-52,259	0,110	-0,036
-341,606	800,000	-0,039	0,103
-340,591	-200,000	-0,010	0,104
-339,577	-108,394	-0,058	-0,009
-338,562	-200,000	-0,038	-0,149
-337,548	-200,000	-0,001	0,055
-336,533	-200,000	-0,009	-0,059
-335,518	49,107	0,033	0,022
-334,504	-200,000	-0,035	0,167
-333,489	-200,000	0,012	-0,112
-332,475	-125,788	-0,022	-0,002
-331,460	-175,106	-0,122	-0,002
-330,445	-82,793	-0,174	0,040
-329,431	170,040	0,071	0,073
-328,416	-42,715	0,097	-0,035
-327,402	-200,000	0,004	0,114
-326,387	-48,281	0,032	-0,011
-325,372	583,561	0,048	-0,084
-324,358	3,768	-0,132	-0,068
-323,343	800,000	-0,037	-0,104
-322,329	379,121	0,023	-0,033
-321,314	-200,000	-0,014	-0,062
-320,299	-200,000	-0,017	0,074
-319,285	292,268	0,007	-0,009
-318,270	-102,993	-0,158	-0,026
-317,256	-48,511	0,090	-0,031
-316,241	-200,000	0,018	-0,094
-315,226	149,778	0,126	0,122
-314,212	-200,000	-0,057	0,223
-313,197	800,000	-0,032	-0,075
-312,183	-116,330	0,022	0,003
-311,168	174,896	0,108	-0,112
-310,153	358,888	-0,115	-0,165
-309,139	184,458	-0,022	-0,024
-308,124	-200,000	-0,003	-0,010
-307,110	-144,273	0,098	0,006
-306,095	396,974	-0,012	0,018
-305,080	-200,000	0,018	0,078
-304,066	-200,000	0,001	-0,165
-303,051	800,000	-0,052	-0,119
-302,037	132,327	0,025	-0,023
-301,022	257,515	0,032	0,039
-300,008	43,688	0,067	-0,044
-298,993	553,475	0,066	0,114
-297,978	800,000	0,022	0,063
-296,964	-2,251	-0,071	0,035
-295,949	401,113	-0,067	-0,101
-294,935	61,719	-0,106	0,075
-293,920	-7,841	0,057	-0,027
-292,905	71,648	-0,019	0,014
-291,891	800,000	0,013	0,034
-290,876	-61,815	-0,114	-0,034
-289,862	-200,000	0,011	-0,037
-288,847	-200,000	0,029	-0,108
-287,832	26,358	-0,023	-0,014
-286,818	89,965	-0,049	-0,039
-285,803	-200,000	0,001	-0,050
-284,789	101,180	0,052	0,043
-283,774	140,677	-0,029	-0,028
-282,759	-200,000	0,001	-0,027
-281,745	92,542	-0,031	-0,025
-280,730	214,852	0,020	0,022
-279,716	800,000	-0,008	0,016
-278,701	-200,000	-0,026	0,145
-277,686	649,669	0,044	0,081
-276,672	-148,738	0,120	-0,007
-275,657	64,899	0,063	-0,045
-274,643	236,759	0,093	-0,109
-273,628	324,017	-0,095	-0,130
-272,613	-200,000	0,015	-0,050
-271,599	-48,956	0,030	-0,010
-270,584	-146,813	0,082	-0,005
-269,570	734,657	-0,076	-0,145
-268,555	788,111	-0,055	-0,107
-267,540	523,894	-0,027	0,045
-266,526	45,122	-0,072	0,047
-265,511	-200,000	-0,021	0,070
-264,497	-112,883	0,099	-0,014
-263,482	99,907	0,154	-0,126
-262,467	800,000	0,038	-0,088
-261,453	-200,000	0,005	-0,116
-260,438	-200,000	-0,021	-0,127
-259,424	81,430	-0,034	-0,026
-258,409	-200,000	-0,005	-0,191
-257,395	-157,157	0,100	0,004
-256,380	-200,000	-0,027	0,091
-255,365	-200,000	0,055	0,225
-254,351	-100,646	-0,156	-0,027
-253,336	-200,000	0,030	0,131
-252,322	-200,000	0,023	-0,084
-251,307	-137,093	-0,077	-0,006
-250,292	494,660	-0,072	0,118
-249,278	111,358	0,103	-0,088
-248,263	-145,877	0,078	0,005
-247,249	800,000	-0,034	0,087
-246,234	-77,886	-0,092	-0,022
-245,219	-103,348	0,089	-0,015
-244,205	162,253	-0,126	0,126
-243,190	295,226	0,094	-0,123
-242,176	426,615	0,091	0,140
-241,161	-200,000	-0,004	-0,054
-240,146	122,903	-0,024	0,022
-239,132	800,000	0,043	0,092
-238,117	728,381	-0,030	0,057
-237,103	-200,000	0,021	-0,103
-236,088	-200,000	0,013	0,116
-235,073	-1,008	-0,099	0,049
-234,059	422,073	0,080	0,122
-233,044	575,391	-0,038	-0,065
-232,030	37,146	0,058	-0,036
-231,015	800,000	0,021	-0,061
-230,000	152,983	-0,015	0,015
-228,986	62,768	-0,068	-0,048
-227,971	-160,358	0,179	0,007
-226,957	800,000	-0,006	0,013
-225,942	-124,954	-0,140	0,015
-224,927	386,025	-0,051	0,075
-223,913	30,471	-0,160	-0,097
-222,898	375,244	0,078	-0,112
-221,884	800,000	0,022	-0,053
-220,869	71,579	0,101	0,075
-219,855	98,333	-0,086	0,070
-218,840	-200,000	-0,024	0,099
-217,825	-200,000	0,030	-0,096
-216,811	132,195	-0,041	-0,037
-215,796	-200,000	-0,044	-0,184
-214,782	800,000	-0,022	0,050
-213,767	234,948	0,068	-0,079
-212,752	-200,000	-0,003	0,043
-211,738	642,361	0,047	-0,086
-210,723	-200,000	-0,003	0,080
-209,709	541,538	-0,060	-0,101
-208,694	-36,425	-0,095	-0,036
-207,679	116,273	-0,045	-0,039
-206,665	-102,346	0,062	0,010
-205,650	121,071	0,180	0,159
-204,636	248,145	0,013	0,016
-203,621	486,546	0,091	0,148
-202,606	-125,149	-0,111	-0,012
-201,592	762,459	0,028	0,055
-200,577	178,046	0,058	0,060
-199,563	-36,363	-0,081	0,031
-198,548	-83,713	-0,075	-0,017
-197,533	137,998	0,085	0,079
-196,519	234,812	0,045	0,052
-195,504	800,000	-0,035	-0,080
-194,490	-200,000	0,028	0,093
-193,475	-200,000	-0,022	-0,123
-192,460	34,752	0,110	0,068
-191,446	40,789	-0,064	0,041
-190,431	112,999	0,053	-0,046
-189,417	-200,000	-0,030	0,109
-188,402	-139,729	-0,112	0,008
-187,387	-200,000	0,036	-0,120
-186,373	69,890	-0,161	-0,117
-185,358	-200,000	0,025	0,100
-184,344	-200,000	0,016	0,139
-183,329	800,000	0,010	-0,025
-182,315	-184,081	0,171	0,002
-181,300	97,621	-0,074	0,060
-180,285	-89,850	0,052	0,011
-179,271	-76,724	0,084	-0,021
-178,256	574,676	0,028	-0,049
-177,242	-61,932	-0,172	0,051
-176,227	53,255	-0,109	0,074
-175,212	326,513	-0,040	0,055
-174,198	201,901	-0,069	0,076
-173,183	145,332	0,137	-0,130
-172,169	77,479	-0,044	-0,033
-171,154	-200,000	0,008	0,025
-170,139	464,947	0,045	0,072
-169,125	-63,992	0,083	-0,024
-168,110	-200,000	-0,002	0,146
-167,096	80,179	-0,096	0,073
-166,081	-116,072	-0,080	-0,010
-165,066	-79,665	-0,090	-0,021
-164,052	-13,312	0,103	0,047
-163,037	59,141	-0,152	-0,106
-162,023	25,956	0,137	0,080
-161,008	401,544	0,026	0,039
-159,993	-143,063	-0,175	0,012
-158,979	145,368	-0,009	-0,009
-157,964	208,656	-0,027	0,030
-156,950	318,723	-0,030	0,040
-155,935	-34,978	0,107	0,041
-154,920	41,773	-0,077	0,049
-153,906	-139,292	0,147	0,011
-152,891	-200,000	-0,027	-0,095
-151,877	-11,641	-0,118	-0,055
-150,862	625,587	-0,027	-0,048
-149,847	192,356	-0,060	-0,065
-148,833	-200,000	-0,010	-0,044
-147,818	-200,000	0,024	0,150
-146,804	272,836	0,119	0,149
-145,789	748,744	-0,070	-0,135
-144,775	-154,812	0,019	0,001
-143,760	-36,395	-0,089	-0,034
-142,745	452,155	-0,085	-0,133
-141,731	-160,808	0,071	0,003
-140,716	44,395	-0,129	-0,083
-139,702	800,000	0,030	0,074
-138,687	-96,866	0,045	0,008
-137,672	-101,559	-0,099	-0,017
-136,658	-200,000	0,004	0,068
-135,643	-75,336	-0,085	-0,021
-134,629	104,755	0,082	-0,069
-133,614	-77,536	-0,040	-0,010
-132,599	-120,606	0,157	-0,019
-131,585	452,730	0,048	0,075
-130,570	494,421	-0,056	-0,090
-129,556	15,988	-0,045	0,025
-128,541	517,317	-0,053	-0,088
-127,526	800,000	-0,040	-0,079
-126,512	57,417	-0,097	0,067
-125,497	31,882	0,054	-0,033
-124,483	-79,289	0,049	-0,012
-123,468	800,000	0,026	0,076
-122,453	-63,614	-0,048	-0,014
-121,439	-52,963	-0,099	0,032
-120,424	-200,000	-0,011	0,055
-119,410	538,739	-0,021	-0,036
-118,395	17,322	0,066	0,037
-117,380	-73,212	-0,109	-0,028
-116,366	52,256	0,102	0,069
-115,351	800,000	0,051	-0,103
-114,337	124,623	-0,092	-0,082
-113,322	-4,815	0,133	0,065
-112,307	800,000	0,022	-0,057
-111,293	-27,378	0,132	0,054
-110,278	-95,106	-0,137	0,026
-109,264	-65,205	0,136	-0,038
-108,249	-200,000	0,010	0,074
-107,234	-200,000	0,012	-0,046
-106,220	111,741	-0,098	-0,083
-105,205	237,803	0,089	-0,104
-104,191	-200,000	-0,013	-0,064
-103,176	12,132	0,061	-0,033
-102,162	277,625	-0,093	-0,117
-101,147	-142,582	0,043	0,003
-100,132	761,844	0,069	-0,133
-99,118	800,000	-0,063	0,154
-98,103	3,876	0,030	-0,015
-97,089	-1,000	0,072	0,036
-96,074	62,735	-0,038	-0,027
-95,059	800,000	0,053	0,157
-94,045	-24,853	0,016	-0,007
-93,030	-165,944	-0,055	0,002
-92,016	-105,638	-0,111	0,018
-91,001	491,579	0,014	-0,023
-89,986	-200,000	0,004	0,064
-88,972	214,308	-0,048	0,054
-87,957	-101,756	0,047	0,008
-86,943	800,000	-0,022	0,057
-85,928	-104,977	-0,034	0,006
-84,913	123,720	0,068	-0,061
-83,899	190,842	-0,060	0,064
-82,884	228,574	-0,084	-0,097
-81,870	176,849	0,087	0,090
-80,855	-59,818	0,062	0,019
-79,840	72,970	-0,043	0,031
-78,826	31,670	0,089	-0,054
-77,811	567,164	0,043	0,075
-76,797	347,369	0,106	-0,147
-75,782	-106,706	-0,091	0,014
-74,767	19,995	-0,037	-0,021
-73,753	-200,000	0,001	-0,045
-72,738	-99,038	0,120	-0,021
-71,724	-200,000	0,009	-0,030
-70,709	253,421	0,046	-0,056
-69,694	-200,000	-0,016	-0,112
-68,680	-200,000	-0,011	0,082
-67,665	800,000	-0,022	-0,063
-66,651	-200,000	0,022	0,090
-65,636	-41,891	-0,075	0,027
-64,622	-65,398	0,036	-0,010
-63,607	-200,000	0,003	-0,117
-62,592	68,127	-0,041	0,029
-61,578	-71,756	0,184	-0,048
-60,563	44,079	-0,050	-0,032
-59,549	-200,000	0,023	0,076
-58,534	26,157	-1,908	-1,121
-57,519	488,075	-1,295	-2,093
-56,505	-200,000	-0,406	-4,539
-55,490	394,528	0,878	1,294
-54,476	800,000	5,107	11,462
-53,461	-200,000	20,962	331,762
-52,446	800,000	757,689	2322,978
-51,432	550,395	1662,856	2823,122
-50,417	73,523	1664,785	1227,728
-49,403	18,671	1537,587	865,008
-48,388	12,594	1460,509	792,261
-47,373	19,024	1451,223	818,047
-46,359	15,830	1440,506	796,784
-45,344	10,925	1436,145	770,998
-44,330	10,816	1434,443	769,534
-43,315	10,763	1432,646	768,284
-42,300	10,810	1430,659	767,413
-41,286	10,837	1429,348	766,807
-40,271	10,791	1428,324	766,008
-39,257	10,818	1427,016	765,407
-38,242	10,847	1425,932	764,933
-37,227	10,878	1424,631	764,351
-36,213	10,849	1423,549	763,604
-35,198	10,847	1422,478	762,986
-34,184	10,908	1421,583	762,766
-33,169	10,853	1419,997	761,623
-32,154	10,935	1418,870	761,374
-31,140	10,893	1417,970	760,667
-30,125	10,955	1416,758	760,275
-29,111	10,904	1415,507	759,336
-28,096	10,909	1414,498	758,788
-27,082	10,820	1413,309	757,704
-26,067	10,809	1412,354	757,109
-25,052	10,860	1411,214	756,707
-24,038	10,832	1410,270	756,041
-23,023	10,770	1409,455	755,281
-22,009	10,814	1408,175	754,770
-20,994	10,821	1407,137	754,219
-19,979	10,785	1406,298	753,571
-18,965	10,742	1405,422	752,872
-17,950	10,751	1404,349	752,309
-16,936	10,746	1403,650	751,880
-15,921	10,709	1402,523	751,077
-14,906	10,752	1401,689	750,801
-13,892	10,731	1400,615	750,095
-12,877	10,711	1399,945	749,615
-11,863	10,735	1399,019	749,198
-10,848	10,676	1398,123	748,415
-9,833	10,672	1397,315	747,937
-8,819	10,591	1396,658	747,179
-7,804	10,633	1395,623	746,789
-6,790	10,613	1394,633	746,139
-5,775	10,641	1393,459	745,610
-4,760	10,640	1392,683	745,162
-3,746	10,583	1391,782	744,386
-2,731	10,664	1390,693	744,146
-1,717	10,609	1389,936	743,460
-0,702	10,571	1388,427	742,450
0,313	14,748	1301,920	715,269
1,327	31,108	693,304	418,080
2,342	48,267	120,460	79,283
3,356	1,000	16,627	8,372
4,371	6,616	3,374	1,762
5,386	-19,200	0,957	0,417
6,400	-200,000	0,079	0,392
7,415	312,341	-0,191	-0,253
8,429	98,915	-0,272	-0,221
9,444	-12,634	-0,444	-0,203
10,459	-24,134	-0,201	-0,084
11,473	20,014	-0,301	-0,170
12,488	-166,111	-0,346	-0,010
13,502	98,521	-0,221	-0,179
14,517	138,027	-0,247	-0,228
15,531	62,143	-0,414	-0,290
16,546	15,867	-0,376	-0,208
17,561	82,208	-0,356	-0,271
18,575	5,981	-0,188	-0,097
19,590	689,878	-0,205	-0,379
20,604	-86,901	-0,284	-0,061
21,619	101,489	-0,275	-0,225
22,634	64,065	-0,539	-0,381
23,648	144,179	-0,405	-0,381
24,663	-30,927	-0,350	-0,138
25,677	-29,278	-0,435	-0,174
26,692	56,923	-0,297	-0,203
27,707	46,243	-0,336	-0,218
28,721	31,315	-0,460	-0,277
29,736	253,528	-0,332	-0,399
30,750	-4,627	-0,449	-0,217
31,765	14,137	-0,436	-0,238
32,780	69,630	-0,394	-0,285
33,794	138,860	-0,260	-0,240
34,809	52,163	-0,499	-0,333
35,823	-39,966	-0,407	-0,148
36,838	212,025	-0,326	-0,361
37,853	52,104	-0,445	-0,297
38,867	249,004	-0,296	-0,353
39,882	140,177	-0,237	-0,220
40,896	28,946	-0,348	-0,207
41,911	77,802	-0,296	-0,221
42,926	-24,513	-0,426	-0,177
43,940	-28,788	-0,476	-0,191
44,955	223,077	-0,341	-0,387
45,969	181,286	-0,452	-0,467
46,984	51,752	-0,338	-0,225
47,999	76,431	-0,260	-0,193
49,013	-90,695	-0,413	-0,083
50,028	96,347	-0,328	-0,263
51,042	56,221	-0,333	-0,227
52,057	47,733	-0,344	-0,225
53,071	55,518	-0,340	-0,230
54,086	40,230	-0,380	-0,239
55,101	50,440	-0,334	-0,221
56,115	-110,394	-0,320	-0,046
57,130	-130,416	-0,453	-0,042
58,144	-55,654	-0,304	-0,095
59,159	75,621	-0,409	-0,302
60,174	186,101	-0,318	-0,332
61,188	20,261	-0,377	-0,213
62,203	36,769	-0,274	-0,169
63,217	63,475	-0,361	-0,253
64,232	-36,492	-0,400	-0,150
65,247	-7,592	-0,373	-0,176
66,261	11,154	-0,383	-0,204
67,276	63,093	-0,348	-0,244
68,290	76,557	-0,249	-0,185
69,305	34,445	-0,361	-0,220
70,320	-59,246	-0,258	-0,077
71,334	-3,772	-0,404	-0,196
72,349	88,503	-0,341	-0,265
73,363	-13,219	-0,378	-0,171
74,378	170,232	-0,282	-0,282
75,393	84,307	-0,328	-0,251
76,407	7,806	-0,330	-0,173
77,422	41,047	-0,335	-0,211
78,436	120,622	-0,167	-0,145
79,451	-142,126	-0,415	-0,028
80,466	-3,548	-0,244	-0,118
81,480	127,693	-0,287	-0,255
82,495	74,952	-0,252	-0,185
83,509	200,560	-0,212	-0,228
84,524	209,574	-0,199	-0,219
85,539	-174,096	-0,303	0,006
86,553	-45,193	-0,399	-0,138
87,568	16,540	-0,237	-0,131
88,582	68,462	-0,302	-0,216
89,597	24,992	-0,328	-0,190
90,611	183,396	-0,240	-0,248
91,626	31,112	-0,208	-0,125
92,641	-81,747	-0,268	-0,061
93,655	-31,445	-0,166	-0,065
94,670	-62,314	-0,351	-0,102
95,684	124,139	-0,287	-0,252
96,699	-34,579	-0,350	-0,133
97,714	-127,298	-0,365	-0,037
98,728	107,793	-0,208	-0,173
99,743	10,211	-0,345	-0,183
100,757	170,622	-0,310	-0,311
101,772	-5,138	-0,247	-0,118
102,787	147,832	-0,197	-0,186
103,801	88,812	-0,314	-0,244
104,816	7,100	-0,320	-0,166
105,830	15,477	-0,265	-0,145
106,845	252,163	-0,162	-0,193
107,860	83,103	-0,232	-0,176
108,874	77,997	-0,302	-0,224
109,889	-10,916	-0,356	-0,163
110,903	211,920	-0,270	-0,297
111,918	-8,357	-0,320	-0,150
112,933	165,296	-0,147	-0,145
113,947	85,485	-0,343	-0,263
114,962	109,647	-0,239	-0,200
115,976	508,617	-0,128	-0,208
116,991	67,740	-0,271	-0,193
118,006	-4,651	-0,267	-0,128
119,020	75,598	-0,356	-0,262
120,035	-105,075	-0,276	-0,044
121,049	-36,154	-0,221	-0,083
122,064	117,520	-0,185	-0,159
123,079	0,917	-0,301	-0,150
124,093	140,562	-0,308	-0,283
125,108	18,409	-0,324	-0,180
126,122	35,937	-0,307	-0,188
127,137	-22,058	-0,307	-0,129
128,151	14,990	-0,192	-0,105
129,166	131,816	-0,247	-0,221
130,181	-42,391	-0,365	-0,129
131,195	800,000	-0,114	-0,254
132,210	221,377	-0,190	-0,213
133,224	800,000	-0,087	-0,201
134,239	45,668	-0,227	-0,146
135,254	15,422	-0,245	-0,134
136,268	439,452	-0,150	-0,229
137,283	256,614	-0,228	-0,273
138,297	110,463	-0,233	-0,195
139,312	379,651	-0,196	-0,281
140,327	39,581	-0,234	-0,146
141,341	-96,657	-0,319	-0,058
142,356	-6,515	-0,276	-0,130
143,370	-57,711	-0,124	-0,037
144,385	490,900	-0,099	-0,158
145,400	57,583	-0,282	-0,192
146,414	172,118	-0,230	-0,230
147,429	144,236	-0,230	-0,213
148,443	558,086	-0,061	-0,102
149,458	119,052	-0,142	-0,122
150,473	-39,353	-0,198	-0,072
151,487	-170,352	-0,221	-0,005
152,502	129,613	-0,256	-0,227
153,516	72,639	-0,204	-0,148
154,531	42,015	-0,263	-0,166
155,546	38,631	-0,229	-0,142
156,560	242,517	-0,210	-0,245
157,575	471,299	-0,088	-0,139
158,589	128,110	-0,202	-0,179
159,604	34,364	-0,197	-0,119
160,619	31,988	-0,312	-0,186
161,633	-200,000	-0,061	-0,210
162,648	46,714	-0,247	-0,159
163,662	58,691	-0,177	-0,121
164,677	278,593	-0,083	-0,103
165,692	-75,194	-0,286	-0,070
166,706	144,223	-0,280	-0,260
167,721	33,932	-0,315	-0,190
168,735	280,899	-0,271	-0,337
169,750	108,369	-0,148	-0,123
170,764	214,407	-0,162	-0,178
171,779	178,135	-0,158	-0,160
172,794	25,751	-0,243	-0,140
173,808	14,933	-0,265	-0,143
174,823	-166,322	-0,219	0,006
175,837	360,237	-0,210	-0,292
176,852	173,358	-0,265	-0,266
177,867	38,275	-0,222	-0,137
178,881	-200,000	-0,021	-0,124
179,896	-40,677	-0,128	-0,046
180,910	225,141	-0,212	-0,239
181,925	122,379	-0,197	-0,171
182,940	-66,418	-0,317	-0,087
183,954	84,699	-0,226	-0,172
184,969	304,518	-0,231	-0,298
185,983	-13,000	-0,205	-0,092
186,998	60,467	-0,272	-0,186
188,013	72,934	-0,161	-0,117
189,027	144,371	-0,190	-0,176
190,042	-73,561	-0,189	-0,047
191,056	128,632	-0,207	-0,183
192,071	800,000	-0,068	-0,185
193,086	22,139	-0,224	-0,127
194,100	74,584	-0,187	-0,136
195,115	75,656	-0,146	-0,107
196,129	226,950	-0,230	-0,259
197,144	32,678	-0,256	-0,153
198,159	472,062	-0,136	-0,213
199,173	314,523	-0,073	-0,095
200,188	-167,980	-0,224	0,006
201,202	-4,900	-0,130	-0,062
202,217	63,690	-0,240	-0,166
203,232	-55,191	-0,055	0,017
204,246	16,846	-0,183	-0,100
205,261	-35,542	-0,236	-0,088
206,275	154,719	-0,167	-0,159
207,290	-200,000	0,027	-0,248
208,304	347,676	-0,158	-0,216
209,319	-95,350	-0,211	-0,039
210,334	-18,601	-0,175	-0,075
211,348	340,307	-0,190	-0,257
212,363	65,000	-0,273	-0,190
213,377	252,710	-0,127	-0,150
214,392	98,218	-0,110	-0,087
215,407	12,040	-0,226	-0,120
216,421	-38,671	-0,248	-0,090
217,436	18,841	-0,178	-0,098
218,450	-14,591	-0,306	-0,136
219,465	-68,599	-0,222	-0,059
220,480	383,742	-0,188	-0,268
221,494	96,091	-0,310	-0,244
222,509	800,000	-0,105	-0,241
223,523	68,324	-0,119	-0,084
224,538	119,091	-0,103	-0,088
225,553	-52,611	-0,278	-0,088
226,567	363,052	-0,159	-0,221
227,582	27,994	-0,176	-0,102
228,596	-116,009	-0,128	-0,016
229,611	800,000	-0,107	-0,224
230,626	42,297	-0,184	-0,115
231,640	-79,841	-0,230	-0,053
232,655	540,722	-0,164	-0,271
233,669	-7,520	-0,292	-0,136
234,684	292,285	-0,133	-0,168
235,699	226,864	-0,175	-0,196
236,713	51,252	-0,128	-0,084
237,728	800,000	-0,099	-0,258
238,742	212,970	-0,209	-0,228
239,757	207,061	-0,201	-0,217
240,772	139,954	-0,201	-0,183
241,786	-8,632	-0,266	-0,123
242,801	760,718	-0,076	-0,142
243,815	-100,365	-0,104	-0,018
244,830	-83,960	-0,158	-0,034
245,844	36,384	-0,213	-0,129
246,859	369,011	-0,055	-0,076
247,874	473,073	-0,170	-0,265
248,888	17,934	-0,277	-0,151
249,903	-140,378	-0,271	-0,019
250,917	-91,957	-0,188	-0,036
251,932	-200,000	-0,027	-0,210
252,947	-50,173	-0,145	-0,047
253,961	-48,107	-0,248	-0,082
254,976	16,162	-0,174	-0,094
255,990	70,324	-0,110	-0,078
257,005	137,711	-0,142	-0,128
258,020	-34,764	-0,126	-0,047
259,034	-40,838	-0,171	0,060
260,049	-20,917	-0,243	-0,102
261,063	87,249	-0,138	-0,105
262,078	71,115	-0,252	-0,179
263,093	23,493	-0,147	-0,083
264,107	7,021	-0,202	-0,103
265,122	-200,000	0,045	-0,144
266,136	-200,000	-0,024	-0,152
267,151	-88,260	-0,151	-0,031
268,166	189,264	-0,183	-0,189
269,180	797,799	-0,120	-0,229
270,195	401,659	-0,175	-0,254
271,209	191,125	-0,139	-0,144
272,224	-53,124	-0,224	-0,070
273,239	800,000	0,017	0,046
274,253	144,220	-0,161	-0,148
275,268	33,010	-0,134	-0,080
276,282	49,298	-0,149	-0,097
277,297	410,898	-0,062	-0,090
278,312	128,594	-0,094	-0,083
279,326	-33,104	-0,252	-0,096
280,341	800,000	-0,093	-0,206
281,355	428,566	-0,142	-0,212
282,370	272,968	-0,136	-0,165
283,384	401,996	-0,112	-0,162
284,399	72,894	-0,275	-0,197
285,414	675,627	-0,075	-0,134
286,428	800,000	-0,038	-0,097
287,443	-7,188	-0,085	-0,039
288,457	9,329	-0,163	-0,084
289,472	64,281	-0,184	-0,127
290,487	-161,103	-0,229	-0,008
291,501	-200,000	-0,017	-0,103
292,516	262,131	-0,096	-0,114
293,530	304,482	-0,050	-0,064
294,545	393,747	-0,101	-0,146
295,560	-144,812	-0,116	-0,007
296,574	385,630	-0,065	-0,092
297,589	-110,629	-0,218	0,031
298,603	33,660	-0,154	-0,092
299,618	-200,000	-0,001	-0,169
300,633	185,767	-0,150	-0,153
301,647	412,070	-0,121	-0,177
302,662	-103,216	-0,128	0,021
303,676	-164,751	-0,139	-0,004
304,691	-135,320	-0,301	-0,024
305,706	66,151	-0,222	-0,154
306,720	-200,000	0,001	-0,149
307,735	188,496	-0,105	-0,108
308,749	120,256	-0,082	-0,070
309,764	-82,033	-0,108	-0,024
310,779	-48,516	-0,141	-0,046
311,793	590,020	-0,115	-0,196
312,808	800,000	-0,080	-0,184
313,822	419,751	-0,084	-0,123
314,837	129,327	-0,123	-0,108
315,852	140,258	-0,106	-0,096
316,866	800,000	0,069	-0,164
317,881	50,102	-0,056	-0,036
318,895	-200,000	0,006	-0,177
319,910	-200,000	-0,034	-0,139
320,925	800,000	-0,069	-0,135
321,939	110,047	-0,247	-0,203
322,954	532,203	-0,110	-0,179
323,968	-104,503	-0,131	-0,021
324,983	-200,000	-0,046	-0,152
325,997	-200,000	0,008	-0,132
327,012	-17,131	-0,051	0,022
328,027	10,162	-0,216	-0,112
329,041	377,393	-0,059	-0,083
330,056	596,836	-0,117	-0,199
331,070	23,197	-0,086	-0,048
332,085	-61,308	-0,175	-0,050
333,100	-10,423	-0,254	-0,115
334,114	145,053	-0,073	-0,067
335,129	-59,880	-0,213	-0,062
336,143	475,120	-0,083	-0,129
337,158	41,533	-0,131	-0,081
338,173	452,860	-0,017	-0,026
339,187	-129,476	-0,058	0,005
340,202	-200,000	-0,034	-0,126
341,216	349,999	-0,143	-0,193
342,231	335,242	-0,115	-0,153
343,246	-200,000	-0,044	-0,170
344,260	428,178	-0,048	-0,071
345,275	-130,055	-0,128	0,012
346,289	231,671	-0,107	0,121
347,304	3,519	-0,077	0,038
348,319	-200,000	-0,025	-0,182
349,333	265,254	-0,131	-0,156
350,348	49,393	-0,060	0,038
351,362	86,023	-0,051	0,038
352,377	256,785	-0,077	-0,090
353,392	31,896	-0,108	-0,063
354,406	503,225	-0,076	-0,120
355,421	206,361	1312,967	1397,933
356,435	158,701	1473,451	1398,401
