DTS Sentinel unit serial number:	SN410029Multiplexer serial number:	ORYXHardware model number:	OX2-SRSoftware version number:	ORYX F/W v4,00 Oryx Data Collector v3.7.2.0data status	okinstallation	B3 Nyhavnadifferential loss correction	single-endedforward channel	channel 1reverse channel	N/Adate	2023/12/02time	08:07:30forward acquisition time	300,00reverse acquisition time	0,00gamma	499,1914k internal	0,3195k external	0,3195temperature offset calibration	1,0000default loss term (dB/km)	0,3820temperature slope calibration	1,0000multiplexer offset coefficient	1,0000multiplexer slope coefficient	1,0000fibre end	0,00T internal ref (°C)	15,49T ext. ref 1 (°C)	0,25T ext. ref 2 (°C)	0,24length (m)	temperature (°C)	Stokes	anti-Stokes-744,400	63,760	-0,279	-0,204
-743,385	-200,000	0,090	0,329
-742,371	292,130	-0,135	-0,180
-741,356	-200,000	0,093	0,332
-740,342	301,043	-0,209	-0,282
-739,327	-200,000	-0,018	0,339
-738,312	800,000	-0,134	-0,277
-737,298	800,000	-0,111	0,252
-736,283	151,214	-0,188	-0,187
-735,269	-200,000	-0,035	0,349
-734,254	475,920	-0,107	-0,177
-733,239	50,424	-0,174	0,120
-732,225	-16,681	-0,232	-0,107
-731,210	-83,585	0,199	0,046
-730,196	-200,000	-0,010	0,050
-729,181	800,000	0,029	-0,080
-728,167	-127,068	-0,104	0,011
-727,152	321,800	0,058	0,080
-726,137	800,000	-0,050	0,159
-725,123	198,529	0,014	0,015
-724,108	110,859	-0,143	-0,125
-723,094	11,074	-0,104	-0,058
-722,079	800,000	-0,020	-0,042
-721,064	-200,000	0,025	-0,090
-720,050	720,083	0,066	-0,128
-719,035	800,000	0,022	-0,066
-718,021	255,959	-0,088	-0,110
-717,006	800,000	-0,035	-0,088
-715,991	734,022	-0,042	-0,082
-714,977	800,000	0,023	-0,063
-713,962	-12,510	-0,155	0,073
-712,948	183,381	-0,028	0,030
-711,933	-200,000	0,019	0,158
-710,918	-200,000	0,121	0,000
-709,904	-112,404	0,027	0,004
-708,889	-200,000	-0,001	-0,071
-707,875	-165,574	-0,131	0,004
-706,860	117,039	-0,087	0,078
-705,845	-200,000	0,001	-0,184
-704,831	65,951	-0,033	0,025
-703,816	645,367	-0,031	0,057
-702,802	311,593	-0,103	-0,141
-701,787	-200,000	-0,007	-0,073
-700,772	-73,097	-0,070	-0,019
-699,758	-200,000	0,034	-0,110
-698,743	-117,196	0,093	-0,012
-697,729	4,228	-0,069	-0,037
-696,714	-200,000	-0,007	-0,045
-695,699	-200,000	-0,004	-0,033
-694,685	-11,066	-0,023	0,011
-693,670	743,182	-0,084	-0,165
-692,656	-61,360	0,102	-0,031
-691,641	149,760	0,056	0,055
-690,627	800,000	-0,004	0,011
-689,612	-200,000	0,020	0,077
-688,597	-154,745	-0,101	0,005
-687,583	-200,000	-0,009	-0,162
-686,568	-160,654	-0,096	-0,004
-685,554	-61,899	-0,128	0,039
-684,539	-200,000	0,020	0,085
-683,524	-122,451	0,061	-0,007
-682,510	-200,000	-0,002	0,193
-681,495	-42,992	-0,110	0,040
-680,481	-19,385	0,061	-0,027
-679,466	-200,000	0,014	-0,051
-678,451	612,109	-0,060	-0,110
-677,437	800,000	0,046	-0,103
-676,422	-1,335	-0,114	-0,058
-675,408	35,463	-0,042	0,027
-674,393	-122,460	-0,192	0,022
-673,378	-106,157	-0,098	0,016
-672,364	-189,382	-0,185	0,002
-671,349	-23,131	-0,068	0,030
-670,335	-200,000	0,026	-0,098
-669,320	202,229	0,086	0,097
-668,305	313,626	0,040	-0,055
-667,291	800,000	-0,025	0,066
-666,276	-200,000	0,008	0,069
-665,262	-200,000	0,017	-0,110
-664,247	-200,000	0,016	-0,113
-663,232	229,733	-0,043	0,051
-662,218	-124,630	-0,079	0,009
-661,203	-116,558	0,043	-0,006
-660,189	221,730	-0,069	0,081
-659,174	568,460	-0,092	-0,163
-658,159	-200,000	-0,001	0,075
-657,145	121,419	0,138	0,124
-656,130	-125,554	-0,027	0,003
-655,116	166,162	0,036	0,038
-654,101	90,176	-0,065	0,053
-653,086	-200,000	0,003	-0,028
-652,072	-125,226	-0,046	-0,005
-651,057	-73,310	-0,238	-0,063
-650,043	11,199	0,065	0,036
-649,028	155,136	0,020	0,020
-648,014	364,513	0,034	0,050
-646,999	-200,000	-0,004	0,120
-645,984	624,714	-0,032	-0,058
-644,970	-200,000	-0,033	0,111
-643,955	800,000	0,006	-0,014
-642,941	-94,659	-0,111	-0,022
-641,926	177,473	0,019	-0,020
-640,911	192,279	0,064	-0,070
-639,897	-39,107	0,110	0,042
-638,882	-12,077	0,066	0,031
-637,868	-53,923	0,069	0,023
-636,853	800,000	-0,035	0,075
-635,838	-200,000	0,001	0,010
-634,824	-84,048	0,116	0,027
-633,809	800,000	0,022	0,046
-632,795	-102,123	0,109	-0,019
-631,780	-25,952	-0,062	0,026
-630,765	-200,000	0,010	0,032
-629,751	294,006	-0,050	-0,067
-628,736	-200,000	-0,017	-0,095
-627,722	800,000	-0,040	-0,094
-626,707	-78,951	0,095	0,023
-625,692	-200,000	-0,008	0,098
-624,678	-200,000	-0,019	0,071
-623,663	5,441	-0,104	0,055
-622,649	-62,763	-0,061	-0,018
-621,634	349,788	-0,113	-0,162
-620,619	18,887	-0,189	-0,109
-619,605	12,829	0,052	0,029
-618,590	92,549	-0,037	-0,030
-617,576	-93,670	-0,033	-0,007
-616,561	-200,000	0,003	0,030
-615,546	44,551	0,032	0,021
-614,532	-38,819	-0,121	-0,046
-613,517	-200,000	0,034	0,138
-612,503	-200,000	0,006	-0,226
-611,488	-131,088	-0,054	-0,005
-610,474	194,845	0,104	0,115
-609,459	255,404	0,046	-0,057
-608,444	25,992	-0,169	0,102
-607,430	27,053	-0,048	0,029
-606,415	170,106	0,091	0,095
-605,401	-150,639	-0,084	0,005
-604,386	-180,864	-0,072	0,001
-603,371	800,000	-0,022	0,050
-602,357	-50,300	0,152	-0,052
-601,342	301,651	0,019	0,025
-600,328	95,649	-0,116	-0,096
-599,313	459,272	0,035	0,056
-598,298	-200,000	0,003	-0,149
-597,284	68,487	-0,041	0,030
-596,269	480,764	-0,044	0,072
-595,255	51,309	0,121	0,083
-594,240	0,427	-0,142	-0,073
-593,225	27,536	-0,070	-0,043
-592,211	137,617	-0,063	-0,060
-591,196	305,517	0,050	-0,067
-590,182	800,000	0,064	0,138
-589,167	800,000	-0,034	0,095
-588,152	532,125	0,047	0,081
-587,138	186,136	-0,049	0,053
-586,123	800,000	0,040	-0,105
-585,109	-200,000	-0,017	-0,127
-584,094	41,817	0,019	-0,012
-583,079	800,000	0,013	0,039
-582,065	-125,855	0,082	0,009
-581,050	-137,774	-0,056	0,004
-580,036	12,947	-0,149	0,083
-579,021	-200,000	-0,012	-0,087
-578,006	323,386	-0,071	-0,098
-576,992	138,756	-0,059	-0,057
-575,977	-200,000	0,015	0,092
-574,963	16,546	0,202	0,115
-573,948	-96,182	-0,163	0,031
-572,934	19,079	0,031	0,018
-571,919	180,355	-0,103	-0,109
-570,904	-200,000	-0,023	-0,079
-569,890	150,511	-0,046	-0,045
-568,875	800,000	-0,060	0,127
-567,861	261,911	0,099	0,125
-566,846	-200,000	-0,017	-0,125
-565,831	800,000	-0,035	0,112
-564,817	-200,000	0,044	-0,178
-563,802	13,738	-0,094	0,053
-562,788	183,252	-0,054	-0,058
-561,773	800,000	0,054	-0,160
-560,758	-60,072	0,124	-0,038
-559,744	63,908	0,043	-0,032
-558,729	89,989	-0,035	0,028
-557,715	-78,310	-0,048	-0,012
-556,700	140,964	-0,046	0,044
-555,685	280,361	-0,077	0,100
-554,671	-126,641	0,079	0,008
-553,656	800,000	0,038	0,111
-552,642	-200,000	-0,010	0,054
-551,627	800,000	-0,022	-0,053
-550,612	-67,163	0,029	-0,008
-549,598	55,986	-0,039	0,027
-548,583	126,098	0,061	0,056
-547,569	-83,534	0,051	-0,012
-546,554	-88,263	0,108	-0,023
-545,539	-111,091	0,109	0,016
-544,525	-200,000	0,013	-0,081
-543,510	-200,000	-0,001	0,054
-542,496	222,362	-0,053	0,061
-541,481	611,046	0,017	-0,031
-540,466	-100,554	-0,037	-0,007
-539,452	-61,852	-0,121	0,036
-538,437	2,171	-0,062	0,032
-537,423	30,565	0,136	0,084
-536,408	-97,602	-0,066	-0,012
-535,393	-200,000	-0,004	-0,014
-534,379	127,584	-0,028	0,026
-533,364	-2,167	-0,072	0,037
-532,350	47,815	-0,048	0,032
-531,335	800,000	0,089	0,179
-530,321	277,314	-0,127	0,164
-529,306	316,616	0,067	0,092
-528,291	2,362	0,103	-0,053
-527,277	68,115	-0,168	-0,124
-526,262	2,910	0,043	-0,022
-525,248	-200,000	0,005	0,141
-524,233	800,000	0,046	-0,128
-523,218	-3,293	0,011	-0,006
-522,204	-200,000	0,020	0,075
-521,189	-62,417	-0,175	0,052
-520,175	-47,263	-0,050	-0,017
-519,160	800,000	0,040	-0,094
-518,145	364,356	0,089	-0,129
-517,131	129,814	0,128	0,118
-516,116	0,911	0,072	-0,037
-515,102	800,000	0,019	0,046
-514,087	-106,399	-0,030	0,005
-513,072	283,692	-0,067	-0,087
-512,058	-32,319	-0,016	-0,007
-511,043	112,968	0,116	-0,102
-510,029	-81,360	0,116	0,027
-509,014	-88,951	0,159	0,034
-507,999	201,811	0,012	0,013
-506,985	-63,964	-0,128	0,038
-505,970	800,000	-0,024	-0,054
-504,956	57,086	-0,119	-0,083
-503,941	629,032	-0,016	-0,030
-502,926	800,000	-0,038	0,089
-501,912	155,822	0,077	0,077
-500,897	630,517	0,019	0,036
-499,883	800,000	-0,015	0,043
-498,868	195,094	0,070	0,077
-497,853	-200,000	-0,017	-0,110
-496,839	196,898	-0,029	-0,032
-495,824	88,267	0,070	0,056
-494,810	191,474	0,067	0,073
-493,795	670,036	0,052	0,098
-492,781	527,250	0,030	0,052
-491,766	800,000	0,040	-0,082
-490,751	-200,000	0,045	-0,238
-489,737	457,319	-0,037	0,059
-488,722	17,061	0,145	0,083
-487,708	5,196	0,106	0,056
-486,693	53,969	-0,159	0,110
-485,678	800,000	0,019	0,052
-484,664	48,051	0,034	0,023
-483,649	278,077	0,043	0,055
-482,635	-121,171	0,037	0,004
-481,620	800,000	-0,027	-0,086
-480,605	311,243	0,026	0,035
-479,591	800,000	0,067	0,145
-478,576	155,011	0,030	0,030
-477,562	89,174	-0,095	0,076
-476,547	-159,564	-0,095	0,004
-475,532	13,259	0,139	-0,077
-474,518	3,181	-0,016	-0,008
-473,503	-105,347	0,080	0,013
-472,489	800,000	-0,050	0,112
-471,474	570,905	-0,039	0,070
-470,459	39,212	-0,084	-0,054
-469,445	56,353	-0,140	-0,098
-468,430	-59,023	-0,118	-0,037
-467,416	282,087	0,109	-0,141
-466,401	-42,921	0,068	-0,025
-465,386	579,132	0,091	0,162
-464,372	657,958	-0,029	0,054
-463,357	51,417	-0,037	-0,025
-462,343	-200,000	0,010	0,076
-461,328	47,175	-0,120	-0,080
-460,313	-200,000	0,037	-0,122
-459,299	-200,000	0,011	0,114
-458,284	800,000	0,052	0,144
-457,270	385,786	0,038	0,057
-456,255	311,376	0,012	-0,016
-455,241	692,140	-0,017	0,032
-454,226	457,492	-0,048	-0,077
-453,211	800,000	0,009	-0,022
-452,197	-200,000	-0,002	0,015
-451,182	469,814	0,040	0,065
-450,168	-200,000	-0,008	-0,042
-449,153	-113,860	-0,065	0,009
-448,138	-200,000	-0,050	-0,196
-447,124	517,970	0,005	0,008
-446,109	8,593	0,081	0,044
-445,095	63,606	0,020	-0,015
-444,080	-200,000	-0,016	-0,071
-443,065	438,543	-0,072	-0,114
-442,051	-200,000	-0,028	-0,119
-441,036	8,034	0,045	0,024
-440,022	393,137	-0,068	-0,102
-439,007	-70,023	-0,107	0,029
-437,992	97,870	-0,013	-0,011
-436,978	5,250	0,170	0,090
-435,963	-200,000	0,000	-0,034
-434,949	-200,000	-0,003	-0,012
-433,934	798,576	-0,028	-0,055
-432,919	800,000	-0,033	-0,104
-431,905	331,812	0,059	0,082
-430,890	-100,700	-0,018	-0,003
-429,876	241,230	0,050	0,060
-428,861	-200,000	-0,013	0,066
-427,846	-200,000	0,003	-0,053
-426,832	543,044	-0,049	-0,085
-425,817	-173,999	-0,164	-0,003
-424,803	65,786	0,027	-0,019
-423,788	170,518	-0,045	-0,046
-422,773	-200,000	-0,009	-0,036
-421,759	280,830	0,080	0,103
-420,744	-200,000	0,011	-0,053
-419,730	387,801	-0,076	-0,114
-418,715	800,000	0,034	-0,097
-417,701	-70,678	-0,047	0,013
-416,686	-200,000	0,007	0,121
-415,671	272,799	0,113	0,144
-414,657	800,000	-0,018	-0,038
-413,642	11,099	0,047	0,026
-412,628	-200,000	0,005	-0,075
-411,613	-200,000	0,008	-0,072
-410,598	-200,000	0,004	-0,055
-409,584	435,559	0,031	-0,048
-408,569	-200,000	-0,012	-0,074
-407,555	187,581	-0,002	0,002
-406,540	8,614	0,075	-0,040
-405,525	-28,700	-0,151	-0,062
-404,511	800,000	-0,028	-0,081
-403,496	282,078	0,060	-0,078
-402,482	-56,145	0,071	0,023
-401,467	5,538	-0,047	-0,025
-400,452	323,953	0,024	-0,033
-399,438	-127,433	0,148	0,015
-398,423	13,150	-0,035	0,019
-397,409	-200,000	-0,005	-0,063
-396,394	85,834	0,008	-0,006
-395,379	-200,000	0,010	0,038
-394,365	264,228	0,031	-0,039
-393,350	-200,000	-0,015	-0,062
-392,336	156,312	-0,092	0,091
-391,321	609,186	-0,031	0,055
-390,306	-200,000	0,039	-0,125
-389,292	800,000	-0,030	0,068
-388,277	-3,056	-0,057	0,028
-387,263	-61,526	0,121	0,036
-386,248	147,001	0,102	0,099
-385,233	331,561	-0,019	-0,027
-384,219	-200,000	-0,029	-0,107
-383,204	15,521	0,091	0,051
-382,190	-200,000	0,006	0,109
-381,175	800,000	-0,046	-0,132
-380,160	13,732	0,124	-0,069
-379,146	118,930	0,060	-0,053
-378,131	-52,892	-0,179	-0,059
-377,117	560,645	0,017	0,029
-376,102	685,034	0,025	0,047
-375,088	-200,000	0,017	-0,071
-374,073	84,588	-0,059	0,046
-373,058	-200,000	0,002	0,052
-372,044	800,000	-0,045	0,142
-371,029	800,000	0,039	-0,079
-370,015	-200,000	0,024	0,094
-369,000	-84,453	-0,191	-0,043
-367,985	-128,894	-0,101	0,010
-366,971	120,165	-0,015	0,013
-365,956	256,819	-0,054	0,067
-364,942	271,382	0,023	0,029
-363,927	-13,891	0,034	0,016
-362,912	-79,449	0,094	-0,023
-361,898	301,733	-0,113	-0,151
-360,883	615,928	0,013	0,024
-359,869	723,164	-0,030	-0,058
-358,854	71,188	0,025	0,019
-357,839	6,414	0,024	-0,013
-356,825	137,940	-0,067	0,063
-355,810	-200,000	-0,010	0,046
-354,796	-31,032	0,096	-0,039
-353,781	800,000	0,010	0,025
-352,766	173,969	0,057	0,059
-351,752	207,920	-0,064	0,072
-350,737	714,350	-0,040	-0,077
-349,723	800,000	0,048	0,108
-348,708	76,684	0,085	0,065
-347,693	800,000	0,022	-0,048
-346,679	800,000	-0,077	-0,172
-345,664	-31,933	-0,074	0,030
-344,650	124,119	-0,057	-0,051
-343,635	-200,000	-0,013	0,043
-342,620	266,937	0,082	0,103
-341,606	-200,000	0,020	0,109
-340,591	-200,000	0,000	0,031
-339,577	800,000	0,011	-0,026
-338,562	-200,000	-0,016	-0,106
-337,548	71,293	0,067	0,050
-336,533	-200,000	-0,005	-0,033
-335,518	800,000	0,065	0,129
-334,504	89,314	-0,035	0,028
-333,489	722,319	-0,080	-0,154
-332,475	146,060	0,043	0,042
-331,460	486,368	-0,056	0,092
-330,445	800,000	-0,011	-0,032
-329,431	-200,000	-0,023	0,088
-328,416	406,217	0,065	0,099
-327,402	45,013	0,051	-0,033
-326,387	-20,873	-0,047	0,021
-325,372	200,254	0,117	-0,129
-324,358	-92,187	-0,071	-0,014
-323,343	-167,562	-0,043	0,001
-322,329	589,685	-0,025	-0,044
-321,314	157,370	0,033	0,033
-320,299	-55,643	0,065	0,021
-319,285	-167,249	-0,084	0,002
-318,270	800,000	-0,042	-0,092
-317,256	-89,051	-0,123	0,026
-316,241	800,000	0,047	-0,125
-315,226	-200,000	-0,011	0,075
-314,212	426,292	0,067	-0,104
-313,197	-200,000	0,005	-0,096
-312,183	-10,375	-0,136	0,065
-311,168	483,595	0,063	0,104
-310,153	-72,566	-0,091	-0,024
-309,139	111,406	-0,211	-0,183
-308,124	-200,000	0,017	-0,106
-307,110	-1,021	0,159	-0,080
-306,095	-200,000	0,024	0,131
-305,080	761,119	0,008	0,016
-304,066	169,704	-0,067	-0,068
-303,051	29,342	-0,073	-0,044
-302,037	401,824	-0,022	-0,033
-301,022	160,717	0,112	0,112
-300,008	229,034	0,034	0,039
-298,993	-200,000	0,010	-0,052
-297,978	202,856	-0,042	-0,047
-296,964	-153,151	0,076	-0,004
-295,949	-181,955	-0,159	0,002
-294,935	-200,000	-0,009	0,134
-293,920	105,998	-0,137	-0,116
-292,905	241,943	-0,088	-0,105
-291,891	16,558	0,135	-0,076
-290,876	-13,029	-0,069	-0,032
-289,862	-46,639	-0,141	-0,049
-288,847	-200,000	-0,024	-0,094
-287,832	206,783	0,037	-0,041
-286,818	-142,449	0,026	-0,002
-285,803	-50,732	0,171	-0,057
-284,789	200,323	0,097	0,107
-283,774	170,406	0,025	0,026
-282,759	800,000	-0,008	0,019
-281,745	-200,000	0,020	-0,067
-280,730	-36,862	0,025	0,010
-279,716	-200,000	0,035	0,168
-278,701	-127,418	-0,064	-0,007
-277,686	800,000	0,012	0,031
-276,672	-190,424	0,060	0,000
-275,657	-200,000	-0,011	-0,175
-274,643	-200,000	-0,002	0,022
-273,628	-200,000	-0,007	-0,034
-272,613	-200,000	-0,009	-0,116
-271,599	-175,246	-0,120	-0,002
-270,584	-30,022	0,074	-0,030
-269,570	95,807	0,071	-0,058
-268,555	-63,849	0,078	-0,023
-267,540	-157,761	-0,074	-0,003
-266,526	800,000	-0,055	-0,126
-265,511	413,388	-0,045	0,069
-264,497	-105,313	-0,053	-0,009
-263,482	-105,581	0,084	-0,014
-262,467	399,300	0,020	0,030
-261,453	-61,226	0,120	-0,036
-260,438	-45,312	0,024	-0,008
-259,424	58,194	0,038	-0,027
-258,409	-61,301	-0,037	0,011
-257,395	800,000	0,037	0,092
-256,380	284,174	-0,015	0,020
-255,365	185,927	0,049	0,052
-254,351	479,262	0,015	0,024
-253,336	-176,921	-0,064	0,001
-252,322	111,994	-0,083	-0,072
-251,307	389,176	0,066	-0,098
-250,292	-6,561	0,047	-0,023
-249,278	110,407	0,091	0,078
-248,263	-200,000	0,007	0,081
-247,249	-107,298	-0,130	0,020
-246,234	800,000	0,012	0,027
-245,219	800,000	-0,025	0,074
-244,205	127,204	-0,003	-0,003
-243,190	66,747	-0,064	-0,047
-242,176	38,070	-0,057	-0,036
-241,161	-140,725	0,056	0,004
-240,146	-200,000	-0,020	0,104
-239,132	50,091	0,066	-0,044
-238,117	-125,497	-0,104	0,011
-237,103	15,042	-0,061	-0,034
-236,088	-200,000	-0,016	0,064
-235,073	141,577	0,045	0,042
-234,059	705,182	0,023	-0,044
-233,044	38,133	0,146	0,093
-232,030	-46,825	0,092	-0,032
-231,015	-200,000	-0,003	-0,106
-230,000	-35,594	-0,086	0,033
-228,986	351,593	0,057	-0,081
-227,971	743,601	0,064	0,124
-226,957	265,610	-0,079	0,098
-225,942	449,817	0,034	0,054
-224,927	465,055	0,061	-0,097
-223,913	-200,000	-0,010	-0,171
-222,898	-200,000	-0,013	-0,040
-221,884	-42,569	0,125	-0,045
-220,869	-11,083	0,050	-0,024
-219,855	-91,906	0,115	0,023
-218,840	-70,599	0,087	0,023
-217,825	-200,000	0,029	-0,105
-216,811	-96,489	-0,047	0,009
-215,796	-200,000	-0,021	0,119
-214,782	539,741	0,023	0,039
-213,767	-113,729	-0,187	-0,026
-212,752	-40,884	-0,121	-0,044
-211,738	800,000	-0,037	0,108
-210,723	-200,000	-0,018	0,069
-209,709	-200,000	-0,008	-0,042
-208,694	-200,000	0,014	0,092
-207,679	218,524	0,059	0,067
-206,665	104,278	0,088	0,074
-205,650	101,635	0,021	0,018
-204,636	-129,466	0,162	-0,016
-203,621	96,959	0,076	-0,062
-202,606	191,548	-0,033	-0,035
-201,592	-98,292	-0,165	-0,030
-200,577	-20,547	-0,099	-0,043
-199,563	-135,767	0,095	0,008
-198,548	800,000	-0,022	-0,052
-197,533	174,252	0,059	-0,061
-196,519	43,498	0,139	0,091
-195,504	73,396	-0,086	-0,064
-194,490	-200,000	0,007	-0,129
-193,475	-85,017	-0,068	-0,015
-192,460	87,941	0,024	0,019
-191,446	73,316	0,074	0,055
-190,431	278,925	0,072	0,092
-189,417	-143,253	0,111	0,007
-188,402	70,304	0,027	0,020
-187,387	205,795	0,022	0,025
-186,373	-76,416	-0,134	0,033
-185,358	-200,000	-0,015	-0,051
-184,344	-200,000	-0,049	0,253
-183,329	37,758	0,078	0,049
-182,315	443,607	0,029	0,046
-181,300	464,138	-0,072	-0,115
-180,285	-200,000	0,007	0,162
-179,271	-200,000	-0,006	-0,179
-178,256	27,481	-0,053	-0,032
-177,242	800,000	0,029	-0,064
-176,227	-94,488	-0,054	0,010
-175,212	111,731	-0,058	-0,050
-174,198	250,638	0,029	-0,035
-173,183	-47,878	0,074	0,025
-172,169	-23,075	-0,131	0,056
-171,154	-200,000	-0,021	-0,068
-170,139	20,954	0,038	-0,022
-169,125	-144,492	0,103	-0,007
-168,110	213,311	-0,083	0,094
-167,096	17,927	-0,067	0,038
-166,081	-0,935	0,108	-0,054
-165,066	162,549	-0,110	-0,110
-164,052	-124,559	0,215	-0,023
-163,037	-200,000	-0,047	0,159
-162,023	-200,000	0,007	0,029
-161,008	-200,000	0,000	-0,023
-159,993	-107,702	0,063	0,010
-158,979	-80,591	-0,107	0,025
-157,964	-200,000	-0,019	-0,131
-156,950	-200,000	0,006	0,023
-155,935	-200,000	0,055	0,178
-154,920	403,294	-0,062	0,093
-153,906	800,000	0,035	-0,101
-152,891	-97,009	-0,039	-0,007
-151,877	-11,784	-0,074	-0,035
-150,862	800,000	-0,035	0,077
-149,847	204,108	-0,050	-0,055
-148,833	117,864	0,115	0,101
-147,818	-38,241	-0,067	0,025
-146,804	471,118	-0,022	0,035
-145,789	83,721	0,141	0,110
-144,775	83,876	0,034	-0,026
-143,760	-43,345	0,026	0,009
-142,745	-72,590	0,031	0,008
-141,731	-171,902	0,121	-0,003
-140,716	-60,324	-0,067	-0,020
-139,702	254,874	0,066	0,081
-138,687	-5,012	-0,117	0,057
-137,672	186,611	0,041	0,043
-136,658	-118,889	-0,186	-0,023
-135,643	-200,000	0,009	-0,121
-134,629	800,000	0,001	-0,003
-133,614	-57,427	0,068	-0,021
-132,599	502,308	0,098	0,162
-131,585	-169,993	-0,115	-0,003
-130,570	30,355	0,089	0,054
-129,556	-100,044	0,061	-0,011
-128,541	800,000	-0,036	-0,073
-127,526	-24,939	0,230	0,097
-126,512	-8,265	0,087	-0,041
-125,497	236,423	0,098	0,115
-124,483	296,296	0,035	-0,045
-123,468	-200,000	0,025	-0,111
-122,453	334,701	-0,152	-0,209
-121,439	224,853	0,075	0,086
-120,424	-187,683	-0,021	-0,000
-119,410	-200,000	0,002	0,104
-118,395	-43,560	-0,050	0,018
-117,380	-145,298	0,102	0,006
-116,366	-56,443	-0,048	-0,015
-115,351	-200,000	-0,013	-0,051
-114,337	-200,000	0,010	0,057
-113,322	-3,163	-0,114	-0,056
-112,307	-48,271	-0,122	0,042
-111,293	-6,669	0,044	-0,021
-110,278	-61,764	-0,161	0,048
-109,264	800,000	-0,031	0,091
-108,249	-71,679	-0,101	0,027
-107,234	-200,000	-0,016	-0,130
-106,220	-6,877	-0,059	0,028
-105,205	800,000	-0,045	0,128
-104,191	800,000	0,044	0,126
-103,176	-200,000	0,032	0,110
-102,162	-130,114	0,067	0,006
-101,147	-145,389	-0,066	-0,004
-100,132	153,752	-0,134	-0,131
-99,118	-22,177	0,033	-0,014
-98,103	-200,000	-0,011	0,059
-97,089	-200,000	0,015	0,126
-96,074	-114,335	0,127	-0,017
-95,059	7,325	0,019	0,010
-94,045	47,290	-0,116	-0,077
-93,030	351,774	-0,023	-0,033
-92,016	466,319	0,072	-0,114
-91,001	195,974	-0,054	-0,058
-89,986	632,478	0,054	0,097
-88,972	-89,152	0,043	0,009
-87,957	182,839	0,060	-0,063
-86,943	45,597	-0,034	0,023
-85,928	426,648	-0,081	-0,125
-84,913	296,292	0,060	-0,078
-83,899	-200,000	-0,005	0,077
-82,884	800,000	0,040	0,104
-81,870	59,811	0,097	0,068
-80,855	-200,000	-0,010	0,195
-79,840	566,893	0,021	0,037
-78,826	-77,513	-0,117	-0,029
-77,811	800,000	-0,012	0,027
-76,797	443,263	0,031	-0,048
-75,782	-51,964	-0,083	0,027
-74,767	-96,526	0,057	0,011
-73,753	74,431	0,110	0,082
-72,738	800,000	0,009	0,027
-71,724	-200,000	-0,025	-0,081
-70,709	-200,000	0,001	-0,052
-69,694	-120,679	0,123	-0,015
-68,680	274,727	-0,044	0,056
-67,665	720,302	0,056	0,106
-66,651	-200,000	0,008	0,156
-65,636	-200,000	0,023	0,090
-64,622	52,338	-0,115	-0,078
-63,607	108,346	0,051	-0,043
-62,592	1,657	-0,044	-0,022
-61,578	-77,303	0,070	-0,017
-60,563	275,957	0,040	0,050
-59,549	-116,014	0,019	0,003
-58,534	-77,440	-1,575	-0,385
-57,519	349,840	-1,555	-2,186
-56,505	-200,000	-0,542	-4,363
-55,490	114,772	0,990	0,856
-54,476	800,000	4,761	11,203
-53,461	-200,000	18,026	285,391
-52,446	800,000	724,829	2227,935
-51,432	559,505	1640,054	2819,980
-50,417	79,987	1662,315	1266,300
-49,403	23,327	1536,216	893,165
-48,388	17,363	1459,379	819,632
-47,373	18,063	1449,333	817,327
-46,359	17,576	1440,022	809,713
-45,344	15,612	1435,036	797,510
-44,330	15,537	1433,134	796,064
-43,315	15,557	1431,409	795,169
-42,300	15,567	1429,793	794,289
-41,286	15,611	1428,579	793,791
-40,271	15,608	1427,241	793,005
-39,257	15,565	1426,124	792,145
-38,242	15,626	1424,768	791,651
-37,227	15,634	1423,625	791,020
-36,213	15,619	1422,284	790,176
-35,198	15,599	1421,112	789,399
-34,184	15,613	1420,305	788,985
-33,169	15,539	1419,051	787,909
-32,154	15,600	1417,900	787,524
-31,140	15,608	1416,401	786,698
-30,125	15,628	1415,527	786,274
-29,111	15,627	1414,297	785,556
-28,096	15,577	1413,307	784,741
-27,082	15,525	1412,095	783,794
-26,067	15,549	1410,895	783,207
-25,052	15,526	1409,944	782,540
-24,038	15,518	1408,912	781,900
-23,023	15,503	1407,914	781,246
-22,009	15,522	1406,822	780,698
-20,994	15,469	1406,043	779,984
-19,979	15,483	1405,168	779,534
-18,965	15,451	1404,153	778,789
-17,950	15,440	1403,239	778,201
-16,936	15,475	1402,221	777,768
-15,921	15,469	1400,855	776,953
-14,906	15,418	1400,070	776,249
-13,892	15,430	1399,266	775,827
-12,877	15,446	1398,275	775,324
-11,863	15,407	1397,463	774,660
-10,848	15,396	1396,608	774,107
-9,833	15,374	1395,581	773,403
-8,819	15,345	1394,748	772,776
-7,804	15,300	1393,769	771,995
-6,790	15,328	1392,657	771,478
-5,775	15,330	1391,658	770,901
-4,760	15,323	1390,903	770,421
-3,746	15,301	1390,135	769,863
-2,731	15,340	1389,238	769,516
-1,717	15,307	1388,268	768,799
-0,702	15,310	1386,445	767,771
0,313	19,202	1306,540	741,501
1,327	35,753	707,196	439,768
2,342	54,893	125,073	85,459
3,356	7,542	16,451	8,695
4,371	12,034	3,050	1,658
5,386	-12,237	0,541	0,250
6,400	-200,000	0,001	0,021
7,415	-61,493	-0,273	-0,081
8,429	-75,899	-0,413	-0,103
9,444	800,000	-0,139	-0,345
10,459	-24,593	-0,277	-0,116
11,473	-26,759	-0,394	-0,162
12,488	65,102	-0,323	-0,231
13,502	62,099	-0,323	-0,228
14,517	106,118	-0,235	-0,197
15,531	74,958	-0,444	-0,331
16,546	-17,186	-0,414	-0,184
17,561	121,994	-0,339	-0,299
18,575	-170,000	-0,186	-0,005
19,590	518,526	-0,166	-0,276
20,604	-131,743	-0,290	-0,027
21,619	89,879	-0,451	-0,356
22,634	29,919	-0,441	-0,266
23,648	333,735	-0,305	-0,418
24,663	-37,378	-0,531	-0,200
25,677	1,245	-0,326	-0,165
26,692	60,122	-0,216	-0,151
27,707	33,219	-0,419	-0,256
28,721	-18,917	-0,340	-0,149
29,736	188,050	-0,261	-0,276
30,750	94,146	-0,410	-0,328
31,765	126,500	-0,262	-0,235
32,780	67,365	-0,302	-0,217
33,794	118,381	-0,337	-0,294
34,809	-53,522	-0,313	-0,101
35,823	38,634	-0,388	-0,244
36,838	124,634	-0,420	-0,374
37,853	200,718	-0,282	-0,306
38,867	40,555	-0,329	-0,209
39,882	186,953	-0,290	-0,305
40,896	13,716	-0,302	-0,165
41,911	9,050	-0,352	-0,187
42,926	-42,106	-0,424	-0,153
43,940	43,810	-0,400	-0,258
44,955	139,991	-0,383	-0,357
45,969	256,074	-0,314	-0,381
46,984	119,463	-0,402	-0,351
47,999	-0,852	-0,298	-0,149
49,013	152,157	-0,281	-0,271
50,028	33,198	-0,420	-0,256
51,042	50,930	-0,312	-0,208
52,057	21,669	-0,485	-0,278
53,071	178,637	-0,199	-0,206
54,086	-23,057	-0,327	-0,139
55,101	103,674	-0,367	-0,304
56,115	263,385	-0,298	-0,366
57,130	80,572	-0,370	-0,281
58,144	157,481	-0,311	-0,303
59,159	107,619	-0,406	-0,341
60,174	105,898	-0,301	-0,251
61,188	91,232	-0,283	-0,224
62,203	140,064	-0,397	-0,370
63,217	72,484	-0,262	-0,193
64,232	245,532	-0,239	-0,284
65,247	84,287	-0,304	-0,234
66,261	82,005	-0,398	-0,304
67,276	2,982	-0,325	-0,166
68,290	31,832	-0,384	-0,233
69,305	129,840	-0,262	-0,236
70,320	31,566	-0,335	-0,203
71,334	-9,932	-0,399	-0,186
72,349	62,740	-0,355	-0,250
73,363	57,891	-0,299	-0,206
74,378	-38,126	-0,303	-0,113
75,393	244,378	-0,261	-0,309
76,407	73,601	-0,340	-0,251
77,422	58,822	-0,337	-0,233
78,436	84,753	-0,198	-0,152
79,451	-7,796	-0,306	-0,145
80,466	220,418	-0,319	-0,360
81,480	-22,478	-0,344	-0,146
82,495	204,623	-0,254	-0,277
83,509	-38,550	-0,353	-0,131
84,524	96,076	-0,203	-0,163
85,539	17,051	-0,275	-0,153
86,553	198,455	-0,171	-0,184
87,568	-91,137	-0,486	-0,097
88,582	-50,528	-0,318	-0,105
89,597	129,150	-0,156	-0,140
90,611	-10,335	-0,330	-0,153
91,626	3,360	-0,367	-0,187
92,641	86,889	-0,239	-0,186
93,655	-7,817	-0,176	-0,083
94,670	102,855	-0,256	-0,211
95,684	35,980	-0,337	-0,208
96,699	46,127	-0,207	-0,134
97,714	82,881	-0,232	-0,177
98,728	239,130	-0,246	-0,288
99,743	-34,678	-0,310	-0,118
100,757	105,333	-0,274	-0,228
101,772	72,277	-0,385	-0,282
102,787	97,635	-0,210	-0,169
103,801	-12,665	-0,322	-0,147
104,816	-21,498	-0,328	-0,140
105,830	77,328	-0,212	-0,158
106,845	800,000	-0,118	-0,301
107,860	-42,243	-0,215	-0,077
108,874	47,833	-0,244	-0,160
109,889	39,541	-0,333	-0,209
110,903	421,748	-0,249	-0,376
111,918	132,015	-0,223	-0,202
112,933	-24,063	-0,287	-0,120
113,947	-58,531	-0,297	-0,090
114,962	22,855	-0,191	-0,109
115,976	146,817	-0,256	-0,242
116,991	-30,767	-0,285	-0,112
118,006	-5,612	-0,419	-0,201
119,020	249,692	-0,177	-0,211
120,035	-29,895	-0,250	-0,099
121,049	-68,193	-0,251	-0,068
122,064	35,275	-0,247	-0,151
123,079	31,900	-0,266	-0,160
124,093	12,542	-0,393	-0,212
125,108	295,924	-0,276	-0,355
126,122	171,446	-0,156	-0,157
127,137	-73,468	-0,335	-0,085
128,151	31,100	-0,190	-0,114
129,166	-9,363	-0,346	-0,161
130,181	137,581	-0,229	-0,210
131,195	226,547	-0,192	-0,218
132,210	28,940	-0,271	-0,161
133,224	105,829	-0,313	-0,259
134,239	162,162	-0,256	-0,252
135,254	-11,720	-0,252	-0,115
136,268	-69,552	-0,369	-0,098
137,283	261,826	-0,142	-0,172
138,297	-60,820	-0,441	-0,130
139,312	89,058	-0,273	-0,213
140,327	56,068	-0,210	-0,142
141,341	-29,605	-0,329	-0,131
142,356	381,871	-0,170	-0,245
143,370	-50,323	-0,336	-0,111
144,385	483,568	-0,134	-0,213
145,400	-44,945	-0,236	-0,082
146,414	53,803	-0,344	-0,231
147,429	192,623	-0,252	-0,266
148,443	55,313	-0,244	-0,165
149,458	98,014	-0,167	-0,134
150,473	13,615	-0,224	-0,121
151,487	15,588	-0,236	-0,129
152,502	198,530	-0,214	-0,230
153,516	153,652	-0,286	-0,274
154,531	173,474	-0,295	-0,298
155,546	-5,116	-0,102	-0,049
156,560	-89,117	-0,258	0,053
157,575	180,530	-0,185	-0,190
158,589	-64,521	-0,257	-0,072
159,604	32,431	-0,212	-0,128
160,619	-88,064	-0,276	-0,057
161,633	14,400	-0,260	-0,141
162,648	625,619	-0,128	-0,228
163,662	78,041	-0,172	-0,128
164,677	-13,122	-0,289	-0,131
165,692	135,782	-0,306	-0,278
166,706	52,279	-0,189	-0,126
167,721	94,862	-0,343	-0,272
168,735	800,000	-0,083	-0,162
169,750	-36,111	-0,268	-0,101
170,764	-118,502	-0,107	-0,013
171,779	31,672	-0,215	-0,129
172,794	-143,875	-0,306	-0,020
173,808	54,072	-0,287	-0,192
174,823	9,326	-0,334	-0,176
175,837	48,335	-0,187	-0,122
176,852	478,140	-0,164	-0,261
177,867	49,006	-0,152	-0,099
178,881	187,293	-0,145	-0,151
179,896	224,389	-0,258	-0,291
180,910	800,000	-0,049	-0,130
181,925	-80,289	-0,313	-0,072
182,940	502,228	-0,138	-0,224
183,954	-111,101	-0,276	0,039
184,969	-83,470	-0,252	-0,056
185,983	-82,811	-0,132	-0,030
186,998	156,635	-0,176	-0,170
188,013	-46,781	-0,279	-0,095
189,027	-56,563	-0,161	-0,050
190,042	-36,862	-0,273	-0,102
191,056	-25,467	-0,181	-0,074
192,071	246,743	-0,209	-0,246
193,086	57,738	-0,217	-0,148
194,100	-74,153	-0,131	-0,033
195,115	11,511	-0,245	-0,131
196,129	52,353	-0,273	-0,181
197,144	125,672	-0,237	-0,208
198,159	-32,143	-0,245	-0,095
199,173	45,561	-0,140	-0,090
200,188	-11,405	-0,120	0,055
201,202	460,982	-0,126	-0,196
202,217	-14,441	-0,203	-0,091
203,232	64,552	-0,265	-0,186
204,246	140,711	-0,219	-0,202
205,261	-37,844	-0,246	-0,091
206,275	103,954	-0,150	-0,123
207,290	2,781	-0,241	-0,121
208,304	65,092	-0,183	-0,129
209,319	-43,646	-0,116	-0,041
210,334	50,901	-0,291	-0,192
211,348	110,095	-0,250	-0,209
212,363	343,565	-0,204	-0,279
213,377	97,711	-0,200	-0,160
214,392	242,451	-0,195	-0,227
215,407	-81,278	-0,176	-0,040
216,421	800,000	-0,151	-0,311
217,436	159,803	-0,207	-0,201
218,450	-123,379	-0,307	-0,034
219,465	112,992	-0,202	-0,170
220,480	314,288	-0,168	-0,220
221,494	307,272	-0,174	-0,226
222,509	547,217	-0,149	-0,249
223,523	215,857	-0,254	-0,281
224,538	-200,000	0,004	-0,153
225,553	129,544	-0,118	-0,105
226,567	138,268	-0,184	-0,167
227,582	434,498	-0,176	-0,267
228,596	66,489	-0,202	-0,142
229,611	34,405	-0,151	-0,091
230,626	695,852	-0,050	-0,091
231,640	3,666	-0,139	-0,070
232,655	31,045	-0,211	-0,125
233,669	-1,373	-0,238	-0,116
234,684	136,784	-0,210	-0,190
235,699	79,496	-0,150	-0,112
236,713	69,938	-0,132	-0,094
237,728	157,024	-0,110	-0,106
238,742	-25,199	-0,138	-0,057
239,757	698,752	-0,129	-0,237
240,772	52,925	-0,227	-0,151
241,786	705,349	-0,120	-0,220
242,801	-121,916	-0,234	-0,026
243,815	697,155	-0,058	-0,105
244,830	800,000	-0,052	-0,142
245,844	365,609	-0,173	-0,243
246,859	-64,689	-0,209	-0,059
247,874	-13,977	-0,293	-0,131
248,888	-28,467	-0,277	-0,110
249,903	56,493	-0,175	-0,118
250,917	-27,323	-0,246	-0,099
251,932	-144,259	-0,082	0,005
252,947	24,269	-0,060	-0,034
253,961	-109,233	-0,296	-0,043
254,976	-10,973	-0,164	-0,075
255,990	682,632	-0,045	-0,081
257,005	116,706	-0,266	-0,226
258,020	57,634	-0,169	-0,114
259,034	-125,176	-0,180	0,019
260,049	-11,448	-0,169	-0,077
261,063	-141,073	-0,207	0,014
262,078	162,972	-0,168	-0,163
263,093	301,174	-0,152	-0,195
264,107	100,966	-0,208	-0,168
265,122	190,486	-0,140	-0,146
266,136	35,526	-0,134	-0,081
267,151	91,363	-0,196	-0,152
268,166	-118,496	-0,182	0,022
269,180	187,299	-0,121	-0,126
270,195	68,390	-0,122	-0,087
271,209	27,408	-0,221	-0,128
272,224	39,698	-0,206	-0,128
273,239	186,769	-0,081	-0,083
274,253	57,684	-0,085	0,058
275,268	-114,932	-0,222	0,029
276,282	18,380	-0,219	-0,121
277,297	34,427	-0,248	-0,149
278,312	-136,967	-0,182	-0,014
279,326	800,000	-0,056	-0,115
280,341	-200,000	0,007	-0,103
281,355	163,200	-0,117	-0,114
282,370	37,032	-0,165	-0,101
283,384	266,675	0,084	-0,101
284,399	-10,910	-0,183	0,083
285,414	593,635	-0,145	-0,248
286,428	-101,292	-0,127	-0,021
287,443	-24,420	-0,303	-0,124
288,457	69,715	-0,091	-0,065
289,472	-32,513	-0,163	-0,062
290,487	-67,371	-0,174	-0,047
291,501	131,300	-0,224	-0,199
292,516	211,217	-0,102	-0,111
293,530	38,752	-0,194	-0,120
294,545	-86,441	-0,197	-0,041
295,560	238,847	-0,051	-0,058
296,574	-57,243	-0,132	-0,040
297,589	-89,906	-0,243	-0,049
298,603	-122,028	-0,284	-0,032
299,618	164,333	-0,154	-0,150
300,633	244,710	-0,151	-0,175
301,647	-200,000	-0,018	-0,084
302,662	-56,109	-0,122	-0,037
303,676	-113,016	-0,209	0,028
304,691	-153,506	-0,169	-0,008
305,706	49,042	-0,204	-0,132
306,720	-20,143	-0,294	-0,124
307,735	180,166	-0,198	-0,200
308,749	-23,746	-0,150	-0,062
309,764	-200,000	0,009	-0,043
310,779	7,152	-0,228	-0,117
311,793	664,674	-0,091	-0,163
312,808	104,259	-0,098	-0,080
313,822	6,531	-0,194	-0,099
314,837	-151,310	-0,225	0,011
315,852	186,504	-0,172	-0,176
316,866	144,365	-0,122	-0,113
317,881	605,942	-0,055	-0,095
318,895	-115,468	-0,132	0,017
319,910	108,276	-0,194	-0,160
320,925	28,100	-0,122	-0,071
321,939	394,805	-0,127	-0,183
322,954	44,311	-0,095	-0,060
323,968	-131,304	-0,131	0,012
324,983	743,863	-0,092	-0,172
325,997	14,843	-0,170	-0,092
327,012	39,011	-0,112	-0,069
328,027	498,218	-0,127	-0,202
329,041	47,823	-0,217	-0,139
330,056	-200,000	-0,014	-0,068
331,070	-200,000	-0,020	-0,106
332,085	-200,000	0,014	-0,128
333,100	270,494	-0,163	-0,197
334,114	11,185	-0,251	-0,132
335,129	162,367	-0,166	-0,160
336,143	53,307	-0,129	-0,085
337,158	206,439	-0,129	-0,138
338,173	-65,028	-0,159	0,044
339,187	800,000	-0,036	-0,093
340,202	-144,052	-0,180	0,011
341,216	19,500	-0,230	-0,127
342,231	-200,000	-0,063	-0,207
343,246	96,574	-0,171	-0,135
344,260	-118,459	-0,250	-0,030
345,275	-10,033	-0,076	-0,034
346,289	345,635	0,012	0,017
347,304	-12,353	-0,211	-0,094
348,319	11,171	-0,249	-0,131
349,333	-200,000	-0,033	-0,140
350,348	-18,789	-0,291	-0,124
351,362	800,000	-0,057	-0,150
352,377	-34,728	-0,126	-0,047
353,392	-102,326	-0,127	-0,021
354,406	22,401	-0,106	-0,059
355,421	208,988	1313,853	1415,385
356,435	160,825	1474,499	1415,893
