DTS Sentinel unit serial number:	SN410029Multiplexer serial number:	ORYXHardware model number:	OX2-SRSoftware version number:	ORYX F/W v4,00 Oryx Data Collector v3.7.2.0data status	okinstallation	B3 Nyhavnadifferential loss correction	single-endedforward channel	channel 1reverse channel	N/Adate	2023/12/03time	01:52:30forward acquisition time	300,00reverse acquisition time	0,00gamma	499,1914k internal	0,3201k external	0,3201temperature offset calibration	1,0000default loss term (dB/km)	0,3820temperature slope calibration	1,0000multiplexer offset coefficient	1,0000multiplexer slope coefficient	1,0000fibre end	0,00T internal ref (°C)	13,34T ext. ref 1 (°C)	-1,67T ext. ref 2 (°C)	-1,68length (m)	temperature (°C)	Stokes	anti-Stokes-744,400	121,981	-0,281	-0,255
-743,385	-200,000	0,001	0,296
-742,371	265,491	-0,183	-0,232
-741,356	-200,000	0,001	0,326
-740,342	-23,672	-0,224	-0,097
-739,327	800,000	-0,089	0,185
-738,312	742,179	-0,137	-0,269
-737,298	-200,000	-0,069	0,291
-736,283	202,302	-0,191	-0,215
-735,269	800,000	-0,128	0,295
-734,254	8,867	-0,218	-0,119
-733,239	-7,314	-0,151	0,074
-732,225	800,000	-0,081	-0,244
-731,210	-12,866	0,053	0,025
-730,196	154,238	0,074	-0,074
-729,181	127,295	0,026	0,024
-728,167	160,149	-0,021	-0,021
-727,152	-200,000	0,003	-0,097
-726,137	-200,000	-0,002	-0,010
-725,123	-40,109	-0,184	-0,069
-724,108	549,029	-0,112	-0,197
-723,094	367,898	-0,009	-0,014
-722,079	368,441	0,037	0,055
-721,064	-101,599	-0,066	-0,012
-720,050	800,000	0,088	-0,205
-719,035	-200,000	-0,011	-0,102
-718,021	578,058	0,063	-0,112
-717,006	-16,642	-0,167	-0,077
-715,991	-173,718	-0,078	-0,002
-714,977	-140,866	-0,136	-0,010
-713,962	800,000	-0,057	-0,145
-712,948	32,024	0,004	-0,003
-711,933	-200,000	0,004	0,024
-710,918	-71,167	-0,123	-0,033
-709,904	-200,000	-0,013	-0,171
-708,889	-200,000	-0,011	-0,059
-707,875	-54,046	-0,033	0,011
-706,860	-10,252	0,057	0,027
-705,845	800,000	-0,020	0,062
-704,831	84,878	0,106	-0,084
-703,816	297,575	0,046	-0,062
-702,802	800,000	-0,038	0,090
-701,787	163,108	0,066	-0,067
-700,772	800,000	0,005	-0,013
-699,758	-163,599	-0,100	-0,003
-698,743	293,098	0,067	0,090
-697,729	-116,734	-0,065	-0,009
-696,714	95,203	0,039	-0,032
-695,699	-58,529	-0,140	-0,044
-694,685	-92,299	-0,075	0,015
-693,670	800,000	0,068	-0,137
-692,656	800,000	-0,022	-0,052
-691,641	-1,009	-0,064	-0,033
-690,627	723,269	0,060	0,116
-689,612	105,685	-0,014	-0,012
-688,597	-200,000	0,006	0,037
-687,583	-61,467	-0,146	-0,044
-686,568	800,000	-0,036	-0,073
-685,554	-130,182	0,114	-0,011
-684,539	439,616	-0,024	-0,038
-683,524	17,526	0,057	0,033
-682,510	327,300	-0,008	0,011
-681,495	623,423	0,021	0,038
-680,481	-98,206	-0,093	0,017
-679,466	137,098	-0,074	-0,071
-678,451	361,645	-0,059	-0,086
-677,437	-33,051	0,135	-0,054
-676,422	-16,414	-0,080	-0,037
-675,408	-200,000	-0,026	0,123
-674,393	670,039	-0,027	0,051
-673,378	-200,000	-0,005	-0,035
-672,364	-184,692	0,101	-0,001
-671,349	800,000	-0,038	0,094
-670,335	218,894	-0,077	-0,089
-669,320	-200,000	-0,021	-0,146
-668,305	-115,415	-0,099	0,013
-667,291	454,825	-0,055	-0,089
-666,276	-200,000	-0,006	-0,065
-665,262	-77,550	0,031	0,008
-664,247	754,825	0,064	-0,127
-663,232	-14,079	0,203	-0,094
-662,218	-18,652	-0,078	0,035
-661,203	-200,000	0,025	0,168
-660,189	387,875	0,037	-0,056
-659,174	93,692	-0,087	-0,071
-658,159	-200,000	-0,000	-0,055
-657,145	774,005	-0,073	-0,146
-656,130	163,468	0,026	-0,026
-655,116	800,000	-0,035	0,101
-654,101	-65,141	-0,117	0,034
-653,086	56,180	0,117	-0,082
-652,072	-24,773	-0,111	-0,048
-651,057	-119,125	0,051	-0,006
-650,043	146,544	-0,103	-0,100
-649,028	76,513	0,096	0,074
-648,014	-200,000	-0,014	0,093
-646,999	-46,433	-0,100	-0,036
-645,984	-86,089	0,087	0,019
-644,970	-99,621	0,066	0,012
-643,955	-200,000	0,000	-0,022
-642,941	-14,958	0,031	0,014
-641,926	125,826	-0,024	-0,022
-640,911	-33,810	0,109	0,043
-639,897	96,445	-0,104	-0,087
-638,882	-200,000	0,003	-0,042
-637,868	336,295	0,019	-0,027
-636,853	-137,164	0,046	0,004
-635,838	123,041	-0,127	-0,115
-634,824	59,390	-0,087	-0,062
-633,809	207,089	0,094	0,106
-632,795	596,457	-0,038	0,068
-631,780	-162,078	0,065	-0,002
-630,765	10,429	-0,085	-0,047
-629,751	-200,000	0,006	-0,127
-628,736	297,912	0,054	-0,072
-627,722	-53,093	0,034	0,011
-626,707	324,967	0,072	-0,099
-625,692	84,321	0,076	-0,060
-624,678	210,749	0,103	-0,117
-623,663	-108,261	-0,032	-0,005
-622,649	109,962	-0,114	-0,099
-621,634	800,000	-0,056	-0,128
-620,619	-200,000	0,016	0,072
-619,605	-200,000	0,007	0,022
-618,590	-99,507	0,113	0,020
-617,576	800,000	0,026	-0,054
-616,561	800,000	0,014	-0,030
-615,546	223,522	0,040	0,047
-614,532	-77,019	-0,100	-0,025
-613,517	319,929	-0,015	-0,021
-612,503	324,537	-0,061	-0,084
-611,488	-29,206	0,082	-0,034
-610,474	-142,780	0,063	0,004
-609,459	32,562	-0,014	-0,009
-608,444	342,139	-0,054	0,076
-607,430	-200,000	0,019	0,149
-606,415	-146,642	-0,100	-0,006
-605,401	311,558	-0,047	0,064
-604,386	504,660	0,061	0,103
-603,371	571,215	0,070	0,124
-602,357	-32,214	0,099	-0,040
-601,342	-8,267	0,047	0,023
-600,328	607,807	-0,072	-0,131
-599,313	74,653	0,087	-0,066
-598,298	-200,000	0,023	-0,186
-597,284	196,738	0,077	0,085
-596,269	-200,000	0,001	0,120
-595,255	260,693	0,064	0,081
-594,240	800,000	-0,043	0,117
-593,225	138,945	-0,067	-0,064
-592,211	308,102	-0,041	-0,055
-591,196	59,222	-0,054	-0,038
-590,182	-18,920	0,028	0,013
-589,167	270,520	-0,060	0,076
-588,152	201,207	-0,084	0,094
-587,138	33,989	-0,105	0,066
-586,123	-135,989	-0,197	0,016
-585,109	-79,017	-0,056	0,014
-584,094	-5,997	-0,036	-0,018
-583,079	439,325	0,057	-0,091
-582,065	70,429	-0,101	-0,076
-581,050	479,165	0,048	-0,079
-580,036	304,664	0,006	-0,008
-579,021	223,517	0,047	-0,055
-578,006	209,951	0,056	-0,063
-576,992	-127,236	0,029	0,003
-575,977	-200,000	0,035	-0,174
-574,963	757,197	0,037	-0,073
-573,948	-200,000	-0,018	0,211
-572,934	35,668	-0,123	-0,078
-571,919	-171,473	0,061	-0,001
-570,904	-200,000	0,014	-0,100
-569,890	-40,244	-0,134	-0,050
-568,875	800,000	-0,038	-0,079
-567,861	39,679	0,067	-0,043
-566,846	90,128	-0,109	0,088
-565,831	-200,000	0,014	-0,122
-564,817	-67,626	-0,092	-0,026
-563,802	715,433	0,058	-0,112
-562,788	800,000	-0,056	-0,165
-561,773	548,668	0,028	-0,048
-560,758	383,851	0,040	0,060
-559,744	-176,969	0,047	0,001
-558,729	-8,204	-0,054	0,026
-557,715	-56,323	-0,111	0,035
-556,700	144,591	-0,114	0,110
-555,685	800,000	-0,060	-0,156
-554,671	-200,000	-0,023	0,093
-553,656	-71,947	0,113	-0,030
-552,642	-200,000	-0,006	-0,097
-551,627	20,171	-0,108	-0,063
-550,612	-83,206	0,093	0,021
-549,598	542,514	-0,047	-0,081
-548,583	261,300	-0,086	-0,107
-547,569	800,000	-0,002	0,003
-546,554	-68,830	0,111	-0,031
-545,539	147,607	0,051	0,050
-544,525	23,863	-0,089	0,053
-543,510	-200,000	0,011	0,186
-542,496	18,089	-0,095	-0,054
-541,481	257,971	-0,101	-0,126
-540,466	137,394	0,109	-0,103
-539,452	164,727	-0,056	-0,057
-538,437	800,000	0,044	0,105
-537,423	156,911	-0,043	0,042
-536,408	48,585	0,132	0,089
-535,393	-146,710	-0,116	-0,007
-534,379	-67,061	-0,043	-0,012
-533,364	133,223	-0,063	-0,059
-532,350	183,080	0,032	-0,034
-531,335	257,318	-0,075	0,093
-530,321	-53,098	0,076	-0,025
-529,306	85,878	-0,072	0,057
-528,291	184,657	-0,065	-0,070
-527,277	-200,000	0,015	-0,065
-526,262	763,973	0,057	-0,112
-525,248	169,112	0,080	0,083
-524,233	-200,000	0,002	0,031
-523,218	-157,402	0,108	0,005
-522,204	-84,306	-0,046	0,011
-521,189	-200,000	0,035	-0,126
-520,175	-33,220	-0,084	-0,034
-519,160	-200,000	0,003	-0,045
-518,145	236,850	-0,062	-0,074
-517,131	133,806	0,031	0,028
-516,116	-51,316	0,028	0,009
-515,102	761,182	0,037	0,073
-514,087	-195,433	-0,072	0,000
-513,072	-2,958	0,035	-0,017
-512,058	748,898	-0,026	0,050
-511,043	-200,000	-0,001	-0,007
-510,029	-122,628	0,081	-0,009
-509,014	187,371	0,039	0,041
-507,999	-74,801	0,132	-0,034
-506,985	146,599	0,037	0,036
-505,970	-200,000	0,007	-0,090
-504,956	-155,309	-0,072	0,003
-503,941	-66,385	0,072	-0,020
-502,926	-200,000	0,005	0,082
-501,912	-200,000	0,012	0,136
-500,897	-152,459	-0,026	-0,001
-499,883	347,911	0,031	0,044
-498,868	-74,037	0,007	0,002
-497,853	-200,000	0,028	-0,109
-496,839	278,359	0,029	-0,038
-495,824	95,335	0,053	0,043
-494,810	283,623	-0,059	0,077
-493,795	-98,137	0,062	-0,011
-492,781	0,371	0,093	0,048
-491,766	-174,290	-0,156	0,003
-490,751	59,277	-0,041	0,029
-489,737	-118,534	0,066	0,008
-488,722	-200,000	0,021	0,108
-487,708	-125,621	-0,120	0,013
-486,693	39,688	0,132	0,085
-485,678	-139,412	0,070	0,005
-484,664	97,086	0,006	-0,005
-483,649	-200,000	0,022	0,150
-482,635	-200,000	-0,004	0,034
-481,620	-200,000	0,032	-0,119
-480,605	-85,969	0,073	0,016
-479,591	-2,460	-0,051	0,026
-478,576	-200,000	-0,038	0,121
-477,562	800,000	-0,081	0,222
-476,547	-200,000	-0,017	-0,070
-475,532	743,347	-0,059	-0,114
-474,518	800,000	-0,024	0,064
-473,503	-200,000	-0,008	-0,060
-472,489	800,000	-0,046	0,131
-471,474	-200,000	-0,040	0,136
-470,459	-82,957	-0,084	0,019
-469,445	75,474	-0,027	0,020
-468,430	27,741	-0,088	0,053
-467,416	-200,000	0,011	0,073
-466,401	-127,597	0,038	-0,004
-465,386	-200,000	-0,014	0,064
-464,372	374,559	0,082	0,121
-463,357	-155,033	-0,094	-0,004
-462,343	77,727	-0,075	-0,057
-461,328	-73,770	-0,122	-0,032
-460,313	800,000	-0,003	-0,007
-459,299	800,000	0,013	0,037
-458,284	41,449	-0,055	0,036
-457,270	-96,085	0,058	0,011
-456,255	800,000	-0,021	0,058
-455,241	-170,365	-0,156	-0,004
-454,226	556,456	0,049	0,085
-453,211	-140,010	-0,093	0,007
-452,197	193,129	0,008	0,008
-451,182	38,249	0,050	0,032
-450,168	639,657	-0,073	-0,134
-449,153	-200,000	-0,024	-0,134
-448,138	84,663	0,067	-0,053
-447,124	651,282	0,029	-0,053
-446,109	800,000	-0,042	-0,110
-445,095	-120,748	0,087	0,010
-444,080	136,771	0,064	-0,060
-443,065	12,739	0,077	0,042
-442,051	-200,000	-0,025	-0,103
-441,036	39,074	0,126	-0,081
-440,022	240,588	-0,026	-0,031
-439,007	-200,000	0,008	-0,026
-437,992	-200,000	-0,017	-0,063
-436,978	800,000	-0,036	0,108
-435,963	-200,000	-0,005	-0,150
-434,949	193,384	-0,118	-0,128
-433,934	242,303	0,040	0,048
-432,919	94,842	-0,032	-0,026
-431,905	155,828	-0,069	0,069
-430,890	-100,725	0,216	0,038
-429,876	724,897	0,028	-0,054
-428,861	-200,000	-0,009	-0,056
-427,846	-200,000	-0,023	0,103
-426,832	94,142	0,076	0,062
-425,817	532,524	-0,094	-0,160
-424,803	-200,000	-0,016	0,063
-423,788	19,116	0,083	0,048
-422,773	181,991	0,060	-0,064
-421,759	562,335	-0,029	-0,051
-420,744	800,000	0,034	-0,104
-419,730	-22,811	0,042	0,018
-418,715	-200,000	0,005	-0,058
-417,701	-200,000	-0,008	0,041
-416,686	362,987	0,068	0,099
-415,671	-70,516	0,065	-0,017
-414,657	-176,312	0,127	-0,002
-413,642	329,268	-0,088	0,122
-412,628	-125,238	-0,198	-0,021
-411,613	-200,000	-0,010	-0,035
-410,598	-28,610	-0,135	0,055
-409,584	-79,942	-0,082	-0,020
-408,569	457,874	-0,026	-0,042
-407,555	173,834	-0,041	0,042
-406,540	-200,000	0,007	-0,055
-405,525	-36,622	0,091	0,035
-404,511	-200,000	-0,022	0,102
-403,496	-200,000	0,053	-0,182
-402,482	-95,389	-0,116	-0,022
-401,467	-35,000	-0,065	0,025
-400,452	-200,000	0,010	-0,061
-399,438	-106,987	0,126	0,020
-398,423	-11,925	-0,088	-0,041
-397,409	266,577	-0,106	-0,133
-396,394	800,000	-0,061	-0,144
-395,379	30,413	0,122	-0,075
-394,365	800,000	-0,022	0,056
-393,350	66,503	0,052	0,038
-392,336	-166,814	0,065	0,002
-391,321	236,638	-0,090	-0,107
-390,306	-35,486	-0,128	-0,050
-389,292	-200,000	-0,020	-0,085
-388,277	-110,297	0,077	0,011
-387,263	800,000	0,052	0,133
-386,248	-200,000	0,017	-0,097
-385,233	800,000	-0,087	0,186
-384,219	176,663	-0,134	-0,139
-383,204	85,479	0,004	0,003
-382,190	306,069	-0,057	-0,076
-381,175	800,000	-0,048	-0,099
-380,160	485,132	0,071	0,117
-379,146	5,279	-0,062	0,032
-378,131	-72,164	-0,068	0,018
-377,117	-101,238	-0,096	0,017
-376,102	296,103	0,106	0,139
-375,088	145,965	-0,056	0,054
-374,073	-200,000	-0,008	0,086
-373,058	94,257	0,015	-0,012
-372,044	-200,000	0,038	0,144
-371,029	327,411	0,079	0,109
-370,015	-106,446	0,058	-0,009
-369,000	-0,854	-0,107	0,054
-367,985	378,467	-0,136	-0,200
-366,971	-119,534	0,086	-0,011
-365,956	-200,000	0,000	-0,101
-364,942	73,552	0,061	-0,045
-363,927	168,890	0,075	-0,077
-362,912	-113,992	-0,115	0,016
-361,898	-73,978	-0,080	-0,021
-360,883	-200,000	-0,033	-0,176
-359,869	-200,000	-0,011	-0,053
-358,854	213,262	-0,044	0,050
-357,839	9,331	0,094	0,051
-356,825	69,595	0,062	-0,046
-355,810	-23,558	0,133	-0,057
-354,796	-79,155	-0,101	0,024
-353,781	47,836	0,068	-0,045
-352,766	114,945	0,057	0,050
-351,752	140,876	-0,092	0,087
-350,737	800,000	0,028	-0,076
-349,723	-39,486	-0,047	0,017
-348,708	-105,865	0,146	0,023
-347,693	-200,000	0,026	-0,100
-346,679	356,045	-0,035	0,050
-345,664	48,955	0,049	-0,033
-344,650	-9,791	0,095	-0,045
-343,635	215,542	-0,039	0,045
-342,620	-200,000	0,011	0,092
-341,606	-200,000	-0,007	0,122
-340,591	405,930	-0,010	0,015
-339,577	-30,466	0,018	-0,007
-338,562	461,278	-0,038	0,061
-337,548	800,000	0,016	0,049
-336,533	139,407	-0,128	0,120
-335,518	604,282	0,088	0,158
-334,504	705,637	-0,021	-0,040
-333,489	182,394	0,078	-0,083
-332,475	800,000	-0,011	0,034
-331,460	-91,348	0,151	-0,031
-330,445	-105,772	0,036	0,006
-329,431	11,851	-0,040	-0,022
-328,416	-52,808	0,097	-0,032
-327,402	-2,921	-0,093	-0,047
-326,387	-73,176	-0,083	-0,022
-325,372	189,845	-0,055	0,059
-324,358	800,000	0,048	-0,109
-323,343	88,406	0,068	-0,054
-322,329	790,511	0,048	-0,094
-321,314	-56,262	0,061	-0,019
-320,299	-200,000	-0,003	0,071
-319,285	-3,825	-0,111	0,055
-318,270	-200,000	-0,016	-0,068
-317,256	269,874	0,066	-0,084
-316,241	-24,128	-0,043	-0,018
-315,226	149,239	-0,089	-0,086
-314,212	-200,000	0,025	0,090
-313,197	-37,426	0,039	-0,015
-312,183	170,787	-0,081	0,083
-311,168	85,034	0,070	0,054
-310,153	83,209	0,057	-0,044
-309,139	-140,512	-0,075	-0,005
-308,124	-130,338	-0,029	0,003
-307,110	151,010	-0,056	0,054
-306,095	-17,190	0,137	0,061
-305,080	-76,583	0,103	-0,026
-304,066	796,072	-0,054	0,106
-303,051	-12,363	0,028	0,013
-302,037	-53,518	0,175	-0,057
-301,022	29,591	-0,177	0,108
-300,008	-200,000	-0,017	0,076
-298,993	51,173	0,085	0,058
-297,978	141,487	0,027	-0,025
-296,964	-200,000	-0,026	-0,099
-295,949	-200,000	-0,024	-0,087
-294,935	-127,496	-0,036	-0,004
-293,920	95,130	0,069	-0,056
-292,905	169,399	0,120	0,122
-291,891	-200,000	0,004	0,157
-290,876	327,241	-0,020	0,027
-289,862	-3,279	-0,044	0,022
-288,847	407,578	-0,060	0,091
-287,832	800,000	-0,015	-0,040
-286,818	-109,510	0,020	0,003
-285,803	35,249	0,139	0,087
-284,789	633,220	0,083	0,152
-283,774	-87,085	-0,076	-0,016
-282,759	-200,000	-0,032	0,156
-281,745	-157,537	-0,069	0,003
-280,730	350,216	-0,081	0,115
-279,716	18,159	0,126	-0,071
-278,701	78,191	0,052	0,040
-277,686	-200,000	0,013	0,105
-276,672	451,582	-0,057	0,090
-275,657	-200,000	0,000	-0,039
-274,643	-200,000	-0,008	0,035
-273,628	-53,780	-0,114	-0,037
-272,613	405,179	0,031	-0,047
-271,599	245,901	0,078	-0,094
-270,584	-200,000	0,014	0,057
-269,570	-1,189	-0,056	-0,028
-268,555	233,956	-0,068	-0,080
-267,540	-200,000	0,014	0,084
-266,526	800,000	-0,017	0,044
-265,511	234,820	0,060	0,071
-264,497	-200,000	-0,006	0,042
-263,482	-133,470	-0,073	0,006
-262,467	64,981	-0,079	0,057
-261,453	-200,000	0,015	-0,057
-260,438	530,875	-0,065	-0,111
-259,424	508,761	-0,042	-0,069
-258,409	69,329	-0,092	-0,067
-257,395	200,779	0,058	0,064
-256,380	133,571	-0,118	0,109
-255,365	-200,000	0,024	0,080
-254,351	548,670	0,063	0,108
-253,336	-200,000	0,022	-0,070
-252,322	-97,487	-0,070	-0,013
-251,307	-200,000	-0,003	0,009
-250,292	193,871	0,105	-0,114
-249,278	590,588	-0,047	0,083
-248,263	297,121	0,048	0,063
-247,249	291,082	0,094	0,122
-246,234	-200,000	-0,033	-0,139
-245,219	800,000	0,024	-0,059
-244,205	-200,000	0,010	-0,094
-243,190	-200,000	0,013	-0,065
-242,176	800,000	0,052	-0,120
-241,161	530,802	-0,013	-0,022
-240,146	397,103	-0,057	0,085
-239,132	-119,558	-0,121	-0,015
-238,117	142,610	0,091	-0,086
-237,103	186,826	-0,069	-0,074
-236,088	800,000	0,049	-0,127
-235,073	109,439	-0,116	0,099
-234,059	53,324	0,144	0,098
-233,044	-56,012	0,155	-0,049
-232,030	-200,000	-0,010	-0,165
-231,015	745,728	-0,036	-0,069
-230,000	91,268	0,049	-0,039
-228,986	-16,444	-0,088	-0,040
-227,971	-200,000	0,008	0,033
-226,957	-130,386	0,081	-0,008
-225,942	-55,064	-0,101	0,032
-224,927	-101,497	-0,082	-0,014
-223,913	-200,000	0,009	0,032
-222,898	-15,245	-0,112	0,051
-221,884	111,489	0,045	-0,038
-220,869	76,511	-0,132	0,099
-219,855	-200,000	-0,009	0,139
-218,840	152,998	0,027	-0,026
-217,825	-200,000	-0,020	0,101
-216,811	-200,000	0,016	0,056
-215,796	24,276	0,105	0,062
-214,782	-67,609	0,072	0,020
-213,767	-60,227	0,088	-0,026
-212,752	-34,686	0,013	0,005
-211,738	197,637	0,044	0,048
-210,723	-153,066	0,084	-0,004
-209,709	14,274	-0,044	-0,024
-208,694	800,000	-0,062	-0,133
-207,679	74,062	0,089	0,066
-206,665	-38,042	0,121	0,046
-205,650	20,830	0,019	-0,011
-204,636	385,159	0,080	0,118
-203,621	800,000	-0,025	0,075
-202,606	239,208	-0,055	-0,066
-201,592	8,083	-0,029	0,015
-200,577	-200,000	0,043	-0,191
-199,563	-200,000	0,016	-0,082
-198,548	-200,000	0,060	0,233
-197,533	-200,000	-0,005	-0,088
-196,519	243,614	0,106	0,126
-195,504	-200,000	-0,001	-0,049
-194,490	19,695	-0,093	0,053
-193,475	27,039	-0,019	0,012
-192,460	106,558	0,092	-0,078
-191,446	-200,000	-0,006	-0,048
-190,431	-200,000	0,012	-0,100
-189,417	-6,668	0,065	0,032
-188,402	295,687	-0,020	0,026
-187,387	-1,008	-0,184	0,092
-186,373	-157,132	-0,020	0,001
-185,358	-200,000	0,030	0,124
-184,344	-129,811	-0,035	0,003
-183,329	-200,000	-0,008	0,061
-182,315	-200,000	-0,013	0,046
-181,300	-104,891	-0,086	0,014
-180,285	209,239	0,066	-0,073
-179,271	163,405	-0,025	-0,025
-178,256	-200,000	-0,039	0,152
-177,242	-200,000	0,002	-0,047
-176,227	458,707	-0,063	-0,099
-175,212	318,065	0,070	0,094
-174,198	347,403	0,082	0,116
-173,183	148,036	-0,127	0,122
-172,169	563,421	0,053	0,091
-171,154	30,432	0,013	0,008
-170,139	-73,244	0,134	0,035
-169,125	251,318	0,096	-0,116
-168,110	257,031	-0,057	-0,070
-167,096	-42,900	-0,162	-0,058
-166,081	-73,992	0,118	0,030
-165,066	-200,000	0,001	0,056
-164,052	-120,150	0,140	0,017
-163,037	-200,000	-0,000	-0,035
-162,023	-200,000	0,004	-0,052
-161,008	258,062	0,058	0,071
-159,993	-200,000	-0,003	0,035
-158,979	-200,000	0,028	-0,149
-157,964	-200,000	-0,007	-0,060
-156,950	-37,376	0,152	-0,058
-155,935	-200,000	0,003	0,114
-154,920	341,421	0,052	0,073
-153,906	-200,000	0,001	-0,128
-152,891	-200,000	0,013	0,106
-151,877	-200,000	-0,028	-0,112
-150,862	45,855	-0,093	-0,061
-149,847	124,901	0,051	0,046
-148,833	-82,904	-0,111	0,025
-147,818	416,487	0,043	-0,066
-146,804	221,682	0,066	0,076
-145,789	-200,000	0,018	0,112
-144,775	-97,905	-0,097	0,018
-143,760	317,136	-0,026	-0,036
-142,745	800,000	0,084	-0,209
-141,731	-117,982	0,063	0,008
-140,716	800,000	0,045	0,105
-139,702	3,423	0,071	-0,037
-138,687	430,361	-0,105	-0,162
-137,672	-200,000	0,001	-0,118
-136,658	504,803	-0,034	-0,056
-135,643	800,000	0,078	-0,198
-134,629	-59,523	-0,037	0,011
-133,614	551,274	-0,086	-0,147
-132,599	113,395	0,137	0,118
-131,585	-166,800	0,084	-0,002
-130,570	-200,000	-0,005	-0,017
-129,556	220,284	-0,062	-0,070
-128,541	269,079	-0,064	-0,080
-127,526	144,675	-0,096	-0,091
-126,512	-200,000	-0,056	-0,194
-125,497	588,622	0,077	0,135
-124,483	800,000	0,013	-0,035
-123,468	111,873	0,155	0,133
-122,453	-40,709	-0,113	-0,041
-121,439	-173,244	0,126	0,003
-120,424	-200,000	0,015	-0,206
-119,410	800,000	-0,029	-0,077
-118,395	-200,000	0,020	0,075
-117,380	90,507	0,061	0,048
-116,366	-190,184	0,176	0,001
-115,351	-200,000	-0,003	0,142
-114,337	117,630	-0,048	-0,042
-113,322	-200,000	-0,021	-0,164
-112,307	210,735	-0,051	0,057
-111,293	-10,144	-0,103	0,048
-110,278	800,000	0,037	0,101
-109,264	800,000	-0,023	0,054
-108,249	313,045	-0,032	0,043
-107,234	-18,247	-0,042	0,019
-106,220	-149,888	-0,223	-0,012
-105,205	81,344	-0,044	-0,034
-104,191	-116,362	-0,103	0,013
-103,176	-200,000	-0,022	-0,078
-102,162	216,831	-0,084	0,095
-101,147	-51,931	-0,156	0,051
-100,132	-200,000	-0,002	-0,219
-99,118	175,720	0,133	-0,137
-98,103	800,000	-0,078	-0,177
-97,089	21,793	0,129	0,074
-96,074	-47,771	-0,093	0,032
-95,059	27,614	-0,097	-0,058
-94,045	-200,000	0,006	-0,141
-93,030	-176,771	-0,100	-0,002
-92,016	-200,000	0,011	0,048
-91,001	-200,000	-0,002	-0,064
-89,986	35,842	-0,019	-0,012
-88,972	-157,542	0,195	-0,008
-87,957	100,608	-0,079	-0,065
-86,943	800,000	0,028	0,056
-85,928	9,047	-0,101	-0,054
-84,913	187,737	-0,045	-0,048
-83,899	319,819	0,039	0,052
-82,884	800,000	-0,032	0,094
-81,870	-200,000	0,012	0,088
-80,855	216,783	0,119	0,135
-79,840	-200,000	0,024	-0,107
-78,826	9,477	0,023	-0,012
-77,811	-32,804	-0,098	-0,038
-76,797	289,090	-0,083	0,106
-75,782	45,176	0,136	0,089
-74,767	800,000	0,053	0,114
-73,753	-200,000	-0,013	0,083
-72,738	-200,000	0,001	-0,065
-71,724	-200,000	-0,008	0,070
-70,709	-200,000	-0,069	-0,233
-69,694	435,838	0,087	0,135
-68,680	-66,958	-0,100	0,028
-67,665	65,829	0,049	0,035
-66,651	54,137	-0,092	0,062
-65,636	-196,554	0,080	0,000
-64,622	-42,955	0,114	0,041
-63,607	800,000	-0,003	-0,009
-62,592	800,000	-0,013	-0,036
-61,578	800,000	0,021	0,050
-60,563	676,873	0,081	0,150
-59,549	-143,161	-0,113	-0,008
-58,534	-12,052	-1,564	-0,723
-57,519	460,768	-1,333	-2,112
-56,505	-200,000	-0,543	-4,663
-55,490	188,514	0,918	0,974
-54,476	800,000	4,927	11,499
-53,461	-200,000	19,207	319,390
-52,446	-200,000	740,263	2334,672
-51,432	574,049	1655,222	2870,239
-50,417	78,246	1671,011	1261,724
-49,403	21,314	1543,865	885,719
-48,388	15,221	1466,162	811,508
-47,373	17,963	1456,463	819,363
-46,359	16,724	1446,160	807,590
-45,344	13,441	1441,834	789,418
-44,330	13,328	1439,792	787,724
-43,315	13,412	1437,872	787,044
-42,300	13,387	1436,276	786,023
-41,286	13,405	1435,082	785,424
-40,271	13,389	1433,811	784,620
-39,257	13,377	1432,531	783,830
-38,242	13,442	1431,104	783,327
-37,227	13,419	1429,916	782,537
-36,213	13,425	1428,733	781,890
-35,198	13,438	1427,415	781,198
-34,184	13,491	1426,480	780,907
-33,169	13,454	1425,141	779,967
-32,154	13,486	1423,999	779,463
-31,140	13,458	1422,924	778,710
-30,125	13,458	1421,815	778,074
-29,111	13,467	1420,659	777,453
-28,096	13,433	1419,532	776,645
-27,082	13,347	1418,561	775,676
-26,067	13,380	1417,377	775,154
-25,052	13,433	1416,326	774,799
-24,038	13,341	1415,327	773,788
-23,023	13,361	1414,254	773,262
-22,009	13,353	1413,379	772,716
-20,994	13,302	1412,469	771,948
-19,979	13,370	1411,416	771,663
-18,965	13,321	1410,627	770,970
-17,950	13,304	1409,769	770,393
-16,936	13,328	1408,769	769,926
-15,921	13,286	1407,723	769,127
-14,906	13,263	1406,748	768,457
-13,892	13,306	1405,526	767,959
-12,877	13,255	1404,982	767,395
-11,863	13,305	1404,031	767,077
-10,848	13,278	1403,110	766,417
-9,833	13,251	1402,167	765,746
-8,819	13,167	1401,390	764,899
-7,804	13,162	1400,624	764,427
-6,790	13,175	1399,435	763,809
-5,775	13,195	1398,124	763,156
-4,760	13,177	1397,264	762,574
-3,746	13,165	1396,434	762,034
-2,731	13,193	1395,749	761,762
-1,717	13,126	1394,987	761,004
-0,702	13,163	1392,907	760,010
0,313	17,003	1309,619	732,351
1,327	33,194	703,769	430,979
2,342	51,122	123,365	82,662
3,356	3,844	16,605	8,555
4,371	11,272	3,071	1,658
5,386	-70,391	0,604	0,161
6,400	-200,000	0,051	0,218
7,415	16,678	-0,229	-0,128
8,429	800,000	-0,110	-0,258
9,444	43,919	-0,337	-0,218
10,459	135,303	-0,289	-0,266
11,473	8,835	-0,254	-0,135
12,488	-0,808	-0,232	-0,116
13,502	-142,502	-0,310	0,021
14,517	90,172	-0,300	-0,237
15,531	-22,621	-0,275	-0,117
16,546	50,558	-0,339	-0,227
17,561	-90,103	-0,507	-0,104
18,575	3,503	-0,213	0,110
19,590	106,288	-0,231	-0,194
20,604	81,600	-0,273	-0,208
21,619	39,819	-0,404	-0,255
22,634	14,954	-0,495	-0,273
23,648	178,622	-0,260	-0,268
24,663	-68,010	-0,405	-0,111
25,677	-59,758	-0,400	-0,120
26,692	52,294	-0,356	-0,239
27,707	-67,531	-0,270	-0,074
28,721	-77,138	-0,306	-0,075
29,736	101,220	-0,465	-0,382
30,750	30,336	-0,441	-0,265
31,765	107,422	-0,415	-0,348
32,780	107,113	-0,383	-0,321
33,794	187,782	-0,263	-0,278
34,809	-11,322	-0,444	-0,205
35,823	168,302	-0,206	-0,207
36,838	11,923	-0,437	-0,236
37,853	-10,258	-0,488	-0,228
38,867	100,315	-0,420	-0,343
39,882	114,329	-0,324	-0,278
40,896	48,278	-0,321	-0,212
41,911	119,292	-0,292	-0,255
42,926	130,814	-0,268	-0,242
43,940	-25,809	-0,537	-0,222
44,955	136,710	-0,391	-0,360
45,969	-12,318	-0,351	-0,161
46,984	-38,845	-0,412	-0,152
47,999	-59,859	-0,263	-0,079
49,013	-12,235	-0,249	-0,115
50,028	72,409	-0,244	-0,179
51,042	153,246	-0,336	-0,324
52,057	48,361	-0,314	-0,207
53,071	-21,700	-0,447	-0,191
54,086	-9,410	-0,267	-0,125
55,101	214,917	-0,221	-0,247
56,115	-139,716	-0,401	-0,030
57,130	186,951	-0,279	-0,293
58,144	-14,347	-0,398	-0,180
59,159	125,035	-0,354	-0,314
60,174	9,462	-0,440	-0,234
61,188	18,233	-0,359	-0,201
62,203	110,201	-0,322	-0,272
63,217	163,001	-0,306	-0,303
64,232	71,350	-0,317	-0,231
65,247	118,984	-0,256	-0,223
66,261	112,566	-0,238	-0,203
67,276	136,679	-0,431	-0,396
68,290	-24,872	-0,403	-0,168
69,305	177,163	-0,276	-0,283
70,320	24,900	-0,307	-0,179
71,334	-44,850	-0,370	-0,129
72,349	59,015	-0,314	-0,217
73,363	219,938	-0,246	-0,278
74,378	118,097	-0,330	-0,286
75,393	-23,012	-0,250	-0,105
76,407	3,767	-0,337	-0,172
77,422	103,406	-0,284	-0,234
78,436	103,016	-0,308	-0,253
79,451	15,569	-0,330	-0,182
80,466	766,674	-0,172	-0,330
81,480	106,997	-0,340	-0,284
82,495	154,800	-0,231	-0,223
83,509	-25,819	-0,419	-0,173
84,524	208,826	-0,181	-0,199
85,539	154,276	-0,224	-0,216
86,553	302,131	-0,202	-0,262
87,568	47,330	-0,453	-0,296
88,582	139,577	-0,290	-0,269
89,597	-26,352	-0,374	-0,153
90,611	15,989	-0,231	-0,127
91,626	27,809	-0,186	-0,110
92,641	-44,753	-0,329	-0,114
93,655	131,554	-0,269	-0,243
94,670	23,168	-0,251	-0,144
95,684	-44,388	-0,294	-0,103
96,699	119,170	-0,271	-0,235
97,714	-60,063	-0,217	-0,065
98,728	103,139	-0,199	-0,164
99,743	28,501	-0,367	-0,217
100,757	-11,981	-0,362	-0,166
101,772	196,973	-0,144	-0,154
102,787	121,367	-0,335	-0,292
103,801	4,267	-0,319	-0,163
104,816	-26,329	-0,355	-0,145
105,830	793,991	-0,127	-0,247
106,845	-12,639	-0,187	-0,085
107,860	76,929	-0,234	-0,174
108,874	169,909	-0,126	-0,127
109,889	131,850	-0,275	-0,248
110,903	-55,460	-0,274	-0,086
111,918	113,087	-0,162	-0,138
112,933	172,974	-0,256	-0,259
113,947	205,986	-0,153	-0,167
114,962	128,151	-0,234	-0,208
115,976	-63,744	-0,371	-0,106
116,991	-36,337	-0,358	-0,134
118,006	-26,504	-0,341	-0,139
119,020	178,950	-0,257	-0,264
120,035	13,972	-0,229	-0,125
121,049	89,125	-0,160	-0,125
122,064	-200,000	-0,071	-0,226
123,079	79,983	-0,227	-0,171
124,093	-1,075	-0,311	-0,154
125,108	184,534	-0,224	-0,233
126,122	149,413	-0,319	-0,303
127,137	2,623	-0,259	-0,131
128,151	4,398	-0,252	-0,129
129,166	-19,256	-0,253	-0,109
130,181	199,241	-0,212	-0,227
131,195	109,778	-0,284	-0,238
132,210	347,830	-0,228	-0,315
133,224	581,845	-0,184	-0,317
134,239	-28,268	-0,206	-0,083
135,254	356,995	-0,184	-0,257
136,268	0,898	-0,268	-0,134
137,283	-46,719	-0,281	-0,096
138,297	41,418	-0,377	-0,238
139,312	108,645	-0,317	-0,264
140,327	166,053	-0,216	-0,213
141,341	34,842	-0,277	-0,169
142,356	321,947	-0,083	-0,111
143,370	-54,838	-0,280	-0,088
144,385	329,113	-0,175	-0,236
145,400	109,709	-0,176	-0,147
146,414	-89,818	-0,308	-0,062
147,429	800,000	-0,140	-0,334
148,443	236,708	-0,226	-0,261
149,458	363,550	-0,218	-0,307
150,473	49,643	-0,248	-0,163
151,487	93,631	-0,247	-0,195
152,502	204,897	-0,285	-0,310
153,516	62,555	-0,265	-0,185
154,531	248,689	-0,240	-0,285
155,546	83,956	-0,211	-0,161
156,560	613,745	-0,188	-0,330
157,575	151,665	-0,220	-0,209
158,589	164,886	-0,245	-0,242
159,604	49,639	-0,374	-0,246
160,619	92,932	-0,274	-0,216
161,633	83,651	-0,311	-0,236
162,648	-80,377	-0,265	-0,061
163,662	-49,480	-0,087	-0,029
164,677	11,835	-0,301	-0,161
165,692	30,749	-0,222	-0,132
166,706	32,531	-0,237	-0,142
167,721	351,237	-0,204	-0,282
168,735	110,013	-0,226	-0,189
169,750	-79,060	-0,288	-0,068
170,764	-25,780	-0,186	-0,076
171,779	39,180	-0,196	-0,122
172,794	120,189	-0,251	-0,217
173,808	800,000	-0,119	-0,267
174,823	77,529	-0,270	-0,200
175,837	158,397	-0,236	-0,228
176,852	251,741	-0,152	-0,181
177,867	-198,743	-0,185	0,001
178,881	-13,062	-0,196	-0,088
179,896	43,029	-0,232	-0,147
180,910	249,371	-0,190	-0,225
181,925	63,306	-0,306	-0,213
182,940	297,384	-0,247	-0,316
183,954	137,291	-0,258	-0,235
184,969	563,113	-0,126	-0,213
185,983	319,177	-0,147	-0,195
186,998	396,800	-0,244	-0,355
188,013	99,850	-0,234	-0,189
189,027	150,159	-0,258	-0,244
190,042	189,056	-0,239	-0,249
191,056	-18,204	-0,303	-0,131
192,071	-114,697	-0,270	-0,035
193,086	10,295	-0,273	-0,144
194,100	208,569	-0,141	-0,154
195,115	127,364	-0,134	-0,118
196,129	530,921	-0,159	-0,263
197,144	96,405	-0,245	-0,195
198,159	205,873	-0,142	-0,154
199,173	800,000	-0,058	-0,150
200,188	20,380	-0,313	-0,175
201,202	133,683	-0,211	-0,190
202,217	-19,080	-0,282	-0,121
203,232	171,454	-0,168	-0,168
204,246	-40,433	-0,209	-0,075
205,261	198,364	-0,202	-0,215
206,275	162,677	-0,229	-0,223
207,290	-1,130	-0,233	-0,114
208,304	-200,000	-0,048	-0,195
209,319	177,605	-0,086	-0,087
210,334	-95,386	-0,288	-0,053
211,348	184,512	-0,195	-0,200
212,363	-35,043	-0,284	-0,107
213,377	800,000	-0,169	-0,348
214,392	-200,000	-0,006	-0,126
215,407	113,654	-0,093	-0,078
216,421	390,653	-0,205	-0,297
217,436	-169,555	-0,215	-0,005
218,450	-41,390	-0,252	-0,089
219,465	800,000	-0,060	-0,126
220,480	186,838	-0,191	-0,197
221,494	159,014	-0,132	-0,127
222,509	186,003	-0,202	-0,209
223,523	-3,345	-0,231	-0,111
224,538	800,000	-0,092	-0,215
225,553	132,879	-0,172	-0,154
226,567	313,361	-0,120	-0,157
227,582	89,476	-0,198	-0,153
228,596	-32,125	-0,187	-0,072
229,611	136,999	-0,154	-0,140
230,626	13,521	-0,207	-0,111
231,640	56,363	-0,271	-0,182
232,655	-143,117	-0,322	-0,021
233,669	-80,453	-0,079	-0,018
234,684	192,953	-0,178	-0,187
235,699	800,000	-0,081	-0,178
236,713	281,100	-0,104	-0,129
237,728	800,000	-0,076	-0,151
238,742	186,490	-0,146	-0,151
239,757	178,782	-0,167	-0,169
240,772	517,606	-0,177	-0,289
241,786	102,950	-0,130	-0,105
242,801	-200,000	-0,044	-0,168
243,815	187,587	-0,148	-0,154
244,830	74,537	-0,230	-0,167
245,844	81,731	-0,146	-0,109
246,859	-34,205	-0,127	-0,048
247,874	574,449	-0,133	-0,226
248,888	347,895	-0,216	-0,295
249,903	6,375	-0,251	-0,129
250,917	158,490	-0,068	-0,066
251,932	30,493	-0,164	-0,097
252,947	399,850	-0,110	-0,160
253,961	-17,442	-0,124	-0,054
254,976	93,848	-0,195	-0,153
255,990	7,550	-0,252	-0,130
257,005	-42,964	-0,222	-0,078
258,020	267,799	-0,127	-0,154
259,034	636,354	-0,096	-0,170
260,049	-25,265	-0,080	-0,033
261,063	257,976	-0,173	-0,206
262,078	112,208	-0,152	-0,127
263,093	620,244	-0,101	-0,177
264,107	175,307	-0,143	-0,143
265,122	129,452	-0,297	-0,263
266,136	-82,871	-0,267	-0,059
267,151	66,021	-0,182	-0,128
268,166	316,004	-0,099	-0,129
269,180	-22,267	-0,241	-0,101
270,195	68,737	-0,195	-0,138
271,209	562,448	-0,106	-0,178
272,224	-107,924	-0,145	-0,022
273,239	28,436	-0,131	-0,076
274,253	19,341	-0,157	-0,087
275,268	-71,674	-0,193	-0,050
276,282	98,591	-0,156	-0,124
277,297	124,274	-0,335	-0,291
278,312	13,751	-0,116	-0,062
279,326	-169,021	-0,105	-0,003
280,341	-10,271	-0,134	-0,061
281,355	800,000	-0,081	-0,233
282,370	800,000	-0,042	-0,104
283,384	239,991	-0,126	-0,145
284,399	93,954	-0,222	-0,173
285,414	41,295	-0,280	-0,174
286,428	139,528	-0,100	0,090
287,443	-13,455	-0,148	-0,066
288,457	-171,037	-0,041	0,001
289,472	88,724	-0,053	0,041
290,487	-72,269	-0,187	-0,047
291,501	166,453	-0,150	-0,147
292,516	-200,000	-0,113	-0,380
293,530	110,054	-0,108	-0,089
294,545	-11,452	-0,143	-0,065
295,560	39,073	-0,107	-0,066
296,574	25,390	-0,252	-0,144
297,589	-21,431	-0,110	-0,046
298,603	40,201	-0,208	-0,129
299,618	17,090	-0,169	-0,092
300,633	800,000	-0,085	-0,252
301,647	76,177	-0,110	-0,080
302,662	223,348	-0,153	-0,171
303,676	46,496	-0,273	-0,174
304,691	14,435	-0,234	-0,125
305,706	7,224	-0,164	-0,084
306,720	43,146	-0,125	-0,078
307,735	800,000	-0,038	-0,107
308,749	-75,677	-0,167	-0,041
309,764	152,567	-0,146	-0,137
310,779	451,790	-0,066	-0,101
311,793	113,887	-0,136	-0,114
312,808	154,361	-0,120	-0,113
313,822	151,012	-0,193	-0,181
314,837	-69,322	-0,067	-0,018
315,852	800,000	-0,043	-0,116
316,866	-86,075	-0,232	-0,049
317,881	-35,957	-0,230	-0,085
318,895	-200,000	-0,023	-0,168
319,910	-200,000	-0,005	-0,140
320,925	-157,286	-0,130	-0,005
321,939	54,609	-0,089	-0,059
322,954	-200,000	-0,017	-0,186
323,968	-108,365	-0,111	0,016
324,983	-47,119	-0,123	-0,041
325,997	-107,314	-0,228	-0,034
327,012	47,476	-0,165	-0,106
328,027	-73,821	-0,285	-0,071
329,041	-200,000	-0,030	-0,135
330,056	153,671	-0,053	-0,050
331,070	-35,764	-0,106	-0,039
332,085	70,462	-0,162	-0,115
333,100	87,860	-0,177	-0,135
334,114	451,453	-0,108	-0,165
335,129	-107,738	-0,113	-0,017
336,143	628,880	-0,083	-0,144
337,158	629,994	-0,137	-0,240
338,173	114,063	-0,136	-0,113
339,187	6,196	-0,086	-0,044
340,202	-19,507	-0,081	-0,035
341,216	800,000	-0,103	-0,225
342,231	294,682	-0,173	-0,218
343,246	268,155	-0,170	-0,205
344,260	40,272	-0,221	-0,136
345,275	-2,119	-0,159	-0,076
346,289	-55,914	-0,130	-0,040
347,304	75,913	-0,239	-0,173
348,319	-28,776	-0,143	-0,056
349,333	230,766	-0,210	-0,236
350,348	53,014	-0,138	-0,091
351,362	800,000	-0,076	-0,173
352,377	465,336	-0,069	-0,107
353,392	-40,206	-0,195	-0,069
354,406	-172,426	-0,160	-0,003
355,421	210,834	1313,325	1417,816
356,435	162,325	1473,877	1418,315
