DTS Sentinel unit serial number:	SN410029Multiplexer serial number:	ORYXHardware model number:	OX2-SRSoftware version number:	ORYX F/W v4,00 Oryx Data Collector v3.7.2.0data status	okinstallation	B3 Nyhavnadifferential loss correction	single-endedforward channel	channel 1reverse channel	N/Adate	2023/11/30time	00:02:30forward acquisition time	300,00reverse acquisition time	0,00gamma	499,1914k internal	0,3210k external	0,3210temperature offset calibration	1,0000default loss term (dB/km)	0,3820temperature slope calibration	1,0000multiplexer offset coefficient	1,0000multiplexer slope coefficient	1,0000fibre end	0,00T internal ref (°C)	10,88T ext. ref 1 (°C)	-4,26T ext. ref 2 (°C)	-4,39length (m)	temperature (°C)	Stokes	anti-Stokes-744,400	800,000	-0,154	-0,319
-743,385	-200,000	0,006	0,353
-742,371	192,773	-0,224	-0,245
-741,356	800,000	0,089	0,197
-740,342	133,678	-0,168	-0,158
-739,327	-200,000	0,018	0,237
-738,312	14,767	-0,172	-0,097
-737,298	281,318	0,119	0,155
-736,283	245,308	-0,144	-0,177
-735,269	-200,000	-0,016	0,279
-734,254	245,674	-0,119	-0,146
-733,239	-130,785	-0,308	0,030
-732,225	-200,000	-0,003	-0,067
-731,210	-19,687	0,120	0,054
-730,196	-34,314	0,153	0,061
-729,181	29,167	-0,148	-0,091
-728,167	-42,934	-0,108	0,039
-727,152	800,000	0,009	0,022
-726,137	-1,090	-0,065	0,033
-725,123	800,000	0,026	0,064
-724,108	-173,781	-0,131	0,003
-723,094	800,000	-0,026	0,081
-722,079	205,500	-0,044	0,050
-721,064	33,090	0,137	-0,086
-720,050	142,989	-0,079	0,077
-719,035	37,663	-0,012	0,008
-718,021	800,000	0,042	-0,095
-717,006	-7,821	-0,027	-0,013
-715,991	-200,000	-0,020	-0,088
-714,977	-156,988	-0,088	0,004
-713,962	88,678	-0,062	-0,050
-712,948	800,000	-0,026	-0,054
-711,933	216,442	-0,037	0,043
-710,918	218,353	0,081	-0,094
-709,904	68,703	-0,098	-0,073
-708,889	-200,000	-0,014	-0,049
-707,875	144,496	0,123	-0,119
-706,860	-200,000	-0,017	-0,154
-705,845	409,414	0,055	0,085
-704,831	153,682	-0,104	0,103
-703,816	-54,667	0,057	0,019
-702,802	234,447	-0,061	0,073
-701,787	-71,898	-0,108	0,029
-700,772	-72,043	-0,105	0,028
-699,758	41,685	0,084	-0,055
-698,743	326,585	0,107	0,149
-697,729	800,000	-0,029	-0,077
-696,714	107,395	0,062	0,054
-695,699	24,552	-0,074	0,044
-694,685	800,000	-0,053	-0,113
-693,670	-200,000	0,014	-0,098
-692,656	208,310	0,083	0,094
-691,641	76,481	-0,139	0,107
-690,627	-88,373	0,091	0,019
-689,612	-35,513	0,101	-0,040
-688,597	64,328	-0,092	-0,067
-687,583	-107,254	-0,098	-0,015
-686,568	748,272	-0,092	-0,181
-685,554	115,360	-0,056	0,050
-684,539	59,854	0,042	0,030
-683,524	799,899	-0,011	0,022
-682,510	354,202	0,057	0,083
-681,495	-200,000	-0,019	0,147
-680,481	-56,381	-0,133	-0,043
-679,466	401,341	0,083	-0,126
-678,451	219,467	-0,054	-0,062
-677,437	52,613	0,099	-0,068
-676,422	29,766	0,064	-0,039
-675,408	395,532	0,066	0,099
-674,393	95,648	-0,049	0,041
-673,378	-200,000	-0,009	-0,058
-672,364	800,000	-0,032	-0,089
-671,349	37,260	-0,259	-0,166
-670,335	-71,801	0,080	0,021
-669,320	-200,000	-0,001	0,073
-668,305	10,450	-0,071	0,039
-667,291	277,372	-0,007	-0,009
-666,276	-200,000	-0,007	-0,241
-665,262	-200,000	-0,022	-0,180
-664,247	-200,000	-0,038	-0,137
-663,232	800,000	0,012	-0,032
-662,218	379,001	-0,025	-0,037
-661,203	-200,000	-0,005	0,089
-660,189	515,640	-0,062	-0,105
-659,174	63,410	-0,090	0,065
-658,159	250,380	0,079	-0,097
-657,145	-200,000	0,026	-0,097
-656,130	326,132	-0,038	0,053
-655,116	-115,476	0,086	0,012
-654,101	-72,868	-0,089	-0,023
-653,086	51,063	-0,108	0,074
-652,072	800,000	-0,043	-0,106
-651,057	20,186	-0,013	0,008
-650,043	273,943	-0,037	0,047
-649,028	130,416	0,029	0,026
-648,014	-162,108	0,108	-0,004
-646,999	-26,649	-0,069	-0,029
-645,984	689,983	0,063	0,121
-644,970	-62,459	-0,207	-0,062
-643,955	87,662	-0,129	-0,103
-642,941	-200,000	0,002	0,009
-641,926	127,379	0,089	0,082
-640,911	474,425	-0,056	0,092
-639,897	800,000	0,010	-0,028
-638,882	-74,154	0,039	-0,010
-637,868	792,771	0,059	0,117
-636,853	-200,000	0,002	0,027
-635,838	-97,521	-0,047	0,009
-634,824	-200,000	-0,010	0,091
-633,809	-106,336	0,060	-0,010
-632,795	-153,380	0,183	0,009
-631,780	-7,295	-0,172	0,084
-630,765	72,068	0,032	0,024
-629,751	-200,000	-0,003	-0,052
-628,736	22,811	-0,094	-0,055
-627,722	77,299	0,076	-0,058
-626,707	-30,778	0,131	-0,053
-625,692	-71,656	-0,026	-0,007
-624,678	800,000	0,015	-0,041
-623,663	-38,615	0,096	-0,036
-622,649	-103,797	-0,010	0,002
-621,634	756,556	-0,090	-0,177
-620,619	112,578	0,148	-0,130
-619,605	428,439	0,066	0,104
-618,590	70,250	-0,092	0,068
-617,576	11,431	0,100	0,055
-616,561	-90,154	-0,114	0,024
-615,546	-200,000	-0,017	0,109
-614,532	-200,000	0,021	0,092
-613,517	314,508	0,069	0,094
-612,503	30,266	-0,079	0,048
-611,488	800,000	0,076	0,208
-610,474	-200,000	-0,008	0,052
-609,459	179,945	0,027	-0,029
-608,444	-200,000	0,023	-0,120
-607,430	-200,000	0,010	0,065
-606,415	-140,163	0,073	-0,005
-605,401	-0,317	0,099	-0,051
-604,386	-200,000	-0,005	0,055
-603,371	185,393	0,045	0,048
-602,357	-16,637	-0,148	-0,068
-601,342	243,894	0,069	-0,084
-600,328	-49,261	-0,064	-0,022
-599,313	-200,000	0,010	-0,054
-598,298	800,000	0,024	0,069
-597,284	207,996	0,109	-0,122
-596,269	312,963	0,104	-0,142
-595,255	61,182	0,019	-0,014
-594,240	-200,000	0,014	0,119
-593,225	12,088	-0,122	-0,067
-592,211	121,408	-0,032	-0,029
-591,196	33,450	-0,057	-0,036
-590,182	-124,802	0,065	-0,007
-589,167	-200,000	-0,007	-0,032
-588,152	132,001	0,048	0,044
-587,138	556,381	0,058	-0,101
-586,123	51,642	-0,100	-0,069
-585,109	58,145	0,094	-0,066
-584,094	-68,375	-0,128	0,036
-583,079	592,073	0,031	0,056
-582,065	-194,446	-0,086	-0,000
-581,050	316,638	0,053	0,073
-580,036	-164,153	0,035	0,001
-579,021	-115,073	-0,174	-0,024
-578,006	-81,551	0,037	-0,009
-576,992	-200,000	0,007	-0,083
-575,977	31,378	-0,046	-0,028
-574,963	-10,512	-0,047	0,022
-573,948	-87,501	0,131	-0,028
-572,934	-200,000	0,009	0,068
-571,919	-95,237	-0,092	-0,018
-570,904	-200,000	-0,002	0,067
-569,890	234,744	0,103	-0,123
-568,875	-104,079	0,022	0,004
-567,861	-50,530	-0,086	0,029
-566,846	800,000	-0,078	0,156
-565,831	-74,166	-0,181	-0,047
-564,817	6,522	-0,113	-0,061
-563,802	-200,000	0,016	-0,065
-562,788	-200,000	-0,026	-0,134
-561,773	163,480	-0,060	-0,060
-560,758	-94,894	0,074	-0,014
-559,744	-200,000	0,006	0,021
-558,729	-12,555	-0,057	0,027
-557,715	-177,443	0,128	-0,002
-556,700	800,000	-0,029	-0,064
-555,685	-200,000	-0,027	-0,090
-554,671	-98,474	-0,057	0,010
-553,656	-94,165	0,058	0,011
-552,642	-136,689	-0,107	0,009
-551,627	361,697	0,072	0,104
-550,612	262,722	-0,070	-0,088
-549,598	-30,735	0,093	-0,038
-548,583	-96,022	-0,177	-0,034
-547,569	8,425	0,106	-0,057
-546,554	558,994	-0,021	0,036
-545,539	800,000	-0,041	0,131
-544,525	-200,000	0,041	0,202
-543,510	-14,588	0,083	-0,038
-542,496	800,000	-0,029	0,079
-541,481	800,000	0,013	-0,030
-540,466	228,388	-0,052	-0,061
-539,452	-50,357	0,126	-0,042
-538,437	-160,422	0,161	-0,006
-537,423	81,817	-0,186	0,145
-536,408	-200,000	-0,015	-0,105
-535,393	800,000	-0,034	-0,100
-534,379	-200,000	0,014	-0,060
-533,364	-119,671	-0,110	0,014
-532,350	9,795	0,048	0,026
-531,335	-38,951	0,113	-0,042
-530,321	-25,825	-0,099	-0,042
-529,306	360,809	-0,017	-0,024
-528,291	19,776	-0,018	-0,010
-527,277	-13,283	-0,050	-0,023
-526,262	-200,000	-0,022	0,216
-525,248	280,408	-0,097	0,125
-524,233	-61,676	0,063	0,019
-523,218	-9,567	0,090	0,043
-522,204	-200,000	0,036	0,212
-521,189	-200,000	0,014	-0,124
-520,175	-200,000	0,035	-0,143
-519,160	-13,060	-0,027	0,012
-518,145	665,422	0,028	-0,052
-517,131	46,427	0,061	-0,041
-516,116	-169,184	0,085	-0,002
-515,102	63,668	-0,067	0,048
-514,087	800,000	-0,037	-0,083
-513,072	-16,610	-0,126	-0,057
-512,058	-192,650	-0,076	-0,000
-511,043	-200,000	0,021	0,156
-510,029	42,133	0,071	0,046
-509,014	385,591	0,013	0,019
-507,999	-91,477	0,215	-0,044
-506,985	-163,388	-0,133	-0,004
-505,970	800,000	0,051	0,117
-504,956	-200,000	-0,001	-0,099
-503,941	-200,000	0,024	0,077
-502,926	800,000	0,033	0,098
-501,912	33,731	0,083	0,052
-500,897	312,442	-0,044	-0,060
-499,883	-200,000	-0,003	-0,046
-498,868	37,648	-0,031	0,020
-497,853	-200,000	0,019	-0,066
-496,839	75,362	-0,136	0,103
-495,824	163,122	0,127	0,128
-494,810	324,549	0,071	0,097
-493,795	-102,653	0,026	-0,004
-492,781	4,757	0,110	0,058
-491,766	-69,296	-0,029	-0,008
-490,751	-85,606	-0,090	0,020
-489,737	-110,767	-0,080	-0,012
-488,722	-74,863	0,098	-0,025
-487,708	-200,000	0,027	0,085
-486,693	134,657	-0,021	-0,020
-485,678	-200,000	-0,008	0,066
-484,664	-200,000	0,045	0,195
-483,649	-90,498	-0,053	0,011
-482,635	-200,000	-0,044	-0,189
-481,620	486,435	0,095	0,156
-480,605	-200,000	-0,035	0,120
-479,591	-145,940	-0,020	0,001
-478,576	-152,937	-0,125	-0,006
-477,562	207,872	-0,019	0,021
-476,547	110,641	0,116	-0,100
-475,532	-200,000	0,019	0,153
-474,518	34,849	-0,054	0,034
-473,503	-46,800	0,124	0,043
-472,489	-193,403	-0,099	0,001
-471,474	315,692	-0,084	-0,115
-470,459	-64,592	-0,187	-0,054
-469,445	-186,469	0,092	0,001
-468,430	-200,000	-0,013	-0,112
-467,416	93,427	0,072	0,058
-466,401	189,716	0,137	0,148
-465,386	-200,000	-0,009	0,038
-464,372	-74,328	-0,115	-0,030
-463,357	-78,693	-0,057	0,014
-462,343	-62,470	-0,027	-0,008
-461,328	-200,000	0,002	-0,098
-460,313	-75,811	0,031	-0,008
-459,299	-146,703	-0,086	0,005
-458,284	-200,000	0,023	0,085
-457,270	505,926	0,041	0,068
-456,255	689,624	-0,032	0,061
-455,241	-200,000	-0,016	-0,134
-454,226	-183,704	-0,204	0,002
-453,211	-200,000	0,008	-0,079
-452,197	800,000	0,027	-0,086
-451,182	-200,000	-0,007	0,042
-450,168	-200,000	-0,028	-0,100
-449,153	-95,249	-0,092	0,018
-448,138	800,000	-0,059	0,127
-447,124	391,979	-0,089	0,133
-446,109	-130,210	0,110	0,011
-445,095	800,000	-0,067	0,178
-444,080	151,838	-0,075	-0,074
-443,065	232,698	-0,034	0,040
-442,051	-179,010	-0,017	-0,000
-441,036	31,657	0,047	-0,029
-440,022	-51,143	-0,073	-0,024
-439,007	-126,633	0,021	-0,002
-437,992	39,238	0,265	0,170
-436,978	560,870	0,061	0,106
-435,963	-200,000	0,005	0,139
-434,949	-200,000	-0,005	-0,028
-433,934	-200,000	-0,006	0,061
-432,919	510,574	0,050	-0,084
-431,905	800,000	-0,027	-0,056
-430,890	-90,803	0,071	0,015
-429,876	-200,000	0,002	0,104
-428,861	800,000	-0,046	0,118
-427,846	800,000	-0,039	-0,100
-426,832	59,111	-0,178	-0,125
-425,817	-170,167	-0,159	0,004
-424,803	-200,000	0,051	-0,179
-423,788	347,156	0,089	-0,126
-422,773	7,643	0,118	0,063
-421,759	-200,000	0,010	-0,072
-420,744	-200,000	0,008	-0,097
-419,730	800,000	-0,054	0,143
-418,715	-200,000	0,004	-0,042
-417,701	24,422	-0,090	-0,053
-416,686	25,868	0,089	0,053
-415,671	352,753	-0,049	-0,070
-414,657	-200,000	-0,031	0,104
-413,642	10,662	-0,099	-0,054
-412,628	400,515	-0,120	-0,181
-411,613	104,854	-0,087	0,074
-410,598	-200,000	0,024	-0,228
-409,584	-200,000	-0,000	-0,055
-408,569	-29,257	0,098	-0,040
-407,555	274,097	0,094	0,120
-406,540	-200,000	-0,008	-0,201
-405,525	521,208	0,032	-0,054
-404,511	31,220	-0,093	-0,057
-403,496	-200,000	0,002	-0,151
-402,482	120,777	-0,060	-0,053
-401,467	-166,339	0,016	-0,000
-400,452	269,378	0,047	0,059
-399,438	12,883	0,085	0,047
-398,423	540,128	0,042	-0,073
-397,409	-146,840	0,061	0,004
-396,394	40,027	-0,065	-0,042
-395,379	-200,000	0,009	0,185
-394,365	30,647	0,063	-0,039
-393,350	-200,000	0,014	0,059
-392,336	219,946	0,054	0,062
-391,321	-33,874	0,034	0,013
-390,306	270,937	0,093	-0,117
-389,292	800,000	0,058	-0,167
-388,277	189,499	0,060	0,064
-387,263	-200,000	0,001	0,021
-386,248	-200,000	0,008	0,055
-385,233	419,345	-0,031	0,047
-384,219	-89,533	0,096	-0,020
-383,204	15,482	-0,086	0,048
-382,190	-19,029	0,054	0,024
-381,175	19,394	-0,082	0,047
-380,160	777,861	0,062	0,121
-379,146	800,000	-0,036	0,084
-378,131	-200,000	-0,017	0,153
-377,117	-65,372	0,081	0,023
-376,102	24,178	-0,083	-0,049
-375,088	69,079	0,112	-0,082
-374,073	52,628	-0,130	-0,088
-373,058	-8,291	-0,052	-0,025
-372,044	800,000	0,036	0,089
-371,029	-179,021	0,113	-0,002
-370,015	800,000	-0,049	-0,116
-369,000	269,618	0,067	0,085
-367,985	376,492	-0,075	-0,110
-366,971	-200,000	-0,012	-0,118
-365,956	382,568	0,035	0,052
-364,942	-200,000	-0,004	0,050
-363,927	800,000	0,016	-0,040
-362,912	-200,000	-0,004	0,179
-361,898	21,419	-0,081	-0,047
-360,883	162,914	-0,015	0,015
-359,869	617,633	0,045	-0,081
-358,854	86,723	0,027	-0,021
-357,839	523,944	-0,025	0,042
-356,825	247,916	-0,009	0,010
-355,810	800,000	-0,023	0,068
-354,796	8,037	0,091	-0,049
-353,781	800,000	0,053	-0,114
-352,766	-200,000	0,016	0,093
-351,752	-196,859	0,178	0,001
-350,737	290,146	0,017	-0,022
-349,723	-200,000	0,015	0,054
-348,708	158,714	-0,064	0,064
-347,693	-200,000	0,012	0,074
-346,679	800,000	-0,040	-0,083
-345,664	24,756	-0,032	0,019
-344,650	-109,665	0,032	-0,005
-343,635	-200,000	0,014	-0,087
-342,620	-200,000	-0,009	-0,103
-341,606	53,809	0,052	0,035
-340,591	643,874	-0,051	0,093
-339,577	-63,098	-0,026	0,008
-338,562	-134,791	0,036	0,003
-337,548	-76,398	-0,092	0,023
-336,533	113,698	0,205	0,178
-335,518	319,058	-0,085	0,116
-334,504	3,174	0,145	0,075
-333,489	158,453	0,076	-0,076
-332,475	-200,000	0,036	-0,231
-331,460	652,511	-0,031	-0,056
-330,445	183,785	-0,039	-0,041
-329,431	800,000	-0,053	0,145
-328,416	64,096	0,085	0,061
-327,402	800,000	0,010	0,027
-326,387	-59,556	0,046	-0,014
-325,372	116,026	-0,145	-0,127
-324,358	-200,000	0,011	-0,190
-323,343	-200,000	0,007	0,057
-322,329	-200,000	-0,007	0,112
-321,314	-9,296	0,098	-0,047
-320,299	36,735	0,124	0,078
-319,285	445,752	0,033	0,051
-318,270	194,547	-0,059	-0,064
-317,256	800,000	-0,046	-0,112
-316,241	800,000	0,051	-0,145
-315,226	587,244	-0,056	0,098
-314,212	-200,000	-0,010	-0,053
-313,197	163,440	-0,064	-0,064
-312,183	313,128	-0,070	-0,094
-311,168	491,009	-0,027	-0,044
-310,153	442,686	0,063	-0,099
-309,139	-200,000	-0,043	0,143
-308,124	206,063	-0,036	0,040
-307,110	800,000	-0,017	0,034
-306,095	143,353	0,076	0,072
-305,080	-200,000	-0,030	0,216
-304,066	-51,167	-0,049	-0,016
-303,051	-200,000	-0,001	0,042
-302,037	-10,714	-0,173	0,081
-301,022	-71,206	0,109	0,029
-300,008	-200,000	-0,023	0,115
-298,993	-200,000	-0,002	-0,181
-297,978	-110,113	0,115	-0,017
-296,964	349,462	-0,047	0,066
-295,949	33,904	0,076	-0,047
-294,935	265,119	-0,101	-0,126
-293,920	-122,787	-0,082	-0,009
-292,905	531,204	0,009	-0,015
-291,891	-200,000	-0,019	0,090
-290,876	800,000	-0,033	0,089
-289,862	7,076	-0,123	0,065
-288,847	-3,836	0,104	-0,051
-287,832	359,833	-0,067	-0,095
-286,818	-83,041	0,025	-0,006
-285,803	800,000	-0,026	-0,080
-284,789	-200,000	-0,005	0,116
-283,774	4,632	-0,031	0,016
-282,759	-200,000	0,007	-0,030
-281,745	67,672	-0,092	0,067
-280,730	-107,663	-0,129	0,020
-279,716	-112,636	-0,060	0,008
-278,701	800,000	0,030	0,079
-277,686	-26,938	0,245	-0,101
-276,672	280,041	-0,035	0,045
-275,657	-142,671	0,087	-0,006
-274,643	11,905	-0,086	0,047
-273,628	-200,000	0,002	-0,112
-272,613	769,229	-0,070	-0,137
-271,599	381,167	-0,049	0,072
-270,584	445,907	-0,040	0,063
-269,570	-200,000	-0,013	0,058
-268,555	800,000	0,055	0,148
-267,540	-58,125	-0,127	-0,039
-266,526	683,745	-0,079	0,147
-265,511	60,914	0,122	-0,086
-264,497	-90,363	-0,023	0,005
-263,482	-171,302	-0,030	0,001
-262,467	-43,849	0,089	0,032
-261,453	-50,894	0,076	-0,025
-260,438	117,276	-0,064	-0,056
-259,424	-26,853	0,108	-0,045
-258,409	-200,000	-0,013	-0,059
-257,395	28,867	0,103	-0,062
-256,380	11,269	0,085	0,046
-255,365	-127,943	-0,029	-0,003
-254,351	-61,849	0,158	-0,047
-253,336	-43,443	-0,160	-0,057
-252,322	-81,148	-0,030	0,007
-251,307	222,868	-0,046	0,053
-250,292	-200,000	-0,016	-0,123
-249,278	-76,262	0,219	-0,054
-248,263	-200,000	0,028	-0,098
-247,249	800,000	0,038	-0,089
-246,234	517,109	-0,053	0,089
-245,219	-110,247	0,091	-0,013
-244,205	-200,000	-0,010	-0,083
-243,190	373,798	-0,072	0,105
-242,176	-1,080	0,053	0,027
-241,161	-9,365	-0,028	0,013
-240,146	-200,000	0,015	0,089
-239,132	32,719	-0,072	-0,044
-238,117	-46,766	-0,102	-0,035
-237,103	-69,307	-0,038	-0,010
-236,088	-200,000	-0,007	0,041
-235,073	50,819	-0,048	0,032
-234,059	-200,000	-0,003	0,115
-233,044	800,000	-0,045	-0,131
-232,030	440,302	0,027	-0,043
-231,015	-200,000	-0,022	-0,120
-230,000	800,000	0,032	-0,072
-228,986	385,754	-0,039	0,058
-227,971	-110,975	-0,084	0,012
-226,957	-200,000	-0,028	0,101
-225,942	-200,000	0,004	0,014
-224,927	55,939	-0,097	-0,066
-223,913	-200,000	-0,007	0,030
-222,898	12,773	0,070	-0,038
-221,884	274,413	-0,016	-0,020
-220,869	26,272	0,075	-0,045
-219,855	321,663	0,076	-0,103
-218,840	432,067	-0,092	0,143
-217,825	-200,000	-0,023	0,158
-216,811	208,267	-0,060	-0,067
-215,796	42,327	-0,101	-0,065
-214,782	349,290	0,061	-0,086
-213,767	34,950	0,041	0,026
-212,752	-200,000	-0,011	0,154
-211,738	84,664	-0,102	-0,079
-210,723	-200,000	0,004	-0,088
-209,709	162,262	0,036	-0,035
-208,694	-200,000	0,003	-0,034
-207,679	13,188	-0,043	-0,024
-206,665	-200,000	0,023	0,085
-205,650	-200,000	0,006	0,025
-204,636	86,836	-0,021	0,017
-203,621	-169,077	-0,152	-0,004
-202,606	-184,260	-0,033	-0,000
-201,592	-88,486	-0,058	0,012
-200,577	55,780	-0,027	0,019
-199,563	164,456	-0,068	-0,068
-198,548	366,534	0,052	-0,075
-197,533	800,000	0,012	-0,038
-196,519	62,097	0,074	0,053
-195,504	-65,658	0,015	0,004
-194,490	619,802	0,096	-0,172
-193,475	-90,885	-0,159	-0,032
-192,460	-200,000	-0,004	-0,042
-191,446	-55,729	0,057	-0,018
-190,431	-73,274	0,023	-0,006
-189,417	760,794	0,058	-0,113
-188,402	-44,168	0,120	0,043
-187,387	-200,000	0,017	-0,091
-186,373	-2,598	-0,142	0,070
-185,358	28,800	0,041	-0,025
-184,344	-98,573	-0,077	-0,014
-183,329	800,000	-0,066	0,131
-182,315	-200,000	-0,009	0,076
-181,300	38,193	0,037	0,023
-180,285	-20,718	0,059	-0,025
-179,271	25,850	-0,113	-0,066
-178,256	552,422	0,018	0,031
-177,242	-156,375	-0,026	-0,001
-176,227	-20,674	0,143	-0,062
-175,212	491,161	-0,042	0,069
-174,198	-200,000	0,021	-0,113
-173,183	-200,000	-0,027	-0,138
-172,169	127,366	0,045	0,041
-171,154	42,329	0,063	-0,041
-170,139	-64,485	0,076	0,022
-169,125	800,000	0,049	0,112
-168,110	-160,051	0,076	0,003
-167,096	-200,000	0,037	-0,182
-166,081	-200,000	0,002	-0,023
-165,066	35,499	0,122	-0,076
-164,052	408,703	-0,071	0,107
-163,037	800,000	0,063	-0,155
-162,023	-7,883	0,139	0,066
-161,008	32,355	-0,178	-0,109
-159,993	800,000	0,040	0,094
-158,979	43,067	0,082	0,053
-157,964	-94,256	0,059	0,011
-156,950	522,668	0,025	-0,041
-155,935	-142,377	-0,078	0,005
-154,920	100,588	-0,066	0,054
-153,906	-200,000	-0,015	0,050
-152,891	59,106	0,062	0,043
-151,877	-24,598	-0,063	0,026
-150,862	161,950	-0,145	-0,144
-149,847	87,814	-0,123	0,096
-148,833	81,923	0,087	0,067
-147,818	-200,000	-0,000	0,094
-146,804	113,606	-0,056	0,048
-145,789	309,266	0,060	0,080
-144,775	-43,387	0,064	0,023
-143,760	800,000	-0,035	-0,104
-142,745	-200,000	-0,000	-0,031
-141,731	-200,000	-0,037	0,140
-140,716	273,455	-0,029	0,036
-139,702	604,120	-0,035	0,062
-138,687	489,188	-0,023	-0,037
-137,672	104,361	0,057	-0,047
-136,658	-150,577	-0,133	0,007
-135,643	98,015	-0,106	-0,086
-134,629	399,869	0,051	-0,075
-133,614	800,000	0,091	-0,202
-132,599	-200,000	0,004	0,017
-131,585	460,982	-0,044	-0,069
-130,570	-200,000	0,019	-0,087
-129,556	-85,023	0,087	0,019
-128,541	327,243	-0,051	-0,069
-127,526	244,763	-0,045	0,054
-126,512	800,000	0,081	0,164
-125,497	164,478	0,057	0,057
-124,483	84,156	0,081	-0,063
-123,468	409,568	0,047	0,071
-122,453	-9,472	-0,183	0,086
-121,439	-14,915	-0,071	-0,032
-120,424	144,996	-0,081	-0,077
-119,410	-86,871	0,076	-0,016
-118,395	-200,000	0,001	0,024
-117,380	117,859	0,114	-0,100
-116,366	-59,384	-0,063	-0,019
-115,351	-200,000	-0,021	-0,124
-114,337	-200,000	-0,017	-0,056
-113,322	-26,362	-0,041	-0,017
-112,307	-166,639	0,062	-0,002
-111,293	58,993	-0,029	-0,020
-110,278	800,000	-0,060	0,150
-109,264	800,000	0,032	0,075
-108,249	-200,000	0,021	-0,074
-107,234	-156,287	-0,058	-0,003
-106,220	22,121	0,046	0,027
-105,205	-14,100	-0,132	-0,060
-104,191	-200,000	0,047	0,165
-103,176	800,000	0,027	0,082
-102,162	573,078	-0,067	0,116
-101,147	800,000	-0,047	0,111
-100,132	471,897	-0,105	-0,168
-99,118	249,997	-0,067	0,081
-98,103	-38,559	0,063	-0,024
-97,089	35,860	0,116	-0,072
-96,074	107,330	-0,090	0,076
-95,059	-200,000	-0,015	-0,090
-94,045	-200,000	0,019	0,079
-93,030	-39,915	-0,144	-0,053
-92,016	-135,311	-0,151	0,013
-91,001	-200,000	0,009	-0,031
-89,986	-108,386	0,042	0,006
-88,972	-102,659	0,167	0,028
-87,957	95,315	0,053	-0,042
-86,943	-200,000	-0,008	-0,073
-85,928	266,727	0,025	-0,031
-84,913	-200,000	-0,041	-0,149
-83,899	775,395	-0,013	0,025
-82,884	146,439	0,057	-0,054
-81,870	-170,718	0,052	-0,001
-80,855	-200,000	-0,004	0,101
-79,840	320,099	-0,037	0,050
-78,826	219,592	-0,092	-0,104
-77,811	-49,760	0,111	-0,037
-76,797	186,711	0,091	-0,096
-75,782	-200,000	-0,005	0,102
-74,767	124,166	0,094	-0,084
-73,753	27,109	0,007	0,004
-72,738	96,945	-0,066	-0,054
-71,724	-25,130	-0,088	-0,037
-70,709	-200,000	-0,015	0,109
-69,694	-200,000	-0,003	-0,053
-68,680	-200,000	-0,004	-0,020
-67,665	800,000	0,071	0,164
-66,651	-54,402	-0,102	0,032
-65,636	-70,641	-0,166	0,044
-64,622	-200,000	-0,027	0,092
-63,607	-200,000	-0,004	-0,014
-62,592	11,584	-0,051	-0,028
-61,578	-200,000	0,024	0,130
-60,563	-200,000	0,015	-0,096
-59,549	-200,000	0,006	-0,049
-58,534	14,045	-1,921	-1,053
-57,519	441,993	-1,259	-1,952
-56,505	-200,000	-0,290	-4,385
-55,490	576,897	0,918	1,590
-54,476	800,000	5,051	11,300
-53,461	-200,000	20,910	328,403
-52,446	800,000	756,712	2321,736
-51,432	550,663	1662,175	2826,356
-50,417	73,514	1664,046	1228,800
-49,403	18,742	1537,286	866,372
-48,388	12,742	1460,118	793,843
-47,373	18,992	1450,934	818,839
-46,359	15,851	1440,523	797,975
-45,344	11,013	1435,921	772,343
-44,330	10,921	1434,235	770,968
-43,315	10,897	1432,375	769,821
-42,300	10,940	1430,302	768,880
-41,286	10,954	1429,376	768,419
-40,271	10,888	1428,111	767,398
-39,257	10,895	1426,876	766,733
-38,242	10,875	1425,813	766,038
-37,227	10,939	1424,560	765,639
-36,213	10,959	1423,280	765,017
-35,198	10,967	1422,230	764,456
-34,184	11,050	1421,232	764,281
-33,169	10,926	1420,030	763,020
-32,154	10,970	1419,035	762,662
-31,140	11,014	1417,660	762,100
-30,125	11,020	1416,643	761,551
-29,111	10,993	1415,469	760,764
-28,096	11,018	1414,425	760,292
-27,082	10,931	1413,239	759,217
-26,067	10,918	1412,179	758,556
-25,052	10,919	1411,053	757,926
-24,038	10,944	1409,993	757,442
-23,023	10,896	1408,977	756,639
-22,009	10,898	1407,964	756,074
-20,994	10,896	1406,912	755,472
-19,979	10,930	1406,196	755,218
-18,965	10,873	1405,152	754,359
-17,950	10,826	1404,524	753,774
-16,936	10,859	1403,351	753,268
-15,921	10,787	1402,540	752,466
-14,906	10,767	1401,705	751,897
-13,892	10,854	1400,546	751,651
-12,877	10,833	1399,598	751,015
-11,863	10,786	1399,064	750,478
-10,848	10,770	1398,095	749,854
-9,833	10,779	1397,148	749,358
-8,819	10,719	1396,548	748,727
-7,804	10,744	1395,572	748,293
-6,790	10,743	1394,375	747,615
-5,775	10,708	1393,639	747,028
-4,760	10,733	1392,426	746,467
-3,746	10,735	1391,465	745,930
-2,731	10,750	1390,740	745,580
-1,717	10,734	1390,006	745,085
-0,702	10,749	1387,954	744,021
0,313	14,758	1301,950	716,299
1,327	31,250	693,284	418,956
2,342	48,670	120,342	79,467
3,356	-0,583	16,473	8,218
4,371	10,755	3,435	1,844
5,386	0,967	0,904	0,455
6,400	-200,000	0,056	0,604
7,415	198,812	-0,139	-0,150
8,429	177,970	-0,215	-0,221
9,444	-52,018	-0,283	-0,092
10,459	-2,236	-0,247	-0,122
11,473	26,020	-0,215	-0,126
12,488	91,402	-0,267	-0,211
13,502	-70,758	-0,364	-0,096
14,517	-68,453	-0,307	-0,083
15,531	-48,104	-0,337	-0,114
16,546	150,160	-0,296	-0,283
17,561	126,939	-0,337	-0,301
18,575	174,865	-0,158	-0,161
19,590	578,443	-0,158	-0,273
20,604	-106,983	-0,260	0,040
21,619	133,112	-0,422	-0,384
22,634	165,871	-0,421	-0,420
23,648	85,621	-0,373	-0,288
24,663	175,224	-0,232	-0,237
25,677	-131,891	-0,433	-0,039
26,692	-53,659	-0,434	-0,139
27,707	109,390	-0,356	-0,300
28,721	39,469	-0,345	-0,217
29,736	136,775	-0,204	-0,187
30,750	86,612	-0,431	-0,334
31,765	164,740	-0,340	-0,338
32,780	54,495	-0,369	-0,250
33,794	58,209	-0,390	-0,269
34,809	180,251	-0,292	-0,301
35,823	149,010	-0,240	-0,229
36,838	50,913	-0,355	-0,236
37,853	53,581	-0,324	-0,218
38,867	-53,543	-0,390	-0,125
39,882	60,293	-0,274	-0,191
40,896	1,497	-0,328	-0,166
41,911	61,422	-0,357	-0,249
42,926	311,193	-0,186	-0,245
43,940	66,545	-0,319	-0,228
44,955	196,958	-0,293	-0,314
45,969	-120,719	-0,467	-0,055
46,984	-45,498	-0,387	-0,134
47,999	86,926	-0,341	-0,265
49,013	50,115	-0,328	-0,217
50,028	4,602	-0,282	-0,145
51,042	17,925	-0,337	-0,188
52,057	-47,647	-0,454	-0,154
53,071	34,080	-0,396	-0,242
54,086	9,923	-0,349	-0,186
55,101	164,034	-0,279	-0,276
56,115	-1,219	-0,287	-0,142
57,130	85,227	-0,277	-0,214
58,144	186,914	-0,289	-0,303
59,159	537,233	-0,259	-0,434
60,174	252,328	-0,284	-0,340
61,188	-30,745	-0,321	-0,127
62,203	189,081	-0,193	-0,203
63,217	-55,075	-0,373	-0,117
64,232	24,708	-0,291	-0,169
65,247	-20,213	-0,357	-0,154
66,261	39,180	-0,399	-0,250
67,276	149,191	-0,361	-0,343
68,290	122,639	-0,338	-0,296
69,305	-32,343	-0,435	-0,169
70,320	-27,149	-0,419	-0,170
71,334	97,337	-0,213	-0,171
72,349	60,807	-0,308	-0,214
73,363	4,511	-0,285	-0,146
74,378	-1,167	-0,400	-0,198
75,393	28,601	-0,277	-0,164
76,407	-3,175	-0,227	-0,111
77,422	-135,750	-0,233	-0,019
78,436	13,348	-0,270	-0,147
79,451	132,077	-0,294	-0,265
80,466	44,557	-0,398	-0,256
81,480	-94,481	-0,396	-0,075
82,495	42,061	-0,355	-0,226
83,509	49,896	-0,269	-0,178
84,524	219,677	-0,186	-0,209
85,539	71,214	-0,158	-0,115
86,553	145,057	-0,277	-0,259
87,568	172,382	-0,239	-0,241
88,582	11,173	-0,314	-0,168
89,597	-0,040	-0,381	-0,189
90,611	66,875	-0,258	-0,183
91,626	53,107	-0,224	-0,150
92,641	81,975	-0,218	-0,165
93,655	146,815	-0,236	-0,222
94,670	119,183	-0,294	-0,254
95,684	306,004	-0,278	-0,363
96,699	79,924	-0,271	-0,204
97,714	87,884	-0,259	-0,201
98,728	84,836	-0,187	-0,143
99,743	34,594	-0,199	-0,121
100,757	-11,914	-0,185	-0,085
101,772	79,581	-0,232	-0,174
102,787	47,720	-0,383	-0,249
103,801	80,750	-0,195	-0,147
104,816	22,522	-0,334	-0,191
105,830	268,354	-0,090	-0,110
106,845	52,045	-0,225	-0,150
107,860	117,391	-0,256	-0,220
108,874	2,805	-0,383	-0,194
109,889	-95,895	-0,417	-0,077
110,903	45,196	-0,327	-0,210
111,918	113,114	-0,332	-0,281
112,933	-38,372	-0,275	-0,101
113,947	-114,102	-0,188	0,025
114,962	-171,650	-0,242	0,005
115,976	234,262	-0,267	-0,308
116,991	-125,936	-0,276	-0,029
118,006	-35,126	-0,245	-0,093
119,020	-137,939	-0,302	-0,023
120,035	-70,956	-0,214	-0,056
121,049	117,579	-0,156	-0,134
122,064	-40,596	-0,214	-0,077
123,079	-10,966	-0,336	-0,154
124,093	206,175	-0,334	-0,363
125,108	114,227	-0,338	-0,287
126,122	129,709	-0,239	-0,213
127,137	-38,130	-0,205	-0,075
128,151	-101,376	-0,337	-0,057
129,166	3,505	-0,159	-0,081
130,181	-25,985	-0,232	-0,095
131,195	151,999	-0,301	-0,286
132,210	-38,587	-0,233	-0,085
133,224	470,878	-0,138	-0,217
134,239	106,497	-0,198	-0,163
135,254	278,725	-0,148	-0,185
136,268	800,000	-0,123	-0,281
137,283	-113,149	-0,315	-0,043
138,297	39,469	-0,199	-0,124
139,312	9,164	-0,191	-0,100
140,327	235,161	-0,247	-0,285
141,341	282,142	-0,150	-0,187
142,356	26,237	-0,211	-0,122
143,370	-46,023	-0,207	-0,071
144,385	138,117	-0,168	-0,153
145,400	127,914	-0,235	-0,209
146,414	4,482	-0,351	-0,179
147,429	-92,091	-0,174	-0,034
148,443	775,800	-0,108	-0,207
149,458	97,163	-0,158	-0,126
150,473	-84,652	-0,239	-0,052
151,487	289,918	-0,128	-0,162
152,502	32,902	-0,176	-0,106
153,516	165,173	-0,244	-0,240
154,531	325,773	-0,198	-0,264
155,546	44,026	-0,261	-0,166
156,560	1,187	-0,231	-0,115
157,575	117,344	-0,215	-0,184
158,589	-39,621	-0,237	-0,086
159,604	115,515	-0,219	-0,186
160,619	98,430	-0,268	-0,215
161,633	149,781	-0,182	-0,172
162,648	134,002	-0,337	-0,304
163,662	84,956	-0,246	-0,188
164,677	-78,272	-0,279	-0,066
165,692	193,604	-0,235	-0,247
166,706	168,443	-0,166	-0,164
167,721	345,962	-0,229	-0,314
168,735	147,139	-0,209	-0,196
169,750	748,953	-0,177	-0,333
170,764	75,288	-0,244	-0,179
171,779	-15,940	-0,183	-0,081
172,794	113,226	-0,188	-0,158
173,808	-14,216	-0,210	-0,094
174,823	172,539	-0,175	-0,175
175,837	231,122	-0,106	-0,120
176,852	107,429	-0,188	-0,155
177,867	-29,826	-0,119	-0,047
178,881	-78,446	-0,276	-0,065
179,896	222,293	-0,252	-0,282
180,910	36,804	-0,341	-0,209
181,925	3,872	-0,259	-0,131
182,940	-92,442	-0,123	-0,024
183,954	125,396	-0,321	-0,281
184,969	508,639	-0,143	-0,231
185,983	382,891	-0,112	-0,161
186,998	-36,430	-0,200	-0,074
188,013	-50,895	-0,332	-0,108
189,027	144,890	-0,218	-0,202
190,042	-64,985	-0,100	-0,028
191,056	59,292	-0,357	-0,244
192,071	510,882	-0,135	-0,219
193,086	-47,563	-0,205	-0,069
194,100	314,882	-0,131	-0,171
195,115	174,729	-0,203	-0,204
196,129	167,390	-0,201	-0,198
197,144	-200,000	-0,189	0,000
198,159	24,744	-0,148	-0,085
199,173	95,843	-0,114	-0,090
200,188	0,580	-0,225	-0,111
201,202	237,709	-0,134	-0,154
202,217	99,371	-0,202	-0,162
203,232	427,241	-0,085	-0,127
204,246	51,397	-0,224	-0,147
205,261	173,793	-0,260	-0,260
206,275	800,000	-0,088	-0,179
207,290	128,883	-0,081	-0,072
208,304	241,295	-0,139	-0,161
209,319	39,291	-0,181	-0,112
210,334	-104,049	-0,253	0,040
211,348	551,769	-0,106	-0,176
212,363	240,082	-0,169	-0,195
213,377	-54,640	-0,259	-0,081
214,392	87,678	-0,098	-0,075
215,407	96,566	-0,232	-0,183
216,421	532,412	-0,108	-0,178
217,436	126,498	-0,200	-0,175
218,450	27,649	-0,175	-0,101
219,465	113,737	-0,259	-0,218
220,480	620,393	-0,094	-0,163
221,494	-18,127	-0,116	-0,050
222,509	128,665	-0,242	-0,213
223,523	-200,000	-0,019	-0,249
224,538	158,285	-0,258	-0,248
225,553	190,694	-0,236	-0,245
226,567	-14,004	-0,237	-0,105
227,582	93,141	-0,180	-0,141
228,596	112,348	-0,156	-0,131
229,611	-158,685	-0,229	0,009
230,626	800,000	-0,091	-0,208
231,640	142,564	-0,228	-0,209
232,655	70,935	-0,195	-0,139
233,669	290,255	-0,097	-0,122
234,684	194,315	-0,112	-0,117
235,699	449,454	-0,078	-0,119
236,713	658,659	-0,089	-0,160
237,728	800,000	-0,103	-0,206
238,742	12,032	-0,179	-0,095
239,757	-142,252	-0,238	-0,016
240,772	107,407	-0,229	-0,188
241,786	110,480	-0,177	-0,147
242,801	371,367	-0,136	-0,191
243,815	800,000	-0,065	-0,132
244,830	74,886	-0,222	-0,161
245,844	36,041	-0,236	-0,143
246,859	100,718	-0,249	-0,200
247,874	403,310	-0,179	-0,261
248,888	717,948	-0,096	-0,176
249,903	-102,960	-0,291	-0,047
250,917	-166,334	-0,135	0,004
251,932	-120,184	-0,095	-0,011
252,947	-200,000	-0,041	-0,225
253,961	613,334	-0,146	-0,253
254,976	-15,045	-0,169	-0,074
255,990	134,960	-0,169	-0,151
257,005	-109,071	-0,143	-0,021
258,020	152,232	-0,133	-0,125
259,034	247,312	-0,141	-0,164
260,049	153,180	-0,189	-0,178
261,063	-151,788	-0,303	-0,015
262,078	-61,909	-0,239	-0,068
263,093	-34,464	-0,125	-0,047
264,107	-145,420	-0,123	-0,008
265,122	15,412	-0,033	-0,018
266,136	-46,632	-0,071	-0,024
267,151	205,936	-0,131	-0,141
268,166	124,936	-0,125	-0,109
269,180	120,786	-0,167	-0,143
270,195	-17,424	-0,220	-0,095
271,209	-23,220	-0,187	-0,077
272,224	114,588	-0,264	-0,221
273,239	-61,078	-0,110	0,032
274,253	510,732	-0,074	-0,119
275,268	800,000	-0,114	-0,221
276,282	-43,208	-0,280	-0,097
277,297	-58,514	-0,243	-0,072
278,312	205,486	-0,160	-0,172
279,326	800,000	-0,114	-0,227
280,341	-200,000	-0,002	-0,223
281,355	-30,785	-0,075	-0,029
282,370	-96,150	-0,052	-0,009
283,384	800,000	-0,057	-0,118
284,399	611,986	-0,102	-0,177
285,414	63,526	-0,257	-0,177
286,428	207,435	-0,136	-0,147
287,443	-57,401	-0,068	-0,020
288,457	334,903	-0,046	-0,062
289,472	37,625	-0,138	-0,084
290,487	1,915	-0,302	-0,149
291,501	-37,174	-0,231	-0,085
292,516	800,000	-0,050	-0,116
293,530	329,032	-0,047	-0,063
294,545	-38,190	-0,038	-0,014
295,560	163,605	-0,126	-0,122
296,574	-200,000	-0,010	-0,109
297,589	132,698	-0,119	-0,105
298,603	-36,924	-0,214	-0,078
299,618	-40,226	-0,127	-0,045
300,633	115,355	-0,188	-0,157
301,647	104,114	-0,107	-0,086
302,662	-41,450	-0,105	0,037
303,676	-68,973	-0,207	0,055
304,691	283,763	-0,074	-0,092
305,706	5,284	-0,118	-0,060
306,720	158,092	-0,179	-0,171
307,735	119,418	-0,156	-0,133
308,749	800,000	-0,105	-0,203
309,764	-65,826	-0,130	-0,035
310,779	115,498	-0,125	-0,105
311,793	59,350	-0,175	-0,119
312,808	213,690	-0,183	-0,199
313,822	147,551	-0,160	-0,148
314,837	-111,883	-0,256	0,035
315,852	-200,000	-0,063	-0,220
316,866	194,785	-0,164	-0,171
317,881	618,214	-0,094	-0,163
318,895	27,751	-0,029	-0,017
319,910	102,408	-0,108	-0,087
320,925	800,000	-0,108	-0,267
321,939	114,473	-0,091	-0,076
322,954	800,000	-0,092	-0,207
323,968	313,538	-0,095	-0,123
324,983	-59,709	-0,133	-0,039
325,997	800,000	-0,111	-0,259
327,012	800,000	-0,096	-0,258
328,027	104,900	-0,183	-0,148
329,041	-114,968	-0,098	-0,013
330,056	-99,157	-0,059	0,010
331,070	-155,438	-0,073	-0,003
332,085	-32,914	-0,127	-0,048
333,100	57,388	-0,148	-0,099
334,114	-200,000	-0,088	-0,317
335,129	133,354	-0,187	-0,165
336,143	168,358	-0,145	-0,142
337,158	62,897	-0,111	-0,076
338,173	-90,651	-0,206	0,040
339,187	282,425	-0,161	-0,199
340,202	-200,000	-0,023	-0,154
341,216	58,811	-0,194	-0,130
342,231	-84,507	-0,196	-0,042
343,246	32,181	-0,201	-0,118
344,260	5,324	-0,061	0,031
345,275	-183,347	-0,116	0,001
346,289	-200,000	-0,029	-0,094
347,304	-200,000	-0,034	-0,149
348,319	-200,000	-0,043	-0,189
349,333	237,904	-0,146	-0,166
350,348	100,826	-0,136	-0,108
351,362	800,000	-0,089	-0,186
352,377	-200,000	-0,001	-0,074
353,392	-161,048	-0,180	-0,006
354,406	-5,925	-0,101	-0,047
355,421	207,257	1310,151	1399,543
356,435	159,432	1470,290	1400,029
