DTS Sentinel unit serial number:	SN410029Multiplexer serial number:	ORYXHardware model number:	OX2-SRSoftware version number:	ORYX F/W v4,00 Oryx Data Collector v3.7.2.0data status	okinstallation	B3 Nyhavnadifferential loss correction	single-endedforward channel	channel 1reverse channel	N/Adate	2023/11/30time	04:32:30forward acquisition time	300,00reverse acquisition time	0,00gamma	499,1914k internal	0,3210k external	0,3210temperature offset calibration	1,0000default loss term (dB/km)	0,3820temperature slope calibration	1,0000multiplexer offset coefficient	1,0000multiplexer slope coefficient	1,0000fibre end	0,00T internal ref (°C)	10,13T ext. ref 1 (°C)	-5,34T ext. ref 2 (°C)	-5,44length (m)	temperature (°C)	Stokes	anti-Stokes-744,400	149,946	-0,234	-0,230
-743,385	-200,000	-0,057	0,188
-742,371	352,730	-0,135	-0,194
-741,356	800,000	-0,056	0,167
-740,342	174,232	-0,199	-0,209
-739,327	-200,000	0,038	0,338
-738,312	202,706	-0,146	-0,164
-737,298	800,000	-0,116	0,242
-736,283	31,926	-0,141	-0,088
-735,269	-200,000	0,080	0,312
-734,254	51,175	-0,203	-0,140
-733,239	-7,684	-0,332	0,162
-732,225	341,523	-0,139	-0,198
-731,210	-66,627	0,052	0,015
-730,196	-31,271	0,021	-0,009
-729,181	-33,038	0,114	-0,046
-728,167	-5,564	0,081	0,040
-727,152	26,162	-0,036	-0,022
-726,137	41,276	-0,070	-0,046
-725,123	13,670	-0,066	-0,037
-724,108	39,791	-0,096	-0,062
-723,094	800,000	-0,070	-0,154
-722,079	-4,241	-0,102	0,051
-721,064	800,000	-0,032	-0,065
-720,050	-130,597	-0,062	-0,006
-719,035	-200,000	0,005	-0,125
-718,021	-200,000	0,001	-0,046
-717,006	-73,647	-0,116	-0,030
-715,991	-47,021	-0,092	0,032
-714,977	453,731	0,063	-0,102
-713,962	-114,171	0,027	0,004
-712,948	-111,012	0,098	0,014
-711,933	-119,154	-0,089	-0,011
-710,918	415,043	0,036	0,056
-709,904	92,207	0,052	-0,043
-708,889	334,341	-0,085	-0,120
-707,875	406,866	0,030	0,047
-706,860	-200,000	0,013	0,042
-705,845	-87,979	0,107	-0,023
-704,831	501,191	-0,029	0,048
-703,816	-200,000	-0,036	0,119
-702,802	-131,204	0,153	0,015
-701,787	-60,356	-0,069	0,021
-700,772	-9,360	-0,210	0,101
-699,758	-16,233	-0,090	-0,041
-698,743	123,880	0,093	0,085
-697,729	99,076	0,189	0,158
-696,714	116,214	-0,072	0,064
-695,699	-16,737	-0,032	-0,015
-694,685	-66,405	-0,125	-0,036
-693,670	360,476	-0,035	-0,051
-692,656	-200,000	-0,002	0,026
-691,641	-200,000	-0,017	-0,129
-690,627	800,000	0,040	-0,117
-689,612	464,837	-0,077	0,126
-688,597	-38,116	-0,070	0,027
-687,583	-200,000	-0,001	0,060
-686,568	-144,424	-0,097	-0,006
-685,554	164,514	0,040	-0,041
-684,539	162,607	-0,016	-0,016
-683,524	-200,000	-0,019	0,069
-682,510	40,074	-0,104	-0,068
-681,495	800,000	-0,024	-0,066
-680,481	-200,000	0,010	-0,120
-679,466	-200,000	0,003	-0,109
-678,451	444,367	-0,020	-0,031
-677,437	800,000	0,054	0,124
-676,422	26,648	-0,154	0,093
-675,408	89,821	-0,044	0,035
-674,393	411,291	-0,083	0,128
-673,378	389,814	-0,036	-0,054
-672,364	250,017	-0,048	0,059
-671,349	-200,000	0,009	-0,054
-670,335	-117,992	0,061	0,008
-669,320	479,861	-0,077	0,126
-668,305	-111,681	0,129	0,019
-667,291	800,000	0,022	0,061
-666,276	-65,985	0,069	0,020
-665,262	49,593	-0,180	-0,122
-664,247	-181,973	0,041	-0,001
-663,232	380,857	0,023	-0,035
-662,218	800,000	0,045	0,122
-661,203	-22,606	-0,054	-0,024
-660,189	-200,000	0,009	-0,033
-659,174	74,137	0,097	-0,073
-658,159	-27,152	-0,040	-0,017
-657,145	269,098	0,056	0,072
-656,130	86,556	-0,097	0,077
-655,116	-200,000	-0,015	0,059
-654,101	404,142	-0,086	0,131
-653,086	-45,259	-0,151	0,054
-652,072	123,722	-0,067	-0,061
-651,057	148,881	-0,070	-0,069
-650,043	-150,043	-0,103	0,006
-649,028	254,881	-0,030	-0,037
-648,014	-9,295	0,035	0,017
-646,999	-200,000	-0,007	-0,042
-645,984	243,709	-0,059	-0,072
-644,970	-71,532	-0,028	0,007
-643,955	-104,667	-0,051	-0,008
-642,941	194,559	-0,023	-0,025
-641,926	95,555	-0,087	0,071
-640,911	800,000	0,012	0,036
-639,897	-200,000	-0,021	-0,069
-638,882	-200,000	-0,014	-0,051
-637,868	185,556	0,062	0,067
-636,853	800,000	0,035	-0,110
-635,838	-118,228	-0,048	0,006
-634,824	-200,000	0,001	0,046
-633,809	800,000	0,057	0,131
-632,795	-200,000	-0,001	-0,142
-631,780	800,000	-0,049	-0,116
-630,765	110,907	-0,051	0,044
-629,751	800,000	-0,064	-0,141
-628,736	361,830	-0,046	-0,066
-627,722	-200,000	0,001	0,136
-626,707	-200,000	0,007	0,225
-625,692	6,692	0,140	-0,075
-624,678	-91,729	0,154	0,031
-623,663	-200,000	0,005	0,018
-622,649	295,159	-0,081	-0,107
-621,634	591,118	0,065	-0,116
-620,619	-2,948	0,049	0,025
-619,605	-200,000	0,003	-0,025
-618,590	-12,873	0,035	0,017
-617,576	800,000	0,047	0,119
-616,561	-10,892	-0,099	-0,047
-615,546	-200,000	-0,011	-0,115
-614,532	381,022	-0,024	-0,035
-613,517	-200,000	0,013	0,191
-612,503	-136,922	-0,114	0,009
-611,488	116,372	-0,073	-0,065
-610,474	-120,338	-0,064	0,008
-609,459	36,601	0,119	-0,075
-608,444	52,943	-0,072	0,050
-607,430	-51,004	0,027	0,009
-606,415	-128,681	-0,197	0,020
-605,401	-200,000	0,003	-0,082
-604,386	-55,655	0,105	0,034
-603,371	-156,767	-0,077	-0,003
-602,357	-200,000	0,001	-0,074
-601,342	-28,725	-0,074	0,031
-600,328	-53,991	-0,044	-0,014
-599,313	800,000	-0,019	-0,039
-598,298	-159,561	-0,056	0,002
-597,284	214,395	-0,078	0,090
-596,269	-200,000	-0,004	0,013
-595,255	-110,614	0,083	-0,012
-594,240	800,000	0,017	-0,035
-593,225	-66,883	0,153	-0,043
-592,211	-200,000	-0,018	-0,076
-591,196	-200,000	0,003	0,079
-590,182	-23,914	-0,076	0,033
-589,167	25,879	0,048	0,028
-588,152	287,523	-0,030	0,039
-587,138	-7,341	0,022	0,011
-586,123	-200,000	0,002	-0,007
-585,109	192,037	-0,125	0,136
-584,094	-127,886	-0,079	-0,008
-583,079	-192,131	0,031	0,000
-582,065	800,000	0,004	0,009
-581,050	-2,470	-0,104	0,052
-580,036	261,957	0,062	0,078
-579,021	-93,540	-0,157	0,031
-578,006	-200,000	0,036	-0,128
-576,992	-110,404	-0,159	0,024
-575,977	40,862	0,045	0,029
-574,963	-113,374	-0,057	-0,008
-573,948	457,244	-0,099	0,159
-572,934	-30,492	0,060	-0,024
-571,919	48,521	-0,022	-0,015
-570,904	-89,767	0,055	-0,012
-569,890	38,652	0,040	-0,026
-568,875	-63,890	0,128	0,037
-567,861	-127,600	-0,137	0,014
-566,846	250,222	0,028	0,034
-565,831	-200,000	-0,011	0,134
-564,817	-200,000	0,008	0,095
-563,802	-16,471	0,054	0,024
-562,788	32,829	-0,190	-0,118
-561,773	-140,054	0,095	0,007
-560,758	505,916	-0,065	0,108
-559,744	599,688	0,057	0,102
-558,729	-200,000	-0,011	-0,038
-557,715	251,525	-0,081	0,099
-556,700	415,622	0,050	0,078
-555,685	485,771	-0,049	0,081
-554,671	-2,786	-0,141	0,071
-553,656	-91,346	0,061	0,012
-552,642	800,000	-0,033	0,065
-551,627	-22,264	-0,141	0,061
-550,612	-200,000	-0,010	0,067
-549,598	129,186	-0,063	-0,058
-548,583	-200,000	-0,000	-0,045
-547,569	-49,739	0,047	-0,016
-546,554	-200,000	-0,004	0,059
-545,539	-40,856	0,086	-0,032
-544,525	3,947	-0,070	-0,037
-543,510	-62,475	0,037	-0,011
-542,496	800,000	-0,028	-0,069
-541,481	278,959	-0,082	0,105
-540,466	-200,000	0,003	-0,071
-539,452	-12,514	-0,061	0,029
-538,437	-86,587	0,103	0,023
-537,423	344,771	-0,050	0,071
-536,408	314,738	-0,040	-0,055
-535,393	-7,034	0,040	0,019
-534,379	-71,741	-0,128	-0,034
-533,364	-97,128	0,058	0,011
-532,350	-137,307	-0,095	0,008
-531,335	800,000	0,040	0,090
-530,321	-136,196	-0,133	-0,011
-529,306	2,423	0,032	0,016
-528,291	410,199	0,072	0,110
-527,277	800,000	-0,012	-0,024
-526,262	93,813	-0,051	-0,042
-525,248	-139,630	0,065	0,005
-524,233	123,925	0,036	0,032
-523,218	-200,000	0,004	0,119
-522,204	-41,650	0,086	0,032
-521,189	-90,247	-0,141	-0,029
-520,175	-40,017	-0,130	-0,049
-519,160	-3,169	-0,129	-0,064
-518,145	98,225	0,040	-0,033
-517,131	-200,000	-0,006	0,058
-516,116	-41,446	-0,123	-0,045
-515,102	-200,000	0,019	-0,096
-514,087	329,342	-0,072	0,100
-513,072	-107,926	0,028	-0,004
-512,058	20,215	0,079	0,046
-511,043	106,010	0,051	-0,043
-510,029	-200,000	-0,001	-0,063
-509,014	63,120	-0,126	0,091
-507,999	-200,000	-0,005	0,026
-506,985	371,586	0,064	-0,093
-505,970	800,000	-0,055	-0,129
-504,956	245,341	-0,078	-0,095
-503,941	-52,957	0,077	-0,025
-502,926	800,000	-0,035	0,079
-501,912	-200,000	-0,007	0,179
-500,897	-200,000	-0,021	0,070
-499,883	-106,919	0,040	0,006
-498,868	226,683	0,061	0,071
-497,853	18,774	0,112	0,064
-496,839	-56,026	-0,057	0,018
-495,824	181,412	0,076	0,081
-494,810	4,608	0,201	0,105
-493,795	15,406	0,119	0,067
-492,781	330,458	-0,032	-0,044
-491,766	306,190	0,097	-0,130
-490,751	-10,334	-0,138	-0,065
-489,737	-26,586	0,092	-0,038
-488,722	516,486	0,049	-0,083
-487,708	800,000	-0,057	0,128
-486,693	-57,570	0,016	-0,005
-485,678	-123,928	0,058	0,006
-484,664	-132,280	-0,068	-0,006
-483,649	250,794	0,095	-0,116
-482,635	211,915	-0,016	-0,018
-481,620	354,216	0,039	0,056
-480,605	23,489	-0,022	0,013
-479,591	-200,000	-0,001	0,115
-478,576	24,221	0,090	0,053
-477,562	-200,000	-0,018	0,103
-476,547	514,727	-0,052	0,087
-475,532	112,467	0,076	0,066
-474,518	583,494	-0,042	0,074
-473,503	-200,000	0,022	0,101
-472,489	116,338	0,052	0,046
-471,474	-75,002	-0,184	-0,047
-470,459	449,619	-0,012	-0,019
-469,445	-28,096	0,109	-0,045
-468,430	-142,653	-0,268	-0,019
-467,416	800,000	0,031	-0,083
-466,401	800,000	-0,012	0,038
-465,386	-3,118	0,139	0,069
-464,372	-200,000	0,028	-0,126
-463,357	700,984	-0,079	-0,150
-462,343	28,965	-0,109	-0,066
-461,328	188,112	0,043	-0,046
-460,313	122,705	0,113	-0,101
-459,299	-114,232	0,152	-0,021
-458,284	102,492	0,056	0,047
-457,270	-200,000	-0,004	-0,060
-456,255	-10,630	0,069	-0,033
-455,241	531,505	0,084	-0,142
-454,226	16,050	-0,096	-0,054
-453,211	-147,055	0,161	0,010
-452,197	173,361	-0,020	-0,020
-451,182	-200,000	0,029	0,099
-450,168	24,000	0,097	0,057
-449,153	-200,000	-0,013	0,070
-448,138	62,428	-0,144	0,103
-447,124	-87,441	-0,068	0,015
-446,109	333,563	0,071	-0,098
-445,095	-82,505	-0,089	-0,021
-444,080	-125,058	0,095	-0,010
-443,065	-55,115	-0,156	0,050
-442,051	800,000	0,010	-0,024
-441,036	-113,432	-0,012	-0,002
-440,022	800,000	-0,041	-0,103
-439,007	800,000	-0,011	0,024
-437,992	-200,000	0,020	0,081
-436,978	800,000	0,091	0,195
-435,963	204,804	0,074	0,082
-434,949	48,296	-0,049	-0,033
-433,934	99,362	0,061	0,051
-432,919	244,931	0,088	-0,106
-431,905	140,444	0,109	-0,103
-430,890	405,509	0,048	0,073
-429,876	172,649	0,089	0,092
-428,861	800,000	-0,039	-0,089
-427,846	800,000	0,063	0,148
-426,832	-83,347	-0,062	0,014
-425,817	800,000	0,030	-0,069
-424,803	-84,533	0,103	0,023
-423,788	68,788	0,112	0,082
-422,773	111,410	0,048	-0,041
-421,759	800,000	-0,050	0,113
-420,744	101,447	-0,074	-0,062
-419,730	208,040	-0,044	-0,050
-418,715	-200,000	0,029	-0,114
-417,701	800,000	0,020	0,047
-416,686	306,644	-0,080	0,107
-415,671	26,664	0,094	-0,056
-414,657	95,629	0,074	0,061
-413,642	800,000	-0,050	0,145
-412,628	-179,806	0,057	0,001
-411,613	-186,958	-0,173	0,002
-410,598	-200,000	-0,008	-0,084
-409,584	-200,000	0,004	0,131
-408,569	-105,335	-0,066	0,011
-407,555	800,000	-0,027	0,069
-406,540	-200,000	-0,017	0,064
-405,525	-200,000	-0,024	0,149
-404,511	-43,950	0,010	-0,004
-403,496	-200,000	0,029	-0,165
-402,482	-200,000	-0,003	-0,240
-401,467	-115,489	-0,042	0,006
-400,452	-89,942	0,083	0,017
-399,438	-61,428	-0,051	-0,015
-398,423	-61,715	-0,123	0,037
-397,409	-200,000	-0,004	0,036
-396,394	-179,845	-0,057	0,001
-395,379	-200,000	0,013	-0,128
-394,365	158,270	0,051	0,051
-393,350	-30,623	0,089	-0,036
-392,336	-76,697	0,089	-0,022
-391,321	92,356	0,101	-0,082
-390,306	429,381	-0,043	-0,066
-389,292	800,000	-0,085	-0,199
-388,277	70,804	0,032	-0,024
-387,263	-136,953	0,054	-0,004
-386,248	103,130	-0,086	0,072
-385,233	276,620	0,038	0,048
-384,219	-200,000	0,019	-0,116
-383,204	-70,872	-0,219	-0,059
-382,190	39,731	-0,120	-0,077
-381,175	-200,000	-0,011	-0,072
-380,160	74,229	-0,091	0,068
-379,146	122,654	0,013	-0,011
-378,131	111,493	0,075	0,064
-377,117	253,645	-0,034	0,042
-376,102	-63,046	0,059	0,017
-375,088	-200,000	0,022	-0,132
-374,073	-62,374	-0,054	-0,016
-373,058	-5,833	-0,136	-0,066
-372,044	569,056	0,031	-0,054
-371,029	-71,341	-0,044	-0,012
-370,015	-200,000	-0,001	0,087
-369,000	555,591	-0,039	0,068
-367,985	-200,000	-0,024	-0,100
-366,971	800,000	-0,022	0,065
-365,956	-61,406	-0,001	0,000
-364,942	8,126	0,089	0,047
-363,927	-55,060	-0,041	-0,013
-362,912	154,502	0,038	0,037
-361,898	-60,402	-0,032	-0,010
-360,883	53,481	0,091	-0,062
-359,869	-200,000	0,003	-0,029
-358,854	-41,447	-0,051	0,019
-357,839	800,000	-0,051	0,148
-356,825	581,458	0,039	0,068
-355,810	-200,000	-0,019	0,116
-354,796	-77,538	-0,044	-0,011
-353,781	-200,000	-0,029	-0,094
-352,766	-82,082	-0,079	-0,018
-351,752	121,884	-0,049	0,044
-350,737	19,466	0,106	0,061
-349,723	-170,608	0,116	-0,003
-348,708	-29,793	0,215	-0,087
-347,693	800,000	-0,039	-0,084
-346,679	171,446	0,108	-0,111
-345,664	-200,000	-0,013	-0,043
-344,650	800,000	0,008	0,019
-343,635	86,375	0,094	0,074
-342,620	58,887	0,154	0,108
-341,606	-127,261	0,059	0,006
-340,591	-200,000	-0,009	-0,118
-339,577	-42,300	-0,018	0,007
-338,562	206,655	0,036	-0,040
-337,548	-200,000	-0,027	-0,101
-336,533	6,125	0,120	0,063
-335,518	-200,000	-0,007	0,051
-334,504	37,209	0,108	0,068
-333,489	800,000	0,019	0,040
-332,475	618,783	-0,032	0,057
-331,460	-89,694	0,113	0,023
-330,445	-65,962	0,039	0,011
-329,431	187,754	0,009	0,010
-328,416	118,834	0,112	-0,099
-327,402	316,305	0,055	-0,074
-326,387	800,000	0,010	-0,025
-325,372	228,115	-0,074	-0,086
-324,358	-89,770	-0,043	0,009
-323,343	-12,699	0,026	0,012
-322,329	5,320	0,051	0,027
-321,314	-76,496	0,063	-0,016
-320,299	18,173	0,209	0,118
-319,285	-85,353	-0,092	-0,020
-318,270	-31,623	-0,113	0,045
-317,256	619,138	-0,023	-0,042
-316,241	-126,374	0,181	0,019
-315,226	163,711	0,021	-0,021
-314,212	-200,000	0,019	-0,062
-313,197	446,408	0,025	-0,040
-312,183	-115,824	-0,068	-0,009
-311,168	456,686	-0,020	-0,032
-310,153	-53,171	0,046	-0,015
-309,139	-94,416	0,044	-0,009
-308,124	-43,998	-0,049	0,017
-307,110	286,053	-0,089	0,115
-306,095	552,068	0,048	0,083
-305,080	91,756	-0,022	-0,018
-304,066	-108,172	0,021	0,003
-303,051	-200,000	0,001	-0,024
-302,037	-5,508	-0,056	-0,027
-301,022	668,970	0,045	-0,083
-300,008	-200,000	0,007	0,173
-298,993	-200,000	0,020	0,073
-297,978	800,000	0,027	0,063
-296,964	-29,116	0,133	0,054
-295,949	-63,330	-0,193	-0,056
-294,935	93,200	-0,114	-0,092
-293,920	-133,983	-0,137	0,012
-292,905	-200,000	0,005	0,060
-291,891	144,105	0,080	0,076
-290,876	800,000	0,027	0,078
-289,862	-200,000	-0,009	0,032
-288,847	-82,057	-0,132	-0,031
-287,832	800,000	0,003	-0,008
-286,818	-200,000	0,010	0,037
-285,803	33,336	0,073	-0,045
-284,789	-27,241	0,119	0,049
-283,774	-200,000	0,005	0,173
-282,759	-178,503	-0,034	-0,001
-281,745	-72,545	-0,113	0,030
-280,730	-78,276	0,062	-0,015
-279,716	800,000	-0,045	-0,110
-278,701	-200,000	0,005	-0,077
-277,686	381,034	0,085	0,124
-276,672	-109,904	-0,040	0,006
-275,657	-200,000	-0,008	0,056
-274,643	800,000	0,070	-0,186
-273,628	375,205	-0,026	0,038
-272,613	-39,991	0,069	0,026
-271,599	-101,887	0,071	0,012
-270,584	155,818	0,143	0,141
-269,570	15,492	-0,062	-0,035
-268,555	800,000	-0,045	0,095
-267,540	-200,000	-0,002	0,021
-266,526	84,975	0,054	0,042
-265,511	-116,672	-0,112	-0,015
-264,497	-200,000	-0,043	-0,238
-263,482	-200,000	-0,018	0,070
-262,467	86,726	0,086	-0,068
-261,453	-127,841	0,094	0,010
-260,438	62,205	0,029	-0,020
-259,424	800,000	0,054	-0,145
-258,409	-46,050	0,152	-0,053
-257,395	126,912	-0,067	0,060
-256,380	-154,925	0,079	0,004
-255,365	83,536	-0,100	-0,078
-254,351	800,000	0,069	0,149
-253,336	130,860	-0,072	-0,065
-252,322	-101,616	-0,117	-0,020
-251,307	-200,000	-0,005	-0,031
-250,292	327,122	0,066	-0,090
-249,278	146,698	0,025	-0,024
-248,263	800,000	0,021	-0,050
-247,249	-200,000	0,003	-0,066
-246,234	189,304	-0,039	0,042
-245,219	-142,323	-0,116	-0,008
-244,205	-12,003	-0,100	0,046
-243,190	-119,755	0,137	0,017
-242,176	-200,000	-0,021	-0,070
-241,161	-200,000	0,001	-0,035
-240,146	-109,532	-0,110	0,016
-239,132	-66,475	-0,113	-0,032
-238,117	-153,178	-0,031	-0,002
-237,103	333,694	0,013	0,018
-236,088	35,118	-0,020	-0,013
-235,073	-127,762	0,063	0,006
-234,059	127,807	0,067	0,060
-233,044	32,922	-0,097	-0,059
-232,030	-152,297	-0,169	-0,009
-231,015	414,702	-0,082	-0,124
-230,000	-200,000	-0,028	-0,113
-228,986	-200,000	-0,004	-0,035
-227,971	-51,618	-0,111	-0,037
-226,957	9,447	-0,016	-0,009
-225,942	-69,983	0,065	0,017
-224,927	750,708	-0,041	-0,079
-223,913	23,176	-0,175	-0,102
-222,898	225,186	0,125	-0,145
-221,884	-200,000	-0,012	0,117
-220,869	-200,000	-0,008	-0,055
-219,855	800,000	0,015	0,034
-218,840	-52,390	0,130	-0,042
-217,825	-100,835	-0,041	-0,007
-216,811	800,000	-0,028	-0,056
-215,796	800,000	0,037	-0,096
-214,782	-176,414	0,039	0,001
-213,767	48,039	0,120	0,079
-212,752	-200,000	0,022	0,145
-211,738	244,263	0,090	0,107
-210,723	-126,585	0,047	0,005
-209,709	-74,630	-0,088	0,022
-208,694	80,224	0,052	-0,039
-207,679	-113,183	0,030	0,004
-206,665	-200,000	-0,022	0,088
-205,650	800,000	-0,030	0,072
-204,636	-52,783	-0,072	0,023
-203,621	800,000	0,041	-0,115
-202,606	800,000	0,038	-0,093
-201,592	800,000	-0,022	-0,053
-200,577	-200,000	-0,003	0,053
-199,563	153,870	-0,131	0,128
-198,548	-96,777	0,126	-0,023
-197,533	-200,000	0,007	0,062
-196,519	-17,320	0,066	-0,029
-195,504	800,000	-0,042	-0,127
-194,490	-200,000	-0,000	-0,034
-193,475	229,022	-0,048	-0,056
-192,460	383,980	-0,097	-0,143
-191,446	604,678	-0,061	-0,108
-190,431	800,000	0,023	0,066
-189,417	103,798	0,123	0,103
-188,402	-200,000	-0,007	-0,092
-187,387	237,049	-0,077	0,091
-186,373	800,000	0,044	-0,102
-185,358	800,000	-0,024	0,072
-184,344	-200,000	0,008	0,091
-183,329	233,251	-0,059	0,069
-182,315	-140,790	0,023	-0,002
-181,300	168,373	-0,042	-0,042
-180,285	498,781	-0,080	-0,131
-179,271	40,566	0,085	-0,054
-178,256	-62,011	0,029	0,009
-177,242	690,145	-0,019	-0,035
-176,227	800,000	0,038	-0,117
-175,212	-46,099	0,101	0,035
-174,198	-200,000	-0,016	-0,097
-173,183	-200,000	0,019	-0,061
-172,169	16,031	-0,023	-0,013
-171,154	-173,946	0,052	0,001
-170,139	380,196	0,064	0,093
-169,125	248,249	0,072	-0,086
-168,110	-149,532	0,063	0,004
-167,096	-200,000	-0,014	0,102
-166,081	-148,135	-0,121	0,007
-165,066	-200,000	-0,007	0,039
-164,052	-200,000	0,008	-0,048
-163,037	125,700	-0,037	-0,033
-162,023	-49,007	0,065	0,022
-161,008	-0,800	-0,038	-0,019
-159,993	-200,000	0,011	0,077
-158,979	392,939	0,023	0,034
-157,964	-200,000	0,040	-0,165
-156,950	438,861	-0,053	-0,082
-155,935	-45,577	0,136	-0,047
-154,920	-144,200	0,058	-0,004
-153,906	-46,814	-0,126	0,044
-152,891	-200,000	-0,005	-0,108
-151,877	231,733	0,062	-0,072
-150,862	509,404	-0,033	-0,055
-149,847	-153,294	0,088	0,004
-148,833	-200,000	-0,006	0,061
-147,818	123,373	-0,121	0,107
-146,804	800,000	0,072	0,145
-145,789	-65,930	-0,124	0,035
-144,775	8,631	0,031	0,017
-143,760	-200,000	-0,002	0,017
-142,745	-200,000	-0,012	-0,172
-141,731	800,000	0,018	-0,039
-140,716	-200,000	-0,011	0,086
-139,702	36,397	-0,105	0,065
-138,687	115,264	0,084	-0,073
-137,672	-101,095	-0,026	0,004
-136,658	-88,346	0,066	0,014
-135,643	800,000	-0,067	-0,131
-134,629	-1,854	-0,102	-0,051
-133,614	-112,807	0,094	0,013
-132,599	-200,000	0,003	0,138
-131,585	-158,955	0,007	0,000
-130,570	-121,201	0,188	-0,022
-129,556	-66,877	-0,036	0,010
-128,541	105,980	-0,080	-0,067
-127,526	363,750	0,078	-0,111
-126,512	-93,955	0,092	0,018
-125,497	-200,000	-0,028	0,115
-124,483	155,932	-0,062	-0,061
-123,468	280,394	0,051	-0,064
-122,453	-119,474	0,039	-0,005
-121,439	-101,233	0,056	-0,010
-120,424	-124,091	-0,079	-0,009
-119,410	-200,000	-0,014	-0,065
-118,395	-37,408	0,070	-0,026
-117,380	-200,000	-0,006	-0,071
-116,366	-200,000	-0,003	0,114
-115,351	800,000	0,011	0,027
-114,337	7,637	-0,028	-0,015
-113,322	-200,000	-0,020	-0,087
-112,307	-151,724	-0,061	0,003
-111,293	-200,000	-0,028	-0,096
-110,278	-200,000	0,004	0,022
-109,264	-200,000	0,003	0,021
-108,249	800,000	-0,058	-0,114
-107,234	-200,000	-0,024	-0,100
-106,220	337,536	-0,088	0,121
-105,205	44,988	-0,127	0,083
-104,191	219,224	0,096	-0,108
-103,176	-200,000	0,012	0,048
-102,162	309,079	0,047	0,062
-101,147	-200,000	0,022	-0,078
-100,132	262,512	0,124	-0,152
-99,118	800,000	-0,027	-0,064
-98,103	75,325	0,097	0,072
-97,089	-200,000	-0,012	0,054
-96,074	-61,586	0,093	-0,027
-95,059	-200,000	0,003	0,091
-94,045	-200,000	-0,013	0,051
-93,030	-200,000	-0,021	0,134
-92,016	-83,921	-0,054	-0,012
-91,001	-17,436	0,126	-0,056
-89,986	-103,445	-0,040	0,007
-88,972	170,135	0,051	0,051
-87,957	-200,000	-0,011	0,188
-86,943	9,557	-0,184	-0,098
-85,928	-200,000	0,018	0,146
-84,913	-200,000	0,033	-0,178
-83,899	-153,830	-0,050	0,002
-82,884	-103,990	0,089	-0,015
-81,870	118,043	-0,032	-0,027
-80,855	355,289	-0,030	-0,042
-79,840	644,233	0,052	-0,094
-78,826	-128,705	-0,096	0,009
-77,811	-120,537	0,080	0,009
-76,797	-200,000	-0,024	-0,097
-75,782	108,301	0,075	0,063
-74,767	-200,000	0,020	0,070
-73,753	-24,824	-0,080	0,033
-72,738	-190,503	-0,052	-0,000
-71,724	-200,000	0,036	0,143
-70,709	-195,624	-0,077	-0,000
-69,694	-200,000	-0,010	-0,066
-68,680	800,000	-0,006	-0,014
-67,665	122,468	0,102	-0,090
-66,651	9,085	-0,052	-0,028
-65,636	-94,480	-0,087	-0,017
-64,622	-27,193	0,106	-0,043
-63,607	6,684	-0,160	-0,084
-62,592	-30,687	0,123	0,049
-61,578	140,323	0,051	0,048
-60,563	231,740	-0,042	-0,049
-59,549	536,177	-0,076	0,128
-58,534	2,013	-2,103	-1,069
-57,519	645,081	-1,136	-2,055
-56,505	-200,000	-0,375	-4,254
-55,490	720,625	0,864	1,629
-54,476	800,000	5,211	11,180
-53,461	-200,000	21,322	340,487
-52,446	800,000	759,822	2359,610
-51,432	559,628	1662,538	2844,940
-50,417	73,593	1661,568	1227,141
-49,403	18,027	1534,964	861,278
-48,388	11,995	1458,410	789,145
-47,373	19,364	1449,568	819,696
-46,359	15,435	1438,699	794,833
-45,344	10,201	1434,838	767,743
-44,330	10,156	1432,799	766,402
-43,315	10,148	1430,967	765,358
-42,300	10,148	1429,197	764,379
-41,286	10,185	1427,984	763,874
-40,271	10,141	1426,675	762,939
-39,257	10,175	1425,585	762,485
-38,242	10,268	1424,241	762,176
-37,227	10,193	1423,359	761,317
-36,213	10,220	1422,043	760,713
-35,198	10,176	1420,999	759,917
-34,184	10,234	1420,031	759,641
-33,169	10,208	1418,455	758,644
-32,154	10,227	1417,662	758,284
-31,140	10,252	1416,260	757,618
-30,125	10,227	1415,346	756,982
-29,111	10,257	1413,964	756,355
-28,096	10,247	1412,961	755,742
-27,082	10,165	1411,651	754,627
-26,067	10,109	1410,813	753,885
-25,052	10,173	1409,656	753,537
-24,038	10,213	1408,495	753,074
-23,023	10,183	1407,785	752,524
-22,009	10,155	1406,626	751,743
-20,994	10,123	1405,687	751,064
-19,979	10,172	1404,740	750,756
-18,965	10,129	1403,748	749,994
-17,950	10,142	1402,754	749,493
-16,936	10,095	1402,289	748,997
-15,921	10,027	1401,224	748,080
-14,906	10,016	1400,379	747,551
-13,892	10,089	1399,191	747,224
-12,877	10,072	1398,439	746,715
-11,863	10,029	1397,861	746,178
-10,848	10,045	1396,749	745,628
-9,833	9,986	1395,847	744,842
-8,819	10,012	1394,929	744,442
-7,804	10,016	1394,084	743,983
-6,790	9,962	1393,072	743,162
-5,775	10,012	1391,781	742,674
-4,760	9,998	1390,935	742,130
-3,746	9,977	1390,090	741,552
-2,731	9,975	1389,183	741,029
-1,717	9,948	1388,412	740,465
-0,702	9,988	1386,511	739,606
0,313	14,097	1299,517	711,981
1,327	30,347	690,092	414,921
2,342	47,259	119,514	78,368
3,356	0,906	16,465	8,295
4,371	-4,198	3,530	1,718
5,386	3,710	1,062	0,545
6,400	-200,000	0,148	0,594
7,415	87,012	-0,094	-0,073
8,429	202,155	-0,178	-0,194
9,444	-28,592	-0,299	-0,121
10,459	-77,340	-0,239	-0,058
11,473	163,371	-0,235	-0,233
12,488	83,043	-0,283	-0,217
13,502	88,376	-0,234	-0,183
14,517	-39,236	-0,445	-0,164
15,531	36,149	-0,277	-0,171
16,546	81,285	-0,239	-0,182
17,561	125,054	-0,249	-0,221
18,575	-136,455	-0,207	-0,017
19,590	-53,548	-0,300	-0,096
20,604	167,555	-0,097	-0,097
21,619	5,169	-0,372	-0,193
22,634	60,274	-0,360	-0,250
23,648	140,659	-0,408	-0,380
24,663	24,482	-0,444	-0,258
25,677	201,888	-0,216	-0,235
26,692	191,275	-0,276	-0,293
27,707	76,899	-0,325	-0,243
28,721	-21,499	-0,403	-0,172
29,736	81,059	-0,329	-0,250
30,750	178,690	-0,347	-0,357
31,765	48,255	-0,344	-0,226
32,780	157,009	-0,310	-0,302
33,794	123,333	-0,294	-0,259
34,809	102,370	-0,263	-0,216
35,823	92,476	-0,318	-0,252
36,838	19,198	-0,332	-0,187
37,853	118,355	-0,390	-0,338
38,867	132,987	-0,314	-0,285
39,882	67,509	-0,279	-0,200
40,896	57,946	-0,406	-0,279
41,911	88,307	-0,219	-0,171
42,926	153,632	-0,293	-0,283
43,940	339,894	-0,209	-0,287
44,955	42,639	-0,376	-0,240
45,969	234,294	-0,302	-0,351
46,984	-55,005	-0,282	-0,089
47,999	113,147	-0,323	-0,275
49,013	-27,161	-0,365	-0,149
50,028	-111,302	-0,132	-0,019
51,042	148,494	-0,341	-0,324
52,057	-2,492	-0,244	-0,120
53,071	114,277	-0,240	-0,205
54,086	124,433	-0,325	-0,287
55,101	-90,383	-0,264	-0,053
56,115	11,257	-0,310	-0,166
57,130	-66,900	-0,438	-0,121
58,144	195,759	-0,265	-0,283
59,159	36,051	-0,376	-0,232
60,174	250,122	-0,279	-0,333
61,188	66,204	-0,301	-0,214
62,203	15,870	-0,287	-0,158
63,217	339,457	-0,205	-0,281
64,232	4,084	-0,329	-0,168
65,247	75,749	-0,377	-0,279
66,261	22,110	-0,405	-0,231
67,276	-8,996	-0,391	-0,183
68,290	27,872	-0,267	-0,157
69,305	60,255	-0,286	-0,198
70,320	-44,199	-0,254	-0,089
71,334	55,509	-0,365	-0,248
72,349	330,846	-0,182	-0,246
73,363	9,290	-0,487	-0,257
74,378	-3,405	-0,337	-0,164
75,393	60,702	-0,281	-0,195
76,407	33,425	-0,256	-0,155
77,422	-18,842	-0,249	-0,108
78,436	-100,629	-0,334	-0,057
79,451	96,096	-0,222	-0,178
80,466	-68,780	-0,436	-0,117
81,480	110,038	-0,252	-0,211
82,495	-93,896	-0,363	-0,069
83,509	-30,621	-0,251	-0,099
84,524	484,577	-0,179	-0,286
85,539	75,955	-0,187	-0,139
86,553	-78,906	-0,254	-0,060
87,568	100,653	-0,346	-0,281
88,582	60,025	-0,270	-0,187
89,597	241,244	-0,217	-0,254
90,611	642,707	-0,133	-0,239
91,626	54,689	-0,244	-0,164
92,641	-29,993	-0,277	-0,110
93,655	19,197	-0,233	-0,131
94,670	188,796	-0,212	-0,222
95,684	135,809	-0,305	-0,278
96,699	448,827	-0,227	-0,351
97,714	97,137	-0,273	-0,219
98,728	66,167	-0,254	-0,180
99,743	616,115	-0,119	-0,209
100,757	190,485	-0,309	-0,325
101,772	35,599	-0,215	-0,132
102,787	46,257	-0,254	-0,165
103,801	27,166	-0,227	-0,133
104,816	113,687	-0,300	-0,255
105,830	-36,921	-0,235	-0,088
106,845	135,551	-0,223	-0,203
107,860	-8,165	-0,292	-0,137
108,874	250,869	-0,257	-0,306
109,889	7,925	-0,366	-0,191
110,903	12,561	-0,230	-0,124
111,918	-14,290	-0,227	-0,102
112,933	296,801	-0,133	-0,171
113,947	-77,011	-0,280	-0,068
114,962	11,762	-0,178	-0,095
115,976	-10,157	-0,315	-0,146
116,991	-0,200	-0,138	-0,068
118,006	51,421	-0,228	-0,151
119,020	-44,761	-0,262	-0,091
120,035	336,856	-0,158	-0,215
121,049	-138,100	-0,148	0,011
122,064	-9,151	-0,274	-0,127
123,079	453,853	-0,255	-0,396
124,093	150,938	-0,326	-0,310
125,108	-23,323	-0,205	-0,086
126,122	88,645	-0,197	-0,153
127,137	91,263	-0,197	-0,154
128,151	57,181	-0,273	-0,186
129,166	0,885	-0,309	-0,154
130,181	46,131	-0,323	-0,208
131,195	20,164	-0,330	-0,185
132,210	19,372	-0,268	-0,150
133,224	-40,273	-0,238	-0,086
134,239	432,348	-0,128	-0,195
135,254	236,647	-0,177	-0,205
136,268	20,628	-0,231	-0,130
137,283	129,113	-0,285	-0,254
138,297	-63,301	-0,183	-0,052
139,312	800,000	-0,167	-0,330
140,327	377,144	-0,158	-0,226
141,341	-152,212	-0,335	-0,017
142,356	-11,725	-0,284	-0,130
143,370	45,392	-0,269	-0,172
144,385	-8,268	-0,266	-0,124
145,400	74,267	-0,242	-0,177
146,414	800,000	-0,098	-0,275
147,429	110,701	-0,230	-0,193
148,443	178,360	-0,187	-0,191
149,458	89,042	-0,303	-0,235
150,473	283,535	-0,199	-0,249
151,487	-37,110	-0,141	-0,052
152,502	-134,814	-0,242	-0,020
153,516	-51,324	-0,257	-0,083
154,531	135,873	-0,274	-0,248
155,546	-148,929	-0,241	-0,013
156,560	354,063	-0,174	-0,241
157,575	4,387	-0,257	-0,131
158,589	-200,000	-0,047	-0,221
159,604	136,941	-0,217	-0,198
160,619	-164,644	-0,170	0,005
161,633	300,416	-0,209	-0,269
162,648	213,540	-0,191	-0,210
163,662	56,422	-0,124	0,084
164,677	-175,973	-0,243	-0,004
165,692	42,411	-0,222	-0,140
166,706	-139,360	-0,334	0,025
167,721	40,835	-0,230	-0,144
168,735	143,906	-0,185	-0,171
169,750	-200,000	-0,054	-0,225
170,764	-56,978	-0,296	-0,090
171,779	-48,507	-0,145	-0,048
172,794	76,421	-0,175	-0,128
173,808	-164,458	-0,188	-0,006
174,823	126,825	-0,217	-0,191
175,837	94,062	-0,267	-0,210
176,852	34,190	-0,248	-0,150
177,867	248,962	-0,197	-0,232
178,881	155,202	-0,173	-0,165
179,896	150,502	-0,175	-0,165
180,910	375,541	-0,182	-0,258
181,925	-12,115	-0,213	-0,096
182,940	183,147	-0,127	-0,131
183,954	23,645	-0,315	-0,180
184,969	-170,934	-0,161	-0,004
185,983	-167,168	-0,208	-0,006
186,998	74,192	-0,183	-0,133
188,013	15,012	-0,179	-0,097
189,027	-43,037	-0,228	-0,080
190,042	178,554	-0,168	-0,171
191,056	-13,447	-0,279	-0,125
192,071	746,173	-0,162	-0,304
193,086	20,549	-0,128	-0,072
194,100	-56,623	-0,129	-0,039
195,115	-37,824	-0,217	-0,080
196,129	314,368	-0,155	-0,202
197,144	12,990	-0,203	-0,108
198,159	101,894	-0,217	-0,176
199,173	1,984	-0,219	-0,109
200,188	38,813	-0,168	-0,104
201,202	-19,978	-0,150	-0,064
202,217	800,000	-0,080	-0,177
203,232	766,660	-0,136	-0,257
204,246	208,466	-0,223	-0,242
205,261	76,273	-0,209	-0,153
206,275	160,531	-0,178	-0,173
207,290	2,330	-0,175	-0,088
208,304	101,655	-0,166	-0,134
209,319	-76,508	-0,279	-0,067
210,334	-0,096	-0,237	-0,117
211,348	-58,316	-0,170	-0,051
212,363	111,296	-0,211	-0,176
213,377	-73,307	-0,062	0,016
214,392	146,093	-0,124	-0,115
215,407	87,147	-0,117	-0,090
216,421	89,643	-0,187	-0,144
217,436	-67,597	-0,259	0,070
218,450	103,780	-0,101	-0,082
219,465	132,171	-0,216	-0,193
220,480	-69,041	-0,128	-0,034
221,494	-200,000	0,022	-0,104
222,509	420,043	-0,105	-0,156
223,523	0,330	-0,162	-0,080
224,538	398,052	-0,119	-0,173
225,553	16,448	-0,208	-0,113
226,567	465,504	-0,176	-0,274
227,582	142,756	-0,180	-0,165
228,596	800,000	-0,064	-0,131
229,611	-59,225	-0,141	0,042
230,626	-160,631	-0,233	-0,008
231,640	141,053	-0,172	-0,157
232,655	181,910	-0,192	-0,196
233,669	9,694	-0,264	-0,138
234,684	-55,035	-0,216	-0,067
235,699	103,774	-0,259	-0,210
236,713	11,491	-0,230	-0,121
237,728	-96,612	-0,270	-0,049
238,742	151,228	-0,211	-0,198
239,757	57,747	-0,248	-0,167
240,772	-127,859	-0,151	-0,015
241,786	55,666	-0,251	-0,167
242,801	800,000	-0,052	-0,151
243,815	-59,263	-0,167	-0,049
244,830	501,057	-0,065	-0,105
245,844	139,672	-0,150	-0,137
246,859	-55,306	-0,191	-0,059
247,874	57,833	-0,312	-0,211
248,888	800,000	-0,154	-0,316
249,903	109,201	-0,107	-0,088
250,917	-80,116	-0,127	0,029
251,932	187,715	-0,178	-0,184
252,947	-200,000	-0,039	-0,141
253,961	98,092	-0,186	-0,148
254,976	94,368	-0,280	-0,219
255,990	89,911	-0,183	-0,141
257,005	266,177	-0,132	-0,159
258,020	63,927	-0,177	-0,122
259,034	449,794	-0,099	-0,152
260,049	73,448	-0,168	-0,121
261,063	132,439	-0,111	-0,098
262,078	86,940	-0,172	-0,131
263,093	202,473	-0,127	-0,135
264,107	263,768	-0,187	-0,224
265,122	405,263	-0,099	-0,144
266,136	124,996	-0,196	-0,171
267,151	250,892	-0,069	-0,081
268,166	-62,746	-0,150	0,042
269,180	170,668	-0,200	-0,198
270,195	15,049	-0,192	-0,103
271,209	233,601	-0,176	-0,200
272,224	-53,394	-0,067	-0,021
273,239	146,553	-0,108	-0,100
274,253	195,060	-0,114	-0,119
275,268	245,883	-0,116	-0,135
276,282	-67,613	-0,079	-0,021
277,297	288,846	-0,140	-0,175
278,312	365,768	-0,166	-0,231
279,326	-54,041	-0,163	-0,051
280,341	-84,930	-0,179	-0,038
281,355	-30,741	-0,144	-0,056
282,370	-55,759	-0,135	-0,041
283,384	-144,953	-0,208	-0,013
284,399	147,886	-0,121	-0,112
285,414	1,897	-0,236	-0,117
286,428	800,000	-0,044	-0,089
287,443	10,517	-0,070	-0,037
288,457	364,066	-0,167	-0,232
289,472	-200,000	0,007	-0,025
290,487	563,244	-0,072	-0,121
291,501	504,441	-0,128	-0,205
292,516	-200,000	-0,010	-0,161
293,530	-113,372	-0,119	-0,016
294,545	55,079	-0,284	-0,188
295,560	327,848	-0,171	-0,226
296,574	-77,362	-0,155	-0,037
297,589	-118,785	-0,150	0,018
298,603	34,907	-0,228	-0,137
299,618	-200,000	-0,041	-0,152
300,633	359,222	-0,044	-0,060
301,647	30,912	-0,127	-0,075
302,662	800,000	-0,004	-0,012
303,676	-200,000	-0,023	-0,090
304,691	38,548	-0,204	-0,125
305,706	-96,139	-0,156	0,028
306,720	-41,497	-0,164	-0,058
307,735	182,612	-0,117	-0,119
308,749	93,585	-0,151	-0,117
309,764	30,778	-0,248	-0,146
310,779	-11,632	-0,186	-0,084
311,793	153,379	-0,164	-0,154
312,808	-122,064	-0,113	-0,013
313,822	-200,000	-0,032	-0,130
314,837	253,015	-0,109	-0,127
315,852	11,939	-0,171	-0,090
316,866	110,494	-0,140	-0,116
317,881	63,775	-0,120	-0,082
318,895	11,214	-0,223	-0,117
319,910	404,556	-0,058	-0,083
320,925	302,918	-0,121	-0,154
321,939	-105,764	-0,113	-0,017
322,954	-81,924	-0,116	-0,026
323,968	-200,000	0,001	0,012
324,983	-35,272	-0,123	-0,046
325,997	-200,000	-0,062	-0,224
327,012	82,384	-0,214	-0,159
328,027	-131,462	-0,117	-0,010
329,041	593,591	-0,127	-0,217
330,056	-146,332	-0,186	0,011
331,070	61,728	-0,182	-0,124
332,085	-159,250	-0,189	-0,007
333,100	-108,222	-0,072	-0,011
334,114	38,854	-0,171	-0,104
335,129	244,866	-0,166	-0,192
336,143	55,077	-0,201	-0,133
337,158	178,880	-0,096	-0,096
338,173	658,526	-0,076	-0,134
339,187	-57,720	-0,120	-0,036
340,202	-98,623	-0,199	-0,034
341,216	-200,000	-0,033	-0,159
342,231	49,583	-0,122	-0,079
343,246	136,777	-0,183	-0,163
344,260	-200,000	-0,010	0,059
345,275	568,133	-0,065	-0,108
346,289	-18,439	-0,166	-0,071
347,304	476,259	-0,105	-0,163
348,319	800,000	-0,124	-0,238
349,333	95,977	-0,175	-0,137
350,348	472,578	-0,088	-0,135
351,362	38,342	-0,097	-0,059
352,377	95,988	-0,065	0,051
353,392	-115,722	-0,121	0,015
354,406	425,665	-0,183	-0,270
355,421	206,742	1309,856	1397,403
356,435	159,006	1469,970	1397,870
