DTS Sentinel unit serial number:	SN410029Multiplexer serial number:	ORYXHardware model number:	OX2-SRSoftware version number:	ORYX F/W v4,00 Oryx Data Collector v3.7.2.0data status	okinstallation	B3 Nyhavnadifferential loss correction	single-endedforward channel	channel 1reverse channel	N/Adate	2023/11/30time	15:37:30forward acquisition time	300,00reverse acquisition time	0,00gamma	499,1914k internal	0,3207k external	0,3207temperature offset calibration	1,0000default loss term (dB/km)	0,3820temperature slope calibration	1,0000multiplexer offset coefficient	1,0000multiplexer slope coefficient	1,0000fibre end	0,00T internal ref (°C)	12,49T ext. ref 1 (°C)	-1,72T ext. ref 2 (°C)	-1,76length (m)	temperature (°C)	Stokes	anti-Stokes-744,400	800,000	-0,130	-0,262
-743,385	800,000	0,116	0,320
-742,371	563,838	-0,135	-0,238
-741,356	-200,000	0,004	0,376
-740,342	181,438	-0,155	-0,166
-739,327	800,000	0,109	0,330
-738,312	436,412	-0,209	-0,332
-737,298	-200,000	-0,074	0,254
-736,283	291,002	-0,210	-0,278
-735,269	800,000	0,087	0,219
-734,254	71,183	-0,303	-0,228
-733,239	132,521	-0,096	0,090
-732,225	-200,000	-0,019	-0,232
-731,210	21,327	0,224	-0,132
-730,196	800,000	0,018	-0,055
-729,181	1,900	0,039	-0,021
-728,167	-9,538	-0,081	-0,039
-727,152	-73,834	-0,102	0,027
-726,137	-120,253	-0,202	-0,025
-725,123	-200,000	-0,007	-0,052
-724,108	-71,944	-0,041	-0,011
-723,094	-34,558	-0,222	-0,088
-722,079	-200,000	0,008	-0,076
-721,064	-45,552	-0,102	-0,037
-720,050	800,000	-0,047	-0,113
-719,035	-91,749	0,102	0,021
-718,021	-131,300	-0,179	-0,017
-717,006	42,017	-0,131	-0,086
-715,991	359,459	0,092	-0,135
-714,977	800,000	-0,045	-0,114
-713,962	202,164	-0,054	-0,060
-712,948	145,237	0,035	0,034
-711,933	-200,000	0,038	-0,169
-710,918	-48,783	-0,223	0,077
-709,904	-9,944	-0,148	-0,071
-708,889	800,000	0,017	0,053
-707,875	260,679	-0,062	-0,078
-706,860	800,000	-0,025	-0,057
-705,845	202,947	0,073	-0,082
-704,831	800,000	-0,065	0,196
-703,816	58,595	-0,099	0,070
-702,802	110,355	-0,093	0,081
-701,787	-122,947	-0,098	-0,011
-700,772	-47,348	-0,085	-0,030
-699,758	-62,632	0,084	-0,025
-698,743	-121,522	-0,076	-0,009
-697,729	568,197	0,055	0,098
-696,714	-200,000	0,003	0,023
-695,699	-126,180	-0,124	-0,013
-694,685	-6,844	-0,082	0,040
-693,670	-200,000	-0,035	-0,164
-692,656	714,497	0,044	-0,085
-691,641	-116,876	0,055	-0,007
-690,627	276,493	0,080	0,104
-689,612	-77,881	0,109	0,027
-688,597	800,000	0,032	0,068
-687,583	566,586	0,028	0,049
-686,568	623,666	-0,052	-0,095
-685,554	156,182	-0,107	0,107
-684,539	-60,874	0,067	-0,020
-683,524	537,938	-0,061	0,106
-682,510	-200,000	0,003	0,053
-681,495	462,024	-0,010	0,017
-680,481	-134,105	-0,117	0,010
-679,466	-200,000	-0,007	0,023
-678,451	793,567	-0,100	-0,200
-677,437	657,034	-0,016	0,031
-676,422	-62,477	0,100	-0,030
-675,408	-200,000	-0,004	-0,084
-674,393	316,013	-0,043	0,058
-673,378	304,956	-0,057	-0,077
-672,364	-200,000	0,006	0,044
-671,349	-30,933	0,065	-0,026
-670,335	48,433	0,076	0,051
-669,320	-82,263	0,040	-0,009
-668,305	-129,003	-0,075	0,007
-667,291	66,616	0,057	-0,042
-666,276	800,000	-0,034	-0,071
-665,262	800,000	-0,068	-0,148
-664,247	-59,159	-0,116	-0,036
-663,232	-103,421	-0,092	-0,016
-662,218	49,723	-0,043	0,030
-661,203	-111,238	-0,086	0,013
-660,189	11,552	-0,024	0,014
-659,174	46,708	-0,129	0,087
-658,159	195,011	-0,069	-0,075
-657,145	-200,000	-0,029	-0,102
-656,130	21,285	0,025	0,015
-655,116	-64,757	-0,070	-0,020
-654,101	800,000	0,062	0,146
-653,086	-20,947	-0,125	-0,055
-652,072	-108,239	-0,119	0,018
-651,057	-200,000	0,025	-0,084
-650,043	-84,751	-0,153	0,034
-649,028	-85,650	-0,151	0,034
-648,014	81,309	0,039	0,031
-646,999	-200,000	0,024	0,086
-645,984	28,777	0,060	0,037
-644,970	71,449	0,129	-0,097
-643,955	-99,739	-0,189	-0,034
-642,941	-200,000	0,016	0,090
-641,926	437,264	-0,014	0,023
-640,911	-200,000	-0,029	0,135
-639,897	-55,394	0,031	-0,010
-638,882	131,492	0,107	0,100
-637,868	-54,905	-0,078	-0,025
-636,853	-123,869	-0,070	-0,008
-635,838	-200,000	-0,004	-0,052
-634,824	-200,000	-0,026	-0,122
-633,809	-97,622	-0,052	-0,010
-632,795	28,326	-0,098	0,060
-631,780	-35,744	-0,111	0,043
-630,765	-54,440	-0,061	-0,020
-629,751	83,884	-0,049	0,038
-628,736	800,000	0,058	-0,144
-627,722	716,173	0,027	-0,053
-626,707	-61,450	0,073	0,022
-625,692	-77,656	0,167	0,041
-624,678	91,462	0,084	-0,068
-623,663	-185,156	-0,189	0,002
-622,649	-200,000	-0,012	-0,099
-621,634	308,380	0,012	0,016
-620,619	149,701	0,084	-0,082
-619,605	-174,947	0,059	-0,001
-618,590	-142,580	0,067	-0,005
-617,576	-200,000	-0,006	-0,093
-616,561	337,027	0,024	-0,034
-615,546	86,388	0,034	-0,027
-614,532	242,687	-0,049	-0,060
-613,517	-87,919	-0,119	0,026
-612,503	284,459	0,048	0,063
-611,488	-200,000	-0,012	0,067
-610,474	-13,487	0,076	-0,035
-609,459	-124,218	-0,078	-0,009
-608,444	-75,648	0,063	-0,016
-607,430	-22,735	-0,168	-0,073
-606,415	609,522	0,091	-0,165
-605,401	173,364	0,033	-0,035
-604,386	800,000	-0,029	0,077
-603,371	-99,359	-0,080	-0,014
-602,357	359,088	0,100	-0,145
-601,342	-25,297	-0,117	0,050
-600,328	436,093	-0,039	-0,062
-599,313	800,000	0,018	0,048
-598,298	-145,918	-0,051	0,003
-597,284	120,244	0,101	0,091
-596,269	584,529	-0,075	-0,134
-595,255	-19,390	0,150	0,067
-594,240	104,582	0,042	-0,035
-593,225	-32,514	-0,180	0,072
-592,211	75,751	-0,056	0,043
-591,196	-90,725	-0,029	0,006
-590,182	-200,000	-0,008	0,027
-589,167	-31,914	-0,070	0,028
-588,152	181,430	-0,083	0,088
-587,138	515,768	0,024	-0,041
-586,123	-40,201	-0,054	0,020
-585,109	242,054	0,017	-0,020
-584,094	800,000	0,002	-0,005
-583,079	-200,000	0,016	0,080
-582,065	2,106	-0,037	-0,019
-581,050	800,000	-0,025	0,079
-580,036	-200,000	0,003	0,045
-579,021	55,685	-0,082	0,057
-578,006	-68,941	0,047	0,013
-576,992	131,294	-0,064	-0,060
-575,977	-129,756	-0,080	0,008
-574,963	800,000	-0,055	-0,121
-573,948	450,501	0,050	-0,081
-572,934	-197,772	-0,082	0,000
-571,919	3,234	-0,036	0,019
-570,904	35,585	-0,088	-0,055
-569,890	-83,842	-0,057	0,013
-568,875	688,425	0,043	-0,082
-567,861	800,000	0,034	0,094
-566,846	800,000	-0,041	0,121
-565,831	348,796	0,077	0,109
-564,817	44,021	0,016	-0,010
-563,802	-55,748	0,057	-0,018
-562,788	53,135	-0,062	-0,043
-561,773	234,737	0,049	-0,059
-560,758	800,000	-0,041	0,090
-559,744	-14,468	0,047	-0,022
-558,729	-200,000	-0,027	-0,102
-557,715	81,762	-0,088	-0,068
-556,700	-27,898	-0,118	-0,049
-555,685	-200,000	-0,014	-0,202
-554,671	12,545	-0,080	-0,044
-553,656	59,206	0,046	-0,032
-552,642	800,000	0,066	-0,154
-551,627	800,000	0,013	-0,043
-550,612	-130,930	-0,073	0,007
-549,598	12,344	-0,068	0,038
-548,583	-50,995	0,037	0,012
-547,569	769,257	-0,047	0,092
-546,554	105,642	0,072	0,062
-545,539	600,872	0,076	0,137
-544,525	800,000	-0,018	-0,042
-543,510	-91,605	0,064	0,013
-542,496	-137,109	-0,114	0,009
-541,481	188,610	-0,075	-0,081
-540,466	-5,597	-0,047	0,023
-539,452	-200,000	0,105	-0,000
-538,437	489,576	-0,053	0,088
-537,423	-200,000	-0,008	-0,036
-536,408	104,436	0,067	-0,057
-535,393	391,645	-0,120	0,180
-534,379	50,689	-0,092	-0,063
-533,364	-50,741	0,071	0,024
-532,350	-56,065	0,023	-0,007
-531,335	-200,000	0,011	0,081
-530,321	800,000	-0,065	0,175
-529,306	80,857	-0,102	-0,079
-528,291	136,173	0,071	0,067
-527,277	-40,292	-0,061	0,023
-526,262	-200,000	-0,010	0,053
-525,248	-74,051	-0,085	0,022
-524,233	800,000	0,035	-0,076
-523,218	-200,000	0,027	-0,093
-522,204	-200,000	-0,024	-0,085
-521,189	-85,743	-0,101	-0,022
-520,175	-103,476	-0,062	-0,010
-519,160	528,186	0,034	-0,059
-518,145	6,169	0,072	-0,039
-517,131	140,155	-0,109	0,104
-516,116	155,341	-0,180	0,179
-515,102	110,429	0,104	0,090
-514,087	800,000	-0,016	-0,051
-513,072	65,946	0,057	-0,042
-512,058	18,249	-0,060	-0,035
-511,043	110,247	0,038	-0,033
-510,029	-21,400	0,145	0,063
-509,014	1,391	-0,015	0,008
-507,999	3,208	0,082	-0,043
-506,985	-200,000	-0,014	-0,068
-505,970	157,708	-0,054	-0,054
-504,956	800,000	-0,045	-0,108
-503,941	-58,823	-0,101	0,031
-502,926	-200,000	-0,014	0,206
-501,912	-200,000	0,016	-0,055
-500,897	-136,117	-0,082	0,007
-499,883	-75,621	0,047	0,012
-498,868	571,193	-0,027	-0,047
-497,853	-25,159	0,051	-0,021
-496,839	37,731	-0,058	-0,037
-495,824	116,998	0,065	-0,057
-494,810	50,994	-0,115	0,078
-493,795	-200,000	-0,015	-0,104
-492,781	800,000	-0,062	-0,156
-491,766	800,000	0,057	-0,173
-490,751	302,094	0,088	-0,118
-489,737	-31,471	0,091	-0,036
-488,722	-200,000	-0,008	0,141
-487,708	-200,000	0,002	-0,020
-486,693	-34,428	0,044	-0,017
-485,678	221,711	0,055	-0,064
-484,664	800,000	-0,035	0,075
-483,649	-125,910	-0,110	-0,012
-482,635	467,176	0,052	-0,084
-481,620	344,757	-0,013	-0,018
-480,605	-21,563	0,130	0,057
-479,591	-22,769	-0,101	0,044
-478,576	9,671	0,069	0,037
-477,562	-50,532	-0,064	0,022
-476,547	386,781	0,058	0,087
-475,532	582,040	0,042	0,075
-474,518	281,964	-0,035	-0,046
-473,503	-200,000	-0,017	0,103
-472,489	276,743	0,049	0,062
-471,474	90,093	0,048	0,039
-470,459	-200,000	0,008	-0,181
-469,445	800,000	0,085	-0,220
-468,430	-132,056	-0,086	-0,008
-467,416	-82,569	-0,140	0,032
-466,401	-188,821	0,107	0,001
-465,386	530,738	-0,035	0,059
-464,372	-6,835	0,014	0,007
-463,357	800,000	0,033	-0,077
-462,343	75,559	-0,025	0,019
-461,328	109,697	-0,092	0,079
-460,313	-96,151	-0,090	0,017
-459,299	-61,400	0,128	-0,038
-458,284	800,000	-0,034	0,093
-457,270	-200,000	0,009	0,074
-456,255	-99,480	-0,117	-0,021
-455,241	-47,743	-0,203	-0,070
-454,226	-45,631	-0,065	-0,023
-453,211	39,173	0,041	-0,026
-452,197	-200,000	-0,003	0,126
-451,182	135,787	-0,037	0,034
-450,168	-43,591	0,105	0,038
-449,153	-144,575	-0,113	0,007
-448,138	-69,188	-0,144	0,039
-447,124	46,985	-0,028	-0,019
-446,109	-26,639	0,089	0,037
-445,095	-32,162	0,005	0,002
-444,080	-30,432	0,118	-0,048
-443,065	800,000	-0,034	0,092
-442,051	-98,968	-0,043	-0,008
-441,036	-118,326	-0,059	0,007
-440,022	-200,000	-0,018	-0,064
-439,007	242,685	0,100	-0,121
-437,992	116,742	0,091	-0,080
-436,978	800,000	0,011	0,034
-435,963	-88,677	0,092	-0,019
-434,949	-200,000	0,010	0,041
-433,934	-154,334	-0,176	0,008
-432,919	-94,471	-0,035	0,007
-431,905	800,000	0,036	-0,108
-430,890	800,000	-0,028	0,071
-429,876	-200,000	0,004	0,057
-428,861	-200,000	-0,030	0,098
-427,846	-200,000	0,005	0,092
-426,832	-200,000	0,024	0,103
-425,817	46,488	-0,107	-0,071
-424,803	666,571	0,011	-0,020
-423,788	3,588	0,098	0,051
-422,773	-200,000	-0,013	0,185
-421,759	800,000	0,049	0,133
-420,744	-16,172	-0,024	-0,011
-419,730	800,000	-0,024	-0,069
-418,715	-180,267	-0,068	0,001
-417,701	-200,000	0,058	-0,228
-416,686	-55,952	0,114	-0,036
-415,671	155,345	0,099	0,098
-414,657	38,627	-0,078	0,050
-413,642	-200,000	0,025	0,131
-412,628	278,199	-0,048	0,061
-411,613	-200,000	0,017	0,061
-410,598	305,906	-0,072	0,096
-409,584	800,000	-0,024	-0,048
-408,569	-29,068	0,070	0,029
-407,555	330,743	-0,023	0,032
-406,540	158,266	-0,050	-0,050
-405,525	-200,000	0,001	-0,045
-404,511	20,987	-0,175	0,101
-403,496	60,852	0,084	0,059
-402,482	76,575	0,027	0,021
-401,467	-200,000	0,008	0,048
-400,452	-200,000	-0,001	0,042
-399,438	282,257	-0,028	-0,036
-398,423	187,130	-0,113	-0,121
-397,409	64,439	-0,065	-0,047
-396,394	-1,624	0,052	-0,026
-395,379	-143,729	0,086	0,006
-394,365	-92,975	-0,034	0,007
-393,350	-200,000	-0,006	-0,068
-392,336	51,695	0,103	0,070
-391,321	-200,000	-0,011	-0,070
-390,306	-185,897	-0,060	-0,001
-389,292	-15,917	-0,113	-0,051
-388,277	-200,000	-0,000	-0,028
-387,263	-200,000	0,040	0,174
-386,248	-200,000	0,014	-0,089
-385,233	-183,171	0,136	0,002
-384,219	179,264	0,041	0,043
-383,204	-200,000	0,005	0,085
-382,190	-51,349	-0,161	-0,054
-381,175	284,643	0,018	-0,023
-380,160	-88,130	0,053	-0,011
-379,146	-59,604	0,162	0,049
-378,131	142,360	0,093	-0,089
-377,117	159,733	0,115	0,115
-376,102	-200,000	0,000	-0,083
-375,088	-3,738	0,061	-0,030
-374,073	112,923	-0,096	0,083
-373,058	800,000	0,030	0,065
-372,044	-200,000	0,009	0,115
-371,029	-80,922	0,056	0,013
-370,015	283,217	0,068	-0,088
-369,000	-200,000	-0,005	0,068
-367,985	-12,202	-0,101	0,047
-366,971	149,419	-0,043	0,041
-365,956	800,000	0,049	0,141
-364,942	-8,092	0,171	-0,082
-363,927	-200,000	0,016	0,086
-362,912	279,118	0,023	0,029
-361,898	-200,000	-0,003	0,109
-360,883	-31,194	-0,170	-0,068
-359,869	-109,570	0,072	0,011
-358,854	132,434	0,055	0,051
-357,839	-200,000	0,014	-0,077
-356,825	-91,842	0,037	0,007
-355,810	150,492	0,045	-0,044
-354,796	-200,000	0,012	-0,044
-353,781	-58,042	-0,134	-0,042
-352,766	30,206	0,064	-0,039
-351,752	-78,665	-0,079	-0,019
-350,737	-148,986	-0,049	0,003
-349,723	194,019	0,026	-0,028
-348,708	800,000	-0,054	0,106
-347,693	-18,510	-0,050	0,022
-346,679	-6,064	0,009	-0,005
-345,664	-200,000	-0,014	0,070
-344,650	-200,000	-0,005	-0,069
-343,635	220,228	-0,098	0,113
-342,620	-200,000	0,003	0,051
-341,606	88,505	0,080	-0,063
-340,591	1,336	0,039	0,020
-339,577	-200,000	-0,026	-0,082
-338,562	-32,637	0,080	-0,031
-337,548	-126,427	0,078	0,008
-336,533	-76,488	-0,095	0,024
-335,518	-200,000	0,020	-0,121
-334,504	601,876	0,030	-0,053
-333,489	-35,055	-0,029	-0,011
-332,475	-59,301	0,065	-0,020
-331,460	-69,402	-0,077	0,021
-330,445	-99,710	-0,064	0,011
-329,431	-200,000	0,013	0,098
-328,416	-200,000	-0,022	0,084
-327,402	-56,700	0,145	0,045
-326,387	-200,000	-0,011	0,071
-325,372	-51,592	0,096	-0,032
-324,358	-190,546	-0,123	-0,001
-323,343	20,766	0,030	-0,017
-322,329	-65,231	-0,119	-0,034
-321,314	28,274	0,166	-0,100
-320,299	800,000	-0,030	-0,080
-319,285	33,795	0,094	-0,058
-318,270	-146,900	-0,083	-0,005
-317,256	234,068	-0,013	0,015
-316,241	290,274	0,039	-0,051
-315,226	583,613	-0,058	-0,102
-314,212	762,894	0,090	0,175
-313,197	-74,238	0,075	-0,019
-312,183	-21,470	-0,132	0,057
-311,168	-200,000	-0,038	-0,119
-310,153	-200,000	-0,000	-0,132
-309,139	-200,000	-0,009	-0,123
-308,124	-200,000	0,030	-0,117
-307,110	800,000	0,034	0,090
-306,095	-200,000	0,022	0,093
-305,080	229,687	-0,043	0,050
-304,066	-127,705	0,097	0,010
-303,051	22,499	-0,057	-0,033
-302,037	-158,249	0,107	-0,004
-301,022	-200,000	0,006	0,089
-300,008	-45,141	0,126	0,044
-298,993	53,340	-0,010	-0,007
-297,978	-155,314	-0,086	0,004
-296,964	-198,158	-0,086	0,000
-295,949	442,236	-0,049	-0,077
-294,935	49,909	0,043	-0,029
-293,920	232,793	0,030	-0,036
-292,905	-200,000	0,010	-0,041
-291,891	123,522	-0,071	0,063
-290,876	-75,634	0,111	0,028
-289,862	222,467	-0,048	-0,055
-288,847	-54,662	0,146	0,047
-287,832	530,577	0,088	-0,149
-286,818	800,000	0,014	0,043
-285,803	800,000	0,058	0,129
-284,789	-200,000	-0,004	0,047
-283,774	166,541	0,039	-0,039
-282,759	-59,400	-0,072	-0,022
-281,745	543,193	-0,062	-0,107
-280,730	800,000	-0,020	-0,053
-279,716	127,771	0,061	-0,055
-278,701	241,655	0,043	0,052
-277,686	-77,130	0,104	-0,026
-276,672	-13,002	-0,064	0,029
-275,657	-200,000	-0,021	-0,097
-274,643	-107,744	-0,071	-0,011
-273,628	156,896	-0,061	-0,061
-272,613	800,000	-0,036	-0,109
-271,599	800,000	0,026	-0,054
-270,584	-200,000	0,017	-0,128
-269,570	-200,000	0,004	0,049
-268,555	800,000	0,067	0,149
-267,540	800,000	-0,060	0,124
-266,526	-109,258	0,048	0,007
-265,511	800,000	-0,023	-0,050
-264,497	-174,614	-0,012	0,000
-263,482	98,544	0,049	0,040
-262,467	-200,000	0,022	-0,070
-261,453	28,621	0,074	0,045
-260,438	-200,000	0,017	0,120
-259,424	-75,607	-0,136	-0,034
-258,409	186,998	-0,020	0,022
-257,395	-200,000	0,012	0,128
-256,380	202,505	0,040	0,044
-255,365	-124,838	-0,066	-0,007
-254,351	-111,687	0,285	-0,041
-253,336	35,244	-0,085	-0,053
-252,322	-200,000	-0,042	-0,152
-251,307	551,272	0,043	0,075
-250,292	142,249	0,092	0,087
-249,278	18,396	0,082	-0,047
-248,263	665,152	0,012	0,022
-247,249	-95,184	0,011	0,002
-246,234	-79,195	0,047	0,011
-245,219	566,435	0,029	-0,050
-244,205	-178,292	-0,158	-0,003
-243,190	69,395	-0,042	-0,030
-242,176	413,602	0,043	-0,066
-241,161	800,000	0,054	0,113
-240,146	-200,000	-0,010	0,165
-239,132	435,379	0,072	-0,111
-238,117	160,878	0,104	-0,103
-237,103	-107,535	0,091	0,014
-236,088	241,390	0,065	-0,078
-235,073	-58,372	-0,110	-0,034
-234,059	-174,290	0,202	-0,004
-233,044	131,351	0,088	0,081
-232,030	-200,000	-0,011	-0,052
-231,015	-12,541	-0,060	0,028
-230,000	283,281	-0,027	-0,035
-228,986	517,701	-0,060	-0,101
-227,971	-23,313	-0,115	-0,049
-226,957	-54,742	0,057	-0,018
-225,942	-106,194	0,139	-0,022
-224,927	-156,127	-0,106	0,005
-223,913	-20,368	0,154	-0,067
-222,898	-200,000	-0,015	-0,106
-221,884	-114,533	0,049	0,007
-220,869	304,310	-0,052	-0,069
-219,855	-150,002	0,159	0,009
-218,840	-200,000	0,045	0,175
-217,825	673,309	0,023	0,042
-216,811	58,154	-0,028	0,020
-215,796	185,749	-0,030	0,031
-214,782	800,000	-0,030	0,067
-213,767	143,340	0,034	-0,033
-212,752	-200,000	-0,005	-0,082
-211,738	76,904	0,101	0,076
-210,723	29,480	-0,019	-0,011
-209,709	-97,625	-0,090	-0,016
-208,694	69,121	-0,049	0,036
-207,679	-197,500	-0,045	-0,000
-206,665	3,122	-0,079	-0,041
-205,650	485,228	0,059	0,096
-204,636	-200,000	0,011	0,092
-203,621	426,699	0,021	0,032
-202,606	145,455	-0,064	0,061
-201,592	-87,708	-0,022	0,005
-200,577	300,307	-0,082	-0,108
-199,563	33,538	0,077	-0,047
-198,548	-3,441	-0,089	0,044
-197,533	186,719	0,115	0,122
-196,519	97,305	0,035	0,029
-195,504	14,913	-0,056	0,031
-194,490	260,083	-0,059	0,073
-193,475	323,694	0,030	-0,041
-192,460	558,816	0,031	-0,053
-191,446	301,861	0,027	-0,035
-190,431	403,540	0,054	-0,080
-189,417	-200,000	0,011	0,188
-188,402	-135,768	-0,063	-0,005
-187,387	35,329	0,084	-0,052
-186,373	133,541	-0,108	-0,099
-185,358	-41,969	0,052	-0,019
-184,344	-156,001	-0,013	0,001
-183,329	328,258	0,103	0,141
-182,315	14,505	0,036	-0,020
-181,300	-200,000	-0,012	0,041
-180,285	-200,000	0,001	0,019
-179,271	186,111	0,100	-0,106
-178,256	-42,895	0,098	-0,035
-177,242	-137,724	0,111	-0,009
-176,227	-200,000	0,015	0,057
-175,212	-200,000	0,043	-0,186
-174,198	800,000	-0,028	0,057
-173,183	452,745	-0,021	0,033
-172,169	800,000	0,063	-0,151
-171,154	8,059	-0,104	-0,055
-170,139	-200,000	-0,008	0,068
-169,125	220,858	0,048	-0,054
-168,110	-200,000	0,033	0,112
-167,096	-169,768	0,180	-0,005
-166,081	70,954	-0,082	-0,060
-165,066	240,675	0,053	0,062
-164,052	-30,935	-0,042	0,017
-163,037	-63,998	-0,138	-0,040
-162,023	800,000	-0,033	0,085
-161,008	118,958	0,060	-0,052
-159,993	-200,000	-0,008	0,042
-158,979	800,000	-0,036	-0,107
-157,964	32,701	-0,055	-0,034
-156,950	-107,391	0,043	-0,007
-155,935	-56,818	-0,082	0,026
-154,920	-200,000	0,018	0,084
-153,906	800,000	-0,055	0,146
-152,891	-182,377	0,095	0,001
-151,877	373,350	-0,013	0,019
-150,862	-200,000	0,022	-0,071
-149,847	188,763	-0,093	-0,099
-148,833	-200,000	0,014	0,107
-147,818	-142,150	0,018	-0,001
-146,804	-200,000	-0,009	-0,068
-145,789	301,722	0,028	-0,036
-144,775	800,000	0,051	-0,129
-143,760	-200,000	0,003	-0,184
-142,745	-200,000	0,003	-0,086
-141,731	263,937	0,036	0,045
-140,716	444,596	-0,094	0,147
-139,702	-101,449	-0,038	0,007
-138,687	53,134	0,067	-0,046
-137,672	-200,000	0,008	-0,037
-136,658	237,345	0,011	0,013
-135,643	411,730	0,059	-0,089
-134,629	565,707	-0,041	-0,071
-133,614	-132,728	0,028	0,003
-132,599	21,881	-0,102	0,059
-131,585	-147,324	-0,054	-0,003
-130,570	-200,000	-0,015	0,062
-129,556	249,656	-0,024	-0,029
-128,541	172,039	-0,046	-0,047
-127,526	354,611	-0,058	-0,082
-126,512	-127,075	0,161	-0,016
-125,497	12,062	0,119	0,064
-124,483	-86,453	0,046	0,010
-123,468	15,728	-0,117	-0,065
-122,453	320,086	-0,024	-0,032
-121,439	58,603	0,058	-0,040
-120,424	800,000	-0,030	-0,072
-119,410	103,837	-0,124	0,103
-118,395	394,960	0,019	-0,028
-117,380	-200,000	-0,042	0,170
-116,366	-19,503	-0,068	-0,030
-115,351	-150,676	0,044	0,002
-114,337	-77,166	-0,144	-0,035
-113,322	52,250	-0,076	-0,051
-112,307	-25,001	0,068	0,029
-111,293	-8,353	0,108	0,051
-110,278	483,621	-0,033	-0,053
-109,264	544,910	-0,020	-0,033
-108,249	152,480	-0,032	-0,031
-107,234	95,606	0,035	-0,028
-106,220	800,000	-0,025	-0,071
-105,205	109,699	-0,071	-0,061
-104,191	106,418	-0,021	0,018
-103,176	-200,000	0,018	0,079
-102,162	-53,841	-0,058	-0,019
-101,147	800,000	-0,016	-0,050
-100,132	800,000	0,013	0,037
-99,118	-86,507	-0,056	-0,012
-98,103	136,627	0,058	0,053
-97,089	-132,611	-0,066	-0,006
-96,074	266,708	-0,004	0,006
-95,059	-178,478	0,145	-0,002
-94,045	53,358	-0,134	0,091
-93,030	86,234	0,110	0,086
-92,016	-200,000	-0,032	-0,121
-91,001	118,386	0,016	-0,014
-89,986	-79,501	0,133	0,032
-88,972	49,448	0,202	0,134
-87,957	30,359	0,015	0,009
-86,943	553,902	0,048	-0,082
-85,928	332,375	-0,028	0,038
-84,913	-59,206	0,130	-0,039
-83,899	531,979	0,006	0,010
-82,884	-100,532	0,113	0,020
-81,870	-18,227	0,087	-0,038
-80,855	82,678	-0,062	-0,048
-79,840	620,525	0,024	0,043
-78,826	-48,555	-0,116	-0,039
-77,811	460,952	-0,079	-0,125
-76,797	43,032	0,022	-0,014
-75,782	36,159	0,071	-0,044
-74,767	-200,000	0,023	0,085
-73,753	-200,000	-0,005	0,097
-72,738	146,852	0,073	0,069
-71,724	-154,368	-0,129	-0,006
-70,709	128,472	-0,128	-0,115
-69,694	800,000	-0,011	-0,032
-68,680	440,348	-0,053	-0,083
-67,665	29,149	0,133	0,080
-66,651	-200,000	-0,015	-0,116
-65,636	-166,774	-0,196	-0,006
-64,622	-200,000	0,017	-0,133
-63,607	800,000	-0,044	-0,088
-62,592	-109,079	-0,061	-0,009
-61,578	-200,000	0,029	0,096
-60,563	800,000	-0,029	0,083
-59,549	-200,000	0,005	0,192
-58,534	12,477	-1,615	-0,878
-57,519	359,872	-1,436	-2,037
-56,505	-200,000	-0,397	-4,431
-55,490	462,517	0,751	1,189
-54,476	800,000	4,908	11,397
-53,461	-200,000	19,670	330,191
-52,446	-200,000	743,896	2335,106
-51,432	567,835	1652,615	2847,657
-50,417	76,716	1665,756	1247,509
-49,403	20,455	1539,063	876,866
-48,388	14,332	1461,426	802,986
-47,373	18,607	1451,682	818,154
-46,359	16,738	1441,165	803,285
-45,344	12,644	1436,590	781,195
-44,330	12,534	1434,890	779,713
-43,315	12,523	1433,221	778,723
-42,300	12,526	1431,573	777,811
-41,286	12,574	1430,329	777,333
-40,271	12,523	1428,849	776,257
-39,257	12,498	1427,656	775,457
-38,242	12,580	1426,388	775,130
-37,227	12,540	1425,381	774,358
-36,213	12,587	1423,870	773,730
-35,198	12,575	1422,723	773,019
-34,184	12,643	1421,771	772,791
-33,169	12,565	1420,507	771,706
-32,154	12,638	1419,376	771,409
-31,140	12,609	1418,157	770,577
-30,125	12,624	1417,177	770,086
-29,111	12,601	1415,931	769,267
-28,096	12,605	1414,876	768,686
-27,082	12,524	1413,836	767,710
-26,067	12,482	1412,932	766,989
-25,052	12,543	1411,627	766,537
-24,038	12,506	1410,700	765,830
-23,023	12,546	1409,549	765,359
-22,009	12,511	1408,657	764,684
-20,994	12,479	1407,903	764,094
-19,979	12,497	1406,837	763,571
-18,965	12,444	1406,042	762,858
-17,950	12,454	1404,775	762,191
-16,936	12,452	1404,241	761,861
-15,921	12,441	1403,070	761,143
-14,906	12,435	1402,066	760,539
-13,892	12,431	1401,185	760,015
-12,877	12,416	1400,483	759,530
-11,863	12,405	1399,387	758,856
-10,848	12,415	1398,559	758,426
-9,833	12,347	1397,801	757,668
-8,819	12,395	1396,784	757,307
-7,804	12,344	1395,922	756,574
-6,790	12,346	1395,141	756,130
-5,775	12,352	1393,879	755,443
-4,760	12,374	1392,766	754,912
-3,746	12,305	1391,933	754,112
-2,731	12,327	1391,105	753,736
-1,717	12,289	1390,427	753,162
-0,702	12,321	1388,499	752,235
0,313	16,317	1304,653	725,176
1,327	32,606	699,235	426,024
2,342	50,326	122,193	81,406
3,356	0,424	16,650	8,370
4,371	15,913	3,098	1,717
5,386	42,137	0,733	0,469
6,400	-200,000	0,108	0,343
7,415	-122,813	-0,368	0,041
8,429	90,911	-0,200	-0,158
9,444	51,492	-0,373	-0,250
10,459	32,657	-0,295	-0,179
11,473	-25,154	-0,451	-0,188
12,488	120,974	-0,189	-0,166
13,502	-20,984	-0,325	-0,140
14,517	-44,155	-0,323	-0,114
15,531	-2,155	-0,434	-0,214
16,546	-1,915	-0,341	-0,169
17,561	16,043	-0,394	-0,218
18,575	-5,290	-0,122	-0,059
19,590	4,095	-0,243	-0,125
20,604	-144,665	-0,226	-0,014
21,619	74,719	-0,389	-0,288
22,634	47,115	-0,478	-0,313
23,648	299,249	-0,224	-0,291
24,663	14,542	-0,402	-0,221
25,677	-138,841	-0,266	0,020
26,692	104,410	-0,319	-0,264
27,707	0,282	-0,368	-0,184
28,721	82,288	-0,368	-0,281
29,736	103,336	-0,469	-0,387
30,750	334,907	-0,334	-0,457
31,765	240,011	-0,380	-0,446
32,780	25,414	-0,325	-0,190
33,794	75,470	-0,308	-0,228
34,809	-18,502	-0,485	-0,212
35,823	121,099	-0,326	-0,285
36,838	49,340	-0,331	-0,219
37,853	33,255	-0,426	-0,260
38,867	35,873	-0,400	-0,247
39,882	346,095	-0,252	-0,350
40,896	138,090	-0,405	-0,374
41,911	147,884	-0,291	-0,276
42,926	28,943	-0,318	-0,189
43,940	-48,284	-0,507	-0,171
44,955	35,801	-0,446	-0,275
45,969	-5,605	-0,365	-0,175
46,984	798,962	-0,199	-0,388
47,999	142,116	-0,289	-0,270
49,013	34,238	-0,247	-0,151
50,028	-24,220	-0,406	-0,170
51,042	238,920	-0,226	-0,264
52,057	10,039	-0,316	-0,168
53,071	233,060	-0,295	-0,341
54,086	73,276	-0,339	-0,249
55,101	248,287	-0,097	-0,116
56,115	1,414	-0,277	-0,140
57,130	-62,642	-0,334	-0,097
58,144	74,646	-0,453	-0,334
59,159	61,741	-0,395	-0,276
60,174	146,244	-0,337	-0,318
61,188	330,497	-0,294	-0,399
62,203	74,309	-0,285	-0,210
63,217	-12,036	-0,455	-0,208
64,232	-11,637	-0,408	-0,187
65,247	126,194	-0,403	-0,358
66,261	-73,597	-0,496	-0,126
67,276	50,371	-0,406	-0,269
68,290	48,333	-0,366	-0,240
69,305	403,845	-0,175	-0,259
70,320	119,422	-0,171	-0,148
71,334	61,700	-0,363	-0,253
72,349	226,247	-0,169	-0,193
73,363	31,824	-0,362	-0,218
74,378	122,738	-0,281	-0,246
75,393	112,349	-0,175	-0,149
76,407	221,929	-0,221	-0,249
77,422	124,696	-0,245	-0,216
78,436	227,539	-0,191	-0,218
79,451	95,368	-0,306	-0,244
80,466	2,319	-0,348	-0,176
81,480	24,102	-0,392	-0,226
82,495	24,414	-0,226	-0,131
83,509	12,651	-0,242	-0,131
84,524	52,596	-0,300	-0,201
85,539	-14,156	-0,227	-0,102
86,553	161,717	-0,190	-0,186
87,568	294,871	-0,272	-0,350
88,582	27,276	-0,208	-0,122
89,597	47,604	-0,386	-0,252
90,611	131,433	-0,233	-0,210
91,626	-23,083	-0,315	-0,132
92,641	44,974	-0,251	-0,162
93,655	506,260	-0,097	-0,158
94,670	63,041	-0,288	-0,202
95,684	230,004	-0,278	-0,319
96,699	276,187	-0,116	-0,145
97,714	43,960	-0,313	-0,200
98,728	-134,932	-0,268	0,022
99,743	-48,968	-0,225	-0,075
100,757	-106,957	-0,241	-0,037
101,772	-35,515	-0,335	-0,127
102,787	13,355	-0,351	-0,190
103,801	74,366	-0,350	-0,257
104,816	-18,734	-0,339	-0,147
105,830	342,630	-0,136	-0,186
106,845	158,393	-0,213	-0,207
107,860	65,120	-0,204	-0,144
108,874	162,502	-0,248	-0,243
109,889	36,758	-0,291	-0,180
110,903	171,335	-0,226	-0,227
111,918	196,937	-0,208	-0,222
112,933	76,727	-0,265	-0,196
113,947	275,741	-0,211	-0,262
114,962	-0,780	-0,222	-0,110
115,976	46,104	-0,222	-0,143
116,991	24,331	-0,271	-0,156
118,006	220,816	-0,265	-0,297
119,020	-144,023	-0,233	0,015
120,035	238,623	-0,212	-0,246
121,049	110,827	-0,141	-0,118
122,064	-123,619	-0,279	0,031
123,079	45,819	-0,210	-0,135
124,093	-14,932	-0,264	-0,118
125,108	12,683	-0,325	-0,175
126,122	-12,040	-0,229	-0,104
127,137	132,714	-0,164	-0,148
128,151	53,767	-0,167	-0,112
129,166	18,494	-0,253	-0,141
130,181	3,198	-0,243	-0,123
131,195	-39,993	-0,276	-0,100
132,210	56,520	-0,271	-0,184
133,224	32,330	-0,317	-0,190
134,239	26,149	-0,166	-0,097
135,254	-197,250	-0,383	0,002
136,268	-124,627	-0,272	-0,029
137,283	-61,388	-0,142	-0,042
138,297	-144,725	-0,266	-0,017
139,312	43,145	-0,323	-0,205
140,327	45,590	-0,153	-0,098
141,341	127,864	-0,233	-0,207
142,356	-25,178	-0,345	-0,142
143,370	68,670	-0,319	-0,228
144,385	-147,390	-0,283	0,016
145,400	154,867	-0,215	-0,206
146,414	569,169	-0,115	-0,196
147,429	64,072	-0,351	-0,246
148,443	435,202	-0,174	-0,264
149,458	-156,739	-0,274	0,012
150,473	-21,069	-0,292	-0,124
151,487	-102,299	-0,273	-0,045
152,502	258,382	-0,188	-0,226
153,516	127,472	-0,291	-0,257
154,531	27,700	-0,309	-0,181
155,546	605,364	-0,144	-0,251
156,560	800,000	-0,087	-0,244
157,575	-51,734	-0,192	-0,062
158,589	8,373	-0,280	-0,146
159,604	400,666	-0,130	-0,191
160,619	-44,220	-0,252	-0,088
161,633	32,649	-0,337	-0,202
162,648	10,097	-0,210	-0,111
163,662	-24,139	-0,178	0,074
164,677	800,000	-0,113	-0,231
165,692	170,728	-0,154	-0,154
166,706	19,205	-0,251	-0,140
167,721	139,910	-0,155	-0,142
168,735	41,649	-0,149	-0,094
169,750	-14,097	-0,366	-0,164
170,764	800,000	-0,029	-0,082
171,779	23,634	-0,064	-0,037
172,794	-16,172	-0,255	-0,112
173,808	-9,412	-0,241	-0,112
174,823	-48,317	-0,256	-0,085
175,837	259,346	-0,161	-0,194
176,852	125,814	-0,250	-0,219
177,867	80,060	-0,196	-0,146
178,881	38,516	-0,165	-0,102
179,896	22,387	-0,261	-0,148
180,910	71,500	-0,328	-0,236
181,925	103,302	-0,119	-0,097
182,940	-87,560	-0,285	-0,059
183,954	5,356	-0,136	-0,069
184,969	-200,000	-0,016	-0,136
185,983	-58,895	-0,169	-0,051
186,998	230,571	-0,196	-0,224
188,013	-11,260	-0,215	-0,098
189,027	-101,686	-0,179	0,030
190,042	249,763	-0,148	-0,175
191,056	97,104	-0,207	-0,165
192,071	688,584	-0,147	-0,269
193,086	492,771	-0,108	-0,172
194,100	-200,000	-0,002	-0,230
195,115	5,875	-0,307	-0,157
196,129	194,668	-0,264	-0,279
197,144	291,106	-0,303	-0,383
198,159	419,043	-0,147	-0,219
199,173	52,282	-0,107	-0,071
200,188	31,846	-0,235	-0,140
201,202	260,937	-0,153	-0,184
202,217	40,187	-0,230	-0,143
203,232	104,011	-0,178	-0,145
204,246	126,053	-0,245	-0,215
205,261	424,376	-0,115	-0,172
206,275	111,347	-0,219	-0,183
207,290	64,667	-0,215	-0,150
208,304	109,284	-0,285	-0,237
209,319	-42,787	-0,243	0,085
210,334	-37,591	-0,179	-0,066
211,348	355,112	-0,096	-0,133
212,363	-32,472	-0,214	-0,082
213,377	-84,404	-0,153	-0,033
214,392	32,153	-0,203	-0,121
215,407	800,000	-0,073	-0,176
216,421	-133,988	-0,297	0,025
217,436	51,590	-0,111	0,073
218,450	372,883	-0,196	-0,277
219,465	759,914	-0,075	-0,141
220,480	173,525	-0,134	-0,134
221,494	-133,157	-0,201	-0,017
222,509	1,020	-0,233	-0,116
223,523	-119,406	-0,144	-0,017
224,538	0,269	-0,224	-0,110
225,553	-98,787	-0,198	-0,035
226,567	48,063	-0,222	-0,144
227,582	267,454	-0,225	-0,273
228,596	800,000	-0,065	-0,140
229,611	-200,000	-0,077	-0,283
230,626	77,721	-0,136	-0,100
231,640	-200,000	-0,033	-0,131
232,655	-35,828	-0,246	-0,092
233,669	800,000	-0,139	-0,269
234,684	-26,600	-0,261	-0,105
235,699	-200,000	-0,008	-0,110
236,713	259,110	-0,128	-0,153
237,728	-20,942	-0,177	-0,075
238,742	135,209	-0,130	-0,117
239,757	-79,040	-0,103	-0,024
240,772	107,134	-0,212	-0,174
241,786	800,000	-0,122	-0,261
242,801	-156,629	-0,331	-0,014
243,815	800,000	-0,027	-0,055
244,830	584,187	-0,127	-0,217
245,844	-147,675	-0,256	-0,015
246,859	154,797	-0,282	-0,268
247,874	158,545	-0,139	-0,133
248,888	170,465	-0,090	-0,089
249,903	33,480	-0,257	-0,154
250,917	-86,105	-0,255	0,054
251,932	63,420	-0,094	-0,065
252,947	208,802	-0,159	-0,172
253,961	79,642	-0,114	-0,085
254,976	261,731	-0,159	-0,191
255,990	362,715	-0,088	-0,122
257,005	166,013	-0,099	-0,097
258,020	-69,127	-0,128	-0,034
259,034	11,217	-0,105	-0,055
260,049	-16,715	-0,299	-0,130
261,063	431,161	-0,107	-0,160
262,078	203,158	-0,174	-0,186
263,093	546,452	-0,107	-0,178
264,107	-11,441	-0,249	-0,113
265,122	180,799	-0,155	-0,157
266,136	-3,737	-0,099	-0,047
267,151	-64,506	-0,095	0,026
268,166	160,467	-0,111	-0,107
269,180	38,317	-0,130	-0,080
270,195	-106,115	-0,307	-0,047
271,209	118,393	-0,271	-0,230
272,224	233,046	-0,171	-0,194
273,239	-200,000	-0,006	-0,091
274,253	85,855	-0,178	-0,135
275,268	-103,982	-0,209	-0,033
276,282	33,074	-0,169	-0,101
277,297	13,723	-0,213	-0,114
278,312	17,127	-0,159	-0,087
279,326	-200,000	0,008	-0,135
280,341	168,259	-0,180	-0,177
281,355	451,729	-0,173	-0,265
282,370	-93,691	-0,146	-0,027
283,384	94,069	-0,204	-0,160
284,399	471,071	-0,116	-0,180
285,414	29,168	-0,311	-0,181
286,428	271,132	-0,102	-0,124
287,443	-200,000	-0,165	0,000
288,457	-73,370	-0,163	-0,041
289,472	-18,079	-0,337	-0,145
290,487	-135,770	-0,077	0,006
291,501	-7,295	-0,187	-0,087
292,516	800,000	-0,104	-0,211
293,530	-130,329	-0,097	0,009
294,545	800,000	-0,070	-0,178
295,560	-152,325	-0,307	-0,015
296,574	464,950	-0,097	-0,150
297,589	287,373	-0,192	-0,239
298,603	308,524	-0,163	-0,210
299,618	241,451	-0,140	-0,161
300,633	800,000	-0,073	-0,142
301,647	145,519	-0,127	0,117
302,662	28,478	-0,137	0,080
303,676	-192,184	-0,199	-0,001
304,691	344,437	-0,112	-0,151
305,706	-66,835	-0,216	-0,058
306,720	-39,314	-0,174	0,063
307,735	-71,955	-0,267	-0,068
308,749	-107,200	-0,073	0,011
309,764	708,806	-0,037	0,068
310,779	-78,772	-0,237	-0,055
311,793	47,453	-0,164	-0,105
312,808	-187,384	-0,102	0,001
313,822	-113,321	-0,085	0,011
314,837	-138,981	-0,210	-0,015
315,852	-28,804	-0,127	0,050
316,866	-200,000	-0,015	-0,163
317,881	-200,000	0,011	-0,097
318,895	-26,751	-0,073	-0,029
319,910	650,317	-0,102	-0,180
320,925	-56,874	-0,152	-0,046
321,939	-17,870	-0,210	-0,090
322,954	-200,000	-0,030	-0,145
323,968	-29,847	-0,116	-0,045
324,983	73,597	-0,202	-0,145
325,997	461,512	-0,034	-0,053
327,012	800,000	-0,051	-0,112
328,027	800,000	-0,053	-0,118
329,041	-34,142	-0,091	-0,034
330,056	-38,734	-0,079	-0,029
331,070	-43,595	-0,096	-0,033
332,085	190,374	-0,068	-0,070
333,100	174,785	-0,172	-0,171
334,114	111,569	-0,130	-0,108
335,129	29,748	-0,174	-0,101
336,143	767,883	-0,066	-0,123
337,158	-200,000	0,031	-0,236
338,173	-60,151	-0,091	-0,027
339,187	-2,720	-0,213	-0,102
340,202	31,257	-0,163	-0,096
341,216	-163,867	-0,160	-0,005
342,231	-70,405	-0,236	-0,061
343,246	-44,449	-0,205	-0,070
344,260	730,375	-0,064	0,118
345,275	-179,240	-0,106	-0,002
346,289	-143,903	-0,254	-0,016
347,304	281,465	-0,123	-0,152
348,319	-137,547	-0,192	-0,015
349,333	134,156	-0,084	-0,074
350,348	43,972	-0,059	-0,037
351,362	-16,365	-0,071	-0,031
352,377	343,782	-0,135	-0,182
353,392	-200,000	-0,027	-0,105
354,406	525,974	-0,100	-0,161
355,421	206,806	1312,319	1401,756
356,435	159,065	1472,745	1402,259
