DTS Sentinel unit serial number:	SN410029Multiplexer serial number:	ORYXHardware model number:	OX2-SRSoftware version number:	ORYX F/W v4,00 Oryx Data Collector v3.7.2.0data status	okinstallation	B3 Nyhavnadifferential loss correction	single-endedforward channel	channel 1reverse channel	N/Adate	2023/11/30time	04:37:30forward acquisition time	300,00reverse acquisition time	0,00gamma	499,1914k internal	0,3211k external	0,3211temperature offset calibration	1,0000default loss term (dB/km)	0,3820temperature slope calibration	1,0000multiplexer offset coefficient	1,0000multiplexer slope coefficient	1,0000fibre end	0,00T internal ref (°C)	10,13T ext. ref 1 (°C)	-5,31T ext. ref 2 (°C)	-5,41length (m)	temperature (°C)	Stokes	anti-Stokes-744,400	220,513	-0,285	-0,332
-743,385	800,000	-0,028	0,079
-742,371	-200,000	0,014	-0,186
-741,356	-200,000	-0,069	0,428
-740,342	187,817	-0,103	-0,112
-739,327	-200,000	-0,050	0,249
-738,312	50,404	-0,263	-0,180
-737,298	-200,000	0,022	0,284
-736,283	800,000	-0,063	-0,195
-735,269	-200,000	0,012	0,267
-734,254	800,000	-0,117	-0,334
-733,239	-59,162	-0,185	0,058
-732,225	262,299	-0,105	-0,132
-731,210	-15,734	0,061	-0,028
-730,196	-96,499	0,062	0,012
-729,181	-170,501	0,022	-0,001
-728,167	49,617	-0,112	-0,076
-727,152	-98,683	0,091	0,017
-726,137	-170,586	-0,168	-0,004
-725,123	-114,818	-0,071	-0,010
-724,108	95,565	-0,156	-0,129
-723,094	-86,393	-0,102	-0,022
-722,079	-123,932	0,010	-0,001
-721,064	800,000	-0,054	-0,165
-720,050	363,434	0,025	0,037
-719,035	-128,948	-0,152	-0,015
-718,021	-195,899	-0,051	-0,000
-717,006	412,566	-0,087	-0,135
-715,991	-200,000	0,001	0,019
-714,977	-200,000	0,043	0,160
-713,962	-200,000	0,026	-0,088
-712,948	-107,136	0,042	-0,007
-711,933	-26,722	-0,081	0,034
-710,918	119,009	0,052	-0,047
-709,904	573,753	-0,045	-0,079
-708,889	-68,827	-0,069	-0,019
-707,875	-51,947	-0,103	-0,035
-706,860	-9,949	0,117	-0,056
-705,845	8,085	0,107	-0,058
-704,831	3,700	-0,045	-0,023
-703,816	-200,000	0,005	0,096
-702,802	268,772	-0,091	-0,116
-701,787	-126,723	-0,113	-0,012
-700,772	127,904	0,043	-0,040
-699,758	331,020	0,052	-0,072
-698,743	228,553	0,084	0,100
-697,729	310,341	0,051	0,069
-696,714	-200,000	-0,022	0,075
-695,699	-96,807	-0,043	0,008
-694,685	366,853	-0,076	0,112
-693,670	-60,731	0,109	-0,033
-692,656	-200,000	0,003	0,018
-691,641	-200,000	0,034	-0,120
-690,627	213,328	0,028	-0,032
-689,612	-190,775	-0,140	0,001
-688,597	-200,000	0,001	0,036
-687,583	-90,799	-0,104	-0,022
-686,568	258,001	0,054	-0,067
-685,554	-200,000	0,012	0,075
-684,539	-67,419	-0,098	0,028
-683,524	-200,000	0,009	0,118
-682,510	2,685	-0,032	0,017
-681,495	126,808	0,024	-0,022
-680,481	175,015	-0,062	0,065
-679,466	-200,000	0,015	-0,079
-678,451	119,582	0,043	-0,039
-677,437	84,049	-0,073	-0,057
-676,422	253,844	-0,014	0,018
-675,408	-57,740	0,090	-0,028
-674,393	332,712	-0,067	0,093
-673,378	65,581	-0,058	0,042
-672,364	37,440	-0,148	-0,095
-671,349	-200,000	-0,020	-0,091
-670,335	-200,000	-0,011	0,040
-669,320	53,409	-0,042	0,029
-668,305	57,845	-0,063	-0,045
-667,291	158,434	-0,068	0,068
-666,276	-200,000	-0,003	-0,021
-665,262	-55,866	-0,135	-0,043
-664,247	-200,000	0,025	-0,126
-663,232	800,000	0,014	-0,029
-662,218	-200,000	-0,019	0,118
-661,203	55,783	0,055	-0,038
-660,189	-200,000	-0,022	-0,148
-659,174	611,944	-0,062	0,112
-658,159	565,072	-0,031	-0,055
-657,145	-200,000	0,040	-0,151
-656,130	-200,000	-0,002	-0,032
-655,116	627,491	0,043	-0,079
-654,101	-200,000	-0,020	0,123
-653,086	-200,000	-0,000	0,016
-652,072	-200,000	0,033	-0,113
-651,057	-1,941	-0,074	-0,037
-650,043	-96,584	-0,124	-0,023
-649,028	-200,000	-0,008	0,119
-648,014	-63,468	0,185	-0,054
-646,999	800,000	-0,027	0,061
-645,984	-200,000	-0,010	0,078
-644,970	-200,000	0,026	-0,099
-643,955	-24,908	-0,109	-0,047
-642,941	-124,781	-0,205	0,023
-641,926	-0,212	-0,043	0,022
-640,911	-9,997	0,218	-0,104
-639,897	-200,000	-0,021	0,201
-638,882	638,924	0,051	0,094
-637,868	800,000	-0,080	-0,190
-636,853	-88,911	-0,111	0,024
-635,838	137,585	0,129	0,122
-634,824	-200,000	-0,001	0,004
-633,809	800,000	0,040	0,103
-632,795	-200,000	0,027	-0,119
-631,780	23,049	-0,074	0,044
-630,765	472,896	-0,020	0,032
-629,751	3,591	0,049	-0,025
-628,736	104,343	-0,030	-0,025
-627,722	10,960	-0,053	-0,029
-626,707	-200,000	-0,009	-0,098
-625,692	-8,593	0,130	0,063
-624,678	477,937	0,021	0,034
-623,663	-200,000	-0,023	0,151
-622,649	170,285	0,065	-0,068
-621,634	-67,547	-0,196	-0,055
-620,619	-11,119	0,120	0,057
-619,605	-95,932	0,144	0,028
-618,590	-95,520	0,016	-0,003
-617,576	-58,950	0,036	0,011
-616,561	70,772	-0,083	0,062
-615,546	141,927	-0,033	0,032
-614,532	656,604	-0,057	-0,106
-613,517	794,426	-0,035	0,070
-612,503	-136,580	0,125	-0,010
-611,488	-200,000	0,006	-0,075
-610,474	13,485	-0,107	0,060
-609,459	361,524	0,046	0,066
-608,444	800,000	-0,020	-0,047
-607,430	148,738	0,079	0,077
-606,415	311,462	-0,051	-0,069
-605,401	-53,035	-0,117	-0,038
-604,386	-57,716	0,062	-0,020
-603,371	-46,611	-0,068	0,024
-602,357	86,320	0,047	-0,037
-601,342	56,281	-0,083	-0,058
-600,328	-71,100	0,119	-0,032
-599,313	301,282	-0,036	-0,048
-598,298	800,000	0,014	0,035
-597,284	342,129	0,082	0,116
-596,269	-200,000	-0,000	0,024
-595,255	-200,000	0,032	0,132
-594,240	-200,000	-0,015	0,085
-593,225	-57,842	-0,107	-0,034
-592,211	-112,597	-0,167	-0,024
-591,196	800,000	-0,054	-0,131
-590,182	800,000	0,030	-0,092
-589,167	-200,000	0,030	-0,099
-588,152	248,213	-0,040	0,049
-587,138	-103,730	0,055	0,009
-586,123	-92,520	0,029	-0,006
-585,109	123,170	0,016	-0,015
-584,094	-200,000	-0,013	-0,049
-583,079	-116,111	-0,047	-0,006
-582,065	-166,118	0,042	0,001
-581,050	83,221	0,033	-0,026
-580,036	800,000	0,021	0,065
-579,021	-28,691	-0,129	-0,053
-578,006	346,134	-0,063	-0,089
-576,992	121,358	-0,081	-0,073
-575,977	54,976	0,108	-0,075
-574,963	-200,000	-0,023	-0,094
-573,948	-200,000	0,024	0,103
-572,934	-23,444	0,046	0,020
-571,919	307,062	-0,017	0,023
-570,904	-16,202	-0,116	0,053
-569,890	282,214	0,056	-0,072
-568,875	427,451	-0,071	0,111
-567,861	-11,134	0,175	-0,083
-566,846	-200,000	0,003	0,023
-565,831	765,659	-0,048	-0,093
-564,817	28,464	0,092	-0,056
-563,802	272,896	-0,059	-0,075
-562,788	-116,407	-0,053	0,007
-561,773	-42,713	-0,038	0,014
-560,758	-200,000	0,014	-0,057
-559,744	213,318	0,046	0,052
-558,729	-200,000	0,012	-0,046
-557,715	800,000	-0,044	-0,097
-556,700	-200,000	0,004	-0,088
-555,685	-37,364	0,054	0,021
-554,671	95,287	-0,070	-0,057
-553,656	-200,000	-0,000	-0,148
-552,642	504,562	-0,047	-0,078
-551,627	281,136	-0,019	-0,025
-550,612	360,892	-0,047	-0,068
-549,598	-101,526	0,048	0,008
-548,583	-110,317	-0,163	-0,024
-547,569	672,399	0,034	0,063
-546,554	800,000	0,052	0,160
-545,539	800,000	0,043	0,094
-544,525	800,000	0,020	-0,061
-543,510	37,528	-0,139	0,088
-542,496	-37,642	-0,102	0,039
-541,481	-5,649	0,055	0,027
-540,466	800,000	0,020	-0,055
-539,452	37,089	-0,118	0,075
-538,437	285,671	-0,026	0,034
-537,423	-116,135	0,113	0,015
-536,408	-200,000	-0,008	0,045
-535,393	414,294	0,045	0,070
-534,379	52,523	0,088	-0,060
-533,364	800,000	0,011	-0,026
-532,350	-200,000	0,004	0,111
-531,335	-200,000	0,001	0,016
-530,321	-92,453	0,028	0,006
-529,306	800,000	0,021	-0,054
-528,291	-26,946	-0,047	0,020
-527,277	800,000	0,070	0,146
-526,262	511,099	-0,073	-0,123
-525,248	-160,080	0,159	-0,006
-524,233	10,013	0,121	0,066
-523,218	800,000	-0,033	0,077
-522,204	-171,914	0,028	0,001
-521,189	302,022	-0,020	0,026
-520,175	-18,189	-0,120	0,054
-519,160	800,000	0,032	0,103
-518,145	66,961	0,080	0,058
-517,131	113,867	-0,077	0,068
-516,116	-103,430	0,037	-0,006
-515,102	-200,000	-0,004	0,035
-514,087	-132,131	-0,136	-0,013
-513,072	800,000	-0,003	0,005
-512,058	230,572	-0,070	0,083
-511,043	800,000	0,068	0,144
-510,029	-151,063	0,201	0,011
-509,014	-113,662	-0,084	-0,012
-507,999	293,131	0,059	0,077
-506,985	-167,624	-0,099	0,003
-505,970	-88,556	-0,061	-0,013
-504,956	-69,825	0,088	0,024
-503,941	95,074	-0,052	-0,042
-502,926	800,000	-0,036	-0,077
-501,912	37,976	-0,060	0,038
-500,897	-5,720	0,162	0,079
-499,883	125,540	-0,114	0,103
-498,868	235,692	0,051	0,061
-497,853	203,846	-0,083	-0,092
-496,839	239,728	0,070	0,083
-495,824	-135,747	0,102	-0,009
-494,810	-51,998	-0,073	0,024
-493,795	-200,000	0,002	0,169
-492,781	-200,000	0,027	-0,133
-491,766	12,788	0,078	-0,043
-490,751	-67,897	0,082	-0,023
-489,737	58,409	0,138	-0,097
-488,722	-200,000	-0,029	0,147
-487,708	42,929	0,173	0,113
-486,693	-81,952	-0,100	-0,023
-485,678	-40,863	0,170	0,063
-484,664	404,298	-0,037	-0,056
-483,649	-134,445	0,093	0,008
-482,635	477,458	0,035	-0,056
-481,620	16,843	0,046	0,026
-480,605	694,594	0,058	0,110
-479,591	393,205	0,079	0,119
-478,576	800,000	-0,043	-0,115
-477,562	-200,000	-0,002	-0,111
-476,547	-200,000	0,001	-0,028
-475,532	-69,066	-0,027	-0,007
-474,518	-8,689	0,114	0,055
-473,503	203,488	-0,066	-0,073
-472,489	800,000	0,042	0,100
-471,474	163,471	0,080	-0,081
-470,459	-200,000	0,054	-0,177
-469,445	-67,123	-0,105	0,029
-468,430	133,110	-0,072	-0,067
-467,416	201,152	-0,047	0,052
-466,401	620,625	0,039	0,070
-465,386	800,000	-0,039	0,084
-464,372	43,447	0,094	0,061
-463,357	3,564	-0,142	-0,074
-462,343	800,000	0,017	-0,037
-461,328	-200,000	0,002	0,086
-460,313	66,078	0,060	0,043
-459,299	-175,204	-0,089	0,002
-458,284	41,356	0,178	0,115
-457,270	425,088	0,095	0,147
-456,255	53,255	-0,158	-0,109
-455,241	-118,616	-0,125	-0,016
-454,226	-200,000	0,022	0,106
-453,211	1,179	-0,019	0,010
-452,197	-200,000	0,015	0,078
-451,182	-97,681	0,087	-0,016
-450,168	800,000	0,052	-0,161
-449,153	-53,445	-0,130	0,043
-448,138	131,675	-0,139	0,129
-447,124	43,359	0,043	-0,028
-446,109	-200,000	-0,001	-0,149
-445,095	-96,252	0,085	0,016
-444,080	82,162	-0,045	0,035
-443,065	181,875	0,079	0,083
-442,051	257,122	0,043	-0,053
-441,036	800,000	-0,013	0,038
-440,022	-200,000	-0,025	-0,109
-439,007	-39,351	-0,090	0,034
-437,992	-81,528	0,070	0,016
-436,978	-116,483	-0,068	-0,009
-435,963	800,000	0,065	-0,138
-434,949	-41,020	-0,051	0,019
-433,934	139,255	0,022	-0,021
-432,919	313,919	-0,079	0,107
-431,905	-200,000	-0,040	-0,127
-430,890	-87,094	0,137	0,030
-429,876	-200,000	-0,013	0,172
-428,861	-94,773	0,127	0,024
-427,846	-145,424	-0,049	0,003
-426,832	596,367	0,013	-0,022
-425,817	-150,980	0,100	-0,005
-424,803	-154,676	-0,090	-0,004
-423,788	333,779	-0,033	0,045
-422,773	-200,000	0,008	0,211
-421,759	800,000	0,016	0,040
-420,744	-89,222	-0,060	0,013
-419,730	69,151	0,050	-0,037
-418,715	-47,342	0,225	-0,078
-417,701	-9,556	-0,072	-0,034
-416,686	-44,120	0,104	-0,037
-415,671	40,924	-0,060	-0,039
-414,657	-200,000	0,006	0,133
-413,642	800,000	-0,010	-0,025
-412,628	-80,860	0,178	-0,042
-411,613	-0,771	-0,074	-0,037
-410,598	-132,207	0,086	-0,008
-409,584	19,643	0,121	0,070
-408,569	-200,000	-0,009	0,108
-407,555	80,230	0,048	0,037
-406,540	150,391	0,093	0,091
-405,525	-165,367	-0,110	-0,003
-404,511	263,532	-0,114	-0,143
-403,496	-2,812	0,094	0,047
-402,482	697,791	-0,047	0,089
-401,467	319,103	-0,048	0,066
-400,452	800,000	-0,019	-0,054
-399,438	414,677	-0,053	0,080
-398,423	-71,924	0,096	0,025
-397,409	-200,000	-0,012	-0,061
-396,394	397,101	-0,046	-0,068
-395,379	-200,000	0,017	-0,079
-394,365	-59,194	0,114	-0,035
-393,350	800,000	0,041	0,124
-392,336	102,643	0,058	-0,048
-391,321	-167,189	-0,052	0,001
-390,306	4,229	0,052	-0,027
-389,292	800,000	-0,044	-0,101
-388,277	-200,000	0,000	-0,085
-387,263	539,775	-0,050	0,086
-386,248	800,000	-0,037	-0,087
-385,233	-132,954	-0,067	0,006
-384,219	-147,239	0,107	-0,006
-383,204	-171,669	-0,189	-0,004
-382,190	371,951	-0,026	-0,038
-381,175	18,195	-0,018	-0,010
-380,160	-12,208	-0,104	0,048
-379,146	-66,050	0,115	0,032
-378,131	-146,902	0,019	0,001
-377,117	543,369	0,030	0,052
-376,102	12,986	-0,097	0,054
-375,088	-91,552	-0,063	-0,013
-374,073	227,673	0,052	0,060
-373,058	-101,377	0,071	-0,012
-372,044	800,000	0,007	-0,016
-371,029	-200,000	-0,036	-0,118
-370,015	-112,723	-0,084	0,012
-369,000	800,000	-0,046	-0,096
-367,985	-200,000	-0,015	-0,066
-366,971	-68,211	-0,094	-0,026
-365,956	231,057	0,004	0,005
-364,942	-33,333	0,086	-0,034
-363,927	37,077	-0,081	0,051
-362,912	85,035	-0,073	-0,057
-361,898	800,000	-0,060	-0,177
-360,883	-81,740	-0,053	-0,012
-359,869	800,000	-0,042	0,090
-358,854	-85,875	-0,139	-0,030
-357,839	154,215	-0,119	0,117
-356,825	-200,000	-0,018	0,202
-355,810	345,261	-0,021	-0,029
-354,796	-104,426	-0,153	-0,025
-353,781	265,927	0,024	-0,029
-352,766	671,579	-0,056	-0,105
-351,752	-53,155	-0,038	-0,013
-350,737	800,000	-0,037	0,111
-349,723	-200,000	-0,008	0,120
-348,708	-200,000	0,010	0,079
-347,693	-15,805	0,017	0,008
-346,679	-108,502	-0,081	0,012
-345,664	-200,000	0,005	-0,117
-344,650	-200,000	0,039	-0,216
-343,635	-200,000	0,014	-0,056
-342,620	-37,336	0,148	0,056
-341,606	-200,000	0,039	-0,153
-340,591	-21,592	-0,067	0,029
-339,577	-200,000	-0,018	-0,067
-338,562	-200,000	-0,030	0,138
-337,548	26,053	0,114	-0,068
-336,533	-10,973	-0,089	-0,042
-335,518	-56,402	0,079	-0,025
-334,504	134,266	-0,034	0,031
-333,489	-57,527	-0,058	0,018
-332,475	-200,000	0,016	0,123
-331,460	-200,000	-0,002	-0,154
-330,445	-200,000	0,001	-0,071
-329,431	39,120	0,068	0,043
-328,416	-62,344	-0,111	0,033
-327,402	-200,000	0,034	0,215
-326,387	243,790	-0,048	-0,057
-325,372	-200,000	-0,007	-0,090
-324,358	-200,000	-0,001	-0,037
-323,343	438,426	-0,028	-0,044
-322,329	23,987	0,070	0,041
-321,314	-51,857	0,081	-0,027
-320,299	156,986	-0,030	-0,030
-319,285	2,176	-0,044	-0,022
-318,270	107,341	0,159	0,135
-317,256	-55,650	-0,084	-0,027
-316,241	425,380	0,050	0,077
-315,226	-90,148	0,099	0,020
-314,212	35,673	0,068	-0,042
-313,197	-200,000	-0,025	0,115
-312,183	-200,000	0,010	0,102
-311,168	-173,431	-0,066	0,001
-310,153	42,613	-0,086	0,056
-309,139	-200,000	-0,003	-0,161
-308,124	-200,000	-0,040	-0,130
-307,110	-192,543	0,132	0,001
-306,095	800,000	0,070	0,166
-305,080	-200,000	0,008	-0,061
-304,066	-200,000	0,005	-0,066
-303,051	800,000	-0,094	-0,208
-302,037	-200,000	0,020	-0,089
-301,022	205,197	0,073	-0,081
-300,008	269,006	0,045	0,056
-298,993	147,111	0,095	0,092
-297,978	142,015	-0,019	-0,018
-296,964	602,320	-0,040	-0,071
-295,949	800,000	-0,033	0,068
-294,935	38,188	0,099	-0,063
-293,920	800,000	0,034	0,083
-292,905	-200,000	0,035	0,166
-291,891	-200,000	0,007	0,028
-290,876	-200,000	-0,001	0,036
-289,862	634,621	-0,049	-0,090
-288,847	26,607	-0,029	0,017
-287,832	-148,197	-0,142	-0,008
-286,818	-111,770	-0,134	0,019
-285,803	52,164	0,096	0,065
-284,789	1,500	0,145	0,074
-283,774	-200,000	0,006	0,044
-282,759	800,000	0,038	-0,076
-281,745	-189,901	-0,036	0,000
-280,730	-200,000	-0,045	-0,154
-279,716	368,423	0,016	-0,024
-278,701	800,000	0,027	0,061
-277,686	-68,679	0,078	-0,021
-276,672	737,644	-0,031	0,059
-275,657	197,764	-0,059	-0,064
-274,643	446,578	0,023	-0,035
-273,628	-200,000	0,005	-0,093
-272,613	-200,000	0,030	-0,143
-271,599	150,293	0,118	0,114
-270,584	800,000	0,028	0,066
-269,570	800,000	-0,044	0,129
-268,555	800,000	-0,083	0,204
-267,540	-108,809	-0,070	-0,011
-266,526	-153,352	-0,129	-0,006
-265,511	50,429	0,105	0,071
-264,497	206,576	-0,037	0,041
-263,482	-125,441	0,130	0,014
-262,467	800,000	0,004	-0,011
-261,453	131,407	0,118	0,108
-260,438	92,763	-0,168	0,135
-259,424	95,225	-0,070	-0,057
-258,409	83,079	0,171	-0,132
-257,395	208,438	-0,017	-0,019
-256,380	98,047	-0,051	-0,042
-255,365	-200,000	0,001	-0,095
-254,351	-200,000	-0,015	-0,084
-253,336	104,499	-0,060	-0,050
-252,322	-42,543	-0,039	-0,014
-251,307	417,052	-0,012	-0,019
-250,292	-100,354	0,082	-0,014
-249,278	-200,000	0,012	-0,073
-248,263	-200,000	-0,003	0,101
-247,249	495,836	-0,035	0,058
-246,234	-13,536	-0,068	0,031
-245,219	800,000	-0,095	-0,219
-244,205	-3,045	-0,144	0,071
-243,190	-49,569	-0,127	0,043
-242,176	-200,000	0,027	0,134
-241,161	531,996	0,038	-0,065
-240,146	199,257	0,018	0,019
-239,132	155,113	-0,078	0,076
-238,117	800,000	-0,037	0,096
-237,103	-147,680	0,052	-0,003
-236,088	-184,220	-0,093	0,001
-235,073	-200,000	0,022	0,095
-234,059	71,938	0,127	0,094
-233,044	464,250	-0,107	-0,170
-232,030	-200,000	0,007	-0,200
-231,015	391,703	0,033	0,048
-230,000	556,151	-0,041	-0,071
-228,986	-200,000	0,020	0,079
-227,971	522,682	0,109	0,183
-226,957	211,658	0,082	-0,092
-225,942	-200,000	0,009	-0,030
-224,927	30,592	-0,050	0,030
-223,913	-200,000	-0,001	0,040
-222,898	800,000	-0,055	-0,139
-221,884	-37,677	0,038	-0,014
-220,869	592,109	-0,051	0,089
-219,855	20,935	-0,041	-0,024
-218,840	800,000	0,036	0,091
-217,825	98,309	0,106	0,087
-216,811	-89,685	0,155	-0,032
-215,796	800,000	-0,037	-0,091
-214,782	-200,000	-0,015	0,069
-213,767	-200,000	0,005	-0,045
-212,752	20,791	-0,084	-0,048
-211,738	-17,230	0,014	-0,006
-210,723	118,296	-0,148	0,129
-209,709	-109,329	-0,038	0,006
-208,694	-200,000	0,006	-0,125
-207,679	800,000	-0,069	-0,198
-206,665	-20,525	0,089	-0,039
-205,650	800,000	-0,044	0,094
-204,636	514,413	-0,016	0,026
-203,621	161,064	-0,046	-0,046
-202,606	-200,000	0,002	-0,018
-201,592	-78,419	-0,163	0,039
-200,577	267,502	-0,026	0,033
-199,563	-200,000	0,003	0,071
-198,548	571,514	-0,004	0,007
-197,533	149,692	0,048	-0,046
-196,519	-200,000	0,042	0,132
-195,504	135,751	0,139	0,128
-194,490	30,557	-0,090	-0,055
-193,475	363,802	-0,027	-0,038
-192,460	244,851	0,100	-0,119
-191,446	208,637	-0,048	-0,054
-190,431	-200,000	0,018	0,059
-189,417	9,404	0,045	-0,024
-188,402	-87,017	-0,123	0,026
-187,387	33,182	0,077	0,047
-186,373	800,000	0,082	-0,161
-185,358	-200,000	0,007	-0,095
-184,344	-8,080	-0,040	-0,019
-183,329	-30,238	0,085	0,034
-182,315	-20,973	0,135	0,058
-181,300	94,825	-0,186	0,150
-180,285	-136,849	-0,063	0,005
-179,271	-200,000	0,035	-0,203
-178,256	127,968	-0,004	-0,004
-177,242	-16,428	-0,055	0,025
-176,227	384,176	0,039	-0,057
-175,212	-46,670	0,135	0,047
-174,198	226,843	0,087	0,100
-173,183	-55,508	0,096	-0,030
-172,169	65,596	-0,115	-0,083
-171,154	7,542	0,109	-0,058
-170,139	47,864	-0,073	0,048
-169,125	800,000	-0,044	-0,117
-168,110	-200,000	0,003	0,040
-167,096	800,000	0,013	-0,033
-166,081	328,265	-0,128	-0,174
-165,066	-200,000	-0,001	-0,088
-164,052	-200,000	-0,025	-0,097
-163,037	31,541	-0,067	-0,041
-162,023	800,000	0,011	-0,022
-161,008	522,580	0,011	0,019
-159,993	-33,149	-0,034	-0,013
-158,979	800,000	-0,056	-0,175
-157,964	-79,258	0,192	-0,046
-156,950	-200,000	-0,025	-0,116
-155,935	-200,000	0,006	-0,121
-154,920	36,656	0,108	-0,067
-153,906	-67,792	0,033	0,009
-152,891	-58,418	-0,064	-0,020
-151,877	-36,845	-0,116	-0,044
-150,862	625,737	0,014	-0,025
-149,847	-200,000	-0,015	-0,056
-148,833	-200,000	0,011	0,125
-147,818	124,178	0,145	-0,130
-146,804	800,000	-0,049	0,148
-145,789	-155,212	0,075	-0,003
-144,775	800,000	0,044	-0,096
-143,760	410,078	-0,070	0,106
-142,745	-200,000	-0,004	0,048
-141,731	504,470	-0,011	-0,018
-140,716	-67,003	-0,033	0,009
-139,702	157,980	-0,047	-0,046
-138,687	-200,000	0,005	0,047
-137,672	-121,199	0,062	0,007
-136,658	275,105	-0,068	-0,085
-135,643	-114,086	0,028	0,004
-134,629	800,000	0,025	0,067
-133,614	37,243	0,089	-0,056
-132,599	0,287	0,058	0,029
-131,585	-200,000	0,006	-0,060
-130,570	146,666	-0,039	0,037
-129,556	-200,000	0,005	0,059
-128,541	346,208	-0,035	-0,049
-127,526	-84,473	-0,152	-0,034
-126,512	237,513	0,030	0,035
-125,497	-200,000	0,009	0,181
-124,483	436,424	-0,008	-0,012
-123,468	576,733	0,012	-0,021
-122,453	157,882	-0,100	0,098
-121,439	-148,866	-0,068	0,004
-120,424	800,000	0,065	0,140
-119,410	23,171	-0,025	-0,014
-118,395	-200,000	0,024	0,138
-117,380	-74,761	-0,075	0,019
-116,366	800,000	0,029	-0,073
-115,351	-200,000	0,001	-0,067
-114,337	-200,000	-0,032	-0,133
-113,322	35,058	-0,060	0,037
-112,307	129,575	0,079	-0,071
-111,293	-200,000	0,025	0,100
-110,278	-200,000	-0,039	0,190
-109,264	127,144	-0,111	0,100
-108,249	-200,000	0,004	-0,129
-107,234	-199,955	-0,052	0,000
-106,220	-200,000	-0,006	0,146
-105,205	38,253	0,028	-0,018
-104,191	-21,031	0,044	-0,019
-103,176	-43,281	-0,111	0,040
-102,162	-65,518	0,038	-0,011
-101,147	-69,170	-0,039	-0,011
-100,132	800,000	0,029	0,073
-99,118	392,777	-0,046	0,068
-98,103	-108,424	0,241	0,036
-97,089	365,384	0,079	0,113
-96,074	281,988	0,080	0,101
-95,059	-200,000	-0,010	0,093
-94,045	-147,908	-0,032	-0,002
-93,030	123,352	0,045	-0,040
-92,016	800,000	0,068	0,145
-91,001	737,593	0,041	-0,079
-89,986	470,918	0,044	-0,071
-88,972	-27,854	0,061	-0,025
-87,957	-56,695	0,049	-0,015
-86,943	-11,876	-0,071	-0,033
-85,928	-184,918	0,088	0,001
-84,913	-41,142	-0,094	-0,034
-83,899	11,142	-0,087	0,047
-82,884	122,337	0,040	0,035
-81,870	480,061	-0,044	0,070
-80,855	239,263	-0,064	0,076
-79,840	-49,289	-0,110	0,037
-78,826	-48,469	-0,073	0,025
-77,811	-92,824	0,033	0,006
-76,797	-100,461	-0,041	-0,007
-75,782	-200,000	0,047	0,188
-74,767	-200,000	0,022	0,106
-73,753	392,064	0,021	0,031
-72,738	-200,000	0,026	0,162
-71,724	41,575	-0,146	0,093
-70,709	128,998	-0,172	-0,155
-69,694	-135,359	0,040	0,003
-68,680	800,000	-0,007	0,019
-67,665	-200,000	0,004	-0,104
-66,651	345,698	0,089	0,124
-65,636	800,000	0,024	0,050
-64,622	-200,000	-0,034	0,127
-63,607	3,980	-0,164	0,085
-62,592	448,619	0,096	-0,150
-61,578	106,179	0,081	-0,068
-60,563	616,517	-0,026	-0,047
-59,549	-200,000	-0,000	0,101
-58,534	56,757	-1,846	-1,267
-57,519	468,585	-1,232	-1,959
-56,505	-200,000	-0,421	-4,294
-55,490	402,536	1,037	1,543
-54,476	800,000	5,113	11,317
-53,461	-200,000	21,342	340,136
-52,446	800,000	759,517	2359,447
-51,432	559,686	1662,632	2845,082
-50,417	73,746	1661,178	1227,576
-49,403	18,021	1534,874	861,157
-48,388	11,916	1458,534	788,794
-47,373	19,388	1449,639	819,812
-46,359	15,444	1438,954	794,977
-45,344	10,233	1434,601	767,727
-44,330	10,210	1432,746	766,597
-43,315	10,163	1430,955	765,385
-42,300	10,200	1429,174	764,580
-41,286	10,203	1428,041	763,955
-40,271	10,167	1426,739	763,058
-39,257	10,197	1425,479	762,498
-38,242	10,241	1424,429	762,113
-37,227	10,225	1423,183	761,341
-36,213	10,167	1421,925	760,363
-35,198	10,239	1420,828	760,087
-34,184	10,258	1419,996	759,700
-33,169	10,154	1418,660	758,464
-32,154	10,237	1417,571	758,243
-31,140	10,281	1416,059	757,612
-30,125	10,247	1415,208	756,966
-29,111	10,236	1414,060	756,272
-28,096	10,249	1412,861	755,661
-27,082	10,145	1411,802	754,575
-26,067	10,163	1410,774	754,081
-25,052	10,201	1409,508	753,554
-24,038	10,148	1408,693	752,839
-23,023	10,119	1407,965	752,283
-22,009	10,170	1406,508	751,712
-20,994	10,137	1405,684	751,092
-19,979	10,154	1404,686	750,607
-18,965	10,134	1403,807	750,014
-17,950	10,107	1402,910	749,380
-16,936	10,114	1402,257	749,032
-15,921	10,053	1401,166	748,138
-14,906	10,065	1400,382	747,743
-13,892	10,180	1399,205	747,619
-12,877	10,076	1398,495	746,729
-11,863	10,085	1397,678	746,304
-10,848	10,077	1396,606	745,666
-9,833	10,001	1395,826	744,866
-8,819	9,987	1394,987	744,323
-7,804	9,946	1394,186	743,676
-6,790	9,947	1393,135	743,091
-5,775	9,971	1392,175	742,659
-4,760	9,999	1390,811	742,034
-3,746	10,019	1389,862	741,588
-2,731	9,997	1388,921	740,957
-1,717	9,991	1388,459	740,653
-0,702	9,983	1386,473	739,528
0,313	14,071	1299,462	711,807
1,327	30,451	690,081	415,128
2,342	46,963	119,608	78,314
3,356	-0,450	16,532	8,253
4,371	1,056	3,462	1,746
5,386	-4,579	1,224	0,594
6,400	-200,000	0,065	0,530
7,415	87,836	-0,236	-0,184
8,429	53,058	-0,308	-0,208
9,444	-65,580	-0,272	-0,076
10,459	-140,175	-0,356	-0,026
11,473	124,246	-0,295	-0,261
12,488	-17,421	-0,270	-0,119
13,502	-180,381	-0,250	-0,004
14,517	-96,826	-0,320	-0,059
15,531	26,164	-0,402	-0,236
16,546	119,322	-0,251	-0,219
17,561	234,722	-0,233	-0,271
18,575	104,826	-0,059	-0,049
19,590	180,804	-0,150	-0,155
20,604	-23,856	-0,278	-0,117
21,619	24,482	-0,440	-0,255
22,634	-25,903	-0,465	-0,192
23,648	23,687	-0,429	-0,248
24,663	39,435	-0,393	-0,248
25,677	87,191	-0,389	-0,303
26,692	135,900	-0,307	-0,282
27,707	39,877	-0,279	-0,176
28,721	345,886	-0,315	-0,437
29,736	72,555	-0,429	-0,315
30,750	74,531	-0,360	-0,266
31,765	83,074	-0,370	-0,283
32,780	4,585	-0,362	-0,187
33,794	96,516	-0,308	-0,248
34,809	12,070	-0,335	-0,181
35,823	34,265	-0,288	-0,176
36,838	129,053	-0,361	-0,324
37,853	89,375	-0,272	-0,213
38,867	490,732	-0,259	-0,418
39,882	69,111	-0,380	-0,274
40,896	191,441	-0,324	-0,343
41,911	-3,566	-0,224	-0,109
42,926	-49,557	-0,368	-0,122
43,940	79,139	-0,410	-0,308
44,955	147,370	-0,306	-0,290
45,969	68,002	-0,250	-0,180
46,984	114,240	-0,328	-0,280
47,999	63,095	-0,304	-0,213
49,013	133,542	-0,361	-0,328
50,028	46,694	-0,302	-0,197
51,042	-15,703	-0,283	-0,126
52,057	311,627	-0,388	-0,513
53,071	37,592	-0,415	-0,258
54,086	-39,794	-0,334	-0,122
55,101	264,206	-0,224	-0,275
56,115	49,091	-0,322	-0,212
57,130	75,187	-0,334	-0,247
58,144	78,973	-0,303	-0,228
59,159	77,704	-0,231	-0,172
60,174	179,636	-0,321	-0,330
61,188	69,487	-0,306	-0,221
62,203	-74,149	-0,402	-0,101
63,217	-42,375	-0,324	-0,115
64,232	-76,973	-0,389	-0,094
65,247	109,843	-0,351	-0,295
66,261	55,503	-0,454	-0,308
67,276	27,047	-0,358	-0,210
68,290	56,243	-0,274	-0,186
69,305	10,248	-0,253	-0,134
70,320	65,667	-0,272	-0,193
71,334	13,989	-0,309	-0,168
72,349	-78,305	-0,344	-0,082
73,363	-12,071	-0,380	-0,174
74,378	33,288	-0,348	-0,211
75,393	233,633	-0,215	-0,248
76,407	13,108	-0,333	-0,180
77,422	63,545	-0,414	-0,291
78,436	276,558	-0,175	-0,219
79,451	22,826	-0,417	-0,239
80,466	75,298	-0,237	-0,175
81,480	112,602	-0,367	-0,311
82,495	64,673	-0,131	-0,092
83,509	96,933	-0,308	-0,247
84,524	-17,987	-0,294	-0,128
85,539	37,276	-0,178	-0,110
86,553	10,775	-0,332	-0,177
87,568	-16,010	-0,343	-0,152
88,582	99,166	-0,223	-0,180
89,597	-69,391	-0,476	-0,127
90,611	32,150	-0,198	-0,119
91,626	69,184	-0,285	-0,205
92,641	87,297	-0,151	-0,117
93,655	38,442	-0,291	-0,181
94,670	-32,016	-0,312	-0,122
95,684	-32,575	-0,200	-0,078
96,699	88,748	-0,299	-0,232
97,714	-17,719	-0,319	-0,139
98,728	-98,001	-0,212	0,038
99,743	-17,902	-0,245	-0,107
100,757	18,951	-0,306	-0,171
101,772	764,476	-0,157	-0,299
102,787	15,784	-0,267	-0,146
103,801	328,856	-0,217	-0,292
104,816	-22,196	-0,288	-0,122
105,830	79,606	-0,302	-0,226
106,845	38,633	-0,345	-0,214
107,860	-134,225	-0,263	0,022
108,874	82,543	-0,200	-0,152
109,889	91,430	-0,246	-0,193
110,903	112,141	-0,255	-0,216
111,918	162,088	-0,173	-0,170
112,933	-82,787	-0,300	-0,067
113,947	-85,519	-0,234	-0,050
114,962	73,338	-0,344	-0,251
115,976	-10,577	-0,389	-0,179
116,991	-93,954	-0,443	-0,084
118,006	326,001	-0,249	-0,333
119,020	147,654	-0,225	-0,212
120,035	60,443	-0,308	-0,213
121,049	-46,295	-0,225	-0,077
122,064	-114,168	-0,344	-0,046
123,079	-20,581	-0,313	-0,134
124,093	-13,003	-0,329	-0,149
125,108	-30,722	-0,264	-0,104
126,122	85,960	-0,208	-0,160
127,137	72,756	-0,215	-0,156
128,151	-181,860	-0,261	-0,003
129,166	-99,552	-0,184	-0,032
130,181	146,909	-0,132	-0,124
131,195	404,313	-0,135	-0,199
132,210	23,576	-0,266	-0,153
133,224	41,387	-0,279	-0,176
134,239	93,920	-0,256	-0,202
135,254	-94,227	-0,334	-0,063
136,268	70,994	-0,260	-0,188
137,283	239,971	-0,149	-0,173
138,297	132,571	-0,278	-0,250
139,312	-0,288	-0,276	-0,136
140,327	5,835	-0,295	-0,152
141,341	0,046	-0,272	-0,135
142,356	47,204	-0,154	-0,100
143,370	-0,282	-0,227	-0,112
144,385	-63,257	-0,274	-0,078
145,400	112,714	-0,292	-0,246
146,414	183,528	-0,287	-0,296
147,429	-130,735	-0,271	-0,025
148,443	-110,857	-0,200	-0,028
149,458	-100,129	-0,087	-0,015
150,473	-111,267	-0,345	-0,049
151,487	-183,561	-0,147	0,002
152,502	-12,604	-0,311	-0,141
153,516	142,654	-0,278	-0,258
154,531	18,876	-0,244	-0,136
155,546	48,016	-0,243	-0,158
156,560	-80,925	-0,164	-0,038
157,575	-64,918	-0,267	-0,075
158,589	70,086	-0,189	-0,136
159,604	-54,903	-0,384	-0,120
160,619	-20,625	-0,239	-0,102
161,633	39,040	-0,207	-0,128
162,648	-28,251	-0,304	-0,121
163,662	4,442	-0,253	-0,129
164,677	800,000	-0,088	-0,257
165,692	135,991	-0,180	-0,163
166,706	79,494	-0,176	-0,131
167,721	-54,718	-0,333	-0,104
168,735	6,069	-0,262	-0,135
169,750	197,541	-0,224	-0,238
170,764	312,952	-0,215	-0,282
171,779	800,000	-0,027	0,079
172,794	10,052	-0,266	-0,140
173,808	-54,802	-0,185	-0,058
174,823	273,921	-0,133	-0,164
175,837	-103,954	-0,263	-0,042
176,852	284,033	-0,124	-0,155
177,867	-7,541	-0,173	-0,081
178,881	-200,000	-0,314	0,000
179,896	119,438	-0,163	-0,140
180,910	141,548	-0,224	-0,206
181,925	200,219	-0,257	-0,274
182,940	100,807	-0,268	-0,217
183,954	41,607	-0,329	-0,206
184,969	339,276	-0,139	-0,189
185,983	-23,031	-0,258	-0,107
186,998	200,838	-0,143	-0,153
188,013	95,905	-0,175	-0,139
189,027	295,912	-0,142	-0,181
190,042	800,000	-0,086	-0,179
191,056	-26,327	-0,257	-0,104
192,071	50,043	-0,218	-0,143
193,086	50,544	-0,239	-0,156
194,100	-39,359	-0,226	-0,082
195,115	257,361	-0,121	-0,145
196,129	138,756	-0,235	-0,214
197,144	79,800	-0,216	-0,160
198,159	160,402	-0,247	-0,239
199,173	-101,631	-0,146	-0,024
200,188	358,422	-0,120	-0,167
201,202	100,597	-0,098	-0,079
202,217	-70,358	-0,291	-0,076
203,232	-29,413	-0,160	-0,063
204,246	131,501	-0,193	-0,172
205,261	-61,556	-0,201	-0,058
206,275	52,912	-0,181	-0,120
207,290	15,997	-0,225	-0,123
208,304	339,213	-0,146	-0,198
209,319	85,468	-0,206	-0,157
210,334	329,690	-0,108	-0,144
211,348	167,737	-0,263	-0,259
212,363	-200,000	-0,070	-0,216
213,377	-5,897	-0,243	-0,115
214,392	-134,561	-0,169	-0,014
215,407	-25,233	-0,254	-0,103
216,421	320,783	-0,062	-0,082
217,436	142,443	-0,162	-0,149
218,450	387,707	-0,151	-0,216
219,465	-9,116	-0,267	-0,123
220,480	-43,290	-0,203	-0,071
221,494	-7,026	-0,264	-0,124
222,509	-96,823	-0,166	-0,030
223,523	-68,429	-0,220	-0,059
224,538	290,495	-0,168	-0,211
225,553	140,156	-0,251	-0,229
226,567	247,338	-0,154	-0,180
227,582	-38,537	-0,206	-0,075
228,596	458,101	-0,108	-0,167
229,611	229,413	-0,152	-0,172
230,626	121,035	-0,139	-0,120
231,640	156,326	-0,162	-0,155
232,655	264,173	-0,165	-0,199
233,669	251,307	-0,189	-0,223
234,684	-200,000	-0,033	-0,319
235,699	175,527	-0,121	-0,121
236,713	436,960	-0,111	-0,167
237,728	-200,000	-0,003	-0,026
238,742	-35,148	-0,302	-0,113
239,757	31,152	-0,203	-0,120
240,772	45,204	-0,184	-0,117
241,786	24,982	-0,140	-0,080
242,801	103,881	-0,124	-0,101
243,815	-62,452	-0,296	0,084
244,830	-105,453	-0,093	-0,014
245,844	318,695	-0,076	-0,100
246,859	323,405	-0,180	-0,237
247,874	247,521	-0,206	-0,241
248,888	-111,492	-0,196	-0,027
249,903	198,219	-0,122	-0,129
250,917	122,231	-0,100	-0,087
251,932	-11,759	-0,111	-0,050
252,947	800,000	-0,065	-0,175
253,961	278,072	-0,085	-0,104
254,976	199,722	-0,113	-0,120
255,990	16,240	-0,222	-0,120
257,005	307,392	-0,075	-0,097
258,020	576,291	-0,105	-0,177
259,034	82,616	-0,173	-0,129
260,049	467,659	-0,055	-0,086
261,063	441,419	-0,117	-0,177
262,078	404,661	-0,158	-0,230
263,093	337,649	-0,146	-0,196
264,107	62,683	-0,223	-0,153
265,122	800,000	-0,076	-0,157
266,136	-44,774	-0,150	-0,051
267,151	76,091	-0,162	-0,118
268,166	257,877	-0,212	-0,252
269,180	261,453	-0,197	-0,236
270,195	29,827	-0,201	-0,118
271,209	800,000	-0,102	-0,201
272,224	251,947	-0,138	-0,162
273,239	10,167	-0,232	-0,121
274,253	67,833	-0,216	-0,152
275,268	-52,165	-0,168	-0,053
276,282	139,304	-0,160	-0,145
277,297	202,654	-0,232	-0,247
278,312	119,176	-0,144	-0,123
279,326	-145,955	-0,266	-0,016
280,341	-116,233	-0,099	-0,012
281,355	-9,359	-0,144	0,066
282,370	561,033	-0,095	-0,159
283,384	-3,206	-0,279	-0,133
284,399	198,313	-0,082	-0,086
285,414	110,888	-0,110	-0,091
286,428	287,622	-0,079	-0,099
287,443	169,680	-0,105	-0,103
288,457	-164,292	-0,170	0,005
289,472	-35,474	-0,232	-0,086
290,487	800,000	-0,072	-0,138
291,501	208,931	-0,081	-0,088
292,516	-22,466	-0,162	-0,067
293,530	344,429	-0,086	-0,116
294,545	-80,266	-0,172	-0,039
295,560	39,035	0,008	0,005
296,574	106,869	-0,060	-0,049
297,589	340,734	-0,078	-0,105
298,603	71,548	-0,247	-0,176
299,618	326,870	-0,186	-0,246
300,633	233,588	-0,169	-0,191
301,647	55,340	-0,092	-0,061
302,662	-52,052	-0,129	-0,041
303,676	800,000	-0,051	-0,106
304,691	2,278	-0,087	0,043
305,706	12,476	-0,225	-0,119
306,720	17,042	-0,135	-0,073
307,735	9,587	-0,123	-0,064
308,749	800,000	-0,072	-0,146
309,764	18,458	-0,121	0,066
310,779	-4,191	-0,175	-0,083
311,793	211,464	-0,113	-0,122
312,808	27,431	-0,261	-0,150
313,822	-151,814	-0,159	-0,008
314,837	221,678	-0,257	-0,284
315,852	357,144	-0,165	-0,226
316,866	82,315	-0,213	-0,158
317,881	-129,313	-0,041	0,004
318,895	130,243	-0,170	-0,149
319,910	55,751	-0,219	-0,145
320,925	486,800	-0,122	-0,192
321,939	-0,115	-0,100	-0,048
322,954	-69,219	-0,111	0,029
323,968	-200,000	-0,022	-0,074
324,983	-132,860	-0,165	0,014
325,997	-15,599	-0,048	0,021
327,012	-200,000	-0,049	-0,155
328,027	-49,104	-0,240	-0,078
329,041	-18,311	-0,197	-0,084
330,056	-200,000	-0,169	-0,000
331,070	0,011	-0,103	0,050
332,085	-200,000	0,004	-0,067
333,100	33,080	-0,110	0,065
334,114	-135,351	-0,097	0,008
335,129	524,374	-0,116	-0,187
336,143	-146,270	-0,133	0,008
337,158	-59,359	-0,117	-0,034
338,173	12,570	-0,034	-0,018
339,187	14,032	-0,150	-0,080
340,202	-11,108	-0,166	-0,075
341,216	9,697	-0,149	-0,077
342,231	1,999	-0,197	-0,097
343,246	-200,000	-0,038	-0,173
344,260	-51,990	-0,205	-0,065
345,275	-79,350	-0,100	0,023
346,289	-65,424	0,091	-0,025
347,304	-88,501	-0,153	-0,031
348,319	-72,978	-0,190	-0,047
349,333	-77,728	-0,216	0,051
350,348	-200,000	-0,020	-0,151
351,362	-200,000	0,007	-0,107
352,377	12,042	-0,034	0,018
353,392	-135,790	-0,139	-0,011
354,406	-98,786	-0,080	0,014
355,421	206,992	1309,680	1397,906
356,435	159,216	1469,756	1398,382
