DTS Sentinel unit serial number:	SN410029Multiplexer serial number:	ORYXHardware model number:	OX2-SRSoftware version number:	ORYX F/W v4,00 Oryx Data Collector v3.7.2.0data status	okinstallation	B3 Nyhavnadifferential loss correction	single-endedforward channel	channel 1reverse channel	N/Adate	2023/12/05time	02:22:30forward acquisition time	300,00reverse acquisition time	0,00gamma	499,1914k internal	0,3201k external	0,3201temperature offset calibration	1,0000default loss term (dB/km)	0,3820temperature slope calibration	1,0000multiplexer offset coefficient	1,0000multiplexer slope coefficient	1,0000fibre end	0,00T internal ref (°C)	13,93T ext. ref 1 (°C)	-0,66T ext. ref 2 (°C)	-0,68length (m)	temperature (°C)	Stokes	anti-Stokes-744,400	84,575	-0,275	-0,218
-743,385	-200,000	-0,014	0,433
-742,371	548,273	-0,108	-0,189
-741,356	-200,000	0,072	0,374
-740,342	592,640	-0,121	-0,218
-739,327	-200,000	0,036	0,182
-738,312	241,198	-0,103	-0,126
-737,298	526,156	0,058	0,099
-736,283	268,299	-0,170	-0,217
-735,269	-200,000	0,039	0,299
-734,254	-24,322	-0,276	-0,119
-733,239	162,653	-0,117	0,119
-732,225	-200,000	-0,058	-0,309
-731,210	26,614	0,128	0,078
-730,196	800,000	-0,041	-0,103
-729,181	800,000	0,036	-0,079
-728,167	420,102	0,037	0,058
-727,152	-106,733	0,029	-0,005
-726,137	-200,000	0,023	-0,085
-725,123	-3,346	-0,128	-0,065
-724,108	25,315	-0,148	-0,089
-723,094	-34,945	-0,173	-0,068
-722,079	800,000	-0,017	-0,052
-721,064	157,593	-0,121	0,122
-720,050	-200,000	0,024	0,106
-719,035	-200,000	-0,014	-0,078
-718,021	28,054	-0,106	0,065
-717,006	-200,000	0,008	0,084
-715,991	-200,000	-0,031	-0,209
-714,977	-200,000	-0,020	-0,067
-713,962	-200,000	-0,007	-0,026
-712,948	-200,000	0,009	0,068
-711,933	-50,476	-0,063	-0,021
-710,918	62,199	0,179	0,129
-709,904	791,362	0,030	-0,061
-708,889	335,067	-0,030	-0,042
-707,875	800,000	-0,078	-0,213
-706,860	-200,000	-0,009	-0,052
-705,845	-152,660	-0,152	0,008
-704,831	-101,300	0,093	-0,016
-703,816	-200,000	0,019	0,063
-702,802	-10,112	-0,034	0,016
-701,787	-200,000	0,023	-0,117
-700,772	-200,000	0,001	-0,052
-699,758	106,024	0,065	0,056
-698,743	361,581	0,057	-0,083
-697,729	-200,000	-0,007	0,025
-696,714	-129,409	0,064	-0,006
-695,699	70,358	0,051	0,039
-694,685	15,043	0,075	0,043
-693,670	-45,602	-0,068	-0,024
-692,656	-149,264	-0,082	0,005
-691,641	-200,000	0,002	0,038
-690,627	648,387	-0,015	-0,028
-689,612	-200,000	0,002	0,131
-688,597	157,287	0,052	0,053
-687,583	102,291	-0,032	0,027
-686,568	483,824	0,054	0,089
-685,554	-58,696	-0,094	0,029
-684,539	-200,000	0,019	-0,081
-683,524	-200,000	-0,006	0,029
-682,510	-200,000	-0,027	0,099
-681,495	-111,888	-0,006	0,001
-680,481	12,838	-0,096	-0,054
-679,466	-200,000	0,022	-0,080
-678,451	503,625	-0,014	0,023
-677,437	61,286	0,152	-0,109
-676,422	129,160	-0,066	0,061
-675,408	-200,000	-0,009	0,141
-674,393	-12,323	-0,092	0,044
-673,378	397,208	0,037	-0,057
-672,364	800,000	-0,030	-0,079
-671,349	366,443	-0,052	0,076
-670,335	-200,000	0,016	-0,062
-669,320	-84,892	0,096	-0,022
-668,305	193,490	-0,057	-0,062
-667,291	712,741	0,006	0,012
-666,276	-79,977	-0,077	0,019
-665,262	-13,648	-0,181	-0,085
-664,247	680,945	0,043	-0,081
-663,232	-77,722	0,075	-0,019
-662,218	-30,165	0,048	0,020
-661,203	-38,775	-0,035	0,013
-660,189	125,784	-0,053	-0,049
-659,174	800,000	-0,066	-0,161
-658,159	262,868	-0,114	-0,144
-657,145	314,234	-0,092	-0,127
-656,130	-200,000	-0,019	0,188
-655,116	660,393	-0,034	0,063
-654,101	123,485	0,096	0,087
-653,086	-200,000	-0,018	0,131
-652,072	-103,597	0,110	-0,019
-651,057	-200,000	0,004	-0,076
-650,043	327,805	0,046	-0,064
-649,028	209,410	-0,099	-0,113
-648,014	60,860	0,080	-0,057
-646,999	800,000	-0,036	0,078
-645,984	-102,099	-0,064	0,011
-644,970	-179,804	-0,075	0,001
-643,955	800,000	-0,042	-0,110
-642,941	133,726	-0,153	-0,143
-641,926	800,000	-0,037	-0,088
-640,911	800,000	0,049	0,141
-639,897	800,000	0,048	-0,134
-638,882	34,170	-0,059	0,037
-637,868	-200,000	0,011	-0,137
-636,853	265,242	-0,057	-0,073
-635,838	-200,000	-0,007	-0,092
-634,824	171,399	-0,041	-0,042
-633,809	-63,034	0,018	-0,005
-632,795	800,000	-0,015	0,046
-631,780	800,000	0,023	0,068
-630,765	-164,223	-0,077	-0,003
-629,751	-103,600	-0,071	-0,012
-628,736	-200,000	-0,043	-0,173
-627,722	-33,504	-0,098	0,039
-626,707	-152,092	0,076	-0,004
-625,692	573,732	-0,020	-0,035
-624,678	-121,323	-0,013	0,002
-623,663	68,311	0,075	-0,056
-622,649	-149,577	0,074	-0,004
-621,634	11,398	-0,047	0,026
-620,619	-87,505	0,157	0,034
-619,605	-200,000	0,011	-0,159
-618,590	735,791	0,021	0,041
-617,576	272,528	-0,080	0,103
-616,561	29,455	0,038	-0,024
-615,546	46,567	0,069	-0,046
-614,532	-200,000	0,006	-0,104
-613,517	-200,000	0,004	-0,039
-612,503	587,321	0,055	0,099
-611,488	-13,379	-0,052	0,024
-610,474	63,798	0,083	-0,061
-609,459	186,171	-0,093	-0,100
-608,444	148,021	-0,008	-0,008
-607,430	800,000	0,014	0,030
-606,415	-69,772	0,072	-0,020
-605,401	-77,194	0,089	-0,022
-604,386	-127,709	-0,148	-0,015
-603,371	5,714	0,048	0,025
-602,357	26,344	-0,092	0,055
-601,342	52,333	0,122	-0,084
-600,328	17,157	-0,071	-0,041
-599,313	-200,000	0,001	-0,077
-598,298	518,440	-0,072	0,122
-597,284	330,658	-0,053	0,074
-596,269	-67,156	0,077	-0,022
-595,255	-97,108	-0,050	0,009
-594,240	117,410	0,110	0,098
-593,225	653,431	-0,059	0,111
-592,211	-107,144	0,021	0,003
-591,196	7,067	-0,043	-0,023
-590,182	-200,000	0,006	-0,086
-589,167	55,419	-0,027	-0,019
-588,152	46,329	-0,088	-0,059
-587,138	-124,044	0,040	0,005
-586,123	-146,197	-0,153	-0,010
-585,109	213,973	-0,070	-0,081
-584,094	-7,880	-0,075	-0,037
-583,079	281,047	0,049	0,063
-582,065	436,762	0,053	0,084
-581,050	-17,248	0,113	0,051
-580,036	800,000	0,044	0,138
-579,021	-45,996	-0,044	0,016
-578,006	-26,793	-0,057	0,024
-576,992	-200,000	-0,021	-0,078
-575,977	38,309	-0,133	0,085
-574,963	333,739	0,061	0,085
-573,948	-51,599	0,117	0,039
-572,934	-34,119	0,095	0,038
-571,919	-65,604	-0,133	0,038
-570,904	24,607	-0,208	-0,124
-569,890	38,330	-0,118	-0,076
-568,875	-41,070	0,091	0,034
-567,861	-200,000	-0,017	0,092
-566,846	-200,000	-0,027	0,000
-565,831	104,843	-0,185	0,158
-564,817	-13,037	-0,073	0,034
-563,802	-58,705	-0,076	0,024
-562,788	24,395	-0,098	0,058
-561,773	-97,564	0,068	-0,013
-560,758	-102,030	-0,017	-0,003
-559,744	800,000	0,043	-0,122
-558,729	433,194	0,037	-0,058
-557,715	499,508	0,080	-0,133
-556,700	175,947	-0,059	-0,062
-555,685	-79,566	-0,139	0,034
-554,671	204,854	-0,073	0,082
-553,656	-150,677	-0,049	-0,003
-552,642	684,502	0,037	0,069
-551,627	38,976	-0,064	-0,041
-550,612	-200,000	0,004	-0,170
-549,598	-200,000	-0,003	-0,082
-548,583	-200,000	0,011	-0,075
-547,569	15,891	-0,112	-0,064
-546,554	-30,536	0,049	-0,020
-545,539	163,868	0,075	-0,076
-544,525	42,429	0,080	-0,052
-543,510	289,407	0,061	0,080
-542,496	511,570	0,057	-0,096
-541,481	800,000	0,039	0,112
-540,466	350,918	0,046	0,066
-539,452	800,000	0,057	0,138
-538,437	-58,144	0,091	0,028
-537,423	-138,951	0,075	-0,006
-536,408	-139,648	0,070	0,005
-535,393	177,441	-0,098	0,104
-534,379	9,369	-0,143	0,078
-533,364	-200,000	0,006	0,035
-532,350	-200,000	-0,017	0,062
-531,335	-200,000	-0,006	-0,069
-530,321	-200,000	0,039	0,152
-529,306	-56,602	0,170	0,054
-528,291	-200,000	-0,012	-0,088
-527,277	-200,000	0,002	-0,115
-526,262	-140,833	0,150	-0,011
-525,248	17,048	-0,033	-0,019
-524,233	-200,000	0,005	-0,050
-523,218	-78,473	0,127	-0,031
-522,204	-200,000	-0,014	0,051
-521,189	47,608	0,163	-0,109
-520,175	101,046	0,103	0,086
-519,160	-200,000	-0,009	-0,040
-518,145	-200,000	-0,008	-0,267
-517,131	100,783	-0,018	-0,015
-516,116	79,764	-0,108	0,083
-515,102	-200,000	-0,017	0,071
-514,087	434,248	-0,041	0,064
-513,072	-134,632	-0,155	-0,013
-512,058	695,125	0,023	0,044
-511,043	-74,238	0,105	-0,027
-510,029	155,154	0,091	0,090
-509,014	-200,000	-0,003	0,022
-507,999	210,519	-0,026	0,030
-506,985	800,000	0,056	-0,139
-505,970	-34,719	-0,039	0,015
-504,956	-94,371	0,076	-0,015
-503,941	607,385	-0,045	0,080
-502,926	-121,603	0,088	-0,010
-501,912	-174,427	0,107	0,002
-500,897	-70,918	-0,122	0,033
-499,883	-102,587	-0,048	0,008
-498,868	-200,000	0,001	0,014
-497,853	270,084	-0,058	-0,073
-496,839	800,000	-0,014	-0,029
-495,824	-79,768	0,095	-0,023
-494,810	-28,881	0,058	0,024
-493,795	569,944	0,067	-0,119
-492,781	636,758	-0,070	0,129
-491,766	-91,239	-0,082	0,017
-490,751	-111,951	-0,157	-0,023
-489,737	245,167	0,086	-0,104
-488,722	-200,000	-0,001	0,007
-487,708	-100,617	0,070	-0,012
-486,693	-143,380	0,128	-0,009
-485,678	-200,000	-0,010	0,131
-484,664	115,745	-0,050	0,044
-483,649	278,099	-0,073	0,094
-482,635	62,818	0,118	-0,085
-481,620	-200,000	-0,023	-0,176
-480,605	530,584	-0,021	-0,036
-479,591	119,278	0,096	0,085
-478,576	325,201	0,087	-0,119
-477,562	49,802	0,095	-0,064
-476,547	800,000	-0,050	-0,147
-475,532	-200,000	0,010	-0,072
-474,518	29,464	0,043	-0,026
-473,503	54,472	-0,059	-0,041
-472,489	59,749	0,090	0,064
-471,474	102,912	-0,036	-0,030
-470,459	-124,455	-0,040	-0,004
-469,445	2,977	0,075	-0,039
-468,430	-81,522	-0,124	0,029
-467,416	-200,000	0,021	0,094
-466,401	-200,000	0,007	-0,049
-465,386	417,906	0,039	0,061
-464,372	-151,778	0,067	-0,004
-463,357	-124,714	-0,094	-0,010
-462,343	95,497	-0,020	-0,016
-461,328	368,655	0,034	0,050
-460,313	796,610	0,015	-0,030
-459,299	-200,000	0,017	0,181
-458,284	30,143	-0,095	0,058
-457,270	-58,116	0,079	-0,025
-456,255	-120,366	-0,084	-0,010
-455,241	37,050	0,037	0,023
-454,226	62,757	-0,011	0,008
-453,211	800,000	-0,041	0,112
-452,197	800,000	0,040	0,118
-451,182	-200,000	0,007	0,142
-450,168	-32,317	0,106	-0,042
-449,153	413,499	0,080	0,123
-448,138	-105,616	-0,026	0,004
-447,124	-200,000	0,002	-0,126
-446,109	-200,000	-0,008	-0,063
-445,095	212,052	-0,021	-0,024
-444,080	-200,000	-0,024	0,077
-443,065	-200,000	0,004	-0,035
-442,051	800,000	0,037	0,101
-441,036	-200,000	-0,001	-0,032
-440,022	-200,000	-0,002	-0,048
-439,007	-127,732	-0,149	0,015
-437,992	-35,915	0,012	-0,005
-436,978	365,544	0,063	0,092
-435,963	-200,000	0,020	0,071
-434,949	105,916	-0,005	-0,004
-433,934	-67,128	0,034	-0,009
-432,919	103,012	-0,006	0,005
-431,905	451,027	-0,024	-0,038
-430,890	-82,938	0,058	-0,013
-429,876	-67,044	0,109	-0,031
-428,861	-200,000	0,001	-0,016
-427,846	206,569	0,041	-0,046
-426,832	9,368	-0,056	-0,030
-425,817	273,296	0,028	0,036
-424,803	-86,359	0,123	0,027
-423,788	800,000	-0,022	-0,069
-422,773	-48,393	0,142	0,049
-421,759	-200,000	0,020	-0,081
-420,744	193,436	-0,108	-0,117
-419,730	-200,000	-0,015	0,071
-418,715	-200,000	-0,019	0,088
-417,701	-8,658	-0,080	-0,039
-416,686	-200,000	-0,017	0,071
-415,671	-36,555	0,137	0,053
-414,657	766,319	0,038	-0,074
-413,642	24,505	0,100	0,059
-412,628	800,000	0,030	-0,083
-411,613	-6,956	-0,082	-0,040
-410,598	-116,555	-0,157	-0,021
-409,584	58,829	0,033	0,023
-408,569	-144,387	0,104	-0,007
-407,555	-116,264	0,123	-0,016
-406,540	-61,718	0,078	0,023
-405,525	53,066	-0,066	0,045
-404,511	-200,000	-0,029	-0,102
-403,496	161,056	-0,151	-0,152
-402,482	-85,760	0,041	-0,009
-401,467	375,833	0,013	-0,019
-400,452	-200,000	0,025	0,122
-399,438	-200,000	-0,024	0,100
-398,423	276,208	0,087	0,111
-397,409	446,127	-0,056	-0,088
-396,394	-200,000	0,033	-0,113
-395,379	629,032	-0,009	0,016
-394,365	372,200	0,041	0,060
-393,350	-200,000	-0,006	0,122
-392,336	-15,513	0,107	0,049
-391,321	132,382	-0,109	0,101
-390,306	-12,461	0,037	-0,017
-389,292	-56,271	-0,117	-0,037
-388,277	50,553	0,022	0,015
-387,263	72,166	-0,072	0,054
-386,248	384,999	0,100	0,148
-385,233	-17,249	0,069	0,031
-384,219	697,640	-0,033	0,062
-383,204	-72,523	-0,075	0,020
-382,190	203,996	-0,074	-0,082
-381,175	-42,369	-0,019	-0,007
-380,160	224,044	-0,069	-0,080
-379,146	-200,000	0,013	-0,041
-378,131	-200,000	-0,009	0,091
-377,117	124,983	0,092	0,083
-376,102	-46,021	0,036	-0,013
-375,088	-200,000	0,014	-0,063
-374,073	-43,469	0,035	-0,013
-373,058	-200,000	0,011	0,050
-372,044	-200,000	-0,001	0,097
-371,029	-94,727	0,082	0,016
-370,015	469,460	-0,080	-0,129
-369,000	324,817	-0,095	-0,130
-367,985	187,397	-0,044	0,047
-366,971	352,451	0,061	-0,086
-365,956	800,000	0,020	-0,045
-364,942	200,221	0,064	0,071
-363,927	-200,000	-0,001	-0,097
-362,912	132,282	-0,032	0,030
-361,898	487,085	-0,003	0,005
-360,883	-42,425	-0,129	-0,047
-359,869	-170,284	-0,136	0,003
-358,854	800,000	-0,011	0,023
-357,839	-200,000	0,021	0,160
-356,825	28,467	0,066	0,040
-355,810	19,575	-0,149	0,086
-354,796	240,822	0,023	-0,027
-353,781	800,000	-0,028	-0,078
-352,766	-39,720	0,132	-0,049
-351,752	-57,975	0,017	-0,005
-350,737	-77,243	0,108	0,027
-349,723	800,000	0,084	-0,178
-348,708	180,666	-0,037	-0,039
-347,693	393,943	0,043	0,064
-346,679	-83,645	-0,074	-0,017
-345,664	-200,000	-0,011	-0,086
-344,650	128,043	0,065	-0,059
-343,635	-200,000	-0,005	-0,117
-342,620	60,125	-0,015	0,010
-341,606	185,185	-0,055	-0,059
-340,591	9,983	-0,038	0,021
-339,577	-67,755	-0,068	0,019
-338,562	-138,125	0,118	-0,009
-337,548	-200,000	-0,006	-0,031
-336,533	42,768	-0,092	-0,060
-335,518	210,159	0,030	-0,034
-334,504	-80,290	-0,131	0,031
-333,489	48,046	-0,064	-0,042
-332,475	800,000	0,027	-0,067
-331,460	262,218	-0,061	0,076
-330,445	10,005	-0,091	-0,049
-329,431	-200,000	-0,006	-0,020
-328,416	40,267	0,127	0,081
-327,402	37,577	-0,092	-0,058
-326,387	480,713	0,034	-0,056
-325,372	377,873	-0,090	-0,131
-324,358	-200,000	-0,035	-0,176
-323,343	-200,000	0,018	-0,067
-322,329	-31,723	0,023	-0,009
-321,314	-200,000	-0,016	0,123
-320,299	-108,644	0,194	0,030
-319,285	-200,000	0,012	0,078
-318,270	189,600	-0,043	-0,046
-317,256	190,285	0,126	-0,136
-316,241	-200,000	-0,001	0,067
-315,226	14,623	-0,036	-0,020
-314,212	208,009	0,048	0,054
-313,197	191,269	0,021	-0,023
-312,183	-141,689	-0,117	0,008
-311,168	800,000	-0,012	0,026
-310,153	800,000	0,083	-0,202
-309,139	-200,000	-0,040	0,128
-308,124	-148,441	-0,061	-0,004
-307,110	11,858	0,111	0,061
-306,095	64,786	-0,126	0,091
-305,080	41,731	-0,006	0,004
-304,066	-200,000	-0,005	-0,094
-303,051	184,537	0,015	0,016
-302,037	568,898	-0,065	-0,114
-301,022	-81,234	-0,084	-0,020
-300,008	481,240	0,048	-0,078
-298,993	1,552	-0,105	0,054
-297,978	-200,000	-0,028	0,171
-296,964	-120,486	0,032	-0,004
-295,949	-200,000	0,015	-0,107
-294,935	-150,426	-0,138	0,007
-293,920	-200,000	0,015	-0,089
-292,905	43,104	0,046	0,030
-291,891	800,000	-0,015	0,043
-290,876	-143,109	-0,049	0,003
-289,862	-135,962	0,106	-0,009
-288,847	-153,509	0,164	0,008
-287,832	587,870	0,041	-0,072
-286,818	241,518	-0,052	-0,062
-285,803	-200,000	-0,011	-0,109
-284,789	-200,000	0,066	0,220
-283,774	800,000	-0,032	0,065
-282,759	-113,188	-0,088	0,012
-281,745	-200,000	0,005	0,027
-280,730	-200,000	0,028	-0,129
-279,716	644,519	0,088	-0,161
-278,701	-200,000	0,000	0,141
-277,686	54,896	0,066	0,046
-276,672	207,594	-0,022	0,025
-275,657	163,549	0,095	-0,095
-274,643	-123,412	-0,048	-0,005
-273,628	234,810	0,059	-0,070
-272,613	273,276	-0,034	-0,043
-271,599	-103,141	0,137	0,023
-270,584	-104,902	-0,113	0,018
-269,570	374,017	0,010	-0,014
-268,555	666,966	0,059	-0,109
-267,540	-167,280	-0,135	-0,004
-266,526	-3,049	-0,065	0,032
-265,511	-2,228	-0,003	0,002
-264,497	152,341	0,141	0,138
-263,482	-19,128	0,171	0,075
-262,467	83,938	0,070	-0,055
-261,453	77,701	-0,036	0,027
-260,438	800,000	-0,054	0,116
-259,424	-200,000	0,002	-0,049
-258,409	307,303	-0,009	0,012
-257,395	-200,000	0,006	0,057
-256,380	800,000	-0,048	-0,097
-255,365	-200,000	-0,008	0,091
-254,351	286,901	0,047	-0,061
-253,336	627,084	0,044	-0,079
-252,322	800,000	-0,016	0,051
-251,307	319,523	0,028	-0,038
-250,292	800,000	0,043	0,098
-249,278	-128,846	0,042	-0,004
-248,263	708,961	-0,064	0,121
-247,249	121,723	0,015	0,013
-246,234	-93,491	-0,095	0,019
-245,219	-80,949	-0,112	0,026
-244,205	-200,000	0,002	0,088
-243,190	-18,305	-0,126	0,056
-242,176	29,152	-0,122	0,074
-241,161	-200,000	-0,029	0,187
-240,146	800,000	0,029	-0,081
-239,132	-110,806	0,096	-0,014
-238,117	-126,850	-0,088	0,009
-237,103	705,441	-0,034	-0,065
-236,088	98,641	-0,114	-0,094
-235,073	-0,700	0,131	0,066
-234,059	-200,000	-0,006	-0,027
-233,044	-200,000	-0,019	0,150
-232,030	-160,992	-0,073	-0,003
-231,015	-200,000	-0,057	0,192
-230,000	82,884	-0,027	-0,021
-228,986	-200,000	-0,026	0,114
-227,971	678,248	0,016	-0,030
-226,957	-107,204	0,111	-0,017
-225,942	148,673	0,017	-0,017
-224,927	800,000	-0,023	0,066
-223,913	800,000	-0,013	0,034
-222,898	-180,879	-0,065	-0,001
-221,884	-110,539	0,177	-0,026
-220,869	800,000	-0,025	0,059
-219,855	201,133	0,074	0,081
-218,840	-200,000	-0,028	0,112
-217,825	-129,723	-0,127	0,012
-216,811	403,026	-0,049	-0,074
-215,796	219,432	-0,097	-0,111
-214,782	470,044	0,049	0,079
-213,767	58,770	0,111	0,077
-212,752	-200,000	-0,017	0,056
-211,738	800,000	0,040	0,082
-210,723	-133,927	-0,102	0,009
-209,709	40,970	-0,172	-0,111
-208,694	-200,000	-0,007	-0,059
-207,679	351,112	-0,004	0,005
-206,665	-200,000	-0,022	-0,110
-205,650	19,196	0,073	-0,042
-204,636	-200,000	0,036	0,120
-203,621	-200,000	0,061	0,204
-202,606	32,189	-0,123	0,076
-201,592	-0,114	0,025	0,013
-200,577	-200,000	-0,008	-0,059
-199,563	70,002	0,064	-0,047
-198,548	28,534	0,158	0,095
-197,533	-200,000	-0,002	0,062
-196,519	-2,808	0,080	-0,040
-195,504	800,000	-0,033	0,093
-194,490	236,069	-0,024	0,029
-193,475	57,051	-0,096	-0,066
-192,460	-161,085	0,093	-0,003
-191,446	-134,693	-0,032	0,003
-190,431	-106,074	0,103	0,016
-189,417	441,173	0,038	0,060
-188,402	-74,916	-0,157	0,040
-187,387	-50,064	0,039	-0,013
-186,373	-43,159	-0,135	0,048
-185,358	644,428	0,073	0,133
-184,344	74,395	0,038	0,028
-183,329	-103,524	0,024	0,004
-182,315	-81,853	0,098	0,023
-181,300	800,000	-0,017	-0,050
-180,285	800,000	-0,048	-0,134
-179,271	59,064	-0,052	0,036
-178,256	587,880	-0,032	0,057
-177,242	778,087	0,033	0,065
-176,227	-200,000	-0,025	0,111
-175,212	-200,000	0,015	-0,054
-174,198	-200,000	0,021	0,111
-173,183	-133,306	0,061	-0,005
-172,169	-200,000	0,013	-0,067
-171,154	-200,000	0,004	0,022
-170,139	800,000	-0,022	-0,048
-169,125	50,026	-0,124	0,083
-168,110	11,720	-0,078	0,042
-167,096	-86,540	0,061	-0,013
-166,081	41,979	0,027	0,017
-165,066	-148,817	0,067	0,004
-164,052	157,587	0,068	-0,067
-163,037	574,931	-0,012	-0,020
-162,023	-45,055	0,142	0,050
-161,008	-200,000	0,008	-0,114
-159,993	41,012	-0,076	0,049
-158,979	-200,000	-0,020	-0,122
-157,964	354,428	-0,073	-0,104
-156,950	800,000	-0,027	-0,067
-155,935	208,485	0,068	-0,076
-154,920	800,000	0,048	-0,118
-153,906	-68,192	0,070	-0,019
-152,891	31,395	0,063	0,039
-151,877	800,000	-0,070	0,196
-150,862	-200,000	-0,013	0,049
-149,847	800,000	0,019	0,044
-148,833	263,122	-0,169	0,209
-147,818	273,554	0,065	0,081
-146,804	-200,000	0,009	-0,037
-145,789	476,264	-0,034	0,055
-144,775	130,862	-0,079	0,072
-143,760	-67,344	-0,086	-0,024
-142,745	-200,000	-0,037	-0,248
-141,731	800,000	0,041	-0,088
-140,716	-200,000	0,005	0,061
-139,702	418,928	0,050	0,076
-138,687	13,742	0,059	0,033
-137,672	-0,433	0,083	0,042
-136,658	-33,805	-0,088	0,034
-135,643	-144,368	0,046	-0,003
-134,629	-121,910	-0,073	0,008
-133,614	800,000	0,037	0,109
-132,599	-50,896	0,043	-0,014
-131,585	95,009	0,113	0,091
-130,570	-200,000	-0,015	-0,058
-129,556	-200,000	-0,034	-0,119
-128,541	-200,000	0,011	-0,035
-127,526	150,023	0,072	-0,070
-126,512	302,145	0,012	0,016
-125,497	-34,746	-0,096	-0,037
-124,483	-1,891	-0,074	0,037
-123,468	293,619	0,013	-0,016
-122,453	-141,682	0,077	0,005
-121,439	-124,533	0,051	-0,006
-120,424	559,152	0,038	-0,066
-119,410	-53,558	0,110	-0,036
-118,395	-113,922	0,104	-0,014
-117,380	60,769	0,092	0,065
-116,366	-102,526	-0,189	-0,032
-115,351	325,572	-0,038	-0,052
-114,337	-43,348	-0,064	0,023
-113,322	187,625	-0,090	-0,095
-112,307	23,271	0,108	-0,063
-111,293	-200,000	-0,004	-0,051
-110,278	-98,256	-0,029	-0,005
-109,264	800,000	-0,045	0,096
-108,249	257,755	-0,037	0,045
-107,234	608,668	-0,039	0,069
-106,220	-31,600	-0,163	-0,065
-105,205	800,000	-0,027	0,079
-104,191	-59,293	0,139	0,042
-103,176	-200,000	0,024	-0,077
-102,162	2,171	0,091	0,046
-101,147	-15,853	-0,173	0,078
-100,132	-200,000	-0,002	0,024
-99,118	-97,469	0,079	-0,015
-98,103	595,385	0,059	0,104
-97,089	-0,344	-0,068	0,034
-96,074	386,293	0,040	0,058
-95,059	-200,000	0,121	0,000
-94,045	-9,922	0,025	-0,012
-93,030	-37,793	0,044	0,017
-92,016	-200,000	-0,063	-0,231
-91,001	800,000	0,016	0,047
-89,986	-200,000	-0,035	0,126
-88,972	800,000	-0,019	0,046
-87,957	-93,708	0,136	-0,026
-86,943	-51,599	0,109	-0,036
-85,928	-200,000	0,016	-0,197
-84,913	420,802	-0,087	-0,133
-83,899	407,872	-0,019	0,028
-82,884	-200,000	0,033	0,188
-81,870	270,940	0,082	0,103
-80,855	558,977	-0,003	0,004
-79,840	800,000	-0,064	-0,135
-78,826	290,476	0,016	0,021
-77,811	-15,169	-0,117	0,053
-76,797	15,859	0,064	0,035
-75,782	-48,092	-0,096	0,033
-74,767	800,000	0,032	0,097
-73,753	6,576	-0,081	0,043
-72,738	-33,799	0,065	-0,025
-71,724	-130,575	-0,055	-0,005
-70,709	105,599	-0,127	-0,106
-69,694	-200,000	-0,001	-0,069
-68,680	245,414	0,042	0,050
-67,665	800,000	0,017	0,049
-66,651	800,000	-0,060	0,183
-65,636	152,571	0,060	-0,058
-64,622	51,205	-0,101	0,068
-63,607	4,392	-0,085	-0,044
-62,592	-200,000	-0,015	-0,064
-61,578	376,938	-0,052	0,076
-60,563	-200,000	-0,012	0,117
-59,549	442,160	-0,088	0,137
-58,534	-40,419	-1,632	-0,597
-57,519	396,174	-1,423	-2,111
-56,505	-200,000	-0,548	-4,812
-55,490	168,035	0,979	0,987
-54,476	800,000	4,813	11,461
-53,461	-200,000	18,833	309,317
-52,446	-200,000	737,982	2311,396
-51,432	572,854	1654,114	2865,674
-50,417	79,090	1670,811	1265,759
-49,403	21,896	1543,660	888,486
-48,388	15,812	1466,271	814,375
-47,373	17,719	1456,355	818,048
-46,359	16,789	1446,404	807,967
-45,344	14,080	1441,714	792,345
-44,330	13,984	1440,019	790,919
-43,315	14,002	1438,115	789,930
-42,300	14,026	1436,493	789,120
-41,286	14,048	1435,078	788,421
-40,271	14,007	1433,942	787,570
-39,257	13,972	1432,795	786,740
-38,242	14,066	1431,409	786,394
-37,227	14,050	1430,267	785,659
-36,213	14,023	1428,932	784,767
-35,198	14,045	1427,750	784,193
-34,184	14,046	1426,880	783,685
-33,169	13,990	1425,567	782,672
-32,154	14,067	1424,296	782,304
-31,140	14,056	1423,024	781,525
-30,125	14,024	1422,213	780,898
-29,111	14,027	1420,968	780,197
-28,096	14,044	1419,718	779,558
-27,082	13,949	1418,916	778,640
-26,067	13,990	1417,562	778,058
-25,052	13,955	1416,581	777,326
-24,038	13,924	1415,738	776,683
-23,023	13,947	1414,535	776,101
-22,009	13,914	1413,740	775,480
-20,994	13,916	1412,845	774,967
-19,979	13,935	1411,814	774,461
-18,965	13,890	1410,980	773,761
-17,950	13,923	1409,902	773,293
-16,936	13,910	1409,031	772,725
-15,921	13,868	1407,856	771,852
-14,906	13,839	1407,076	771,260
-13,892	13,874	1406,028	770,816
-12,877	13,862	1405,168	770,260
-11,863	13,864	1404,303	769,765
-10,848	13,874	1403,462	769,321
-9,833	13,837	1402,431	768,552
-8,819	13,791	1401,676	767,893
-7,804	13,782	1400,845	767,365
-6,790	13,758	1399,819	766,664
-5,775	13,787	1398,702	766,155
-4,760	13,797	1397,654	765,595
-3,746	13,743	1396,898	764,903
-2,731	13,782	1396,033	764,579
-1,717	13,754	1395,031	763,868
-0,702	13,769	1393,248	762,933
0,313	17,587	1311,029	735,610
1,327	33,857	705,619	433,596
2,342	52,292	123,841	83,434
3,356	2,264	16,599	8,463
4,371	-3,613	3,235	1,585
5,386	43,261	0,545	0,351
6,400	61,773	0,054	0,038
7,415	329,113	-0,102	-0,139
8,429	81,061	-0,357	-0,272
9,444	29,571	-0,388	-0,233
10,459	0,543	-0,426	-0,215
11,473	17,710	-0,392	-0,220
12,488	-164,726	-0,330	-0,010
13,502	169,409	-0,190	-0,192
14,517	47,004	-0,308	-0,202
15,531	93,533	-0,367	-0,294
16,546	108,202	-0,398	-0,335
17,561	177,006	-0,392	-0,403
18,575	-69,808	-0,211	-0,056
19,590	236,102	-0,086	-0,101
20,604	-137,979	-0,247	-0,019
21,619	-9,079	-0,422	-0,199
22,634	31,025	-0,459	-0,277
23,648	65,736	-0,397	-0,284
24,663	31,346	-0,529	-0,320
25,677	70,948	-0,370	-0,270
26,692	38,718	-0,282	-0,177
27,707	9,446	-0,352	-0,187
28,721	-7,384	-0,374	-0,178
29,736	54,219	-0,486	-0,330
30,750	241,904	-0,278	-0,329
31,765	-2,918	-0,454	-0,223
32,780	314,938	-0,302	-0,403
33,794	102,138	-0,309	-0,255
34,809	-25,726	-0,303	-0,125
35,823	89,955	-0,283	-0,223
36,838	170,970	-0,336	-0,340
37,853	179,812	-0,331	-0,343
38,867	83,918	-0,362	-0,279
39,882	137,641	-0,301	-0,278
40,896	91,576	-0,298	-0,236
41,911	-58,867	-0,432	-0,131
42,926	45,065	-0,344	-0,223
43,940	54,106	-0,425	-0,287
44,955	38,882	-0,376	-0,236
45,969	49,814	-0,384	-0,254
46,984	134,169	-0,226	-0,206
47,999	-14,036	-0,394	-0,179
49,013	179,890	-0,179	-0,185
50,028	-12,840	-0,271	-0,124
51,042	4,321	-0,226	-0,116
52,057	92,233	-0,380	-0,302
53,071	35,127	-0,263	-0,162
54,086	40,738	-0,269	-0,170
55,101	144,072	-0,290	-0,273
56,115	-21,016	-0,415	-0,178
57,130	-20,157	-0,397	-0,171
58,144	74,352	-0,335	-0,248
59,159	-22,698	-0,405	-0,172
60,174	155,220	-0,250	-0,242
61,188	44,339	-0,380	-0,245
62,203	-14,325	-0,239	-0,108
63,217	98,678	-0,272	-0,221
64,232	-2,176	-0,317	-0,156
65,247	-44,363	-0,355	-0,125
66,261	41,916	-0,344	-0,219
67,276	100,267	-0,295	-0,241
68,290	-78,748	-0,256	-0,061
69,305	-16,075	-0,350	-0,156
70,320	-46,916	-0,269	-0,092
71,334	46,361	-0,361	-0,235
72,349	-8,721	-0,302	-0,142
73,363	-2,249	-0,363	-0,178
74,378	-3,140	-0,340	-0,166
75,393	-130,190	-0,361	0,034
76,407	-79,238	-0,342	-0,081
77,422	-44,005	-0,359	-0,126
78,436	16,871	-0,233	-0,129
79,451	-33,934	-0,273	-0,105
80,466	-67,500	-0,250	-0,068
81,480	-21,504	-0,532	-0,227
82,495	160,054	-0,262	-0,257
83,509	23,904	-0,360	-0,208
84,524	129,824	-0,097	-0,087
85,539	-94,009	-0,318	-0,061
86,553	281,993	-0,153	-0,194
87,568	60,302	-0,183	-0,127
88,582	33,338	-0,269	-0,164
89,597	62,265	-0,328	-0,229
90,611	488,365	-0,158	-0,255
91,626	28,883	-0,332	-0,197
92,641	86,752	-0,364	-0,282
93,655	33,147	-0,272	-0,165
94,670	7,179	-0,389	-0,203
95,684	36,240	-0,299	-0,185
96,699	-147,388	-0,378	-0,022
97,714	269,734	-0,259	-0,320
98,728	-6,277	-0,351	-0,167
99,743	5,422	-0,288	-0,149
100,757	27,172	-0,117	-0,069
101,772	-39,231	-0,351	-0,129
102,787	192,780	-0,289	-0,306
103,801	61,560	-0,339	-0,236
104,816	300,416	-0,170	-0,221
105,830	-75,453	-0,314	-0,078
106,845	179,901	-0,209	-0,215
107,860	-10,146	-0,419	-0,194
108,874	52,989	-0,388	-0,260
109,889	-200,000	-0,095	-0,356
110,903	307,245	-0,179	-0,234
111,918	196,869	-0,239	-0,256
112,933	301,100	-0,305	-0,395
113,947	-2,909	-0,238	-0,116
114,962	85,962	-0,294	-0,226
115,976	-123,208	-0,411	-0,046
116,991	34,120	-0,240	-0,146
118,006	-72,632	-0,361	-0,093
119,020	66,018	-0,168	-0,119
120,035	170,599	-0,241	-0,242
121,049	83,323	-0,275	-0,210
122,064	321,504	-0,126	-0,168
123,079	120,353	-0,251	-0,218
124,093	15,691	-0,302	-0,166
125,108	172,075	-0,312	-0,314
126,122	115,010	-0,373	-0,318
127,137	-73,916	-0,194	-0,049
128,151	52,229	-0,200	-0,133
129,166	-5,670	-0,218	-0,104
130,181	29,784	-0,301	-0,179
131,195	-70,833	-0,339	-0,089
132,210	75,975	-0,298	-0,220
133,224	222,113	-0,113	-0,127
134,239	-82,850	-0,264	-0,059
135,254	-32,198	-0,284	-0,110
136,268	110,432	-0,251	-0,211
137,283	180,614	-0,176	-0,181
138,297	-124,836	-0,234	-0,025
139,312	28,875	-0,378	-0,224
140,327	-79,221	-0,407	-0,096
141,341	-200,000	-0,084	-0,326
142,356	61,826	-0,228	-0,158
143,370	-77,801	-0,252	-0,060
144,385	-153,681	-0,385	-0,018
145,400	221,379	-0,276	-0,310
146,414	-28,443	-0,413	-0,166
147,429	113,684	-0,284	-0,241
148,443	43,644	-0,231	-0,147
149,458	205,584	-0,091	-0,099
150,473	154,014	-0,220	-0,211
151,487	-27,222	-0,133	-0,054
152,502	281,795	-0,203	-0,254
153,516	132,520	-0,244	-0,219
154,531	0,798	-0,353	-0,176
155,546	409,484	-0,175	-0,259
156,560	165,338	-0,181	-0,178
157,575	26,393	-0,261	-0,152
158,589	-88,230	-0,302	-0,062
159,604	33,246	-0,270	-0,163
160,619	25,313	-0,333	-0,192
161,633	45,517	-0,209	-0,134
162,648	68,219	-0,281	-0,200
163,662	134,827	-0,130	-0,118
164,677	-38,318	-0,207	-0,076
165,692	59,986	-0,268	-0,184
166,706	97,361	-0,207	-0,165
167,721	-3,363	-0,314	-0,152
168,735	335,758	-0,221	-0,299
169,750	72,435	-0,188	-0,137
170,764	-150,788	-0,258	-0,013
171,779	-43,088	-0,244	-0,086
172,794	-128,008	-0,247	-0,024
173,808	70,507	-0,208	-0,149
174,823	53,894	-0,360	-0,241
175,837	420,328	-0,136	-0,204
176,852	214,088	-0,144	-0,159
177,867	800,000	-0,068	-0,203
178,881	660,585	-0,102	-0,183
179,896	10,170	-0,259	-0,137
180,910	50,844	-0,210	-0,138
181,925	265,925	-0,148	-0,180
182,940	97,366	-0,254	-0,203
183,954	800,000	-0,128	-0,356
184,969	27,500	-0,229	-0,134
185,983	102,030	-0,170	-0,138
186,998	-0,274	-0,192	-0,095
188,013	154,035	-0,089	-0,085
189,027	-97,374	-0,277	-0,050
190,042	24,472	-0,171	-0,098
191,056	119,780	-0,206	-0,177
192,071	-95,926	-0,225	-0,041
193,086	-127,503	-0,233	0,023
194,100	-105,471	-0,300	-0,047
195,115	72,173	-0,320	-0,231
196,129	-89,890	-0,223	-0,045
197,144	-63,899	-0,208	-0,059
198,159	-1,106	-0,262	-0,128
199,173	244,572	-0,202	-0,236
200,188	800,000	-0,071	-0,198
201,202	398,928	-0,102	-0,150
202,217	161,980	-0,099	-0,097
203,232	115,646	-0,161	-0,137
204,246	280,769	-0,138	-0,172
205,261	578,800	-0,146	-0,250
206,275	800,000	-0,144	-0,325
207,290	-95,268	-0,250	0,046
208,304	-59,937	-0,191	-0,056
209,319	212,714	-0,245	-0,269
210,334	-155,703	-0,279	-0,012
211,348	151,023	-0,257	-0,243
212,363	78,851	-0,258	-0,192
213,377	-34,078	-0,157	-0,060
214,392	57,626	-0,111	0,075
215,407	-75,324	-0,201	-0,049
216,421	-93,218	-0,153	0,029
217,436	-10,868	-0,315	-0,144
218,450	24,159	-0,138	-0,079
219,465	-11,305	-0,108	-0,049
220,480	-200,000	-0,050	-0,218
221,494	207,794	-0,096	-0,104
222,509	-33,150	-0,143	-0,055
223,523	477,725	-0,097	-0,153
224,538	110,382	-0,234	-0,195
225,553	74,734	-0,190	-0,138
226,567	329,105	-0,107	-0,143
227,582	-170,329	-0,142	-0,003
228,596	-160,241	-0,182	0,007
229,611	-200,000	0,012	-0,051
230,626	-16,215	-0,165	-0,072
231,640	107,101	-0,273	-0,225
232,655	-41,658	-0,169	-0,060
233,669	300,856	-0,158	-0,203
234,684	92,241	-0,173	-0,135
235,699	800,000	-0,139	-0,358
236,713	-81,513	-0,251	-0,057
237,728	74,893	-0,153	-0,112
238,742	-72,181	-0,103	0,026
239,757	-56,652	-0,375	-0,114
240,772	-18,996	-0,287	-0,123
241,786	157,189	-0,178	-0,171
242,801	-179,601	-0,184	0,003
243,815	81,152	-0,144	-0,108
244,830	345,983	-0,087	-0,119
245,844	130,908	-0,174	-0,154
246,859	-18,987	-0,224	-0,096
247,874	-100,416	-0,190	-0,032
248,888	518,765	-0,121	-0,197
249,903	800,000	-0,122	-0,237
250,917	633,225	-0,074	-0,130
251,932	800,000	-0,064	-0,177
252,947	216,266	-0,111	-0,123
253,961	394,500	-0,162	-0,235
254,976	132,675	-0,242	-0,216
255,990	-32,553	-0,238	-0,091
257,005	-73,538	-0,268	-0,067
258,020	800,000	-0,036	-0,098
259,034	-58,623	-0,166	-0,049
260,049	2,457	-0,070	0,035
261,063	0,021	-0,212	-0,104
262,078	30,981	-0,246	-0,146
263,093	-153,556	-0,156	0,007
264,107	283,185	-0,031	0,039
265,122	345,503	-0,167	-0,227
266,136	18,104	-0,120	-0,066
267,151	-119,330	-0,146	-0,017
268,166	-200,000	-0,011	-0,164
269,180	800,000	-0,112	-0,222
270,195	-15,090	-0,244	-0,108
271,209	135,669	-0,087	-0,078
272,224	-21,445	-0,173	-0,073
273,239	-200,000	-0,017	-0,075
274,253	577,258	-0,064	-0,108
275,268	87,539	-0,167	-0,127
276,282	278,490	-0,120	-0,148
277,297	48,939	-0,222	-0,144
278,312	800,000	-0,069	-0,173
279,326	14,636	-0,165	-0,089
280,341	-200,000	-0,027	-0,120
281,355	-107,132	-0,183	-0,028
282,370	128,760	-0,202	-0,178
283,384	-0,813	-0,133	-0,065
284,399	703,431	-0,123	-0,224
285,414	121,476	-0,166	-0,143
286,428	-39,941	-0,267	-0,096
287,443	-200,000	-0,033	-0,126
288,457	-175,983	-0,166	-0,003
289,472	-23,306	-0,247	-0,102
290,487	51,598	-0,235	-0,154
291,501	168,435	-0,127	-0,125
292,516	210,231	-0,089	-0,096
293,530	2,162	-0,155	-0,077
294,545	-46,750	-0,063	-0,021
295,560	800,000	-0,042	-0,116
296,574	-85,361	-0,155	0,033
297,589	-37,271	-0,202	-0,074
298,603	-195,938	-0,173	0,001
299,618	-55,432	-0,115	-0,035
300,633	78,245	-0,191	-0,140
301,647	303,425	-0,059	-0,076
302,662	-151,477	-0,192	0,010
303,676	-37,884	-0,153	-0,056
304,691	37,211	-0,261	-0,159
305,706	800,000	-0,132	-0,272
306,720	46,005	-0,286	-0,182
307,735	14,970	-0,205	-0,110
308,749	-98,333	-0,137	0,024
309,764	-129,671	-0,050	0,005
310,779	-68,710	-0,210	-0,056
311,793	20,862	-0,279	-0,155
312,808	121,688	-0,170	-0,146
313,822	111,238	-0,160	-0,133
314,837	-81,828	-0,234	0,052
315,852	75,961	-0,098	0,071
316,866	-73,737	-0,172	-0,043
317,881	-108,443	-0,112	-0,016
318,895	-94,764	-0,084	-0,016
319,910	-152,242	-0,256	0,013
320,925	443,119	-0,077	-0,117
321,939	719,938	-0,134	-0,247
322,954	-200,000	-0,044	-0,143
323,968	-88,866	-0,120	-0,024
324,983	622,410	-0,028	-0,050
325,997	141,538	-0,140	-0,127
327,012	800,000	-0,090	-0,212
328,027	-52,047	-0,265	-0,084
329,041	165,535	-0,127	-0,124
330,056	200,696	-0,051	-0,054
331,070	-79,704	-0,113	-0,026
332,085	-27,450	-0,070	-0,028
333,100	2,358	-0,100	0,050
334,114	97,227	-0,162	-0,128
335,129	273,517	-0,096	-0,116
336,143	56,448	-0,173	-0,115
337,158	162,704	-0,046	-0,044
338,173	-113,691	-0,191	-0,025
339,187	-6,758	-0,031	0,014
340,202	-147,769	-0,088	0,005
341,216	87,527	-0,278	-0,212
342,231	166,137	-0,150	-0,146
343,246	115,937	-0,167	-0,140
344,260	176,091	-0,080	-0,080
345,275	20,039	-0,039	0,022
346,289	-40,472	-0,148	-0,052
347,304	-58,872	-0,209	-0,061
348,319	800,000	-0,089	-0,194
349,333	800,000	-0,071	-0,162
350,348	233,708	-0,176	-0,199
351,362	19,769	-0,192	-0,106
352,377	-72,967	-0,073	0,018
353,392	679,568	-0,128	-0,229
354,406	229,053	-0,159	-0,178
355,421	209,063	1315,397	1414,555
356,435	160,882	1476,223	1415,038
