DTS Sentinel unit serial number:	SN410029Multiplexer serial number:	ORYXHardware model number:	OX2-SRSoftware version number:	ORYX F/W v4,00 Oryx Data Collector v3.7.2.0data status	okinstallation	B3 Nyhavnadifferential loss correction	single-endedforward channel	channel 1reverse channel	N/Adate	2023/11/30time	21:57:30forward acquisition time	300,00reverse acquisition time	0,00gamma	499,1914k internal	0,3210k external	0,3210temperature offset calibration	1,0000default loss term (dB/km)	0,3820temperature slope calibration	1,0000multiplexer offset coefficient	1,0000multiplexer slope coefficient	1,0000fibre end	0,00T internal ref (°C)	10,31T ext. ref 1 (°C)	-5,03T ext. ref 2 (°C)	-5,18length (m)	temperature (°C)	Stokes	anti-Stokes-744,400	254,650	-0,173	-0,216
-743,385	-200,000	-0,042	0,236
-742,371	91,046	-0,243	-0,198
-741,356	-200,000	-0,100	0,487
-740,342	800,000	-0,033	-0,078
-739,327	-200,000	0,007	0,353
-738,312	-1,605	-0,241	-0,123
-737,298	800,000	-0,094	0,265
-736,283	-61,560	-0,257	-0,078
-735,269	-200,000	0,046	0,278
-734,254	476,382	-0,117	-0,192
-733,239	-147,566	-0,161	-0,010
-732,225	-200,000	-0,078	-0,254
-731,210	-54,209	0,129	0,042
-730,196	-47,976	-0,073	-0,026
-729,181	320,702	0,040	-0,056
-728,167	-200,000	-0,010	-0,107
-727,152	-200,000	0,021	-0,135
-726,137	87,476	-0,111	-0,089
-725,123	196,333	0,099	-0,109
-724,108	-29,284	-0,041	-0,017
-723,094	-39,268	-0,130	-0,049
-722,079	-200,000	-0,007	-0,034
-721,064	175,757	-0,072	0,076
-720,050	-200,000	-0,014	0,047
-719,035	388,538	-0,078	-0,118
-718,021	-200,000	-0,013	-0,136
-717,006	551,122	-0,025	-0,044
-715,991	5,106	-0,128	-0,068
-714,977	30,320	-0,046	-0,029
-713,962	234,279	-0,077	-0,092
-712,948	-200,000	-0,026	-0,098
-711,933	180,035	-0,083	0,088
-710,918	57,111	-0,013	-0,009
-709,904	-60,179	-0,135	0,042
-708,889	556,881	0,088	-0,154
-707,875	800,000	0,087	-0,219
-706,860	432,718	0,077	-0,121
-705,845	357,949	0,052	-0,075
-704,831	-135,634	-0,050	-0,004
-703,816	800,000	0,084	-0,205
-702,802	10,144	-0,071	0,039
-701,787	293,783	-0,157	-0,208
-700,772	-89,258	0,046	-0,010
-699,758	800,000	0,032	-0,092
-698,743	378,654	0,038	-0,057
-697,729	132,092	0,089	-0,083
-696,714	-200,000	-0,005	0,041
-695,699	70,307	0,116	0,087
-694,685	183,864	-0,067	-0,072
-693,670	0,781	0,145	-0,075
-692,656	-86,648	-0,067	-0,015
-691,641	-200,000	0,007	0,033
-690,627	265,572	0,085	0,107
-689,612	800,000	0,025	-0,079
-688,597	793,126	0,039	-0,078
-687,583	-200,000	-0,014	-0,089
-686,568	246,533	-0,064	-0,078
-685,554	153,809	0,050	0,049
-684,539	790,454	-0,025	0,051
-683,524	430,039	0,028	0,044
-682,510	234,332	-0,028	-0,033
-681,495	-141,187	-0,039	0,003
-680,481	479,412	-0,070	-0,115
-679,466	217,454	-0,085	-0,098
-678,451	-117,744	-0,068	0,009
-677,437	527,519	0,048	0,082
-676,422	97,973	0,142	0,118
-675,408	-55,000	0,079	-0,026
-674,393	48,913	-0,056	0,038
-673,378	-200,000	-0,006	-0,141
-672,364	800,000	-0,068	-0,157
-671,349	-200,000	0,012	-0,139
-670,335	800,000	0,040	0,109
-669,320	800,000	-0,044	0,115
-668,305	-200,000	0,004	0,117
-667,291	800,000	0,012	0,036
-666,276	150,264	-0,072	0,071
-665,262	297,194	-0,102	0,135
-664,247	-123,141	-0,051	0,006
-663,232	-200,000	-0,017	-0,067
-662,218	-9,725	-0,103	0,050
-661,203	3,604	-0,040	0,021
-660,189	-28,295	0,055	0,023
-659,174	-130,547	-0,090	0,009
-658,159	150,676	-0,088	-0,086
-657,145	800,000	-0,042	-0,111
-656,130	-131,964	-0,021	0,002
-655,116	-101,496	-0,056	0,010
-654,101	800,000	0,069	-0,152
-653,086	800,000	-0,009	0,018
-652,072	188,749	0,092	0,100
-651,057	800,000	-0,037	-0,082
-650,043	294,827	-0,006	0,007
-649,028	-62,850	-0,113	-0,034
-648,014	354,776	-0,110	-0,158
-646,999	-200,000	0,012	-0,045
-645,984	-70,360	0,112	-0,030
-644,970	678,878	-0,020	-0,038
-643,955	800,000	-0,059	-0,160
-642,941	800,000	-0,060	-0,134
-641,926	-200,000	-0,024	-0,089
-640,911	95,716	-0,053	0,044
-639,897	-138,937	0,045	0,004
-638,882	176,903	0,053	0,056
-637,868	266,865	-0,053	-0,066
-636,853	-132,389	-0,170	0,016
-635,838	-200,000	-0,028	0,120
-634,824	80,584	-0,114	-0,089
-633,809	-200,000	0,021	0,107
-632,795	-143,124	0,037	-0,003
-631,780	164,440	0,034	-0,035
-630,765	-200,000	0,001	0,024
-629,751	236,403	-0,079	-0,095
-628,736	-65,717	-0,129	0,037
-627,722	-87,857	0,036	-0,008
-626,707	58,309	-0,127	0,090
-625,692	376,100	0,028	-0,042
-624,678	800,000	-0,040	0,103
-623,663	-151,600	-0,028	0,001
-622,649	560,367	-0,032	-0,055
-621,634	344,751	0,022	-0,032
-620,619	-93,212	-0,083	0,017
-619,605	-44,801	-0,067	0,024
-618,590	-200,000	-0,002	0,092
-617,576	488,212	0,133	0,220
-616,561	-200,000	-0,010	0,132
-615,546	-200,000	0,018	-0,105
-614,532	-200,000	0,015	-0,294
-613,517	47,995	-0,129	-0,087
-612,503	-200,000	-0,010	0,048
-611,488	800,000	0,014	0,032
-610,474	-12,517	0,132	-0,062
-609,459	186,179	0,029	-0,031
-608,444	278,645	-0,052	-0,067
-607,430	84,446	-0,076	0,060
-606,415	-88,023	-0,115	-0,025
-605,401	800,000	0,051	0,104
-604,386	-139,082	-0,016	0,001
-603,371	140,680	0,063	0,060
-602,357	175,418	-0,045	-0,047
-601,342	24,700	-0,027	0,016
-600,328	-200,000	0,033	-0,138
-599,313	192,807	-0,039	-0,043
-598,298	-171,159	-0,084	-0,002
-597,284	438,834	0,068	0,107
-596,269	-84,806	0,108	0,024
-595,255	392,627	0,016	-0,025
-594,240	-153,952	0,120	0,006
-593,225	106,553	-0,086	-0,074
-592,211	800,000	-0,015	0,037
-591,196	553,281	-0,053	0,091
-590,182	113,352	0,112	0,098
-589,167	-128,615	-0,033	-0,003
-588,152	-200,000	0,004	0,018
-587,138	-71,466	-0,063	-0,017
-586,123	-12,250	0,107	-0,050
-585,109	-200,000	-0,023	-0,082
-584,094	-71,160	-0,058	-0,016
-583,079	-38,728	-0,028	-0,011
-582,065	75,332	0,101	0,077
-581,050	-200,000	-0,019	0,097
-580,036	-94,322	-0,075	-0,015
-579,021	382,998	-0,071	-0,106
-578,006	112,594	0,098	0,085
-576,992	800,000	0,028	-0,072
-575,977	800,000	0,020	0,048
-574,963	800,000	0,039	0,114
-573,948	-144,775	-0,128	-0,008
-572,934	-200,000	0,034	-0,129
-571,919	-200,000	-0,027	-0,144
-570,904	-200,000	-0,010	-0,116
-569,890	384,651	0,014	0,021
-568,875	-200,000	0,004	0,111
-567,861	33,158	-0,013	-0,008
-566,846	-200,000	0,006	0,052
-565,831	-60,496	0,154	0,047
-564,817	800,000	-0,019	-0,061
-563,802	7,921	-0,097	0,052
-562,788	388,205	-0,023	-0,035
-561,773	-200,000	-0,000	0,014
-560,758	-28,055	0,037	0,015
-559,744	83,488	-0,062	-0,049
-558,729	43,769	0,069	-0,046
-557,715	-100,976	-0,063	0,011
-556,700	109,418	-0,130	-0,112
-555,685	800,000	0,071	-0,176
-554,671	356,963	-0,127	0,183
-553,656	-131,235	0,098	-0,009
-552,642	-56,201	-0,092	0,029
-551,627	800,000	0,028	0,057
-550,612	-51,943	0,063	-0,021
-549,598	68,426	0,075	-0,056
-548,583	-200,000	0,029	0,093
-547,569	800,000	0,053	0,132
-546,554	606,185	0,075	0,136
-545,539	-200,000	-0,022	0,133
-544,525	-200,000	0,017	0,122
-543,510	-54,133	-0,066	-0,021
-542,496	-132,197	0,116	-0,011
-541,481	-200,000	0,002	-0,087
-540,466	-200,000	0,088	0,000
-539,452	22,009	-0,083	-0,049
-538,437	-200,000	0,015	0,088
-537,423	-200,000	-0,009	-0,187
-536,408	-123,270	0,031	0,004
-535,393	93,834	0,021	0,017
-534,379	-45,488	-0,192	-0,068
-533,364	-200,000	0,021	0,131
-532,350	411,697	-0,040	-0,061
-531,335	644,494	-0,016	-0,030
-530,321	363,223	0,010	-0,015
-529,306	800,000	-0,012	-0,028
-528,291	158,093	-0,047	-0,047
-527,277	800,000	-0,025	-0,051
-526,262	114,443	0,018	-0,016
-525,248	-21,442	0,033	-0,015
-524,233	-57,313	0,110	0,035
-523,218	-200,000	0,031	0,142
-522,204	-200,000	-0,008	0,037
-521,189	-200,000	0,006	-0,103
-520,175	49,708	-0,080	-0,054
-519,160	456,294	0,058	-0,092
-518,145	-120,493	-0,056	-0,007
-517,131	-200,000	0,021	0,113
-516,116	-12,493	0,086	0,040
-515,102	-200,000	-0,023	-0,083
-514,087	-200,000	0,023	0,131
-513,072	73,653	0,011	-0,008
-512,058	-200,000	0,055	-0,178
-511,043	-70,858	-0,113	-0,030
-510,029	-66,002	0,081	-0,023
-509,014	-69,300	0,062	-0,017
-507,999	800,000	-0,019	-0,052
-506,985	-146,752	0,063	-0,004
-505,970	-200,000	0,010	-0,041
-504,956	95,784	0,076	0,063
-503,941	259,102	-0,023	-0,029
-502,926	109,666	-0,143	0,123
-501,912	130,633	0,099	-0,091
-500,897	-17,259	-0,070	-0,031
-499,883	-7,986	-0,070	-0,034
-498,868	-200,000	0,014	0,067
-497,853	47,422	-0,057	-0,038
-496,839	-200,000	-0,002	-0,011
-495,824	800,000	-0,038	-0,086
-494,810	-174,276	0,103	-0,002
-493,795	451,679	-0,075	0,120
-492,781	-144,660	0,080	0,005
-491,766	-200,000	0,010	0,086
-490,751	65,346	-0,033	0,024
-489,737	35,407	-0,043	0,027
-488,722	264,722	0,019	0,023
-487,708	-106,955	0,041	-0,006
-486,693	-52,369	0,081	0,027
-485,678	800,000	0,017	0,036
-484,664	-200,000	0,019	-0,060
-483,649	566,792	0,116	-0,204
-482,635	16,267	0,116	-0,065
-481,620	-200,000	-0,019	0,081
-480,605	-87,534	0,057	-0,012
-479,591	304,099	0,113	0,151
-478,576	67,756	-0,079	0,058
-477,562	29,292	-0,048	-0,029
-476,547	-200,000	-0,019	-0,091
-475,532	302,643	-0,048	-0,063
-474,518	210,906	-0,087	0,098
-473,503	753,122	0,110	-0,214
-472,489	-200,000	0,024	-0,151
-471,474	-58,997	0,070	0,022
-470,459	-200,000	-0,006	-0,054
-469,445	-63,607	-0,183	0,053
-468,430	-86,129	-0,147	0,032
-467,416	-18,578	0,131	-0,058
-466,401	24,829	0,066	-0,039
-465,386	800,000	-0,012	-0,031
-464,372	142,336	0,049	-0,047
-463,357	-112,429	-0,163	-0,023
-462,343	215,858	-0,045	0,051
-461,328	-200,000	-0,019	0,065
-460,313	456,223	0,035	0,056
-459,299	-200,000	-0,001	-0,093
-458,284	14,730	-0,084	0,047
-457,270	-200,000	0,016	-0,051
-456,255	541,693	0,027	0,046
-455,241	-108,903	0,089	0,014
-454,226	431,510	-0,046	-0,072
-453,211	800,000	0,041	0,115
-452,197	31,709	0,091	-0,056
-451,182	58,942	-0,088	-0,062
-450,168	68,757	0,161	-0,119
-449,153	-200,000	0,037	-0,200
-448,138	394,863	-0,006	0,008
-447,124	-64,473	0,061	-0,018
-446,109	689,001	-0,054	0,101
-445,095	-15,443	-0,040	0,018
-444,080	-200,000	-0,001	-0,084
-443,065	-200,000	-0,014	0,104
-442,051	260,374	0,061	0,076
-441,036	257,196	-0,110	0,136
-440,022	800,000	0,057	0,121
-439,007	583,059	-0,018	0,031
-437,992	-200,000	-0,003	0,138
-436,978	143,084	0,150	0,143
-435,963	800,000	0,045	0,111
-434,949	-200,000	0,001	-0,064
-433,934	-56,159	-0,098	0,031
-432,919	227,173	-0,157	-0,183
-431,905	-200,000	0,038	-0,129
-430,890	-200,000	0,025	0,126
-429,876	-110,192	0,185	0,027
-428,861	154,535	-0,098	0,096
-427,846	262,203	-0,111	-0,138
-426,832	-200,000	-0,023	-0,134
-425,817	800,000	-0,056	-0,131
-424,803	285,308	-0,148	-0,191
-423,788	-45,985	-0,117	-0,041
-422,773	-200,000	-0,005	0,164
-421,759	-89,726	0,096	0,020
-420,744	-31,759	-0,016	-0,006
-419,730	-18,048	-0,028	0,013
-418,715	-148,534	-0,106	0,006
-417,701	-97,958	0,074	0,014
-416,686	-102,499	0,091	0,015
-415,671	305,219	-0,106	0,142
-414,657	218,977	0,027	0,031
-413,642	-30,685	0,072	-0,029
-412,628	741,830	-0,028	0,054
-411,613	213,567	-0,098	-0,111
-410,598	316,949	-0,065	-0,088
-409,584	-53,487	0,059	0,019
-408,569	-150,943	0,182	-0,010
-407,555	-72,921	-0,064	-0,017
-406,540	-10,064	0,136	0,065
-405,525	-76,552	-0,063	-0,016
-404,511	73,069	0,052	0,039
-403,496	-19,833	-0,075	-0,033
-402,482	-26,415	-0,017	0,007
-401,467	230,005	-0,012	-0,014
-400,452	118,530	0,015	-0,013
-399,438	8,745	0,092	0,049
-398,423	-200,000	-0,033	-0,145
-397,409	-68,333	0,040	0,011
-396,394	71,211	-0,094	-0,070
-395,379	-34,836	-0,052	0,020
-394,365	122,580	0,108	0,097
-393,350	6,186	0,102	-0,054
-392,336	445,897	-0,014	0,022
-391,321	-17,279	-0,066	-0,030
-390,306	41,912	-0,128	-0,083
-389,292	0,955	0,101	-0,052
-388,277	-111,329	-0,071	-0,010
-387,263	-15,883	-0,084	0,038
-386,248	81,910	0,091	-0,070
-385,233	525,155	-0,119	0,200
-384,219	-173,181	0,093	0,002
-383,204	70,617	-0,113	-0,083
-382,190	215,129	-0,107	-0,121
-381,175	571,581	0,017	-0,030
-380,160	333,389	-0,015	0,021
-379,146	-129,211	-0,038	-0,004
-378,131	32,445	-0,061	0,037
-377,117	800,000	-0,032	-0,076
-376,102	18,869	0,059	-0,034
-375,088	19,031	-0,040	-0,023
-374,073	29,243	0,071	-0,043
-373,058	92,877	-0,081	0,065
-372,044	-1,957	0,019	0,009
-371,029	-200,000	0,023	-0,114
-370,015	800,000	0,016	0,040
-369,000	-19,924	0,078	-0,034
-367,985	116,188	-0,040	0,035
-366,971	29,589	-0,074	-0,045
-365,956	165,148	-0,074	0,074
-364,942	800,000	0,031	0,069
-363,927	320,708	-0,037	0,050
-362,912	-166,343	0,097	0,003
-361,898	299,423	0,035	-0,047
-360,883	5,422	-0,027	-0,014
-359,869	-200,000	0,012	-0,096
-358,854	-200,000	0,001	0,086
-357,839	508,915	0,051	0,085
-356,825	73,683	0,088	0,065
-355,810	-200,000	0,005	0,057
-354,796	-200,000	-0,003	0,058
-353,781	-36,133	-0,025	0,010
-352,766	-92,220	0,029	0,006
-351,752	98,532	-0,046	-0,038
-350,737	411,335	-0,046	0,070
-349,723	96,650	0,042	0,034
-348,708	31,461	0,056	-0,034
-347,693	800,000	0,016	0,041
-346,679	140,694	0,035	0,033
-345,664	1,518	-0,188	0,096
-344,650	-200,000	-0,006	0,030
-343,635	-200,000	0,038	0,134
-342,620	426,372	0,082	0,126
-341,606	-200,000	0,025	0,124
-340,591	450,731	-0,082	-0,130
-339,577	41,931	-0,050	-0,033
-338,562	-200,000	0,041	-0,157
-337,548	302,619	0,065	-0,085
-336,533	137,913	0,075	0,070
-335,518	212,887	-0,117	0,132
-334,504	800,000	0,043	-0,122
-333,489	-200,000	-0,016	-0,173
-332,475	284,986	0,107	-0,138
-331,460	-84,689	0,033	0,007
-330,445	-149,822	0,036	0,002
-329,431	-67,243	0,109	-0,030
-328,416	-118,855	-0,112	-0,014
-327,402	254,262	0,123	0,150
-326,387	622,958	0,046	-0,082
-325,372	800,000	-0,036	-0,098
-324,358	338,755	-0,046	-0,064
-323,343	311,018	0,056	0,075
-322,329	-200,000	0,002	-0,037
-321,314	619,891	-0,026	0,047
-320,299	-124,731	-0,018	0,002
-319,285	800,000	0,071	0,146
-318,270	229,968	0,016	-0,019
-317,256	172,855	-0,095	-0,098
-316,241	-200,000	-0,006	0,039
-315,226	-13,497	0,124	0,057
-314,212	800,000	0,071	0,176
-313,197	-155,930	0,084	0,004
-312,183	-200,000	0,005	0,071
-311,168	-162,616	-0,136	0,005
-310,153	-106,074	-0,075	-0,012
-309,139	48,716	-0,054	0,036
-308,124	20,659	0,016	-0,009
-307,110	13,440	-0,055	-0,030
-306,095	-3,789	0,114	0,056
-305,080	637,792	0,067	0,122
-304,066	800,000	0,021	0,045
-303,051	-17,975	0,011	-0,005
-302,037	-3,300	-0,162	0,080
-301,022	-200,000	-0,045	-0,165
-300,008	-160,253	0,136	-0,005
-298,993	142,721	0,062	0,059
-297,978	117,702	0,051	0,045
-296,964	800,000	-0,013	0,037
-295,949	541,860	-0,115	-0,197
-294,935	-200,000	-0,012	0,071
-293,920	103,170	-0,093	-0,078
-292,905	316,893	0,042	0,057
-291,891	-200,000	-0,020	-0,065
-290,876	2,622	-0,053	-0,027
-289,862	-52,003	-0,135	0,044
-288,847	-27,843	0,092	-0,038
-287,832	595,619	-0,028	0,050
-286,818	165,673	0,037	-0,038
-285,803	-93,514	0,106	-0,021
-284,789	177,770	0,049	0,050
-283,774	96,480	0,098	-0,080
-282,759	29,389	-0,093	-0,056
-281,745	-32,046	-0,095	0,038
-280,730	-137,336	0,121	0,010
-279,716	800,000	-0,014	-0,033
-278,701	98,689	-0,061	0,050
-277,686	-200,000	-0,029	0,227
-276,672	397,763	0,016	-0,023
-275,657	35,614	-0,119	0,075
-274,643	800,000	-0,043	-0,096
-273,628	220,799	-0,004	0,005
-272,613	200,471	-0,063	0,069
-271,599	800,000	0,023	0,061
-270,584	323,649	-0,027	0,037
-269,570	-200,000	-0,007	-0,041
-268,555	190,437	0,007	0,008
-267,540	22,743	0,069	-0,040
-266,526	193,201	-0,099	0,106
-265,511	-96,955	0,150	-0,028
-264,497	7,201	0,039	-0,021
-263,482	-200,000	-0,068	0,000
-262,467	216,244	0,028	0,032
-261,453	-103,096	-0,017	0,003
-260,438	-9,990	-0,076	-0,036
-259,424	176,650	-0,040	-0,042
-258,409	-54,937	0,073	0,023
-257,395	-20,793	-0,084	-0,036
-256,380	161,302	0,083	0,082
-255,365	-15,623	-0,078	0,035
-254,351	800,000	0,019	-0,044
-253,336	435,038	0,045	-0,070
-252,322	189,263	-0,114	-0,122
-251,307	285,324	0,091	-0,118
-250,292	230,761	0,054	0,063
-249,278	357,687	-0,038	0,054
-248,263	-19,331	0,066	-0,029
-247,249	-58,660	-0,100	-0,031
-246,234	-200,000	-0,006	0,083
-245,219	73,667	-0,047	-0,035
-244,205	-74,985	-0,068	0,017
-243,190	-61,579	0,027	-0,008
-242,176	-31,170	-0,120	-0,048
-241,161	35,046	0,026	0,016
-240,146	-132,044	0,034	0,003
-239,132	-131,011	-0,085	-0,008
-238,117	-200,000	-0,015	-0,054
-237,103	-42,184	-0,064	-0,023
-236,088	800,000	-0,033	-0,091
-235,073	122,782	-0,057	0,051
-234,059	-171,711	0,083	-0,002
-233,044	-200,000	-0,002	0,011
-232,030	800,000	-0,016	0,035
-231,015	97,154	-0,057	0,046
-230,000	344,372	-0,058	0,081
-228,986	-91,899	0,084	-0,017
-227,971	-171,836	0,064	-0,001
-226,957	-33,051	-0,111	-0,044
-225,942	800,000	-0,020	-0,047
-224,927	-111,982	0,137	-0,019
-223,913	240,218	-0,064	0,076
-222,898	-138,743	0,057	0,004
-221,884	462,104	-0,023	0,036
-220,869	-82,984	0,035	0,008
-219,855	-200,000	-0,015	0,110
-218,840	-57,025	0,118	0,037
-217,825	181,125	-0,026	-0,028
-216,811	350,098	0,030	-0,042
-215,796	-200,000	-0,020	-0,125
-214,782	-200,000	0,022	-0,127
-213,767	28,920	0,060	0,036
-212,752	-182,306	0,037	-0,000
-211,738	104,650	-0,003	0,003
-210,723	800,000	0,039	0,107
-209,709	14,733	0,028	-0,015
-208,694	-97,298	-0,123	0,023
-207,679	-153,684	-0,037	0,002
-206,665	514,366	-0,036	-0,059
-205,650	-200,000	0,006	0,083
-204,636	-15,565	0,137	0,062
-203,621	-153,823	0,105	-0,005
-202,606	-200,000	-0,026	0,123
-201,592	-6,062	-0,051	0,025
-200,577	-136,191	0,022	0,002
-199,563	-135,212	0,123	0,010
-198,548	7,066	0,046	-0,024
-197,533	194,967	-0,076	0,082
-196,519	249,630	0,062	-0,075
-195,504	163,021	0,057	-0,057
-194,490	800,000	0,049	0,120
-193,475	63,632	-0,119	-0,085
-192,460	-80,437	-0,161	0,038
-191,446	314,212	0,146	0,195
-190,431	-7,865	0,110	-0,053
-189,417	-120,557	0,074	-0,009
-188,402	-47,073	-0,096	0,033
-187,387	184,631	-0,026	0,028
-186,373	-200,000	0,007	0,208
-185,358	-11,351	-0,072	-0,034
-184,344	-58,459	0,023	0,007
-183,329	-82,680	0,215	0,049
-182,315	299,628	0,042	-0,055
-181,300	800,000	-0,042	-0,095
-180,285	-200,000	0,034	-0,108
-179,271	-200,000	-0,028	-0,118
-178,256	28,928	-0,034	-0,020
-177,242	-200,000	0,005	-0,068
-176,227	-200,000	0,002	-0,019
-175,212	-200,000	0,018	-0,061
-174,198	-200,000	-0,001	0,055
-173,183	-103,842	0,075	-0,012
-172,169	800,000	-0,012	-0,025
-171,154	147,195	-0,081	-0,078
-170,139	204,190	0,020	0,022
-169,125	298,878	0,081	-0,105
-168,110	-42,905	0,128	0,046
-167,096	800,000	0,002	0,004
-166,081	658,555	-0,041	0,075
-165,066	-48,181	-0,179	-0,061
-164,052	500,307	-0,030	0,049
-163,037	73,136	0,082	-0,061
-162,023	800,000	-0,039	0,091
-161,008	-200,000	0,006	0,038
-159,993	-0,506	0,100	0,050
-158,979	-49,836	0,126	-0,042
-157,964	-200,000	0,006	0,048
-156,950	800,000	0,066	0,196
-155,935	-176,634	0,082	-0,001
-154,920	365,802	-0,018	0,026
-153,906	676,496	0,025	0,047
-152,891	-39,283	0,071	0,026
-151,877	82,233	-0,099	-0,076
-150,862	501,322	-0,028	0,046
-149,847	-200,000	-0,014	-0,054
-148,833	376,089	-0,058	0,084
-147,818	273,816	0,086	0,108
-146,804	-200,000	0,019	0,140
-145,789	100,843	0,067	0,055
-144,775	282,787	-0,059	0,075
-143,760	5,365	-0,153	-0,080
-142,745	726,401	-0,017	-0,033
-141,731	337,339	0,032	0,044
-140,716	134,210	0,040	0,037
-139,702	-200,000	-0,000	0,155
-138,687	22,271	0,097	0,056
-137,672	385,293	0,028	0,041
-136,658	-200,000	0,009	0,084
-135,643	8,488	-0,046	-0,025
-134,629	-200,000	0,016	-0,119
-133,614	201,033	-0,061	0,066
-132,599	-47,356	-0,112	-0,038
-131,585	-98,287	0,043	-0,008
-130,570	543,070	0,073	-0,123
-129,556	201,542	-0,078	-0,085
-128,541	46,408	0,045	0,029
-127,526	-53,917	0,070	0,022
-126,512	800,000	0,040	0,085
-125,497	80,532	0,110	0,084
-124,483	164,894	-0,087	-0,087
-123,468	59,396	0,132	0,092
-122,453	87,863	-0,073	0,057
-121,439	800,000	-0,040	-0,104
-120,424	112,518	0,069	0,059
-119,410	-200,000	0,007	0,068
-118,395	65,764	0,156	0,112
-117,380	-200,000	0,008	-0,027
-116,366	676,861	0,030	0,056
-115,351	64,032	-0,061	-0,043
-114,337	-102,983	-0,076	0,013
-113,322	274,101	-0,124	0,155
-112,307	-52,764	-0,077	0,025
-111,293	-61,991	-0,041	0,012
-110,278	4,496	-0,042	0,022
-109,264	800,000	0,065	-0,141
-108,249	175,251	-0,087	0,089
-107,234	27,597	0,090	-0,053
-106,220	5,543	-0,107	0,056
-105,205	-23,671	0,088	-0,037
-104,191	121,948	-0,027	0,024
-103,176	-200,000	0,003	0,060
-102,162	-200,000	0,006	0,067
-101,147	800,000	-0,043	0,119
-100,132	21,882	-0,055	-0,032
-99,118	395,838	-0,043	-0,063
-98,103	-10,604	-0,086	-0,040
-97,089	-15,445	0,120	0,054
-96,074	334,831	-0,078	0,107
-95,059	83,442	-0,045	-0,035
-94,045	-200,000	0,021	-0,076
-93,030	-155,378	-0,169	0,008
-92,016	-126,784	0,062	-0,006
-91,001	800,000	0,030	-0,068
-89,986	-152,021	0,061	-0,003
-88,972	800,000	-0,037	0,081
-87,957	800,000	-0,056	0,159
-86,943	8,065	-0,073	0,038
-85,928	-151,491	-0,133	-0,007
-84,913	-200,000	-0,030	0,119
-83,899	271,799	-0,091	0,114
-82,884	-200,000	0,017	-0,095
-81,870	-200,000	0,009	0,295
-80,855	197,595	-0,100	0,108
-79,840	-19,518	0,121	-0,053
-78,826	-125,827	-0,167	-0,018
-77,811	25,448	-0,107	-0,063
-76,797	426,538	0,075	-0,115
-75,782	-200,000	0,031	0,176
-74,767	169,725	0,127	0,128
-73,753	800,000	0,082	0,191
-72,738	36,668	0,015	0,009
-71,724	221,053	0,101	0,115
-70,709	-28,074	0,092	-0,038
-69,694	112,519	0,065	0,055
-68,680	800,000	-0,012	-0,034
-67,665	332,272	0,061	-0,084
-66,651	82,098	-0,121	-0,092
-65,636	800,000	-0,041	-0,092
-64,622	-7,069	-0,073	0,035
-63,607	-109,809	-0,111	-0,016
-62,592	32,675	0,037	-0,023
-61,578	-200,000	0,009	0,045
-60,563	73,409	-0,073	-0,054
-59,549	-122,690	-0,164	-0,019
-58,534	35,586	-1,967	-1,218
-57,519	452,407	-1,290	-2,021
-56,505	-200,000	-0,309	-4,565
-55,490	342,758	0,842	1,168
-54,476	800,000	5,128	11,697
-53,461	-200,000	21,297	342,637
-52,446	800,000	760,229	2361,904
-51,432	559,180	1664,177	2847,592
-50,417	73,752	1664,203	1230,231
-49,403	18,204	1537,682	863,933
-48,388	12,163	1461,217	791,694
-47,373	19,495	1452,112	821,982
-46,359	15,640	1441,083	797,342
-45,344	10,420	1437,276	770,299
-44,330	10,357	1435,260	768,887
-43,315	10,335	1433,546	767,833
-42,300	10,392	1431,799	767,138
-41,286	10,351	1430,675	766,309
-40,271	10,361	1428,995	765,429
-39,257	10,331	1427,864	764,651
-38,242	10,369	1426,734	764,193
-37,227	10,360	1425,954	763,703
-36,213	10,362	1424,292	762,795
-35,198	10,410	1423,350	762,488
-34,184	10,425	1422,388	762,011
-33,169	10,351	1421,083	760,933
-32,154	10,415	1420,043	760,645
-31,140	10,426	1418,821	760,015
-30,125	10,432	1417,741	759,433
-29,111	10,416	1416,676	758,757
-28,096	10,430	1415,182	757,991
-27,082	10,340	1414,180	757,001
-26,067	10,352	1413,155	756,480
-25,052	10,384	1412,003	755,983
-24,038	10,385	1410,992	755,420
-23,023	10,344	1410,224	754,785
-22,009	10,310	1409,270	754,082
-20,994	10,340	1408,191	753,618
-19,979	10,354	1407,340	753,197
-18,965	10,306	1406,480	752,481
-17,950	10,318	1405,376	751,918
-16,936	10,232	1404,720	751,138
-15,921	10,214	1403,855	750,560
-14,906	10,243	1402,751	750,074
-13,892	10,277	1401,599	749,587
-12,877	10,250	1400,812	749,014
-11,863	10,217	1400,252	748,528
-10,848	10,230	1399,136	747,965
-9,833	10,157	1398,381	747,191
-8,819	10,171	1397,393	746,699
-7,804	10,156	1396,567	746,157
-6,790	10,131	1395,466	745,423
-5,775	10,110	1394,541	744,800
-4,760	10,180	1393,601	744,595
-3,746	10,167	1392,229	743,774
-2,731	10,075	1391,803	743,090
-1,717	10,151	1390,932	742,945
-0,702	10,091	1389,311	741,777
0,313	14,118	1301,638	713,428
1,327	30,268	691,216	415,530
2,342	46,928	119,835	78,474
3,356	0,184	16,620	8,335
4,371	-3,045	3,636	1,784
5,386	18,473	0,896	0,504
6,400	800,000	0,253	0,575
7,415	14,661	-0,141	-0,077
8,429	121,308	-0,418	-0,367
9,444	9,355	-0,350	-0,186
10,459	62,445	-0,292	-0,205
11,473	116,442	-0,315	-0,272
12,488	92,342	-0,230	-0,182
13,502	-161,446	-0,277	0,010
14,517	123,985	-0,292	-0,259
15,531	-31,518	-0,451	-0,178
16,546	-19,945	-0,345	-0,149
17,561	800,000	-0,241	-0,498
18,575	442,894	-0,052	-0,081
19,590	800,000	-0,132	-0,294
20,604	-58,645	-0,243	-0,074
21,619	33,971	-0,479	-0,293
22,634	22,352	-0,450	-0,259
23,648	253,862	-0,421	-0,508
24,663	44,750	-0,416	-0,269
25,677	71,375	-0,382	-0,279
26,692	88,821	-0,348	-0,273
27,707	61,472	-0,350	-0,245
28,721	353,296	-0,235	-0,329
29,736	121,247	-0,507	-0,444
30,750	44,218	-0,334	-0,215
31,765	95,892	-0,388	-0,312
32,780	61,317	-0,389	-0,272
33,794	-34,728	-0,461	-0,177
34,809	233,048	-0,306	-0,355
35,823	68,693	-0,395	-0,285
36,838	47,465	-0,349	-0,229
37,853	136,742	-0,341	-0,313
38,867	52,653	-0,337	-0,226
39,882	14,246	-0,353	-0,193
40,896	-24,078	-0,410	-0,172
41,911	11,164	-0,330	-0,177
42,926	143,235	-0,320	-0,299
43,940	108,574	-0,320	-0,268
44,955	24,501	-0,350	-0,203
45,969	32,071	-0,338	-0,204
46,984	67,910	-0,326	-0,234
47,999	28,141	-0,265	-0,157
49,013	-75,537	-0,408	-0,101
50,028	-0,064	-0,359	-0,179
51,042	101,054	-0,346	-0,282
52,057	248,706	-0,312	-0,371
53,071	4,001	-0,451	-0,231
54,086	-61,729	-0,331	-0,097
55,101	8,281	-0,342	-0,180
56,115	-104,035	-0,492	-0,080
57,130	387,238	-0,182	-0,265
58,144	-47,209	-0,362	-0,123
59,159	74,480	-0,348	-0,256
60,174	382,420	-0,267	-0,386
61,188	120,570	-0,315	-0,275
62,203	126,137	-0,350	-0,310
63,217	-29,061	-0,378	-0,152
64,232	51,243	-0,211	-0,141
65,247	37,491	-0,389	-0,241
66,261	26,738	-0,368	-0,216
67,276	38,181	-0,369	-0,230
68,290	408,259	-0,166	-0,247
69,305	-4,439	-0,306	-0,148
70,320	-51,933	-0,230	-0,075
71,334	19,828	-0,317	-0,178
72,349	38,981	-0,356	-0,223
73,363	64,040	-0,320	-0,226
74,378	152,352	-0,377	-0,361
75,393	-58,515	-0,422	-0,128
76,407	130,192	-0,298	-0,268
77,422	53,559	-0,124	-0,083
78,436	-17,845	-0,217	-0,095
79,451	-19,484	-0,349	-0,151
80,466	81,512	-0,352	-0,267
81,480	33,461	-0,300	-0,182
82,495	-27,024	-0,310	-0,126
83,509	33,598	-0,257	-0,156
84,524	-35,243	-0,288	-0,109
85,539	192,688	-0,275	-0,291
86,553	4,244	-0,307	-0,157
87,568	-57,061	-0,526	-0,161
88,582	82,614	-0,330	-0,251
89,597	66,931	-0,255	-0,182
90,611	66,921	-0,222	-0,158
91,626	215,341	-0,162	-0,180
92,641	41,946	-0,220	-0,139
93,655	-53,363	-0,259	-0,082
94,670	162,027	-0,261	-0,256
95,684	289,438	-0,240	-0,305
96,699	307,590	-0,228	-0,298
97,714	229,392	-0,172	-0,196
98,728	800,000	-0,109	-0,215
99,743	-0,758	-0,324	-0,160
100,757	-70,742	-0,219	-0,057
101,772	-2,960	-0,247	-0,120
102,787	94,023	-0,272	-0,216
103,801	-20,850	-0,371	-0,158
104,816	82,489	-0,243	-0,184
105,830	-61,968	-0,227	-0,066
106,845	186,347	-0,156	-0,163
107,860	-97,284	-0,437	-0,079
108,874	479,583	-0,167	-0,265
109,889	59,811	-0,368	-0,253
110,903	568,742	-0,083	-0,141
111,918	97,375	-0,281	-0,226
112,933	71,820	-0,296	-0,215
113,947	67,186	-0,174	-0,124
114,962	-3,780	-0,233	-0,112
115,976	30,333	-0,263	-0,156
116,991	251,376	-0,237	-0,282
118,006	76,448	-0,366	-0,271
119,020	170,238	-0,163	-0,163
120,035	-0,390	-0,296	-0,146
121,049	-63,284	-0,308	-0,088
122,064	37,073	-0,176	-0,108
123,079	-82,033	-0,335	-0,076
124,093	-76,342	-0,295	-0,072
125,108	143,398	-0,221	-0,205
126,122	304,738	-0,204	-0,265
127,137	-93,521	-0,322	-0,062
128,151	214,115	-0,097	-0,107
129,166	95,411	-0,222	-0,176
130,181	44,597	-0,386	-0,247
131,195	96,687	-0,152	-0,122
132,210	55,325	-0,267	-0,180
133,224	4,273	-0,321	-0,164
134,239	39,412	-0,290	-0,181
135,254	183,890	-0,160	-0,165
136,268	123,858	-0,159	-0,139
137,283	-86,306	-0,300	-0,064
138,297	70,375	-0,322	-0,232
139,312	130,653	-0,385	-0,344
140,327	109,378	-0,342	-0,286
141,341	-6,581	-0,293	-0,138
142,356	100,238	-0,130	-0,105
143,370	-84,169	-0,259	-0,057
144,385	91,393	-0,195	-0,152
145,400	185,571	-0,161	-0,167
146,414	30,938	-0,373	-0,222
147,429	54,136	-0,341	-0,228
148,443	210,258	-0,230	-0,252
149,458	200,462	-0,175	-0,188
150,473	117,937	-0,166	-0,142
151,487	76,141	-0,175	-0,129
152,502	121,931	-0,262	-0,227
153,516	-23,100	-0,298	-0,124
154,531	135,853	-0,172	-0,156
155,546	43,409	-0,284	-0,180
156,560	106,236	-0,193	-0,159
157,575	-61,508	-0,164	-0,048
158,589	38,916	-0,176	-0,109
159,604	-23,358	-0,363	-0,151
160,619	108,553	-0,262	-0,218
161,633	56,106	-0,334	-0,225
162,648	-32,322	-0,261	-0,101
163,662	-11,251	-0,244	-0,111
164,677	100,637	-0,225	-0,182
165,692	188,560	-0,166	-0,173
166,706	61,896	-0,243	-0,168
167,721	214,011	-0,208	-0,229
168,735	189,210	-0,184	-0,192
169,750	-21,956	-0,191	-0,080
170,764	118,837	-0,175	-0,150
171,779	-91,079	-0,205	0,041
172,794	48,692	-0,182	-0,118
173,808	209,154	-0,196	-0,214
174,823	219,737	-0,225	-0,250
175,837	800,000	-0,113	-0,242
176,852	40,599	-0,143	-0,090
177,867	11,349	-0,194	-0,103
178,881	-9,120	-0,223	-0,103
179,896	80,353	-0,169	-0,126
180,910	-85,153	-0,219	-0,047
181,925	100,678	-0,328	-0,265
182,940	385,326	-0,125	-0,179
183,954	800,000	-0,104	-0,239
184,969	247,468	-0,179	-0,211
185,983	152,270	-0,232	-0,220
186,998	294,921	-0,202	-0,257
188,013	201,198	-0,283	-0,302
189,027	148,930	-0,179	-0,168
190,042	145,114	-0,126	-0,117
191,056	173,495	-0,334	-0,335
192,071	324,051	-0,055	-0,073
193,086	117,981	-0,188	-0,161
194,100	138,279	-0,111	-0,101
195,115	-96,807	-0,262	-0,047
196,129	727,008	-0,142	-0,265
197,144	5,404	-0,199	-0,102
198,159	410,569	-0,138	-0,204
199,173	-200,000	-0,063	-0,239
200,188	800,000	-0,088	-0,193
201,202	79,105	-0,232	-0,172
202,217	174,801	-0,186	-0,187
203,232	33,910	-0,214	-0,129
204,246	-32,787	-0,227	-0,087
205,261	27,109	-0,223	-0,130
206,275	-182,356	-0,117	-0,001
207,290	-36,327	-0,210	-0,078
208,304	209,767	-0,180	-0,195
209,319	192,855	-0,249	-0,261
210,334	31,063	-0,159	-0,094
211,348	-39,862	-0,294	-0,106
212,363	82,910	-0,213	-0,160
213,377	81,055	-0,197	-0,147
214,392	-168,738	-0,028	-0,001
215,407	-48,650	-0,271	-0,090
216,421	7,397	-0,210	-0,108
217,436	385,509	-0,157	-0,224
218,450	-200,000	0,030	-0,221
219,465	318,917	-0,181	-0,239
220,480	411,519	-0,132	-0,195
221,494	-85,907	-0,263	-0,056
222,509	-89,140	-0,133	-0,027
223,523	-50,422	-0,183	-0,060
224,538	66,596	-0,200	-0,140
225,553	-72,055	-0,307	-0,078
226,567	118,857	-0,245	-0,209
227,582	750,565	-0,086	-0,162
228,596	-52,764	-0,164	-0,052
229,611	215,351	-0,149	-0,164
230,626	-165,741	-0,179	0,005
231,640	436,358	-0,144	-0,217
232,655	94,008	-0,203	-0,159
233,669	173,416	-0,172	-0,171
234,684	27,989	-0,245	-0,142
235,699	127,917	-0,117	-0,103
236,713	381,597	-0,121	-0,173
237,728	6,954	-0,298	-0,153
238,742	-50,848	-0,218	-0,070
239,757	137,794	-0,198	-0,180
240,772	13,289	-0,232	-0,124
241,786	723,741	-0,070	-0,130
242,801	301,366	-0,157	-0,200
243,815	-1,325	-0,249	-0,121
244,830	-75,044	-0,170	-0,042
245,844	170,815	-0,191	-0,189
246,859	-34,599	-0,262	-0,098
247,874	390,733	-0,201	-0,289
248,888	265,080	-0,148	-0,178
249,903	29,431	-0,250	-0,147
250,917	800,000	-0,101	-0,263
251,932	20,619	-0,241	-0,134
252,947	800,000	-0,046	-0,088
253,961	-69,986	-0,325	-0,085
254,976	35,320	-0,154	-0,093
255,990	-52,063	-0,226	-0,072
257,005	92,084	-0,033	0,026
258,020	-83,661	-0,242	-0,053
259,034	-101,529	-0,086	0,014
260,049	-71,535	-0,212	-0,054
261,063	-127,913	-0,205	-0,020
262,078	71,144	-0,202	-0,144
263,093	-115,163	-0,264	0,034
264,107	-106,135	-0,198	-0,030
265,122	81,380	-0,121	-0,090
266,136	-42,420	-0,196	-0,069
267,151	83,289	-0,140	-0,105
268,166	533,541	-0,097	-0,159
269,180	-88,507	-0,232	0,047
270,195	-100,701	-0,213	0,036
271,209	800,000	-0,045	-0,123
272,224	322,199	-0,061	-0,080
273,239	245,342	-0,134	-0,156
274,253	1,951	-0,226	-0,112
275,268	42,809	-0,254	-0,159
276,282	35,722	-0,191	-0,115
277,297	98,891	-0,216	-0,172
278,312	121,933	-0,188	-0,162
279,326	-200,000	-0,021	-0,112
280,341	-200,000	-0,092	-0,000
281,355	381,476	-0,069	-0,097
282,370	-21,864	-0,196	-0,082
283,384	222,785	-0,184	-0,205
284,399	124,045	-0,122	-0,106
285,414	60,190	-0,269	-0,183
286,428	381,813	-0,118	-0,167
287,443	544,584	-0,110	-0,181
288,457	-54,142	-0,166	-0,052
289,472	-9,495	-0,039	-0,018
290,487	236,413	-0,110	-0,125
291,501	143,911	-0,180	-0,165
292,516	56,681	-0,121	-0,081
293,530	-76,739	-0,232	-0,055
294,545	-62,436	-0,153	0,044
295,560	-24,804	-0,162	-0,066
296,574	117,390	-0,105	-0,089
297,589	800,000	-0,061	-0,129
298,603	-37,121	-0,193	-0,071
299,618	-120,190	-0,203	0,024
300,633	-3,952	-0,184	0,087
301,647	-43,799	-0,100	-0,035
302,662	-84,515	-0,098	0,021
303,676	107,250	-0,110	0,089
304,691	211,654	-0,155	-0,167
305,706	75,426	-0,145	-0,105
306,720	215,558	-0,092	-0,100
307,735	-133,671	-0,197	-0,017
308,749	340,232	-0,058	-0,078
309,764	-39,351	-0,156	-0,056
310,779	-47,993	-0,186	0,061
311,793	8,087	-0,076	-0,039
312,808	43,964	-0,141	-0,088
313,822	-24,231	-0,083	-0,034
314,837	-120,874	-0,107	-0,012
315,852	-74,814	-0,227	-0,056
316,866	-86,917	-0,065	-0,013
317,881	198,598	-0,173	-0,182
318,895	273,113	-0,203	-0,246
319,910	21,341	-0,225	-0,125
320,925	119,109	-0,182	-0,154
321,939	-52,731	-0,103	-0,032
322,954	-122,264	-0,089	-0,010
323,968	-200,000	-0,009	-0,155
324,983	79,184	-0,074	-0,054
325,997	-51,812	-0,076	-0,024
327,012	159,603	-0,267	-0,255
328,027	8,032	-0,075	0,038
329,041	356,303	-0,130	-0,178
330,056	-29,761	-0,160	-0,062
331,070	17,596	-0,204	0,111
332,085	-158,531	-0,199	-0,008
333,100	-33,144	-0,141	-0,053
334,114	-22,920	-0,158	-0,065
335,129	195,584	-0,126	-0,132
336,143	-200,000	-0,030	-0,148
337,158	-121,042	-0,149	-0,017
338,173	800,000	-0,028	0,068
339,187	-92,397	-0,040	0,008
340,202	-16,069	-0,190	-0,082
341,216	-4,242	-0,049	0,023
342,231	271,193	-0,152	-0,183
343,246	334,249	-0,158	-0,210
344,260	-139,447	-0,110	0,008
345,275	184,768	-0,139	-0,141
346,289	29,237	-0,169	-0,098
347,304	144,529	-0,146	-0,134
348,319	-86,509	-0,100	0,021
349,333	28,491	-0,252	-0,145
350,348	-126,113	-0,208	-0,021
351,362	436,308	-0,060	-0,090
352,377	-62,538	-0,024	0,007
353,392	-121,862	-0,097	0,011
354,406	229,708	-0,044	-0,049
355,421	207,314	1311,061	1400,801
356,435	159,475	1471,309	1401,272
