DTS Sentinel unit serial number:	SN410029Multiplexer serial number:	ORYXHardware model number:	OX2-SRSoftware version number:	ORYX F/W v4,00 Oryx Data Collector v3.7.2.0data status	okinstallation	B3 Nyhavnadifferential loss correction	single-endedforward channel	channel 1reverse channel	N/Adate	2023/12/02time	08:32:30forward acquisition time	300,00reverse acquisition time	0,00gamma	499,1914k internal	0,3195k external	0,3195temperature offset calibration	1,0000default loss term (dB/km)	0,3820temperature slope calibration	1,0000multiplexer offset coefficient	1,0000multiplexer slope coefficient	1,0000fibre end	0,00T internal ref (°C)	15,37T ext. ref 1 (°C)	0,09T ext. ref 2 (°C)	0,08length (m)	temperature (°C)	Stokes	anti-Stokes-744,400	337,578	-0,242	-0,344
-743,385	800,000	0,093	0,290
-742,371	212,663	-0,171	-0,197
-741,356	-200,000	0,059	0,292
-740,342	46,470	-0,272	-0,183
-739,327	-200,000	0,073	0,358
-738,312	57,244	-0,231	-0,164
-737,298	-200,000	0,064	0,333
-736,283	27,117	-0,379	-0,231
-735,269	-200,000	-0,074	0,268
-734,254	-43,595	-0,262	-0,096
-733,239	32,344	-0,254	0,159
-732,225	206,308	-0,212	-0,241
-731,210	91,660	-0,091	0,074
-730,196	228,024	-0,037	0,044
-729,181	15,794	0,066	-0,038
-728,167	79,352	-0,051	0,040
-727,152	-200,000	0,003	0,108
-726,137	800,000	0,039	0,108
-725,123	-16,081	-0,096	-0,044
-724,108	44,207	-0,182	-0,121
-723,094	61,399	-0,114	-0,082
-722,079	121,052	-0,091	-0,082
-721,064	-137,223	0,019	-0,002
-720,050	757,554	0,025	-0,049
-719,035	-200,000	-0,014	0,116
-718,021	-108,069	-0,071	-0,011
-717,006	119,755	0,050	-0,045
-715,991	313,879	-0,075	-0,102
-714,977	800,000	-0,027	-0,066
-713,962	88,737	-0,101	-0,081
-712,948	-91,511	0,088	-0,018
-711,933	800,000	-0,038	0,085
-710,918	670,352	-0,046	0,087
-709,904	-64,178	-0,109	-0,032
-708,889	800,000	0,043	-0,134
-707,875	-200,000	-0,026	-0,113
-706,860	-200,000	-0,001	0,008
-705,845	97,659	0,072	-0,060
-704,831	-200,000	-0,010	-0,068
-703,816	-200,000	0,017	-0,143
-702,802	-200,000	-0,013	-0,049
-701,787	604,772	0,074	-0,135
-700,772	127,219	-0,091	-0,084
-699,758	-200,000	-0,013	0,110
-698,743	59,124	-0,046	-0,033
-697,729	12,176	-0,033	0,018
-696,714	39,272	0,079	0,051
-695,699	48,100	-0,043	-0,029
-694,685	-54,102	-0,065	-0,021
-693,670	-29,566	-0,184	-0,076
-692,656	800,000	-0,016	0,046
-691,641	800,000	0,015	-0,048
-690,627	-200,000	0,038	-0,133
-689,612	17,825	-0,093	0,053
-688,597	346,959	0,064	0,091
-687,583	59,677	-0,010	-0,007
-686,568	73,901	-0,142	-0,108
-685,554	22,844	0,058	-0,034
-684,539	-51,451	-0,089	0,030
-683,524	-131,182	-0,069	-0,007
-682,510	-35,269	0,101	-0,040
-681,495	-200,000	-0,001	-0,015
-680,481	-148,649	-0,115	-0,007
-679,466	187,082	-0,058	-0,063
-678,451	-56,452	-0,037	0,012
-677,437	72,174	-0,079	-0,060
-676,422	96,034	0,135	-0,112
-675,408	-200,000	0,000	-0,090
-674,393	231,247	-0,060	0,072
-673,378	593,409	-0,060	-0,108
-672,364	-200,000	0,016	-0,075
-671,349	-200,000	-0,034	-0,151
-670,335	-200,000	0,018	-0,136
-669,320	-156,494	-0,156	-0,007
-668,305	337,953	0,022	0,032
-667,291	-200,000	-0,003	-0,024
-666,276	-200,000	0,013	0,099
-665,262	-200,000	0,001	-0,095
-664,247	-119,380	-0,136	0,017
-663,232	432,764	0,078	-0,124
-662,218	-171,473	0,049	0,001
-661,203	236,700	-0,019	-0,023
-660,189	426,788	0,030	0,047
-659,174	-54,880	-0,090	-0,029
-658,159	-200,000	0,005	-0,124
-657,145	800,000	-0,019	-0,049
-656,130	5,428	-0,080	0,043
-655,116	6,587	-0,070	0,038
-654,101	-200,000	-0,046	0,155
-653,086	57,207	-0,131	0,093
-652,072	326,555	-0,038	-0,053
-651,057	-200,000	0,049	-0,184
-650,043	-200,000	0,045	-0,160
-649,028	488,619	0,062	-0,103
-648,014	208,744	0,051	-0,058
-646,999	5,000	-0,043	0,023
-645,984	174,998	-0,063	0,066
-644,970	21,130	0,103	-0,061
-643,955	365,608	0,048	-0,071
-642,941	611,847	-0,052	-0,095
-641,926	624,294	0,084	0,155
-640,911	-200,000	0,009	0,132
-639,897	-16,150	-0,007	-0,003
-638,882	-66,452	-0,163	0,047
-637,868	800,000	0,086	-0,179
-636,853	-200,000	-0,019	-0,082
-635,838	-200,000	-0,012	0,063
-634,824	294,235	-0,022	-0,029
-633,809	120,478	0,031	-0,028
-632,795	645,372	-0,036	0,067
-631,780	-32,075	0,058	0,024
-630,765	12,686	-0,213	0,119
-629,751	800,000	-0,080	-0,165
-628,736	-1,044	-0,137	-0,070
-627,722	43,099	0,055	-0,036
-626,707	15,740	-0,117	0,066
-625,692	705,678	-0,044	0,085
-624,678	79,094	-0,144	-0,112
-623,663	-115,728	0,146	-0,020
-622,649	164,314	0,086	-0,088
-621,634	-154,791	-0,119	-0,006
-620,619	8,517	-0,158	-0,086
-619,605	359,788	0,076	0,110
-618,590	60,906	-0,179	0,129
-617,576	97,022	0,030	0,025
-616,561	-55,919	-0,083	-0,027
-615,546	-200,000	-0,021	-0,068
-614,532	500,291	0,090	-0,152
-613,517	63,953	-0,086	-0,063
-612,503	-77,146	-0,100	0,025
-611,488	29,323	0,086	0,053
-610,474	-200,000	0,007	0,094
-609,459	-47,457	0,072	-0,025
-608,444	88,907	-0,089	0,071
-607,430	61,751	0,043	0,031
-606,415	800,000	-0,031	-0,066
-605,401	-27,169	-0,105	0,044
-604,386	-69,404	0,102	0,028
-603,371	-200,000	-0,008	0,084
-602,357	-45,496	0,035	-0,013
-601,342	74,676	-0,080	0,061
-600,328	-66,713	-0,088	-0,025
-599,313	-68,347	-0,063	-0,018
-598,298	-95,774	0,176	0,034
-597,284	800,000	-0,017	-0,043
-596,269	800,000	0,041	0,125
-595,255	-124,902	0,129	0,014
-594,240	-93,613	-0,064	-0,013
-593,225	496,970	-0,074	-0,123
-592,211	-15,979	-0,094	0,043
-591,196	3,313	0,055	-0,029
-590,182	-182,361	-0,157	-0,002
-589,167	279,413	0,040	0,052
-588,152	216,254	0,099	0,114
-587,138	-54,380	-0,085	-0,028
-586,123	800,000	-0,020	0,061
-585,109	227,892	0,059	-0,070
-584,094	-200,000	0,010	0,130
-583,079	70,848	0,040	-0,030
-582,065	614,004	0,044	0,081
-581,050	800,000	-0,037	-0,074
-580,036	787,594	-0,044	-0,087
-579,021	-125,794	-0,097	0,010
-578,006	-200,000	0,014	-0,046
-576,992	-200,000	0,018	0,066
-575,977	-146,844	0,176	0,011
-574,963	146,705	-0,108	0,105
-573,948	484,751	0,025	-0,042
-572,934	-14,544	-0,138	0,064
-571,919	176,528	-0,014	-0,015
-570,904	-136,819	-0,070	0,006
-569,890	-109,617	-0,031	-0,005
-568,875	-200,000	0,023	0,199
-567,861	541,310	-0,052	0,090
-566,846	537,436	0,016	0,027
-565,831	-109,993	0,092	0,014
-564,817	-200,000	-0,030	0,119
-563,802	-200,000	-0,016	-0,202
-562,788	-200,000	-0,019	-0,148
-561,773	50,125	0,041	-0,028
-560,758	68,107	0,162	0,120
-559,744	-6,236	0,089	0,044
-558,729	-200,000	-0,000	0,041
-557,715	174,768	-0,106	-0,111
-556,700	-200,000	0,001	0,017
-555,685	126,565	-0,062	-0,057
-554,671	-200,000	-0,030	-0,171
-553,656	-200,000	0,017	0,202
-552,642	-140,619	0,055	0,004
-551,627	243,461	0,093	0,112
-550,612	327,441	0,107	-0,149
-549,598	800,000	-0,069	-0,145
-548,583	800,000	0,048	-0,138
-547,569	-200,000	0,004	-0,108
-546,554	11,547	0,143	0,079
-545,539	320,252	-0,079	0,109
-544,525	733,502	-0,049	0,096
-543,510	-164,990	0,075	-0,002
-542,496	-8,935	-0,088	-0,042
-541,481	285,233	0,079	-0,103
-540,466	-200,000	0,013	-0,097
-539,452	23,996	0,122	-0,073
-538,437	623,956	0,077	0,141
-537,423	-200,000	0,024	0,078
-536,408	800,000	0,032	0,072
-535,393	35,496	0,099	0,062
-534,379	261,006	0,066	-0,082
-533,364	-200,000	-0,018	0,073
-532,350	788,298	-0,025	0,049
-531,335	106,444	0,011	-0,010
-530,321	-131,272	0,057	-0,005
-529,306	-200,000	-0,025	0,115
-528,291	-21,891	-0,028	-0,012
-527,277	147,050	0,050	0,049
-526,262	51,179	0,095	-0,065
-525,248	800,000	0,079	0,171
-524,233	-42,024	0,026	-0,010
-523,218	67,599	-0,191	0,141
-522,204	16,963	0,054	0,031
-521,189	78,821	0,054	0,042
-520,175	-200,000	-0,027	-0,098
-519,160	-14,885	-0,120	0,055
-518,145	-189,472	0,108	-0,001
-517,131	-200,000	-0,003	0,028
-516,116	-200,000	0,005	0,171
-515,102	800,000	0,023	0,053
-514,087	-103,970	-0,053	-0,009
-513,072	0,956	-0,081	-0,042
-512,058	800,000	-0,067	0,142
-511,043	108,976	0,079	-0,068
-510,029	-95,134	-0,122	0,024
-509,014	231,319	0,031	-0,037
-507,999	-112,091	0,033	-0,005
-506,985	483,053	-0,009	-0,015
-505,970	-200,000	-0,012	-0,102
-504,956	605,962	0,041	-0,074
-503,941	420,865	-0,080	-0,124
-502,926	17,982	0,043	0,025
-501,912	74,027	0,046	0,035
-500,897	-200,000	0,012	-0,086
-499,883	17,059	-0,065	0,037
-498,868	-200,000	0,027	-0,087
-497,853	-108,083	-0,121	0,019
-496,839	-23,130	-0,049	0,021
-495,824	192,397	0,043	-0,047
-494,810	800,000	0,025	0,052
-493,795	467,708	0,016	-0,026
-492,781	477,968	0,099	-0,162
-491,766	166,032	0,027	0,027
-490,751	-73,241	0,056	-0,015
-489,737	-93,473	0,122	-0,024
-488,722	800,000	-0,019	0,050
-487,708	411,038	0,039	0,060
-486,693	-200,000	0,021	0,093
-485,678	-132,884	0,128	0,012
-484,664	-71,163	-0,108	-0,029
-483,649	-33,441	0,027	-0,011
-482,635	162,895	-0,182	-0,185
-481,620	-101,297	-0,017	0,003
-480,605	111,814	0,084	-0,073
-479,591	-80,611	-0,080	-0,019
-478,576	51,739	0,027	-0,018
-477,562	29,503	0,037	0,023
-476,547	800,000	0,048	-0,124
-475,532	59,110	-0,061	0,043
-474,518	129,070	0,105	0,097
-473,503	583,525	0,002	-0,004
-472,489	-200,000	-0,038	0,210
-471,474	-200,000	0,022	-0,073
-470,459	-64,169	-0,142	0,042
-469,445	-2,592	0,092	-0,046
-468,430	104,268	-0,038	0,032
-467,416	800,000	-0,005	0,015
-466,401	800,000	-0,017	-0,038
-465,386	-200,000	-0,011	-0,152
-464,372	-200,000	-0,014	-0,154
-463,357	3,885	-0,058	-0,030
-462,343	129,326	-0,116	-0,106
-461,328	-200,000	-0,018	-0,110
-460,313	-137,246	-0,110	0,009
-459,299	48,891	0,079	-0,053
-458,284	-200,000	-0,067	0,254
-457,270	-51,519	0,096	-0,032
-456,255	-14,117	-0,013	-0,006
-455,241	800,000	0,044	0,089
-454,226	164,130	-0,046	0,047
-453,211	-200,000	-0,005	0,123
-452,197	617,408	-0,031	0,057
-451,182	-200,000	0,009	0,091
-450,168	23,765	-0,083	0,049
-449,153	800,000	-0,039	-0,084
-448,138	280,729	-0,037	-0,048
-447,124	-32,612	-0,114	-0,045
-446,109	49,059	0,096	0,065
-445,095	50,197	-0,108	-0,073
-444,080	-10,617	0,169	-0,080
-443,065	-200,000	0,007	0,128
-442,051	-101,615	-0,190	0,033
-441,036	358,278	-0,060	0,086
-440,022	800,000	-0,044	-0,139
-439,007	220,645	0,114	-0,131
-437,992	800,000	-0,025	0,066
-436,978	-200,000	-0,046	0,168
-435,963	154,335	0,055	-0,055
-434,949	-200,000	0,014	-0,111
-433,934	-200,000	-0,005	-0,114
-432,919	128,097	0,073	0,067
-431,905	317,029	0,037	-0,051
-430,890	-200,000	0,011	-0,066
-429,876	88,935	0,041	-0,033
-428,861	-200,000	-0,009	0,178
-427,846	-22,993	-0,085	-0,037
-426,832	-200,000	0,022	-0,074
-425,817	-20,734	-0,077	-0,034
-424,803	-151,072	-0,108	-0,006
-423,788	240,818	0,063	-0,076
-422,773	213,128	-0,056	0,064
-421,759	-66,866	0,086	0,024
-420,744	185,923	-0,062	-0,066
-419,730	-200,000	0,001	-0,078
-418,715	761,246	0,089	-0,174
-417,701	-200,000	-0,037	-0,132
-416,686	-168,888	0,032	0,001
-415,671	1,651	0,093	0,048
-414,657	197,372	-0,041	-0,045
-413,642	139,540	0,106	-0,101
-412,628	-94,454	-0,034	-0,007
-411,613	71,757	-0,033	0,025
-410,598	2,874	-0,081	-0,042
-409,584	7,624	0,077	0,041
-408,569	800,000	0,060	0,122
-407,555	-200,000	-0,034	0,114
-406,540	800,000	-0,041	0,096
-405,525	-169,050	0,041	-0,001
-404,511	-151,796	0,073	-0,004
-403,496	42,831	-0,023	-0,015
-402,482	392,027	0,077	-0,115
-401,467	-200,000	0,001	-0,152
-400,452	800,000	0,023	-0,058
-399,438	-50,639	0,046	-0,015
-398,423	-64,935	0,017	0,005
-397,409	-53,418	-0,133	0,044
-396,394	-200,000	-0,046	0,153
-395,379	-79,598	-0,123	0,030
-394,365	-200,000	0,009	0,095
-393,350	-71,914	0,132	0,035
-392,336	-105,170	-0,124	-0,020
-391,321	-200,000	-0,029	-0,215
-390,306	-200,000	0,008	0,031
-389,292	714,638	-0,046	-0,087
-388,277	539,263	0,070	0,121
-387,263	-63,416	0,097	-0,029
-386,248	64,543	-0,012	-0,008
-385,233	104,673	0,101	-0,086
-384,219	321,946	0,039	-0,054
-383,204	522,511	-0,007	-0,012
-382,190	461,774	-0,068	-0,109
-381,175	199,146	0,013	-0,014
-380,160	28,466	0,022	0,013
-379,146	-110,323	0,114	0,017
-378,131	407,287	0,042	0,064
-377,117	800,000	-0,035	0,077
-376,102	-200,000	-0,005	-0,067
-375,088	423,334	0,022	0,034
-374,073	94,057	-0,041	-0,033
-373,058	-200,000	-0,036	-0,123
-372,044	-113,786	-0,116	-0,016
-371,029	-42,078	-0,134	-0,049
-370,015	-200,000	0,006	-0,104
-369,000	-89,258	0,074	0,015
-367,985	-200,000	-0,023	-0,132
-366,971	-109,703	-0,017	0,003
-365,956	-200,000	0,019	-0,068
-364,942	-200,000	-0,017	0,134
-363,927	-130,149	0,021	-0,002
-362,912	800,000	0,026	-0,073
-361,898	-96,365	-0,166	-0,031
-360,883	-36,633	-0,036	0,014
-359,869	-3,545	0,058	0,029
-358,854	-70,979	-0,031	-0,008
-357,839	345,955	0,071	0,100
-356,825	189,655	0,081	-0,087
-355,810	-200,000	0,035	0,124
-354,796	746,955	-0,044	-0,085
-353,781	463,159	0,018	-0,029
-352,766	757,823	-0,051	-0,099
-351,752	-32,397	0,074	0,029
-350,737	-172,835	-0,079	-0,002
-349,723	-159,904	0,223	0,009
-348,708	-200,000	0,011	0,087
-347,693	-200,000	-0,000	0,088
-346,679	40,721	0,102	0,066
-345,664	800,000	-0,015	-0,043
-344,650	800,000	-0,031	0,073
-343,635	-124,660	0,063	0,007
-342,620	10,717	0,078	0,043
-341,606	441,634	-0,019	0,030
-340,591	-200,000	0,006	-0,090
-339,577	-200,000	0,005	0,183
-338,562	101,645	0,045	-0,037
-337,548	-200,000	-0,006	0,165
-336,533	800,000	-0,040	0,118
-335,518	51,823	0,044	0,030
-334,504	-200,000	0,012	0,077
-333,489	800,000	-0,025	0,074
-332,475	-17,720	0,120	-0,054
-331,460	-200,000	0,045	-0,153
-330,445	-200,000	-0,023	-0,101
-329,431	429,890	-0,024	-0,038
-328,416	-111,081	-0,090	-0,013
-327,402	-67,151	0,103	0,029
-326,387	800,000	-0,052	0,127
-325,372	83,144	0,047	0,036
-324,358	-200,000	0,133	-0,000
-323,343	212,400	0,033	-0,038
-322,329	-103,317	-0,026	-0,004
-321,314	560,014	0,039	0,067
-320,299	31,256	-0,082	-0,050
-319,285	526,244	-0,084	-0,143
-318,270	-200,000	-0,129	0,000
-317,256	800,000	-0,062	-0,135
-316,241	146,150	-0,091	-0,088
-315,226	-135,605	0,055	0,005
-314,212	-14,155	0,067	0,031
-313,197	154,470	0,031	0,031
-312,183	-200,000	0,020	0,114
-311,168	-143,730	-0,076	-0,005
-310,153	800,000	0,049	-0,120
-309,139	-28,367	-0,025	-0,010
-308,124	65,628	0,056	-0,040
-307,110	800,000	-0,012	0,029
-306,095	477,081	0,057	0,093
-305,080	136,274	-0,069	0,064
-304,066	125,658	0,100	-0,091
-303,051	-112,820	-0,118	0,017
-302,037	495,545	-0,091	-0,150
-301,022	-200,000	0,013	0,087
-300,008	9,771	0,235	0,127
-298,993	3,012	0,107	-0,056
-297,978	20,946	-0,130	-0,075
-296,964	59,894	0,045	0,032
-295,949	-200,000	-0,009	0,067
-294,935	200,445	0,080	-0,089
-293,920	800,000	0,048	0,101
-292,905	213,952	0,050	0,057
-291,891	800,000	0,038	0,082
-290,876	-40,422	-0,083	-0,031
-289,862	55,867	0,100	0,069
-288,847	181,026	-0,017	-0,018
-287,832	-45,390	-0,102	0,036
-286,818	118,705	0,040	0,035
-285,803	17,157	-0,045	-0,025
-284,789	-73,438	-0,036	0,009
-283,774	63,564	0,036	-0,026
-282,759	206,554	0,090	0,100
-281,745	292,208	-0,106	-0,138
-280,730	-200,000	0,014	-0,126
-279,716	313,596	0,097	-0,131
-278,701	-140,192	0,035	0,003
-277,686	695,344	-0,010	0,019
-276,672	-83,787	-0,039	-0,009
-275,657	800,000	-0,048	0,102
-274,643	-200,000	0,036	0,126
-273,628	40,750	0,038	0,024
-272,613	6,499	-0,054	0,029
-271,599	800,000	0,050	0,120
-270,584	-200,000	-0,001	0,063
-269,570	-82,896	0,075	-0,017
-268,555	1,823	-0,058	0,030
-267,540	-85,120	0,061	0,013
-266,526	-200,000	0,016	-0,145
-265,511	800,000	-0,037	0,084
-264,497	800,000	0,022	-0,064
-263,482	362,518	0,047	0,068
-262,467	67,793	-0,106	0,077
-261,453	-143,375	0,077	-0,005
-260,438	-200,000	0,018	0,102
-259,424	-200,000	-0,045	-0,156
-258,409	-28,854	0,088	-0,036
-257,395	800,000	0,055	0,129
-256,380	137,012	-0,035	-0,033
-255,365	-2,537	-0,116	0,058
-254,351	-33,480	-0,076	0,030
-253,336	401,910	0,031	-0,046
-252,322	800,000	-0,004	-0,010
-251,307	800,000	0,047	0,094
-250,292	178,612	-0,116	-0,121
-249,278	110,416	0,077	0,066
-248,263	414,085	0,077	-0,118
-247,249	178,605	0,109	-0,113
-246,234	800,000	-0,059	-0,117
-245,219	-83,245	-0,079	-0,018
-244,205	147,413	0,038	-0,037
-243,190	-71,269	-0,060	0,016
-242,176	-167,349	-0,134	0,004
-241,161	-114,789	-0,058	-0,008
-240,146	-200,000	-0,033	0,144
-239,132	604,613	0,056	-0,100
-238,117	800,000	-0,041	-0,082
-237,103	288,199	0,089	-0,115
-236,088	641,144	-0,057	-0,104
-235,073	110,287	-0,024	-0,021
-234,059	-22,468	-0,055	0,024
-233,044	-200,000	0,005	-0,019
-232,030	30,222	-0,152	-0,093
-231,015	9,034	0,029	-0,016
-230,000	800,000	-0,045	0,136
-228,986	29,467	-0,062	-0,038
-227,971	419,766	-0,035	-0,054
-226,957	800,000	0,046	0,127
-225,942	-200,000	0,018	0,059
-224,927	-200,000	-0,025	-0,094
-223,913	21,150	-0,047	0,027
-222,898	0,332	-0,013	-0,006
-221,884	-82,985	-0,034	-0,008
-220,869	-27,745	0,113	0,047
-219,855	-24,333	-0,070	0,029
-218,840	-58,036	-0,053	-0,016
-217,825	-200,000	-0,004	0,042
-216,811	315,384	0,042	0,056
-215,796	-108,221	-0,071	-0,011
-214,782	800,000	0,024	0,065
-213,767	-66,927	-0,088	0,025
-212,752	-200,000	0,008	0,070
-211,738	-200,000	-0,029	0,132
-210,723	800,000	-0,021	-0,066
-209,709	680,907	-0,077	-0,144
-208,694	126,257	0,091	-0,082
-207,679	-200,000	-0,018	-0,083
-206,665	-200,000	0,021	-0,162
-205,650	800,000	-0,063	0,147
-204,636	-200,000	0,003	0,066
-203,621	13,616	-0,084	-0,046
-202,606	-200,000	0,001	0,059
-201,592	-200,000	0,024	-0,120
-200,577	568,156	0,005	0,008
-199,563	800,000	0,054	0,136
-198,548	800,000	0,031	0,092
-197,533	-67,818	-0,057	0,016
-196,519	800,000	0,049	0,134
-195,504	-136,369	-0,059	0,005
-194,490	154,532	-0,050	0,049
-193,475	-200,000	0,005	-0,165
-192,460	800,000	0,032	-0,081
-191,446	203,878	0,013	-0,014
-190,431	-200,000	-0,014	0,074
-189,417	800,000	-0,049	0,150
-188,402	229,451	-0,053	-0,061
-187,387	-200,000	-0,000	-0,176
-186,373	425,976	0,019	-0,030
-185,358	657,181	0,018	0,033
-184,344	-67,369	0,091	0,025
-183,329	-200,000	-0,003	-0,046
-182,315	322,098	0,084	0,115
-181,300	800,000	-0,040	0,112
-180,285	52,567	-0,129	-0,088
-179,271	286,144	-0,053	-0,068
-178,256	-14,669	0,100	0,045
-177,242	-200,000	0,204	0,000
-176,227	-103,770	-0,058	-0,010
-175,212	135,187	0,138	0,127
-174,198	241,177	-0,058	0,069
-173,183	61,321	0,030	-0,021
-172,169	-200,000	0,017	0,152
-171,154	-200,000	-0,000	-0,035
-170,139	-177,359	-0,076	-0,001
-169,125	163,201	-0,010	0,010
-168,110	46,510	0,057	0,038
-167,096	800,000	0,022	-0,065
-166,081	57,962	-0,058	-0,040
-165,066	800,000	-0,020	-0,051
-164,052	-171,908	0,147	0,003
-163,037	-7,097	0,052	0,025
-162,023	367,706	0,042	0,061
-161,008	-41,355	0,032	-0,012
-159,993	-139,941	-0,137	0,010
-158,979	-200,000	0,015	0,057
-157,964	-8,490	-0,040	0,019
-156,950	154,983	-0,099	-0,097
-155,935	-116,532	0,213	-0,028
-154,920	-131,937	0,102	0,009
-153,906	-22,440	-0,017	-0,007
-152,891	93,468	0,089	0,072
-151,877	-175,625	-0,137	0,003
-150,862	410,187	-0,036	-0,055
-149,847	800,000	-0,069	-0,143
-148,833	-34,985	0,107	-0,041
-147,818	-200,000	0,021	0,129
-146,804	-48,996	-0,108	0,037
-145,789	-66,774	0,105	-0,029
-144,775	460,132	0,057	-0,090
-143,760	774,626	-0,023	-0,045
-142,745	463,015	0,095	-0,151
-141,731	305,994	0,059	0,079
-140,716	-98,545	-0,105	0,019
-139,702	-133,553	0,130	0,011
-138,687	-200,000	-0,116	-0,000
-137,672	401,520	-0,041	0,062
-136,658	-200,000	-0,004	-0,032
-135,643	800,000	-0,041	-0,092
-134,629	386,642	0,006	-0,008
-133,614	105,062	0,191	0,161
-132,599	74,776	-0,123	0,092
-131,585	800,000	-0,042	0,098
-130,570	14,853	-0,058	0,032
-129,556	40,211	-0,100	-0,064
-128,541	800,000	-0,029	-0,057
-127,526	-108,528	0,081	-0,012
-126,512	49,336	0,052	-0,035
-125,497	321,728	0,035	-0,048
-124,483	-200,000	-0,015	0,083
-123,468	-200,000	-0,018	-0,063
-122,453	-87,348	-0,055	0,012
-121,439	37,964	-0,140	-0,088
-120,424	173,381	-0,084	-0,086
-119,410	-13,347	0,061	-0,028
-118,395	80,320	-0,117	-0,089
-117,380	323,236	-0,053	0,072
-116,366	-72,789	0,098	0,026
-115,351	138,293	-0,081	-0,075
-114,337	800,000	0,080	-0,207
-113,322	-200,000	0,002	-0,079
-112,307	-24,687	0,145	0,061
-111,293	-157,458	-0,108	-0,005
-110,278	185,667	0,041	0,043
-109,264	-157,965	-0,039	0,002
-108,249	-200,000	-0,031	0,115
-107,234	334,471	-0,009	-0,012
-106,220	-99,188	-0,152	0,027
-105,205	-85,919	0,044	0,010
-104,191	-170,525	0,088	0,002
-103,176	-200,000	0,001	0,117
-102,162	-200,000	0,017	0,096
-101,147	-200,000	-0,017	-0,101
-100,132	-200,000	-0,000	0,006
-99,118	-113,900	0,161	-0,022
-98,103	-176,372	-0,013	-0,000
-97,089	-71,683	-0,113	0,030
-96,074	-200,000	0,033	0,117
-95,059	706,240	0,047	-0,089
-94,045	163,121	0,017	-0,017
-93,030	-133,233	0,132	0,012
-92,016	762,920	0,032	0,063
-91,001	800,000	0,021	-0,064
-89,986	90,951	0,030	-0,024
-88,972	-200,000	0,026	-0,140
-87,957	800,000	-0,038	0,095
-86,943	-27,768	-0,151	-0,062
-85,928	800,000	-0,026	-0,066
-84,913	176,337	-0,019	-0,020
-83,899	21,290	-0,190	-0,109
-82,884	-73,203	0,174	0,045
-81,870	-171,895	0,110	-0,003
-80,855	-3,698	0,089	0,044
-79,840	-31,913	-0,021	0,008
-78,826	800,000	-0,063	0,136
-77,811	-102,957	0,069	0,012
-76,797	800,000	0,015	-0,041
-75,782	87,480	0,117	-0,092
-74,767	239,979	-0,044	0,052
-73,753	-84,579	0,127	0,028
-72,738	-200,000	0,005	-0,028
-71,724	552,626	0,034	-0,058
-70,709	800,000	-0,057	-0,145
-69,694	-200,000	0,019	0,105
-68,680	-34,555	-0,075	-0,029
-67,665	-138,066	0,071	0,005
-66,651	56,220	0,067	0,046
-65,636	117,887	-0,074	-0,065
-64,622	-34,696	0,150	-0,058
-63,607	15,413	-0,068	-0,038
-62,592	-19,890	0,053	-0,023
-61,578	-200,000	-0,015	0,069
-60,563	-200,000	0,003	-0,027
-59,549	800,000	0,045	0,090
-58,534	-53,273	-1,445	-0,467
-57,519	463,821	-1,361	-2,165
-56,505	-200,000	-0,618	-4,512
-55,490	134,221	0,869	0,799
-54,476	800,000	4,695	11,193
-53,461	-200,000	18,046	284,341
-52,446	800,000	725,229	2223,264
-51,432	558,021	1640,481	2817,329
-50,417	79,730	1662,638	1265,078
-49,403	23,206	1536,577	892,645
-48,388	17,245	1459,672	819,118
-47,373	18,007	1449,594	817,096
-46,359	17,522	1440,177	809,436
-45,344	15,470	1435,577	797,030
-44,330	15,423	1433,482	795,612
-43,315	15,391	1431,864	794,526
-42,300	15,428	1430,334	793,826
-41,286	15,486	1429,002	793,328
-40,271	15,440	1427,717	792,364
-39,257	15,409	1426,554	791,542
-38,242	15,520	1425,031	791,193
-37,227	15,491	1423,876	790,382
-36,213	15,506	1422,446	789,628
-35,198	15,480	1421,549	788,974
-34,184	15,532	1420,510	788,614
-33,169	15,404	1419,466	787,396
-32,154	15,475	1418,350	787,082
-31,140	15,510	1417,068	786,504
-30,125	15,535	1415,878	785,931
-29,111	15,509	1414,644	785,093
-28,096	15,422	1413,776	784,170
-27,082	15,376	1412,646	783,297
-26,067	15,431	1411,210	782,727
-25,052	15,467	1410,099	782,247
-24,038	15,378	1409,289	781,351
-23,023	15,391	1408,214	780,785
-22,009	15,333	1407,436	780,051
-20,994	15,348	1406,533	779,590
-19,979	15,296	1405,569	778,780
-18,965	15,345	1404,463	778,368
-17,950	15,331	1403,484	777,726
-16,936	15,361	1402,560	777,323
-15,921	15,325	1401,297	776,428
-14,906	15,302	1400,511	775,851
-13,892	15,337	1399,483	775,417
-12,877	15,342	1398,750	775,003
-11,863	15,348	1397,446	774,278
-10,848	15,275	1396,923	773,617
-9,833	15,293	1395,856	773,081
-8,819	15,234	1395,086	772,350
-7,804	15,229	1394,173	771,788
-6,790	15,199	1393,052	770,996
-5,775	15,166	1392,272	770,385
-4,760	15,198	1391,203	769,911
-3,746	15,223	1390,432	769,566
-2,731	15,217	1389,479	768,983
-1,717	15,166	1388,888	768,389
-0,702	15,196	1386,833	767,361
0,313	19,057	1306,790	740,920
1,327	35,563	707,180	439,263
2,342	54,896	124,751	85,229
3,356	2,575	16,591	8,491
4,371	9,565	3,066	1,641
5,386	-18,817	0,568	0,250
6,400	-200,000	0,031	0,169
7,415	78,954	-0,265	-0,201
8,429	53,303	-0,427	-0,289
9,444	96,028	-0,233	-0,189
10,459	68,916	-0,330	-0,240
11,473	-22,791	-0,293	-0,125
12,488	47,897	-0,186	-0,123
13,502	-89,008	-0,427	-0,089
14,517	64,908	-0,283	-0,202
15,531	-22,570	-0,491	-0,209
16,546	88,496	-0,324	-0,255
17,561	131,447	-0,380	-0,346
18,575	-9,018	-0,197	-0,093
19,590	199,052	-0,282	-0,306
20,604	193,128	-0,276	-0,296
21,619	119,832	-0,416	-0,365
22,634	147,994	-0,398	-0,380
23,648	82,849	-0,357	-0,275
24,663	149,729	-0,354	-0,339
25,677	-8,233	-0,374	-0,178
26,692	-71,152	-0,303	-0,080
27,707	46,611	-0,386	-0,253
28,721	156,110	-0,346	-0,338
29,736	42,908	-0,461	-0,297
30,750	85,946	-0,420	-0,327
31,765	305,645	-0,274	-0,361
32,780	54,947	-0,318	-0,217
33,794	145,570	-0,238	-0,225
34,809	209,663	-0,250	-0,278
35,823	-0,018	-0,396	-0,198
36,838	100,507	-0,327	-0,269
37,853	105,290	-0,413	-0,344
38,867	176,165	-0,334	-0,343
39,882	85,590	-0,287	-0,222
40,896	221,586	-0,189	-0,215
41,911	67,689	-0,385	-0,277
42,926	51,423	-0,407	-0,272
43,940	308,893	-0,258	-0,341
44,955	27,762	-0,369	-0,219
45,969	224,508	-0,330	-0,377
46,984	211,105	-0,356	-0,396
47,999	75,182	-0,383	-0,285
49,013	71,526	-0,252	-0,185
50,028	67,135	-0,317	-0,228
51,042	316,974	-0,174	-0,232
52,057	-38,729	-0,375	-0,139
53,071	28,319	-0,507	-0,301
54,086	-21,138	-0,357	-0,153
55,101	463,749	-0,179	-0,284
56,115	236,444	-0,285	-0,333
57,130	112,332	-0,393	-0,336
58,144	22,781	-0,444	-0,256
59,159	124,335	-0,343	-0,304
60,174	222,112	-0,369	-0,420
61,188	52,347	-0,294	-0,197
62,203	70,554	-0,411	-0,300
63,217	104,996	-0,320	-0,266
64,232	-14,021	-0,260	-0,118
65,247	274,682	-0,305	-0,382
66,261	74,464	-0,384	-0,284
67,276	63,694	-0,353	-0,250
68,290	51,248	-0,281	-0,187
69,305	58,967	-0,256	-0,177
70,320	153,794	-0,281	-0,272
71,334	78,999	-0,291	-0,219
72,349	158,962	-0,227	-0,222
73,363	3,563	-0,423	-0,216
74,378	15,832	-0,340	-0,188
75,393	363,433	-0,272	-0,386
76,407	133,815	-0,369	-0,337
77,422	-4,169	-0,234	-0,114
78,436	-23,005	-0,295	-0,125
79,451	-113,823	-0,309	-0,042
80,466	-26,814	-0,388	-0,159
81,480	57,750	-0,259	-0,178
82,495	-56,867	-0,424	-0,131
83,509	196,968	-0,211	-0,227
84,524	43,019	-0,262	-0,168
85,539	81,777	-0,282	-0,214
86,553	188,026	-0,243	-0,256
87,568	95,288	-0,373	-0,299
88,582	0,254	-0,375	-0,187
89,597	482,936	-0,208	-0,335
90,611	-126,866	-0,213	-0,022
91,626	-30,899	-0,323	-0,128
92,641	-7,080	-0,310	-0,148
93,655	18,839	-0,329	-0,185
94,670	108,840	-0,371	-0,311
95,684	100,911	-0,232	-0,190
96,699	252,292	-0,169	-0,203
97,714	55,957	-0,237	-0,162
98,728	35,518	-0,168	-0,103
99,743	-22,692	-0,325	-0,137
100,757	132,802	-0,185	-0,168
101,772	800,000	-0,157	-0,330
102,787	-20,398	-0,360	-0,155
103,801	40,321	-0,405	-0,256
104,816	80,008	-0,184	-0,139
105,830	2,743	-0,118	-0,060
106,845	305,695	-0,098	-0,129
107,860	-21,950	-0,113	-0,048
108,874	13,711	-0,257	-0,140
109,889	93,753	-0,235	-0,187
110,903	120,568	-0,261	-0,228
111,918	-91,543	-0,167	-0,033
112,933	606,631	-0,155	-0,271
113,947	52,020	-0,348	-0,232
114,962	36,683	-0,190	-0,118
115,976	134,447	-0,319	-0,290
116,991	223,004	-0,275	-0,311
118,006	32,830	-0,477	-0,289
119,020	188,849	-0,343	-0,360
120,035	95,165	-0,241	-0,192
121,049	31,988	-0,248	-0,150
122,064	28,823	-0,237	-0,141
123,079	-96,562	-0,294	-0,054
124,093	31,991	-0,357	-0,215
125,108	47,087	-0,316	-0,206
126,122	-25,280	-0,233	-0,096
127,137	108,872	-0,230	-0,193
128,151	46,299	-0,233	-0,151
129,166	173,634	-0,203	-0,206
130,181	106,091	-0,385	-0,319
131,195	36,524	-0,388	-0,239
132,210	-21,401	-0,222	-0,094
133,224	238,262	-0,167	-0,195
134,239	63,040	-0,241	-0,169
135,254	65,099	-0,251	-0,177
136,268	174,162	-0,274	-0,277
137,283	35,354	-0,235	-0,144
138,297	38,540	-0,305	-0,190
139,312	-47,699	-0,251	-0,085
140,327	144,559	-0,255	-0,238
141,341	210,306	-0,289	-0,318
142,356	800,000	-0,145	-0,319
143,370	-0,855	-0,200	-0,099
144,385	-4,018	-0,342	-0,165
145,400	14,610	-0,215	-0,117
146,414	-43,234	-0,222	-0,078
147,429	250,650	-0,212	-0,253
148,443	234,107	-0,251	-0,290
149,458	-41,091	-0,190	-0,068
150,473	-132,367	-0,272	-0,024
151,487	-69,756	-0,206	0,055
152,502	74,754	-0,190	-0,140
153,516	-21,276	-0,310	-0,132
154,531	210,063	-0,263	-0,289
155,546	19,853	-0,227	-0,127
156,560	-35,900	-0,244	-0,092
157,575	620,539	-0,101	-0,178
158,589	0,691	-0,183	-0,091
159,604	-6,791	-0,308	-0,146
160,619	175,607	-0,272	-0,276
161,633	100,730	-0,212	-0,172
162,648	56,950	-0,191	-0,130
163,662	229,628	-0,196	-0,225
164,677	233,182	-0,195	-0,225
165,692	33,635	-0,298	-0,181
166,706	233,429	-0,201	-0,231
167,721	-48,152	-0,247	-0,083
168,735	800,000	-0,112	-0,302
169,750	234,827	-0,246	-0,283
170,764	-45,284	-0,199	-0,069
171,779	2,787	-0,198	-0,100
172,794	121,016	-0,155	-0,134
173,808	800,000	-0,098	-0,217
174,823	437,301	-0,144	-0,220
175,837	-162,254	-0,282	-0,010
176,852	457,126	-0,134	-0,209
177,867	-11,158	-0,142	-0,065
178,881	-91,554	-0,199	-0,039
179,896	4,653	-0,281	0,144
180,910	291,481	-0,218	-0,278
181,925	243,395	-0,227	-0,267
182,940	17,292	-0,252	-0,139
183,954	67,174	-0,237	-0,168
184,969	42,992	-0,216	-0,137
185,983	-200,000	-0,075	-0,287
186,998	45,156	-0,343	-0,220
188,013	-41,436	-0,348	-0,124
189,027	58,392	-0,253	-0,173
190,042	75,416	-0,378	-0,278
191,056	-16,185	-0,329	-0,145
192,071	391,821	-0,179	-0,260
193,086	800,000	-0,126	-0,364
194,100	118,859	-0,194	-0,167
195,115	111,296	-0,210	-0,176
196,129	-114,927	-0,229	-0,030
197,144	3,415	-0,224	-0,113
198,159	759,080	-0,141	-0,267
199,173	586,971	-0,076	-0,132
200,188	184,356	-0,172	-0,177
201,202	237,529	-0,135	-0,156
202,217	-142,850	-0,182	-0,012
203,232	-79,842	-0,160	-0,037
204,246	119,745	-0,200	-0,172
205,261	451,638	-0,203	-0,314
206,275	800,000	-0,123	-0,356
207,290	70,122	-0,186	-0,133
208,304	41,836	-0,150	-0,095
209,319	-18,753	-0,255	-0,110
210,334	11,309	-0,287	-0,153
211,348	71,402	-0,226	-0,163
212,363	616,399	-0,122	-0,213
213,377	42,323	-0,211	-0,133
214,392	800,000	-0,151	-0,298
215,407	-40,501	-0,257	-0,092
216,421	93,522	-0,195	-0,153
217,436	100,588	-0,207	-0,167
218,450	-200,000	-0,049	-0,190
219,465	366,503	-0,136	-0,191
220,480	431,385	-0,132	-0,199
221,494	-23,554	-0,293	-0,122
222,509	54,052	-0,217	-0,145
223,523	145,381	-0,132	-0,123
224,538	44,506	-0,265	-0,169
225,553	-37,840	-0,261	-0,096
226,567	18,909	-0,316	-0,175
227,582	8,678	-0,288	-0,150
228,596	118,723	-0,142	-0,122
229,611	99,787	-0,166	-0,134
230,626	30,980	-0,254	-0,151
231,640	-77,204	-0,305	-0,073
232,655	30,511	-0,217	-0,129
233,669	108,953	-0,295	-0,245
234,684	577,876	-0,125	-0,213
235,699	100,668	-0,226	-0,182
236,713	130,950	-0,138	-0,123
237,728	80,108	-0,178	-0,133
238,742	-52,893	-0,221	0,070
239,757	-54,229	-0,247	-0,077
240,772	129,404	-0,160	-0,142
241,786	289,818	-0,095	-0,120
242,801	-77,803	-0,222	-0,053
243,815	206,245	-0,148	-0,160
244,830	-115,734	-0,141	-0,018
245,844	-80,875	-0,283	-0,065
246,859	148,677	-0,122	-0,114
247,874	407,039	-0,149	-0,219
248,888	46,427	-0,251	-0,161
249,903	60,566	-0,256	-0,176
250,917	5,030	-0,204	-0,104
251,932	-99,593	-0,066	0,011
252,947	-26,036	-0,194	-0,079
253,961	-42,724	-0,203	-0,071
254,976	-25,329	-0,258	-0,105
255,990	800,000	-0,076	-0,186
257,005	-57,301	-0,278	-0,084
258,020	-151,045	-0,078	0,004
259,034	-188,965	-0,117	0,001
260,049	272,063	-0,172	-0,210
261,063	-200,000	-0,038	-0,158
262,078	199,833	-0,146	-0,156
263,093	-132,296	-0,153	-0,014
264,107	114,230	-0,230	-0,194
265,122	-200,000	0,006	-0,149
266,136	1,958	-0,089	-0,044
267,151	47,023	-0,133	-0,086
268,166	-96,899	-0,229	-0,041
269,180	6,813	-0,261	-0,134
270,195	127,134	-0,311	-0,273
271,209	160,547	-0,166	-0,160
272,224	-147,696	-0,068	-0,004
273,239	-33,664	-0,165	-0,063
274,253	30,581	-0,141	-0,083
275,268	154,200	-0,152	-0,145
276,282	109,228	-0,108	-0,090
277,297	-175,934	-0,259	-0,005
278,312	-67,175	-0,246	-0,067
279,326	-146,370	-0,189	-0,011
280,341	343,913	-0,097	-0,132
281,355	234,106	-0,194	-0,222
282,370	329,524	-0,103	-0,138
283,384	21,562	-0,266	-0,149
284,399	-22,640	-0,203	-0,085
285,414	-136,533	-0,186	-0,015
286,428	23,661	-0,130	-0,074
287,443	78,314	-0,110	-0,081
288,457	-96,301	-0,211	-0,038
289,472	43,582	-0,130	-0,082
290,487	153,955	-0,085	-0,081
291,501	169,960	-0,206	-0,204
292,516	113,408	-0,222	-0,186
293,530	243,891	-0,149	-0,173
294,545	-49,510	-0,072	-0,024
295,560	-117,763	-0,061	-0,007
296,574	-50,635	-0,183	-0,059
297,589	-100,317	-0,089	-0,015
298,603	431,759	-0,140	-0,211
299,618	-72,234	-0,240	-0,061
300,633	-15,950	-0,195	0,086
301,647	191,368	-0,052	-0,054
302,662	130,289	-0,112	-0,099
303,676	-184,642	-0,061	-0,001
304,691	208,439	-0,180	-0,195
305,706	69,188	-0,222	-0,157
306,720	-200,000	-0,037	-0,226
307,735	-60,237	-0,112	0,033
308,749	151,316	-0,097	-0,092
309,764	-66,449	-0,100	-0,027
310,779	800,000	-0,107	-0,225
311,793	800,000	-0,038	-0,083
312,808	5,087	-0,307	-0,155
313,822	65,993	-0,205	-0,143
314,837	65,592	-0,104	-0,072
315,852	134,319	-0,025	-0,022
316,866	-46,999	-0,131	-0,044
317,881	50,740	-0,125	-0,082
318,895	638,309	-0,055	-0,096
319,910	37,665	-0,133	-0,081
320,925	-23,054	-0,168	-0,070
321,939	141,262	-0,107	-0,098
322,954	409,251	-0,069	-0,100
323,968	-188,874	-0,175	-0,001
324,983	-72,575	-0,187	0,047
325,997	-60,448	-0,063	-0,018
327,012	-200,000	-0,068	-0,210
328,027	60,509	-0,085	-0,058
329,041	66,572	-0,142	-0,100
330,056	259,876	-0,115	-0,137
331,070	-55,858	-0,112	-0,034
332,085	-39,395	-0,163	0,059
333,100	63,296	-0,161	-0,111
334,114	35,034	-0,224	-0,135
335,129	343,236	-0,155	-0,210
336,143	6,977	-0,103	-0,052
337,158	-200,000	-0,025	-0,091
338,173	147,130	-0,119	-0,110
339,187	-76,570	-0,118	0,028
340,202	51,026	-0,123	-0,080
341,216	643,173	-0,203	-0,357
342,231	188,433	-0,192	-0,198
343,246	800,000	-0,099	-0,208
344,260	47,275	-0,052	-0,033
345,275	80,274	-0,083	0,061
346,289	800,000	0,055	-0,152
347,304	316,473	0,040	0,052
348,319	274,516	-0,065	-0,079
349,333	-99,688	-0,205	-0,035
350,348	-200,000	0,002	-0,023
351,362	114,655	-0,186	-0,156
352,377	161,180	-0,213	-0,205
353,392	-51,222	-0,068	-0,022
354,406	-200,000	0,011	-0,044
355,421	209,736	1312,269	1415,763
356,435	161,437	1472,711	1416,284
