DTS Sentinel unit serial number:	SN410029Multiplexer serial number:	ORYXHardware model number:	OX2-SRSoftware version number:	ORYX F/W v4,00 Oryx Data Collector v3.7.2.0data status	okinstallation	B3 Nyhavnadifferential loss correction	single-endedforward channel	channel 1reverse channel	N/Adate	2023/12/04time	12:22:30forward acquisition time	300,00reverse acquisition time	0,00gamma	499,1914k internal	0,3203k external	0,3203temperature offset calibration	1,0000default loss term (dB/km)	0,3820temperature slope calibration	1,0000multiplexer offset coefficient	1,0000multiplexer slope coefficient	1,0000fibre end	0,00T internal ref (°C)	14,44T ext. ref 1 (°C)	0,11T ext. ref 2 (°C)	0,09length (m)	temperature (°C)	Stokes	anti-Stokes-744,400	162,427	-0,146	-0,149
-743,385	-200,000	-0,009	0,282
-742,371	-67,027	-0,192	-0,055
-741,356	-200,000	0,036	0,269
-740,342	103,650	-0,203	-0,173
-739,327	-200,000	0,026	0,260
-738,312	29,347	-0,225	-0,139
-737,298	800,000	0,053	0,124
-736,283	-200,000	-0,029	-0,201
-735,269	-200,000	0,093	0,472
-734,254	209,784	-0,259	-0,295
-733,239	-200,000	-0,054	0,231
-732,225	-200,000	-0,054	-0,214
-731,210	800,000	0,076	0,177
-730,196	344,834	-0,017	-0,024
-729,181	-200,000	-0,007	0,025
-728,167	352,936	0,039	-0,057
-727,152	118,949	-0,112	-0,100
-726,137	-91,953	-0,108	0,022
-725,123	-60,841	-0,048	-0,015
-724,108	800,000	-0,103	-0,210
-723,094	-200,000	0,010	-0,091
-722,079	-200,000	-0,005	-0,273
-721,064	-146,482	0,137	-0,009
-720,050	-200,000	0,003	-0,052
-719,035	-200,000	0,018	0,182
-718,021	-200,000	0,004	-0,128
-717,006	-66,085	-0,117	-0,034
-715,991	190,616	-0,144	-0,157
-714,977	-200,000	-0,039	-0,150
-713,962	-124,221	-0,071	0,008
-712,948	81,242	-0,050	0,039
-711,933	800,000	-0,018	-0,039
-710,918	-129,041	-0,040	0,004
-709,904	-91,186	-0,145	0,030
-708,889	-94,503	-0,155	-0,030
-707,875	152,913	0,099	-0,098
-706,860	-148,503	-0,078	-0,005
-705,845	-200,000	0,043	0,000
-704,831	-51,042	0,109	0,037
-703,816	-109,256	-0,076	-0,012
-702,802	-154,341	-0,072	0,003
-701,787	123,530	-0,092	0,084
-700,772	-136,945	-0,175	0,014
-699,758	473,977	0,039	0,064
-698,743	203,615	-0,057	0,065
-697,729	-200,000	-0,033	0,174
-696,714	425,903	-0,072	-0,113
-695,699	1,500	-0,060	-0,031
-694,685	-38,955	-0,087	-0,033
-693,670	268,441	-0,084	-0,107
-692,656	144,714	0,139	0,134
-691,641	800,000	-0,027	0,055
-690,627	219,543	0,032	0,037
-689,612	-200,000	0,031	0,108
-688,597	606,411	-0,014	0,026
-687,583	800,000	0,030	-0,095
-686,568	37,410	-0,131	0,084
-685,554	289,598	-0,065	-0,086
-684,539	-200,000	0,038	-0,221
-683,524	-200,000	-0,012	-0,147
-682,510	59,266	-0,122	0,087
-681,495	29,176	0,097	0,059
-680,481	-200,000	-0,022	-0,117
-679,466	800,000	-0,072	-0,191
-678,451	800,000	-0,065	-0,180
-677,437	-25,401	0,016	-0,007
-676,422	-45,902	0,137	0,049
-675,408	-50,726	-0,062	0,021
-674,393	-66,966	0,025	-0,007
-673,378	332,508	-0,077	-0,108
-672,364	-200,000	-0,020	0,098
-671,349	-80,542	-0,181	-0,043
-670,335	233,835	-0,023	0,028
-669,320	-109,421	0,066	-0,010
-668,305	-111,016	0,071	0,010
-667,291	-21,327	-0,121	0,053
-666,276	-200,000	0,017	-0,098
-665,262	800,000	-0,025	-0,060
-664,247	-200,000	0,004	-0,094
-663,232	-200,000	0,011	-0,083
-662,218	-26,367	0,074	-0,031
-661,203	74,000	0,046	-0,035
-660,189	54,259	-0,115	0,080
-659,174	-200,000	-0,003	-0,019
-658,159	-200,000	-0,023	-0,136
-657,145	-128,637	-0,085	0,009
-656,130	-131,264	0,132	-0,013
-655,116	-200,000	0,013	-0,068
-654,101	343,044	0,037	0,052
-653,086	800,000	0,022	-0,054
-652,072	-108,674	0,074	-0,011
-651,057	-97,865	-0,132	-0,024
-650,043	171,352	-0,105	0,109
-649,028	229,084	0,120	-0,143
-648,014	-193,982	-0,096	-0,001
-646,999	261,478	0,032	-0,041
-645,984	2,797	-0,114	0,059
-644,970	87,331	-0,094	-0,076
-643,955	553,690	0,037	-0,065
-642,941	-200,000	0,005	0,025
-641,926	800,000	-0,078	-0,242
-640,911	-200,000	-0,024	-0,095
-639,897	-178,340	0,008	-0,000
-638,882	-159,888	-0,069	-0,003
-637,868	224,360	0,084	0,098
-636,853	20,112	-0,050	-0,029
-635,838	-200,000	-0,020	-0,067
-634,824	-200,000	0,003	0,067
-633,809	-84,883	-0,092	-0,021
-632,795	-124,554	0,214	-0,024
-631,780	137,410	-0,143	0,135
-630,765	64,361	0,047	0,035
-629,751	517,849	-0,039	-0,065
-628,736	55,745	-0,052	-0,037
-627,722	115,007	0,065	-0,057
-626,707	-71,550	-0,052	-0,014
-625,692	800,000	-0,040	0,105
-624,678	-200,000	-0,018	0,120
-623,663	-72,090	-0,129	-0,034
-622,649	54,272	-0,093	0,065
-621,634	-200,000	0,023	0,160
-620,619	800,000	-0,026	-0,078
-619,605	-200,000	-0,002	0,012
-618,590	-89,358	0,156	0,033
-617,576	-83,096	0,025	-0,006
-616,561	5,812	0,028	0,015
-615,546	800,000	0,031	-0,071
-614,532	800,000	0,041	-0,122
-613,517	19,725	-0,118	0,068
-612,503	-116,528	-0,043	-0,006
-611,488	-200,000	0,004	0,108
-610,474	-49,854	0,131	0,045
-609,459	-138,021	-0,078	-0,006
-608,444	121,050	-0,033	-0,030
-607,430	303,423	0,092	0,123
-606,415	-106,645	-0,080	0,013
-605,401	-110,343	0,134	-0,020
-604,386	-81,536	-0,074	0,017
-603,371	210,059	-0,042	-0,047
-602,357	58,647	-0,042	-0,030
-601,342	-44,783	0,118	0,042
-600,328	82,875	-0,193	-0,152
-599,313	-73,175	0,101	-0,027
-598,298	-151,760	0,147	-0,008
-597,284	-46,508	0,114	-0,040
-596,269	-200,000	0,106	0,000
-595,255	800,000	-0,074	0,182
-594,240	-200,000	0,021	0,092
-593,225	-200,000	-0,036	-0,143
-592,211	6,353	-0,045	0,024
-591,196	-143,397	0,065	-0,004
-590,182	-107,370	0,011	0,002
-589,167	-52,843	-0,045	-0,015
-588,152	-200,000	0,020	0,081
-587,138	-200,000	0,025	0,085
-586,123	800,000	0,054	-0,155
-585,109	-118,167	0,130	-0,017
-584,094	67,845	0,020	-0,015
-583,079	547,175	-0,007	-0,011
-582,065	156,608	0,090	0,090
-581,050	-81,609	-0,064	-0,015
-580,036	153,687	-0,062	0,062
-579,021	-200,000	0,001	-0,037
-578,006	161,269	-0,097	-0,098
-576,992	323,768	-0,054	0,074
-575,977	-200,000	-0,007	0,078
-574,963	-120,954	-0,123	-0,015
-573,948	-95,314	-0,147	0,028
-572,934	46,784	0,089	0,060
-571,919	-133,312	0,136	-0,012
-570,904	577,498	-0,085	-0,151
-569,890	-68,043	-0,112	-0,031
-568,875	179,136	0,039	0,041
-567,861	-67,937	0,112	0,031
-566,846	-13,891	0,104	0,048
-565,831	-200,000	0,015	0,092
-564,817	242,582	-0,067	0,081
-563,802	425,650	-0,058	-0,090
-562,788	-127,439	-0,126	-0,013
-561,773	-20,406	0,096	0,042
-560,758	14,020	0,036	-0,020
-559,744	-200,000	-0,031	-0,218
-558,729	-115,357	0,113	-0,015
-557,715	-163,064	-0,174	-0,006
-556,700	-39,422	-0,111	-0,042
-555,685	-200,000	0,001	-0,088
-554,671	-200,000	0,003	-0,015
-553,656	-200,000	-0,032	0,163
-552,642	800,000	0,037	-0,106
-551,627	800,000	-0,010	-0,028
-550,612	346,635	0,016	0,023
-549,598	237,703	-0,051	0,061
-548,583	800,000	-0,020	0,042
-547,569	-45,278	0,067	0,024
-546,554	-200,000	0,000	-0,019
-545,539	799,636	-0,034	-0,068
-544,525	20,734	0,048	-0,028
-543,510	-200,000	0,022	-0,129
-542,496	-28,829	-0,072	0,030
-541,481	89,195	-0,015	-0,012
-540,466	291,227	-0,025	-0,033
-539,452	-200,000	0,004	0,091
-538,437	41,204	0,164	0,107
-537,423	-48,688	0,047	0,016
-536,408	108,243	-0,065	0,056
-535,393	409,953	-0,107	-0,164
-534,379	-5,603	-0,037	0,018
-533,364	-200,000	0,018	-0,167
-532,350	169,954	-0,063	-0,065
-531,335	-200,000	-0,013	0,080
-530,321	326,745	-0,048	-0,066
-529,306	-100,226	-0,055	-0,010
-528,291	-63,298	-0,101	-0,030
-527,277	88,662	-0,077	-0,061
-526,262	800,000	-0,042	-0,116
-525,248	-200,000	-0,023	-0,145
-524,233	-99,311	-0,098	-0,018
-523,218	-136,534	-0,069	0,006
-522,204	800,000	0,020	0,059
-521,189	-200,000	0,017	-0,209
-520,175	-122,710	-0,141	-0,016
-519,160	-169,583	0,034	-0,001
-518,145	-200,000	-0,012	0,091
-517,131	-173,618	0,016	-0,000
-516,116	91,927	-0,061	0,049
-515,102	89,119	-0,016	0,013
-514,087	724,530	0,030	-0,057
-513,072	629,428	-0,036	0,065
-512,058	89,636	-0,061	0,049
-511,043	124,557	-0,109	-0,099
-510,029	-137,363	-0,004	0,000
-509,014	-123,149	0,057	0,006
-507,999	-200,000	-0,026	0,128
-506,985	-108,282	-0,116	-0,018
-505,970	-137,918	0,031	0,002
-504,956	57,131	-0,071	0,050
-503,941	-76,310	0,074	0,019
-502,926	-200,000	0,016	0,087
-501,912	-200,000	-0,024	0,089
-500,897	203,330	0,070	0,078
-499,883	-200,000	0,006	-0,081
-498,868	-63,668	-0,185	0,054
-497,853	-22,967	0,065	0,028
-496,839	229,285	-0,053	-0,063
-495,824	800,000	-0,008	-0,021
-494,810	-46,200	0,120	0,042
-493,795	-83,646	-0,113	-0,026
-492,781	73,385	-0,167	0,126
-491,766	800,000	-0,062	-0,124
-490,751	650,122	0,050	-0,092
-489,737	-23,884	0,017	0,007
-488,722	-200,000	0,014	0,062
-487,708	800,000	0,034	0,075
-486,693	-101,992	0,099	-0,017
-485,678	250,834	0,018	0,023
-484,664	-200,000	0,014	-0,116
-483,649	-66,134	-0,116	-0,033
-482,635	207,215	-0,040	-0,045
-481,620	-165,023	0,041	0,001
-480,605	-37,462	-0,122	0,047
-479,591	-200,000	0,005	0,074
-478,576	-90,138	-0,112	-0,023
-477,562	147,717	-0,020	-0,019
-476,547	-200,000	0,026	-0,122
-475,532	-200,000	-0,008	-0,041
-474,518	263,727	0,046	0,058
-473,503	-84,400	-0,107	-0,024
-472,489	39,220	-0,049	0,032
-471,474	-171,734	0,024	-0,001
-470,459	800,000	0,041	-0,092
-469,445	430,268	0,029	-0,046
-468,430	-200,000	-0,126	0,000
-467,416	-93,625	-0,107	0,021
-466,401	233,279	0,106	0,126
-465,386	-53,432	0,078	0,026
-464,372	-148,733	0,038	-0,002
-463,357	360,085	0,061	0,088
-462,343	-36,787	-0,110	-0,042
-461,328	-163,039	0,080	-0,003
-460,313	-200,000	-0,024	0,130
-459,299	-200,000	-0,006	0,105
-458,284	44,852	0,027	-0,018
-457,270	-158,862	-0,056	0,002
-456,255	-13,474	-0,144	-0,067
-455,241	57,309	0,057	0,040
-454,226	168,789	-0,116	-0,119
-453,211	425,664	-0,009	0,014
-452,197	800,000	-0,008	-0,023
-451,182	177,896	0,050	-0,053
-450,168	-72,776	0,176	-0,046
-449,153	27,053	-0,086	0,051
-448,138	724,984	-0,095	-0,183
-447,124	-200,000	-0,003	-0,017
-446,109	-200,000	-0,002	-0,049
-445,095	-200,000	-0,039	0,145
-444,080	-13,304	0,104	0,048
-443,065	-126,177	0,013	-0,001
-442,051	758,036	-0,053	-0,103
-441,036	-200,000	0,022	-0,102
-440,022	-27,184	0,095	-0,040
-439,007	29,151	-0,175	-0,107
-437,992	169,555	0,102	0,105
-436,978	-200,000	0,018	0,184
-435,963	344,516	-0,093	0,131
-434,949	-121,867	0,099	0,012
-433,934	-200,000	-0,031	0,116
-432,919	346,019	-0,032	-0,046
-431,905	-183,614	0,153	-0,002
-430,890	-63,583	0,110	-0,032
-429,876	-56,520	0,102	0,032
-428,861	-1,842	0,078	-0,039
-427,846	20,246	-0,077	-0,044
-426,832	-133,950	-0,074	-0,007
-425,817	76,205	-0,147	0,111
-424,803	800,000	0,007	0,020
-423,788	57,430	-0,096	0,067
-422,773	111,673	-0,029	-0,025
-421,759	-75,135	0,206	0,053
-420,744	-19,318	-0,114	0,050
-419,730	800,000	-0,041	0,082
-418,715	73,951	-0,124	-0,094
-417,701	-139,323	0,040	0,003
-416,686	123,489	-0,030	0,027
-415,671	-163,806	0,085	0,003
-414,657	-111,047	0,088	-0,013
-413,642	234,806	0,084	-0,100
-412,628	77,606	-0,059	0,045
-411,613	-200,000	-0,001	-0,074
-410,598	-26,911	-0,040	0,017
-409,584	800,000	0,057	0,128
-408,569	-16,848	0,137	-0,062
-407,555	-200,000	-0,016	0,054
-406,540	-71,253	-0,042	0,011
-405,525	519,321	-0,048	0,080
-404,511	-200,000	-0,005	-0,139
-403,496	225,212	0,079	-0,092
-402,482	-200,000	0,026	0,085
-401,467	-14,746	0,035	0,016
-400,452	-29,231	-0,049	0,020
-399,438	360,434	0,047	-0,068
-398,423	-101,932	-0,076	-0,013
-397,409	-28,435	-0,067	0,028
-396,394	-98,285	0,041	0,007
-395,379	-200,000	0,032	-0,113
-394,365	64,553	-0,031	-0,022
-393,350	-200,000	-0,020	0,114
-392,336	-200,000	0,013	0,100
-391,321	-191,479	-0,124	-0,001
-390,306	-200,000	-0,003	-0,044
-389,292	-193,367	-0,072	-0,000
-388,277	-200,000	0,007	0,089
-387,263	222,238	-0,092	0,106
-386,248	14,570	0,049	0,028
-385,233	-200,000	0,046	0,176
-384,219	800,000	-0,009	-0,026
-383,204	8,841	-0,060	0,032
-382,190	800,000	0,027	-0,067
-381,175	-19,588	-0,118	-0,052
-380,160	-200,000	-0,039	-0,178
-379,146	-200,000	-0,045	-0,186
-378,131	-27,780	0,022	0,009
-377,117	-171,323	0,046	-0,001
-376,102	800,000	0,043	0,094
-375,088	-54,201	-0,256	-0,083
-374,073	59,110	-0,240	-0,169
-373,058	-168,926	0,197	-0,005
-372,044	-200,000	0,006	0,108
-371,029	-34,397	0,062	0,024
-370,015	150,228	-0,035	0,034
-369,000	-117,720	-0,128	-0,016
-367,985	51,967	-0,097	0,066
-366,971	533,226	0,040	-0,068
-365,956	-44,649	0,040	0,014
-364,942	230,147	0,110	0,129
-363,927	377,487	-0,039	0,058
-362,912	-200,000	-0,012	-0,064
-361,898	-96,301	-0,082	-0,015
-360,883	-40,181	-0,027	-0,010
-359,869	800,000	0,038	0,082
-358,854	800,000	0,041	0,101
-357,839	-8,172	0,035	0,017
-356,825	-72,686	0,151	0,040
-355,810	93,557	-0,053	0,043
-354,796	-2,809	0,068	0,034
-353,781	-33,590	-0,168	0,066
-352,766	143,837	0,104	0,099
-351,752	-55,903	-0,049	0,015
-350,737	388,016	-0,058	-0,086
-349,723	220,927	-0,037	0,042
-348,708	800,000	-0,046	0,113
-347,693	37,180	-0,044	-0,028
-346,679	800,000	-0,065	-0,153
-345,664	-11,186	-0,151	-0,071
-344,650	-200,000	-0,001	0,043
-343,635	-85,120	-0,026	0,006
-342,620	137,848	0,154	0,144
-341,606	123,948	0,091	0,082
-340,591	-166,093	0,225	-0,007
-339,577	-103,130	-0,156	-0,026
-338,562	-200,000	0,001	0,015
-337,548	798,935	-0,051	-0,101
-336,533	204,189	0,098	0,108
-335,518	800,000	0,044	0,097
-334,504	800,000	-0,031	0,081
-333,489	-58,611	0,096	0,030
-332,475	-200,000	-0,016	0,088
-331,460	161,431	-0,049	-0,049
-330,445	800,000	-0,035	-0,069
-329,431	-200,000	0,012	-0,126
-328,416	800,000	-0,043	0,094
-327,402	453,062	0,089	0,142
-326,387	68,520	0,137	-0,101
-325,372	-16,568	-0,088	-0,040
-324,358	-200,000	0,016	-0,057
-323,343	110,951	0,053	-0,045
-322,329	20,238	0,093	-0,054
-321,314	-30,267	0,128	0,052
-320,299	-200,000	-0,007	-0,125
-319,285	800,000	0,020	-0,042
-318,270	-200,000	0,017	-0,058
-317,256	19,047	-0,132	0,076
-316,241	-200,000	-0,017	-0,077
-315,226	84,725	0,054	-0,042
-314,212	431,091	0,035	-0,055
-313,197	-200,000	-0,039	-0,168
-312,183	4,265	0,109	0,057
-311,168	-76,634	0,035	-0,009
-310,153	-200,000	-0,011	0,159
-309,139	-96,311	0,047	-0,009
-308,124	800,000	-0,075	-0,175
-307,110	799,815	0,069	0,137
-306,095	49,485	0,025	-0,017
-305,080	-109,033	-0,073	0,011
-304,066	351,046	-0,075	-0,107
-303,051	122,081	-0,018	-0,016
-302,037	-194,259	0,152	0,001
-301,022	517,206	0,025	0,043
-300,008	-71,264	-0,078	-0,021
-298,993	-0,451	0,097	0,049
-297,978	79,329	0,057	-0,043
-296,964	220,287	-0,045	-0,052
-295,949	194,678	-0,037	0,040
-294,935	-115,721	0,116	0,015
-293,920	-200,000	0,003	0,076
-292,905	27,458	0,032	0,019
-291,891	-0,275	0,030	0,015
-290,876	-200,000	-0,010	0,066
-289,862	13,291	0,071	0,039
-288,847	11,713	0,048	0,026
-287,832	800,000	-0,039	0,100
-286,818	-9,082	-0,077	0,037
-285,803	-200,000	-0,004	0,101
-284,789	-96,110	0,139	0,026
-283,774	-200,000	-0,017	-0,109
-282,759	-200,000	-0,013	0,137
-281,745	32,155	-0,084	0,051
-280,730	800,000	-0,028	0,059
-279,716	-200,000	-0,000	-0,066
-278,701	171,157	-0,033	-0,034
-277,686	474,259	-0,037	-0,060
-276,672	-200,000	0,004	0,086
-275,657	94,244	0,059	-0,048
-274,643	-101,727	0,097	-0,017
-273,628	76,690	0,025	-0,019
-272,613	-89,940	-0,011	0,002
-271,599	126,994	-0,119	0,108
-270,584	-93,147	0,103	-0,020
-269,570	-76,599	0,068	0,017
-268,555	164,165	0,079	0,080
-267,540	-12,459	0,073	0,034
-266,526	64,712	-0,025	0,018
-265,511	29,102	0,103	-0,062
-264,497	-162,534	0,146	0,005
-263,482	-0,540	-0,088	-0,044
-262,467	34,104	0,114	-0,071
-261,453	160,778	0,080	-0,080
-260,438	-13,399	-0,069	0,032
-259,424	-200,000	0,021	-0,090
-258,409	800,000	0,050	-0,129
-257,395	325,980	0,033	0,045
-256,380	105,441	0,043	-0,036
-255,365	800,000	-0,017	-0,052
-254,351	800,000	0,034	0,078
-253,336	-84,931	-0,124	0,028
-252,322	-200,000	-0,025	-0,110
-251,307	800,000	-0,017	-0,039
-250,292	800,000	0,040	-0,100
-249,278	-200,000	0,000	0,033
-248,263	-80,799	0,151	-0,036
-247,249	-184,468	-0,096	-0,001
-246,234	-200,000	-0,009	-0,138
-245,219	800,000	-0,036	-0,088
-244,205	-80,995	-0,044	0,010
-243,190	-148,015	-0,100	0,006
-242,176	34,372	0,071	-0,044
-241,161	-101,350	-0,045	-0,008
-240,146	417,887	0,072	-0,110
-239,132	32,921	-0,038	0,023
-238,117	-46,792	-0,031	0,011
-237,103	386,191	0,054	-0,079
-236,088	-111,734	0,217	-0,031
-235,073	-200,000	0,031	0,123
-234,059	-116,971	0,099	-0,013
-233,044	-200,000	0,028	0,089
-232,030	7,719	0,093	0,050
-231,015	-200,000	0,012	-0,070
-230,000	-21,709	-0,075	-0,032
-228,986	-5,732	-0,082	0,040
-227,971	22,677	0,129	0,075
-226,957	347,225	0,074	0,104
-225,942	174,255	0,086	0,089
-224,927	-200,000	-0,000	0,109
-223,913	-33,639	-0,094	0,037
-222,898	-87,204	0,016	-0,003
-221,884	-200,000	-0,013	-0,123
-220,869	-135,719	0,036	-0,003
-219,855	-26,331	-0,025	0,010
-218,840	-200,000	-0,013	-0,055
-217,825	-83,041	0,007	0,002
-216,811	-81,180	0,074	0,017
-215,796	-200,000	0,005	0,052
-214,782	-200,000	0,014	-0,063
-213,767	-50,949	0,125	0,042
-212,752	-93,560	-0,114	0,022
-211,738	212,737	-0,074	0,084
-210,723	-200,000	-0,005	0,078
-209,709	26,260	-0,061	-0,036
-208,694	642,092	-0,050	0,092
-207,679	-55,281	0,092	-0,029
-206,665	29,535	0,049	-0,029
-205,650	394,473	0,074	-0,110
-204,636	-16,080	0,091	-0,041
-203,621	-147,869	0,030	-0,002
-202,606	-200,000	0,016	0,135
-201,592	-200,000	0,003	-0,094
-200,577	800,000	-0,062	-0,147
-199,563	800,000	0,030	0,085
-198,548	800,000	0,055	0,132
-197,533	125,102	-0,095	0,085
-196,519	-200,000	0,008	0,148
-195,504	-200,000	-0,006	-0,080
-194,490	290,165	-0,026	0,033
-193,475	2,946	0,083	-0,043
-192,460	800,000	-0,035	-0,078
-191,446	334,675	-0,020	-0,028
-190,431	1,972	0,049	-0,025
-189,417	800,000	0,038	-0,119
-188,402	-48,337	-0,098	-0,033
-187,387	-146,689	0,047	-0,003
-186,373	53,982	0,094	0,064
-185,358	769,461	0,020	0,038
-184,344	-31,503	0,176	0,070
-183,329	-70,807	0,087	0,023
-182,315	566,457	0,053	0,092
-181,300	-200,000	-0,030	-0,150
-180,285	-200,000	0,018	-0,089
-179,271	800,000	0,024	-0,072
-178,256	-105,161	-0,113	0,018
-177,242	102,090	-0,084	-0,070
-176,227	-200,000	-0,001	0,086
-175,212	-62,663	0,057	0,017
-174,198	184,274	-0,035	-0,037
-173,183	554,581	0,053	-0,091
-172,169	29,308	-0,148	0,089
-171,154	800,000	0,020	0,052
-170,139	-200,000	0,015	0,099
-169,125	185,151	-0,023	0,025
-168,110	140,129	0,056	-0,053
-167,096	785,165	0,061	0,120
-166,081	-200,000	-0,007	0,062
-165,066	444,125	-0,110	-0,173
-164,052	-200,000	-0,000	-0,120
-163,037	665,511	-0,020	0,036
-162,023	-200,000	0,029	0,115
-161,008	-52,830	0,105	0,034
-159,993	-18,342	-0,099	0,044
-158,979	800,000	-0,023	-0,065
-157,964	261,306	0,085	-0,105
-156,950	-200,000	-0,007	-0,102
-155,935	-177,606	0,141	-0,002
-154,920	800,000	-0,014	-0,030
-153,906	369,514	0,063	0,091
-152,891	-59,158	0,040	0,012
-151,877	33,757	-0,060	0,037
-150,862	-19,898	-0,089	-0,039
-149,847	19,075	0,151	0,086
-148,833	255,085	-0,013	0,016
-147,818	-127,163	-0,044	0,005
-146,804	-85,646	0,034	0,007
-145,789	78,964	-0,112	-0,085
-144,775	-45,182	-0,104	0,036
-143,760	-10,630	-0,177	-0,083
-142,745	-29,271	-0,098	-0,040
-141,731	-75,825	0,079	0,020
-140,716	74,253	0,091	0,068
-139,702	-200,000	-0,014	0,055
-138,687	-83,921	0,109	-0,024
-137,672	-21,686	-0,077	-0,033
-136,658	-94,602	-0,074	0,014
-135,643	-200,000	-0,005	0,089
-134,629	-200,000	0,008	0,026
-133,614	-97,203	0,178	0,033
-132,599	-107,347	0,091	0,014
-131,585	178,456	0,050	0,052
-130,570	800,000	-0,025	0,062
-129,556	-55,380	-0,117	-0,037
-128,541	-128,483	0,027	0,003
-127,526	144,705	-0,146	-0,139
-126,512	-45,242	-0,090	0,031
-125,497	-25,985	-0,025	0,011
-124,483	163,934	0,075	-0,075
-123,468	-200,000	0,026	0,102
-122,453	-17,752	-0,137	0,061
-121,439	-200,000	-0,005	0,031
-120,424	28,803	-0,049	0,030
-119,410	256,863	0,126	-0,154
-118,395	-122,706	0,225	0,026
-117,380	598,402	0,062	-0,110
-116,366	-49,655	-0,033	-0,011
-115,351	-68,698	0,066	-0,018
-114,337	197,476	0,054	-0,058
-113,322	-200,000	-0,003	-0,118
-112,307	-108,251	0,056	0,009
-111,293	115,254	-0,037	0,032
-110,278	800,000	0,082	0,187
-109,264	588,099	-0,089	0,155
-108,249	-200,000	-0,005	-0,082
-107,234	-134,628	-0,039	-0,003
-106,220	422,738	-0,091	-0,138
-105,205	19,586	0,103	-0,058
-104,191	-200,000	-0,025	0,093
-103,176	8,781	0,115	-0,061
-102,162	-200,000	-0,009	-0,088
-101,147	21,616	0,060	0,035
-100,132	73,187	-0,077	-0,057
-99,118	371,454	-0,038	-0,055
-98,103	-200,000	0,008	-0,114
-97,089	-200,000	0,029	0,097
-96,074	-200,000	0,001	0,059
-95,059	-200,000	-0,015	-0,061
-94,045	122,154	-0,062	0,055
-93,030	160,138	-0,109	-0,108
-92,016	34,818	-0,062	-0,038
-91,001	45,044	-0,069	-0,045
-89,986	141,896	0,052	-0,049
-88,972	-200,000	-0,001	-0,012
-87,957	-7,074	0,077	0,037
-86,943	-122,673	0,107	-0,012
-85,928	-200,000	0,039	-0,138
-84,913	20,999	-0,077	-0,044
-83,899	-200,000	0,002	0,066
-82,884	84,153	-0,132	-0,102
-81,870	-134,206	0,184	0,016
-80,855	358,176	-0,063	0,090
-79,840	-19,056	-0,063	-0,028
-78,826	-200,000	0,003	-0,011
-77,811	-140,954	0,134	0,010
-76,797	145,291	-0,102	0,097
-75,782	-51,891	-0,126	0,041
-74,767	800,000	-0,028	0,070
-73,753	-27,129	-0,088	-0,036
-72,738	-200,000	0,017	0,091
-71,724	-200,000	0,025	-0,183
-70,709	-151,441	-0,150	0,008
-69,694	-200,000	0,004	0,039
-68,680	738,967	-0,071	-0,136
-67,665	363,577	0,023	0,033
-66,651	-85,164	-0,067	-0,015
-65,636	-35,105	-0,162	0,062
-64,622	466,821	-0,120	-0,191
-63,607	-63,121	-0,091	-0,026
-62,592	148,814	0,069	-0,066
-61,578	-74,345	-0,031	-0,008
-60,563	-38,989	0,133	-0,049
-59,549	181,320	0,024	0,025
-58,534	-18,633	-1,683	-0,740
-57,519	457,214	-1,358	-2,143
-56,505	-200,000	-0,429	-4,406
-55,490	188,201	0,928	0,983
-54,476	800,000	4,720	11,027
-53,461	-200,000	18,482	296,828
-52,446	800,000	730,917	2255,201
-51,432	558,693	1647,435	2823,891
-50,417	78,807	1667,526	1261,083
-49,403	22,370	1540,810	888,725
-48,388	16,272	1463,958	814,839
-47,373	17,762	1453,818	816,342
-46,359	17,019	1444,063	807,281
-45,344	14,558	1439,538	792,961
-44,330	14,489	1437,515	791,487
-43,315	14,475	1435,928	790,515
-42,300	14,524	1434,356	789,852
-41,286	14,531	1433,139	789,183
-40,271	14,526	1431,622	788,295
-39,257	14,504	1430,583	787,583
-38,242	14,550	1429,087	786,947
-37,227	14,581	1427,907	786,412
-36,213	14,537	1426,737	785,531
-35,198	14,546	1425,572	784,900
-34,184	14,552	1424,579	784,350
-33,169	14,516	1423,216	783,400
-32,154	14,547	1422,182	782,946
-31,140	14,555	1420,826	782,203
-30,125	14,588	1419,690	781,703
-29,111	14,559	1418,550	780,911
-28,096	14,526	1417,579	780,187
-27,082	14,467	1416,614	779,348
-26,067	14,453	1415,488	778,635
-25,052	14,487	1414,387	778,158
-24,038	14,429	1413,137	777,167
-23,023	14,481	1412,156	776,839
-22,009	14,445	1411,412	776,230
-20,994	14,426	1410,598	775,662
-19,979	14,417	1409,669	775,077
-18,965	14,391	1408,637	774,361
-17,950	14,382	1407,722	773,784
-16,936	14,377	1406,790	773,217
-15,921	14,331	1405,639	772,339
-14,906	14,364	1404,761	771,979
-13,892	14,390	1403,776	771,529
-12,877	14,360	1402,982	770,923
-11,863	14,410	1401,978	770,573
-10,848	14,368	1401,018	769,819
-9,833	14,354	1400,450	769,413
-8,819	14,327	1399,374	768,666
-7,804	14,254	1398,713	767,931
-6,790	14,279	1397,314	767,250
-5,775	14,257	1396,441	766,636
-4,760	14,309	1395,461	766,310
-3,746	14,266	1394,656	765,639
-2,731	14,279	1393,815	765,209
-1,717	14,264	1392,859	764,583
-0,702	14,259	1391,193	763,615
0,313	18,134	1309,600	736,744
1,327	34,609	705,973	435,280
2,342	53,283	124,190	84,009
3,356	2,918	16,698	8,545
4,371	3,805	3,053	1,571
5,386	-14,763	0,502	0,227
6,400	-200,000	0,004	0,247
7,415	140,532	-0,283	-0,264
8,429	116,126	-0,265	-0,229
9,444	160,726	-0,302	-0,298
10,459	-41,050	-0,288	-0,105
11,473	241,445	-0,240	-0,284
12,488	140,311	-0,261	-0,243
13,502	-54,200	-0,185	-0,059
14,517	73,874	-0,405	-0,300
15,531	150,130	-0,294	-0,281
16,546	205,006	-0,262	-0,287
17,561	264,955	-0,316	-0,390
18,575	800,000	-0,069	-0,183
19,590	5,073	-0,296	-0,153
20,604	-2,333	-0,250	-0,123
21,619	-24,733	-0,450	-0,188
22,634	265,959	-0,375	-0,463
23,648	144,820	-0,456	-0,431
24,663	180,907	-0,372	-0,386
25,677	47,852	-0,381	-0,250
26,692	166,673	-0,353	-0,354
27,707	28,831	-0,287	-0,171
28,721	-65,439	-0,476	-0,134
29,736	21,040	-0,383	-0,219
30,750	113,417	-0,395	-0,338
31,765	112,022	-0,489	-0,417
32,780	87,071	-0,480	-0,374
33,794	171,962	-0,277	-0,281
34,809	77,740	-0,349	-0,262
35,823	78,752	-0,379	-0,285
36,838	145,720	-0,346	-0,327
37,853	125,543	-0,292	-0,259
38,867	139,280	-0,373	-0,346
39,882	131,955	-0,299	-0,271
40,896	37,573	-0,542	-0,338
41,911	117,277	-0,357	-0,310
42,926	148,289	-0,267	-0,254
43,940	85,986	-0,411	-0,318
44,955	12,280	-0,472	-0,255
45,969	123,653	-0,313	-0,276
46,984	139,279	-0,291	-0,270
47,999	52,662	-0,353	-0,237
49,013	-8,550	-0,240	-0,113
50,028	103,081	-0,341	-0,282
51,042	89,319	-0,329	-0,258
52,057	286,376	-0,315	-0,401
53,071	96,083	-0,403	-0,324
54,086	104,600	-0,392	-0,325
55,101	149,238	-0,271	-0,258
56,115	103,701	-0,293	-0,242
57,130	157,707	-0,369	-0,360
58,144	53,689	-0,422	-0,285
59,159	163,614	-0,429	-0,425
60,174	37,333	-0,359	-0,223
61,188	122,161	-0,286	-0,251
62,203	161,904	-0,291	-0,287
63,217	121,834	-0,281	-0,247
64,232	20,340	-0,442	-0,250
65,247	-11,330	-0,337	-0,155
66,261	54,619	-0,324	-0,219
67,276	50,528	-0,290	-0,193
68,290	153,734	-0,351	-0,338
69,305	26,554	-0,425	-0,249
70,320	167,717	-0,267	-0,267
71,334	98,959	-0,341	-0,277
72,349	12,523	-0,383	-0,207
73,363	80,314	-0,352	-0,266
74,378	-1,037	-0,482	-0,239
75,393	-2,577	-0,282	-0,138
76,407	-46,873	-0,233	-0,079
77,422	51,926	-0,330	-0,220
78,436	88,115	-0,235	-0,183
79,451	12,215	-0,349	-0,188
80,466	4,110	-0,409	-0,209
81,480	98,125	-0,377	-0,305
82,495	85,065	-0,358	-0,275
83,509	41,698	-0,291	-0,185
84,524	91,877	-0,257	-0,203
85,539	63,929	-0,305	-0,215
86,553	-124,754	-0,235	-0,025
87,568	60,732	-0,253	-0,175
88,582	-17,347	-0,310	-0,136
89,597	159,988	-0,206	-0,202
90,611	294,976	-0,194	-0,250
91,626	-31,555	-0,285	-0,112
92,641	-14,317	-0,305	-0,137
93,655	195,312	-0,240	-0,256
94,670	221,003	-0,191	-0,216
95,684	89,846	-0,329	-0,257
96,699	105,202	-0,328	-0,271
97,714	17,755	-0,256	-0,142
98,728	0,856	-0,332	-0,166
99,743	-18,693	-0,318	-0,138
100,757	155,460	-0,284	-0,274
101,772	93,625	-0,387	-0,307
102,787	100,749	-0,287	-0,233
103,801	433,073	-0,179	-0,273
104,816	71,656	-0,267	-0,194
105,830	630,470	-0,164	-0,292
106,845	94,486	-0,246	-0,195
107,860	39,651	-0,230	-0,144
108,874	110,985	-0,354	-0,298
109,889	800,000	-0,135	-0,339
110,903	137,409	-0,264	-0,242
111,918	102,527	-0,277	-0,227
112,933	-15,712	-0,265	-0,118
113,947	5,133	-0,216	-0,111
114,962	-17,127	-0,290	-0,128
115,976	-33,076	-0,260	-0,100
116,991	121,038	-0,253	-0,221
118,006	200,569	-0,247	-0,267
119,020	176,251	-0,241	-0,246
120,035	-65,323	-0,223	-0,062
121,049	-37,265	-0,124	-0,046
122,064	22,356	-0,446	-0,254
123,079	80,693	-0,249	-0,188
124,093	-77,988	-0,389	-0,093
125,108	-30,653	-0,334	-0,132
126,122	34,595	-0,282	-0,172
127,137	-49,591	-0,280	0,093
128,151	-22,041	-0,322	-0,136
129,166	-3,446	-0,205	-0,100
130,181	41,420	-0,192	-0,121
131,195	-82,908	-0,142	-0,032
132,210	54,809	-0,172	-0,116
133,224	46,271	-0,364	-0,235
134,239	-38,043	-0,212	-0,078
135,254	-33,343	-0,247	-0,095
136,268	-40,680	-0,353	-0,127
137,283	50,262	-0,171	-0,113
138,297	43,076	-0,241	-0,153
139,312	34,862	-0,240	-0,146
140,327	99,385	-0,213	-0,172
141,341	55,763	-0,310	-0,210
142,356	98,885	-0,224	-0,181
143,370	-116,710	-0,252	-0,032
144,385	-24,670	-0,283	-0,117
145,400	31,756	-0,193	-0,116
146,414	259,888	-0,215	-0,259
147,429	22,569	-0,288	-0,164
148,443	106,530	-0,150	-0,124
149,458	-108,202	-0,149	0,022
150,473	27,753	-0,258	-0,151
151,487	452,039	-0,120	-0,185
152,502	135,343	-0,261	-0,237
153,516	5,335	-0,304	-0,156
154,531	28,062	-0,272	-0,160
155,546	17,412	-0,191	-0,105
156,560	160,642	-0,291	-0,284
157,575	-24,354	-0,303	-0,126
158,589	-108,912	-0,103	-0,015
159,604	216,454	-0,240	-0,267
160,619	14,656	-0,411	-0,223
161,633	47,380	-0,304	-0,197
162,648	135,304	-0,296	-0,269
163,662	800,000	-0,141	-0,325
164,677	-60,040	-0,257	-0,076
165,692	100,385	-0,220	-0,178
166,706	-40,202	-0,249	-0,090
167,721	56,229	-0,226	-0,153
168,735	108,106	-0,217	-0,180
169,750	-110,498	-0,158	-0,023
170,764	42,122	-0,203	-0,128
171,779	82,377	-0,175	-0,132
172,794	-38,951	-0,279	-0,102
173,808	-60,584	-0,257	-0,076
174,823	265,867	-0,173	-0,210
175,837	137,457	-0,237	-0,216
176,852	82,850	-0,283	-0,214
177,867	-42,273	-0,325	-0,115
178,881	76,506	-0,233	-0,172
179,896	-17,608	-0,269	-0,117
180,910	58,588	-0,276	-0,188
181,925	11,536	-0,295	-0,157
182,940	-55,802	-0,304	-0,094
183,954	388,795	-0,148	-0,214
184,969	8,944	-0,330	-0,173
185,983	507,671	-0,118	-0,191
186,998	101,603	-0,269	-0,218
188,013	89,462	-0,242	-0,188
189,027	91,583	-0,385	-0,301
190,042	258,045	-0,169	-0,202
191,056	176,777	-0,141	-0,143
192,071	220,275	-0,227	-0,253
193,086	800,000	-0,138	-0,353
194,100	-200,000	-0,045	-0,267
195,115	56,237	-0,288	-0,194
196,129	116,728	-0,191	-0,163
197,144	103,811	-0,230	-0,188
198,159	370,088	-0,133	-0,188
199,173	402,170	-0,146	-0,214
200,188	-21,460	-0,121	-0,051
201,202	-27,604	-0,266	-0,107
202,217	154,451	-0,196	-0,187
203,232	143,587	-0,100	-0,093
204,246	132,241	-0,290	-0,259
205,261	60,857	-0,334	-0,230
206,275	43,221	-0,281	-0,178
207,290	3,879	-0,220	-0,111
208,304	273,893	-0,124	-0,152
209,319	800,000	-0,115	-0,228
210,334	784,516	-0,073	-0,140
211,348	555,192	-0,177	-0,297
212,363	85,058	-0,278	-0,211
213,377	115,593	-0,243	-0,206
214,392	-123,992	-0,139	0,015
215,407	153,780	-0,158	-0,150
216,421	123,749	-0,279	-0,243
217,436	60,612	-0,189	-0,130
218,450	800,000	-0,099	-0,275
219,465	100,082	-0,220	-0,177
220,480	439,155	-0,147	-0,224
221,494	276,843	-0,101	-0,124
222,509	230,494	-0,134	-0,153
223,523	-23,966	-0,088	-0,037
224,538	160,376	-0,201	-0,194
225,553	20,642	-0,242	-0,136
226,567	372,071	-0,148	-0,209
227,582	800,000	-0,088	-0,200
228,596	-61,710	-0,319	-0,092
229,611	19,724	-0,272	-0,151
230,626	-20,420	-0,215	-0,091
231,640	-32,632	-0,226	-0,087
232,655	284,291	-0,242	-0,303
233,669	708,414	-0,187	-0,343
234,684	506,730	-0,138	-0,223
235,699	99,608	-0,216	-0,173
236,713	-47,778	-0,099	-0,033
237,728	-65,566	-0,189	-0,052
238,742	-93,188	-0,184	0,035
239,757	102,156	-0,150	-0,121
240,772	164,594	-0,184	-0,180
241,786	36,835	-0,320	-0,196
242,801	61,841	-0,122	-0,084
243,815	-3,409	-0,172	-0,083
244,830	93,725	-0,134	-0,105
245,844	53,168	-0,134	-0,089
246,859	800,000	-0,115	-0,262
247,874	55,357	-0,266	-0,178
248,888	110,434	-0,259	-0,215
249,903	-53,985	-0,125	-0,039
250,917	-127,306	-0,230	0,023
251,932	17,144	-0,157	-0,086
252,947	57,060	-0,186	-0,125
253,961	-104,610	-0,197	-0,031
254,976	24,087	-0,213	-0,121
255,990	-88,544	-0,143	-0,029
257,005	-200,000	-0,011	-0,041
258,020	95,601	-0,141	-0,111
259,034	-66,467	-0,214	-0,058
260,049	98,693	-0,236	-0,188
261,063	-200,000	-0,007	-0,134
262,078	79,171	-0,283	-0,209
263,093	-40,954	-0,270	-0,096
264,107	106,507	-0,148	-0,121
265,122	278,906	-0,096	-0,119
266,136	362,280	-0,079	-0,109
267,151	313,206	-0,191	-0,249
268,166	517,553	-0,192	-0,312
269,180	127,077	-0,271	-0,237
270,195	35,712	-0,327	-0,198
271,209	-200,000	0,001	-0,189
272,224	352,655	-0,141	-0,194
273,239	113,284	-0,183	-0,153
274,253	338,157	-0,134	-0,180
275,268	-139,852	-0,170	-0,012
276,282	-200,000	-0,025	-0,116
277,297	-21,749	-0,298	-0,125
278,312	430,167	-0,064	-0,095
279,326	33,039	-0,201	-0,120
280,341	-108,051	-0,082	-0,012
281,355	594,652	-0,087	0,149
282,370	-64,608	-0,194	-0,054
283,384	98,665	-0,215	-0,171
284,399	37,880	-0,147	-0,090
285,414	800,000	-0,141	-0,279
286,428	223,674	-0,140	-0,157
287,443	-50,280	-0,219	-0,071
288,457	800,000	-0,052	-0,099
289,472	52,806	-0,107	-0,070
290,487	7,665	-0,213	-0,109
291,501	443,961	-0,099	-0,150
292,516	-106,404	-0,112	-0,017
293,530	154,834	-0,181	-0,172
294,545	800,000	-0,007	0,019
295,560	-47,399	-0,125	0,042
296,574	102,400	-0,154	-0,124
297,589	-170,369	-0,165	-0,004
298,603	-54,843	-0,231	-0,071
299,618	137,425	-0,167	-0,151
300,633	-193,493	-0,188	-0,001
301,647	-104,250	-0,033	0,005
302,662	800,000	0,013	-0,031
303,676	-7,967	-0,129	0,060
304,691	84,674	-0,168	-0,127
305,706	-5,357	-0,102	-0,048
306,720	73,874	-0,193	-0,139
307,735	239,079	-0,163	-0,187
308,749	-137,195	-0,196	0,015
309,764	-129,012	-0,142	-0,014
310,779	2,081	-0,052	0,026
311,793	12,042	-0,117	-0,062
312,808	9,273	-0,140	-0,073
313,822	-110,259	-0,080	-0,011
314,837	113,787	-0,212	-0,178
315,852	-142,975	-0,259	-0,017
316,866	94,552	-0,173	-0,135
317,881	-82,257	-0,162	-0,036
318,895	36,445	-0,089	-0,054
319,910	27,196	-0,195	-0,113
320,925	49,009	-0,158	-0,102
321,939	-8,770	-0,127	0,058
322,954	234,571	-0,142	-0,161
323,968	-81,515	-0,204	-0,046
324,983	102,339	-0,149	-0,119
325,997	-105,554	-0,232	-0,036
327,012	494,443	-0,057	-0,090
328,027	721,450	-0,100	-0,183
329,041	122,477	-0,114	-0,098
330,056	12,761	0,027	-0,014
331,070	41,071	-0,027	0,017
332,085	341,177	-0,088	-0,119
333,100	88,647	-0,103	0,078
334,114	540,947	-0,150	-0,246
335,129	800,000	-0,092	-0,252
336,143	-200,000	-0,045	-0,173
337,158	-33,141	-0,133	-0,050
338,173	-101,538	-0,109	0,018
339,187	-200,000	-0,037	-0,195
340,202	-87,699	-0,151	0,031
341,216	-88,553	-0,081	-0,016
342,231	84,600	-0,260	-0,195
343,246	-118,120	-0,097	-0,012
344,260	307,879	-0,107	-0,137
345,275	800,000	-0,152	-0,297
346,289	113,819	-0,149	-0,124
347,304	-83,211	-0,172	-0,038
348,319	-72,089	-0,077	-0,020
349,333	-117,226	-0,158	-0,019
350,348	91,285	-0,215	-0,166
351,362	20,047	-0,163	-0,090
352,377	-68,526	-0,268	-0,071
353,392	-89,216	-0,276	-0,055
354,406	59,403	-0,120	-0,081
355,421	210,588	1315,755	1418,718
356,435	162,126	1476,616	1419,228
