DTS Sentinel unit serial number:	SN410029Multiplexer serial number:	ORYXHardware model number:	OX2-SRSoftware version number:	ORYX F/W v4,00 Oryx Data Collector v3.7.2.0data status	okinstallation	B3 Nyhavnadifferential loss correction	single-endedforward channel	channel 1reverse channel	N/Adate	2023/11/29time	13:32:30forward acquisition time	300,00reverse acquisition time	0,00gamma	499,1914k internal	0,3212k external	0,3212temperature offset calibration	1,0000default loss term (dB/km)	0,3820temperature slope calibration	1,0000multiplexer offset coefficient	1,0000multiplexer slope coefficient	1,0000fibre end	0,00T internal ref (°C)	10,40T ext. ref 1 (°C)	-3,58T ext. ref 2 (°C)	-3,72length (m)	temperature (°C)	Stokes	anti-Stokes-744,400	800,000	-0,137	-0,388
-743,385	-200,000	-0,029	0,252
-742,371	292,951	-0,177	-0,235
-741,356	-200,000	-0,045	0,361
-740,342	633,111	-0,087	-0,160
-739,327	-200,000	-0,063	0,284
-738,312	124,213	-0,250	-0,228
-737,298	-200,000	-0,049	0,362
-736,283	560,832	-0,154	-0,271
-735,269	-200,000	0,064	0,290
-734,254	290,709	-0,164	-0,217
-733,239	-33,851	-0,167	0,066
-732,225	301,709	-0,119	-0,160
-731,210	-77,917	0,076	-0,019
-730,196	317,893	0,007	-0,009
-729,181	206,244	-0,084	0,095
-728,167	80,987	-0,015	0,012
-727,152	-134,577	-0,045	0,004
-726,137	21,633	0,129	0,076
-725,123	-200,000	-0,012	-0,045
-724,108	105,784	-0,090	-0,077
-723,094	-132,529	-0,158	-0,015
-722,079	640,412	-0,069	-0,128
-721,064	-123,344	-0,031	0,004
-720,050	-106,715	0,054	0,009
-719,035	-122,467	0,031	0,004
-718,021	456,186	0,049	-0,079
-717,006	49,727	-0,111	-0,075
-715,991	301,378	-0,100	-0,134
-714,977	-127,089	0,053	-0,006
-713,962	-44,134	-0,145	0,052
-712,948	359,122	-0,100	0,146
-711,933	-200,000	-0,111	0,000
-710,918	70,821	0,080	-0,060
-709,904	-200,000	0,010	-0,129
-708,889	-109,949	-0,192	-0,029
-707,875	-200,000	-0,019	-0,138
-706,860	800,000	0,046	-0,140
-705,845	-200,000	-0,015	0,185
-704,831	-26,116	0,060	0,025
-703,816	159,383	-0,102	0,103
-702,802	234,218	0,047	-0,056
-701,787	33,955	0,049	-0,031
-700,772	800,000	0,039	-0,097
-699,758	-130,765	0,013	0,001
-698,743	198,888	0,102	0,114
-697,729	-152,298	0,126	0,006
-696,714	254,067	-0,111	-0,138
-695,699	95,721	0,073	0,060
-694,685	-200,000	-0,004	-0,114
-693,670	-137,655	0,022	0,002
-692,656	134,209	-0,043	-0,041
-691,641	-200,000	0,001	-0,035
-690,627	-74,598	0,046	0,012
-689,612	-200,000	0,001	-0,020
-688,597	29,312	-0,034	-0,021
-687,583	271,028	0,101	-0,129
-686,568	-71,790	-0,077	0,021
-685,554	114,566	-0,056	-0,049
-684,539	-200,000	-0,017	0,068
-683,524	-65,619	0,064	0,018
-682,510	10,233	-0,110	-0,060
-681,495	687,383	0,079	-0,150
-680,481	-53,060	-0,124	0,041
-679,466	800,000	0,036	-0,097
-678,451	-200,000	0,041	-0,147
-677,437	84,126	0,033	0,026
-676,422	-11,709	0,101	-0,048
-675,408	144,022	-0,027	0,026
-674,393	-1,593	-0,122	0,062
-673,378	800,000	0,034	0,085
-672,364	39,888	-0,029	-0,019
-671,349	95,368	-0,101	0,083
-670,335	200,864	0,147	0,163
-669,320	119,774	-0,111	-0,099
-668,305	800,000	-0,039	-0,122
-667,291	23,079	-0,025	-0,015
-666,276	-45,495	-0,128	0,046
-665,262	-66,706	-0,041	-0,012
-664,247	-200,000	-0,031	0,163
-663,232	-200,000	0,010	0,097
-662,218	-200,000	0,001	0,023
-661,203	168,208	0,048	0,050
-660,189	-200,000	-0,006	-0,031
-659,174	183,596	-0,023	-0,025
-658,159	60,690	0,051	0,036
-657,145	-138,112	-0,054	-0,004
-656,130	12,666	0,113	0,063
-655,116	-200,000	-0,007	-0,073
-654,101	443,105	0,009	-0,015
-653,086	800,000	-0,047	-0,107
-652,072	800,000	-0,042	-0,090
-651,057	800,000	-0,041	0,093
-650,043	-79,228	-0,187	-0,045
-649,028	-200,000	-0,012	-0,047
-648,014	47,639	-0,113	0,076
-646,999	236,090	-0,024	0,029
-645,984	-44,321	0,030	-0,011
-644,970	800,000	-0,051	-0,106
-643,955	-118,754	-0,066	0,008
-642,941	-200,000	0,004	0,040
-641,926	565,463	-0,046	0,080
-640,911	-102,594	0,043	0,007
-639,897	98,996	0,058	-0,049
-638,882	167,168	-0,076	0,078
-637,868	501,889	-0,106	-0,177
-636,853	164,125	-0,067	-0,068
-635,838	158,752	-0,071	-0,071
-634,824	85,989	0,040	-0,032
-633,809	499,688	-0,043	0,071
-632,795	178,151	-0,161	-0,170
-631,780	-200,000	-0,012	0,164
-630,765	-41,261	0,108	-0,040
-629,751	800,000	0,039	0,122
-628,736	105,766	-0,154	-0,131
-627,722	53,827	-0,026	0,018
-626,707	185,125	-0,049	-0,053
-625,692	97,863	0,067	0,055
-624,678	115,405	0,060	-0,053
-623,663	800,000	0,045	0,109
-622,649	667,009	-0,018	-0,034
-621,634	-200,000	0,005	-0,051
-620,619	136,443	0,116	0,109
-619,605	800,000	-0,060	0,164
-618,590	348,664	0,012	0,018
-617,576	-200,000	0,008	0,083
-616,561	184,836	0,015	0,017
-615,546	-66,140	0,093	0,027
-614,532	-149,970	-0,127	0,007
-613,517	357,105	0,115	-0,166
-612,503	-200,000	-0,049	-0,181
-611,488	7,985	-0,030	-0,016
-610,474	53,122	-0,051	0,035
-609,459	-101,833	-0,052	0,009
-608,444	800,000	0,052	-0,160
-607,430	105,838	0,136	-0,116
-606,415	-200,000	0,010	-0,051
-605,401	390,829	-0,053	-0,079
-604,386	-31,546	0,160	0,065
-603,371	-157,398	0,110	-0,005
-602,357	177,816	0,050	0,053
-601,342	305,127	-0,043	0,058
-600,328	-200,000	0,009	-0,031
-599,313	800,000	-0,024	-0,049
-598,298	84,442	-0,070	-0,055
-597,284	309,208	0,041	0,055
-596,269	-200,000	-0,012	0,112
-595,255	-151,808	-0,084	0,004
-594,240	-200,000	-0,005	-0,059
-593,225	800,000	-0,064	-0,151
-592,211	800,000	0,024	-0,061
-591,196	-158,719	0,097	-0,004
-590,182	-200,000	0,006	0,093
-589,167	-200,000	0,003	0,032
-588,152	-200,000	0,007	0,047
-587,138	354,497	-0,009	0,012
-586,123	-185,341	-0,201	0,002
-585,109	-140,460	-0,157	0,012
-584,094	139,539	0,064	-0,060
-583,079	160,802	-0,148	0,149
-582,065	752,878	0,153	0,300
-581,050	504,827	0,057	0,095
-580,036	310,568	0,076	-0,103
-579,021	161,568	0,062	0,063
-578,006	-55,506	-0,116	-0,037
-576,992	-82,241	-0,135	0,031
-575,977	800,000	-0,061	0,179
-574,963	-82,673	0,099	-0,023
-573,948	1,372	0,114	-0,059
-572,934	13,138	0,125	-0,069
-571,919	-29,266	-0,025	-0,010
-570,904	281,694	-0,044	-0,056
-569,890	178,676	-0,033	0,035
-568,875	-25,044	-0,107	-0,045
-567,861	-200,000	-0,017	0,146
-566,846	800,000	0,050	0,114
-565,831	-101,593	0,033	0,006
-564,817	-200,000	-0,012	-0,079
-563,802	-77,634	-0,258	-0,064
-562,788	800,000	0,086	-0,183
-561,773	-200,000	0,009	-0,096
-560,758	-118,849	0,082	0,010
-559,744	185,954	0,064	0,068
-558,729	-73,462	-0,069	-0,018
-557,715	800,000	-0,059	-0,131
-556,700	43,018	-0,091	-0,060
-555,685	-60,769	0,071	-0,022
-554,671	131,640	-0,088	0,082
-553,656	-64,991	0,087	0,025
-552,642	424,314	-0,028	0,044
-551,627	-17,918	-0,040	-0,018
-550,612	-31,163	-0,141	-0,057
-549,598	800,000	0,042	-0,097
-548,583	-200,000	0,020	-0,127
-547,569	34,372	-0,058	-0,036
-546,554	97,283	0,033	-0,027
-545,539	800,000	-0,013	-0,028
-544,525	38,583	-0,096	-0,061
-543,510	5,070	0,073	-0,039
-542,496	-0,070	-0,086	0,044
-541,481	-200,000	-0,000	-0,019
-540,466	-200,000	0,009	0,147
-539,452	774,343	0,071	0,140
-538,437	466,794	0,056	-0,091
-537,423	-200,000	-0,045	0,239
-536,408	-200,000	-0,004	-0,090
-535,393	31,883	-0,062	0,039
-534,379	-101,285	0,024	-0,004
-533,364	203,658	-0,029	0,033
-532,350	-17,447	-0,055	-0,025
-531,335	-87,726	-0,048	-0,010
-530,321	85,523	0,080	-0,063
-529,306	123,988	-0,015	-0,013
-528,291	156,417	0,090	-0,089
-527,277	423,866	-0,056	-0,088
-526,262	-200,000	0,003	-0,086
-525,248	800,000	0,027	0,072
-524,233	-95,919	0,017	-0,003
-523,218	225,380	-0,037	0,043
-522,204	9,633	0,087	0,047
-521,189	-39,337	-0,218	-0,082
-520,175	16,979	0,040	-0,023
-519,160	-200,000	-0,010	-0,123
-518,145	498,570	0,055	-0,091
-517,131	-76,375	0,156	-0,039
-516,116	-200,000	0,004	0,028
-515,102	-61,507	0,029	-0,009
-514,087	800,000	0,022	-0,054
-513,072	107,692	-0,103	-0,088
-512,058	66,911	0,015	-0,011
-511,043	-200,000	-0,003	-0,089
-510,029	-118,315	0,188	-0,024
-509,014	800,000	0,025	-0,055
-507,999	86,899	0,096	0,076
-506,985	-200,000	0,009	-0,030
-505,970	-147,431	0,028	-0,002
-504,956	471,101	-0,087	-0,141
-503,941	-46,201	0,066	-0,023
-502,926	-200,000	-0,027	0,106
-501,912	-200,000	0,055	0,181
-500,897	800,000	-0,037	0,082
-499,883	-20,388	-0,059	0,026
-498,868	142,385	0,063	-0,060
-497,853	110,114	0,034	0,029
-496,839	-200,000	-0,000	0,141
-495,824	-94,688	-0,109	0,021
-494,810	-200,000	-0,017	0,098
-493,795	213,447	-0,049	-0,056
-492,781	-32,477	0,090	0,036
-491,766	26,046	-0,158	-0,095
-490,751	571,589	-0,082	-0,143
-489,737	-200,000	-0,020	0,147
-488,722	-100,983	0,134	0,023
-487,708	528,394	0,090	0,153
-486,693	211,508	-0,025	0,028
-485,678	498,949	-0,019	0,031
-484,664	-137,886	-0,098	-0,008
-483,649	-59,286	0,138	-0,042
-482,635	182,284	0,032	0,033
-481,620	16,475	0,059	0,033
-480,605	-200,000	-0,010	0,048
-479,591	683,479	0,100	0,188
-478,576	-129,929	-0,065	0,006
-477,562	800,000	-0,035	-0,090
-476,547	800,000	-0,061	-0,126
-475,532	-200,000	-0,004	-0,087
-474,518	-144,509	0,045	0,003
-473,503	355,768	0,075	0,107
-472,489	314,935	-0,024	0,033
-471,474	-97,772	-0,103	-0,019
-470,459	534,159	-0,026	0,044
-469,445	42,101	-0,086	-0,056
-468,430	63,806	-0,056	-0,040
-467,416	116,243	-0,075	-0,065
-466,401	105,248	0,119	0,100
-465,386	23,287	-0,012	0,007
-464,372	-112,441	0,107	-0,015
-463,357	-75,966	-0,072	-0,018
-462,343	52,354	-0,141	-0,096
-461,328	-5,084	-0,009	-0,004
-460,313	304,796	0,020	-0,027
-459,299	-60,488	-0,024	-0,007
-458,284	663,317	0,069	0,129
-457,270	-200,000	-0,020	0,203
-456,255	-99,174	-0,010	-0,002
-455,241	800,000	0,062	-0,132
-454,226	-200,000	-0,019	-0,164
-453,211	-163,284	0,066	0,002
-452,197	-197,305	0,169	-0,001
-451,182	-164,134	0,068	0,002
-450,168	-200,000	0,015	-0,086
-449,153	265,234	-0,064	-0,080
-448,138	197,922	-0,056	-0,061
-447,124	-80,384	-0,031	-0,007
-446,109	-30,798	0,049	-0,020
-445,095	89,884	0,050	-0,040
-444,080	25,893	0,064	0,038
-443,065	-200,000	-0,005	0,147
-442,051	126,421	0,002	-0,002
-441,036	-200,000	-0,009	0,094
-440,022	800,000	0,006	0,015
-439,007	-200,000	-0,014	-0,073
-437,992	-200,000	-0,003	-0,027
-436,978	-99,386	0,069	-0,012
-435,963	-120,589	0,051	0,006
-434,949	-80,531	-0,109	-0,026
-433,934	-60,632	-0,049	0,015
-432,919	168,385	-0,058	-0,059
-431,905	-43,165	0,139	-0,050
-430,890	-37,780	0,108	0,041
-429,876	123,338	0,083	0,075
-428,861	-10,642	0,024	0,011
-427,846	400,786	-0,102	0,154
-426,832	202,929	0,112	-0,124
-425,817	-98,297	-0,057	-0,010
-424,803	-200,000	0,004	0,024
-423,788	-31,808	-0,023	-0,009
-422,773	-200,000	-0,025	-0,086
-421,759	191,977	-0,051	-0,055
-420,744	91,169	0,087	-0,069
-419,730	-200,000	0,014	-0,151
-418,715	75,796	-0,042	-0,031
-417,701	228,931	-0,126	0,147
-416,686	-108,604	-0,076	-0,012
-415,671	-200,000	0,008	-0,081
-414,657	800,000	0,023	0,068
-413,642	0,465	0,021	-0,011
-412,628	-200,000	-0,002	-0,147
-411,613	800,000	-0,062	0,124
-410,598	40,103	0,053	-0,034
-409,584	-200,000	0,025	0,141
-408,569	-200,000	0,001	-0,005
-407,555	-159,372	0,017	0,001
-406,540	-140,712	-0,082	0,006
-405,525	101,949	-0,078	-0,065
-404,511	66,559	-0,046	-0,034
-403,496	-200,000	0,005	-0,110
-402,482	-200,000	-0,012	-0,084
-401,467	-96,258	0,180	0,034
-400,452	477,005	0,062	0,100
-399,438	333,742	-0,049	-0,068
-398,423	215,862	0,009	-0,010
-397,409	-200,000	0,018	-0,073
-396,394	206,007	-0,121	-0,134
-395,379	-200,000	-0,042	0,202
-394,365	-45,503	0,062	0,022
-393,350	-154,847	-0,037	-0,002
-392,336	800,000	0,008	0,019
-391,321	410,218	-0,007	-0,011
-390,306	-67,178	0,075	-0,021
-389,292	-92,358	0,110	0,022
-388,277	16,436	-0,104	-0,059
-387,263	-106,670	-0,046	-0,007
-386,248	295,243	-0,093	0,122
-385,233	774,380	-0,029	0,056
-384,219	181,718	0,122	-0,128
-383,204	-200,000	-0,012	-0,117
-382,190	-200,000	0,030	-0,116
-381,175	617,842	0,063	-0,114
-380,160	-93,052	0,130	-0,026
-379,146	-200,000	-0,024	-0,150
-378,131	-200,000	0,017	0,067
-377,117	36,109	-0,137	0,086
-376,102	-97,862	-0,055	-0,010
-375,088	800,000	-0,042	-0,120
-374,073	-184,693	-0,053	-0,001
-373,058	563,806	-0,020	-0,034
-372,044	326,822	-0,032	0,044
-371,029	-200,000	-0,032	0,100
-370,015	313,360	0,020	-0,027
-369,000	-120,119	0,110	-0,013
-367,985	-200,000	0,003	0,066
-366,971	-200,000	-0,034	-0,120
-365,956	703,036	-0,056	-0,105
-364,942	-41,675	-0,013	-0,005
-363,927	73,325	0,052	0,039
-362,912	-200,000	-0,007	-0,060
-361,898	-137,024	-0,048	0,004
-360,883	144,986	-0,092	0,088
-359,869	92,099	0,053	0,042
-358,854	-68,388	-0,058	0,016
-357,839	166,142	0,127	0,128
-356,825	-200,000	0,004	0,057
-355,810	-111,337	0,097	-0,014
-354,796	-99,999	0,086	0,015
-353,781	180,044	0,057	0,059
-352,766	-72,014	-0,112	0,029
-351,752	101,347	0,180	0,150
-350,737	209,968	0,117	0,131
-349,723	67,668	0,177	0,129
-348,708	465,441	-0,034	0,055
-347,693	142,118	-0,073	-0,069
-346,679	203,624	-0,062	-0,069
-345,664	22,072	0,041	0,024
-344,650	391,810	-0,035	-0,051
-343,635	220,603	-0,046	-0,053
-342,620	-200,000	-0,009	0,101
-341,606	-137,221	0,123	0,010
-340,591	-200,000	0,017	0,181
-339,577	36,026	-0,146	-0,091
-338,562	80,410	-0,067	-0,051
-337,548	201,901	-0,124	0,136
-336,533	190,719	0,072	0,077
-335,518	6,297	-0,050	-0,026
-334,504	-200,000	-0,006	0,039
-333,489	16,075	-0,106	0,059
-332,475	800,000	-0,040	-0,120
-331,460	43,491	-0,092	-0,060
-330,445	-200,000	0,032	-0,133
-329,431	800,000	0,019	0,052
-328,416	41,560	0,108	0,070
-327,402	-200,000	0,004	0,087
-326,387	-64,401	0,039	-0,011
-325,372	-200,000	-0,021	0,106
-324,358	-103,640	0,048	-0,008
-323,343	800,000	-0,037	-0,078
-322,329	-200,000	-0,050	0,158
-321,314	116,460	-0,017	0,015
-320,299	-76,116	0,098	-0,025
-319,285	724,777	-0,056	0,107
-318,270	521,848	-0,037	0,062
-317,256	800,000	-0,075	0,154
-316,241	-65,564	0,029	-0,008
-315,226	97,033	0,034	0,028
-314,212	-108,563	0,093	0,014
-313,197	123,844	0,159	0,143
-312,183	55,058	0,120	0,082
-311,168	264,729	-0,067	0,083
-310,153	12,574	0,100	-0,055
-309,139	-128,173	-0,065	0,007
-308,124	-200,000	0,011	-0,081
-307,110	-87,927	0,049	-0,010
-306,095	576,316	0,035	0,061
-305,080	-200,000	0,006	-0,051
-304,066	-198,510	0,189	-0,001
-303,051	-39,393	-0,046	-0,017
-302,037	-200,000	0,012	-0,090
-301,022	-50,071	-0,066	-0,022
-300,008	364,404	0,076	0,109
-298,993	800,000	-0,031	0,083
-297,978	-156,851	-0,088	-0,004
-296,964	-130,934	-0,071	-0,007
-295,949	420,395	-0,029	-0,045
-294,935	-200,000	0,045	0,165
-293,920	-72,789	0,043	-0,011
-292,905	-200,000	-0,008	0,151
-291,891	-200,000	0,014	-0,047
-290,876	379,865	0,044	0,065
-289,862	13,463	0,044	-0,024
-288,847	303,434	0,070	-0,092
-287,832	-117,402	-0,011	-0,001
-286,818	-8,821	0,076	-0,036
-285,803	-200,000	-0,003	0,012
-284,789	412,736	-0,071	0,107
-283,774	800,000	0,031	-0,088
-282,759	380,253	-0,072	-0,106
-281,745	-125,203	0,042	-0,005
-280,730	800,000	-0,026	-0,070
-279,716	800,000	-0,023	0,053
-278,701	167,502	0,026	-0,026
-277,686	254,407	0,052	0,063
-276,672	800,000	-0,031	-0,079
-275,657	427,650	0,072	-0,110
-274,643	-120,820	-0,022	0,003
-273,628	-200,000	0,041	-0,171
-272,613	34,270	-0,067	-0,042
-271,599	-200,000	0,029	0,123
-270,584	800,000	0,031	0,063
-269,570	-34,468	-0,044	0,017
-268,555	-99,987	-0,045	-0,008
-267,540	-200,000	0,029	0,148
-266,526	800,000	-0,026	0,077
-265,511	-200,000	-0,007	-0,031
-264,497	-151,943	-0,153	0,008
-263,482	-90,409	0,066	0,013
-262,467	85,052	0,042	-0,032
-261,453	171,954	-0,057	0,058
-260,438	88,361	-0,162	-0,128
-259,424	-110,617	-0,165	-0,024
-258,409	-200,000	-0,007	-0,142
-257,395	-200,000	0,001	0,036
-256,380	250,719	0,160	0,194
-255,365	68,847	-0,132	0,096
-254,351	-200,000	0,001	0,050
-253,336	-200,000	0,023	-0,089
-252,322	142,416	-0,062	-0,058
-251,307	800,000	0,036	0,080
-250,292	37,722	-0,031	0,019
-249,278	190,273	-0,033	-0,035
-248,263	800,000	0,033	0,078
-247,249	-27,853	-0,063	-0,026
-246,234	-200,000	-0,004	-0,173
-245,219	128,648	0,040	-0,037
-244,205	800,000	-0,071	-0,181
-243,190	520,298	-0,062	0,103
-242,176	-112,214	0,064	0,009
-241,161	369,199	0,058	0,084
-240,146	-200,000	0,001	0,072
-239,132	-3,248	-0,086	-0,043
-238,117	-200,000	-0,005	0,050
-237,103	-111,241	0,037	-0,005
-236,088	-200,000	-0,001	-0,097
-235,073	-200,000	0,006	-0,044
-234,059	147,114	0,104	0,100
-233,044	-200,000	0,009	0,035
-232,030	-52,905	-0,061	-0,020
-231,015	800,000	0,052	0,109
-230,000	25,048	-0,052	-0,031
-228,986	447,707	-0,026	-0,040
-227,971	-28,514	0,110	-0,045
-226,957	-6,674	0,033	-0,016
-225,942	-69,557	0,140	0,038
-224,927	35,535	-0,051	-0,032
-223,913	-200,000	-0,003	0,194
-222,898	-200,000	-0,009	-0,048
-221,884	-7,955	0,092	-0,044
-220,869	-82,949	-0,081	-0,018
-219,855	549,780	0,105	0,180
-218,840	610,166	-0,100	0,179
-217,825	410,610	0,027	-0,041
-216,811	-200,000	0,029	-0,146
-215,796	98,190	-0,080	-0,065
-214,782	157,427	-0,027	-0,026
-213,767	-200,000	-0,029	0,127
-212,752	115,080	0,011	0,010
-211,738	-200,000	-0,005	0,069
-210,723	-49,175	-0,074	0,025
-209,709	-200,000	-0,002	-0,059
-208,694	-200,000	-0,008	0,048
-207,679	-200,000	0,016	-0,089
-206,665	158,167	-0,094	-0,093
-205,650	31,692	0,095	-0,058
-204,636	-200,000	-0,023	0,101
-203,621	-58,472	-0,029	-0,009
-202,606	800,000	-0,036	0,085
-201,592	800,000	0,035	-0,105
-200,577	-57,580	-0,101	-0,031
-199,563	-31,349	-0,082	0,033
-198,548	-149,806	-0,042	0,002
-197,533	800,000	-0,029	-0,090
-196,519	-97,003	0,044	0,008
-195,504	800,000	-0,007	-0,020
-194,490	66,091	-0,094	-0,067
-193,475	76,246	-0,046	-0,034
-192,460	800,000	0,051	0,106
-191,446	188,711	0,105	-0,112
-190,431	380,568	0,058	0,085
-189,417	76,881	-0,078	0,058
-188,402	-25,668	0,104	-0,044
-187,387	800,000	0,052	-0,132
-186,373	67,600	0,134	0,097
-185,358	800,000	0,047	0,126
-184,344	800,000	0,020	-0,040
-183,329	800,000	0,044	0,099
-182,315	800,000	0,024	0,056
-181,300	-200,000	-0,004	0,061
-180,285	800,000	-0,089	-0,222
-179,271	37,758	-0,097	-0,061
-178,256	800,000	0,067	0,181
-177,242	141,829	-0,036	0,034
-176,227	363,270	0,091	0,130
-175,212	-118,069	0,044	-0,005
-174,198	-200,000	-0,006	-0,120
-173,183	-28,474	-0,084	0,034
-172,169	-200,000	0,010	-0,122
-171,154	800,000	-0,019	-0,042
-170,139	-200,000	0,020	0,123
-169,125	-123,896	0,201	0,022
-168,110	636,767	-0,019	0,034
-167,096	-200,000	0,022	-0,071
-166,081	800,000	-0,057	-0,116
-165,066	351,014	-0,138	-0,193
-164,052	676,347	-0,050	-0,093
-163,037	-200,000	-0,009	-0,149
-162,023	261,065	0,024	0,029
-161,008	0,603	-0,070	0,035
-159,993	-123,296	0,136	0,015
-158,979	-13,784	-0,071	-0,032
-157,964	800,000	-0,025	0,049
-156,950	-200,000	-0,047	-0,146
-155,935	-42,665	0,127	0,046
-154,920	-58,689	0,080	0,024
-153,906	105,663	0,123	0,103
-152,891	295,455	0,031	0,040
-151,877	800,000	-0,058	-0,120
-150,862	60,752	0,090	0,063
-149,847	30,985	-0,089	-0,054
-148,833	387,888	0,061	-0,090
-147,818	561,233	0,071	0,121
-146,804	238,141	-0,019	0,023
-145,789	716,098	-0,071	-0,134
-144,775	19,071	-0,070	-0,040
-143,760	195,478	-0,055	0,059
-142,745	245,153	-0,012	-0,015
-141,731	-94,270	0,054	0,010
-140,716	-151,382	-0,095	-0,005
-139,702	63,571	-0,137	-0,097
-138,687	-27,678	-0,067	-0,027
-137,672	800,000	0,043	-0,090
-136,658	-33,800	-0,178	-0,069
-135,643	-90,595	0,092	-0,019
-134,629	666,274	0,073	-0,133
-133,614	272,214	0,035	-0,044
-132,599	18,036	-0,103	0,058
-131,585	249,935	0,038	0,045
-130,570	16,270	-0,099	0,055
-129,556	-200,000	-0,035	-0,112
-128,541	-200,000	-0,015	-0,072
-127,526	21,150	0,032	-0,019
-126,512	107,089	0,025	0,021
-125,497	800,000	0,035	0,095
-124,483	-44,191	0,067	0,024
-123,468	288,564	-0,110	-0,141
-122,453	27,181	-0,127	-0,076
-121,439	800,000	0,048	-0,123
-120,424	72,361	-0,120	-0,088
-119,410	27,620	0,085	-0,050
-118,395	53,468	0,180	0,122
-117,380	-200,000	0,019	0,187
-116,366	-137,462	0,105	-0,008
-115,351	-68,621	-0,046	0,013
-114,337	-167,987	-0,118	-0,003
-113,322	-200,000	0,019	-0,085
-112,307	66,287	0,117	0,084
-111,293	495,357	-0,054	0,089
-110,278	55,730	-0,053	-0,036
-109,264	-40,764	0,166	-0,060
-108,249	-200,000	-0,017	0,076
-107,234	800,000	-0,037	-0,112
-106,220	-98,370	-0,110	0,020
-105,205	66,929	-0,073	-0,053
-104,191	-89,039	0,064	0,013
-103,176	582,737	0,071	0,124
-102,162	125,741	0,011	0,010
-101,147	-200,000	-0,011	-0,155
-100,132	800,000	0,030	-0,092
-99,118	328,378	0,056	-0,076
-98,103	-9,137	0,122	0,058
-97,089	343,544	0,018	0,025
-96,074	204,916	0,115	-0,127
-95,059	-62,002	0,050	0,015
-94,045	800,000	-0,056	-0,136
-93,030	800,000	-0,017	-0,044
-92,016	505,357	0,082	-0,135
-91,001	20,443	-0,163	0,093
-89,986	564,806	0,035	0,061
-88,972	195,090	-0,019	-0,020
-87,957	-200,000	-0,015	0,089
-86,943	-200,000	-0,041	0,129
-85,928	42,995	-0,019	-0,012
-84,913	314,854	-0,058	-0,077
-83,899	37,257	-0,109	-0,068
-82,884	-143,884	0,087	0,006
-81,870	-131,073	0,080	-0,007
-80,855	-14,179	-0,075	0,034
-79,840	800,000	-0,034	0,071
-78,826	-200,000	-0,016	-0,072
-77,811	-162,396	0,067	0,002
-76,797	124,234	-0,052	-0,046
-75,782	-15,660	-0,052	-0,023
-74,767	-200,000	0,061	0,228
-73,753	28,225	-0,092	0,055
-72,738	-200,000	-0,002	-0,060
-71,724	21,776	-0,082	-0,047
-70,709	303,582	-0,099	-0,129
-69,694	186,737	0,094	-0,099
-68,680	-19,615	0,123	-0,053
-67,665	-200,000	-0,042	0,182
-66,651	160,169	0,056	0,055
-65,636	393,534	-0,057	0,083
-64,622	800,000	0,041	-0,103
-63,607	140,472	-0,043	-0,040
-62,592	-147,071	0,053	0,003
-61,578	800,000	0,047	-0,144
-60,563	-120,923	0,104	-0,012
-59,549	-200,000	0,021	0,188
-58,534	26,668	-1,965	-1,159
-57,519	377,801	-1,371	-1,984
-56,505	-200,000	-0,384	-4,364
-55,490	502,718	0,800	1,310
-54,476	800,000	5,098	11,368
-53,461	-200,000	21,111	334,956
-52,446	800,000	757,829	2338,006
-51,432	553,805	1660,839	2828,649
-50,417	73,367	1661,998	1225,695
-49,403	18,259	1535,098	862,099
-48,388	12,253	1458,110	789,837
-47,373	19,187	1449,152	818,206
-46,359	15,562	1438,615	794,996
-45,344	10,506	1434,178	768,459
-44,330	10,435	1432,493	767,187
-43,315	10,450	1430,616	766,224
-42,300	10,402	1428,855	765,020
-41,286	10,492	1427,285	764,575
-40,271	10,419	1426,124	763,579
-39,257	10,465	1424,994	763,164
-38,242	10,496	1423,804	762,642
-37,227	10,453	1423,045	761,999
-36,213	10,509	1421,727	761,529
-35,198	10,467	1420,654	760,727
-34,184	10,517	1419,577	760,354
-33,169	10,469	1418,254	759,391
-32,154	10,467	1417,266	758,823
-31,140	10,472	1416,139	758,210
-30,125	10,552	1414,767	757,822
-29,111	10,558	1413,756	757,281
-28,096	10,484	1412,663	756,316
-27,082	10,422	1411,304	755,268
-26,067	10,395	1410,524	754,695
-25,052	10,449	1409,405	754,318
-24,038	10,456	1408,381	753,774
-23,023	10,417	1407,437	753,054
-22,009	10,421	1406,287	752,430
-20,994	10,389	1405,441	751,797
-19,979	10,414	1404,328	751,287
-18,965	10,409	1403,569	750,832
-17,950	10,361	1402,725	750,124
-16,936	10,328	1401,927	749,517
-15,921	10,322	1400,829	748,870
-14,906	10,316	1399,870	748,299
-13,892	10,355	1398,859	747,913
-12,877	10,354	1398,119	747,479
-11,863	10,343	1397,210	746,913
-10,848	10,297	1396,413	746,244
-9,833	10,243	1395,528	745,494
-8,819	10,258	1394,741	745,111
-7,804	10,238	1393,905	744,544
-6,790	10,229	1392,664	743,811
-5,775	10,310	1391,451	743,508
-4,760	10,274	1390,749	742,935
-3,746	10,263	1389,702	742,295
-2,731	10,239	1388,962	741,762
-1,717	10,222	1388,211	741,249
-0,702	10,220	1386,170	740,125
0,313	14,286	1299,448	712,402
1,327	30,416	690,778	415,281
2,342	47,135	119,744	78,433
3,356	0,686	16,492	8,292
4,371	6,965	3,464	1,814
5,386	26,035	0,981	0,576
6,400	-200,000	0,156	0,487
7,415	97,071	-0,156	-0,126
8,429	288,930	-0,161	-0,206
9,444	-13,789	-0,454	-0,206
10,459	-17,676	-0,317	-0,140
11,473	72,448	-0,304	-0,223
12,488	139,640	-0,253	-0,234
13,502	90,281	-0,206	-0,162
14,517	105,304	-0,198	-0,164
15,531	38,443	-0,431	-0,270
16,546	180,791	-0,285	-0,295
17,561	-25,485	-0,531	-0,220
18,575	28,136	-0,286	-0,169
19,590	374,374	-0,215	-0,309
20,604	-26,382	-0,229	-0,094
21,619	151,747	-0,393	-0,377
22,634	51,690	-0,387	-0,259
23,648	138,713	-0,305	-0,282
24,663	102,804	-0,375	-0,309
25,677	-33,838	-0,453	-0,175
26,692	10,213	-0,357	-0,190
27,707	5,704	-0,307	-0,159
28,721	91,262	-0,317	-0,250
29,736	169,860	-0,352	-0,354
30,750	122,604	-0,393	-0,346
31,765	27,375	-0,433	-0,255
32,780	120,571	-0,231	-0,202
33,794	29,474	-0,358	-0,213
34,809	508,586	-0,182	-0,298
35,823	87,536	-0,404	-0,314
36,838	83,095	-0,301	-0,230
37,853	74,199	-0,398	-0,294
38,867	211,843	-0,410	-0,455
39,882	100,190	-0,299	-0,244
40,896	-36,675	-0,320	-0,120
41,911	34,324	-0,443	-0,271
42,926	179,308	-0,300	-0,308
43,940	28,109	-0,385	-0,227
44,955	105,036	-0,391	-0,324
45,969	200,289	-0,266	-0,288
46,984	215,599	-0,205	-0,229
47,999	74,348	-0,331	-0,244
49,013	-32,026	-0,399	-0,156
50,028	-42,336	-0,459	-0,164
51,042	158,876	-0,304	-0,296
52,057	10,074	-0,331	-0,176
53,071	51,181	-0,530	-0,352
54,086	17,750	-0,300	-0,167
55,101	151,488	-0,182	-0,174
56,115	85,917	-0,199	-0,154
57,130	13,679	-0,439	-0,238
58,144	-42,554	-0,352	-0,125
59,159	178,727	-0,384	-0,394
60,174	52,057	-0,495	-0,330
61,188	101,568	-0,317	-0,259
62,203	-96,180	-0,360	-0,066
63,217	142,008	-0,215	-0,200
64,232	73,416	-0,320	-0,234
65,247	14,758	-0,360	-0,197
66,261	124,270	-0,301	-0,265
67,276	64,754	-0,234	-0,165
68,290	-56,488	-0,270	-0,083
69,305	-23,512	-0,433	-0,181
70,320	-60,175	-0,340	-0,101
71,334	47,704	-0,283	-0,185
72,349	-5,810	-0,319	-0,153
73,363	375,252	-0,235	-0,337
74,378	62,756	-0,387	-0,271
75,393	344,659	-0,205	-0,283
76,407	26,180	-0,303	-0,177
77,422	-38,192	-0,226	-0,084
78,436	-81,550	-0,336	-0,077
79,451	212,160	-0,236	-0,260
80,466	67,086	-0,345	-0,246
81,480	136,798	-0,336	-0,307
82,495	4,039	-0,344	-0,176
83,509	72,141	-0,310	-0,226
84,524	-63,883	-0,263	-0,075
85,539	-13,493	-0,316	-0,143
86,553	16,343	-0,301	-0,166
87,568	126,519	-0,313	-0,277
88,582	-1,839	-0,323	-0,158
89,597	29,474	-0,293	-0,174
90,611	11,565	-0,301	-0,161
91,626	110,453	-0,183	-0,154
92,641	-62,994	-0,360	-0,103
93,655	79,216	-0,277	-0,208
94,670	37,542	-0,349	-0,216
95,684	245,690	-0,226	-0,267
96,699	55,274	-0,301	-0,203
97,714	147,391	-0,265	-0,250
98,728	-80,954	-0,249	-0,057
99,743	72,772	-0,317	-0,231
100,757	33,021	-0,278	-0,168
101,772	111,902	-0,150	-0,126
102,787	19,306	-0,342	-0,192
103,801	13,305	-0,350	-0,189
104,816	-41,718	-0,261	-0,093
105,830	-41,573	-0,369	-0,132
106,845	32,561	-0,331	-0,199
107,860	-94,475	-0,362	-0,068
108,874	-72,007	-0,232	-0,060
109,889	63,645	-0,290	-0,203
110,903	153,085	-0,323	-0,308
111,918	-12,137	-0,254	-0,116
112,933	169,757	-0,225	-0,225
113,947	69,714	-0,237	-0,170
114,962	47,009	-0,215	-0,139
115,976	44,568	-0,259	-0,166
116,991	-49,872	-0,310	-0,102
118,006	262,172	-0,219	-0,265
119,020	92,957	-0,246	-0,194
120,035	-56,191	-0,279	0,086
121,049	-46,422	-0,160	0,054
122,064	-31,224	-0,207	-0,081
123,079	191,854	-0,240	-0,253
124,093	-45,854	-0,242	-0,083
125,108	103,405	-0,308	-0,252
126,122	23,621	-0,176	-0,101
127,137	-20,099	-0,426	-0,182
128,151	-78,595	-0,291	-0,069
129,166	-50,394	-0,276	-0,090
130,181	140,060	-0,301	-0,277
131,195	159,702	-0,232	-0,225
132,210	129,753	-0,313	-0,279
133,224	-105,028	-0,295	-0,047
134,239	424,503	-0,129	-0,195
135,254	21,157	-0,208	-0,117
136,268	-21,377	-0,215	-0,091
137,283	93,708	-0,185	-0,146
138,297	-5,575	-0,189	0,090
139,312	222,183	-0,325	-0,365
140,327	97,965	-0,268	-0,215
141,341	-51,214	-0,162	-0,053
142,356	302,638	-0,115	-0,149
143,370	44,029	-0,235	-0,149
144,385	-42,091	-0,352	-0,125
145,400	25,121	-0,267	-0,154
146,414	-71,428	-0,347	-0,090
147,429	-13,316	-0,289	-0,130
148,443	70,442	-0,183	-0,132
149,458	-79,950	-0,217	-0,050
150,473	192,460	-0,124	-0,130
151,487	-111,275	-0,324	-0,046
152,502	351,599	-0,277	-0,383
153,516	101,622	-0,287	-0,233
154,531	111,612	-0,260	-0,219
155,546	301,947	-0,278	-0,358
156,560	-200,000	-0,043	-0,182
157,575	-148,672	-0,195	0,011
158,589	246,842	-0,177	-0,208
159,604	59,712	-0,216	-0,148
160,619	122,793	-0,153	-0,133
161,633	433,335	-0,205	-0,311
162,648	30,444	-0,300	-0,178
163,662	-29,126	-0,241	-0,096
164,677	-110,105	-0,206	-0,030
165,692	48,061	-0,222	-0,144
166,706	-20,015	-0,159	-0,068
167,721	58,731	-0,238	-0,162
168,735	462,974	-0,158	-0,247
169,750	-28,270	-0,258	-0,103
170,764	8,242	-0,168	-0,087
171,779	-20,089	-0,226	-0,096
172,794	73,656	-0,178	-0,129
173,808	175,875	-0,161	-0,162
174,823	35,736	-0,230	-0,140
175,837	3,131	-0,323	-0,162
176,852	286,849	-0,163	-0,205
177,867	475,769	-0,147	-0,231
178,881	536,709	-0,193	-0,320
179,896	44,305	-0,202	-0,128
180,910	-42,951	-0,195	-0,068
181,925	155,524	-0,097	-0,092
182,940	177,644	-0,280	-0,284
183,954	34,874	-0,224	-0,136
184,969	361,803	-0,139	-0,195
185,983	349,073	-0,097	-0,134
186,998	-43,366	-0,135	-0,047
188,013	-24,631	-0,211	-0,087
189,027	129,193	-0,168	-0,149
190,042	19,037	-0,265	-0,147
191,056	18,617	-0,236	-0,131
192,071	10,138	-0,233	-0,122
193,086	76,456	-0,102	-0,075
194,100	99,705	-0,170	-0,137
195,115	-77,940	-0,229	0,054
196,129	459,366	-0,088	-0,136
197,144	170,045	-0,253	-0,251
198,159	89,960	-0,362	-0,280
199,173	43,033	-0,113	-0,071
200,188	4,263	-0,209	-0,106
201,202	-62,197	-0,209	-0,060
202,217	14,811	-0,296	-0,160
203,232	59,737	-0,189	-0,129
204,246	185,020	-0,269	-0,277
205,261	128,306	-0,263	-0,232
206,275	-100,849	-0,212	0,036
207,290	365,950	-0,139	-0,194
208,304	-32,381	-0,156	-0,060
209,319	3,264	-0,255	-0,128
210,334	335,722	-0,183	-0,246
211,348	175,625	-0,168	-0,168
212,363	-52,937	-0,282	-0,089
213,377	190,798	-0,217	-0,226
214,392	-35,477	-0,144	0,054
215,407	-103,737	-0,139	-0,022
216,421	800,000	-0,089	-0,187
217,436	-27,507	-0,293	-0,117
218,450	124,969	-0,088	-0,077
219,465	-74,633	-0,164	-0,041
220,480	22,747	-0,368	-0,208
221,494	275,679	-0,130	-0,160
222,509	233,050	-0,188	-0,214
223,523	30,604	-0,150	-0,089
224,538	-131,371	-0,267	-0,024
225,553	287,308	-0,237	-0,297
226,567	439,480	-0,147	-0,223
227,582	168,211	-0,259	-0,255
228,596	-81,398	-0,243	-0,055
229,611	800,000	-0,142	-0,287
230,626	100,284	-0,119	-0,095
231,640	311,368	-0,232	-0,301
232,655	71,673	-0,179	-0,128
233,669	21,979	-0,196	-0,110
234,684	124,447	-0,148	-0,129
235,699	246,648	-0,079	-0,093
236,713	170,596	-0,179	-0,177
237,728	154,543	-0,170	-0,162
238,742	-85,884	-0,178	-0,038
239,757	196,211	-0,180	-0,189
240,772	-200,000	-0,038	-0,331
241,786	181,237	-0,159	-0,161
242,801	213,599	-0,139	-0,152
243,815	-60,233	-0,210	-0,061
244,830	-165,404	-0,191	0,006
245,844	193,930	-0,260	-0,272
246,859	-109,605	-0,188	0,027
247,874	-23,896	-0,217	-0,089
248,888	-90,924	-0,248	-0,049
249,903	250,068	-0,065	-0,077
250,917	17,785	-0,129	-0,071
251,932	-107,944	-0,127	0,019
252,947	-5,237	-0,222	-0,105
253,961	47,040	-0,282	-0,180
254,976	473,650	-0,150	-0,233
255,990	388,314	-0,205	-0,293
257,005	131,484	-0,142	-0,126
258,020	25,180	-0,164	-0,094
259,034	-135,428	-0,155	-0,013
260,049	-21,235	-0,199	-0,084
261,063	-73,146	-0,221	-0,055
262,078	800,000	-0,064	-0,127
263,093	289,739	-0,137	-0,171
264,107	286,275	-0,221	-0,275
265,122	504,763	-0,193	-0,309
266,136	-200,000	-0,127	-0,389
267,151	-10,996	-0,232	-0,105
268,166	123,395	-0,103	-0,089
269,180	6,509	-0,158	-0,080
270,195	-31,832	-0,183	-0,070
271,209	-160,200	-0,140	0,005
272,224	-156,377	-0,136	0,006
273,239	-61,301	-0,156	-0,045
274,253	303,453	-0,129	-0,165
275,268	-37,708	-0,219	-0,080
276,282	800,000	-0,100	-0,202
277,297	362,418	-0,172	-0,238
278,312	605,383	-0,130	-0,223
279,326	-102,669	-0,184	-0,030
280,341	-165,386	-0,176	0,005
281,355	87,784	-0,188	-0,143
282,370	-180,083	-0,158	-0,002
283,384	65,921	-0,110	-0,077
284,399	356,632	-0,139	-0,191
285,414	687,698	-0,110	-0,198
286,428	-87,746	-0,247	-0,051
287,443	-62,581	-0,052	0,015
288,457	119,146	-0,203	-0,173
289,472	-25,526	-0,135	-0,054
290,487	21,705	-0,198	-0,111
291,501	-87,458	-0,117	0,024
292,516	545,860	-0,196	-0,323
293,530	-23,046	-0,119	-0,049
294,545	341,902	-0,034	0,046
295,560	-147,794	-0,209	-0,012
296,574	87,851	-0,189	-0,144
297,589	-127,504	-0,246	-0,024
298,603	-11,967	-0,215	-0,096
299,618	-29,563	-0,154	-0,060
300,633	38,918	-0,192	-0,117
301,647	800,000	-0,078	-0,161
302,662	-155,513	-0,079	-0,003
303,676	-90,597	-0,095	-0,019
304,691	62,186	-0,248	-0,170
305,706	-112,098	-0,123	0,017
306,720	-112,704	-0,170	0,023
307,735	384,022	-0,152	-0,215
308,749	-28,366	-0,127	-0,050
309,764	-200,000	-0,021	-0,169
310,779	51,712	-0,114	-0,075
311,793	-23,396	-0,067	0,027
312,808	-83,698	-0,249	-0,054
313,822	258,985	-0,243	-0,288
314,837	90,667	-0,100	-0,077
315,852	-59,241	-0,155	-0,046
316,866	23,138	-0,169	-0,095
317,881	33,218	-0,073	-0,043
318,895	-24,129	-0,227	-0,092
319,910	-55,190	-0,313	-0,096
320,925	276,940	-0,165	-0,202
321,939	800,000	-0,033	-0,076
322,954	609,617	-0,052	-0,090
323,968	-93,600	-0,179	-0,034
324,983	-3,012	-0,165	-0,079
325,997	87,383	-0,199	-0,151
327,012	68,098	-0,142	-0,100
328,027	-107,094	-0,140	-0,021
329,041	-161,031	-0,098	-0,003
330,056	-200,000	-0,039	-0,137
331,070	-102,031	-0,036	0,006
332,085	45,206	-0,112	0,071
333,100	49,005	-0,184	-0,118
334,114	49,562	-0,189	-0,122
335,129	519,996	-0,114	-0,183
336,143	70,714	-0,171	-0,121
337,158	-191,198	-0,144	0,001
338,173	18,958	-0,061	0,034
339,187	434,329	0,019	-0,028
340,202	-136,212	-0,151	0,012
341,216	129,914	-0,102	-0,090
342,231	352,783	-0,199	-0,271
343,246	345,545	-0,118	-0,159
344,260	388,617	-0,045	-0,064
345,275	335,718	0,022	-0,029
346,289	50,129	-0,136	0,088
347,304	-140,914	-0,132	-0,009
348,319	97,987	-0,090	-0,071
349,333	378,489	-0,144	-0,202
350,348	191,474	-0,059	-0,060
351,362	11,281	-0,171	0,089
352,377	-72,282	-0,199	-0,050
353,392	-95,829	-0,186	-0,034
354,406	-200,000	-0,042	-0,197
355,421	207,556	1306,440	1395,522
356,435	159,678	1466,123	1396,018
