DTS Sentinel unit serial number:	SN410029Multiplexer serial number:	ORYXHardware model number:	OX2-SRSoftware version number:	ORYX F/W v4,00 Oryx Data Collector v3.7.2.0data status	okinstallation	B3 Nyhavnadifferential loss correction	single-endedforward channel	channel 1reverse channel	N/Adate	2023/12/03time	22:02:30forward acquisition time	300,00reverse acquisition time	0,00gamma	499,1914k internal	0,3200k external	0,3200temperature offset calibration	1,0000default loss term (dB/km)	0,3820temperature slope calibration	1,0000multiplexer offset coefficient	1,0000multiplexer slope coefficient	1,0000fibre end	0,00T internal ref (°C)	13,37T ext. ref 1 (°C)	-2,03T ext. ref 2 (°C)	-2,05length (m)	temperature (°C)	Stokes	anti-Stokes-744,400	99,716	-0,340	-0,286
-743,385	-200,000	0,006	0,329
-742,371	132,428	-0,137	-0,128
-741,356	-200,000	0,110	0,382
-740,342	100,381	-0,076	-0,064
-739,327	-200,000	0,107	0,387
-738,312	95,863	-0,181	-0,150
-737,298	-200,000	0,010	0,248
-736,283	50,729	-0,233	-0,160
-735,269	-200,000	0,020	0,262
-734,254	258,467	-0,136	-0,171
-733,239	-53,414	-0,309	0,102
-732,225	83,609	-0,098	-0,078
-731,210	40,506	0,243	0,159
-730,196	800,000	-0,036	0,095
-729,181	-13,205	-0,035	0,017
-728,167	-200,000	0,004	-0,146
-727,152	-68,703	0,045	-0,012
-726,137	-142,268	-0,105	-0,007
-725,123	-200,000	-0,002	-0,058
-724,108	-200,000	-0,038	0,124
-723,094	673,612	-0,026	-0,049
-722,079	-16,394	0,046	-0,021
-721,064	-109,544	-0,194	0,029
-720,050	70,275	0,072	0,054
-719,035	87,333	-0,104	-0,084
-718,021	-38,845	-0,096	-0,037
-717,006	325,558	-0,060	-0,084
-715,991	319,268	-0,015	-0,021
-714,977	-200,000	-0,006	-0,053
-713,962	-200,000	-0,006	-0,146
-712,948	6,989	-0,225	-0,121
-711,933	-50,491	0,035	0,012
-710,918	222,609	0,038	-0,045
-709,904	800,000	-0,069	-0,147
-708,889	-44,085	-0,065	0,023
-707,875	-200,000	-0,012	-0,224
-706,860	230,484	0,055	-0,065
-705,845	135,981	-0,135	0,128
-704,831	800,000	0,036	0,076
-703,816	-200,000	0,001	0,009
-702,802	191,185	0,043	0,047
-701,787	164,931	0,027	0,027
-700,772	-108,945	0,081	-0,012
-699,758	168,967	-0,025	0,026
-698,743	-173,483	0,054	-0,001
-697,729	150,395	0,077	0,076
-696,714	800,000	-0,013	0,028
-695,699	-46,324	-0,082	-0,029
-694,685	-200,000	0,023	-0,169
-693,670	-200,000	0,012	-0,063
-692,656	311,971	-0,088	0,120
-691,641	-102,628	-0,028	0,005
-690,627	-58,250	0,126	0,039
-689,612	-125,353	-0,109	-0,012
-688,597	-200,000	-0,003	-0,020
-687,583	9,528	-0,060	0,033
-686,568	230,262	-0,067	-0,079
-685,554	34,945	0,052	-0,033
-684,539	-126,356	0,151	0,016
-683,524	759,305	-0,053	0,105
-682,510	-104,408	-0,103	0,017
-681,495	-170,713	-0,075	-0,002
-680,481	473,720	0,039	-0,064
-679,466	-200,000	-0,003	-0,014
-678,451	289,048	-0,028	-0,037
-677,437	-72,614	-0,057	-0,015
-676,422	-72,971	0,090	-0,024
-675,408	-200,000	0,014	0,077
-674,393	204,361	0,040	-0,045
-673,378	-200,000	0,026	-0,145
-672,364	171,719	-0,133	-0,138
-671,349	92,604	0,052	0,043
-670,335	-51,022	0,118	0,040
-669,320	-23,580	0,149	-0,064
-668,305	800,000	-0,017	-0,040
-667,291	800,000	0,044	-0,105
-666,276	472,976	0,042	-0,068
-665,262	355,682	-0,095	-0,138
-664,247	633,170	0,048	-0,089
-663,232	-104,614	0,044	-0,007
-662,218	525,007	0,060	-0,103
-661,203	225,014	-0,051	0,060
-660,189	-200,000	0,014	0,148
-659,174	71,245	-0,054	0,041
-658,159	-46,400	-0,147	-0,052
-657,145	307,148	0,047	-0,064
-656,130	215,608	-0,017	0,020
-655,116	117,532	0,090	0,080
-654,101	356,346	-0,065	-0,094
-653,086	-200,000	-0,008	-0,053
-652,072	147,798	-0,030	-0,030
-651,057	4,204	0,143	-0,076
-650,043	507,832	0,043	-0,072
-649,028	800,000	-0,040	-0,099
-648,014	-111,576	0,056	0,008
-646,999	-151,540	0,170	-0,009
-645,984	-65,866	-0,140	-0,040
-644,970	800,000	0,032	-0,097
-643,955	-200,000	0,006	-0,146
-642,941	-111,865	-0,121	-0,017
-641,926	-200,000	-0,038	0,138
-640,911	-200,000	0,053	0,171
-639,897	213,012	0,084	-0,096
-638,882	65,924	-0,044	0,032
-637,868	-5,691	-0,130	-0,064
-636,853	-200,000	0,012	0,083
-635,838	-17,725	0,076	-0,034
-634,824	27,289	-0,038	-0,023
-633,809	555,380	-0,030	0,052
-632,795	-200,000	-0,000	-0,085
-631,780	42,385	0,055	0,036
-630,765	253,296	0,056	-0,070
-629,751	-54,642	-0,144	0,047
-628,736	800,000	0,005	-0,012
-627,722	321,519	-0,075	0,104
-626,707	-200,000	0,022	-0,163
-625,692	588,057	0,022	-0,040
-624,678	800,000	-0,048	-0,104
-623,663	220,667	-0,035	-0,041
-622,649	20,076	-0,140	-0,081
-621,634	-16,295	-0,135	-0,062
-620,619	75,015	0,014	-0,011
-619,605	-111,526	0,189	0,027
-618,590	-200,000	-0,031	0,103
-617,576	553,755	0,088	0,153
-616,561	-200,000	-0,007	-0,073
-615,546	800,000	0,033	-0,097
-614,532	-5,245	-0,045	0,022
-613,517	42,614	-0,039	-0,026
-612,503	-44,087	0,057	0,021
-611,488	-76,825	-0,068	0,017
-610,474	-27,045	0,030	0,012
-609,459	178,141	-0,103	0,109
-608,444	46,358	0,044	0,029
-607,430	190,012	0,059	-0,064
-606,415	-200,000	-0,047	-0,000
-605,401	15,819	0,127	-0,072
-604,386	-84,242	-0,067	-0,015
-603,371	-200,000	-0,008	-0,095
-602,357	-200,000	0,040	-0,147
-601,342	-127,511	-0,071	0,007
-600,328	-118,762	-0,067	0,008
-599,313	-200,000	0,027	0,088
-598,298	-200,000	-0,003	0,089
-597,284	-13,013	-0,114	0,054
-596,269	157,886	0,156	-0,156
-595,255	693,809	-0,046	-0,088
-594,240	57,654	-0,074	0,052
-593,225	61,874	-0,091	0,066
-592,211	-200,000	-0,009	0,121
-591,196	-33,750	0,061	-0,024
-590,182	190,369	0,039	-0,042
-589,167	-88,113	0,102	-0,022
-588,152	-59,070	-0,053	-0,017
-587,138	249,164	0,077	0,095
-586,123	63,476	-0,067	-0,049
-585,109	800,000	-0,044	-0,099
-584,094	800,000	-0,025	0,058
-583,079	-200,000	0,003	-0,026
-582,065	9,763	-0,138	0,076
-581,050	-83,199	-0,146	0,034
-580,036	-9,705	0,028	-0,014
-579,021	800,000	-0,067	-0,151
-578,006	649,329	0,012	-0,021
-576,992	-200,000	-0,011	0,040
-575,977	307,099	0,108	-0,145
-574,963	-55,867	0,186	0,060
-573,948	-125,328	-0,103	0,011
-572,934	-97,877	-0,188	-0,035
-571,919	800,000	0,030	0,063
-570,904	96,210	-0,016	-0,013
-569,890	-133,009	0,124	-0,011
-568,875	800,000	-0,054	-0,139
-567,861	116,728	-0,050	-0,044
-566,846	61,254	0,011	0,008
-565,831	-8,365	0,091	-0,044
-564,817	210,738	0,065	-0,074
-563,802	-200,000	0,008	0,080
-562,788	-117,162	0,091	0,012
-561,773	-200,000	0,016	-0,064
-560,758	-97,391	-0,030	0,006
-559,744	-200,000	-0,048	0,169
-558,729	-124,523	-0,054	-0,006
-557,715	-110,410	-0,049	-0,007
-556,700	-49,652	-0,113	-0,039
-555,685	165,393	0,017	-0,017
-554,671	4,292	-0,118	0,062
-553,656	-61,331	-0,046	0,014
-552,642	-200,000	-0,010	-0,038
-551,627	-9,427	0,133	-0,064
-550,612	-22,679	-0,099	-0,043
-549,598	-200,000	0,032	-0,131
-548,583	-200,000	0,028	-0,099
-547,569	-66,484	-0,061	-0,017
-546,554	395,043	-0,086	0,129
-545,539	-200,000	0,009	0,159
-544,525	-200,000	-0,025	0,096
-543,510	-200,000	-0,020	-0,122
-542,496	74,147	-0,088	-0,066
-541,481	800,000	-0,070	-0,151
-540,466	145,925	-0,019	0,018
-539,452	-44,345	-0,060	0,021
-538,437	201,456	0,044	-0,048
-537,423	729,257	-0,046	0,088
-536,408	-130,286	-0,044	-0,004
-535,393	-57,324	-0,179	-0,056
-534,379	-200,000	0,041	0,133
-533,364	500,927	0,072	-0,121
-532,350	46,678	-0,052	0,035
-531,335	179,663	-0,072	0,076
-530,321	-39,678	-0,018	-0,007
-529,306	-74,830	-0,045	0,011
-528,291	320,382	-0,025	-0,035
-527,277	-200,000	-0,016	-0,063
-526,262	95,882	0,066	-0,055
-525,248	113,272	0,155	0,136
-524,233	185,305	-0,016	0,017
-523,218	30,710	-0,078	0,048
-522,204	25,728	0,085	0,051
-521,189	-200,000	-0,007	0,034
-520,175	-164,366	-0,011	0,000
-519,160	-120,791	0,039	-0,005
-518,145	800,000	-0,032	0,084
-517,131	-200,000	0,016	0,153
-516,116	341,924	0,023	-0,032
-515,102	100,595	-0,124	0,104
-514,087	-109,532	0,090	0,014
-513,072	37,317	0,091	0,058
-512,058	97,066	0,038	0,032
-511,043	71,737	0,034	-0,025
-510,029	800,000	-0,020	-0,046
-509,014	74,972	0,113	0,086
-507,999	-115,759	-0,065	0,009
-506,985	182,882	-0,034	0,036
-505,970	242,847	-0,100	-0,121
-504,956	207,522	0,044	-0,049
-503,941	291,585	-0,044	0,057
-502,926	-117,819	-0,030	0,004
-501,912	45,464	0,088	0,058
-500,897	244,869	0,102	-0,124
-499,883	53,511	0,131	-0,091
-498,868	-200,000	0,026	-0,089
-497,853	-160,260	-0,041	-0,002
-496,839	223,596	0,070	-0,081
-495,824	271,475	-0,046	0,059
-494,810	58,655	0,034	-0,024
-493,795	-107,315	0,078	-0,012
-492,781	-157,589	-0,171	0,007
-491,766	309,844	0,083	0,112
-490,751	-93,189	-0,109	-0,022
-489,737	448,716	-0,029	-0,047
-488,722	-22,570	0,119	-0,052
-487,708	-200,000	0,131	0,000
-486,693	-182,700	-0,135	-0,002
-485,678	-200,000	0,019	-0,182
-484,664	47,165	-0,115	0,077
-483,649	-108,193	0,080	-0,012
-482,635	-87,148	-0,021	0,005
-481,620	-200,000	0,000	0,072
-480,605	2,018	0,263	0,136
-479,591	509,196	-0,046	0,077
-478,576	502,565	0,059	0,099
-477,562	160,474	-0,056	-0,056
-476,547	-75,630	0,093	-0,024
-475,532	-111,231	-0,157	0,023
-474,518	800,000	-0,026	0,069
-473,503	800,000	-0,046	0,126
-472,489	-200,000	-0,001	0,073
-471,474	61,271	-0,067	-0,048
-470,459	146,417	-0,050	0,049
-469,445	-101,050	-0,067	0,012
-468,430	12,221	0,057	-0,031
-467,416	25,201	0,050	0,030
-466,401	144,132	-0,103	0,098
-465,386	800,000	0,023	0,047
-464,372	591,167	-0,042	0,075
-463,357	-200,000	0,028	-0,094
-462,343	-200,000	-0,000	-0,106
-461,328	800,000	0,023	0,054
-460,313	800,000	0,038	-0,105
-459,299	-200,000	0,001	0,037
-458,284	406,772	0,020	-0,031
-457,270	-200,000	-0,001	0,032
-456,255	41,053	0,094	-0,061
-455,241	7,327	-0,126	-0,068
-454,226	-171,928	0,113	0,003
-453,211	103,841	0,048	-0,040
-452,197	294,676	-0,098	0,129
-451,182	80,100	0,090	0,069
-450,168	662,595	0,038	0,071
-449,153	-62,247	-0,096	-0,029
-448,138	482,206	-0,058	-0,094
-447,124	-200,000	0,018	-0,080
-446,109	-47,153	-0,062	-0,022
-445,095	-200,000	-0,017	0,079
-444,080	609,819	0,033	-0,060
-443,065	-180,540	-0,122	0,002
-442,051	-49,436	0,064	-0,022
-441,036	-200,000	0,004	0,075
-440,022	-162,672	-0,103	0,004
-439,007	218,036	0,030	0,034
-437,992	36,425	-0,072	0,046
-436,978	167,493	0,064	0,065
-435,963	48,072	0,109	-0,073
-434,949	11,053	-0,028	-0,015
-433,934	-1,541	-0,134	-0,068
-432,919	-8,563	0,059	-0,028
-431,905	32,722	-0,039	0,024
-430,890	-200,000	-0,043	0,000
-429,876	194,912	0,142	0,155
-428,861	-200,000	0,007	0,029
-427,846	119,072	0,135	0,120
-426,832	-200,000	-0,004	-0,123
-425,817	428,609	-0,053	-0,083
-424,803	-129,316	-0,029	0,003
-423,788	270,118	-0,047	0,059
-422,773	-56,660	0,099	0,031
-421,759	-200,000	-0,026	0,161
-420,744	234,101	-0,082	0,097
-419,730	333,643	-0,031	-0,044
-418,715	250,628	-0,041	0,050
-417,701	12,845	-0,199	0,110
-416,686	82,522	0,034	-0,027
-415,671	-200,000	0,023	0,085
-414,657	-200,000	-0,020	0,100
-413,642	296,327	-0,081	0,107
-412,628	-97,383	-0,100	0,019
-411,613	-152,580	-0,086	-0,004
-410,598	84,383	-0,045	0,036
-409,584	147,087	0,034	-0,033
-408,569	17,019	0,153	0,087
-407,555	-200,000	-0,005	0,063
-406,540	-117,506	0,084	0,011
-405,525	800,000	-0,018	0,041
-404,511	-24,842	0,091	-0,039
-403,496	-200,000	-0,007	-0,041
-402,482	25,238	0,084	-0,050
-401,467	-200,000	-0,033	0,166
-400,452	-200,000	0,058	0,194
-399,438	-200,000	0,002	0,073
-398,423	91,821	0,010	0,008
-397,409	793,855	-0,070	-0,139
-396,394	-124,839	-0,092	0,010
-395,379	58,390	0,125	-0,088
-394,365	-200,000	0,040	0,180
-393,350	134,802	0,098	0,091
-392,336	406,698	0,089	0,135
-391,321	62,064	0,053	0,038
-390,306	96,567	-0,018	0,015
-389,292	24,838	-0,039	0,023
-388,277	-200,000	-0,014	-0,071
-387,263	-200,000	0,022	-0,071
-386,248	299,249	0,120	-0,159
-385,233	526,403	-0,087	0,147
-384,219	50,333	0,112	-0,076
-383,204	5,430	-0,069	-0,037
-382,190	758,109	0,066	-0,129
-381,175	-200,000	-0,002	-0,173
-380,160	-149,861	0,130	-0,007
-379,146	127,411	0,106	0,096
-378,131	800,000	0,036	0,081
-377,117	-200,000	-0,017	-0,118
-376,102	-1,477	0,055	-0,028
-375,088	-200,000	0,008	-0,060
-374,073	53,046	-0,041	-0,028
-373,058	-200,000	-0,002	0,074
-372,044	-99,638	0,062	0,011
-371,029	145,549	0,126	0,121
-370,015	-200,000	0,023	0,110
-369,000	800,000	-0,030	-0,064
-367,985	444,682	-0,038	-0,060
-366,971	800,000	-0,023	0,049
-365,956	134,010	0,085	0,079
-364,942	800,000	-0,029	0,060
-363,927	-44,237	0,068	0,024
-362,912	25,099	0,116	-0,069
-361,898	-101,945	-0,103	-0,018
-360,883	800,000	-0,040	-0,116
-359,869	-200,000	0,005	-0,092
-358,854	-171,504	0,250	0,006
-357,839	-118,383	-0,069	0,009
-356,825	-200,000	-0,001	0,172
-355,810	42,464	-0,073	0,048
-354,796	144,223	-0,061	-0,058
-353,781	-42,317	0,074	-0,027
-352,766	24,839	0,005	0,003
-351,752	4,201	-0,157	0,082
-350,737	127,240	0,121	0,110
-349,723	-200,000	-0,048	0,182
-348,708	-200,000	0,032	0,170
-347,693	-5,906	0,046	-0,022
-346,679	-200,000	0,002	-0,122
-345,664	616,024	-0,014	0,025
-344,650	-200,000	-0,005	-0,102
-343,635	85,797	0,149	-0,117
-342,620	16,806	0,062	-0,035
-341,606	-19,671	0,061	-0,027
-340,591	688,891	-0,046	-0,087
-339,577	-90,203	-0,065	-0,013
-338,562	8,532	0,069	-0,037
-337,548	-3,338	0,026	0,013
-336,533	472,927	0,043	-0,070
-335,518	-175,425	-0,087	0,002
-334,504	-13,917	0,089	-0,041
-333,489	95,133	-0,027	-0,022
-332,475	-200,000	0,004	-0,059
-331,460	-69,649	0,147	-0,040
-330,445	65,072	-0,112	-0,081
-329,431	-168,283	0,206	-0,006
-328,416	-152,167	0,129	0,007
-327,402	-104,551	-0,064	-0,011
-326,387	800,000	0,014	-0,034
-325,372	316,838	0,071	-0,097
-324,358	153,800	-0,078	-0,077
-323,343	-66,506	-0,092	-0,026
-322,329	193,398	0,084	0,091
-321,314	-52,677	-0,143	0,047
-320,299	82,706	0,085	0,066
-319,285	-200,000	0,032	-0,134
-318,270	30,289	0,166	-0,101
-317,256	-200,000	0,041	-0,198
-316,241	-200,000	0,017	-0,099
-315,226	633,670	-0,024	-0,044
-314,212	375,951	0,053	0,078
-313,197	-200,000	0,009	0,104
-312,183	-200,000	0,025	0,081
-311,168	32,727	-0,075	-0,046
-310,153	800,000	-0,022	-0,045
-309,139	66,800	0,052	0,038
-308,124	43,240	0,044	0,029
-307,110	-200,000	-0,032	0,234
-306,095	-83,769	0,148	0,034
-305,080	800,000	0,011	0,025
-304,066	-37,214	0,148	-0,056
-303,051	-17,475	-0,110	-0,049
-302,037	-42,252	-0,105	-0,038
-301,022	24,309	0,039	-0,023
-300,008	-200,000	-0,003	0,040
-298,993	83,568	0,131	0,102
-297,978	-164,394	-0,088	0,003
-296,964	-200,000	0,037	0,152
-295,949	485,809	0,042	-0,069
-294,935	800,000	-0,067	-0,160
-293,920	-200,000	-0,040	0,148
-292,905	226,706	-0,076	0,088
-291,891	-54,516	0,058	0,019
-290,876	238,981	-0,112	0,134
-289,862	176,203	-0,090	0,094
-288,847	764,204	0,024	0,046
-287,832	-200,000	-0,004	0,066
-286,818	-61,251	-0,026	-0,008
-285,803	13,953	0,079	-0,044
-284,789	296,253	0,033	0,043
-283,774	-63,952	-0,108	0,031
-282,759	-200,000	0,012	0,137
-281,745	336,350	0,073	0,101
-280,730	-200,000	-0,016	-0,062
-279,716	20,200	0,047	0,027
-278,701	-56,385	0,076	0,024
-277,686	-200,000	0,066	0,221
-276,672	-200,000	0,016	-0,058
-275,657	-168,388	-0,209	-0,006
-274,643	-146,632	0,033	-0,002
-273,628	41,929	-0,034	-0,022
-272,613	-127,278	0,107	0,011
-271,599	-52,023	-0,067	0,022
-270,584	341,689	-0,011	-0,015
-269,570	-59,755	0,176	0,053
-268,555	80,265	0,038	-0,029
-267,540	-200,000	-0,003	-0,113
-266,526	-7,950	-0,010	-0,005
-265,511	-200,000	-0,009	-0,029
-264,497	17,888	0,015	0,008
-263,482	34,322	0,100	0,062
-262,467	-200,000	0,024	-0,128
-261,453	599,787	0,069	0,123
-260,438	-200,000	0,004	0,057
-259,424	-200,000	-0,036	0,119
-258,409	-200,000	-0,033	-0,112
-257,395	453,818	-0,047	-0,074
-256,380	-31,460	-0,105	-0,042
-255,365	25,885	-0,106	-0,063
-254,351	-121,245	-0,027	0,003
-253,336	-141,042	-0,114	0,008
-252,322	-200,000	0,011	-0,043
-251,307	-26,317	-0,085	0,036
-250,292	-200,000	0,015	-0,059
-249,278	-200,000	0,026	0,182
-248,263	-200,000	0,030	0,131
-247,249	-102,427	-0,074	-0,013
-246,234	36,785	-0,097	-0,061
-245,219	-200,000	0,025	-0,081
-244,205	800,000	-0,027	-0,076
-243,190	132,934	0,057	0,053
-242,176	-200,000	-0,018	-0,093
-241,161	-200,000	-0,015	0,079
-240,146	507,292	0,037	0,061
-239,132	-200,000	-0,035	-0,115
-238,117	800,000	0,050	-0,109
-237,103	-200,000	-0,003	-0,044
-236,088	407,320	-0,030	-0,045
-235,073	-200,000	-0,012	-0,073
-234,059	111,086	-0,054	0,046
-233,044	-200,000	0,001	0,089
-232,030	800,000	0,039	-0,087
-231,015	-200,000	0,024	-0,220
-230,000	539,462	-0,038	-0,065
-228,986	98,223	-0,129	0,106
-227,971	-200,000	0,002	-0,013
-226,957	12,114	-0,102	0,056
-225,942	294,835	0,032	0,042
-224,927	-90,827	-0,015	0,003
-223,913	15,319	0,058	-0,032
-222,898	122,571	0,067	-0,060
-221,884	-200,000	-0,007	-0,049
-220,869	-100,629	-0,204	0,036
-219,855	-19,134	0,036	0,016
-218,840	333,386	0,037	-0,051
-217,825	-200,000	0,000	-0,013
-216,811	-47,950	-0,077	-0,027
-215,796	800,000	0,023	-0,063
-214,782	-67,644	-0,102	0,028
-213,767	61,099	0,039	0,027
-212,752	10,516	-0,119	-0,065
-211,738	-200,000	0,029	0,096
-210,723	-73,368	-0,103	0,027
-209,709	-200,000	0,024	-0,182
-208,694	106,969	-0,082	-0,070
-207,679	-33,350	0,064	-0,025
-206,665	-200,000	0,033	-0,116
-205,650	-200,000	0,026	0,158
-204,636	-127,675	0,028	-0,003
-203,621	7,133	0,055	-0,029
-202,606	23,392	-0,067	-0,039
-201,592	355,585	0,067	-0,095
-200,577	561,698	0,056	-0,097
-199,563	175,741	0,018	-0,018
-198,548	-200,000	0,036	-0,120
-197,533	-30,018	0,145	0,059
-196,519	183,356	-0,042	-0,044
-195,504	491,587	-0,058	0,096
-194,490	22,098	0,101	0,058
-193,475	-153,376	-0,063	0,003
-192,460	-200,000	-0,040	0,154
-191,446	80,345	-0,028	0,022
-190,431	-2,223	0,042	-0,021
-189,417	-200,000	-0,012	0,074
-188,402	-51,893	-0,030	-0,010
-187,387	22,118	-0,058	0,034
-186,373	19,138	-0,040	0,023
-185,358	-200,000	-0,009	-0,071
-184,344	-83,331	0,041	-0,009
-183,329	800,000	-0,059	0,130
-182,315	-90,404	0,110	0,022
-181,300	152,498	0,045	-0,044
-180,285	39,315	0,022	0,014
-179,271	-85,806	-0,159	-0,035
-178,256	260,510	-0,021	0,025
-177,242	193,997	0,020	-0,021
-176,227	800,000	-0,014	0,035
-175,212	800,000	0,059	0,124
-174,198	292,477	-0,047	-0,061
-173,183	-83,898	0,072	0,016
-172,169	800,000	0,111	-0,255
-171,154	-200,000	0,022	-0,200
-170,139	-88,870	0,031	0,007
-169,125	174,213	0,049	0,051
-168,110	800,000	0,039	0,090
-167,096	-14,125	-0,092	0,042
-166,081	-200,000	0,013	-0,112
-165,066	-19,783	-0,092	-0,040
-164,052	254,559	-0,027	-0,033
-163,037	88,100	-0,051	-0,040
-162,023	-200,000	-0,018	-0,129
-161,008	25,185	-0,062	0,036
-159,993	800,000	0,011	0,024
-158,979	-200,000	0,004	-0,133
-157,964	252,722	-0,042	0,052
-156,950	329,926	-0,095	-0,131
-155,935	141,759	0,031	-0,029
-154,920	172,431	0,083	0,084
-153,906	-200,000	0,003	-0,088
-152,891	60,409	0,089	0,062
-151,877	-141,528	-0,072	-0,005
-150,862	-200,000	-0,007	0,025
-149,847	-19,105	-0,083	0,037
-148,833	92,209	-0,040	-0,032
-147,818	188,102	-0,076	-0,081
-146,804	-96,046	0,067	0,013
-145,789	-27,059	0,137	0,057
-144,775	-171,741	-0,035	0,001
-143,760	286,616	0,058	-0,074
-142,745	301,873	-0,056	-0,074
-141,731	184,452	-0,057	0,060
-140,716	-95,963	-0,015	-0,003
-139,702	226,647	0,155	0,179
-138,687	800,000	-0,026	0,067
-137,672	800,000	0,027	-0,079
-136,658	596,579	-0,053	-0,094
-135,643	140,932	-0,083	-0,078
-134,629	-100,395	0,109	-0,019
-133,614	-200,000	0,027	0,148
-132,599	271,192	-0,021	0,027
-131,585	800,000	0,035	-0,070
-130,570	-6,968	0,168	-0,081
-129,556	56,804	-0,151	-0,105
-128,541	111,937	-0,109	-0,093
-127,526	172,689	-0,081	-0,083
-126,512	-136,123	0,079	-0,006
-125,497	-80,693	0,054	0,013
-124,483	-102,756	-0,069	0,011
-123,468	78,008	-0,060	-0,045
-122,453	-148,868	0,091	-0,005
-121,439	244,894	-0,041	-0,048
-120,424	-166,248	0,130	0,004
-119,410	-96,811	0,078	-0,014
-118,395	-200,000	0,033	0,108
-117,380	-200,000	0,012	0,157
-116,366	295,008	-0,104	0,135
-115,351	290,870	0,035	-0,046
-114,337	381,867	-0,116	-0,170
-113,322	-9,695	0,089	-0,042
-112,307	86,051	-0,047	0,037
-111,293	-200,000	0,038	0,175
-110,278	-200,000	0,021	0,116
-109,264	151,446	-0,162	0,156
-108,249	-200,000	-0,047	-0,155
-107,234	403,918	-0,063	-0,094
-106,220	-200,000	0,033	0,160
-105,205	-200,000	0,003	0,019
-104,191	173,785	0,082	0,084
-103,176	-200,000	0,014	0,083
-102,162	52,739	0,082	0,056
-101,147	-1,697	-0,065	0,032
-100,132	-200,000	0,017	-0,054
-99,118	-62,173	-0,077	-0,023
-98,103	800,000	-0,032	-0,095
-97,089	-71,209	0,074	-0,020
-96,074	-150,721	0,127	0,007
-95,059	119,253	0,052	-0,045
-94,045	685,954	-0,004	-0,007
-93,030	800,000	0,132	-0,314
-92,016	269,478	-0,128	-0,160
-91,001	308,559	0,075	-0,100
-89,986	800,000	0,026	-0,079
-88,972	190,487	0,054	0,058
-87,957	-1,487	0,050	0,025
-86,943	-112,227	0,165	-0,023
-85,928	402,381	-0,079	0,118
-84,913	-80,755	0,051	0,012
-83,899	800,000	0,044	-0,112
-82,884	439,527	-0,050	0,078
-81,870	164,548	-0,085	0,085
-80,855	-200,000	-0,010	0,086
-79,840	235,386	0,037	-0,043
-78,826	-200,000	-0,035	0,111
-77,811	-200,000	-0,002	0,013
-76,797	371,455	0,081	-0,116
-75,782	-55,455	0,031	0,010
-74,767	92,407	-0,059	0,047
-73,753	-26,520	0,015	0,006
-72,738	800,000	-0,051	-0,110
-71,724	1,791	-0,044	-0,022
-70,709	208,139	-0,067	0,074
-69,694	-200,000	-0,049	-0,187
-68,680	-200,000	-0,007	0,073
-67,665	800,000	0,030	0,077
-66,651	-200,000	-0,003	0,009
-65,636	-200,000	-0,017	-0,221
-64,622	119,949	-0,050	-0,044
-63,607	-200,000	-0,023	-0,114
-62,592	307,136	0,019	0,025
-61,578	155,935	-0,069	0,067
-60,563	800,000	0,043	0,096
-59,549	14,577	-0,163	0,090
-58,534	-28,181	-1,610	-0,656
-57,519	420,603	-1,296	-1,974
-56,505	-200,000	-0,562	-4,524
-55,490	243,767	0,991	1,179
-54,476	800,000	4,786	11,134
-53,461	-200,000	19,168	319,989
-52,446	-200,000	741,032	2334,675
-51,432	572,751	1656,061	2869,556
-50,417	78,378	1671,649	1263,083
-49,403	21,369	1544,794	886,673
-48,388	15,280	1467,060	812,422
-47,373	17,968	1457,332	820,006
-46,359	16,699	1447,358	808,270
-45,344	13,486	1442,826	790,301
-44,330	13,403	1440,923	788,827
-43,315	13,420	1439,054	787,858
-42,300	13,459	1437,193	786,995
-41,286	13,440	1435,954	786,194
-40,271	13,360	1434,868	785,187
-39,257	13,391	1433,364	784,478
-38,242	13,455	1432,233	784,134
-37,227	13,452	1431,105	783,471
-36,213	13,444	1429,658	782,608
-35,198	13,465	1428,549	782,069
-34,184	13,503	1427,481	781,636
-33,169	13,449	1426,186	780,637
-32,154	13,484	1425,166	780,218
-31,140	13,455	1423,893	779,352
-30,125	13,508	1422,918	779,035
-29,111	13,459	1421,645	778,078
-28,096	13,436	1420,602	777,366
-27,082	13,400	1419,438	776,528
-26,067	13,420	1418,312	775,975
-25,052	13,379	1417,276	775,186
-24,038	13,365	1416,268	774,538
-23,023	13,342	1415,327	773,885
-22,009	13,383	1414,157	773,405
-20,994	13,380	1413,393	772,946
-19,979	13,353	1412,585	772,345
-18,965	13,334	1411,474	771,618
-17,950	13,358	1410,434	771,130
-16,936	13,352	1409,558	770,592
-15,921	13,317	1408,297	769,711
-14,906	13,304	1407,577	769,225
-13,892	13,327	1406,577	768,757
-12,877	13,321	1405,752	768,247
-11,863	13,326	1404,828	767,732
-10,848	13,271	1404,044	767,016
-9,833	13,234	1403,248	766,379
-8,819	13,236	1402,336	765,860
-7,804	13,193	1401,506	765,176
-6,790	13,220	1400,078	764,493
-5,775	13,264	1399,159	764,166
-4,760	13,242	1398,178	763,494
-3,746	13,212	1397,334	762,864
-2,731	13,184	1396,704	762,363
-1,717	13,146	1395,859	761,696
-0,702	13,174	1393,911	760,732
0,313	17,025	1310,571	733,095
1,327	33,283	704,049	431,424
2,342	51,331	123,351	82,748
3,356	2,912	16,728	8,567
4,371	-0,805	3,302	1,650
5,386	-0,920	0,542	0,270
6,400	-200,000	0,006	0,172
7,415	234,208	-0,179	-0,209
8,429	-37,700	-0,293	-0,110
9,444	65,991	-0,450	-0,322
10,459	182,028	-0,148	-0,154
11,473	-18,760	-0,440	-0,193
12,488	170,777	-0,265	-0,269
13,502	118,890	-0,310	-0,271
14,517	68,130	-0,248	-0,179
15,531	51,558	-0,510	-0,342
16,546	77,168	-0,304	-0,228
17,561	197,573	-0,285	-0,308
18,575	26,064	-0,276	-0,162
19,590	365,178	-0,209	-0,298
20,604	800,000	-0,099	-0,236
21,619	87,558	-0,524	-0,410
22,634	93,814	-0,402	-0,322
23,648	130,617	-0,277	-0,251
24,663	43,563	-0,440	-0,284
25,677	43,644	-0,382	-0,247
26,692	81,007	-0,275	-0,209
27,707	62,836	-0,370	-0,261
28,721	43,485	-0,423	-0,272
29,736	75,620	-0,398	-0,296
30,750	75,780	-0,457	-0,341
31,765	33,019	-0,377	-0,230
32,780	18,790	-0,414	-0,234
33,794	34,795	-0,264	-0,163
34,809	-5,224	-0,354	-0,171
35,823	28,031	-0,417	-0,248
36,838	14,844	-0,398	-0,219
37,853	120,086	-0,303	-0,265
38,867	163,122	-0,400	-0,397
39,882	10,619	-0,356	-0,191
40,896	44,504	-0,412	-0,267
41,911	625,966	-0,182	-0,325
42,926	220,611	-0,298	-0,338
43,940	56,036	-0,317	-0,216
44,955	67,085	-0,449	-0,322
45,969	398,216	-0,227	-0,336
46,984	267,254	-0,302	-0,373
47,999	26,037	-0,299	-0,175
49,013	-69,930	-0,167	-0,044
50,028	306,828	-0,268	-0,352
51,042	165,483	-0,348	-0,347
52,057	-73,050	-0,343	-0,088
53,071	-33,893	-0,346	-0,134
54,086	229,658	-0,316	-0,364
55,101	295,675	-0,259	-0,335
56,115	68,338	-0,369	-0,266
57,130	114,200	-0,362	-0,311
58,144	50,245	-0,397	-0,264
59,159	53,726	-0,373	-0,252
60,174	-62,680	-0,474	-0,137
61,188	149,875	-0,270	-0,258
62,203	24,188	-0,394	-0,228
63,217	24,303	-0,252	-0,146
64,232	279,509	-0,228	-0,287
65,247	88,177	-0,406	-0,317
66,261	107,225	-0,338	-0,283
67,276	-21,760	-0,513	-0,219
68,290	111,587	-0,363	-0,308
69,305	245,432	-0,276	-0,328
70,320	113,734	-0,331	-0,283
71,334	28,292	-0,328	-0,195
72,349	-59,181	-0,311	-0,094
73,363	50,953	-0,295	-0,196
74,378	25,508	-0,406	-0,237
75,393	50,891	-0,338	-0,225
76,407	72,407	-0,240	-0,175
77,422	-18,349	-0,337	-0,148
78,436	32,074	-0,309	-0,187
79,451	-8,327	-0,257	-0,121
80,466	-41,716	-0,411	-0,147
81,480	-48,139	-0,334	-0,113
82,495	118,317	-0,223	-0,194
83,509	171,411	-0,239	-0,241
84,524	-23,366	-0,356	-0,150
85,539	56,299	-0,355	-0,242
86,553	-39,220	-0,309	-0,113
87,568	116,499	-0,311	-0,268
88,582	357,859	-0,209	-0,294
89,597	-190,015	-0,339	-0,003
90,611	43,510	-0,312	-0,200
91,626	139,757	-0,215	-0,199
92,641	23,617	-0,353	-0,204
93,655	-67,407	-0,235	-0,064
94,670	-2,696	-0,370	-0,181
95,684	51,082	-0,372	-0,247
96,699	-34,180	-0,383	-0,147
97,714	101,666	-0,229	-0,187
98,728	72,923	-0,237	-0,173
99,743	-108,661	-0,247	0,037
100,757	0,727	-0,201	-0,100
101,772	-20,349	-0,253	-0,109
102,787	32,357	-0,349	-0,211
103,801	4,974	-0,184	-0,095
104,816	-24,729	-0,246	-0,102
105,830	25,425	-0,197	-0,115
106,845	255,114	-0,167	-0,201
107,860	59,457	-0,277	-0,191
108,874	-78,657	-0,330	-0,078
109,889	395,959	-0,172	-0,253
110,903	52,360	-0,277	-0,185
111,918	47,905	-0,241	-0,158
112,933	84,998	-0,273	-0,209
113,947	39,320	-0,216	-0,135
114,962	517,736	-0,161	-0,265
115,976	-50,334	-0,240	-0,079
116,991	211,791	-0,176	-0,195
118,006	218,307	-0,184	-0,206
119,020	177,289	-0,125	-0,127
120,035	129,580	-0,186	-0,166
121,049	145,755	-0,186	-0,175
122,064	-53,948	-0,170	-0,054
123,079	47,605	-0,167	-0,109
124,093	46,609	-0,331	-0,215
125,108	138,681	-0,200	-0,184
126,122	83,380	-0,254	-0,193
127,137	175,876	-0,266	-0,270
128,151	54,795	-0,188	-0,127
129,166	-66,207	-0,254	-0,070
130,181	266,465	-0,110	-0,135
131,195	126,367	-0,315	-0,279
132,210	190,138	-0,331	-0,348
133,224	86,623	-0,221	-0,171
134,239	22,201	-0,188	-0,107
135,254	23,253	-0,240	-0,138
136,268	249,257	-0,249	-0,296
137,283	45,942	-0,253	-0,164
138,297	134,496	-0,273	-0,248
139,312	19,423	-0,278	-0,156
140,327	34,201	-0,236	-0,144
141,341	132,617	-0,166	-0,149
142,356	378,251	-0,153	-0,219
143,370	20,574	-0,244	-0,138
144,385	-111,327	-0,236	-0,033
145,400	-118,957	-0,244	0,030
146,414	80,278	-0,221	-0,166
147,429	110,038	-0,256	-0,215
148,443	236,282	-0,198	-0,229
149,458	27,354	-0,280	-0,164
150,473	369,921	-0,058	-0,082
151,487	-109,140	-0,165	-0,024
152,502	81,843	-0,158	-0,119
153,516	14,309	-0,295	-0,160
154,531	122,098	-0,187	-0,163
155,546	44,960	-0,343	-0,220
156,560	15,646	-0,284	-0,155
157,575	-57,441	-0,249	-0,076
158,589	61,448	-0,117	-0,081
159,604	-69,528	-0,226	-0,060
160,619	39,296	-0,222	-0,139
161,633	-104,624	-0,454	-0,072
162,648	-83,146	-0,327	-0,073
163,662	-119,977	-0,278	-0,033
164,677	58,679	-0,231	-0,158
165,692	536,021	-0,132	-0,220
166,706	96,751	-0,259	-0,207
167,721	131,516	-0,331	-0,297
168,735	23,579	-0,247	-0,141
169,750	800,000	-0,093	-0,232
170,764	35,560	-0,288	-0,176
171,779	54,659	-0,153	-0,102
172,794	71,669	-0,142	-0,103
173,808	52,354	-0,279	-0,185
174,823	-109,028	-0,361	-0,053
175,837	20,357	-0,181	-0,102
176,852	56,380	-0,230	-0,156
177,867	100,424	-0,218	-0,176
178,881	38,393	-0,207	-0,128
179,896	-145,743	-0,193	0,012
180,910	90,073	-0,279	-0,217
181,925	-61,660	-0,235	0,068
182,940	0,272	-0,261	-0,129
183,954	454,803	-0,150	-0,233
184,969	24,876	-0,231	-0,133
185,983	309,319	-0,126	-0,165
186,998	122,979	-0,158	-0,138
188,013	590,544	-0,134	-0,231
189,027	42,345	-0,323	-0,204
190,042	265,727	-0,170	-0,207
191,056	139,604	-0,102	-0,094
192,071	800,000	-0,073	-0,211
193,086	10,776	-0,165	-0,087
194,100	-33,200	-0,150	-0,057
195,115	-27,078	-0,251	-0,102
196,129	-17,818	-0,269	-0,117
197,144	202,587	-0,238	-0,256
198,159	243,684	-0,176	-0,206
199,173	-200,000	-0,063	-0,201
200,188	-75,344	-0,230	-0,057
201,202	457,477	-0,121	-0,187
202,217	47,562	-0,241	-0,156
203,232	21,259	-0,171	-0,096
204,246	221,224	-0,306	-0,342
205,261	-94,442	-0,142	0,027
206,275	214,095	-0,170	-0,187
207,290	234,590	-0,130	-0,149
208,304	-76,720	-0,149	-0,036
209,319	-44,125	-0,220	-0,076
210,334	8,380	-0,250	-0,130
211,348	-49,289	-0,160	-0,053
212,363	281,407	-0,171	-0,213
213,377	129,353	-0,246	-0,218
214,392	247,479	-0,195	-0,229
215,407	-154,072	-0,156	0,007
216,421	-36,605	-0,208	-0,077
217,436	-33,872	-0,294	-0,112
218,450	26,449	-0,207	-0,120
219,465	84,638	-0,283	-0,215
220,480	179,380	-0,172	-0,175
221,494	82,835	-0,232	-0,175
222,509	800,000	-0,050	-0,140
223,523	-75,638	-0,168	-0,041
224,538	144,987	-0,142	-0,132
225,553	441,503	-0,035	-0,054
226,567	-72,197	-0,229	-0,059
227,582	223,395	-0,094	-0,105
228,596	33,598	-0,209	-0,126
229,611	234,456	-0,169	-0,193
230,626	126,340	-0,239	-0,209
231,640	-46,527	-0,199	-0,067
232,655	56,991	-0,184	-0,124
233,669	281,431	-0,095	-0,118
234,684	178,799	-0,183	-0,186
235,699	125,962	-0,138	-0,121
236,713	287,446	-0,082	-0,104
237,728	493,383	-0,054	-0,087
238,742	342,986	-0,084	-0,115
239,757	-55,905	-0,113	-0,035
240,772	254,596	-0,207	-0,246
241,786	-2,783	-0,248	-0,120
242,801	214,954	-0,179	-0,197
243,815	800,000	-0,107	-0,230
244,830	7,385	-0,144	-0,074
245,844	-131,459	-0,232	-0,021
246,859	96,951	-0,216	-0,171
247,874	90,195	-0,233	-0,180
248,888	-27,682	-0,188	-0,075
249,903	-10,474	-0,186	-0,085
250,917	131,042	-0,070	-0,063
251,932	-200,000	-0,022	-0,125
252,947	169,534	-0,154	-0,152
253,961	-124,885	-0,261	-0,028
254,976	199,259	-0,140	-0,149
255,990	-13,810	-0,208	-0,093
257,005	-68,303	-0,202	-0,054
258,020	800,000	-0,053	-0,112
259,034	62,217	-0,183	-0,126
260,049	484,846	-0,094	-0,149
261,063	-20,053	-0,193	-0,082
262,078	43,659	-0,262	-0,165
263,093	67,809	-0,094	-0,067
264,107	218,729	-0,163	-0,180
265,122	56,331	-0,169	-0,113
266,136	-20,320	-0,068	-0,029
267,151	13,421	-0,303	-0,162
268,166	-1,987	-0,209	-0,101
269,180	202,132	-0,181	-0,193
270,195	36,215	-0,141	-0,086
271,209	69,014	-0,213	-0,151
272,224	117,417	-0,150	-0,128
273,239	-101,459	-0,210	0,035
274,253	-46,246	-0,243	-0,082
275,268	35,084	-0,185	-0,112
276,282	118,353	-0,272	-0,232
277,297	72,502	-0,214	-0,154
278,312	11,472	-0,200	-0,106
279,326	259,145	-0,136	-0,162
280,341	-200,000	-0,017	-0,080
281,355	-102,274	-0,143	-0,024
282,370	-62,152	-0,129	-0,037
283,384	-26,288	-0,231	0,093
284,399	-75,493	-0,229	-0,056
285,414	-75,340	-0,193	-0,047
286,428	-200,000	-0,013	-0,094
287,443	289,683	-0,094	-0,117
288,457	72,103	-0,124	-0,089
289,472	122,666	-0,163	-0,141
290,487	115,332	-0,185	-0,156
291,501	-32,459	-0,191	-0,073
292,516	-33,593	-0,166	-0,063
293,530	-1,722	-0,136	-0,066
294,545	-23,395	-0,196	-0,081
295,560	35,472	-0,170	-0,103
296,574	-89,076	-0,230	-0,047
297,589	-43,358	-0,170	-0,059
298,603	368,898	-0,162	-0,226
299,618	24,163	-0,261	-0,148
300,633	-134,267	-0,115	0,010
301,647	20,602	-0,239	-0,133
302,662	269,965	-0,119	0,145
303,676	4,766	-0,148	-0,075
304,691	-17,816	-0,169	-0,073
305,706	364,970	-0,054	-0,075
306,720	-200,000	-0,026	-0,170
307,735	-34,650	-0,146	-0,055
308,749	800,000	-0,031	-0,086
309,764	-143,089	-0,067	-0,004
310,779	321,938	-0,115	-0,151
311,793	0,944	-0,156	-0,077
312,808	133,730	-0,201	-0,180
313,822	418,692	-0,090	-0,133
314,837	160,554	-0,183	-0,176
315,852	70,900	-0,267	-0,190
316,866	-200,000	0,013	-0,071
317,881	800,000	-0,066	-0,145
318,895	20,861	-0,107	-0,059
319,910	6,178	-0,137	-0,070
320,925	441,419	-0,120	-0,181
321,939	-81,622	-0,139	-0,031
322,954	7,770	-0,234	-0,120
323,968	189,799	-0,094	-0,097
324,983	362,018	-0,129	-0,179
325,997	-43,586	-0,172	-0,059
327,012	-140,893	-0,194	-0,014
328,027	373,476	-0,116	-0,163
329,041	20,498	-0,077	-0,043
330,056	741,492	-0,063	-0,116
331,070	800,000	-0,128	-0,257
332,085	-168,384	-0,120	-0,003
333,100	289,667	-0,103	-0,129
334,114	-200,000	0,030	-0,112
335,129	102,692	-0,147	-0,118
336,143	28,952	-0,146	-0,085
337,158	349,673	-0,060	-0,082
338,173	2,177	-0,127	-0,063
339,187	-35,054	-0,026	-0,010
340,202	-132,930	-0,168	0,015
341,216	32,989	-0,091	-0,054
342,231	-200,000	-0,001	-0,022
343,246	118,189	-0,114	0,096
344,260	-98,164	-0,126	-0,022
345,275	117,289	-0,123	-0,104
346,289	-200,000	-0,051	-0,184
347,304	-85,843	-0,145	0,031
348,319	-133,841	-0,242	-0,020
349,333	27,307	-0,114	-0,065
350,348	-36,285	-0,118	0,043
351,362	-78,961	-0,206	-0,048
352,377	394,741	-0,033	-0,048
353,392	-99,567	-0,099	-0,017
354,406	800,000	-0,025	-0,063
355,421	207,020	1315,105	1408,379
356,435	159,236	1475,855	1408,860
