DTS Sentinel unit serial number:	SN410029Multiplexer serial number:	ORYXHardware model number:	OX2-SRSoftware version number:	ORYX F/W v4,00 Oryx Data Collector v3.7.2.0data status	okinstallation	B3 Nyhavnadifferential loss correction	single-endedforward channel	channel 1reverse channel	N/Adate	2023/12/01time	07:37:30forward acquisition time	300,00reverse acquisition time	0,00gamma	499,1914k internal	0,3212k external	0,3212temperature offset calibration	1,0000default loss term (dB/km)	0,3820temperature slope calibration	1,0000multiplexer offset coefficient	1,0000multiplexer slope coefficient	1,0000fibre end	0,00T internal ref (°C)	8,07T ext. ref 1 (°C)	-6,27T ext. ref 2 (°C)	-6,43length (m)	temperature (°C)	Stokes	anti-Stokes-744,400	102,072	-0,166	-0,140
-743,385	-200,000	0,007	0,299
-742,371	361,801	-0,137	-0,200
-741,356	-200,000	0,064	0,307
-740,342	323,655	-0,252	-0,349
-739,327	-200,000	-0,001	0,151
-738,312	228,919	-0,217	-0,257
-737,298	-200,000	-0,058	0,399
-736,283	217,098	-0,150	-0,173
-735,269	-200,000	-0,017	0,367
-734,254	800,000	-0,123	-0,251
-733,239	-33,481	-0,273	0,109
-732,225	435,787	-0,146	-0,230
-731,210	46,533	0,211	0,142
-730,196	34,247	-0,129	-0,081
-729,181	-59,476	-0,076	0,024
-728,167	-3,787	0,064	-0,032
-727,152	-200,000	0,008	-0,039
-726,137	5,858	-0,079	-0,042
-725,123	-68,482	0,135	0,038
-724,108	800,000	-0,053	-0,114
-723,094	5,578	0,062	0,033
-722,079	-200,000	-0,015	-0,152
-721,064	-200,000	-0,016	-0,110
-720,050	731,849	-0,022	-0,043
-719,035	-150,973	-0,152	-0,008
-718,021	398,584	0,028	-0,042
-717,006	-100,970	-0,096	0,017
-715,991	-200,000	-0,041	-0,153
-714,977	-95,475	-0,099	0,019
-713,962	165,352	-0,012	-0,013
-712,948	346,051	0,020	-0,028
-711,933	106,805	0,040	0,034
-710,918	721,586	-0,032	0,063
-709,904	-200,000	-0,029	-0,188
-708,889	-115,752	-0,071	-0,010
-707,875	166,456	-0,150	-0,154
-706,860	115,702	-0,075	-0,067
-705,845	-200,000	0,023	-0,136
-704,831	800,000	0,082	0,173
-703,816	-146,035	-0,070	-0,004
-702,802	710,250	-0,103	-0,197
-701,787	116,729	0,020	-0,017
-700,772	800,000	-0,082	-0,200
-699,758	750,688	-0,063	-0,123
-698,743	-93,477	0,038	0,007
-697,729	738,173	0,068	0,133
-696,714	-200,000	-0,017	0,067
-695,699	-200,000	-0,013	0,075
-694,685	-49,674	-0,115	-0,039
-693,670	-169,455	0,082	-0,002
-692,656	800,000	-0,029	0,081
-691,641	-101,713	-0,097	0,017
-690,627	5,008	-0,144	0,076
-689,612	47,279	-0,089	-0,060
-688,597	-200,000	0,011	0,060
-687,583	-16,362	-0,129	0,059
-686,568	316,673	0,050	-0,069
-685,554	-200,000	0,003	-0,072
-684,539	-87,843	0,130	-0,028
-683,524	545,698	0,088	0,152
-682,510	198,165	-0,045	-0,050
-681,495	100,943	-0,102	0,086
-680,481	-200,000	0,009	-0,108
-679,466	-200,000	-0,001	-0,180
-678,451	-200,000	-0,008	-0,201
-677,437	-49,495	-0,090	0,031
-676,422	-200,000	0,028	0,109
-675,408	-200,000	0,026	-0,147
-674,393	-200,000	-0,030	-0,151
-673,378	6,352	0,149	-0,080
-672,364	800,000	-0,046	-0,115
-671,349	800,000	0,032	-0,069
-670,335	-46,615	-0,052	-0,018
-669,320	-200,000	-0,015	0,099
-668,305	-200,000	0,003	-0,051
-667,291	271,277	-0,080	-0,102
-666,276	800,000	-0,035	-0,070
-665,262	-105,242	-0,147	-0,024
-664,247	-61,261	-0,086	-0,026
-663,232	-119,816	0,062	-0,008
-662,218	800,000	-0,066	0,134
-661,203	300,105	0,034	0,046
-660,189	-200,000	-0,000	-0,014
-659,174	97,560	-0,076	-0,063
-658,159	23,658	-0,065	0,039
-657,145	-126,980	-0,114	0,012
-656,130	800,000	-0,072	-0,158
-655,116	-21,900	-0,103	0,045
-654,101	4,790	0,019	0,010
-653,086	-200,000	0,012	0,053
-652,072	-9,759	-0,043	-0,020
-651,057	800,000	-0,027	0,058
-650,043	159,647	-0,103	-0,104
-649,028	-61,840	-0,046	-0,014
-648,014	-200,000	0,006	0,025
-646,999	-68,265	0,045	-0,012
-645,984	-21,837	-0,046	-0,020
-644,970	117,498	-0,120	-0,107
-643,955	800,000	0,031	-0,071
-642,941	800,000	0,013	-0,032
-641,926	292,541	0,073	0,096
-640,911	207,191	-0,035	-0,039
-639,897	-200,000	0,040	0,218
-638,882	-22,685	-0,089	0,039
-637,868	-200,000	0,012	-0,097
-636,853	128,117	0,090	-0,083
-635,838	54,291	0,075	0,052
-634,824	-200,000	0,008	-0,110
-633,809	800,000	-0,013	0,034
-632,795	359,605	0,071	0,103
-631,780	-200,000	0,026	0,106
-630,765	-200,000	-0,004	0,026
-629,751	295,815	0,098	-0,130
-628,736	55,966	-0,101	-0,070
-627,722	336,016	-0,047	-0,066
-626,707	380,221	-0,041	0,061
-625,692	350,007	-0,069	0,099
-624,678	800,000	-0,052	0,119
-623,663	800,000	0,043	0,124
-622,649	127,238	-0,072	-0,066
-621,634	-200,000	0,015	-0,095
-620,619	-83,384	0,053	-0,012
-619,605	49,677	-0,127	-0,086
-618,590	409,087	0,043	-0,066
-617,576	800,000	0,025	0,079
-616,561	263,551	0,061	-0,077
-615,546	190,168	0,061	0,066
-614,532	800,000	-0,036	-0,094
-613,517	105,691	0,113	0,096
-612,503	107,947	0,080	-0,069
-611,488	20,920	0,129	-0,075
-610,474	-59,712	0,160	0,049
-609,459	800,000	-0,033	-0,072
-608,444	-178,966	-0,073	-0,001
-607,430	-200,000	-0,004	-0,079
-606,415	-77,077	-0,105	0,026
-605,401	-200,000	0,018	0,146
-604,386	-200,000	-0,013	-0,078
-603,371	-200,000	0,014	0,089
-602,357	392,102	-0,033	0,050
-601,342	800,000	0,018	0,040
-600,328	-38,792	-0,146	-0,055
-599,313	59,033	-0,051	-0,036
-598,298	710,381	-0,032	-0,062
-597,284	348,437	-0,064	0,092
-596,269	110,276	0,058	-0,050
-595,255	-200,000	-0,006	0,071
-594,240	-117,840	0,072	0,009
-593,225	-200,000	-0,031	-0,135
-592,211	-200,000	0,004	0,043
-591,196	-25,922	0,072	-0,030
-590,182	800,000	-0,045	0,112
-589,167	186,009	0,024	0,026
-588,152	-200,000	0,034	0,131
-587,138	-38,500	0,121	0,046
-586,123	129,273	-0,055	0,050
-585,109	-200,000	0,005	-0,164
-584,094	-81,720	0,109	-0,026
-583,079	-83,977	0,153	-0,035
-582,065	383,395	0,022	0,033
-581,050	560,817	-0,057	0,099
-580,036	-200,000	-0,029	0,123
-579,021	91,894	-0,080	-0,065
-578,006	-200,000	0,030	-0,121
-576,992	24,499	-0,012	0,007
-575,977	82,126	0,052	-0,041
-574,963	-79,381	-0,101	0,024
-573,948	10,106	-0,070	-0,038
-572,934	405,306	-0,087	0,132
-571,919	26,038	0,040	-0,024
-570,904	800,000	-0,103	-0,265
-569,890	239,699	-0,109	-0,131
-568,875	-152,480	0,029	-0,001
-567,861	21,572	-0,051	-0,030
-566,846	-119,358	0,103	0,013
-565,831	56,509	-0,108	0,075
-564,817	800,000	0,032	0,081
-563,802	70,592	-0,060	-0,045
-562,788	349,995	-0,039	0,055
-561,773	-145,602	0,046	0,003
-560,758	131,911	0,050	0,046
-559,744	-123,309	0,086	-0,010
-558,729	134,162	-0,104	0,097
-557,715	18,008	0,057	-0,033
-556,700	75,746	-0,071	-0,054
-555,685	298,898	-0,042	0,056
-554,671	171,845	0,096	-0,099
-553,656	-200,000	0,003	0,089
-552,642	102,125	-0,028	0,024
-551,627	317,905	-0,019	0,026
-550,612	-110,169	-0,099	0,015
-549,598	-126,632	-0,058	-0,006
-548,583	-27,904	-0,168	-0,070
-547,569	0,762	0,079	-0,041
-546,554	147,172	0,045	-0,044
-545,539	-78,808	-0,025	-0,006
-544,525	189,986	-0,018	0,019
-543,510	-103,396	-0,147	0,025
-542,496	-200,000	0,027	-0,146
-541,481	395,085	-0,007	-0,010
-540,466	-117,382	0,091	-0,012
-539,452	800,000	0,015	0,041
-538,437	188,891	0,086	-0,093
-537,423	-200,000	0,025	0,150
-536,408	205,791	-0,032	-0,036
-535,393	-43,725	-0,082	-0,029
-534,379	225,344	-0,054	-0,063
-533,364	-148,292	0,051	-0,003
-532,350	-200,000	0,008	-0,045
-531,335	103,131	-0,134	-0,113
-530,321	101,647	-0,023	-0,020
-529,306	-42,409	0,131	0,048
-528,291	-42,756	0,097	-0,035
-527,277	-200,000	0,022	0,084
-526,262	238,422	-0,026	0,031
-525,248	-83,759	-0,011	0,002
-524,233	-110,123	0,047	0,007
-523,218	-101,996	0,132	0,023
-522,204	800,000	-0,014	0,036
-521,189	-200,000	-0,004	-0,018
-520,175	333,006	0,019	0,027
-519,160	-133,422	-0,059	-0,005
-518,145	200,295	0,056	0,062
-517,131	205,948	0,103	0,115
-516,116	109,786	0,032	-0,028
-515,102	-200,000	-0,000	-0,038
-514,087	800,000	-0,044	0,091
-513,072	-84,066	0,075	-0,017
-512,058	8,382	-0,086	-0,047
-511,043	627,187	-0,058	-0,105
-510,029	431,771	0,011	0,017
-509,014	-62,211	-0,126	0,038
-507,999	-49,275	0,094	-0,032
-506,985	-78,508	-0,054	-0,013
-505,970	800,000	-0,058	0,121
-504,956	-200,000	0,010	-0,065
-503,941	800,000	-0,045	0,106
-502,926	280,212	-0,050	0,065
-501,912	111,037	0,039	-0,034
-500,897	-3,827	-0,103	0,051
-499,883	-200,000	-0,005	0,032
-498,868	-102,861	-0,034	-0,006
-497,853	33,974	-0,164	0,102
-496,839	372,721	-0,021	0,031
-495,824	-72,632	0,134	0,035
-494,810	551,680	0,041	-0,071
-493,795	337,015	0,074	0,103
-492,781	800,000	-0,031	-0,066
-491,766	336,505	-0,022	-0,031
-490,751	101,518	-0,084	-0,071
-489,737	193,510	-0,089	0,096
-488,722	800,000	0,027	0,084
-487,708	-106,546	0,072	0,011
-486,693	66,323	-0,123	0,089
-485,678	68,887	-0,053	0,039
-484,664	101,334	0,078	-0,065
-483,649	-200,000	0,009	0,061
-482,635	672,237	0,024	-0,045
-481,620	-12,848	0,067	-0,031
-480,605	-200,000	0,053	0,179
-479,591	-200,000	0,012	0,066
-478,576	800,000	-0,027	0,074
-477,562	-69,388	-0,212	0,058
-476,547	-5,155	0,133	-0,065
-475,532	371,407	-0,035	-0,051
-474,518	1,119	-0,077	-0,039
-473,503	-200,000	0,003	-0,029
-472,489	-200,000	-0,026	-0,094
-471,474	800,000	0,026	-0,057
-470,459	-49,780	-0,092	0,031
-469,445	2,800	-0,043	0,022
-468,430	800,000	0,017	-0,047
-467,416	221,558	-0,105	0,121
-466,401	128,950	0,102	0,093
-465,386	80,845	-0,212	-0,164
-464,372	5,457	-0,101	0,053
-463,357	-200,000	0,035	0,127
-462,343	800,000	-0,074	-0,179
-461,328	-200,000	-0,003	-0,139
-460,313	673,645	0,073	0,137
-459,299	54,329	0,019	-0,013
-458,284	8,355	0,097	0,052
-457,270	-174,792	-0,100	0,002
-456,255	-200,000	-0,002	-0,044
-455,241	-30,580	0,081	0,033
-454,226	-76,969	0,065	0,016
-453,211	-200,000	-0,002	0,026
-452,197	-200,000	0,025	0,083
-451,182	15,325	0,032	0,018
-450,168	800,000	-0,030	-0,077
-449,153	71,323	0,027	-0,020
-448,138	-22,864	-0,083	-0,036
-447,124	-200,000	-0,012	-0,114
-446,109	47,649	-0,078	-0,052
-445,095	-200,000	-0,009	-0,052
-444,080	800,000	0,009	-0,027
-443,065	263,621	0,087	0,108
-442,051	51,124	-0,056	-0,038
-441,036	-200,000	-0,014	-0,113
-440,022	429,531	-0,093	-0,144
-439,007	800,000	0,035	-0,080
-437,992	-200,000	0,044	-0,163
-436,978	-114,247	0,095	-0,013
-435,963	73,745	0,020	-0,015
-434,949	10,732	-0,117	0,064
-433,934	19,202	-0,045	-0,026
-432,919	-19,588	-0,040	0,018
-431,905	236,175	0,075	0,089
-430,890	-200,000	-0,041	0,151
-429,876	190,517	0,092	-0,099
-428,861	628,591	0,028	0,050
-427,846	-200,000	0,007	-0,026
-426,832	-95,745	0,156	-0,030
-425,817	-200,000	-0,011	-0,054
-424,803	-200,000	-0,005	0,163
-423,788	249,532	0,055	-0,067
-422,773	-200,000	0,021	0,127
-421,759	-200,000	-0,006	0,096
-420,744	-93,461	-0,086	-0,017
-419,730	-67,065	0,175	0,049
-418,715	488,099	0,051	-0,084
-417,701	259,668	-0,026	0,033
-416,686	10,466	0,095	0,052
-415,671	-52,741	0,026	-0,009
-414,657	-200,000	0,013	0,137
-413,642	800,000	-0,006	0,016
-412,628	-200,000	0,031	-0,153
-411,613	50,566	0,124	-0,084
-410,598	376,612	-0,062	0,091
-409,584	-200,000	-0,027	-0,141
-408,569	-96,641	0,100	0,019
-407,555	-200,000	-0,014	0,069
-406,540	-68,186	-0,072	0,020
-405,525	800,000	0,024	-0,063
-404,511	800,000	-0,079	-0,168
-403,496	800,000	-0,029	-0,085
-402,482	-200,000	-0,018	-0,059
-401,467	800,000	-0,015	-0,041
-400,452	12,774	0,030	0,017
-399,438	-44,439	0,014	0,005
-398,423	-200,000	0,019	-0,120
-397,409	693,281	0,049	0,092
-396,394	-53,216	-0,055	-0,018
-395,379	800,000	-0,035	-0,077
-394,365	561,635	0,047	-0,081
-393,350	271,988	-0,123	0,155
-392,336	81,607	0,153	0,118
-391,321	-58,724	-0,129	0,040
-390,306	66,369	-0,135	-0,098
-389,292	-74,458	0,051	0,013
-388,277	359,521	-0,042	0,061
-387,263	-200,000	0,012	0,069
-386,248	-200,000	-0,017	-0,094
-385,233	281,095	0,038	0,049
-384,219	-200,000	-0,019	0,066
-383,204	-200,000	-0,009	-0,119
-382,190	-72,561	-0,098	0,026
-381,175	52,223	0,014	-0,009
-380,160	-100,909	0,187	-0,033
-379,146	800,000	0,046	0,118
-378,131	-200,000	0,002	0,092
-377,117	-84,885	0,102	0,023
-376,102	800,000	0,042	0,100
-375,088	800,000	-0,012	0,029
-374,073	139,888	0,137	0,129
-373,058	-55,683	0,115	0,037
-372,044	309,453	0,050	0,068
-371,029	-1,999	-0,094	0,047
-370,015	128,954	0,067	0,061
-369,000	171,865	0,011	-0,011
-367,985	800,000	-0,032	-0,089
-366,971	-21,263	-0,070	0,030
-365,956	-183,345	0,086	-0,001
-364,942	-72,030	0,180	0,048
-363,927	188,500	-0,059	-0,063
-362,912	-16,499	-0,062	0,028
-361,898	-105,373	0,127	-0,020
-360,883	-55,859	0,050	-0,016
-359,869	-200,000	0,017	0,065
-358,854	321,383	0,047	-0,063
-357,839	-200,000	0,048	0,197
-356,825	152,253	0,119	0,116
-355,810	196,381	-0,024	0,026
-354,796	-200,000	0,024	0,089
-353,781	800,000	0,015	-0,043
-352,766	-73,642	0,027	0,007
-351,752	123,665	0,046	0,041
-350,737	32,034	0,030	0,018
-349,723	509,363	0,050	0,084
-348,708	-200,000	0,009	0,039
-347,693	308,423	0,031	-0,042
-346,679	258,585	-0,070	-0,086
-345,664	-85,941	0,058	-0,013
-344,650	-200,000	0,011	-0,106
-343,635	-109,646	0,068	-0,010
-342,620	-200,000	-0,023	0,137
-341,606	800,000	0,032	0,085
-340,591	-23,388	-0,036	0,015
-339,577	-30,988	-0,067	-0,027
-338,562	-80,583	0,104	-0,025
-337,548	-200,000	-0,012	-0,174
-336,533	346,841	0,010	-0,014
-335,518	308,597	-0,048	-0,064
-334,504	-200,000	-0,005	0,047
-333,489	-87,331	-0,211	-0,045
-332,475	-200,000	-0,046	-0,198
-331,460	554,307	0,075	-0,129
-330,445	407,389	0,038	-0,057
-329,431	-39,926	0,083	0,031
-328,416	-200,000	0,018	-0,139
-327,402	-123,406	-0,048	0,005
-326,387	-163,294	-0,256	0,009
-325,372	-145,147	0,129	0,008
-324,358	-200,000	-0,025	-0,088
-323,343	-29,285	-0,042	0,017
-322,329	241,158	0,070	-0,083
-321,314	567,984	-0,060	0,105
-320,299	-200,000	-0,002	0,072
-319,285	-47,989	-0,107	-0,037
-318,270	-32,271	-0,047	-0,019
-317,256	352,397	0,082	-0,117
-316,241	159,480	-0,025	0,025
-315,226	-34,451	0,162	0,063
-314,212	33,494	0,150	-0,093
-313,197	-200,000	-0,013	-0,084
-312,183	-17,360	0,089	0,040
-311,168	-200,000	-0,025	-0,085
-310,153	185,355	-0,089	-0,094
-309,139	207,322	-0,039	0,043
-308,124	284,267	0,076	-0,098
-307,110	-90,008	0,048	0,010
-306,095	62,859	-0,027	0,019
-305,080	-73,544	0,053	-0,014
-304,066	800,000	0,060	-0,158
-303,051	289,618	-0,033	-0,043
-302,037	-153,070	0,157	-0,008
-301,022	-6,018	-0,053	0,026
-300,008	172,909	0,085	0,087
-298,993	800,000	0,048	0,106
-297,978	34,349	0,061	0,038
-296,964	288,103	-0,083	0,107
-295,949	588,023	-0,032	-0,056
-294,935	800,000	0,052	-0,153
-293,920	252,488	-0,070	0,085
-292,905	-200,000	0,007	0,184
-291,891	-79,259	-0,043	0,010
-290,876	800,000	-0,024	0,048
-289,862	36,896	-0,095	0,060
-288,847	-200,000	-0,005	-0,068
-287,832	542,881	0,028	-0,048
-286,818	-200,000	-0,007	0,034
-285,803	32,488	0,145	-0,089
-284,789	-10,673	0,048	-0,023
-283,774	-200,000	0,015	0,068
-282,759	-200,000	-0,016	0,075
-281,745	-114,691	-0,155	-0,021
-280,730	-200,000	0,006	-0,137
-279,716	357,959	-0,067	-0,096
-278,701	339,729	0,049	0,068
-277,686	-111,396	0,114	0,016
-276,672	369,009	-0,014	0,020
-275,657	88,243	-0,060	-0,047
-274,643	207,425	0,028	-0,031
-273,628	-200,000	0,009	0,037
-272,613	76,298	0,193	-0,146
-271,599	706,736	-0,026	0,048
-270,584	-200,000	0,002	0,070
-269,570	591,698	0,029	-0,052
-268,555	-52,841	0,054	0,018
-267,540	-85,317	-0,194	0,043
-266,526	92,116	-0,110	0,088
-265,511	-5,615	-0,157	-0,076
-264,497	134,075	-0,040	0,036
-263,482	-48,978	0,099	0,033
-262,467	800,000	-0,051	0,117
-261,453	-200,000	-0,032	-0,107
-260,438	-69,265	-0,183	-0,050
-259,424	-116,029	-0,105	0,014
-258,409	230,412	-0,088	0,102
-257,395	-200,000	0,047	0,191
-256,380	97,553	-0,073	-0,059
-255,365	89,228	0,122	0,096
-254,351	120,193	-0,086	-0,076
-253,336	270,430	-0,037	0,047
-252,322	-21,499	0,018	-0,008
-251,307	-96,717	0,108	-0,020
-250,292	62,462	-0,120	-0,085
-249,278	156,283	0,115	0,113
-248,263	245,887	0,048	0,057
-247,249	275,194	0,165	0,208
-246,234	-118,950	-0,173	0,021
-245,219	47,469	-0,088	-0,058
-244,205	305,249	-0,055	-0,073
-243,190	-111,266	-0,076	-0,011
-242,176	800,000	0,042	-0,123
-241,161	137,412	0,059	-0,055
-240,146	800,000	-0,040	-0,080
-239,132	-29,900	-0,125	0,051
-238,117	-13,915	-0,046	-0,021
-237,103	8,203	0,097	0,052
-236,088	-94,875	-0,085	-0,016
-235,073	800,000	-0,032	-0,076
-234,059	-61,812	0,153	-0,045
-233,044	-200,000	0,018	-0,096
-232,030	-132,826	0,026	0,002
-231,015	87,735	-0,136	-0,107
-230,000	-70,167	0,061	-0,016
-228,986	103,653	-0,034	0,029
-227,971	-200,000	-0,012	0,070
-226,957	-200,000	0,015	0,103
-225,942	-200,000	-0,006	0,087
-224,927	28,978	0,009	0,005
-223,913	-200,000	-0,019	-0,065
-222,898	242,243	0,013	0,015
-221,884	-54,708	-0,131	0,042
-220,869	-200,000	0,014	0,159
-219,855	-88,859	-0,038	-0,008
-218,840	-21,451	0,070	0,030
-217,825	800,000	0,029	-0,063
-216,811	-103,169	-0,114	-0,019
-215,796	66,669	0,112	-0,081
-214,782	-188,064	-0,089	0,001
-213,767	-1,516	0,032	-0,016
-212,752	-200,000	-0,014	0,057
-211,738	-200,000	-0,018	0,150
-210,723	-200,000	-0,019	0,158
-209,709	-59,887	-0,108	-0,032
-208,694	340,161	0,039	-0,054
-207,679	624,734	-0,050	-0,090
-206,665	-180,367	-0,058	-0,001
-205,650	364,986	0,032	-0,046
-204,636	-200,000	0,000	0,073
-203,621	477,562	-0,041	-0,065
-202,606	-108,318	0,046	0,007
-201,592	-82,289	-0,107	-0,025
-200,577	800,000	0,008	-0,023
-199,563	3,903	-0,044	0,023
-198,548	-200,000	-0,023	-0,102
-197,533	-200,000	0,045	-0,164
-196,519	800,000	-0,035	0,073
-195,504	-62,709	-0,041	0,012
-194,490	800,000	-0,057	-0,138
-193,475	269,194	-0,048	0,060
-192,460	-0,595	0,087	0,044
-191,446	-40,874	0,112	-0,041
-190,431	800,000	-0,024	0,074
-189,417	800,000	0,020	0,057
-188,402	78,770	-0,129	0,098
-187,387	-200,000	-0,010	-0,091
-186,373	390,659	-0,050	0,074
-185,358	-200,000	-0,003	-0,030
-184,344	800,000	0,054	0,156
-183,329	-70,198	0,094	-0,025
-182,315	800,000	-0,023	0,051
-181,300	800,000	-0,056	0,117
-180,285	126,462	0,065	-0,058
-179,271	-93,122	-0,133	-0,026
-178,256	-85,182	0,145	0,032
-177,242	-52,752	0,051	-0,017
-176,227	-200,000	0,027	0,111
-175,212	800,000	0,026	0,075
-174,198	-42,914	0,055	0,020
-173,183	287,763	0,064	-0,083
-172,169	39,895	-0,152	0,097
-171,154	-89,143	-0,058	0,012
-170,139	-200,000	-0,006	-0,113
-169,125	60,967	0,054	0,038
-168,110	543,896	0,059	0,100
-167,096	393,765	-0,106	-0,157
-166,081	-200,000	0,000	-0,070
-165,066	800,000	-0,058	-0,116
-164,052	-200,000	0,046	-0,146
-163,037	-127,851	0,100	0,010
-162,023	-168,069	0,037	0,001
-161,008	66,497	-0,035	0,025
-159,993	377,132	0,079	-0,114
-158,979	354,136	0,126	-0,177
-157,964	-169,461	0,022	0,001
-156,950	391,340	-0,067	-0,098
-155,935	-200,000	0,007	0,055
-154,920	628,049	0,052	-0,093
-153,906	56,335	0,049	0,033
-152,891	-200,000	-0,001	0,118
-151,877	-77,344	-0,197	0,048
-150,862	-200,000	-0,037	-0,130
-149,847	-105,679	-0,101	-0,016
-148,833	132,893	-0,060	0,055
-147,818	-154,390	0,144	0,007
-146,804	135,750	0,102	-0,094
-145,789	266,670	0,085	0,105
-144,775	800,000	-0,016	-0,043
-143,760	165,883	0,071	-0,071
-142,745	-200,000	0,017	-0,073
-141,731	-175,839	-0,080	-0,001
-140,716	-200,000	0,015	0,147
-139,702	-200,000	0,005	0,095
-138,687	108,124	-0,097	0,081
-137,672	800,000	0,030	-0,065
-136,658	800,000	0,051	0,113
-135,643	-200,000	0,010	-0,108
-134,629	800,000	-0,028	-0,060
-133,614	-200,000	-0,033	0,000
-132,599	100,909	0,045	-0,037
-131,585	-200,000	0,027	0,085
-130,570	-70,663	-0,039	0,010
-129,556	295,589	-0,054	-0,070
-128,541	176,499	-0,035	0,036
-127,526	606,325	0,040	0,072
-126,512	-200,000	-0,004	-0,047
-125,497	-56,938	-0,075	-0,023
-124,483	-135,369	-0,093	-0,008
-123,468	-114,081	-0,172	-0,023
-122,453	59,260	-0,080	-0,056
-121,439	-200,000	-0,014	-0,094
-120,424	-18,622	0,194	0,085
-119,410	284,894	0,025	0,033
-118,395	-200,000	-0,005	0,033
-117,380	-147,999	0,034	0,002
-116,366	484,444	-0,027	0,043
-115,351	201,335	-0,043	0,047
-114,337	-200,000	-0,038	0,000
-113,322	-200,000	0,025	0,114
-112,307	-200,000	-0,004	-0,018
-111,293	366,796	0,006	-0,009
-110,278	-173,441	-0,148	-0,003
-109,264	69,315	-0,058	-0,042
-108,249	800,000	-0,017	0,046
-107,234	686,700	-0,043	-0,079
-106,220	65,315	0,120	0,085
-105,205	168,674	0,009	-0,009
-104,191	34,822	0,071	0,044
-103,176	-200,000	0,005	0,203
-102,162	800,000	0,025	0,072
-101,147	-170,062	0,113	-0,003
-100,132	800,000	-0,077	-0,158
-99,118	-16,058	0,036	-0,016
-98,103	-108,928	0,086	0,013
-97,089	-200,000	0,016	0,099
-96,074	51,340	0,030	0,020
-95,059	629,449	0,044	-0,079
-94,045	-200,000	-0,038	0,144
-93,030	356,346	-0,073	-0,103
-92,016	-176,340	-0,218	0,004
-91,001	-200,000	-0,005	0,040
-89,986	453,119	-0,023	0,036
-88,972	122,301	0,082	0,072
-87,957	350,429	-0,034	0,047
-86,943	-151,890	0,062	0,003
-85,928	800,000	0,047	-0,119
-84,913	122,673	-0,084	-0,074
-83,899	278,237	0,068	0,086
-82,884	800,000	0,033	0,087
-81,870	-200,000	-0,003	-0,034
-80,855	-200,000	-0,018	-0,056
-79,840	-44,184	-0,074	0,026
-78,826	-200,000	-0,031	-0,118
-77,811	72,301	-0,078	0,057
-76,797	-94,503	-0,036	-0,007
-75,782	-200,000	0,033	0,141
-74,767	58,763	-0,028	-0,019
-73,753	135,893	0,130	0,120
-72,738	800,000	0,039	0,091
-71,724	-131,585	-0,126	-0,012
-70,709	800,000	-0,042	-0,114
-69,694	-145,257	0,045	0,003
-68,680	732,401	-0,102	0,194
-67,665	175,010	-0,060	-0,061
-66,651	800,000	-0,013	-0,037
-65,636	-90,018	0,183	-0,037
-64,622	114,643	-0,048	0,041
-63,607	-200,000	0,021	-0,091
-62,592	-200,000	-0,004	-0,029
-61,578	800,000	0,060	0,139
-60,563	800,000	0,072	0,165
-59,549	-200,000	0,007	0,233
-58,534	52,071	-2,226	-1,494
-57,519	599,660	-1,047	-1,841
-56,505	-200,000	-0,481	-4,515
-55,490	504,082	0,948	1,553
-54,476	800,000	5,227	11,303
-53,461	-200,000	22,430	347,085
-52,446	800,000	758,116	2297,804
-51,432	533,849	1645,276	2760,298
-50,417	68,071	1643,682	1185,246
-49,403	15,736	1520,716	841,242
-48,388	9,964	1446,479	772,445
-47,373	19,199	1439,208	812,550
-46,359	13,399	1427,645	778,609
-45,344	8,239	1423,645	751,987
-44,330	8,170	1421,897	750,707
-43,315	8,168	1419,914	749,619
-42,300	8,154	1418,221	748,631
-41,286	8,200	1416,867	748,106
-40,271	8,120	1415,714	747,091
-39,257	8,166	1414,448	746,606
-38,242	8,221	1413,402	746,284
-37,227	8,177	1412,328	745,483
-36,213	8,155	1410,926	744,606
-35,198	8,191	1409,805	744,154
-34,184	8,215	1408,718	743,665
-33,169	8,132	1407,477	742,593
-32,154	8,155	1406,479	742,145
-31,140	8,125	1405,486	741,448
-30,125	8,160	1404,277	740,947
-29,111	8,192	1402,898	740,338
-28,096	8,096	1402,068	739,422
-27,082	8,096	1400,544	738,590
-26,067	8,062	1399,665	737,937
-25,052	8,104	1398,642	737,564
-24,038	8,126	1397,540	737,057
-23,023	8,115	1396,559	736,458
-22,009	8,056	1395,767	735,740
-20,994	8,066	1394,680	735,182
-19,979	8,085	1393,664	734,708
-18,965	8,035	1392,588	733,877
-17,950	8,066	1391,540	733,441
-16,936	8,012	1391,154	732,959
-15,921	7,996	1389,944	732,215
-14,906	8,070	1388,907	731,982
-13,892	8,091	1387,793	731,463
-12,877	8,017	1387,317	730,843
-11,863	8,043	1386,326	730,410
-10,848	7,992	1385,778	729,858
-9,833	7,942	1384,731	729,047
-8,819	7,905	1383,793	728,355
-7,804	7,942	1382,688	727,913
-6,790	7,963	1381,665	727,446
-5,775	7,916	1380,736	726,712
-4,760	7,943	1379,954	726,395
-3,746	7,964	1378,712	725,809
-2,731	7,954	1378,025	725,371
-1,717	7,942	1377,126	724,816
-0,702	7,936	1375,372	723,836
0,313	11,891	1285,747	694,598
1,327	27,584	677,375	400,920
2,342	42,958	116,398	74,678
3,356	0,044	16,578	8,299
4,371	3,700	3,822	1,960
5,386	-13,685	1,428	0,649
6,400	547,556	0,413	0,700
7,415	-142,889	-0,189	-0,013
8,429	21,833	-0,169	-0,097
9,444	-16,790	-0,382	-0,169
10,459	179,752	-0,216	-0,224
11,473	115,170	-0,186	-0,160
12,488	6,109	-0,242	-0,126
13,502	-64,509	-0,244	-0,069
14,517	-73,537	-0,409	-0,104
15,531	195,669	-0,256	-0,274
16,546	41,950	-0,333	-0,213
17,561	-27,331	-0,337	-0,137
18,575	558,044	-0,107	-0,182
19,590	-24,807	-0,304	-0,127
20,604	-143,312	-0,425	-0,028
21,619	-30,646	-0,339	-0,134
22,634	157,109	-0,379	-0,369
23,648	73,686	-0,391	-0,288
24,663	15,533	-0,403	-0,222
25,677	26,087	-0,348	-0,204
26,692	-46,745	-0,317	-0,108
27,707	-33,017	-0,365	-0,142
28,721	52,224	-0,529	-0,354
29,736	58,759	-0,335	-0,231
30,750	53,967	-0,433	-0,292
31,765	88,509	-0,320	-0,250
32,780	-48,465	-0,429	-0,144
33,794	85,378	-0,284	-0,219
34,809	180,456	-0,283	-0,292
35,823	182,947	-0,257	-0,267
36,838	96,011	-0,357	-0,287
37,853	128,333	-0,376	-0,337
38,867	196,017	-0,307	-0,329
39,882	278,642	-0,227	-0,285
40,896	147,242	-0,228	-0,215
41,911	96,745	-0,215	-0,173
42,926	-47,367	-0,463	-0,157
43,940	140,483	-0,187	-0,173
44,955	3,775	-0,348	-0,178
45,969	143,355	-0,255	-0,238
46,984	-164,717	-0,270	-0,008
47,999	21,532	-0,150	-0,085
49,013	-106,779	-0,319	-0,049
50,028	152,822	-0,352	-0,338
51,042	140,080	-0,349	-0,323
52,057	76,454	-0,285	-0,212
53,071	-23,143	-0,371	-0,156
54,086	55,036	-0,435	-0,294
55,101	3,520	-0,298	-0,152
56,115	19,699	-0,358	-0,201
57,130	145,089	-0,285	-0,267
58,144	-42,176	-0,298	-0,106
59,159	64,753	-0,414	-0,293
60,174	5,473	-0,469	-0,242
61,188	104,197	-0,278	-0,230
62,203	289,980	-0,212	-0,271
63,217	132,093	-0,199	-0,180
64,232	106,106	-0,288	-0,239
65,247	207,672	-0,275	-0,301
66,261	91,703	-0,223	-0,176
67,276	57,858	-0,377	-0,258
68,290	58,087	-0,299	-0,205
69,305	431,271	-0,260	-0,395
70,320	-18,774	-0,280	-0,122
71,334	303,435	-0,208	-0,271
72,349	29,983	-0,283	-0,169
73,363	84,466	-0,312	-0,239
74,378	25,462	-0,408	-0,237
75,393	63,107	-0,414	-0,290
76,407	59,495	-0,270	-0,186
77,422	-41,954	-0,330	-0,118
78,436	-23,715	-0,326	-0,136
79,451	132,525	-0,355	-0,320
80,466	71,555	-0,297	-0,215
81,480	2,743	-0,407	-0,206
82,495	10,898	-0,353	-0,188
83,509	13,695	-0,307	-0,166
84,524	-52,397	-0,219	-0,071
85,539	-50,147	-0,379	-0,125
86,553	-12,409	-0,340	-0,155
87,568	0,148	-0,268	-0,133
88,582	56,245	-0,221	-0,150
89,597	39,116	-0,344	-0,215
90,611	102,092	-0,237	-0,193
91,626	88,153	-0,387	-0,300
92,641	-44,777	-0,223	-0,077
93,655	-55,075	-0,254	-0,079
94,670	234,584	-0,261	-0,302
95,684	-85,195	-0,360	-0,078
96,699	111,650	-0,193	-0,162
97,714	67,084	-0,223	-0,158
98,728	-36,474	-0,248	-0,093
99,743	-30,504	-0,212	-0,084
100,757	128,734	-0,299	-0,267
101,772	-13,538	-0,299	-0,135
102,787	-6,852	-0,293	-0,139
103,801	-45,888	-0,242	-0,083
104,816	65,018	-0,248	-0,175
105,830	-26,319	-0,258	-0,105
106,845	283,815	-0,124	-0,157
107,860	119,249	-0,266	-0,230
108,874	30,089	-0,278	-0,165
109,889	96,457	-0,294	-0,235
110,903	85,098	-0,301	-0,231
111,918	76,750	-0,259	-0,192
112,933	334,102	-0,239	-0,324
113,947	-34,746	-0,307	-0,117
114,962	27,898	-0,308	-0,181
115,976	104,328	-0,187	-0,154
116,991	102,040	-0,235	-0,192
118,006	-0,873	-0,296	-0,146
119,020	11,042	-0,281	-0,149
120,035	-37,295	-0,240	-0,089
121,049	293,549	-0,070	-0,089
122,064	-44,022	-0,312	-0,109
123,079	87,094	-0,201	-0,155
124,093	33,239	-0,328	-0,198
125,108	19,894	-0,341	-0,191
126,122	462,226	-0,205	-0,320
127,137	-82,953	-0,284	-0,063
128,151	380,828	-0,114	-0,164
129,166	-11,662	-0,160	-0,073
130,181	11,435	-0,273	-0,145
131,195	-42,201	-0,331	-0,117
132,210	122,310	-0,237	-0,206
133,224	295,177	-0,155	-0,198
134,239	-23,666	-0,236	-0,098
135,254	96,657	-0,324	-0,258
136,268	123,315	-0,257	-0,225
137,283	-22,106	-0,145	-0,061
138,297	30,812	-0,306	-0,182
139,312	19,496	-0,322	-0,180
140,327	57,766	-0,180	-0,122
141,341	77,427	-0,050	0,037
142,356	-67,578	-0,207	-0,056
143,370	224,136	-0,179	-0,202
144,385	-3,303	-0,197	-0,095
145,400	54,315	-0,164	-0,110
146,414	-100,197	-0,196	-0,034
147,429	74,722	-0,368	-0,270
148,443	-98,259	-0,317	-0,056
149,458	392,573	-0,149	-0,216
150,473	-67,167	-0,209	-0,057
151,487	55,021	-0,278	-0,186
152,502	254,888	-0,186	-0,221
153,516	25,398	-0,275	-0,158
154,531	112,419	-0,185	-0,155
155,546	-51,891	-0,126	0,041
156,560	-81,339	-0,285	-0,065
157,575	5,881	-0,183	-0,094
158,589	27,818	-0,239	-0,140
159,604	163,235	-0,179	-0,175
160,619	67,271	-0,304	-0,215
161,633	-116,969	-0,291	-0,037
162,648	365,975	-0,197	-0,277
163,662	-111,604	-0,087	0,012
164,677	-132,209	-0,248	-0,022
165,692	-200,000	-0,013	-0,143
166,706	800,000	-0,114	-0,277
167,721	-26,655	-0,250	-0,101
168,735	36,910	-0,211	-0,130
169,750	34,994	-0,243	-0,148
170,764	13,219	-0,216	-0,116
171,779	102,861	-0,144	-0,117
172,794	-40,078	-0,324	-0,116
173,808	150,117	-0,240	-0,227
174,823	103,066	-0,243	-0,198
175,837	294,819	-0,179	-0,228
176,852	-73,629	-0,310	-0,078
177,867	439,484	-0,132	-0,201
178,881	329,623	-0,173	-0,232
179,896	105,417	-0,177	-0,145
180,910	5,981	-0,193	-0,099
181,925	134,509	-0,120	-0,108
182,940	659,045	-0,184	-0,331
183,954	228,792	-0,191	-0,216
184,969	20,649	-0,216	-0,121
185,983	-23,797	-0,171	0,071
186,998	800,000	-0,135	-0,274
188,013	248,975	-0,186	-0,218
189,027	800,000	-0,077	-0,181
190,042	239,513	-0,158	-0,183
191,056	54,748	-0,128	-0,086
192,071	140,094	-0,226	-0,207
193,086	-123,757	-0,135	-0,015
194,100	-18,095	-0,180	-0,078
195,115	-174,281	-0,040	0,001
196,129	50,146	-0,182	-0,119
197,144	-13,133	-0,212	-0,095
198,159	20,075	-0,214	-0,119
199,173	73,749	-0,190	-0,138
200,188	-178,192	-0,280	0,004
201,202	-155,775	-0,135	0,006
202,217	-43,909	-0,322	-0,112
203,232	146,631	-0,164	-0,153
204,246	89,858	-0,234	-0,181
205,261	-116,426	-0,278	-0,035
206,275	53,204	-0,119	-0,078
207,290	324,412	-0,166	-0,221
208,304	56,532	-0,066	-0,045
209,319	-39,686	-0,357	-0,129
210,334	20,864	-0,249	-0,139
211,348	-42,398	-0,336	-0,118
212,363	255,677	-0,193	-0,229
213,377	253,894	-0,128	-0,151
214,392	144,364	-0,200	-0,185
215,407	295,653	-0,042	-0,053
216,421	800,000	-0,053	-0,109
217,436	-79,238	-0,239	-0,056
218,450	158,182	-0,141	-0,135
219,465	-200,000	-0,067	-0,296
220,480	144,461	-0,109	-0,101
221,494	239,008	-0,302	-0,348
222,509	533,104	-0,047	-0,077
223,523	-175,399	-0,171	0,003
224,538	-60,424	-0,200	-0,058
225,553	104,355	-0,175	-0,142
226,567	497,608	-0,192	-0,307
227,582	-18,395	-0,288	-0,124
228,596	-43,061	-0,154	-0,054
229,611	-200,000	-0,212	0,000
230,626	-36,153	-0,098	-0,036
231,640	800,000	-0,081	-0,224
232,655	438,774	-0,119	-0,180
233,669	784,045	-0,126	-0,240
234,684	507,671	-0,120	-0,193
235,699	-12,539	-0,193	-0,087
236,713	67,538	-0,109	-0,077
237,728	245,474	-0,191	-0,222
238,742	176,274	-0,122	-0,123
239,757	48,407	-0,200	-0,129
240,772	46,328	-0,211	-0,135
241,786	77,040	-0,271	-0,199
242,801	60,328	-0,261	-0,178
243,815	61,731	-0,191	-0,131
244,830	146,596	-0,147	-0,136
245,844	32,044	-0,285	-0,169
246,859	-34,412	-0,148	-0,056
247,874	-200,000	-0,060	-0,224
248,888	-200,000	0,024	-0,113
249,903	161,568	-0,178	-0,172
250,917	800,000	-0,083	-0,197
251,932	-14,142	-0,244	-0,108
252,947	202,917	-0,160	-0,171
253,961	-3,643	-0,173	-0,083
254,976	43,665	-0,254	-0,160
255,990	221,898	-0,167	-0,186
257,005	224,988	-0,141	-0,157
258,020	-200,000	-0,013	-0,079
259,034	-65,465	-0,181	-0,050
260,049	-27,298	-0,143	-0,057
261,063	58,777	-0,245	-0,166
262,078	-15,793	-0,151	-0,066
263,093	800,000	-0,136	-0,267
264,107	-131,672	-0,289	0,026
265,122	135,081	-0,046	-0,041
266,136	-110,670	-0,260	-0,037
267,151	373,028	-0,097	-0,136
268,166	85,996	-0,130	-0,099
269,180	-39,814	-0,158	0,057
270,195	164,302	-0,114	-0,111
271,209	61,190	-0,184	-0,125
272,224	598,421	-0,101	-0,174
273,239	63,160	-0,163	-0,112
274,253	-98,011	-0,146	0,026
275,268	182,422	-0,082	0,084
276,282	-103,840	-0,207	0,033
277,297	107,603	-0,140	-0,114
278,312	-73,914	-0,192	-0,048
279,326	-103,857	-0,178	-0,028
280,341	-121,716	-0,189	-0,021
281,355	-17,838	-0,237	-0,102
282,370	203,346	-0,139	-0,148
283,384	69,476	-0,217	-0,154
284,399	143,774	-0,194	-0,178
285,414	-200,000	-0,026	-0,111
286,428	-24,346	-0,207	-0,084
287,443	-200,000	0,004	0,049
288,457	-143,263	-0,152	0,010
289,472	-69,874	-0,210	-0,055
290,487	-12,953	-0,153	-0,068
291,501	800,000	-0,176	-0,365
292,516	10,428	-0,077	-0,040
293,530	-152,503	-0,093	-0,005
294,545	-6,599	-0,038	-0,018
295,560	-131,383	-0,119	-0,011
296,574	456,661	-0,137	-0,210
297,589	47,874	-0,097	-0,062
298,603	294,808	-0,100	-0,125
299,618	54,594	-0,167	-0,111
300,633	299,775	-0,064	-0,082
301,647	-140,344	-0,133	-0,009
302,662	-97,827	-0,138	0,024
303,676	179,166	-0,124	-0,125
304,691	185,091	-0,192	-0,196
305,706	359,595	-0,100	-0,137
306,720	118,167	-0,147	-0,124
307,735	34,841	-0,167	-0,100
308,749	127,575	-0,216	-0,188
309,764	-200,000	-0,048	-0,212
310,779	-102,606	-0,160	-0,026
311,793	127,554	-0,242	-0,211
312,808	88,583	-0,199	-0,152
313,822	203,922	-0,183	-0,194
314,837	36,677	-0,151	-0,091
315,852	42,496	-0,217	-0,135
316,866	800,000	-0,041	-0,109
317,881	-49,449	-0,170	-0,055
318,895	-200,000	-0,003	-0,148
319,910	-152,850	-0,189	-0,009
320,925	176,622	-0,231	-0,230
321,939	-24,158	-0,149	-0,061
322,954	48,357	-0,098	-0,062
323,968	-31,807	-0,229	-0,087
324,983	-12,811	-0,147	-0,065
325,997	-95,433	-0,243	-0,044
327,012	442,391	-0,076	-0,115
328,027	-4,599	-0,210	-0,099
329,041	79,308	-0,158	-0,116
330,056	142,074	-0,070	-0,064
331,070	-17,180	-0,129	-0,055
332,085	62,986	-0,082	-0,056
333,100	1,015	-0,153	-0,075
334,114	85,081	-0,060	-0,045
335,129	44,673	-0,217	-0,136
336,143	-177,415	-0,081	0,001
337,158	-19,165	-0,063	-0,027
338,173	78,068	-0,079	-0,057
339,187	124,858	-0,106	0,091
340,202	41,125	-0,176	-0,108
341,216	-86,412	-0,170	-0,035
342,231	-53,628	-0,153	-0,048
343,246	14,262	-0,141	-0,075
344,260	-80,364	-0,141	-0,032
345,275	-65,610	-0,102	-0,028
346,289	800,000	0,024	-0,070
347,304	68,384	-0,121	-0,085
348,319	-30,761	-0,182	-0,070
349,333	181,506	-0,149	-0,150
350,348	146,841	-0,193	-0,177
351,362	347,468	-0,101	-0,137
352,377	-200,000	-0,035	-0,123
353,392	157,372	-0,106	-0,101
354,406	697,915	-0,082	-0,148
355,421	207,621	1310,233	1399,605
356,435	159,724	1470,343	1400,043
