DTS Sentinel unit serial number:	SN410029Multiplexer serial number:	ORYXHardware model number:	OX2-SRSoftware version number:	ORYX F/W v4,00 Oryx Data Collector v3.7.2.0data status	okinstallation	B3 Nyhavnadifferential loss correction	single-endedforward channel	channel 1reverse channel	N/Adate	2023/11/30time	17:32:30forward acquisition time	300,00reverse acquisition time	0,00gamma	499,1914k internal	0,3203k external	0,3203temperature offset calibration	1,0000default loss term (dB/km)	0,3820temperature slope calibration	1,0000multiplexer offset coefficient	1,0000multiplexer slope coefficient	1,0000fibre end	0,00T internal ref (°C)	13,07T ext. ref 1 (°C)	-2,11T ext. ref 2 (°C)	-2,17length (m)	temperature (°C)	Stokes	anti-Stokes-744,400	117,292	-0,199	-0,178
-743,385	-200,000	0,049	0,264
-742,371	542,178	-0,061	-0,106
-741,356	800,000	0,096	0,214
-740,342	800,000	-0,090	-0,198
-739,327	800,000	0,128	0,295
-738,312	69,585	-0,168	-0,126
-737,298	-200,000	0,033	0,326
-736,283	210,466	-0,224	-0,256
-735,269	-200,000	0,080	0,283
-734,254	51,637	-0,294	-0,203
-733,239	108,153	-0,160	0,139
-732,225	96,725	-0,154	-0,128
-731,210	764,218	0,056	0,112
-730,196	-75,625	-0,070	0,018
-729,181	-200,000	0,021	-0,109
-728,167	800,000	0,058	-0,132
-727,152	-82,083	-0,013	-0,003
-726,137	-8,710	-0,085	0,041
-725,123	-64,864	0,113	-0,033
-724,108	-30,161	-0,108	-0,044
-723,094	-56,501	0,022	-0,007
-722,079	-200,000	-0,007	-0,084
-721,064	800,000	-0,055	-0,125
-720,050	-65,446	0,094	0,027
-719,035	800,000	0,053	0,121
-718,021	175,310	0,048	-0,050
-717,006	-158,489	-0,091	0,004
-715,991	498,845	0,042	-0,071
-714,977	-200,000	-0,017	-0,156
-713,962	7,903	-0,086	0,047
-712,948	800,000	0,036	0,094
-711,933	800,000	0,015	-0,033
-710,918	110,108	-0,043	0,038
-709,904	-13,594	-0,129	-0,060
-708,889	-82,007	0,032	0,007
-707,875	800,000	-0,094	-0,200
-706,860	557,940	-0,044	0,078
-705,845	800,000	-0,026	0,081
-704,831	-18,960	0,121	0,054
-703,816	-200,000	-0,006	-0,040
-702,802	373,090	0,052	0,077
-701,787	-200,000	-0,023	0,104
-700,772	44,109	0,150	-0,100
-699,758	690,946	0,007	0,013
-698,743	800,000	0,024	-0,053
-697,729	65,118	-0,049	0,036
-696,714	-200,000	-0,035	0,176
-695,699	3,589	-0,105	0,055
-694,685	200,346	0,081	0,090
-693,670	-200,000	-0,011	-0,063
-692,656	356,693	0,075	0,108
-691,641	623,335	-0,021	0,039
-690,627	686,834	-0,009	0,016
-689,612	800,000	-0,034	-0,096
-688,597	-29,161	-0,068	0,028
-687,583	-200,000	-0,007	-0,083
-686,568	-80,780	-0,137	0,033
-685,554	-37,019	0,068	0,026
-684,539	-133,045	-0,054	0,005
-683,524	-96,796	-0,097	-0,018
-682,510	54,253	-0,037	0,025
-681,495	-33,508	-0,025	0,010
-680,481	137,168	-0,088	-0,083
-679,466	800,000	0,010	0,026
-678,451	-29,429	0,043	0,018
-677,437	-50,327	0,067	-0,023
-676,422	575,721	0,018	0,032
-675,408	-112,465	-0,118	0,017
-674,393	-25,756	-0,049	0,021
-673,378	-88,079	-0,062	-0,013
-672,364	165,932	-0,091	0,093
-671,349	-200,000	-0,002	0,030
-670,335	285,982	0,072	0,094
-669,320	-10,306	-0,032	-0,015
-668,305	56,614	-0,028	0,019
-667,291	2,649	-0,126	0,066
-666,276	-116,216	-0,047	-0,006
-665,262	-73,340	-0,214	-0,056
-664,247	800,000	-0,069	-0,140
-663,232	-13,752	0,042	0,020
-662,218	-200,000	0,020	0,070
-661,203	-92,613	0,116	-0,023
-660,189	-200,000	0,006	-0,180
-659,174	-99,021	0,027	0,005
-658,159	-177,741	-0,093	0,002
-657,145	-47,946	-0,086	-0,030
-656,130	-200,000	-0,005	-0,023
-655,116	-200,000	-0,005	0,064
-654,101	-200,000	-0,003	0,022
-653,086	156,055	0,088	-0,088
-652,072	-200,000	-0,002	-0,052
-651,057	-200,000	0,005	-0,129
-650,043	127,290	-0,120	-0,111
-649,028	47,432	-0,100	-0,068
-648,014	28,351	-0,021	-0,013
-646,999	-6,129	0,043	0,021
-645,984	10,448	0,038	-0,021
-644,970	592,127	0,016	0,029
-643,955	361,457	0,040	-0,059
-642,941	-82,061	-0,036	0,009
-641,926	800,000	-0,037	0,095
-640,911	800,000	0,019	-0,053
-639,897	0,452	0,138	-0,071
-638,882	-121,284	0,061	0,007
-637,868	506,351	0,023	0,039
-636,853	307,743	0,042	-0,057
-635,838	303,663	-0,087	-0,117
-634,824	-200,000	0,034	-0,139
-633,809	800,000	-0,032	0,090
-632,795	-200,000	-0,022	0,129
-631,780	800,000	0,013	0,038
-630,765	565,019	-0,088	-0,155
-629,751	-63,277	0,016	0,005
-628,736	-200,000	0,014	0,053
-627,722	382,242	-0,033	0,049
-626,707	8,110	-0,136	-0,074
-625,692	157,795	0,130	0,130
-624,678	-56,580	-0,054	0,017
-623,663	-191,934	0,105	0,001
-622,649	-125,041	-0,066	0,007
-621,634	800,000	-0,057	-0,149
-620,619	800,000	0,043	-0,119
-619,605	78,683	-0,039	0,030
-618,590	-200,000	-0,019	0,090
-617,576	28,837	-0,086	0,053
-616,561	163,707	-0,025	0,026
-615,546	800,000	-0,022	0,054
-614,532	-4,747	-0,167	0,083
-613,517	125,357	-0,041	0,038
-612,503	259,020	0,062	0,078
-611,488	-37,631	0,051	-0,020
-610,474	-50,320	0,113	0,038
-609,459	-200,000	0,124	0,000
-608,444	-9,158	-0,180	-0,087
-607,430	-200,000	-0,015	0,089
-606,415	-3,374	-0,040	0,020
-605,401	167,782	-0,036	0,037
-604,386	161,362	0,006	-0,006
-603,371	32,946	-0,024	0,015
-602,357	187,877	0,109	-0,118
-601,342	23,949	-0,040	-0,024
-600,328	-53,778	-0,115	-0,038
-599,313	366,998	-0,060	-0,088
-598,298	187,127	-0,014	0,015
-597,284	-200,000	-0,002	0,088
-596,269	800,000	0,042	0,119
-595,255	795,203	0,048	0,096
-594,240	-5,628	-0,160	-0,079
-593,225	-200,000	0,017	-0,100
-592,211	-31,671	-0,042	-0,017
-591,196	800,000	-0,000	0,001
-590,182	-142,016	0,166	-0,012
-589,167	233,521	-0,086	0,102
-588,152	-40,629	0,029	-0,011
-587,138	-98,741	0,142	-0,026
-586,123	-121,112	-0,070	-0,008
-585,109	800,000	0,042	-0,086
-584,094	-200,000	0,003	0,022
-583,079	800,000	-0,020	-0,064
-582,065	464,556	0,043	0,070
-581,050	-200,000	-0,020	-0,176
-580,036	800,000	-0,039	-0,082
-579,021	279,222	0,055	-0,071
-578,006	-200,000	-0,012	-0,114
-576,992	-200,000	0,015	-0,148
-575,977	199,667	-0,084	0,094
-574,963	507,351	0,060	0,102
-573,948	99,215	-0,120	0,100
-572,934	800,000	-0,045	0,102
-571,919	-44,367	-0,134	0,048
-570,904	336,384	-0,073	-0,103
-569,890	622,796	-0,042	-0,076
-568,875	-200,000	-0,001	0,017
-567,861	162,768	0,019	0,019
-566,846	48,376	-0,070	0,047
-565,831	247,522	0,061	0,075
-564,817	-40,520	0,141	-0,053
-563,802	-78,633	-0,137	-0,034
-562,788	3,070	-0,018	-0,009
-561,773	-200,000	-0,015	0,111
-560,758	25,184	0,084	-0,050
-559,744	-200,000	-0,015	0,137
-558,729	79,347	0,101	0,078
-557,715	-200,000	-0,015	-0,158
-556,700	800,000	-0,040	-0,100
-555,685	25,404	-0,089	0,054
-554,671	800,000	0,058	-0,117
-553,656	800,000	-0,038	0,098
-552,642	800,000	0,047	0,101
-551,627	195,188	0,067	0,074
-550,612	800,000	-0,037	-0,074
-549,598	-19,784	-0,058	-0,026
-548,583	57,656	-0,070	0,049
-547,569	263,447	-0,023	-0,029
-546,554	-32,725	0,109	-0,043
-545,539	-64,165	-0,062	-0,018
-544,525	548,161	0,083	-0,145
-543,510	182,268	-0,115	0,122
-542,496	800,000	-0,007	-0,020
-541,481	-66,253	-0,082	-0,023
-540,466	-166,934	0,065	-0,002
-539,452	171,899	0,057	0,059
-538,437	800,000	-0,051	0,139
-537,423	-40,195	0,053	0,020
-536,408	800,000	0,028	0,060
-535,393	60,670	-0,101	-0,072
-534,379	153,303	0,048	-0,047
-533,364	800,000	0,007	0,019
-532,350	364,201	0,058	0,085
-531,335	-85,631	0,089	-0,020
-530,321	254,818	-0,072	0,089
-529,306	800,000	0,028	0,085
-528,291	-200,000	0,000	-0,073
-527,277	366,577	-0,050	-0,073
-526,262	-116,698	-0,012	0,002
-525,248	-79,479	0,117	0,028
-524,233	-200,000	-0,017	0,072
-523,218	-45,629	0,064	-0,023
-522,204	137,652	-0,042	-0,040
-521,189	72,180	-0,119	-0,089
-520,175	135,660	-0,145	-0,136
-519,160	-145,073	0,008	0,001
-518,145	-200,000	0,015	-0,075
-517,131	24,182	-0,047	0,028
-516,116	-16,421	-0,083	0,038
-515,102	-200,000	0,005	0,105
-514,087	-200,000	-0,019	0,091
-513,072	-200,000	0,039	-0,239
-512,058	-103,377	0,167	0,028
-511,043	38,792	-0,070	-0,045
-510,029	41,490	0,074	-0,048
-509,014	-49,270	0,147	-0,050
-507,999	-200,000	0,004	-0,072
-506,985	-200,000	0,011	-0,045
-505,970	401,859	-0,103	-0,157
-504,956	-116,876	-0,010	0,001
-503,941	212,096	-0,062	0,071
-502,926	-200,000	0,005	0,071
-501,912	-200,000	0,009	0,208
-500,897	-38,379	0,029	0,011
-499,883	800,000	-0,041	0,094
-498,868	631,765	-0,103	-0,189
-497,853	-200,000	-0,009	-0,172
-496,839	-83,195	0,017	-0,004
-495,824	75,426	0,073	-0,056
-494,810	681,810	-0,044	0,083
-493,795	800,000	0,057	-0,137
-492,781	800,000	-0,076	-0,157
-491,766	12,075	-0,087	0,048
-490,751	-97,779	0,036	-0,007
-489,737	-18,153	-0,032	-0,014
-488,722	82,632	-0,069	-0,054
-487,708	-51,949	-0,113	0,038
-486,693	-34,542	0,035	-0,014
-485,678	-200,000	-0,017	0,084
-484,664	800,000	-0,039	-0,095
-483,649	487,455	-0,034	0,056
-482,635	336,968	-0,009	0,013
-481,620	-100,740	-0,028	0,005
-480,605	-67,921	0,141	-0,039
-479,591	-200,000	0,000	0,097
-478,576	88,115	0,183	-0,146
-477,562	-21,235	-0,098	-0,043
-476,547	800,000	-0,060	-0,162
-475,532	800,000	-0,019	-0,040
-474,518	-138,356	0,090	-0,007
-473,503	-111,685	0,080	-0,012
-472,489	-200,000	-0,004	0,148
-471,474	-200,000	-0,028	0,092
-470,459	-34,909	-0,087	0,034
-469,445	139,319	-0,018	-0,017
-468,430	800,000	-0,018	-0,050
-467,416	608,003	-0,005	-0,009
-466,401	-190,395	0,127	0,001
-465,386	800,000	0,026	0,074
-464,372	-200,000	-0,006	-0,031
-463,357	675,193	-0,020	0,037
-462,343	-16,820	-0,157	-0,071
-461,328	30,502	-0,105	0,065
-460,313	-200,000	-0,003	-0,010
-459,299	-77,067	-0,106	0,026
-458,284	-104,448	0,080	-0,013
-457,270	-200,000	0,025	0,165
-456,255	-66,628	-0,164	-0,046
-455,241	396,404	-0,059	-0,088
-454,226	342,693	0,018	-0,026
-453,211	-200,000	-0,025	0,150
-452,197	-200,000	0,024	0,087
-451,182	1,183	0,070	0,036
-450,168	-104,843	0,016	0,003
-449,153	800,000	0,048	-0,099
-448,138	31,429	-0,076	-0,047
-447,124	46,415	-0,057	0,038
-446,109	-200,000	-0,007	0,049
-445,095	182,527	0,102	-0,108
-444,080	-64,897	0,125	-0,036
-443,065	-52,628	-0,031	0,010
-442,051	435,128	-0,103	-0,162
-441,036	-200,000	-0,008	-0,042
-440,022	800,000	-0,018	-0,050
-439,007	501,440	0,047	0,078
-437,992	800,000	-0,019	-0,039
-436,978	-152,364	-0,071	-0,004
-435,963	-6,707	0,106	0,052
-434,949	208,740	-0,041	0,046
-433,934	213,454	-0,101	-0,114
-432,919	114,012	-0,087	0,076
-431,905	150,872	0,115	0,112
-430,890	-200,000	-0,018	-0,067
-429,876	549,855	-0,078	0,136
-428,861	-159,183	-0,089	0,004
-427,846	342,286	0,101	0,142
-426,832	31,375	-0,169	-0,104
-425,817	-200,000	0,006	-0,051
-424,803	-89,936	-0,067	0,014
-423,788	-74,167	-0,062	0,016
-422,773	1,793	0,054	-0,028
-421,759	-60,093	-0,068	0,021
-420,744	800,000	-0,029	0,080
-419,730	523,539	-0,078	-0,132
-418,715	-200,000	0,025	-0,104
-417,701	-200,000	0,020	-0,068
-416,686	431,120	0,111	0,173
-415,671	4,489	-0,038	0,020
-414,657	-200,000	0,014	0,174
-413,642	-200,000	-0,001	0,067
-412,628	22,769	0,099	-0,058
-411,613	-34,560	-0,136	-0,053
-410,598	234,515	-0,054	-0,064
-409,584	336,286	0,029	-0,041
-408,569	117,911	0,088	0,077
-407,555	416,805	0,041	-0,063
-406,540	312,893	0,065	-0,087
-405,525	117,853	0,059	0,052
-404,511	9,610	0,061	0,033
-403,496	141,540	-0,108	-0,102
-402,482	-200,000	0,008	0,072
-401,467	137,170	0,065	0,061
-400,452	7,027	0,042	-0,022
-399,438	641,453	0,050	0,092
-398,423	800,000	-0,048	0,111
-397,409	-81,291	-0,013	-0,003
-396,394	-200,000	-0,012	-0,094
-395,379	349,574	0,056	0,079
-394,365	-200,000	0,015	-0,051
-393,350	-160,080	0,203	0,008
-392,336	800,000	-0,019	0,047
-391,321	95,554	0,098	-0,080
-390,306	-200,000	-0,002	0,019
-389,292	175,840	-0,077	-0,080
-388,277	800,000	0,091	-0,215
-387,263	-70,278	0,109	-0,029
-386,248	377,864	0,060	0,088
-385,233	55,552	-0,080	-0,056
-384,219	-147,991	0,118	-0,007
-383,204	-200,000	0,033	0,127
-382,190	-200,000	-0,089	-0,000
-381,175	-55,935	0,080	0,026
-380,160	-200,000	0,042	0,175
-379,146	-48,408	0,114	0,039
-378,131	-200,000	0,012	0,061
-377,117	-200,000	0,002	0,009
-376,102	-200,000	0,023	-0,198
-375,088	43,073	0,050	-0,033
-374,073	-200,000	0,018	-0,120
-373,058	409,265	-0,088	0,134
-372,044	32,673	0,067	0,041
-371,029	-149,106	-0,038	0,002
-370,015	-131,754	0,099	-0,009
-369,000	-200,000	0,019	-0,118
-367,985	4,539	-0,070	0,037
-366,971	-200,000	-0,006	0,092
-365,956	156,590	-0,037	0,036
-364,942	-200,000	-0,006	-0,103
-363,927	-2,160	0,116	0,058
-362,912	800,000	-0,045	-0,097
-361,898	-182,176	-0,060	-0,001
-360,883	-125,441	-0,070	-0,008
-359,869	21,022	0,072	0,042
-358,854	-20,644	0,168	0,074
-357,839	119,313	0,039	-0,035
-356,825	-95,735	0,043	0,008
-355,810	363,412	0,053	0,077
-354,796	617,165	-0,062	0,112
-353,781	327,024	0,057	-0,078
-352,766	200,693	-0,022	-0,024
-351,752	-200,000	-0,030	-0,168
-350,737	-136,316	0,063	0,005
-349,723	-30,496	-0,018	-0,007
-348,708	-200,000	-0,015	-0,092
-347,693	-200,000	0,008	0,058
-346,679	-200,000	-0,012	-0,079
-345,664	800,000	-0,082	-0,170
-344,650	53,378	0,057	-0,039
-343,635	-83,133	-0,101	0,023
-342,620	-77,471	0,047	-0,012
-341,606	41,351	-0,025	0,016
-340,591	-200,000	0,013	0,080
-339,577	-200,000	-0,017	-0,141
-338,562	229,113	0,043	-0,050
-337,548	690,669	0,040	-0,075
-336,533	38,772	0,069	0,044
-335,518	-72,765	0,088	0,023
-334,504	-104,902	0,156	0,025
-333,489	213,272	-0,050	-0,057
-332,475	-111,918	-0,080	-0,011
-331,460	230,380	-0,168	-0,197
-330,445	-72,386	0,094	0,025
-329,431	121,580	0,049	0,044
-328,416	79,475	-0,075	0,057
-327,402	-200,000	0,045	0,144
-326,387	55,815	-0,126	-0,087
-325,372	-26,398	0,024	-0,010
-324,358	-200,000	0,026	-0,099
-323,343	-97,616	-0,087	0,016
-322,329	321,743	-0,037	0,050
-321,314	-73,700	-0,073	0,019
-320,299	302,648	0,051	-0,068
-319,285	197,795	-0,148	0,162
-318,270	-200,000	-0,003	-0,041
-317,256	800,000	-0,015	0,041
-316,241	800,000	-0,020	0,057
-315,226	198,528	0,085	0,093
-314,212	74,775	0,135	0,101
-313,197	202,189	0,017	-0,019
-312,183	-200,000	0,010	-0,098
-311,168	33,300	0,102	0,063
-310,153	-200,000	-0,028	-0,106
-309,139	-200,000	-0,004	0,043
-308,124	-200,000	-0,002	-0,030
-307,110	-161,735	0,143	-0,005
-306,095	-91,627	-0,116	0,023
-305,080	347,974	0,036	-0,050
-304,066	22,440	-0,156	0,091
-303,051	324,080	0,046	0,063
-302,037	181,568	0,046	0,049
-301,022	800,000	-0,064	-0,160
-300,008	-200,000	0,030	0,123
-298,993	-195,634	-0,157	-0,001
-297,978	-17,826	0,124	0,055
-296,964	-73,909	0,066	-0,017
-295,949	286,600	0,099	-0,128
-294,935	-43,672	-0,194	-0,069
-293,920	-27,438	0,068	0,028
-292,905	192,692	-0,039	0,042
-291,891	800,000	0,058	0,162
-290,876	-70,505	-0,034	0,009
-289,862	141,009	-0,075	-0,071
-288,847	-200,000	0,003	-0,064
-287,832	-16,841	0,034	0,015
-286,818	316,061	0,043	0,058
-285,803	52,179	-0,070	-0,047
-284,789	335,088	-0,052	-0,072
-283,774	524,602	-0,024	0,041
-282,759	-200,000	-0,037	0,129
-281,745	429,973	-0,023	-0,036
-280,730	-20,644	0,084	0,037
-279,716	73,287	0,076	-0,057
-278,701	548,358	0,030	0,052
-277,686	-65,276	0,025	0,007
-276,672	-88,500	-0,100	-0,021
-275,657	-200,000	-0,013	0,048
-274,643	800,000	0,024	-0,073
-273,628	800,000	-0,055	0,135
-272,613	-200,000	0,011	0,128
-271,599	419,968	-0,065	0,100
-270,584	405,918	0,066	-0,100
-269,570	451,670	0,062	0,098
-268,555	800,000	0,018	0,045
-267,540	-54,784	0,075	-0,024
-266,526	-200,000	-0,020	-0,120
-265,511	44,586	-0,025	0,016
-264,497	-200,000	0,011	-0,200
-263,482	338,609	0,050	0,069
-262,467	-200,000	0,007	0,082
-261,453	494,787	0,064	-0,105
-260,438	469,315	-0,095	-0,153
-259,424	481,525	0,105	0,171
-258,409	-14,441	-0,039	-0,018
-257,395	-7,822	0,180	-0,087
-256,380	-132,266	0,297	0,027
-255,365	-200,000	-0,004	0,017
-254,351	132,336	-0,065	-0,060
-253,336	-200,000	0,001	-0,080
-252,322	-123,936	-0,080	0,009
-251,307	586,617	0,036	0,064
-250,292	356,375	-0,054	-0,077
-249,278	800,000	0,018	-0,053
-248,263	243,128	-0,090	0,108
-247,249	-200,000	0,093	0,328
-246,234	-200,000	-0,025	0,135
-245,219	-200,000	-0,000	-0,084
-244,205	-200,000	0,000	0,072
-243,190	-200,000	0,001	-0,064
-242,176	-53,080	0,122	0,040
-241,161	149,655	0,049	-0,048
-240,146	-200,000	-0,005	0,042
-239,132	344,674	-0,030	0,042
-238,117	-9,508	-0,083	-0,039
-237,103	187,265	0,097	0,103
-236,088	800,000	-0,019	0,056
-235,073	-200,000	0,014	0,102
-234,059	800,000	0,039	0,083
-233,044	-200,000	0,000	0,008
-232,030	-64,269	-0,062	0,018
-231,015	-0,308	-0,085	-0,043
-230,000	-200,000	0,031	-0,156
-228,986	800,000	-0,027	-0,073
-227,971	-200,000	-0,027	0,108
-226,957	-200,000	-0,012	0,138
-225,942	446,405	-0,054	-0,084
-224,927	334,128	-0,030	0,041
-223,913	800,000	-0,047	-0,127
-222,898	288,340	-0,094	0,122
-221,884	-200,000	-0,007	-0,068
-220,869	477,506	0,023	0,037
-219,855	127,023	0,054	0,049
-218,840	87,415	0,078	0,061
-217,825	-48,450	0,185	-0,063
-216,811	-196,721	-0,025	-0,000
-215,796	-112,001	-0,136	-0,019
-214,782	106,667	0,042	0,036
-213,767	-64,033	-0,122	-0,035
-212,752	-181,502	0,016	-0,000
-211,738	83,298	0,024	0,019
-210,723	161,364	-0,106	-0,106
-209,709	109,996	-0,055	-0,047
-208,694	197,421	-0,075	-0,082
-207,679	-200,000	0,002	-0,143
-206,665	-29,746	0,065	0,026
-205,650	-130,543	0,113	0,011
-204,636	565,593	-0,089	-0,154
-203,621	-200,000	0,003	-0,043
-202,606	800,000	-0,038	-0,086
-201,592	-53,427	0,154	-0,050
-200,577	47,789	-0,149	-0,099
-199,563	-46,650	-0,077	0,027
-198,548	-122,328	0,033	0,004
-197,533	-200,000	-0,015	0,094
-196,519	-200,000	0,008	-0,036
-195,504	-111,354	-0,074	0,011
-194,490	83,825	-0,003	0,002
-193,475	3,451	-0,059	0,030
-192,460	444,942	0,062	0,097
-191,446	534,543	0,072	0,122
-190,431	131,357	0,071	0,065
-189,417	-65,540	0,074	0,021
-188,402	-200,000	0,012	-0,192
-187,387	-105,180	-0,062	0,010
-186,373	-135,227	0,063	0,005
-185,358	-200,000	0,003	0,061
-184,344	14,145	-0,048	-0,026
-183,329	-47,995	0,079	0,027
-182,315	-14,033	0,042	0,019
-181,300	-99,859	-0,015	0,003
-180,285	-16,679	0,024	-0,011
-179,271	-200,000	0,010	0,114
-178,256	611,704	0,007	0,012
-177,242	-150,018	0,078	-0,004
-176,227	-200,000	-0,044	0,157
-175,212	800,000	-0,028	0,067
-174,198	800,000	-0,034	0,081
-173,183	800,000	0,014	-0,034
-172,169	-102,117	0,108	-0,018
-171,154	66,156	0,043	-0,031
-170,139	-200,000	-0,035	0,113
-169,125	174,520	0,178	0,183
-168,110	291,559	-0,116	0,150
-167,096	-115,509	-0,070	-0,009
-166,081	181,843	0,042	0,044
-165,066	181,447	-0,124	-0,129
-164,052	-200,000	-0,002	-0,031
-163,037	-200,000	-0,009	-0,131
-162,023	-200,000	-0,003	0,016
-161,008	800,000	0,051	0,134
-159,993	800,000	0,032	-0,084
-158,979	-200,000	0,024	-0,093
-157,964	-92,401	-0,003	-0,001
-156,950	-200,000	-0,015	-0,170
-155,935	-138,699	0,030	0,002
-154,920	-26,215	-0,069	0,029
-153,906	-4,920	0,086	0,042
-152,891	-200,000	-0,003	0,101
-151,877	-200,000	-0,002	-0,010
-150,862	170,138	-0,078	-0,079
-149,847	144,860	-0,118	-0,112
-148,833	-90,320	0,110	0,022
-147,818	29,916	0,063	0,038
-146,804	-200,000	0,027	0,126
-145,789	800,000	-0,035	0,080
-144,775	623,216	0,062	-0,111
-143,760	-146,978	0,103	-0,006
-142,745	-200,000	0,015	-0,076
-141,731	414,806	0,023	0,036
-140,716	-134,724	0,065	-0,006
-139,702	-200,000	-0,058	0,185
-138,687	292,384	0,082	0,106
-137,672	-18,524	-0,041	0,018
-136,658	-42,627	-0,184	0,066
-135,643	800,000	-0,026	0,077
-134,629	52,013	-0,076	0,051
-133,614	-44,810	0,099	-0,035
-132,599	293,279	0,043	0,056
-131,585	-200,000	0,003	0,045
-130,570	37,847	0,077	0,048
-129,556	143,988	-0,111	-0,105
-128,541	565,712	-0,039	-0,067
-127,526	-105,234	0,118	0,019
-126,512	337,490	-0,023	0,031
-125,497	-200,000	0,007	-0,059
-124,483	295,887	0,054	-0,070
-123,468	800,000	0,023	-0,052
-122,453	-36,522	-0,017	-0,006
-121,439	290,605	0,080	0,104
-120,424	-113,021	-0,042	0,006
-119,410	10,771	0,126	-0,068
-118,395	484,708	-0,037	-0,060
-117,380	106,351	-0,057	0,048
-116,366	-62,005	0,207	-0,061
-115,351	82,743	-0,146	-0,113
-114,337	-8,198	0,086	-0,041
-113,322	-52,146	-0,127	0,042
-112,307	-200,000	0,006	-0,091
-111,293	445,571	-0,032	-0,050
-110,278	-55,470	-0,119	-0,038
-109,264	-57,946	0,031	0,009
-108,249	427,647	-0,032	0,049
-107,234	396,697	0,055	0,082
-106,220	800,000	0,055	0,129
-105,205	-126,639	-0,060	0,006
-104,191	-148,847	0,089	-0,005
-103,176	54,756	0,062	-0,043
-102,162	116,330	0,049	-0,043
-101,147	-140,717	-0,066	0,005
-100,132	800,000	-0,071	-0,195
-99,118	90,708	-0,175	-0,139
-98,103	104,935	0,058	0,048
-97,089	800,000	0,017	-0,037
-96,074	-64,197	0,060	0,017
-95,059	198,021	0,067	-0,073
-94,045	-24,921	-0,105	-0,044
-93,030	-200,000	0,019	-0,143
-92,016	308,915	-0,067	-0,089
-91,001	231,501	-0,065	-0,076
-89,986	-29,333	0,118	0,047
-88,972	469,649	0,069	0,111
-87,957	-93,360	0,064	0,012
-86,943	140,482	0,056	-0,052
-85,928	-200,000	-0,004	-0,057
-84,913	800,000	-0,053	-0,132
-83,899	-3,108	-0,128	0,063
-82,884	142,818	0,072	0,067
-81,870	-189,864	0,120	0,001
-80,855	800,000	0,049	0,121
-79,840	122,526	-0,007	0,006
-78,826	-53,207	-0,037	-0,012
-77,811	-67,807	0,034	-0,009
-76,797	-1,859	-0,101	-0,050
-75,782	-51,800	-0,014	-0,005
-74,767	214,077	0,149	-0,167
-73,753	-200,000	-0,017	-0,095
-72,738	144,048	-0,054	0,051
-71,724	191,606	-0,068	0,072
-70,709	160,227	0,048	-0,048
-69,694	152,490	-0,011	0,011
-68,680	24,474	-0,093	-0,055
-67,665	327,862	-0,003	0,004
-66,651	-200,000	-0,009	-0,123
-65,636	800,000	-0,047	0,125
-64,622	800,000	0,023	-0,064
-63,607	199,898	0,039	0,043
-62,592	120,208	0,017	-0,015
-61,578	-188,155	-0,070	0,001
-60,563	-73,481	-0,074	-0,019
-59,549	-200,000	0,026	0,118
-58,534	-9,941	-1,833	-0,859
-57,519	362,370	-1,412	-2,011
-56,505	-200,000	-0,322	-4,259
-55,490	266,204	0,886	1,097
-54,476	800,000	4,903	11,293
-53,461	-200,000	19,365	326,480
-52,446	-200,000	740,923	2339,484
-51,432	572,400	1652,286	2860,035
-50,417	77,830	1667,261	1255,977
-49,403	21,049	1540,448	881,843
-48,388	14,927	1462,807	807,710
-47,373	18,438	1453,069	819,215
-46,359	16,854	1443,064	805,973
-45,344	13,198	1438,352	785,846
-44,330	13,134	1436,534	784,514
-43,315	13,162	1434,835	783,690
-42,300	13,141	1433,238	782,688
-41,286	13,142	1432,078	782,029
-40,271	13,118	1430,591	781,071
-39,257	13,126	1429,204	780,319
-38,242	13,169	1428,154	779,918
-37,227	13,150	1426,853	779,090
-36,213	13,183	1425,481	778,464
-35,198	13,165	1424,486	777,803
-34,184	13,211	1423,465	777,432
-33,169	13,153	1422,141	776,404
-32,154	13,176	1420,981	775,853
-31,140	13,181	1419,751	775,173
-30,125	13,165	1418,953	774,627
-29,111	13,191	1417,664	774,017
-28,096	13,154	1416,565	773,213
-27,082	13,149	1415,411	772,531
-26,067	13,112	1414,290	771,713
-25,052	13,036	1413,365	770,819
-24,038	13,058	1412,428	770,380
-23,023	13,070	1411,191	769,734
-22,009	13,061	1410,328	769,188
-20,994	13,071	1409,373	768,684
-19,979	13,065	1408,548	768,174
-18,965	13,060	1407,675	767,646
-17,950	13,027	1406,691	766,924
-16,936	13,042	1405,912	766,539
-15,921	13,043	1404,613	765,806
-14,906	13,048	1403,937	765,432
-13,892	13,007	1402,716	764,544
-12,877	13,010	1401,911	764,090
-11,863	13,030	1400,933	763,617
-10,848	12,976	1400,279	762,981
-9,833	12,952	1399,372	762,346
-8,819	12,949	1398,599	761,876
-7,804	12,963	1397,608	761,371
-6,790	12,903	1396,704	760,573
-5,775	12,924	1395,544	760,009
-4,760	12,890	1394,639	759,326
-3,746	12,926	1393,430	758,805
-2,731	12,889	1392,807	758,263
-1,717	12,853	1392,015	757,637
-0,702	12,851	1390,220	756,622
0,313	16,840	1306,471	729,419
1,327	33,329	700,868	429,236
2,342	51,455	122,567	82,204
3,356	0,780	16,563	8,358
4,371	2,917	3,389	1,734
5,386	-46,764	0,663	0,228
6,400	-200,000	0,007	0,195
7,415	293,463	-0,115	-0,149
8,429	120,135	-0,180	-0,158
9,444	241,988	-0,355	-0,420
10,459	118,559	-0,161	-0,141
11,473	20,285	-0,396	-0,225
12,488	42,572	-0,306	-0,197
13,502	165,536	-0,313	-0,313
14,517	105,751	-0,317	-0,265
15,531	175,787	-0,362	-0,372
16,546	84,194	-0,312	-0,240
17,561	107,901	-0,384	-0,323
18,575	-111,356	-0,164	-0,023
19,590	309,472	-0,186	-0,246
20,604	61,584	-0,354	-0,248
21,619	166,670	-0,384	-0,384
22,634	91,023	-0,432	-0,342
23,648	75,427	-0,479	-0,356
24,663	156,733	-0,377	-0,368
25,677	108,083	-0,334	-0,281
26,692	48,463	-0,387	-0,255
27,707	43,186	-0,351	-0,226
28,721	48,731	-0,418	-0,276
29,736	410,384	-0,234	-0,351
30,750	118,571	-0,462	-0,402
31,765	68,721	-0,386	-0,279
32,780	800,000	-0,187	-0,388
33,794	166,513	-0,341	-0,341
34,809	217,480	-0,370	-0,416
35,823	62,801	-0,353	-0,249
36,838	32,458	-0,456	-0,277
37,853	9,025	-0,432	-0,229
38,867	5,105	-0,466	-0,241
39,882	166,744	-0,286	-0,286
40,896	25,526	-0,350	-0,205
41,911	76,845	-0,274	-0,204
42,926	-15,345	-0,450	-0,202
43,940	123,714	-0,340	-0,301
44,955	171,082	-0,322	-0,326
45,969	212,376	-0,204	-0,226
46,984	-70,200	-0,348	-0,092
47,999	99,725	-0,295	-0,240
49,013	108,933	-0,345	-0,290
50,028	8,847	-0,406	-0,215
51,042	121,994	-0,309	-0,271
52,057	108,248	-0,268	-0,225
53,071	232,459	-0,364	-0,422
54,086	-4,585	-0,367	-0,178
55,101	90,876	-0,267	-0,210
56,115	-60,450	-0,378	-0,112
57,130	85,111	-0,368	-0,284
58,144	-35,133	-0,320	-0,122
59,159	34,929	-0,313	-0,192
60,174	-69,960	-0,467	-0,124
61,188	72,513	-0,363	-0,266
62,203	125,296	-0,353	-0,313
63,217	-37,018	-0,372	-0,140
64,232	76,507	-0,221	-0,165
65,247	238,826	-0,331	-0,388
66,261	14,364	-0,364	-0,199
67,276	116,043	-0,290	-0,249
68,290	66,780	-0,320	-0,229
69,305	27,825	-0,243	-0,144
70,320	22,730	-0,410	-0,235
71,334	23,873	-0,430	-0,248
72,349	239,526	-0,295	-0,345
73,363	35,873	-0,252	-0,156
74,378	112,578	-0,329	-0,280
75,393	166,904	-0,284	-0,283
76,407	210,242	-0,249	-0,275
77,422	-41,116	-0,374	-0,135
78,436	211,849	-0,189	-0,209
79,451	-28,904	-0,408	-0,164
80,466	-130,569	-0,395	-0,037
81,480	182,295	-0,297	-0,308
82,495	289,738	-0,194	-0,247
83,509	-53,161	-0,273	-0,087
84,524	-21,212	-0,204	-0,087
85,539	42,638	-0,260	-0,166
86,553	105,303	-0,258	-0,214
87,568	32,701	-0,263	-0,159
88,582	-13,418	-0,266	-0,120
89,597	275,438	-0,243	-0,303
90,611	410,842	-0,148	-0,221
91,626	677,207	-0,120	-0,220
92,641	61,512	-0,408	-0,284
93,655	225,593	-0,146	-0,166
94,670	76,909	-0,333	-0,248
95,684	-65,893	-0,459	-0,128
96,699	129,472	-0,228	-0,204
97,714	139,583	-0,168	-0,155
98,728	22,492	-0,303	-0,173
99,743	258,988	-0,126	-0,152
100,757	535,478	-0,182	-0,303
101,772	-117,123	-0,376	-0,047
102,787	27,198	-0,369	-0,217
103,801	38,031	-0,270	-0,168
104,816	158,972	-0,255	-0,249
105,830	-36,205	-0,383	-0,144
106,845	-120,668	-0,221	-0,026
107,860	21,876	-0,277	-0,158
108,874	240,621	-0,191	-0,223
109,889	154,378	-0,273	-0,263
110,903	83,988	-0,256	-0,196
111,918	66,603	-0,248	-0,176
112,933	627,952	-0,063	-0,113
113,947	-151,948	-0,275	-0,014
114,962	-16,602	-0,324	-0,143
115,976	456,645	-0,170	-0,266
116,991	114,940	-0,350	-0,299
118,006	-51,954	-0,254	-0,082
119,020	-35,720	-0,255	-0,096
120,035	-91,908	-0,338	-0,067
121,049	13,065	-0,163	-0,088
122,064	89,367	-0,254	-0,198
123,079	206,353	-0,236	-0,257
124,093	-24,875	-0,346	-0,143
125,108	126,462	-0,328	-0,290
126,122	-64,710	-0,237	-0,067
127,137	33,994	-0,220	-0,134
128,151	136,685	-0,162	-0,148
129,166	36,834	-0,174	-0,107
130,181	21,209	-0,240	-0,136
131,195	-61,420	-0,201	-0,059
132,210	397,925	-0,254	-0,372
133,224	111,217	-0,149	-0,125
134,239	11,842	-0,271	-0,145
135,254	82,806	-0,204	-0,155
136,268	138,471	-0,196	-0,180
137,283	-22,427	-0,279	-0,118
138,297	800,000	-0,124	-0,313
139,312	28,061	-0,315	-0,185
140,327	-15,960	-0,300	-0,133
141,341	-18,040	-0,339	-0,148
142,356	5,371	-0,300	-0,154
143,370	-1,091	-0,215	-0,106
144,385	201,871	-0,205	-0,221
145,400	15,005	-0,380	-0,207
146,414	190,603	-0,248	-0,261
147,429	561,527	-0,192	-0,325
148,443	63,606	-0,255	-0,179
149,458	-54,673	-0,242	0,076
150,473	29,506	-0,181	-0,107
151,487	800,000	-0,066	-0,139
152,502	9,700	-0,390	-0,206
153,516	64,617	-0,263	-0,185
154,531	22,448	-0,374	-0,213
155,546	-18,813	-0,349	-0,151
156,560	209,249	-0,202	-0,221
157,575	-32,225	-0,243	-0,094
158,589	-2,828	-0,208	-0,101
159,604	36,669	-0,393	-0,242
160,619	597,073	-0,121	-0,210
161,633	-42,005	-0,280	-0,099
162,648	76,117	-0,281	-0,207
163,662	33,478	-0,265	-0,160
164,677	129,915	-0,216	-0,192
165,692	-51,974	-0,234	-0,075
166,706	223,759	-0,164	-0,185
167,721	-45,579	-0,286	-0,098
168,735	20,080	-0,282	-0,158
169,750	342,262	-0,202	-0,276
170,764	-6,094	-0,385	-0,183
171,779	624,315	-0,158	-0,279
172,794	-172,821	-0,102	-0,002
173,808	-45,087	-0,227	-0,078
174,823	-54,235	-0,304	-0,096
175,837	119,443	-0,269	-0,232
176,852	375,917	-0,247	-0,351
177,867	145,708	-0,181	-0,169
178,881	63,955	-0,238	-0,167
179,896	-1,991	-0,222	-0,108
180,910	278,630	-0,133	-0,166
181,925	-37,604	-0,242	-0,089
182,940	143,344	-0,276	-0,256
183,954	151,374	-0,216	-0,205
184,969	147,081	-0,107	-0,101
185,983	-72,785	-0,285	-0,073
186,998	122,643	-0,215	-0,187
188,013	-32,399	-0,289	-0,112
189,027	162,524	-0,267	-0,261
190,042	42,780	-0,312	-0,197
191,056	-46,168	-0,311	-0,106
192,071	479,983	-0,189	-0,299
193,086	-152,481	-0,236	-0,012
194,100	-28,565	-0,186	-0,074
195,115	103,385	-0,208	-0,170
196,129	20,326	-0,308	-0,172
197,144	-18,126	-0,157	-0,068
198,159	-39,653	-0,238	-0,086
199,173	91,710	-0,221	-0,173
200,188	-110,315	-0,192	0,028
201,202	-39,516	-0,271	-0,098
202,217	47,640	-0,252	-0,163
203,232	225,788	-0,228	-0,257
204,246	448,693	-0,144	-0,221
205,261	142,298	-0,256	-0,236
206,275	-200,000	-0,062	-0,207
207,290	800,000	-0,107	-0,253
208,304	381,113	-0,094	-0,134
209,319	114,908	-0,186	-0,158
210,334	88,821	-0,257	-0,199
211,348	-0,885	-0,113	-0,055
212,363	261,970	-0,186	-0,224
213,377	121,847	-0,234	-0,202
214,392	-97,311	-0,100	0,018
215,407	307,638	-0,187	-0,243
216,421	-104,710	-0,205	-0,032
217,436	462,142	-0,125	-0,194
218,450	240,449	-0,169	-0,196
219,465	-65,305	-0,334	-0,093
220,480	26,374	-0,273	-0,158
221,494	386,975	-0,063	-0,091
222,509	-66,004	-0,067	0,018
223,523	-54,023	-0,224	-0,070
224,538	507,036	-0,196	-0,316
225,553	202,463	-0,185	-0,198
226,567	103,717	-0,274	-0,223
227,582	-86,017	-0,237	-0,050
228,596	800,000	-0,112	-0,230
229,611	281,628	-0,131	-0,163
230,626	68,435	-0,088	-0,062
231,640	201,177	-0,126	-0,135
232,655	234,758	-0,105	-0,121
233,669	468,610	-0,090	-0,140
234,684	-200,000	-0,015	-0,105
235,699	619,096	-0,119	-0,208
236,713	258,124	-0,168	-0,200
237,728	102,533	-0,134	-0,109
238,742	-200,000	-0,217	-0,001
239,757	158,278	-0,151	-0,145
240,772	100,554	-0,136	-0,109
241,786	44,983	-0,270	-0,172
242,801	140,092	-0,128	-0,117
243,815	105,652	-0,121	-0,099
244,830	-48,436	-0,301	-0,100
245,844	13,543	-0,219	-0,117
246,859	-61,149	-0,267	-0,078
247,874	131,956	-0,100	-0,089
248,888	110,607	-0,216	-0,179
249,903	276,240	-0,154	-0,190
250,917	800,000	-0,063	-0,140
251,932	-200,000	-0,031	-0,166
252,947	24,188	-0,222	-0,126
253,961	141,071	-0,174	-0,159
254,976	133,540	-0,176	-0,157
255,990	-129,619	-0,138	-0,013
257,005	-5,513	-0,293	-0,139
258,020	39,237	-0,196	-0,121
259,034	33,598	-0,105	-0,063
260,049	71,220	-0,115	-0,082
261,063	510,086	-0,096	-0,155
262,078	99,645	-0,099	-0,079
263,093	800,000	-0,071	-0,190
264,107	63,344	-0,183	-0,127
265,122	-36,700	-0,172	-0,063
266,136	-200,000	-0,012	-0,052
267,151	351,516	-0,037	-0,051
268,166	-44,913	-0,125	-0,043
269,180	321,016	-0,151	-0,198
270,195	255,907	-0,135	-0,160
271,209	-187,237	-0,098	-0,001
272,224	58,976	-0,214	-0,145
273,239	-21,991	0,047	-0,019
274,253	41,429	-0,240	-0,150
275,268	-51,546	-0,185	-0,059
276,282	-33,346	-0,243	-0,092
277,297	339,951	-0,141	-0,191
278,312	483,193	-0,137	-0,216
279,326	75,602	-0,078	0,057
280,341	-13,766	-0,215	0,096
281,355	30,339	-0,085	-0,050
282,370	147,099	-0,162	-0,151
283,384	-54,853	-0,227	-0,070
284,399	212,894	-0,151	-0,165
285,414	249,560	-0,170	-0,199
286,428	448,176	-0,070	-0,106
287,443	-200,000	0,027	-0,140
288,457	261,560	-0,042	-0,050
289,472	128,560	-0,138	-0,121
290,487	40,478	-0,192	-0,119
291,501	256,963	-0,161	-0,191
292,516	-45,935	-0,192	-0,065
293,530	800,000	-0,079	-0,152
294,545	-200,000	0,047	-0,195
295,560	-93,631	-0,122	-0,023
296,574	-108,909	-0,139	-0,020
297,589	800,000	-0,088	-0,177
298,603	370,415	-0,141	-0,197
299,618	144,287	-0,259	-0,238
300,633	-74,828	-0,277	0,068
301,647	743,904	-0,097	-0,180
302,662	-9,146	-0,096	-0,044
303,676	800,000	-0,059	-0,130
304,691	510,305	-0,150	-0,242
305,706	23,938	-0,286	-0,162
306,720	84,058	-0,166	-0,124
307,735	84,652	-0,043	-0,033
308,749	-84,463	-0,139	-0,030
309,764	-119,591	-0,105	0,012
310,779	-57,295	-0,131	-0,039
311,793	800,000	-0,063	-0,162
312,808	140,851	-0,069	-0,063
313,822	22,863	-0,198	-0,112
314,837	-18,167	-0,142	-0,061
315,852	-19,237	-0,146	-0,062
316,866	-200,000	0,015	-0,073
317,881	800,000	-0,069	-0,174
318,895	-79,598	-0,039	0,009
319,910	375,156	-0,172	-0,241
320,925	800,000	-0,064	-0,178
321,939	35,011	-0,153	-0,092
322,954	728,776	-0,094	-0,173
323,968	192,773	-0,050	-0,052
324,983	-84,813	-0,080	0,017
325,997	-75,870	-0,178	-0,043
327,012	-120,149	-0,197	-0,023
328,027	41,809	-0,128	-0,080
329,041	-53,095	-0,140	0,044
330,056	-200,000	-0,061	-0,251
331,070	324,074	-0,079	-0,104
332,085	269,784	-0,115	-0,139
333,100	-143,662	-0,101	-0,006
334,114	-98,465	-0,143	-0,025
335,129	800,000	-0,098	-0,277
336,143	446,673	-0,064	-0,097
337,158	14,851	-0,084	0,045
338,173	40,030	-0,034	0,021
339,187	-200,000	0,027	-0,150
340,202	-92,607	-0,134	-0,026
341,216	1,472	-0,147	-0,073
342,231	-200,000	-0,006	-0,049
343,246	-200,000	-0,032	-0,107
344,260	-200,000	0,070	-0,251
345,275	353,668	-0,142	-0,194
346,289	-111,499	0,100	-0,014
347,304	-200,000	-0,040	-0,138
348,319	-200,000	-0,013	-0,071
349,333	22,991	-0,105	-0,059
350,348	-2,466	-0,209	-0,100
351,362	-200,000	-0,062	-0,202
352,377	13,299	-0,178	-0,095
353,392	139,852	-0,081	-0,073
354,406	-200,000	-0,008	-0,124
355,421	205,786	1312,437	1400,644
356,435	158,237	1472,879	1401,147
