DTS Sentinel unit serial number:	SN410029Multiplexer serial number:	ORYXHardware model number:	OX2-SRSoftware version number:	ORYX F/W v4,00 Oryx Data Collector v3.7.2.0data status	okinstallation	B3 Nyhavnadifferential loss correction	single-endedforward channel	channel 1reverse channel	N/Adate	2023/11/29time	22:52:30forward acquisition time	300,00reverse acquisition time	0,00gamma	499,1914k internal	0,3210k external	0,3210temperature offset calibration	1,0000default loss term (dB/km)	0,3820temperature slope calibration	1,0000multiplexer offset coefficient	1,0000multiplexer slope coefficient	1,0000fibre end	0,00T internal ref (°C)	10,84T ext. ref 1 (°C)	-3,99T ext. ref 2 (°C)	-4,11length (m)	temperature (°C)	Stokes	anti-Stokes-744,400	571,207	-0,154	-0,272
-743,385	-200,000	0,046	0,178
-742,371	800,000	-0,087	-0,257
-741,356	-200,000	0,074	0,344
-740,342	37,986	-0,252	-0,162
-739,327	800,000	0,041	0,087
-738,312	235,598	-0,267	-0,321
-737,298	525,829	0,092	0,158
-736,283	-14,999	-0,226	-0,105
-735,269	-200,000	0,006	0,328
-734,254	800,000	-0,054	-0,168
-733,239	-86,440	-0,159	0,035
-732,225	-200,000	-0,052	-0,222
-731,210	72,582	0,185	0,140
-730,196	-200,000	0,003	0,054
-729,181	-29,703	-0,063	-0,026
-728,167	-200,000	-0,010	-0,100
-727,152	-200,000	-0,008	-0,132
-726,137	-157,393	0,051	-0,002
-725,123	800,000	-0,067	-0,169
-724,108	-200,000	-0,015	-0,060
-723,094	-158,045	-0,200	0,008
-722,079	-113,704	-0,120	0,017
-721,064	512,771	-0,022	-0,037
-720,050	-13,008	0,129	0,060
-719,035	-66,483	-0,104	0,030
-718,021	105,814	-0,101	-0,087
-717,006	36,254	-0,093	-0,059
-715,991	-129,706	-0,122	0,012
-714,977	-200,000	-0,009	-0,204
-713,962	800,000	-0,046	-0,103
-712,948	-200,000	0,019	-0,065
-711,933	-200,000	-0,039	-0,137
-710,918	2,374	0,043	-0,022
-709,904	-38,758	-0,039	0,015
-708,889	5,797	-0,057	-0,030
-707,875	800,000	0,009	-0,026
-706,860	-200,000	0,029	0,203
-705,845	294,048	0,086	0,113
-704,831	800,000	0,011	-0,027
-703,816	-97,690	0,066	-0,012
-702,802	269,828	-0,019	0,024
-701,787	29,008	-0,087	-0,053
-700,772	370,747	0,073	-0,107
-699,758	-45,123	0,142	-0,051
-698,743	53,328	0,036	-0,025
-697,729	800,000	-0,042	0,090
-696,714	-187,178	-0,120	-0,001
-695,699	-200,000	-0,019	0,118
-694,685	-200,000	-0,020	-0,121
-693,670	-43,389	-0,127	-0,046
-692,656	44,655	0,047	-0,031
-691,641	-200,000	-0,009	0,134
-690,627	-72,341	0,103	-0,027
-689,612	248,018	0,052	0,063
-688,597	52,923	-0,026	0,018
-687,583	-19,069	-0,134	0,060
-686,568	-25,794	0,066	-0,028
-685,554	251,507	-0,092	0,113
-684,539	-200,000	-0,018	0,064
-683,524	-75,566	0,186	0,048
-682,510	-1,104	0,081	-0,041
-681,495	-200,000	-0,007	0,071
-680,481	-200,000	0,004	-0,134
-679,466	-20,218	0,021	-0,010
-678,451	800,000	-0,005	-0,011
-677,437	-112,570	-0,064	-0,009
-676,422	-200,000	-0,002	0,029
-675,408	-200,000	-0,004	0,027
-674,393	401,614	-0,095	0,144
-673,378	254,847	-0,079	-0,098
-672,364	279,802	-0,046	-0,059
-671,349	239,348	-0,113	-0,136
-670,335	-200,000	0,016	-0,121
-669,320	-200,000	0,012	-0,047
-668,305	-200,000	-0,017	-0,142
-667,291	130,327	-0,077	0,072
-666,276	-140,469	-0,111	0,008
-665,262	513,310	0,047	0,080
-664,247	746,470	0,041	0,080
-663,232	-200,000	-0,014	0,103
-662,218	132,090	0,083	-0,077
-661,203	-59,285	0,075	-0,023
-660,189	132,240	-0,114	-0,106
-659,174	-111,117	-0,100	-0,015
-658,159	67,724	0,086	-0,064
-657,145	800,000	-0,013	0,035
-656,130	43,787	-0,024	-0,016
-655,116	-128,117	0,110	0,011
-654,101	7,352	-0,127	0,068
-653,086	-200,000	0,011	-0,082
-652,072	336,773	0,009	-0,012
-651,057	172,662	-0,075	-0,078
-650,043	64,716	-0,092	-0,067
-649,028	260,945	-0,034	-0,043
-648,014	7,639	0,075	0,040
-646,999	-200,000	-0,004	0,094
-645,984	141,871	-0,116	-0,111
-644,970	-61,314	0,070	-0,021
-643,955	281,682	0,064	-0,083
-642,941	294,241	0,059	-0,079
-641,926	-200,000	0,022	0,097
-640,911	-35,746	-0,098	-0,038
-639,897	-67,627	0,058	0,016
-638,882	-82,528	-0,170	-0,039
-637,868	62,709	0,011	0,008
-636,853	20,509	-0,096	0,056
-635,838	198,167	-0,039	-0,043
-634,824	-4,335	0,159	-0,079
-633,809	480,930	0,112	0,184
-632,795	800,000	0,032	0,066
-631,780	263,268	-0,089	0,112
-630,765	-12,086	0,022	0,010
-629,751	-15,876	-0,219	-0,100
-628,736	-143,684	0,048	0,003
-627,722	-47,756	0,119	-0,041
-626,707	-157,262	-0,106	-0,005
-625,692	-11,099	0,021	0,010
-624,678	800,000	0,022	0,054
-623,663	52,360	-0,062	0,042
-622,649	800,000	-0,093	-0,266
-621,634	640,489	0,016	-0,030
-620,619	25,150	-0,031	-0,019
-619,605	-51,737	-0,018	0,006
-618,590	186,076	0,073	0,078
-617,576	-200,000	-0,021	0,103
-616,561	83,822	-0,039	-0,031
-615,546	89,956	-0,109	-0,088
-614,532	800,000	-0,065	-0,168
-613,517	549,831	-0,013	-0,022
-612,503	-142,426	-0,059	-0,004
-611,488	568,480	0,063	0,111
-610,474	-140,869	-0,072	0,005
-609,459	-200,000	-0,010	-0,034
-608,444	-23,900	-0,083	-0,036
-607,430	24,028	0,018	-0,011
-606,415	14,596	-0,051	-0,029
-605,401	-121,976	0,028	-0,003
-604,386	470,367	0,046	0,074
-603,371	-54,594	-0,103	-0,034
-602,357	-200,000	0,010	0,117
-601,342	-35,338	0,104	-0,041
-600,328	-82,327	-0,177	0,041
-599,313	166,763	-0,028	-0,028
-598,298	-59,917	0,087	-0,027
-597,284	64,193	0,141	-0,102
-596,269	212,076	0,081	0,092
-595,255	-200,000	-0,036	0,141
-594,240	73,982	-0,041	-0,031
-593,225	204,178	0,107	0,120
-592,211	37,497	-0,043	0,028
-591,196	-134,650	-0,149	-0,013
-590,182	800,000	0,054	0,135
-589,167	28,401	0,145	0,088
-588,152	23,047	-0,199	0,118
-587,138	433,675	0,009	-0,014
-586,123	161,573	-0,133	-0,134
-585,109	78,744	0,031	0,024
-584,094	-153,936	-0,062	0,003
-583,079	59,748	-0,107	0,076
-582,065	123,051	-0,038	0,035
-581,050	429,427	-0,083	-0,130
-580,036	-6,677	-0,098	-0,048
-579,021	731,239	-0,046	-0,089
-578,006	566,102	-0,082	-0,145
-576,992	-200,000	0,008	0,083
-575,977	34,304	0,047	0,029
-574,963	3,323	0,014	-0,007
-573,948	-59,714	0,019	0,006
-572,934	-200,000	0,019	-0,109
-571,919	-160,064	0,022	0,001
-570,904	156,717	-0,100	-0,100
-569,890	-200,000	0,007	0,094
-568,875	-200,000	0,039	0,127
-567,861	800,000	-0,029	0,074
-566,846	-27,648	0,113	0,047
-565,831	305,216	0,101	0,136
-564,817	100,389	-0,118	-0,099
-563,802	800,000	0,054	-0,126
-562,788	-200,000	-0,037	-0,239
-561,773	90,280	0,144	0,116
-560,758	-45,808	0,170	-0,060
-559,744	-109,157	0,102	0,015
-558,729	-101,679	-0,101	-0,017
-557,715	227,588	-0,070	-0,082
-556,700	52,335	-0,133	-0,091
-555,685	-200,000	0,019	-0,103
-554,671	-129,420	-0,054	-0,005
-553,656	82,716	0,071	0,055
-552,642	-200,000	0,005	0,148
-551,627	-200,000	-0,007	0,098
-550,612	210,440	-0,008	-0,009
-549,598	-119,808	-0,112	0,014
-548,583	-200,000	-0,009	-0,141
-547,569	-200,000	0,010	0,113
-546,554	-200,000	0,002	0,046
-545,539	800,000	-0,036	-0,096
-544,525	-85,364	0,126	0,028
-543,510	-59,126	0,191	0,059
-542,496	184,862	-0,074	0,079
-541,481	800,000	-0,033	0,099
-540,466	14,024	-0,086	0,048
-539,452	264,510	0,113	0,142
-538,437	59,242	0,131	0,093
-537,423	217,478	-0,069	-0,079
-536,408	195,785	0,085	-0,093
-535,393	-18,801	0,054	-0,024
-534,379	28,757	0,130	0,079
-533,364	-28,107	0,083	0,035
-532,350	800,000	0,045	0,105
-531,335	-200,000	-0,006	0,089
-530,321	80,512	-0,127	0,099
-529,306	767,038	-0,012	-0,024
-528,291	-176,102	0,097	-0,002
-527,277	117,213	-0,073	-0,064
-526,262	-168,648	-0,108	-0,003
-525,248	2,773	-0,179	0,093
-524,233	-18,232	0,099	0,045
-523,218	130,198	0,089	-0,082
-522,204	6,429	-0,098	-0,052
-521,189	147,970	-0,074	-0,072
-520,175	-80,340	-0,056	-0,013
-519,160	-200,000	0,009	0,175
-518,145	321,771	0,061	-0,084
-517,131	-120,964	-0,164	-0,020
-516,116	-23,580	0,055	0,024
-515,102	463,172	-0,043	0,070
-514,087	251,036	0,110	-0,134
-513,072	114,627	-0,069	0,061
-512,058	127,432	-0,090	-0,082
-511,043	800,000	-0,023	-0,054
-510,029	-200,000	-0,012	-0,065
-509,014	786,405	-0,050	-0,100
-507,999	-3,071	-0,163	0,081
-506,985	-179,315	-0,055	0,001
-505,970	-109,979	-0,121	-0,018
-504,956	-200,000	-0,011	0,129
-503,941	114,402	0,002	-0,001
-502,926	111,391	0,046	0,040
-501,912	-167,561	0,083	-0,002
-500,897	-28,216	0,014	-0,006
-499,883	611,133	-0,087	-0,156
-498,868	800,000	-0,054	-0,128
-497,853	-200,000	0,023	-0,200
-496,839	409,446	-0,046	0,070
-495,824	-145,106	0,102	-0,007
-494,810	703,307	-0,027	-0,052
-493,795	-200,000	0,000	0,016
-492,781	800,000	-0,064	0,165
-491,766	31,242	-0,110	-0,067
-490,751	659,076	-0,063	0,117
-489,737	30,890	0,011	0,007
-488,722	245,568	-0,087	0,105
-487,708	-200,000	-0,015	0,093
-486,693	25,212	-0,145	0,086
-485,678	61,234	-0,035	0,025
-484,664	534,027	0,075	0,129
-483,649	-77,098	-0,085	-0,021
-482,635	800,000	0,013	-0,028
-481,620	-75,088	0,104	0,026
-480,605	40,596	0,092	-0,059
-479,591	112,494	0,124	0,108
-478,576	252,533	-0,047	0,058
-477,562	75,917	-0,119	0,091
-476,547	800,000	-0,023	-0,063
-475,532	40,489	0,070	0,045
-474,518	-118,764	-0,040	0,005
-473,503	6,425	-0,104	0,055
-472,489	580,603	0,063	0,111
-471,474	-200,000	0,055	0,183
-470,459	81,610	0,053	0,041
-469,445	515,966	-0,043	-0,072
-468,430	48,552	0,066	-0,044
-467,416	800,000	0,036	0,083
-466,401	-125,102	0,153	0,017
-465,386	274,850	0,089	-0,113
-464,372	111,710	0,061	-0,052
-463,357	356,501	-0,058	0,082
-462,343	-113,066	0,079	0,011
-461,328	72,639	0,113	0,085
-460,313	133,507	0,129	-0,120
-459,299	89,148	0,082	0,065
-458,284	53,516	-0,015	0,011
-457,270	800,000	0,014	-0,040
-456,255	-42,151	0,043	-0,016
-455,241	800,000	0,069	-0,161
-454,226	-64,724	0,092	0,026
-453,211	800,000	0,039	0,096
-452,197	585,728	0,056	0,099
-451,182	-200,000	0,025	0,096
-450,168	27,318	-0,017	-0,010
-449,153	800,000	0,088	0,215
-448,138	696,800	-0,023	-0,043
-447,124	800,000	-0,067	-0,143
-446,109	466,305	0,054	0,088
-445,095	-200,000	-0,000	0,034
-444,080	-64,666	0,060	-0,017
-443,065	-50,849	0,097	0,032
-442,051	31,692	-0,149	-0,091
-441,036	10,514	-0,037	0,020
-440,022	170,018	-0,043	0,044
-439,007	-174,992	-0,142	-0,003
-437,992	-200,000	-0,014	0,067
-436,978	-107,375	0,042	0,007
-435,963	-118,027	-0,047	0,006
-434,949	-107,221	0,080	-0,012
-433,934	184,539	-0,039	-0,041
-432,919	-200,000	0,014	-0,168
-431,905	-16,535	0,135	-0,061
-430,890	135,189	0,104	-0,097
-429,876	-111,891	0,125	-0,018
-428,861	361,266	0,059	0,085
-427,846	-200,000	-0,005	0,063
-426,832	70,761	0,082	0,061
-425,817	-41,025	0,041	-0,015
-424,803	-113,037	0,095	-0,013
-423,788	800,000	-0,025	-0,075
-422,773	-200,000	-0,033	-0,117
-421,759	518,551	0,090	0,151
-420,744	123,368	-0,057	0,051
-419,730	-200,000	-0,004	0,033
-418,715	-55,448	-0,116	-0,037
-417,701	-200,000	0,022	0,115
-416,686	-32,118	0,104	0,041
-415,671	-75,104	0,180	0,046
-414,657	-200,000	0,015	0,156
-413,642	-171,930	0,019	0,000
-412,628	-70,746	-0,066	-0,018
-411,613	-58,976	0,036	-0,011
-410,598	800,000	0,019	0,056
-409,584	143,204	0,033	0,032
-408,569	-81,942	0,058	0,013
-407,555	157,979	-0,054	0,054
-406,540	-200,000	0,005	-0,106
-405,525	-61,532	-0,055	-0,017
-404,511	800,000	-0,069	-0,154
-403,496	-200,000	-0,002	-0,098
-402,482	-200,000	-0,004	-0,018
-401,467	-147,725	0,267	-0,016
-400,452	-200,000	-0,016	0,128
-399,438	-155,906	-0,017	0,001
-398,423	42,205	0,058	-0,038
-397,409	-38,859	-0,055	0,021
-396,394	-200,000	-0,004	0,079
-395,379	-129,012	0,056	0,005
-394,365	234,800	0,117	0,138
-393,350	-200,000	0,003	0,052
-392,336	28,632	-0,083	-0,050
-391,321	205,695	0,032	0,035
-390,306	-200,000	-0,008	0,037
-389,292	49,848	0,137	-0,092
-388,277	58,036	-0,029	-0,021
-387,263	258,274	-0,064	0,079
-386,248	800,000	0,022	0,057
-385,233	-103,231	-0,114	0,019
-384,219	-185,028	0,013	0,000
-383,204	27,736	0,025	-0,015
-382,190	-200,000	0,013	-0,063
-381,175	97,214	0,042	-0,035
-380,160	19,943	0,061	-0,035
-379,146	-110,398	0,075	0,011
-378,131	-41,105	0,091	-0,033
-377,117	-103,384	-0,131	0,022
-376,102	-200,000	0,001	-0,096
-375,088	800,000	-0,015	-0,046
-374,073	-26,226	0,209	0,087
-373,058	-118,964	0,027	0,003
-372,044	-130,415	0,092	-0,009
-371,029	312,443	-0,099	0,133
-370,015	140,864	0,106	0,100
-369,000	32,720	0,114	-0,071
-367,985	335,084	0,033	-0,045
-366,971	-200,000	-0,003	-0,148
-365,956	224,164	-0,054	-0,062
-364,942	-54,887	-0,066	0,021
-363,927	260,951	0,147	-0,182
-362,912	124,721	0,071	0,063
-361,898	541,031	-0,014	-0,024
-360,883	-200,000	0,011	-0,099
-359,869	-19,130	-0,206	-0,091
-358,854	-130,343	0,046	-0,004
-357,839	-56,221	-0,032	0,010
-356,825	-200,000	-0,013	0,126
-355,810	-200,000	-0,025	0,081
-354,796	174,999	-0,096	-0,100
-353,781	36,969	0,133	-0,084
-352,766	800,000	0,036	0,082
-351,752	-190,307	0,023	-0,000
-350,737	265,131	0,063	-0,078
-349,723	423,629	-0,115	0,178
-348,708	-200,000	-0,009	0,087
-347,693	316,929	-0,087	0,118
-346,679	116,559	-0,062	0,055
-345,664	73,579	-0,115	-0,086
-344,650	-61,960	-0,078	-0,023
-343,635	133,840	-0,022	0,020
-342,620	-65,100	0,158	0,045
-341,606	124,405	-0,111	0,100
-340,591	-200,000	-0,036	0,118
-339,577	-8,908	-0,053	0,025
-338,562	641,641	-0,065	0,118
-337,548	-200,000	0,000	0,038
-336,533	800,000	0,047	0,132
-335,518	-200,000	-0,032	0,164
-334,504	800,000	0,019	0,038
-333,489	-200,000	-0,007	0,061
-332,475	-179,174	-0,098	-0,002
-331,460	157,374	-0,091	-0,090
-330,445	-62,922	-0,092	-0,027
-329,431	-103,792	-0,152	0,025
-328,416	490,433	0,104	-0,170
-327,402	-58,097	0,107	-0,033
-326,387	-200,000	0,009	-0,056
-325,372	299,941	-0,085	-0,112
-324,358	-135,023	-0,108	-0,009
-323,343	-41,935	-0,065	-0,024
-322,329	42,293	-0,045	0,029
-321,314	-200,000	-0,003	0,081
-320,299	-80,451	0,085	0,020
-319,285	-65,951	-0,103	-0,029
-318,270	9,515	0,117	0,063
-317,256	-200,000	0,021	0,108
-316,241	176,121	0,070	-0,072
-315,226	141,852	0,040	0,038
-314,212	616,738	0,020	-0,035
-313,197	-119,024	0,011	-0,001
-312,183	156,482	-0,026	0,026
-311,168	800,000	-0,049	-0,138
-310,153	0,824	-0,153	-0,078
-309,139	99,547	-0,046	0,038
-308,124	231,451	-0,017	0,020
-307,110	800,000	0,020	0,041
-306,095	-95,864	0,138	-0,026
-305,080	-113,302	-0,123	-0,017
-304,066	-200,000	0,019	0,082
-303,051	448,121	-0,065	-0,102
-302,037	156,274	-0,153	-0,151
-301,022	714,443	0,064	0,122
-300,008	-200,000	0,007	0,067
-298,993	800,000	-0,048	0,111
-297,978	72,149	0,059	-0,044
-296,964	-200,000	-0,021	0,091
-295,949	800,000	-0,058	-0,120
-294,935	122,242	-0,154	-0,137
-293,920	800,000	0,046	-0,107
-292,905	30,514	-0,028	0,017
-291,891	34,680	-0,051	-0,032
-290,876	-200,000	-0,014	0,093
-289,862	17,989	0,020	0,011
-288,847	-63,025	-0,128	0,037
-287,832	110,827	-0,097	-0,083
-286,818	-200,000	0,005	-0,029
-285,803	-200,000	0,023	-0,108
-284,789	218,702	0,111	-0,126
-283,774	104,195	0,058	-0,049
-282,759	-65,676	-0,120	-0,034
-281,745	584,750	-0,049	-0,087
-280,730	800,000	-0,033	-0,088
-279,716	800,000	-0,039	-0,098
-278,701	78,816	0,074	0,056
-277,686	-200,000	0,002	0,083
-276,672	36,432	0,080	0,050
-275,657	-200,000	0,006	-0,127
-274,643	-166,556	-0,180	0,005
-273,628	-200,000	0,010	-0,062
-272,613	76,704	0,047	-0,036
-271,599	800,000	0,014	0,032
-270,584	-151,678	0,015	0,001
-269,570	-200,000	-0,014	0,141
-268,555	-0,111	0,094	-0,047
-267,540	485,949	0,062	-0,101
-266,526	253,897	-0,100	-0,122
-265,511	-200,000	-0,015	-0,097
-264,497	580,108	-0,066	-0,116
-263,482	800,000	0,026	0,064
-262,467	427,714	-0,013	-0,019
-261,453	-200,000	-0,028	0,163
-260,438	-5,549	-0,039	0,019
-259,424	306,189	-0,023	-0,031
-258,409	800,000	-0,043	0,087
-257,395	-200,000	-0,017	0,067
-256,380	-200,000	0,000	-0,034
-255,365	-2,455	-0,064	0,032
-254,351	103,759	0,089	-0,074
-253,336	-194,428	0,099	-0,001
-252,322	69,386	-0,146	-0,106
-251,307	800,000	-0,040	-0,085
-250,292	-200,000	0,005	-0,131
-249,278	-120,817	-0,088	0,010
-248,263	-200,000	0,027	0,115
-247,249	800,000	-0,009	-0,022
-246,234	-141,986	-0,115	0,008
-245,219	800,000	0,077	-0,236
-244,205	-200,000	-0,032	-0,158
-243,190	461,902	-0,021	0,034
-242,176	-104,017	0,073	0,012
-241,161	-3,393	-0,039	0,019
-240,146	183,366	-0,046	-0,048
-239,132	-43,410	-0,041	-0,015
-238,117	-200,000	0,001	0,022
-237,103	644,915	0,008	-0,014
-236,088	-200,000	0,011	0,105
-235,073	101,414	-0,030	-0,025
-234,059	800,000	0,024	-0,048
-233,044	63,268	0,104	0,074
-232,030	-44,075	-0,079	0,028
-231,015	-200,000	-0,019	-0,174
-230,000	-200,000	-0,008	-0,091
-228,986	-200,000	0,045	-0,191
-227,971	800,000	0,012	0,037
-226,957	-67,286	0,066	0,018
-225,942	746,537	0,050	-0,095
-224,927	-112,301	-0,084	-0,012
-223,913	-59,624	0,049	0,015
-222,898	-200,000	0,015	-0,122
-221,884	-200,000	0,028	-0,213
-220,869	217,018	0,075	0,085
-219,855	265,995	0,098	0,122
-218,840	-200,000	0,001	-0,121
-217,825	-101,506	-0,074	0,013
-216,811	232,070	-0,090	0,105
-215,796	-200,000	0,018	-0,114
-214,782	-200,000	0,036	-0,165
-213,767	313,263	0,014	-0,018
-212,752	-14,827	0,078	0,036
-211,738	-69,096	0,153	-0,041
-210,723	158,868	-0,092	0,091
-209,709	-200,000	0,026	-0,135
-208,694	-200,000	-0,025	-0,091
-207,679	-72,072	0,145	0,038
-206,665	297,314	0,040	0,052
-205,650	-200,000	-0,014	0,129
-204,636	572,816	0,077	0,134
-203,621	136,189	-0,028	-0,026
-202,606	545,274	-0,046	-0,078
-201,592	-200,000	0,014	0,112
-200,577	760,003	-0,073	-0,141
-199,563	-97,522	0,230	-0,042
-198,548	800,000	0,045	0,116
-197,533	-159,989	0,044	0,002
-196,519	161,480	0,077	-0,077
-195,504	-78,984	-0,055	0,013
-194,490	-200,000	0,039	0,134
-193,475	800,000	0,053	-0,135
-192,460	-200,000	0,021	-0,172
-191,446	454,681	0,030	-0,048
-190,431	-50,920	-0,163	-0,054
-189,417	90,524	0,089	0,070
-188,402	137,662	0,125	-0,116
-187,387	-166,537	-0,051	-0,001
-186,373	-102,685	-0,119	0,020
-185,358	800,000	-0,025	0,059
-184,344	-76,268	0,072	0,018
-183,329	-200,000	0,022	0,144
-182,315	-42,846	0,120	-0,043
-181,300	-63,833	-0,119	-0,034
-180,285	800,000	0,038	0,113
-179,271	42,024	0,043	-0,028
-178,256	-147,751	0,072	-0,004
-177,242	800,000	0,081	0,166
-176,227	-16,564	-0,035	0,016
-175,212	800,000	0,025	0,064
-174,198	311,556	0,090	-0,120
-173,183	260,428	0,027	-0,034
-172,169	-200,000	-0,037	-0,142
-171,154	-25,857	-0,119	0,049
-170,139	145,953	0,008	0,008
-169,125	-0,272	0,102	-0,051
-168,110	131,633	0,081	0,074
-167,096	-200,000	0,022	0,148
-166,081	800,000	-0,038	-0,110
-165,066	-115,339	-0,063	-0,008
-164,052	30,888	-0,057	0,034
-163,037	-9,597	-0,028	0,013
-162,023	-200,000	0,009	0,042
-161,008	800,000	-0,032	-0,064
-159,993	222,271	0,036	0,041
-158,979	276,789	0,030	-0,039
-157,964	-108,264	-0,191	-0,029
-156,950	800,000	-0,026	-0,077
-155,935	800,000	0,037	0,093
-154,920	441,466	-0,048	0,075
-153,906	198,875	0,044	0,048
-152,891	35,953	0,079	0,049
-151,877	28,345	-0,060	0,036
-150,862	-200,000	-0,013	-0,045
-149,847	-26,074	-0,073	0,030
-148,833	196,709	-0,056	0,060
-147,818	277,292	-0,135	-0,170
-146,804	800,000	-0,058	0,119
-145,789	-200,000	-0,008	0,123
-144,775	-200,000	0,010	0,177
-143,760	50,156	-0,037	-0,024
-142,745	140,306	0,087	0,081
-141,731	800,000	0,019	0,047
-140,716	-187,898	0,028	0,000
-139,702	720,897	0,069	0,132
-138,687	256,777	-0,034	0,042
-137,672	-48,226	0,120	-0,041
-136,658	461,980	-0,049	0,078
-135,643	404,398	0,043	0,064
-134,629	-98,794	0,083	-0,015
-133,614	-67,160	0,078	0,022
-132,599	745,019	-0,090	0,172
-131,585	36,291	0,105	0,065
-130,570	-119,842	-0,065	0,008
-129,556	287,040	-0,060	-0,077
-128,541	403,660	-0,037	-0,055
-127,526	-200,000	-0,002	-0,039
-126,512	778,078	0,013	0,025
-125,497	718,982	0,066	0,124
-124,483	-67,311	0,126	0,035
-123,468	24,030	-0,061	0,036
-122,453	294,316	0,015	-0,019
-121,439	-200,000	-0,003	-0,087
-120,424	800,000	-0,036	0,088
-119,410	-200,000	-0,019	0,077
-118,395	-12,190	0,016	-0,007
-117,380	691,793	0,105	0,195
-116,366	-200,000	-0,009	0,082
-115,351	133,183	-0,021	0,019
-114,337	-200,000	0,009	-0,117
-113,322	-200,000	0,020	-0,073
-112,307	-47,245	-0,040	-0,014
-111,293	-116,941	-0,080	-0,010
-110,278	-36,577	0,150	-0,057
-109,264	97,920	-0,113	-0,092
-108,249	-35,712	-0,041	0,016
-107,234	-200,000	-0,016	0,123
-106,220	800,000	0,013	-0,035
-105,205	355,420	-0,030	-0,042
-104,191	800,000	0,011	-0,033
-103,176	800,000	-0,053	0,110
-102,162	6,213	0,062	0,032
-101,147	370,789	-0,053	-0,076
-100,132	-200,000	-0,032	-0,108
-99,118	-86,271	0,097	0,021
-98,103	449,174	-0,079	-0,124
-97,089	800,000	0,040	-0,122
-96,074	-200,000	0,021	0,123
-95,059	-200,000	0,021	0,116
-94,045	39,010	-0,075	-0,048
-93,030	-149,030	-0,079	-0,004
-92,016	-122,440	-0,075	-0,008
-91,001	378,607	0,051	-0,074
-89,986	141,640	-0,070	-0,066
-88,972	-200,000	-0,005	0,102
-87,957	-143,183	-0,045	-0,003
-86,943	-86,194	0,056	0,012
-85,928	-200,000	0,011	-0,060
-84,913	61,093	-0,103	-0,072
-83,899	-200,000	-0,027	0,107
-82,884	800,000	0,009	-0,026
-81,870	-200,000	0,009	0,045
-80,855	-200,000	0,022	0,070
-79,840	-200,000	0,038	0,132
-78,826	-109,176	-0,182	0,027
-77,811	466,168	-0,042	-0,067
-76,797	-5,603	-0,049	0,024
-75,782	-200,000	-0,010	-0,084
-74,767	583,576	0,036	0,062
-73,753	-200,000	-0,013	-0,149
-72,738	-116,189	-0,077	0,010
-71,724	-62,168	-0,109	0,032
-70,709	800,000	-0,063	-0,163
-69,694	-200,000	-0,006	-0,067
-68,680	24,754	0,080	-0,047
-67,665	-200,000	0,009	-0,058
-66,651	349,909	0,081	0,114
-65,636	204,216	-0,054	0,059
-64,622	136,072	-0,100	0,092
-63,607	-186,886	0,041	-0,000
-62,592	-102,889	-0,108	-0,018
-61,578	-148,601	0,098	0,006
-60,563	386,978	0,066	-0,096
-59,549	-200,000	0,011	0,048
-58,534	18,187	-1,940	-1,090
-57,519	546,447	-1,205	-2,043
-56,505	-200,000	-0,356	-4,379
-55,490	604,495	0,863	1,523
-54,476	800,000	5,058	11,126
-53,461	-200,000	20,821	328,914
-52,446	800,000	757,751	2322,672
-51,432	549,869	1662,439	2824,937
-50,417	73,463	1663,800	1228,264
-49,403	18,696	1537,285	866,074
-48,388	12,688	1460,241	793,586
-47,373	18,942	1451,060	818,609
-46,359	15,801	1440,097	797,439
-45,344	10,947	1436,066	772,046
-44,330	10,901	1434,178	770,779
-43,315	10,863	1432,298	769,561
-42,300	10,841	1430,644	768,538
-41,286	10,907	1429,279	768,087
-40,271	10,854	1427,903	767,066
-39,257	10,898	1426,720	766,607
-38,242	10,843	1425,788	765,814
-37,227	10,897	1424,621	765,413
-36,213	10,928	1423,102	764,713
-35,198	10,920	1422,199	764,159
-34,184	10,970	1421,426	763,953
-33,169	10,899	1420,038	762,841
-32,154	10,965	1418,903	762,509
-31,140	10,984	1417,334	761,725
-30,125	10,956	1416,630	761,189
-29,111	10,936	1415,299	760,346
-28,096	10,963	1414,269	759,890
-27,082	10,905	1413,040	758,930
-26,067	10,847	1412,021	758,077
-25,052	10,845	1411,049	757,515
-24,038	10,865	1409,957	756,992
-23,023	10,820	1409,210	756,352
-22,009	10,842	1407,934	755,741
-20,994	10,881	1406,811	755,291
-19,979	10,854	1406,013	754,707
-18,965	10,825	1405,045	754,018
-17,950	10,845	1404,014	753,530
-16,936	10,812	1403,513	753,077
-15,921	10,740	1402,530	752,183
-14,906	10,771	1401,544	751,771
-13,892	10,826	1400,304	751,331
-12,877	10,788	1399,653	750,778
-11,863	10,781	1398,810	750,263
-10,848	10,763	1397,882	749,650
-9,833	10,698	1397,223	748,964
-8,819	10,660	1396,339	748,286
-7,804	10,681	1395,326	747,808
-6,790	10,700	1394,216	747,275
-5,775	10,707	1393,243	746,756
-4,760	10,764	1392,170	746,412
-3,746	10,701	1391,380	745,672
-2,731	10,671	1390,695	745,133
-1,717	10,659	1389,890	744,617
-0,702	10,659	1387,953	743,550
0,313	14,745	1301,586	715,989
1,327	31,108	692,606	418,196
2,342	48,574	120,021	79,212
3,356	1,305	16,338	8,254
4,371	2,507	3,440	1,751
5,386	-24,616	0,854	0,357
6,400	412,979	0,243	0,366
7,415	-200,000	0,005	-0,142
8,429	164,276	-0,216	-0,215
9,444	-10,096	-0,377	-0,176
10,459	800,000	-0,128	-0,304
11,473	-19,628	-0,384	-0,167
12,488	-14,479	-0,246	-0,111
13,502	-80,688	-0,391	-0,091
14,517	-18,092	-0,303	-0,133
15,531	88,174	-0,397	-0,310
16,546	47,449	-0,278	-0,182
17,561	-28,095	-0,426	-0,173
18,575	-142,008	-0,101	0,007
19,590	76,995	-0,245	-0,183
20,604	-74,143	-0,230	-0,058
21,619	70,624	-0,383	-0,279
22,634	105,389	-0,404	-0,336
23,648	80,677	-0,385	-0,292
24,663	107,727	-0,426	-0,357
25,677	125,231	-0,265	-0,236
26,692	800,000	-0,116	-0,241
27,707	-44,129	-0,419	-0,147
28,721	60,911	-0,476	-0,332
29,736	211,574	-0,328	-0,364
30,750	38,463	-0,448	-0,280
31,765	188,024	-0,427	-0,449
32,780	-19,453	-0,292	-0,127
33,794	90,374	-0,338	-0,266
34,809	122,517	-0,314	-0,276
35,823	-22,432	-0,437	-0,185
36,838	357,158	-0,267	-0,375
37,853	-26,316	-0,385	-0,158
38,867	229,667	-0,349	-0,401
39,882	76,321	-0,388	-0,289
40,896	38,710	-0,311	-0,195
41,911	-65,463	-0,380	-0,107
42,926	-34,203	-0,397	-0,152
43,940	152,557	-0,294	-0,282
44,955	-17,941	-0,396	-0,174
45,969	205,535	-0,307	-0,336
46,984	3,806	-0,454	-0,232
47,999	-28,442	-0,375	-0,151
49,013	170,519	-0,296	-0,298
50,028	53,335	-0,394	-0,265
51,042	344,412	-0,216	-0,299
52,057	39,199	-0,236	-0,148
53,071	198,606	-0,203	-0,219
54,086	278,784	-0,274	-0,344
55,101	225,288	-0,189	-0,215
56,115	51,878	-0,286	-0,191
57,130	24,812	-0,286	-0,166
58,144	12,472	-0,415	-0,224
59,159	107,031	-0,377	-0,314
60,174	-65,739	-0,384	-0,107
61,188	-42,098	-0,378	-0,135
62,203	-5,935	-0,316	-0,151
63,217	189,772	-0,222	-0,234
64,232	16,319	-0,233	-0,128
65,247	-62,866	-0,316	-0,091
66,261	193,794	-0,147	-0,156
67,276	59,420	-0,399	-0,276
68,290	-26,893	-0,421	-0,172
69,305	593,407	-0,189	-0,330
70,320	48,156	-0,362	-0,237
71,334	11,805	-0,307	-0,165
72,349	-3,312	-0,316	-0,154
73,363	62,590	-0,306	-0,214
74,378	-6,560	-0,297	-0,141
75,393	87,221	-0,244	-0,189
76,407	-8,362	-0,263	-0,123
77,422	-140,106	-0,271	0,020
78,436	51,362	-0,327	-0,217
79,451	-19,954	-0,268	-0,115
80,466	105,764	-0,308	-0,255
81,480	-41,954	-0,304	-0,109
82,495	-48,187	-0,372	-0,125
83,509	413,858	-0,165	-0,247
84,524	297,559	-0,178	-0,230
85,539	8,658	-0,248	-0,131
86,553	48,675	-0,330	-0,216
87,568	31,928	-0,236	-0,142
88,582	118,452	-0,282	-0,243
89,597	-1,456	-0,286	-0,141
90,611	5,612	-0,260	-0,134
91,626	118,790	-0,195	-0,169
92,641	53,290	-0,229	-0,153
93,655	-13,974	-0,356	-0,160
94,670	26,041	-0,320	-0,187
95,684	166,774	-0,245	-0,244
96,699	145,072	-0,258	-0,241
97,714	3,157	-0,307	-0,156
98,728	147,369	-0,249	-0,235
99,743	-40,249	-0,260	-0,094
100,757	-90,602	-0,250	-0,050
101,772	54,856	-0,262	-0,176
102,787	4,235	-0,210	-0,107
103,801	25,480	-0,432	-0,250
104,816	84,187	-0,228	-0,174
105,830	28,154	-0,348	-0,205
106,845	-29,698	-0,315	-0,125
107,860	57,784	-0,262	-0,179
108,874	-54,794	-0,364	-0,114
109,889	56,015	-0,374	-0,253
110,903	-101,831	-0,254	-0,043
111,918	800,000	-0,105	-0,311
112,933	249,331	-0,156	-0,184
113,947	336,281	-0,096	-0,130
114,962	-94,682	-0,216	-0,041
115,976	-130,074	-0,330	-0,031
116,991	50,044	-0,249	-0,164
118,006	28,226	-0,237	-0,140
119,020	4,551	-0,277	-0,141
120,035	67,303	-0,176	-0,125
121,049	-56,200	-0,265	-0,082
122,064	-190,732	-0,253	0,002
123,079	-45,411	-0,323	-0,111
124,093	98,202	-0,249	-0,200
125,108	-74,416	-0,350	-0,087
126,122	1,022	-0,261	-0,130
127,137	229,834	-0,232	-0,265
128,151	-36,084	-0,223	-0,083
129,166	60,566	-0,208	-0,143
130,181	105,932	-0,303	-0,250
131,195	-20,354	-0,202	-0,086
132,210	45,262	-0,263	-0,169
133,224	-136,349	-0,238	-0,019
134,239	253,471	-0,143	-0,171
135,254	162,562	-0,103	-0,101
136,268	100,179	-0,271	-0,219
137,283	82,592	-0,311	-0,236
138,297	77,111	-0,186	-0,138
139,312	-36,422	-0,325	-0,121
140,327	105,880	-0,375	-0,309
141,341	445,072	-0,180	-0,276
142,356	357,288	-0,175	-0,244
143,370	26,878	-0,226	-0,131
144,385	110,175	-0,278	-0,233
145,400	316,773	-0,166	-0,219
146,414	48,829	-0,294	-0,192
147,429	50,442	-0,259	-0,171
148,443	111,661	-0,245	-0,206
149,458	87,734	-0,190	-0,146
150,473	-11,196	-0,330	-0,151
151,487	57,385	-0,191	-0,130
152,502	58,594	-0,269	-0,183
153,516	-35,080	-0,298	-0,113
154,531	415,304	-0,243	-0,362
155,546	251,998	-0,177	-0,211
156,560	135,613	-0,239	-0,216
157,575	120,834	-0,163	-0,141
158,589	74,370	-0,209	-0,153
159,604	281,300	-0,111	-0,138
160,619	342,412	-0,174	-0,238
161,633	-48,479	-0,358	-0,119
162,648	125,120	-0,174	-0,153
163,662	227,875	-0,098	-0,111
164,677	28,408	-0,195	-0,114
165,692	-34,135	-0,192	-0,073
166,706	281,320	-0,198	-0,247
167,721	9,190	-0,243	-0,127
168,735	320,239	-0,195	-0,258
169,750	160,445	-0,267	-0,259
170,764	192,983	-0,184	-0,194
171,779	66,106	-0,217	-0,153
172,794	-77,208	-0,334	-0,080
173,808	-25,229	-0,243	-0,100
174,823	24,515	-0,193	-0,110
175,837	2,036	-0,248	-0,124
176,852	556,585	-0,100	-0,168
177,867	406,621	-0,114	-0,168
178,881	324,656	-0,183	-0,243
179,896	257,924	-0,139	-0,166
180,910	105,442	-0,230	-0,189
181,925	-45,153	-0,248	-0,085
182,940	-16,767	-0,307	-0,134
183,954	310,844	-0,252	-0,328
184,969	379,166	-0,154	-0,220
185,983	495,888	-0,131	-0,209
186,998	-152,512	-0,225	-0,011
188,013	-14,895	-0,278	-0,123
189,027	274,543	-0,238	-0,293
190,042	164,383	-0,132	-0,130
191,056	186,566	-0,214	-0,221
192,071	747,420	-0,131	-0,245
193,086	-38,235	-0,154	-0,056
194,100	-27,241	-0,290	-0,116
195,115	800,000	-0,100	-0,222
196,129	159,373	-0,099	-0,096
197,144	1,592	-0,230	-0,114
198,159	49,536	-0,211	-0,137
199,173	50,731	-0,205	-0,134
200,188	711,547	-0,140	-0,258
201,202	-14,494	-0,210	-0,093
202,217	-91,196	-0,191	-0,038
203,232	338,917	-0,145	-0,197
204,246	671,249	-0,138	-0,249
205,261	182,017	-0,174	-0,177
206,275	302,311	-0,092	-0,118
207,290	224,232	-0,207	-0,232
208,304	-41,266	-0,173	-0,061
209,319	-117,448	-0,101	-0,013
210,334	34,753	-0,127	-0,077
211,348	51,963	-0,266	-0,175
212,363	477,761	-0,143	-0,226
213,377	-127,571	-0,227	-0,022
214,392	-5,711	-0,235	-0,111
215,407	63,611	-0,160	-0,111
216,421	741,470	-0,097	-0,180
217,436	130,780	-0,152	-0,135
218,450	-94,245	-0,256	-0,048
219,465	123,609	-0,236	-0,205
220,480	454,844	-0,153	-0,235
221,494	326,426	-0,115	-0,153
222,509	-81,788	-0,077	-0,017
223,523	194,827	-0,114	-0,119
224,538	-45,448	-0,268	-0,092
225,553	262,132	-0,183	-0,220
226,567	351,705	-0,065	-0,090
227,582	-200,000	0,001	-0,131
228,596	-146,976	-0,075	-0,004
229,611	-200,000	-0,297	0,001
230,626	-102,599	-0,200	0,033
231,640	156,318	-0,145	-0,139
232,655	800,000	-0,091	-0,237
233,669	117,102	-0,174	-0,148
234,684	317,308	-0,178	-0,233
235,699	230,831	-0,110	-0,124
236,713	-135,331	-0,132	-0,011
237,728	-21,103	-0,182	-0,077
238,742	204,359	-0,094	-0,101
239,757	453,479	-0,222	-0,340
240,772	-49,182	-0,294	-0,096
241,786	731,180	-0,126	-0,234
242,801	41,640	-0,170	-0,106
243,815	385,353	-0,094	-0,134
244,830	36,565	-0,120	-0,073
245,844	-154,931	-0,188	0,008
246,859	30,023	-0,121	-0,071
247,874	49,221	-0,279	-0,181
248,888	-154,828	-0,169	0,008
249,903	332,037	-0,144	-0,192
250,917	-19,705	-0,288	-0,122
251,932	-60,598	-0,211	-0,061
252,947	85,951	-0,074	-0,056
253,961	-64,080	-0,182	0,051
254,976	582,189	-0,117	-0,198
255,990	-25,927	-0,151	-0,061
257,005	487,083	-0,149	-0,236
258,020	-51,620	-0,192	-0,062
259,034	103,815	-0,063	-0,051
260,049	7,962	-0,134	-0,069
261,063	-105,154	-0,130	0,020
262,078	117,486	-0,128	-0,108
263,093	-72,018	-0,249	-0,063
264,107	-188,989	-0,253	0,002
265,122	309,770	-0,118	-0,152
266,136	-51,560	-0,153	-0,049
267,151	151,914	-0,135	-0,127
268,166	17,304	-0,185	-0,101
269,180	748,978	-0,131	-0,245
270,195	151,131	-0,221	-0,207
271,209	438,517	-0,074	-0,111
272,224	408,887	-0,048	-0,071
273,239	-46,083	-0,302	-0,102
274,253	800,000	-0,072	-0,138
275,268	690,292	-0,039	-0,070
276,282	-4,101	-0,216	-0,103
277,297	800,000	-0,058	-0,138
278,312	-110,890	-0,133	-0,019
279,326	205,592	-0,084	-0,090
280,341	43,249	-0,219	-0,137
281,355	69,573	-0,109	-0,077
282,370	37,653	-0,105	-0,064
283,384	-37,458	-0,230	-0,084
284,399	71,209	-0,222	-0,159
285,414	-41,338	-0,095	-0,033
286,428	800,000	-0,058	-0,135
287,443	-53,793	-0,198	-0,062
288,457	-40,775	-0,150	-0,053
289,472	196,986	-0,110	-0,116
290,487	27,884	-0,237	-0,137
291,501	21,185	-0,294	-0,164
292,516	-13,848	-0,079	-0,035
293,530	339,180	-0,077	-0,104
294,545	-64,874	-0,138	-0,038
295,560	40,019	-0,152	-0,094
296,574	-61,447	-0,260	-0,075
297,589	122,979	-0,162	-0,139
298,603	-65,595	-0,255	-0,070
299,618	-32,023	-0,192	-0,074
300,633	13,539	-0,199	-0,106
301,647	94,331	-0,142	-0,111
302,662	17,040	-0,190	0,103
303,676	220,149	-0,116	-0,128
304,691	-108,683	-0,227	0,033
305,706	44,454	-0,128	0,081
306,720	-145,137	-0,253	-0,016
307,735	18,734	-0,077	-0,042
308,749	-161,714	-0,167	-0,006
309,764	112,831	-0,151	-0,126
310,779	115,278	-0,124	-0,104
311,793	-39,656	-0,186	0,067
312,808	154,849	-0,175	-0,165
313,822	148,042	-0,126	-0,117
314,837	529,472	-0,141	-0,230
315,852	-116,121	-0,113	-0,014
316,866	-150,878	-0,176	-0,009
317,881	-116,650	-0,071	-0,009
318,895	220,877	-0,117	-0,129
319,910	254,236	-0,124	-0,145
320,925	-135,537	-0,135	0,011
321,939	469,934	-0,057	-0,088
322,954	15,358	-0,080	-0,043
323,968	545,484	-0,142	-0,233
324,983	296,940	-0,122	-0,154
325,997	-82,653	-0,174	-0,038
327,012	201,329	-0,128	-0,136
328,027	800,000	-0,121	-0,271
329,041	180,740	-0,161	-0,163
330,056	-98,107	-0,054	-0,009
331,070	-25,948	-0,194	-0,078
332,085	800,000	-0,033	-0,067
333,100	-135,168	-0,128	0,010
334,114	-119,147	-0,200	0,024
335,129	-10,809	-0,174	-0,078
336,143	100,828	-0,163	-0,130
337,158	-88,923	-0,185	0,037
338,173	-132,659	-0,126	-0,011
339,187	-115,648	-0,166	-0,021
340,202	-91,126	-0,130	-0,025
341,216	25,339	-0,222	-0,126
342,231	800,000	-0,116	-0,248
343,246	21,103	-0,139	-0,077
344,260	800,000	-0,049	-0,127
345,275	7,590	-0,176	-0,090
346,289	-179,967	-0,119	-0,002
347,304	0,538	-0,156	-0,076
348,319	14,807	-0,214	-0,114
349,333	142,403	-0,163	-0,148
350,348	198,093	-0,138	-0,144
351,362	800,000	-0,025	-0,059
352,377	794,442	0,016	-0,029
353,392	-200,000	-0,003	-0,040
354,406	336,558	-0,115	-0,153
355,421	206,946	1306,852	1394,971
356,435	159,176	1466,596	1395,452
