DTS Sentinel unit serial number:	SN410029Multiplexer serial number:	ORYXHardware model number:	OX2-SRSoftware version number:	ORYX F/W v4,00 Oryx Data Collector v3.7.2.0data status	okinstallation	B3 Nyhavnadifferential loss correction	single-endedforward channel	channel 1reverse channel	N/Adate	2023/11/29time	18:57:30forward acquisition time	300,00reverse acquisition time	0,00gamma	499,1914k internal	0,3209k external	0,3209temperature offset calibration	1,0000default loss term (dB/km)	0,3820temperature slope calibration	1,0000multiplexer offset coefficient	1,0000multiplexer slope coefficient	1,0000fibre end	0,00T internal ref (°C)	11,03T ext. ref 1 (°C)	-4,21T ext. ref 2 (°C)	-4,33length (m)	temperature (°C)	Stokes	anti-Stokes-744,400	452,387	-0,150	-0,241
-743,385	-200,000	0,108	0,418
-742,371	391,571	-0,068	-0,102
-741,356	-200,000	0,090	0,320
-740,342	106,754	-0,184	-0,159
-739,327	800,000	-0,141	0,375
-738,312	41,121	-0,272	-0,178
-737,298	-200,000	0,025	0,165
-736,283	45,985	-0,203	-0,136
-735,269	-200,000	0,001	0,425
-734,254	126,229	-0,165	-0,151
-733,239	-3,210	-0,221	0,111
-732,225	90,424	-0,170	-0,138
-731,210	518,948	0,084	0,144
-730,196	736,601	-0,020	0,039
-729,181	-92,411	-0,110	0,022
-728,167	-200,000	0,006	-0,177
-727,152	-200,000	0,012	-0,076
-726,137	443,163	-0,029	0,047
-725,123	282,965	-0,004	0,005
-724,108	800,000	-0,039	-0,094
-723,094	248,540	-0,028	-0,035
-722,079	256,782	-0,035	0,044
-721,064	152,038	-0,122	-0,121
-720,050	53,674	-0,081	-0,056
-719,035	-83,535	-0,074	0,017
-718,021	-151,089	0,010	0,001
-717,006	-37,447	-0,066	-0,025
-715,991	800,000	0,045	-0,133
-714,977	453,830	-0,065	-0,104
-713,962	-144,790	-0,058	-0,004
-712,948	-43,074	0,083	-0,030
-711,933	800,000	-0,023	0,061
-710,918	-16,772	-0,070	-0,032
-709,904	800,000	-0,056	-0,118
-708,889	800,000	-0,063	-0,150
-707,875	-155,741	-0,062	-0,003
-706,860	64,087	0,025	-0,018
-705,845	23,071	0,150	-0,089
-704,831	-73,361	-0,029	-0,008
-703,816	-200,000	0,000	-0,064
-702,802	-200,000	-0,035	-0,119
-701,787	-134,782	-0,069	0,006
-700,772	-200,000	0,017	0,069
-699,758	800,000	-0,016	-0,037
-698,743	800,000	0,041	0,115
-697,729	6,652	0,043	-0,023
-696,714	-104,571	0,039	0,007
-695,699	800,000	0,038	0,078
-694,685	-194,018	0,088	-0,001
-693,670	800,000	-0,031	-0,076
-692,656	-19,474	0,056	0,025
-691,641	800,000	-0,022	-0,055
-690,627	-95,608	-0,114	0,022
-689,612	189,262	0,056	-0,061
-688,597	421,290	0,072	0,113
-687,583	-200,000	-0,003	-0,158
-686,568	800,000	-0,034	-0,092
-685,554	-140,033	-0,039	0,003
-684,539	81,657	0,073	-0,057
-683,524	-200,000	-0,002	-0,032
-682,510	800,000	0,037	-0,101
-681,495	139,454	0,051	0,048
-680,481	278,803	-0,129	-0,167
-679,466	-200,000	0,017	-0,072
-678,451	217,891	-0,084	-0,097
-677,437	662,991	-0,023	-0,043
-676,422	-128,660	0,098	-0,010
-675,408	432,961	-0,029	-0,046
-674,393	-80,363	-0,061	-0,015
-673,378	800,000	0,061	-0,186
-672,364	31,735	-0,147	-0,091
-671,349	-122,892	-0,034	0,004
-670,335	198,948	-0,058	0,064
-669,320	-12,716	0,129	-0,061
-668,305	221,293	0,030	-0,035
-667,291	67,124	-0,074	0,055
-666,276	-35,326	-0,080	0,031
-665,262	800,000	-0,044	-0,098
-664,247	25,647	-0,076	0,046
-663,232	102,561	0,051	-0,043
-662,218	29,092	-0,024	0,015
-661,203	-77,745	-0,044	-0,011
-660,189	-138,740	0,097	-0,008
-659,174	532,042	-0,071	-0,121
-658,159	800,000	-0,006	0,016
-657,145	86,340	-0,049	-0,039
-656,130	11,108	-0,052	0,029
-655,116	61,321	0,095	0,068
-654,101	-200,000	0,005	0,094
-653,086	430,965	-0,069	-0,108
-652,072	-200,000	-0,016	0,055
-651,057	800,000	-0,027	-0,058
-650,043	251,194	-0,017	-0,021
-649,028	206,158	0,096	-0,109
-648,014	-188,743	-0,041	0,000
-646,999	-200,000	-0,014	0,079
-645,984	-200,000	0,003	-0,075
-644,970	92,604	0,105	0,085
-643,955	-36,210	-0,086	0,033
-642,941	477,841	-0,117	-0,192
-641,926	416,794	0,024	-0,037
-640,911	-200,000	-0,011	-0,128
-639,897	-136,181	-0,023	-0,002
-638,882	-200,000	0,005	0,020
-637,868	-200,000	-0,019	0,145
-636,853	579,897	-0,043	-0,077
-635,838	-54,634	-0,091	-0,030
-634,824	-200,000	0,014	-0,052
-633,809	90,585	0,035	0,029
-632,795	-1,228	0,043	0,022
-631,780	12,469	0,060	-0,033
-630,765	21,769	0,067	-0,039
-629,751	-33,278	-0,149	-0,059
-628,736	319,893	0,052	-0,072
-627,722	-72,034	-0,015	-0,004
-626,707	-127,835	0,045	-0,005
-625,692	519,337	-0,032	0,054
-624,678	-22,415	0,106	-0,046
-623,663	230,795	-0,077	0,091
-622,649	800,000	-0,048	-0,108
-621,634	-200,000	-0,047	-0,187
-620,619	-134,606	-0,097	0,008
-619,605	-132,083	0,010	0,001
-618,590	-95,336	0,102	0,020
-617,576	258,305	-0,044	0,055
-616,561	800,000	-0,027	-0,082
-615,546	110,915	-0,031	-0,027
-614,532	111,382	-0,134	-0,116
-613,517	55,988	-0,031	-0,022
-612,503	-200,000	0,029	0,116
-611,488	319,502	0,048	0,066
-610,474	610,817	-0,027	0,049
-609,459	-75,291	0,077	0,020
-608,444	-200,000	0,001	-0,029
-607,430	463,694	-0,113	-0,183
-606,415	-0,573	-0,037	-0,019
-605,401	-116,481	-0,069	0,009
-604,386	800,000	0,040	0,092
-603,371	-200,000	0,008	0,134
-602,357	49,659	-0,040	-0,027
-601,342	-133,294	0,015	-0,001
-600,328	174,955	-0,050	-0,052
-599,313	-200,000	0,020	-0,122
-598,298	25,922	0,090	-0,054
-597,284	380,430	0,016	-0,023
-596,269	800,000	0,038	-0,108
-595,255	-112,683	0,120	0,017
-594,240	-80,188	-0,148	-0,036
-593,225	-88,118	-0,210	-0,045
-592,211	-200,000	-0,018	-0,123
-591,196	-112,466	0,056	0,008
-590,182	-200,000	-0,013	0,127
-589,167	371,182	0,116	0,171
-588,152	236,259	0,067	0,080
-587,138	800,000	-0,043	0,123
-586,123	99,429	0,094	-0,079
-585,109	-142,256	-0,087	-0,006
-584,094	53,329	0,109	-0,075
-583,079	161,824	0,086	0,087
-582,065	-103,944	0,148	0,025
-581,050	-200,000	0,005	0,046
-580,036	53,460	0,028	-0,020
-579,021	27,843	-0,132	-0,080
-578,006	-71,678	-0,101	0,027
-576,992	-31,402	-0,053	-0,022
-575,977	218,625	0,103	-0,119
-574,963	576,855	0,061	-0,108
-573,948	21,042	-0,020	-0,012
-572,934	240,203	-0,041	-0,050
-571,919	800,000	-0,023	-0,047
-570,904	-55,297	-0,126	-0,041
-569,890	211,120	0,062	0,070
-568,875	-53,900	-0,087	-0,028
-567,861	-173,485	0,106	-0,002
-566,846	360,174	-0,047	0,069
-565,831	-112,617	-0,052	-0,007
-564,817	-56,127	0,074	-0,024
-563,802	-111,038	-0,097	0,014
-562,788	250,827	0,068	0,083
-561,773	53,040	0,059	0,041
-560,758	203,764	-0,031	0,034
-559,744	-60,663	0,151	-0,046
-558,729	-22,331	-0,094	-0,041
-557,715	712,856	0,024	-0,046
-556,700	-104,527	-0,206	-0,034
-555,685	161,714	-0,123	-0,124
-554,671	-39,214	0,047	0,018
-553,656	232,920	-0,037	0,044
-552,642	-164,121	-0,092	-0,003
-551,627	482,373	-0,032	0,053
-550,612	-200,000	0,023	0,127
-549,598	-200,000	-0,009	0,084
-548,583	-200,000	0,006	-0,031
-547,569	380,518	-0,079	-0,117
-546,554	-200,000	-0,029	0,181
-545,539	-75,766	0,115	-0,029
-544,525	-96,361	-0,044	-0,008
-543,510	-200,000	-0,038	-0,188
-542,496	-142,597	-0,187	0,013
-541,481	320,874	0,030	-0,042
-540,466	140,943	0,062	0,059
-539,452	-16,533	-0,022	-0,010
-538,437	614,012	-0,039	-0,071
-537,423	800,000	0,014	0,042
-536,408	-102,452	0,098	-0,017
-535,393	-2,450	0,102	-0,051
-534,379	30,490	-0,186	-0,114
-533,364	-28,465	0,114	0,047
-532,350	-200,000	0,029	-0,154
-531,335	-138,998	-0,146	-0,011
-530,321	-200,000	-0,014	0,137
-529,306	-141,952	-0,177	-0,013
-528,291	63,679	0,131	-0,095
-527,277	14,587	-0,054	-0,030
-526,262	800,000	0,081	-0,184
-525,248	636,861	-0,022	0,040
-524,233	47,432	0,106	0,071
-523,218	-200,000	0,016	0,060
-522,204	-200,000	0,024	0,092
-521,189	-30,458	0,114	-0,046
-520,175	344,475	-0,139	-0,196
-519,160	-93,632	0,084	-0,017
-518,145	175,446	0,097	0,102
-517,131	-163,765	0,023	-0,001
-516,116	-200,000	-0,010	0,127
-515,102	-200,000	-0,003	0,139
-514,087	-200,000	-0,012	0,109
-513,072	71,097	0,066	0,049
-512,058	-200,000	0,010	-0,101
-511,043	-140,227	0,095	0,007
-510,029	366,841	-0,083	-0,121
-509,014	-200,000	0,013	0,051
-507,999	3,257	0,064	-0,033
-506,985	-200,000	-0,003	-0,073
-505,970	-24,169	-0,077	0,033
-504,956	271,683	-0,101	0,129
-503,941	-79,001	-0,116	-0,028
-502,926	-196,327	0,067	-0,000
-501,912	-200,000	0,019	-0,106
-500,897	30,666	0,090	0,055
-499,883	-66,917	0,090	-0,025
-498,868	102,693	-0,140	-0,118
-497,853	800,000	-0,045	-0,098
-496,839	-79,829	-0,064	-0,015
-495,824	-69,926	0,054	-0,015
-494,810	47,839	0,067	0,045
-493,795	2,975	-0,044	0,023
-492,781	12,656	-0,147	-0,081
-491,766	146,665	-0,013	-0,013
-490,751	-55,296	-0,176	0,056
-489,737	-66,401	0,111	0,031
-488,722	-200,000	-0,038	0,151
-487,708	1,920	0,113	-0,058
-486,693	800,000	-0,016	-0,049
-485,678	64,963	0,080	-0,058
-484,664	-181,803	0,120	-0,002
-483,649	-82,186	0,061	-0,014
-482,635	776,012	0,070	-0,138
-481,620	488,929	0,092	0,151
-480,605	203,441	-0,022	-0,025
-479,591	38,362	-0,079	-0,050
-478,576	800,000	-0,021	-0,067
-477,562	173,220	0,037	0,038
-476,547	780,579	-0,019	0,038
-475,532	800,000	0,073	0,148
-474,518	666,934	0,033	0,062
-473,503	-200,000	0,026	0,091
-472,489	14,668	-0,113	0,063
-471,474	-200,000	-0,001	0,019
-470,459	238,230	-0,030	-0,035
-469,445	-196,983	-0,090	-0,000
-468,430	-148,639	-0,066	-0,004
-467,416	-200,000	-0,010	-0,103
-466,401	-54,233	0,059	-0,019
-465,386	527,409	0,032	0,055
-464,372	140,139	-0,111	-0,105
-463,357	623,758	0,031	-0,057
-462,343	137,453	-0,105	-0,098
-461,328	-200,000	0,014	-0,056
-460,313	-33,678	-0,109	0,043
-459,299	94,737	0,192	0,156
-458,284	-200,000	0,010	0,086
-457,270	4,071	0,068	-0,036
-456,255	-48,874	-0,108	-0,037
-455,241	-141,323	-0,074	0,005
-454,226	-138,015	0,092	0,007
-453,211	80,453	-0,073	0,056
-452,197	800,000	0,052	0,156
-451,182	-200,000	0,023	0,205
-450,168	116,155	-0,116	0,102
-449,153	97,442	0,084	0,069
-448,138	-181,158	-0,055	0,001
-447,124	326,155	-0,043	-0,059
-446,109	4,135	-0,061	0,032
-445,095	216,320	0,069	0,078
-444,080	46,359	-0,046	-0,030
-443,065	800,000	-0,040	0,109
-442,051	93,744	0,049	-0,040
-441,036	60,501	-0,074	-0,053
-440,022	-72,932	0,047	0,012
-439,007	59,566	0,050	-0,036
-437,992	64,040	0,002	-0,002
-436,978	-200,000	0,025	0,091
-435,963	-200,000	0,027	0,155
-434,949	108,228	-0,025	0,021
-433,934	385,870	0,120	0,178
-432,919	109,234	-0,049	-0,042
-431,905	-129,775	0,059	-0,006
-430,890	112,918	0,062	0,054
-429,876	-200,000	0,011	0,099
-428,861	-130,545	-0,080	-0,008
-427,846	-200,000	0,004	-0,077
-426,832	-200,000	-0,032	-0,156
-425,817	61,136	-0,063	0,044
-424,803	116,515	0,073	-0,064
-423,788	147,561	0,035	-0,034
-422,773	-81,832	0,124	0,029
-421,759	-104,274	-0,082	0,014
-420,744	77,332	-0,111	0,085
-419,730	31,252	-0,101	0,062
-418,715	-200,000	-0,045	0,162
-417,701	-86,627	0,102	0,022
-416,686	-200,000	0,006	0,036
-415,671	200,259	0,083	0,091
-414,657	20,977	-0,159	0,092
-413,642	-200,000	0,013	0,079
-412,628	-200,000	0,003	0,033
-411,613	-200,000	-0,005	-0,039
-410,598	800,000	-0,008	-0,018
-409,584	8,512	0,158	-0,085
-408,569	800,000	-0,030	-0,077
-407,555	800,000	-0,026	0,063
-406,540	-48,234	0,041	0,014
-405,525	800,000	-0,059	-0,134
-404,511	-159,536	0,109	0,004
-403,496	-200,000	-0,005	-0,154
-402,482	800,000	0,045	-0,136
-401,467	-200,000	0,003	-0,035
-400,452	-200,000	-0,017	0,090
-399,438	157,708	-0,052	0,051
-398,423	-56,676	0,074	-0,023
-397,409	-161,080	-0,056	-0,002
-396,394	-18,506	-0,038	0,017
-395,379	800,000	-0,053	-0,132
-394,365	-124,880	0,076	-0,008
-393,350	-103,660	-0,055	0,009
-392,336	800,000	0,048	0,109
-391,321	-90,825	-0,107	-0,022
-390,306	-200,000	-0,022	-0,215
-389,292	-200,000	0,035	-0,122
-388,277	-165,522	0,089	0,003
-387,263	33,549	0,164	0,102
-386,248	-22,484	0,117	0,051
-385,233	-200,000	-0,008	0,128
-384,219	194,372	0,029	0,032
-383,204	-200,000	0,024	0,102
-382,190	14,014	-0,141	-0,078
-381,175	8,658	-0,079	0,042
-380,160	-200,000	0,052	0,223
-379,146	800,000	-0,037	0,118
-378,131	800,000	0,025	0,054
-377,117	-43,215	0,138	0,050
-376,102	-200,000	-0,000	0,039
-375,088	-200,000	-0,032	-0,122
-374,073	2,801	-0,090	-0,046
-373,058	-3,063	0,084	-0,042
-372,044	11,970	0,063	0,035
-371,029	-181,380	0,032	0,000
-370,015	-101,965	-0,019	-0,003
-369,000	109,828	0,043	0,037
-367,985	32,627	0,097	-0,060
-366,971	264,344	0,066	0,082
-365,956	-78,101	-0,032	0,008
-364,942	-135,244	0,055	0,005
-363,927	375,619	-0,022	-0,032
-362,912	558,677	-0,045	0,078
-361,898	61,401	-0,041	-0,029
-360,883	800,000	0,037	-0,082
-359,869	75,799	-0,065	-0,049
-358,854	-11,507	0,167	0,078
-357,839	-200,000	0,010	-0,036
-356,825	-115,514	-0,038	0,005
-355,810	-61,258	-0,150	0,045
-354,796	800,000	-0,020	0,039
-353,781	-38,839	-0,082	-0,031
-352,766	-75,067	-0,088	0,022
-351,752	800,000	0,054	0,129
-350,737	-45,591	-0,110	0,039
-349,723	-81,474	-0,040	-0,009
-348,708	722,694	-0,032	0,061
-347,693	-200,000	0,017	0,123
-346,679	800,000	0,027	-0,074
-345,664	-200,000	-0,025	-0,105
-344,650	-18,165	-0,080	0,035
-343,635	-200,000	-0,030	-0,151
-342,620	424,660	0,113	0,174
-341,606	190,468	0,039	-0,042
-340,591	58,458	-0,065	0,045
-339,577	317,916	0,087	-0,117
-338,562	-200,000	-0,017	-0,102
-337,548	196,151	-0,072	-0,078
-336,533	288,034	0,026	0,034
-335,518	-14,806	0,064	-0,029
-334,504	-200,000	0,003	0,085
-333,489	-200,000	0,007	0,199
-332,475	-66,757	0,045	-0,013
-331,460	-200,000	0,007	-0,075
-330,445	47,273	-0,094	-0,062
-329,431	-200,000	-0,034	0,150
-328,416	0,655	-0,048	-0,025
-327,402	694,808	-0,068	0,128
-326,387	-200,000	-0,010	0,113
-325,372	800,000	-0,029	-0,062
-324,358	-200,000	0,043	-0,158
-323,343	-123,731	0,045	-0,005
-322,329	-107,176	0,019	0,003
-321,314	310,533	0,118	0,158
-320,299	604,073	-0,047	0,084
-319,285	-81,470	0,052	0,012
-318,270	-200,000	-0,010	-0,082
-317,256	-78,130	-0,088	-0,021
-316,241	-200,000	-0,013	-0,162
-315,226	230,986	0,148	-0,173
-314,212	-28,344	0,046	0,019
-313,197	-200,000	0,008	0,140
-312,183	800,000	0,036	-0,108
-311,168	-101,462	-0,093	-0,016
-310,153	-10,046	-0,284	0,134
-309,139	800,000	0,017	-0,049
-308,124	272,480	0,113	0,142
-307,110	-13,290	0,075	0,034
-306,095	40,535	0,098	0,063
-305,080	800,000	-0,033	0,094
-304,066	195,852	-0,021	-0,023
-303,051	-105,161	0,095	0,015
-302,037	-200,000	-0,002	-0,034
-301,022	381,381	-0,035	-0,051
-300,008	52,311	0,058	0,039
-298,993	800,000	0,033	0,100
-297,978	127,688	0,045	0,041
-296,964	309,162	-0,009	-0,012
-295,949	286,982	-0,118	-0,152
-294,935	379,655	-0,048	-0,071
-293,920	-200,000	-0,020	-0,121
-292,905	-57,109	-0,056	-0,017
-291,891	-200,000	-0,013	-0,094
-290,876	-9,128	-0,068	0,032
-289,862	-200,000	-0,003	0,025
-288,847	800,000	0,072	-0,165
-287,832	-91,633	-0,046	0,009
-286,818	729,919	-0,038	0,072
-285,803	-200,000	-0,024	-0,095
-284,789	-111,774	0,028	0,004
-283,774	-178,999	0,062	0,001
-282,759	652,380	0,028	-0,051
-281,745	-46,890	-0,061	-0,021
-280,730	58,644	-0,033	-0,023
-279,716	152,431	-0,040	0,039
-278,701	275,219	0,030	-0,038
-277,686	-56,740	-0,143	0,045
-276,672	-200,000	0,038	0,140
-275,657	107,659	0,004	0,004
-274,643	-45,821	-0,024	0,008
-273,628	-200,000	0,001	0,039
-272,613	-135,178	-0,121	0,010
-271,599	-20,112	0,143	0,063
-270,584	193,146	0,042	0,045
-269,570	800,000	0,059	0,164
-268,555	-112,305	-0,028	0,004
-267,540	284,401	-0,051	-0,065
-266,526	800,000	0,052	-0,105
-265,511	137,686	0,133	0,124
-264,497	800,000	-0,025	-0,051
-263,482	-31,498	-0,078	-0,031
-262,467	373,950	0,048	-0,070
-261,453	-98,810	-0,042	0,007
-260,438	-200,000	0,042	-0,230
-259,424	-127,003	0,074	-0,008
-258,409	-33,570	-0,057	-0,022
-257,395	79,198	0,037	0,028
-256,380	800,000	0,081	0,162
-255,365	-131,531	-0,051	0,005
-254,351	-200,000	0,007	0,090
-253,336	25,211	-0,087	-0,051
-252,322	-132,273	-0,105	-0,010
-251,307	12,058	0,115	0,063
-250,292	189,848	0,075	0,081
-249,278	-132,251	-0,158	-0,014
-248,263	135,368	0,068	0,063
-247,249	-200,000	0,023	0,128
-246,234	800,000	0,014	0,031
-245,219	-34,254	-0,084	-0,033
-244,205	474,220	-0,055	-0,089
-243,190	-121,416	0,179	0,021
-242,176	208,570	0,079	-0,088
-241,161	800,000	-0,045	0,134
-240,146	98,789	-0,089	-0,073
-239,132	722,879	0,019	0,036
-238,117	348,494	0,102	-0,144
-237,103	217,288	0,018	-0,021
-236,088	-0,878	0,039	-0,019
-235,073	-200,000	0,012	-0,040
-234,059	800,000	0,033	0,070
-233,044	-117,994	0,026	-0,003
-232,030	220,328	0,071	-0,081
-231,015	-1,182	-0,078	0,039
-230,000	265,064	-0,087	-0,108
-228,986	-200,000	-0,016	0,073
-227,971	-200,000	0,013	0,075
-226,957	145,690	0,069	0,066
-225,942	-200,000	0,008	0,100
-224,927	-200,000	-0,007	0,147
-223,913	292,403	-0,036	-0,047
-222,898	-200,000	0,015	0,059
-221,884	244,365	-0,032	-0,039
-220,869	-32,021	0,056	-0,022
-219,855	-162,794	0,042	0,001
-218,840	-200,000	0,019	-0,085
-217,825	-105,734	0,078	0,012
-216,811	-200,000	-0,026	0,097
-215,796	-200,000	-0,027	-0,097
-214,782	-40,164	-0,050	0,018
-213,767	-172,130	0,165	0,004
-212,752	347,681	0,009	-0,013
-211,738	301,028	-0,030	-0,040
-210,723	800,000	0,062	-0,172
-209,709	139,651	-0,080	-0,075
-208,694	352,596	0,016	0,022
-207,679	-166,873	-0,061	0,002
-206,665	-200,000	-0,014	-0,054
-205,650	222,349	0,046	0,053
-204,636	-73,657	0,071	0,018
-203,621	800,000	-0,046	0,127
-202,606	269,284	-0,047	0,059
-201,592	-200,000	-0,010	0,064
-200,577	800,000	0,009	0,021
-199,563	-200,000	0,002	-0,127
-198,548	-149,437	-0,037	-0,002
-197,533	-74,690	0,109	-0,028
-196,519	60,434	0,123	0,086
-195,504	800,000	0,071	-0,199
-194,490	460,622	-0,040	0,063
-193,475	419,641	0,059	-0,090
-192,460	287,708	0,023	-0,030
-191,446	672,426	0,029	0,053
-190,431	-200,000	0,011	0,079
-189,417	-200,000	0,024	0,170
-188,402	62,707	-0,074	-0,053
-187,387	-11,814	0,106	0,049
-186,373	-200,000	-0,004	-0,032
-185,358	14,088	-0,080	-0,044
-184,344	-200,000	0,027	-0,107
-183,329	132,854	0,056	-0,051
-182,315	-200,000	-0,008	0,066
-181,300	131,228	0,014	0,013
-180,285	-200,000	-0,005	-0,055
-179,271	-96,677	-0,099	-0,018
-178,256	441,242	-0,015	-0,024
-177,242	307,916	0,065	0,086
-176,227	-85,461	0,107	0,023
-175,212	-88,972	0,117	0,024
-174,198	32,901	-0,085	-0,052
-173,183	458,599	-0,040	-0,063
-172,169	211,067	-0,097	-0,108
-171,154	-200,000	-0,009	-0,208
-170,139	-200,000	0,022	-0,111
-169,125	800,000	0,031	0,083
-168,110	326,013	0,058	-0,079
-167,096	-3,581	-0,085	-0,042
-166,081	-200,000	0,012	0,124
-165,066	-111,314	0,063	0,009
-164,052	73,983	-0,035	-0,026
-163,037	-200,000	0,051	0,162
-162,023	800,000	0,015	-0,033
-161,008	800,000	0,040	0,126
-159,993	-200,000	0,011	0,038
-158,979	-86,794	-0,225	-0,048
-157,964	416,314	0,026	-0,039
-156,950	18,555	-0,086	-0,049
-155,935	-200,000	-0,006	-0,153
-154,920	-161,377	0,014	-0,001
-153,906	74,030	-0,053	0,039
-152,891	800,000	0,054	-0,107
-151,877	50,303	-0,090	-0,060
-150,862	40,510	-0,119	-0,076
-149,847	-1,839	0,020	0,010
-148,833	512,127	0,027	-0,045
-147,818	152,685	-0,090	0,087
-146,804	-91,274	-0,084	0,017
-145,789	12,030	0,118	-0,064
-144,775	-200,000	0,026	0,083
-143,760	353,713	0,021	-0,030
-142,745	-200,000	-0,022	-0,178
-141,731	-200,000	0,020	-0,134
-140,716	-97,336	0,091	-0,017
-139,702	72,880	-0,079	0,058
-138,687	-52,553	-0,108	-0,035
-137,672	417,913	-0,018	-0,028
-136,658	43,006	-0,119	-0,077
-135,643	51,678	-0,158	0,106
-134,629	-14,288	0,057	-0,026
-133,614	800,000	0,040	0,082
-132,599	-200,000	0,017	0,055
-131,585	157,515	0,052	0,051
-130,570	365,703	-0,058	-0,083
-129,556	-200,000	-0,013	-0,041
-128,541	-84,322	-0,100	-0,022
-127,526	800,000	0,059	-0,119
-126,512	-11,553	0,089	-0,041
-125,497	-16,062	0,144	-0,065
-124,483	722,190	-0,031	0,059
-123,468	-1,498	-0,022	-0,011
-122,453	-200,000	-0,011	-0,061
-121,439	-200,000	0,002	-0,096
-120,424	41,099	-0,226	-0,144
-119,410	418,504	-0,056	0,085
-118,395	-8,712	0,114	-0,054
-117,380	153,101	-0,107	0,104
-116,366	-119,392	0,016	0,002
-115,351	-59,154	0,176	-0,053
-114,337	218,725	-0,063	-0,071
-113,322	-200,000	-0,005	-0,032
-112,307	107,760	0,046	-0,039
-111,293	-84,355	0,076	0,017
-110,278	23,179	-0,149	0,087
-109,264	-200,000	-0,022	0,140
-108,249	-98,514	-0,106	0,019
-107,234	354,662	-0,107	-0,151
-106,220	-200,000	-0,010	-0,053
-105,205	800,000	-0,036	-0,095
-104,191	-200,000	0,003	0,058
-103,176	132,537	0,080	0,073
-102,162	295,604	0,036	0,047
-101,147	-200,000	0,042	-0,248
-100,132	-200,000	-0,015	-0,125
-99,118	800,000	0,049	-0,103
-98,103	-200,000	-0,028	-0,093
-97,089	-74,402	-0,043	0,011
-96,074	200,991	0,006	-0,006
-95,059	-103,116	0,119	0,020
-94,045	704,619	-0,061	0,114
-93,030	-200,000	-0,045	-0,143
-92,016	800,000	0,018	-0,053
-91,001	221,769	-0,053	-0,060
-89,986	-200,000	0,006	-0,049
-88,972	-85,634	0,100	-0,022
-87,957	-169,514	0,040	0,001
-86,943	-200,000	-0,011	-0,094
-85,928	800,000	0,053	-0,144
-84,913	597,748	-0,033	-0,058
-83,899	-52,165	0,096	0,031
-82,884	-200,000	-0,003	0,041
-81,870	163,732	0,057	-0,057
-80,855	1,295	0,076	-0,038
-79,840	-52,355	-0,098	-0,032
-78,826	-48,968	0,051	-0,017
-77,811	-200,000	0,037	-0,120
-76,797	-200,000	-0,033	-0,119
-75,782	5,739	0,127	0,066
-74,767	64,167	0,109	0,077
-73,753	174,404	0,027	-0,028
-72,738	-146,436	-0,181	0,011
-71,724	-64,547	-0,102	-0,029
-70,709	-200,000	-0,012	-0,161
-69,694	800,000	-0,020	0,047
-68,680	800,000	-0,066	0,155
-67,665	439,402	-0,029	0,045
-66,651	-71,062	-0,085	0,022
-65,636	646,828	0,067	0,122
-64,622	291,417	-0,101	-0,130
-63,607	-157,845	-0,102	-0,004
-62,592	144,292	-0,158	-0,149
-61,578	-200,000	-0,005	-0,072
-60,563	800,000	0,072	0,151
-59,549	125,311	-0,057	0,051
-58,534	34,990	-1,889	-1,166
-57,519	465,996	-1,307	-2,075
-56,505	-200,000	-0,340	-4,473
-55,490	502,951	0,871	1,427
-54,476	800,000	5,004	11,159
-53,461	-200,000	20,873	329,292
-52,446	800,000	756,827	2321,395
-51,432	550,014	1661,923	2825,173
-50,417	73,592	1664,379	1229,703
-49,403	18,838	1537,545	867,189
-48,388	12,897	1460,241	794,827
-47,373	18,993	1451,140	819,135
-46,359	15,973	1440,493	798,710
-45,344	11,158	1436,269	773,384
-44,330	11,065	1434,156	771,772
-43,315	11,036	1432,474	770,701
-42,300	11,096	1430,588	769,939
-41,286	11,090	1429,274	769,174
-40,271	11,032	1428,103	768,239
-39,257	11,067	1426,756	767,647
-38,242	11,086	1425,877	767,234
-37,227	11,094	1424,738	766,628
-36,213	11,114	1423,617	766,094
-35,198	11,075	1422,332	765,183
-34,184	11,152	1421,417	765,027
-33,169	11,060	1420,129	763,867
-32,154	11,111	1419,097	763,522
-31,140	11,145	1417,798	762,955
-30,125	11,179	1416,682	762,486
-29,111	11,146	1415,524	761,675
-28,096	11,143	1414,410	761,034
-27,082	11,079	1413,383	760,146
-26,067	11,061	1412,143	759,367
-25,052	11,084	1411,186	758,931
-24,038	11,118	1410,216	758,537
-23,023	11,023	1409,256	757,547
-22,009	11,080	1408,157	757,193
-20,994	11,057	1407,227	756,552
-19,979	11,003	1406,335	755,790
-18,965	10,991	1405,538	755,279
-17,950	11,023	1404,283	754,724
-16,936	11,065	1403,349	754,385
-15,921	10,955	1402,635	753,458
-14,906	11,004	1401,576	753,091
-13,892	11,031	1400,494	752,603
-12,877	10,989	1399,816	752,015
-11,863	10,982	1398,880	751,450
-10,848	10,955	1398,089	750,868
-9,833	10,910	1397,188	750,147
-8,819	10,887	1396,352	749,562
-7,804	10,889	1395,574	749,125
-6,790	10,882	1394,479	748,472
-5,775	10,870	1393,555	747,891
-4,760	10,843	1392,553	747,199
-3,746	10,906	1391,574	746,937
-2,731	10,882	1390,668	746,309
-1,717	10,854	1389,857	745,714
-0,702	10,838	1388,195	744,722
0,313	14,837	1301,800	716,710
1,327	31,066	692,993	418,455
2,342	47,764	120,205	79,047
3,356	0,520	16,407	8,248
4,371	9,772	3,260	1,739
5,386	21,512	0,905	0,518
6,400	-200,000	0,079	0,459
7,415	-68,888	-0,169	-0,046
8,429	23,701	-0,264	-0,153
9,444	29,613	-0,382	-0,229
10,459	-33,826	-0,299	-0,116
11,473	-168,731	-0,410	0,011
12,488	9,964	-0,296	-0,158
13,502	114,560	-0,250	-0,215
14,517	-66,603	-0,389	-0,108
15,531	65,911	-0,298	-0,213
16,546	109,372	-0,272	-0,230
17,561	-7,738	-0,302	-0,143
18,575	82,661	-0,077	-0,059
19,590	254,871	-0,237	-0,287
20,604	-25,986	-0,155	-0,064
21,619	26,847	-0,484	-0,285
22,634	84,396	-0,490	-0,377
23,648	-43,487	-0,556	-0,197
24,663	26,531	-0,314	-0,185
25,677	61,288	-0,477	-0,333
26,692	4,989	-0,401	-0,207
27,707	25,819	-0,495	-0,290
28,721	-15,378	-0,367	-0,164
29,736	109,206	-0,428	-0,360
30,750	0,438	-0,411	-0,206
31,765	339,983	-0,248	-0,342
32,780	8,335	-0,428	-0,226
33,794	-15,514	-0,359	-0,161
34,809	19,556	-0,398	-0,225
35,823	275,786	-0,292	-0,366
36,838	124,943	-0,339	-0,300
37,853	143,857	-0,410	-0,385
38,867	106,565	-0,354	-0,295
39,882	177,416	-0,242	-0,248
40,896	298,036	-0,300	-0,388
41,911	29,684	-0,364	-0,217
42,926	297,035	-0,277	-0,359
43,940	11,697	-0,418	-0,225
44,955	26,166	-0,480	-0,281
45,969	243,048	-0,269	-0,318
46,984	-9,521	-0,434	-0,203
47,999	171,941	-0,214	-0,216
49,013	82,287	-0,352	-0,268
50,028	48,963	-0,335	-0,220
51,042	1,069	-0,411	-0,207
52,057	170,091	-0,269	-0,270
53,071	90,009	-0,336	-0,263
54,086	501,200	-0,175	-0,284
55,101	-52,515	-0,456	-0,147
56,115	-56,599	-0,470	-0,145
57,130	-65,278	-0,293	-0,082
58,144	-5,289	-0,350	-0,168
59,159	54,204	-0,383	-0,258
60,174	46,202	-0,388	-0,252
61,188	117,583	-0,372	-0,321
62,203	-1,857	-0,244	-0,120
63,217	18,369	-0,436	-0,244
64,232	59,895	-0,292	-0,202
65,247	-59,079	-0,519	-0,156
66,261	255,348	-0,268	-0,323
67,276	73,626	-0,366	-0,269
68,290	95,876	-0,282	-0,226
69,305	-35,990	-0,407	-0,154
70,320	-58,841	-0,315	-0,095
71,334	96,587	-0,232	-0,186
72,349	-91,491	-0,220	-0,044
73,363	72,610	-0,384	-0,280
74,378	-47,359	-0,436	-0,148
75,393	2,939	-0,326	-0,166
76,407	43,258	-0,333	-0,213
77,422	96,411	-0,340	-0,272
78,436	175,655	-0,169	-0,172
79,451	-82,486	-0,411	-0,093
80,466	511,474	-0,125	-0,205
81,480	95,588	-0,330	-0,264
82,495	65,590	-0,351	-0,248
83,509	72,407	-0,341	-0,249
84,524	29,933	-0,233	-0,139
85,539	11,856	-0,342	-0,183
86,553	87,418	-0,187	-0,145
87,568	142,138	-0,303	-0,282
88,582	22,404	-0,363	-0,207
89,597	107,076	-0,333	-0,277
90,611	36,232	-0,199	-0,123
91,626	76,272	-0,177	-0,131
92,641	37,677	-0,310	-0,192
93,655	41,138	-0,265	-0,167
94,670	-15,961	-0,403	-0,179
95,684	11,722	-0,276	-0,148
96,699	135,658	-0,336	-0,306
97,714	154,762	-0,149	-0,143
98,728	136,558	-0,181	-0,166
99,743	-55,129	-0,188	-0,059
100,757	179,264	-0,196	-0,200
101,772	-198,439	-0,280	0,001
102,787	6,540	-0,307	-0,159
103,801	348,866	-0,216	-0,299
104,816	-53,710	-0,371	-0,118
105,830	-46,122	-0,256	-0,088
106,845	-5,603	-0,269	-0,129
107,860	19,144	-0,211	-0,118
108,874	-40,423	-0,308	-0,111
109,889	109,591	-0,268	-0,224
110,903	75,528	-0,324	-0,239
111,918	82,766	-0,337	-0,256
112,933	-21,546	-0,348	-0,148
113,947	260,698	-0,188	-0,228
114,962	134,813	-0,134	-0,122
115,976	128,758	-0,168	-0,150
116,991	123,837	-0,274	-0,241
118,006	67,327	-0,325	-0,231
119,020	102,988	-0,193	-0,158
120,035	-43,833	-0,292	-0,102
121,049	80,573	-0,167	-0,126
122,064	28,586	-0,323	-0,190
123,079	122,073	-0,281	-0,245
124,093	70,282	-0,320	-0,230
125,108	-100,750	-0,260	-0,044
126,122	303,313	-0,243	-0,315
127,137	376,658	-0,213	-0,305
128,151	493,504	-0,107	-0,171
129,166	15,934	-0,228	-0,125
130,181	72,876	-0,399	-0,291
131,195	29,539	-0,356	-0,211
132,210	177,242	-0,171	-0,174
133,224	149,525	-0,339	-0,320
134,239	800,000	-0,099	-0,202
135,254	102,006	-0,247	-0,201
136,268	800,000	-0,106	-0,220
137,283	-3,191	-0,256	-0,124
138,297	77,343	-0,288	-0,213
139,312	171,712	-0,294	-0,294
140,327	130,456	-0,183	-0,164
141,341	263,379	-0,168	-0,204
142,356	191,075	-0,239	-0,251
143,370	-133,223	-0,267	-0,023
144,385	-71,294	-0,201	-0,052
145,400	141,113	-0,218	-0,201
146,414	32,118	-0,258	-0,154
147,429	35,264	-0,188	-0,114
148,443	303,159	-0,163	-0,211
149,458	213,625	-0,144	-0,159
150,473	-71,545	-0,196	-0,051
151,487	-51,387	-0,298	-0,096
152,502	132,297	-0,322	-0,289
153,516	526,080	-0,149	-0,245
154,531	46,056	-0,258	-0,166
155,546	146,631	-0,278	-0,260
156,560	103,415	-0,238	-0,194
157,575	20,950	-0,233	-0,131
158,589	800,000	-0,077	-0,226
159,604	52,599	-0,216	-0,143
160,619	33,644	-0,461	-0,278
161,633	-21,943	-0,367	-0,154
162,648	21,474	-0,271	-0,153
163,662	598,783	-0,109	-0,189
164,677	204,957	-0,112	-0,121
165,692	121,959	-0,108	-0,093
166,706	-17,264	-0,321	-0,140
167,721	215,622	-0,300	-0,332
168,735	264,121	-0,260	-0,316
169,750	719,095	-0,085	-0,158
170,764	800,000	-0,080	-0,244
171,779	25,079	-0,173	-0,100
172,794	41,269	-0,213	-0,134
173,808	548,888	-0,188	-0,314
174,823	800,000	-0,133	-0,261
175,837	103,467	-0,250	-0,204
176,852	119,407	-0,145	-0,124
177,867	432,414	-0,167	-0,253
178,881	340,899	-0,169	-0,230
179,896	-143,877	-0,337	0,022
180,910	437,819	-0,184	-0,280
181,925	168,422	-0,250	-0,247
182,940	800,000	-0,152	-0,297
183,954	87,810	-0,263	-0,203
184,969	-3,336	-0,271	-0,131
185,983	152,352	-0,287	-0,272
186,998	504,109	-0,206	-0,333
188,013	-82,071	-0,236	-0,053
189,027	16,368	-0,144	-0,079
190,042	311,416	-0,099	-0,129
191,056	800,000	-0,107	-0,277
192,071	-15,697	-0,280	-0,123
193,086	112,563	-0,168	-0,141
194,100	-60,094	-0,311	-0,091
195,115	800,000	-0,119	-0,254
196,129	73,013	-0,220	-0,160
197,144	-33,766	-0,117	-0,044
198,159	100,324	-0,233	-0,188
199,173	283,449	-0,245	-0,305
200,188	245,298	-0,171	-0,200
201,202	-55,201	-0,240	-0,074
202,217	-32,166	-0,255	-0,098
203,232	451,730	-0,154	-0,237
204,246	-200,000	-0,057	-0,227
205,261	-44,755	-0,249	-0,086
206,275	-0,449	-0,206	-0,101
207,290	253,302	-0,134	-0,159
208,304	-26,359	-0,208	-0,084
209,319	88,122	-0,195	-0,150
210,334	638,996	-0,049	-0,087
211,348	-35,959	-0,253	-0,094
212,363	67,154	-0,260	-0,184
213,377	-52,679	-0,231	-0,074
214,392	144,533	-0,113	-0,104
215,407	-184,794	-0,211	0,002
216,421	12,541	-0,132	-0,070
217,436	673,100	-0,085	-0,153
218,450	97,237	-0,218	-0,173
219,465	26,815	-0,211	-0,122
220,480	-112,642	-0,217	0,030
221,494	-11,000	-0,174	-0,079
222,509	183,305	-0,142	-0,145
223,523	-59,345	-0,268	-0,079
224,538	677,991	-0,158	-0,285
225,553	45,128	-0,176	-0,112
226,567	320,240	-0,160	-0,211
227,582	-20,653	-0,282	-0,119
228,596	89,378	-0,187	-0,144
229,611	86,558	-0,152	-0,116
230,626	162,630	-0,149	-0,145
231,640	-49,952	-0,247	-0,080
232,655	19,683	-0,246	-0,136
233,669	800,000	-0,136	-0,278
234,684	55,681	-0,330	-0,220
235,699	684,349	-0,102	-0,184
236,713	18,135	-0,164	-0,090
237,728	221,358	-0,218	-0,242
238,742	141,437	-0,112	-0,102
239,757	-25,746	-0,299	-0,121
240,772	-52,228	-0,137	-0,043
241,786	17,400	-0,234	-0,128
242,801	135,135	-0,186	-0,167
243,815	79,058	-0,172	-0,127
244,830	167,719	-0,136	-0,133
245,844	286,063	-0,267	-0,334
246,859	49,832	-0,195	-0,127
247,874	275,525	-0,202	-0,247
248,888	22,453	-0,186	-0,105
249,903	162,768	-0,199	-0,193
250,917	351,426	-0,131	-0,179
251,932	175,437	-0,111	-0,111
252,947	74,356	-0,077	-0,056
253,961	55,364	-0,255	-0,170
254,976	189,685	-0,223	-0,231
255,990	-28,336	-0,203	-0,080
257,005	-6,604	-0,198	-0,093
258,020	527,422	-0,084	-0,138
259,034	-152,542	-0,090	0,004
260,049	422,491	-0,112	-0,167
261,063	12,542	-0,299	-0,159
262,078	173,829	-0,202	-0,202
263,093	196,855	-0,139	-0,147
264,107	331,015	-0,114	-0,152
265,122	-80,836	-0,192	0,044
266,136	94,380	-0,207	-0,162
267,151	-119,549	-0,175	-0,021
268,166	183,771	-0,169	-0,173
269,180	155,393	-0,077	-0,073
270,195	98,583	-0,250	-0,198
271,209	129,104	-0,214	-0,188
272,224	-83,272	-0,142	-0,031
273,239	-103,770	-0,065	0,010
274,253	-45,874	-0,172	-0,058
275,268	-200,000	-0,021	-0,287
276,282	-54,235	-0,234	-0,073
277,297	-76,730	-0,126	-0,030
278,312	-200,000	-0,031	-0,137
279,326	-38,070	-0,168	0,061
280,341	147,303	-0,146	-0,135
281,355	87,982	-0,086	-0,065
282,370	118,806	-0,154	-0,131
283,384	-113,150	-0,211	-0,028
284,399	-14,961	-0,218	-0,096
285,414	65,159	-0,056	-0,039
286,428	22,672	-0,206	-0,116
287,443	-88,172	-0,210	-0,043
288,457	-200,000	-0,036	-0,139
289,472	-142,739	-0,109	-0,007
290,487	16,791	-0,221	-0,120
291,501	-19,498	-0,271	-0,115
292,516	800,000	-0,091	-0,222
293,530	199,705	-0,148	-0,156
294,545	7,071	-0,149	-0,076
295,560	-103,381	-0,260	0,042
296,574	92,764	-0,117	-0,090
297,589	-55,460	-0,171	-0,053
298,603	172,171	-0,159	-0,158
299,618	133,987	-0,179	-0,159
300,633	-70,547	-0,222	-0,057
301,647	74,391	-0,204	-0,147
302,662	134,228	-0,188	-0,168
303,676	-72,509	-0,269	-0,068
304,691	5,808	-0,095	-0,048
305,706	28,003	-0,179	-0,104
306,720	-6,693	-0,236	-0,110
307,735	-68,997	-0,170	-0,045
308,749	28,570	-0,149	-0,087
309,764	800,000	-0,061	-0,174
310,779	-22,403	-0,167	-0,069
311,793	49,580	-0,184	-0,119
312,808	360,499	-0,117	-0,161
313,822	-39,346	-0,185	-0,066
314,837	53,835	-0,034	-0,022
315,852	-184,964	-0,059	-0,001
316,866	177,906	-0,154	-0,154
317,881	-87,505	-0,236	0,049
318,895	81,399	-0,261	-0,194
319,910	217,331	-0,071	-0,077
320,925	293,847	-0,093	-0,117
321,939	-145,462	-0,214	0,013
322,954	-200,000	0,005	-0,143
323,968	103,745	-0,145	-0,117
324,983	-141,838	-0,152	-0,010
325,997	46,835	-0,074	-0,047
327,012	537,571	-0,122	-0,199
328,027	-3,036	-0,256	-0,122
329,041	148,824	-0,151	-0,140
330,056	5,584	-0,030	0,015
331,070	4,753	-0,151	-0,076
332,085	15,401	-0,161	-0,086
333,100	-76,320	-0,164	-0,039
334,114	-108,168	-0,134	0,020
335,129	79,608	-0,294	-0,216
336,143	25,984	-0,237	-0,135
337,158	1,514	-0,064	-0,032
338,173	130,974	-0,071	-0,062
339,187	800,000	-0,088	-0,224
340,202	800,000	-0,100	-0,209
341,216	116,779	-0,252	-0,212
342,231	-69,259	-0,222	-0,058
343,246	-200,000	-0,060	-0,214
344,260	541,509	0,024	-0,040
345,275	-200,000	0,005	-0,031
346,289	228,665	-0,116	-0,130
347,304	139,379	-0,074	-0,067
348,319	-42,344	-0,125	-0,043
349,333	-40,062	-0,285	-0,101
350,348	81,574	-0,111	-0,082
351,362	487,140	-0,106	-0,165
352,377	-200,000	-0,007	-0,154
353,392	-135,676	-0,078	-0,006
354,406	-147,008	-0,153	-0,009
355,421	206,674	1307,596	1395,343
356,435	158,959	1467,429	1395,837
