DTS Sentinel unit serial number:	SN410029Multiplexer serial number:	ORYXHardware model number:	OX2-SRSoftware version number:	ORYX F/W v4,00 Oryx Data Collector v3.7.2.0data status	okinstallation	B3 Nyhavnadifferential loss correction	single-endedforward channel	channel 1reverse channel	N/Adate	2023/11/29time	12:37:30forward acquisition time	300,00reverse acquisition time	0,00gamma	499,1914k internal	0,3212k external	0,3212temperature offset calibration	1,0000default loss term (dB/km)	0,3820temperature slope calibration	1,0000multiplexer offset coefficient	1,0000multiplexer slope coefficient	1,0000fibre end	0,00T internal ref (°C)	9,91T ext. ref 1 (°C)	-4,23T ext. ref 2 (°C)	-4,37length (m)	temperature (°C)	Stokes	anti-Stokes-744,400	236,024	-0,216	-0,260
-743,385	800,000	0,107	0,223
-742,371	23,646	-0,163	-0,097
-741,356	-200,000	0,083	0,306
-740,342	781,037	-0,121	-0,240
-739,327	594,963	-0,120	0,216
-738,312	68,157	-0,298	-0,221
-737,298	-200,000	-0,011	0,290
-736,283	64,355	-0,104	-0,076
-735,269	-200,000	-0,036	0,286
-734,254	109,156	-0,264	-0,229
-733,239	11,265	-0,160	0,088
-732,225	-35,940	-0,159	-0,062
-731,210	800,000	0,098	0,271
-730,196	-200,000	-0,030	-0,109
-729,181	800,000	-0,079	-0,199
-728,167	241,186	0,044	-0,054
-727,152	800,000	-0,044	-0,102
-726,137	-200,000	0,001	0,056
-725,123	-157,514	-0,102	0,004
-724,108	-88,072	-0,078	-0,017
-723,094	-28,196	-0,216	-0,090
-722,079	800,000	-0,065	-0,197
-721,064	22,045	-0,235	-0,138
-720,050	-53,467	-0,087	-0,029
-719,035	346,949	-0,028	-0,040
-718,021	-200,000	-0,003	-0,100
-717,006	-200,000	-0,012	-0,059
-715,991	-200,000	-0,025	-0,147
-714,977	-200,000	0,002	-0,202
-713,962	128,283	-0,108	0,100
-712,948	800,000	-0,007	-0,019
-711,933	11,230	-0,095	0,052
-710,918	-141,968	-0,080	-0,006
-709,904	104,498	0,027	-0,023
-708,889	36,993	-0,092	0,059
-707,875	387,386	0,047	-0,070
-706,860	21,471	-0,105	0,062
-705,845	-29,870	0,111	0,046
-704,831	-200,000	0,027	0,117
-703,816	800,000	0,069	0,168
-702,802	-91,706	0,020	0,004
-701,787	-88,206	-0,175	-0,038
-700,772	-200,000	-0,010	0,144
-699,758	-200,000	-0,004	-0,046
-698,743	51,283	-0,106	-0,073
-697,729	-79,253	-0,122	0,030
-696,714	-108,084	0,065	0,010
-695,699	542,292	0,086	-0,150
-694,685	800,000	-0,041	0,103
-693,670	800,000	-0,039	0,096
-692,656	800,000	0,019	-0,059
-691,641	-147,332	0,130	-0,008
-690,627	-40,344	0,046	0,017
-689,612	-70,566	-0,130	-0,035
-688,597	313,894	0,062	0,084
-687,583	800,000	0,008	0,020
-686,568	-118,613	0,008	-0,001
-685,554	-90,575	-0,131	-0,027
-684,539	-104,950	-0,030	0,005
-683,524	80,483	0,012	0,009
-682,510	-89,337	0,099	-0,021
-681,495	-200,000	0,029	0,099
-680,481	800,000	-0,051	0,147
-679,466	-141,181	-0,031	-0,002
-678,451	-200,000	-0,013	0,155
-677,437	-19,983	0,166	-0,074
-676,422	800,000	0,024	0,056
-675,408	-137,063	-0,121	0,010
-674,393	87,719	-0,096	0,077
-673,378	800,000	-0,060	-0,158
-672,364	239,172	-0,068	0,082
-671,349	-200,000	-0,012	0,040
-670,335	313,608	0,007	-0,009
-669,320	-53,594	0,052	0,017
-668,305	241,699	0,014	0,018
-667,291	13,709	-0,092	0,052
-666,276	10,384	-0,117	-0,064
-665,262	118,485	-0,070	-0,062
-664,247	244,036	-0,099	-0,120
-663,232	-200,000	0,009	-0,130
-662,218	414,393	-0,061	0,094
-661,203	516,660	0,029	0,050
-660,189	-74,193	0,032	-0,008
-659,174	800,000	0,047	0,130
-658,159	-200,000	0,004	-0,029
-657,145	314,693	-0,088	-0,120
-656,130	-200,000	0,009	-0,033
-655,116	131,370	0,053	-0,049
-654,101	23,429	0,148	0,088
-653,086	655,530	0,063	0,117
-652,072	132,455	-0,092	-0,085
-651,057	-200,000	-0,026	-0,151
-650,043	72,894	-0,025	-0,019
-649,028	70,929	-0,070	-0,052
-648,014	576,850	-0,060	0,106
-646,999	240,403	0,026	-0,031
-645,984	117,999	0,096	-0,086
-644,970	-200,000	-0,006	-0,035
-643,955	-200,000	-0,028	0,102
-642,941	392,826	-0,059	-0,089
-641,926	205,424	-0,035	-0,039
-640,911	74,934	0,058	-0,044
-639,897	800,000	-0,019	-0,054
-638,882	800,000	-0,032	-0,091
-637,868	-41,496	-0,076	-0,028
-636,853	170,426	-0,100	-0,104
-635,838	100,187	0,130	-0,109
-634,824	-200,000	0,002	0,085
-633,809	242,557	0,069	0,084
-632,795	36,602	0,066	0,042
-631,780	122,046	-0,095	-0,086
-630,765	800,000	0,022	-0,061
-629,751	261,231	-0,048	0,060
-628,736	45,000	-0,030	-0,020
-627,722	-200,000	-0,030	-0,136
-626,707	-200,000	0,025	-0,138
-625,692	759,907	0,052	0,102
-624,678	-53,542	-0,069	-0,023
-623,663	800,000	0,053	0,161
-622,649	-157,550	0,090	-0,004
-621,634	-156,178	-0,050	-0,002
-620,619	269,666	0,052	-0,066
-619,605	535,525	0,075	0,128
-618,590	-59,744	0,059	0,018
-617,576	-200,000	-0,004	0,089
-616,561	-200,000	0,071	0,000
-615,546	-20,040	-0,052	0,023
-614,532	-200,000	0,000	0,027
-613,517	-81,582	0,063	-0,015
-612,503	502,821	-0,038	0,064
-611,488	771,127	0,097	-0,191
-610,474	617,658	-0,032	0,058
-609,459	800,000	0,047	0,117
-608,444	-200,000	-0,007	-0,074
-607,430	624,241	-0,061	-0,111
-606,415	-100,857	-0,043	-0,008
-605,401	78,936	0,113	0,087
-604,386	679,031	0,054	0,103
-603,371	800,000	0,016	0,047
-602,357	95,186	0,081	0,066
-601,342	-108,811	-0,136	-0,021
-600,328	-200,000	0,021	-0,119
-599,313	-200,000	-0,008	0,111
-598,298	-10,729	-0,055	0,026
-597,284	-200,000	-0,011	-0,051
-596,269	295,049	0,151	0,199
-595,255	800,000	0,023	0,051
-594,240	348,264	0,069	-0,099
-593,225	-200,000	-0,012	-0,138
-592,211	132,734	-0,108	-0,101
-591,196	269,752	0,091	-0,115
-590,182	-200,000	-0,004	0,093
-589,167	262,119	0,093	0,116
-588,152	-162,360	0,097	0,003
-587,138	-27,212	0,043	0,018
-586,123	-133,373	-0,098	-0,009
-585,109	-200,000	-0,015	-0,049
-584,094	264,252	0,008	0,011
-583,079	-103,873	0,059	0,010
-582,065	60,789	0,065	-0,046
-581,050	-200,000	0,041	0,143
-580,036	230,543	-0,080	-0,094
-579,021	226,115	-0,101	-0,118
-578,006	606,634	-0,040	0,073
-576,992	5,712	0,047	-0,025
-575,977	236,180	-0,072	0,086
-574,963	-200,000	0,012	0,128
-573,948	404,282	0,032	0,049
-572,934	-192,946	-0,071	0,000
-571,919	29,708	0,097	0,059
-570,904	9,449	-0,130	-0,071
-569,890	113,747	-0,066	0,058
-568,875	464,621	0,022	0,035
-567,861	92,640	0,077	0,062
-566,846	800,000	-0,004	0,010
-565,831	44,996	-0,044	0,029
-564,817	36,701	-0,134	-0,085
-563,802	-200,000	-0,009	0,057
-562,788	-200,000	-0,016	-0,082
-561,773	237,600	-0,008	0,009
-560,758	238,780	0,024	-0,029
-559,744	800,000	0,037	0,085
-558,729	800,000	0,039	-0,123
-557,715	-154,019	-0,053	0,003
-556,700	-42,687	-0,123	-0,045
-555,685	800,000	0,049	-0,108
-554,671	-200,000	-0,011	0,076
-553,656	167,227	0,082	-0,084
-552,642	800,000	0,039	0,122
-551,627	-106,507	-0,049	-0,008
-550,612	218,611	0,145	-0,167
-549,598	97,935	-0,153	0,126
-548,583	-200,000	-0,002	-0,052
-547,569	800,000	-0,004	-0,010
-546,554	725,525	-0,029	0,056
-545,539	-129,845	0,077	0,008
-544,525	-110,619	0,082	0,012
-543,510	800,000	-0,014	0,043
-542,496	126,668	-0,022	0,020
-541,481	-200,000	-0,018	-0,062
-540,466	-200,000	-0,013	-0,104
-539,452	-76,976	0,128	0,032
-538,437	-24,063	-0,147	0,063
-537,423	325,744	-0,100	0,139
-536,408	-133,235	0,114	0,010
-535,393	-141,839	-0,016	-0,001
-534,379	-200,000	-0,006	-0,034
-533,364	-200,000	0,013	0,076
-532,350	-200,000	-0,010	0,187
-531,335	800,000	0,017	0,043
-530,321	159,748	-0,048	-0,048
-529,306	89,139	0,026	-0,021
-528,291	-96,658	-0,040	-0,007
-527,277	-129,527	-0,143	0,014
-526,262	147,359	-0,062	-0,060
-525,248	-200,000	0,046	-0,148
-524,233	-137,002	0,101	-0,008
-523,218	-200,000	-0,009	-0,061
-522,204	-200,000	-0,011	-0,106
-521,189	-22,586	-0,018	-0,008
-520,175	-200,000	0,004	-0,031
-519,160	259,481	-0,086	-0,107
-518,145	800,000	0,016	0,037
-517,131	-200,000	0,002	0,071
-516,116	-200,000	-0,017	0,164
-515,102	-200,000	-0,009	0,128
-514,087	-135,326	-0,125	-0,011
-513,072	40,735	-0,132	-0,085
-512,058	47,907	0,016	0,011
-511,043	188,868	0,052	0,056
-510,029	140,430	-0,107	0,101
-509,014	781,406	0,085	0,168
-507,999	-200,000	-0,014	-0,092
-506,985	-200,000	0,003	-0,023
-505,970	219,411	-0,118	0,136
-504,956	-42,739	-0,013	0,005
-503,941	382,997	0,033	-0,049
-502,926	800,000	0,057	0,129
-501,912	-200,000	-0,015	0,154
-500,897	-200,000	0,038	0,138
-499,883	-120,226	-0,100	-0,012
-498,868	490,115	-0,095	-0,157
-497,853	-64,356	0,041	0,012
-496,839	-75,429	0,083	-0,021
-495,824	144,674	0,096	0,092
-494,810	1,589	-0,044	0,023
-493,795	-200,000	0,008	0,081
-492,781	800,000	-0,069	-0,166
-491,766	231,847	-0,040	-0,047
-490,751	30,555	0,040	0,025
-489,737	187,872	0,059	0,064
-488,722	800,000	0,046	0,101
-487,708	246,273	0,010	-0,012
-486,693	-95,231	-0,115	-0,022
-485,678	-67,617	0,031	0,009
-484,664	49,222	-0,086	-0,058
-483,649	-200,000	0,012	0,102
-482,635	800,000	0,021	-0,065
-481,620	41,920	-0,020	-0,013
-480,605	-133,183	0,108	-0,010
-479,591	-200,000	-0,007	-0,027
-478,576	69,954	-0,097	0,071
-477,562	-200,000	0,008	-0,080
-476,547	64,738	-0,032	-0,023
-475,532	800,000	0,082	-0,169
-474,518	468,734	0,059	0,095
-473,503	666,266	0,012	0,022
-472,489	-76,170	-0,191	-0,048
-471,474	294,975	0,037	-0,048
-470,459	-200,000	0,014	-0,053
-469,445	161,891	-0,059	-0,059
-468,430	-200,000	-0,000	-0,022
-467,416	-155,721	0,185	0,008
-466,401	-200,000	0,006	-0,078
-465,386	-200,000	-0,012	0,084
-464,372	-50,094	0,099	0,033
-463,357	-200,000	-0,005	0,037
-462,343	89,377	-0,033	-0,026
-461,328	23,181	0,140	-0,082
-460,313	-200,000	0,010	-0,055
-459,299	-56,335	0,037	-0,012
-458,284	416,827	-0,040	-0,062
-457,270	262,664	-0,063	-0,078
-456,255	-200,000	0,010	-0,196
-455,241	-11,281	0,168	-0,079
-454,226	547,389	0,020	-0,034
-453,211	33,884	0,017	-0,011
-452,197	-200,000	-0,001	0,028
-451,182	117,936	0,099	0,088
-450,168	-200,000	0,024	-0,119
-449,153	-16,788	-0,065	-0,029
-448,138	6,875	-0,166	-0,088
-447,124	800,000	-0,029	-0,086
-446,109	-63,350	0,060	-0,017
-445,095	-71,450	0,094	-0,025
-444,080	308,117	0,011	-0,015
-443,065	89,614	0,024	0,019
-442,051	-200,000	-0,011	-0,118
-441,036	-107,302	-0,184	0,029
-440,022	-56,474	0,035	0,011
-439,007	17,010	0,046	0,026
-437,992	-200,000	-0,018	0,110
-436,978	800,000	-0,008	0,024
-435,963	-48,251	0,088	0,030
-434,949	800,000	0,015	-0,044
-433,934	-47,139	0,013	0,004
-432,919	-200,000	-0,031	-0,099
-431,905	-49,208	-0,123	0,042
-430,890	113,177	0,123	0,107
-429,876	-107,392	0,134	0,021
-428,861	298,441	-0,072	0,095
-427,846	800,000	-0,057	0,128
-426,832	-40,092	-0,051	-0,019
-425,817	-36,159	0,069	-0,027
-424,803	800,000	-0,035	-0,070
-423,788	-171,218	-0,052	0,001
-422,773	-119,368	0,097	-0,012
-421,759	-200,000	-0,026	-0,148
-420,744	601,125	-0,025	-0,045
-419,730	-99,898	-0,039	-0,007
-418,715	158,737	-0,045	-0,045
-417,701	800,000	-0,034	-0,090
-416,686	-200,000	0,015	-0,050
-415,671	-96,557	-0,067	-0,012
-414,657	-200,000	-0,029	0,117
-413,642	-200,000	0,014	-0,086
-412,628	-143,622	-0,078	0,005
-411,613	282,312	0,086	-0,111
-410,598	-135,494	-0,112	-0,009
-409,584	-200,000	0,012	0,111
-408,569	-69,667	0,032	0,009
-407,555	-139,583	0,051	0,004
-406,540	-70,576	0,161	-0,043
-405,525	-200,000	-0,003	-0,076
-404,511	671,250	-0,063	-0,118
-403,496	-68,341	-0,066	-0,018
-402,482	-186,356	0,120	0,001
-401,467	-200,000	-0,024	0,085
-400,452	800,000	-0,074	0,198
-399,438	67,375	0,040	0,029
-398,423	-44,869	0,006	-0,002
-397,409	-34,680	0,093	0,036
-396,394	208,640	-0,123	-0,138
-395,379	-53,050	0,144	0,047
-394,365	-26,771	0,016	-0,007
-393,350	-115,950	0,073	0,010
-392,336	800,000	0,050	0,109
-391,321	-200,000	-0,001	0,070
-390,306	-200,000	0,007	-0,114
-389,292	800,000	0,061	-0,135
-388,277	323,277	0,033	-0,045
-387,263	246,329	-0,081	0,097
-386,248	800,000	-0,028	0,081
-385,233	22,672	-0,021	0,012
-384,219	800,000	0,067	0,155
-383,204	-200,000	-0,021	-0,182
-382,190	-110,496	-0,074	0,011
-381,175	-134,724	-0,088	0,008
-380,160	-38,135	0,063	0,024
-379,146	-200,000	0,038	0,189
-378,131	165,827	0,026	-0,026
-377,117	159,775	-0,031	0,031
-376,102	800,000	0,033	-0,089
-375,088	-69,243	-0,022	-0,006
-374,073	-200,000	0,031	-0,184
-373,058	131,480	0,143	0,132
-372,044	-175,760	0,114	-0,002
-371,029	800,000	-0,058	-0,155
-370,015	800,000	0,031	0,074
-369,000	800,000	0,026	-0,056
-367,985	149,660	-0,124	-0,120
-366,971	-176,943	0,107	0,002
-365,956	-110,480	0,025	0,004
-364,942	-200,000	-0,004	0,130
-363,927	-200,000	0,041	0,176
-362,912	-132,847	-0,043	0,004
-361,898	37,724	-0,073	0,046
-360,883	531,257	0,031	-0,053
-359,869	395,707	-0,080	0,120
-358,854	280,804	0,019	-0,024
-357,839	800,000	0,033	0,100
-356,825	126,506	-0,069	0,062
-355,810	-42,805	-0,115	0,042
-354,796	-71,914	0,103	0,027
-353,781	77,262	-0,075	-0,057
-352,766	-200,000	-0,015	-0,172
-351,752	-2,847	0,063	-0,031
-350,737	349,702	0,059	0,084
-349,723	279,824	-0,098	0,126
-348,708	21,055	0,027	0,015
-347,693	-68,003	0,020	0,006
-346,679	63,767	-0,046	-0,033
-345,664	-200,000	0,016	0,069
-344,650	-200,000	-0,009	0,101
-343,635	-63,452	-0,099	0,029
-342,620	800,000	0,073	-0,143
-341,606	-200,000	-0,010	0,033
-340,591	-29,484	-0,170	0,069
-339,577	800,000	0,023	0,071
-338,562	439,987	0,061	0,096
-337,548	56,789	0,137	0,095
-336,533	190,387	-0,015	0,016
-335,518	-63,258	-0,110	0,032
-334,504	-21,587	0,021	0,009
-333,489	800,000	-0,009	-0,023
-332,475	56,039	0,077	-0,053
-331,460	-200,000	-0,002	0,086
-330,445	-68,180	0,045	-0,012
-329,431	338,605	0,057	-0,079
-328,416	-157,345	0,078	-0,003
-327,402	-200,000	0,021	0,100
-326,387	-155,747	0,057	0,003
-325,372	-79,420	-0,098	0,023
-324,358	800,000	0,041	-0,116
-323,343	-200,000	-0,029	-0,146
-322,329	-200,000	0,002	-0,052
-321,314	-200,000	0,006	0,117
-320,299	330,842	0,041	0,056
-319,285	-200,000	-0,014	0,048
-318,270	-187,279	0,017	0,000
-317,256	800,000	0,034	-0,071
-316,241	-46,884	-0,098	-0,034
-315,226	-200,000	0,004	0,059
-314,212	124,955	-0,067	-0,060
-313,197	432,106	0,094	0,146
-312,183	-40,279	-0,096	0,035
-311,168	800,000	-0,028	0,071
-310,153	138,966	-0,093	-0,087
-309,139	535,625	0,077	-0,130
-308,124	-109,650	0,061	-0,009
-307,110	49,703	-0,024	0,016
-306,095	-200,000	0,030	0,115
-305,080	771,921	0,002	-0,005
-304,066	-200,000	-0,003	0,047
-303,051	800,000	0,015	-0,044
-302,037	-200,000	-0,043	-0,138
-301,022	-200,000	0,001	-0,044
-300,008	-200,000	0,030	-0,113
-298,993	800,000	-0,068	0,171
-297,978	-154,942	-0,079	-0,004
-296,964	-146,401	-0,020	0,001
-295,949	44,383	-0,104	-0,068
-294,935	-81,193	0,019	0,004
-293,920	-168,760	-0,072	0,002
-292,905	800,000	-0,030	0,074
-291,891	76,804	0,123	0,093
-290,876	-30,578	-0,064	0,026
-289,862	99,895	0,078	-0,064
-288,847	800,000	-0,073	-0,172
-287,832	199,386	0,058	-0,064
-286,818	524,345	0,014	-0,023
-285,803	-38,059	-0,056	-0,021
-284,789	20,049	-0,121	-0,069
-283,774	-40,301	0,069	0,025
-282,759	90,494	0,014	0,011
-281,745	-64,463	-0,095	-0,027
-280,730	-43,480	0,097	-0,035
-279,716	-123,156	-0,047	-0,005
-278,701	700,797	-0,039	-0,073
-277,686	-126,409	0,124	-0,013
-276,672	-200,000	0,009	-0,072
-275,657	195,386	-0,049	0,053
-274,643	-119,440	-0,025	-0,003
-273,628	-1,776	-0,043	-0,021
-272,613	184,266	-0,059	-0,062
-271,599	307,583	0,046	0,061
-270,584	91,070	0,106	0,084
-269,570	-200,000	-0,020	0,126
-268,555	77,845	0,117	-0,089
-267,540	-33,375	-0,132	-0,052
-266,526	-45,062	0,047	-0,017
-265,511	800,000	-0,052	-0,103
-264,497	-58,006	0,100	0,031
-263,482	141,475	0,116	0,109
-262,467	-200,000	-0,006	0,035
-261,453	108,220	-0,042	-0,036
-260,438	-200,000	-0,018	-0,074
-259,424	-200,000	-0,015	-0,116
-258,409	320,503	-0,024	0,033
-257,395	-158,981	0,034	-0,001
-256,380	-200,000	0,002	0,061
-255,365	19,763	-0,053	-0,030
-254,351	440,344	-0,049	-0,077
-253,336	-200,000	-0,016	0,077
-252,322	-82,878	0,058	-0,013
-251,307	-200,000	0,052	0,168
-250,292	-200,000	0,016	0,068
-249,278	376,604	0,100	0,145
-248,263	-200,000	-0,032	0,103
-247,249	415,425	-0,066	0,101
-246,234	100,185	0,032	0,026
-245,219	59,949	0,154	-0,108
-244,205	-91,677	-0,142	-0,028
-243,190	-107,080	-0,227	0,035
-242,176	-52,818	-0,110	0,036
-241,161	170,887	0,094	0,096
-240,146	-49,857	0,058	-0,019
-239,132	250,949	-0,021	0,026
-238,117	-148,252	-0,178	-0,010
-237,103	-76,781	-0,078	0,019
-236,088	-200,000	-0,030	-0,105
-235,073	151,750	-0,018	-0,017
-234,059	800,000	0,020	0,057
-233,044	-200,000	0,029	0,000
-232,030	493,102	-0,057	-0,093
-231,015	19,270	0,015	0,008
-230,000	306,628	-0,037	-0,050
-228,986	159,886	0,089	-0,088
-227,971	297,011	-0,093	-0,122
-226,957	-55,720	0,113	0,036
-225,942	-200,000	-0,014	0,202
-224,927	-148,216	-0,104	-0,006
-223,913	800,000	-0,059	0,145
-222,898	-200,000	0,005	0,050
-221,884	-76,850	0,147	-0,036
-220,869	800,000	-0,014	0,041
-219,855	-200,000	0,014	-0,112
-218,840	557,470	0,057	0,097
-217,825	800,000	0,047	0,110
-216,811	800,000	-0,038	-0,094
-215,796	147,289	0,060	-0,057
-214,782	-140,066	-0,055	-0,004
-213,767	131,400	-0,012	0,011
-212,752	18,956	0,069	0,039
-211,738	12,846	0,025	-0,014
-210,723	-137,189	0,085	-0,007
-209,709	-139,247	0,016	0,001
-208,694	12,110	0,066	0,036
-207,679	-15,566	-0,136	-0,061
-206,665	-200,000	0,003	0,156
-205,650	79,892	0,084	-0,064
-204,636	-83,245	-0,109	0,025
-203,621	-11,762	0,080	-0,037
-202,606	-39,367	-0,170	-0,063
-201,592	800,000	0,046	-0,118
-200,577	-93,517	-0,045	0,009
-199,563	800,000	0,025	0,057
-198,548	496,769	0,074	0,121
-197,533	-63,317	0,071	-0,021
-196,519	-200,000	-0,034	0,157
-195,504	154,710	-0,110	0,107
-194,490	719,468	0,036	0,068
-193,475	61,530	-0,112	-0,079
-192,460	25,919	-0,093	-0,055
-191,446	26,008	0,121	-0,071
-190,431	-115,301	0,034	-0,004
-189,417	-200,000	0,005	-0,045
-188,402	-140,384	0,098	0,007
-187,387	-127,716	0,206	0,021
-186,373	51,072	0,093	0,062
-185,358	800,000	0,023	0,052
-184,344	4,828	0,067	-0,035
-183,329	42,830	-0,059	0,038
-182,315	5,097	0,065	-0,034
-181,300	552,697	0,076	-0,130
-180,285	267,566	-0,064	-0,080
-179,271	178,157	0,075	-0,078
-178,256	-169,647	-0,088	0,002
-177,242	-200,000	0,019	0,065
-176,227	-23,565	0,141	-0,060
-175,212	572,322	-0,076	-0,131
-174,198	-134,398	-0,120	0,010
-173,183	104,420	0,035	0,029
-172,169	-93,516	-0,088	-0,017
-171,154	-36,861	-0,106	0,040
-170,139	-127,512	-0,067	0,007
-169,125	-200,000	0,014	-0,065
-168,110	357,994	-0,015	-0,022
-167,096	800,000	0,054	0,121
-166,081	-200,000	0,010	0,140
-165,066	-200,000	0,029	-0,107
-164,052	494,571	-0,054	-0,088
-163,037	112,573	-0,115	-0,099
-162,023	-21,154	0,123	-0,053
-161,008	-200,000	-0,019	0,068
-159,993	-200,000	0,011	-0,100
-158,979	-200,000	-0,002	-0,091
-157,964	518,048	-0,025	-0,041
-156,950	-200,000	-0,029	-0,104
-155,935	-200,000	0,020	0,077
-154,920	800,000	0,025	-0,055
-153,906	-75,833	-0,058	0,014
-152,891	51,697	-0,116	0,078
-151,877	330,186	-0,119	0,162
-150,862	-103,339	0,071	0,012
-149,847	-200,000	0,011	-0,056
-148,833	-74,268	0,063	0,016
-147,818	-102,368	0,078	0,013
-146,804	168,136	-0,075	0,076
-145,789	-17,021	0,067	0,030
-144,775	60,185	-0,088	0,061
-143,760	-79,565	-0,168	-0,040
-142,745	-51,363	-0,067	0,022
-141,731	292,903	-0,066	0,086
-140,716	18,690	-0,149	-0,084
-139,702	-97,214	0,184	0,034
-138,687	46,930	-0,081	0,053
-137,672	-200,000	-0,043	-0,156
-136,658	-90,146	-0,117	-0,024
-135,643	-200,000	-0,013	-0,058
-134,629	25,510	0,062	-0,036
-133,614	-95,144	-0,081	0,015
-132,599	800,000	-0,012	-0,031
-131,585	-42,026	-0,099	0,036
-130,570	57,920	0,031	0,021
-129,556	-200,000	0,006	-0,086
-128,541	49,812	-0,034	0,022
-127,526	11,007	0,075	0,040
-126,512	27,618	0,083	0,049
-125,497	-104,578	-0,046	0,008
-124,483	-200,000	-0,010	0,039
-123,468	800,000	0,052	0,107
-122,453	79,057	-0,029	0,022
-121,439	88,920	-0,100	-0,079
-120,424	18,530	0,061	-0,035
-119,410	-16,387	-0,116	-0,052
-118,395	5,277	0,132	-0,069
-117,380	99,732	-0,054	0,044
-116,366	177,278	0,049	0,051
-115,351	-114,342	-0,077	0,010
-114,337	-68,372	0,094	0,026
-113,322	-200,000	-0,025	-0,150
-112,307	-200,000	0,015	0,084
-111,293	800,000	0,019	0,059
-110,278	-112,259	-0,096	0,013
-109,264	-31,062	-0,060	0,024
-108,249	800,000	0,035	-0,106
-107,234	-200,000	-0,024	-0,104
-106,220	-85,327	-0,059	0,013
-105,205	-17,472	0,037	0,017
-104,191	344,178	-0,049	0,068
-103,176	640,071	0,020	-0,036
-102,162	800,000	0,039	-0,119
-101,147	-121,998	-0,065	-0,008
-100,132	718,362	0,054	-0,102
-99,118	95,578	0,012	-0,009
-98,103	-29,661	-0,125	0,050
-97,089	313,344	0,098	-0,131
-96,074	357,234	0,028	-0,039
-95,059	-74,801	0,169	-0,043
-94,045	-15,657	0,096	0,043
-93,030	-200,000	0,006	-0,209
-92,016	765,044	-0,029	0,055
-91,001	-200,000	-0,019	-0,103
-89,986	-132,408	-0,055	-0,005
-88,972	-73,076	0,086	0,022
-87,957	-39,088	-0,096	0,036
-86,943	6,095	0,126	0,066
-85,928	237,502	-0,106	0,125
-84,913	-200,000	-0,042	-0,140
-83,899	800,000	-0,068	-0,203
-82,884	685,059	0,032	0,059
-81,870	-200,000	0,003	0,040
-80,855	-131,912	0,067	-0,006
-79,840	-104,774	-0,136	-0,022
-78,826	800,000	0,036	-0,088
-77,811	800,000	-0,032	-0,079
-76,797	-81,929	0,089	0,020
-75,782	-200,000	0,008	-0,032
-74,767	-19,289	0,044	0,019
-73,753	57,335	0,094	-0,064
-72,738	-103,440	-0,128	0,021
-71,724	-200,000	0,046	-0,145
-70,709	232,218	-0,029	-0,033
-69,694	-106,112	-0,103	0,016
-68,680	-64,897	0,159	0,045
-67,665	282,008	0,081	0,102
-66,651	528,685	-0,051	0,086
-65,636	-88,058	0,103	-0,022
-64,622	-141,800	-0,098	0,007
-63,607	65,311	-0,077	0,055
-62,592	-32,207	-0,152	-0,060
-61,578	-88,642	-0,139	-0,029
-60,563	800,000	0,037	0,106
-59,549	-200,000	0,007	0,091
-58,534	56,784	-1,844	-1,265
-57,519	702,016	-1,096	-2,047
-56,505	-200,000	-0,449	-4,403
-55,490	452,273	0,913	1,430
-54,476	800,000	5,104	11,427
-53,461	-200,000	21,589	343,122
-52,446	800,000	761,875	2364,517
-51,432	558,366	1663,738	2843,337
-50,417	73,194	1660,642	1223,966
-49,403	17,812	1534,370	859,531
-48,388	11,735	1457,938	787,335
-47,373	19,485	1449,434	819,888
-46,359	15,280	1438,422	793,644
-45,344	10,017	1434,232	766,249
-44,330	9,925	1432,474	764,841
-43,315	9,917	1430,609	763,781
-42,300	9,946	1428,899	762,975
-41,286	9,990	1427,689	762,505
-40,271	9,957	1426,449	761,655
-39,257	9,957	1425,110	760,910
-38,242	9,997	1424,031	760,497
-37,227	10,002	1423,051	759,964
-36,213	10,011	1421,508	759,152
-35,198	10,006	1420,656	758,646
-34,184	10,011	1419,789	758,177
-33,169	9,936	1418,150	756,915
-32,154	10,011	1417,184	756,724
-31,140	10,018	1415,936	756,061
-30,125	10,028	1414,848	755,497
-29,111	9,988	1413,734	754,684
-28,096	9,998	1412,564	754,074
-27,082	9,924	1411,293	753,019
-26,067	9,892	1410,414	752,371
-25,052	9,924	1409,297	751,895
-24,038	9,954	1408,347	751,501
-23,023	9,931	1407,386	750,851
-22,009	9,968	1406,303	750,417
-20,994	9,905	1405,485	749,655
-19,979	9,919	1404,412	749,119
-18,965	9,897	1403,367	748,426
-17,950	9,937	1402,381	748,057
-16,936	9,873	1401,694	747,363
-15,921	9,852	1400,794	746,757
-14,906	9,838	1399,978	746,227
-13,892	9,948	1398,792	746,077
-12,877	9,881	1398,036	745,333
-11,863	9,847	1397,308	744,756
-10,848	9,861	1396,330	744,273
-9,833	9,821	1395,408	743,567
-8,819	9,759	1394,823	742,934
-7,804	9,725	1393,695	742,147
-6,790	9,755	1392,555	741,651
-5,775	9,791	1391,493	741,221
-4,760	9,812	1390,385	740,698
-3,746	9,789	1389,650	740,170
-2,731	9,758	1388,795	739,545
-1,717	9,769	1387,947	739,117
-0,702	9,747	1386,165	738,034
0,313	13,919	1298,745	710,524
1,327	30,453	689,184	414,456
2,342	47,160	119,206	78,100
3,356	-0,708	16,525	8,233
4,371	2,796	3,463	1,766
5,386	11,105	1,082	0,582
6,400	613,319	0,262	0,464
7,415	-26,047	-0,268	-0,111
8,429	304,985	-0,188	-0,247
9,444	657,323	-0,226	-0,412
10,459	-41,342	-0,365	-0,132
11,473	235,864	-0,171	-0,199
12,488	74,948	-0,257	-0,190
13,502	149,695	-0,194	-0,186
14,517	-50,591	-0,334	-0,110
15,531	-22,494	-0,360	-0,153
16,546	23,226	-0,452	-0,261
17,561	71,643	-0,332	-0,242
18,575	20,386	-0,212	-0,120
19,590	393,057	-0,197	-0,290
20,604	-95,071	-0,246	-0,046
21,619	95,005	-0,394	-0,316
22,634	125,742	-0,378	-0,336
23,648	68,166	-0,324	-0,233
24,663	-16,267	-0,378	-0,168
25,677	-62,987	-0,295	-0,085
26,692	49,320	-0,271	-0,179
27,707	-6,603	-0,383	-0,183
28,721	61,990	-0,412	-0,289
29,736	108,290	-0,303	-0,254
30,750	79,568	-0,329	-0,248
31,765	5,094	-0,545	-0,281
32,780	327,514	-0,270	-0,365
33,794	-123,811	-0,326	-0,036
34,809	395,278	-0,261	-0,384
35,823	89,409	-0,222	-0,174
36,838	69,772	-0,380	-0,275
37,853	115,803	-0,301	-0,259
38,867	50,102	-0,359	-0,238
39,882	-49,248	-0,434	-0,145
40,896	98,828	-0,301	-0,244
41,911	176,941	-0,187	-0,191
42,926	25,926	-0,307	-0,179
43,940	41,087	-0,394	-0,250
44,955	27,771	-0,345	-0,204
45,969	-73,136	-0,474	-0,121
46,984	-15,644	-0,384	-0,171
47,999	37,112	-0,396	-0,245
49,013	110,411	-0,265	-0,224
50,028	-55,176	-0,417	-0,131
51,042	100,318	-0,320	-0,261
52,057	148,240	-0,394	-0,374
53,071	80,951	-0,349	-0,264
54,086	365,942	-0,231	-0,328
55,101	62,119	-0,305	-0,213
56,115	-24,499	-0,387	-0,161
57,130	-13,601	-0,356	-0,161
58,144	50,029	-0,441	-0,292
59,159	173,011	-0,236	-0,239
60,174	173,873	-0,341	-0,346
61,188	-21,154	-0,485	-0,207
62,203	68,208	-0,354	-0,254
63,217	0,139	-0,350	-0,174
64,232	189,949	-0,210	-0,221
65,247	100,652	-0,395	-0,322
66,261	139,500	-0,320	-0,295
67,276	6,331	-0,391	-0,203
68,290	216,660	-0,277	-0,309
69,305	34,672	-0,316	-0,193
70,320	7,377	-0,272	-0,142
71,334	18,088	-0,298	-0,166
72,349	11,576	-0,240	-0,129
73,363	-17,872	-0,286	-0,125
74,378	85,245	-0,389	-0,298
75,393	134,977	-0,267	-0,243
76,407	20,878	-0,348	-0,197
77,422	-3,229	-0,236	-0,115
78,436	-78,953	-0,209	-0,049
79,451	-55,982	-0,404	-0,125
80,466	12,233	-0,276	-0,149
81,480	63,277	-0,335	-0,235
82,495	800,000	-0,112	-0,299
83,509	-17,407	-0,319	-0,140
84,524	190,664	-0,131	-0,138
85,539	109,304	-0,243	-0,204
86,553	83,702	-0,235	-0,179
87,568	100,652	-0,311	-0,253
88,582	52,357	-0,303	-0,202
89,597	62,270	-0,205	-0,143
90,611	-24,431	-0,267	-0,111
91,626	-37,684	-0,100	-0,037
92,641	-78,288	-0,266	-0,063
93,655	21,188	-0,398	-0,225
94,670	-14,583	-0,502	-0,225
95,684	89,492	-0,305	-0,238
96,699	213,075	-0,251	-0,278
97,714	-42,138	-0,288	-0,102
98,728	8,393	-0,361	-0,189
99,743	-50,810	-0,220	-0,072
100,757	101,916	-0,175	-0,143
101,772	44,498	-0,343	-0,220
102,787	-123,942	-0,332	-0,036
103,801	138,043	-0,332	-0,304
104,816	526,583	-0,166	-0,274
105,830	6,071	-0,297	-0,154
106,845	-66,849	-0,221	-0,061
107,860	99,736	-0,322	-0,260
108,874	264,822	-0,143	-0,174
109,889	220,428	-0,261	-0,293
110,903	-59,811	-0,386	-0,115
111,918	-6,651	-0,298	-0,141
112,933	396,562	-0,159	-0,233
113,947	-66,373	-0,325	-0,090
114,962	-92,293	-0,234	-0,046
115,976	45,796	-0,304	-0,196
116,991	-52,523	-0,250	-0,080
118,006	291,255	-0,246	-0,313
119,020	5,333	-0,321	-0,165
120,035	-78,737	-0,104	-0,025
121,049	-50,230	-0,217	-0,071
122,064	-114,938	-0,366	-0,048
123,079	133,326	-0,105	-0,095
124,093	128,419	-0,319	-0,283
125,108	85,303	-0,201	-0,154
126,122	129,205	-0,226	-0,201
127,137	369,106	-0,179	-0,253
128,151	415,198	-0,174	-0,260
129,166	139,873	-0,143	-0,131
130,181	65,672	-0,174	-0,123
131,195	72,850	-0,186	-0,136
132,210	792,111	-0,085	-0,164
133,224	-41,319	-0,299	-0,107
134,239	192,847	-0,184	-0,193
135,254	-50,929	-0,189	-0,062
136,268	-11,876	-0,165	-0,075
137,283	50,289	-0,293	-0,193
138,297	52,468	-0,265	-0,176
139,312	800,000	-0,070	-0,137
140,327	248,749	-0,146	-0,172
141,341	-7,797	-0,145	-0,068
142,356	281,988	-0,135	-0,169
143,370	24,583	-0,066	-0,038
144,385	-28,211	-0,276	-0,111
145,400	77,722	-0,217	-0,161
146,414	683,889	-0,136	-0,248
147,429	162,869	-0,253	-0,247
148,443	59,975	-0,328	-0,225
149,458	27,917	-0,254	-0,149
150,473	21,697	-0,201	-0,113
151,487	102,930	-0,161	-0,131
152,502	91,233	-0,239	-0,187
153,516	106,183	-0,231	-0,190
154,531	209,592	-0,171	-0,187
155,546	48,234	-0,222	-0,144
156,560	38,634	-0,206	-0,127
157,575	-62,539	-0,174	-0,050
158,589	-107,790	-0,234	0,035
159,604	-54,901	-0,269	-0,084
160,619	800,000	-0,174	-0,365
161,633	188,259	-0,289	-0,300
162,648	203,151	-0,170	-0,183
163,662	-149,832	-0,248	-0,013
164,677	76,802	-0,197	-0,145
165,692	-4,469	-0,163	0,078
166,706	189,081	-0,138	-0,143
167,721	53,209	-0,333	-0,221
168,735	77,315	-0,314	-0,232
169,750	2,915	-0,361	-0,182
170,764	-54,224	-0,221	-0,069
171,779	59,569	-0,128	-0,087
172,794	-10,572	-0,165	-0,076
173,808	41,272	-0,283	-0,177
174,823	7,732	-0,306	-0,158
175,837	349,389	-0,126	-0,173
176,852	58,210	-0,159	-0,108
177,867	322,871	-0,106	-0,141
178,881	33,271	-0,140	-0,084
179,896	567,627	-0,116	-0,196
180,910	800,000	-0,111	-0,229
181,925	800,000	-0,071	-0,163
182,940	229,237	-0,226	-0,257
183,954	187,362	-0,146	-0,151
184,969	81,053	-0,241	-0,180
185,983	-112,052	-0,291	-0,040
186,998	210,033	-0,195	-0,213
188,013	-173,422	-0,273	-0,006
189,027	-87,854	-0,191	-0,040
190,042	-65,956	-0,286	-0,079
191,056	201,663	-0,142	-0,152
192,071	373,337	-0,197	-0,279
193,086	109,014	-0,185	-0,153
194,100	-138,227	-0,151	-0,011
195,115	71,038	-0,283	-0,203
196,129	341,729	-0,183	-0,249
197,144	87,427	-0,205	-0,157
198,159	-61,315	-0,077	-0,022
199,173	-66,994	-0,177	-0,048
200,188	-24,711	-0,126	-0,051
201,202	-184,634	-0,144	-0,002
202,217	511,272	-0,143	-0,232
203,232	99,312	-0,180	-0,144
204,246	800,000	-0,133	-0,260
205,261	636,717	-0,157	-0,277
206,275	147,626	-0,169	-0,158
207,290	-40,377	-0,120	-0,043
208,304	44,756	-0,079	0,050
209,319	-25,788	-0,131	-0,053
210,334	7,244	-0,235	-0,121
211,348	184,052	-0,214	-0,219
212,363	84,272	-0,220	-0,166
213,377	-67,312	-0,255	-0,069
214,392	96,207	-0,243	-0,193
215,407	280,579	-0,191	-0,236
216,421	-28,524	-0,218	-0,086
217,436	49,756	-0,178	-0,116
218,450	51,452	-0,231	-0,152
219,465	-20,144	-0,263	-0,112
220,480	-8,547	-0,234	-0,108
221,494	316,585	-0,173	-0,227
222,509	-58,472	-0,201	-0,060
223,523	-38,930	-0,330	-0,120
224,538	800,000	-0,102	-0,240
225,553	76,333	-0,216	-0,158
226,567	-200,000	-0,053	-0,180
227,582	116,706	-0,240	-0,203
228,596	800,000	-0,073	-0,173
229,611	57,771	-0,174	-0,118
230,626	-61,557	-0,255	-0,074
231,640	57,233	-0,266	-0,179
232,655	163,082	-0,057	-0,055
233,669	-118,960	-0,299	-0,036
234,684	81,975	-0,232	-0,174
235,699	95,957	-0,133	-0,105
236,713	319,095	-0,153	-0,201
237,728	800,000	-0,058	-0,139
238,742	588,721	-0,144	-0,246
239,757	120,888	-0,186	-0,160
240,772	713,035	-0,143	-0,262
241,786	-200,000	-0,043	-0,141
242,801	4,774	-0,158	-0,080
243,815	-54,430	-0,177	-0,055
244,830	-112,436	-0,194	-0,026
245,844	-50,508	-0,242	-0,078
246,859	126,802	-0,152	-0,133
247,874	-0,676	-0,187	-0,091
248,888	90,992	-0,145	-0,112
249,903	103,856	-0,085	-0,069
250,917	800,000	-0,032	-0,077
251,932	23,702	-0,169	0,096
252,947	-136,966	-0,189	0,015
253,961	295,895	-0,109	-0,138
254,976	17,505	-0,187	-0,102
255,990	8,050	-0,248	-0,128
257,005	-129,059	-0,159	-0,015
258,020	462,610	-0,062	-0,096
259,034	156,860	-0,107	-0,102
260,049	-10,453	-0,114	-0,052
261,063	-132,593	-0,148	-0,013
262,078	38,743	-0,179	-0,110
263,093	58,368	-0,127	-0,086
264,107	800,000	-0,067	-0,149
265,122	149,236	-0,046	-0,043
266,136	125,186	-0,135	-0,118
267,151	-56,087	-0,269	-0,082
268,166	-175,667	-0,175	0,003
269,180	68,928	-0,225	-0,159
270,195	10,248	-0,145	-0,076
271,209	-162,621	-0,173	0,006
272,224	-12,094	-0,275	-0,123
273,239	-200,000	-0,019	-0,062
274,253	-26,267	-0,144	-0,058
275,268	112,046	-0,128	-0,106
276,282	93,344	-0,280	-0,218
277,297	-200,000	-0,008	-0,054
278,312	189,613	-0,085	-0,088
279,326	800,000	-0,110	-0,266
280,341	99,590	-0,149	-0,119
281,355	-107,324	-0,190	-0,028
282,370	6,109	-0,166	-0,084
283,384	21,584	-0,191	-0,107
284,399	373,989	-0,203	-0,285
285,414	-200,000	-0,073	-0,272
286,428	236,547	-0,125	-0,143
287,443	-147,204	-0,210	0,012
288,457	-111,845	-0,070	-0,010
289,472	87,941	-0,189	-0,144
290,487	28,712	-0,119	-0,069
291,501	81,135	-0,151	-0,112
292,516	416,419	-0,138	-0,203
293,530	3,771	-0,172	-0,086
294,545	61,758	-0,041	-0,028
295,560	68,198	-0,078	-0,055
296,574	106,481	-0,234	-0,190
297,589	-14,058	-0,195	0,086
298,603	-155,335	-0,285	0,012
299,618	109,588	-0,161	-0,132
300,633	-39,820	-0,224	-0,080
301,647	727,440	-0,073	-0,135
302,662	-26,566	-0,048	-0,019
303,676	22,886	-0,090	-0,051
304,691	173,719	-0,112	-0,111
305,706	252,440	-0,111	-0,130
306,720	-21,785	-0,132	-0,055
307,735	-200,000	-0,035	-0,148
308,749	-16,278	-0,248	0,108
309,764	80,463	-0,144	-0,106
310,779	-147,682	-0,106	-0,006
311,793	120,398	-0,175	-0,149
312,808	51,529	-0,170	-0,111
313,822	98,058	-0,093	-0,073
314,837	322,642	-0,136	-0,179
315,852	800,000	-0,040	-0,105
316,866	55,519	-0,123	-0,082
317,881	-104,738	-0,183	-0,029
318,895	33,968	-0,174	-0,103
319,910	482,551	-0,107	-0,167
320,925	237,359	-0,193	-0,220
321,939	10,044	-0,196	-0,102
322,954	-109,580	-0,176	-0,025
323,968	356,036	-0,014	0,019
324,983	-200,000	-0,034	-0,180
325,997	800,000	-0,131	-0,267
327,012	-28,852	-0,173	-0,068
328,027	70,631	-0,177	-0,125
329,041	53,554	-0,141	-0,092
330,056	652,549	-0,027	-0,048
331,070	-200,000	-0,005	-0,069
332,085	800,000	-0,060	-0,145
333,100	-200,000	-0,031	-0,132
334,114	800,000	-0,079	-0,172
335,129	67,839	-0,160	-0,112
336,143	271,766	-0,065	-0,079
337,158	-40,977	-0,116	-0,041
338,173	34,482	-0,168	-0,100
339,187	85,097	-0,123	-0,093
340,202	759,420	-0,104	-0,194
341,216	800,000	-0,054	-0,137
342,231	800,000	-0,107	-0,233
343,246	162,566	-0,154	-0,148
344,260	-200,000	0,017	-0,137
345,275	560,597	-0,091	-0,151
346,289	-76,748	-0,106	-0,025
347,304	211,198	-0,163	-0,176
348,319	181,291	-0,161	-0,163
349,333	800,000	-0,072	-0,146
350,348	294,122	-0,133	-0,166
351,362	68,310	-0,287	-0,201
352,377	-200,000	0,027	-0,111
353,392	800,000	-0,083	-0,207
354,406	532,845	-0,101	-0,164
355,421	208,496	1304,918	1396,896
356,435	160,438	1464,415	1397,386
