DTS Sentinel unit serial number:	SN410029Multiplexer serial number:	ORYXHardware model number:	OX2-SRSoftware version number:	ORYX F/W v4,00 Oryx Data Collector v3.7.2.0data status	okinstallation	B3 Nyhavnadifferential loss correction	single-endedforward channel	channel 1reverse channel	N/Adate	2023/12/03time	10:07:30forward acquisition time	300,00reverse acquisition time	0,00gamma	499,1914k internal	0,3201k external	0,3201temperature offset calibration	1,0000default loss term (dB/km)	0,3820temperature slope calibration	1,0000multiplexer offset coefficient	1,0000multiplexer slope coefficient	1,0000fibre end	0,00T internal ref (°C)	13,37T ext. ref 1 (°C)	-1,57T ext. ref 2 (°C)	-1,58length (m)	temperature (°C)	Stokes	anti-Stokes-744,400	759,653	-0,119	-0,236
-743,385	-200,000	0,082	0,373
-742,371	309,412	-0,214	-0,292
-741,356	726,264	0,128	0,250
-740,342	123,759	-0,220	-0,201
-739,327	800,000	0,118	0,265
-738,312	669,747	-0,163	-0,308
-737,298	-200,000	-0,068	0,296
-736,283	21,791	-0,246	-0,145
-735,269	-200,000	-0,059	0,327
-734,254	281,983	-0,114	-0,149
-733,239	165,282	-0,047	0,048
-732,225	202,619	-0,079	-0,089
-731,210	-200,000	-0,018	0,205
-730,196	54,440	0,088	-0,062
-729,181	306,345	-0,054	0,073
-728,167	800,000	0,025	0,061
-727,152	-153,104	-0,137	0,007
-726,137	159,915	-0,110	-0,111
-725,123	-35,630	-0,044	-0,017
-724,108	-81,059	-0,042	0,010
-723,094	178,912	-0,109	-0,116
-722,079	-33,992	-0,060	-0,024
-721,064	58,847	0,040	0,029
-720,050	-200,000	0,011	0,067
-719,035	-109,764	0,110	-0,017
-718,021	99,858	-0,061	0,051
-717,006	672,397	-0,056	-0,106
-715,991	82,305	-0,090	0,071
-714,977	800,000	0,023	0,059
-713,962	-200,000	0,002	-0,009
-712,948	-200,000	-0,011	0,118
-711,933	-52,355	0,106	-0,035
-710,918	552,263	-0,049	-0,086
-709,904	800,000	0,023	-0,057
-708,889	800,000	-0,022	-0,065
-707,875	800,000	0,041	-0,083
-706,860	243,250	-0,058	0,070
-705,845	-200,000	-0,032	-0,107
-704,831	110,135	0,268	0,234
-703,816	800,000	-0,023	-0,063
-702,802	-68,798	-0,220	-0,061
-701,787	800,000	-0,045	-0,142
-700,772	800,000	0,015	-0,044
-699,758	55,655	-0,066	0,047
-698,743	-52,345	0,141	0,047
-697,729	10,165	0,069	-0,038
-696,714	750,276	-0,089	0,174
-695,699	-118,883	-0,095	-0,012
-694,685	-136,867	-0,185	-0,015
-693,670	-200,000	0,094	0,000
-692,656	800,000	-0,055	-0,139
-691,641	-83,383	0,118	0,027
-690,627	294,606	0,059	-0,079
-689,612	397,942	-0,066	-0,101
-688,597	-185,531	-0,034	0,000
-687,583	-68,311	-0,084	-0,024
-686,568	-200,000	-0,019	-0,104
-685,554	-93,263	-0,061	-0,012
-684,539	-200,000	0,046	0,155
-683,524	-171,030	-0,160	-0,004
-682,510	205,125	0,031	0,035
-681,495	800,000	0,027	0,076
-680,481	-88,217	-0,068	0,015
-679,466	-200,000	-0,033	-0,254
-678,451	-102,966	0,102	-0,017
-677,437	800,000	0,031	0,097
-676,422	-200,000	-0,005	0,098
-675,408	-200,000	0,027	0,091
-674,393	800,000	0,042	0,104
-673,378	800,000	-0,022	0,065
-672,364	-98,558	-0,143	0,026
-671,349	213,412	0,075	-0,086
-670,335	-33,331	-0,029	-0,011
-669,320	-200,000	0,011	0,082
-668,305	-4,034	-0,046	-0,023
-667,291	-123,215	0,088	-0,010
-666,276	-57,194	-0,165	-0,052
-665,262	800,000	0,051	-0,120
-664,247	52,168	-0,103	-0,071
-663,232	800,000	0,040	0,095
-662,218	-59,862	0,057	-0,018
-661,203	-200,000	0,021	-0,123
-660,189	-38,738	-0,055	0,021
-659,174	-47,604	-0,002	0,001
-658,159	-128,151	0,113	0,012
-657,145	67,359	-0,078	-0,058
-656,130	-105,525	0,106	-0,017
-655,116	-200,000	0,007	0,092
-654,101	-200,000	0,015	0,172
-653,086	88,025	0,069	-0,056
-652,072	66,181	-0,079	0,058
-651,057	232,058	0,017	0,020
-650,043	-86,614	-0,039	-0,009
-649,028	-25,913	-0,102	0,043
-648,014	33,882	-0,015	-0,010
-646,999	-117,371	-0,083	0,011
-645,984	-200,000	0,004	0,161
-644,970	-200,000	0,004	0,071
-643,955	85,232	-0,094	-0,075
-642,941	-39,728	-0,118	0,045
-641,926	458,931	0,065	-0,105
-640,911	460,637	0,031	0,049
-639,897	614,039	0,061	0,111
-638,882	-80,563	0,004	0,001
-637,868	800,000	0,016	-0,035
-636,853	-12,730	-0,068	0,032
-635,838	-111,084	0,077	0,011
-634,824	120,049	-0,032	-0,029
-633,809	54,833	0,092	0,064
-632,795	37,026	0,134	-0,086
-631,780	450,889	-0,023	0,036
-630,765	-145,702	-0,111	-0,007
-629,751	-143,182	-0,156	0,011
-628,736	800,000	-0,040	-0,107
-627,722	-102,309	0,056	-0,010
-626,707	17,166	0,181	-0,104
-625,692	63,791	0,057	-0,042
-624,678	800,000	0,039	-0,091
-623,663	338,440	-0,075	0,105
-622,649	-74,767	0,192	-0,050
-621,634	-43,174	-0,178	-0,065
-620,619	206,949	-0,083	0,094
-619,605	272,887	-0,051	0,065
-618,590	-19,655	-0,090	0,040
-617,576	466,663	0,052	0,085
-616,561	800,000	0,044	-0,100
-615,546	-13,659	-0,092	0,043
-614,532	800,000	0,044	-0,107
-613,517	220,094	-0,039	-0,045
-612,503	59,206	-0,107	-0,076
-611,488	-22,549	0,040	-0,017
-610,474	-200,000	-0,004	0,168
-609,459	13,472	0,110	-0,061
-608,444	211,143	-0,045	-0,052
-607,430	794,693	0,012	-0,025
-606,415	-200,000	0,001	0,075
-605,401	72,893	-0,030	-0,023
-604,386	151,422	-0,110	0,109
-603,371	17,604	0,104	-0,060
-602,357	-200,000	0,016	-0,277
-601,342	40,564	-0,111	0,073
-600,328	51,619	-0,112	-0,077
-599,313	51,162	0,089	-0,061
-598,298	456,603	0,076	-0,122
-597,284	800,000	-0,011	0,029
-596,269	186,159	0,063	-0,068
-595,255	-71,161	0,169	0,046
-594,240	-33,247	0,121	0,048
-593,225	-144,557	-0,098	-0,006
-592,211	196,615	0,023	-0,025
-591,196	130,082	0,045	-0,042
-590,182	88,095	0,120	-0,096
-589,167	565,683	-0,020	0,035
-588,152	64,423	0,048	-0,035
-587,138	800,000	-0,051	0,126
-586,123	-200,000	-0,026	0,085
-585,109	288,909	0,044	-0,058
-584,094	84,611	0,038	-0,030
-583,079	-200,000	-0,018	0,058
-582,065	134,436	0,044	-0,041
-581,050	-144,888	-0,018	-0,001
-580,036	-200,000	-0,010	0,080
-579,021	267,666	-0,119	-0,151
-578,006	103,057	0,073	-0,062
-576,992	-182,611	-0,113	0,001
-575,977	-200,000	0,003	0,019
-574,963	-200,000	0,005	-0,020
-573,948	800,000	-0,012	0,024
-572,934	37,366	0,088	0,056
-571,919	-79,758	-0,029	-0,007
-570,904	85,544	0,087	0,069
-569,890	-200,000	-0,016	-0,061
-568,875	-200,000	0,019	-0,081
-567,861	210,768	0,095	0,108
-566,846	-25,604	0,054	0,023
-565,831	17,191	-0,077	0,044
-564,817	-24,224	0,156	0,067
-563,802	136,111	-0,110	-0,104
-562,788	-82,768	-0,236	-0,055
-561,773	-9,248	-0,103	0,050
-560,758	149,437	0,102	0,100
-559,744	-200,000	0,028	0,152
-558,729	-59,308	-0,067	-0,021
-557,715	-61,318	-0,037	0,011
-556,700	-81,248	-0,208	-0,049
-555,685	345,325	-0,031	-0,044
-554,671	800,000	-0,039	0,098
-553,656	85,995	0,069	-0,055
-552,642	-23,786	0,069	0,030
-551,627	306,417	0,046	0,061
-550,612	800,000	-0,030	-0,088
-549,598	-200,000	-0,034	-0,116
-548,583	-138,008	-0,074	-0,006
-547,569	-200,000	-0,009	0,061
-546,554	116,444	0,058	0,052
-545,539	107,899	0,060	-0,052
-544,525	322,937	0,045	0,062
-543,510	-49,406	-0,072	0,025
-542,496	709,863	-0,047	-0,090
-541,481	-9,282	0,057	-0,027
-540,466	105,442	0,083	-0,071
-539,452	-200,000	-0,022	0,194
-538,437	25,301	0,045	0,027
-537,423	-111,323	-0,166	-0,024
-536,408	-42,200	0,057	-0,021
-535,393	-103,615	0,056	0,009
-534,379	-87,734	0,085	-0,018
-533,364	-42,302	-0,146	0,053
-532,350	66,454	-0,071	0,052
-531,335	-161,151	0,121	0,004
-530,321	-39,470	-0,044	0,016
-529,306	-119,630	-0,107	-0,013
-528,291	-115,241	-0,049	0,007
-527,277	86,439	-0,090	-0,072
-526,262	800,000	-0,029	-0,072
-525,248	-148,921	0,119	0,007
-524,233	-200,000	0,021	-0,124
-523,218	-119,220	-0,128	0,016
-522,204	800,000	0,020	0,063
-521,189	-200,000	-0,025	-0,137
-520,175	24,832	0,016	0,010
-519,160	-146,729	0,138	-0,008
-518,145	160,944	-0,097	0,098
-517,131	70,992	0,039	0,029
-516,116	-72,139	-0,103	0,027
-515,102	800,000	-0,024	0,072
-514,087	-166,803	0,098	0,003
-513,072	-200,000	-0,045	-0,203
-512,058	-200,000	-0,029	0,137
-511,043	-15,333	0,180	0,082
-510,029	-200,000	-0,010	0,113
-509,014	-79,497	0,067	0,016
-507,999	243,718	-0,023	-0,028
-506,985	-200,000	-0,015	-0,073
-505,970	-200,000	0,005	-0,140
-504,956	-35,072	-0,022	0,009
-503,941	-200,000	-0,011	0,105
-502,926	-42,231	0,105	-0,039
-501,912	238,750	0,003	0,004
-500,897	-145,788	-0,074	0,005
-499,883	-200,000	-0,012	0,067
-498,868	-96,369	-0,069	0,013
-497,853	800,000	0,019	-0,038
-496,839	116,161	0,057	0,051
-495,824	637,991	-0,080	0,148
-494,810	-17,508	0,075	-0,034
-493,795	366,632	-0,009	-0,012
-492,781	800,000	0,011	-0,024
-491,766	-200,000	-0,032	-0,141
-490,751	41,515	-0,107	0,069
-489,737	-2,894	0,133	-0,067
-488,722	-23,652	-0,012	0,005
-487,708	-150,998	0,260	-0,014
-486,693	800,000	0,035	-0,077
-485,678	102,881	-0,038	-0,032
-484,664	-5,780	0,085	-0,042
-483,649	-200,000	0,008	-0,111
-482,635	4,640	0,071	-0,037
-481,620	-200,000	0,001	-0,016
-480,605	687,048	0,051	0,096
-479,591	6,872	-0,120	-0,064
-478,576	-200,000	0,017	-0,166
-477,562	699,530	0,068	-0,130
-476,547	-88,006	-0,109	-0,023
-475,532	686,360	0,004	0,007
-474,518	-29,186	0,148	0,061
-473,503	-200,000	-0,004	0,069
-472,489	-44,583	0,127	0,045
-471,474	800,000	-0,046	0,095
-470,459	-200,000	0,006	0,078
-469,445	40,456	-0,068	-0,044
-468,430	388,316	-0,016	-0,023
-467,416	-132,790	0,155	0,014
-466,401	-200,000	0,026	0,163
-465,386	800,000	-0,015	-0,033
-464,372	-40,147	0,014	0,005
-463,357	155,348	-0,034	0,033
-462,343	277,722	0,057	-0,073
-461,328	-156,267	-0,035	0,002
-460,313	213,693	-0,011	-0,013
-459,299	800,000	-0,009	-0,026
-458,284	87,060	0,057	0,045
-457,270	800,000	0,047	-0,098
-456,255	-82,820	0,094	0,022
-455,241	43,186	0,092	0,060
-454,226	-200,000	0,026	-0,082
-453,211	-117,290	0,119	-0,015
-452,197	-200,000	-0,019	-0,117
-451,182	-200,000	-0,005	0,110
-450,168	-42,982	0,043	0,015
-449,153	-15,643	-0,142	0,065
-448,138	-200,000	0,030	-0,160
-447,124	403,459	-0,040	-0,061
-446,109	73,967	0,051	0,038
-445,095	-4,388	0,159	-0,079
-444,080	227,712	0,106	-0,124
-443,065	-52,617	0,058	0,019
-442,051	43,010	-0,033	0,021
-441,036	94,081	-0,083	-0,067
-440,022	-200,000	0,013	0,049
-439,007	282,193	-0,030	-0,038
-437,992	-93,523	0,163	0,032
-436,978	800,000	-0,025	0,074
-435,963	800,000	-0,049	0,131
-434,949	-200,000	-0,001	0,035
-433,934	-200,000	0,013	0,070
-432,919	-130,926	-0,061	0,006
-431,905	233,114	-0,057	-0,068
-430,890	-160,721	0,073	0,003
-429,876	-200,000	0,012	0,063
-428,861	450,503	0,054	-0,086
-427,846	-200,000	0,003	0,093
-426,832	-144,113	-0,169	-0,011
-425,817	19,127	-0,096	0,055
-424,803	-200,000	-0,006	-0,076
-423,788	692,096	0,059	-0,111
-422,773	-200,000	-0,008	0,101
-421,759	-200,000	0,001	0,081
-420,744	-200,000	-0,001	0,105
-419,730	67,404	0,067	0,049
-418,715	-200,000	-0,031	-0,149
-417,701	800,000	0,056	-0,116
-416,686	-185,208	0,075	-0,001
-415,671	298,509	0,087	0,115
-414,657	462,362	-0,134	0,216
-413,642	-200,000	0,049	0,177
-412,628	299,434	-0,063	-0,084
-411,613	-105,072	-0,054	0,009
-410,598	24,737	-0,064	-0,038
-409,584	-200,000	0,016	0,128
-408,569	-135,673	0,104	-0,009
-407,555	-200,000	-0,012	-0,078
-406,540	-102,709	-0,014	-0,002
-405,525	-65,904	-0,160	-0,046
-404,511	800,000	-0,039	-0,124
-403,496	-102,599	-0,082	0,014
-402,482	302,798	0,062	0,083
-401,467	-55,390	0,144	-0,046
-400,452	274,753	0,027	-0,034
-399,438	800,000	-0,029	0,058
-398,423	-200,000	0,022	-0,133
-397,409	-99,734	0,054	-0,010
-396,394	542,926	0,013	-0,023
-395,379	-200,000	-0,020	-0,095
-394,365	-200,000	0,026	-0,094
-393,350	800,000	0,032	-0,066
-392,336	-200,000	-0,039	-0,140
-391,321	-81,367	-0,068	0,016
-390,306	-10,524	-0,049	-0,023
-389,292	-152,130	-0,088	-0,005
-388,277	-36,785	-0,040	0,015
-387,263	236,819	0,066	0,079
-386,248	-15,586	0,124	0,056
-385,233	16,926	-0,151	0,085
-384,219	367,421	0,022	0,032
-383,204	-200,000	-0,006	-0,250
-382,190	-161,033	0,080	0,003
-381,175	-200,000	0,028	-0,096
-380,160	227,569	0,166	-0,194
-379,146	-200,000	0,051	0,163
-378,131	-200,000	-0,068	0,290
-377,117	81,048	-0,056	0,043
-376,102	277,959	-0,034	0,044
-375,088	-200,000	-0,012	-0,164
-374,073	800,000	-0,012	0,024
-373,058	308,907	0,040	0,054
-372,044	-200,000	0,005	0,065
-371,029	376,819	0,094	-0,138
-370,015	-200,000	0,048	-0,202
-369,000	-200,000	0,024	-0,109
-367,985	504,566	0,054	-0,090
-366,971	32,767	-0,077	-0,048
-365,956	-125,851	-0,114	-0,012
-364,942	-200,000	-0,012	-0,060
-363,927	365,721	-0,034	-0,050
-362,912	187,340	-0,048	0,052
-361,898	-45,765	-0,068	-0,024
-360,883	39,473	-0,045	-0,029
-359,869	48,048	-0,049	0,033
-358,854	-200,000	0,003	0,067
-357,839	-200,000	0,015	0,118
-356,825	-7,013	0,073	-0,035
-355,810	149,796	0,092	-0,089
-354,796	-129,344	-0,018	0,002
-353,781	-200,000	0,034	-0,126
-352,766	-51,662	-0,057	-0,019
-351,752	800,000	0,048	0,097
-350,737	-55,179	0,063	0,020
-349,723	-200,000	0,002	-0,038
-348,708	373,115	0,029	0,042
-347,693	-35,589	-0,068	-0,026
-346,679	60,813	0,041	0,029
-345,664	-200,000	-0,026	0,103
-344,650	-157,768	0,053	-0,002
-343,635	309,357	-0,030	0,040
-342,620	357,048	-0,045	-0,064
-341,606	206,435	0,121	0,135
-340,591	766,778	-0,061	0,119
-339,577	800,000	0,028	-0,076
-338,562	-200,000	-0,007	0,032
-337,548	800,000	-0,032	-0,082
-336,533	-36,104	0,091	0,035
-335,518	6,326	-0,092	-0,049
-334,504	363,957	0,087	0,126
-333,489	401,696	-0,120	-0,182
-332,475	327,339	0,098	-0,135
-331,460	137,995	-0,019	0,018
-330,445	-200,000	-0,013	0,062
-329,431	106,041	0,025	-0,021
-328,416	-94,281	0,083	0,016
-327,402	-77,171	-0,078	0,019
-326,387	268,202	0,021	-0,027
-325,372	-200,000	0,008	-0,060
-324,358	-200,000	-0,055	-0,242
-323,343	800,000	0,034	-0,082
-322,329	191,625	-0,047	0,050
-321,314	-11,757	0,082	0,038
-320,299	-55,283	0,145	-0,046
-319,285	-200,000	-0,004	-0,016
-318,270	800,000	0,039	-0,111
-317,256	249,858	-0,037	-0,045
-316,241	212,122	-0,099	-0,112
-315,226	-24,135	-0,067	-0,029
-314,212	-21,375	0,139	0,061
-313,197	-200,000	-0,002	0,123
-312,183	277,489	-0,044	0,056
-311,168	382,784	-0,043	-0,063
-310,153	379,223	-0,060	-0,089
-309,139	-88,670	0,129	-0,027
-308,124	150,057	-0,056	-0,055
-307,110	90,194	0,179	0,143
-306,095	-71,047	-0,039	-0,010
-305,080	-158,824	0,080	-0,003
-304,066	-78,474	-0,040	-0,010
-303,051	114,875	0,076	-0,066
-302,037	81,649	0,083	0,064
-301,022	800,000	0,045	-0,090
-300,008	440,298	-0,023	0,036
-298,993	-200,000	-0,015	0,078
-297,978	-200,000	-0,010	0,086
-296,964	123,155	0,050	0,045
-295,949	113,388	-0,044	-0,038
-294,935	192,295	0,058	0,063
-293,920	268,508	0,068	0,085
-292,905	-200,000	-0,008	0,089
-291,891	96,999	0,094	0,077
-290,876	453,430	0,097	-0,154
-289,862	-103,831	-0,203	0,034
-288,847	-56,641	0,059	-0,019
-287,832	-115,049	0,096	-0,013
-286,818	604,240	0,075	-0,134
-285,803	-160,061	-0,055	0,002
-284,789	-118,531	0,046	-0,006
-283,774	-200,000	0,034	0,113
-282,759	-105,582	-0,045	0,007
-281,745	-108,096	0,108	-0,017
-280,730	92,217	-0,127	-0,102
-279,716	800,000	-0,053	-0,108
-278,701	440,766	0,031	0,049
-277,686	637,753	0,073	0,133
-276,672	-110,221	-0,086	-0,013
-275,657	670,531	-0,022	-0,042
-274,643	800,000	-0,027	0,074
-273,628	-33,198	0,008	0,003
-272,613	800,000	0,059	-0,144
-271,599	97,885	-0,062	-0,051
-270,584	53,846	0,152	0,104
-269,570	800,000	0,077	0,166
-268,555	-140,438	0,072	-0,005
-267,540	-200,000	-0,006	0,137
-266,526	184,681	-0,051	-0,054
-265,511	-99,623	-0,070	0,012
-264,497	-200,000	-0,006	0,068
-263,482	800,000	-0,056	0,150
-262,467	800,000	0,023	-0,068
-261,453	454,892	-0,052	0,082
-260,438	-74,811	0,091	-0,023
-259,424	-104,213	-0,156	0,026
-258,409	92,152	-0,092	-0,074
-257,395	-200,000	0,001	0,004
-256,380	343,493	0,060	0,085
-255,365	368,811	0,041	-0,059
-254,351	215,976	0,034	0,039
-253,336	11,799	0,121	-0,066
-252,322	89,366	-0,132	-0,105
-251,307	-30,017	-0,144	-0,058
-250,292	-200,000	-0,003	-0,030
-249,278	-23,110	0,119	-0,051
-248,263	231,026	0,034	0,040
-247,249	-110,150	-0,075	-0,011
-246,234	800,000	-0,065	0,130
-245,219	157,018	-0,101	-0,100
-244,205	-14,035	-0,030	-0,014
-243,190	-200,000	0,019	0,095
-242,176	-200,000	-0,014	0,100
-241,161	-117,203	-0,052	0,007
-240,146	-200,000	0,020	0,067
-239,132	198,818	-0,084	0,091
-238,117	-99,697	-0,049	-0,009
-237,103	-200,000	0,010	-0,116
-236,088	800,000	0,022	-0,053
-235,073	-200,000	-0,013	0,111
-234,059	251,576	0,166	0,201
-233,044	-160,610	-0,041	0,002
-232,030	108,577	-0,093	-0,080
-231,015	437,861	-0,044	-0,068
-230,000	-195,922	-0,057	-0,000
-228,986	427,463	0,017	-0,026
-227,971	350,112	0,041	0,058
-226,957	307,528	0,113	0,150
-225,942	417,511	-0,075	0,114
-224,927	13,161	-0,070	-0,039
-223,913	-34,725	-0,090	-0,035
-222,898	-134,792	-0,193	-0,016
-221,884	-200,000	-0,019	0,065
-220,869	643,315	-0,068	0,124
-219,855	215,280	0,083	-0,094
-218,840	800,000	0,007	-0,019
-217,825	-200,000	0,021	-0,068
-216,811	800,000	0,015	-0,041
-215,796	-66,535	0,049	-0,014
-214,782	199,728	0,082	-0,090
-213,767	33,331	0,086	0,053
-212,752	391,141	0,031	-0,046
-211,738	-23,732	-0,179	-0,076
-210,723	800,000	0,055	0,113
-209,709	107,856	-0,102	0,086
-208,694	10,017	0,046	0,025
-207,679	-104,967	-0,032	-0,005
-206,665	64,978	0,093	-0,067
-205,650	-200,000	0,012	0,074
-204,636	-35,237	0,031	-0,012
-203,621	800,000	0,050	-0,119
-202,606	-113,484	-0,097	0,013
-201,592	-19,350	0,020	0,009
-200,577	-200,000	-0,015	0,112
-199,563	800,000	0,043	0,103
-198,548	-200,000	0,023	0,117
-197,533	107,560	-0,072	0,061
-196,519	800,000	0,023	0,068
-195,504	-18,560	-0,176	-0,078
-194,490	-88,559	-0,174	-0,037
-193,475	800,000	-0,033	0,083
-192,460	90,767	-0,060	0,047
-191,446	102,688	0,102	0,085
-190,431	266,813	0,061	0,076
-189,417	-200,000	-0,013	0,157
-188,402	-32,302	-0,107	0,042
-187,387	382,510	-0,071	-0,104
-186,373	161,058	-0,122	-0,121
-185,358	-54,183	-0,121	0,039
-184,344	800,000	0,059	0,159
-183,329	260,561	-0,049	0,060
-182,315	83,510	0,101	0,078
-181,300	-94,249	-0,070	0,014
-180,285	-200,000	-0,013	-0,053
-179,271	-200,000	0,005	0,033
-178,256	-200,000	-0,014	0,050
-177,242	-200,000	-0,004	-0,124
-176,227	-200,000	0,015	-0,054
-175,212	217,797	0,022	0,025
-174,198	800,000	-0,045	-0,132
-173,183	69,088	-0,093	-0,068
-172,169	-4,400	0,062	0,030
-171,154	49,477	0,020	0,013
-170,139	800,000	-0,057	0,172
-169,125	426,315	0,008	0,013
-168,110	264,643	0,090	-0,112
-167,096	59,034	-0,089	-0,062
-166,081	800,000	0,032	-0,077
-165,066	-20,588	0,103	-0,045
-164,052	-147,030	-0,176	-0,011
-163,037	-160,798	-0,150	0,006
-162,023	86,379	-0,067	-0,053
-161,008	427,428	0,105	0,162
-159,993	32,935	0,037	0,023
-158,979	-200,000	-0,006	-0,026
-157,964	-191,721	-0,179	0,001
-156,950	140,085	0,042	0,039
-155,935	8,897	-0,077	-0,041
-154,920	-162,518	0,108	-0,004
-153,906	-32,858	-0,070	0,027
-152,891	-200,000	0,004	0,057
-151,877	35,877	0,073	-0,046
-150,862	-38,261	-0,056	0,021
-149,847	85,066	-0,021	-0,016
-148,833	800,000	-0,036	-0,075
-147,818	-37,359	0,115	0,044
-146,804	-200,000	0,030	0,200
-145,789	-59,168	0,118	0,036
-144,775	573,294	0,085	-0,148
-143,760	112,377	0,115	-0,099
-142,745	800,000	-0,030	0,084
-141,731	800,000	0,021	0,046
-140,716	226,278	0,082	0,095
-139,702	519,306	0,098	0,163
-138,687	196,375	-0,038	-0,041
-137,672	-200,000	-0,002	-0,051
-136,658	-126,705	-0,121	0,013
-135,643	274,875	0,010	-0,012
-134,629	73,921	-0,103	0,077
-133,614	-200,000	-0,036	0,137
-132,599	388,598	-0,145	0,213
-131,585	462,090	-0,031	-0,049
-130,570	-72,033	0,058	-0,015
-129,556	800,000	-0,054	-0,151
-128,541	800,000	0,025	-0,064
-127,526	-52,795	-0,167	0,054
-126,512	88,147	0,099	-0,078
-125,497	724,438	0,062	0,119
-124,483	-200,000	0,037	-0,133
-123,468	545,669	0,030	-0,050
-122,453	-200,000	0,008	-0,073
-121,439	166,539	-0,066	0,066
-120,424	-200,000	0,019	0,164
-119,410	-37,348	0,187	-0,070
-118,395	-122,615	0,116	-0,013
-117,380	-200,000	-0,004	0,103
-116,366	-144,567	-0,061	0,004
-115,351	-103,435	-0,060	0,010
-114,337	641,645	0,083	-0,151
-113,322	27,873	0,075	-0,045
-112,307	-26,538	0,007	0,003
-111,293	229,967	-0,057	-0,066
-110,278	-114,655	0,127	0,017
-109,264	800,000	-0,024	0,062
-108,249	316,110	0,029	0,039
-107,234	758,217	0,030	-0,058
-106,220	310,577	-0,083	-0,110
-105,205	-76,553	0,133	0,033
-104,191	-200,000	0,043	0,141
-103,176	-200,000	-0,016	0,173
-102,162	-64,831	0,040	-0,011
-101,147	-62,962	-0,038	-0,011
-100,132	800,000	0,030	-0,070
-99,118	257,382	-0,104	-0,127
-98,103	666,039	0,054	-0,099
-97,089	-200,000	0,023	0,084
-96,074	-170,943	-0,066	0,002
-95,059	-5,548	0,048	-0,023
-94,045	-200,000	0,008	0,067
-93,030	604,334	-0,009	-0,016
-92,016	17,344	0,103	-0,058
-91,001	-200,000	-0,038	-0,157
-89,986	800,000	0,051	0,118
-88,972	800,000	0,034	-0,100
-87,957	-6,813	-0,042	0,020
-86,943	-98,365	-0,066	0,012
-85,928	412,131	-0,073	-0,110
-84,913	-200,000	0,001	-0,043
-83,899	-24,712	-0,084	-0,035
-82,884	64,660	-0,100	0,072
-81,870	140,328	0,005	-0,005
-80,855	-200,000	-0,037	0,137
-79,840	-200,000	-0,007	-0,078
-78,826	800,000	-0,042	0,123
-77,811	71,545	-0,116	-0,085
-76,797	-200,000	0,012	-0,092
-75,782	776,358	0,062	0,120
-74,767	-200,000	-0,008	0,041
-73,753	800,000	0,077	-0,167
-72,738	-26,020	-0,056	0,023
-71,724	540,451	-0,094	-0,159
-70,709	45,144	-0,083	-0,054
-69,694	-138,711	0,032	-0,002
-68,680	234,717	0,085	-0,099
-67,665	-200,000	0,048	0,167
-66,651	-34,620	0,026	0,010
-65,636	-200,000	-0,037	0,135
-64,622	-200,000	0,058	-0,000
-63,607	-174,501	-0,210	-0,004
-62,592	-147,456	0,096	0,006
-61,578	-9,052	0,091	-0,043
-60,563	800,000	0,065	0,177
-59,549	-54,974	0,043	0,014
-58,534	-29,727	-1,639	-0,659
-57,519	502,278	-1,261	-2,070
-56,505	-200,000	-0,514	-4,446
-55,490	335,758	0,900	1,240
-54,476	800,000	4,827	11,124
-53,461	-200,000	19,251	319,942
-52,446	-200,000	740,362	2335,136
-51,432	574,035	1655,418	2870,239
-50,417	78,383	1671,212	1262,439
-49,403	21,348	1544,083	885,917
-48,388	15,215	1466,371	811,508
-47,373	17,962	1456,745	819,426
-46,359	16,694	1446,625	807,617
-45,344	13,500	1442,133	789,779
-44,330	13,369	1440,105	788,009
-43,315	13,416	1438,429	787,283
-42,300	13,445	1436,586	786,383
-41,286	13,424	1435,508	785,661
-40,271	13,426	1433,989	784,809
-39,257	13,412	1432,931	784,129
-38,242	13,450	1431,391	783,438
-37,227	13,443	1430,520	782,899
-36,213	13,467	1428,971	782,133
-35,198	13,465	1427,803	781,453
-34,184	13,497	1426,680	780,961
-33,169	13,413	1425,658	779,968
-32,154	13,479	1424,514	779,628
-31,140	13,489	1423,310	778,984
-30,125	13,502	1422,099	778,350
-29,111	13,459	1421,014	777,525
-28,096	13,486	1419,825	776,971
-27,082	13,375	1418,775	775,839
-26,067	13,392	1417,716	775,311
-25,052	13,433	1416,520	774,820
-24,038	13,385	1415,809	774,172
-23,023	13,391	1414,534	773,475
-22,009	13,380	1413,744	772,957
-20,994	13,376	1412,594	772,281
-19,979	13,385	1411,852	771,887
-18,965	13,392	1410,878	771,357
-17,950	13,363	1409,823	770,615
-16,936	13,358	1409,034	770,127
-15,921	13,335	1407,776	769,300
-14,906	13,337	1407,098	768,909
-13,892	13,314	1405,952	768,147
-12,877	13,285	1405,325	767,637
-11,863	13,348	1404,147	767,259
-10,848	13,292	1403,535	766,634
-9,833	13,262	1402,447	765,867
-8,819	13,214	1401,747	765,232
-7,804	13,201	1400,940	764,700
-6,790	13,214	1399,765	764,091
-5,775	13,200	1398,768	763,449
-4,760	13,236	1397,472	762,878
-3,746	13,237	1396,737	762,452
-2,731	13,210	1396,008	761,899
-1,717	13,188	1395,227	761,339
-0,702	13,181	1393,322	760,237
0,313	16,989	1310,089	732,472
1,327	33,167	703,940	430,975
2,342	51,115	123,287	82,598
3,356	0,399	16,608	8,363
4,371	-2,667	3,237	1,596
5,386	-83,490	0,569	0,128
6,400	111,647	0,218	0,186
7,415	77,541	-0,134	-0,101
8,429	127,044	-0,161	-0,145
9,444	41,209	-0,354	-0,226
10,459	-32,828	-0,311	-0,122
11,473	41,254	-0,224	-0,143
12,488	-25,103	-0,423	-0,176
13,502	88,361	-0,195	-0,153
14,517	193,412	-0,312	-0,334
15,531	90,498	-0,349	-0,276
16,546	40,099	-0,369	-0,234
17,561	434,156	-0,253	-0,390
18,575	-112,725	-0,238	-0,033
19,590	141,264	-0,240	-0,224
20,604	-116,855	-0,243	0,031
21,619	4,764	-0,380	-0,197
22,634	77,700	-0,457	-0,343
23,648	366,656	-0,294	-0,420
24,663	219,261	-0,285	-0,322
25,677	41,722	-0,376	-0,240
26,692	154,413	-0,360	-0,349
27,707	201,456	-0,200	-0,218
28,721	274,971	-0,338	-0,424
29,736	33,783	-0,453	-0,277
30,750	35,524	-0,453	-0,280
31,765	98,520	-0,376	-0,306
32,780	4,897	-0,529	-0,274
33,794	99,193	-0,377	-0,307
34,809	131,943	-0,409	-0,371
35,823	67,790	-0,390	-0,281
36,838	36,738	-0,361	-0,224
37,853	83,172	-0,448	-0,344
38,867	21,972	-0,378	-0,217
39,882	33,414	-0,279	-0,170
40,896	68,324	-0,302	-0,218
41,911	278,441	-0,192	-0,242
42,926	83,446	-0,412	-0,317
43,940	180,474	-0,228	-0,236
44,955	12,266	-0,447	-0,242
45,969	62,185	-0,363	-0,255
46,984	238,013	-0,367	-0,430
47,999	127,146	-0,328	-0,293
49,013	-20,958	-0,423	-0,182
50,028	64,940	-0,235	-0,167
51,042	76,283	-0,278	-0,207
52,057	-64,350	-0,392	-0,112
53,071	20,869	-0,366	-0,208
54,086	-1,589	-0,287	-0,142
55,101	84,196	-0,250	-0,192
56,115	110,422	-0,312	-0,264
57,130	204,115	-0,305	-0,333
58,144	28,120	-0,334	-0,198
59,159	10,431	-0,408	-0,218
60,174	39,825	-0,385	-0,243
61,188	225,988	-0,208	-0,238
62,203	138,651	-0,251	-0,232
63,217	97,357	-0,258	-0,208
64,232	-9,795	-0,322	-0,150
65,247	17,125	-0,378	-0,210
66,261	129,324	-0,341	-0,306
67,276	204,318	-0,336	-0,367
68,290	-68,624	-0,345	-0,093
69,305	-30,917	-0,444	-0,175
70,320	478,097	-0,142	-0,227
71,334	49,281	-0,240	-0,158
72,349	-46,509	-0,295	-0,101
73,363	27,908	-0,324	-0,192
74,378	391,864	-0,199	-0,292
75,393	232,348	-0,218	-0,252
76,407	50,846	-0,196	-0,130
77,422	179,635	-0,272	-0,280
78,436	11,849	-0,317	-0,171
79,451	22,198	-0,331	-0,190
80,466	59,590	-0,463	-0,320
81,480	96,924	-0,278	-0,224
82,495	79,049	-0,237	-0,178
83,509	187,341	-0,244	-0,255
84,524	31,130	-0,304	-0,183
85,539	47,363	-0,202	-0,132
86,553	-56,751	-0,296	-0,092
87,568	93,214	-0,332	-0,264
88,582	0,464	-0,287	-0,144
89,597	105,187	-0,223	-0,185
90,611	127,863	-0,353	-0,315
91,626	110,187	-0,187	-0,158
92,641	11,145	-0,226	-0,121
93,655	53,302	-0,279	-0,188
94,670	96,617	-0,181	-0,145
95,684	117,384	-0,287	-0,248
96,699	145,690	-0,326	-0,307
97,714	59,233	-0,350	-0,241
98,728	-85,911	-0,200	-0,043
99,743	14,597	-0,174	-0,095
100,757	38,218	-0,176	-0,110
101,772	-58,300	-0,418	-0,127
102,787	174,155	-0,146	-0,148
103,801	40,148	-0,276	-0,174
104,816	155,431	-0,240	-0,232
105,830	414,272	-0,206	-0,308
106,845	-200,000	-0,041	-0,160
107,860	77,611	-0,313	-0,234
108,874	72,264	-0,215	-0,157
109,889	-0,187	-0,331	-0,164
110,903	91,835	-0,269	-0,212
111,918	332,821	-0,168	-0,229
112,933	47,351	-0,115	-0,075
113,947	226,896	-0,213	-0,243
114,962	272,564	-0,189	-0,234
115,976	454,622	-0,155	-0,242
116,991	87,109	-0,272	-0,211
118,006	77,678	-0,335	-0,250
119,020	40,894	-0,214	-0,135
120,035	-88,330	-0,232	-0,048
121,049	-95,268	-0,316	-0,059
122,064	114,611	-0,264	-0,225
123,079	34,281	-0,268	-0,163
124,093	318,742	-0,126	-0,168
125,108	-24,958	-0,381	-0,158
126,122	176,236	-0,158	-0,161
127,137	296,283	-0,126	-0,162
128,151	-83,855	-0,270	-0,060
129,166	62,118	-0,177	-0,123
130,181	166,643	-0,221	-0,220
131,195	0,962	-0,175	-0,087
132,210	234,510	-0,179	-0,207
133,224	104,860	-0,259	-0,214
134,239	264,205	-0,194	-0,237
135,254	396,638	-0,125	-0,183
136,268	337,952	-0,192	-0,262
137,283	225,152	-0,223	-0,253
138,297	48,083	-0,343	-0,224
139,312	32,864	-0,289	-0,175
140,327	19,983	-0,284	-0,159
141,341	588,854	-0,111	-0,192
142,356	27,179	-0,253	-0,148
143,370	72,760	-0,269	-0,196
144,385	41,457	-0,222	-0,140
145,400	-86,760	-0,231	-0,049
146,414	30,860	-0,392	-0,234
147,429	101,755	-0,283	-0,231
148,443	642,596	-0,186	-0,333
149,458	149,552	-0,201	-0,190
150,473	-65,094	-0,312	-0,087
151,487	204,945	-0,140	-0,152
152,502	83,220	-0,242	-0,183
153,516	237,214	-0,210	-0,243
154,531	109,201	-0,345	-0,288
155,546	-52,879	-0,189	-0,061
156,560	44,055	-0,154	-0,099
157,575	79,766	-0,232	-0,173
158,589	59,886	-0,174	-0,119
159,604	131,292	-0,226	-0,203
160,619	137,008	-0,182	-0,166
161,633	270,808	-0,256	-0,315
162,648	159,804	-0,185	-0,180
163,662	70,976	-0,220	-0,159
164,677	-200,000	-0,074	-0,235
165,692	82,989	-0,200	-0,152
166,706	32,735	-0,257	-0,155
167,721	528,695	-0,163	-0,270
168,735	203,555	-0,206	-0,222
169,750	-8,101	-0,296	-0,139
170,764	133,065	-0,235	-0,212
171,779	800,000	-0,075	-0,164
172,794	69,617	-0,149	-0,107
173,808	106,094	-0,318	-0,262
174,823	134,684	-0,311	-0,281
175,837	143,771	-0,227	-0,211
176,852	-8,125	-0,278	-0,130
177,867	476,238	-0,162	-0,256
178,881	103,491	-0,265	-0,216
179,896	43,031	-0,216	-0,137
180,910	147,114	-0,260	-0,244
181,925	17,463	-0,293	-0,162
182,940	185,297	-0,236	-0,244
183,954	86,152	-0,155	-0,118
184,969	353,074	-0,135	-0,187
185,983	134,349	-0,242	-0,219
186,998	222,371	-0,212	-0,238
188,013	135,428	-0,262	-0,238
189,027	61,487	-0,276	-0,191
190,042	48,583	-0,248	-0,162
191,056	50,744	-0,211	-0,139
192,071	-200,000	-0,068	-0,251
193,086	-22,162	-0,170	0,072
194,100	-33,957	-0,210	-0,080
195,115	42,217	-0,226	-0,142
196,129	34,721	-0,294	-0,178
197,144	-56,987	-0,258	-0,079
198,159	-52,872	-0,200	0,064
199,173	83,453	-0,300	-0,227
200,188	800,000	-0,091	-0,200
201,202	-169,199	-0,263	0,007
202,217	195,443	-0,144	-0,152
203,232	-66,935	-0,289	-0,079
204,246	51,219	-0,160	-0,105
205,261	27,947	-0,317	-0,185
206,275	351,899	-0,167	-0,231
207,290	-200,000	-0,027	-0,183
208,304	44,985	-0,154	-0,098
209,319	-41,948	-0,249	-0,088
210,334	66,164	-0,219	-0,154
211,348	712,199	-0,126	-0,233
212,363	-2,907	-0,164	-0,079
213,377	-21,654	-0,232	-0,098
214,392	1,808	-0,202	-0,101
215,407	148,905	-0,134	-0,126
216,421	39,541	-0,169	-0,105
217,436	3,995	-0,229	-0,116
218,450	72,861	-0,171	-0,124
219,465	121,894	-0,249	-0,216
220,480	-74,880	-0,213	-0,053
221,494	96,843	-0,150	-0,119
222,509	353,625	-0,081	-0,112
223,523	800,000	-0,106	-0,210
224,538	175,330	-0,107	-0,107
225,553	207,029	-0,134	-0,145
226,567	84,396	-0,199	-0,151
227,582	13,649	-0,156	-0,084
228,596	273,434	-0,125	-0,154
229,611	-200,000	-0,025	-0,135
230,626	-165,479	-0,129	0,004
231,640	-47,585	-0,204	-0,068
232,655	789,212	-0,065	-0,124
233,669	161,557	-0,169	-0,164
234,684	-128,432	-0,186	0,018
235,699	124,475	-0,144	-0,125
236,713	13,006	-0,126	-0,067
237,728	-138,002	-0,245	-0,019
238,742	576,508	-0,125	-0,212
239,757	800,000	-0,108	-0,215
240,772	800,000	-0,121	-0,232
241,786	-84,407	-0,316	-0,069
242,801	-87,522	-0,199	0,041
243,815	-3,819	-0,132	-0,063
244,830	200,308	-0,197	-0,210
245,844	-14,825	-0,097	-0,043
246,859	146,807	-0,207	-0,193
247,874	176,765	-0,238	-0,240
248,888	248,671	-0,097	-0,114
249,903	-94,723	-0,152	-0,028
250,917	-3,552	-0,230	-0,110
251,932	-77,573	-0,185	-0,044
252,947	-43,864	-0,229	-0,079
253,961	234,658	-0,154	-0,176
254,976	33,849	-0,204	-0,123
255,990	-17,795	-0,168	-0,073
257,005	-3,750	-0,268	-0,128
258,020	800,000	-0,089	-0,187
259,034	-200,000	-0,019	-0,216
260,049	21,213	-0,175	-0,098
261,063	78,549	-0,290	-0,214
262,078	106,947	-0,302	-0,248
263,093	48,409	-0,267	-0,173
264,107	112,892	-0,185	-0,155
265,122	-73,054	-0,272	-0,069
266,136	347,586	-0,064	-0,087
267,151	185,836	-0,133	0,136
268,166	800,000	-0,078	-0,161
269,180	-1,626	-0,198	-0,096
270,195	-136,212	-0,219	-0,017
271,209	-86,121	-0,203	-0,043
272,224	-17,489	-0,249	-0,108
273,239	-15,764	-0,199	-0,087
274,253	243,291	-0,163	-0,190
275,268	-80,843	-0,288	-0,065
276,282	34,665	-0,180	-0,109
277,297	800,000	-0,120	-0,244
278,312	192,158	-0,181	-0,189
279,326	108,992	-0,181	-0,149
280,341	69,093	-0,112	-0,080
281,355	-124,366	-0,093	-0,010
282,370	-124,799	-0,202	-0,021
283,384	264,873	-0,109	-0,132
284,399	-55,225	-0,140	-0,043
285,414	178,751	-0,079	-0,080
286,428	-62,196	-0,229	-0,065
287,443	795,845	-0,059	-0,113
288,457	37,430	-0,124	-0,076
289,472	-49,543	-0,107	-0,035
290,487	93,188	-0,244	-0,191
291,501	36,691	-0,129	-0,078
292,516	27,735	-0,148	-0,086
293,530	339,180	-0,090	-0,121
294,545	128,386	-0,136	-0,119
295,560	264,328	-0,114	-0,137
296,574	800,000	-0,064	-0,129
297,589	-52,031	-0,058	-0,019
298,603	149,628	-0,141	-0,131
299,618	14,587	-0,145	-0,078
300,633	-200,000	-0,063	-0,213
301,647	800,000	-0,057	0,138
302,662	346,057	-0,019	-0,026
303,676	74,154	-0,135	-0,097
304,691	60,388	-0,126	-0,086
305,706	704,903	-0,126	-0,231
306,720	25,307	-0,240	-0,137
307,735	286,371	-0,097	-0,120
308,749	247,177	-0,095	-0,111
309,764	-107,109	-0,112	-0,017
310,779	-73,291	-0,069	-0,017
311,793	-140,979	-0,117	0,008
312,808	177,455	-0,179	-0,180
313,822	411,301	-0,138	-0,202
314,837	420,957	-0,013	0,020
315,852	19,927	-0,158	-0,088
316,866	-3,770	-0,157	-0,075
317,881	-200,000	0,016	-0,058
318,895	27,544	-0,185	-0,107
319,910	-10,532	-0,186	-0,085
320,925	10,411	-0,139	-0,072
321,939	254,708	-0,167	-0,197
322,954	800,000	-0,064	-0,135
323,968	-154,113	-0,041	0,002
324,983	290,374	-0,064	-0,080
325,997	-88,178	-0,055	-0,011
327,012	133,344	-0,126	-0,112
328,027	162,671	-0,186	-0,180
329,041	667,067	-0,095	-0,170
330,056	544,289	-0,140	-0,231
331,070	-125,504	-0,114	-0,012
332,085	-200,000	-0,007	-0,086
333,100	-200,000	-0,025	0,120
334,114	-200,000	-0,020	-0,084
335,129	800,000	-0,084	-0,194
336,143	800,000	-0,045	-0,127
337,158	-42,412	-0,116	-0,040
338,173	101,780	-0,170	-0,136
339,187	94,205	-0,133	-0,104
340,202	-158,764	-0,175	-0,007
341,216	96,712	-0,204	-0,161
342,231	-24,628	-0,137	-0,056
343,246	800,000	-0,104	-0,240
344,260	800,000	-0,049	-0,118
345,275	-30,893	-0,108	0,042
346,289	498,916	-0,065	-0,103
347,304	160,169	-0,060	-0,057
348,319	-68,032	-0,132	-0,035
349,333	228,811	-0,161	-0,181
350,348	-87,238	-0,084	-0,017
351,362	800,000	-0,054	-0,162
352,377	-200,000	0,009	-0,069
353,392	504,719	-0,010	0,016
354,406	-22,496	-0,219	-0,090
355,421	208,773	1313,720	1411,847
356,435	160,651	1474,338	1412,342
