DTS Sentinel unit serial number:	SN410029Multiplexer serial number:	ORYXHardware model number:	OX2-SRSoftware version number:	ORYX F/W v4,00 Oryx Data Collector v3.7.2.0data status	okinstallation	B3 Nyhavnadifferential loss correction	single-endedforward channel	channel 1reverse channel	N/Adate	2023/11/30time	08:47:30forward acquisition time	300,00reverse acquisition time	0,00gamma	499,1914k internal	0,3212k external	0,3212temperature offset calibration	1,0000default loss term (dB/km)	0,3820temperature slope calibration	1,0000multiplexer offset coefficient	1,0000multiplexer slope coefficient	1,0000fibre end	0,00T internal ref (°C)	9,43T ext. ref 1 (°C)	-5,31T ext. ref 2 (°C)	-5,41length (m)	temperature (°C)	Stokes	anti-Stokes-744,400	137,920	-0,222	-0,211
-743,385	-200,000	0,008	0,269
-742,371	44,599	-0,239	-0,159
-741,356	696,552	0,118	0,225
-740,342	146,340	-0,152	-0,148
-739,327	800,000	0,053	0,147
-738,312	772,489	-0,203	-0,403
-737,298	440,777	0,141	0,225
-736,283	369,366	-0,126	-0,186
-735,269	-200,000	-0,021	0,330
-734,254	800,000	-0,098	-0,210
-733,239	-67,158	-0,233	0,066
-732,225	-200,000	-0,017	-0,171
-731,210	-200,000	0,021	0,074
-730,196	115,249	-0,083	-0,073
-729,181	-36,850	0,141	-0,054
-728,167	47,164	0,020	-0,014
-727,152	144,115	0,055	0,054
-726,137	-200,000	-0,007	-0,026
-725,123	-21,013	-0,136	-0,060
-724,108	533,709	-0,056	-0,097
-723,094	-139,757	-0,134	-0,010
-722,079	-200,000	0,020	-0,213
-721,064	-78,524	-0,118	0,029
-720,050	184,936	-0,014	0,015
-719,035	-200,000	0,005	0,059
-718,021	233,509	-0,037	-0,044
-717,006	705,656	0,051	-0,098
-715,991	-152,840	-0,113	0,006
-714,977	28,629	-0,035	-0,022
-713,962	-164,624	-0,083	0,003
-712,948	104,621	-0,038	0,033
-711,933	241,955	0,007	0,008
-710,918	77,366	-0,042	-0,032
-709,904	-131,242	0,035	0,003
-708,889	800,000	0,076	-0,181
-707,875	-117,703	-0,093	-0,012
-706,860	50,300	-0,073	-0,050
-705,845	-66,066	-0,053	-0,015
-704,831	-200,000	0,009	0,060
-703,816	-87,214	-0,151	0,033
-702,802	-200,000	0,007	-0,023
-701,787	89,797	0,069	-0,056
-700,772	-200,000	0,001	0,064
-699,758	-200,000	0,025	-0,160
-698,743	-185,872	0,126	0,001
-697,729	-200,000	-0,003	0,049
-696,714	800,000	-0,070	-0,153
-695,699	59,871	-0,010	-0,007
-694,685	-200,000	0,012	-0,163
-693,670	-52,189	0,134	-0,045
-692,656	7,855	-0,132	-0,071
-691,641	-148,529	0,079	-0,005
-690,627	-56,308	-0,048	-0,015
-689,612	120,626	-0,045	-0,041
-688,597	11,928	-0,019	-0,010
-687,583	-69,095	0,126	-0,035
-686,568	-200,000	-0,024	-0,088
-685,554	38,440	-0,064	-0,041
-684,539	-140,342	0,109	0,008
-683,524	-200,000	-0,020	0,068
-682,510	8,624	-0,137	-0,074
-681,495	482,573	-0,027	-0,044
-680,481	-90,684	-0,036	0,007
-679,466	361,719	-0,097	-0,142
-678,451	-135,349	0,107	0,009
-677,437	800,000	-0,031	0,070
-676,422	47,827	-0,014	-0,009
-675,408	800,000	-0,023	0,052
-674,393	-42,274	-0,119	-0,044
-673,378	-55,669	-0,072	-0,023
-672,364	-200,000	-0,003	-0,122
-671,349	89,062	0,055	-0,044
-670,335	800,000	-0,016	0,042
-669,320	-200,000	-0,006	0,079
-668,305	-200,000	0,006	0,031
-667,291	-151,537	-0,077	-0,004
-666,276	-127,733	-0,165	-0,017
-665,262	-39,102	0,082	0,031
-664,247	527,387	0,021	-0,036
-663,232	-48,090	-0,087	-0,030
-662,218	-16,006	-0,055	-0,025
-661,203	10,204	0,096	-0,053
-660,189	350,602	-0,084	-0,120
-659,174	-200,000	0,027	-0,108
-658,159	93,033	-0,032	-0,026
-657,145	49,902	-0,055	-0,037
-656,130	-200,000	-0,011	-0,080
-655,116	138,819	0,042	0,040
-654,101	-183,978	-0,048	0,001
-653,086	-200,000	0,016	-0,088
-652,072	-200,000	0,036	-0,131
-651,057	495,482	-0,030	-0,050
-650,043	800,000	0,017	0,037
-649,028	294,945	-0,056	0,074
-648,014	190,102	-0,069	0,075
-646,999	-99,464	0,079	-0,014
-645,984	502,428	-0,019	0,032
-644,970	162,879	-0,073	0,074
-643,955	-109,304	-0,038	-0,006
-642,941	-200,000	-0,009	-0,048
-641,926	562,075	-0,026	0,046
-640,911	37,466	0,131	0,083
-639,897	69,016	0,048	0,035
-638,882	-47,209	-0,199	0,070
-637,868	95,834	0,082	-0,067
-636,853	176,041	-0,028	-0,029
-635,838	-49,191	-0,045	0,015
-634,824	-60,893	-0,135	0,041
-633,809	-96,860	0,103	-0,019
-632,795	-84,424	-0,028	0,006
-631,780	-14,474	-0,010	-0,005
-630,765	-200,000	-0,008	0,089
-629,751	55,936	-0,032	0,022
-628,736	710,151	-0,043	0,083
-627,722	321,303	-0,127	-0,175
-626,707	800,000	-0,060	-0,124
-625,692	92,664	0,047	0,038
-624,678	-200,000	0,007	-0,086
-623,663	800,000	-0,020	-0,065
-622,649	34,061	-0,218	0,137
-621,634	-85,906	-0,123	0,027
-620,619	615,326	-0,012	0,022
-619,605	-172,089	-0,074	-0,002
-618,590	-200,000	0,005	-0,022
-617,576	299,555	0,064	0,085
-616,561	-120,392	-0,112	-0,014
-615,546	-200,000	-0,015	-0,084
-614,532	-200,000	-0,002	-0,055
-613,517	800,000	-0,046	-0,115
-612,503	-93,779	0,077	0,015
-611,488	-200,000	0,006	0,029
-610,474	-200,000	0,003	0,038
-609,459	163,694	-0,103	0,104
-608,444	-121,207	0,002	0,000
-607,430	-200,000	-0,013	0,042
-606,415	-91,034	-0,026	0,005
-605,401	39,345	-0,032	-0,021
-604,386	-155,369	0,057	-0,003
-603,371	-200,000	0,063	0,200
-602,357	-200,000	-0,018	0,116
-601,342	-200,000	0,009	0,051
-600,328	130,608	-0,083	-0,077
-599,313	-200,000	-0,020	-0,099
-598,298	-111,626	-0,056	0,008
-597,284	187,705	-0,032	-0,035
-596,269	-92,758	0,125	-0,025
-595,255	7,805	-0,069	-0,037
-594,240	800,000	-0,026	-0,054
-593,225	-85,636	-0,063	-0,014
-592,211	107,176	0,028	-0,024
-591,196	-12,390	-0,074	-0,035
-590,182	-200,000	-0,015	0,090
-589,167	-200,000	0,020	-0,065
-588,152	221,967	0,025	0,029
-587,138	27,762	-0,033	0,020
-586,123	54,714	-0,072	-0,050
-585,109	-69,984	-0,047	0,013
-584,094	161,710	0,026	-0,026
-583,079	-16,032	0,030	-0,013
-582,065	-64,650	0,153	0,044
-581,050	-55,093	-0,110	0,035
-580,036	79,813	-0,039	-0,030
-579,021	-45,465	-0,027	0,010
-578,006	-200,000	0,046	-0,243
-576,992	-200,000	0,004	0,021
-575,977	47,663	-0,056	0,037
-574,963	-11,895	0,049	-0,023
-573,948	-118,696	0,106	0,013
-572,934	530,319	0,053	0,090
-571,919	26,880	0,043	-0,026
-570,904	-61,257	-0,069	0,021
-569,890	-200,000	-0,003	0,030
-568,875	567,777	0,043	0,076
-567,861	-200,000	0,002	0,090
-566,846	800,000	-0,030	0,073
-565,831	-7,493	-0,067	-0,032
-564,817	93,307	-0,019	-0,015
-563,802	-200,000	0,027	-0,116
-562,788	800,000	-0,028	-0,077
-561,773	337,779	0,057	-0,080
-560,758	38,338	-0,105	-0,067
-559,744	122,579	0,049	-0,045
-558,729	224,364	-0,082	0,095
-557,715	-200,000	0,024	0,128
-556,700	-200,000	-0,052	-0,200
-555,685	-85,545	-0,164	0,036
-554,671	35,913	0,045	-0,028
-553,656	116,380	0,114	0,100
-552,642	800,000	0,043	0,088
-551,627	-200,000	-0,003	0,132
-550,612	-200,000	-0,025	-0,099
-549,598	-102,213	-0,119	-0,020
-548,583	89,252	-0,145	-0,116
-547,569	113,750	-0,033	0,029
-546,554	72,597	0,109	0,081
-545,539	-200,000	0,001	-0,072
-544,525	800,000	-0,039	-0,089
-543,510	41,939	0,064	-0,042
-542,496	-164,742	-0,108	-0,003
-541,481	123,120	-0,093	-0,084
-540,466	-55,815	0,091	0,029
-539,452	800,000	0,018	0,045
-538,437	-19,836	0,112	0,050
-537,423	-43,319	-0,047	0,017
-536,408	301,723	-0,085	0,113
-535,393	-200,000	-0,036	-0,139
-534,379	196,880	-0,007	0,008
-533,364	1,390	-0,096	-0,049
-532,350	-33,067	0,068	-0,027
-531,335	-200,000	0,005	-0,018
-530,321	-150,093	-0,121	-0,007
-529,306	365,767	0,082	0,119
-528,291	-120,139	-0,128	-0,016
-527,277	-200,000	0,001	0,012
-526,262	-10,360	0,122	-0,058
-525,248	14,396	-0,131	-0,073
-524,233	-155,623	0,134	0,006
-523,218	-200,000	0,015	-0,094
-522,204	800,000	0,021	0,052
-521,189	95,376	0,025	0,020
-520,175	800,000	0,061	0,140
-519,160	-68,762	0,055	-0,015
-518,145	383,681	0,037	0,055
-517,131	-200,000	-0,008	0,220
-516,116	-200,000	0,006	0,055
-515,102	275,984	-0,009	0,012
-514,087	-200,000	-0,012	-0,099
-513,072	-200,000	0,000	-0,085
-512,058	-200,000	-0,010	0,045
-511,043	8,876	0,122	0,066
-510,029	800,000	-0,040	-0,126
-509,014	90,723	-0,105	-0,084
-507,999	175,052	0,056	-0,059
-506,985	36,621	-0,063	-0,040
-505,970	-200,000	0,022	-0,194
-504,956	44,858	0,013	0,008
-503,941	-18,889	0,133	0,059
-502,926	-200,000	0,017	0,061
-501,912	-200,000	0,004	0,034
-500,897	-137,901	0,058	0,005
-499,883	66,353	-0,080	-0,058
-498,868	800,000	0,021	0,057
-497,853	207,276	0,045	-0,050
-496,839	-136,366	0,064	0,005
-495,824	24,567	0,060	0,036
-494,810	-200,000	0,006	-0,023
-493,795	-200,000	0,002	0,072
-492,781	-50,216	-0,078	-0,026
-491,766	-200,000	-0,004	-0,014
-490,751	-200,000	-0,018	-0,130
-489,737	101,514	-0,108	0,091
-488,722	-200,000	-0,006	0,082
-487,708	-142,149	0,104	0,007
-486,693	-200,000	-0,037	0,125
-485,678	-71,412	0,225	-0,060
-484,664	800,000	-0,011	0,028
-483,649	-73,449	0,072	0,019
-482,635	800,000	-0,006	-0,016
-481,620	-131,645	0,119	0,011
-480,605	800,000	-0,039	0,105
-479,591	800,000	0,053	0,135
-478,576	657,538	-0,032	0,060
-477,562	121,051	-0,114	0,102
-476,547	9,027	0,039	0,021
-475,532	-200,000	-0,013	-0,129
-474,518	61,964	-0,023	0,016
-473,503	800,000	0,016	-0,039
-472,489	79,159	0,160	0,123
-471,474	800,000	-0,040	0,094
-470,459	202,107	-0,091	-0,101
-469,445	-200,000	-0,003	-0,104
-468,430	234,050	-0,073	-0,087
-467,416	-200,000	-0,000	0,060
-466,401	340,756	0,077	0,108
-465,386	-81,526	-0,095	-0,022
-464,372	-77,329	0,090	-0,022
-463,357	-151,091	-0,102	0,005
-462,343	716,505	-0,023	0,044
-461,328	-26,206	-0,104	0,044
-460,313	4,049	0,112	0,058
-459,299	800,000	0,027	0,073
-458,284	-142,540	-0,180	0,012
-457,270	-100,191	0,027	-0,005
-456,255	525,363	0,027	0,045
-455,241	414,535	-0,013	-0,020
-454,226	74,597	-0,062	-0,047
-453,211	-200,000	0,002	0,026
-452,197	-200,000	0,025	0,090
-451,182	800,000	0,050	0,127
-450,168	-78,437	-0,082	0,020
-449,153	-200,000	-0,010	-0,140
-448,138	-200,000	-0,006	-0,075
-447,124	800,000	0,078	-0,226
-446,109	-200,000	0,007	-0,047
-445,095	140,678	0,112	0,106
-444,080	-200,000	0,000	0,167
-443,065	-200,000	-0,019	0,087
-442,051	33,586	0,044	-0,027
-441,036	-86,131	-0,047	0,010
-440,022	800,000	0,026	-0,068
-439,007	671,146	-0,019	-0,035
-437,992	56,149	0,058	-0,040
-436,978	800,000	0,052	-0,123
-435,963	-200,000	0,000	0,036
-434,949	-200,000	-0,008	-0,078
-433,934	-200,000	-0,037	-0,153
-432,919	-200,000	-0,022	-0,074
-431,905	111,304	-0,042	0,036
-430,890	128,380	-0,141	-0,128
-429,876	15,194	0,157	0,088
-428,861	-200,000	-0,011	0,168
-427,846	49,334	-0,125	-0,084
-426,832	-200,000	0,018	-0,179
-425,817	-200,000	0,004	-0,029
-424,803	550,494	-0,079	-0,136
-423,788	800,000	0,050	-0,143
-422,773	800,000	0,018	0,042
-421,759	-91,704	-0,066	0,013
-420,744	127,174	0,052	0,047
-419,730	29,688	-0,122	-0,074
-418,715	57,777	-0,019	-0,013
-417,701	136,451	-0,131	0,123
-416,686	102,620	0,039	-0,032
-415,671	-104,241	0,074	-0,012
-414,657	-200,000	0,006	0,150
-413,642	-119,257	-0,070	-0,009
-412,628	-123,372	-0,123	-0,014
-411,613	136,097	-0,021	0,020
-410,598	-153,999	0,053	0,003
-409,584	150,244	0,045	-0,044
-408,569	178,430	-0,030	0,031
-407,555	-62,476	0,010	0,003
-406,540	-200,000	0,001	0,071
-405,525	-7,233	-0,071	-0,034
-404,511	-200,000	-0,018	-0,077
-403,496	800,000	-0,072	-0,203
-402,482	-99,246	-0,008	-0,001
-401,467	800,000	0,022	-0,061
-400,452	-200,000	0,136	0,000
-399,438	-200,000	-0,012	0,090
-398,423	43,329	0,059	0,038
-397,409	-70,033	-0,035	-0,010
-396,394	152,580	0,019	0,019
-395,379	277,332	-0,114	-0,145
-394,365	-200,000	-0,013	-0,111
-393,350	800,000	-0,035	-0,098
-392,336	214,376	0,062	0,070
-391,321	-30,154	0,096	-0,039
-390,306	24,417	0,020	0,012
-389,292	-195,772	0,094	-0,000
-388,277	-182,737	0,105	0,001
-387,263	-200,000	0,014	0,048
-386,248	207,375	-0,076	0,085
-385,233	-131,929	0,102	-0,009
-384,219	-30,657	0,086	-0,035
-383,204	-11,309	-0,051	-0,024
-382,190	-126,328	-0,050	-0,005
-381,175	-24,119	-0,083	0,035
-380,160	190,355	0,172	0,185
-379,146	510,042	0,056	0,093
-378,131	-200,000	-0,012	0,126
-377,117	-101,072	-0,107	0,019
-376,102	127,543	0,053	0,048
-375,088	-200,000	-0,106	-0,000
-374,073	106,560	-0,009	0,008
-373,058	-127,946	0,146	-0,015
-372,044	800,000	-0,043	0,111
-371,029	-200,000	-0,001	-0,094
-370,015	-200,000	-0,013	-0,067
-369,000	-200,000	-0,006	-0,032
-367,985	800,000	-0,065	-0,131
-366,971	800,000	-0,024	-0,074
-365,956	210,490	0,081	-0,091
-364,942	65,470	0,067	0,049
-363,927	-34,925	0,113	0,044
-362,912	-200,000	0,006	-0,089
-361,898	-200,000	0,048	0,154
-360,883	800,000	-0,024	-0,064
-359,869	-81,830	-0,063	-0,015
-358,854	597,378	-0,017	-0,030
-357,839	30,257	0,022	0,013
-356,825	-200,000	-0,021	0,124
-355,810	90,198	-0,112	-0,089
-354,796	-200,000	0,029	-0,142
-353,781	-155,800	0,098	-0,004
-352,766	-200,000	-0,001	-0,155
-351,752	241,673	0,068	-0,081
-350,737	-79,816	0,106	-0,025
-349,723	800,000	0,044	-0,137
-348,708	513,238	-0,021	-0,035
-347,693	-72,117	0,070	0,018
-346,679	-200,000	0,003	-0,094
-345,664	800,000	0,059	-0,158
-344,650	536,387	0,038	0,065
-343,635	-25,675	-0,085	-0,036
-342,620	-200,000	-0,011	0,112
-341,606	-200,000	-0,022	0,102
-340,591	800,000	0,019	0,051
-339,577	800,000	0,005	-0,010
-338,562	60,082	0,189	0,133
-337,548	-124,476	0,165	0,018
-336,533	800,000	-0,037	0,094
-335,518	800,000	-0,035	0,069
-334,504	800,000	0,028	-0,085
-333,489	678,493	0,064	0,120
-332,475	-200,000	-0,047	-0,270
-331,460	800,000	0,030	-0,072
-330,445	-58,447	0,033	-0,010
-329,431	202,547	-0,077	0,085
-328,416	404,569	0,034	0,051
-327,402	1,747	-0,088	0,045
-326,387	61,592	-0,053	0,038
-325,372	800,000	-0,013	0,040
-324,358	128,456	0,101	-0,092
-323,343	97,894	-0,075	0,061
-322,329	-126,939	-0,038	0,004
-321,314	800,000	-0,051	0,161
-320,299	-30,996	0,066	0,027
-319,285	-139,426	0,029	0,002
-318,270	-200,000	-0,025	-0,110
-317,256	800,000	0,032	-0,079
-316,241	87,822	0,072	-0,057
-315,226	655,647	-0,041	-0,075
-314,212	184,281	0,143	-0,151
-313,197	-200,000	-0,018	0,112
-312,183	55,415	-0,045	-0,031
-311,168	800,000	-0,047	-0,094
-310,153	-140,883	0,017	-0,001
-309,139	-200,000	0,010	-0,066
-308,124	800,000	-0,064	-0,141
-307,110	66,148	0,156	-0,113
-306,095	188,625	0,044	0,047
-305,080	380,511	0,046	0,068
-304,066	43,415	0,128	-0,083
-303,051	-10,228	0,069	-0,032
-302,037	-23,597	-0,137	0,058
-301,022	-38,635	0,156	-0,058
-300,008	87,344	0,193	0,152
-298,993	800,000	0,039	-0,081
-297,978	-200,000	0,008	-0,113
-296,964	320,529	-0,033	-0,045
-295,949	800,000	0,047	-0,122
-294,935	-24,120	0,050	0,021
-293,920	-200,000	0,000	0,159
-292,905	800,000	0,043	-0,109
-291,891	800,000	0,050	0,155
-290,876	-200,000	-0,011	0,132
-289,862	13,219	0,070	-0,038
-288,847	770,041	-0,045	-0,088
-287,832	-37,918	-0,030	-0,011
-286,818	66,747	-0,079	0,057
-285,803	481,317	0,069	0,112
-284,789	800,000	0,063	0,143
-283,774	337,000	-0,026	-0,036
-282,759	-200,000	0,018	-0,063
-281,745	-200,000	0,014	0,126
-280,730	143,694	-0,126	0,119
-279,716	-166,437	0,153	-0,004
-278,701	-72,054	-0,043	-0,011
-277,686	-175,822	0,043	-0,001
-276,672	-25,552	-0,055	0,023
-275,657	739,228	-0,055	0,105
-274,643	800,000	0,022	-0,046
-273,628	443,916	-0,051	0,080
-272,613	800,000	0,035	-0,103
-271,599	-86,369	0,135	0,029
-270,584	190,824	0,149	0,159
-269,570	303,827	-0,074	0,097
-268,555	-200,000	-0,006	-0,048
-267,540	800,000	0,034	-0,089
-266,526	-200,000	-0,015	-0,059
-265,511	224,818	0,064	-0,074
-264,497	-200,000	-0,024	0,075
-263,482	157,105	0,052	0,051
-262,467	-200,000	0,002	-0,011
-261,453	800,000	-0,047	-0,096
-260,438	800,000	-0,051	-0,130
-259,424	548,322	-0,068	-0,116
-258,409	800,000	0,043	-0,089
-257,395	22,243	0,019	-0,011
-256,380	-200,000	-0,005	0,083
-255,365	-90,710	0,043	0,009
-254,351	-140,403	0,084	-0,006
-253,336	-200,000	0,032	-0,139
-252,322	-200,000	-0,064	-0,205
-251,307	501,381	-0,065	-0,107
-250,292	488,379	-0,026	-0,042
-249,278	-0,872	0,121	0,061
-248,263	-200,000	0,000	0,063
-247,249	-71,732	-0,093	-0,024
-246,234	-136,365	0,129	-0,011
-245,219	53,399	-0,150	-0,102
-244,205	-116,476	0,021	-0,003
-243,190	0,219	-0,175	0,089
-242,176	21,900	0,049	-0,028
-241,161	-123,156	0,115	0,013
-240,146	-200,000	-0,012	0,058
-239,132	-66,471	0,037	0,010
-238,117	449,776	0,058	-0,091
-237,103	126,625	-0,053	-0,048
-236,088	183,760	-0,061	0,064
-235,073	-86,594	-0,030	-0,006
-234,059	-87,211	0,105	-0,022
-233,044	165,266	0,010	0,010
-232,030	-200,000	-0,012	0,048
-231,015	16,952	-0,086	0,048
-230,000	2,600	-0,110	0,057
-228,986	-94,474	0,121	-0,023
-227,971	-200,000	0,001	-0,177
-226,957	-38,420	0,112	-0,042
-225,942	-29,787	0,120	-0,049
-224,927	-69,659	-0,005	-0,001
-223,913	800,000	0,044	0,099
-222,898	-22,784	-0,057	0,024
-221,884	800,000	-0,040	-0,101
-220,869	65,440	0,046	0,033
-219,855	-1,830	0,048	0,024
-218,840	-31,506	-0,078	-0,031
-217,825	88,269	-0,055	-0,043
-216,811	800,000	0,018	-0,049
-215,796	130,427	-0,103	-0,094
-214,782	46,824	0,051	0,034
-213,767	-200,000	0,003	-0,093
-212,752	-4,011	-0,020	0,010
-211,738	-200,000	-0,001	0,129
-210,723	800,000	-0,009	0,028
-209,709	27,185	-0,042	-0,025
-208,694	109,233	-0,045	0,038
-207,679	-41,827	0,041	0,015
-206,665	259,548	0,031	-0,038
-205,650	-166,748	-0,029	-0,001
-204,636	-10,560	-0,099	-0,046
-203,621	800,000	0,054	0,158
-202,606	264,028	-0,022	0,027
-201,592	-104,890	-0,098	-0,016
-200,577	212,097	0,029	-0,032
-199,563	25,570	-0,170	0,100
-198,548	612,541	0,022	0,040
-197,533	-200,000	-0,013	-0,093
-196,519	195,651	0,122	0,132
-195,504	216,051	-0,064	0,072
-194,490	-200,000	0,005	-0,017
-193,475	-106,620	0,030	-0,005
-192,460	-150,521	0,084	0,004
-191,446	247,277	-0,058	0,069
-190,431	-200,000	-0,036	0,173
-189,417	-157,777	-0,096	-0,004
-188,402	627,889	0,099	0,178
-187,387	81,844	-0,211	-0,162
-186,373	164,518	-0,071	-0,071
-185,358	-69,281	0,073	-0,020
-184,344	-156,429	-0,111	0,005
-183,329	95,017	0,129	0,104
-182,315	266,021	-0,052	0,064
-181,300	-128,409	-0,095	-0,009
-180,285	-154,065	0,030	-0,001
-179,271	42,149	-0,103	0,066
-178,256	-10,867	0,064	-0,030
-177,242	-46,140	0,093	-0,032
-176,227	42,098	0,127	0,082
-175,212	-200,000	0,051	0,201
-174,198	204,627	0,052	0,057
-173,183	212,430	-0,051	0,057
-172,169	-26,458	-0,181	0,075
-171,154	-108,433	0,027	0,004
-170,139	17,214	-0,026	-0,014
-169,125	-200,000	0,001	0,059
-168,110	94,452	-0,110	0,089
-167,096	800,000	-0,032	-0,079
-166,081	239,875	0,036	-0,043
-165,066	-124,457	0,089	-0,010
-164,052	92,851	0,069	0,055
-163,037	-200,000	-0,027	0,096
-162,023	800,000	-0,007	0,016
-161,008	114,516	0,034	0,029
-159,993	133,182	0,021	0,019
-158,979	-153,040	-0,061	-0,003
-157,964	32,892	0,044	0,027
-156,950	-144,636	0,034	0,002
-155,935	305,748	0,027	-0,036
-154,920	46,335	0,040	-0,026
-153,906	-200,000	-0,002	0,065
-152,891	208,381	-0,074	-0,082
-151,877	4,908	-0,040	0,021
-150,862	-200,000	0,027	0,087
-149,847	140,987	-0,020	-0,018
-148,833	56,077	0,055	0,038
-147,818	77,200	0,128	-0,097
-146,804	28,763	0,139	0,083
-145,789	-200,000	0,006	-0,118
-144,775	98,002	-0,141	-0,115
-143,760	174,436	0,075	-0,077
-142,745	459,375	-0,098	-0,155
-141,731	-200,000	-0,030	-0,226
-140,716	-111,671	0,137	0,019
-139,702	171,778	0,013	-0,013
-138,687	100,799	0,131	0,108
-137,672	800,000	-0,050	-0,111
-136,658	-200,000	-0,034	-0,185
-135,643	-200,000	-0,008	-0,049
-134,629	-25,072	-0,016	0,007
-133,614	-113,366	-0,106	-0,015
-132,599	-47,531	0,079	-0,027
-131,585	693,441	-0,048	0,090
-130,570	-200,000	-0,015	0,072
-129,556	-104,282	-0,107	-0,017
-128,541	23,384	0,040	-0,023
-127,526	-143,688	-0,076	0,005
-126,512	800,000	-0,013	0,028
-125,497	147,133	0,042	0,040
-124,483	205,778	0,052	0,057
-123,468	154,422	-0,075	-0,072
-122,453	-144,820	0,135	-0,009
-121,439	-96,578	-0,054	0,010
-120,424	-200,000	0,035	0,146
-119,410	-147,032	0,191	0,011
-118,395	94,537	-0,080	0,065
-117,380	2,384	0,091	0,046
-116,366	-42,637	-0,124	-0,044
-115,351	258,391	-0,047	-0,057
-114,337	72,981	0,023	-0,017
-113,322	-135,709	-0,121	-0,010
-112,307	-82,819	0,070	0,016
-111,293	-13,325	-0,054	0,024
-110,278	-200,000	-0,012	0,077
-109,264	276,392	0,020	-0,025
-108,249	257,276	0,049	-0,059
-107,234	-132,643	0,028	-0,003
-106,220	-14,050	-0,146	0,067
-105,205	-79,060	-0,071	-0,017
-104,191	681,802	0,052	0,095
-103,176	115,302	0,035	-0,031
-102,162	348,143	0,132	-0,184
-101,147	428,395	0,060	0,093
-100,132	131,520	0,053	0,049
-99,118	800,000	-0,051	0,126
-98,103	-50,076	-0,076	0,025
-97,089	-82,060	0,098	-0,022
-96,074	-179,222	0,153	-0,002
-95,059	-200,000	0,030	-0,167
-94,045	-24,471	-0,085	-0,036
-93,030	98,155	0,120	-0,098
-92,016	-170,743	-0,133	0,003
-91,001	-200,000	-0,022	-0,112
-89,986	-152,731	0,016	0,001
-88,972	387,219	-0,037	0,054
-87,957	-200,000	-0,009	-0,070
-86,943	-200,000	0,004	0,058
-85,928	252,921	-0,036	-0,043
-84,913	106,672	0,062	0,052
-83,899	800,000	-0,049	0,132
-82,884	800,000	-0,048	0,108
-81,870	301,627	-0,054	-0,071
-80,855	-200,000	0,013	0,132
-79,840	-200,000	0,023	0,162
-78,826	-22,306	-0,090	0,039
-77,811	124,875	-0,036	0,032
-76,797	-200,000	0,003	0,051
-75,782	-23,537	0,108	0,045
-74,767	58,547	0,073	-0,050
-73,753	-83,040	-0,067	0,015
-72,738	325,256	-0,074	-0,101
-71,724	-200,000	0,011	0,110
-70,709	-130,666	-0,068	-0,006
-69,694	74,854	-0,077	-0,057
-68,680	-62,320	0,079	-0,023
-67,665	-48,596	0,178	0,060
-66,651	-39,466	0,069	0,025
-65,636	44,525	-0,083	0,054
-64,622	-28,060	0,034	-0,014
-63,607	-200,000	0,008	-0,163
-62,592	172,915	-0,071	-0,072
-61,578	500,262	-0,014	0,023
-60,563	-35,985	0,125	0,047
-59,549	2,958	-0,044	0,022
-58,534	49,483	-2,032	-1,347
-57,519	520,933	-1,154	-1,918
-56,505	-200,000	-0,243	-4,407
-55,490	557,942	0,916	1,566
-54,476	800,000	5,114	11,181
-53,461	-200,000	21,639	344,549
-52,446	800,000	763,418	2343,113
-51,432	546,931	1662,505	2817,207
-50,417	71,466	1658,875	1213,717
-49,403	17,194	1532,643	855,331
-48,388	11,254	1456,207	783,981
-47,373	19,266	1447,800	817,821
-46,359	14,771	1436,756	790,206
-45,344	9,550	1432,756	763,144
-44,330	9,474	1430,979	761,805
-43,315	9,453	1429,011	760,627
-42,300	9,451	1427,410	759,737
-41,286	9,558	1426,033	759,479
-40,271	9,489	1424,722	758,427
-39,257	9,504	1423,643	757,892
-38,242	9,544	1422,542	757,467
-37,227	9,521	1421,522	756,782
-36,213	9,513	1420,197	756,012
-35,198	9,499	1418,992	755,272
-34,184	9,572	1418,001	755,058
-33,169	9,478	1416,614	753,846
-32,154	9,476	1415,760	753,355
-31,140	9,512	1414,382	752,763
-30,125	9,551	1413,222	752,298
-29,111	9,550	1411,996	751,607
-28,096	9,510	1410,770	750,740
-27,082	9,454	1409,775	749,918
-26,067	9,486	1408,766	749,499
-25,052	9,460	1407,543	748,701
-24,038	9,495	1406,630	748,349
-23,023	9,426	1405,706	747,503
-22,009	9,481	1404,763	747,227
-20,994	9,435	1403,819	746,483
-19,979	9,454	1402,810	746,006
-18,965	9,470	1401,769	745,497
-17,950	9,430	1400,973	744,855
-16,936	9,377	1400,310	744,227
-15,921	9,319	1399,127	743,302
-14,906	9,326	1398,359	742,894
-13,892	9,437	1397,084	742,704
-12,877	9,416	1396,519	742,279
-11,863	9,351	1395,643	741,481
-10,848	9,312	1394,683	740,762
-9,833	9,304	1393,683	740,165
-8,819	9,236	1392,980	739,446
-7,804	9,267	1391,980	739,027
-6,790	9,258	1390,909	738,387
-5,775	9,264	1390,025	737,919
-4,760	9,275	1388,997	737,395
-3,746	9,301	1388,082	736,999
-2,731	9,301	1387,161	736,481
-1,717	9,298	1386,374	736,021
-0,702	9,249	1384,745	734,901
0,313	13,464	1296,787	707,414
1,327	29,714	687,456	411,713
2,342	46,422	118,765	77,522
3,356	-0,169	16,576	8,287
4,371	-2,103	3,785	1,868
5,386	16,256	1,188	0,659
6,400	-200,000	0,150	0,729
7,415	196,653	-0,145	-0,156
8,429	-124,184	-0,471	-0,051
9,444	273,053	-0,227	-0,283
10,459	-21,818	-0,354	-0,151
11,473	103,575	-0,279	-0,231
12,488	-43,274	-0,348	-0,123
13,502	238,179	-0,191	-0,224
14,517	215,712	-0,278	-0,311
15,531	10,933	-0,459	-0,246
16,546	91,603	-0,335	-0,265
17,561	-9,957	-0,372	-0,174
18,575	204,070	-0,138	-0,151
19,590	263,957	-0,164	-0,202
20,604	-112,670	-0,335	-0,046
21,619	37,262	-0,573	-0,357
22,634	161,166	-0,444	-0,437
23,648	44,764	-0,322	-0,208
24,663	55,935	-0,419	-0,286
25,677	213,907	-0,208	-0,232
26,692	67,769	-0,341	-0,245
27,707	213,628	-0,246	-0,274
28,721	121,865	-0,363	-0,319
29,736	25,547	-0,392	-0,229
30,750	66,325	-0,408	-0,291
31,765	91,302	-0,333	-0,263
32,780	100,146	-0,400	-0,326
33,794	103,763	-0,250	-0,206
34,809	-67,506	-0,246	-0,068
35,823	26,294	-0,402	-0,235
36,838	159,187	-0,343	-0,335
37,853	48,447	-0,381	-0,250
38,867	400,204	-0,240	-0,355
39,882	183,732	-0,363	-0,377
40,896	96,428	-0,312	-0,251
41,911	253,296	-0,243	-0,292
42,926	107,967	-0,390	-0,326
43,940	57,681	-0,390	-0,268
44,955	111,838	-0,321	-0,272
45,969	15,427	-0,321	-0,177
46,984	279,569	-0,239	-0,301
47,999	-58,377	-0,268	-0,081
49,013	345,256	-0,189	-0,261
50,028	180,697	-0,299	-0,309
51,042	196,924	-0,367	-0,393
52,057	212,834	-0,286	-0,317
53,071	63,079	-0,433	-0,304
54,086	51,387	-0,258	-0,172
55,101	183,842	-0,305	-0,317
56,115	88,644	-0,274	-0,214
57,130	226,171	-0,281	-0,320
58,144	144,743	-0,220	-0,206
59,159	109,601	-0,353	-0,297
60,174	6,357	-0,316	-0,164
61,188	98,532	-0,384	-0,311
62,203	20,992	-0,404	-0,229
63,217	53,685	-0,273	-0,184
64,232	139,992	-0,168	-0,155
65,247	-41,148	-0,329	-0,118
66,261	150,720	-0,233	-0,222
67,276	363,589	-0,235	-0,332
68,290	17,516	-0,358	-0,199
69,305	154,193	-0,272	-0,262
70,320	6,128	-0,344	-0,178
71,334	-42,792	-0,314	-0,111
72,349	12,997	-0,336	-0,181
73,363	-55,617	-0,265	-0,083
74,378	-119,900	-0,334	-0,040
75,393	21,316	-0,360	-0,204
76,407	18,368	-0,319	-0,178
77,422	43,339	-0,196	-0,125
78,436	-30,443	-0,285	-0,113
79,451	100,386	-0,227	-0,184
80,466	113,623	-0,291	-0,248
81,480	159,885	-0,236	-0,230
82,495	-38,719	-0,264	-0,097
83,509	33,251	-0,175	-0,106
84,524	-58,541	-0,268	-0,081
85,539	-92,987	-0,302	-0,058
86,553	27,301	-0,387	-0,227
87,568	48,662	-0,308	-0,202
88,582	544,826	-0,132	-0,222
89,597	242,099	-0,222	-0,261
90,611	-81,428	-0,318	-0,073
91,626	-200,000	-0,017	-0,209
92,641	104,480	-0,146	-0,120
93,655	24,175	-0,264	-0,152
94,670	53,209	-0,332	-0,222
95,684	275,166	-0,229	-0,285
96,699	4,040	-0,265	-0,135
97,714	8,434	-0,296	-0,155
98,728	23,307	-0,324	-0,186
99,743	-52,474	-0,204	-0,066
100,757	30,500	-0,201	-0,120
101,772	133,300	-0,237	-0,214
102,787	57,036	-0,293	-0,199
103,801	520,878	-0,137	-0,225
104,816	266,673	-0,197	-0,241
105,830	42,025	-0,289	-0,183
106,845	-145,504	-0,272	-0,017
107,860	38,518	-0,217	-0,135
108,874	128,806	-0,193	-0,172
109,889	26,796	-0,300	-0,175
110,903	58,064	-0,291	-0,199
111,918	72,531	-0,291	-0,211
112,933	-113,508	-0,147	-0,020
113,947	12,981	-0,218	-0,117
114,962	-87,397	-0,164	-0,034
115,976	54,776	-0,259	-0,174
116,991	18,502	-0,276	-0,153
118,006	131,812	-0,174	-0,156
119,020	2,259	-0,277	-0,139
120,035	84,397	-0,195	-0,149
121,049	-7,557	-0,287	-0,135
122,064	-86,460	-0,320	-0,068
123,079	-85,678	-0,145	-0,031
124,093	59,750	-0,254	-0,175
125,108	76,052	-0,198	-0,146
126,122	44,341	-0,326	-0,209
127,137	103,060	-0,185	-0,151
128,151	61,044	-0,280	-0,193
129,166	-39,941	-0,133	-0,048
130,181	69,510	-0,176	-0,126
131,195	18,803	-0,278	-0,155
132,210	173,037	-0,202	-0,203
133,224	24,711	-0,257	-0,148
134,239	78,739	-0,230	-0,171
135,254	-15,473	-0,196	0,087
136,268	-171,590	-0,227	-0,005
137,283	290,147	-0,130	-0,165
138,297	569,419	-0,191	-0,325
139,312	87,418	-0,292	-0,225
140,327	9,784	-0,245	-0,129
141,341	460,143	-0,202	-0,314
142,356	6,684	-0,357	-0,185
143,370	36,000	-0,390	-0,239
144,385	-28,904	-0,309	-0,123
145,400	122,467	-0,183	-0,160
146,414	-16,131	-0,251	-0,111
147,429	-0,051	-0,278	-0,137
148,443	-71,398	-0,347	-0,090
149,458	84,557	-0,176	-0,134
150,473	-27,062	-0,225	-0,091
151,487	32,453	-0,312	-0,187
152,502	154,079	-0,216	-0,207
153,516	171,781	-0,215	-0,215
154,531	-49,428	-0,299	-0,099
155,546	-65,226	-0,319	-0,089
156,560	36,423	-0,164	-0,100
157,575	83,684	-0,095	0,072
158,589	141,693	-0,182	-0,167
159,604	72,209	-0,314	-0,227
160,619	68,263	-0,274	-0,195
161,633	800,000	-0,089	-0,243
162,648	-27,582	-0,351	-0,141
163,662	292,694	-0,143	-0,182
164,677	100,931	-0,222	-0,179
165,692	153,731	-0,160	-0,152
166,706	80,216	-0,134	-0,100
167,721	199,212	-0,202	-0,216
168,735	36,460	-0,287	-0,176
169,750	35,784	-0,205	-0,125
170,764	-76,471	-0,206	-0,050
171,779	-80,099	-0,239	-0,055
172,794	-52,735	-0,289	0,092
173,808	27,024	-0,229	-0,133
174,823	162,757	-0,149	-0,145
175,837	107,374	-0,199	-0,164
176,852	-88,731	-0,195	-0,040
177,867	654,878	-0,167	-0,299
178,881	56,468	-0,126	-0,085
179,896	-21,318	-0,261	-0,110
180,910	382,862	-0,142	-0,204
181,925	-50,232	-0,249	-0,081
182,940	28,078	-0,247	-0,144
183,954	24,836	-0,133	-0,076
184,969	115,866	-0,204	-0,173
185,983	-200,000	-0,065	-0,250
186,998	-17,241	-0,220	-0,096
188,013	-200,000	-0,094	-0,321
189,027	72,739	-0,184	-0,133
190,042	111,794	-0,193	-0,162
191,056	168,543	-0,258	-0,255
192,071	153,917	-0,185	-0,176
193,086	-60,178	-0,235	0,069
194,100	-35,785	-0,273	-0,102
195,115	25,729	-0,238	-0,137
196,129	-118,325	-0,189	0,023
197,144	354,451	-0,168	-0,232
198,159	266,829	-0,175	-0,212
199,173	138,680	-0,143	-0,130
200,188	-85,318	-0,071	-0,015
201,202	800,000	-0,080	-0,169
202,217	140,463	-0,197	-0,181
203,232	-116,089	-0,211	-0,027
204,246	438,021	-0,101	-0,152
205,261	99,861	-0,292	-0,234
206,275	59,018	-0,233	-0,159
207,290	800,000	-0,059	-0,157
208,304	647,243	-0,070	-0,124
209,319	250,991	-0,199	-0,235
210,334	272,855	-0,156	-0,191
211,348	209,372	-0,102	-0,111
212,363	-45,422	-0,144	-0,049
213,377	153,690	-0,254	-0,241
214,392	108,192	-0,109	-0,090
215,407	308,246	-0,133	-0,172
216,421	97,644	-0,172	-0,136
217,436	202,394	-0,163	-0,174
218,450	86,683	-0,251	-0,191
219,465	153,750	-0,237	-0,225
220,480	20,557	-0,182	-0,102
221,494	381,453	-0,075	-0,107
222,509	86,654	-0,165	-0,126
223,523	379,397	-0,105	-0,149
224,538	76,817	-0,192	-0,141
225,553	122,787	-0,215	-0,186
226,567	800,000	-0,109	-0,238
227,582	619,012	-0,132	-0,231
228,596	-43,511	-0,221	-0,077
229,611	154,345	-0,125	-0,119
230,626	-159,865	-0,226	-0,008
231,640	-20,612	-0,213	-0,090
232,655	114,414	-0,221	-0,186
233,669	122,238	-0,225	-0,194
234,684	183,134	-0,202	-0,207
235,699	63,757	-0,171	-0,119
236,713	104,492	-0,140	-0,113
237,728	27,145	-0,176	-0,102
238,742	527,600	-0,147	-0,241
239,757	83,081	-0,273	-0,205
240,772	122,495	-0,150	-0,129
241,786	800,000	-0,118	-0,227
242,801	315,728	-0,125	-0,163
243,815	-79,106	-0,182	0,042
244,830	-11,426	-0,300	-0,136
245,844	-53,972	-0,165	-0,052
246,859	-200,000	-0,054	-0,226
247,874	278,327	-0,255	-0,314
248,888	2,554	-0,232	-0,115
249,903	78,944	-0,210	-0,155
250,917	115,180	-0,090	-0,076
251,932	-137,468	-0,160	0,012
252,947	602,735	-0,150	-0,259
253,961	800,000	-0,110	-0,265
254,976	292,262	-0,157	-0,198
255,990	17,371	-0,248	-0,135
257,005	66,929	-0,248	-0,174
258,020	-200,000	0,007	-0,067
259,034	800,000	-0,074	-0,184
260,049	-116,877	-0,187	-0,023
261,063	-25,127	-0,235	-0,096
262,078	140,518	-0,184	-0,168
263,093	-78,495	-0,160	0,037
264,107	261,313	-0,132	-0,157
265,122	599,255	-0,103	-0,177
266,136	263,575	-0,118	-0,141
267,151	53,636	-0,165	-0,109
268,166	126,822	-0,166	-0,145
269,180	40,731	-0,215	-0,133
270,195	-98,363	-0,337	-0,059
271,209	163,984	-0,056	-0,054
272,224	800,000	-0,109	-0,211
273,239	-184,037	-0,137	0,002
274,253	-20,612	-0,205	-0,086
275,268	294,167	-0,093	-0,118
276,282	120,712	-0,120	-0,103
277,297	32,504	-0,208	-0,124
278,312	249,590	-0,201	-0,235
279,326	201,722	-0,107	-0,114
280,341	193,370	-0,125	-0,130
281,355	-85,451	-0,094	-0,020
282,370	148,470	-0,118	-0,110
283,384	604,787	-0,084	-0,144
284,399	8,229	-0,166	-0,085
285,414	800,000	-0,041	-0,099
286,428	800,000	-0,091	-0,236
287,443	2,739	-0,102	-0,051
288,457	122,542	-0,142	-0,122
289,472	-200,000	-0,028	-0,115
290,487	277,256	-0,197	-0,242
291,501	265,589	-0,163	-0,196
292,516	800,000	-0,099	-0,199
293,530	-57,598	-0,131	-0,039
294,545	800,000	-0,072	-0,179
295,560	800,000	-0,065	-0,147
296,574	310,431	-0,114	-0,147
297,589	412,860	-0,089	-0,131
298,603	62,928	-0,137	-0,094
299,618	62,798	-0,220	-0,151
300,633	-120,708	-0,263	-0,030
301,647	97,737	-0,211	-0,166
302,662	329,013	-0,059	-0,078
303,676	800,000	-0,075	-0,158
304,691	609,584	-0,126	-0,217
305,706	-200,000	0,012	-0,133
306,720	-194,947	-0,161	0,001
307,735	800,000	-0,032	0,062
308,749	-200,000	-0,047	-0,190
309,764	48,366	-0,125	-0,080
310,779	800,000	-0,052	-0,139
311,793	207,281	-0,108	-0,115
312,808	153,609	-0,209	-0,196
313,822	-49,507	-0,081	-0,026
314,837	-31,570	-0,069	-0,026
315,852	43,523	-0,221	-0,138
316,866	-25,954	-0,121	-0,049
317,881	55,019	-0,183	-0,121
318,895	54,087	-0,307	-0,202
319,910	800,000	-0,013	-0,030
320,925	-187,717	-0,180	0,002
321,939	-200,000	-0,067	-0,217
322,954	-35,389	-0,160	-0,059
323,968	-81,219	-0,063	-0,014
324,983	-200,000	-0,053	-0,266
325,997	377,867	-0,117	-0,164
327,012	800,000	-0,113	-0,221
328,027	-151,760	-0,282	0,014
329,041	92,754	-0,228	-0,176
330,056	422,937	-0,112	-0,165
331,070	-128,636	-0,119	0,011
332,085	-136,386	-0,050	0,004
333,100	214,411	-0,055	-0,060
334,114	800,000	-0,058	-0,140
335,129	314,461	-0,170	-0,220
336,143	-200,000	-0,029	-0,198
337,158	-200,000	0,000	-0,133
338,173	800,000	-0,033	-0,067
339,187	-23,612	-0,104	-0,043
340,202	-200,000	-0,038	-0,276
341,216	800,000	-0,043	-0,107
342,231	-23,948	-0,171	-0,070
343,246	114,327	-0,120	-0,100
344,260	303,137	-0,105	-0,134
345,275	10,960	-0,162	0,084
346,289	-200,000	-0,026	-0,140
347,304	800,000	-0,056	-0,142
348,319	524,257	-0,168	-0,271
349,333	28,336	-0,157	-0,091
350,348	97,950	-0,082	-0,065
351,362	-64,244	-0,213	-0,059
352,377	202,076	-0,041	-0,044
353,392	277,630	-0,169	-0,206
354,406	-131,660	-0,208	-0,018
355,421	206,324	1310,801	1396,454
356,435	158,672	1471,026	1396,931
