DTS Sentinel unit serial number:	SN410029Multiplexer serial number:	ORYXHardware model number:	OX2-SRSoftware version number:	ORYX F/W v4,00 Oryx Data Collector v3.7.2.0data status	okinstallation	B3 Nyhavnadifferential loss correction	single-endedforward channel	channel 1reverse channel	N/Adate	2023/11/29time	15:12:30forward acquisition time	300,00reverse acquisition time	0,00gamma	499,1914k internal	0,3210k external	0,3210temperature offset calibration	1,0000default loss term (dB/km)	0,3820temperature slope calibration	1,0000multiplexer offset coefficient	1,0000multiplexer slope coefficient	1,0000fibre end	0,00T internal ref (°C)	11,19T ext. ref 1 (°C)	-3,20T ext. ref 2 (°C)	-3,34length (m)	temperature (°C)	Stokes	anti-Stokes-744,400	9,973	-0,253	-0,139
-743,385	389,117	-0,249	0,375
-742,371	800,000	-0,160	-0,323
-741,356	-200,000	-0,014	0,406
-740,342	107,645	-0,169	-0,146
-739,327	800,000	-0,139	0,415
-738,312	757,390	-0,101	-0,199
-737,298	-200,000	0,009	0,311
-736,283	320,022	-0,198	-0,273
-735,269	800,000	-0,089	0,226
-734,254	337,492	-0,164	-0,231
-733,239	-86,170	-0,251	0,056
-732,225	-200,000	-0,042	-0,238
-731,210	797,849	0,042	0,083
-730,196	-143,243	-0,044	0,003
-729,181	276,311	0,046	0,060
-728,167	-200,000	-0,016	-0,073
-727,152	800,000	-0,085	-0,185
-726,137	-200,000	-0,042	-0,241
-725,123	483,690	-0,082	-0,136
-724,108	-113,344	-0,029	-0,004
-723,094	-200,000	0,004	-0,165
-722,079	562,866	-0,058	-0,103
-721,064	-96,726	-0,121	0,023
-720,050	-113,174	0,084	0,012
-719,035	445,207	-0,119	-0,189
-718,021	-200,000	0,007	-0,083
-717,006	725,086	0,003	0,007
-715,991	-64,826	-0,139	-0,041
-714,977	50,542	-0,070	0,048
-713,962	183,843	0,086	-0,093
-712,948	-109,821	-0,170	-0,026
-711,933	-124,915	-0,037	-0,004
-710,918	800,000	-0,071	0,197
-709,904	644,101	0,048	-0,090
-708,889	800,000	-0,110	-0,223
-707,875	33,881	-0,053	-0,033
-706,860	-107,894	0,159	-0,025
-705,845	800,000	0,025	0,071
-704,831	-18,121	0,016	0,007
-703,816	800,000	-0,059	-0,143
-702,802	-149,236	0,036	0,002
-701,787	-160,699	-0,143	0,005
-700,772	724,707	-0,039	-0,075
-699,758	460,781	-0,032	-0,052
-698,743	-200,000	0,000	-0,126
-697,729	29,614	0,062	-0,038
-696,714	-88,560	-0,059	0,013
-695,699	82,958	-0,210	-0,165
-694,685	-200,000	0,007	-0,131
-693,670	-38,640	0,113	-0,043
-692,656	375,332	-0,096	-0,142
-691,641	76,043	0,089	0,068
-690,627	-148,023	-0,020	0,001
-689,612	102,168	-0,103	0,087
-688,597	-75,433	-0,112	-0,029
-687,583	-134,461	-0,054	0,005
-686,568	166,378	-0,109	-0,112
-685,554	12,835	-0,055	0,031
-684,539	20,473	-0,038	-0,022
-683,524	-54,932	0,078	-0,025
-682,510	-200,000	0,037	0,148
-681,495	-154,160	0,141	0,007
-680,481	-148,143	-0,092	0,005
-679,466	-154,391	-0,086	0,004
-678,451	800,000	-0,017	0,051
-677,437	-107,334	-0,152	0,024
-676,422	800,000	0,062	0,134
-675,408	-200,000	-0,002	-0,045
-674,393	607,586	-0,026	0,048
-673,378	-200,000	0,003	0,056
-672,364	489,661	-0,080	-0,133
-671,349	-200,000	0,021	0,133
-670,335	-200,000	0,003	0,031
-669,320	274,027	0,139	0,178
-668,305	-200,000	0,012	0,081
-667,291	122,479	0,024	0,021
-666,276	18,541	-0,126	0,073
-665,262	800,000	-0,041	-0,083
-664,247	-139,012	-0,127	0,010
-663,232	-128,133	0,069	-0,007
-662,218	503,868	-0,019	0,032
-661,203	800,000	0,025	-0,080
-660,189	-129,019	-0,061	0,006
-659,174	84,407	0,059	-0,047
-658,159	-106,974	-0,048	0,008
-657,145	-200,000	-0,017	-0,098
-656,130	74,191	0,035	0,027
-655,116	213,859	-0,030	-0,034
-654,101	386,546	0,027	-0,041
-653,086	-103,584	-0,082	0,014
-652,072	34,803	0,099	-0,063
-651,057	800,000	0,082	-0,166
-650,043	-200,000	-0,030	-0,152
-649,028	414,046	-0,044	-0,068
-648,014	800,000	0,058	0,149
-646,999	260,703	-0,065	0,081
-645,984	179,605	-0,023	0,024
-644,970	86,445	0,012	-0,009
-643,955	-200,000	-0,009	-0,036
-642,941	800,000	-0,003	-0,008
-641,926	496,532	-0,066	-0,110
-640,911	-43,374	0,170	-0,062
-639,897	-85,308	0,101	-0,023
-638,882	800,000	0,037	0,097
-637,868	-83,762	-0,107	0,025
-636,853	444,208	0,003	0,005
-635,838	-200,000	-0,002	-0,132
-634,824	-49,545	0,036	0,012
-633,809	-200,000	-0,006	-0,050
-632,795	94,336	0,060	0,049
-631,780	243,453	0,032	0,039
-630,765	800,000	-0,070	-0,161
-629,751	434,148	-0,075	-0,118
-628,736	800,000	-0,036	-0,102
-627,722	-200,000	-0,010	0,094
-626,707	-200,000	0,016	-0,088
-625,692	-6,905	0,021	0,010
-624,678	-92,197	-0,090	0,018
-623,663	-128,466	-0,105	-0,011
-622,649	195,298	-0,102	-0,112
-621,634	-200,000	0,004	-0,037
-620,619	740,121	-0,006	0,013
-619,605	486,243	-0,100	0,165
-618,590	-98,969	0,055	-0,010
-617,576	-64,613	0,144	-0,042
-616,561	649,049	-0,033	0,062
-615,546	-200,000	0,015	-0,074
-614,532	800,000	-0,057	0,144
-613,517	77,471	-0,048	0,037
-612,503	-108,012	-0,114	0,018
-611,488	9,131	-0,073	0,040
-610,474	-200,000	-0,020	0,133
-609,459	592,194	-0,054	0,097
-608,444	-95,554	-0,040	0,008
-607,430	752,549	-0,062	-0,120
-606,415	152,413	0,073	-0,072
-605,401	-200,000	0,000	0,108
-604,386	10,814	0,098	0,054
-603,371	41,257	0,046	-0,030
-602,357	68,478	0,056	0,041
-601,342	-67,240	-0,091	-0,026
-600,328	-64,888	-0,069	-0,020
-599,313	-200,000	0,005	-0,104
-598,298	190,031	-0,044	-0,048
-597,284	-200,000	-0,003	0,140
-596,269	25,712	0,030	-0,018
-595,255	-200,000	-0,003	-0,091
-594,240	-200,000	-0,022	-0,078
-593,225	-115,441	-0,139	-0,019
-592,211	-83,437	0,112	-0,026
-591,196	307,429	-0,055	0,074
-590,182	-73,219	0,086	-0,023
-589,167	511,429	-0,027	0,046
-588,152	800,000	0,027	0,074
-587,138	-137,674	0,045	0,004
-586,123	479,828	0,036	-0,058
-585,109	-200,000	0,002	-0,070
-584,094	33,609	0,090	0,056
-583,079	138,702	0,092	-0,088
-582,065	-5,181	-0,060	-0,029
-581,050	-120,256	0,063	0,008
-580,036	148,131	0,032	0,031
-579,021	-137,615	-0,203	0,016
-578,006	449,942	-0,039	0,062
-576,992	-200,000	0,029	-0,099
-575,977	169,787	-0,042	0,043
-574,963	800,000	0,043	0,091
-573,948	-200,000	0,020	0,130
-572,934	64,711	-0,032	-0,023
-571,919	-119,338	-0,059	-0,007
-570,904	-42,624	0,092	-0,034
-569,890	-200,000	-0,017	-0,078
-568,875	-200,000	-0,006	-0,139
-567,861	800,000	-0,023	-0,058
-566,846	-200,000	-0,020	0,076
-565,831	207,913	0,056	-0,064
-564,817	-8,569	-0,124	0,060
-563,802	-5,674	-0,124	-0,061
-562,788	-200,000	0,030	-0,102
-561,773	282,636	-0,077	-0,099
-560,758	-101,615	0,054	-0,009
-559,744	-200,000	0,012	-0,134
-558,729	-200,000	-0,014	0,101
-557,715	292,822	-0,125	-0,164
-556,700	-178,834	-0,101	-0,002
-555,685	-200,000	0,032	-0,103
-554,671	12,412	0,033	0,018
-553,656	556,691	0,043	-0,074
-552,642	800,000	0,050	0,147
-551,627	-64,744	-0,051	-0,015
-550,612	88,468	-0,108	-0,086
-549,598	-93,101	-0,145	-0,029
-548,583	-15,024	0,060	0,028
-547,569	-200,000	0,002	0,064
-546,554	-200,000	0,009	-0,041
-545,539	68,565	-0,050	-0,037
-544,525	51,513	0,061	0,041
-543,510	800,000	0,044	0,098
-542,496	-200,000	0,036	-0,166
-541,481	-103,185	-0,100	-0,017
-540,466	-134,326	0,078	-0,007
-539,452	-200,000	-0,004	-0,066
-538,437	-200,000	0,007	-0,117
-537,423	171,705	0,060	0,062
-536,408	-27,669	-0,037	-0,015
-535,393	19,445	0,044	0,025
-534,379	-200,000	-0,014	-0,092
-533,364	-107,440	0,079	-0,012
-532,350	242,270	0,023	-0,028
-531,335	25,682	-0,106	-0,063
-530,321	-200,000	0,011	0,131
-529,306	235,759	0,048	0,057
-528,291	189,434	-0,118	-0,127
-527,277	-0,849	-0,068	0,035
-526,262	800,000	0,046	-0,101
-525,248	-99,680	0,084	-0,015
-524,233	800,000	0,021	0,055
-523,218	201,796	0,087	0,096
-522,204	-31,262	0,006	-0,003
-521,189	86,073	-0,046	-0,036
-520,175	3,228	-0,220	-0,115
-519,160	-63,562	-0,061	0,018
-518,145	-13,879	0,121	0,056
-517,131	-200,000	-0,015	0,172
-516,116	-120,217	0,142	-0,017
-515,102	-111,504	0,094	0,014
-514,087	-20,254	0,025	0,011
-513,072	-53,954	-0,030	-0,010
-512,058	86,368	0,079	-0,063
-511,043	21,847	0,093	-0,054
-510,029	-54,660	-0,089	0,029
-509,014	-94,981	0,103	-0,020
-507,999	375,574	0,084	0,124
-506,985	213,059	0,054	-0,061
-505,970	-200,000	-0,007	-0,031
-504,956	186,111	-0,091	-0,098
-503,941	-9,009	-0,046	0,022
-502,926	240,221	0,032	0,039
-501,912	160,678	-0,044	0,044
-500,897	-43,233	0,063	-0,023
-499,883	57,805	-0,065	-0,046
-498,868	116,146	0,072	-0,063
-497,853	228,231	0,027	-0,031
-496,839	160,330	-0,036	0,036
-495,824	-95,317	0,095	-0,018
-494,810	507,064	-0,067	0,111
-493,795	-200,000	0,028	0,119
-492,781	800,000	-0,014	0,040
-491,766	-51,599	-0,074	0,025
-490,751	15,496	0,138	0,078
-489,737	800,000	-0,004	0,010
-488,722	-66,787	0,052	0,015
-487,708	24,606	0,077	0,045
-486,693	470,746	-0,025	0,040
-485,678	109,487	-0,056	0,048
-484,664	-200,000	0,017	-0,071
-483,649	-200,000	0,000	-0,028
-482,635	-45,669	-0,106	0,038
-481,620	-35,984	0,124	0,048
-480,605	-200,000	-0,002	-0,012
-479,591	-200,000	-0,006	0,025
-478,576	800,000	-0,040	0,112
-477,562	-145,660	-0,041	0,003
-476,547	-200,000	0,008	0,071
-475,532	800,000	0,046	0,101
-474,518	-200,000	-0,002	-0,078
-473,503	245,856	0,074	0,090
-472,489	232,126	-0,129	0,152
-471,474	422,461	0,095	0,147
-470,459	-192,255	-0,047	0,000
-469,445	24,431	-0,047	-0,028
-468,430	-200,000	-0,000	-0,018
-467,416	800,000	0,032	-0,091
-466,401	-17,007	0,137	0,062
-465,386	-187,133	-0,091	0,001
-464,372	592,915	0,016	-0,029
-463,357	-15,909	-0,123	-0,056
-462,343	-38,078	-0,111	-0,042
-461,328	-48,646	-0,056	0,019
-460,313	-141,348	0,077	-0,006
-459,299	800,000	-0,077	0,191
-458,284	800,000	-0,031	0,062
-457,270	25,699	0,080	-0,048
-456,255	800,000	-0,024	-0,058
-455,241	81,712	-0,053	-0,041
-454,226	-200,000	0,003	-0,100
-453,211	412,544	-0,046	0,070
-452,197	15,751	-0,104	0,059
-451,182	-200,000	0,042	0,135
-450,168	-58,000	-0,112	-0,035
-449,153	317,553	0,034	-0,047
-448,138	-42,340	-0,120	-0,044
-447,124	-144,645	-0,211	-0,014
-446,109	77,252	0,126	-0,096
-445,095	127,365	0,019	0,017
-444,080	340,232	0,048	0,067
-443,065	400,193	-0,024	0,036
-442,051	800,000	-0,014	0,042
-441,036	226,851	-0,040	0,047
-440,022	800,000	0,018	-0,044
-439,007	800,000	-0,020	-0,061
-437,992	240,122	0,089	-0,106
-436,978	450,228	0,089	0,141
-435,963	-136,981	0,081	0,007
-434,949	-99,097	-0,142	-0,026
-433,934	-155,956	-0,044	-0,002
-432,919	-65,195	0,018	0,005
-431,905	-200,000	0,052	-0,173
-430,890	800,000	0,065	-0,176
-429,876	21,077	0,100	0,058
-428,861	-164,033	0,066	-0,002
-427,846	-173,890	-0,116	-0,002
-426,832	324,023	-0,048	0,066
-425,817	335,457	-0,062	-0,086
-424,803	109,268	0,097	0,083
-423,788	-32,555	0,057	0,023
-422,773	157,554	0,075	0,075
-421,759	424,001	0,110	0,170
-420,744	650,411	-0,081	-0,148
-419,730	-102,353	0,144	0,024
-418,715	140,473	0,041	-0,039
-417,701	324,873	-0,077	-0,105
-416,686	108,358	0,070	-0,060
-415,671	-200,000	-0,012	-0,047
-414,657	166,683	-0,077	0,079
-413,642	102,139	0,035	-0,030
-412,628	25,377	-0,099	-0,059
-411,613	90,090	-0,100	-0,080
-410,598	800,000	0,053	-0,120
-409,584	94,514	-0,058	-0,047
-408,569	-131,873	-0,013	0,001
-407,555	58,713	0,048	0,034
-406,540	-104,133	0,061	0,010
-405,525	-200,000	-0,021	0,141
-404,511	240,827	0,076	-0,091
-403,496	164,631	0,044	-0,044
-402,482	36,090	-0,021	-0,013
-401,467	-200,000	-0,005	0,067
-400,452	301,096	0,069	-0,091
-399,438	800,000	-0,038	0,076
-398,423	266,183	0,068	0,085
-397,409	-200,000	-0,037	0,129
-396,394	124,564	-0,057	-0,051
-395,379	-76,539	0,024	0,006
-394,365	134,523	0,016	0,015
-393,350	-200,000	-0,010	0,091
-392,336	800,000	-0,039	0,114
-391,321	26,874	-0,104	0,062
-390,306	431,211	-0,036	-0,056
-389,292	800,000	0,041	-0,098
-388,277	310,064	-0,008	0,011
-387,263	-200,000	-0,009	0,063
-386,248	147,121	0,033	0,032
-385,233	-9,502	-0,020	0,010
-384,219	-103,552	-0,154	-0,026
-383,204	-96,312	-0,249	-0,047
-382,190	202,343	0,086	0,095
-381,175	-92,072	0,084	-0,017
-380,160	564,688	-0,037	-0,064
-379,146	-30,188	0,155	0,063
-378,131	68,400	0,044	0,032
-377,117	800,000	0,052	-0,152
-376,102	-200,000	-0,024	-0,109
-375,088	-200,000	-0,002	-0,135
-374,073	-200,000	-0,057	-0,195
-373,058	283,729	0,048	0,061
-372,044	200,633	0,113	0,124
-371,029	340,803	0,068	0,096
-370,015	-200,000	-0,045	0,148
-369,000	45,888	-0,105	0,069
-367,985	203,440	-0,040	-0,044
-366,971	107,027	0,046	-0,039
-365,956	-200,000	-0,023	0,077
-364,942	224,781	0,074	-0,086
-363,927	-200,000	-0,036	-0,117
-362,912	93,862	0,086	-0,069
-361,898	-161,854	-0,088	-0,003
-360,883	-37,071	-0,047	0,018
-359,869	165,323	0,047	-0,048
-358,854	800,000	0,063	0,136
-357,839	-200,000	0,015	-0,131
-356,825	-148,483	0,080	0,005
-355,810	800,000	0,031	0,067
-354,796	494,195	0,043	-0,071
-353,781	-110,657	-0,142	0,021
-352,766	444,753	-0,085	-0,134
-351,752	800,000	-0,039	0,121
-350,737	800,000	-0,040	0,115
-349,723	-21,996	0,097	0,042
-348,708	-87,663	-0,058	-0,012
-347,693	-79,283	-0,076	-0,018
-346,679	800,000	-0,040	-0,094
-345,664	-200,000	-0,108	-0,000
-344,650	3,818	-0,059	0,031
-343,635	109,219	0,066	-0,057
-342,620	133,666	0,063	0,058
-341,606	581,081	-0,055	0,096
-340,591	218,240	-0,058	-0,066
-339,577	800,000	0,009	0,028
-338,562	-57,425	-0,047	0,015
-337,548	-138,610	-0,133	-0,010
-336,533	-200,000	-0,023	-0,095
-335,518	141,787	0,139	0,132
-334,504	-116,623	0,066	0,009
-333,489	96,396	-0,114	-0,093
-332,475	40,438	0,080	-0,052
-331,460	-200,000	-0,003	0,056
-330,445	-52,075	0,142	0,047
-329,431	87,638	0,037	0,029
-328,416	-188,016	-0,110	-0,001
-327,402	352,445	0,070	0,100
-326,387	-118,911	-0,190	-0,024
-325,372	-48,548	0,057	-0,019
-324,358	-200,000	-0,015	0,067
-323,343	-200,000	-0,004	-0,056
-322,329	65,205	0,105	0,076
-321,314	6,065	0,103	0,054
-320,299	-149,403	0,140	-0,008
-319,285	-99,993	0,091	0,016
-318,270	110,955	-0,065	-0,056
-317,256	41,601	-0,138	0,089
-316,241	-110,362	0,101	-0,015
-315,226	18,929	0,044	-0,025
-314,212	-20,597	0,153	0,067
-313,197	800,000	-0,036	-0,075
-312,183	-200,000	-0,017	0,068
-311,168	97,973	-0,032	0,026
-310,153	197,645	-0,061	-0,067
-309,139	-200,000	0,023	0,124
-308,124	-158,759	0,044	-0,002
-307,110	-200,000	-0,005	-0,046
-306,095	198,294	0,076	0,083
-305,080	-36,006	-0,017	0,006
-304,066	-16,952	-0,046	0,021
-303,051	-200,000	0,005	-0,134
-302,037	388,287	0,063	-0,093
-301,022	-128,716	-0,290	0,029
-300,008	22,614	0,129	-0,075
-298,993	-59,564	0,186	-0,056
-297,978	119,654	0,031	0,027
-296,964	800,000	0,043	-0,125
-295,949	-182,667	-0,035	-0,000
-294,935	142,961	0,030	-0,029
-293,920	800,000	-0,053	0,125
-292,905	-200,000	-0,012	0,174
-291,891	-200,000	-0,010	0,053
-290,876	248,269	-0,016	-0,019
-289,862	121,955	0,031	0,028
-288,847	-191,068	-0,091	0,001
-287,832	-14,853	0,070	-0,032
-286,818	-43,379	0,031	-0,011
-285,803	-200,000	-0,016	-0,060
-284,789	-129,214	0,177	0,017
-283,774	295,383	0,046	-0,060
-282,759	-91,193	0,031	-0,006
-281,745	-6,741	-0,106	-0,051
-280,730	529,340	-0,022	-0,037
-279,716	800,000	-0,045	0,132
-278,701	-200,000	0,018	-0,071
-277,686	328,017	-0,016	0,022
-276,672	-119,480	0,150	0,018
-275,657	-200,000	0,003	-0,024
-274,643	-200,000	0,015	-0,105
-273,628	-54,895	-0,101	0,032
-272,613	157,219	0,093	0,091
-271,599	-38,214	0,078	0,029
-270,584	214,715	0,050	-0,056
-269,570	478,841	0,052	-0,084
-268,555	-197,471	-0,101	0,000
-267,540	45,317	-0,027	0,018
-266,526	-65,447	-0,179	-0,051
-265,511	38,019	0,052	-0,033
-264,497	150,147	0,033	0,032
-263,482	-200,000	0,000	-0,012
-262,467	-50,932	0,052	0,017
-261,453	-200,000	-0,009	-0,089
-260,438	190,221	-0,098	0,105
-259,424	-56,251	-0,101	-0,032
-258,409	3,082	-0,129	-0,067
-257,395	20,383	-0,021	0,012
-256,380	150,879	0,113	0,109
-255,365	555,269	0,030	0,051
-254,351	-200,000	-0,010	0,115
-253,336	76,761	-0,091	0,069
-252,322	800,000	0,019	-0,038
-251,307	-196,010	0,225	-0,001
-250,292	-86,732	-0,080	0,017
-249,278	-67,220	-0,230	-0,064
-248,263	380,325	0,038	0,056
-247,249	-200,000	-0,031	0,117
-246,234	196,306	-0,024	-0,026
-245,219	121,870	-0,120	-0,106
-244,205	416,873	-0,061	-0,094
-243,190	800,000	-0,025	-0,070
-242,176	-110,143	-0,026	0,004
-241,161	-200,000	-0,009	-0,045
-240,146	800,000	-0,021	-0,045
-239,132	165,919	-0,048	-0,048
-238,117	92,775	-0,052	-0,042
-237,103	141,087	-0,062	-0,058
-236,088	60,751	-0,061	-0,043
-235,073	-200,000	0,040	0,170
-234,059	467,891	0,035	0,056
-233,044	-200,000	-0,018	0,172
-232,030	-118,769	0,107	0,013
-231,015	346,759	-0,080	0,112
-230,000	-200,000	-0,003	0,038
-228,986	-200,000	0,008	0,048
-227,971	198,570	0,081	-0,088
-226,957	-58,330	0,104	-0,032
-225,942	-96,701	-0,038	-0,007
-224,927	333,145	0,018	0,024
-223,913	-20,958	-0,032	-0,014
-222,898	113,654	-0,041	-0,035
-221,884	800,000	-0,059	-0,185
-220,869	110,209	-0,043	-0,036
-219,855	52,967	0,024	-0,016
-218,840	800,000	-0,047	0,100
-217,825	311,917	0,083	-0,111
-216,811	10,223	-0,048	-0,026
-215,796	-10,199	0,055	-0,026
-214,782	800,000	0,009	-0,024
-213,767	-200,000	-0,013	0,075
-212,752	-200,000	-0,007	-0,028
-211,738	287,440	-0,045	0,058
-210,723	-200,000	-0,003	0,075
-209,709	-200,000	-0,015	-0,055
-208,694	-200,000	-0,024	-0,095
-207,679	-200,000	-0,009	-0,053
-206,665	34,957	-0,123	0,076
-205,650	134,398	-0,051	0,047
-204,636	14,379	-0,060	-0,033
-203,621	296,513	-0,049	0,064
-202,606	768,911	0,039	0,076
-201,592	414,095	-0,061	-0,093
-200,577	-200,000	0,017	-0,115
-199,563	-200,000	-0,008	0,088
-198,548	-48,894	-0,068	0,023
-197,533	-152,225	0,077	0,004
-196,519	-95,435	0,110	0,021
-195,504	122,790	0,099	-0,088
-194,490	-87,219	-0,088	0,019
-193,475	800,000	-0,039	-0,110
-192,460	-74,322	0,064	-0,016
-191,446	800,000	-0,027	0,067
-190,431	-127,343	0,125	0,013
-189,417	-95,415	-0,116	0,022
-188,402	-128,459	-0,110	0,011
-187,387	800,000	0,042	0,110
-186,373	800,000	0,064	-0,145
-185,358	130,960	0,127	0,115
-184,344	478,185	0,060	0,097
-183,329	-173,980	0,111	-0,002
-182,315	-134,370	0,193	-0,017
-181,300	-200,000	0,003	0,019
-180,285	800,000	-0,075	-0,189
-179,271	217,142	0,017	0,019
-178,256	800,000	0,027	0,060
-177,242	-64,711	0,113	-0,032
-176,227	37,870	0,036	0,023
-175,212	-11,294	0,141	-0,066
-174,198	201,214	-0,035	0,038
-173,183	-110,844	-0,158	-0,023
-172,169	-200,000	-0,007	-0,097
-171,154	-200,000	0,013	-0,083
-170,139	133,917	-0,059	0,054
-169,125	-200,000	-0,002	0,067
-168,110	4,126	0,172	-0,089
-167,096	-153,754	-0,086	-0,004
-166,081	-80,491	-0,041	0,010
-165,066	291,000	0,068	0,088
-164,052	-200,000	-0,012	0,141
-163,037	-127,254	0,117	-0,012
-162,023	-200,000	-0,005	0,131
-161,008	-80,394	0,163	0,038
-159,993	100,279	0,074	-0,061
-158,979	-43,256	-0,076	-0,027
-157,964	-91,314	-0,156	0,031
-156,950	16,360	0,136	-0,076
-155,935	-200,000	0,011	0,128
-154,920	-132,764	0,203	0,018
-153,906	-158,540	0,100	-0,004
-152,891	800,000	0,045	0,123
-151,877	-12,801	-0,091	-0,042
-150,862	18,725	-0,114	-0,064
-149,847	800,000	0,028	-0,055
-148,833	-72,832	-0,096	0,025
-147,818	-200,000	0,009	0,168
-146,804	388,802	0,056	0,082
-145,789	-145,944	-0,035	-0,002
-144,775	-200,000	-0,004	-0,104
-143,760	82,314	0,037	0,028
-142,745	376,237	-0,131	0,190
-141,731	-200,000	-0,003	0,111
-140,716	-200,000	0,000	-0,045
-139,702	-200,000	0,042	0,170
-138,687	-62,897	0,165	0,048
-137,672	73,302	0,104	0,077
-136,658	-200,000	0,003	0,086
-135,643	52,076	-0,028	0,019
-134,629	-50,805	0,088	0,029
-133,614	351,065	0,024	-0,034
-132,599	-72,382	0,140	0,037
-131,585	800,000	-0,017	0,049
-130,570	292,247	0,054	0,070
-129,556	-200,000	-0,005	-0,063
-128,541	-200,000	0,005	0,025
-127,526	114,352	-0,074	0,063
-126,512	-22,115	0,092	0,040
-125,497	-60,902	-0,123	0,037
-124,483	-200,000	0,014	0,069
-123,468	-105,996	-0,060	0,009
-122,453	-127,168	-0,119	-0,012
-121,439	259,510	-0,053	0,065
-120,424	162,776	-0,086	-0,086
-119,410	-128,064	0,131	0,013
-118,395	149,861	-0,042	-0,040
-117,380	296,825	0,129	0,168
-116,366	108,875	-0,054	-0,045
-115,351	-200,000	-0,002	-0,077
-114,337	76,565	0,090	-0,068
-113,322	-200,000	0,000	-0,190
-112,307	800,000	-0,012	0,036
-111,293	604,667	0,082	0,146
-110,278	-200,000	0,007	-0,073
-109,264	202,021	-0,055	-0,060
-108,249	18,732	-0,044	0,025
-107,234	800,000	-0,062	-0,127
-106,220	137,209	-0,046	-0,042
-105,205	-77,014	-0,041	0,010
-104,191	57,559	-0,046	0,032
-103,176	-46,349	0,081	0,028
-102,162	127,305	-0,083	0,074
-101,147	-200,000	0,013	-0,046
-100,132	-14,904	0,054	0,025
-99,118	-200,000	-0,009	-0,036
-98,103	-144,578	0,015	0,001
-97,089	-200,000	0,020	0,154
-96,074	-200,000	0,011	0,049
-95,059	-200,000	0,016	0,056
-94,045	-46,436	-0,068	0,024
-93,030	264,263	0,069	-0,085
-92,016	175,354	-0,049	0,050
-91,001	800,000	-0,031	-0,087
-89,986	-110,155	-0,066	-0,010
-88,972	-200,000	0,002	0,229
-87,957	-31,149	-0,090	0,036
-86,943	-200,000	-0,018	-0,063
-85,928	800,000	0,038	0,087
-84,913	-200,000	-0,008	-0,042
-83,899	-10,976	-0,114	0,053
-82,884	-200,000	0,011	-0,059
-81,870	93,725	0,101	0,081
-80,855	-200,000	0,008	-0,090
-79,840	342,180	0,018	-0,025
-78,826	-92,939	-0,109	0,021
-77,811	-190,725	-0,074	0,001
-76,797	-72,410	0,021	0,005
-75,782	-190,394	-0,058	0,000
-74,767	-85,001	0,097	-0,021
-73,753	115,463	-0,065	0,056
-72,738	-200,000	-0,008	-0,076
-71,724	800,000	0,021	0,043
-70,709	43,515	0,039	-0,025
-69,694	-58,049	0,129	0,040
-68,680	108,756	0,021	0,018
-67,665	-200,000	0,016	0,177
-66,651	97,039	0,012	0,010
-65,636	-158,203	-0,067	0,003
-64,622	22,613	0,108	0,062
-63,607	28,960	-0,081	-0,048
-62,592	408,287	-0,053	0,079
-61,578	-200,000	0,017	0,080
-60,563	-200,000	0,002	0,012
-59,549	800,000	0,037	0,075
-58,534	59,666	-1,875	-1,305
-57,519	516,142	-1,255	-2,078
-56,505	-200,000	-0,310	-4,440
-55,490	368,673	0,798	1,143
-54,476	800,000	5,142	11,540
-53,461	-200,000	20,586	327,977
-52,446	800,000	753,989	2315,204
-51,432	550,906	1659,516	2821,944
-50,417	73,762	1663,757	1229,680
-49,403	19,032	1536,747	867,418
-48,388	13,029	1459,437	794,749
-47,373	18,867	1449,976	817,586
-46,359	16,042	1439,529	798,221
-45,344	11,306	1435,146	773,215
-44,330	11,222	1433,327	771,805
-43,315	11,255	1431,298	770,839
-42,300	11,227	1429,581	769,752
-41,286	11,278	1428,221	769,228
-40,271	11,224	1427,051	768,312
-39,257	11,222	1426,008	767,712
-38,242	11,247	1424,730	767,112
-37,227	11,252	1423,644	766,522
-36,213	11,254	1422,181	765,710
-35,198	11,276	1421,178	765,243
-34,184	11,329	1420,413	765,054
-33,169	11,225	1419,009	763,774
-32,154	11,308	1417,908	763,545
-31,140	11,291	1416,757	762,813
-30,125	11,319	1415,683	762,338
-29,111	11,332	1414,405	761,681
-28,096	11,291	1413,229	760,822
-27,082	11,267	1412,225	760,140
-26,067	11,298	1411,067	759,634
-25,052	11,271	1409,934	758,865
-24,038	11,205	1409,067	758,059
-23,023	11,185	1408,025	757,374
-22,009	11,235	1407,041	757,051
-20,994	11,201	1406,134	756,374
-19,979	11,209	1405,089	755,820
-18,965	11,147	1404,385	755,122
-17,950	11,186	1403,253	754,662
-16,936	11,164	1402,437	754,091
-15,921	11,129	1401,511	753,400
-14,906	11,112	1400,671	752,841
-13,892	11,097	1399,759	752,251
-12,877	11,096	1398,703	751,649
-11,863	11,079	1398,228	751,287
-10,848	11,093	1397,262	750,801
-9,833	11,059	1396,162	750,024
-8,819	11,058	1395,210	749,477
-7,804	11,019	1394,515	748,891
-6,790	11,010	1393,482	748,268
-5,775	11,041	1392,237	747,712
-4,760	11,083	1391,454	747,455
-3,746	11,044	1390,572	746,773
-2,731	11,095	1389,475	746,389
-1,717	11,000	1388,921	745,624
-0,702	10,951	1387,164	744,428
0,313	15,029	1301,476	717,108
1,327	31,319	693,749	419,335
2,342	48,073	120,432	79,287
3,356	-0,443	16,606	8,291
4,371	6,310	3,422	1,786
5,386	18,723	0,793	0,446
6,400	-200,000	0,056	0,443
7,415	148,114	-0,142	-0,135
8,429	181,018	-0,200	-0,207
9,444	53,485	-0,307	-0,208
10,459	90,978	-0,246	-0,195
11,473	60,049	-0,362	-0,252
12,488	-68,138	-0,226	-0,062
13,502	27,393	-0,261	-0,155
14,517	2,695	-0,307	-0,156
15,531	368,493	-0,222	-0,317
16,546	132,170	-0,327	-0,297
17,561	18,172	-0,377	-0,211
18,575	122,823	-0,163	-0,144
19,590	184,384	-0,207	-0,216
20,604	-89,611	-0,303	-0,062
21,619	60,415	-0,380	-0,264
22,634	309,333	-0,263	-0,347
23,648	54,449	-0,431	-0,292
24,663	358,662	-0,217	-0,306
25,677	94,845	-0,343	-0,274
26,692	83,963	-0,336	-0,258
27,707	89,625	-0,297	-0,233
28,721	39,029	-0,363	-0,228
29,736	138,651	-0,400	-0,370
30,750	151,096	-0,325	-0,311
31,765	97,240	-0,364	-0,294
32,780	67,508	-0,452	-0,324
33,794	26,142	-0,351	-0,206
34,809	4,719	-0,343	-0,177
35,823	-43,814	-0,316	-0,111
36,838	-1,494	-0,434	-0,215
37,853	-52,989	-0,286	-0,092
38,867	63,825	-0,317	-0,224
39,882	76,742	-0,425	-0,317
40,896	39,759	-0,412	-0,259
41,911	263,268	-0,236	-0,288
42,926	129,432	-0,315	-0,283
43,940	-49,679	-0,463	-0,154
44,955	55,190	-0,272	-0,185
45,969	-120,340	-0,322	-0,038
46,984	71,236	-0,295	-0,215
47,999	-46,026	-0,401	-0,138
49,013	729,083	-0,106	-0,200
50,028	76,829	-0,315	-0,234
51,042	106,983	-0,332	-0,277
52,057	228,646	-0,182	-0,209
53,071	172,081	-0,318	-0,321
54,086	-75,081	-0,370	-0,092
55,101	-59,378	-0,347	-0,104
56,115	66,793	-0,240	-0,171
57,130	-32,166	-0,358	-0,140
58,144	81,274	-0,400	-0,303
59,159	25,599	-0,444	-0,259
60,174	20,546	-0,384	-0,217
61,188	48,027	-0,289	-0,189
62,203	-41,464	-0,374	-0,134
63,217	49,693	-0,348	-0,230
64,232	-42,220	-0,341	-0,122
65,247	31,477	-0,393	-0,236
66,261	-65,445	-0,413	-0,116
67,276	35,455	-0,269	-0,165
68,290	191,643	-0,242	-0,256
69,305	-27,272	-0,288	-0,117
70,320	-58,906	-0,415	-0,125
71,334	6,796	-0,373	-0,194
72,349	-75,045	-0,216	-0,054
73,363	-0,394	-0,333	-0,165
74,378	-30,791	-0,331	-0,130
75,393	-39,525	-0,408	-0,149
76,407	120,419	-0,246	-0,214
77,422	73,411	-0,239	-0,175
78,436	58,349	-0,231	-0,159
79,451	85,348	-0,263	-0,202
80,466	91,272	-0,235	-0,185
81,480	189,570	-0,208	-0,219
82,495	140,367	-0,331	-0,306
83,509	40,283	-0,361	-0,227
84,524	17,246	-0,342	-0,190
85,539	40,687	-0,249	-0,157
86,553	72,301	-0,244	-0,178
87,568	188,383	-0,227	-0,238
88,582	0,254	-0,415	-0,207
89,597	136,216	-0,179	-0,164
90,611	69,005	-0,205	-0,147
91,626	92,859	-0,122	-0,096
92,641	-143,504	-0,304	-0,020
93,655	33,494	-0,280	-0,170
94,670	132,237	-0,251	-0,227
95,684	66,041	-0,379	-0,268
96,699	-83,994	-0,387	-0,085
97,714	46,187	-0,374	-0,242
98,728	117,449	-0,313	-0,269
99,743	11,461	-0,298	-0,160
100,757	385,641	-0,120	-0,173
101,772	-48,619	-0,279	-0,093
102,787	-105,594	-0,356	-0,056
103,801	108,818	-0,323	-0,269
104,816	166,029	-0,234	-0,232
105,830	2,732	-0,229	-0,116
106,845	-115,875	-0,244	0,032
107,860	69,439	-0,312	-0,225
108,874	-18,193	-0,351	-0,153
109,889	27,964	-0,327	-0,192
110,903	800,000	-0,160	-0,398
111,918	540,308	-0,178	-0,298
112,933	-34,343	-0,156	-0,060
113,947	82,979	-0,213	-0,162
114,962	-141,093	-0,288	-0,020
115,976	17,470	-0,217	-0,120
116,991	800,000	-0,128	-0,277
118,006	89,205	-0,285	-0,221
119,020	42,067	-0,295	-0,187
120,035	252,419	-0,282	-0,336
121,049	580,726	-0,116	-0,198
122,064	150,251	-0,287	-0,272
123,079	28,517	-0,205	-0,121
124,093	65,598	-0,171	-0,121
125,108	96,720	-0,238	-0,190
126,122	800,000	-0,122	-0,240
127,137	7,329	-0,266	-0,138
128,151	-94,996	-0,097	-0,018
129,166	37,825	-0,251	-0,155
130,181	-183,235	-0,270	0,003
131,195	-9,835	-0,390	-0,180
132,210	44,033	-0,288	-0,184
133,224	14,079	-0,301	-0,163
134,239	-101,724	-0,250	-0,042
135,254	140,286	-0,272	-0,250
136,268	224,659	-0,192	-0,216
137,283	-17,932	-0,251	-0,109
138,297	384,071	-0,186	-0,268
139,312	148,069	-0,285	-0,268
140,327	-50,741	-0,323	-0,105
141,341	93,600	-0,264	-0,208
142,356	189,199	-0,198	-0,206
143,370	120,963	-0,294	-0,255
144,385	-19,313	-0,329	-0,142
145,400	168,738	-0,157	-0,156
146,414	137,794	-0,179	-0,163
147,429	409,236	-0,209	-0,309
148,443	203,052	-0,204	-0,220
149,458	48,203	-0,217	-0,141
150,473	41,760	-0,365	-0,230
151,487	17,891	-0,239	-0,132
152,502	800,000	-0,085	-0,190
153,516	-44,645	-0,306	-0,106
154,531	12,024	-0,278	-0,148
155,546	122,851	-0,184	-0,161
156,560	414,625	-0,059	-0,088
157,575	10,376	-0,153	-0,081
158,589	331,793	-0,256	-0,344
159,604	-59,787	-0,254	-0,075
160,619	18,001	-0,329	-0,182
161,633	230,632	-0,211	-0,241
162,648	-26,098	-0,175	-0,071
163,662	-63,895	-0,228	-0,064
164,677	-107,503	-0,356	-0,054
165,692	64,076	-0,064	-0,045
166,706	185,860	-0,213	-0,220
167,721	120,347	-0,289	-0,250
168,735	82,334	-0,352	-0,265
169,750	21,382	-0,191	-0,108
170,764	105,518	-0,235	-0,193
171,779	48,061	-0,110	-0,072
172,794	-34,762	-0,230	-0,087
173,808	61,354	-0,320	-0,221
174,823	-40,623	-0,257	-0,092
175,837	139,272	-0,375	-0,343
176,852	193,912	-0,264	-0,278
177,867	41,840	-0,177	-0,112
178,881	247,509	-0,118	-0,139
179,896	48,656	-0,192	-0,125
180,910	-51,171	-0,347	-0,112
181,925	15,181	-0,300	-0,163
182,940	170,186	-0,202	-0,201
183,954	68,749	-0,243	-0,173
184,969	-200,000	-0,077	-0,273
185,983	-65,889	-0,185	-0,051
186,998	230,458	-0,063	-0,072
188,013	51,981	-0,118	-0,078
189,027	-122,192	-0,274	0,031
190,042	161,829	-0,209	-0,204
191,056	726,556	-0,136	-0,253
192,071	119,981	-0,150	-0,129
193,086	-27,675	-0,163	-0,065
194,100	23,311	-0,149	-0,085
195,115	243,407	-0,186	-0,217
196,129	-160,525	-0,225	-0,008
197,144	31,151	-0,127	-0,076
198,159	62,302	-0,202	-0,140
199,173	332,371	-0,171	-0,230
200,188	-76,699	-0,220	-0,053
201,202	92,094	-0,153	-0,119
202,217	68,147	-0,188	-0,133
203,232	48,788	-0,239	-0,155
204,246	108,720	-0,180	-0,149
205,261	88,941	-0,177	-0,136
206,275	230,987	-0,203	-0,230
207,290	126,215	-0,155	-0,136
208,304	175,499	-0,170	-0,171
209,319	106,967	-0,065	-0,053
210,334	159,085	-0,235	-0,226
211,348	217,074	-0,200	-0,220
212,363	800,000	-0,100	-0,279
213,377	253,452	-0,108	-0,128
214,392	35,174	-0,293	-0,178
215,407	-11,703	-0,166	0,075
216,421	-129,768	-0,231	0,022
217,436	192,546	-0,114	-0,119
218,450	-77,954	-0,207	-0,049
219,465	800,000	-0,141	-0,299
220,480	-141,662	-0,214	-0,015
221,494	742,037	-0,124	-0,231
222,509	-70,013	-0,288	-0,075
223,523	-200,000	-0,020	-0,100
224,538	-2,495	-0,162	-0,078
225,553	33,439	-0,255	-0,153
226,567	140,278	-0,181	-0,166
227,582	34,322	-0,156	-0,094
228,596	800,000	-0,083	-0,199
229,611	278,955	-0,139	-0,172
230,626	154,705	-0,148	-0,141
231,640	800,000	-0,069	-0,171
232,655	516,556	-0,165	-0,268
233,669	388,032	-0,199	-0,285
234,684	-103,600	-0,288	-0,046
235,699	100,709	-0,134	-0,108
236,713	115,047	-0,115	-0,097
237,728	38,872	-0,116	-0,072
238,742	164,646	-0,188	-0,183
239,757	245,391	-0,201	-0,234
240,772	9,303	-0,166	-0,086
241,786	139,550	-0,212	-0,193
242,801	-4,632	-0,179	-0,085
243,815	-135,919	-0,245	-0,020
244,830	76,905	-0,156	-0,114
245,844	32,364	-0,229	-0,136
246,859	98,657	-0,182	-0,145
247,874	225,855	-0,210	-0,235
248,888	-64,988	-0,223	-0,062
249,903	636,211	-0,143	-0,252
250,917	8,379	-0,202	-0,104
251,932	38,344	-0,244	-0,150
252,947	-78,511	-0,208	-0,049
253,961	210,528	-0,151	-0,164
254,976	471,760	-0,179	-0,280
255,990	67,489	-0,134	-0,094
257,005	5,412	-0,196	-0,100
258,020	91,567	-0,217	-0,168
259,034	-74,546	-0,218	0,054
260,049	71,281	-0,162	-0,116
261,063	202,063	-0,131	-0,140
262,078	-13,656	-0,327	-0,145
263,093	124,545	-0,252	-0,219
264,107	342,260	-0,165	-0,223
265,122	-200,000	-0,021	-0,262
266,136	-60,437	-0,160	-0,047
267,151	61,789	-0,130	-0,089
268,166	318,179	-0,183	-0,239
269,180	200,048	-0,169	-0,179
270,195	48,975	-0,270	-0,175
271,209	388,549	-0,146	-0,209
272,224	800,000	-0,083	-0,201
273,239	275,137	-0,130	-0,159
274,253	-200,000	-0,039	-0,168
275,268	79,576	-0,220	-0,162
276,282	99,871	-0,204	-0,163
277,297	694,112	-0,120	-0,218
278,312	286,309	-0,226	-0,282
279,326	194,463	-0,069	-0,072
280,341	346,260	-0,119	-0,162
281,355	59,148	-0,173	-0,117
282,370	800,000	-0,091	-0,241
283,384	-12,264	-0,207	-0,093
284,399	800,000	-0,089	-0,174
285,414	-5,985	-0,106	-0,050
286,428	800,000	-0,061	-0,127
287,443	28,591	-0,214	-0,124
288,457	-56,028	-0,079	-0,024
289,472	-55,051	-0,157	-0,048
290,487	74,010	-0,267	-0,193
291,501	151,532	-0,192	-0,180
292,516	-1,260	-0,135	-0,065
293,530	28,176	-0,194	-0,112
294,545	83,932	-0,064	-0,048
295,560	800,000	-0,067	-0,131
296,574	-200,000	-0,014	-0,095
297,589	269,867	-0,209	-0,253
298,603	99,531	-0,200	-0,159
299,618	-78,737	-0,191	-0,044
300,633	-200,000	-0,034	-0,103
301,647	-200,000	-0,029	-0,170
302,662	-33,461	-0,219	-0,083
303,676	249,969	-0,219	-0,256
304,691	444,722	-0,079	-0,119
305,706	-45,333	-0,121	-0,041
306,720	29,921	-0,137	-0,080
307,735	110,241	-0,110	-0,091
308,749	-178,258	-0,035	-0,001
309,764	78,557	-0,096	0,070
310,779	3,710	-0,143	-0,071
311,793	-89,616	-0,109	-0,022
312,808	121,129	-0,234	-0,200
313,822	86,375	-0,212	-0,161
314,837	-24,729	-0,187	-0,076
315,852	-58,252	-0,089	-0,026
316,866	-70,220	-0,245	-0,064
317,881	-30,685	-0,127	0,049
318,895	124,893	-0,126	-0,109
319,910	414,575	-0,173	-0,254
320,925	219,372	-0,171	-0,188
321,939	-180,186	-0,192	0,003
322,954	28,187	-0,111	-0,064
323,968	210,238	-0,024	-0,026
324,983	107,450	-0,076	-0,062
325,997	2,517	-0,217	-0,107
327,012	700,255	-0,124	-0,225
328,027	136,031	-0,239	-0,213
329,041	800,000	-0,045	-0,101
330,056	6,420	-0,216	-0,110
331,070	649,134	-0,088	-0,156
332,085	-168,040	-0,247	-0,006
333,100	149,982	-0,098	0,091
334,114	48,726	-0,216	-0,138
335,129	-110,541	-0,251	0,035
336,143	330,341	-0,151	-0,199
337,158	94,009	-0,116	-0,090
338,173	-5,137	-0,084	-0,040
339,187	306,784	-0,099	-0,126
340,202	120,247	-0,084	0,071
341,216	7,668	-0,134	-0,068
342,231	143,015	-0,192	-0,175
343,246	-90,320	-0,180	-0,035
344,260	137,975	-0,006	-0,005
345,275	308,482	-0,152	-0,194
346,289	-200,000	-0,008	-0,034
347,304	-95,282	-0,157	-0,029
348,319	165,401	-0,113	-0,109
349,333	556,083	-0,135	-0,223
350,348	208,458	-0,138	-0,148
351,362	362,508	-0,169	-0,233
352,377	-136,198	-0,212	0,017
353,392	296,083	-0,062	-0,078
354,406	-167,081	-0,206	0,006
355,421	207,654	1309,420	1399,764
356,435	159,751	1469,495	1400,268
