DTS Sentinel unit serial number:	SN410029Multiplexer serial number:	ORYXHardware model number:	OX2-SRSoftware version number:	ORYX F/W v4,00 Oryx Data Collector v3.7.2.0data status	okinstallation	B3 Nyhavnadifferential loss correction	single-endedforward channel	channel 1reverse channel	N/Adate	2023/12/01time	03:17:30forward acquisition time	300,00reverse acquisition time	0,00gamma	499,1914k internal	0,3212k external	0,3212temperature offset calibration	1,0000default loss term (dB/km)	0,3820temperature slope calibration	1,0000multiplexer offset coefficient	1,0000multiplexer slope coefficient	1,0000fibre end	0,00T internal ref (°C)	8,37T ext. ref 1 (°C)	-6,77T ext. ref 2 (°C)	-6,90length (m)	temperature (°C)	Stokes	anti-Stokes-744,400	119,951	-0,191	-0,172
-743,385	-200,000	-0,081	0,270
-742,371	237,322	-0,164	-0,197
-741,356	800,000	0,152	0,337
-740,342	-200,000	-0,053	-0,237
-739,327	-200,000	-0,072	0,299
-738,312	148,500	-0,250	-0,245
-737,298	800,000	-0,088	0,179
-736,283	800,000	-0,151	-0,308
-735,269	180,438	-0,083	0,089
-734,254	800,000	-0,085	-0,177
-733,239	122,514	-0,287	0,260
-732,225	161,008	-0,150	-0,152
-731,210	424,249	0,057	0,089
-730,196	-200,000	0,007	-0,042
-729,181	-65,283	-0,016	0,005
-728,167	-200,000	0,007	-0,192
-727,152	800,000	0,046	-0,095
-726,137	-19,336	-0,040	-0,018
-725,123	-200,000	0,004	-0,075
-724,108	-143,189	-0,104	0,007
-723,094	-200,000	0,017	-0,092
-722,079	-200,000	-0,012	-0,113
-721,064	800,000	-0,047	0,104
-720,050	702,613	0,031	-0,060
-719,035	-96,982	-0,195	0,037
-718,021	264,795	-0,034	0,043
-717,006	306,622	-0,030	0,041
-715,991	108,198	-0,057	0,049
-714,977	-119,643	-0,177	-0,022
-713,962	584,577	-0,012	0,022
-712,948	123,274	0,171	0,155
-711,933	472,322	-0,028	0,046
-710,918	-200,000	0,023	-0,090
-709,904	-188,183	-0,082	-0,001
-708,889	-200,000	-0,008	-0,083
-707,875	-97,492	-0,045	-0,008
-706,860	258,373	0,133	-0,166
-705,845	-200,000	0,000	0,024
-704,831	-200,000	-0,004	0,048
-703,816	-148,442	-0,121	0,007
-702,802	402,396	-0,088	-0,134
-701,787	-200,000	-0,005	-0,177
-700,772	5,371	-0,148	-0,079
-699,758	800,000	-0,063	0,145
-698,743	-172,718	0,072	0,002
-697,729	-200,000	0,010	0,046
-696,714	-200,000	-0,021	0,222
-695,699	186,508	-0,097	-0,104
-694,685	800,000	-0,042	-0,086
-693,670	616,826	0,071	0,130
-692,656	-99,332	0,046	-0,008
-691,641	800,000	-0,021	0,063
-690,627	183,053	0,132	0,141
-689,612	10,676	-0,160	0,088
-688,597	800,000	-0,027	-0,057
-687,583	-121,362	-0,112	-0,013
-686,568	-200,000	0,012	-0,133
-685,554	138,828	0,046	0,044
-684,539	29,290	-0,091	-0,056
-683,524	109,766	0,079	-0,069
-682,510	-200,000	-0,003	0,170
-681,495	114,145	-0,115	0,102
-680,481	23,595	-0,156	-0,093
-679,466	360,615	0,102	-0,149
-678,451	-200,000	0,010	-0,084
-677,437	317,728	-0,028	0,039
-676,422	551,939	0,042	-0,074
-675,408	583,078	0,055	0,098
-674,393	-200,000	0,001	-0,048
-673,378	800,000	-0,070	-0,160
-672,364	800,000	-0,072	-0,200
-671,349	-112,581	0,023	-0,003
-670,335	-137,514	-0,046	-0,004
-669,320	-200,000	0,023	0,173
-668,305	-4,211	-0,018	-0,009
-667,291	800,000	-0,036	-0,110
-666,276	10,088	-0,105	-0,057
-665,262	119,159	0,098	0,087
-664,247	-77,123	-0,177	0,044
-663,232	800,000	0,012	0,028
-662,218	271,280	0,027	-0,034
-661,203	-87,343	-0,101	0,022
-660,189	-22,072	0,036	0,016
-659,174	123,813	0,061	-0,055
-658,159	260,070	-0,067	0,083
-657,145	-69,112	-0,027	-0,007
-656,130	440,558	0,074	0,118
-655,116	-143,461	-0,045	0,003
-654,101	800,000	0,060	0,162
-653,086	800,000	-0,039	0,109
-652,072	-200,000	-0,004	0,073
-651,057	-200,000	-0,012	-0,047
-650,043	-74,638	0,038	-0,010
-649,028	-101,595	0,060	-0,010
-648,014	-83,023	-0,159	0,037
-646,999	-198,763	0,171	0,001
-645,984	365,958	0,064	-0,093
-644,970	755,121	-0,054	0,106
-643,955	800,000	-0,023	-0,057
-642,941	-158,043	-0,218	0,009
-641,926	56,416	-0,069	-0,049
-640,911	24,242	0,159	0,095
-639,897	186,159	0,066	0,071
-638,882	800,000	-0,025	-0,062
-637,868	800,000	-0,018	-0,057
-636,853	-75,606	-0,047	0,012
-635,838	-200,000	-0,008	-0,078
-634,824	-99,979	-0,114	0,020
-633,809	800,000	-0,016	0,035
-632,795	-200,000	0,037	-0,127
-631,780	27,773	0,080	-0,049
-630,765	198,659	0,013	-0,014
-629,751	331,093	-0,043	-0,060
-628,736	-25,774	0,122	0,052
-627,722	269,390	-0,025	0,031
-626,707	-200,000	0,011	-0,066
-625,692	-141,995	-0,066	-0,005
-624,678	800,000	-0,037	0,096
-623,663	212,037	-0,032	-0,037
-622,649	185,655	-0,153	-0,164
-621,634	-200,000	-0,012	-0,166
-620,619	-37,186	-0,114	-0,044
-619,605	4,557	0,149	0,078
-618,590	-10,707	0,118	-0,056
-617,576	800,000	-0,027	0,065
-616,561	199,698	0,127	0,140
-615,546	120,106	-0,039	0,035
-614,532	24,094	-0,135	-0,080
-613,517	-7,955	0,087	0,042
-612,503	-79,230	0,058	0,014
-611,488	800,000	0,024	-0,070
-610,474	78,445	0,051	-0,039
-609,459	-181,447	0,049	-0,001
-608,444	-200,000	0,004	-0,086
-607,430	49,331	0,124	-0,084
-606,415	226,402	0,035	-0,042
-605,401	268,604	0,097	0,122
-604,386	415,554	-0,067	-0,103
-603,371	81,366	0,083	-0,065
-602,357	-200,000	-0,003	-0,047
-601,342	115,711	-0,121	-0,107
-600,328	146,326	-0,087	-0,085
-599,313	26,556	-0,068	-0,041
-598,298	416,718	0,056	0,087
-597,284	444,388	-0,009	0,014
-596,269	53,022	0,057	-0,039
-595,255	800,000	0,063	0,131
-594,240	-140,430	-0,137	0,010
-593,225	139,179	-0,062	-0,059
-592,211	61,197	0,080	-0,057
-591,196	252,844	-0,015	0,018
-590,182	-200,000	0,012	-0,152
-589,167	185,569	0,046	0,050
-588,152	800,000	0,066	0,149
-587,138	-3,469	-0,081	0,041
-586,123	145,013	-0,085	0,082
-585,109	411,811	-0,051	-0,078
-584,094	-3,167	-0,152	0,076
-583,079	-45,622	0,129	0,046
-582,065	-200,000	-0,012	0,078
-581,050	62,285	0,083	-0,059
-580,036	-200,000	0,003	0,092
-579,021	-200,000	-0,006	-0,057
-578,006	800,000	-0,052	-0,131
-576,992	568,568	0,049	0,085
-575,977	-200,000	-0,007	0,044
-574,963	-97,479	0,156	0,029
-573,948	-110,359	-0,104	0,015
-572,934	-200,000	0,028	0,144
-571,919	-17,523	-0,027	-0,012
-570,904	692,499	-0,080	-0,153
-569,890	-18,506	0,053	-0,024
-568,875	-36,461	0,042	-0,016
-567,861	241,158	0,101	0,122
-566,846	-200,000	0,010	0,182
-565,831	-200,000	-0,010	0,108
-564,817	-200,000	-0,010	-0,059
-563,802	353,443	-0,056	0,080
-562,788	399,514	-0,090	-0,135
-561,773	-42,216	-0,045	0,017
-560,758	179,936	0,114	0,120
-559,744	-200,000	-0,033	0,154
-558,729	228,833	0,040	0,047
-557,715	-35,924	-0,131	0,051
-556,700	205,158	-0,072	-0,081
-555,685	335,468	-0,085	-0,119
-554,671	-110,433	-0,028	-0,004
-553,656	77,543	0,047	0,036
-552,642	59,289	0,098	0,069
-551,627	-200,000	0,019	0,091
-550,612	-200,000	-0,004	-0,018
-549,598	102,021	-0,049	-0,041
-548,583	139,940	0,017	0,016
-547,569	527,555	0,042	0,071
-546,554	340,452	0,076	0,108
-545,539	-200,000	-0,007	0,044
-544,525	-44,147	-0,168	0,060
-543,510	-200,000	0,002	-0,096
-542,496	-34,935	-0,107	-0,042
-541,481	-154,515	-0,058	0,003
-540,466	301,528	0,086	-0,115
-539,452	-67,451	-0,059	-0,017
-538,437	-103,503	-0,032	0,005
-537,423	104,680	-0,056	-0,048
-536,408	-181,793	-0,163	-0,002
-535,393	312,429	-0,032	0,044
-534,379	-200,000	0,008	-0,074
-533,364	800,000	-0,054	-0,134
-532,350	-176,344	-0,052	0,001
-531,335	73,250	0,103	0,077
-530,321	-1,704	0,041	0,021
-529,306	-52,214	-0,166	-0,055
-528,291	-68,318	-0,101	-0,028
-527,277	-9,514	-0,074	0,035
-526,262	-34,833	0,040	0,016
-525,248	48,367	0,012	-0,008
-524,233	521,815	0,018	0,030
-523,218	-94,959	-0,031	-0,006
-522,204	176,319	-0,011	0,012
-521,189	392,895	-0,017	-0,025
-520,175	61,362	0,035	-0,025
-519,160	686,704	-0,049	-0,092
-518,145	-200,000	0,016	0,080
-517,131	335,427	-0,083	0,117
-516,116	-200,000	0,011	0,036
-515,102	8,284	0,077	-0,041
-514,087	-90,873	-0,113	0,023
-513,072	-59,312	-0,099	-0,031
-512,058	-114,316	0,152	-0,021
-511,043	272,346	-0,042	-0,053
-510,029	-200,000	-0,023	0,156
-509,014	94,104	0,069	0,056
-507,999	-38,650	0,095	-0,036
-506,985	215,596	-0,093	-0,106
-505,970	-13,000	0,072	-0,034
-504,956	404,450	-0,051	-0,078
-503,941	77,200	-0,055	0,042
-502,926	-94,820	0,167	0,032
-501,912	-200,000	-0,002	-0,094
-500,897	-200,000	-0,007	-0,096
-499,883	-112,021	-0,073	0,010
-498,868	163,781	-0,069	-0,070
-497,853	210,668	-0,027	-0,030
-496,839	-131,497	0,087	0,008
-495,824	599,123	-0,067	0,121
-494,810	800,000	-0,055	-0,141
-493,795	800,000	0,038	0,087
-492,781	60,115	0,098	-0,070
-491,766	-82,972	0,059	-0,014
-490,751	100,723	0,046	-0,038
-489,737	-64,709	0,072	0,021
-488,722	-124,860	0,089	0,010
-487,708	-200,000	-0,002	-0,048
-486,693	-49,148	0,101	-0,035
-485,678	-200,000	-0,016	-0,112
-484,664	85,873	-0,067	0,053
-483,649	-152,586	-0,033	-0,002
-482,635	-200,000	0,033	0,133
-481,620	800,000	0,019	0,040
-480,605	-85,694	0,094	0,021
-479,591	-75,728	0,152	-0,038
-478,576	36,433	-0,118	0,074
-477,562	582,935	0,062	-0,110
-476,547	-12,666	-0,127	-0,059
-475,532	-200,000	0,019	-0,145
-474,518	-26,510	0,091	0,038
-473,503	800,000	0,049	0,132
-472,489	-34,466	0,138	0,054
-471,474	675,916	0,025	-0,047
-470,459	800,000	-0,045	0,109
-469,445	147,308	-0,029	0,028
-468,430	800,000	0,029	0,064
-467,416	-200,000	-0,026	-0,092
-466,401	-83,765	0,028	0,006
-465,386	-126,657	0,114	0,012
-464,372	604,964	-0,064	0,114
-463,357	136,570	-0,049	0,046
-462,343	-40,692	-0,026	-0,009
-461,328	240,714	0,031	-0,037
-460,313	-91,123	-0,168	0,034
-459,299	116,909	-0,118	-0,104
-458,284	-200,000	0,010	-0,175
-457,270	20,976	-0,102	0,059
-456,255	-75,757	0,117	0,030
-455,241	800,000	-0,084	0,205
-454,226	-172,680	0,117	-0,003
-453,211	800,000	0,013	0,037
-452,197	61,127	0,078	-0,056
-451,182	-110,178	-0,138	0,020
-450,168	11,313	0,149	0,081
-449,153	800,000	-0,023	0,064
-448,138	800,000	0,034	0,068
-447,124	400,607	-0,098	-0,149
-446,109	-200,000	0,010	0,082
-445,095	-200,000	-0,004	0,130
-444,080	13,108	-0,128	0,071
-443,065	-200,000	0,021	0,074
-442,051	-200,000	-0,009	0,099
-441,036	0,323	-0,098	-0,050
-440,022	-200,000	0,012	-0,166
-439,007	220,982	-0,078	-0,090
-437,992	66,950	0,109	-0,079
-436,978	122,683	0,085	0,077
-435,963	-200,000	-0,002	-0,026
-434,949	147,118	0,103	0,099
-433,934	-25,941	0,103	0,043
-432,919	-85,075	-0,136	0,030
-431,905	92,182	-0,051	-0,041
-430,890	216,523	0,063	0,072
-429,876	15,042	-0,057	-0,032
-428,861	800,000	0,065	0,169
-427,846	-200,000	-0,003	-0,112
-426,832	237,254	-0,048	0,058
-425,817	-76,555	0,039	0,010
-424,803	73,188	-0,049	-0,037
-423,788	376,395	-0,046	-0,067
-422,773	196,891	0,047	0,052
-421,759	-200,000	0,004	-0,035
-420,744	434,290	-0,076	0,119
-419,730	-104,552	-0,057	0,009
-418,715	800,000	-0,035	-0,095
-417,701	-200,000	0,026	0,144
-416,686	54,600	-0,068	0,047
-415,671	75,686	-0,125	0,095
-414,657	-200,000	-0,033	-0,108
-413,642	267,840	0,061	0,077
-412,628	562,952	0,010	0,017
-411,613	467,030	0,046	-0,074
-410,598	-140,964	-0,041	-0,003
-409,584	-200,000	0,033	-0,142
-408,569	-52,861	0,064	-0,021
-407,555	800,000	0,046	0,107
-406,540	-143,502	0,136	0,009
-405,525	-200,000	0,014	-0,101
-404,511	-200,000	-0,009	-0,072
-403,496	210,498	0,058	-0,066
-402,482	-36,481	-0,116	-0,045
-401,467	713,351	0,077	0,147
-400,452	-176,882	0,026	-0,000
-399,438	57,696	-0,145	-0,101
-398,423	154,268	-0,038	0,037
-397,409	131,448	-0,160	-0,148
-396,394	-200,000	0,006	-0,089
-395,379	121,434	-0,148	-0,132
-394,365	-200,000	0,008	0,041
-393,350	-200,000	-0,008	0,040
-392,336	-31,481	-0,146	0,058
-391,321	-145,917	-0,080	0,005
-390,306	-2,160	-0,120	-0,060
-389,292	296,621	-0,032	-0,042
-388,277	229,636	-0,056	-0,066
-387,263	265,780	0,079	0,098
-386,248	-200,000	0,012	0,063
-385,233	394,010	0,023	0,034
-384,219	-200,000	-0,026	-0,141
-383,204	-200,000	-0,019	0,062
-382,190	-73,380	0,101	0,026
-381,175	-195,395	-0,081	-0,000
-380,160	242,766	0,056	-0,067
-379,146	-200,000	0,001	0,092
-378,131	-40,957	0,176	0,065
-377,117	275,273	0,106	0,134
-376,102	-148,886	-0,077	0,004
-375,088	800,000	0,040	-0,088
-374,073	800,000	0,031	-0,074
-373,058	-20,693	-0,063	0,028
-372,044	34,781	0,053	-0,033
-371,029	800,000	-0,038	0,098
-370,015	-200,000	-0,011	-0,110
-369,000	148,040	0,077	-0,074
-367,985	-12,949	-0,084	0,039
-366,971	800,000	-0,005	0,012
-365,956	-200,000	0,044	0,143
-364,942	-200,000	-0,007	0,064
-363,927	-13,059	0,096	0,044
-362,912	277,672	-0,115	0,146
-361,898	-200,000	-0,056	0,179
-360,883	-102,714	0,121	0,020
-359,869	-200,000	0,020	-0,103
-358,854	-200,000	0,003	0,121
-357,839	-200,000	0,020	0,090
-356,825	-200,000	0,018	0,153
-355,810	42,659	-0,035	-0,022
-354,796	-82,339	0,088	-0,020
-353,781	302,038	-0,040	-0,053
-352,766	-200,000	0,002	-0,032
-351,752	-200,000	-0,005	-0,025
-350,737	-58,981	0,053	0,016
-349,723	-10,851	0,021	-0,010
-348,708	-64,522	-0,020	0,006
-347,693	-124,209	-0,090	-0,010
-346,679	-133,285	0,024	-0,002
-345,664	-63,791	-0,086	-0,025
-344,650	-106,837	0,078	-0,012
-343,635	800,000	-0,034	0,094
-342,620	800,000	0,014	-0,033
-341,606	392,625	0,021	-0,031
-340,591	-200,000	0,016	-0,091
-339,577	-200,000	0,009	-0,028
-338,562	-93,936	-0,091	0,018
-337,548	-100,420	-0,091	-0,016
-336,533	220,894	0,076	0,087
-335,518	800,000	0,021	0,044
-334,504	-59,186	0,021	0,006
-333,489	-200,000	-0,013	0,083
-332,475	637,095	0,061	-0,110
-331,460	177,617	0,041	-0,042
-330,445	425,678	-0,063	-0,098
-329,431	-200,000	0,023	0,097
-328,416	-80,374	0,113	-0,027
-327,402	247,195	0,045	-0,054
-326,387	-200,000	0,013	0,060
-325,372	-0,445	-0,061	0,031
-324,358	554,203	0,028	-0,049
-323,343	800,000	0,023	0,056
-322,329	355,951	0,124	0,176
-321,314	-119,280	0,038	0,005
-320,299	-7,814	0,129	-0,062
-319,285	-200,000	-0,006	0,020
-318,270	93,957	-0,079	0,064
-317,256	-0,272	-0,068	-0,034
-316,241	800,000	-0,014	0,038
-315,226	117,317	0,127	-0,112
-314,212	-16,518	0,114	-0,051
-313,197	-200,000	0,012	0,131
-312,183	-16,205	-0,103	-0,047
-311,168	-136,921	0,014	0,001
-310,153	126,775	0,027	-0,025
-309,139	800,000	-0,022	-0,055
-308,124	68,828	0,079	-0,058
-307,110	402,012	0,038	0,057
-306,095	3,052	-0,069	0,036
-305,080	321,775	-0,028	0,038
-304,066	172,524	-0,023	0,023
-303,051	-0,788	-0,126	0,063
-302,037	677,169	-0,039	-0,072
-301,022	10,401	0,094	-0,051
-300,008	-200,000	0,010	0,062
-298,993	276,043	-0,051	0,065
-297,978	76,821	0,023	0,017
-296,964	87,366	0,039	0,031
-295,949	800,000	-0,031	-0,065
-294,935	228,977	-0,070	0,081
-293,920	-200,000	-0,002	0,042
-292,905	94,316	-0,064	-0,051
-291,891	-91,796	0,019	0,004
-290,876	132,532	0,069	0,064
-289,862	-53,341	-0,098	-0,032
-288,847	437,177	-0,056	-0,088
-287,832	-200,000	-0,004	0,018
-286,818	203,247	-0,126	-0,139
-285,803	-65,681	0,086	0,024
-284,789	9,242	0,089	-0,048
-283,774	27,518	-0,136	-0,081
-282,759	-200,000	0,016	0,056
-281,745	201,571	0,148	-0,162
-280,730	-200,000	-0,009	-0,135
-279,716	304,686	-0,012	0,017
-278,701	-200,000	-0,014	0,068
-277,686	119,738	0,090	-0,080
-276,672	-74,778	0,080	-0,020
-275,657	89,914	-0,050	0,040
-274,643	-112,437	0,093	-0,013
-273,628	255,998	-0,056	-0,069
-272,613	742,632	0,054	-0,103
-271,599	-113,577	0,057	-0,008
-270,584	-124,396	0,114	0,012
-269,570	110,405	-0,011	0,009
-268,555	800,000	0,033	0,073
-267,540	287,151	0,053	0,069
-266,526	-72,815	0,070	0,018
-265,511	249,237	-0,041	0,049
-264,497	-169,701	0,164	-0,004
-263,482	-200,000	-0,000	0,037
-262,467	8,105	-0,061	0,032
-261,453	-8,060	-0,068	-0,032
-260,438	21,815	-0,099	-0,057
-259,424	-200,000	-0,016	-0,058
-258,409	722,093	-0,032	-0,060
-257,395	-135,736	-0,020	0,002
-256,380	123,623	0,138	0,123
-255,365	-141,006	-0,051	0,004
-254,351	800,000	-0,029	0,091
-253,336	-96,436	-0,150	0,028
-252,322	-154,507	-0,139	-0,007
-251,307	291,052	0,100	-0,130
-250,292	646,101	-0,016	-0,029
-249,278	-138,514	0,068	0,005
-248,263	123,799	0,034	0,031
-247,249	-103,076	0,135	0,022
-246,234	-200,000	-0,023	-0,087
-245,219	179,565	-0,097	0,101
-244,205	111,924	0,048	0,041
-243,190	-64,046	0,130	-0,037
-242,176	800,000	-0,017	-0,035
-241,161	163,233	0,076	0,076
-240,146	-96,784	-0,072	0,013
-239,132	800,000	0,073	-0,171
-238,117	196,926	-0,037	0,040
-237,103	352,006	-0,099	-0,140
-236,088	145,460	-0,022	-0,021
-235,073	-18,696	0,018	-0,008
-234,059	-61,057	0,070	-0,021
-233,044	192,533	0,087	0,094
-232,030	800,000	-0,040	0,111
-231,015	-200,000	0,007	-0,064
-230,000	50,660	0,014	-0,009
-228,986	-151,901	0,083	0,004
-227,971	373,591	0,041	0,060
-226,957	229,158	0,021	-0,024
-225,942	289,569	0,065	-0,084
-224,927	-197,034	-0,093	-0,000
-223,913	125,978	-0,084	0,075
-222,898	-64,803	-0,070	-0,020
-221,884	163,936	-0,039	-0,039
-220,869	204,322	-0,067	0,074
-219,855	-144,992	0,087	-0,006
-218,840	-200,000	-0,008	-0,056
-217,825	-200,000	-0,012	0,103
-216,811	-20,684	-0,035	0,015
-215,796	800,000	-0,019	-0,042
-214,782	0,173	0,187	-0,094
-213,767	767,419	0,043	-0,083
-212,752	-200,000	0,014	-0,095
-211,738	-200,000	0,037	0,175
-210,723	0,506	0,103	0,052
-209,709	229,233	-0,048	0,055
-208,694	77,437	-0,102	-0,077
-207,679	800,000	0,024	-0,071
-206,665	162,474	-0,112	-0,111
-205,650	-114,410	0,198	0,027
-204,636	65,152	0,079	0,056
-203,621	246,129	0,056	-0,067
-202,606	204,852	-0,074	-0,081
-201,592	151,605	-0,022	-0,022
-200,577	-123,498	-0,086	0,010
-199,563	-200,000	0,050	0,160
-198,548	800,000	0,050	0,124
-197,533	-200,000	0,003	0,065
-196,519	114,259	-0,095	0,082
-195,504	-200,000	-0,004	0,028
-194,490	-200,000	-0,022	-0,114
-193,475	-23,222	0,009	-0,004
-192,460	-6,622	-0,111	0,053
-191,446	248,122	0,088	-0,106
-190,431	189,814	0,074	0,079
-189,417	800,000	-0,048	-0,114
-188,402	40,162	-0,052	-0,033
-187,387	-200,000	-0,019	-0,132
-186,373	-73,695	-0,050	-0,013
-185,358	-200,000	-0,011	-0,197
-184,344	138,607	0,031	-0,029
-183,329	-92,987	-0,107	-0,021
-182,315	59,801	0,060	0,042
-181,300	-200,000	-0,027	-0,138
-180,285	53,315	-0,010	0,007
-179,271	-200,000	-0,071	-0,225
-178,256	-200,000	-0,019	-0,087
-177,242	289,831	-0,065	-0,084
-176,227	-172,926	-0,011	0,000
-175,212	-200,000	-0,015	0,129
-174,198	-15,408	0,074	0,033
-173,183	17,712	-0,075	-0,042
-172,169	17,382	-0,095	-0,053
-171,154	-200,000	0,006	-0,020
-170,139	-115,511	0,046	-0,006
-169,125	688,723	0,030	0,056
-168,110	92,228	0,089	0,071
-167,096	-77,298	-0,156	0,038
-166,081	-56,073	-0,140	0,044
-165,066	-200,000	-0,014	-0,067
-164,052	-119,148	0,097	0,012
-163,037	-133,537	0,098	-0,009
-162,023	800,000	0,026	0,064
-161,008	186,131	0,058	0,062
-159,993	800,000	-0,027	0,078
-158,979	800,000	-0,043	0,091
-157,964	0,768	0,087	0,044
-156,950	-200,000	-0,028	-0,133
-155,935	-129,344	0,089	-0,009
-154,920	117,903	0,074	0,065
-153,906	-200,000	0,032	0,103
-152,891	-92,802	0,080	0,016
-151,877	-91,847	-0,194	0,039
-150,862	-10,614	0,042	-0,019
-149,847	335,872	-0,030	-0,041
-148,833	-91,847	0,045	-0,009
-147,818	800,000	0,037	0,074
-146,804	72,784	0,026	0,019
-145,789	-173,416	0,155	0,003
-144,775	-104,248	-0,171	-0,028
-143,760	292,582	-0,101	-0,130
-142,745	312,923	0,069	-0,092
-141,731	-9,712	0,075	-0,035
-140,716	800,000	-0,102	0,230
-139,702	-200,000	0,004	-0,019
-138,687	-14,334	-0,096	0,044
-137,672	-3,631	-0,119	0,059
-136,658	136,634	0,075	-0,070
-135,643	-200,000	0,009	-0,217
-134,629	-200,000	0,034	0,118
-133,614	-83,769	0,176	-0,039
-132,599	-200,000	0,014	-0,062
-131,585	487,210	0,067	0,108
-130,570	-200,000	-0,030	-0,112
-129,556	-118,517	-0,060	0,007
-128,541	800,000	-0,025	-0,058
-127,526	-200,000	-0,014	0,067
-126,512	-121,520	0,035	-0,004
-125,497	53,864	-0,045	-0,031
-124,483	-157,335	-0,057	-0,002
-123,468	56,857	-0,084	0,058
-122,453	96,859	-0,243	-0,197
-121,439	-63,742	-0,054	0,016
-120,424	103,040	0,108	0,089
-119,410	-161,838	-0,098	-0,003
-118,395	335,160	-0,045	0,062
-117,380	-200,000	0,014	-0,101
-116,366	-200,000	-0,020	0,076
-115,351	367,671	-0,113	-0,162
-114,337	-200,000	0,002	0,018
-113,322	-200,000	0,013	-0,063
-112,307	800,000	-0,010	0,028
-111,293	93,496	-0,114	-0,092
-110,278	-200,000	-0,026	0,120
-109,264	-200,000	-0,008	0,199
-108,249	-200,000	-0,015	-0,129
-107,234	10,782	-0,138	-0,074
-106,220	800,000	0,059	-0,116
-105,205	800,000	0,040	-0,089
-104,191	314,186	-0,035	-0,046
-103,176	310,587	0,059	0,078
-102,162	-200,000	-0,015	0,143
-101,147	-61,832	-0,169	-0,050
-100,132	-200,000	0,001	-0,065
-99,118	375,550	-0,025	0,037
-98,103	800,000	-0,049	-0,098
-97,089	-200,000	0,044	-0,168
-96,074	-134,220	0,099	0,009
-95,059	-48,285	0,091	-0,031
-94,045	-160,086	0,135	-0,005
-93,030	44,296	-0,088	-0,057
-92,016	65,605	0,035	0,025
-91,001	229,630	-0,072	0,084
-89,986	180,393	0,065	0,067
-88,972	-173,505	-0,099	0,002
-87,957	35,633	-0,043	-0,026
-86,943	247,548	-0,068	0,081
-85,928	531,906	0,016	-0,026
-84,913	355,799	-0,079	0,111
-83,899	800,000	-0,018	-0,039
-82,884	152,346	0,124	0,119
-81,870	337,351	-0,108	0,149
-80,855	0,997	0,093	-0,047
-79,840	88,417	-0,132	-0,103
-78,826	270,885	0,027	0,033
-77,811	800,000	-0,010	-0,026
-76,797	156,400	-0,085	0,083
-75,782	3,452	0,094	0,048
-74,767	-9,562	-0,143	0,067
-73,753	-76,299	0,138	-0,034
-72,738	-200,000	0,014	0,182
-71,724	-77,626	-0,111	0,027
-70,709	14,347	0,066	-0,036
-69,694	800,000	0,035	0,070
-68,680	800,000	-0,086	0,224
-67,665	-200,000	0,011	0,077
-66,651	-200,000	-0,003	0,014
-65,636	-200,000	-0,028	-0,185
-64,622	-46,836	-0,054	0,018
-63,607	-200,000	0,004	-0,030
-62,592	50,706	-0,098	0,065
-61,578	-200,000	-0,001	-0,041
-60,563	82,929	-0,041	-0,031
-59,549	131,031	-0,120	0,109
-58,534	59,051	-2,168	-1,503
-57,519	497,635	-1,181	-1,926
-56,505	-200,000	-0,528	-4,559
-55,490	453,038	0,931	1,459
-54,476	800,000	5,478	12,144
-53,461	-200,000	22,346	347,504
-52,446	800,000	758,179	2306,898
-51,432	536,787	1648,184	2771,892
-50,417	68,772	1646,513	1191,068
-49,403	16,072	1523,084	844,398
-48,388	10,234	1448,340	774,878
-47,373	19,349	1440,949	814,394
-46,359	13,730	1429,394	781,275
-45,344	8,500	1425,614	754,401
-44,330	8,492	1423,296	753,107
-43,315	8,405	1421,871	751,911
-42,300	8,452	1419,959	751,096
-41,286	8,485	1418,715	750,560
-40,271	8,444	1417,454	749,672
-39,257	8,429	1416,415	749,021
-38,242	8,468	1415,291	748,582
-37,227	8,440	1414,175	747,829
-36,213	8,480	1412,816	747,270
-35,198	8,490	1411,635	746,661
-34,184	8,498	1410,776	746,215
-33,169	8,411	1409,180	744,934
-32,154	8,388	1408,410	744,391
-31,140	8,458	1407,161	744,028
-30,125	8,465	1405,747	743,283
-29,111	8,448	1404,892	742,721
-28,096	8,474	1403,612	742,136
-27,082	8,409	1402,287	741,102
-26,067	8,367	1401,530	740,480
-25,052	8,441	1400,351	740,172
-24,038	8,438	1399,195	739,515
-23,023	8,366	1398,428	738,746
-22,009	8,392	1397,579	738,389
-20,994	8,390	1396,172	737,608
-19,979	8,393	1395,352	737,158
-18,965	8,374	1394,217	736,441
-17,950	8,360	1393,279	735,854
-16,936	8,345	1392,542	735,364
-15,921	8,285	1391,807	734,670
-14,906	8,327	1390,597	734,196
-13,892	8,388	1389,607	733,926
-12,877	8,288	1388,874	733,047
-11,863	8,337	1388,214	732,897
-10,848	8,340	1387,232	732,362
-9,833	8,268	1386,428	731,578
-8,819	8,215	1385,497	730,815
-7,804	8,219	1384,561	730,307
-6,790	8,176	1383,511	729,530
-5,775	8,227	1382,317	729,102
-4,760	8,253	1381,553	728,791
-3,746	8,237	1380,462	728,114
-2,731	8,246	1379,422	727,580
-1,717	8,255	1378,771	727,246
-0,702	8,200	1376,948	726,003
0,313	12,211	1288,075	697,350
1,327	28,195	679,207	403,431
2,342	44,161	116,999	75,529
3,356	-3,570	16,671	8,145
4,371	1,953	3,729	1,891
5,386	28,492	1,311	0,780
6,400	800,000	0,214	0,595
7,415	8,115	-0,048	-0,025
8,429	-155,782	-0,202	-0,009
9,444	129,169	-0,312	-0,280
10,459	-42,578	-0,401	-0,143
11,473	-16,610	-0,300	-0,133
12,488	-9,771	-0,447	-0,209
13,502	-13,989	-0,188	-0,085
14,517	235,329	-0,219	-0,256
15,531	184,691	-0,336	-0,351
16,546	181,036	-0,282	-0,292
17,561	311,812	-0,257	-0,340
18,575	194,645	-0,202	-0,216
19,590	144,759	-0,142	-0,134
20,604	-99,707	-0,200	-0,035
21,619	27,796	-0,428	-0,253
22,634	41,865	-0,358	-0,228
23,648	-4,391	-0,443	-0,215
24,663	-7,759	-0,434	-0,205
25,677	29,181	-0,331	-0,197
26,692	366,937	-0,167	-0,237
27,707	11,432	-0,466	-0,251
28,721	195,752	-0,303	-0,325
29,736	112,820	-0,371	-0,316
30,750	119,367	-0,382	-0,333
31,765	108,352	-0,366	-0,307
32,780	44,894	-0,339	-0,219
33,794	53,845	-0,291	-0,196
34,809	92,291	-0,314	-0,249
35,823	97,989	-0,398	-0,322
36,838	52,222	-0,441	-0,295
37,853	86,087	-0,437	-0,338
38,867	86,267	-0,389	-0,301
39,882	51,139	-0,405	-0,269
40,896	-111,256	-0,330	-0,047
41,911	-28,256	-0,241	-0,098
42,926	52,568	-0,433	-0,290
43,940	34,315	-0,314	-0,192
44,955	97,726	-0,246	-0,198
45,969	204,312	-0,234	-0,255
46,984	100,498	-0,269	-0,219
47,999	45,024	-0,341	-0,220
49,013	56,238	-0,292	-0,199
50,028	62,193	-0,250	-0,175
51,042	42,348	-0,298	-0,190
52,057	73,993	-0,353	-0,260
53,071	-23,482	-0,412	-0,173
54,086	13,714	-0,184	-0,100
55,101	-19,045	-0,429	-0,186
56,115	-11,262	-0,389	-0,179
57,130	40,881	-0,323	-0,204
58,144	121,203	-0,425	-0,372
59,159	65,177	-0,313	-0,221
60,174	120,329	-0,360	-0,313
61,188	17,214	-0,334	-0,185
62,203	43,393	-0,301	-0,192
63,217	34,173	-0,340	-0,207
64,232	-71,657	-0,352	-0,091
65,247	21,088	-0,463	-0,263
66,261	240,324	-0,303	-0,354
67,276	196,327	-0,285	-0,304
68,290	-24,222	-0,421	-0,175
69,305	-65,908	-0,237	-0,066
70,320	24,854	-0,334	-0,194
71,334	180,268	-0,198	-0,204
72,349	183,746	-0,165	-0,172
73,363	81,452	-0,365	-0,276
74,378	98,205	-0,300	-0,242
75,393	140,065	-0,176	-0,163
76,407	167,370	-0,188	-0,187
77,422	37,278	-0,252	-0,156
78,436	-110,174	-0,311	-0,045
79,451	72,637	-0,318	-0,232
80,466	527,271	-0,152	-0,252
81,480	61,583	-0,395	-0,275
82,495	-49,479	-0,347	-0,115
83,509	8,515	-0,318	-0,167
84,524	75,763	-0,263	-0,194
85,539	86,373	-0,151	-0,116
86,553	-24,552	-0,301	-0,125
87,568	27,571	-0,302	-0,177
88,582	206,888	-0,180	-0,196
89,597	-4,411	-0,350	-0,169
90,611	23,198	-0,278	-0,160
91,626	19,511	-0,181	-0,101
92,641	-54,363	-0,185	-0,058
93,655	69,228	-0,245	-0,176
94,670	-8,914	-0,331	-0,154
95,684	57,133	-0,299	-0,204
96,699	437,158	-0,182	-0,278
97,714	-7,662	-0,156	-0,073
98,728	-88,471	-0,337	-0,070
99,743	-40,909	-0,287	-0,103
100,757	-119,405	-0,422	0,051
101,772	158,169	-0,247	-0,239
102,787	74,012	-0,286	-0,210
103,801	166,464	-0,220	-0,218
104,816	62,591	-0,371	-0,259
105,830	51,944	-0,153	-0,102
106,845	-66,706	-0,219	-0,060
107,860	45,512	-0,261	-0,168
108,874	-173,847	-0,236	-0,005
109,889	155,025	-0,173	-0,167
110,903	4,567	-0,280	-0,143
111,918	-183,392	-0,236	-0,003
112,933	69,320	-0,160	-0,115
113,947	98,959	-0,250	-0,202
114,962	-134,190	-0,257	0,022
115,976	56,617	-0,183	-0,124
116,991	19,909	-0,244	-0,137
118,006	305,340	-0,190	-0,247
119,020	104,509	-0,264	-0,217
120,035	35,081	-0,180	-0,109
121,049	0,443	-0,152	-0,076
122,064	2,177	-0,183	-0,092
123,079	72,770	-0,205	-0,149
124,093	93,953	-0,174	-0,137
125,108	-13,110	-0,280	-0,126
126,122	88,893	-0,192	-0,149
127,137	154,305	-0,150	-0,144
128,151	48,021	-0,319	-0,207
129,166	-49,463	-0,329	-0,109
130,181	25,936	-0,233	-0,135
131,195	19,899	-0,257	-0,144
132,210	611,785	-0,141	-0,246
133,224	13,414	-0,194	-0,105
134,239	-57,489	-0,207	-0,063
135,254	-49,198	-0,256	-0,085
136,268	21,506	-0,202	-0,114
137,283	39,203	-0,291	-0,181
138,297	-87,155	-0,173	-0,036
139,312	-179,855	-0,202	-0,003
140,327	304,814	-0,188	-0,244
141,341	-80,078	-0,170	-0,039
142,356	546,027	-0,111	-0,185
143,370	315,383	-0,207	-0,272
144,385	-0,502	-0,256	-0,126
145,400	162,377	-0,184	-0,180
146,414	22,032	-0,207	-0,117
147,429	-70,203	-0,167	-0,044
148,443	14,904	-0,300	-0,163
149,458	77,116	-0,221	-0,163
150,473	-91,911	-0,250	-0,049
151,487	58,997	-0,167	-0,114
152,502	-48,987	-0,240	-0,080
153,516	108,254	-0,278	-0,231
154,531	136,377	-0,189	-0,171
155,546	-46,382	-0,372	-0,126
156,560	44,477	-0,238	-0,152
157,575	199,663	-0,121	-0,129
158,589	313,615	-0,088	-0,115
159,604	171,042	-0,173	-0,173
160,619	163,621	-0,278	-0,272
161,633	94,828	-0,272	-0,215
162,648	-9,433	-0,158	-0,073
163,662	-200,000	-0,020	-0,146
164,677	-46,919	-0,220	-0,074
165,692	37,780	-0,181	-0,112
166,706	151,482	-0,266	-0,252
167,721	-9,727	-0,291	-0,134
168,735	97,298	-0,300	-0,239
169,750	-30,122	-0,235	0,092
170,764	169,275	-0,122	-0,121
171,779	471,380	-0,070	-0,109
172,794	800,000	-0,130	-0,276
173,808	-26,446	-0,129	-0,052
174,823	89,608	-0,286	-0,222
175,837	189,765	-0,225	-0,234
176,852	800,000	-0,134	-0,337
177,867	95,696	-0,322	-0,255
178,881	150,068	-0,160	-0,151
179,896	126,970	-0,157	-0,138
180,910	118,950	-0,263	-0,226
181,925	12,451	-0,185	-0,099
182,940	89,628	-0,287	-0,222
183,954	202,996	-0,229	-0,246
184,969	132,713	-0,294	-0,263
185,983	286,071	-0,091	-0,114
186,998	-200,000	-0,046	-0,189
188,013	302,830	-0,140	-0,181
189,027	42,387	-0,250	-0,158
190,042	163,785	-0,236	-0,230
191,056	25,147	-0,224	-0,129
192,071	169,071	-0,075	-0,074
193,086	93,485	-0,260	-0,204
194,100	-91,332	-0,165	-0,032
195,115	348,565	-0,177	-0,243
196,129	23,588	-0,280	-0,159
197,144	-75,156	-0,184	-0,045
198,159	16,361	-0,376	-0,205
199,173	429,123	-0,123	-0,185
200,188	-20,472	-0,251	-0,106
201,202	327,657	-0,202	-0,269
202,217	-197,735	-0,125	0,001
203,232	61,833	-0,173	-0,120
204,246	205,445	-0,225	-0,242
205,261	8,168	-0,347	-0,180
206,275	339,688	-0,141	-0,190
207,290	88,951	-0,175	-0,135
208,304	-116,655	-0,172	-0,022
209,319	724,520	-0,180	-0,334
210,334	59,475	-0,222	-0,151
211,348	75,415	-0,124	-0,090
212,363	270,153	-0,161	-0,196
213,377	440,305	-0,068	-0,103
214,392	204,414	-0,168	-0,180
215,407	47,927	-0,199	-0,129
216,421	20,806	-0,176	-0,098
217,436	800,000	-0,086	-0,203
218,450	223,056	-0,161	-0,180
219,465	87,739	-0,303	-0,232
220,480	198,231	-0,138	-0,147
221,494	-200,000	0,010	-0,099
222,509	265,469	-0,142	-0,171
223,523	101,369	-0,155	-0,125
224,538	639,319	-0,060	-0,106
225,553	7,797	-0,255	-0,132
226,567	-42,493	-0,173	-0,061
227,582	38,449	-0,185	-0,114
228,596	89,415	-0,235	-0,181
229,611	188,158	-0,072	-0,074
230,626	-106,697	-0,198	0,030
231,640	800,000	-0,089	-0,201
232,655	73,812	-0,203	-0,147
233,669	57,925	-0,188	-0,127
234,684	147,592	-0,094	-0,087
235,699	533,876	-0,058	-0,095
236,713	629,305	-0,101	-0,177
237,728	91,341	-0,202	-0,156
238,742	175,771	-0,120	-0,120
239,757	135,714	-0,211	-0,190
240,772	40,331	-0,349	-0,216
241,786	-200,000	-0,066	-0,220
242,801	800,000	-0,060	-0,172
243,815	175,963	-0,108	-0,108
244,830	489,924	-0,097	-0,153
245,844	318,263	-0,151	-0,198
246,859	155,005	-0,187	-0,178
247,874	-163,746	-0,302	-0,010
248,888	16,564	-0,200	-0,109
249,903	153,045	-0,161	-0,152
250,917	255,795	-0,144	-0,170
251,932	-58,178	-0,208	-0,062
252,947	135,199	-0,123	-0,111
253,961	165,727	-0,165	-0,161
254,976	177,868	-0,231	-0,233
255,990	149,663	-0,157	-0,147
257,005	800,000	-0,069	-0,175
258,020	800,000	-0,046	-0,106
259,034	114,520	-0,058	-0,049
260,049	-79,761	-0,113	-0,026
261,063	46,705	-0,141	-0,090
262,078	413,056	-0,171	-0,252
263,093	47,407	-0,205	-0,132
264,107	25,834	-0,228	-0,131
265,122	319,677	-0,074	-0,097
266,136	-179,185	-0,172	-0,003
267,151	-71,028	-0,159	-0,041
268,166	221,364	-0,211	-0,234
269,180	-115,691	-0,147	-0,019
270,195	800,000	-0,104	-0,304
271,209	183,137	-0,079	-0,081
272,224	-106,902	-0,216	-0,033
273,239	800,000	-0,029	-0,071
274,253	800,000	-0,010	-0,021
275,268	41,532	-0,106	-0,066
276,282	82,994	-0,190	-0,142
277,297	-169,295	-0,214	-0,005
278,312	-137,173	-0,138	-0,011
279,326	216,175	-0,123	-0,135
280,341	-51,998	-0,198	-0,063
281,355	-129,218	-0,142	-0,013
282,370	-89,245	-0,321	0,065
283,384	253,053	-0,157	-0,185
284,399	59,143	-0,179	-0,121
285,414	22,597	-0,231	-0,130
286,428	-157,134	-0,078	-0,003
287,443	-200,000	-0,050	-0,170
288,457	-184,269	-0,116	-0,001
289,472	13,446	-0,203	-0,108
290,487	184,645	-0,175	-0,178
291,501	264,226	-0,188	-0,226
292,516	-0,154	-0,207	-0,101
293,530	451,334	-0,120	-0,183
294,545	-37,392	-0,190	-0,069
295,560	-112,933	-0,135	-0,018
296,574	42,031	-0,130	-0,081
297,589	800,000	-0,105	-0,205
298,603	-102,947	-0,153	-0,025
299,618	-65,556	-0,230	-0,063
300,633	109,236	-0,161	-0,133
301,647	78,663	-0,206	-0,151
302,662	622,593	-0,067	-0,116
303,676	-74,637	-0,126	-0,031
304,691	305,909	-0,109	-0,139
305,706	-19,797	-0,182	-0,077
306,720	-200,000	-0,053	-0,268
307,735	341,059	-0,076	-0,102
308,749	124,996	-0,090	-0,078
309,764	-13,109	-0,266	-0,118
310,779	50,385	-0,055	-0,036
311,793	23,204	-0,243	-0,137
312,808	472,882	-0,188	-0,291
313,822	139,007	-0,185	-0,167
314,837	800,000	-0,093	-0,178
315,852	179,131	-0,113	-0,114
316,866	-44,619	-0,120	-0,041
317,881	75,013	-0,102	-0,074
318,895	-200,000	-0,016	0,056
319,910	230,607	-0,141	-0,158
320,925	-129,549	-0,217	0,020
321,939	-19,160	-0,233	-0,099
322,954	140,679	-0,083	-0,075
323,968	800,000	0,019	0,055
324,983	286,890	-0,041	-0,051
325,997	15,995	-0,058	-0,031
327,012	10,978	-0,123	-0,064
328,027	-58,380	-0,110	0,032
329,041	-38,660	-0,102	-0,037
330,056	-200,000	-0,019	-0,120
331,070	191,193	-0,132	-0,137
332,085	4,683	-0,131	-0,066
333,100	0,526	-0,104	-0,051
334,114	-84,383	-0,234	-0,050
335,129	478,659	-0,110	-0,171
336,143	199,910	-0,193	-0,203
337,158	58,885	-0,112	-0,075
338,173	-200,000	-0,008	-0,069
339,187	800,000	-0,015	-0,045
340,202	151,525	-0,122	-0,114
341,216	-9,372	-0,175	-0,079
342,231	63,050	-0,096	-0,066
343,246	315,823	-0,114	-0,148
344,260	463,920	-0,109	-0,167
345,275	-2,361	-0,084	0,040
346,289	-45,691	-0,060	-0,020
347,304	-48,156	-0,175	0,057
348,319	-29,622	-0,195	-0,076
349,333	-150,251	-0,197	-0,010
350,348	23,070	-0,148	-0,083
351,362	-26,877	-0,080	-0,032
352,377	800,000	0,019	-0,054
353,392	-200,000	-0,033	-0,106
354,406	-58,721	-0,099	-0,029
355,421	206,909	1311,585	1399,146
356,435	159,145	1471,870	1399,588
