DTS Sentinel unit serial number:	SN410029Multiplexer serial number:	ORYXHardware model number:	OX2-SRSoftware version number:	ORYX F/W v4,00 Oryx Data Collector v3.7.2.0data status	okinstallation	B3 Nyhavnadifferential loss correction	single-endedforward channel	channel 1reverse channel	N/Adate	2023/11/30time	05:07:30forward acquisition time	300,00reverse acquisition time	0,00gamma	499,1914k internal	0,3211k external	0,3211temperature offset calibration	1,0000default loss term (dB/km)	0,3820temperature slope calibration	1,0000multiplexer offset coefficient	1,0000multiplexer slope coefficient	1,0000fibre end	0,00T internal ref (°C)	10,18T ext. ref 1 (°C)	-5,13T ext. ref 2 (°C)	-5,20length (m)	temperature (°C)	Stokes	anti-Stokes-744,400	73,565	-0,200	-0,152
-743,385	-200,000	0,023	0,228
-742,371	75,344	-0,193	-0,147
-741,356	-200,000	0,043	0,368
-740,342	172,372	-0,110	-0,115
-739,327	476,186	-0,126	0,207
-738,312	139,554	-0,276	-0,264
-737,298	-200,000	-0,077	0,277
-736,283	-200,000	-0,020	-0,357
-735,269	-200,000	0,058	0,454
-734,254	423,398	-0,109	-0,171
-733,239	-182,853	-0,252	-0,003
-732,225	800,000	-0,111	-0,257
-731,210	24,898	0,197	0,118
-730,196	258,356	-0,078	-0,098
-729,181	-200,000	-0,001	-0,136
-728,167	295,012	0,057	0,075
-727,152	-57,516	-0,110	0,035
-726,137	138,913	-0,024	-0,023
-725,123	114,792	0,057	-0,050
-724,108	-91,667	-0,068	-0,014
-723,094	-200,000	-0,045	-0,179
-722,079	800,000	-0,028	-0,084
-721,064	57,993	0,006	-0,005
-720,050	-15,572	0,034	-0,016
-719,035	30,011	-0,074	-0,046
-718,021	75,546	0,048	-0,037
-717,006	160,140	-0,033	0,033
-715,991	800,000	0,034	0,107
-714,977	125,834	-0,086	0,079
-713,962	33,265	-0,163	0,102
-712,948	800,000	-0,032	0,072
-711,933	576,330	0,051	-0,090
-710,918	-56,474	-0,119	0,038
-709,904	-187,388	-0,210	0,002
-708,889	-200,000	-0,018	-0,097
-707,875	-200,000	-0,009	-0,112
-706,860	322,669	-0,081	-0,112
-705,845	-200,000	0,012	-0,150
-704,831	32,752	0,099	0,062
-703,816	-93,086	0,035	-0,007
-702,802	-64,674	-0,034	-0,010
-701,787	-161,583	-0,058	-0,002
-700,772	-200,000	0,016	-0,184
-699,758	-200,000	0,006	-0,043
-698,743	56,760	0,128	-0,090
-697,729	-200,000	0,008	-0,058
-696,714	-200,000	0,016	0,050
-695,699	594,398	-0,018	0,032
-694,685	-118,919	-0,159	-0,020
-693,670	-21,750	-0,107	0,047
-692,656	299,665	-0,063	-0,084
-691,641	308,490	0,014	0,019
-690,627	265,766	0,026	0,033
-689,612	800,000	0,027	0,060
-688,597	-200,000	0,004	0,103
-687,583	733,500	0,053	-0,102
-686,568	-200,000	-0,006	-0,022
-685,554	-200,000	-0,027	0,097
-684,539	800,000	0,026	0,078
-683,524	406,777	0,057	0,088
-682,510	481,334	-0,073	0,120
-681,495	-82,537	-0,081	-0,019
-680,481	800,000	-0,015	0,029
-679,466	-152,179	-0,102	0,005
-678,451	51,007	0,061	-0,042
-677,437	392,566	0,044	-0,066
-676,422	-200,000	0,041	0,172
-675,408	231,552	0,045	0,054
-674,393	52,492	-0,031	0,022
-673,378	-35,542	-0,075	0,029
-672,364	800,000	0,035	-0,091
-671,349	-200,000	0,008	-0,100
-670,335	-200,000	0,015	-0,074
-669,320	87,634	-0,069	0,055
-668,305	44,636	0,064	-0,043
-667,291	23,013	-0,112	0,066
-666,276	-25,281	-0,115	-0,049
-665,262	-106,092	-0,045	-0,007
-664,247	-93,610	-0,078	-0,016
-663,232	91,269	-0,029	-0,024
-662,218	293,775	0,054	0,072
-661,203	605,128	0,019	0,034
-660,189	35,095	0,069	0,044
-659,174	61,255	0,030	-0,022
-658,159	-52,588	-0,153	0,051
-657,145	83,151	-0,078	-0,062
-656,130	800,000	0,063	0,180
-655,116	-200,000	0,011	0,091
-654,101	-143,416	0,081	0,006
-653,086	-200,000	-0,009	0,034
-652,072	141,498	0,082	0,078
-651,057	-200,000	0,031	-0,245
-650,043	-200,000	-0,005	-0,073
-649,028	-200,000	-0,013	-0,268
-648,014	-152,458	-0,037	0,002
-646,999	-13,685	-0,155	0,072
-645,984	550,677	-0,050	0,087
-644,970	-21,813	-0,093	0,041
-643,955	-51,484	-0,047	0,016
-642,941	323,811	-0,062	-0,085
-641,926	800,000	0,014	0,030
-640,911	-200,000	0,042	-0,136
-639,897	-40,633	0,079	0,029
-638,882	-129,670	-0,054	0,005
-637,868	-11,210	0,074	0,035
-636,853	300,030	-0,099	-0,132
-635,838	-200,000	-0,028	-0,098
-634,824	177,231	0,088	-0,092
-633,809	-200,000	0,006	0,063
-632,795	-200,000	0,002	0,111
-631,780	800,000	-0,088	0,202
-630,765	202,102	-0,106	0,118
-629,751	51,255	-0,140	-0,096
-628,736	-68,445	-0,157	-0,044
-627,722	-78,337	0,039	-0,009
-626,707	-48,163	0,042	0,014
-625,692	-9,602	0,127	-0,061
-624,678	-200,000	0,003	0,017
-623,663	314,280	-0,099	0,135
-622,649	111,440	0,074	-0,065
-621,634	275,619	-0,078	-0,100
-620,619	-61,907	-0,117	-0,035
-619,605	-40,676	0,067	0,025
-618,590	294,556	-0,070	0,092
-617,576	-38,160	0,073	-0,028
-616,561	236,201	-0,052	-0,062
-615,546	226,900	0,077	0,090
-614,532	203,221	0,007	-0,008
-613,517	312,704	-0,125	-0,170
-612,503	-147,980	0,166	-0,010
-611,488	-200,000	-0,024	0,112
-610,474	156,288	0,067	-0,066
-609,459	669,694	-0,015	0,028
-608,444	800,000	-0,044	-0,103
-607,430	70,071	-0,086	0,064
-606,415	-25,286	-0,080	0,034
-605,401	-165,965	-0,230	0,007
-604,386	800,000	0,026	0,056
-603,371	792,300	0,022	0,044
-602,357	678,819	0,028	-0,052
-601,342	-100,833	-0,087	0,015
-600,328	358,018	0,074	-0,106
-599,313	-200,000	0,028	0,119
-598,298	-136,852	0,179	-0,015
-597,284	38,067	-0,042	-0,027
-596,269	271,410	-0,048	0,061
-595,255	-107,837	-0,092	-0,014
-594,240	-76,520	0,085	-0,021
-593,225	611,663	-0,085	-0,153
-592,211	-200,000	-0,017	-0,067
-591,196	181,487	-0,078	0,082
-590,182	-200,000	-0,013	-0,076
-589,167	154,469	-0,064	0,064
-588,152	235,468	-0,091	-0,109
-587,138	110,631	-0,060	0,052
-586,123	-23,212	-0,183	-0,079
-585,109	7,701	-0,062	0,033
-584,094	-50,817	-0,017	-0,006
-583,079	-200,000	0,020	-0,070
-582,065	-200,000	0,007	0,094
-581,050	1,940	0,097	-0,050
-580,036	-157,958	-0,159	-0,007
-579,021	800,000	0,024	-0,056
-578,006	39,325	-0,101	0,065
-576,992	382,310	-0,082	0,122
-575,977	800,000	0,016	-0,034
-574,963	79,481	-0,060	0,046
-573,948	216,165	0,115	-0,131
-572,934	627,726	-0,044	-0,081
-571,919	-23,418	-0,179	-0,077
-570,904	44,058	0,066	0,044
-569,890	118,818	0,060	-0,054
-568,875	-200,000	-0,007	-0,089
-567,861	-39,870	0,118	0,044
-566,846	800,000	-0,051	-0,114
-565,831	-128,239	0,175	-0,018
-564,817	-124,484	-0,095	0,011
-563,802	-77,646	-0,203	-0,050
-562,788	162,903	0,081	-0,082
-561,773	-26,307	-0,097	0,041
-560,758	162,339	-0,034	0,034
-559,744	-200,000	-0,013	-0,054
-558,729	102,774	-0,061	-0,052
-557,715	-200,000	-0,000	-0,026
-556,700	-200,000	0,007	-0,220
-555,685	371,049	0,056	-0,082
-554,671	-195,677	-0,028	0,000
-553,656	800,000	-0,046	0,123
-552,642	-137,061	0,078	-0,006
-551,627	-126,474	-0,051	-0,005
-550,612	671,604	-0,038	-0,071
-549,598	-200,000	-0,005	0,019
-548,583	94,539	-0,096	-0,078
-547,569	-200,000	0,023	-0,130
-546,554	-200,000	-0,017	0,060
-545,539	-168,888	0,100	-0,003
-544,525	578,026	0,074	0,131
-543,510	-200,000	0,009	0,056
-542,496	47,672	-0,072	-0,048
-541,481	16,775	-0,078	-0,044
-540,466	-200,000	0,017	-0,086
-539,452	-28,745	-0,073	0,030
-538,437	-38,246	0,158	0,060
-537,423	-190,798	0,065	0,000
-536,408	40,781	-0,102	-0,066
-535,393	-74,353	0,110	0,028
-534,379	-200,000	-0,025	-0,100
-533,364	-9,081	-0,103	0,049
-532,350	-2,898	0,044	-0,022
-531,335	-85,257	-0,107	0,024
-530,321	172,920	-0,019	-0,020
-529,306	800,000	0,025	-0,055
-528,291	-105,116	0,076	-0,012
-527,277	39,667	-0,025	-0,016
-526,262	25,054	0,041	-0,024
-525,248	94,194	0,122	0,100
-524,233	246,257	0,102	0,124
-523,218	138,337	0,112	0,106
-522,204	164,141	0,079	-0,080
-521,189	-200,000	-0,026	-0,217
-520,175	110,723	-0,090	-0,078
-519,160	-131,864	-0,021	0,002
-518,145	800,000	-0,021	0,057
-517,131	-142,312	0,217	0,015
-516,116	800,000	0,044	0,106
-515,102	7,873	-0,068	0,037
-514,087	-88,590	-0,095	-0,020
-513,072	52,122	-0,087	0,060
-512,058	-65,637	-0,119	-0,034
-511,043	164,998	0,080	0,082
-510,029	-200,000	0,003	0,083
-509,014	-200,000	-0,003	0,050
-507,999	562,639	0,039	-0,067
-506,985	725,723	0,018	-0,035
-505,970	75,301	-0,059	-0,045
-504,956	492,983	-0,073	0,120
-503,941	-200,000	0,004	-0,052
-502,926	-131,532	0,102	-0,010
-501,912	290,559	-0,046	-0,060
-500,897	-19,939	-0,045	0,020
-499,883	-33,790	0,126	0,050
-498,868	-200,000	0,014	-0,053
-497,853	800,000	-0,019	-0,044
-496,839	205,910	0,061	0,069
-495,824	8,379	0,132	-0,071
-494,810	800,000	0,047	-0,096
-493,795	-200,000	-0,026	-0,083
-492,781	-200,000	0,013	-0,055
-491,766	800,000	0,026	-0,082
-490,751	-51,614	-0,132	-0,044
-489,737	-29,239	0,194	-0,079
-488,722	-72,031	0,008	-0,002
-487,708	-65,882	0,070	0,020
-486,693	393,858	0,033	0,049
-485,678	4,933	0,034	-0,018
-484,664	-200,000	-0,027	0,094
-483,649	30,059	0,060	-0,036
-482,635	-44,654	-0,125	-0,045
-481,620	-68,476	0,130	0,036
-480,605	-200,000	0,018	0,092
-479,591	14,050	-0,065	-0,036
-478,576	800,000	-0,048	0,104
-477,562	-200,000	0,018	0,096
-476,547	-56,864	-0,043	0,013
-475,532	-176,410	0,070	-0,001
-474,518	-63,019	0,021	0,006
-473,503	285,737	0,044	-0,057
-472,489	-200,000	0,003	0,177
-471,474	-67,299	0,028	-0,008
-470,459	-36,436	0,029	0,011
-469,445	-81,947	-0,038	-0,009
-468,430	-200,000	-0,032	-0,105
-467,416	-142,173	-0,107	-0,008
-466,401	800,000	0,021	-0,060
-465,386	195,465	-0,079	0,087
-464,372	-152,074	0,033	0,002
-463,357	162,308	-0,062	-0,062
-462,343	443,074	-0,048	0,076
-461,328	371,928	0,067	-0,098
-460,313	-200,000	0,006	0,026
-459,299	800,000	0,059	0,163
-458,284	-119,135	0,122	0,015
-457,270	-200,000	0,058	-0,204
-456,255	800,000	-0,061	-0,154
-455,241	241,989	-0,036	-0,043
-454,226	220,953	0,039	0,045
-453,211	137,606	0,017	0,016
-452,197	-200,000	0,025	-0,104
-451,182	-50,192	-0,073	-0,025
-450,168	138,735	0,049	-0,046
-449,153	800,000	-0,071	-0,166
-448,138	176,942	0,016	-0,017
-447,124	-200,000	-0,032	-0,156
-446,109	-200,000	0,002	-0,108
-445,095	-119,548	0,101	-0,012
-444,080	-200,000	0,037	0,158
-443,065	417,523	-0,035	-0,053
-442,051	800,000	-0,066	0,134
-441,036	117,254	0,066	-0,058
-440,022	-200,000	0,000	-0,052
-439,007	-200,000	0,034	-0,149
-437,992	800,000	0,020	0,052
-436,978	-200,000	-0,005	0,140
-435,963	517,704	0,012	-0,020
-434,949	-106,890	0,141	0,022
-433,934	800,000	0,016	0,049
-432,919	12,686	0,123	-0,068
-431,905	283,139	-0,021	0,027
-430,890	-128,052	0,095	0,010
-429,876	414,877	0,028	0,042
-428,861	65,167	0,077	0,055
-427,846	-87,040	-0,055	0,012
-426,832	-36,220	0,060	0,023
-425,817	-200,000	0,003	-0,100
-424,803	515,719	-0,027	-0,046
-423,788	-102,862	0,069	-0,012
-422,773	-200,000	-0,006	-0,057
-421,759	800,000	-0,027	0,059
-420,744	-96,072	0,147	0,028
-419,730	0,087	0,050	-0,026
-418,715	-83,247	0,056	0,013
-417,701	-159,243	0,095	-0,004
-416,686	800,000	0,030	0,089
-415,671	-70,992	0,043	-0,012
-414,657	104,517	-0,058	0,049
-413,642	77,392	0,080	-0,061
-412,628	-200,000	-0,008	0,066
-411,613	360,356	-0,039	-0,056
-410,598	-200,000	0,006	0,043
-409,584	241,380	-0,034	-0,041
-408,569	-110,264	0,077	-0,011
-407,555	-200,000	0,001	0,119
-406,540	-75,972	0,049	0,012
-405,525	336,966	-0,056	-0,079
-404,511	-176,886	-0,047	-0,001
-403,496	-80,412	-0,093	-0,022
-402,482	-28,382	0,129	-0,053
-401,467	-200,000	0,007	0,159
-400,452	-64,475	0,086	-0,025
-399,438	86,930	0,062	0,049
-398,423	100,713	-0,056	-0,046
-397,409	-89,754	-0,067	-0,014
-396,394	-200,000	-0,001	0,131
-395,379	702,859	0,030	0,057
-394,365	-200,000	0,024	0,143
-393,350	-200,000	-0,033	-0,135
-392,336	180,068	0,112	0,118
-391,321	75,398	0,065	0,049
-390,306	-200,000	-0,002	-0,009
-389,292	127,532	0,084	-0,077
-388,277	800,000	-0,038	-0,087
-387,263	105,212	0,074	0,062
-386,248	-136,033	0,130	-0,011
-385,233	800,000	0,034	-0,100
-384,219	130,794	0,079	-0,072
-383,204	139,647	-0,038	0,036
-382,190	-29,433	0,100	0,041
-381,175	-49,821	-0,012	0,004
-380,160	102,990	0,035	0,029
-379,146	429,252	0,065	0,100
-378,131	429,715	-0,051	-0,079
-377,117	47,224	-0,050	-0,033
-376,102	-175,024	-0,137	-0,003
-375,088	-200,000	-0,007	-0,083
-374,073	-94,064	-0,052	0,010
-373,058	-200,000	0,022	0,107
-372,044	-129,933	-0,104	-0,010
-371,029	387,485	-0,054	0,080
-370,015	-200,000	0,003	-0,094
-369,000	92,354	0,118	-0,095
-367,985	2,667	-0,068	0,035
-366,971	-200,000	0,002	-0,143
-365,956	800,000	0,030	0,088
-364,942	116,152	0,016	-0,014
-363,927	16,156	0,099	-0,056
-362,912	800,000	0,013	-0,034
-361,898	-3,322	-0,114	-0,057
-360,883	36,803	0,073	0,046
-359,869	800,000	-0,034	-0,071
-358,854	605,642	-0,012	0,021
-357,839	800,000	0,036	0,088
-356,825	-13,966	0,155	0,071
-355,810	-200,000	0,012	0,135
-354,796	-64,751	0,140	0,040
-353,781	-200,000	-0,007	-0,053
-352,766	508,499	0,067	-0,111
-351,752	-122,857	-0,108	-0,012
-350,737	288,925	-0,061	0,079
-349,723	209,306	0,069	0,077
-348,708	-200,000	-0,011	-0,056
-347,693	464,331	-0,098	-0,156
-346,679	-40,691	0,121	-0,044
-345,664	22,743	-0,076	0,044
-344,650	-200,000	-0,015	0,074
-343,635	800,000	-0,029	-0,081
-342,620	-26,733	-0,026	-0,011
-341,606	93,297	-0,031	0,025
-340,591	220,083	-0,078	0,089
-339,577	-200,000	-0,026	-0,120
-338,562	139,589	0,064	-0,060
-337,548	-200,000	-0,006	0,069
-336,533	-83,922	0,074	-0,017
-335,518	-62,171	0,099	0,029
-334,504	573,347	0,050	0,087
-333,489	159,182	-0,073	0,073
-332,475	-200,000	-0,044	0,175
-331,460	-37,207	0,059	0,022
-330,445	-7,558	-0,048	0,023
-329,431	800,000	0,021	0,058
-328,416	-200,000	0,007	0,118
-327,402	313,431	0,026	0,035
-326,387	313,200	-0,035	0,047
-325,372	192,062	-0,077	-0,082
-324,358	-200,000	-0,004	-0,108
-323,343	164,136	-0,023	0,023
-322,329	124,661	-0,125	0,112
-321,314	-97,121	0,122	0,023
-320,299	-200,000	0,047	0,162
-319,285	-200,000	-0,014	-0,069
-318,270	-50,324	-0,036	-0,012
-317,256	411,222	-0,027	-0,041
-316,241	-200,000	-0,004	-0,028
-315,226	-154,454	0,219	0,010
-314,212	553,347	-0,021	-0,035
-313,197	185,308	-0,114	0,121
-312,183	120,649	-0,096	-0,085
-311,168	226,015	-0,078	0,090
-310,153	-90,858	-0,172	0,035
-309,139	-6,885	0,026	0,013
-308,124	75,566	0,087	0,066
-307,110	50,972	0,041	0,028
-306,095	-72,456	0,047	-0,012
-305,080	-200,000	-0,004	-0,077
-304,066	355,522	-0,031	0,043
-303,051	800,000	-0,046	0,090
-302,037	379,172	0,081	-0,118
-301,022	565,956	-0,056	-0,097
-300,008	800,000	-0,016	-0,041
-298,993	-200,000	0,007	0,079
-297,978	-106,033	0,053	0,008
-296,964	-121,878	-0,052	-0,006
-295,949	800,000	-0,034	-0,102
-294,935	-9,948	0,012	0,006
-293,920	-200,000	0,012	-0,119
-292,905	-87,172	0,119	0,026
-291,891	-200,000	-0,014	-0,047
-290,876	-85,557	0,030	0,007
-289,862	160,069	-0,059	0,058
-288,847	71,338	-0,085	-0,063
-287,832	-200,000	-0,014	0,061
-286,818	-200,000	-0,022	0,087
-285,803	-200,000	0,028	0,088
-284,789	-200,000	0,008	0,167
-283,774	-200,000	-0,008	0,089
-282,759	386,441	-0,078	0,114
-281,745	309,778	-0,029	0,039
-280,730	800,000	0,034	0,087
-279,716	49,524	-0,020	0,014
-278,701	-8,521	0,036	-0,017
-277,686	25,695	-0,101	0,060
-276,672	489,200	-0,036	0,059
-275,657	800,000	0,020	0,046
-274,643	800,000	0,026	-0,069
-273,628	228,355	0,114	-0,132
-272,613	-124,491	0,148	0,016
-271,599	-129,849	0,081	-0,008
-270,584	-200,000	0,013	0,048
-269,570	-125,749	0,075	-0,008
-268,555	185,580	-0,033	-0,034
-267,540	211,173	0,034	-0,039
-266,526	66,070	-0,104	-0,075
-265,511	144,816	-0,095	-0,090
-264,497	-153,420	-0,042	-0,002
-263,482	216,326	0,042	0,047
-262,467	-81,131	0,143	-0,033
-261,453	-200,000	0,020	-0,073
-260,438	31,703	-0,176	0,108
-259,424	-27,511	0,052	0,021
-258,409	800,000	0,033	-0,082
-257,395	78,508	0,064	0,048
-256,380	127,827	-0,019	0,017
-255,365	-56,333	0,048	-0,015
-254,351	732,983	-0,021	0,040
-253,336	-40,824	-0,111	0,041
-252,322	-37,715	-0,120	-0,045
-251,307	512,801	-0,039	-0,065
-250,292	659,353	0,019	-0,036
-249,278	-200,000	0,010	0,075
-248,263	383,444	0,042	0,062
-247,249	117,950	0,048	-0,042
-246,234	800,000	0,051	-0,101
-245,219	93,332	-0,092	0,074
-244,205	-200,000	-0,006	-0,031
-243,190	-72,503	-0,047	0,012
-242,176	291,207	-0,044	0,057
-241,161	42,997	0,031	0,020
-240,146	227,057	-0,085	0,098
-239,132	119,814	-0,100	0,088
-238,117	213,219	-0,114	-0,128
-237,103	6,646	-0,109	0,058
-236,088	-7,733	0,142	-0,068
-235,073	569,888	-0,075	-0,131
-234,059	-65,343	0,026	0,007
-233,044	-200,000	0,009	0,153
-232,030	337,902	-0,051	-0,070
-231,015	202,238	-0,089	0,097
-230,000	666,777	-0,060	-0,110
-228,986	-200,000	-0,002	-0,051
-227,971	105,477	-0,062	0,052
-226,957	-122,124	0,096	-0,011
-225,942	408,129	0,063	0,094
-224,927	-46,282	0,136	0,047
-223,913	-24,447	0,134	0,057
-222,898	-200,000	-0,037	0,191
-221,884	-200,000	0,050	-0,177
-220,869	69,537	0,096	-0,070
-219,855	800,000	-0,034	-0,090
-218,840	112,904	0,107	0,092
-217,825	-200,000	0,002	0,040
-216,811	380,173	0,028	-0,040
-215,796	231,754	-0,082	-0,096
-214,782	800,000	-0,049	-0,111
-213,767	-200,000	0,007	0,100
-212,752	98,493	0,012	0,010
-211,738	86,658	-0,055	0,043
-210,723	-200,000	0,011	-0,143
-209,709	800,000	0,022	0,049
-208,694	-200,000	-0,018	-0,100
-207,679	109,550	-0,042	0,036
-206,665	-200,000	0,026	0,127
-205,650	-200,000	-0,003	-0,093
-204,636	800,000	0,013	-0,037
-203,621	-193,026	-0,093	0,001
-202,606	-99,093	-0,046	-0,008
-201,592	-67,302	-0,109	-0,030
-200,577	-111,062	-0,027	0,004
-199,563	-109,149	0,031	0,005
-198,548	-200,000	-0,017	-0,077
-197,533	800,000	-0,025	0,078
-196,519	800,000	-0,007	0,015
-195,504	109,337	0,082	0,070
-194,490	-200,000	0,003	0,082
-193,475	72,396	0,072	-0,054
-192,460	-200,000	-0,019	-0,254
-191,446	800,000	0,022	0,051
-190,431	223,096	0,047	0,054
-189,417	800,000	0,028	0,072
-188,402	-44,113	0,077	-0,027
-187,387	428,613	-0,044	0,068
-186,373	-200,000	-0,024	-0,096
-185,358	-200,000	-0,000	0,131
-184,344	66,757	-0,061	-0,044
-183,329	-13,655	0,097	0,044
-182,315	30,381	0,096	0,058
-181,300	127,611	-0,062	0,056
-180,285	-39,352	0,166	-0,062
-179,271	31,611	-0,195	-0,119
-178,256	787,879	-0,023	0,045
-177,242	268,825	0,048	0,060
-176,227	-17,621	0,049	0,022
-175,212	26,825	0,146	-0,086
-174,198	-102,970	-0,120	0,020
-173,183	-124,660	-0,134	0,015
-172,169	-16,944	-0,103	-0,046
-171,154	122,519	-0,037	0,033
-170,139	-200,000	-0,015	0,146
-169,125	-200,000	0,026	0,115
-168,110	592,751	0,045	0,078
-167,096	800,000	-0,063	0,126
-166,081	293,555	-0,032	0,042
-165,066	-200,000	0,006	-0,097
-164,052	800,000	-0,022	0,060
-163,037	98,402	0,112	0,092
-162,023	-128,590	0,052	0,005
-161,008	-200,000	0,030	0,108
-159,993	-200,000	-0,004	0,073
-158,979	86,889	0,129	-0,101
-157,964	-64,002	-0,098	-0,028
-156,950	-200,000	-0,012	-0,053
-155,935	66,536	-0,108	0,077
-154,920	800,000	-0,013	0,027
-153,906	79,015	0,081	-0,061
-152,891	-200,000	0,019	0,130
-151,877	-200,000	0,010	0,120
-150,862	26,763	-0,087	-0,051
-149,847	-99,866	0,085	-0,015
-148,833	-200,000	0,011	0,075
-147,818	16,436	-0,037	-0,021
-146,804	-200,000	-0,026	0,134
-145,789	58,088	0,100	0,070
-144,775	-119,609	-0,130	-0,016
-143,760	-200,000	0,020	-0,111
-142,745	-59,596	0,134	0,041
-141,731	-200,000	-0,042	-0,178
-140,716	800,000	0,038	0,107
-139,702	-91,138	0,091	-0,018
-138,687	298,190	-0,016	0,021
-137,672	800,000	-0,042	-0,086
-136,658	100,710	-0,059	-0,048
-135,643	-8,997	0,021	-0,010
-134,629	737,214	0,072	0,137
-133,614	-200,000	0,004	-0,101
-132,599	-200,000	-0,008	-0,123
-131,585	800,000	0,087	0,215
-130,570	800,000	-0,042	0,114
-129,556	446,234	0,031	-0,048
-128,541	766,416	-0,071	-0,137
-127,526	-24,853	0,040	-0,017
-126,512	800,000	-0,038	0,099
-125,497	-200,000	-0,018	0,072
-124,483	-138,308	-0,031	0,002
-123,468	-200,000	0,012	-0,063
-122,453	65,880	0,185	-0,133
-121,439	52,658	-0,169	0,114
-120,424	290,026	-0,072	-0,093
-119,410	-162,841	0,062	-0,002
-118,395	191,489	0,085	-0,091
-117,380	684,032	0,026	0,049
-116,366	-110,649	-0,049	0,007
-115,351	-200,000	-0,023	-0,096
-114,337	467,920	0,071	-0,113
-113,322	-200,000	0,028	0,090
-112,307	-200,000	-0,006	0,101
-111,293	-19,951	0,065	-0,028
-110,278	1,440	0,136	0,069
-109,264	12,925	-0,164	0,089
-108,249	12,599	0,103	0,056
-107,234	603,877	-0,028	-0,049
-106,220	800,000	0,032	-0,090
-105,205	-200,000	0,012	0,092
-104,191	-200,000	-0,012	0,065
-103,176	8,633	0,052	-0,028
-102,162	43,550	0,047	0,031
-101,147	800,000	0,045	-0,117
-100,132	-200,000	0,008	0,072
-99,118	800,000	0,037	-0,075
-98,103	-27,528	-0,037	0,015
-97,089	560,282	0,061	-0,104
-96,074	42,286	-0,039	0,025
-95,059	-132,368	-0,064	-0,006
-94,045	-200,000	-0,011	0,045
-93,030	10,004	-0,130	0,069
-92,016	800,000	-0,038	-0,075
-91,001	-104,370	-0,052	0,008
-89,986	-200,000	0,017	0,089
-88,972	800,000	0,032	0,071
-87,957	-104,741	-0,033	0,005
-86,943	-48,889	0,088	-0,030
-85,928	-200,000	-0,011	-0,147
-84,913	-163,148	-0,092	-0,003
-83,899	-200,000	-0,000	-0,056
-82,884	-200,000	-0,011	0,133
-81,870	-12,797	-0,099	-0,045
-80,855	800,000	0,042	0,088
-79,840	-200,000	0,004	0,122
-78,826	-146,974	-0,093	-0,006
-77,811	800,000	-0,051	-0,127
-76,797	-140,700	-0,158	0,011
-75,782	-13,112	0,027	0,012
-74,767	800,000	0,084	0,201
-73,753	248,035	0,084	0,100
-72,738	133,252	-0,089	0,081
-71,724	800,000	-0,066	-0,168
-70,709	85,588	0,065	-0,050
-69,694	-200,000	0,021	-0,103
-68,680	61,022	-0,040	-0,028
-67,665	223,254	0,081	-0,092
-66,651	-28,835	-0,121	-0,049
-65,636	235,528	-0,064	-0,075
-64,622	150,691	-0,060	-0,058
-63,607	-200,000	-0,003	-0,030
-62,592	-10,003	-0,096	-0,045
-61,578	-200,000	0,016	-0,065
-60,563	439,199	0,082	0,127
-59,549	-200,000	-0,022	0,121
-58,534	50,806	-1,941	-1,295
-57,519	371,909	-1,352	-1,944
-56,505	-200,000	-0,394	-4,205
-55,490	526,939	0,926	1,547
-54,476	800,000	5,089	11,144
-53,461	-200,000	21,259	339,792
-52,446	800,000	759,533	2357,392
-51,432	559,293	1662,228	2843,318
-50,417	73,571	1661,562	1226,855
-49,403	18,076	1535,000	861,422
-48,388	12,061	1458,355	789,325
-47,373	19,348	1449,321	819,363
-46,359	15,479	1438,656	794,904
-45,344	10,292	1434,624	767,952
-44,330	10,229	1432,629	766,552
-43,315	10,207	1431,016	765,555
-42,300	10,226	1428,966	764,520
-41,286	10,234	1427,883	763,945
-40,271	10,215	1426,489	763,080
-39,257	10,222	1425,417	762,512
-38,242	10,243	1424,387	762,028
-37,227	10,231	1423,226	761,319
-36,213	10,271	1421,820	760,728
-35,198	10,276	1420,582	760,058
-34,184	10,327	1419,847	759,876
-33,169	10,254	1418,427	758,741
-32,154	10,291	1417,465	758,370
-31,140	10,248	1416,223	757,473
-30,125	10,325	1415,216	757,267
-29,111	10,301	1414,026	756,489
-28,096	10,280	1412,856	755,733
-27,082	10,204	1411,596	754,670
-26,067	10,197	1410,350	753,942
-25,052	10,223	1409,546	753,606
-24,038	10,216	1408,654	753,065
-23,023	10,242	1407,631	752,608
-22,009	10,201	1406,739	751,912
-20,994	10,205	1405,518	751,249
-19,979	10,184	1404,705	750,687
-18,965	10,164	1403,786	750,072
-17,950	10,160	1402,897	749,547
-16,936	10,171	1402,095	749,139
-15,921	10,092	1401,231	748,283
-14,906	10,137	1400,189	747,903
-13,892	10,173	1399,087	747,453
-12,877	10,105	1398,296	746,685
-11,863	10,123	1397,572	746,353
-10,848	10,083	1396,567	745,603
-9,833	10,056	1395,737	745,005
-8,819	10,048	1394,769	744,421
-7,804	10,079	1394,009	744,130
-6,790	10,039	1392,899	743,323
-5,775	10,029	1391,930	742,727
-4,760	10,089	1390,738	742,340
-3,746	10,033	1389,992	741,655
-2,731	10,038	1389,026	741,133
-1,717	10,062	1388,121	740,732
-0,702	10,039	1386,454	739,704
0,313	14,070	1299,159	711,566
1,327	30,328	689,802	414,644
2,342	46,965	119,327	78,123
3,356	-0,242	16,512	8,254
4,371	-4,084	3,614	1,760
5,386	-24,301	1,028	0,431
6,400	-200,000	0,074	0,530
7,415	800,000	-0,075	-0,150
8,429	66,813	-0,281	-0,202
9,444	115,089	-0,225	-0,194
10,459	307,435	-0,244	-0,321
11,473	91,032	-0,420	-0,332
12,488	43,920	-0,278	-0,179
13,502	7,273	-0,283	-0,148
14,517	-43,241	-0,301	-0,107
15,531	180,112	-0,336	-0,347
16,546	245,689	-0,182	-0,216
17,561	-6,321	-0,309	-0,148
18,575	-63,944	-0,228	-0,065
19,590	-7,587	-0,292	-0,139
20,604	92,548	-0,136	0,108
21,619	101,246	-0,390	-0,319
22,634	113,820	-0,334	-0,286
23,648	24,780	-0,483	-0,281
24,663	263,459	-0,317	-0,389
25,677	86,237	-0,354	-0,275
26,692	25,981	-0,303	-0,178
27,707	274,505	-0,317	-0,396
28,721	135,739	-0,218	-0,200
29,736	62,987	-0,428	-0,301
30,750	63,665	-0,329	-0,232
31,765	53,465	-0,454	-0,306
32,780	19,031	-0,408	-0,230
33,794	7,550	-0,278	-0,146
34,809	219,086	-0,220	-0,248
35,823	-52,969	-0,378	-0,121
36,838	86,343	-0,342	-0,265
37,853	149,977	-0,309	-0,295
38,867	93,055	-0,333	-0,265
39,882	-16,036	-0,277	-0,124
40,896	15,183	-0,371	-0,204
41,911	51,620	-0,348	-0,232
42,926	-3,729	-0,469	-0,228
43,940	116,341	-0,391	-0,337
44,955	110,293	-0,426	-0,359
45,969	137,826	-0,362	-0,333
46,984	64,472	-0,204	-0,145
47,999	22,467	-0,307	-0,176
49,013	169,979	-0,317	-0,319
50,028	288,973	-0,276	-0,353
51,042	203,156	-0,289	-0,315
52,057	129,161	-0,307	-0,275
53,071	-12,597	-0,463	-0,211
54,086	75,801	-0,423	-0,314
55,101	99,053	-0,297	-0,241
56,115	-102,415	-0,337	-0,056
57,130	17,813	-0,396	-0,221
58,144	-16,854	-0,294	-0,130
59,159	18,611	-0,360	-0,201
60,174	143,714	-0,381	-0,357
61,188	-20,711	-0,447	-0,192
62,203	91,002	-0,260	-0,204
63,217	89,128	-0,265	-0,207
64,232	-6,804	-0,377	-0,179
65,247	90,022	-0,395	-0,310
66,261	-21,187	-0,545	-0,233
67,276	120,196	-0,376	-0,328
68,290	-29,516	-0,418	-0,167
69,305	-17,298	-0,222	-0,097
70,320	120,382	-0,186	-0,162
71,334	-57,019	-0,307	-0,094
72,349	44,420	-0,290	-0,187
73,363	171,584	-0,300	-0,302
74,378	138,218	-0,290	-0,267
75,393	244,547	-0,305	-0,360
76,407	375,296	-0,163	-0,233
77,422	103,317	-0,229	-0,188
78,436	79,215	-0,261	-0,196
79,451	158,755	-0,264	-0,257
80,466	121,125	-0,198	-0,173
81,480	59,239	-0,368	-0,254
82,495	-13,559	-0,301	-0,136
83,509	331,804	-0,142	-0,193
84,524	-45,705	-0,280	-0,097
85,539	135,025	-0,277	-0,252
86,553	-16,975	-0,305	-0,134
87,568	800,000	-0,110	-0,263
88,582	7,442	-0,268	-0,140
89,597	80,109	-0,352	-0,265
90,611	131,836	-0,287	-0,259
91,626	-50,274	-0,303	-0,100
92,641	1,170	-0,204	-0,102
93,655	-182,971	-0,252	0,003
94,670	-13,782	-0,300	-0,135
95,684	123,494	-0,275	-0,241
96,699	245,863	-0,305	-0,360
97,714	81,236	-0,242	-0,183
98,728	-5,481	-0,364	-0,174
99,743	800,000	-0,152	-0,294
100,757	437,509	-0,194	-0,296
101,772	52,572	-0,311	-0,207
102,787	122,750	-0,258	-0,226
103,801	106,121	-0,264	-0,219
104,816	-18,148	-0,255	-0,111
105,830	-51,014	-0,390	-0,127
106,845	242,577	-0,140	-0,165
107,860	115,405	-0,292	-0,249
108,874	125,969	-0,252	-0,222
109,889	65,554	-0,391	-0,277
110,903	-33,631	-0,302	-0,116
111,918	371,912	-0,220	-0,313
112,933	113,553	-0,225	-0,190
113,947	136,255	-0,199	-0,181
114,962	-23,475	-0,245	-0,102
115,976	-143,685	-0,211	-0,014
116,991	33,606	-0,261	-0,158
118,006	80,287	-0,247	-0,185
119,020	22,442	-0,248	-0,141
120,035	15,471	-0,239	-0,131
121,049	92,855	-0,197	-0,156
122,064	16,570	-0,343	-0,189
123,079	-37,925	-0,255	-0,094
124,093	189,644	-0,242	-0,253
125,108	140,692	-0,157	-0,145
126,122	287,469	-0,233	-0,295
127,137	83,826	-0,225	-0,171
128,151	35,196	-0,250	-0,153
129,166	81,467	-0,232	-0,175
130,181	306,399	-0,135	-0,175
131,195	350,554	-0,186	-0,257
132,210	-17,415	-0,253	-0,111
133,224	56,252	-0,240	-0,162
134,239	-44,359	-0,250	-0,087
135,254	-92,223	-0,257	-0,050
136,268	-8,637	-0,290	-0,135
137,283	32,864	-0,183	-0,110
138,297	54,794	-0,334	-0,224
139,312	42,327	-0,264	-0,167
140,327	35,083	-0,243	-0,148
141,341	40,805	-0,254	-0,159
142,356	-28,147	-0,161	-0,065
143,370	-49,136	-0,154	-0,051
144,385	36,035	-0,257	-0,158
145,400	13,967	-0,372	-0,201
146,414	199,260	-0,269	-0,288
147,429	363,789	-0,194	-0,273
148,443	-94,214	-0,184	-0,035
149,458	-4,590	-0,257	-0,123
150,473	-44,370	-0,225	-0,078
151,487	-145,298	-0,320	-0,020
152,502	269,097	-0,216	-0,264
153,516	65,990	-0,205	-0,145
154,531	90,105	-0,276	-0,215
155,546	343,345	-0,228	-0,312
156,560	-107,371	-0,267	-0,040
157,575	169,784	-0,223	-0,222
158,589	45,529	-0,184	-0,118
159,604	88,998	-0,158	-0,122
160,619	161,519	-0,200	-0,195
161,633	149,840	-0,257	-0,243
162,648	87,953	-0,170	-0,131
163,662	78,382	-0,227	-0,168
164,677	24,137	-0,227	-0,130
165,692	346,131	-0,123	-0,169
166,706	-43,041	-0,344	-0,121
167,721	-21,276	-0,427	-0,180
168,735	519,862	-0,143	-0,234
169,750	-200,000	-0,087	-0,277
170,764	142,579	-0,153	-0,141
171,779	-54,380	-0,072	-0,023
172,794	376,674	-0,182	-0,258
173,808	-21,259	-0,323	-0,136
174,823	188,980	-0,156	-0,162
175,837	89,098	-0,190	-0,147
176,852	272,349	-0,288	-0,354
177,867	-83,773	-0,174	-0,038
178,881	800,000	-0,067	-0,137
179,896	697,812	-0,146	-0,268
180,910	-81,929	-0,154	-0,035
181,925	94,754	-0,207	-0,163
182,940	133,230	-0,284	-0,254
183,954	-65,564	-0,219	-0,061
184,969	77,585	-0,112	-0,083
185,983	-200,000	-0,076	-0,275
186,998	-200,000	-0,070	-0,224
188,013	-36,626	-0,209	-0,077
189,027	279,448	-0,116	-0,144
190,042	271,230	-0,081	-0,100
191,056	-45,158	-0,311	-0,107
192,071	0,160	-0,233	-0,115
193,086	-124,065	-0,299	-0,032
194,100	-68,160	-0,086	-0,023
195,115	43,652	-0,245	-0,155
196,129	-78,298	-0,283	-0,067
197,144	800,000	-0,157	-0,369
198,159	800,000	-0,157	-0,306
199,173	308,727	-0,171	-0,222
200,188	525,619	-0,051	-0,084
201,202	132,529	-0,167	-0,149
202,217	-2,098	-0,273	-0,132
203,232	651,202	-0,091	-0,162
204,246	229,861	-0,179	-0,203
205,261	-200,000	-0,049	-0,315
206,275	800,000	-0,145	-0,289
207,290	-200,000	-0,028	-0,117
208,304	-198,079	-0,183	-0,001
209,319	-72,903	-0,158	-0,040
210,334	65,036	-0,315	-0,220
211,348	800,000	-0,121	-0,282
212,363	-200,000	-0,078	-0,283
213,377	519,777	-0,163	-0,266
214,392	40,653	-0,132	-0,082
215,407	66,296	-0,280	-0,197
216,421	-73,642	-0,279	-0,070
217,436	-82,427	-0,226	-0,050
218,450	-88,033	-0,307	-0,063
219,465	428,936	-0,199	-0,298
220,480	-81,133	-0,213	-0,048
221,494	-12,753	-0,254	-0,114
222,509	238,808	-0,168	-0,193
223,523	135,336	-0,133	-0,120
224,538	107,736	-0,176	-0,145
225,553	-129,125	-0,273	-0,026
226,567	83,312	-0,301	-0,226
227,582	-148,809	-0,107	0,006
228,596	-200,000	0,001	-0,124
229,611	137,874	-0,233	-0,211
230,626	-114,200	-0,147	-0,019
231,640	294,988	-0,198	-0,251
232,655	266,091	-0,231	-0,280
233,669	220,045	-0,131	-0,145
234,684	246,220	-0,100	-0,117
235,699	247,143	-0,112	-0,131
236,713	26,136	-0,036	-0,021
237,728	24,929	-0,174	-0,099
238,742	800,000	-0,090	-0,186
239,757	14,846	-0,221	-0,119
240,772	98,038	-0,157	-0,125
241,786	79,161	-0,247	-0,182
242,801	320,534	-0,113	-0,149
243,815	800,000	-0,114	-0,227
244,830	-89,460	-0,153	0,031
245,844	578,379	-0,141	-0,240
246,859	-14,274	-0,170	-0,075
247,874	46,721	-0,127	-0,081
248,888	-133,305	-0,235	-0,020
249,903	-91,876	-0,242	-0,047
250,917	-64,579	-0,098	0,027
251,932	16,027	-0,099	-0,054
252,947	163,425	-0,066	-0,064
253,961	30,301	-0,159	-0,093
254,976	-14,714	-0,264	-0,117
255,990	-42,944	-0,151	-0,053
257,005	297,117	-0,181	-0,230
258,020	800,000	-0,059	-0,160
259,034	269,756	-0,049	-0,060
260,049	244,933	-0,086	-0,100
261,063	-77,447	-0,231	-0,055
262,078	-30,894	-0,211	-0,082
263,093	81,609	-0,228	-0,170
264,107	9,030	-0,060	-0,031
265,122	245,852	-0,042	-0,049
266,136	-54,990	-0,205	-0,063
267,151	-186,774	-0,176	0,002
268,166	145,832	-0,147	-0,135
269,180	-13,403	-0,082	-0,037
270,195	800,000	-0,103	-0,207
271,209	152,135	-0,250	-0,235
272,224	74,193	-0,260	-0,188
273,239	490,972	-0,091	-0,143
274,253	204,059	-0,131	-0,140
275,268	-200,000	-0,013	-0,127
276,282	-122,769	-0,137	-0,015
277,297	45,296	-0,227	-0,144
278,312	11,924	-0,188	-0,099
279,326	205,323	-0,131	-0,140
280,341	800,000	-0,033	-0,099
281,355	728,616	-0,097	-0,180
282,370	49,314	-0,175	-0,113
283,384	-54,233	-0,191	-0,059
284,399	157,199	-0,168	-0,160
285,414	-127,575	-0,284	-0,028
286,428	28,294	-0,155	-0,090
287,443	-77,820	-0,149	0,035
288,457	-146,837	-0,240	-0,014
289,472	636,978	-0,092	-0,161
290,487	9,536	-0,211	-0,110
291,501	-7,696	-0,290	-0,134
292,516	36,287	-0,055	0,033
293,530	107,423	-0,012	-0,010
294,545	267,277	-0,173	-0,209
295,560	-138,544	-0,146	0,011
296,574	-19,644	-0,150	-0,064
297,589	-200,000	0,039	-0,247
298,603	193,883	-0,242	-0,252
299,618	192,307	-0,154	-0,160
300,633	16,326	-0,177	-0,096
301,647	629,342	-0,105	-0,184
302,662	-18,400	-0,143	-0,061
303,676	207,683	-0,142	-0,153
304,691	312,060	-0,166	-0,214
305,706	114,048	-0,192	-0,160
306,720	59,949	-0,118	-0,080
307,735	284,317	-0,064	-0,079
308,749	508,020	0,020	-0,033
309,764	-34,614	-0,203	0,076
310,779	376,585	-0,139	-0,195
311,793	-7,028	-0,197	-0,091
312,808	-56,922	-0,179	0,054
313,822	-8,782	-0,105	-0,048
314,837	-42,152	-0,186	0,065
315,852	-192,091	-0,063	-0,000
316,866	-119,796	-0,143	-0,017
317,881	42,700	-0,087	0,054
318,895	44,796	-0,217	-0,137
319,910	115,047	-0,189	-0,158
320,925	800,000	-0,101	-0,195
321,939	-200,000	-0,012	-0,112
322,954	774,005	-0,098	-0,185
323,968	-200,000	-0,009	-0,093
324,983	42,018	-0,188	0,117
325,997	49,486	-0,178	-0,115
327,012	396,911	-0,061	-0,088
328,027	571,024	-0,131	-0,220
329,041	-198,268	-0,181	0,001
330,056	-200,000	-0,029	-0,178
331,070	440,263	-0,003	-0,005
332,085	-200,000	0,006	0,047
333,100	58,597	-0,203	-0,136
334,114	150,396	-0,088	-0,082
335,129	-132,689	-0,102	0,009
336,143	-52,086	-0,130	-0,041
337,158	1,266	-0,137	-0,067
338,173	41,155	-0,239	-0,148
339,187	-70,542	-0,094	-0,024
340,202	16,252	-0,142	-0,077
341,216	-150,381	-0,164	-0,008
342,231	-122,681	-0,103	0,011
343,246	437,752	-0,140	-0,209
344,260	-26,613	-0,134	-0,053
345,275	110,080	-0,061	-0,050
346,289	800,000	-0,039	-0,088
347,304	95,583	-0,128	0,100
348,319	28,527	-0,200	-0,116
349,333	782,419	-0,135	-0,254
350,348	-31,705	-0,305	-0,116
351,362	800,000	0,050	-0,128
352,377	111,465	-0,125	-0,103
353,392	-107,433	-0,155	-0,023
354,406	800,000	-0,033	-0,092
355,421	207,807	1311,482	1402,166
356,435	159,877	1471,771	1402,641
