DTS Sentinel unit serial number:	SN410029Multiplexer serial number:	ORYXHardware model number:	OX2-SRSoftware version number:	ORYX F/W v4,00 Oryx Data Collector v3.7.2.0data status	okinstallation	B3 Nyhavnadifferential loss correction	single-endedforward channel	channel 1reverse channel	N/Adate	2023/11/30time	21:27:30forward acquisition time	300,00reverse acquisition time	0,00gamma	499,1914k internal	0,3209k external	0,3209temperature offset calibration	1,0000default loss term (dB/km)	0,3820temperature slope calibration	1,0000multiplexer offset coefficient	1,0000multiplexer slope coefficient	1,0000fibre end	0,00T internal ref (°C)	10,61T ext. ref 1 (°C)	-4,70T ext. ref 2 (°C)	-4,84length (m)	temperature (°C)	Stokes	anti-Stokes-744,400	695,501	-0,078	-0,149
-743,385	800,000	0,054	0,118
-742,371	800,000	-0,088	-0,276
-741,356	-200,000	-0,001	0,456
-740,342	-200,000	-0,048	-0,197
-739,327	-200,000	0,026	0,221
-738,312	229,620	-0,192	-0,228
-737,298	320,113	-0,184	0,254
-736,283	-60,604	-0,136	-0,042
-735,269	-200,000	-0,066	0,318
-734,254	133,737	-0,129	-0,121
-733,239	-107,725	-0,307	0,048
-732,225	-200,000	-0,004	-0,141
-731,210	91,675	0,204	0,167
-730,196	32,276	-0,022	0,014
-729,181	-168,359	-0,146	0,004
-728,167	-200,000	-0,028	-0,132
-727,152	-128,735	-0,100	0,010
-726,137	-42,378	0,041	-0,015
-725,123	-71,816	-0,083	-0,022
-724,108	-200,000	0,047	-0,163
-723,094	-200,000	-0,029	-0,098
-722,079	-200,000	0,010	0,144
-721,064	-75,759	-0,082	0,021
-720,050	-200,000	-0,021	-0,068
-719,035	-181,229	-0,060	0,001
-718,021	-195,658	-0,158	0,001
-717,006	147,023	-0,059	-0,058
-715,991	-39,696	0,066	0,025
-714,977	-200,000	0,012	-0,064
-713,962	-75,673	-0,068	-0,017
-712,948	-200,000	0,009	0,033
-711,933	80,230	0,056	0,044
-710,918	-64,789	-0,172	0,050
-709,904	57,323	-0,153	-0,108
-708,889	-200,000	0,011	-0,085
-707,875	10,548	-0,140	-0,077
-706,860	800,000	0,041	0,126
-705,845	-200,000	0,020	0,216
-704,831	800,000	0,012	-0,033
-703,816	81,432	0,050	-0,039
-702,802	-147,524	-0,106	-0,006
-701,787	19,975	-0,089	-0,052
-700,772	-56,944	-0,144	-0,046
-699,758	-200,000	-0,021	-0,097
-698,743	44,827	0,080	0,053
-697,729	-19,100	-0,036	0,016
-696,714	449,151	-0,068	0,109
-695,699	278,437	-0,108	-0,140
-694,685	-200,000	0,018	0,070
-693,670	-25,670	-0,211	-0,090
-692,656	201,103	0,011	-0,012
-691,641	800,000	0,052	0,107
-690,627	-31,627	-0,121	0,049
-689,612	462,715	0,075	-0,121
-688,597	546,481	-0,065	0,114
-687,583	800,000	-0,071	-0,193
-686,568	-200,000	0,003	-0,048
-685,554	-108,081	-0,159	-0,025
-684,539	14,393	-0,092	-0,052
-683,524	-200,000	0,029	0,154
-682,510	-200,000	0,042	0,195
-681,495	800,000	0,055	-0,138
-680,481	79,585	-0,125	-0,097
-679,466	-200,000	0,011	0,150
-678,451	275,495	-0,097	-0,125
-677,437	306,881	0,081	-0,109
-676,422	-40,236	0,082	0,031
-675,408	245,870	0,052	-0,064
-674,393	191,804	-0,018	-0,020
-673,378	50,412	-0,096	0,066
-672,364	-200,000	-0,017	-0,163
-671,349	317,968	0,012	-0,017
-670,335	-200,000	0,013	-0,048
-669,320	-200,000	-0,024	0,086
-668,305	713,468	-0,017	0,032
-667,291	-46,709	0,076	0,027
-666,276	87,490	-0,042	-0,033
-665,262	125,409	-0,042	-0,038
-664,247	-16,753	-0,106	-0,049
-663,232	266,403	-0,041	0,052
-662,218	392,792	0,042	0,063
-661,203	-40,706	0,066	0,025
-660,189	206,235	-0,095	0,107
-659,174	114,210	-0,027	-0,024
-658,159	-14,566	-0,088	0,041
-657,145	-200,000	-0,039	-0,146
-656,130	28,819	-0,128	-0,078
-655,116	147,204	-0,045	-0,043
-654,101	203,171	0,069	0,078
-653,086	-200,000	0,028	0,126
-652,072	-72,878	0,150	-0,040
-651,057	-200,000	0,024	-0,090
-650,043	696,522	0,051	-0,096
-649,028	273,816	0,045	0,057
-648,014	-200,000	0,016	-0,068
-646,999	800,000	0,017	-0,037
-645,984	256,487	0,073	0,091
-644,970	-14,246	-0,091	0,042
-643,955	-35,063	-0,076	0,030
-642,941	-12,397	0,074	-0,035
-641,926	-94,787	-0,093	-0,018
-640,911	-200,000	-0,006	-0,064
-639,897	593,855	0,074	0,132
-638,882	-200,000	-0,015	0,159
-637,868	-50,503	-0,077	-0,026
-636,853	-132,854	0,151	0,014
-635,838	102,730	-0,099	-0,084
-634,824	800,000	0,081	-0,173
-633,809	558,672	0,050	0,087
-632,795	-155,653	-0,075	0,003
-631,780	790,657	0,036	0,072
-630,765	92,541	0,095	0,078
-629,751	-200,000	-0,032	-0,128
-628,736	-124,790	-0,036	-0,004
-627,722	354,576	-0,032	0,047
-626,707	11,855	-0,044	-0,024
-625,692	124,600	-0,066	0,060
-624,678	-200,000	-0,004	-0,041
-623,663	24,216	0,003	0,002
-622,649	-200,000	-0,025	0,128
-621,634	-200,000	0,007	0,041
-620,619	-42,257	-0,158	0,058
-619,605	-23,408	-0,041	0,018
-618,590	800,000	0,024	-0,048
-617,576	800,000	0,028	0,082
-616,561	352,048	0,064	-0,092
-615,546	-200,000	0,005	-0,150
-614,532	401,943	-0,072	-0,110
-613,517	22,879	0,065	0,039
-612,503	-31,391	0,069	0,028
-611,488	-200,000	-0,020	0,089
-610,474	-118,334	-0,130	-0,016
-609,459	-200,000	-0,017	-0,059
-608,444	77,679	-0,168	-0,129
-607,430	-27,010	0,008	-0,003
-606,415	277,631	-0,086	0,111
-605,401	-69,604	0,064	-0,018
-604,386	800,000	-0,062	0,176
-603,371	129,760	0,078	0,072
-602,357	800,000	-0,025	0,062
-601,342	-61,067	-0,113	-0,034
-600,328	245,519	-0,054	-0,066
-599,313	121,037	0,090	0,081
-598,298	57,119	-0,086	0,060
-597,284	-96,995	0,010	0,002
-596,269	-200,000	0,003	0,097
-595,255	328,795	0,039	0,055
-594,240	-111,685	-0,032	0,005
-593,225	138,995	-0,116	-0,110
-592,211	227,024	-0,038	-0,045
-591,196	-200,000	0,000	-0,094
-590,182	-200,000	0,014	0,049
-589,167	-12,944	0,031	0,014
-588,152	-156,201	-0,098	0,004
-587,138	422,945	-0,063	-0,098
-586,123	80,278	0,056	-0,044
-585,109	800,000	-0,037	-0,103
-584,094	285,214	-0,068	-0,089
-583,079	269,756	0,090	0,114
-582,065	-130,557	0,081	0,008
-581,050	34,236	-0,039	-0,025
-580,036	-200,000	0,024	0,097
-579,021	-184,589	0,122	0,001
-578,006	32,938	0,027	-0,017
-576,992	84,892	0,044	0,035
-575,977	-200,000	-0,029	-0,154
-574,963	364,639	0,045	-0,065
-573,948	-81,705	-0,102	-0,024
-572,934	-134,534	0,043	0,004
-571,919	-200,000	-0,009	-0,057
-570,904	553,405	0,024	-0,041
-569,890	800,000	0,044	-0,125
-568,875	234,017	-0,073	0,087
-567,861	-200,000	-0,013	0,052
-566,846	373,075	-0,079	0,117
-565,831	-200,000	0,021	0,070
-564,817	131,991	0,026	-0,024
-563,802	-15,403	-0,097	-0,044
-562,788	343,433	-0,006	-0,008
-561,773	-103,844	-0,096	0,016
-560,758	252,196	-0,043	-0,053
-559,744	204,726	-0,057	-0,064
-558,729	-55,051	-0,162	0,052
-557,715	-59,159	0,061	-0,019
-556,700	-125,927	-0,144	0,015
-555,685	5,756	0,121	0,064
-554,671	88,428	0,053	-0,042
-553,656	-34,339	0,042	-0,016
-552,642	179,799	0,048	-0,051
-551,627	270,927	-0,111	0,141
-550,612	177,640	-0,131	0,138
-549,598	-89,235	-0,159	-0,034
-548,583	150,707	-0,008	-0,008
-547,569	200,876	-0,080	-0,089
-546,554	800,000	0,037	0,082
-545,539	800,000	-0,029	0,080
-544,525	-200,000	0,004	0,118
-543,510	221,068	-0,064	0,074
-542,496	119,063	0,099	0,088
-541,481	-102,921	-0,088	-0,015
-540,466	210,444	0,060	-0,068
-539,452	-200,000	-0,019	-0,088
-538,437	434,205	-0,068	-0,107
-537,423	-146,921	0,207	0,013
-536,408	800,000	0,039	0,090
-535,393	-200,000	-0,029	-0,178
-534,379	-86,615	-0,144	0,032
-533,364	-162,275	0,140	-0,005
-532,350	800,000	-0,067	0,194
-531,335	-48,594	-0,050	0,017
-530,321	701,808	-0,029	0,054
-529,306	-133,056	-0,085	-0,008
-528,291	800,000	0,069	-0,197
-527,277	-200,000	0,021	-0,209
-526,262	-60,410	-0,132	0,040
-525,248	526,168	-0,031	-0,052
-524,233	800,000	0,010	0,026
-523,218	459,263	-0,029	0,046
-522,204	-200,000	0,022	0,105
-521,189	-90,905	-0,066	0,013
-520,175	18,475	-0,096	-0,055
-519,160	712,115	-0,029	-0,056
-518,145	-176,035	-0,018	-0,000
-517,131	488,364	0,065	0,107
-516,116	723,771	0,042	0,082
-515,102	412,941	-0,055	0,085
-514,087	-200,000	-0,027	-0,143
-513,072	800,000	-0,084	-0,203
-512,058	19,955	0,130	0,075
-511,043	-95,454	0,099	0,019
-510,029	-200,000	-0,022	0,125
-509,014	-9,319	0,119	0,057
-507,999	201,730	-0,092	-0,103
-506,985	-157,566	-0,042	-0,002
-505,970	-21,408	0,080	-0,035
-504,956	318,524	0,044	-0,060
-503,941	-107,534	0,045	0,007
-502,926	-69,491	0,096	0,026
-501,912	34,835	0,058	0,036
-500,897	-23,289	-0,065	-0,028
-499,883	-200,000	-0,028	-0,132
-498,868	-200,000	-0,004	-0,139
-497,853	800,000	0,057	-0,129
-496,839	102,064	0,047	-0,039
-495,824	599,698	-0,027	0,048
-494,810	263,886	-0,056	0,070
-493,795	-32,142	-0,048	-0,019
-492,781	219,083	-0,118	-0,135
-491,766	196,720	-0,107	-0,118
-490,751	308,575	-0,095	-0,128
-489,737	-27,871	0,139	-0,057
-488,722	693,825	0,049	-0,092
-487,708	-200,000	0,041	-0,199
-486,693	-200,000	0,010	0,109
-485,678	-200,000	-0,010	0,067
-484,664	81,114	0,079	-0,061
-483,649	137,994	0,112	0,105
-482,635	-63,275	-0,032	-0,009
-481,620	480,907	0,059	0,096
-480,605	-76,978	0,063	0,016
-479,591	-118,183	0,184	0,023
-478,576	-151,646	0,076	-0,004
-477,562	-200,000	-0,003	-0,013
-476,547	-200,000	0,001	0,035
-475,532	25,700	-0,181	0,108
-474,518	-200,000	-0,008	-0,034
-473,503	141,071	0,089	0,085
-472,489	10,251	0,030	-0,016
-471,474	25,870	0,078	-0,047
-470,459	125,806	-0,038	0,035
-469,445	715,404	-0,092	-0,175
-468,430	-200,000	0,007	0,037
-467,416	242,275	0,021	-0,026
-466,401	-186,456	-0,070	0,001
-465,386	176,273	0,093	0,098
-464,372	-51,532	-0,131	-0,044
-463,357	69,963	-0,099	-0,073
-462,343	800,000	-0,043	-0,098
-461,328	-200,000	-0,003	0,028
-460,313	-200,000	-0,013	0,111
-459,299	-156,522	0,133	-0,006
-458,284	-138,772	0,127	-0,010
-457,270	-188,980	-0,075	0,001
-456,255	-200,000	0,033	-0,111
-455,241	586,561	-0,039	0,068
-454,226	-15,889	-0,014	0,006
-453,211	-163,933	0,050	-0,002
-452,197	-65,694	0,054	0,015
-451,182	-86,743	-0,089	0,019
-450,168	102,831	-0,041	-0,034
-449,153	-124,220	-0,214	0,024
-448,138	-45,165	-0,078	-0,028
-447,124	42,090	-0,025	-0,017
-446,109	194,671	0,039	-0,042
-445,095	379,808	0,034	-0,051
-444,080	272,411	0,067	0,085
-443,065	261,434	-0,041	-0,051
-442,051	293,015	0,018	-0,024
-441,036	216,911	-0,071	0,081
-440,022	-95,104	-0,042	0,008
-439,007	296,736	-0,046	-0,060
-437,992	-146,168	0,136	0,008
-436,978	660,170	0,079	0,146
-435,963	21,293	0,039	-0,023
-434,949	132,715	-0,191	0,177
-433,934	-53,187	-0,105	0,034
-432,919	77,325	-0,025	-0,019
-431,905	-200,000	-0,001	-0,035
-430,890	-99,968	-0,093	0,017
-429,876	-57,038	0,056	-0,018
-428,861	-200,000	0,038	0,184
-427,846	800,000	0,049	0,102
-426,832	101,254	-0,076	-0,063
-425,817	-200,000	-0,031	-0,115
-424,803	-200,000	0,003	-0,066
-423,788	-200,000	0,015	0,101
-422,773	-200,000	0,036	0,144
-421,759	-200,000	0,008	0,052
-420,744	-200,000	-0,029	-0,184
-419,730	800,000	-0,045	-0,097
-418,715	156,738	-0,061	-0,060
-417,701	-142,365	-0,095	0,007
-416,686	13,860	-0,087	0,048
-415,671	-148,829	0,115	-0,007
-414,657	164,251	0,038	0,039
-413,642	-40,287	0,157	0,058
-412,628	780,827	-0,030	0,058
-411,613	-200,000	-0,016	-0,109
-410,598	-49,341	-0,049	0,017
-409,584	-76,253	0,090	-0,023
-408,569	536,013	0,054	-0,092
-407,555	-9,248	0,122	0,058
-406,540	-162,827	-0,101	-0,003
-405,525	-70,872	-0,095	0,026
-404,511	-200,000	0,008	-0,045
-403,496	175,810	0,093	-0,096
-402,482	154,989	0,101	-0,100
-401,467	-113,180	0,076	-0,011
-400,452	-200,000	0,019	0,090
-399,438	-160,786	0,164	0,006
-398,423	-108,508	-0,047	0,007
-397,409	385,692	0,062	-0,091
-396,394	800,000	-0,011	-0,030
-395,379	-200,000	0,006	0,064
-394,365	259,850	0,054	0,067
-393,350	401,788	0,071	0,106
-392,336	800,000	-0,040	0,084
-391,321	115,318	-0,050	0,043
-390,306	-11,819	0,099	-0,046
-389,292	-200,000	0,021	0,107
-388,277	-146,065	0,120	-0,007
-387,263	175,893	-0,091	0,094
-386,248	800,000	-0,033	0,097
-385,233	-200,000	-0,002	0,082
-384,219	7,048	0,128	0,068
-383,204	800,000	0,033	-0,091
-382,190	54,593	-0,064	-0,044
-381,175	-200,000	0,011	0,077
-380,160	-200,000	-0,009	-0,037
-379,146	-104,635	0,088	0,014
-378,131	326,334	0,091	0,125
-377,117	-87,746	0,030	-0,006
-376,102	-200,000	-0,009	-0,050
-375,088	-122,152	-0,128	0,015
-374,073	475,121	0,034	0,055
-373,058	135,456	-0,020	0,019
-372,044	-200,000	-0,003	-0,069
-371,029	-13,071	-0,021	0,010
-370,015	770,293	0,098	-0,191
-369,000	800,000	0,033	-0,103
-367,985	137,069	-0,092	-0,086
-366,971	64,435	-0,080	-0,057
-365,956	-114,817	0,192	-0,026
-364,942	62,404	-0,082	0,058
-363,927	800,000	-0,020	0,057
-362,912	-200,000	-0,001	0,261
-361,898	-94,912	-0,063	-0,012
-360,883	366,973	0,024	-0,034
-359,869	609,513	-0,087	0,156
-358,854	800,000	-0,014	-0,037
-357,839	-29,853	0,141	0,057
-356,825	-19,439	0,095	0,042
-355,810	-200,000	0,019	0,082
-354,796	69,861	-0,067	0,049
-353,781	-200,000	-0,075	-0,265
-352,766	690,027	0,015	-0,027
-351,752	800,000	0,038	-0,100
-350,737	38,545	0,137	-0,087
-349,723	-15,445	0,045	-0,021
-348,708	-200,000	-0,012	0,045
-347,693	442,980	0,033	0,051
-346,679	-16,483	-0,070	0,032
-345,664	-158,697	-0,026	0,001
-344,650	173,301	-0,052	0,054
-343,635	-36,872	-0,082	-0,031
-342,620	374,419	-0,019	0,028
-341,606	74,400	0,072	0,054
-340,591	16,131	0,048	-0,027
-339,577	560,912	-0,076	0,132
-338,562	-200,000	-0,010	0,076
-337,548	11,705	0,113	-0,062
-336,533	514,598	0,019	-0,031
-335,518	97,314	0,013	0,011
-334,504	800,000	0,037	0,078
-333,489	-71,938	-0,181	0,048
-332,475	-200,000	-0,012	-0,116
-331,460	133,254	0,051	0,047
-330,445	800,000	0,057	0,130
-329,431	-21,075	0,149	0,065
-328,416	-200,000	0,001	0,038
-327,402	122,530	0,092	0,082
-326,387	356,207	-0,089	-0,127
-325,372	-51,095	-0,076	-0,025
-324,358	282,288	0,024	-0,030
-323,343	-200,000	-0,038	-0,178
-322,329	-200,000	0,005	-0,036
-321,314	7,989	0,052	0,028
-320,299	800,000	0,028	0,067
-319,285	800,000	0,039	0,098
-318,270	-200,000	-0,008	-0,103
-317,256	679,563	0,072	-0,134
-316,241	-99,973	-0,166	0,029
-315,226	-148,712	0,028	0,002
-314,212	18,305	0,093	-0,053
-313,197	122,754	-0,078	-0,070
-312,183	-109,265	0,122	-0,018
-311,168	648,660	-0,031	-0,057
-310,153	96,838	-0,055	-0,045
-309,139	-18,978	0,049	-0,022
-308,124	-200,000	-0,001	0,027
-307,110	-77,617	0,083	0,020
-306,095	64,296	0,065	-0,046
-305,080	-200,000	0,001	0,049
-304,066	81,499	0,025	0,020
-303,051	15,200	0,037	-0,020
-302,037	-0,846	0,169	-0,085
-301,022	214,455	0,055	0,062
-300,008	99,980	0,078	0,065
-298,993	-1,488	0,159	0,080
-297,978	-200,000	-0,004	0,041
-296,964	170,058	-0,008	-0,008
-295,949	-96,860	-0,117	-0,022
-294,935	239,765	-0,026	0,031
-293,920	592,440	0,034	0,060
-292,905	595,295	0,068	0,120
-291,891	-200,000	0,040	0,147
-290,876	-200,000	-0,004	0,073
-289,862	-7,397	-0,078	0,038
-288,847	-106,979	-0,079	-0,012
-287,832	-87,752	-0,055	-0,012
-286,818	138,555	-0,102	-0,095
-285,803	209,635	-0,022	-0,024
-284,789	800,000	-0,057	-0,116
-283,774	800,000	0,025	-0,075
-282,759	-91,177	-0,136	0,028
-281,745	800,000	-0,034	0,085
-280,730	23,198	-0,074	0,043
-279,716	337,236	0,098	0,137
-278,701	48,435	0,126	-0,084
-277,686	-200,000	0,007	0,043
-276,672	-33,039	0,072	0,028
-275,657	-200,000	0,001	-0,047
-274,643	287,429	-0,045	0,058
-273,628	800,000	0,013	0,033
-272,613	800,000	-0,021	0,048
-271,599	611,184	0,069	0,123
-270,584	-26,540	-0,070	0,029
-269,570	800,000	0,028	0,067
-268,555	374,146	0,064	0,093
-267,540	224,468	-0,059	0,068
-266,526	-10,696	0,128	-0,060
-265,511	454,257	0,013	-0,020
-264,497	800,000	-0,039	-0,102
-263,482	26,317	-0,019	-0,012
-262,467	258,018	0,025	0,031
-261,453	-171,722	0,092	0,002
-260,438	-42,656	-0,097	-0,035
-259,424	85,977	-0,061	-0,047
-258,409	-157,334	0,066	0,003
-257,395	127,390	0,073	0,066
-256,380	-200,000	-0,005	-0,228
-255,365	800,000	-0,042	-0,121
-254,351	-55,675	-0,120	-0,038
-253,336	206,045	0,044	0,048
-252,322	-10,917	0,011	0,005
-251,307	29,714	-0,072	0,043
-250,292	147,060	0,080	-0,076
-249,278	-16,374	-0,053	-0,024
-248,263	119,450	0,063	0,055
-247,249	-200,000	0,055	0,183
-246,234	133,388	0,085	-0,079
-245,219	800,000	0,020	-0,047
-244,205	66,751	-0,031	-0,022
-243,190	86,428	0,033	-0,026
-242,176	-106,924	-0,088	-0,014
-241,161	69,126	0,128	-0,093
-240,146	91,505	0,096	0,077
-239,132	-85,233	0,094	0,021
-238,117	-173,676	-0,048	-0,001
-237,103	118,022	-0,048	0,042
-236,088	-32,188	-0,105	-0,042
-235,073	-200,000	-0,004	0,026
-234,059	-79,835	0,233	0,055
-233,044	243,616	0,018	-0,022
-232,030	800,000	0,041	-0,092
-231,015	-200,000	-0,007	0,031
-230,000	371,520	0,027	-0,039
-228,986	-0,396	-0,103	-0,052
-227,971	-160,248	0,052	-0,002
-226,957	-183,957	0,060	0,001
-225,942	800,000	0,036	0,102
-224,927	-200,000	0,017	-0,096
-223,913	51,387	-0,088	-0,059
-222,898	-154,243	-0,141	0,007
-221,884	-200,000	-0,045	-0,225
-220,869	83,728	-0,058	0,045
-219,855	800,000	0,071	0,186
-218,840	74,083	-0,094	0,070
-217,825	-4,211	0,087	0,043
-216,811	-33,975	0,053	0,021
-215,796	201,598	-0,114	-0,125
-214,782	800,000	0,019	-0,045
-213,767	800,000	-0,016	0,038
-212,752	139,606	-0,078	-0,073
-211,738	102,989	0,021	0,017
-210,723	-200,000	-0,005	-0,062
-209,709	-106,825	-0,065	-0,010
-208,694	-78,323	-0,142	-0,034
-207,679	86,844	-0,081	0,063
-206,665	-200,000	-0,002	-0,019
-205,650	439,246	-0,078	-0,121
-204,636	800,000	0,020	0,048
-203,621	-19,475	0,097	-0,043
-202,606	105,375	0,048	0,040
-201,592	-78,240	-0,083	-0,020
-200,577	-200,000	0,015	-0,178
-199,563	165,287	0,065	0,065
-198,548	349,033	0,081	0,114
-197,533	800,000	0,023	0,057
-196,519	-74,937	-0,177	0,045
-195,504	163,091	0,030	0,030
-194,490	800,000	-0,041	-0,122
-193,475	800,000	0,042	-0,088
-192,460	-122,707	0,107	0,012
-191,446	-56,183	-0,116	0,036
-190,431	800,000	-0,024	-0,075
-189,417	-200,000	0,001	-0,142
-188,402	800,000	-0,046	0,124
-187,387	-28,856	-0,026	-0,011
-186,373	351,496	0,074	0,104
-185,358	22,952	-0,039	0,023
-184,344	-100,519	0,151	0,026
-183,329	-152,975	0,165	-0,008
-182,315	-195,332	0,159	-0,001
-181,300	800,000	-0,026	0,075
-180,285	-116,310	-0,019	-0,002
-179,271	-200,000	-0,005	-0,155
-178,256	604,422	-0,034	-0,060
-177,242	176,102	0,068	0,070
-176,227	-200,000	-0,004	0,023
-175,212	800,000	-0,059	0,151
-174,198	-200,000	0,007	-0,131
-173,183	94,737	-0,128	-0,103
-172,169	-173,514	0,095	0,002
-171,154	80,896	-0,132	-0,101
-170,139	-200,000	0,032	0,109
-169,125	800,000	0,045	0,097
-168,110	-115,100	0,086	0,011
-167,096	-200,000	-0,019	-0,072
-166,081	800,000	0,012	-0,033
-165,066	-13,475	0,035	-0,016
-164,052	800,000	-0,015	0,046
-163,037	95,079	-0,067	-0,054
-162,023	39,643	-0,015	-0,010
-161,008	440,540	0,015	-0,023
-159,993	363,347	-0,029	-0,042
-158,979	144,496	0,093	-0,088
-157,964	-153,240	-0,194	0,009
-156,950	-68,950	0,019	-0,005
-155,935	-31,457	-0,029	-0,012
-154,920	-40,026	0,055	0,020
-153,906	-200,000	0,001	0,051
-152,891	-200,000	-0,004	-0,015
-151,877	-53,544	-0,066	0,021
-150,862	356,824	-0,053	0,075
-149,847	170,021	-0,075	-0,076
-148,833	577,453	0,010	-0,017
-147,818	-200,000	0,015	-0,097
-146,804	145,135	0,037	0,035
-145,789	182,887	0,110	0,115
-144,775	60,362	0,066	-0,046
-143,760	800,000	-0,028	-0,086
-142,745	70,792	-0,048	-0,035
-141,731	-52,833	0,073	-0,024
-140,716	-4,486	0,106	0,052
-139,702	-200,000	0,008	0,054
-138,687	-200,000	-0,003	0,156
-137,672	6,622	-0,083	-0,043
-136,658	250,418	-0,044	0,053
-135,643	-200,000	0,014	0,103
-134,629	41,879	-0,110	-0,071
-133,614	216,943	-0,093	0,106
-132,599	-72,291	-0,033	-0,009
-131,585	800,000	0,019	-0,047
-130,570	31,198	-0,131	0,079
-129,556	-14,707	-0,075	-0,034
-128,541	184,302	-0,070	-0,074
-127,526	-69,734	0,087	0,023
-126,512	-107,660	-0,062	0,009
-125,497	-200,000	-0,012	0,057
-124,483	100,128	0,196	0,161
-123,468	47,734	0,024	0,016
-122,453	-200,000	-0,002	-0,145
-121,439	800,000	-0,029	-0,059
-120,424	-40,199	0,021	-0,008
-119,410	-200,000	0,015	0,160
-118,395	-200,000	0,034	0,127
-117,380	800,000	0,036	0,102
-116,366	-200,000	0,001	-0,030
-115,351	800,000	-0,005	-0,012
-114,337	171,995	0,076	-0,078
-113,322	460,149	-0,073	0,115
-112,307	-200,000	-0,018	0,062
-111,293	-200,000	0,016	0,105
-110,278	-39,375	-0,107	-0,039
-109,264	-200,000	0,004	-0,035
-108,249	42,722	0,023	-0,015
-107,234	-200,000	-0,030	-0,114
-106,220	-200,000	0,007	-0,232
-105,205	49,220	-0,101	-0,067
-104,191	-65,140	-0,037	0,010
-103,176	100,109	-0,049	-0,040
-102,162	800,000	-0,033	0,074
-101,147	160,122	-0,090	-0,089
-100,132	492,331	-0,048	-0,078
-99,118	800,000	0,010	0,028
-98,103	800,000	-0,040	0,083
-97,089	-154,138	0,088	-0,004
-96,074	-91,228	-0,182	-0,037
-95,059	149,190	-0,163	-0,156
-94,045	-25,768	-0,061	-0,025
-93,030	800,000	-0,076	-0,206
-92,016	-45,300	0,101	-0,035
-91,001	-200,000	0,008	-0,077
-89,986	800,000	-0,019	-0,053
-88,972	-20,623	-0,109	-0,047
-87,957	-200,000	0,002	0,026
-86,943	565,262	0,031	-0,054
-85,928	-149,643	-0,140	-0,008
-84,913	-91,978	0,082	-0,016
-83,899	631,276	0,038	0,068
-82,884	-50,279	0,068	-0,023
-81,870	-114,598	-0,050	0,007
-80,855	-200,000	-0,028	0,108
-79,840	133,067	-0,057	-0,052
-78,826	434,695	0,045	-0,069
-77,811	249,258	0,042	0,050
-76,797	-200,000	-0,004	-0,012
-75,782	-76,930	-0,057	0,014
-74,767	202,752	-0,110	0,120
-73,753	-200,000	0,015	-0,084
-72,738	-200,000	-0,013	-0,046
-71,724	800,000	0,023	0,071
-70,709	-108,828	0,064	0,010
-69,694	-80,457	-0,120	0,028
-68,680	800,000	-0,041	0,084
-67,665	324,184	0,008	-0,011
-66,651	75,281	-0,106	0,079
-65,636	-27,391	-0,035	0,014
-64,622	-149,446	-0,054	-0,003
-63,607	95,002	-0,185	-0,148
-62,592	-200,000	-0,002	-0,203
-61,578	197,198	-0,025	-0,027
-60,563	-47,076	-0,061	0,021
-59,549	-200,000	-0,001	0,111
-58,534	32,194	-1,880	-1,143
-57,519	387,858	-1,372	-2,011
-56,505	-200,000	-0,340	-4,510
-55,490	381,681	0,896	1,304
-54,476	800,000	5,262	11,719
-53,461	-200,000	21,106	338,184
-52,446	800,000	758,949	2345,835
-51,432	554,959	1663,410	2837,870
-50,417	73,730	1665,081	1230,890
-49,403	18,508	1538,404	865,968
-48,388	12,453	1461,675	793,428
-47,373	19,439	1452,552	822,041
-46,359	15,856	1441,815	798,857
-45,344	10,731	1437,597	772,037
-44,330	10,635	1435,788	770,576
-43,315	10,638	1433,802	769,493
-42,300	10,621	1432,107	768,469
-41,286	10,621	1430,897	767,789
-40,271	10,632	1429,520	767,076
-39,257	10,614	1428,400	766,355
-38,242	10,711	1427,370	766,234
-37,227	10,681	1426,067	765,364
-36,213	10,660	1425,079	764,704
-35,198	10,655	1423,710	763,914
-34,184	10,724	1422,824	763,737
-33,169	10,670	1421,662	762,827
-32,154	10,721	1420,442	762,379
-31,140	10,757	1419,088	761,795
-30,125	10,764	1418,258	761,353
-29,111	10,712	1417,082	760,446
-28,096	10,726	1415,997	759,899
-27,082	10,638	1414,800	758,813
-26,067	10,651	1413,566	758,183
-25,052	10,661	1412,537	757,648
-24,038	10,649	1411,749	757,138
-23,023	10,654	1410,670	756,552
-22,009	10,671	1409,390	755,916
-20,994	10,618	1408,645	755,235
-19,979	10,614	1407,781	754,725
-18,965	10,581	1406,497	753,852
-17,950	10,585	1405,837	753,490
-16,936	10,549	1405,067	752,876
-15,921	10,540	1404,018	752,245
-14,906	10,544	1403,265	751,828
-13,892	10,564	1402,139	751,289
-12,877	10,540	1401,296	750,696
-11,863	10,570	1400,504	750,382
-10,848	10,493	1399,634	749,528
-9,833	10,444	1398,861	748,854
-8,819	10,452	1397,716	748,249
-7,804	10,408	1397,090	747,681
-6,790	10,436	1396,043	747,221
-5,775	10,495	1394,814	746,804
-4,760	10,513	1393,725	746,275
-3,746	10,478	1393,024	745,710
-2,731	10,443	1392,294	745,129
-1,717	10,414	1391,387	744,481
-0,702	10,435	1389,580	743,581
0,313	14,419	1302,335	715,177
1,327	30,654	692,582	417,264
2,342	47,715	120,211	79,030
3,356	-0,396	16,601	8,294
4,371	3,939	3,401	1,748
5,386	-31,558	1,099	0,434
6,400	-200,000	0,193	0,630
7,415	-72,433	-0,336	-0,087
8,429	-20,005	-0,371	-0,161
9,444	21,782	-0,310	-0,178
10,459	267,585	-0,219	-0,271
11,473	55,241	-0,231	-0,157
12,488	-57,486	-0,279	-0,086
13,502	0,942	-0,303	-0,152
14,517	7,620	-0,343	-0,180
15,531	17,785	-0,336	-0,188
16,546	67,799	-0,287	-0,207
17,561	183,514	-0,268	-0,280
18,575	-78,048	-0,211	-0,051
19,590	196,540	-0,226	-0,243
20,604	12,994	-0,251	-0,136
21,619	282,021	-0,216	-0,274
22,634	140,149	-0,391	-0,363
23,648	103,816	-0,397	-0,328
24,663	24,429	-0,369	-0,214
25,677	82,310	-0,362	-0,276
26,692	112,896	-0,396	-0,338
27,707	-25,279	-0,402	-0,167
28,721	217,693	-0,312	-0,351
29,736	8,193	-0,470	-0,248
30,750	-25,094	-0,589	-0,244
31,765	173,812	-0,424	-0,431
32,780	176,468	-0,394	-0,403
33,794	37,027	-0,314	-0,195
34,809	8,815	-0,466	-0,247
35,823	-36,047	-0,431	-0,163
36,838	38,052	-0,410	-0,256
37,853	-2,186	-0,440	-0,217
38,867	237,140	-0,277	-0,323
39,882	252,847	-0,297	-0,357
40,896	52,931	-0,451	-0,303
41,911	118,543	-0,343	-0,298
42,926	31,572	-0,297	-0,179
43,940	123,402	-0,366	-0,323
44,955	26,935	-0,451	-0,265
45,969	79,586	-0,317	-0,239
46,984	285,094	-0,252	-0,320
47,999	22,708	-0,487	-0,279
49,013	65,735	-0,200	-0,142
50,028	121,198	-0,239	-0,209
51,042	116,461	-0,329	-0,284
52,057	-32,415	-0,405	-0,158
53,071	26,504	-0,417	-0,245
54,086	13,229	-0,348	-0,189
55,101	240,286	-0,208	-0,243
56,115	-75,088	-0,298	-0,074
57,130	-8,890	-0,395	-0,185
58,144	70,247	-0,411	-0,298
59,159	9,876	-0,490	-0,260
60,174	201,158	-0,346	-0,374
61,188	41,521	-0,418	-0,265
62,203	66,809	-0,405	-0,289
63,217	61,789	-0,374	-0,261
64,232	-14,249	-0,402	-0,181
65,247	45,637	-0,203	-0,131
66,261	104,069	-0,339	-0,279
67,276	266,712	-0,261	-0,321
68,290	7,390	-0,315	-0,165
69,305	-55,846	-0,294	-0,091
70,320	-32,495	-0,337	-0,131
71,334	-178,832	-0,288	0,004
72,349	-26,646	-0,374	-0,153
73,363	-32,163	-0,441	-0,172
74,378	91,653	-0,316	-0,249
75,393	180,850	-0,286	-0,295
76,407	154,800	-0,229	-0,221
77,422	-77,178	-0,286	-0,069
78,436	48,117	-0,201	-0,131
79,451	-33,232	-0,252	-0,097
80,466	-200,000	-0,436	-0,000
81,480	-9,667	-0,460	-0,214
82,495	-36,993	-0,315	-0,118
83,509	7,589	-0,352	-0,184
84,524	-32,599	-0,338	-0,131
85,539	-62,174	-0,303	-0,088
86,553	52,742	-0,214	-0,143
87,568	-26,287	-0,419	-0,171
88,582	36,447	-0,362	-0,223
89,597	-1,302	-0,377	-0,186
90,611	72,082	-0,289	-0,211
91,626	24,373	-0,245	-0,141
92,641	45,111	-0,351	-0,226
93,655	40,377	-0,310	-0,195
94,670	69,483	-0,212	-0,152
95,684	-88,855	-0,466	-0,096
96,699	-17,037	-0,274	-0,121
97,714	240,371	-0,196	-0,229
98,728	37,564	-0,339	-0,210
99,743	85,765	-0,242	-0,186
100,757	-131,493	-0,329	-0,030
101,772	-5,452	-0,324	-0,155
102,787	-46,235	-0,289	-0,099
103,801	-9,680	-0,333	-0,154
104,816	86,200	-0,212	-0,163
105,830	-0,543	-0,309	-0,153
106,845	33,477	-0,236	-0,143
107,860	28,943	-0,292	-0,173
108,874	-51,968	-0,352	-0,114
109,889	49,920	-0,332	-0,218
110,903	16,189	-0,412	-0,227
111,918	150,200	-0,296	-0,281
112,933	-99,905	-0,163	-0,028
113,947	-50,080	-0,288	-0,095
114,962	-42,446	-0,299	-0,106
115,976	-37,479	-0,404	-0,150
116,991	-22,309	-0,261	-0,110
118,006	323,057	-0,210	-0,280
119,020	30,163	-0,292	-0,174
120,035	273,298	-0,238	-0,294
121,049	-21,893	-0,252	-0,106
122,064	254,792	-0,171	-0,204
123,079	6,658	-0,293	-0,152
124,093	449,493	-0,211	-0,326
125,108	-2,551	-0,482	-0,235
126,122	69,510	-0,252	-0,181
127,137	-72,801	-0,327	-0,083
128,151	16,038	-0,243	0,133
129,166	65,873	-0,171	-0,121
130,181	180,623	-0,282	-0,289
131,195	353,599	-0,260	-0,362
132,210	77,842	-0,367	-0,273
133,224	115,572	-0,270	-0,231
134,239	373,029	-0,195	-0,278
135,254	48,023	-0,249	-0,162
136,268	153,220	-0,140	-0,134
137,283	-92,713	-0,313	-0,060
138,297	-0,831	-0,293	-0,144
139,312	73,418	-0,318	-0,232
140,327	194,038	-0,228	-0,241
141,341	-38,886	-0,156	-0,057
142,356	800,000	-0,131	-0,256
143,370	37,193	-0,243	-0,150
144,385	57,928	-0,225	-0,153
145,400	18,156	-0,330	-0,183
146,414	124,934	-0,154	-0,135
147,429	62,342	-0,404	-0,280
148,443	438,784	-0,210	-0,321
149,458	38,724	-0,211	-0,131
150,473	-32,854	-0,204	-0,079
151,487	-21,136	-0,299	-0,127
152,502	30,882	-0,195	-0,116
153,516	10,632	-0,201	-0,107
154,531	-16,703	-0,217	-0,095
155,546	736,385	-0,082	-0,154
156,560	50,270	-0,246	-0,162
157,575	-88,468	-0,156	-0,032
158,589	1,725	-0,276	-0,138
159,604	52,521	-0,323	-0,214
160,619	190,511	-0,214	-0,224
161,633	11,511	-0,322	-0,171
162,648	4,042	-0,238	-0,121
163,662	44,067	-0,268	-0,171
164,677	-57,906	-0,254	-0,077
165,692	156,103	-0,196	-0,188
166,706	311,676	-0,238	-0,311
167,721	160,109	-0,223	-0,216
168,735	21,736	-0,212	-0,120
169,750	-109,727	-0,302	-0,044
170,764	124,365	-0,242	-0,211
171,779	-32,653	-0,232	-0,089
172,794	47,919	-0,230	-0,149
173,808	7,865	-0,303	-0,157
174,823	262,339	-0,202	-0,244
175,837	26,085	-0,282	-0,163
176,852	220,071	-0,213	-0,237
177,867	-2,682	-0,263	-0,128
178,881	-200,000	-0,028	-0,112
179,896	96,891	-0,190	-0,152
180,910	-5,754	-0,355	-0,168
181,925	-58,477	-0,272	-0,082
182,940	-23,202	-0,285	-0,119
183,954	114,989	-0,177	-0,150
184,969	30,458	-0,099	-0,059
185,983	99,539	-0,146	-0,117
186,998	44,784	-0,126	-0,081
188,013	206,256	-0,155	-0,168
189,027	113,454	-0,169	-0,142
190,042	-43,575	-0,402	-0,140
191,056	-33,871	-0,232	-0,088
192,071	-133,229	-0,282	-0,024
193,086	65,061	-0,237	-0,166
194,100	-103,958	-0,226	-0,036
195,115	41,258	-0,167	-0,104
196,129	114,603	-0,188	-0,159
197,144	683,756	-0,125	-0,227
198,159	167,746	-0,268	-0,265
199,173	-200,000	0,018	-0,243
200,188	446,826	-0,101	-0,154
201,202	-2,879	-0,215	-0,104
202,217	-158,648	-0,218	0,009
203,232	96,218	-0,140	-0,111
204,246	198,275	-0,213	-0,226
205,261	-5,718	-0,288	-0,136
206,275	249,251	-0,171	-0,201
207,290	245,194	-0,139	-0,162
208,304	115,261	-0,093	-0,079
209,319	110,581	-0,197	-0,164
210,334	87,197	-0,175	-0,134
211,348	96,646	-0,161	-0,128
212,363	79,046	-0,228	-0,169
213,377	-26,690	-0,271	-0,109
214,392	84,292	-0,213	-0,161
215,407	-80,219	-0,180	-0,041
216,421	-69,171	-0,285	-0,075
217,436	101,217	-0,171	-0,137
218,450	144,839	-0,234	-0,217
219,465	597,544	-0,118	-0,204
220,480	139,955	-0,176	-0,160
221,494	-19,204	-0,222	-0,095
222,509	-20,761	-0,249	-0,105
223,523	353,168	-0,140	-0,193
224,538	237,390	-0,146	-0,167
225,553	78,512	-0,299	-0,221
226,567	293,351	-0,127	-0,161
227,582	747,198	-0,084	-0,157
228,596	81,804	-0,175	-0,131
229,611	516,018	-0,109	-0,176
230,626	145,659	-0,140	-0,130
231,640	61,782	-0,201	-0,138
232,655	263,675	-0,135	-0,162
233,669	428,122	-0,219	-0,328
234,684	498,257	-0,182	-0,290
235,699	389,607	-0,110	-0,158
236,713	26,076	-0,101	-0,058
237,728	31,640	-0,080	-0,048
238,742	-115,193	-0,163	-0,021
239,757	-18,398	-0,237	-0,102
240,772	800,000	-0,096	-0,248
241,786	-36,588	-0,175	-0,065
242,801	22,163	-0,125	-0,071
243,815	-108,756	-0,096	-0,014
244,830	6,815	-0,188	-0,096
245,844	-94,228	-0,206	-0,039
246,859	-25,030	-0,275	-0,112
247,874	-1,196	-0,093	-0,045
248,888	233,733	-0,158	-0,179
249,903	35,187	-0,150	-0,091
250,917	-103,490	-0,269	-0,043
251,932	-92,711	-0,089	-0,017
252,947	58,463	-0,222	-0,150
253,961	35,608	-0,141	-0,085
254,976	44,705	-0,155	-0,098
255,990	238,027	-0,215	-0,246
257,005	123,526	-0,181	-0,156
258,020	465,188	-0,192	-0,297
259,034	-61,543	-0,096	-0,028
260,049	7,269	-0,155	-0,080
261,063	286,648	-0,186	-0,233
262,078	-43,108	-0,335	-0,116
263,093	163,638	-0,167	-0,162
264,107	199,158	-0,131	-0,138
265,122	-200,000	0,004	-0,014
266,136	-65,183	-0,158	0,044
267,151	-98,944	-0,111	0,019
268,166	-2,953	-0,081	0,039
269,180	-200,000	-0,047	-0,175
270,195	-74,715	-0,194	-0,048
271,209	-90,408	-0,213	-0,042
272,224	-1,907	-0,079	-0,038
273,239	115,073	-0,062	-0,052
274,253	309,610	-0,102	-0,132
275,268	-23,026	-0,197	-0,081
276,282	3,621	-0,189	-0,095
277,297	-145,868	-0,228	-0,014
278,312	800,000	-0,069	-0,143
279,326	-200,000	-0,046	-0,243
280,341	252,510	-0,175	-0,206
281,355	89,005	-0,197	-0,151
282,370	-116,897	-0,137	-0,017
283,384	11,602	-0,234	-0,123
284,399	236,121	-0,209	-0,238
285,414	64,812	-0,211	-0,146
286,428	-36,979	-0,171	-0,063
287,443	800,000	-0,031	-0,080
288,457	-4,664	-0,274	-0,130
289,472	29,547	-0,210	-0,123
290,487	-71,517	-0,149	-0,038
291,501	-5,183	-0,230	-0,108
292,516	-46,450	-0,161	-0,054
293,530	253,712	-0,145	-0,170
294,545	733,485	-0,118	-0,218
295,560	-18,849	-0,104	-0,044
296,574	-5,302	-0,199	0,094
297,589	21,850	-0,198	-0,111
298,603	47,236	-0,141	-0,090
299,618	528,364	-0,087	-0,142
300,633	-112,519	-0,070	-0,009
301,647	-200,000	-0,047	-0,263
302,662	79,737	-0,093	-0,069
303,676	87,799	-0,154	-0,117
304,691	612,125	-0,073	-0,126
305,706	-64,875	-0,135	-0,037
306,720	194,832	-0,186	-0,194
307,735	-40,256	-0,140	-0,050
308,749	221,011	-0,073	-0,081
309,764	-38,734	-0,138	0,050
310,779	-170,539	-0,136	-0,003
311,793	5,626	-0,266	-0,135
312,808	-73,631	-0,145	-0,036
313,822	122,967	-0,163	-0,140
314,837	84,196	-0,099	-0,074
315,852	30,455	-0,148	-0,087
316,866	800,000	-0,033	-0,092
317,881	-11,147	-0,252	-0,114
318,895	-26,689	-0,165	-0,066
319,910	-71,107	-0,182	-0,047
320,925	20,886	-0,201	-0,111
321,939	-70,323	-0,147	-0,038
322,954	800,000	-0,114	-0,235
323,968	127,135	-0,165	-0,143
324,983	-200,000	-0,009	-0,143
325,997	-72,889	-0,158	-0,039
327,012	181,384	-0,164	-0,166
328,027	626,445	-0,033	-0,057
329,041	162,872	-0,198	-0,191
330,056	246,040	-0,105	-0,122
331,070	103,352	-0,045	0,036
332,085	-115,334	-0,228	-0,029
333,100	-185,103	-0,181	0,002
334,114	-75,071	-0,200	-0,049
335,129	9,000	-0,305	-0,157
336,143	-119,548	-0,130	-0,015
337,158	247,365	-0,106	0,123
338,173	-25,641	-0,078	-0,031
339,187	81,691	-0,034	0,025
340,202	-200,000	-0,042	-0,217
341,216	562,506	-0,074	-0,123
342,231	-31,003	-0,167	-0,064
343,246	-48,438	-0,145	-0,048
344,260	-22,596	-0,181	-0,075
345,275	-122,424	-0,147	0,016
346,289	664,080	-0,065	-0,116
347,304	-65,349	-0,219	0,060
348,319	-163,863	-0,169	-0,005
349,333	-89,129	-0,144	-0,029
350,348	251,638	-0,127	-0,149
351,362	-200,000	-0,027	-0,168
352,377	107,177	-0,111	-0,090
353,392	-13,165	-0,176	-0,078
354,406	-84,862	-0,176	-0,037
355,421	207,079	1313,023	1402,321
356,435	159,286	1473,511	1402,802
