DTS Sentinel unit serial number:	SN410029Multiplexer serial number:	ORYXHardware model number:	OX2-SRSoftware version number:	ORYX F/W v4,00 Oryx Data Collector v3.7.2.0data status	okinstallation	B3 Nyhavnadifferential loss correction	single-endedforward channel	channel 1reverse channel	N/Adate	2023/11/29time	00:12:30forward acquisition time	300,00reverse acquisition time	0,00gamma	499,1914k internal	0,3212k external	0,3212temperature offset calibration	1,0000default loss term (dB/km)	0,3820temperature slope calibration	1,0000multiplexer offset coefficient	1,0000multiplexer slope coefficient	1,0000fibre end	0,00T internal ref (°C)	9,02T ext. ref 1 (°C)	-5,27T ext. ref 2 (°C)	-5,40length (m)	temperature (°C)	Stokes	anti-Stokes-744,400	414,403	-0,199	-0,308
-743,385	-200,000	0,058	0,379
-742,371	-15,655	-0,176	-0,081
-741,356	-200,000	-0,021	0,165
-740,342	239,328	-0,158	-0,191
-739,327	-200,000	0,015	0,236
-738,312	142,378	-0,244	-0,235
-737,298	-200,000	-0,027	0,194
-736,283	800,000	-0,115	-0,255
-735,269	656,416	0,107	0,201
-734,254	201,018	-0,212	-0,236
-733,239	-130,450	-0,195	0,019
-732,225	117,385	-0,146	-0,130
-731,210	230,161	0,092	0,109
-730,196	17,271	-0,045	-0,026
-729,181	800,000	0,100	-0,220
-728,167	-77,280	-0,026	0,007
-727,152	-108,280	-0,078	-0,012
-726,137	409,886	-0,034	-0,053
-725,123	-58,801	-0,147	0,046
-724,108	75,307	-0,044	-0,033
-723,094	-5,264	-0,083	0,041
-722,079	800,000	-0,064	0,138
-721,064	-200,000	-0,008	0,083
-720,050	296,901	0,064	0,085
-719,035	-200,000	0,010	0,061
-718,021	-126,944	0,068	0,007
-717,006	341,082	-0,069	-0,098
-715,991	-121,992	-0,060	-0,007
-714,977	800,000	0,055	-0,127
-713,962	-200,000	0,013	-0,081
-712,948	108,734	-0,099	-0,086
-711,933	-12,683	0,064	-0,030
-710,918	333,425	0,085	0,119
-709,904	-200,000	0,002	-0,057
-708,889	49,616	-0,021	0,014
-707,875	37,373	-0,124	-0,079
-706,860	236,939	0,073	0,087
-705,845	-113,117	-0,100	0,014
-704,831	-94,310	0,113	0,022
-703,816	-143,420	0,090	-0,006
-702,802	-200,000	0,017	-0,132
-701,787	162,279	-0,064	-0,065
-700,772	308,196	0,049	-0,066
-699,758	-124,817	-0,063	0,007
-698,743	42,964	-0,054	-0,036
-697,729	-18,950	0,092	-0,041
-696,714	-20,475	0,112	0,050
-695,699	508,118	-0,070	-0,118
-694,685	-200,000	-0,006	-0,073
-693,670	412,487	-0,068	0,105
-692,656	-200,000	0,012	0,105
-691,641	-63,158	0,058	0,017
-690,627	-24,416	-0,103	-0,044
-689,612	-52,383	0,013	0,004
-688,597	-96,167	-0,160	-0,030
-687,583	124,123	-0,077	0,070
-686,568	800,000	-0,033	-0,083
-685,554	800,000	-0,036	0,093
-684,539	-106,157	0,046	0,007
-683,524	11,720	-0,072	0,040
-682,510	-200,000	0,012	-0,071
-681,495	247,948	-0,026	-0,032
-680,481	20,679	-0,211	-0,123
-679,466	-118,948	-0,077	-0,010
-678,451	800,000	0,053	-0,108
-677,437	-200,000	0,010	0,073
-676,422	800,000	0,026	0,082
-675,408	10,735	0,134	-0,074
-674,393	-163,657	-0,141	0,005
-673,378	-120,354	-0,062	0,007
-672,364	181,425	0,084	-0,089
-671,349	3,293	0,088	-0,046
-670,335	-152,295	-0,096	0,005
-669,320	-200,000	0,031	0,147
-668,305	-114,877	0,073	0,010
-667,291	-200,000	-0,011	-0,078
-666,276	-78,329	0,073	0,018
-665,262	388,805	-0,085	-0,127
-664,247	455,014	0,030	-0,048
-663,232	-200,000	0,010	0,039
-662,218	62,713	-0,024	-0,017
-661,203	-51,160	-0,088	-0,030
-660,189	-177,033	0,032	-0,001
-659,174	733,301	-0,063	-0,122
-658,159	13,803	-0,077	-0,043
-657,145	-115,076	0,035	-0,005
-656,130	-136,856	0,066	0,005
-655,116	-72,857	-0,121	0,032
-654,101	456,379	-0,070	-0,113
-653,086	661,138	0,041	0,076
-652,072	84,234	-0,149	-0,118
-651,057	-200,000	0,041	-0,160
-650,043	-20,935	-0,120	-0,053
-649,028	-93,316	0,119	-0,024
-648,014	-200,000	0,003	0,076
-646,999	-200,000	0,016	0,077
-645,984	548,606	-0,025	0,044
-644,970	-13,880	-0,207	-0,096
-643,955	242,956	-0,043	0,053
-642,941	82,152	-0,134	-0,105
-641,926	70,475	0,035	-0,026
-640,911	156,393	-0,080	0,080
-639,897	-109,362	-0,089	0,013
-638,882	800,000	-0,068	0,138
-637,868	110,384	-0,073	-0,064
-636,853	-168,602	-0,091	-0,002
-635,838	10,697	-0,014	0,008
-634,824	-111,814	-0,033	0,005
-633,809	-200,000	0,009	0,031
-632,795	382,652	-0,037	0,055
-631,780	36,363	0,060	0,038
-630,765	722,884	0,044	-0,085
-629,751	800,000	0,020	-0,042
-628,736	64,432	-0,100	-0,073
-627,722	-76,463	-0,025	-0,006
-626,707	-31,287	-0,160	0,065
-625,692	-115,082	-0,080	-0,011
-624,678	-85,315	0,089	-0,020
-623,663	595,122	-0,026	-0,046
-622,649	800,000	-0,051	0,125
-621,634	9,741	-0,124	-0,067
-620,619	-110,351	-0,143	0,021
-619,605	58,613	0,110	0,078
-618,590	-200,000	-0,023	-0,152
-617,576	178,854	-0,036	0,038
-616,561	-200,000	0,027	0,090
-615,546	-60,059	-0,063	0,019
-614,532	264,994	0,061	-0,077
-613,517	85,046	-0,039	-0,031
-612,503	-200,000	-0,038	0,144
-611,488	800,000	-0,055	0,145
-610,474	800,000	0,104	0,220
-609,459	44,674	0,082	0,054
-608,444	800,000	0,031	-0,077
-607,430	362,259	-0,118	-0,171
-606,415	-200,000	-0,006	-0,080
-605,401	463,056	-0,060	-0,097
-604,386	-155,567	0,086	0,004
-603,371	548,111	-0,013	0,023
-602,357	285,980	-0,031	0,041
-601,342	-200,000	0,009	0,095
-600,328	-30,334	0,036	-0,015
-599,313	-172,864	-0,102	0,002
-598,298	-200,000	0,002	0,013
-597,284	268,780	-0,029	-0,036
-596,269	-200,000	-0,009	-0,097
-595,255	236,970	-0,090	0,108
-594,240	147,119	0,082	-0,080
-593,225	151,269	-0,106	-0,104
-592,211	178,687	-0,046	-0,049
-591,196	-40,248	-0,085	-0,032
-590,182	-200,000	0,016	-0,089
-589,167	-15,947	0,038	0,017
-588,152	297,136	0,062	0,083
-587,138	-67,620	-0,106	0,030
-586,123	-200,000	0,005	0,125
-585,109	78,397	-0,081	-0,063
-584,094	-61,765	0,096	-0,029
-583,079	-200,000	-0,032	0,131
-582,065	497,438	-0,021	0,035
-581,050	-151,337	0,084	-0,004
-580,036	-184,789	0,120	0,001
-579,021	32,839	0,050	-0,031
-578,006	-200,000	-0,016	-0,069
-576,992	-12,679	0,092	0,043
-575,977	222,788	-0,095	0,110
-574,963	-42,927	0,058	0,021
-573,948	311,502	-0,044	0,060
-572,934	3,946	-0,087	0,046
-571,919	-200,000	0,004	-0,051
-570,904	89,866	-0,165	0,133
-569,890	271,659	-0,061	-0,077
-568,875	800,000	0,011	-0,033
-567,861	649,156	0,089	0,164
-566,846	800,000	-0,018	-0,052
-565,831	-8,818	0,068	-0,033
-564,817	187,672	-0,050	-0,053
-563,802	353,139	0,047	-0,067
-562,788	188,246	0,054	-0,058
-561,773	-81,764	-0,125	0,029
-560,758	-91,879	0,029	0,006
-559,744	-82,611	0,073	0,017
-558,729	-200,000	0,006	-0,111
-557,715	449,783	-0,121	0,193
-556,700	-37,754	-0,066	-0,025
-555,685	-200,000	-0,005	-0,140
-554,671	-100,991	0,079	-0,014
-553,656	46,997	0,090	0,060
-552,642	800,000	0,024	0,058
-551,627	-200,000	0,013	0,055
-550,612	-122,258	-0,081	0,009
-549,598	169,194	-0,075	-0,077
-548,583	744,458	0,013	-0,026
-547,569	-200,000	-0,022	0,110
-546,554	800,000	0,017	-0,037
-545,539	53,112	-0,134	0,092
-544,525	-200,000	0,038	0,153
-543,510	-113,727	-0,061	0,008
-542,496	67,453	0,109	-0,080
-541,481	-200,000	-0,016	0,080
-540,466	-92,161	-0,166	0,033
-539,452	-200,000	-0,030	-0,201
-538,437	-103,330	0,073	-0,012
-537,423	-171,192	0,066	0,002
-536,408	306,822	0,064	0,086
-535,393	-200,000	0,009	-0,086
-534,379	-200,000	0,006	-0,076
-533,364	-200,000	0,007	-0,030
-532,350	800,000	-0,053	-0,163
-531,335	-138,145	-0,124	-0,010
-530,321	-200,000	0,018	0,144
-529,306	-200,000	-0,000	0,057
-528,291	451,572	-0,019	-0,030
-527,277	430,231	0,048	-0,075
-526,262	-200,000	-0,001	-0,004
-525,248	766,683	0,072	0,141
-524,233	-67,215	0,019	0,005
-523,218	758,295	0,064	0,126
-522,204	69,203	-0,122	-0,090
-521,189	800,000	-0,039	-0,079
-520,175	-119,253	-0,160	-0,020
-519,160	3,465	-0,057	0,030
-518,145	142,589	-0,115	-0,110
-517,131	171,556	-0,039	0,041
-516,116	-21,857	0,119	0,052
-515,102	-21,241	-0,017	-0,007
-514,087	382,686	-0,123	0,182
-513,072	-60,134	0,059	-0,018
-512,058	442,945	0,142	-0,224
-511,043	518,579	-0,061	0,103
-510,029	-200,000	0,011	0,143
-509,014	176,861	0,115	0,121
-507,999	546,790	0,073	0,126
-506,985	-200,000	0,006	-0,080
-505,970	-200,000	0,037	-0,147
-504,956	-200,000	0,007	-0,081
-503,941	-96,842	0,137	-0,026
-502,926	49,062	0,042	-0,028
-501,912	115,778	0,078	-0,069
-500,897	421,533	-0,147	-0,228
-499,883	-2,661	0,081	-0,040
-498,868	277,193	-0,073	0,093
-497,853	291,076	-0,004	-0,006
-496,839	800,000	-0,076	-0,171
-495,824	-18,215	0,060	-0,027
-494,810	800,000	0,022	0,046
-493,795	800,000	-0,053	-0,116
-492,781	800,000	-0,037	0,086
-491,766	567,465	-0,069	-0,121
-490,751	88,960	-0,137	-0,109
-489,737	28,449	-0,024	-0,014
-488,722	800,000	-0,022	0,053
-487,708	-200,000	0,003	0,093
-486,693	719,302	-0,066	0,127
-485,678	-200,000	0,008	-0,083
-484,664	84,279	-0,049	0,038
-483,649	178,643	0,070	0,074
-482,635	-0,802	-0,077	-0,039
-481,620	800,000	0,044	0,101
-480,605	-17,472	0,053	-0,024
-479,591	-22,839	-0,113	0,049
-478,576	59,757	-0,111	-0,078
-477,562	329,229	-0,057	-0,078
-476,547	403,774	0,014	-0,021
-475,532	113,914	-0,106	-0,092
-474,518	-36,568	0,106	0,041
-473,503	162,086	0,070	-0,071
-472,489	192,072	0,091	-0,099
-471,474	800,000	-0,038	0,085
-470,459	-200,000	0,021	0,123
-469,445	-53,499	0,073	0,024
-468,430	71,961	-0,117	-0,087
-467,416	32,961	-0,042	-0,026
-466,401	-200,000	0,003	-0,063
-465,386	-33,954	-0,133	-0,052
-464,372	158,322	-0,051	0,050
-463,357	119,485	-0,054	0,048
-462,343	-200,000	-0,033	-0,114
-461,328	-200,000	0,010	-0,062
-460,313	-3,999	0,100	0,049
-459,299	50,891	0,069	0,047
-458,284	401,367	0,052	0,079
-457,270	291,607	0,025	0,033
-456,255	-200,000	0,004	-0,045
-455,241	-49,037	-0,038	-0,013
-454,226	-2,085	-0,039	0,019
-453,211	331,203	-0,075	-0,104
-452,197	800,000	-0,031	0,086
-451,182	-29,553	-0,087	0,036
-450,168	-111,546	0,107	-0,015
-449,153	38,278	0,064	0,041
-448,138	-200,000	-0,039	0,147
-447,124	-91,390	0,006	-0,001
-446,109	479,483	0,053	-0,086
-445,095	-82,470	0,081	0,019
-444,080	-33,138	-0,149	0,059
-443,065	1,734	-0,078	0,040
-442,051	-140,240	-0,154	0,011
-441,036	15,922	-0,122	-0,069
-440,022	-171,716	0,115	-0,003
-439,007	-149,273	-0,203	0,011
-437,992	-0,636	0,080	0,040
-436,978	800,000	0,068	0,137
-435,963	-152,433	-0,038	-0,002
-434,949	800,000	-0,013	0,034
-433,934	53,467	0,097	0,066
-432,919	-200,000	-0,000	-0,053
-431,905	-47,459	0,046	-0,016
-430,890	-36,382	-0,034	0,013
-429,876	800,000	-0,004	-0,008
-428,861	-200,000	-0,010	0,090
-427,846	-57,629	-0,042	0,013
-426,832	36,484	0,061	-0,038
-425,817	-36,258	-0,101	-0,039
-424,803	-200,000	-0,011	-0,044
-423,788	-200,000	0,006	0,029
-422,773	75,238	0,041	0,031
-421,759	143,200	0,025	0,024
-420,744	48,583	-0,098	0,066
-419,730	-200,000	0,019	-0,118
-418,715	-200,000	0,037	-0,122
-417,701	27,269	-0,073	0,044
-416,686	800,000	-0,089	-0,195
-415,671	152,537	-0,054	-0,053
-414,657	538,073	-0,026	0,045
-413,642	-200,000	0,002	-0,069
-412,628	106,336	0,157	-0,133
-411,613	394,222	-0,051	-0,077
-410,598	-31,117	0,021	0,009
-409,584	-125,333	0,049	-0,005
-408,569	137,202	0,110	-0,103
-407,555	-200,000	-0,003	0,021
-406,540	-1,692	-0,077	-0,039
-405,525	-200,000	-0,010	-0,158
-404,511	-147,441	0,043	0,003
-403,496	26,288	-0,142	-0,085
-402,482	-15,337	0,096	0,044
-401,467	29,101	0,074	0,045
-400,452	-200,000	-0,023	0,080
-399,438	-120,831	-0,076	-0,009
-398,423	-22,911	0,021	-0,009
-397,409	514,440	-0,038	-0,063
-396,394	192,863	-0,058	-0,063
-395,379	95,226	0,119	-0,097
-394,365	-200,000	0,005	-0,082
-393,350	-57,336	0,028	0,009
-392,336	-200,000	-0,015	0,157
-391,321	327,421	0,056	-0,077
-390,306	-75,300	0,088	0,022
-389,292	800,000	-0,009	-0,025
-388,277	61,614	-0,030	-0,022
-387,263	517,005	0,048	0,081
-386,248	237,147	0,040	-0,047
-385,233	-41,643	0,159	0,058
-384,219	-22,122	0,066	0,028
-383,204	50,012	-0,128	-0,086
-382,190	-200,000	0,032	-0,169
-381,175	-19,286	0,119	0,053
-380,160	421,285	0,073	0,113
-379,146	49,866	0,127	0,085
-378,131	163,368	-0,045	0,045
-377,117	-96,211	-0,014	-0,003
-376,102	-5,109	0,151	0,074
-375,088	297,493	-0,050	0,066
-374,073	800,000	-0,027	-0,069
-373,058	-145,395	-0,016	0,001
-372,044	-39,555	0,164	0,061
-371,029	-86,857	0,247	0,053
-370,015	-34,819	0,125	0,048
-369,000	-75,961	-0,228	0,057
-367,985	-200,000	0,016	-0,084
-366,971	-91,415	-0,072	0,015
-365,956	-200,000	-0,031	0,148
-364,942	-200,000	0,004	0,134
-363,927	-30,701	0,137	0,055
-362,912	154,278	-0,085	0,083
-361,898	203,646	-0,074	-0,082
-360,883	-33,181	-0,175	-0,069
-359,869	-200,000	-0,030	-0,177
-358,854	-61,607	0,072	0,021
-357,839	-69,638	-0,010	-0,003
-356,825	-82,130	0,103	-0,024
-355,810	-92,789	-0,065	-0,013
-354,796	-85,117	0,112	-0,025
-353,781	800,000	0,070	0,144
-352,766	127,599	-0,097	0,088
-351,752	268,586	0,022	-0,028
-350,737	-200,000	0,003	-0,109
-349,723	182,790	0,078	0,082
-348,708	116,532	0,034	-0,030
-347,693	-200,000	-0,014	-0,083
-346,679	31,381	-0,131	-0,080
-345,664	-200,000	-0,001	-0,055
-344,650	800,000	-0,012	0,026
-343,635	16,733	0,090	0,051
-342,620	68,354	0,101	0,074
-341,606	-37,700	-0,076	0,029
-340,591	-59,379	-0,068	-0,021
-339,577	-134,088	-0,166	-0,014
-338,562	376,362	-0,057	0,084
-337,548	800,000	-0,026	0,055
-336,533	800,000	0,037	0,090
-335,518	516,423	-0,025	0,041
-334,504	202,971	-0,024	-0,026
-333,489	-200,000	-0,011	-0,039
-332,475	-200,000	0,009	-0,084
-331,460	800,000	0,037	-0,106
-330,445	334,862	-0,067	-0,093
-329,431	-200,000	-0,021	0,136
-328,416	119,755	0,099	0,087
-327,402	-200,000	0,046	0,170
-326,387	654,274	-0,024	0,044
-325,372	-200,000	0,015	-0,055
-324,358	401,523	0,014	0,020
-323,343	-76,546	0,066	0,016
-322,329	490,775	0,021	0,034
-321,314	78,446	-0,024	-0,018
-320,299	800,000	0,020	0,063
-319,285	38,803	0,046	-0,029
-318,270	43,899	-0,069	-0,045
-317,256	-28,020	0,031	-0,013
-316,241	-200,000	-0,010	-0,056
-315,226	-200,000	-0,005	0,050
-314,212	-200,000	-0,002	0,064
-313,197	800,000	0,045	0,135
-312,183	380,078	0,098	0,143
-311,168	-200,000	0,008	0,068
-310,153	70,991	0,047	0,035
-309,139	-26,518	0,079	-0,033
-308,124	-12,993	-0,059	0,027
-307,110	-200,000	0,002	0,195
-306,095	789,653	0,008	0,016
-305,080	-87,131	-0,040	-0,009
-304,066	800,000	-0,019	-0,050
-303,051	-200,000	-0,026	-0,178
-302,037	4,761	-0,018	0,009
-301,022	-173,646	0,131	-0,003
-300,008	-13,603	0,141	-0,065
-298,993	800,000	0,026	0,072
-297,978	-200,000	0,001	0,061
-296,964	786,353	-0,087	-0,171
-295,949	313,848	0,028	-0,038
-294,935	-137,900	0,086	0,007
-293,920	-200,000	0,023	0,185
-292,905	-192,581	0,156	-0,001
-291,891	6,052	0,136	-0,072
-290,876	457,698	0,099	0,157
-289,862	550,367	-0,054	0,093
-288,847	-200,000	-0,019	-0,074
-287,832	-200,000	-0,009	0,042
-286,818	27,747	-0,074	0,044
-285,803	-135,307	0,154	-0,013
-284,789	249,047	0,039	-0,047
-283,774	-143,792	0,118	0,008
-282,759	24,162	0,071	0,042
-281,745	-46,428	-0,204	-0,071
-280,730	-18,241	-0,040	0,018
-279,716	-200,000	-0,010	-0,130
-278,701	-200,000	0,017	0,123
-277,686	800,000	0,036	0,106
-276,672	-200,000	0,000	0,027
-275,657	-18,472	-0,109	-0,048
-274,643	-200,000	-0,036	-0,140
-273,628	-200,000	-0,062	-0,253
-272,613	800,000	0,040	-0,117
-271,599	32,816	0,129	-0,080
-270,584	137,715	-0,073	0,068
-269,570	-103,400	0,049	-0,008
-268,555	-84,855	-0,035	-0,008
-267,540	-41,366	-0,099	0,036
-266,526	-94,181	-0,106	-0,021
-265,511	-33,325	0,124	0,048
-264,497	155,289	0,078	0,077
-263,482	-49,762	0,093	-0,031
-262,467	449,194	0,095	0,150
-261,453	1,916	-0,072	0,037
-260,438	686,507	0,065	-0,121
-259,424	-7,032	0,050	-0,024
-258,409	-114,924	0,075	0,010
-257,395	140,159	-0,037	0,035
-256,380	357,768	0,010	-0,014
-255,365	800,000	0,007	-0,020
-254,351	-83,104	0,083	-0,019
-253,336	583,727	0,068	-0,120
-252,322	-169,585	0,131	0,003
-251,307	-40,260	-0,067	0,025
-250,292	-121,405	0,139	-0,016
-249,278	-78,988	-0,101	-0,024
-248,263	-200,000	-0,027	0,114
-247,249	462,897	-0,005	0,007
-246,234	522,114	0,050	-0,084
-245,219	-37,283	-0,064	0,024
-244,205	381,352	-0,058	-0,085
-243,190	331,830	-0,040	-0,055
-242,176	190,093	0,075	0,080
-241,161	376,301	-0,009	0,014
-240,146	-79,614	-0,086	-0,020
-239,132	-138,596	0,072	0,006
-238,117	138,620	-0,020	-0,018
-237,103	303,952	-0,071	0,093
-236,088	367,719	0,029	0,041
-235,073	-122,556	0,161	-0,018
-234,059	-27,547	0,084	0,034
-233,044	-200,000	0,015	0,051
-232,030	800,000	-0,052	-0,126
-231,015	-99,259	0,140	-0,025
-230,000	-10,347	-0,102	0,048
-228,986	0,283	0,126	0,063
-227,971	-44,618	-0,054	0,019
-226,957	-200,000	-0,008	-0,068
-225,942	442,778	0,069	-0,108
-224,927	98,843	0,096	-0,079
-223,913	-200,000	-0,014	-0,086
-222,898	80,787	-0,116	-0,089
-221,884	277,556	0,039	0,050
-220,869	-187,290	0,074	0,001
-219,855	-62,679	0,108	-0,031
-218,840	800,000	0,052	0,115
-217,825	-50,231	-0,019	-0,006
-216,811	800,000	0,054	-0,146
-215,796	800,000	-0,036	0,080
-214,782	119,818	-0,055	-0,048
-213,767	446,942	-0,011	0,018
-212,752	241,833	0,041	-0,048
-211,738	-128,942	-0,119	0,012
-210,723	-200,000	0,007	0,169
-209,709	-113,419	-0,040	0,005
-208,694	-116,643	0,198	0,026
-207,679	-200,000	-0,005	-0,070
-206,665	-122,997	0,132	0,015
-205,650	-200,000	-0,015	0,100
-204,636	284,380	0,058	-0,074
-203,621	85,198	-0,124	0,097
-202,606	800,000	-0,024	-0,073
-201,592	-200,000	-0,034	-0,171
-200,577	-29,742	-0,099	-0,040
-199,563	-200,000	0,007	0,100
-198,548	80,740	0,034	-0,026
-197,533	-200,000	-0,001	-0,091
-196,519	-100,951	0,166	0,029
-195,504	-200,000	-0,007	-0,057
-194,490	-20,370	-0,111	-0,048
-193,475	-70,274	0,027	-0,007
-192,460	-200,000	0,030	0,104
-191,446	-27,688	0,089	-0,036
-190,431	-200,000	-0,028	0,152
-189,417	-200,000	0,009	0,077
-188,402	-13,818	-0,028	0,013
-187,387	-200,000	0,005	0,036
-186,373	800,000	-0,089	-0,191
-185,358	135,681	0,046	-0,042
-184,344	401,920	-0,019	0,029
-183,329	-100,284	0,049	-0,009
-182,315	-27,415	0,076	0,031
-181,300	800,000	-0,037	-0,113
-180,285	4,931	-0,131	-0,068
-179,271	163,974	0,034	-0,034
-178,256	-200,000	0,010	0,051
-177,242	800,000	0,060	0,135
-176,227	-103,849	0,110	0,018
-175,212	479,345	0,073	0,118
-174,198	5,561	-0,176	-0,092
-173,183	-27,170	0,097	0,040
-172,169	243,899	0,023	-0,027
-171,154	646,756	-0,038	0,070
-170,139	-91,954	0,034	-0,007
-169,125	-17,090	-0,082	0,037
-168,110	273,948	0,051	-0,064
-167,096	92,495	-0,146	-0,117
-166,081	222,267	0,008	-0,010
-165,066	107,669	-0,102	-0,086
-164,052	2,323	0,019	-0,009
-163,037	-104,786	0,158	0,026
-162,023	800,000	0,074	-0,167
-161,008	-200,000	-0,022	0,073
-159,993	-200,000	0,012	0,041
-158,979	-8,697	-0,103	0,049
-157,964	-200,000	-0,022	0,171
-156,950	208,182	-0,056	-0,063
-155,935	-1,229	0,102	-0,051
-154,920	11,903	-0,025	0,014
-153,906	-200,000	-0,017	-0,069
-152,891	-133,550	0,034	-0,003
-151,877	-70,057	0,049	-0,013
-150,862	433,422	-0,054	0,084
-149,847	-34,960	-0,116	-0,045
-148,833	-132,094	0,048	0,004
-147,818	83,056	0,014	0,011
-146,804	511,296	0,025	0,042
-145,789	-200,000	-0,027	-0,091
-144,775	-137,604	-0,020	-0,002
-143,760	172,454	-0,065	0,066
-142,745	800,000	-0,043	-0,128
-141,731	188,602	-0,125	-0,133
-140,716	-134,747	-0,062	0,005
-139,702	300,247	0,059	0,077
-138,687	105,216	-0,059	0,049
-137,672	-161,346	-0,142	0,005
-136,658	-200,000	0,007	-0,081
-135,643	-82,136	0,075	-0,017
-134,629	-200,000	-0,003	0,017
-133,614	-200,000	-0,027	0,177
-132,599	800,000	0,039	0,087
-131,585	-1,285	0,017	0,009
-130,570	574,771	0,053	0,091
-129,556	110,687	-0,046	-0,039
-128,541	187,926	-0,132	0,140
-127,526	565,833	0,035	-0,060
-126,512	136,273	0,070	0,064
-125,497	800,000	0,029	0,070
-124,483	59,787	-0,007	-0,005
-123,468	106,269	-0,067	-0,056
-122,453	-200,000	0,002	-0,088
-121,439	18,784	-0,015	0,009
-120,424	481,316	-0,014	-0,023
-119,410	56,284	-0,070	0,048
-118,395	135,260	-0,027	0,024
-117,380	83,278	0,044	-0,034
-116,366	-119,841	0,027	-0,003
-115,351	-200,000	0,006	-0,045
-114,337	202,091	-0,054	-0,059
-113,322	-200,000	-0,015	-0,162
-112,307	55,247	-0,098	-0,067
-111,293	150,782	0,068	0,065
-110,278	-200,000	0,023	0,096
-109,264	-200,000	-0,018	0,071
-108,249	-155,792	0,030	-0,001
-107,234	277,290	0,042	-0,053
-106,220	197,241	-0,080	0,086
-105,205	114,684	0,035	0,030
-104,191	-16,288	-0,111	0,050
-103,176	-200,000	-0,053	0,206
-102,162	-200,000	0,023	0,087
-101,147	-85,896	0,112	-0,024
-100,132	-43,631	-0,108	0,038
-99,118	17,033	0,072	0,040
-98,103	-23,008	0,020	-0,008
-97,089	800,000	0,048	0,120
-96,074	-200,000	0,031	0,116
-95,059	-16,685	0,029	-0,013
-94,045	79,555	-0,097	0,073
-93,030	-200,000	-0,014	0,047
-92,016	-12,848	-0,128	-0,059
-91,001	-200,000	0,035	-0,236
-89,986	150,043	-0,040	-0,038
-88,972	800,000	0,044	0,109
-87,957	-74,929	0,089	-0,022
-86,943	675,480	-0,079	-0,146
-85,928	472,940	0,042	-0,067
-84,913	-200,000	0,004	-0,141
-83,899	-200,000	-0,017	-0,135
-82,884	382,851	0,064	-0,094
-81,870	214,275	0,052	0,059
-80,855	35,510	0,058	0,036
-79,840	191,409	-0,047	0,050
-78,826	-200,000	0,010	-0,065
-77,811	-162,390	-0,117	-0,004
-76,797	-200,000	0,042	-0,216
-75,782	-58,070	-0,148	0,045
-74,767	-200,000	-0,030	0,136
-73,753	-200,000	-0,026	-0,179
-72,738	-200,000	0,009	-0,063
-71,724	123,341	0,068	0,061
-70,709	37,482	-0,049	-0,030
-69,694	-112,128	-0,034	0,005
-68,680	-106,759	-0,085	-0,013
-67,665	-200,000	0,006	0,074
-66,651	800,000	0,044	0,130
-65,636	-194,427	0,143	-0,001
-64,622	-6,426	-0,084	0,040
-63,607	-121,128	-0,119	-0,014
-62,592	-200,000	-0,002	-0,066
-61,578	541,526	0,022	-0,037
-60,563	800,000	0,024	0,053
-59,549	-200,000	-0,010	0,072
-58,534	26,404	-2,031	-1,196
-57,519	550,802	-1,167	-1,984
-56,505	-200,000	-0,241	-4,457
-55,490	642,858	0,837	1,512
-54,476	800,000	5,148	11,111
-53,461	-200,000	21,618	336,803
-52,446	800,000	758,811	2300,670
-51,432	535,586	1653,734	2778,620
-50,417	69,599	1651,274	1198,705
-49,403	16,715	1525,564	848,997
-48,388	10,895	1449,734	778,794
-47,373	18,991	1441,647	813,071
-46,359	14,168	1430,835	784,123
-45,344	9,128	1426,834	758,018
-44,330	9,071	1424,790	756,628
-43,315	9,130	1422,594	755,714
-42,300	9,088	1421,233	754,760
-41,286	9,118	1420,120	754,283
-40,271	9,077	1418,765	753,336
-39,257	9,089	1417,466	752,673
-38,242	9,093	1416,502	752,152
-37,227	9,071	1415,483	751,478
-36,213	9,143	1413,934	750,964
-35,198	9,133	1412,846	750,310
-34,184	9,130	1411,764	749,690
-33,169	9,047	1410,649	748,679
-32,154	9,094	1409,659	748,343
-31,140	9,110	1408,215	747,623
-30,125	9,155	1407,114	747,221
-29,111	9,136	1405,780	746,393
-28,096	9,135	1404,680	745,777
-27,082	9,053	1403,761	744,875
-26,067	9,048	1402,575	744,191
-25,052	9,020	1401,696	743,566
-24,038	9,129	1400,319	743,313
-23,023	9,061	1399,627	742,599
-22,009	9,058	1398,612	742,020
-20,994	9,042	1397,739	741,452
-19,979	9,062	1396,494	740,856
-18,965	9,008	1395,641	740,120
-17,950	9,024	1394,814	739,731
-16,936	8,973	1394,058	739,063
-15,921	8,951	1392,897	738,315
-14,906	8,927	1392,128	737,768
-13,892	8,981	1391,129	737,458
-12,877	8,948	1390,290	736,833
-11,863	8,938	1389,473	736,321
-10,848	8,960	1388,495	735,877
-9,833	8,887	1387,514	734,989
-8,819	8,855	1386,927	734,504
-7,804	8,840	1385,736	733,775
-6,790	8,929	1384,527	733,515
-5,775	8,853	1383,784	732,745
-4,760	8,851	1382,710	732,135
-3,746	8,873	1381,870	731,764
-2,731	8,905	1380,832	731,330
-1,717	8,852	1380,179	730,711
-0,702	8,886	1378,386	729,891
0,313	12,906	1290,586	701,670
1,327	28,800	683,305	407,207
2,342	44,843	117,748	76,267
3,356	1,527	16,528	8,357
4,371	-3,674	3,718	1,815
5,386	-2,774	1,332	0,654
6,400	-200,000	0,233	0,744
7,415	474,033	-0,068	-0,108
8,429	-17,989	-0,238	-0,105
9,444	264,014	-0,281	-0,345
10,459	40,297	-0,355	-0,225
11,473	-85,534	-0,288	-0,063
12,488	-77,875	-0,255	-0,062
13,502	241,254	-0,214	-0,252
14,517	392,453	-0,143	-0,211
15,531	39,873	-0,386	-0,244
16,546	19,700	-0,418	-0,236
17,561	270,578	-0,219	-0,272
18,575	-96,974	-0,080	0,015
19,590	198,192	-0,287	-0,310
20,604	42,814	-0,179	-0,115
21,619	75,140	-0,416	-0,309
22,634	71,738	-0,401	-0,293
23,648	306,876	-0,277	-0,363
24,663	55,050	-0,459	-0,312
25,677	141,295	-0,392	-0,366
26,692	88,174	-0,280	-0,218
27,707	-43,398	-0,426	-0,151
28,721	142,960	-0,322	-0,302
29,736	73,784	-0,336	-0,248
30,750	-31,372	-0,436	-0,172
31,765	45,286	-0,441	-0,285
32,780	71,120	-0,284	-0,207
33,794	168,445	-0,241	-0,242
34,809	1,324	-0,365	-0,184
35,823	42,047	-0,205	-0,131
36,838	72,703	-0,470	-0,344
37,853	134,231	-0,395	-0,360
38,867	70,644	-0,346	-0,251
39,882	84,798	-0,358	-0,275
40,896	20,642	-0,351	-0,199
41,911	69,085	-0,321	-0,231
42,926	1,159	-0,263	-0,132
43,940	100,731	-0,266	-0,217
44,955	47,682	-0,444	-0,290
45,969	-25,158	-0,431	-0,179
46,984	49,470	-0,360	-0,238
47,999	-129,828	-0,229	0,022
49,013	251,678	-0,277	-0,332
50,028	231,698	-0,284	-0,328
51,042	79,666	-0,289	-0,218
52,057	55,545	-0,350	-0,238
53,071	23,836	-0,333	-0,192
54,086	161,900	-0,257	-0,252
55,101	-52,517	-0,262	-0,084
56,115	-3,155	-0,342	-0,167
57,130	124,220	-0,260	-0,229
58,144	92,851	-0,303	-0,240
59,159	32,798	-0,362	-0,219
60,174	95,330	-0,427	-0,341
61,188	-43,993	-0,262	-0,092
62,203	66,618	-0,287	-0,204
63,217	44,718	-0,316	-0,204
64,232	187,955	-0,212	-0,222
65,247	90,426	-0,276	-0,217
66,261	25,342	-0,408	-0,237
67,276	113,076	-0,351	-0,299
68,290	137,909	-0,225	-0,207
69,305	604,534	-0,146	-0,256
70,320	-78,993	-0,420	-0,099
71,334	18,283	-0,391	-0,218
72,349	120,678	-0,219	-0,191
73,363	234,837	-0,314	-0,363
74,378	167,938	-0,302	-0,301
75,393	46,402	-0,329	-0,213
76,407	-7,318	-0,425	-0,201
77,422	63,878	-0,267	-0,187
78,436	13,906	-0,289	-0,157
79,451	43,481	-0,304	-0,194
80,466	8,104	-0,300	-0,157
81,480	-34,259	-0,361	-0,138
82,495	15,572	-0,355	-0,195
83,509	667,656	-0,085	-0,154
84,524	53,613	-0,381	-0,255
85,539	-90,222	-0,196	-0,040
86,553	41,837	-0,244	-0,155
87,568	347,974	-0,262	-0,363
88,582	216,789	-0,241	-0,269
89,597	12,803	-0,234	-0,126
90,611	-28,808	-0,223	-0,089
91,626	-102,893	-0,277	-0,046
92,641	402,355	-0,122	-0,180
93,655	23,487	-0,265	-0,152
94,670	-85,623	-0,170	-0,037
95,684	5,875	-0,394	-0,203
96,699	133,809	-0,255	-0,231
97,714	117,137	-0,336	-0,289
98,728	131,114	-0,190	-0,170
99,743	25,918	-0,291	-0,169
100,757	272,883	-0,249	-0,308
101,772	114,520	-0,300	-0,255
102,787	209,553	-0,283	-0,311
103,801	119,355	-0,321	-0,278
104,816	-23,108	-0,271	-0,114
105,830	89,567	-0,246	-0,192
106,845	-116,664	-0,233	0,030
107,860	-6,341	-0,253	-0,120
108,874	-33,798	-0,227	-0,087
109,889	76,908	-0,309	-0,229
110,903	0,137	-0,293	-0,145
111,918	125,323	-0,272	-0,240
112,933	601,277	-0,104	-0,181
113,947	82,961	-0,244	-0,185
114,962	125,987	-0,211	-0,186
115,976	96,942	-0,223	-0,179
116,991	148,622	-0,269	-0,254
118,006	185,739	-0,235	-0,244
119,020	403,243	-0,141	-0,207
120,035	800,000	-0,120	-0,233
121,049	82,907	-0,127	-0,096
122,064	136,742	-0,253	-0,231
123,079	109,192	-0,193	-0,161
124,093	-23,806	-0,307	-0,128
125,108	16,016	-0,300	-0,165
126,122	17,712	-0,387	-0,214
127,137	-57,385	-0,087	-0,026
128,151	148,552	-0,098	-0,093
129,166	69,373	-0,321	-0,230
130,181	498,678	-0,168	-0,271
131,195	37,992	-0,311	-0,193
132,210	-30,205	-0,260	-0,102
133,224	94,391	-0,247	-0,195
134,239	28,362	-0,283	-0,166
135,254	176,069	-0,257	-0,261
136,268	89,746	-0,188	-0,146
137,283	4,164	-0,311	-0,158
138,297	239,558	-0,236	-0,274
139,312	383,637	-0,125	-0,180
140,327	-54,673	-0,279	-0,087
141,341	158,691	-0,161	-0,156
142,356	-4,224	-0,232	-0,112
143,370	35,671	-0,293	-0,179
144,385	278,559	-0,177	-0,220
145,400	114,354	-0,216	-0,183
146,414	321,587	-0,201	-0,267
147,429	140,049	-0,232	-0,213
148,443	113,764	-0,179	-0,152
149,458	32,151	-0,168	-0,100
150,473	61,648	-0,277	-0,192
151,487	249,913	-0,295	-0,349
152,502	104,788	-0,242	-0,199
153,516	-78,839	-0,417	-0,098
154,531	193,959	-0,249	-0,263
155,546	82,086	-0,242	-0,182
156,560	-24,503	-0,324	-0,133
157,575	-186,055	-0,116	0,001
158,589	85,079	-0,252	-0,192
159,604	40,724	-0,202	-0,126
160,619	216,852	-0,250	-0,278
161,633	237,434	-0,284	-0,328
162,648	134,168	-0,152	-0,137
163,662	725,986	-0,152	-0,282
164,677	-59,609	-0,278	-0,082
165,692	119,537	-0,194	-0,167
166,706	159,554	-0,185	-0,179
167,721	206,233	-0,175	-0,189
168,735	-10,826	-0,154	-0,070
169,750	-60,774	-0,269	-0,079
170,764	71,204	-0,114	-0,082
171,779	151,405	-0,073	-0,069
172,794	145,216	-0,191	-0,178
173,808	-140,078	-0,219	0,016
174,823	40,151	-0,235	-0,147
175,837	-87,677	-0,309	-0,064
176,852	142,342	-0,153	-0,141
177,867	800,000	-0,136	-0,267
178,881	83,468	-0,194	-0,146
179,896	-53,136	-0,264	-0,084
180,910	-71,766	-0,170	-0,044
181,925	-67,550	-0,182	-0,049
182,940	120,456	-0,204	-0,176
183,954	723,768	-0,156	-0,291
184,969	800,000	-0,112	-0,220
185,983	373,032	-0,060	-0,084
186,998	207,785	-0,095	-0,103
188,013	604,972	-0,149	-0,258
189,027	48,279	-0,223	-0,144
190,042	215,188	-0,243	-0,267
191,056	800,000	-0,069	-0,155
192,071	-118,914	-0,186	-0,022
193,086	800,000	-0,107	-0,207
194,100	-125,382	-0,276	-0,029
195,115	97,037	-0,198	-0,157
196,129	2,655	-0,217	-0,109
197,144	114,672	-0,212	-0,179
198,159	246,221	-0,124	-0,145
199,173	178,430	-0,242	-0,245
200,188	118,503	-0,173	-0,148
201,202	147,128	-0,229	-0,213
202,217	289,084	-0,129	-0,162
203,232	107,807	-0,205	-0,169
204,246	216,249	-0,241	-0,266
205,261	54,297	-0,235	-0,157
206,275	44,976	-0,206	-0,131
207,290	800,000	-0,101	-0,246
208,304	43,990	-0,206	-0,130
209,319	41,186	-0,244	-0,153
210,334	-90,165	-0,123	-0,025
211,348	10,487	-0,291	-0,153
212,363	129,368	-0,253	-0,223
213,377	66,488	-0,072	-0,051
214,392	169,958	-0,253	-0,250
215,407	800,000	-0,105	-0,255
216,421	-5,516	-0,189	-0,090
217,436	800,000	-0,078	-0,207
218,450	87,560	-0,153	-0,117
219,465	101,404	-0,121	-0,097
220,480	-13,843	-0,180	-0,080
221,494	800,000	-0,029	-0,056
222,509	-50,034	-0,305	-0,099
223,523	64,471	-0,184	-0,128
224,538	44,112	-0,167	-0,106
225,553	11,585	-0,325	-0,172
226,567	119,150	-0,162	-0,139
227,582	276,665	-0,125	-0,154
228,596	-1,849	-0,179	-0,087
229,611	800,000	-0,059	-0,157
230,626	594,928	-0,113	-0,194
231,640	-2,332	-0,216	-0,104
232,655	-19,460	-0,217	-0,093
233,669	84,127	-0,199	-0,150
234,684	206,513	-0,236	-0,254
235,699	169,804	-0,178	-0,176
236,713	217,231	-0,063	-0,070
237,728	671,171	-0,088	-0,159
238,742	21,290	-0,198	-0,111
239,757	33,445	-0,275	-0,164
240,772	86,296	-0,162	-0,123
241,786	-200,000	-0,039	-0,200
242,801	-44,578	-0,183	-0,063
243,815	-53,992	-0,076	0,024
244,830	113,421	-0,097	-0,081
245,844	800,000	-0,074	-0,151
246,859	269,118	-0,083	-0,101
247,874	124,875	-0,208	-0,181
248,888	-155,615	-0,272	0,012
249,903	-64,820	-0,159	-0,044
250,917	57,823	-0,126	-0,085
251,932	42,644	-0,228	-0,143
252,947	5,326	-0,330	-0,168
253,961	271,490	-0,198	-0,241
254,976	99,240	-0,216	-0,172
255,990	33,592	-0,237	-0,141
257,005	800,000	-0,110	-0,214
258,020	34,003	-0,209	-0,125
259,034	-65,534	-0,116	-0,032
260,049	577,176	-0,099	-0,167
261,063	-85,519	-0,152	-0,032
262,078	186,715	-0,140	-0,144
263,093	24,185	-0,255	-0,145
264,107	-75,363	-0,168	-0,041
265,122	-4,276	-0,252	-0,120
266,136	800,000	-0,040	-0,078
267,151	-106,774	-0,209	-0,032
268,166	-166,160	-0,175	0,005
269,180	132,131	-0,195	-0,173
270,195	63,629	-0,135	-0,093
271,209	800,000	-0,045	-0,126
272,224	-64,802	-0,187	-0,052
273,239	-185,190	-0,200	-0,002
274,253	250,694	-0,117	-0,137
275,268	544,441	-0,125	-0,207
276,282	115,702	-0,236	-0,198
277,297	186,288	-0,142	-0,146
278,312	9,936	-0,241	-0,126
279,326	136,914	-0,110	-0,099
280,341	78,308	-0,018	0,013
281,355	390,716	-0,128	-0,184
282,370	91,286	-0,122	-0,094
283,384	-98,634	-0,248	-0,043
284,399	800,000	-0,071	-0,160
285,414	27,453	-0,223	-0,129
286,428	77,122	-0,176	-0,128
287,443	188,580	-0,168	-0,173
288,457	16,418	-0,114	0,062
289,472	-3,751	-0,196	-0,093
290,487	-39,826	-0,141	-0,050
291,501	283,204	-0,179	-0,222
292,516	68,982	-0,199	-0,140
293,530	35,190	-0,166	-0,100
294,545	245,033	-0,110	-0,127
295,560	16,431	-0,064	-0,034
296,574	403,804	-0,099	-0,144
297,589	14,294	-0,153	-0,082
298,603	-112,754	-0,207	-0,028
299,618	-113,121	-0,111	-0,015
300,633	603,124	-0,101	-0,173
301,647	356,070	-0,115	-0,157
302,662	-166,718	-0,172	0,005
303,676	120,964	-0,055	0,047
304,691	80,823	-0,187	-0,139
305,706	44,090	-0,226	-0,142
306,720	84,626	-0,115	-0,087
307,735	93,943	-0,086	-0,067
308,749	-200,000	-0,042	-0,198
309,764	-94,763	-0,175	0,032
310,779	1,925	0,034	-0,017
311,793	62,092	-0,153	-0,104
312,808	283,500	-0,164	-0,203
313,822	-200,000	-0,028	-0,105
314,837	50,857	-0,173	-0,112
315,852	-119,471	-0,194	-0,023
316,866	299,218	-0,108	-0,137
317,881	71,420	-0,218	-0,155
318,895	357,501	-0,100	-0,138
319,910	403,108	-0,112	-0,162
320,925	130,627	-0,217	-0,191
321,939	629,497	-0,076	-0,132
322,954	52,807	-0,159	-0,104
323,968	123,043	-0,144	-0,124
324,983	-135,956	-0,063	-0,005
325,997	314,872	-0,187	-0,242
327,012	-200,000	-0,076	-0,269
328,027	123,687	-0,160	-0,138
329,041	38,739	-0,099	-0,061
330,056	-18,166	-0,157	-0,067
331,070	151,763	-0,115	-0,107
332,085	460,949	-0,100	0,153
333,100	166,744	-0,071	0,069
334,114	-8,493	-0,135	-0,062
335,129	800,000	-0,106	-0,266
336,143	175,387	-0,135	-0,134
337,158	148,338	-0,186	-0,172
338,173	-200,000	-0,040	-0,153
339,187	-119,981	-0,164	-0,019
340,202	-149,162	-0,114	0,006
341,216	-104,702	-0,153	0,024
342,231	-44,456	-0,219	-0,075
343,246	121,906	-0,170	-0,145
344,260	292,934	-0,081	-0,102
345,275	772,508	-0,092	-0,172
346,289	286,946	-0,069	-0,086
347,304	132,355	-0,217	-0,191
348,319	800,000	-0,034	-0,072
349,333	154,453	-0,062	-0,058
350,348	35,482	-0,161	-0,096
351,362	-200,000	0,027	-0,089
352,377	-45,119	-0,165	-0,056
353,392	-123,914	-0,141	-0,015
354,406	231,800	-0,103	-0,116
355,421	206,951	1306,825	1394,166
356,435	159,185	1466,546	1394,641
