DTS Sentinel unit serial number:	SN410029Multiplexer serial number:	ORYXHardware model number:	OX2-SRSoftware version number:	ORYX F/W v4,00 Oryx Data Collector v3.7.2.0data status	okinstallation	B3 Nyhavnadifferential loss correction	single-endedforward channel	channel 1reverse channel	N/Adate	2023/11/30time	03:27:30forward acquisition time	300,00reverse acquisition time	0,00gamma	499,1914k internal	0,3210k external	0,3210temperature offset calibration	1,0000default loss term (dB/km)	0,3820temperature slope calibration	1,0000multiplexer offset coefficient	1,0000multiplexer slope coefficient	1,0000fibre end	0,00T internal ref (°C)	10,20T ext. ref 1 (°C)	-5,39T ext. ref 2 (°C)	-5,51length (m)	temperature (°C)	Stokes	anti-Stokes-744,400	454,566	-0,174	-0,281
-743,385	800,000	-0,097	0,235
-742,371	-9,910	-0,302	-0,145
-741,356	800,000	0,135	0,328
-740,342	-200,000	-0,032	-0,259
-739,327	-200,000	0,024	0,199
-738,312	628,606	-0,119	-0,219
-737,298	-200,000	-0,034	0,296
-736,283	126,616	-0,176	-0,162
-735,269	-200,000	0,068	0,353
-734,254	347,284	-0,208	-0,297
-733,239	148,477	-0,140	0,137
-732,225	60,887	-0,116	-0,084
-731,210	355,160	0,190	0,275
-730,196	-200,000	0,031	0,122
-729,181	81,800	-0,094	0,074
-728,167	-152,382	0,011	0,001
-727,152	-200,000	0,013	-0,046
-726,137	800,000	-0,087	-0,210
-725,123	-56,703	-0,108	0,034
-724,108	800,000	-0,056	0,140
-723,094	-200,000	0,015	-0,081
-722,079	800,000	-0,042	-0,124
-721,064	65,901	0,091	0,067
-720,050	-200,000	-0,001	0,029
-719,035	-200,000	-0,104	0,000
-718,021	-171,824	-0,017	-0,000
-717,006	25,845	0,023	-0,014
-715,991	-200,000	0,026	-0,140
-714,977	-143,070	-0,123	-0,008
-713,962	243,789	0,053	-0,064
-712,948	29,213	-0,191	-0,117
-711,933	12,137	-0,155	0,086
-710,918	-200,000	0,007	-0,171
-709,904	182,985	-0,044	-0,047
-708,889	614,946	-0,109	-0,200
-707,875	-136,469	0,037	0,003
-706,860	282,785	-0,027	-0,035
-705,845	380,987	-0,067	0,100
-704,831	526,427	0,052	0,090
-703,816	-200,000	-0,022	0,097
-702,802	800,000	0,020	-0,052
-701,787	202,726	-0,042	-0,047
-700,772	292,915	-0,181	-0,239
-699,758	-44,708	-0,107	-0,038
-698,743	-8,377	0,071	0,035
-697,729	-200,000	0,008	0,062
-696,714	-200,000	-0,009	0,060
-695,699	-76,964	0,047	-0,012
-694,685	-200,000	-0,006	-0,025
-693,670	255,985	-0,105	-0,131
-692,656	-129,783	-0,028	0,003
-691,641	552,041	0,035	0,061
-690,627	-200,000	0,013	0,136
-689,612	-43,760	0,020	-0,007
-688,597	-74,006	-0,078	0,020
-687,583	91,764	0,103	-0,084
-686,568	-22,630	0,099	-0,043
-685,554	25,899	0,057	-0,035
-684,539	800,000	0,002	-0,005
-683,524	123,456	0,069	-0,063
-682,510	-200,000	0,012	0,059
-681,495	-158,321	-0,134	0,006
-680,481	344,700	-0,047	-0,066
-679,466	23,368	-0,202	-0,120
-678,451	93,760	0,052	-0,042
-677,437	16,004	0,018	0,011
-676,422	-200,000	-0,019	-0,061
-675,408	29,450	0,033	-0,020
-674,393	-100,609	0,154	-0,027
-673,378	-94,441	-0,087	0,017
-672,364	800,000	-0,042	-0,124
-671,349	-200,000	0,005	-0,106
-670,335	547,499	-0,059	0,102
-669,320	-12,759	0,026	-0,012
-668,305	95,156	-0,086	0,071
-667,291	800,000	-0,042	0,131
-666,276	81,708	-0,098	0,077
-665,262	-82,156	0,017	-0,004
-664,247	37,125	-0,177	-0,113
-663,232	800,000	-0,019	0,047
-662,218	240,692	-0,094	0,113
-661,203	800,000	0,045	0,117
-660,189	-85,066	-0,126	-0,028
-659,174	92,685	-0,127	0,103
-658,159	-14,502	0,110	-0,051
-657,145	775,289	-0,026	0,052
-656,130	-182,872	0,062	0,001
-655,116	-75,182	-0,081	-0,021
-654,101	-82,664	0,042	-0,010
-653,086	800,000	-0,012	-0,033
-652,072	296,462	-0,062	-0,082
-651,057	286,877	-0,099	-0,130
-650,043	-200,000	0,014	-0,091
-649,028	248,720	0,120	-0,147
-648,014	-16,411	-0,026	0,012
-646,999	38,226	0,096	0,061
-645,984	-97,686	-0,122	-0,023
-644,970	138,808	0,082	-0,078
-643,955	-99,776	-0,119	-0,021
-642,941	-200,000	0,001	-0,170
-641,926	247,568	0,041	-0,051
-640,911	-200,000	-0,025	-0,102
-639,897	27,068	0,058	-0,035
-638,882	-200,000	-0,001	0,040
-637,868	-9,723	-0,016	0,008
-636,853	800,000	-0,029	-0,061
-635,838	494,063	-0,018	0,029
-634,824	5,005	-0,099	0,053
-633,809	-42,029	-0,155	0,057
-632,795	-51,714	0,078	0,026
-631,780	277,199	0,037	-0,047
-630,765	-20,084	-0,080	-0,035
-629,751	800,000	-0,041	-0,105
-628,736	800,000	-0,038	-0,107
-627,722	-47,979	-0,058	-0,020
-626,707	29,326	0,047	-0,029
-625,692	-200,000	0,012	0,061
-624,678	800,000	-0,038	0,104
-623,663	-5,667	-0,026	-0,013
-622,649	-53,019	-0,039	-0,013
-621,634	177,187	-0,119	-0,125
-620,619	800,000	-0,046	-0,098
-619,605	130,671	0,109	0,101
-618,590	-200,000	-0,005	0,177
-617,576	458,917	-0,060	0,097
-616,561	97,630	-0,044	-0,037
-615,546	-16,818	-0,102	-0,047
-614,532	-179,769	-0,109	0,002
-613,517	-200,000	0,011	-0,073
-612,503	617,355	-0,028	-0,052
-611,488	-62,509	0,038	0,011
-610,474	75,904	0,088	0,067
-609,459	-154,491	0,153	0,007
-608,444	-72,146	-0,064	0,017
-607,430	111,308	0,028	-0,024
-606,415	77,431	-0,069	0,053
-605,401	116,490	0,092	-0,081
-604,386	402,250	0,036	-0,054
-603,371	195,650	-0,056	0,061
-602,357	800,000	-0,008	0,018
-601,342	-200,000	0,010	0,064
-600,328	378,815	-0,058	-0,086
-599,313	-200,000	0,001	0,029
-598,298	-3,818	-0,067	-0,033
-597,284	241,999	-0,054	-0,065
-596,269	156,946	-0,044	-0,044
-595,255	123,051	0,077	0,069
-594,240	-143,711	-0,089	-0,006
-593,225	-200,000	0,004	-0,062
-592,211	-200,000	-0,009	-0,086
-591,196	-200,000	-0,012	-0,103
-590,182	187,525	-0,049	-0,053
-589,167	-60,688	0,087	0,026
-588,152	-51,955	0,022	-0,007
-587,138	800,000	0,050	-0,116
-586,123	51,775	-0,048	0,033
-585,109	199,205	-0,101	-0,112
-584,094	39,058	-0,084	0,054
-583,079	-143,807	-0,126	0,008
-582,065	-94,947	0,082	0,016
-581,050	-38,492	-0,028	0,011
-580,036	241,504	-0,028	0,033
-579,021	418,978	0,071	-0,110
-578,006	15,635	0,039	-0,022
-576,992	-200,000	-0,021	0,092
-575,977	-16,760	0,111	0,050
-574,963	-34,086	-0,114	0,045
-573,948	-200,000	0,012	0,039
-572,934	354,698	0,049	0,071
-571,919	-200,000	0,003	0,026
-570,904	-93,437	-0,138	-0,027
-569,890	-13,765	-0,120	-0,055
-568,875	-120,241	-0,059	-0,007
-567,861	33,430	0,028	0,017
-566,846	-177,775	0,212	0,004
-565,831	-101,811	-0,121	0,021
-564,817	561,311	0,033	-0,058
-563,802	445,988	-0,082	-0,129
-562,788	-36,911	-0,092	-0,035
-561,773	129,985	0,031	-0,029
-560,758	231,062	-0,047	-0,056
-559,744	331,421	0,031	0,043
-558,729	197,297	0,088	0,097
-557,715	-200,000	-0,015	-0,141
-556,700	800,000	0,030	-0,060
-555,685	-200,000	0,010	-0,116
-554,671	-200,000	-0,001	-0,041
-553,656	800,000	0,004	0,009
-552,642	-195,104	0,156	-0,001
-551,627	800,000	-0,020	-0,057
-550,612	-200,000	0,042	-0,162
-549,598	-200,000	-0,012	-0,055
-548,583	-200,000	-0,011	-0,073
-547,569	-106,301	-0,072	-0,011
-546,554	800,000	0,033	0,084
-545,539	182,325	0,075	0,080
-544,525	173,696	0,069	-0,072
-543,510	-49,016	-0,126	-0,043
-542,496	-5,653	-0,089	0,044
-541,481	356,687	-0,080	-0,115
-540,466	172,210	-0,063	0,065
-539,452	706,307	0,064	0,121
-538,437	570,631	0,069	0,122
-537,423	800,000	-0,042	-0,099
-536,408	-200,000	-0,029	-0,134
-535,393	-40,620	-0,058	-0,022
-534,379	32,699	-0,066	-0,041
-533,364	-200,000	-0,001	0,098
-532,350	-18,574	0,121	-0,054
-531,335	800,000	0,021	0,042
-530,321	-167,138	-0,088	0,003
-529,306	-200,000	-0,012	-0,118
-528,291	128,854	0,061	0,056
-527,277	1,088	-0,116	-0,060
-526,262	219,897	-0,034	0,039
-525,248	291,816	0,110	-0,144
-524,233	661,769	-0,053	0,099
-523,218	388,177	-0,082	0,123
-522,204	13,461	-0,101	-0,056
-521,189	166,295	-0,140	-0,142
-520,175	-200,000	0,020	-0,079
-519,160	800,000	0,018	0,049
-518,145	-0,935	-0,067	0,034
-517,131	800,000	-0,020	-0,048
-516,116	800,000	0,049	0,108
-515,102	761,974	-0,017	0,033
-514,087	25,217	-0,076	-0,045
-513,072	547,345	0,026	0,045
-512,058	800,000	-0,050	0,118
-511,043	-143,015	0,045	-0,003
-510,029	178,966	0,106	0,112
-509,014	-72,662	0,037	0,010
-507,999	-171,417	-0,054	-0,001
-506,985	800,000	-0,056	-0,140
-505,970	35,048	0,045	-0,028
-504,956	800,000	0,074	-0,150
-503,941	100,018	-0,117	-0,098
-502,926	-200,000	0,003	0,160
-501,912	40,543	-0,048	0,031
-500,897	-200,000	-0,012	0,057
-499,883	-200,000	0,006	0,076
-498,868	800,000	-0,044	0,090
-497,853	-84,892	0,125	0,028
-496,839	800,000	-0,037	-0,116
-495,824	-14,383	-0,033	-0,015
-494,810	260,753	0,102	-0,127
-493,795	-35,314	0,064	-0,025
-492,781	30,126	0,043	0,026
-491,766	-200,000	0,003	-0,074
-490,751	-47,762	0,101	-0,035
-489,737	262,429	0,065	0,081
-488,722	-200,000	0,017	-0,170
-487,708	-200,000	-0,004	-0,071
-486,693	800,000	0,032	0,090
-485,678	17,614	-0,035	0,020
-484,664	395,890	-0,040	0,060
-483,649	800,000	-0,075	-0,168
-482,635	226,796	-0,064	-0,075
-481,620	-112,362	0,166	0,024
-480,605	-200,000	-0,014	0,210
-479,591	800,000	0,041	-0,100
-478,576	-200,000	-0,004	0,123
-477,562	-2,085	-0,080	-0,040
-476,547	-200,000	-0,017	-0,124
-475,532	-200,000	0,019	0,086
-474,518	-200,000	0,005	0,097
-473,503	-82,109	0,117	0,027
-472,489	415,350	0,081	-0,125
-471,474	497,742	-0,076	0,127
-470,459	27,114	-0,109	-0,065
-469,445	-72,756	-0,127	-0,033
-468,430	179,134	0,024	0,025
-467,416	-73,214	0,038	-0,010
-466,401	132,335	-0,080	0,074
-465,386	-132,812	0,135	-0,012
-464,372	327,619	0,096	0,133
-463,357	98,415	0,076	0,063
-462,343	-80,732	-0,110	0,026
-461,328	-24,988	0,054	-0,023
-460,313	325,460	0,072	-0,099
-459,299	-124,696	0,053	-0,006
-458,284	82,445	0,141	-0,109
-457,270	-200,000	-0,012	0,098
-456,255	228,779	-0,017	0,020
-455,241	36,426	0,047	-0,030
-454,226	-200,000	-0,039	-0,156
-453,211	23,550	0,150	0,088
-452,197	-47,073	-0,020	0,007
-451,182	368,245	-0,028	0,041
-450,168	-198,445	0,035	0,000
-449,153	-200,000	-0,018	-0,130
-448,138	-174,788	-0,075	-0,001
-447,124	25,074	0,105	-0,062
-446,109	168,875	-0,061	-0,062
-445,095	-200,000	-0,009	0,138
-444,080	-42,512	0,111	-0,040
-443,065	800,000	-0,039	-0,079
-442,051	-5,767	0,054	-0,026
-441,036	-86,718	0,067	-0,015
-440,022	35,196	-0,130	-0,081
-439,007	-200,000	0,004	0,117
-437,992	124,012	0,043	0,039
-436,978	373,837	0,110	0,161
-435,963	800,000	0,032	0,074
-434,949	-41,997	0,111	-0,041
-433,934	17,744	0,090	-0,051
-432,919	-127,081	-0,136	-0,014
-431,905	800,000	-0,071	-0,143
-430,890	-65,228	-0,045	0,013
-429,876	772,181	-0,029	0,057
-428,861	-83,302	-0,026	-0,006
-427,846	-200,000	0,006	-0,053
-426,832	800,000	0,034	0,088
-425,817	531,766	0,028	-0,048
-424,803	-200,000	0,018	-0,076
-423,788	-200,000	0,020	-0,131
-422,773	-163,855	0,142	0,005
-421,759	2,521	0,102	-0,053
-420,744	800,000	0,027	-0,059
-419,730	-144,093	-0,139	0,009
-418,715	174,098	0,029	-0,030
-417,701	23,044	0,053	0,031
-416,686	170,420	-0,044	0,045
-415,671	301,190	0,114	0,152
-414,657	47,959	-0,078	0,052
-413,642	-102,193	0,026	0,004
-412,628	-200,000	-0,012	-0,113
-411,613	800,000	0,043	-0,086
-410,598	-35,068	-0,042	0,016
-409,584	314,960	-0,117	-0,158
-408,569	337,536	-0,012	-0,017
-407,555	-200,000	-0,014	0,047
-406,540	379,322	-0,083	0,122
-405,525	-147,016	0,146	-0,009
-404,511	-200,000	0,019	-0,127
-403,496	-14,621	-0,056	-0,026
-402,482	-200,000	-0,001	0,015
-401,467	-55,081	0,039	-0,012
-400,452	-200,000	0,010	0,033
-399,438	12,181	0,115	-0,063
-398,423	333,984	0,023	0,032
-397,409	40,549	0,067	0,043
-396,394	288,518	-0,030	-0,039
-395,379	-200,000	0,003	-0,032
-394,365	-12,500	0,143	0,066
-393,350	-200,000	0,029	0,112
-392,336	-152,429	0,052	0,003
-391,321	142,899	-0,012	0,012
-390,306	-114,649	0,060	0,008
-389,292	41,059	-0,091	-0,059
-388,277	-200,000	0,041	0,163
-387,263	-200,000	0,043	0,174
-386,248	-130,563	0,057	0,005
-385,233	37,872	0,067	0,043
-384,219	437,564	-0,059	-0,093
-383,204	-26,449	-0,047	0,020
-382,190	-1,148	0,034	0,017
-381,175	64,492	0,025	0,018
-380,160	-186,240	0,078	0,001
-379,146	-33,128	0,089	0,035
-378,131	-200,000	-0,003	0,088
-377,117	-131,014	0,078	0,007
-376,102	113,468	-0,044	-0,038
-375,088	800,000	0,047	-0,126
-374,073	-200,000	0,008	-0,183
-373,058	-34,313	0,156	0,061
-372,044	-200,000	-0,032	0,155
-371,029	800,000	0,063	0,181
-370,015	782,928	-0,055	-0,107
-369,000	800,000	-0,045	-0,109
-367,985	-33,181	0,077	-0,031
-366,971	-149,753	0,009	-0,001
-365,956	-67,505	0,068	-0,019
-364,942	108,144	0,110	0,094
-363,927	125,092	0,018	-0,016
-362,912	-55,345	-0,082	0,026
-361,898	547,015	0,082	0,141
-360,883	414,917	-0,009	0,013
-359,869	-200,000	0,015	0,072
-358,854	800,000	-0,030	0,086
-357,839	-200,000	-0,012	-0,110
-356,825	88,442	0,023	0,018
-355,810	-124,985	-0,027	0,003
-354,796	-200,000	0,000	0,026
-353,781	-153,527	-0,153	-0,007
-352,766	36,254	0,044	0,027
-351,752	-24,925	0,071	-0,030
-350,737	36,029	-0,070	0,044
-349,723	-200,000	-0,006	0,118
-348,708	-44,328	-0,036	-0,013
-347,693	544,371	-0,052	-0,089
-346,679	137,996	-0,059	-0,056
-345,664	754,288	-0,071	-0,137
-344,650	-21,689	-0,096	-0,042
-343,635	-43,770	0,149	0,053
-342,620	-143,884	0,089	-0,006
-341,606	258,206	-0,033	-0,040
-340,591	62,047	0,059	0,042
-339,577	-77,357	-0,159	0,039
-338,562	-120,633	-0,102	-0,012
-337,548	162,319	-0,068	-0,068
-336,533	7,624	-0,043	-0,023
-335,518	224,781	0,023	0,026
-334,504	800,000	0,072	0,159
-333,489	-91,699	-0,052	0,010
-332,475	-30,029	-0,050	0,020
-331,460	550,965	-0,015	0,025
-330,445	-200,000	0,017	0,118
-329,431	-23,332	-0,020	0,009
-328,416	800,000	0,068	0,142
-327,402	-200,000	0,020	-0,090
-326,387	-72,522	0,074	0,019
-325,372	-200,000	-0,000	-0,035
-324,358	800,000	-0,036	0,105
-323,343	362,685	0,078	0,113
-322,329	-200,000	0,009	0,201
-321,314	1,215	0,159	-0,081
-320,299	800,000	0,057	0,157
-319,285	181,492	-0,048	0,051
-318,270	291,060	-0,047	-0,062
-317,256	494,159	-0,086	-0,141
-316,241	28,249	0,109	-0,065
-315,226	-200,000	-0,003	0,115
-314,212	-79,848	0,155	0,037
-313,197	711,848	-0,030	0,058
-312,183	800,000	0,020	-0,058
-311,168	33,504	-0,103	-0,063
-310,153	316,729	0,027	0,037
-309,139	-79,649	-0,013	0,003
-308,124	800,000	0,017	0,051
-307,110	-200,000	-0,019	0,131
-306,095	800,000	-0,022	-0,054
-305,080	-200,000	0,011	-0,045
-304,066	191,376	0,044	0,047
-303,051	-200,000	0,005	-0,235
-302,037	62,967	0,060	-0,043
-301,022	285,093	-0,025	0,032
-300,008	-22,379	0,040	0,017
-298,993	-37,103	-0,016	0,006
-297,978	800,000	0,037	0,091
-296,964	-73,790	-0,024	0,006
-295,949	613,903	0,004	0,008
-294,935	-98,618	-0,065	-0,012
-293,920	800,000	-0,043	-0,094
-292,905	38,974	0,056	0,036
-291,891	-200,000	0,044	0,151
-290,876	201,264	0,029	-0,032
-289,862	-71,406	-0,047	-0,012
-288,847	800,000	0,035	0,071
-287,832	-115,307	-0,091	-0,012
-286,818	-162,589	0,037	-0,001
-285,803	114,200	0,062	0,053
-284,789	-200,000	0,021	0,068
-283,774	-90,019	-0,024	0,005
-282,759	319,790	0,117	0,159
-281,745	205,534	0,085	-0,094
-280,730	800,000	-0,022	-0,053
-279,716	-200,000	-0,018	-0,059
-278,701	286,424	0,056	-0,073
-277,686	66,019	-0,047	0,034
-276,672	173,553	-0,037	0,038
-275,657	-7,192	-0,081	-0,039
-274,643	257,934	0,037	-0,045
-273,628	-70,274	0,011	-0,003
-272,613	-179,752	-0,055	-0,001
-271,599	105,465	-0,066	0,055
-270,584	780,447	-0,038	0,074
-269,570	-200,000	0,001	0,053
-268,555	90,534	0,035	0,028
-267,540	168,108	-0,100	-0,102
-266,526	178,662	-0,126	-0,131
-265,511	391,327	-0,046	-0,069
-264,497	334,501	-0,019	-0,026
-263,482	-166,382	0,058	-0,002
-262,467	-14,652	-0,124	0,057
-261,453	-36,473	-0,032	0,012
-260,438	-32,067	-0,052	-0,020
-259,424	-60,724	0,084	0,025
-258,409	305,979	0,057	0,075
-257,395	800,000	0,039	-0,102
-256,380	-130,602	0,068	-0,006
-255,365	344,544	-0,007	0,010
-254,351	84,508	-0,071	0,055
-253,336	233,232	0,054	0,063
-252,322	543,823	-0,052	-0,089
-251,307	800,000	-0,038	-0,098
-250,292	-105,561	-0,098	-0,016
-249,278	-154,315	0,068	-0,003
-248,263	-200,000	0,010	0,082
-247,249	800,000	-0,036	0,073
-246,234	-90,712	-0,096	-0,020
-245,219	211,628	-0,090	-0,101
-244,205	-200,000	0,005	-0,098
-243,190	-85,605	0,161	0,035
-242,176	-200,000	-0,012	0,079
-241,161	145,880	0,054	0,051
-240,146	-175,003	0,082	-0,002
-239,132	570,779	-0,080	-0,139
-238,117	399,932	-0,112	-0,168
-237,103	800,000	-0,036	-0,083
-236,088	-200,000	-0,016	-0,122
-235,073	379,775	0,043	0,063
-234,059	-8,308	-0,086	-0,041
-233,044	545,944	0,053	0,091
-232,030	-120,388	0,103	0,012
-231,015	-0,027	0,087	0,044
-230,000	128,525	0,072	0,065
-228,986	-112,256	0,026	0,004
-227,971	-46,660	0,085	-0,030
-226,957	66,618	-0,014	-0,010
-225,942	-200,000	-0,003	0,052
-224,927	-54,360	-0,106	0,034
-223,913	-154,053	-0,121	0,006
-222,898	-200,000	-0,007	-0,061
-221,884	-200,000	0,033	-0,175
-220,869	-200,000	0,031	0,193
-219,855	-100,309	0,089	0,016
-218,840	33,132	-0,037	-0,023
-217,825	-200,000	-0,059	0,203
-216,811	203,276	-0,075	0,083
-215,796	-200,000	-0,018	-0,099
-214,782	526,812	-0,058	0,097
-213,767	183,268	-0,006	-0,007
-212,752	-102,081	0,068	0,011
-211,738	421,046	0,036	0,056
-210,723	-100,243	0,037	0,006
-209,709	800,000	0,035	0,079
-208,694	76,360	-0,088	-0,066
-207,679	28,294	-0,053	0,032
-206,665	486,293	-0,086	0,140
-205,650	-72,604	-0,092	0,024
-204,636	49,848	0,096	-0,064
-203,621	800,000	-0,021	0,053
-202,606	88,676	-0,044	0,035
-201,592	-30,416	0,113	-0,045
-200,577	157,722	-0,028	-0,027
-199,563	-200,000	0,006	0,057
-198,548	-200,000	0,023	0,131
-197,533	128,484	-0,089	0,080
-196,519	-200,000	-0,004	0,075
-195,504	800,000	0,030	0,094
-194,490	800,000	0,030	0,090
-193,475	493,129	0,077	0,125
-192,460	222,961	-0,087	0,100
-191,446	-164,016	-0,121	0,004
-190,431	164,410	-0,044	0,044
-189,417	-77,898	0,143	0,035
-188,402	-200,000	0,033	0,147
-187,387	-1,755	-0,053	0,026
-186,373	800,000	-0,031	-0,061
-185,358	81,346	0,020	-0,015
-184,344	-89,838	-0,097	-0,020
-183,329	-25,863	-0,070	-0,029
-182,315	-200,000	-0,016	0,122
-181,300	800,000	0,034	-0,081
-180,285	720,097	0,094	-0,178
-179,271	284,194	0,029	-0,037
-178,256	158,034	0,139	-0,137
-177,242	-40,619	0,039	0,014
-176,227	170,445	-0,059	-0,060
-175,212	138,176	0,028	0,026
-174,198	-68,582	-0,163	-0,044
-173,183	800,000	0,060	0,122
-172,169	800,000	0,003	-0,008
-171,154	6,649	-0,157	0,082
-170,139	443,428	-0,059	0,092
-169,125	71,932	-0,020	0,015
-168,110	-200,000	-0,028	-0,167
-167,096	-200,000	-0,022	-0,123
-166,081	-112,517	-0,073	0,010
-165,066	-200,000	-0,047	-0,289
-164,052	-86,903	0,128	0,027
-163,037	-200,000	0,015	-0,117
-162,023	-200,000	-0,025	0,207
-161,008	418,817	0,078	0,119
-159,993	800,000	-0,047	0,134
-158,979	-200,000	-0,011	-0,053
-157,964	78,361	0,180	-0,136
-156,950	173,378	-0,120	0,122
-155,935	602,574	-0,032	-0,057
-154,920	800,000	0,082	0,176
-153,906	-200,000	-0,013	0,076
-152,891	-89,956	0,072	-0,015
-151,877	-169,968	0,038	-0,001
-150,862	-200,000	-0,055	-0,199
-149,847	132,975	0,127	-0,116
-148,833	800,000	0,019	-0,041
-147,818	-200,000	-0,005	0,131
-146,804	-88,419	-0,072	-0,015
-145,789	-200,000	-0,009	0,106
-144,775	19,502	-0,021	0,012
-143,760	-149,951	-0,031	-0,002
-142,745	95,017	-0,031	-0,025
-141,731	-200,000	-0,025	-0,095
-140,716	100,925	0,079	-0,065
-139,702	-86,580	-0,047	-0,010
-138,687	735,020	-0,062	0,118
-137,672	-47,196	0,129	0,044
-136,658	800,000	-0,032	-0,079
-135,643	-61,599	-0,075	0,022
-134,629	180,357	0,077	-0,080
-133,614	-200,000	-0,001	0,179
-132,599	800,000	0,015	-0,034
-131,585	131,722	0,133	-0,121
-130,570	-200,000	0,001	0,011
-129,556	289,574	-0,082	0,106
-128,541	389,869	0,009	-0,013
-127,526	-200,000	0,014	0,117
-126,512	-200,000	-0,019	0,107
-125,497	683,135	-0,017	0,032
-124,483	62,799	0,108	0,076
-123,468	800,000	-0,065	-0,189
-122,453	-72,694	0,057	0,015
-121,439	-4,986	-0,096	-0,047
-120,424	33,269	0,014	-0,009
-119,410	-88,231	0,097	0,020
-118,395	-87,681	0,118	0,025
-117,380	-200,000	0,012	0,154
-116,366	800,000	0,028	-0,075
-115,351	269,114	-0,019	-0,024
-114,337	-105,352	-0,140	0,022
-113,322	-87,562	-0,182	-0,039
-112,307	800,000	-0,026	-0,071
-111,293	-36,570	0,145	0,055
-110,278	-34,537	-0,006	0,002
-109,264	800,000	-0,013	0,033
-108,249	-200,000	-0,013	-0,138
-107,234	147,164	0,066	0,062
-106,220	-26,033	-0,088	-0,036
-105,205	207,294	0,047	0,052
-104,191	-200,000	0,021	0,136
-103,176	800,000	0,011	-0,022
-102,162	-115,220	-0,084	-0,011
-101,147	-200,000	-0,002	0,012
-100,132	-163,378	0,092	0,003
-99,118	-200,000	0,000	-0,072
-98,103	7,113	0,027	-0,014
-97,089	-200,000	-0,009	0,266
-96,074	58,598	-0,083	0,058
-95,059	-53,687	-0,114	0,037
-94,045	800,000	0,015	-0,036
-93,030	3,936	-0,024	-0,012
-92,016	310,392	-0,049	-0,065
-91,001	-116,097	0,073	0,010
-89,986	483,601	0,108	0,174
-88,972	-63,801	0,064	0,018
-87,957	79,374	-0,056	0,042
-86,943	282,938	-0,021	-0,027
-85,928	-200,000	-0,009	-0,039
-84,913	129,503	-0,153	0,139
-83,899	800,000	0,052	-0,159
-82,884	483,225	0,112	0,180
-81,870	-200,000	0,026	-0,086
-80,855	-200,000	0,005	0,127
-79,840	-200,000	-0,025	-0,109
-78,826	323,238	0,045	0,061
-77,811	21,304	-0,066	-0,038
-76,797	130,694	0,052	0,047
-75,782	-63,226	0,120	0,035
-74,767	-15,896	0,068	-0,031
-73,753	-149,733	-0,074	-0,004
-72,738	566,351	0,054	0,093
-71,724	772,599	-0,070	0,135
-70,709	-97,091	-0,081	-0,015
-69,694	8,663	-0,161	0,085
-68,680	-200,000	0,031	0,109
-67,665	-30,426	-0,014	0,006
-66,651	-200,000	-0,001	-0,019
-65,636	695,823	-0,011	0,021
-64,622	-200,000	-0,009	0,031
-63,607	-200,000	-0,002	-0,090
-62,592	773,054	-0,031	-0,060
-61,578	506,533	0,060	-0,098
-60,563	-200,000	0,005	0,050
-59,549	690,844	-0,038	-0,071
-58,534	29,318	-1,840	-1,101
-57,519	453,538	-1,218	-1,909
-56,505	-200,000	-0,326	-4,434
-55,490	800,000	0,886	1,735
-54,476	800,000	4,951	11,173
-53,461	-200,000	21,325	340,286
-52,446	800,000	759,887	2358,044
-51,432	559,092	1662,578	2844,033
-50,417	73,581	1661,544	1227,117
-49,403	18,111	1534,927	861,718
-48,388	12,042	1458,630	789,527
-47,373	19,379	1449,556	819,797
-46,359	15,430	1438,993	795,007
-45,344	10,332	1434,608	768,278
-44,330	10,234	1432,654	766,733
-43,315	10,234	1431,123	765,882
-42,300	10,250	1429,305	764,954
-41,286	10,266	1428,029	764,316
-40,271	10,232	1426,789	763,463
-39,257	10,271	1425,489	762,922
-38,242	10,292	1424,542	762,485
-37,227	10,323	1423,321	761,948
-36,213	10,303	1422,086	761,161
-35,198	10,251	1421,217	760,419
-34,184	10,273	1420,161	759,929
-33,169	10,267	1418,710	759,096
-32,154	10,312	1417,548	758,655
-31,140	10,327	1416,498	758,131
-30,125	10,348	1415,242	757,531
-29,111	10,331	1414,225	756,873
-28,096	10,255	1413,204	755,942
-27,082	10,201	1411,933	754,976
-26,067	10,199	1410,904	754,389
-25,052	10,201	1409,953	753,858
-24,038	10,247	1408,689	753,369
-23,023	10,275	1407,843	753,019
-22,009	10,209	1406,873	752,161
-20,994	10,233	1405,719	751,624
-19,979	10,209	1404,906	751,048
-18,965	10,190	1403,940	750,412
-17,950	10,216	1403,012	750,008
-16,936	10,190	1402,124	749,385
-15,921	10,053	1401,514	748,392
-14,906	10,104	1400,367	747,983
-13,892	10,178	1399,266	747,710
-12,877	10,149	1398,411	747,088
-11,863	10,129	1397,822	746,653
-10,848	10,100	1396,912	746,004
-9,833	10,037	1396,218	745,308
-8,819	10,038	1395,069	744,670
-7,804	10,022	1394,297	744,157
-6,790	10,073	1393,129	743,737
-5,775	10,021	1392,253	743,003
-4,760	10,037	1391,085	742,424
-3,746	10,027	1390,213	741,883
-2,731	10,098	1389,264	741,674
-1,717	9,987	1388,557	740,752
-0,702	10,021	1387,014	740,057
0,313	14,083	1299,376	711,875
1,327	30,344	689,655	414,669
2,342	47,142	119,207	78,127
3,356	-0,412	16,511	8,246
4,371	15,188	3,363	1,854
5,386	-17,732	0,904	0,399
6,400	-200,000	0,125	0,604
7,415	175,023	-0,187	-0,191
8,429	171,566	-0,262	-0,265
9,444	-89,302	-0,365	-0,075
10,459	-62,483	-0,319	-0,093
11,473	59,135	-0,271	-0,188
12,488	115,566	-0,244	-0,210
13,502	106,617	-0,223	-0,186
14,517	-151,546	-0,359	-0,018
15,531	161,950	-0,308	-0,304
16,546	464,909	-0,256	-0,405
17,561	115,875	-0,413	-0,356
18,575	82,662	-0,226	-0,173
19,590	197,511	-0,143	-0,154
20,604	8,111	-0,292	-0,154
21,619	59,279	-0,472	-0,327
22,634	169,843	-0,398	-0,401
23,648	61,858	-0,400	-0,280
24,663	61,040	-0,393	-0,274
25,677	84,314	-0,321	-0,247
26,692	105,728	-0,309	-0,257
27,707	16,496	-0,328	-0,182
28,721	33,126	-0,463	-0,282
29,736	81,639	-0,416	-0,316
30,750	203,891	-0,253	-0,276
31,765	116,656	-0,261	-0,226
32,780	155,760	-0,359	-0,349
33,794	77,671	-0,265	-0,198
34,809	54,853	-0,351	-0,238
35,823	35,642	-0,370	-0,228
36,838	180,596	-0,341	-0,352
37,853	2,326	-0,407	-0,206
38,867	177,272	-0,355	-0,364
39,882	113,472	-0,339	-0,289
40,896	280,649	-0,212	-0,267
41,911	112,354	-0,302	-0,257
42,926	18,742	-0,434	-0,244
43,940	116,663	-0,426	-0,368
44,955	240,865	-0,367	-0,431
45,969	19,055	-0,347	-0,195
46,984	50,800	-0,316	-0,210
47,999	118,268	-0,257	-0,223
49,013	14,377	-0,300	-0,164
50,028	81,759	-0,290	-0,221
51,042	120,637	-0,268	-0,234
52,057	212,635	-0,215	-0,238
53,071	30,243	-0,379	-0,227
54,086	-49,278	-0,364	-0,121
55,101	37,493	-0,240	-0,149
56,115	66,411	-0,266	-0,190
57,130	165,215	-0,254	-0,252
58,144	-16,304	-0,435	-0,193
59,159	70,680	-0,319	-0,231
60,174	142,250	-0,335	-0,312
61,188	196,852	-0,286	-0,306
62,203	121,994	-0,226	-0,198
63,217	72,929	-0,319	-0,234
64,232	-61,497	-0,387	-0,113
65,247	42,441	-0,380	-0,242
66,261	118,771	-0,339	-0,294
67,276	180,728	-0,381	-0,393
68,290	112,446	-0,298	-0,253
69,305	-91,455	-0,206	-0,041
70,320	182,072	-0,200	-0,207
71,334	48,051	-0,287	-0,188
72,349	183,656	-0,244	-0,253
73,363	106,824	-0,307	-0,255
74,378	129,780	-0,302	-0,271
75,393	129,178	-0,354	-0,317
76,407	423,818	-0,251	-0,380
77,422	426,640	-0,156	-0,237
78,436	65,130	-0,236	-0,167
79,451	190,457	-0,250	-0,263
80,466	-89,429	-0,398	-0,081
81,480	122,675	-0,202	-0,177
82,495	227,179	-0,242	-0,276
83,509	132,079	-0,257	-0,231
84,524	204,837	-0,273	-0,297
85,539	1,669	-0,274	-0,138
86,553	97,282	-0,243	-0,195
87,568	-128,412	-0,347	-0,034
88,582	-15,508	-0,379	-0,169
89,597	175,198	-0,172	-0,174
90,611	800,000	-0,112	-0,276
91,626	545,365	-0,147	-0,247
92,641	458,664	-0,170	-0,265
93,655	-23,714	-0,255	-0,106
94,670	-24,212	-0,241	-0,100
95,684	192,175	-0,296	-0,313
96,699	396,137	-0,202	-0,296
97,714	11,279	-0,318	-0,170
98,728	-10,373	-0,182	-0,084
99,743	424,737	-0,227	-0,342
100,757	-66,407	-0,224	-0,062
101,772	-28,284	-0,326	-0,131
102,787	-74,757	-0,303	-0,076
103,801	134,164	-0,320	-0,290
104,816	32,596	-0,229	-0,138
105,830	-87,934	-0,269	-0,056
106,845	-141,966	-0,264	-0,018
107,860	658,332	-0,121	-0,218
108,874	-35,620	-0,313	-0,118
109,889	87,566	-0,263	-0,204
110,903	166,399	-0,294	-0,291
111,918	258,704	-0,234	-0,282
112,933	800,000	-0,081	-0,204
113,947	-63,357	-0,299	-0,085
114,962	322,991	-0,165	-0,221
115,976	302,275	-0,232	-0,300
116,991	230,531	-0,212	-0,243
118,006	91,605	-0,282	-0,222
119,020	-119,550	-0,297	-0,035
120,035	10,182	-0,195	-0,103
121,049	59,834	-0,200	-0,137
122,064	-79,260	-0,338	-0,079
123,079	72,834	-0,293	-0,213
124,093	108,020	-0,353	-0,294
125,108	31,094	-0,285	-0,170
126,122	677,832	-0,180	-0,327
127,137	75,120	-0,209	-0,153
128,151	104,485	-0,150	-0,123
129,166	-87,592	-0,321	-0,067
130,181	158,575	-0,200	-0,194
131,195	-2,482	-0,275	-0,134
132,210	318,363	-0,081	-0,107
133,224	147,151	-0,240	-0,225
134,239	-52,139	-0,251	-0,081
135,254	-13,570	-0,251	-0,113
136,268	108,447	-0,191	-0,159
137,283	-64,801	-0,439	-0,123
138,297	310,099	-0,167	-0,218
139,312	102,440	-0,249	-0,203
140,327	191,430	-0,237	-0,249
141,341	52,778	-0,323	-0,215
142,356	51,488	-0,294	-0,194
143,370	62,463	-0,110	-0,077
144,385	40,054	-0,300	-0,188
145,400	315,004	-0,156	-0,205
146,414	800,000	-0,151	-0,423
147,429	800,000	-0,143	-0,295
148,443	48,935	-0,189	-0,123
149,458	177,229	-0,272	-0,276
150,473	-2,381	-0,194	-0,095
151,487	-68,493	-0,273	-0,073
152,502	-54,803	-0,205	-0,064
153,516	14,159	-0,308	-0,167
154,531	-39,607	-0,273	-0,099
155,546	114,703	-0,286	-0,243
156,560	-19,073	-0,135	-0,058
157,575	161,448	-0,241	-0,234
158,589	68,409	-0,172	-0,123
159,604	58,063	-0,188	-0,128
160,619	169,317	-0,226	-0,224
161,633	120,404	-0,305	-0,263
162,648	368,501	-0,218	-0,308
163,662	-133,499	-0,099	-0,008
164,677	149,272	-0,241	-0,227
165,692	-13,354	-0,208	-0,093
166,706	43,289	-0,250	-0,159
167,721	57,059	-0,212	-0,144
168,735	151,775	-0,212	-0,201
169,750	17,180	-0,118	-0,065
170,764	173,912	-0,174	-0,175
171,779	312,380	-0,160	-0,209
172,794	-48,329	-0,300	-0,100
173,808	9,814	-0,158	-0,083
174,823	66,581	-0,278	-0,196
175,837	224,819	-0,125	-0,140
176,852	9,959	-0,311	-0,164
177,867	37,874	-0,247	-0,152
178,881	397,866	-0,103	-0,150
179,896	94,410	-0,184	-0,145
180,910	334,873	-0,134	-0,180
181,925	206,129	-0,227	-0,245
182,940	104,840	-0,225	-0,184
183,954	-122,850	-0,219	0,024
184,969	269,036	-0,265	-0,323
185,983	22,003	-0,200	-0,113
186,998	-78,672	-0,194	-0,046
188,013	232,279	-0,204	-0,232
189,027	76,674	-0,229	-0,168
190,042	314,855	-0,225	-0,295
191,056	81,552	-0,185	-0,139
192,071	318,062	-0,176	-0,231
193,086	-200,000	-0,048	-0,218
194,100	656,718	-0,170	-0,305
195,115	397,708	-0,120	-0,174
196,129	459,292	-0,136	-0,210
197,144	111,179	-0,189	-0,158
198,159	-26,210	-0,166	-0,067
199,173	-200,000	0,001	-0,034
200,188	800,000	-0,047	-0,143
201,202	35,961	-0,253	-0,154
202,217	-72,509	-0,135	-0,034
203,232	-88,831	-0,158	-0,032
204,246	83,884	-0,222	-0,168
205,261	286,331	-0,148	-0,186
206,275	109,476	-0,140	-0,116
207,290	298,199	-0,159	-0,203
208,304	115,492	-0,150	-0,127
209,319	-109,987	-0,226	-0,032
210,334	245,521	-0,184	-0,215
211,348	252,436	-0,194	-0,230
212,363	401,153	-0,098	-0,142
213,377	15,591	-0,158	-0,086
214,392	305,860	-0,083	-0,108
215,407	265,697	-0,138	-0,166
216,421	-36,987	-0,145	-0,054
217,436	40,046	-0,340	-0,211
218,450	800,000	-0,143	-0,302
219,465	-200,000	-0,072	-0,221
220,480	641,838	-0,151	-0,267
221,494	800,000	-0,116	-0,228
222,509	53,099	-0,150	-0,099
223,523	332,625	-0,048	-0,065
224,538	176,326	-0,216	-0,217
225,553	223,435	-0,264	-0,295
226,567	335,382	-0,131	-0,177
227,582	185,063	-0,244	-0,250
228,596	800,000	-0,031	-0,072
229,611	-1,867	-0,204	-0,099
230,626	156,429	-0,145	-0,139
231,640	-21,141	-0,215	-0,091
232,655	7,073	-0,189	-0,097
233,669	67,573	-0,205	-0,145
234,684	256,923	-0,151	-0,179
235,699	-137,888	-0,160	-0,012
236,713	120,610	-0,232	-0,199
237,728	6,892	-0,228	-0,117
238,742	-94,712	-0,119	-0,022
239,757	-113,445	-0,007	0,001
240,772	-58,218	-0,199	-0,060
241,786	-200,000	0,006	-0,162
242,801	68,487	-0,172	-0,122
243,815	-148,629	-0,274	0,015
244,830	-64,332	-0,144	-0,040
245,844	-134,844	-0,170	-0,014
246,859	-118,686	-0,233	-0,028
247,874	-200,000	-0,066	-0,292
248,888	-1,730	-0,269	-0,131
249,903	74,948	-0,279	-0,203
250,917	130,473	-0,149	-0,132
251,932	104,319	-0,163	-0,133
252,947	-21,665	-0,185	-0,078
253,961	74,417	-0,218	-0,158
254,976	-27,094	-0,111	-0,044
255,990	-66,115	-0,168	-0,046
257,005	12,550	-0,155	-0,082
258,020	376,529	-0,046	-0,066
259,034	-37,595	-0,153	-0,056
260,049	-112,265	-0,091	-0,012
261,063	121,947	-0,109	-0,094
262,078	291,637	-0,115	-0,144
263,093	86,669	-0,178	-0,136
264,107	539,970	-0,129	-0,212
265,122	-74,352	-0,205	-0,051
266,136	800,000	-0,069	-0,144
267,151	467,424	-0,060	-0,093
268,166	262,508	-0,189	-0,226
269,180	-64,464	-0,198	-0,055
270,195	-28,182	-0,173	-0,069
271,209	59,671	-0,264	-0,179
272,224	144,252	-0,121	-0,111
273,239	800,000	-0,034	-0,100
274,253	4,793	-0,103	-0,052
275,268	170,466	-0,097	-0,096
276,282	135,821	-0,260	-0,234
277,297	95,603	-0,222	-0,174
278,312	800,000	-0,044	-0,105
279,326	-200,000	-0,034	-0,195
280,341	36,224	-0,162	-0,098
281,355	612,223	-0,062	-0,107
282,370	81,705	-0,132	-0,098
283,384	23,153	-0,150	-0,084
284,399	22,666	-0,219	-0,123
285,414	-200,000	0,001	-0,065
286,428	-107,985	-0,112	-0,016
287,443	549,702	-0,071	-0,117
288,457	54,024	-0,263	-0,174
289,472	105,566	-0,215	-0,175
290,487	-23,979	-0,210	-0,086
291,501	63,542	-0,178	-0,123
292,516	309,574	-0,090	-0,117
293,530	-66,546	-0,037	-0,010
294,545	148,113	-0,042	-0,039
295,560	239,863	-0,156	-0,179
296,574	-51,730	-0,150	-0,048
297,589	-163,090	-0,198	-0,006
298,603	-6,963	-0,246	-0,114
299,618	52,269	-0,127	-0,083
300,633	-3,107	-0,207	-0,099
301,647	-176,136	-0,120	-0,002
302,662	732,236	-0,080	-0,147
303,676	-101,947	-0,190	-0,031
304,691	64,768	-0,136	-0,094
305,706	800,000	-0,077	-0,181
306,720	-117,672	-0,165	-0,020
307,735	622,685	-0,106	-0,185
308,749	120,583	-0,155	-0,132
309,764	2,199	-0,165	-0,081
310,779	90,082	-0,138	-0,106
311,793	78,488	-0,155	-0,113
312,808	165,783	-0,094	-0,092
313,822	732,972	-0,116	-0,214
314,837	187,233	-0,149	-0,153
315,852	308,706	-0,141	0,182
316,866	-100,827	-0,110	0,018
317,881	104,652	-0,145	-0,117
318,895	165,309	-0,169	-0,164
319,910	800,000	-0,060	-0,144
320,925	800,000	-0,064	-0,131
321,939	16,154	-0,241	-0,130
322,954	-49,207	-0,063	0,020
323,968	-99,789	-0,199	-0,034
324,983	130,272	-0,234	-0,206
325,997	-104,005	-0,084	-0,013
327,012	115,820	-0,114	-0,095
328,027	-84,007	-0,236	-0,051
329,041	336,193	-0,186	-0,248
330,056	-54,539	-0,056	-0,017
331,070	52,839	-0,163	-0,107
332,085	-200,000	0,008	-0,172
333,100	24,041	-0,078	-0,044
334,114	-200,000	-0,013	-0,081
335,129	89,072	-0,177	-0,135
336,143	800,000	-0,085	-0,171
337,158	800,000	-0,088	-0,176
338,173	68,627	-0,151	-0,106
339,187	-200,000	-0,020	-0,087
340,202	370,734	-0,072	-0,101
341,216	-38,701	-0,183	-0,066
342,231	-15,395	-0,138	-0,060
343,246	-77,459	-0,135	-0,032
344,260	38,555	-0,097	-0,059
345,275	-57,443	-0,181	-0,054
346,289	-145,570	-0,165	0,010
347,304	-44,541	-0,129	-0,044
348,319	-155,094	-0,168	-0,007
349,333	-29,505	-0,163	-0,063
350,348	277,180	-0,133	-0,162
351,362	261,943	-0,106	-0,126
352,377	320,471	-0,118	-0,153
353,392	16,851	-0,145	-0,078
354,406	128,845	-0,097	-0,085
355,421	208,093	1310,120	1401,835
356,435	160,105	1470,253	1402,303
