DTS Sentinel unit serial number:	SN410029Multiplexer serial number:	ORYXHardware model number:	OX2-SRSoftware version number:	ORYX F/W v4,00 Oryx Data Collector v3.7.2.0data status	okinstallation	B3 Nyhavnadifferential loss correction	single-endedforward channel	channel 1reverse channel	N/Adate	2023/11/29time	16:32:30forward acquisition time	300,00reverse acquisition time	0,00gamma	499,1914k internal	0,3209k external	0,3209temperature offset calibration	1,0000default loss term (dB/km)	0,3820temperature slope calibration	1,0000multiplexer offset coefficient	1,0000multiplexer slope coefficient	1,0000fibre end	0,00T internal ref (°C)	11,44T ext. ref 1 (°C)	-3,73T ext. ref 2 (°C)	-3,87length (m)	temperature (°C)	Stokes	anti-Stokes-744,400	190,750	-0,260	-0,284
-743,385	-200,000	-0,015	0,296
-742,371	319,362	-0,165	-0,227
-741,356	-200,000	-0,064	0,287
-740,342	143,722	-0,266	-0,258
-739,327	800,000	0,093	0,286
-738,312	281,979	-0,173	-0,225
-737,298	-200,000	-0,038	0,233
-736,283	-200,000	-0,065	-0,291
-735,269	-200,000	0,095	0,345
-734,254	670,509	-0,128	-0,241
-733,239	52,522	-0,108	0,075
-732,225	395,776	-0,125	-0,189
-731,210	58,493	0,121	0,086
-730,196	800,000	0,061	-0,150
-729,181	-200,000	-0,019	-0,177
-728,167	-17,502	-0,072	-0,033
-727,152	62,104	-0,055	0,040
-726,137	800,000	-0,024	0,049
-725,123	-128,605	0,044	0,005
-724,108	534,795	0,040	-0,068
-723,094	800,000	0,003	0,009
-722,079	110,583	-0,133	-0,116
-721,064	554,588	0,097	-0,170
-720,050	702,304	0,056	-0,108
-719,035	360,448	-0,088	-0,128
-718,021	-200,000	0,012	-0,092
-717,006	-6,747	-0,091	-0,045
-715,991	-200,000	0,007	-0,243
-714,977	300,146	-0,039	-0,053
-713,962	-33,080	-0,089	-0,036
-712,948	-200,000	0,004	0,049
-711,933	800,000	0,012	-0,038
-710,918	-200,000	-0,011	-0,130
-709,904	-200,000	-0,018	0,077
-708,889	390,928	-0,049	-0,074
-707,875	-200,000	-0,007	-0,073
-706,860	-200,000	-0,148	-0,000
-705,845	178,093	0,036	-0,038
-704,831	-53,643	0,107	0,035
-703,816	10,963	0,111	-0,061
-702,802	-125,311	-0,208	0,023
-701,787	45,418	0,111	-0,074
-700,772	7,817	0,066	-0,035
-699,758	-57,530	0,136	-0,043
-698,743	65,738	-0,057	-0,042
-697,729	-1,724	-0,054	0,027
-696,714	800,000	0,019	-0,051
-695,699	399,260	0,094	0,143
-694,685	430,462	-0,106	-0,167
-693,670	800,000	0,011	-0,027
-692,656	700,245	0,048	-0,092
-691,641	-200,000	0,008	-0,069
-690,627	-200,000	0,006	-0,021
-689,612	-200,000	-0,010	0,077
-688,597	446,234	-0,056	0,089
-687,583	-200,000	0,021	-0,164
-686,568	326,825	-0,056	-0,077
-685,554	353,113	-0,017	-0,025
-684,539	47,747	-0,130	0,088
-683,524	147,297	0,054	-0,053
-682,510	-178,361	0,129	0,002
-681,495	130,010	-0,117	0,108
-680,481	40,396	-0,067	-0,044
-679,466	259,597	-0,058	-0,073
-678,451	-200,000	0,001	-0,069
-677,437	223,375	-0,030	0,035
-676,422	74,517	0,068	0,052
-675,408	100,712	-0,136	-0,114
-674,393	238,093	-0,025	0,030
-673,378	-33,319	-0,074	-0,029
-672,364	202,392	-0,085	-0,095
-671,349	407,312	-0,064	0,098
-670,335	800,000	0,026	-0,076
-669,320	36,851	0,053	0,034
-668,305	-200,000	-0,007	0,066
-667,291	-120,078	-0,066	0,008
-666,276	167,498	-0,084	0,087
-665,262	527,775	-0,076	-0,129
-664,247	-60,784	-0,033	-0,010
-663,232	256,740	-0,026	0,033
-662,218	262,618	0,105	0,132
-661,203	-200,000	0,017	0,085
-660,189	800,000	-0,036	0,100
-659,174	800,000	-0,068	-0,164
-658,159	-200,000	0,007	-0,043
-657,145	-200,000	0,024	-0,113
-656,130	202,168	-0,068	-0,076
-655,116	-144,723	0,160	-0,011
-654,101	82,717	0,141	0,110
-653,086	240,244	-0,132	-0,159
-652,072	-53,991	-0,142	0,047
-651,057	-17,324	-0,125	-0,057
-650,043	317,599	-0,059	-0,081
-649,028	-114,881	-0,114	-0,016
-648,014	587,289	-0,043	0,078
-646,999	93,885	0,076	-0,062
-645,984	-154,438	0,142	0,007
-644,970	71,784	-0,101	0,076
-643,955	-200,000	-0,017	-0,063
-642,941	-49,495	-0,186	0,064
-641,926	-40,522	-0,069	0,026
-640,911	91,916	-0,075	-0,061
-639,897	800,000	0,030	0,074
-638,882	800,000	0,072	0,155
-637,868	48,414	-0,022	-0,015
-636,853	383,506	-0,020	0,030
-635,838	-38,327	0,082	-0,031
-634,824	99,268	-0,100	-0,084
-633,809	-200,000	-0,008	-0,027
-632,795	233,291	0,019	-0,023
-631,780	-78,400	0,159	0,039
-630,765	-200,000	-0,016	0,060
-629,751	57,239	-0,131	0,092
-628,736	5,433	0,104	-0,055
-627,722	139,651	-0,094	-0,089
-626,707	800,000	-0,023	0,068
-625,692	135,727	-0,077	0,073
-624,678	70,082	-0,049	0,036
-623,663	-59,185	-0,078	-0,024
-622,649	-200,000	0,021	-0,108
-621,634	97,562	-0,091	0,075
-620,619	-171,162	-0,058	0,001
-619,605	552,949	-0,024	0,042
-618,590	-200,000	0,013	0,060
-617,576	800,000	0,042	0,101
-616,561	121,704	-0,085	0,077
-615,546	-84,383	-0,003	-0,001
-614,532	-16,774	-0,087	-0,039
-613,517	120,338	0,014	0,012
-612,503	-200,000	0,047	-0,180
-611,488	-22,722	0,173	-0,075
-610,474	44,744	0,054	-0,036
-609,459	277,930	-0,049	0,063
-608,444	-200,000	0,009	0,035
-607,430	-16,869	-0,077	0,035
-606,415	418,782	0,061	-0,095
-605,401	-200,000	0,006	0,022
-604,386	310,756	-0,099	-0,135
-603,371	800,000	-0,006	-0,014
-602,357	-200,000	0,008	0,056
-601,342	335,936	0,061	0,086
-600,328	-185,325	-0,063	-0,001
-599,313	800,000	-0,050	-0,101
-598,298	369,174	-0,079	-0,115
-597,284	-69,421	0,072	-0,020
-596,269	639,265	0,044	0,081
-595,255	21,059	0,049	0,028
-594,240	93,395	-0,071	0,058
-593,225	257,706	0,094	-0,117
-592,211	415,656	-0,081	-0,125
-591,196	-200,000	-0,020	0,111
-590,182	6,052	-0,057	0,030
-589,167	-200,000	0,032	-0,112
-588,152	61,484	0,052	-0,037
-587,138	-123,014	-0,093	-0,011
-586,123	-200,000	0,029	-0,114
-585,109	610,846	0,039	-0,070
-584,094	258,716	-0,076	0,094
-583,079	386,109	0,083	0,123
-582,065	26,085	0,138	-0,083
-581,050	403,104	-0,042	-0,064
-580,036	-83,470	0,137	-0,031
-579,021	-89,147	-0,155	0,033
-578,006	81,136	-0,056	-0,043
-576,992	-1,404	-0,086	0,044
-575,977	722,285	0,086	0,166
-574,963	-39,734	-0,067	-0,025
-573,948	800,000	-0,011	-0,034
-572,934	-181,753	0,050	-0,001
-571,919	800,000	-0,052	-0,127
-570,904	10,317	-0,096	-0,053
-569,890	-200,000	0,017	-0,093
-568,875	498,699	-0,028	0,047
-567,861	-200,000	-0,005	-0,084
-566,846	-48,228	0,163	-0,056
-565,831	223,479	-0,098	0,114
-564,817	-1,470	0,057	-0,029
-563,802	-10,376	-0,246	-0,117
-562,788	325,676	-0,018	-0,025
-561,773	179,108	-0,104	0,109
-560,758	226,560	0,062	0,073
-559,744	800,000	0,044	0,137
-558,729	-15,532	0,042	0,019
-557,715	-160,523	0,055	-0,002
-556,700	712,293	-0,027	-0,052
-555,685	-200,000	-0,012	0,055
-554,671	800,000	-0,045	0,093
-553,656	505,365	0,059	0,099
-552,642	18,487	0,097	0,056
-551,627	-88,565	0,001	0,000
-550,612	800,000	0,044	-0,095
-549,598	243,289	-0,096	-0,116
-548,583	-200,000	0,004	-0,041
-547,569	-200,000	-0,006	0,092
-546,554	-200,000	0,028	0,113
-545,539	36,214	0,050	-0,032
-544,525	1,723	-0,105	0,054
-543,510	62,640	0,162	0,117
-542,496	800,000	0,068	-0,150
-541,481	-200,000	-0,023	-0,093
-540,466	41,016	-0,208	-0,135
-539,452	259,824	0,055	-0,069
-538,437	-149,604	0,103	-0,006
-537,423	-200,000	-0,043	0,138
-536,408	4,537	0,055	-0,029
-535,393	-200,000	0,014	0,071
-534,379	88,831	-0,090	0,072
-533,364	75,824	0,090	0,069
-532,350	618,871	-0,042	0,076
-531,335	-65,779	0,048	-0,014
-530,321	800,000	0,052	0,104
-529,306	800,000	-0,019	-0,060
-528,291	-29,757	-0,081	0,033
-527,277	-2,083	0,158	-0,079
-526,262	156,583	0,044	-0,044
-525,248	-200,000	-0,008	-0,083
-524,233	406,598	-0,078	0,119
-523,218	800,000	0,034	0,105
-522,204	134,977	-0,064	-0,060
-521,189	-200,000	0,018	-0,088
-520,175	-192,378	-0,087	-0,001
-519,160	-200,000	-0,032	-0,245
-518,145	-30,467	0,135	-0,055
-517,131	800,000	0,019	-0,049
-516,116	227,272	-0,042	-0,050
-515,102	-114,937	-0,099	-0,013
-514,087	432,094	0,022	0,034
-513,072	-200,000	0,001	-0,094
-512,058	27,798	-0,117	0,071
-511,043	-200,000	0,043	-0,137
-510,029	-6,188	-0,079	-0,039
-509,014	-77,483	0,142	0,035
-507,999	447,321	0,025	0,039
-506,985	800,000	-0,041	-0,103
-505,970	154,731	-0,129	-0,128
-504,956	-2,948	0,142	-0,071
-503,941	292,288	-0,040	0,052
-502,926	-1,490	-0,138	-0,070
-501,912	-36,673	0,052	0,020
-500,897	-200,000	-0,001	0,026
-499,883	800,000	-0,041	-0,110
-498,868	-145,282	-0,172	0,011
-497,853	50,413	-0,048	0,033
-496,839	-200,000	-0,010	0,038
-495,824	-143,643	0,049	0,003
-494,810	800,000	0,006	-0,019
-493,795	572,483	-0,034	0,059
-492,781	-200,000	-0,009	0,049
-491,766	113,752	0,038	-0,033
-490,751	-133,261	-0,095	0,009
-489,737	-200,000	-0,006	-0,055
-488,722	800,000	0,012	0,027
-487,708	-200,000	0,024	0,143
-486,693	-27,018	0,096	0,040
-485,678	800,000	-0,052	-0,132
-484,664	800,000	-0,049	-0,114
-483,649	243,903	-0,151	-0,183
-482,635	-10,162	0,049	0,023
-481,620	-200,000	-0,010	-0,159
-480,605	-7,384	0,015	-0,007
-479,591	-200,000	0,003	0,098
-478,576	166,994	0,079	-0,080
-477,562	168,799	-0,114	-0,117
-476,547	-108,960	-0,044	0,007
-475,532	80,384	0,018	0,014
-474,518	-200,000	-0,002	-0,067
-473,503	383,582	-0,050	0,074
-472,489	-6,188	0,158	0,077
-471,474	351,900	-0,040	-0,057
-470,459	-200,000	0,020	-0,090
-469,445	-33,797	0,038	-0,015
-468,430	-37,699	-0,040	-0,015
-467,416	-200,000	0,001	0,102
-466,401	-22,445	0,194	0,084
-465,386	-123,923	-0,060	0,007
-464,372	-2,682	0,088	0,044
-463,357	365,605	0,097	-0,141
-462,343	-200,000	-0,016	-0,070
-461,328	440,176	0,013	0,020
-460,313	-32,355	0,029	0,012
-459,299	-200,000	0,013	0,100
-458,284	-200,000	-0,007	0,061
-457,270	593,317	-0,046	-0,083
-456,255	800,000	-0,020	0,044
-455,241	341,174	0,041	0,058
-454,226	-46,652	-0,084	0,029
-453,211	519,366	0,025	0,043
-452,197	-200,000	-0,002	-0,016
-451,182	21,322	-0,019	-0,011
-450,168	-200,000	0,021	0,073
-449,153	-43,455	-0,014	-0,005
-448,138	577,338	0,049	-0,086
-447,124	400,348	0,013	0,020
-446,109	-200,000	0,008	-0,097
-445,095	800,000	0,042	0,085
-444,080	-70,017	0,124	0,034
-443,065	279,753	0,069	0,088
-442,051	5,101	0,046	-0,024
-441,036	203,840	0,009	-0,010
-440,022	-123,078	-0,144	0,016
-439,007	57,295	-0,053	-0,037
-437,992	800,000	0,028	-0,086
-436,978	-200,000	0,009	0,089
-435,963	284,214	-0,060	0,078
-434,949	-28,556	-0,060	-0,025
-433,934	-141,527	-0,102	-0,007
-432,919	-83,846	0,065	-0,015
-431,905	800,000	0,049	0,143
-430,890	711,339	0,039	0,074
-429,876	-54,958	-0,013	-0,004
-428,861	-84,907	0,036	0,008
-427,846	11,890	-0,083	0,045
-426,832	182,792	-0,093	0,098
-425,817	107,311	-0,095	-0,081
-424,803	-200,000	0,006	-0,032
-423,788	101,580	0,060	0,050
-422,773	800,000	0,083	0,171
-421,759	-151,638	0,188	0,010
-420,744	800,000	0,010	0,024
-419,730	800,000	-0,031	-0,090
-418,715	800,000	0,047	-0,095
-417,701	-200,000	0,006	-0,103
-416,686	249,340	0,093	0,113
-415,671	36,053	0,065	-0,041
-414,657	-9,989	0,059	-0,028
-413,642	-200,000	-0,005	0,095
-412,628	-200,000	0,003	-0,051
-411,613	-133,137	-0,136	-0,012
-410,598	-200,000	0,008	-0,071
-409,584	-200,000	-0,003	0,012
-408,569	461,788	-0,031	0,050
-407,555	-200,000	0,024	0,111
-406,540	124,860	0,091	-0,082
-405,525	800,000	0,047	-0,147
-404,511	-24,206	-0,003	-0,001
-403,496	-116,002	0,039	0,005
-402,482	76,096	0,064	0,049
-401,467	-200,000	0,028	0,184
-400,452	408,005	0,035	0,053
-399,438	543,194	-0,025	-0,042
-398,423	-200,000	0,003	0,018
-397,409	39,769	-0,056	-0,036
-396,394	268,269	0,041	-0,052
-395,379	800,000	-0,062	-0,134
-394,365	97,414	-0,015	-0,012
-393,350	-10,666	0,131	-0,062
-392,336	-200,000	-0,014	0,064
-391,321	56,700	-0,032	0,022
-390,306	-87,726	0,080	-0,017
-389,292	-153,264	0,032	0,002
-388,277	800,000	-0,015	0,040
-387,263	-175,362	-0,111	0,002
-386,248	134,095	0,080	0,074
-385,233	109,566	0,043	-0,037
-384,219	-110,804	-0,075	-0,011
-383,204	-200,000	-0,019	-0,131
-382,190	-52,251	0,106	-0,035
-381,175	46,319	0,029	-0,019
-380,160	142,335	0,059	-0,056
-379,146	800,000	0,022	0,057
-378,131	800,000	0,023	0,051
-377,117	32,316	0,044	0,027
-376,102	222,386	0,046	-0,053
-375,088	317,970	-0,056	-0,076
-374,073	-200,000	-0,007	-0,114
-373,058	-20,485	0,126	-0,055
-372,044	299,568	-0,096	0,127
-371,029	30,725	-0,123	0,075
-370,015	481,282	-0,079	0,129
-369,000	-200,000	0,044	-0,202
-367,985	-200,000	-0,006	-0,049
-366,971	54,675	-0,114	0,078
-365,956	800,000	0,027	-0,060
-364,942	479,313	0,038	0,061
-363,927	800,000	0,127	0,258
-362,912	-200,000	-0,002	0,012
-361,898	691,114	-0,035	0,066
-360,883	-200,000	0,002	-0,126
-359,869	-15,806	0,041	0,019
-358,854	-200,000	-0,003	0,118
-357,839	-84,892	-0,042	-0,009
-356,825	-200,000	0,010	0,197
-355,810	72,821	0,038	0,028
-354,796	-121,140	0,060	0,007
-353,781	118,591	-0,035	-0,031
-352,766	457,788	0,027	0,042
-351,752	582,077	-0,020	-0,036
-350,737	-200,000	0,005	-0,074
-349,723	109,713	0,046	-0,040
-348,708	-17,356	-0,068	-0,031
-347,693	800,000	0,059	-0,122
-346,679	225,194	0,080	-0,093
-345,664	-200,000	-0,037	-0,202
-344,650	-160,706	-0,031	0,001
-343,635	3,017	0,056	-0,029
-342,620	-200,000	-0,021	-0,124
-341,606	-121,858	-0,115	-0,013
-340,591	800,000	0,012	-0,031
-339,577	-200,000	-0,018	-0,095
-338,562	-29,946	-0,081	0,033
-337,548	37,246	-0,024	0,015
-336,533	-200,000	0,005	-0,069
-335,518	-200,000	0,032	0,171
-334,504	276,446	-0,047	0,060
-333,489	141,427	0,124	-0,117
-332,475	800,000	0,058	-0,123
-331,460	800,000	-0,051	0,131
-330,445	-108,331	0,178	-0,027
-329,431	-164,079	-0,026	0,001
-328,416	800,000	-0,023	0,063
-327,402	800,000	-0,044	0,100
-326,387	81,379	-0,066	0,051
-325,372	-37,144	-0,118	0,045
-324,358	-200,000	-0,032	0,161
-323,343	-200,000	0,001	0,025
-322,329	-15,234	0,058	0,026
-321,314	-200,000	0,003	0,049
-320,299	153,907	-0,110	0,108
-319,285	205,006	0,022	-0,025
-318,270	800,000	-0,041	-0,112
-317,256	800,000	0,029	0,059
-316,241	800,000	-0,044	0,103
-315,226	-200,000	0,042	0,136
-314,212	-177,809	-0,040	-0,001
-313,197	446,905	-0,023	0,036
-312,183	-200,000	0,008	-0,071
-311,168	42,376	0,059	-0,038
-310,153	134,790	0,059	0,055
-309,139	148,823	-0,104	-0,101
-308,124	-200,000	0,143	0,000
-307,110	18,443	0,079	0,045
-306,095	423,399	-0,097	0,149
-305,080	-57,116	-0,062	-0,019
-304,066	207,032	-0,056	0,062
-303,051	53,942	-0,141	-0,096
-302,037	129,663	-0,044	-0,040
-301,022	-94,355	0,056	0,011
-300,008	290,126	0,050	0,064
-298,993	-71,026	0,059	0,016
-297,978	143,637	0,047	-0,045
-296,964	-152,147	-0,043	-0,002
-295,949	-200,000	-0,037	0,121
-294,935	-199,037	0,067	-0,000
-293,920	-67,806	-0,068	0,019
-292,905	-200,000	0,011	-0,045
-291,891	174,686	-0,017	-0,018
-290,876	14,192	0,014	-0,008
-289,862	-200,000	-0,016	-0,078
-288,847	48,313	0,030	-0,020
-287,832	-200,000	0,014	-0,119
-286,818	-79,840	-0,069	-0,016
-285,803	152,482	0,101	-0,099
-284,789	-53,361	0,119	0,039
-283,774	189,225	0,085	0,090
-282,759	-200,000	-0,009	0,045
-281,745	-200,000	-0,034	-0,107
-280,730	-51,546	-0,016	0,005
-279,716	410,757	-0,040	0,060
-278,701	364,304	0,053	0,076
-277,686	3,519	0,060	0,031
-276,672	-107,774	-0,038	-0,006
-275,657	23,973	-0,083	-0,049
-274,643	-200,000	-0,025	-0,152
-273,628	-94,129	-0,071	0,014
-272,613	35,105	0,061	-0,038
-271,599	800,000	0,068	0,157
-270,584	200,474	0,022	-0,024
-269,570	-200,000	-0,016	0,061
-268,555	-200,000	-0,024	0,087
-267,540	286,061	-0,011	0,014
-266,526	-49,571	-0,177	0,060
-265,511	-126,024	0,120	-0,013
-264,497	108,524	-0,098	0,083
-263,482	137,672	0,038	-0,035
-262,467	800,000	0,048	0,128
-261,453	-104,462	0,045	-0,007
-260,438	15,640	0,105	-0,059
-259,424	162,756	-0,109	-0,109
-258,409	-200,000	0,003	0,010
-257,395	800,000	-0,046	0,105
-256,380	135,089	0,087	0,080
-255,365	252,447	-0,027	0,033
-254,351	50,472	-0,010	0,007
-253,336	-105,217	-0,112	-0,018
-252,322	800,000	-0,032	0,076
-251,307	-200,000	-0,029	-0,138
-250,292	-30,389	-0,099	-0,040
-249,278	-67,460	0,196	0,054
-248,263	-13,008	0,128	0,059
-247,249	50,280	-0,030	0,020
-246,234	-200,000	-0,056	-0,176
-245,219	-200,000	-0,001	0,099
-244,205	-200,000	0,004	-0,042
-243,190	-200,000	-0,003	0,061
-242,176	-200,000	-0,005	-0,032
-241,161	-200,000	-0,018	-0,083
-240,146	620,873	0,008	0,015
-239,132	-136,552	0,022	0,002
-238,117	-145,669	-0,162	0,010
-237,103	258,830	0,074	0,091
-236,088	91,793	-0,045	0,036
-235,073	25,599	-0,037	-0,022
-234,059	800,000	0,052	0,155
-233,044	509,755	-0,040	0,066
-232,030	146,764	0,073	-0,070
-231,015	68,611	-0,017	0,013
-230,000	28,222	-0,056	-0,034
-228,986	-47,907	-0,188	-0,064
-227,971	325,681	0,035	-0,048
-226,957	-200,000	-0,007	0,041
-225,942	-21,404	0,140	0,061
-224,927	-200,000	0,028	-0,113
-223,913	-200,000	-0,002	-0,021
-222,898	337,317	0,059	-0,082
-221,884	194,265	-0,024	0,026
-220,869	-90,011	0,081	0,017
-219,855	800,000	0,069	0,175
-218,840	-119,151	0,069	-0,008
-217,825	137,456	0,054	0,051
-216,811	108,094	0,042	0,035
-215,796	130,309	0,115	-0,105
-214,782	-40,362	-0,056	0,020
-213,767	29,991	-0,051	-0,031
-212,752	276,020	0,087	0,110
-211,738	-200,000	0,005	0,045
-210,723	-200,000	-0,019	0,139
-209,709	-200,000	-0,022	-0,206
-208,694	-2,185	-0,032	0,016
-207,679	-200,000	0,023	-0,117
-206,665	186,604	0,082	0,087
-205,650	-200,000	0,004	0,053
-204,636	-200,000	-0,005	0,089
-203,621	379,344	-0,043	0,063
-202,606	765,130	0,033	-0,063
-201,592	-123,209	-0,132	-0,015
-200,577	-101,693	-0,083	0,014
-199,563	582,704	-0,124	-0,217
-198,548	359,402	-0,039	0,056
-197,533	-176,319	0,076	0,001
-196,519	-104,742	0,064	-0,010
-195,504	272,430	0,028	0,036
-194,490	-200,000	-0,011	0,103
-193,475	-53,873	0,061	0,020
-192,460	48,112	0,074	-0,049
-191,446	-200,000	-0,018	-0,118
-190,431	305,995	-0,033	0,043
-189,417	10,417	-0,015	0,008
-188,402	235,525	-0,044	0,052
-187,387	-200,000	0,007	-0,110
-186,373	137,146	0,046	-0,043
-185,358	604,199	-0,036	-0,064
-184,344	-3,675	0,047	-0,023
-183,329	72,945	0,127	0,094
-182,315	-174,451	-0,058	0,001
-181,300	-200,000	0,021	-0,156
-180,285	42,672	0,024	0,016
-179,271	-200,000	0,016	-0,092
-178,256	-200,000	0,008	-0,036
-177,242	-118,491	0,143	0,018
-176,227	-63,344	-0,072	0,021
-175,212	800,000	-0,022	0,053
-174,198	-60,811	-0,078	-0,023
-173,183	-200,000	-0,011	-0,096
-172,169	236,539	0,079	0,093
-171,154	-38,886	-0,150	0,056
-170,139	-200,000	-0,014	-0,058
-169,125	50,594	0,025	-0,017
-168,110	-200,000	0,044	0,201
-167,096	-67,055	0,088	0,024
-166,081	279,067	0,016	-0,021
-165,066	-200,000	0,007	-0,097
-164,052	-29,116	-0,128	0,052
-163,037	800,000	0,014	-0,034
-162,023	179,738	0,086	0,090
-161,008	-22,575	-0,090	-0,038
-159,993	-200,000	0,007	-0,091
-158,979	-200,000	0,003	-0,126
-157,964	21,925	0,061	0,035
-156,950	-156,056	-0,069	-0,003
-155,935	-200,000	-0,004	0,022
-154,920	104,961	0,106	-0,089
-153,906	287,235	0,065	0,083
-152,891	16,513	-0,128	0,072
-151,877	800,000	0,053	-0,125
-150,862	185,218	-0,093	-0,098
-149,847	32,025	0,069	-0,042
-148,833	-180,403	0,043	0,001
-147,818	-76,583	-0,106	-0,026
-146,804	-200,000	-0,005	0,036
-145,789	-61,595	0,141	-0,042
-144,775	354,303	0,045	-0,063
-143,760	-4,801	-0,107	-0,052
-142,745	731,970	-0,046	-0,088
-141,731	-5,287	0,082	0,040
-140,716	-95,890	0,142	0,027
-139,702	379,110	-0,036	0,053
-138,687	800,000	-0,041	0,099
-137,672	-157,872	-0,061	-0,003
-136,658	112,253	-0,099	-0,084
-135,643	-58,799	0,127	-0,039
-134,629	-200,000	0,002	0,043
-133,614	61,103	0,063	0,044
-132,599	444,497	-0,032	-0,050
-131,585	-128,057	-0,049	0,005
-130,570	13,020	-0,116	-0,064
-129,556	639,990	-0,081	-0,146
-128,541	800,000	-0,070	-0,150
-127,526	157,272	0,064	-0,063
-126,512	-100,375	0,076	0,013
-125,497	-81,765	0,111	0,026
-124,483	-130,240	-0,036	-0,003
-123,468	124,651	-0,109	0,097
-122,453	-12,132	-0,185	-0,085
-121,439	-79,119	0,021	0,005
-120,424	-116,441	-0,177	0,023
-119,410	800,000	0,071	0,194
-118,395	382,135	0,055	0,081
-117,380	800,000	-0,037	-0,107
-116,366	0,997	0,069	0,035
-115,351	769,821	-0,101	-0,195
-114,337	-139,174	-0,032	-0,002
-113,322	435,835	0,051	-0,079
-112,307	678,898	0,025	-0,046
-111,293	-200,000	0,018	0,103
-110,278	275,644	0,044	-0,055
-109,264	-98,837	0,091	0,016
-108,249	-200,000	0,000	0,054
-107,234	800,000	-0,058	-0,119
-106,220	-29,086	-0,073	0,030
-105,205	-0,420	0,039	-0,019
-104,191	-29,141	0,028	0,011
-103,176	173,013	-0,027	-0,027
-102,162	800,000	0,018	-0,042
-101,147	435,559	-0,085	0,131
-100,132	140,615	-0,113	-0,105
-99,118	800,000	0,006	-0,018
-98,103	367,623	-0,071	0,101
-97,089	800,000	0,010	0,022
-96,074	-200,000	-0,002	-0,022
-95,059	235,912	0,071	-0,084
-94,045	115,277	-0,077	0,066
-93,030	190,895	-0,049	0,052
-92,016	-80,954	-0,066	0,015
-91,001	-200,000	0,006	-0,054
-89,986	-112,106	-0,103	0,015
-88,972	800,000	-0,065	0,180
-87,957	-108,231	-0,110	0,017
-86,943	-200,000	-0,013	0,088
-85,928	-41,288	0,033	-0,012
-84,913	656,140	-0,035	-0,064
-83,899	-200,000	-0,004	-0,065
-82,884	-27,881	0,121	0,050
-81,870	24,687	-0,042	0,025
-80,855	-200,000	0,009	0,183
-79,840	-200,000	0,008	0,120
-78,826	-93,847	0,022	0,004
-77,811	-38,332	0,082	0,031
-76,797	1,019	-0,085	-0,043
-75,782	-17,970	0,157	0,069
-74,767	779,332	-0,038	0,075
-73,753	220,169	0,040	0,046
-72,738	-8,714	-0,125	0,059
-71,724	7,013	-0,091	-0,048
-70,709	771,131	0,118	-0,228
-69,694	-200,000	0,005	-0,048
-68,680	-200,000	0,010	-0,074
-67,665	-200,000	-0,003	-0,088
-66,651	77,515	0,126	0,094
-65,636	-116,924	0,023	-0,003
-64,622	-148,805	0,144	-0,008
-63,607	-200,000	-0,030	-0,187
-62,592	11,791	0,108	-0,058
-61,578	-200,000	-0,020	0,069
-60,563	424,584	0,086	0,131
-59,549	-200,000	0,003	-0,066
-58,534	28,873	-1,863	-1,113
-57,519	595,766	-1,204	-2,115
-56,505	-200,000	-0,340	-4,325
-55,490	426,337	0,884	1,350
-54,476	800,000	5,054	11,454
-53,461	-200,000	20,457	327,821
-52,446	800,000	752,545	2312,181
-51,432	550,079	1657,982	2818,905
-50,417	74,009	1663,887	1231,601
-49,403	19,272	1537,139	869,254
-48,388	13,264	1459,791	796,443
-47,373	18,838	1449,947	817,805
-46,359	16,169	1439,750	799,313
-45,344	11,538	1435,498	774,865
-44,330	11,492	1433,515	773,545
-43,315	11,539	1431,353	772,571
-42,300	11,474	1429,868	771,431
-41,286	11,469	1428,664	770,725
-40,271	11,489	1427,235	770,021
-39,257	11,469	1426,159	769,313
-38,242	11,513	1424,806	768,762
-37,227	11,461	1423,772	767,928
-36,213	11,489	1422,527	767,356
-35,198	11,502	1421,340	766,748
-34,184	11,496	1420,575	766,278
-33,169	11,463	1418,989	765,237
-32,154	11,544	1418,080	765,097
-31,140	11,567	1416,574	764,364
-30,125	11,590	1415,929	764,092
-29,111	11,585	1414,470	763,253
-28,096	11,583	1413,339	762,602
-27,082	11,496	1412,438	761,679
-26,067	11,462	1411,273	760,858
-25,052	11,515	1410,248	760,526
-24,038	11,443	1409,401	759,698
-23,023	11,482	1408,139	759,174
-22,009	11,491	1406,999	758,568
-20,994	11,453	1406,118	757,885
-19,979	11,462	1405,259	757,436
-18,965	11,431	1404,472	756,836
-17,950	11,399	1403,627	756,204
-16,936	11,401	1402,691	755,678
-15,921	11,351	1401,591	754,824
-14,906	11,341	1400,750	754,290
-13,892	11,400	1399,830	754,041
-12,877	11,416	1398,784	753,522
-11,863	11,377	1398,030	752,904
-10,848	11,398	1397,078	752,458
-9,833	11,335	1396,231	751,682
-8,819	11,327	1395,318	751,125
-7,804	11,251	1394,561	750,336
-6,790	11,280	1393,535	749,885
-5,775	11,344	1392,205	749,436
-4,760	11,292	1391,558	748,819
-3,746	11,287	1390,639	748,270
-2,731	11,310	1389,690	747,837
-1,717	11,251	1389,090	747,211
-0,702	11,252	1386,933	746,026
0,313	15,327	1301,809	718,905
1,327	31,792	694,377	420,976
2,342	49,168	120,860	80,026
3,356	-0,095	16,521	8,272
4,371	-4,549	3,365	1,634
5,386	-10,814	0,779	0,362
6,400	-200,000	0,038	0,437
7,415	-12,861	-0,243	-0,111
8,429	125,189	-0,182	-0,161
9,444	81,474	-0,351	-0,267
10,459	233,392	-0,175	-0,204
11,473	70,399	-0,275	-0,200
12,488	19,663	-0,235	-0,133
13,502	17,009	-0,285	-0,159
14,517	9,132	-0,299	-0,159
15,531	118,573	-0,419	-0,365
16,546	290,664	-0,235	-0,302
17,561	210,701	-0,249	-0,276
18,575	-200,000	-0,039	-0,122
19,590	44,023	-0,178	-0,115
20,604	-89,817	-0,416	-0,085
21,619	221,293	-0,325	-0,368
22,634	149,409	-0,399	-0,381
23,648	9,884	-0,415	-0,221
24,663	158,613	-0,340	-0,333
25,677	147,588	-0,235	-0,223
26,692	-26,849	-0,458	-0,188
27,707	12,596	-0,347	-0,188
28,721	130,529	-0,360	-0,325
29,736	-36,272	-0,372	-0,141
30,750	138,615	-0,319	-0,295
31,765	58,570	-0,367	-0,253
32,780	32,333	-0,312	-0,189
33,794	-59,523	-0,287	-0,086
34,809	-71,215	-0,376	-0,099
35,823	66,013	-0,306	-0,218
36,838	139,950	-0,285	-0,264
37,853	126,011	-0,377	-0,335
38,867	79,367	-0,355	-0,268
39,882	108,164	-0,328	-0,275
40,896	-25,232	-0,411	-0,171
41,911	0,891	-0,465	-0,234
42,926	46,829	-0,414	-0,270
43,940	192,574	-0,246	-0,262
44,955	21,274	-0,407	-0,232
45,969	73,073	-0,426	-0,313
46,984	100,200	-0,367	-0,299
47,999	-74,343	-0,380	-0,096
49,013	71,894	-0,275	-0,201
50,028	-4,949	-0,334	-0,161
51,042	130,123	-0,277	-0,249
52,057	141,058	-0,361	-0,335
53,071	286,908	-0,310	-0,395
54,086	172,153	-0,305	-0,308
55,101	117,887	-0,282	-0,244
56,115	172,522	-0,373	-0,377
57,130	407,191	-0,198	-0,295
58,144	43,786	-0,334	-0,214
59,159	-29,767	-0,456	-0,182
60,174	56,402	-0,390	-0,266
61,188	8,169	-0,303	-0,159
62,203	157,849	-0,365	-0,355
63,217	170,877	-0,282	-0,284
64,232	106,029	-0,299	-0,249
65,247	23,636	-0,460	-0,265
66,261	40,131	-0,265	-0,167
67,276	49,223	-0,371	-0,244
68,290	-18,441	-0,348	-0,152
69,305	199,360	-0,182	-0,196
70,320	-4,731	-0,257	-0,124
71,334	-101,853	-0,408	-0,069
72,349	178,281	-0,243	-0,249
73,363	107,395	-0,349	-0,291
74,378	107,277	-0,162	-0,135
75,393	141,216	-0,234	-0,217
76,407	92,552	-0,283	-0,224
77,422	168,417	-0,227	-0,227
78,436	-27,317	-0,394	-0,160
79,451	174,420	-0,207	-0,210
80,466	38,625	-0,300	-0,187
81,480	45,821	-0,212	-0,137
82,495	160,092	-0,209	-0,204
83,509	10,050	-0,227	-0,121
84,524	-53,152	-0,188	-0,060
85,539	183,147	-0,264	-0,273
86,553	13,345	-0,165	-0,090
87,568	83,174	-0,393	-0,299
88,582	52,236	-0,194	-0,129
89,597	-6,381	-0,334	-0,159
90,611	-63,172	-0,342	-0,098
91,626	44,620	-0,244	-0,157
92,641	294,399	-0,240	-0,308
93,655	-16,383	-0,343	-0,152
94,670	-85,841	-0,147	-0,032
95,684	176,832	-0,160	-0,163
96,699	-12,956	-0,189	-0,086
97,714	52,026	-0,332	-0,221
98,728	44,801	-0,273	-0,175
99,743	288,257	-0,138	-0,175
100,757	-24,602	-0,278	-0,115
101,772	35,830	-0,386	-0,237
102,787	-38,009	-0,199	-0,073
103,801	761,662	-0,159	-0,303
104,816	164,438	-0,231	-0,228
105,830	-54,251	-0,397	-0,125
106,845	20,473	-0,304	-0,172
107,860	55,931	-0,198	-0,134
108,874	85,974	-0,295	-0,227
109,889	133,743	-0,346	-0,313
110,903	33,630	-0,325	-0,197
111,918	23,237	-0,184	-0,106
112,933	629,496	-0,094	-0,168
113,947	-85,191	-0,170	-0,037
114,962	3,633	-0,314	-0,160
115,976	331,078	-0,214	-0,289
116,991	114,450	-0,259	-0,221
118,006	103,415	-0,220	-0,180
119,020	232,768	-0,149	-0,171
120,035	280,954	-0,162	-0,203
121,049	604,890	-0,141	-0,247
122,064	40,865	-0,246	-0,155
123,079	34,217	-0,248	-0,151
124,093	158,095	-0,188	-0,182
125,108	29,085	-0,259	-0,153
126,122	306,266	-0,138	-0,179
127,137	-149,038	-0,298	-0,016
128,151	6,861	-0,154	-0,080
129,166	-23,385	-0,300	-0,125
130,181	153,654	-0,278	-0,266
131,195	199,991	-0,287	-0,307
132,210	159,422	-0,262	-0,254
133,224	76,407	-0,296	-0,219
134,239	800,000	-0,152	-0,326
135,254	-35,882	-0,169	-0,063
136,268	443,654	-0,149	-0,228
137,283	162,955	-0,215	-0,211
138,297	-24,906	-0,363	-0,150
139,312	-107,757	-0,288	-0,043
140,327	155,131	-0,190	-0,182
141,341	469,740	-0,164	-0,257
142,356	362,189	-0,195	-0,273
143,370	34,305	-0,298	-0,181
144,385	567,501	-0,191	-0,325
145,400	-118,018	-0,336	-0,041
146,414	125,577	-0,275	-0,242
147,429	133,978	-0,174	-0,157
148,443	83,666	-0,247	-0,188
149,458	490,592	-0,147	-0,236
150,473	-43,661	-0,282	-0,098
151,487	800,000	-0,085	-0,165
152,502	140,785	-0,309	-0,284
153,516	258,843	-0,333	-0,401
154,531	296,156	-0,217	-0,278
155,546	261,455	-0,192	-0,232
156,560	561,276	-0,111	-0,187
157,575	287,306	-0,168	-0,212
158,589	166,949	-0,195	-0,193
159,604	6,096	-0,330	-0,169
160,619	77,388	-0,308	-0,228
161,633	-120,081	-0,180	0,021
162,648	226,614	-0,200	-0,226
163,662	51,981	-0,200	-0,133
164,677	57,498	-0,202	-0,137
165,692	39,871	-0,188	-0,117
166,706	311,390	-0,108	-0,141
167,721	206,672	-0,184	-0,200
168,735	84,915	-0,252	-0,192
169,750	-65,251	-0,247	-0,069
170,764	107,980	-0,202	-0,168
171,779	122,118	-0,220	-0,191
172,794	167,781	-0,150	-0,149
173,808	-117,035	-0,245	0,031
174,823	158,484	-0,295	-0,285
175,837	93,913	-0,291	-0,230
176,852	184,905	-0,251	-0,259
177,867	113,906	-0,204	-0,172
178,881	230,955	-0,130	-0,148
179,896	11,110	-0,270	-0,143
180,910	508,372	-0,123	-0,198
181,925	-147,971	-0,153	-0,009
182,940	34,667	-0,279	-0,169
183,954	141,226	-0,245	-0,225
184,969	-24,503	-0,260	-0,107
185,983	645,284	-0,179	-0,318
186,998	189,019	-0,164	-0,170
188,013	419,671	-0,179	-0,267
189,027	164,188	-0,246	-0,240
190,042	-56,480	-0,215	-0,066
191,056	135,084	-0,250	-0,225
192,071	-55,311	-0,135	0,042
193,086	-48,649	-0,111	0,037
194,100	-75,496	-0,202	-0,050
195,115	677,071	-0,093	-0,169
196,129	800,000	-0,070	-0,163
197,144	151,313	-0,263	-0,249
198,159	43,854	-0,179	-0,113
199,173	67,700	-0,222	-0,157
200,188	-64,979	-0,144	-0,040
201,202	-46,038	-0,267	-0,091
202,217	414,760	-0,126	-0,187
203,232	800,000	-0,149	-0,352
204,246	16,295	-0,279	-0,152
205,261	520,056	-0,192	-0,313
206,275	112,178	-0,250	-0,209
207,290	127,831	-0,183	-0,161
208,304	-200,000	-0,190	0,001
209,319	104,034	-0,290	-0,236
210,334	-51,152	-0,293	-0,095
211,348	-38,584	-0,365	-0,133
212,363	128,436	-0,262	-0,231
213,377	-65,914	-0,163	-0,045
214,392	143,437	-0,170	-0,157
215,407	108,811	-0,243	-0,201
216,421	-24,988	-0,253	-0,104
217,436	212,569	-0,098	-0,107
218,450	53,603	-0,207	-0,138
219,465	-39,088	-0,233	-0,084
220,480	-49,460	-0,154	-0,051
221,494	800,000	-0,062	-0,171
222,509	75,761	-0,203	-0,148
223,523	6,092	-0,142	-0,072
224,538	-109,922	-0,153	0,022
225,553	233,613	-0,180	-0,206
226,567	218,949	-0,140	-0,155
227,582	-8,799	-0,246	-0,114
228,596	800,000	-0,078	-0,169
229,611	282,363	-0,138	-0,171
230,626	74,244	-0,155	-0,113
231,640	252,634	-0,114	-0,135
232,655	144,206	-0,214	-0,197
233,669	111,851	-0,149	-0,124
234,684	800,000	-0,098	-0,215
235,699	307,552	-0,150	-0,194
236,713	-37,830	-0,223	0,082
237,728	800,000	-0,098	-0,250
238,742	44,937	-0,152	-0,096
239,757	108,603	-0,173	-0,143
240,772	262,097	-0,114	-0,137
241,786	-200,000	-0,048	-0,153
242,801	-25,468	-0,362	-0,147
243,815	-51,702	-0,160	-0,051
244,830	161,050	-0,167	-0,161
245,844	306,020	-0,153	-0,197
246,859	-123,813	-0,241	-0,026
247,874	540,947	-0,038	-0,062
248,888	-200,000	-0,060	-0,210
249,903	-85,851	-0,296	-0,063
250,917	21,487	-0,104	-0,058
251,932	257,759	-0,141	-0,168
252,947	-126,096	-0,167	-0,017
253,961	800,000	-0,112	-0,215
254,976	255,029	-0,278	-0,330
255,990	82,482	-0,233	-0,174
257,005	-147,124	-0,330	-0,019
258,020	-49,144	-0,175	-0,057
259,034	54,296	-0,170	-0,113
260,049	-23,660	-0,202	-0,083
261,063	800,000	-0,082	-0,162
262,078	576,420	-0,156	-0,263
263,093	37,200	-0,275	-0,168
264,107	-86,500	-0,197	-0,041
265,122	-11,429	-0,193	-0,087
266,136	-59,382	-0,045	-0,013
267,151	-200,000	0,013	-0,198
268,166	800,000	-0,088	-0,171
269,180	270,577	-0,191	-0,232
270,195	631,243	-0,190	-0,334
271,209	-100,508	-0,223	-0,038
272,224	-66,169	-0,150	-0,041
273,239	268,059	-0,114	-0,138
274,253	52,074	-0,062	-0,041
275,268	-79,301	-0,128	-0,030
276,282	223,716	-0,122	-0,135
277,297	-74,837	-0,164	0,040
278,312	-200,000	-0,016	-0,230
279,326	102,816	-0,145	-0,117
280,341	8,725	-0,171	-0,088
281,355	98,598	-0,144	-0,114
282,370	106,749	-0,249	-0,203
283,384	287,487	-0,181	-0,226
284,399	98,998	-0,161	-0,128
285,414	-14,597	-0,217	-0,096
286,428	-112,962	-0,231	-0,031
287,443	-115,524	-0,130	-0,017
288,457	70,523	-0,146	-0,104
289,472	-161,375	-0,190	-0,007
290,487	62,909	-0,176	-0,121
291,501	407,413	-0,111	-0,161
292,516	56,609	-0,249	-0,167
293,530	205,496	-0,109	-0,116
294,545	185,636	-0,102	0,104
295,560	-76,669	-0,239	0,057
296,574	241,981	-0,120	-0,139
297,589	-6,587	-0,185	-0,087
298,603	95,923	-0,147	-0,116
299,618	83,391	-0,256	-0,191
300,633	236,594	-0,167	-0,191
301,647	-68,899	-0,124	-0,033
302,662	-0,471	-0,118	0,057
303,676	-14,209	-0,077	0,034
304,691	379,303	-0,117	-0,166
305,706	-200,000	-0,050	-0,159
306,720	112,684	-0,196	-0,163
307,735	-88,458	-0,226	-0,046
308,749	90,089	-0,061	-0,047
309,764	53,561	-0,196	-0,129
310,779	68,274	-0,029	-0,020
311,793	800,000	-0,019	-0,046
312,808	632,705	-0,109	-0,190
313,822	571,953	-0,128	-0,215
314,837	459,130	-0,125	-0,192
315,852	164,261	-0,218	-0,211
316,866	-53,029	-0,080	-0,025
317,881	755,827	-0,053	-0,099
318,895	122,494	-0,125	-0,107
319,910	27,146	-0,175	-0,100
320,925	-67,319	-0,181	-0,048
321,939	207,236	-0,134	-0,144
322,954	800,000	-0,051	-0,135
323,968	800,000	0,034	-0,071
324,983	284,488	-0,139	-0,171
325,997	104,131	-0,179	-0,144
327,012	15,461	-0,180	-0,097
328,027	-114,280	-0,197	0,026
329,041	365,972	-0,144	-0,200
330,056	-200,000	-0,017	-0,058
331,070	131,494	-0,088	0,078
332,085	309,376	-0,102	-0,131
333,100	-200,000	-0,019	-0,154
334,114	17,602	-0,160	0,087
335,129	210,121	-0,171	-0,184
336,143	-49,133	-0,176	-0,057
337,158	-200,000	-0,049	-0,153
338,173	-35,681	-0,115	0,042
339,187	-200,000	-0,019	-0,236
340,202	-148,092	-0,158	0,009
341,216	32,497	-0,138	-0,081
342,231	-100,678	-0,126	-0,021
343,246	800,000	-0,057	-0,118
344,260	-71,839	-0,174	-0,044
345,275	-162,373	-0,114	-0,004
346,289	-121,833	-0,052	0,006
347,304	79,276	-0,073	-0,053
348,319	143,349	-0,113	-0,103
349,333	374,393	-0,096	-0,134
350,348	157,510	-0,199	-0,189
351,362	36,111	-0,211	-0,127
352,377	-65,745	-0,067	-0,018
353,392	302,176	-0,084	-0,106
354,406	-68,462	-0,168	0,044
355,421	208,356	1308,663	1401,713
356,435	160,319	1468,647	1402,216
