DTS Sentinel unit serial number:	SN410029Multiplexer serial number:	ORYXHardware model number:	OX2-SRSoftware version number:	ORYX F/W v4,00 Oryx Data Collector v3.7.2.0data status	okinstallation	B3 Nyhavnadifferential loss correction	single-endedforward channel	channel 1reverse channel	N/Adate	2023/12/01time	09:52:30forward acquisition time	300,00reverse acquisition time	0,00gamma	499,1914k internal	0,3213k external	0,3213temperature offset calibration	1,0000default loss term (dB/km)	0,3820temperature slope calibration	1,0000multiplexer offset coefficient	1,0000multiplexer slope coefficient	1,0000fibre end	0,00T internal ref (°C)	8,00T ext. ref 1 (°C)	-6,38T ext. ref 2 (°C)	-6,52length (m)	temperature (°C)	Stokes	anti-Stokes-744,400	246,684	-0,199	-0,244
-743,385	-200,000	0,001	0,303
-742,371	-200,000	-0,045	-0,179
-741,356	-200,000	-0,026	0,231
-740,342	191,795	-0,137	-0,150
-739,327	800,000	-0,105	0,300
-738,312	87,670	-0,169	-0,136
-737,298	-200,000	-0,037	0,205
-736,283	48,217	-0,269	-0,182
-735,269	-200,000	-0,066	0,285
-734,254	54,836	-0,258	-0,180
-733,239	-155,279	-0,198	0,009
-732,225	-200,000	-0,075	-0,274
-731,210	-120,652	0,075	0,009
-730,196	538,063	-0,092	-0,158
-729,181	-119,756	-0,100	-0,012
-728,167	23,451	-0,135	-0,080
-727,152	101,740	-0,127	-0,107
-726,137	65,177	-0,057	0,042
-725,123	617,841	-0,049	-0,089
-724,108	121,390	-0,103	-0,093
-723,094	-200,000	0,006	-0,111
-722,079	800,000	-0,048	-0,145
-721,064	89,019	-0,050	0,040
-720,050	-85,148	-0,018	0,004
-719,035	800,000	0,076	0,183
-718,021	800,000	-0,031	-0,068
-717,006	-130,384	-0,112	0,011
-715,991	800,000	-0,043	-0,112
-714,977	-65,161	-0,088	0,026
-713,962	730,636	-0,057	-0,111
-712,948	-200,000	-0,028	0,096
-711,933	-200,000	0,011	0,164
-710,918	246,753	0,084	-0,103
-709,904	-15,285	-0,051	-0,024
-708,889	-200,000	0,004	-0,063
-707,875	57,111	-0,044	-0,031
-706,860	-106,719	0,126	-0,020
-705,845	-79,454	-0,110	0,027
-704,831	-60,391	0,182	-0,056
-703,816	-200,000	0,012	-0,069
-702,802	-107,705	-0,034	-0,005
-701,787	451,725	-0,023	0,037
-700,772	-200,000	0,034	-0,115
-699,758	-108,982	0,044	-0,007
-698,743	-55,071	0,069	-0,022
-697,729	800,000	0,022	-0,071
-696,714	-4,032	-0,083	-0,042
-695,699	303,770	-0,036	-0,048
-694,685	800,000	-0,020	0,052
-693,670	-189,553	-0,125	0,001
-692,656	-53,939	0,108	-0,035
-691,641	325,452	0,055	-0,076
-690,627	-50,223	-0,050	-0,017
-689,612	97,861	-0,041	0,034
-688,597	0,353	0,072	-0,037
-687,583	-200,000	0,008	-0,041
-686,568	45,054	-0,146	-0,097
-685,554	-113,672	-0,085	-0,012
-684,539	255,988	0,059	-0,074
-683,524	-200,000	-0,016	-0,151
-682,510	25,260	0,131	-0,078
-681,495	-177,103	-0,254	-0,004
-680,481	-49,672	-0,061	-0,021
-679,466	800,000	-0,035	-0,107
-678,451	-54,704	-0,069	0,022
-677,437	133,337	0,027	-0,025
-676,422	24,193	-0,055	0,033
-675,408	-160,709	-0,045	-0,002
-674,393	-35,474	-0,060	0,023
-673,378	-200,000	-0,042	-0,160
-672,364	-92,629	-0,113	-0,023
-671,349	-200,000	0,013	0,093
-670,335	-55,561	0,029	-0,009
-669,320	348,428	-0,033	-0,047
-668,305	800,000	-0,036	0,098
-667,291	172,539	-0,033	-0,034
-666,276	-200,000	-0,017	0,076
-665,262	23,904	-0,050	0,030
-664,247	-15,857	-0,200	-0,092
-663,232	92,992	-0,124	0,101
-662,218	-12,871	0,123	0,057
-661,203	581,691	0,026	-0,047
-660,189	178,547	0,055	-0,058
-659,174	34,668	-0,156	0,098
-658,159	-0,956	-0,048	0,025
-657,145	-114,055	-0,065	0,009
-656,130	-200,000	0,007	-0,045
-655,116	401,085	0,078	0,118
-654,101	-200,000	0,022	0,131
-653,086	800,000	-0,047	-0,095
-652,072	-200,000	0,006	-0,110
-651,057	270,120	-0,128	-0,162
-650,043	-200,000	0,007	-0,139
-649,028	-32,779	-0,116	-0,046
-648,014	-44,231	-0,122	0,044
-646,999	26,849	-0,103	-0,062
-645,984	-200,000	0,004	0,083
-644,970	-141,302	-0,068	-0,005
-643,955	-200,000	-0,028	-0,104
-642,941	33,365	0,141	-0,088
-641,926	-200,000	-0,002	-0,024
-640,911	800,000	0,045	-0,094
-639,897	-43,113	0,004	0,002
-638,882	-200,000	0,028	0,099
-637,868	800,000	0,039	-0,106
-636,853	-200,000	0,003	-0,076
-635,838	664,127	-0,049	-0,092
-634,824	-28,416	0,185	0,077
-633,809	61,146	0,114	-0,082
-632,795	149,405	-0,047	0,046
-631,780	172,637	0,100	0,104
-630,765	542,238	-0,069	-0,119
-629,751	48,857	-0,133	0,090
-628,736	-4,261	-0,112	-0,056
-627,722	-196,971	-0,095	-0,000
-626,707	50,892	-0,078	-0,054
-625,692	-200,000	-0,021	0,066
-624,678	-200,000	0,032	0,128
-623,663	-106,371	-0,116	-0,019
-622,649	-200,000	-0,026	-0,190
-621,634	-200,000	-0,011	-0,102
-620,619	800,000	-0,069	-0,155
-619,605	5,546	0,029	-0,015
-618,590	-176,003	-0,084	0,002
-617,576	226,373	0,023	0,027
-616,561	-200,000	0,005	-0,075
-615,546	-156,364	-0,080	0,004
-614,532	-200,000	-0,054	-0,258
-613,517	-200,000	-0,022	0,144
-612,503	198,310	0,061	0,067
-611,488	800,000	0,030	0,063
-610,474	-200,000	0,000	-0,036
-609,459	-79,345	0,074	-0,018
-608,444	-200,000	0,004	-0,070
-607,430	152,634	0,077	0,076
-606,415	22,502	0,057	-0,034
-605,401	800,000	0,034	-0,072
-604,386	-90,901	-0,172	0,035
-603,371	305,156	-0,081	0,109
-602,357	-200,000	-0,014	0,173
-601,342	7,012	0,004	0,002
-600,328	-200,000	-0,025	-0,099
-599,313	-117,312	0,014	0,002
-598,298	-200,000	-0,007	-0,024
-597,284	-94,856	-0,068	0,013
-596,269	800,000	0,035	0,084
-595,255	-200,000	0,014	0,054
-594,240	-200,000	0,006	0,030
-593,225	-18,105	-0,005	-0,002
-592,211	598,146	-0,025	0,045
-591,196	187,619	-0,053	0,057
-590,182	800,000	0,039	-0,116
-589,167	-200,000	-0,016	0,114
-588,152	-121,554	-0,176	0,021
-587,138	238,885	-0,091	-0,109
-586,123	47,475	-0,080	0,054
-585,109	-46,372	-0,030	-0,011
-584,094	560,880	-0,003	-0,005
-583,079	-36,897	-0,125	-0,048
-582,065	-200,000	0,034	-0,128
-581,050	800,000	-0,030	0,079
-580,036	800,000	0,049	0,120
-579,021	-123,941	-0,071	0,008
-578,006	12,892	0,067	-0,037
-576,992	-200,000	0,011	-0,072
-575,977	800,000	-0,042	-0,128
-574,963	800,000	-0,005	0,012
-573,948	-200,000	0,011	-0,038
-572,934	124,605	-0,055	0,049
-571,919	-200,000	-0,002	0,033
-570,904	-106,527	-0,139	-0,022
-569,890	660,999	0,015	0,028
-568,875	-200,000	-0,033	-0,135
-567,861	-36,178	-0,117	-0,045
-566,846	-200,000	-0,023	-0,110
-565,831	-178,165	-0,056	-0,001
-564,817	800,000	-0,064	0,156
-563,802	51,462	-0,063	0,043
-562,788	244,355	-0,070	-0,085
-561,773	399,117	-0,019	0,029
-560,758	497,482	0,056	0,093
-559,744	568,340	-0,076	0,133
-558,729	425,210	0,069	-0,106
-557,715	5,169	-0,015	-0,008
-556,700	-200,000	0,010	-0,049
-555,685	81,919	0,071	-0,055
-554,671	-200,000	0,017	0,057
-553,656	-121,998	0,024	-0,003
-552,642	-200,000	0,006	-0,097
-551,627	800,000	0,060	-0,155
-550,612	59,201	-0,121	-0,086
-549,598	-7,994	0,108	-0,052
-548,583	-200,000	0,011	-0,098
-547,569	169,704	-0,008	0,009
-546,554	-200,000	-0,021	0,126
-545,539	66,151	0,065	0,047
-544,525	-64,012	-0,081	0,024
-543,510	-200,000	0,032	-0,157
-542,496	148,781	0,041	0,040
-541,481	-98,564	-0,082	-0,015
-540,466	-200,000	0,030	-0,153
-539,452	28,650	0,055	0,033
-538,437	-20,983	-0,032	0,014
-537,423	800,000	0,094	0,202
-536,408	-200,000	0,019	0,063
-535,393	315,893	0,070	-0,095
-534,379	-36,586	-0,120	-0,046
-533,364	-13,657	0,050	-0,023
-532,350	800,000	-0,033	0,068
-531,335	473,206	0,070	0,114
-530,321	-200,000	0,008	0,063
-529,306	800,000	-0,023	-0,055
-528,291	53,712	-0,084	0,058
-527,277	800,000	-0,030	-0,067
-526,262	40,246	0,126	-0,082
-525,248	800,000	-0,043	0,113
-524,233	291,151	0,032	-0,041
-523,218	221,479	0,060	-0,069
-522,204	-84,141	-0,118	-0,027
-521,189	-200,000	0,010	-0,143
-520,175	800,000	0,030	0,073
-519,160	279,276	0,062	-0,079
-518,145	41,090	0,070	-0,045
-517,131	50,748	-0,020	0,014
-516,116	744,031	0,042	0,082
-515,102	-105,302	0,124	0,020
-514,087	371,500	0,020	-0,030
-513,072	800,000	0,027	0,069
-512,058	-200,000	-0,020	-0,105
-511,043	45,366	-0,067	-0,044
-510,029	168,515	-0,061	-0,063
-509,014	-200,000	0,025	0,100
-507,999	-107,444	0,161	0,025
-506,985	-200,000	0,017	0,145
-505,970	14,322	0,113	-0,063
-504,956	-37,990	-0,064	0,024
-503,941	-181,135	0,209	0,003
-502,926	-142,596	-0,085	0,006
-501,912	800,000	0,015	-0,035
-500,897	800,000	-0,014	-0,032
-499,883	-200,000	-0,009	0,141
-498,868	800,000	-0,015	0,035
-497,853	-14,818	-0,106	0,048
-496,839	635,372	-0,004	-0,008
-495,824	186,566	0,026	-0,027
-494,810	-200,000	-0,003	0,047
-493,795	-71,015	0,198	0,053
-492,781	438,106	0,007	0,011
-491,766	800,000	0,011	0,028
-490,751	-23,851	0,093	0,040
-489,737	-200,000	0,011	-0,105
-488,722	141,677	0,106	-0,101
-487,708	-200,000	0,018	-0,081
-486,693	-200,000	0,003	0,111
-485,678	267,113	-0,099	-0,125
-484,664	800,000	-0,026	-0,056
-483,649	-195,288	0,208	-0,001
-482,635	1,256	0,100	0,051
-481,620	37,942	-0,107	0,068
-480,605	-100,268	0,138	0,024
-479,591	-200,000	0,037	0,121
-478,576	-200,000	0,015	-0,064
-477,562	-28,890	-0,032	0,013
-476,547	800,000	0,021	0,045
-475,532	-69,080	-0,048	-0,013
-474,518	-52,228	0,166	-0,055
-473,503	800,000	0,033	0,071
-472,489	39,452	-0,030	0,019
-471,474	-48,091	0,131	0,045
-470,459	-200,000	-0,037	-0,152
-469,445	510,339	-0,012	0,019
-468,430	-200,000	0,008	0,030
-467,416	-72,976	0,160	-0,042
-466,401	459,984	0,034	0,054
-465,386	800,000	0,005	0,014
-464,372	-200,000	-0,001	0,089
-463,357	515,672	-0,040	0,067
-462,343	-200,000	-0,024	-0,076
-461,328	388,004	-0,057	-0,085
-460,313	-95,482	-0,098	0,019
-459,299	-29,123	0,190	0,078
-458,284	800,000	-0,039	0,088
-457,270	-21,405	0,083	0,036
-456,255	19,121	-0,123	0,071
-455,241	206,297	0,079	-0,088
-454,226	60,463	-0,097	0,069
-453,211	560,721	0,019	-0,033
-452,197	21,112	-0,071	0,041
-451,182	-200,000	0,015	0,055
-450,168	-200,000	0,012	-0,046
-449,153	15,486	-0,100	-0,056
-448,138	800,000	0,022	0,049
-447,124	358,260	0,062	0,089
-446,109	108,748	-0,068	-0,058
-445,095	679,014	0,057	0,107
-444,080	49,526	-0,016	0,011
-443,065	-200,000	0,006	-0,063
-442,051	-8,777	0,100	-0,048
-441,036	-34,973	-0,029	-0,011
-440,022	618,027	0,064	-0,116
-439,007	-22,735	0,020	-0,009
-437,992	800,000	-0,040	0,080
-436,978	-4,667	-0,040	0,020
-435,963	-200,000	0,028	0,106
-434,949	-53,339	0,028	0,009
-433,934	172,529	-0,025	-0,026
-432,919	50,275	-0,046	0,031
-431,905	-145,107	0,078	-0,005
-430,890	-61,400	-0,112	0,034
-429,876	-107,900	0,172	0,027
-428,861	-200,000	0,014	0,091
-427,846	-165,595	-0,190	-0,006
-426,832	193,514	0,128	-0,138
-425,817	-2,663	-0,120	-0,060
-424,803	800,000	0,066	-0,174
-423,788	386,730	-0,062	0,092
-422,773	-200,000	0,016	-0,066
-421,759	800,000	-0,063	-0,147
-420,744	-80,497	-0,137	-0,033
-419,730	-175,690	-0,118	-0,002
-418,715	-200,000	-0,042	-0,160
-417,701	-200,000	-0,008	0,085
-416,686	-200,000	0,015	0,141
-415,671	61,713	-0,093	0,066
-414,657	-106,520	0,207	0,033
-413,642	81,219	-0,107	0,082
-412,628	-165,059	0,135	-0,004
-411,613	-200,000	-0,030	0,140
-410,598	-46,426	-0,058	-0,020
-409,584	592,430	0,014	0,025
-408,569	-46,229	0,029	0,010
-407,555	800,000	-0,071	0,171
-406,540	117,996	0,130	0,115
-405,525	38,049	-0,171	0,108
-404,511	759,581	-0,078	0,151
-403,496	-200,000	-0,013	0,067
-402,482	791,139	-0,043	0,086
-401,467	-60,057	0,059	0,018
-400,452	-200,000	-0,017	-0,104
-399,438	-200,000	-0,017	-0,125
-398,423	-69,471	-0,075	-0,020
-397,409	-200,000	0,030	-0,107
-396,394	-200,000	0,012	-0,081
-395,379	80,587	0,043	0,033
-394,365	-200,000	0,023	0,085
-393,350	-37,326	0,119	0,045
-392,336	-155,933	0,019	-0,001
-391,321	27,718	0,084	0,050
-390,306	800,000	-0,056	-0,136
-389,292	800,000	0,059	-0,139
-388,277	-200,000	0,014	0,161
-387,263	69,180	0,021	0,016
-386,248	35,776	-0,066	-0,041
-385,233	207,261	0,054	-0,060
-384,219	-53,012	-0,100	0,033
-383,204	-130,361	-0,133	-0,013
-382,190	-200,000	0,013	-0,109
-381,175	-70,098	0,025	-0,007
-380,160	77,804	-0,067	-0,051
-379,146	-70,509	0,143	-0,039
-378,131	572,320	0,056	-0,099
-377,117	93,363	0,035	-0,028
-376,102	-43,560	-0,096	-0,035
-375,088	-200,000	-0,004	-0,064
-374,073	-200,000	-0,006	-0,046
-373,058	372,850	0,036	0,053
-372,044	47,910	-0,006	0,004
-371,029	-200,000	-0,001	0,104
-370,015	-200,000	0,007	0,094
-369,000	-116,558	-0,091	-0,012
-367,985	83,874	0,021	-0,017
-366,971	800,000	-0,026	0,052
-365,956	-200,000	0,042	0,265
-364,942	-200,000	0,005	0,026
-363,927	-200,000	0,003	-0,032
-362,912	-173,384	-0,039	-0,001
-361,898	-37,021	0,130	-0,049
-360,883	-141,172	-0,232	0,017
-359,869	800,000	0,031	-0,064
-358,854	57,044	0,089	-0,062
-357,839	-200,000	0,072	0,000
-356,825	-84,312	-0,139	-0,031
-355,810	86,577	0,047	0,037
-354,796	-165,745	-0,084	-0,003
-353,781	307,828	-0,066	-0,088
-352,766	-124,744	0,109	-0,012
-351,752	90,030	0,014	0,011
-350,737	41,375	-0,044	0,028
-349,723	133,464	0,120	0,111
-348,708	-200,000	0,015	0,118
-347,693	303,988	-0,053	0,070
-346,679	-200,000	-0,002	-0,063
-345,664	-89,630	0,071	0,015
-344,650	-94,783	-0,164	-0,031
-343,635	432,716	0,032	-0,050
-342,620	-200,000	-0,018	0,125
-341,606	125,972	0,019	-0,017
-340,591	-39,059	0,144	-0,054
-339,577	800,000	-0,063	-0,137
-338,562	-200,000	-0,023	-0,087
-337,548	-139,900	0,092	0,007
-336,533	-57,034	-0,060	-0,019
-335,518	-45,629	-0,087	-0,030
-334,504	-200,000	-0,030	0,103
-333,489	69,919	-0,095	0,070
-332,475	25,074	-0,088	0,052
-331,460	456,143	-0,069	-0,110
-330,445	17,769	0,052	-0,029
-329,431	-36,722	0,070	0,027
-328,416	-99,848	0,228	0,040
-327,402	-15,562	-0,065	-0,030
-326,387	-29,513	0,033	0,013
-325,372	-1,182	-0,038	-0,019
-324,358	-200,000	0,018	-0,158
-323,343	21,508	0,061	-0,035
-322,329	115,368	0,066	0,058
-321,314	-200,000	-0,006	0,025
-320,299	105,666	-0,044	0,037
-319,285	-2,495	-0,100	-0,050
-318,270	28,209	0,048	0,029
-317,256	-176,364	-0,131	0,002
-316,241	412,474	0,062	-0,093
-315,226	-75,237	0,121	0,031
-314,212	-137,837	0,209	0,016
-313,197	83,709	-0,041	0,032
-312,183	-159,506	0,090	0,004
-311,168	-48,274	-0,136	-0,046
-310,153	800,000	-0,043	-0,086
-309,139	35,654	0,044	-0,028
-308,124	5,277	-0,079	0,042
-307,110	161,955	-0,041	0,041
-306,095	800,000	0,020	0,063
-305,080	-32,392	0,105	-0,041
-304,066	800,000	0,045	-0,090
-303,051	-200,000	0,011	-0,101
-302,037	666,619	-0,023	-0,043
-301,022	-32,717	0,064	-0,025
-300,008	162,461	0,062	-0,062
-298,993	-200,000	0,039	0,179
-297,978	-200,000	-0,009	-0,066
-296,964	-16,927	-0,066	-0,030
-295,949	72,860	-0,092	-0,068
-294,935	-200,000	0,003	0,056
-293,920	-111,878	-0,109	0,015
-292,905	-200,000	-0,006	0,052
-291,891	-32,841	0,082	-0,032
-290,876	-104,630	0,071	-0,012
-289,862	40,041	0,143	0,091
-288,847	-86,181	-0,087	0,019
-287,832	533,813	0,081	0,138
-286,818	-60,807	-0,170	0,051
-285,803	9,795	0,052	0,028
-284,789	800,000	0,070	0,152
-283,774	800,000	0,057	0,139
-282,759	13,174	-0,092	-0,051
-281,745	254,089	0,103	-0,126
-280,730	364,372	-0,065	-0,093
-279,716	-50,642	0,120	-0,040
-278,701	-2,330	0,090	0,045
-277,686	292,992	0,062	-0,081
-276,672	-200,000	-0,005	0,056
-275,657	-200,000	0,007	0,106
-274,643	-200,000	0,006	-0,020
-273,628	11,876	0,039	-0,021
-272,613	150,141	0,068	0,065
-271,599	122,253	0,013	-0,011
-270,584	-200,000	0,005	0,079
-269,570	-51,331	0,103	-0,034
-268,555	-200,000	0,025	-0,108
-267,540	-27,520	-0,157	-0,065
-266,526	800,000	0,065	-0,181
-265,511	112,736	-0,123	-0,106
-264,497	1,626	0,055	0,028
-263,482	389,683	-0,037	0,055
-262,467	-88,483	0,168	0,035
-261,453	-200,000	0,001	0,087
-260,438	-200,000	-0,005	-0,108
-259,424	175,167	-0,099	-0,102
-258,409	-10,037	-0,112	-0,053
-257,395	-67,663	0,179	0,050
-256,380	214,424	-0,107	0,121
-255,365	370,593	0,075	0,108
-254,351	-8,122	-0,053	-0,025
-253,336	-62,292	-0,102	-0,030
-252,322	35,749	-0,063	0,039
-251,307	800,000	0,041	0,114
-250,292	246,688	-0,067	-0,081
-249,278	800,000	-0,008	-0,019
-248,263	-169,804	0,112	0,003
-247,249	-200,000	0,024	-0,096
-246,234	439,162	0,090	-0,140
-245,219	-200,000	-0,007	-0,134
-244,205	20,214	-0,056	-0,032
-243,190	40,816	0,053	-0,034
-242,176	165,144	0,088	-0,088
-241,161	-200,000	-0,000	0,066
-240,146	800,000	-0,100	0,225
-239,132	415,343	0,078	0,118
-238,117	-200,000	0,003	-0,012
-237,103	-54,526	-0,115	-0,037
-236,088	231,735	-0,015	0,017
-235,073	-179,347	0,187	-0,003
-234,059	550,496	-0,071	0,122
-233,044	-93,186	0,166	0,032
-232,030	339,544	-0,020	0,028
-231,015	-133,417	0,123	-0,011
-230,000	-200,000	0,019	-0,087
-228,986	-200,000	-0,003	-0,126
-227,971	200,541	0,088	-0,096
-226,957	20,792	-0,068	0,039
-225,942	-28,030	-0,012	0,005
-224,927	-136,165	-0,052	0,004
-223,913	-200,000	-0,007	-0,074
-222,898	-67,485	-0,099	-0,027
-221,884	385,414	0,061	-0,090
-220,869	192,963	0,032	-0,034
-219,855	164,368	0,039	0,039
-218,840	31,275	0,103	0,063
-217,825	-77,663	-0,046	-0,011
-216,811	657,850	-0,017	-0,031
-215,796	92,653	0,077	-0,062
-214,782	-33,910	-0,053	0,021
-213,767	19,764	0,044	0,025
-212,752	-200,000	0,004	-0,136
-211,738	73,931	0,040	0,030
-210,723	-165,445	0,165	0,005
-209,709	800,000	-0,035	0,095
-208,694	-25,976	-0,109	0,045
-207,679	14,468	-0,061	-0,034
-206,665	492,568	0,026	-0,043
-205,650	-200,000	-0,019	0,186
-204,636	800,000	0,036	0,075
-203,621	26,894	-0,188	-0,111
-202,606	-17,645	-0,123	-0,055
-201,592	56,213	-0,037	0,025
-200,577	-30,019	-0,121	0,049
-199,563	278,064	-0,062	-0,079
-198,548	-7,167	0,025	-0,012
-197,533	44,868	0,070	-0,045
-196,519	800,000	0,026	0,062
-195,504	436,392	-0,017	-0,026
-194,490	800,000	-0,042	-0,093
-193,475	-200,000	-0,016	-0,104
-192,460	485,191	0,023	-0,037
-191,446	-22,235	0,060	0,026
-190,431	-200,000	-0,012	0,107
-189,417	368,985	-0,077	0,111
-188,402	320,491	-0,151	-0,203
-187,387	-101,921	-0,015	-0,003
-186,373	69,572	-0,082	-0,060
-185,358	20,091	0,065	0,037
-184,344	13,130	0,126	0,069
-183,329	-138,825	-0,091	0,007
-182,315	-127,087	0,097	0,010
-181,300	-39,014	-0,076	-0,028
-180,285	-162,434	-0,083	0,003
-179,271	-107,078	0,057	-0,009
-178,256	380,797	-0,060	0,087
-177,242	-200,000	-0,005	-0,056
-176,227	-200,000	0,009	-0,050
-175,212	58,173	0,129	0,089
-174,198	-200,000	0,007	0,046
-173,183	164,241	0,073	0,073
-172,169	658,509	-0,048	0,088
-171,154	-57,791	0,089	0,027
-170,139	352,064	-0,037	-0,052
-169,125	26,632	0,048	0,028
-168,110	730,462	0,076	0,145
-167,096	409,624	-0,023	0,034
-166,081	712,876	-0,039	0,073
-165,066	800,000	-0,053	-0,127
-164,052	-200,000	0,013	0,075
-163,037	231,597	-0,125	-0,145
-162,023	425,677	-0,069	-0,106
-161,008	-82,449	0,008	0,002
-159,993	800,000	0,071	0,151
-158,979	69,221	-0,018	0,013
-157,964	-140,496	-0,060	0,004
-156,950	-200,000	0,051	0,159
-155,935	-200,000	-0,046	0,149
-154,920	115,820	0,156	0,135
-153,906	8,626	-0,126	0,067
-152,891	5,471	-0,091	0,047
-151,877	69,893	-0,037	-0,027
-150,862	-200,000	0,068	0,000
-149,847	-128,814	-0,039	0,004
-148,833	-20,604	-0,054	-0,023
-147,818	428,399	-0,042	-0,064
-146,804	-136,261	0,076	-0,006
-145,789	-51,667	-0,038	-0,013
-144,775	-200,000	0,023	-0,121
-143,760	102,682	0,072	-0,060
-142,745	351,954	-0,054	-0,076
-141,731	-67,021	-0,017	0,005
-140,716	410,314	0,007	-0,010
-139,702	-24,486	0,084	0,035
-138,687	800,000	0,016	0,033
-137,672	-41,447	-0,022	0,008
-136,658	800,000	-0,093	0,222
-135,643	174,767	0,060	-0,061
-134,629	-55,161	0,094	-0,030
-133,614	99,627	0,140	-0,114
-132,599	712,061	-0,037	-0,069
-131,585	197,993	-0,049	0,053
-130,570	800,000	-0,024	0,073
-129,556	-200,000	0,007	0,064
-128,541	306,252	0,067	-0,089
-127,526	177,555	-0,083	-0,085
-126,512	-200,000	0,015	0,111
-125,497	-200,000	0,024	-0,092
-124,483	-46,938	0,064	0,022
-123,468	-65,105	-0,125	-0,035
-122,453	129,307	0,126	-0,113
-121,439	-200,000	0,001	0,092
-120,424	-200,000	0,026	-0,105
-119,410	-59,646	0,068	-0,020
-118,395	363,036	-0,050	0,072
-117,380	800,000	-0,028	-0,064
-116,366	-200,000	-0,003	0,074
-115,351	-200,000	-0,014	-0,050
-114,337	800,000	0,019	0,043
-113,322	-170,179	0,086	-0,002
-112,307	337,573	-0,038	-0,052
-111,293	89,970	-0,084	0,067
-110,278	144,178	0,118	0,111
-109,264	-107,527	-0,167	0,026
-108,249	494,754	-0,020	0,032
-107,234	800,000	0,057	-0,135
-106,220	-18,618	-0,073	-0,032
-105,205	732,162	-0,070	0,132
-104,191	118,395	0,072	0,063
-103,176	800,000	-0,010	-0,024
-102,162	76,346	0,121	0,090
-101,147	-200,000	-0,006	-0,150
-100,132	-37,500	-0,054	0,020
-99,118	700,274	-0,044	-0,082
-98,103	-38,533	-0,073	-0,027
-97,089	-200,000	0,001	0,154
-96,074	800,000	0,045	0,126
-95,059	-58,718	-0,121	-0,037
-94,045	-47,935	-0,024	-0,008
-93,030	800,000	0,053	-0,140
-92,016	538,119	-0,065	0,110
-91,001	-200,000	0,028	0,155
-89,986	-49,710	-0,028	-0,010
-88,972	320,130	-0,062	-0,083
-87,957	-200,000	-0,010	0,047
-86,943	117,705	0,080	-0,069
-85,928	-122,525	-0,092	-0,010
-84,913	192,336	-0,141	0,150
-83,899	90,844	-0,025	-0,019
-82,884	-183,562	0,122	0,001
-81,870	-200,000	0,038	0,149
-80,855	200,203	-0,090	0,097
-79,840	-158,065	-0,074	-0,003
-78,826	-200,000	-0,033	0,105
-77,811	-5,517	0,055	0,026
-76,797	-200,000	-0,016	0,062
-75,782	-200,000	-0,037	0,252
-74,767	79,704	0,014	-0,011
-73,753	-200,000	0,024	0,107
-72,738	-200,000	0,005	0,016
-71,724	13,393	-0,051	-0,028
-70,709	563,900	-0,179	-0,306
-69,694	-41,992	-0,069	-0,025
-68,680	-112,562	0,138	-0,019
-67,665	-91,205	-0,020	0,004
-66,651	-124,493	-0,167	-0,018
-65,636	288,646	0,059	0,076
-64,622	-69,613	-0,184	0,049
-63,607	800,000	-0,014	-0,036
-62,592	-200,000	-0,023	0,084
-61,578	800,000	0,041	0,127
-60,563	800,000	0,046	0,093
-59,549	532,137	0,042	0,071
-58,534	79,992	-2,093	-1,586
-57,519	599,251	-1,061	-1,865
-56,505	-200,000	-0,383	-4,482
-55,490	800,000	0,905	1,810
-54,476	800,000	5,192	11,330
-53,461	-200,000	22,523	347,133
-52,446	800,000	757,587	2293,629
-51,432	533,138	1644,074	2756,304
-50,417	67,910	1642,457	1183,342
-49,403	15,673	1519,881	840,319
-48,388	9,817	1445,988	771,344
-47,373	19,276	1438,630	812,451
-46,359	13,364	1427,117	778,022
-45,344	8,187	1423,059	751,303
-44,330	8,153	1421,208	750,134
-43,315	8,083	1419,353	748,796
-42,300	8,124	1417,634	748,050
-41,286	8,118	1416,397	747,343
-40,271	8,105	1415,059	746,546
-39,257	8,090	1413,810	745,786
-38,242	8,133	1412,698	745,371
-37,227	8,088	1411,785	744,647
-36,213	8,140	1410,242	744,050
-35,198	8,119	1409,142	743,340
-34,184	8,092	1408,390	742,790
-33,169	8,029	1406,928	741,692
-32,154	8,078	1406,084	741,449
-31,140	8,041	1404,880	740,609
-30,125	8,097	1403,586	740,158
-29,111	8,091	1402,421	739,487
-28,096	8,065	1401,323	738,761
-27,082	8,031	1400,002	737,876
-26,067	8,005	1398,954	737,173
-25,052	8,048	1397,821	736,746
-24,038	8,077	1396,910	736,370
-23,023	8,019	1396,120	735,655
-22,009	8,016	1394,915	734,980
-20,994	8,000	1394,041	734,412
-19,979	8,003	1393,065	733,884
-18,965	7,941	1392,427	733,232
-17,950	7,978	1391,099	732,673
-16,936	7,935	1390,365	732,062
-15,921	7,925	1389,212	731,376
-14,906	7,931	1388,453	730,978
-13,892	8,001	1387,193	730,610
-12,877	7,973	1386,555	730,115
-11,863	7,927	1386,067	729,617
-10,848	7,952	1384,863	729,067
-9,833	7,898	1383,917	728,293
-8,819	7,862	1383,224	727,731
-7,804	7,847	1382,216	727,106
-6,790	7,885	1381,031	726,626
-5,775	7,829	1380,249	725,929
-4,760	7,843	1379,208	725,417
-3,746	7,847	1378,475	725,024
-2,731	7,900	1377,400	724,672
-1,717	7,892	1376,355	724,057
-0,702	7,856	1374,757	723,023
0,313	11,776	1285,217	693,699
1,327	27,431	676,988	400,283
2,342	42,387	116,266	74,368
3,356	0,652	16,437	8,260
4,371	-0,107	3,955	1,977
5,386	-2,263	1,364	0,672
6,400	800,000	0,319	0,650
7,415	475,103	-0,156	-0,249
8,429	205,954	-0,187	-0,205
9,444	8,747	-0,374	-0,198
10,459	279,183	-0,220	-0,277
11,473	3,536	-0,321	-0,164
12,488	34,443	-0,268	-0,165
13,502	126,653	-0,293	-0,261
14,517	129,926	-0,308	-0,277
15,531	127,759	-0,364	-0,325
16,546	147,425	-0,341	-0,323
17,561	127,870	-0,299	-0,268
18,575	164,498	-0,157	-0,156
19,590	315,500	-0,134	-0,178
20,604	-85,339	-0,225	0,049
21,619	208,709	-0,381	-0,420
22,634	93,684	-0,456	-0,363
23,648	138,548	-0,347	-0,321
24,663	215,292	-0,304	-0,340
25,677	87,634	-0,330	-0,257
26,692	234,942	-0,311	-0,362
27,707	65,047	-0,329	-0,233
28,721	222,285	-0,254	-0,288
29,736	86,680	-0,444	-0,344
30,750	31,809	-0,491	-0,297
31,765	287,185	-0,364	-0,464
32,780	54,847	-0,345	-0,234
33,794	49,685	-0,280	-0,185
34,809	28,640	-0,317	-0,188
35,823	268,567	-0,188	-0,232
36,838	113,000	-0,342	-0,291
37,853	75,936	-0,365	-0,271
38,867	-106,549	-0,306	-0,047
39,882	29,214	-0,449	-0,267
40,896	-8,998	-0,301	-0,141
41,911	84,229	-0,248	-0,190
42,926	276,031	-0,322	-0,403
43,940	-2,467	-0,375	-0,184
44,955	104,138	-0,362	-0,299
45,969	-38,551	-0,413	-0,153
46,984	139,593	-0,318	-0,294
47,999	-70,692	-0,359	-0,095
49,013	0,450	-0,453	-0,226
50,028	15,969	-0,308	-0,170
51,042	67,214	-0,346	-0,247
52,057	72,198	-0,333	-0,243
53,071	45,289	-0,313	-0,202
54,086	272,850	-0,223	-0,277
55,101	7,813	-0,342	-0,179
56,115	-65,287	-0,338	-0,095
57,130	11,235	-0,335	-0,180
58,144	108,243	-0,396	-0,331
59,159	69,516	-0,393	-0,284
60,174	55,012	-0,425	-0,287
61,188	53,498	-0,338	-0,227
62,203	149,108	-0,357	-0,339
63,217	23,875	-0,267	-0,154
64,232	-48,308	-0,380	-0,128
65,247	131,978	-0,253	-0,229
66,261	107,345	-0,337	-0,281
67,276	94,935	-0,395	-0,315
68,290	35,883	-0,318	-0,195
69,305	139,958	-0,172	-0,159
70,320	-88,857	-0,374	-0,077
71,334	69,830	-0,357	-0,258
72,349	-45,461	-0,303	-0,105
73,363	134,176	-0,237	-0,215
74,378	173,342	-0,361	-0,365
75,393	84,087	-0,208	-0,159
76,407	30,415	-0,298	-0,178
77,422	10,657	-0,436	-0,232
78,436	104,979	-0,297	-0,245
79,451	21,302	-0,361	-0,205
80,466	10,419	-0,271	-0,144
81,480	58,293	-0,318	-0,218
82,495	97,649	-0,316	-0,254
83,509	58,662	-0,319	-0,219
84,524	183,750	-0,199	-0,206
85,539	10,100	-0,356	-0,189
86,553	23,252	-0,293	-0,168
87,568	17,554	-0,312	-0,173
88,582	47,225	-0,396	-0,258
89,597	-9,552	-0,250	-0,116
90,611	154,189	-0,307	-0,295
91,626	-82,212	-0,221	-0,050
92,641	565,818	-0,093	-0,158
93,655	286,755	-0,252	-0,318
94,670	36,868	-0,247	-0,152
95,684	225,642	-0,216	-0,245
96,699	392,079	-0,220	-0,321
97,714	-48,653	-0,338	-0,113
98,728	163,468	-0,238	-0,234
99,743	38,581	-0,240	-0,149
100,757	-155,092	-0,324	-0,015
101,772	-40,937	-0,367	-0,132
102,787	270,321	-0,221	-0,272
103,801	121,436	-0,291	-0,254
104,816	183,704	-0,211	-0,218
105,830	-85,157	-0,124	0,027
106,845	-90,150	-0,262	0,053
107,860	-21,767	-0,284	-0,120
108,874	28,389	-0,361	-0,213
109,889	186,820	-0,178	-0,185
110,903	234,213	-0,239	-0,275
111,918	157,474	-0,162	-0,157
112,933	-26,382	-0,275	-0,112
113,947	86,174	-0,329	-0,252
114,962	244,046	-0,109	-0,128
115,976	18,403	-0,316	-0,176
116,991	-52,070	-0,202	-0,065
118,006	-20,292	-0,334	-0,143
119,020	-95,472	-0,276	-0,051
120,035	-92,028	-0,276	-0,054
121,049	-143,669	-0,242	0,016
122,064	-37,887	-0,149	-0,055
123,079	-139,203	-0,252	-0,019
124,093	403,295	-0,152	-0,224
125,108	162,581	-0,293	-0,287
126,122	25,816	-0,230	-0,133
127,137	-49,188	-0,121	-0,040
128,151	94,828	-0,211	-0,167
129,166	-8,783	-0,216	-0,101
130,181	-29,789	-0,394	-0,156
131,195	-77,839	-0,131	-0,031
132,210	2,094	-0,330	-0,166
133,224	48,453	-0,231	-0,150
134,239	126,042	-0,167	-0,147
135,254	-29,208	-0,216	-0,086
136,268	93,740	-0,263	-0,207
137,283	24,400	-0,291	-0,167
138,297	-66,402	-0,178	-0,049
139,312	314,818	-0,215	-0,283
140,327	626,918	-0,199	-0,351
141,341	338,530	-0,142	-0,193
142,356	30,030	-0,311	-0,184
143,370	273,112	-0,126	-0,156
144,385	-8,476	-0,265	-0,124
145,400	-2,903	-0,220	-0,107
146,414	159,797	-0,204	-0,197
147,429	112,162	-0,242	-0,204
148,443	20,942	-0,271	-0,153
149,458	-66,934	-0,281	-0,077
150,473	35,202	-0,196	-0,119
151,487	-59,957	-0,337	-0,099
152,502	147,146	-0,169	-0,159
153,516	211,022	-0,233	-0,255
154,531	201,770	-0,233	-0,250
155,546	-35,877	-0,243	-0,091
156,560	-34,058	-0,215	-0,082
157,575	67,768	-0,315	-0,224
158,589	99,320	-0,209	-0,168
159,604	22,476	-0,147	-0,083
160,619	272,289	-0,254	-0,313
161,633	85,735	-0,213	-0,163
162,648	203,930	-0,276	-0,297
163,662	153,642	-0,200	-0,190
164,677	98,883	-0,170	-0,137
165,692	24,765	-0,309	-0,178
166,706	160,902	-0,206	-0,200
167,721	-68,887	-0,265	-0,071
168,735	105,998	-0,161	-0,133
169,750	311,097	-0,105	-0,137
170,764	800,000	-0,118	-0,237
171,779	212,222	-0,174	-0,191
172,794	197,129	-0,179	-0,190
173,808	78,483	-0,242	-0,180
174,823	106,931	-0,203	-0,167
175,837	5,097	-0,257	-0,131
176,852	-81,329	-0,222	-0,050
177,867	175,232	-0,221	-0,222
178,881	-159,888	-0,271	-0,010
179,896	8,307	-0,231	-0,120
180,910	69,224	-0,235	-0,167
181,925	-36,778	-0,142	-0,052
182,940	341,219	-0,185	-0,251
183,954	246,241	-0,205	-0,240
184,969	28,995	-0,212	-0,124
185,983	48,128	-0,161	-0,104
186,998	-17,831	-0,209	-0,091
188,013	-67,485	-0,168	-0,045
189,027	393,322	-0,166	-0,240
190,042	275,611	-0,199	-0,245
191,056	99,089	-0,276	-0,221
192,071	65,853	-0,174	-0,122
193,086	-80,828	-0,143	-0,033
194,100	86,108	-0,242	-0,185
195,115	13,678	-0,244	-0,131
196,129	-152,302	-0,362	-0,018
197,144	-0,087	-0,114	-0,056
198,159	176,247	-0,122	-0,123
199,173	128,466	-0,131	-0,115
200,188	191,570	-0,165	-0,172
201,202	-34,638	-0,202	-0,076
202,217	-71,157	-0,235	-0,061
203,232	-69,398	-0,306	-0,081
204,246	743,418	-0,148	-0,277
205,261	408,218	-0,081	-0,119
206,275	-40,664	-0,145	-0,052
207,290	143,307	-0,175	-0,161
208,304	196,969	-0,190	-0,201
209,319	271,392	-0,173	-0,212
210,334	-11,613	-0,226	-0,102
211,348	411,862	-0,184	-0,272
212,363	504,456	-0,130	-0,209
213,377	220,623	-0,158	-0,175
214,392	91,131	-0,058	-0,045
215,407	96,667	-0,093	-0,073
216,421	800,000	-0,141	-0,281
217,436	190,964	-0,150	-0,156
218,450	301,930	-0,155	-0,198
219,465	189,450	-0,210	-0,218
220,480	59,416	-0,190	-0,129
221,494	-40,531	-0,143	-0,051
222,509	1,052	-0,071	-0,035
223,523	-96,932	-0,304	-0,055
224,538	-43,641	-0,253	-0,088
225,553	585,405	-0,069	-0,118
226,567	124,395	-0,196	-0,170
227,582	94,382	-0,186	-0,146
228,596	268,540	-0,091	-0,111
229,611	31,401	-0,157	-0,093
230,626	14,758	-0,095	0,051
231,640	-79,339	-0,166	-0,039
232,655	388,743	-0,211	-0,303
233,669	-38,561	-0,317	-0,115
234,684	215,690	-0,173	-0,190
235,699	-131,040	-0,238	0,022
236,713	800,000	-0,046	-0,122
237,728	800,000	-0,106	-0,210
238,742	186,571	-0,177	-0,183
239,757	367,873	-0,184	-0,257
240,772	800,000	-0,130	-0,272
241,786	54,018	-0,112	-0,074
242,801	20,537	-0,126	-0,070
243,815	8,945	-0,257	-0,134
244,830	-200,000	-0,007	-0,216
245,844	-41,503	-0,208	-0,073
246,859	-81,864	-0,184	-0,041
247,874	-44,569	-0,217	-0,074
248,888	400,760	-0,049	-0,070
249,903	86,387	-0,194	-0,148
250,917	-129,623	-0,192	-0,018
251,932	-72,515	-0,218	-0,055
252,947	36,481	-0,206	-0,125
253,961	37,808	-0,155	-0,095
254,976	38,975	-0,182	-0,112
255,990	141,050	-0,160	-0,146
257,005	460,532	-0,094	-0,145
258,020	225,692	-0,197	-0,220
259,034	126,898	-0,149	-0,130
260,049	16,432	-0,177	-0,096
261,063	800,000	-0,071	-0,152
262,078	-40,732	-0,252	-0,089
263,093	800,000	-0,079	-0,231
264,107	18,570	-0,211	-0,116
265,122	370,568	-0,084	-0,118
266,136	350,367	-0,105	-0,143
267,151	-162,355	-0,148	-0,005
268,166	274,475	-0,128	-0,156
269,180	412,652	-0,155	-0,227
270,195	-2,785	-0,218	-0,105
271,209	246,335	-0,182	-0,212
272,224	146,440	-0,152	-0,141
273,239	-200,000	-0,034	-0,124
274,253	-96,173	-0,139	-0,025
275,268	117,672	-0,148	-0,126
276,282	-64,207	-0,238	-0,066
277,297	-19,008	-0,209	-0,089
278,312	800,000	-0,107	-0,236
279,326	287,877	-0,108	-0,134
280,341	214,727	-0,140	-0,153
281,355	173,136	-0,061	0,060
282,370	20,138	-0,072	0,040
283,384	137,810	-0,184	-0,166
284,399	800,000	-0,071	-0,195
285,414	-71,863	-0,252	-0,064
286,428	-28,086	-0,178	-0,071
287,443	-200,000	-0,001	-0,071
288,457	-72,607	-0,217	0,055
289,472	229,457	-0,110	-0,124
290,487	36,027	-0,261	-0,157
291,501	196,824	-0,148	-0,156
292,516	71,676	-0,272	-0,194
293,530	-182,093	-0,068	0,001
294,545	800,000	-0,070	-0,147
295,560	20,570	-0,155	-0,086
296,574	106,166	-0,194	-0,157
297,589	-62,317	-0,110	-0,031
298,603	-102,157	-0,178	-0,029
299,618	800,000	-0,117	-0,237
300,633	186,403	-0,116	-0,119
301,647	-200,000	-0,000	-0,112
302,662	-200,000	-0,017	-0,114
303,676	105,223	-0,033	-0,027
304,691	-144,918	-0,202	-0,012
305,706	13,082	-0,090	0,048
306,720	800,000	-0,108	-0,252
307,735	156,926	-0,148	-0,141
308,749	405,038	-0,069	-0,101
309,764	318,970	-0,077	-0,101
310,779	-74,963	-0,122	-0,030
311,793	126,181	-0,050	-0,043
312,808	-73,545	-0,123	-0,031
313,822	128,780	-0,158	-0,138
314,837	-3,175	-0,158	-0,075
315,852	577,343	-0,111	-0,186
316,866	-54,212	-0,103	-0,032
317,881	121,890	-0,151	-0,129
318,895	800,000	-0,107	-0,218
319,910	14,553	-0,199	-0,106
320,925	-49,687	-0,218	-0,071
321,939	721,396	-0,076	-0,139
322,954	258,320	-0,104	-0,123
323,968	111,259	-0,138	-0,114
324,983	800,000	0,039	-0,105
325,997	-65,140	-0,099	-0,027
327,012	58,284	-0,265	-0,178
328,027	800,000	-0,101	-0,206
329,041	-200,000	-0,002	-0,125
330,056	362,160	-0,118	-0,163
331,070	30,149	-0,172	-0,100
332,085	93,269	-0,110	-0,085
333,100	-200,000	-0,108	0,000
334,114	38,952	-0,116	-0,071
335,129	134,236	-0,172	-0,152
336,143	-95,396	-0,199	-0,036
337,158	87,319	-0,119	-0,090
338,173	-94,952	-0,108	0,020
339,187	79,426	-0,138	-0,101
340,202	-200,000	-0,013	-0,175
341,216	300,810	-0,098	-0,124
342,231	188,778	-0,096	-0,098
343,246	81,850	-0,128	-0,095
344,260	43,196	-0,139	-0,087
345,275	716,519	-0,053	-0,096
346,289	356,029	-0,087	-0,119
347,304	256,505	-0,113	-0,132
348,319	95,294	-0,204	-0,159
349,333	96,462	-0,141	-0,110
350,348	-17,382	-0,147	-0,063
351,362	-93,466	-0,099	0,019
352,377	-200,000	-0,044	-0,184
353,392	-105,206	-0,098	0,015
354,406	117,896	-0,179	-0,151
355,421	208,204	1311,338	1402,307
356,435	160,194	1471,602	1402,753
