DTS Sentinel unit serial number:	SN410029Multiplexer serial number:	ORYXHardware model number:	OX2-SRSoftware version number:	ORYX F/W v4,00 Oryx Data Collector v3.7.2.0data status	okinstallation	B3 Nyhavnadifferential loss correction	single-endedforward channel	channel 1reverse channel	N/Adate	2023/12/01time	19:17:30forward acquisition time	300,00reverse acquisition time	0,00gamma	499,1914k internal	0,3199k external	0,3199temperature offset calibration	1,0000default loss term (dB/km)	0,3820temperature slope calibration	1,0000multiplexer offset coefficient	1,0000multiplexer slope coefficient	1,0000fibre end	0,00T internal ref (°C)	15,35T ext. ref 1 (°C)	1,24T ext. ref 2 (°C)	1,24length (m)	temperature (°C)	Stokes	anti-Stokes-744,400	640,589	-0,110	-0,206
-743,385	800,000	0,088	0,274
-742,371	800,000	-0,139	-0,295
-741,356	-200,000	-0,027	0,255
-740,342	-19,719	-0,307	-0,137
-739,327	-200,000	0,033	0,448
-738,312	800,000	-0,104	-0,254
-737,298	-200,000	-0,071	0,261
-736,283	618,224	-0,168	-0,309
-735,269	-200,000	0,004	0,346
-734,254	426,694	-0,229	-0,361
-733,239	103,940	-0,029	0,025
-732,225	-200,000	-0,044	-0,206
-731,210	169,956	0,138	0,144
-730,196	185,279	-0,075	-0,081
-729,181	116,421	-0,085	-0,076
-728,167	190,429	0,055	0,060
-727,152	578,202	-0,024	-0,043
-726,137	-200,000	0,010	-0,039
-725,123	60,133	0,071	0,051
-724,108	252,410	-0,066	-0,082
-723,094	94,693	-0,092	-0,076
-722,079	57,535	0,040	-0,028
-721,064	-200,000	-0,019	0,127
-720,050	586,153	-0,036	-0,065
-719,035	-88,224	0,035	0,007
-718,021	64,431	0,080	-0,059
-717,006	-200,000	-0,005	0,031
-715,991	530,184	0,040	-0,068
-714,977	-136,655	-0,163	-0,013
-713,962	405,999	-0,048	-0,074
-712,948	-200,000	0,001	0,057
-711,933	-129,382	-0,037	0,004
-710,918	141,884	0,071	0,068
-709,904	-200,000	-0,003	-0,105
-708,889	-90,394	0,006	0,001
-707,875	-200,000	-0,009	-0,057
-706,860	800,000	0,027	0,081
-705,845	-60,249	-0,161	0,050
-704,831	800,000	0,006	0,018
-703,816	-158,204	0,158	-0,007
-702,802	138,657	-0,106	0,101
-701,787	51,938	-0,121	-0,083
-700,772	800,000	-0,034	-0,100
-699,758	-200,000	0,002	0,022
-698,743	6,414	0,090	-0,049
-697,729	-94,810	-0,082	-0,016
-696,714	-51,378	0,092	-0,031
-695,699	-200,000	-0,032	-0,106
-694,685	108,410	-0,023	-0,020
-693,670	-19,508	0,047	-0,021
-692,656	270,503	-0,101	-0,129
-691,641	-10,363	0,057	0,027
-690,627	537,414	0,045	-0,078
-689,612	-147,865	0,087	-0,005
-688,597	11,136	0,099	0,055
-687,583	-74,502	-0,162	-0,042
-686,568	658,864	0,054	-0,102
-685,554	-200,000	0,003	-0,178
-684,539	-7,690	0,099	0,049
-683,524	-200,000	-0,005	-0,092
-682,510	-200,000	0,017	-0,063
-681,495	-200,000	-0,012	0,084
-680,481	800,000	0,038	0,094
-679,466	58,444	0,037	-0,027
-678,451	215,815	0,022	-0,026
-677,437	800,000	0,032	-0,097
-676,422	-39,969	0,013	-0,005
-675,408	-200,000	-0,009	0,046
-674,393	-200,000	-0,021	-0,087
-673,378	185,974	-0,018	-0,019
-672,364	-36,043	-0,160	-0,062
-671,349	121,384	-0,036	-0,032
-670,335	5,666	0,169	0,090
-669,320	-200,000	-0,025	0,144
-668,305	116,615	-0,118	-0,105
-667,291	440,568	-0,089	-0,141
-666,276	-57,532	-0,108	0,034
-665,262	93,439	-0,029	0,024
-664,247	800,000	-0,037	-0,119
-663,232	-86,445	0,134	-0,030
-662,218	-200,000	0,006	-0,042
-661,203	10,923	-0,092	0,051
-660,189	-200,000	-0,012	0,058
-659,174	39,239	-0,136	-0,088
-658,159	129,440	-0,059	-0,055
-657,145	800,000	0,006	-0,017
-656,130	-99,295	0,112	0,020
-655,116	800,000	-0,009	0,019
-654,101	800,000	-0,036	0,086
-653,086	800,000	0,019	-0,038
-652,072	467,767	0,048	0,078
-651,057	-155,084	-0,037	0,002
-650,043	-24,488	-0,089	-0,038
-649,028	-45,689	0,062	-0,022
-648,014	184,567	0,077	-0,083
-646,999	127,475	-0,084	0,078
-645,984	-85,818	-0,131	-0,029
-644,970	-15,656	-0,138	-0,063
-643,955	-126,877	-0,047	0,005
-642,941	436,824	-0,086	-0,136
-641,926	87,062	-0,039	-0,031
-640,911	334,831	0,042	-0,059
-639,897	-200,000	0,040	0,128
-638,882	673,012	-0,032	0,060
-637,868	-44,576	-0,171	-0,062
-636,853	-200,000	-0,009	-0,146
-635,838	-200,000	0,011	-0,203
-634,824	-83,060	0,115	0,027
-633,809	-200,000	-0,020	-0,111
-632,795	-112,577	0,027	0,004
-631,780	-138,057	-0,159	0,013
-630,765	339,186	0,077	-0,109
-629,751	-1,986	0,011	0,006
-628,736	293,034	-0,008	0,011
-627,722	194,058	0,036	-0,039
-626,707	-200,000	-0,018	0,073
-625,692	800,000	-0,040	0,112
-624,678	-200,000	-0,025	0,096
-623,663	-200,000	0,014	0,062
-622,649	-200,000	0,051	-0,172
-621,634	710,600	-0,022	-0,042
-620,619	53,857	-0,045	0,031
-619,605	181,692	0,081	0,087
-618,590	800,000	0,045	0,091
-617,576	185,229	-0,072	0,077
-616,561	237,188	-0,041	0,049
-615,546	359,165	-0,055	-0,080
-614,532	800,000	0,061	-0,185
-613,517	24,568	0,053	0,032
-612,503	15,189	0,057	0,032
-611,488	800,000	0,038	0,080
-610,474	-200,000	0,009	0,048
-609,459	36,060	-0,102	0,065
-608,444	126,127	0,018	0,017
-607,430	238,172	-0,037	0,045
-606,415	-200,000	0,009	-0,068
-605,401	412,540	-0,025	0,038
-604,386	470,218	-0,041	-0,068
-603,371	-24,590	-0,123	-0,053
-602,357	-200,000	0,008	-0,069
-601,342	131,550	-0,074	-0,068
-600,328	-168,989	-0,032	0,001
-599,313	-200,000	-0,031	-0,125
-598,298	36,181	-0,084	0,053
-597,284	-12,778	-0,065	0,030
-596,269	-200,000	-0,006	0,032
-595,255	-200,000	-0,020	0,076
-594,240	-133,158	-0,104	0,009
-593,225	-37,586	-0,060	-0,023
-592,211	-35,285	0,105	-0,041
-591,196	55,069	-0,075	0,052
-590,182	-193,738	0,257	-0,002
-589,167	-200,000	0,016	0,101
-588,152	258,599	-0,026	-0,032
-587,138	-200,000	0,007	-0,034
-586,123	-164,859	0,102	-0,003
-585,109	-200,000	-0,013	-0,061
-584,094	-75,356	-0,126	0,032
-583,079	-20,582	0,113	0,050
-582,065	667,422	-0,035	0,066
-581,050	-117,123	0,154	0,020
-580,036	759,460	-0,034	0,067
-579,021	651,122	-0,029	-0,053
-578,006	-200,000	-0,042	-0,224
-576,992	800,000	-0,021	0,043
-575,977	721,309	0,026	0,050
-574,963	-45,972	0,112	-0,040
-573,948	19,446	-0,077	-0,045
-572,934	-200,000	-0,000	0,054
-571,919	416,863	0,035	-0,054
-570,904	622,156	0,045	-0,081
-569,890	-200,000	0,019	0,069
-568,875	79,072	0,095	0,073
-567,861	732,710	-0,099	0,193
-566,846	800,000	0,006	0,013
-565,831	-200,000	-0,000	0,075
-564,817	225,997	-0,060	0,070
-563,802	7,352	0,088	-0,047
-562,788	-107,647	-0,215	0,034
-561,773	-200,000	-0,007	-0,043
-560,758	177,349	0,017	0,018
-559,744	270,338	0,064	0,082
-558,729	144,090	-0,080	0,077
-557,715	-3,030	0,112	-0,056
-556,700	-200,000	0,002	0,090
-555,685	-200,000	-0,005	-0,030
-554,671	368,201	0,056	-0,081
-553,656	-200,000	0,013	0,113
-552,642	-124,919	-0,076	-0,008
-551,627	-124,284	-0,070	-0,008
-550,612	-41,931	-0,078	0,029
-549,598	-53,702	0,062	0,020
-548,583	58,045	-0,104	-0,073
-547,569	-116,825	-0,025	0,003
-546,554	-32,935	0,102	-0,041
-545,539	800,000	0,044	-0,110
-544,525	226,609	-0,067	-0,078
-543,510	-200,000	-0,021	-0,070
-542,496	93,784	-0,045	-0,036
-541,481	-200,000	-0,035	-0,275
-540,466	61,615	0,014	-0,010
-539,452	-200,000	-0,004	-0,126
-538,437	-200,000	-0,008	-0,047
-537,423	-200,000	0,003	0,017
-536,408	800,000	0,057	-0,148
-535,393	-200,000	0,013	-0,094
-534,379	-46,011	-0,177	-0,063
-533,364	74,570	0,128	-0,097
-532,350	-17,514	0,121	-0,055
-531,335	-16,904	0,130	0,059
-530,321	535,220	0,066	0,114
-529,306	800,000	-0,044	-0,110
-528,291	614,017	0,086	-0,156
-527,277	499,734	0,077	-0,128
-526,262	-138,483	-0,117	-0,009
-525,248	-96,485	0,050	0,009
-524,233	90,998	0,125	0,101
-523,218	800,000	-0,081	0,188
-522,204	-200,000	0,012	-0,086
-521,189	800,000	-0,022	-0,048
-520,175	-124,274	-0,145	-0,016
-519,160	-200,000	0,011	0,055
-518,145	163,648	-0,061	-0,062
-517,131	200,834	0,064	-0,071
-516,116	800,000	0,064	0,152
-515,102	800,000	-0,059	0,143
-514,087	235,184	-0,021	-0,025
-513,072	39,214	-0,097	0,063
-512,058	800,000	0,033	-0,094
-511,043	535,295	-0,041	0,070
-510,029	689,922	0,059	0,112
-509,014	800,000	0,044	0,131
-507,999	800,000	0,063	0,147
-506,985	-118,267	-0,128	0,016
-505,970	-200,000	-0,013	-0,172
-504,956	-200,000	-0,020	0,085
-503,941	800,000	0,032	-0,090
-502,926	299,901	-0,076	0,102
-501,912	-200,000	0,007	-0,070
-500,897	-138,363	-0,055	-0,004
-499,883	-3,103	-0,177	0,089
-498,868	-73,641	-0,057	0,015
-497,853	-27,251	-0,042	0,017
-496,839	-48,997	0,027	-0,009
-495,824	-64,645	-0,067	0,019
-494,810	29,251	-0,073	-0,045
-493,795	306,228	-0,044	-0,059
-492,781	-200,000	-0,009	0,059
-491,766	-65,850	0,054	0,015
-490,751	-197,164	0,045	0,000
-489,737	-98,329	-0,082	-0,015
-488,722	157,734	0,075	-0,075
-487,708	668,599	0,082	-0,154
-486,693	-73,483	0,062	0,016
-485,678	130,860	-0,046	-0,043
-484,664	-106,556	-0,112	-0,018
-483,649	-90,687	0,085	0,018
-482,635	600,446	-0,062	0,112
-481,620	-151,454	0,090	-0,005
-480,605	800,000	0,057	0,139
-479,591	-200,000	-0,000	-0,046
-478,576	0,684	-0,077	-0,039
-477,562	371,453	-0,035	0,051
-476,547	-200,000	0,007	-0,053
-475,532	-49,791	0,036	0,012
-474,518	800,000	0,035	-0,087
-473,503	-63,943	0,094	-0,028
-472,489	-88,231	0,044	0,009
-471,474	-137,609	0,023	-0,002
-470,459	-200,000	-0,014	0,093
-469,445	-124,788	-0,025	-0,003
-468,430	800,000	-0,056	0,143
-467,416	649,423	0,093	0,172
-466,401	36,800	-0,013	-0,008
-465,386	-22,115	0,128	0,056
-464,372	-81,605	-0,102	-0,024
-463,357	56,019	0,157	0,109
-462,343	-102,268	-0,044	-0,007
-461,328	-38,815	0,121	-0,046
-460,313	324,909	-0,077	0,106
-459,299	-86,075	-0,067	0,015
-458,284	-39,472	0,108	0,040
-457,270	14,792	-0,134	-0,075
-456,255	-105,667	-0,074	-0,012
-455,241	-200,000	0,013	-0,106
-454,226	-8,535	-0,069	-0,033
-453,211	800,000	-0,085	0,170
-452,197	135,324	-0,042	-0,039
-451,182	689,722	0,031	0,058
-450,168	800,000	0,019	0,046
-449,153	-200,000	-0,004	0,064
-448,138	221,105	-0,080	0,092
-447,124	-121,935	0,058	-0,007
-446,109	3,146	0,029	0,015
-445,095	-200,000	0,010	-0,134
-444,080	27,327	0,066	0,040
-443,065	147,837	0,122	0,118
-442,051	466,744	0,026	0,042
-441,036	-70,242	-0,082	0,022
-440,022	45,345	-0,149	0,099
-439,007	694,077	0,040	-0,077
-437,992	-90,508	0,018	0,004
-436,978	556,292	0,047	0,081
-435,963	179,054	0,111	0,116
-434,949	-138,663	-0,090	0,007
-433,934	-82,153	-0,030	0,007
-432,919	-73,385	-0,045	-0,012
-431,905	800,000	0,033	-0,069
-430,890	-64,257	-0,045	-0,013
-429,876	8,595	0,008	-0,005
-428,861	800,000	-0,010	-0,022
-427,846	-200,000	0,017	-0,114
-426,832	-200,000	-0,030	-0,102
-425,817	-131,403	0,143	0,013
-424,803	-200,000	0,001	0,035
-423,788	-75,847	0,034	-0,009
-422,773	57,846	0,114	-0,080
-421,759	487,149	-0,090	0,147
-420,744	-200,000	-0,003	0,031
-419,730	156,340	0,110	-0,109
-418,715	800,000	-0,041	-0,105
-417,701	348,018	0,047	-0,067
-416,686	41,623	-0,102	-0,066
-415,671	-150,580	0,100	-0,005
-414,657	280,932	0,052	0,067
-413,642	-103,905	-0,126	-0,021
-412,628	800,000	0,020	0,056
-411,613	352,487	-0,055	-0,079
-410,598	210,038	0,065	-0,074
-409,584	-2,385	0,110	0,055
-408,569	-74,791	-0,040	-0,010
-407,555	14,977	-0,034	-0,019
-406,540	-200,000	0,029	0,109
-405,525	-1,715	0,049	0,025
-404,511	-26,651	-0,039	-0,016
-403,496	100,845	0,021	-0,018
-402,482	-200,000	0,005	0,022
-401,467	41,665	0,086	0,056
-400,452	-78,690	-0,149	0,036
-399,438	800,000	0,018	-0,050
-398,423	587,864	0,009	0,015
-397,409	-200,000	0,032	-0,160
-396,394	-110,883	-0,088	0,013
-395,379	14,606	-0,070	0,039
-394,365	759,089	-0,027	0,053
-393,350	800,000	-0,011	0,031
-392,336	-200,000	-0,001	0,103
-391,321	-200,000	-0,010	0,044
-390,306	-200,000	0,010	-0,105
-389,292	-77,472	-0,174	0,043
-388,277	-125,990	0,150	-0,016
-387,263	-48,599	-0,021	0,007
-386,248	332,328	-0,025	0,034
-385,233	800,000	0,024	0,055
-384,219	-89,890	-0,150	-0,031
-383,204	326,636	0,031	-0,042
-382,190	149,260	-0,062	-0,060
-381,175	-200,000	0,024	-0,088
-380,160	324,656	0,068	0,093
-379,146	267,413	0,024	0,030
-378,131	280,857	0,098	0,126
-377,117	-200,000	-0,028	0,142
-376,102	-68,455	-0,035	-0,010
-375,088	-69,659	-0,071	-0,019
-374,073	-14,337	-0,158	-0,073
-373,058	-105,290	0,100	0,016
-372,044	-200,000	-0,001	0,133
-371,029	90,789	-0,040	-0,032
-370,015	-200,000	0,000	0,039
-369,000	-47,513	-0,139	0,048
-367,985	-200,000	-0,006	0,161
-366,971	137,323	-0,068	-0,064
-365,956	173,047	-0,050	-0,051
-364,942	-200,000	0,007	-0,052
-363,927	368,433	0,074	0,108
-362,912	-200,000	-0,005	0,176
-361,898	654,856	0,067	-0,124
-360,883	121,206	0,064	-0,057
-359,869	-200,000	0,007	0,028
-358,854	-92,310	0,122	0,024
-357,839	50,500	0,091	0,062
-356,825	800,000	-0,050	0,105
-355,810	-200,000	0,041	-0,166
-354,796	183,357	-0,004	-0,004
-353,781	-68,797	-0,111	-0,031
-352,766	26,733	0,054	0,032
-351,752	-200,000	0,024	-0,080
-350,737	-92,247	0,098	-0,020
-349,723	-41,759	0,100	0,036
-348,708	109,528	0,100	0,086
-347,693	-200,000	0,002	-0,102
-346,679	248,525	-0,099	-0,120
-345,664	800,000	0,041	0,116
-344,650	-23,297	-0,095	0,041
-343,635	-200,000	0,007	-0,033
-342,620	715,983	0,026	-0,050
-341,606	66,519	-0,093	0,068
-340,591	-50,270	0,014	-0,005
-339,577	45,270	-0,020	0,013
-338,562	800,000	0,027	-0,067
-337,548	-200,000	-0,035	-0,135
-336,533	-200,000	-0,032	-0,166
-335,518	25,811	0,044	-0,026
-334,504	-200,000	-0,001	0,074
-333,489	-48,358	-0,124	0,043
-332,475	481,679	0,063	-0,103
-331,460	544,460	-0,095	-0,163
-330,445	-200,000	-0,001	-0,283
-329,431	800,000	-0,013	0,039
-328,416	715,527	-0,021	0,040
-327,402	259,949	0,025	0,031
-326,387	-200,000	0,021	-0,132
-325,372	-26,434	0,055	-0,023
-324,358	800,000	0,023	-0,066
-323,343	243,741	-0,039	0,047
-322,329	154,339	-0,007	0,007
-321,314	-200,000	-0,011	-0,088
-320,299	63,597	-0,011	-0,008
-319,285	-200,000	0,009	-0,154
-318,270	272,759	-0,058	-0,074
-317,256	-200,000	0,019	0,124
-316,241	320,411	0,102	-0,139
-315,226	-96,342	0,046	-0,009
-314,212	800,000	-0,027	-0,079
-313,197	419,114	0,086	-0,132
-312,183	-200,000	0,015	-0,082
-311,168	115,957	-0,036	-0,031
-310,153	263,488	0,094	-0,117
-309,139	-200,000	-0,014	0,069
-308,124	800,000	0,031	0,094
-307,110	-200,000	-0,011	0,071
-306,095	96,253	0,094	0,077
-305,080	473,481	0,034	0,056
-304,066	327,933	-0,038	0,053
-303,051	-200,000	-0,001	-0,057
-302,037	-200,000	-0,002	0,029
-301,022	676,806	-0,100	0,186
-300,008	-3,472	0,031	0,016
-298,993	-85,081	-0,036	0,008
-297,978	-200,000	-0,001	0,038
-296,964	-200,000	-0,041	0,159
-295,949	47,780	-0,033	0,022
-294,935	338,084	-0,117	-0,163
-293,920	800,000	-0,060	-0,122
-292,905	131,513	0,065	-0,059
-291,891	-96,950	0,125	0,023
-290,876	-200,000	0,018	0,079
-289,862	45,653	0,004	-0,002
-288,847	-200,000	-0,008	0,109
-287,832	-200,000	-0,018	-0,168
-286,818	96,104	0,062	0,050
-285,803	800,000	0,034	-0,071
-284,789	-140,167	-0,049	-0,004
-283,774	-200,000	0,005	-0,136
-282,759	168,669	0,068	0,069
-281,745	201,664	-0,067	-0,073
-280,730	484,278	0,013	0,021
-279,716	130,313	-0,021	0,019
-278,701	-43,252	0,125	0,045
-277,686	-200,000	0,002	0,203
-276,672	-52,046	-0,030	-0,010
-275,657	142,959	0,098	0,094
-274,643	28,026	0,126	-0,076
-273,628	800,000	-0,036	0,100
-272,613	-200,000	-0,001	-0,052
-271,599	-113,018	0,168	0,023
-270,584	-200,000	0,019	0,131
-269,570	-200,000	0,013	-0,126
-268,555	59,345	-0,049	-0,035
-267,540	-200,000	-0,015	-0,097
-266,526	781,502	0,031	-0,062
-265,511	-61,373	-0,018	-0,005
-264,497	-45,742	-0,108	-0,038
-263,482	800,000	0,035	-0,073
-262,467	311,764	0,067	0,089
-261,453	-154,625	-0,070	-0,003
-260,438	800,000	-0,037	-0,106
-259,424	800,000	-0,055	0,150
-258,409	722,384	-0,031	-0,060
-257,395	-200,000	-0,081	-0,000
-256,380	456,149	0,075	0,120
-255,365	-191,170	0,013	0,000
-254,351	-10,057	-0,094	-0,044
-253,336	79,852	0,125	-0,096
-252,322	-65,842	-0,156	-0,044
-251,307	-200,000	0,002	0,063
-250,292	128,025	0,110	0,100
-249,278	-200,000	0,013	0,052
-248,263	34,632	0,039	-0,024
-247,249	-120,875	-0,160	-0,019
-246,234	-132,091	-0,084	0,008
-245,219	334,824	0,070	-0,097
-244,205	800,000	0,044	-0,122
-243,190	277,227	-0,079	0,100
-242,176	-33,650	-0,062	-0,024
-241,161	800,000	0,025	-0,071
-240,146	170,902	0,056	0,058
-239,132	-200,000	0,007	0,036
-238,117	-200,000	0,041	-0,136
-237,103	-183,007	-0,086	0,001
-236,088	-200,000	-0,014	-0,047
-235,073	262,396	0,081	0,100
-234,059	-91,217	0,046	-0,009
-233,044	-133,407	-0,038	-0,003
-232,030	-200,000	-0,009	-0,098
-231,015	528,993	0,037	-0,062
-230,000	-200,000	0,021	-0,080
-228,986	-200,000	-0,009	0,134
-227,971	589,814	-0,042	0,075
-226,957	-200,000	-0,010	0,042
-225,942	-200,000	0,003	-0,013
-224,927	-23,214	0,084	-0,036
-223,913	-29,659	-0,077	-0,031
-222,898	158,457	-0,031	-0,030
-221,884	-19,485	-0,083	-0,037
-220,869	16,276	-0,168	-0,094
-219,855	-123,307	0,169	0,019
-218,840	800,000	-0,033	0,091
-217,825	-72,194	0,082	0,022
-216,811	307,644	-0,043	0,057
-215,796	619,569	-0,030	0,055
-214,782	-174,131	-0,052	0,001
-213,767	-54,878	-0,068	-0,022
-212,752	-200,000	0,028	0,155
-211,738	307,852	0,048	-0,064
-210,723	-17,440	0,002	0,001
-209,709	-200,000	-0,007	0,095
-208,694	46,439	0,062	-0,041
-207,679	800,000	0,035	-0,093
-206,665	186,510	0,091	-0,096
-205,650	-200,000	-0,029	0,133
-204,636	358,357	-0,098	0,139
-203,621	398,560	0,034	0,052
-202,606	800,000	0,040	0,102
-201,592	45,880	-0,102	0,067
-200,577	-200,000	-0,007	0,090
-199,563	92,010	0,060	0,048
-198,548	800,000	0,047	0,113
-197,533	174,845	-0,099	0,102
-196,519	-1,193	-0,077	-0,038
-195,504	-200,000	0,011	0,045
-194,490	800,000	-0,027	0,078
-193,475	-27,027	0,038	0,016
-192,460	198,817	-0,026	-0,029
-191,446	-18,839	0,161	0,071
-190,431	-200,000	0,012	0,155
-189,417	164,400	0,030	0,030
-188,402	85,837	-0,103	0,081
-187,387	-158,942	-0,061	0,002
-186,373	-200,000	0,027	-0,088
-185,358	-200,000	0,039	-0,146
-184,344	138,981	-0,047	-0,044
-183,329	140,935	0,058	-0,054
-182,315	-98,547	0,081	0,015
-181,300	-200,000	-0,002	-0,031
-180,285	19,144	0,150	-0,085
-179,271	467,148	-0,013	0,021
-178,256	-85,743	-0,071	0,016
-177,242	363,796	0,082	0,118
-176,227	2,122	0,174	-0,089
-175,212	-200,000	-0,008	-0,035
-174,198	-138,201	0,112	0,009
-173,183	-87,008	0,133	-0,029
-172,169	-200,000	-0,023	-0,237
-171,154	-200,000	0,046	-0,158
-170,139	-200,000	0,000	0,087
-169,125	-200,000	0,010	0,042
-168,110	800,000	-0,059	0,154
-167,096	800,000	0,044	0,131
-166,081	-121,453	-0,128	-0,015
-165,066	-200,000	-0,009	0,087
-164,052	-200,000	0,003	0,019
-163,037	-19,006	0,128	-0,056
-162,023	669,721	-0,040	0,074
-161,008	-7,134	0,120	-0,058
-159,993	800,000	0,007	0,018
-158,979	-58,344	0,036	0,011
-157,964	21,484	-0,068	-0,039
-156,950	107,440	0,052	-0,044
-155,935	89,593	-0,102	0,081
-154,920	-42,389	0,057	0,021
-153,906	800,000	0,035	0,082
-152,891	30,628	0,039	-0,023
-151,877	46,876	-0,049	-0,032
-150,862	350,114	-0,105	-0,149
-149,847	-146,969	-0,233	0,014
-148,833	800,000	-0,013	0,040
-147,818	800,000	-0,028	0,056
-146,804	309,086	-0,063	0,084
-145,789	-114,504	-0,072	0,010
-144,775	-200,000	0,004	-0,082
-143,760	70,891	-0,069	-0,051
-142,745	95,938	-0,135	-0,109
-141,731	725,050	-0,073	-0,139
-140,716	-67,283	-0,182	-0,051
-139,702	21,154	0,205	0,118
-138,687	43,693	-0,070	0,045
-137,672	800,000	-0,040	-0,092
-136,658	234,948	0,063	0,074
-135,643	800,000	-0,033	-0,079
-134,629	-200,000	-0,001	0,004
-133,614	-134,930	0,144	0,012
-132,599	239,693	0,065	0,077
-131,585	-75,028	-0,050	0,013
-130,570	-100,537	-0,135	0,023
-129,556	127,952	-0,077	-0,070
-128,541	-200,000	0,008	-0,049
-127,526	-200,000	-0,010	-0,075
-126,512	198,665	0,007	-0,008
-125,497	-39,112	0,131	0,049
-124,483	-63,074	-0,075	0,022
-123,468	9,764	0,098	0,053
-122,453	-166,115	-0,198	0,006
-121,439	-18,535	-0,096	-0,043
-120,424	201,785	-0,094	0,103
-119,410	87,542	0,066	0,052
-118,395	-38,410	-0,085	-0,032
-117,380	-200,000	0,115	-0,000
-116,366	29,638	-0,065	-0,039
-115,351	58,463	-0,030	-0,021
-114,337	-200,000	-0,020	-0,064
-113,322	62,306	0,093	0,066
-112,307	-37,120	0,100	0,038
-111,293	140,277	0,056	-0,053
-110,278	800,000	-0,037	-0,086
-109,264	-91,723	0,098	0,020
-108,249	-200,000	0,007	0,039
-107,234	67,471	-0,097	0,070
-106,220	0,755	0,062	-0,031
-105,205	115,162	0,087	0,076
-104,191	307,410	-0,044	-0,058
-103,176	562,461	0,043	0,074
-102,162	-200,000	0,006	0,076
-101,147	50,336	-0,110	0,074
-100,132	-200,000	-0,018	-0,074
-99,118	14,423	-0,131	-0,072
-98,103	181,812	-0,027	0,028
-97,089	436,358	-0,041	0,064
-96,074	-200,000	0,023	0,108
-95,059	2,689	0,219	0,112
-94,045	31,566	-0,124	-0,075
-93,030	-200,000	0,006	0,031
-92,016	-65,368	-0,066	0,019
-91,001	-142,622	-0,093	-0,006
-89,986	-200,000	-0,011	0,124
-88,972	321,152	0,117	0,158
-87,957	57,223	0,150	0,104
-86,943	800,000	0,018	-0,039
-85,928	-99,540	-0,172	0,030
-84,913	506,758	-0,091	0,150
-83,899	-9,269	-0,057	0,027
-82,884	176,479	0,047	0,049
-81,870	-186,764	0,048	0,000
-80,855	-200,000	-0,041	0,144
-79,840	-200,000	0,011	-0,051
-78,826	-145,932	-0,061	-0,004
-77,811	35,597	0,021	-0,013
-76,797	69,624	0,025	-0,018
-75,782	426,777	0,063	0,097
-74,767	13,654	0,131	-0,072
-73,753	-174,510	-0,020	-0,000
-72,738	-200,000	0,008	-0,051
-71,724	68,415	-0,102	0,074
-70,709	6,655	-0,111	-0,058
-69,694	-62,296	-0,145	-0,043
-68,680	102,778	-0,039	-0,032
-67,665	-128,711	-0,009	0,001
-66,651	-70,490	0,079	0,021
-65,636	-200,000	-0,004	0,082
-64,622	800,000	-0,014	-0,036
-63,607	-200,000	0,000	-0,055
-62,592	-56,266	-0,072	-0,023
-61,578	231,761	0,071	-0,083
-60,563	-102,415	0,130	0,022
-59,549	19,987	0,083	0,047
-58,534	-32,269	-1,414	-0,557
-57,519	401,681	-1,537	-2,295
-56,505	-200,000	-0,451	-4,579
-55,490	81,825	1,028	0,788
-54,476	800,000	4,789	11,253
-53,461	-200,000	18,134	287,086
-52,446	800,000	723,481	2230,696
-51,432	560,184	1637,674	2813,096
-50,417	80,127	1660,612	1263,837
-49,403	23,294	1534,490	890,676
-48,388	17,180	1458,027	816,779
-47,373	17,994	1447,800	814,922
-46,359	17,478	1438,433	807,159
-45,344	15,457	1433,640	794,817
-44,330	15,413	1431,920	793,624
-43,315	15,431	1430,018	792,624
-42,300	15,395	1428,315	791,477
-41,286	15,507	1427,169	791,341
-40,271	15,449	1425,783	790,269
-39,257	15,412	1424,829	789,533
-38,242	15,458	1423,369	788,910
-37,227	15,495	1422,019	788,306
-36,213	15,497	1420,836	787,627
-35,198	15,473	1419,667	786,833
-34,184	15,526	1418,759	786,551
-33,169	15,403	1417,587	785,292
-32,154	15,474	1416,628	785,061
-31,140	15,449	1415,154	784,097
-30,125	15,455	1414,144	783,534
-29,111	15,446	1412,876	782,759
-28,096	15,426	1411,854	782,065
-27,082	15,381	1410,726	781,201
-26,067	15,413	1409,477	780,628
-25,052	15,388	1408,515	779,945
-24,038	15,385	1407,503	779,340
-23,023	15,332	1406,604	778,563
-22,009	15,367	1405,403	778,030
-20,994	15,308	1404,714	777,344
-19,979	15,331	1403,685	776,852
-18,965	15,298	1402,707	776,127
-17,950	15,312	1401,791	775,653
-16,936	15,293	1400,923	775,054
-15,921	15,326	1399,430	774,352
-14,906	15,310	1398,757	773,874
-13,892	15,289	1397,908	773,275
-12,877	15,331	1396,826	772,839
-11,863	15,280	1395,973	772,101
-10,848	15,309	1394,865	771,595
-9,833	15,260	1394,077	770,899
-8,819	15,229	1393,243	770,263
-7,804	15,184	1392,376	769,549
-6,790	15,168	1391,227	768,807
-5,775	15,144	1390,337	768,173
-4,760	15,204	1389,385	767,894
-3,746	15,190	1388,646	767,390
-2,731	15,157	1387,949	766,822
-1,717	15,177	1386,822	766,263
-0,702	15,233	1384,878	765,416
0,313	19,060	1305,230	739,050
1,327	35,624	706,301	438,266
2,342	54,688	124,945	85,164
3,356	4,770	16,501	8,555
4,371	-0,124	3,128	1,570
5,386	39,888	0,517	0,328
6,400	-85,709	-0,033	0,007
7,415	128,884	-0,145	-0,131
8,429	-10,557	-0,331	-0,155
9,444	120,764	-0,257	-0,226
10,459	112,549	-0,237	-0,203
11,473	-24,133	-0,309	-0,130
12,488	-18,793	-0,264	-0,116
13,502	154,267	-0,241	-0,234
14,517	105,444	-0,376	-0,314
15,531	-73,211	-0,489	-0,126
16,546	106,587	-0,414	-0,347
17,561	78,731	-0,348	-0,263
18,575	64,956	-0,233	-0,166
19,590	16,375	-0,328	-0,182
20,604	-35,390	-0,312	-0,119
21,619	106,785	-0,447	-0,375
22,634	78,548	-0,386	-0,291
23,648	46,761	-0,465	-0,305
24,663	-2,646	-0,400	-0,197
25,677	40,964	-0,494	-0,314
26,692	74,260	-0,353	-0,262
27,707	37,759	-0,361	-0,226
28,721	382,099	-0,197	-0,286
29,736	37,559	-0,410	-0,256
30,750	192,826	-0,398	-0,424
31,765	132,638	-0,333	-0,303
32,780	221,268	-0,244	-0,277
33,794	77,430	-0,403	-0,303
34,809	-33,614	-0,373	-0,145
35,823	196,781	-0,252	-0,272
36,838	163,884	-0,311	-0,309
37,853	225,244	-0,401	-0,458
38,867	29,789	-0,483	-0,290
39,882	123,093	-0,392	-0,347
40,896	386,381	-0,159	-0,232
41,911	-49,047	-0,381	-0,128
42,926	27,231	-0,439	-0,260
43,940	123,370	-0,289	-0,256
44,955	133,891	-0,422	-0,385
45,969	10,717	-0,289	-0,155
46,984	82,858	-0,390	-0,299
47,999	-69,874	-0,297	-0,079
49,013	93,075	-0,332	-0,264
50,028	186,629	-0,306	-0,322
51,042	118,731	-0,310	-0,270
52,057	45,291	-0,376	-0,244
53,071	85,627	-0,358	-0,277
54,086	-0,812	-0,395	-0,197
55,101	34,997	-0,244	-0,150
56,115	-108,713	-0,222	-0,033
57,130	78,884	-0,324	-0,244
58,144	111,510	-0,357	-0,304
59,159	250,091	-0,322	-0,386
60,174	0,571	-0,466	-0,234
61,188	115,109	-0,418	-0,359
62,203	230,843	-0,246	-0,284
63,217	-55,551	-0,363	-0,114
64,232	12,024	-0,285	-0,154
65,247	10,643	-0,332	-0,178
66,261	-22,210	-0,403	-0,171
67,276	-3,715	-0,465	-0,227
68,290	59,604	-0,255	-0,177
69,305	143,289	-0,316	-0,296
70,320	-15,337	-0,204	-0,091
71,334	30,115	-0,347	-0,208
72,349	-63,342	-0,288	-0,083
73,363	57,120	-0,375	-0,257
74,378	75,671	-0,280	-0,208
75,393	10,220	-0,349	-0,186
76,407	33,148	-0,250	-0,152
77,422	-104,223	-0,363	-0,059
78,436	77,035	-0,307	-0,229
79,451	35,375	-0,307	-0,189
80,466	42,452	-0,381	-0,243
81,480	-144,085	-0,330	-0,021
82,495	35,728	-0,327	-0,202
83,509	71,935	-0,220	-0,161
84,524	57,866	-0,284	-0,195
85,539	8,637	-0,287	-0,151
86,553	-175,103	-0,302	0,006
87,568	-77,991	-0,336	-0,081
88,582	129,974	-0,267	-0,240
89,597	683,955	-0,153	-0,282
90,611	9,662	-0,118	-0,063
91,626	25,211	-0,250	-0,145
92,641	92,157	-0,250	-0,197
93,655	800,000	-0,124	-0,298
94,670	-82,289	-0,275	-0,062
95,684	499,655	-0,226	-0,367
96,699	358,514	-0,141	-0,198
97,714	130,984	-0,237	-0,214
98,728	361,474	-0,206	-0,290
99,743	8,770	-0,229	-0,121
100,757	360,890	-0,171	-0,240
101,772	20,252	-0,341	-0,193
102,787	26,150	-0,319	-0,187
103,801	-38,867	-0,341	-0,126
104,816	70,523	-0,310	-0,225
105,830	164,524	-0,308	-0,305
106,845	23,000	-0,238	-0,137
107,860	-77,708	-0,218	-0,052
108,874	434,376	-0,171	-0,261
109,889	207,989	-0,248	-0,272
110,903	54,589	-0,294	-0,198
111,918	-8,974	-0,254	-0,119
112,933	101,414	-0,211	-0,172
113,947	-200,000	-0,054	-0,271
114,962	-77,368	-0,343	-0,083
115,976	116,688	-0,238	-0,205
116,991	265,769	-0,218	-0,267
118,006	95,620	-0,203	-0,162
119,020	800,000	-0,121	-0,270
120,035	217,374	-0,140	-0,156
121,049	-10,392	-0,178	-0,082
122,064	-119,889	-0,260	-0,031
123,079	800,000	-0,079	-0,208
124,093	55,666	-0,283	-0,191
125,108	24,644	-0,243	-0,141
126,122	165,077	-0,229	-0,226
127,137	41,635	-0,245	-0,155
128,151	45,369	-0,158	-0,102
129,166	-180,965	-0,199	0,003
130,181	-36,025	-0,177	-0,067
131,195	68,032	-0,308	-0,220
132,210	195,790	-0,230	-0,245
133,224	403,836	-0,126	-0,186
134,239	103,357	-0,203	-0,166
135,254	-21,323	-0,324	-0,138
136,268	312,577	-0,201	-0,265
137,283	368,637	-0,223	-0,316
138,297	-55,723	-0,304	-0,094
139,312	279,343	-0,184	-0,230
140,327	-1,927	-0,242	-0,119
141,341	-8,821	-0,213	-0,100
142,356	8,341	-0,219	-0,115
143,370	-53,266	-0,156	-0,050
144,385	52,931	-0,372	-0,249
145,400	106,022	-0,332	-0,274
146,414	53,796	-0,284	-0,190
147,429	8,588	-0,274	-0,144
148,443	112,437	-0,176	-0,149
149,458	159,406	-0,202	-0,196
150,473	-16,099	-0,177	-0,078
151,487	12,375	-0,295	-0,158
152,502	13,679	-0,256	-0,139
153,516	125,033	-0,216	-0,191
154,531	136,773	-0,247	-0,226
155,546	123,184	-0,237	-0,207
156,560	660,022	-0,123	-0,223
157,575	61,677	-0,240	-0,166
158,589	20,473	-0,294	-0,166
159,604	145,688	-0,227	-0,213
160,619	782,332	-0,149	-0,286
161,633	21,343	-0,239	-0,135
162,648	73,699	-0,295	-0,215
163,662	-3,219	-0,256	-0,124
164,677	2,346	-0,117	-0,059
165,692	-52,064	-0,265	-0,085
166,706	138,197	-0,258	-0,236
167,721	-200,000	-0,052	-0,219
168,735	143,439	-0,222	-0,206
169,750	176,626	-0,279	-0,283
170,764	247,476	-0,106	-0,125
171,779	2,307	-0,183	-0,092
172,794	364,610	-0,098	-0,138
173,808	210,693	-0,247	-0,271
174,823	-73,010	-0,179	-0,045
175,837	-50,330	-0,293	-0,096
176,852	137,141	-0,297	-0,271
177,867	248,591	-0,196	-0,231
178,881	106,462	-0,217	-0,179
179,896	150,413	-0,241	-0,228
180,910	-200,000	-0,111	-0,346
181,925	3,151	-0,378	-0,191
182,940	117,144	-0,245	-0,210
183,954	-31,920	-0,229	-0,089
184,969	-34,362	-0,234	-0,089
185,983	-15,358	-0,206	-0,091
186,998	-200,000	-0,037	-0,124
188,013	139,330	-0,163	-0,149
189,027	-200,000	-0,082	-0,278
190,042	-9,765	-0,222	-0,103
191,056	330,883	-0,151	-0,203
192,071	7,373	-0,272	-0,141
193,086	323,764	-0,217	-0,289
194,100	324,188	-0,116	-0,155
195,115	-77,609	-0,320	-0,076
196,129	-51,797	-0,349	-0,112
197,144	96,897	-0,317	-0,253
198,159	67,510	-0,232	-0,164
199,173	248,361	-0,142	-0,167
200,188	11,576	-0,312	-0,166
201,202	87,935	-0,268	-0,207
202,217	80,238	-0,194	-0,145
203,232	401,276	-0,170	-0,250
204,246	155,084	-0,280	-0,268
205,261	172,205	-0,215	-0,215
206,275	-8,237	-0,179	-0,083
207,290	245,964	-0,155	-0,181
208,304	92,843	-0,155	-0,122
209,319	307,466	-0,102	-0,132
210,334	110,761	-0,204	-0,170
211,348	800,000	-0,097	-0,187
212,363	148,141	-0,148	-0,138
213,377	395,571	-0,083	-0,121
214,392	60,575	-0,337	-0,231
215,407	121,250	-0,210	-0,182
216,421	-41,948	-0,136	-0,048
217,436	-93,642	-0,265	-0,050
218,450	336,619	-0,152	-0,206
219,465	25,108	-0,355	-0,204
220,480	800,000	-0,116	-0,293
221,494	-200,000	-0,026	-0,165
222,509	-165,162	-0,053	-0,002
223,523	-24,482	-0,258	-0,106
224,538	48,778	-0,282	-0,183
225,553	160,882	-0,214	-0,208
226,567	241,333	-0,123	-0,143
227,582	121,027	-0,175	-0,151
228,596	60,526	-0,207	-0,142
229,611	-62,812	-0,266	-0,076
230,626	-15,733	-0,154	-0,068
231,640	87,341	-0,167	-0,128
232,655	433,479	-0,102	-0,155
233,669	778,741	-0,093	-0,177
234,684	-82,290	-0,149	-0,033
235,699	10,280	-0,118	-0,062
236,713	105,479	-0,201	-0,165
237,728	60,428	-0,114	0,078
238,742	-65,692	-0,190	0,052
239,757	163,997	-0,190	-0,186
240,772	800,000	-0,052	-0,125
241,786	-19,358	-0,232	-0,099
242,801	-107,122	-0,155	-0,023
243,815	-87,312	-0,138	-0,029
244,830	42,594	-0,270	-0,170
245,844	242,250	-0,128	-0,148
246,859	194,719	-0,173	-0,182
247,874	102,209	-0,230	-0,186
248,888	156,870	-0,164	-0,157
249,903	800,000	-0,046	-0,133
250,917	800,000	-0,095	-0,184
251,932	243,232	-0,078	-0,091
252,947	174,515	-0,159	-0,159
253,961	411,816	-0,134	-0,198
254,976	17,092	-0,226	-0,124
255,990	379,151	-0,184	-0,261
257,005	159,168	-0,195	-0,188
258,020	800,000	-0,087	-0,178
259,034	800,000	-0,042	-0,081
260,049	144,409	-0,167	-0,155
261,063	115,196	-0,137	-0,116
262,078	-50,655	-0,247	-0,080
263,093	102,201	-0,130	-0,105
264,107	31,942	-0,105	-0,063
265,122	-89,168	-0,242	-0,049
266,136	-145,055	-0,174	-0,011
267,151	729,002	-0,054	0,100
268,166	255,187	-0,135	-0,161
269,180	3,921	-0,186	-0,094
270,195	800,000	-0,104	-0,299
271,209	12,098	-0,192	-0,102
272,224	-200,000	-0,060	-0,192
273,239	49,454	-0,100	-0,065
274,253	221,979	-0,062	-0,069
275,268	260,522	-0,148	-0,177
276,282	120,656	-0,245	-0,210
277,297	78,500	-0,249	-0,184
278,312	257,745	-0,156	-0,186
279,326	46,380	-0,171	-0,110
280,341	-200,000	0,017	-0,102
281,355	-19,058	-0,122	-0,052
282,370	40,001	-0,111	-0,069
283,384	800,000	-0,103	-0,250
284,399	195,751	-0,173	-0,182
285,414	779,804	-0,078	-0,148
286,428	-200,000	-0,062	-0,197
287,443	253,691	-0,069	-0,082
288,457	241,377	-0,105	-0,122
289,472	-78,011	-0,188	-0,044
290,487	-12,304	-0,074	-0,033
291,501	-200,000	-0,053	-0,274
292,516	-200,000	-0,042	-0,271
293,530	381,156	-0,158	-0,224
294,545	322,370	-0,151	-0,199
295,560	-94,434	-0,071	-0,013
296,574	80,606	-0,143	-0,106
297,589	461,578	-0,151	-0,233
298,603	-52,562	-0,245	-0,078
299,618	37,039	-0,216	-0,131
300,633	-42,158	-0,169	-0,059
301,647	65,066	-0,248	-0,173
302,662	-173,236	-0,079	-0,002
303,676	800,000	0,060	0,128
304,691	8,176	-0,223	-0,115
305,706	-36,010	-0,265	-0,098
306,720	-107,797	-0,124	0,018
307,735	175,722	-0,169	-0,169
308,749	87,390	-0,131	-0,100
309,764	-101,324	-0,118	-0,020
310,779	-7,600	-0,101	-0,047
311,793	29,900	-0,189	-0,111
312,808	188,372	-0,194	-0,200
313,822	84,721	-0,127	-0,096
314,837	355,815	-0,132	-0,182
315,852	205,163	-0,051	-0,054
316,866	226,199	-0,141	-0,157
317,881	85,014	-0,147	-0,111
318,895	195,804	-0,220	-0,230
319,910	40,832	-0,096	-0,059
320,925	498,871	-0,079	-0,126
321,939	32,520	-0,180	-0,107
322,954	48,836	0,045	-0,029
323,968	6,875	-0,081	-0,041
324,983	228,293	-0,163	-0,183
325,997	176,028	-0,126	-0,126
327,012	53,854	-0,230	-0,152
328,027	-144,727	-0,273	-0,017
329,041	583,692	-0,110	-0,186
330,056	-3,508	-0,175	-0,084
331,070	-118,619	-0,220	0,026
332,085	286,689	-0,072	-0,090
333,100	800,000	-0,074	-0,168
334,114	-200,000	-0,053	-0,309
335,129	-126,191	-0,191	-0,019
336,143	-133,849	-0,202	-0,017
337,158	-14,955	-0,135	-0,059
338,173	-200,000	-0,034	-0,120
339,187	80,732	-0,064	-0,047
340,202	498,726	-0,094	-0,150
341,216	221,151	-0,178	-0,196
342,231	267,493	-0,170	-0,205
343,246	124,467	-0,180	-0,155
344,260	800,000	-0,032	-0,065
345,275	23,957	-0,203	-0,115
346,289	219,923	-0,092	-0,101
347,304	800,000	-0,041	-0,122
348,319	-105,684	-0,138	0,021
349,333	-35,302	-0,246	0,092
350,348	147,922	-0,121	-0,112
351,362	-200,000	-0,021	-0,099
352,377	-200,000	0,017	-0,100
353,392	32,692	-0,136	-0,080
354,406	21,535	-0,147	-0,082
355,421	208,410	1315,228	1413,014
356,435	160,364	1476,046	1413,551
