DTS Sentinel unit serial number:	SN410029Multiplexer serial number:	ORYXHardware model number:	OX2-SRSoftware version number:	ORYX F/W v4,00 Oryx Data Collector v3.7.2.0data status	okinstallation	B3 Nyhavnadifferential loss correction	single-endedforward channel	channel 1reverse channel	N/Adate	2023/12/02time	13:57:30forward acquisition time	300,00reverse acquisition time	0,00gamma	499,1914k internal	0,3198k external	0,3198temperature offset calibration	1,0000default loss term (dB/km)	0,3820temperature slope calibration	1,0000multiplexer offset coefficient	1,0000multiplexer slope coefficient	1,0000fibre end	0,00T internal ref (°C)	14,76T ext. ref 1 (°C)	0,35T ext. ref 2 (°C)	0,35length (m)	temperature (°C)	Stokes	anti-Stokes-744,400	555,332	-0,230	-0,405
-743,385	800,000	-0,058	0,152
-742,371	264,843	-0,154	-0,195
-741,356	548,339	0,128	0,224
-740,342	669,684	-0,133	-0,251
-739,327	800,000	0,078	0,198
-738,312	337,583	-0,202	-0,287
-737,298	-200,000	-0,018	0,208
-736,283	56,347	-0,238	-0,168
-735,269	-200,000	0,037	0,179
-734,254	382,076	-0,265	-0,397
-733,239	282,549	-0,133	0,174
-732,225	683,787	-0,105	-0,201
-731,210	499,419	0,033	0,055
-730,196	584,869	-0,104	-0,187
-729,181	-200,000	-0,043	-0,169
-728,167	131,463	-0,124	-0,116
-727,152	-110,564	-0,188	-0,028
-726,137	800,000	-0,040	-0,115
-725,123	-52,826	0,116	-0,039
-724,108	-200,000	-0,007	-0,141
-723,094	-35,415	-0,131	-0,051
-722,079	192,585	-0,050	-0,055
-721,064	162,447	0,059	-0,060
-720,050	800,000	-0,019	0,058
-719,035	49,336	0,146	-0,100
-718,021	-200,000	-0,013	0,075
-717,006	336,333	-0,053	-0,075
-715,991	74,711	-0,084	-0,064
-714,977	399,007	-0,051	-0,078
-713,962	334,533	0,033	0,046
-712,948	-200,000	-0,011	-0,199
-711,933	800,000	-0,047	-0,105
-710,918	119,429	-0,109	-0,099
-709,904	-200,000	0,006	0,043
-708,889	-101,552	0,014	0,002
-707,875	70,288	-0,107	-0,080
-706,860	-200,000	0,019	-0,098
-705,845	-200,000	-0,002	0,063
-704,831	202,838	0,073	-0,082
-703,816	59,896	0,030	-0,021
-702,802	38,058	-0,220	-0,142
-701,787	-200,000	-0,035	-0,113
-700,772	-200,000	-0,015	0,117
-699,758	289,564	-0,030	0,039
-698,743	459,487	0,035	-0,056
-697,729	83,160	0,079	0,063
-696,714	-88,639	-0,039	-0,008
-695,699	800,000	0,033	-0,074
-694,685	80,899	-0,032	-0,025
-693,670	36,770	-0,067	-0,043
-692,656	-38,218	0,023	0,009
-691,641	121,539	-0,054	-0,049
-690,627	-138,518	0,088	0,007
-689,612	126,752	0,053	-0,049
-688,597	85,936	0,015	-0,012
-687,583	-6,961	-0,085	-0,042
-686,568	106,960	-0,109	-0,094
-685,554	800,000	0,022	0,061
-684,539	-200,000	-0,018	-0,068
-683,524	-200,000	0,023	0,122
-682,510	42,377	-0,087	-0,057
-681,495	786,106	0,049	0,099
-680,481	-147,568	-0,027	-0,002
-679,466	-117,797	-0,280	0,036
-678,451	22,653	-0,108	0,064
-677,437	-200,000	-0,014	0,091
-676,422	-14,613	0,014	-0,007
-675,408	800,000	0,049	0,154
-674,393	396,633	-0,080	0,122
-673,378	4,565	0,049	-0,026
-672,364	12,480	-0,146	-0,082
-671,349	-200,000	0,017	-0,103
-670,335	332,736	0,031	0,044
-669,320	233,113	-0,101	-0,120
-668,305	211,771	0,087	0,099
-667,291	55,612	-0,042	0,029
-666,276	297,032	0,093	-0,124
-665,262	-54,705	-0,179	-0,058
-664,247	800,000	0,049	-0,101
-663,232	-200,000	-0,003	0,051
-662,218	-106,184	-0,123	-0,020
-661,203	35,579	0,082	-0,052
-660,189	697,148	0,074	0,143
-659,174	583,444	0,082	-0,147
-658,159	1,137	-0,161	-0,084
-657,145	-142,989	-0,095	-0,007
-656,130	800,000	-0,047	-0,139
-655,116	54,685	-0,084	0,059
-654,101	-200,000	-0,005	0,059
-653,086	800,000	-0,039	-0,092
-652,072	762,064	0,015	-0,030
-651,057	800,000	0,068	0,169
-650,043	405,599	0,024	-0,036
-649,028	-200,000	0,019	-0,094
-648,014	-53,686	-0,134	-0,044
-646,999	-123,328	0,212	0,024
-645,984	-200,000	-0,004	0,044
-644,970	69,021	0,039	0,029
-643,955	800,000	0,044	-0,090
-642,941	-139,866	-0,218	-0,017
-641,926	-200,000	-0,030	-0,125
-640,911	16,625	0,158	0,090
-639,897	630,402	-0,016	0,030
-638,882	-186,227	-0,117	0,001
-637,868	-200,000	0,012	-0,056
-636,853	-200,000	0,013	0,045
-635,838	800,000	-0,067	-0,138
-634,824	176,849	-0,043	-0,045
-633,809	-200,000	0,019	-0,101
-632,795	-112,716	0,154	0,022
-631,780	302,042	0,031	-0,042
-630,765	429,109	0,067	0,106
-629,751	-81,324	-0,069	-0,016
-628,736	14,014	-0,080	-0,045
-627,722	-200,000	-0,007	-0,077
-626,707	-200,000	-0,014	0,058
-625,692	-200,000	0,004	-0,024
-624,678	365,849	0,054	0,080
-623,663	93,054	-0,062	-0,051
-622,649	35,329	-0,045	-0,029
-621,634	656,066	0,103	0,192
-620,619	-200,000	0,025	0,085
-619,605	800,000	-0,063	0,169
-618,590	283,858	0,038	-0,049
-617,576	86,630	-0,018	0,014
-616,561	38,772	-0,181	0,117
-615,546	800,000	-0,015	-0,032
-614,532	-53,022	-0,135	-0,045
-613,517	335,166	-0,091	-0,128
-612,503	-41,606	0,145	-0,054
-611,488	800,000	0,040	0,103
-610,474	500,628	-0,066	-0,110
-609,459	-152,708	0,160	-0,008
-608,444	515,657	-0,097	-0,165
-607,430	800,000	-0,066	-0,156
-606,415	-200,000	-0,010	-0,039
-605,401	-200,000	-0,011	-0,092
-604,386	14,754	0,062	-0,035
-603,371	800,000	-0,038	0,091
-602,357	-61,785	-0,111	-0,034
-601,342	-31,167	0,182	-0,074
-600,328	42,063	-0,144	-0,095
-599,313	197,767	-0,028	0,031
-598,298	-54,067	-0,104	-0,034
-597,284	287,078	0,078	0,102
-596,269	13,949	0,069	0,039
-595,255	-200,000	0,008	0,077
-594,240	-200,000	-0,008	0,161
-593,225	339,763	-0,046	-0,065
-592,211	217,500	-0,126	-0,146
-591,196	-165,962	-0,021	0,001
-590,182	435,078	-0,109	0,173
-589,167	800,000	0,083	0,180
-588,152	-119,518	-0,049	0,006
-587,138	800,000	0,039	0,106
-586,123	95,631	-0,050	-0,041
-585,109	-200,000	-0,015	-0,080
-584,094	-200,000	-0,004	-0,040
-583,079	95,751	0,149	-0,123
-582,065	-200,000	0,011	-0,105
-581,050	137,158	0,009	-0,009
-580,036	-200,000	-0,011	-0,068
-579,021	-200,000	0,015	0,052
-578,006	-41,224	-0,084	0,031
-576,992	-126,410	-0,122	-0,013
-575,977	-200,000	0,008	-0,043
-574,963	68,817	0,122	0,091
-573,948	-182,156	-0,081	-0,001
-572,934	-55,903	-0,120	0,039
-571,919	159,734	0,027	0,027
-570,904	30,131	-0,083	0,051
-569,890	800,000	0,046	-0,099
-568,875	545,520	-0,042	0,072
-567,861	574,568	0,070	0,124
-566,846	365,627	0,039	0,057
-565,831	-200,000	-0,020	0,128
-564,817	-89,960	-0,073	-0,015
-563,802	77,396	-0,103	-0,079
-562,788	54,758	0,135	0,094
-561,773	451,206	0,037	-0,059
-560,758	89,470	0,042	0,033
-559,744	-49,188	0,181	0,062
-558,729	-99,027	-0,099	-0,018
-557,715	-159,917	-0,039	0,002
-556,700	-137,453	0,076	0,006
-555,685	172,188	0,064	0,067
-554,671	-5,752	0,076	-0,037
-553,656	-53,665	0,102	-0,033
-552,642	50,507	-0,162	-0,111
-551,627	-78,196	0,152	-0,037
-550,612	-200,000	0,005	-0,070
-549,598	-200,000	0,002	0,012
-548,583	-200,000	-0,022	-0,103
-547,569	15,893	-0,012	0,007
-546,554	786,400	0,116	0,231
-545,539	-200,000	-0,030	0,146
-544,525	-200,000	0,012	0,146
-543,510	-113,561	-0,126	-0,018
-542,496	800,000	-0,075	-0,160
-541,481	-200,000	0,004	-0,041
-540,466	283,700	0,079	-0,103
-539,452	-200,000	0,020	-0,115
-538,437	-136,963	0,085	0,007
-537,423	-22,320	0,042	-0,018
-536,408	236,139	-0,057	-0,068
-535,393	-60,613	-0,074	-0,022
-534,379	-40,344	-0,074	0,028
-533,364	-122,438	0,054	-0,006
-532,350	42,191	-0,081	0,053
-531,335	-104,339	0,115	0,019
-530,321	800,000	0,009	-0,028
-529,306	-123,320	0,011	-0,001
-528,291	-16,284	-0,156	0,071
-527,277	220,585	-0,050	0,058
-526,262	128,719	-0,124	-0,114
-525,248	800,000	-0,012	-0,027
-524,233	-131,899	0,070	0,006
-523,218	168,993	0,041	-0,043
-522,204	39,391	-0,006	-0,004
-521,189	800,000	0,047	-0,120
-520,175	20,856	-0,061	0,035
-519,160	-62,696	-0,109	-0,032
-518,145	-200,000	0,007	0,057
-517,131	-200,000	0,050	0,210
-516,116	216,442	0,031	0,036
-515,102	-65,510	-0,054	0,016
-514,087	800,000	-0,017	-0,043
-513,072	-76,409	0,004	0,001
-512,058	-200,000	0,031	-0,160
-511,043	800,000	0,041	-0,104
-510,029	254,992	0,083	-0,103
-509,014	221,888	0,025	0,029
-507,999	-7,996	0,134	0,065
-506,985	201,222	0,043	-0,048
-505,970	505,085	0,022	-0,037
-504,956	800,000	-0,028	-0,087
-503,941	507,431	0,009	0,016
-502,926	-200,000	0,033	0,145
-501,912	-70,044	-0,159	-0,043
-500,897	2,590	-0,078	-0,040
-499,883	-120,486	-0,100	0,012
-498,868	-200,000	-0,010	0,100
-497,853	-200,000	0,041	-0,137
-496,839	56,952	0,027	-0,019
-495,824	-52,759	-0,086	0,028
-494,810	200,782	-0,069	-0,076
-493,795	800,000	-0,051	-0,113
-492,781	-102,400	-0,129	-0,022
-491,766	-2,094	0,036	0,018
-490,751	21,018	-0,125	-0,073
-489,737	593,829	0,023	-0,041
-488,722	271,652	0,098	0,125
-487,708	-200,000	0,005	0,051
-486,693	-200,000	-0,033	0,147
-485,678	-200,000	0,014	0,057
-484,664	571,329	-0,016	0,028
-483,649	197,900	-0,039	-0,043
-482,635	170,470	-0,018	0,018
-481,620	180,994	0,091	0,096
-480,605	800,000	0,012	0,035
-479,591	-200,000	-0,039	-0,130
-478,576	189,078	0,064	-0,069
-477,562	-200,000	-0,021	-0,093
-476,547	422,484	-0,033	0,051
-475,532	-27,284	0,079	0,033
-474,518	4,902	0,180	0,095
-473,503	-200,000	-0,023	0,109
-472,489	-24,269	0,089	-0,038
-471,474	295,458	-0,062	0,082
-470,459	-200,000	-0,016	0,058
-469,445	-74,272	-0,048	0,013
-468,430	-197,529	0,022	0,000
-467,416	-200,000	-0,024	-0,113
-466,401	118,991	0,079	-0,070
-465,386	-102,136	0,123	-0,021
-464,372	129,011	0,045	0,042
-463,357	-125,555	0,017	-0,002
-462,343	90,211	0,081	0,065
-461,328	138,050	0,105	-0,100
-460,313	-100,443	0,028	0,005
-459,299	128,953	0,098	0,090
-458,284	-170,820	-0,133	-0,003
-457,270	-200,000	0,002	-0,033
-456,255	-200,000	-0,031	0,196
-455,241	-74,085	0,066	0,017
-454,226	3,137	0,043	-0,023
-453,211	36,865	-0,116	0,074
-452,197	-200,000	0,008	-0,025
-451,182	26,279	0,058	-0,035
-450,168	42,440	0,075	-0,049
-449,153	-1,676	-0,092	-0,046
-448,138	108,015	-0,045	-0,039
-447,124	800,000	-0,067	-0,201
-446,109	-200,000	0,002	0,042
-445,095	-46,628	0,174	0,061
-444,080	28,769	-0,043	-0,026
-443,065	-80,975	0,170	-0,040
-442,051	470,387	0,068	-0,111
-441,036	-45,642	-0,145	0,051
-440,022	-92,476	-0,076	-0,015
-439,007	800,000	0,039	0,079
-437,992	483,716	0,016	0,026
-436,978	16,835	0,059	-0,034
-435,963	800,000	0,075	0,206
-434,949	800,000	-0,053	0,122
-433,934	-200,000	0,032	-0,208
-432,919	26,375	-0,150	-0,090
-431,905	800,000	0,037	-0,109
-430,890	220,782	-0,124	0,143
-429,876	579,289	0,053	0,094
-428,861	-200,000	0,023	0,137
-427,846	78,257	0,046	0,035
-426,832	263,129	-0,048	-0,061
-425,817	216,036	0,072	-0,083
-424,803	-26,815	0,085	0,035
-423,788	-26,238	-0,097	0,041
-422,773	382,265	-0,022	0,033
-421,759	-200,000	-0,011	-0,121
-420,744	119,458	0,060	0,053
-419,730	354,106	-0,032	-0,046
-418,715	800,000	-0,035	-0,095
-417,701	-51,731	0,063	-0,021
-416,686	-149,831	0,047	-0,003
-415,671	-69,689	0,181	0,049
-414,657	-72,008	0,182	0,048
-413,642	-170,225	0,101	0,002
-412,628	16,930	-0,014	0,008
-411,613	618,084	-0,015	-0,027
-410,598	-39,998	-0,013	-0,005
-409,584	198,813	-0,056	0,061
-408,569	-200,000	0,000	0,033
-407,555	23,689	-0,097	0,057
-406,540	96,215	0,026	-0,021
-405,525	-61,449	-0,036	-0,011
-404,511	-0,528	0,056	-0,029
-403,496	800,000	0,038	-0,115
-402,482	229,878	0,069	0,081
-401,467	-200,000	-0,006	0,060
-400,452	64,897	-0,051	0,037
-399,438	693,441	0,009	0,018
-398,423	514,517	-0,074	0,125
-397,409	800,000	-0,028	-0,079
-396,394	253,814	0,070	-0,086
-395,379	452,234	-0,016	-0,025
-394,365	350,508	0,067	-0,095
-393,350	272,954	0,048	-0,061
-392,336	-126,262	0,155	-0,016
-391,321	75,761	-0,077	-0,058
-390,306	545,087	-0,055	-0,094
-389,292	14,578	0,035	-0,020
-388,277	320,257	0,046	0,063
-387,263	-164,892	-0,078	-0,002
-386,248	800,000	0,050	-0,149
-385,233	-1,863	-0,073	0,037
-384,219	-124,482	0,168	0,019
-383,204	-200,000	-0,055	-0,188
-382,190	-200,000	-0,033	-0,137
-381,175	-40,749	0,097	-0,036
-380,160	-51,249	-0,147	0,049
-379,146	612,526	0,011	0,019
-378,131	354,075	-0,092	0,132
-377,117	-43,631	0,087	-0,031
-376,102	800,000	-0,013	-0,034
-375,088	-79,814	0,150	0,036
-374,073	-200,000	0,003	0,055
-373,058	-200,000	-0,003	0,078
-372,044	800,000	-0,032	0,096
-371,029	-14,099	0,069	-0,032
-370,015	800,000	0,035	0,100
-369,000	-84,746	0,010	-0,002
-367,985	16,862	-0,067	-0,038
-366,971	135,194	-0,087	-0,081
-365,956	-147,791	0,139	0,008
-364,942	800,000	-0,040	0,093
-363,927	-16,762	0,103	0,047
-362,912	41,215	-0,172	0,111
-361,898	385,829	-0,041	-0,061
-360,883	-46,114	-0,120	-0,042
-359,869	-200,000	0,032	-0,110
-358,854	240,305	-0,009	0,011
-357,839	-200,000	-0,014	-0,094
-356,825	508,627	-0,045	0,075
-355,810	-200,000	-0,021	-0,086
-354,796	-103,217	-0,040	-0,007
-353,781	-68,963	0,071	0,020
-352,766	122,335	-0,088	-0,079
-351,752	-50,603	-0,058	0,020
-350,737	80,051	-0,042	0,032
-349,723	800,000	0,019	0,044
-348,708	102,088	0,097	0,081
-347,693	176,158	-0,045	0,047
-346,679	-142,756	-0,071	0,005
-345,664	-200,000	-0,028	-0,140
-344,650	-200,000	0,009	-0,134
-343,635	50,089	0,124	0,084
-342,620	-43,244	0,120	-0,043
-341,606	86,273	-0,118	0,093
-340,591	-118,704	0,033	-0,004
-339,577	800,000	-0,055	-0,168
-338,562	12,069	-0,032	0,018
-337,548	-90,795	0,081	-0,017
-336,533	-200,000	0,023	0,085
-335,518	151,434	0,079	-0,078
-334,504	-80,901	0,013	-0,003
-333,489	-200,000	-0,081	0,000
-332,475	120,759	-0,104	-0,092
-331,460	7,312	-0,079	-0,042
-330,445	-15,645	-0,076	-0,035
-329,431	78,372	0,118	-0,090
-328,416	-7,638	0,072	-0,035
-327,402	-34,367	0,106	-0,041
-326,387	-97,200	0,057	0,010
-325,372	136,655	-0,044	-0,041
-324,358	-200,000	0,008	0,072
-323,343	-108,591	0,028	-0,004
-322,329	344,989	-0,044	0,062
-321,314	800,000	0,036	0,097
-320,299	783,083	-0,036	-0,071
-319,285	18,041	0,084	0,048
-318,270	-87,101	-0,142	-0,031
-317,256	147,655	-0,057	0,055
-316,241	800,000	0,060	-0,164
-315,226	800,000	0,058	-0,138
-314,212	-193,373	0,127	0,001
-313,197	-128,063	-0,076	-0,008
-312,183	202,023	0,111	-0,123
-311,168	52,812	-0,034	0,023
-310,153	31,669	0,045	0,028
-309,139	-165,919	-0,104	0,003
-308,124	-31,428	0,061	-0,024
-307,110	209,496	0,100	0,112
-306,095	267,695	0,086	-0,108
-305,080	-98,263	0,013	-0,002
-304,066	-200,000	-0,025	-0,084
-303,051	-96,869	-0,077	-0,014
-302,037	-200,000	0,005	0,057
-301,022	165,434	0,058	-0,058
-300,008	-200,000	-0,001	0,083
-298,993	-45,618	0,036	-0,013
-297,978	-200,000	-0,010	0,142
-296,964	438,250	0,014	0,022
-295,949	222,771	-0,047	-0,054
-294,935	800,000	-0,040	-0,093
-293,920	225,360	-0,102	-0,118
-292,905	-111,619	0,084	-0,012
-291,891	-190,676	0,191	0,001
-290,876	-200,000	-0,001	-0,030
-289,862	437,183	-0,062	0,097
-288,847	-200,000	-0,020	-0,114
-287,832	-63,718	-0,044	-0,013
-286,818	800,000	0,012	0,025
-285,803	-200,000	-0,010	0,098
-284,789	295,568	-0,108	0,142
-283,774	-58,142	0,204	-0,063
-282,759	-28,502	0,107	0,044
-281,745	3,090	-0,171	0,089
-280,730	-200,000	-0,015	0,149
-279,716	38,203	-0,049	-0,031
-278,701	-200,000	-0,013	0,050
-277,686	-200,000	0,024	-0,101
-276,672	-200,000	0,002	-0,037
-275,657	800,000	-0,044	0,116
-274,643	800,000	0,057	-0,116
-273,628	-31,515	-0,128	0,051
-272,613	136,537	0,075	0,070
-271,599	-74,310	0,108	0,028
-270,584	116,799	0,035	-0,030
-269,570	445,208	0,134	0,211
-268,555	34,592	-0,090	0,056
-267,540	165,715	-0,078	0,079
-266,526	247,490	-0,075	-0,090
-265,511	-200,000	-0,043	-0,216
-264,497	-106,965	-0,129	0,020
-263,482	-130,995	0,134	-0,013
-262,467	446,222	-0,035	0,055
-261,453	-170,623	0,191	-0,005
-260,438	305,401	-0,042	0,056
-259,424	99,050	-0,172	0,142
-258,409	-21,597	0,169	0,073
-257,395	471,606	-0,031	0,051
-256,380	343,188	-0,071	0,099
-255,365	-200,000	-0,006	0,120
-254,351	-200,000	0,006	0,058
-253,336	-95,012	0,039	-0,008
-252,322	45,715	-0,155	-0,102
-251,307	175,863	0,026	0,027
-250,292	-10,370	0,079	-0,037
-249,278	-105,789	-0,041	0,007
-248,263	-112,383	-0,053	0,007
-247,249	-200,000	0,016	0,100
-246,234	-32,378	-0,070	0,028
-245,219	800,000	-0,042	0,113
-244,205	-200,000	-0,030	-0,093
-243,190	465,141	-0,101	-0,163
-242,176	-76,747	0,119	-0,029
-241,161	-14,683	0,134	-0,061
-240,146	-200,000	0,022	0,108
-239,132	800,000	0,057	0,157
-238,117	-200,000	0,004	-0,081
-237,103	8,594	-0,078	-0,042
-236,088	-36,928	0,208	-0,079
-235,073	800,000	-0,065	-0,132
-234,059	127,138	-0,037	0,034
-233,044	-200,000	-0,017	0,089
-232,030	555,566	-0,027	0,047
-231,015	-23,932	0,144	-0,061
-230,000	800,000	0,021	-0,043
-228,986	-200,000	-0,023	0,079
-227,971	-101,446	0,055	0,009
-226,957	-200,000	-0,026	0,089
-225,942	433,183	-0,030	-0,047
-224,927	74,387	-0,074	0,055
-223,913	-83,932	-0,100	-0,022
-222,898	46,643	-0,027	0,018
-221,884	-141,926	0,040	0,003
-220,869	800,000	-0,072	-0,164
-219,855	308,338	0,052	-0,070
-218,840	19,500	0,065	-0,037
-217,825	-65,755	-0,073	0,021
-216,811	-111,796	-0,087	-0,012
-215,796	415,825	0,083	-0,126
-214,782	-200,000	0,000	-0,079
-213,767	800,000	0,029	0,062
-212,752	-149,101	0,061	-0,003
-211,738	34,833	-0,037	0,023
-210,723	-18,045	-0,063	0,028
-209,709	177,960	-0,129	-0,134
-208,694	-32,510	0,076	-0,030
-207,679	499,755	-0,066	-0,108
-206,665	-25,528	0,128	-0,054
-205,650	-200,000	-0,045	0,144
-204,636	-200,000	0,020	0,064
-203,621	155,541	-0,039	0,039
-202,606	-85,394	-0,031	-0,007
-201,592	-200,000	-0,006	0,036
-200,577	347,329	0,045	-0,064
-199,563	718,329	0,047	-0,090
-198,548	-25,870	-0,040	-0,017
-197,533	-200,000	0,016	0,121
-196,519	60,765	-0,062	0,044
-195,504	-150,432	-0,066	-0,004
-194,490	379,378	0,085	-0,125
-193,475	-72,673	-0,180	-0,047
-192,460	-74,850	-0,112	-0,028
-191,446	534,133	-0,012	-0,021
-190,431	197,749	0,041	0,045
-189,417	-200,000	-0,031	0,209
-188,402	-200,000	0,024	0,128
-187,387	-200,000	0,006	0,096
-186,373	-152,032	0,087	-0,004
-185,358	-108,174	-0,154	0,023
-184,344	800,000	-0,027	-0,084
-183,329	-148,398	0,079	-0,005
-182,315	-200,000	0,001	0,097
-181,300	526,374	0,061	0,102
-180,285	-6,474	-0,139	-0,067
-179,271	-200,000	0,011	-0,099
-178,256	-200,000	-0,037	0,142
-177,242	-200,000	0,024	0,078
-176,227	-192,925	0,067	-0,000
-175,212	311,831	0,125	0,167
-174,198	-52,457	-0,080	-0,026
-173,183	94,422	-0,125	-0,101
-172,169	31,559	-0,072	-0,044
-171,154	473,184	0,020	-0,033
-170,139	197,596	-0,024	0,026
-169,125	-126,606	0,058	-0,006
-168,110	60,662	0,110	-0,077
-167,096	800,000	0,017	0,049
-166,081	-52,631	-0,024	0,008
-165,066	136,443	-0,089	0,082
-164,052	-28,099	0,060	-0,024
-163,037	157,204	0,063	0,062
-162,023	96,811	0,115	-0,094
-161,008	23,081	-0,105	0,061
-159,993	-200,000	-0,023	0,088
-158,979	-200,000	-0,005	0,172
-157,964	216,625	0,008	-0,009
-156,950	-200,000	-0,012	-0,040
-155,935	-200,000	-0,042	0,171
-154,920	-59,847	-0,024	0,007
-153,906	-93,601	-0,084	0,016
-152,891	-162,773	-0,045	-0,002
-151,877	-146,676	-0,073	-0,004
-150,862	430,189	-0,015	0,024
-149,847	-200,000	-0,111	0,000
-148,833	800,000	0,019	0,054
-147,818	-13,127	-0,062	0,029
-146,804	409,809	0,031	0,047
-145,789	211,589	0,127	0,143
-144,775	284,959	-0,001	0,002
-143,760	-200,000	0,021	-0,095
-142,745	800,000	-0,020	-0,050
-141,731	-182,940	-0,062	0,001
-140,716	-184,562	0,076	0,001
-139,702	530,366	0,080	0,135
-138,687	-200,000	-0,005	0,095
-137,672	21,574	-0,066	0,038
-136,658	800,000	-0,048	-0,116
-135,643	-200,000	0,027	-0,117
-134,629	-99,546	-0,175	-0,031
-133,614	417,426	-0,047	-0,072
-132,599	-117,525	0,128	-0,016
-131,585	569,933	-0,040	0,070
-130,570	-200,000	-0,029	-0,114
-129,556	-200,000	0,022	0,101
-128,541	-200,000	-0,008	-0,128
-127,526	164,157	0,036	-0,036
-126,512	800,000	-0,071	0,217
-125,497	46,551	0,091	0,060
-124,483	86,869	-0,101	0,079
-123,468	800,000	-0,014	0,033
-122,453	-92,595	0,045	-0,009
-121,439	-200,000	-0,008	-0,077
-120,424	26,627	-0,118	-0,070
-119,410	-114,472	-0,130	-0,018
-118,395	-86,184	0,176	0,038
-117,380	-163,990	0,046	-0,001
-116,366	800,000	0,021	0,064
-115,351	-200,000	0,001	-0,065
-114,337	492,131	-0,057	-0,093
-113,322	-200,000	0,007	-0,055
-112,307	800,000	0,016	-0,042
-111,293	235,664	0,087	0,103
-110,278	-200,000	-0,039	0,125
-109,264	-200,000	0,004	-0,040
-108,249	-200,000	0,058	-0,186
-107,234	800,000	-0,029	-0,067
-106,220	211,637	0,066	-0,074
-105,205	45,061	0,048	0,031
-104,191	-2,204	0,039	-0,019
-103,176	277,224	0,041	-0,051
-102,162	-127,965	-0,052	0,005
-101,147	-44,584	0,091	-0,032
-100,132	-200,000	-0,006	-0,068
-99,118	316,407	0,097	-0,130
-98,103	30,326	-0,011	-0,007
-97,089	-200,000	-0,010	-0,034
-96,074	451,982	-0,005	-0,008
-95,059	727,839	-0,091	-0,173
-94,045	-200,000	-0,022	-0,092
-93,030	-200,000	0,024	-0,118
-92,016	800,000	-0,074	-0,178
-91,001	103,159	0,043	0,036
-89,986	-200,000	0,040	0,173
-88,972	-53,582	-0,065	0,021
-87,957	-40,328	0,068	-0,025
-86,943	-49,285	-0,089	-0,030
-85,928	-200,000	-0,014	-0,139
-84,913	-100,839	-0,149	-0,026
-83,899	-38,939	-0,041	-0,015
-82,884	-14,152	0,126	-0,058
-81,870	800,000	-0,043	0,109
-80,855	-27,303	0,058	-0,024
-79,840	-109,644	-0,113	-0,017
-78,826	-101,480	0,013	-0,002
-77,811	202,163	0,071	-0,077
-76,797	-200,000	0,041	-0,154
-75,782	-200,000	0,013	0,057
-74,767	-94,225	0,047	0,009
-73,753	-200,000	0,046	0,190
-72,738	-200,000	-0,003	-0,046
-71,724	102,071	-0,156	0,129
-70,709	800,000	-0,032	0,094
-69,694	-200,000	0,002	0,041
-68,680	3,108	-0,109	-0,056
-67,665	-35,344	-0,087	-0,033
-66,651	68,040	-0,037	-0,027
-65,636	37,420	0,069	-0,043
-64,622	-74,811	-0,130	-0,033
-63,607	6,930	-0,061	-0,032
-62,592	800,000	0,019	0,039
-61,578	800,000	-0,066	0,153
-60,563	-98,370	0,119	0,021
-59,549	-200,000	0,006	0,125
-58,534	-25,609	-1,512	-0,630
-57,519	349,043	-1,636	-2,295
-56,505	-200,000	-0,545	-4,549
-55,490	188,268	0,970	1,029
-54,476	800,000	4,878	11,316
-53,461	-200,000	18,226	290,602
-52,446	800,000	728,381	2240,678
-51,432	558,534	1644,292	2822,454
-50,417	79,099	1665,459	1262,914
-49,403	22,615	1538,908	890,216
-48,388	16,650	1461,791	816,701
-47,373	17,842	1451,865	816,867
-46,359	17,163	1442,126	808,109
-45,344	14,919	1437,532	794,784
-44,330	14,831	1435,640	793,286
-43,315	14,784	1434,084	792,170
-42,300	14,832	1432,158	791,305
-41,286	14,840	1431,145	790,752
-40,271	14,845	1429,835	790,023
-39,257	14,783	1428,809	789,127
-38,242	14,895	1427,153	788,714
-37,227	14,926	1425,980	788,181
-36,213	14,879	1424,789	787,268
-35,198	14,880	1423,585	786,576
-34,184	14,905	1422,618	786,129
-33,169	14,812	1421,320	784,940
-32,154	14,883	1420,466	784,773
-31,140	14,858	1418,988	783,807
-30,125	14,908	1417,958	783,442
-29,111	14,871	1416,677	782,529
-28,096	14,866	1415,666	781,917
-27,082	14,803	1414,726	781,070
-26,067	14,796	1413,587	780,376
-25,052	14,800	1412,544	779,790
-24,038	14,774	1411,487	779,056
-23,023	14,725	1410,586	778,297
-22,009	14,774	1409,536	777,918
-20,994	14,710	1408,870	777,219
-19,979	14,761	1407,671	776,763
-18,965	14,711	1406,538	775,874
-17,950	14,692	1405,810	775,353
-16,936	14,703	1404,770	774,800
-15,921	14,718	1403,653	774,225
-14,906	14,699	1402,773	773,617
-13,892	14,706	1401,776	773,068
-12,877	14,696	1401,044	772,590
-11,863	14,687	1400,180	772,040
-10,848	14,663	1399,303	771,415
-9,833	14,657	1398,433	770,875
-8,819	14,595	1397,609	770,106
-7,804	14,595	1396,323	769,364
-6,790	14,570	1395,586	768,810
-5,775	14,561	1394,367	768,070
-4,760	14,600	1393,450	767,714
-3,746	14,557	1392,728	767,086
-2,731	14,575	1392,205	766,849
-1,717	14,578	1391,039	766,191
-0,702	14,580	1389,203	765,158
0,313	18,332	1308,386	738,035
1,327	34,563	706,083	435,903
2,342	52,798	124,580	84,209
3,356	4,178	16,508	8,530
4,371	10,241	3,128	1,679
5,386	-64,715	0,499	0,142
6,400	-200,000	-0,007	0,112
7,415	228,584	-0,109	-0,126
8,429	94,352	-0,339	-0,273
9,444	120,288	-0,235	-0,206
10,459	-26,248	-0,338	-0,140
11,473	-61,781	-0,323	-0,095
12,488	43,385	-0,278	-0,180
13,502	164,884	-0,268	-0,268
14,517	11,564	-0,462	-0,250
15,531	163,954	-0,395	-0,394
16,546	36,309	-0,404	-0,252
17,561	106,097	-0,430	-0,360
18,575	-81,762	-0,339	-0,078
19,590	317,875	-0,189	-0,254
20,604	-62,277	-0,218	0,064
21,619	132,964	-0,442	-0,404
22,634	50,406	-0,408	-0,272
23,648	216,184	-0,387	-0,435
24,663	161,089	-0,292	-0,288
25,677	800,000	-0,162	-0,323
26,692	150,965	-0,282	-0,271
27,707	-5,040	-0,444	-0,215
28,721	23,682	-0,371	-0,216
29,736	149,440	-0,329	-0,315
30,750	185,417	-0,408	-0,429
31,765	172,601	-0,465	-0,473
32,780	6,626	-0,436	-0,228
33,794	62,382	-0,408	-0,287
34,809	100,405	-0,330	-0,271
35,823	128,122	-0,312	-0,281
36,838	-19,851	-0,410	-0,178
37,853	121,628	-0,425	-0,374
38,867	10,665	-0,382	-0,205
39,882	136,969	-0,326	-0,301
40,896	189,186	-0,201	-0,213
41,911	361,913	-0,219	-0,311
42,926	-26,699	-0,305	-0,125
43,940	88,767	-0,399	-0,313
44,955	-60,000	-0,425	-0,127
45,969	68,969	-0,420	-0,304
46,984	70,415	-0,262	-0,191
47,999	63,693	-0,380	-0,269
49,013	144,768	-0,267	-0,252
50,028	-28,047	-0,295	-0,120
51,042	-4,452	-0,459	-0,223
52,057	73,358	-0,364	-0,268
53,071	76,449	-0,298	-0,222
54,086	56,241	-0,337	-0,230
55,101	137,837	-0,265	-0,244
56,115	-10,459	-0,233	-0,109
57,130	6,343	-0,361	-0,188
58,144	232,174	-0,287	-0,332
59,159	-16,918	-0,413	-0,183
60,174	656,849	-0,238	-0,432
61,188	34,062	-0,439	-0,269
62,203	-33,351	-0,360	-0,140
63,217	76,466	-0,264	-0,197
64,232	89,899	-0,252	-0,198
65,247	750,059	-0,184	-0,352
66,261	-34,260	-0,434	-0,167
67,276	285,990	-0,255	-0,324
68,290	800,000	-0,197	-0,398
69,305	17,556	-0,344	-0,192
70,320	145,067	-0,310	-0,292
71,334	-52,094	-0,344	-0,112
72,349	80,634	-0,422	-0,320
73,363	224,583	-0,280	-0,319
74,378	10,150	-0,309	-0,165
75,393	123,136	-0,270	-0,238
76,407	108,121	-0,185	-0,155
77,422	-164,383	-0,250	0,008
78,436	75,812	-0,236	-0,175
79,451	87,296	-0,334	-0,260
80,466	59,622	-0,321	-0,222
81,480	120,035	-0,378	-0,330
82,495	126,761	-0,204	-0,181
83,509	-27,414	-0,172	-0,070
84,524	375,734	-0,165	-0,237
85,539	109,132	-0,247	-0,208
86,553	-34,285	-0,263	-0,101
87,568	-67,555	-0,445	-0,122
88,582	182,548	-0,266	-0,276
89,597	-109,099	-0,392	-0,058
90,611	130,303	-0,248	-0,223
91,626	84,573	-0,325	-0,249
92,641	19,227	-0,331	-0,186
93,655	59,474	-0,159	-0,110
94,670	206,842	-0,214	-0,234
95,684	-9,148	-0,364	-0,171
96,699	27,987	-0,271	-0,160
97,714	557,164	-0,164	-0,278
98,728	55,730	-0,282	-0,191
99,743	61,426	-0,190	-0,132
100,757	-15,037	-0,271	-0,121
101,772	113,482	-0,342	-0,291
102,787	302,183	-0,150	-0,195
103,801	54,609	-0,376	-0,254
104,816	-1,023	-0,256	-0,127
105,830	64,702	-0,199	-0,141
106,845	421,761	-0,166	-0,251
107,860	65,816	-0,322	-0,229
108,874	85,069	-0,374	-0,288
109,889	92,752	-0,306	-0,242
110,903	7,275	-0,317	-0,166
111,918	-9,760	-0,340	-0,158
112,933	80,840	-0,278	-0,210
113,947	409,313	-0,143	-0,213
114,962	138,775	-0,145	-0,134
115,976	-26,411	-0,302	-0,124
116,991	167,928	-0,249	-0,249
118,006	-10,235	-0,263	-0,122
119,020	223,361	-0,123	-0,139
120,035	-102,807	-0,168	-0,028
121,049	-127,377	-0,263	-0,026
122,064	-66,240	-0,221	-0,061
123,079	70,503	-0,239	-0,173
124,093	184,394	-0,201	-0,209
125,108	-14,499	-0,322	-0,145
126,122	403,723	-0,218	-0,323
127,137	273,610	-0,232	-0,287
128,151	571,498	-0,115	-0,197
129,166	18,455	-0,264	-0,147
130,181	140,986	-0,168	-0,156
131,195	156,679	-0,203	-0,197
132,210	49,817	-0,289	-0,191
133,224	36,655	-0,286	-0,176
134,239	31,128	-0,266	-0,159
135,254	-13,181	-0,179	-0,081
136,268	81,087	-0,115	-0,087
137,283	299,055	-0,233	-0,301
138,297	-54,899	-0,188	-0,059
139,312	198,202	-0,220	-0,236
140,327	98,727	-0,379	-0,306
141,341	207,462	-0,147	-0,160
142,356	69,244	-0,230	-0,165
143,370	33,999	-0,247	-0,150
144,385	2,406	-0,296	-0,149
145,400	28,302	-0,309	-0,182
146,414	800,000	-0,084	-0,232
147,429	-4,466	-0,271	-0,131
148,443	-69,212	-0,218	-0,058
149,458	24,952	-0,321	-0,186
150,473	-7,218	-0,264	-0,125
151,487	-11,447	-0,296	-0,136
152,502	7,029	-0,215	-0,112
153,516	70,477	-0,298	-0,215
154,531	59,833	-0,318	-0,219
155,546	347,243	-0,139	-0,192
156,560	-2,921	-0,254	-0,124
157,575	7,956	-0,202	-0,106
158,589	126,007	-0,182	-0,161
159,604	174,175	-0,288	-0,291
160,619	438,543	-0,228	-0,349
161,633	800,000	-0,148	-0,335
162,648	-29,464	-0,195	-0,077
163,662	14,695	-0,314	-0,171
164,677	236,182	-0,216	-0,250
165,692	104,127	-0,305	-0,251
166,706	-79,374	-0,369	-0,086
167,721	158,087	-0,295	-0,286
168,735	99,180	-0,323	-0,260
169,750	102,762	-0,223	-0,182
170,764	-33,238	-0,215	-0,083
171,779	131,572	-0,175	-0,157
172,794	86,320	-0,190	-0,146
173,808	-1,597	-0,319	-0,156
174,823	463,629	-0,201	-0,315
175,837	157,949	-0,318	-0,307
176,852	800,000	-0,103	-0,220
177,867	800,000	-0,033	-0,089
178,881	43,135	-0,222	-0,141
179,896	33,760	-0,229	-0,138
180,910	266,702	-0,223	-0,272
181,925	2,298	-0,333	-0,167
182,940	138,780	-0,254	-0,233
183,954	86,539	-0,162	-0,124
184,969	196,201	-0,184	-0,195
185,983	-69,778	-0,203	-0,054
186,998	76,653	-0,182	-0,134
188,013	-17,940	-0,253	-0,110
189,027	94,694	-0,325	-0,258
190,042	-32,757	-0,222	-0,086
191,056	449,025	-0,064	-0,098
192,071	176,797	-0,111	-0,112
193,086	185,776	-0,195	-0,202
194,100	-64,529	-0,241	-0,068
195,115	39,434	-0,184	-0,115
196,129	48,866	-0,264	-0,172
197,144	-1,380	-0,362	-0,177
198,159	-36,633	-0,258	-0,096
199,173	-83,540	-0,273	-0,060
200,188	800,000	-0,072	-0,169
201,202	68,799	-0,106	-0,076
202,217	211,236	-0,125	-0,137
203,232	-121,263	-0,167	-0,019
204,246	300,219	-0,160	-0,205
205,261	116,274	-0,337	-0,287
206,275	800,000	-0,113	-0,233
207,290	249,302	-0,106	-0,125
208,304	57,396	-0,198	-0,134
209,319	-50,072	-0,127	0,042
210,334	800,000	-0,065	-0,182
211,348	78,417	-0,313	-0,232
212,363	38,577	-0,272	-0,168
213,377	-151,060	-0,124	-0,006
214,392	-48,153	-0,206	-0,069
215,407	309,356	-0,190	-0,248
216,421	-68,576	-0,082	0,022
217,436	30,471	-0,255	-0,151
218,450	255,154	-0,137	-0,164
219,465	5,273	-0,324	-0,165
220,480	527,854	-0,139	-0,228
221,494	106,393	-0,179	-0,148
222,509	-61,954	-0,131	0,038
223,523	674,423	-0,056	-0,101
224,538	183,071	-0,250	-0,256
225,553	-12,801	-0,238	-0,107
226,567	120,491	-0,176	-0,152
227,582	188,343	-0,193	-0,200
228,596	30,954	-0,176	-0,105
229,611	-45,910	-0,231	0,079
230,626	-114,803	-0,247	-0,032
231,640	-59,383	-0,189	-0,056
232,655	60,407	-0,118	-0,081
233,669	64,816	-0,300	-0,209
234,684	114,191	-0,268	-0,226
235,699	321,492	-0,191	-0,252
236,713	67,391	-0,221	-0,157
237,728	-24,278	-0,202	-0,083
238,742	224,208	-0,187	-0,210
239,757	704,724	-0,099	-0,181
240,772	-71,082	-0,169	0,044
241,786	8,994	-0,223	-0,116
242,801	797,040	-0,119	-0,229
243,815	129,247	-0,186	-0,165
244,830	-200,000	0,015	-0,234
245,844	125,205	-0,178	-0,155
246,859	88,254	-0,213	-0,164
247,874	315,586	-0,225	-0,295
248,888	289,105	-0,207	-0,261
249,903	129,811	-0,160	-0,141
250,917	102,537	-0,188	-0,152
251,932	112,313	-0,128	-0,107
252,947	15,983	-0,172	-0,094
253,961	800,000	-0,056	-0,112
254,976	353,896	-0,177	-0,244
255,990	129,294	-0,225	-0,199
257,005	17,914	-0,197	-0,109
258,020	-71,610	-0,075	-0,019
259,034	139,880	-0,199	-0,181
260,049	-58,551	-0,156	-0,047
261,063	-18,758	-0,159	-0,068
262,078	-5,460	-0,317	-0,150
263,093	-104,536	-0,280	-0,044
264,107	80,879	-0,156	-0,117
265,122	470,161	-0,135	-0,211
266,136	430,440	-0,162	-0,244
267,151	800,000	-0,115	-0,238
268,166	-58,685	-0,199	-0,059
269,180	91,700	-0,207	-0,161
270,195	420,009	-0,199	-0,295
271,209	113,225	-0,157	-0,132
272,224	-94,909	-0,246	-0,046
273,239	146,841	-0,238	-0,221
274,253	36,922	-0,200	-0,122
275,268	-105,396	-0,103	0,016
276,282	314,524	-0,161	-0,210
277,297	-12,382	-0,264	-0,119
278,312	55,208	-0,228	-0,152
279,326	28,684	-0,140	-0,082
280,341	220,111	0,048	-0,053
281,355	-127,810	-0,134	0,013
282,370	88,252	-0,251	-0,192
283,384	-95,425	-0,260	0,048
284,399	520,519	-0,119	-0,194
285,414	32,019	-0,124	-0,074
286,428	382,502	-0,085	-0,121
287,443	-170,678	-0,190	-0,004
288,457	188,045	-0,161	-0,166
289,472	538,591	-0,029	-0,048
290,487	-4,555	-0,211	-0,100
291,501	-31,816	-0,324	-0,125
292,516	774,806	-0,078	-0,147
293,530	50,224	-0,082	0,053
294,545	27,113	-0,093	0,054
295,560	-53,955	-0,103	-0,032
296,574	-150,538	-0,077	0,004
297,589	77,690	-0,167	-0,122
298,603	-133,113	-0,185	-0,016
299,618	93,990	-0,325	-0,254
300,633	776,244	-0,127	-0,239
301,647	298,131	-0,156	-0,199
302,662	358,694	-0,096	-0,133
303,676	161,776	-0,143	-0,138
304,691	289,106	-0,111	-0,139
305,706	800,000	-0,100	-0,276
306,720	253,984	-0,105	-0,124
307,735	227,213	-0,045	-0,050
308,749	-127,493	-0,090	0,009
309,764	-112,589	-0,202	0,027
310,779	-110,608	-0,133	-0,019
311,793	190,925	-0,203	-0,210
312,808	85,517	-0,220	-0,166
313,822	177,963	-0,116	-0,117
314,837	32,432	-0,267	-0,159
315,852	97,603	-0,115	-0,091
316,866	-65,467	-0,040	-0,011
317,881	-10,489	-0,190	-0,086
318,895	56,789	-0,168	-0,113
319,910	151,860	-0,129	-0,121
320,925	342,782	-0,124	-0,167
321,939	21,597	-0,141	-0,079
322,954	-45,767	-0,031	0,010
323,968	-200,000	-0,010	0,050
324,983	33,521	0,101	-0,060
325,997	328,265	-0,134	-0,178
327,012	141,709	-0,168	-0,153
328,027	-115,733	-0,185	-0,024
329,041	37,444	-0,178	-0,108
330,056	200,419	-0,169	-0,179
331,070	-35,212	-0,186	-0,069
332,085	-30,407	-0,100	-0,039
333,100	218,811	-0,140	-0,154
334,114	152,509	-0,176	-0,165
335,129	242,948	-0,130	-0,150
336,143	122,498	-0,236	-0,203
337,158	800,000	-0,064	-0,153
338,173	338,099	-0,162	-0,218
339,187	125,472	-0,134	-0,116
340,202	744,829	-0,052	-0,097
341,216	94,383	-0,228	-0,178
342,231	-19,187	-0,081	0,034
343,246	-45,559	-0,164	0,055
344,260	171,788	-0,140	-0,138
345,275	320,464	-0,123	-0,161
346,289	152,976	-0,240	-0,225
347,304	643,825	-0,081	-0,142
348,319	204,384	-0,126	-0,135
349,333	576,256	-0,075	-0,126
350,348	197,211	-0,145	-0,152
351,362	800,000	-0,041	-0,120
352,377	287,563	-0,076	-0,094
353,392	21,334	-0,162	-0,090
354,406	45,619	-0,171	-0,108
355,421	206,561	1313,576	1406,283
356,435	158,857	1474,190	1406,785
