DTS Sentinel unit serial number:	SN410029Multiplexer serial number:	ORYXHardware model number:	OX2-SRSoftware version number:	ORYX F/W v4,00 Oryx Data Collector v3.7.2.0data status	okinstallation	B3 Nyhavnadifferential loss correction	single-endedforward channel	channel 1reverse channel	N/Adate	2023/12/04time	12:12:30forward acquisition time	300,00reverse acquisition time	0,00gamma	499,1914k internal	0,3203k external	0,3203temperature offset calibration	1,0000default loss term (dB/km)	0,3820temperature slope calibration	1,0000multiplexer offset coefficient	1,0000multiplexer slope coefficient	1,0000fibre end	0,00T internal ref (°C)	14,36T ext. ref 1 (°C)	0,01T ext. ref 2 (°C)	0,00length (m)	temperature (°C)	Stokes	anti-Stokes-744,400	4,974	-0,222	-0,118
-743,385	-200,000	0,078	0,282
-742,371	156,594	-0,228	-0,229
-741,356	-200,000	0,115	0,473
-740,342	13,128	-0,213	-0,120
-739,327	-200,000	-0,033	0,294
-738,312	608,125	-0,138	-0,251
-737,298	554,678	0,146	0,255
-736,283	118,343	-0,255	-0,229
-735,269	800,000	0,092	0,246
-734,254	800,000	-0,091	-0,194
-733,239	242,577	-0,165	0,201
-732,225	800,000	-0,087	-0,241
-731,210	-200,000	-0,008	0,076
-730,196	-30,637	-0,112	-0,046
-729,181	-200,000	-0,005	0,090
-728,167	-12,388	0,016	-0,007
-727,152	187,900	-0,115	-0,125
-726,137	-200,000	-0,018	-0,062
-725,123	49,174	-0,045	0,031
-724,108	14,098	0,031	-0,018
-723,094	-200,000	-0,015	0,068
-722,079	696,695	0,072	-0,137
-721,064	-200,000	0,008	-0,057
-720,050	-34,898	-0,157	-0,062
-719,035	363,650	-0,097	0,142
-718,021	-200,000	-0,000	-0,004
-717,006	-200,000	0,003	-0,069
-715,991	543,001	-0,054	-0,095
-714,977	141,511	0,036	0,035
-713,962	800,000	0,040	-0,087
-712,948	-200,000	-0,002	0,034
-711,933	31,688	-0,072	0,045
-710,918	7,029	-0,066	0,036
-709,904	-149,816	-0,151	-0,008
-708,889	-200,000	0,025	-0,111
-707,875	800,000	0,015	-0,033
-706,860	-104,205	-0,050	0,008
-705,845	554,402	-0,035	-0,061
-704,831	59,288	0,038	-0,027
-703,816	94,640	-0,041	0,034
-702,802	-200,000	-0,024	-0,100
-701,787	227,903	0,052	-0,061
-700,772	-72,874	0,038	-0,010
-699,758	51,098	-0,031	-0,022
-698,743	83,015	0,117	-0,092
-697,729	-109,239	0,061	-0,009
-696,714	-71,495	-0,250	0,067
-695,699	147,292	-0,075	0,074
-694,685	36,839	0,018	-0,012
-693,670	-166,570	-0,040	0,001
-692,656	168,698	-0,099	0,102
-691,641	-73,654	0,130	-0,034
-690,627	-200,000	0,030	0,117
-689,612	-200,000	0,016	-0,111
-688,597	151,424	-0,111	-0,110
-687,583	697,660	-0,055	-0,106
-686,568	800,000	0,056	-0,169
-685,554	495,171	-0,056	-0,093
-684,539	100,612	-0,077	-0,065
-683,524	-200,000	-0,011	-0,049
-682,510	-9,960	0,037	-0,018
-681,495	-87,463	0,067	-0,014
-680,481	453,760	-0,116	0,187
-679,466	169,341	0,123	-0,127
-678,451	-117,707	-0,067	-0,009
-677,437	-111,339	0,201	0,029
-676,422	800,000	-0,046	0,105
-675,408	-169,170	0,050	-0,001
-674,393	-117,205	0,089	-0,012
-673,378	800,000	-0,040	-0,082
-672,364	152,677	-0,050	-0,049
-671,349	627,428	-0,049	-0,090
-670,335	419,075	-0,099	0,154
-669,320	81,791	0,058	0,045
-668,305	363,247	-0,072	0,105
-667,291	-25,860	-0,111	0,047
-666,276	-200,000	-0,018	-0,117
-665,262	-75,427	-0,172	0,044
-664,247	-200,000	-0,016	0,088
-663,232	800,000	-0,026	-0,057
-662,218	-195,096	0,193	0,001
-661,203	-6,973	0,089	-0,044
-660,189	525,186	0,026	0,044
-659,174	92,186	-0,068	-0,055
-658,159	-124,019	-0,148	-0,017
-657,145	640,058	0,024	-0,045
-656,130	-132,893	0,052	0,005
-655,116	292,814	0,051	0,067
-654,101	-200,000	-0,017	0,149
-653,086	277,710	-0,023	-0,030
-652,072	800,000	0,029	0,073
-651,057	230,609	-0,067	-0,080
-650,043	-82,226	-0,122	-0,028
-649,028	445,892	0,064	-0,103
-648,014	-34,535	-0,028	-0,011
-646,999	25,046	-0,066	-0,040
-645,984	196,259	0,086	0,095
-644,970	-115,398	0,065	0,009
-643,955	800,000	-0,015	-0,033
-642,941	-200,000	0,004	0,079
-641,926	45,405	0,051	-0,034
-640,911	800,000	-0,009	-0,021
-639,897	-200,000	-0,015	0,087
-638,882	800,000	-0,035	-0,072
-637,868	183,134	0,028	-0,030
-636,853	-69,056	-0,159	-0,044
-635,838	-200,000	-0,005	-0,062
-634,824	274,993	0,054	-0,069
-633,809	203,457	0,079	0,089
-632,795	492,469	-0,031	-0,051
-631,780	510,225	-0,034	0,058
-630,765	441,814	-0,043	-0,068
-629,751	-64,088	0,052	0,015
-628,736	566,539	-0,074	-0,131
-627,722	218,972	0,052	-0,060
-626,707	66,037	0,044	0,032
-625,692	800,000	-0,026	-0,058
-624,678	622,553	-0,090	0,164
-623,663	800,000	0,050	0,147
-622,649	-115,082	-0,154	0,021
-621,634	800,000	-0,080	-0,189
-620,619	388,748	0,082	-0,123
-619,605	253,136	0,109	-0,135
-618,590	-200,000	-0,003	-0,064
-617,576	-61,502	0,095	0,029
-616,561	-200,000	0,186	0,001
-615,546	-200,000	-0,002	-0,147
-614,532	800,000	0,056	0,138
-613,517	-200,000	0,005	0,098
-612,503	87,752	0,026	-0,021
-611,488	-200,000	0,013	0,061
-610,474	-200,000	0,004	0,126
-609,459	-22,206	-0,036	0,016
-608,444	-105,760	-0,133	-0,022
-607,430	311,349	-0,110	-0,149
-606,415	-146,662	-0,070	-0,004
-605,401	-80,527	0,170	-0,041
-604,386	187,499	-0,018	-0,019
-603,371	-24,593	0,030	0,013
-602,357	-200,000	0,001	0,133
-601,342	400,299	0,040	-0,061
-600,328	80,501	-0,106	-0,083
-599,313	207,920	-0,090	-0,102
-598,298	20,694	-0,049	0,029
-597,284	185,099	0,028	-0,030
-596,269	-22,183	0,024	-0,010
-595,255	238,350	-0,025	-0,030
-594,240	-200,000	0,026	-0,099
-593,225	-200,000	-0,011	-0,079
-592,211	10,718	0,098	-0,054
-591,196	-90,398	0,037	0,008
-590,182	-136,252	0,063	0,005
-589,167	-131,578	0,032	-0,003
-588,152	800,000	0,024	-0,077
-587,138	196,695	-0,033	0,036
-586,123	474,594	-0,067	-0,109
-585,109	184,750	-0,048	-0,051
-584,094	71,952	-0,038	0,028
-583,079	-124,387	-0,109	0,012
-582,065	-200,000	-0,031	0,184
-581,050	800,000	0,027	0,071
-580,036	-200,000	-0,005	0,119
-579,021	-55,065	-0,069	-0,022
-578,006	800,000	-0,055	0,120
-576,992	-200,000	-0,005	0,051
-575,977	-200,000	0,009	0,094
-574,963	-200,000	0,009	0,057
-573,948	-121,243	-0,128	-0,015
-572,934	-156,525	0,094	-0,004
-571,919	-18,288	-0,095	-0,043
-570,904	627,035	0,053	0,097
-569,890	199,746	-0,065	0,072
-568,875	-0,967	0,143	-0,073
-567,861	102,978	-0,080	0,067
-566,846	294,990	0,088	-0,117
-565,831	-32,752	-0,111	0,044
-564,817	-97,906	-0,055	-0,010
-563,802	800,000	0,043	-0,111
-562,788	345,948	0,006	-0,008
-561,773	-15,703	0,037	0,017
-560,758	327,566	0,087	0,121
-559,744	-110,004	0,042	0,006
-558,729	153,357	0,036	0,036
-557,715	800,000	-0,031	-0,075
-556,700	-90,595	-0,052	-0,011
-555,685	-51,568	0,053	-0,018
-554,671	-200,000	0,015	0,062
-553,656	86,763	-0,044	-0,035
-552,642	-58,014	0,104	0,032
-551,627	731,607	0,030	-0,058
-550,612	7,999	-0,109	0,059
-549,598	-200,000	0,007	0,071
-548,583	-200,000	0,008	-0,077
-547,569	431,949	-0,055	0,086
-546,554	-200,000	0,023	-0,135
-545,539	453,082	-0,070	0,113
-544,525	-200,000	0,006	-0,019
-543,510	323,423	-0,021	-0,028
-542,496	68,368	-0,034	-0,025
-541,481	72,383	-0,131	-0,098
-540,466	112,866	-0,076	0,066
-539,452	-132,233	0,034	0,003
-538,437	-58,521	0,164	0,051
-537,423	800,000	-0,027	0,073
-536,408	-21,246	-0,130	-0,057
-535,393	-200,000	0,003	-0,134
-534,379	-27,198	0,030	-0,013
-533,364	-200,000	0,006	-0,120
-532,350	23,248	-0,063	0,037
-531,335	-96,754	0,052	-0,010
-530,321	-200,000	-0,018	0,181
-529,306	53,229	-0,139	0,096
-528,291	182,331	-0,061	0,065
-527,277	89,009	0,101	-0,081
-526,262	283,234	0,054	-0,071
-525,248	780,802	0,015	0,030
-524,233	-69,543	0,111	-0,031
-523,218	267,115	0,049	0,062
-522,204	800,000	0,002	0,005
-521,189	-64,638	-0,101	0,029
-520,175	-71,609	-0,115	-0,031
-519,160	-200,000	0,003	-0,195
-518,145	-200,000	-0,000	-0,123
-517,131	-157,272	0,060	0,003
-516,116	97,073	0,017	0,014
-515,102	319,549	-0,090	-0,124
-514,087	-200,000	0,009	0,110
-513,072	-70,811	-0,036	-0,010
-512,058	26,599	0,065	0,039
-511,043	-26,396	-0,076	0,032
-510,029	653,192	0,064	0,119
-509,014	800,000	0,036	-0,104
-507,999	0,758	-0,230	0,118
-506,985	800,000	-0,074	0,178
-505,970	-4,280	-0,169	0,084
-504,956	-116,833	-0,094	0,012
-503,941	-200,000	0,021	-0,174
-502,926	101,476	0,106	-0,089
-501,912	119,384	0,088	0,079
-500,897	69,734	0,047	0,035
-499,883	601,763	0,047	0,084
-498,868	800,000	0,061	0,138
-497,853	-142,208	-0,093	-0,007
-496,839	-200,000	-0,030	-0,146
-495,824	343,533	0,027	-0,038
-494,810	31,878	0,060	0,037
-493,795	104,294	-0,105	-0,089
-492,781	-200,000	0,013	-0,073
-491,766	-3,474	-0,043	-0,021
-490,751	345,715	0,037	-0,052
-489,737	325,502	-0,054	-0,075
-488,722	50,300	-0,065	0,044
-487,708	800,000	0,041	0,121
-486,693	221,202	-0,028	0,033
-485,678	240,877	-0,060	0,072
-484,664	-91,903	-0,114	-0,023
-483,649	-1,333	-0,082	0,041
-482,635	-53,114	0,159	-0,052
-481,620	-65,473	-0,121	-0,035
-480,605	-148,708	0,028	-0,002
-479,591	55,755	-0,045	-0,031
-478,576	-65,341	-0,115	0,033
-477,562	-200,000	0,038	0,159
-476,547	800,000	-0,050	-0,145
-475,532	102,984	0,115	-0,097
-474,518	-132,690	0,138	-0,013
-473,503	109,825	-0,091	0,079
-472,489	800,000	0,032	-0,098
-471,474	-200,000	-0,021	0,100
-470,459	-200,000	0,027	-0,153
-469,445	-200,000	0,000	-0,078
-468,430	800,000	0,042	-0,114
-467,416	-200,000	-0,004	0,079
-466,401	800,000	-0,032	0,086
-465,386	502,872	-0,075	0,126
-464,372	-101,925	0,036	-0,006
-463,357	-56,686	0,214	-0,068
-462,343	117,437	-0,094	-0,083
-461,328	-175,997	-0,008	-0,000
-460,313	800,000	-0,068	0,163
-459,299	-200,000	0,002	0,063
-458,284	-92,678	-0,134	-0,027
-457,270	114,388	0,083	-0,073
-456,255	-134,483	0,109	0,009
-455,241	-200,000	-0,004	-0,033
-454,226	-30,606	-0,082	0,033
-453,211	-97,094	0,083	0,015
-452,197	-17,791	-0,095	-0,043
-451,182	-200,000	0,046	-0,179
-450,168	173,498	-0,046	0,048
-449,153	-200,000	0,005	0,053
-448,138	203,209	-0,078	0,087
-447,124	90,628	-0,100	-0,080
-446,109	243,999	0,053	0,064
-445,095	800,000	0,018	0,057
-444,080	131,510	0,038	-0,035
-443,065	-200,000	0,006	-0,026
-442,051	45,414	0,073	0,048
-441,036	-56,117	-0,105	0,033
-440,022	-200,000	-0,049	-0,191
-439,007	127,979	0,049	-0,045
-437,992	-200,000	-0,020	0,082
-436,978	-200,000	-0,007	0,173
-435,963	171,090	0,016	0,017
-434,949	-137,955	-0,083	0,007
-433,934	-200,000	-0,002	-0,131
-432,919	190,521	0,122	-0,132
-431,905	-200,000	0,001	0,052
-430,890	17,485	0,110	0,063
-429,876	157,106	0,073	0,073
-428,861	-200,000	-0,004	0,165
-427,846	357,601	-0,027	0,039
-426,832	93,173	0,088	0,071
-425,817	800,000	-0,004	0,011
-424,803	30,769	0,037	0,022
-423,788	102,351	0,089	-0,075
-422,773	391,864	0,019	-0,029
-421,759	-101,514	0,149	-0,026
-420,744	394,616	-0,034	0,051
-419,730	-46,801	-0,158	0,055
-418,715	-51,670	-0,126	-0,042
-417,701	-38,853	-0,096	0,036
-416,686	98,755	0,129	-0,106
-415,671	119,526	0,080	-0,071
-414,657	286,197	-0,005	-0,007
-413,642	554,290	0,054	0,094
-412,628	-28,932	0,101	0,041
-411,613	108,074	-0,120	0,103
-410,598	184,803	0,088	-0,094
-409,584	-200,000	0,014	-0,092
-408,569	-95,926	0,181	0,034
-407,555	65,854	-0,104	-0,076
-406,540	297,482	0,066	-0,087
-405,525	-200,000	0,019	-0,083
-404,511	-200,000	-0,020	0,072
-403,496	800,000	-0,041	0,085
-402,482	-200,000	0,017	0,072
-401,467	-185,420	0,160	0,002
-400,452	-200,000	0,029	0,118
-399,438	120,763	0,117	0,104
-398,423	37,111	0,018	-0,011
-397,409	207,101	-0,013	-0,014
-396,394	8,437	-0,052	-0,028
-395,379	-140,047	-0,145	0,011
-394,365	50,495	-0,036	0,025
-393,350	523,137	0,045	-0,075
-392,336	-69,998	0,060	-0,016
-391,321	-200,000	-0,004	-0,019
-390,306	-200,000	0,031	0,101
-389,292	215,912	-0,076	-0,086
-388,277	-6,915	0,053	0,026
-387,263	800,000	0,034	0,095
-386,248	-3,978	0,100	-0,049
-385,233	777,762	0,049	0,097
-384,219	82,026	-0,050	0,039
-383,204	49,177	0,081	0,055
-382,190	105,174	-0,049	-0,042
-381,175	27,193	-0,107	0,064
-380,160	-63,930	0,081	-0,024
-379,146	800,000	0,069	0,211
-378,131	-200,000	-0,006	0,073
-377,117	-28,777	0,103	0,042
-376,102	225,887	-0,041	-0,048
-375,088	800,000	-0,016	0,040
-374,073	121,313	-0,060	0,054
-373,058	56,248	0,017	0,012
-372,044	18,870	0,070	-0,040
-371,029	-107,282	-0,041	0,006
-370,015	800,000	-0,027	-0,078
-369,000	-70,400	-0,031	-0,008
-367,985	452,172	-0,024	-0,039
-366,971	-20,982	-0,086	0,037
-365,956	-200,000	-0,006	-0,086
-364,942	-71,973	0,094	0,025
-363,927	218,011	-0,054	0,062
-362,912	-128,027	-0,121	0,012
-361,898	-50,293	0,025	0,008
-360,883	535,574	0,024	-0,040
-359,869	800,000	-0,085	-0,197
-358,854	800,000	0,080	-0,202
-357,839	-200,000	0,008	0,061
-356,825	-34,042	-0,062	0,024
-355,810	510,186	0,040	-0,067
-354,796	26,545	-0,091	0,055
-353,781	-27,865	-0,102	-0,042
-352,766	-75,547	0,072	0,018
-351,752	-82,992	-0,098	-0,023
-350,737	-200,000	-0,041	0,138
-349,723	120,985	0,061	0,054
-348,708	-200,000	-0,041	0,148
-347,693	179,425	0,009	-0,009
-346,679	800,000	0,070	-0,190
-345,664	-31,313	-0,095	0,038
-344,650	-105,331	-0,036	0,006
-343,635	-200,000	0,001	0,019
-342,620	-200,000	0,021	0,274
-341,606	-200,000	-0,001	0,110
-340,591	-70,084	0,055	0,015
-339,577	-10,410	-0,105	-0,050
-338,562	172,517	0,041	0,042
-337,548	5,653	-0,130	-0,069
-336,533	800,000	-0,041	0,115
-335,518	-200,000	0,029	-0,092
-334,504	-115,434	0,114	-0,015
-333,489	-136,571	0,050	-0,004
-332,475	392,657	-0,108	0,161
-331,460	10,651	-0,098	-0,053
-330,445	87,178	-0,035	0,028
-329,431	800,000	0,063	0,157
-328,416	-200,000	0,034	0,116
-327,402	578,389	-0,042	-0,074
-326,387	-85,331	0,144	0,032
-325,372	0,087	-0,083	-0,042
-324,358	209,637	0,011	0,013
-323,343	9,883	-0,040	-0,022
-322,329	-94,163	-0,057	0,011
-321,314	-167,758	-0,049	-0,001
-320,299	27,520	-0,161	-0,096
-319,285	-48,481	0,062	0,021
-318,270	-200,000	-0,001	0,009
-317,256	259,656	0,028	0,035
-316,241	800,000	-0,058	-0,180
-315,226	35,297	-0,133	0,083
-314,212	-98,892	-0,103	0,018
-313,197	28,179	-0,068	-0,041
-312,183	-200,000	0,022	0,179
-311,168	-16,836	-0,111	-0,050
-310,153	800,000	-0,006	0,013
-309,139	-200,000	0,004	-0,080
-308,124	245,973	-0,063	-0,076
-307,110	275,988	0,075	0,096
-306,095	-200,000	-0,023	-0,100
-305,080	-200,000	0,003	-0,067
-304,066	-70,050	0,064	-0,017
-303,051	133,018	-0,063	-0,058
-302,037	549,476	0,114	-0,195
-301,022	800,000	0,038	0,079
-300,008	15,574	0,150	0,084
-298,993	800,000	0,014	0,040
-297,978	-68,944	0,073	0,020
-296,964	-167,525	-0,079	-0,002
-295,949	-200,000	-0,001	0,017
-294,935	117,388	0,067	-0,058
-293,920	30,288	-0,012	0,008
-292,905	800,000	0,006	0,018
-291,891	-166,610	-0,025	0,001
-290,876	62,646	0,015	0,011
-289,862	-81,016	-0,080	0,019
-288,847	-200,000	0,010	-0,115
-287,832	211,464	-0,095	-0,107
-286,818	107,828	-0,081	0,069
-285,803	158,030	0,069	-0,068
-284,789	-200,000	-0,020	0,076
-283,774	-14,329	0,073	0,033
-282,759	-113,038	-0,144	-0,020
-281,745	352,968	-0,011	-0,015
-280,730	-100,309	-0,079	0,014
-279,716	222,203	-0,034	0,039
-278,701	37,435	0,025	0,016
-277,686	-119,626	0,086	-0,010
-276,672	-132,881	0,096	-0,009
-275,657	111,078	-0,041	-0,035
-274,643	-139,146	-0,116	0,009
-273,628	800,000	-0,047	0,106
-272,613	-200,000	-0,015	0,087
-271,599	-97,980	0,107	-0,019
-270,584	-200,000	-0,007	0,126
-269,570	-48,597	-0,105	0,036
-268,555	211,153	-0,018	-0,020
-267,540	-200,000	-0,041	-0,137
-266,526	-200,000	-0,004	-0,127
-265,511	158,245	-0,052	-0,051
-264,497	503,491	0,012	0,020
-263,482	-0,592	0,121	-0,061
-262,467	-200,000	0,008	0,183
-261,453	-51,205	0,052	0,017
-260,438	798,310	0,016	-0,031
-259,424	727,291	-0,040	-0,076
-258,409	695,017	0,053	0,099
-257,395	800,000	0,034	-0,079
-256,380	-200,000	-0,000	-0,086
-255,365	-11,336	0,123	0,058
-254,351	-54,426	-0,081	0,026
-253,336	-200,000	-0,020	-0,069
-252,322	30,443	-0,060	-0,037
-251,307	-200,000	0,005	-0,126
-250,292	-200,000	0,026	-0,108
-249,278	-33,257	-0,076	-0,030
-248,263	-13,391	0,113	-0,052
-247,249	692,910	0,022	-0,042
-246,234	76,618	-0,058	0,044
-245,219	-68,989	0,091	-0,025
-244,205	-72,878	-0,091	0,024
-243,190	67,790	-0,036	0,027
-242,176	-9,624	0,027	-0,013
-241,161	-125,550	0,079	0,008
-240,146	239,329	0,102	-0,121
-239,132	-68,329	0,110	0,030
-238,117	-200,000	-0,014	0,070
-237,103	-101,047	-0,043	-0,007
-236,088	-200,000	0,024	-0,092
-235,073	800,000	-0,067	0,148
-234,059	-76,161	0,077	0,019
-233,044	559,629	0,029	0,050
-232,030	-42,994	0,088	0,032
-231,015	48,604	0,055	-0,037
-230,000	27,059	0,081	0,048
-228,986	26,984	-0,132	-0,079
-227,971	9,158	-0,048	-0,026
-226,957	697,563	-0,036	0,068
-225,942	-41,943	0,075	0,027
-224,927	82,428	0,056	0,043
-223,913	-185,242	-0,095	-0,001
-222,898	513,809	0,096	-0,160
-221,884	-142,844	0,131	0,009
-220,869	43,864	0,049	-0,032
-219,855	-121,586	0,138	-0,016
-218,840	800,000	-0,013	0,033
-217,825	-5,931	0,079	0,039
-216,811	-200,000	-0,084	-0,000
-215,796	307,642	0,016	0,021
-214,782	800,000	0,041	-0,115
-213,767	800,000	0,020	-0,059
-212,752	800,000	0,033	0,077
-211,738	800,000	0,031	0,079
-210,723	184,698	0,038	0,040
-209,709	216,315	-0,027	0,031
-208,694	210,198	0,053	-0,059
-207,679	-200,000	0,010	-0,091
-206,665	-15,813	0,022	-0,010
-205,650	169,190	-0,078	0,079
-204,636	417,954	0,084	-0,129
-203,621	113,777	0,039	-0,034
-202,606	47,751	0,112	0,074
-201,592	-200,000	-0,033	-0,124
-200,577	-200,000	0,007	-0,032
-199,563	-200,000	-0,026	-0,099
-198,548	599,581	-0,047	0,082
-197,533	-200,000	0,000	0,140
-196,519	159,199	-0,054	0,053
-195,504	452,785	-0,076	0,120
-194,490	462,154	0,084	-0,135
-193,475	-82,785	-0,097	0,022
-192,460	-36,547	0,096	-0,036
-191,446	-110,143	0,070	0,010
-190,431	-71,890	0,009	-0,002
-189,417	59,777	-0,061	0,043
-188,402	135,756	-0,054	0,050
-187,387	106,842	-0,089	0,075
-186,373	-26,095	0,044	0,018
-185,358	63,930	-0,090	0,064
-184,344	359,476	0,083	0,118
-183,329	-7,722	0,146	-0,070
-182,315	-200,000	0,001	0,076
-181,300	238,284	-0,109	-0,129
-180,285	129,267	-0,089	-0,081
-179,271	64,164	-0,127	-0,091
-178,256	800,000	0,007	-0,020
-177,242	-75,980	0,044	-0,011
-176,227	800,000	0,023	0,053
-175,212	-147,404	0,107	-0,006
-174,198	-200,000	0,008	0,035
-173,183	-38,704	-0,179	-0,067
-172,169	-87,293	0,117	-0,025
-171,154	419,502	0,069	0,105
-170,139	800,000	-0,029	-0,080
-169,125	-200,000	0,022	0,099
-168,110	-63,486	0,183	0,053
-167,096	-200,000	-0,028	-0,111
-166,081	800,000	-0,029	-0,081
-165,066	-73,673	0,029	-0,007
-164,052	144,977	-0,022	0,021
-163,037	800,000	0,022	-0,061
-162,023	-166,034	0,127	0,004
-161,008	-200,000	-0,023	-0,161
-159,993	800,000	0,055	0,113
-158,979	167,120	-0,033	-0,033
-157,964	-20,280	0,117	-0,051
-156,950	258,040	-0,090	-0,111
-155,935	-200,000	-0,005	0,052
-154,920	33,688	0,072	0,044
-153,906	419,949	-0,067	0,102
-152,891	-144,671	0,090	0,006
-151,877	-200,000	0,009	0,030
-150,862	-91,734	-0,195	0,039
-149,847	-200,000	-0,016	-0,099
-148,833	134,259	0,084	0,078
-147,818	8,019	0,042	0,023
-146,804	-3,474	-0,055	-0,027
-145,789	-161,303	0,162	-0,006
-144,775	-46,594	-0,135	0,047
-143,760	800,000	-0,035	0,076
-142,745	-200,000	0,009	-0,047
-141,731	-62,993	0,071	-0,021
-140,716	114,758	0,103	0,090
-139,702	-70,965	0,192	0,051
-138,687	771,648	0,050	0,098
-137,672	90,380	0,145	-0,115
-136,658	96,773	-0,060	-0,049
-135,643	-60,634	0,013	0,004
-134,629	76,500	0,096	0,072
-133,614	33,765	-0,082	-0,051
-132,599	-200,000	0,009	-0,101
-131,585	-116,202	0,084	0,011
-130,570	-13,149	-0,078	0,036
-129,556	239,319	0,110	-0,131
-128,541	-23,599	-0,028	-0,012
-127,526	53,894	0,030	-0,021
-126,512	-187,836	0,079	0,001
-125,497	-32,149	0,137	0,054
-124,483	70,411	-0,036	-0,026
-123,468	-200,000	-0,014	-0,149
-122,453	-200,000	-0,031	-0,141
-121,439	-133,850	0,087	-0,008
-120,424	800,000	-0,014	0,030
-119,410	-12,643	-0,072	0,033
-118,395	800,000	-0,064	0,159
-117,380	-107,195	0,074	-0,011
-116,366	537,441	0,027	0,045
-115,351	-127,672	0,054	0,005
-114,337	-64,767	-0,162	-0,046
-113,322	-200,000	0,010	-0,070
-112,307	63,852	0,153	0,109
-111,293	-86,844	-0,087	0,019
-110,278	45,996	0,051	0,033
-109,264	-116,006	-0,108	0,014
-108,249	594,650	-0,060	-0,106
-107,234	425,357	0,033	-0,051
-106,220	-58,906	0,005	-0,002
-105,205	388,067	-0,032	-0,047
-104,191	-200,000	0,023	0,079
-103,176	-73,060	-0,074	-0,019
-102,162	714,615	0,053	-0,099
-101,147	326,873	-0,082	0,112
-100,132	-1,873	-0,136	-0,068
-99,118	13,578	-0,068	-0,037
-98,103	-100,421	-0,092	-0,016
-97,089	16,890	0,050	-0,028
-96,074	-65,121	0,095	-0,027
-95,059	58,282	-0,046	-0,032
-94,045	4,382	-0,074	0,038
-93,030	44,074	0,141	-0,091
-92,016	85,040	-0,087	0,068
-91,001	-58,212	0,090	-0,028
-89,986	800,000	-0,053	0,130
-88,972	2,285	0,071	-0,036
-87,957	-200,000	0,003	0,085
-86,943	-200,000	0,016	0,104
-85,928	-36,983	-0,139	-0,053
-84,913	-1,933	-0,069	-0,034
-83,899	677,071	0,040	0,073
-82,884	-176,645	-0,054	0,001
-81,870	-13,969	0,073	-0,033
-80,855	-200,000	-0,002	0,059
-79,840	800,000	0,062	-0,153
-78,826	-200,000	0,025	-0,089
-77,811	-200,000	0,016	-0,055
-76,797	322,182	0,054	-0,073
-75,782	34,558	0,019	-0,011
-74,767	-16,622	-0,050	-0,022
-73,753	-200,000	0,021	-0,073
-72,738	33,729	0,068	-0,042
-71,724	3,627	0,081	-0,042
-70,709	-200,000	0,008	-0,033
-69,694	512,808	0,043	0,071
-68,680	100,629	0,146	-0,120
-67,665	-200,000	-0,028	-0,100
-66,651	572,253	-0,034	0,059
-65,636	800,000	0,054	-0,106
-64,622	212,996	-0,080	-0,090
-63,607	209,295	0,093	0,103
-62,592	485,524	-0,025	-0,041
-61,578	132,212	0,143	0,131
-60,563	-200,000	0,020	0,118
-59,549	-139,906	-0,014	0,001
-58,534	-38,890	-1,540	-0,571
-57,519	347,327	-1,489	-2,080
-56,505	-200,000	-0,558	-4,502
-55,490	206,512	0,975	1,076
-54,476	800,000	4,741	11,015
-53,461	-200,000	18,665	298,302
-52,446	800,000	732,302	2260,613
-51,432	559,586	1648,204	2826,977
-50,417	78,767	1667,841	1261,095
-49,403	22,304	1541,100	888,539
-48,388	16,248	1464,068	814,769
-47,373	17,725	1454,106	816,310
-46,359	16,985	1444,224	807,194
-45,344	14,502	1439,682	792,761
-44,330	14,402	1437,724	791,174
-43,315	14,434	1436,010	790,348
-42,300	14,423	1434,499	789,434
-41,286	14,465	1433,317	788,953
-40,271	14,421	1431,941	787,956
-39,257	14,453	1430,681	787,384
-38,242	14,493	1429,249	786,752
-37,227	14,452	1428,235	785,971
-36,213	14,503	1426,844	785,414
-35,198	14,507	1425,466	784,643
-34,184	14,494	1424,718	784,137
-33,169	14,436	1423,611	783,225
-32,154	14,501	1422,412	782,843
-31,140	14,456	1421,084	781,865
-30,125	14,458	1420,119	781,312
-29,111	14,478	1418,873	780,693
-28,096	14,483	1417,728	780,056
-27,082	14,394	1416,708	779,043
-26,067	14,407	1415,690	778,515
-25,052	14,372	1414,642	777,742
-24,038	14,328	1413,730	777,004
-23,023	14,378	1412,596	776,583
-22,009	14,366	1411,519	775,905
-20,994	14,380	1410,611	775,439
-19,979	14,381	1409,819	774,979
-18,965	14,328	1408,834	774,159
-17,950	14,335	1407,983	773,695
-16,936	14,356	1406,799	773,109
-15,921	14,253	1405,900	772,106
-14,906	14,277	1404,990	771,687
-13,892	14,321	1404,132	771,389
-12,877	14,254	1403,082	770,468
-11,863	14,305	1402,235	770,212
-10,848	14,280	1401,414	769,614
-9,833	14,227	1400,502	768,836
-8,819	14,217	1399,605	768,265
-7,804	14,223	1398,788	767,815
-6,790	14,174	1397,747	766,985
-5,775	14,201	1396,504	766,401
-4,760	14,212	1395,540	765,890
-3,746	14,156	1394,922	765,260
-2,731	14,187	1393,988	764,864
-1,717	14,179	1393,170	764,346
-0,702	14,191	1391,439	763,423
0,313	18,058	1309,645	736,428
1,327	34,484	705,472	434,677
2,342	52,890	124,016	83,735
3,356	3,119	16,580	8,495
4,371	-1,718	3,293	1,634
5,386	-30,878	0,537	0,213
6,400	800,000	0,046	0,094
7,415	288,723	-0,196	-0,251
8,429	-23,015	-0,182	-0,077
9,444	139,977	-0,219	-0,204
10,459	-43,999	-0,290	-0,102
11,473	-21,593	-0,314	-0,135
12,488	-38,296	-0,161	-0,060
13,502	-133,631	-0,376	-0,033
14,517	97,173	-0,315	-0,255
15,531	-53,914	-0,396	-0,127
16,546	558,430	-0,171	-0,293
17,561	297,850	-0,226	-0,294
18,575	-106,779	-0,277	0,043
19,590	137,366	-0,287	-0,265
20,604	800,000	-0,071	-0,146
21,619	-77,125	-0,574	-0,140
22,634	256,500	-0,267	-0,325
23,648	177,422	-0,417	-0,429
24,663	185,474	-0,352	-0,370
25,677	-3,195	-0,481	-0,236
26,692	8,066	-0,297	-0,157
27,707	123,301	-0,239	-0,211
28,721	126,345	-0,336	-0,300
29,736	6,843	-0,474	-0,248
30,750	72,742	-0,298	-0,219
31,765	102,006	-0,352	-0,289
32,780	268,810	-0,331	-0,410
33,794	41,023	-0,333	-0,212
34,809	85,636	-0,269	-0,208
35,823	78,524	-0,346	-0,261
36,838	130,095	-0,416	-0,376
37,853	296,672	-0,296	-0,383
38,867	99,917	-0,301	-0,246
39,882	-20,014	-0,416	-0,180
40,896	33,662	-0,460	-0,281
41,911	156,432	-0,225	-0,219
42,926	5,707	-0,468	-0,243
43,940	83,836	-0,428	-0,329
44,955	269,680	-0,230	-0,286
45,969	38,961	-0,361	-0,227
46,984	176,538	-0,438	-0,449
47,999	-35,959	-0,379	-0,143
49,013	115,384	-0,285	-0,245
50,028	6,901	-0,218	-0,114
51,042	116,203	-0,413	-0,356
52,057	155,256	-0,396	-0,384
53,071	193,236	-0,263	-0,280
54,086	76,651	-0,295	-0,220
55,101	215,257	-0,281	-0,314
56,115	55,876	-0,300	-0,204
57,130	85,056	-0,461	-0,355
58,144	34,843	-0,247	-0,151
59,159	51,038	-0,491	-0,327
60,174	-11,924	-0,341	-0,157
61,188	125,045	-0,330	-0,292
62,203	206,269	-0,280	-0,307
63,217	144,492	-0,319	-0,300
64,232	35,986	-0,409	-0,253
65,247	117,347	-0,295	-0,255
66,261	-39,843	-0,410	-0,150
67,276	61,020	-0,316	-0,221
68,290	605,915	-0,125	-0,220
69,305	66,948	-0,326	-0,233
70,320	24,220	-0,350	-0,203
71,334	-79,928	-0,268	-0,063
72,349	800,000	-0,110	-0,288
73,363	268,206	-0,308	-0,379
74,378	154,237	-0,304	-0,293
75,393	98,020	-0,218	-0,176
76,407	135,577	-0,225	-0,206
77,422	157,087	-0,232	-0,226
78,436	-28,892	-0,383	-0,154
79,451	-42,789	-0,487	-0,173
80,466	-13,650	-0,302	-0,137
81,480	152,977	-0,229	-0,220
82,495	148,229	-0,274	-0,260
83,509	21,242	-0,326	-0,185
84,524	42,112	-0,225	-0,143
85,539	-49,940	-0,340	-0,113
86,553	3,685	-0,195	-0,100
87,568	130,689	-0,186	-0,167
88,582	144,809	-0,343	-0,322
89,597	100,689	-0,335	-0,273
90,611	66,493	-0,285	-0,203
91,626	-51,670	-0,302	-0,098
92,641	31,232	-0,405	-0,243
93,655	339,476	-0,217	-0,297
94,670	93,512	-0,321	-0,255
95,684	104,224	-0,329	-0,271
96,699	277,084	-0,200	-0,250
97,714	-44,950	-0,256	-0,089
98,728	91,790	-0,278	-0,219
99,743	-89,389	-0,347	-0,071
100,757	-10,799	-0,328	-0,151
101,772	45,370	-0,241	-0,156
102,787	-23,435	-0,454	-0,190
103,801	800,000	-0,139	-0,281
104,816	54,980	-0,181	-0,122
105,830	-128,356	-0,242	0,024
106,845	-37,737	-0,305	-0,113
107,860	130,575	-0,294	-0,264
108,874	211,879	-0,245	-0,270
109,889	361,402	-0,226	-0,318
110,903	163,038	-0,348	-0,343
111,918	-33,923	-0,218	-0,084
112,933	12,402	-0,289	-0,155
113,947	26,052	-0,381	-0,222
114,962	-20,600	-0,299	-0,128
115,976	104,069	-0,328	-0,270
116,991	-26,237	-0,391	-0,160
118,006	-91,553	-0,160	-0,032
119,020	85,112	-0,190	-0,146
120,035	-40,071	-0,206	-0,075
121,049	3,040	-0,244	-0,123
122,064	-27,255	-0,286	-0,116
123,079	120,453	-0,202	-0,175
124,093	147,628	-0,297	-0,280
125,108	135,201	-0,357	-0,324
126,122	51,413	-0,262	-0,174
127,137	-29,042	-0,291	-0,116
128,151	25,756	-0,178	-0,104
129,166	225,499	-0,171	-0,194
130,181	1,105	-0,276	-0,138
131,195	-72,882	-0,289	-0,074
132,210	52,639	-0,260	-0,173
133,224	-93,960	-0,253	-0,048
134,239	97,651	-0,232	-0,186
135,254	334,762	-0,110	-0,150
136,268	54,975	-0,210	-0,141
137,283	-150,832	-0,248	-0,013
138,297	76,213	-0,220	-0,162
139,312	136,219	-0,208	-0,189
140,327	800,000	-0,145	-0,307
141,341	66,364	-0,251	-0,178
142,356	-3,005	-0,283	-0,137
143,370	2,850	-0,232	-0,117
144,385	253,553	-0,217	-0,260
145,400	66,734	-0,298	-0,212
146,414	154,049	-0,325	-0,311
147,429	-45,403	-0,406	-0,140
148,443	-80,457	-0,306	-0,071
149,458	13,026	-0,334	-0,180
150,473	-70,894	-0,085	-0,022
151,487	-200,000	-0,077	-0,260
152,502	329,471	-0,245	-0,330
153,516	162,267	-0,316	-0,310
154,531	-32,892	-0,227	-0,088
155,546	-37,950	-0,268	-0,099
156,560	237,809	-0,155	-0,179
157,575	63,163	-0,152	-0,106
158,589	86,679	-0,207	-0,159
159,604	-101,978	-0,249	0,041
160,619	147,776	-0,213	-0,200
161,633	800,000	-0,139	-0,309
162,648	429,494	-0,245	-0,371
163,662	212,490	-0,260	-0,286
164,677	154,838	-0,300	-0,288
165,692	114,689	-0,319	-0,271
166,706	-80,656	-0,226	-0,052
167,721	105,253	-0,163	-0,134
168,735	-10,270	-0,238	-0,110
169,750	-9,967	-0,289	-0,133
170,764	18,007	-0,242	-0,134
171,779	117,535	-0,244	-0,209
172,794	800,000	-0,091	-0,259
173,808	151,918	-0,149	-0,142
174,823	53,124	-0,223	-0,149
175,837	98,170	-0,284	-0,227
176,852	71,782	-0,128	-0,092
177,867	187,799	-0,198	-0,206
178,881	800,000	-0,118	-0,275
179,896	103,142	-0,219	-0,178
180,910	-200,000	-0,065	-0,218
181,925	-30,099	-0,264	-0,104
182,940	-112,672	-0,249	-0,034
183,954	58,459	-0,253	-0,173
184,969	86,460	-0,195	-0,150
185,983	-153,086	-0,156	0,008
186,998	-14,258	-0,212	-0,095
188,013	386,388	-0,243	-0,349
189,027	361,266	-0,137	-0,191
190,042	31,204	-0,334	-0,199
191,056	27,708	-0,283	-0,166
192,071	-79,729	-0,241	0,056
193,086	67,015	-0,126	-0,089
194,100	129,240	-0,129	-0,114
195,115	-6,038	-0,308	-0,146
196,129	778,378	-0,064	-0,122
197,144	166,175	-0,208	-0,204
198,159	300,302	-0,136	-0,174
199,173	110,791	-0,105	-0,088
200,188	234,800	-0,104	-0,119
201,202	109,092	-0,148	-0,123
202,217	192,567	-0,162	-0,171
203,232	383,156	-0,185	-0,265
204,246	77,809	-0,181	-0,134
205,261	86,368	-0,264	-0,202
206,275	30,929	-0,273	-0,162
207,290	800,000	-0,087	-0,216
208,304	-90,400	-0,141	0,028
209,319	-85,436	-0,141	-0,030
210,334	800,000	-0,063	-0,190
211,348	-1,695	-0,282	-0,137
212,363	-44,811	-0,326	-0,112
213,377	174,513	-0,135	-0,135
214,392	34,388	-0,097	-0,058
215,407	6,609	-0,265	-0,136
216,421	-74,948	-0,082	0,020
217,436	126,838	-0,161	-0,141
218,450	117,353	-0,191	-0,163
219,465	145,425	-0,271	-0,252
220,480	94,605	-0,164	-0,129
221,494	243,443	-0,174	-0,203
222,509	-200,000	-0,052	-0,202
223,523	90,803	-0,228	-0,177
224,538	178,856	-0,149	-0,152
225,553	140,778	-0,100	-0,091
226,567	75,885	-0,294	-0,215
227,582	321,776	-0,251	-0,331
228,596	800,000	-0,127	-0,298
229,611	46,500	-0,312	-0,200
230,626	0,079	-0,167	-0,082
231,640	340,775	-0,170	-0,230
232,655	158,519	-0,183	-0,176
233,669	-200,000	-0,102	-0,318
234,684	114,601	-0,166	-0,140
235,699	262,727	-0,174	-0,210
236,713	226,697	-0,232	-0,261
237,728	7,079	-0,132	0,068
238,742	76,384	-0,130	-0,096
239,757	-34,051	-0,118	-0,045
240,772	-48,766	-0,182	-0,060
241,786	800,000	-0,110	-0,329
242,801	334,417	-0,134	-0,180
243,815	800,000	-0,044	-0,133
244,830	-33,324	-0,198	-0,075
245,844	-125,621	-0,270	-0,028
246,859	800,000	-0,040	-0,094
247,874	106,177	-0,273	-0,224
248,888	207,917	-0,208	-0,225
249,903	-200,000	-0,045	-0,193
250,917	134,906	-0,111	-0,100
251,932	-94,315	-0,116	-0,022
252,947	-80,847	-0,167	0,038
253,961	800,000	-0,075	-0,202
254,976	118,641	-0,163	-0,140
255,990	130,190	-0,236	-0,209
257,005	-19,000	-0,298	-0,128
258,020	-24,253	-0,170	0,070
259,034	386,505	-0,078	-0,112
260,049	341,147	-0,164	-0,222
261,063	376,546	-0,142	-0,200
262,078	40,507	-0,164	-0,102
263,093	295,716	-0,097	-0,123
264,107	-119,054	-0,307	-0,037
265,122	38,100	-0,124	-0,076
266,136	800,000	-0,081	-0,195
267,151	122,986	-0,139	-0,121
268,166	397,510	-0,101	-0,147
269,180	274,227	-0,219	-0,268
270,195	-22,866	-0,137	-0,057
271,209	-200,000	0,001	-0,026
272,224	118,805	-0,085	-0,073
273,239	-200,000	-0,013	-0,124
274,253	800,000	-0,051	-0,126
275,268	57,385	-0,229	-0,154
276,282	26,315	-0,169	-0,097
277,297	-35,740	-0,356	-0,133
278,312	-181,065	-0,121	-0,002
279,326	-29,792	-0,112	0,044
280,341	25,222	-0,206	-0,118
281,355	155,082	-0,137	-0,130
282,370	295,525	-0,114	-0,144
283,384	-7,698	-0,199	-0,093
284,399	52,205	-0,216	-0,142
285,414	-84,169	-0,144	-0,031
286,428	-14,192	-0,094	0,041
287,443	376,078	-0,141	-0,198
288,457	800,000	-0,067	-0,198
289,472	-33,080	-0,232	-0,088
290,487	306,976	-0,200	-0,258
291,501	17,496	-0,172	-0,094
292,516	565,046	-0,148	-0,248
293,530	-11,432	-0,155	-0,070
294,545	184,178	-0,126	-0,129
295,560	46,013	-0,207	-0,132
296,574	105,765	-0,129	-0,105
297,589	7,686	-0,211	-0,108
298,603	527,134	-0,072	-0,118
299,618	28,623	-0,102	-0,060
300,633	-149,542	-0,101	-0,005
301,647	-139,750	-0,167	-0,012
302,662	411,162	-0,046	-0,068
303,676	-39,407	-0,262	-0,094
304,691	-77,707	-0,191	-0,045
305,706	733,965	-0,056	-0,104
306,720	6,923	-0,122	-0,062
307,735	-96,252	-0,114	-0,021
308,749	-119,775	-0,231	-0,027
309,764	-200,000	-0,006	0,078
310,779	-55,556	-0,241	0,074
311,793	-20,989	-0,281	-0,118
312,808	800,000	-0,087	-0,228
313,822	-77,045	-0,184	-0,044
314,837	583,189	-0,105	-0,179
315,852	-200,000	-0,007	-0,091
316,866	-86,218	-0,168	0,035
317,881	-151,990	-0,056	0,003
318,895	-132,400	-0,165	0,014
319,910	-4,575	-0,073	-0,034
320,925	800,000	-0,164	-0,315
321,939	136,021	-0,151	-0,135
322,954	-86,956	-0,160	-0,033
323,968	2,115	-0,195	-0,097
324,983	37,707	-0,057	-0,035
325,997	-86,904	-0,099	0,021
327,012	-22,353	-0,150	-0,062
328,027	114,561	-0,175	-0,146
329,041	120,287	-0,173	-0,147
330,056	6,602	-0,186	-0,095
331,070	-153,756	-0,147	-0,007
332,085	400,512	-0,070	-0,101
333,100	407,150	-0,130	-0,189
334,114	68,744	-0,174	-0,123
335,129	46,835	-0,232	-0,148
336,143	414,966	-0,040	-0,058
337,158	41,149	-0,153	-0,095
338,173	-93,419	-0,077	0,015
339,187	-60,310	-0,102	-0,029
340,202	-88,322	-0,075	0,015
341,216	37,555	-0,163	-0,099
342,231	-25,079	-0,095	-0,038
343,246	-103,709	-0,130	-0,021
344,260	164,341	-0,145	-0,140
345,275	193,119	-0,060	-0,063
346,289	-115,005	-0,301	-0,039
347,304	179,717	-0,178	-0,179
348,319	-71,442	-0,260	-0,066
349,333	140,731	-0,093	-0,084
350,348	-200,000	0,002	-0,188
351,362	-13,023	-0,175	-0,078
352,377	-6,135	-0,200	-0,093
353,392	298,473	-0,101	-0,128
354,406	-106,156	-0,163	-0,025
355,421	209,942	1316,501	1417,538
356,435	161,599	1477,455	1418,037
