DTS Sentinel unit serial number:	SN410029Multiplexer serial number:	ORYXHardware model number:	OX2-SRSoftware version number:	ORYX F/W v4,00 Oryx Data Collector v3.7.2.0data status	okinstallation	B3 Nyhavnadifferential loss correction	single-endedforward channel	channel 1reverse channel	N/Adate	2023/11/29time	10:07:30forward acquisition time	300,00reverse acquisition time	0,00gamma	499,1914k internal	0,3211k external	0,3211temperature offset calibration	1,0000default loss term (dB/km)	0,3820temperature slope calibration	1,0000multiplexer offset coefficient	1,0000multiplexer slope coefficient	1,0000fibre end	0,00T internal ref (°C)	9,32T ext. ref 1 (°C)	-5,50T ext. ref 2 (°C)	-5,63length (m)	temperature (°C)	Stokes	anti-Stokes-744,400	96,397	-0,325	-0,270
-743,385	-200,000	0,029	0,324
-742,371	422,915	-0,130	-0,203
-741,356	-200,000	-0,008	0,320
-740,342	315,406	-0,173	-0,237
-739,327	193,997	-0,152	0,167
-738,312	80,937	-0,234	-0,183
-737,298	800,000	-0,078	0,194
-736,283	53,671	-0,312	-0,217
-735,269	-200,000	-0,023	0,276
-734,254	131,629	-0,170	-0,159
-733,239	24,623	-0,285	0,170
-732,225	200,958	0,015	-0,017
-731,210	258,754	0,151	0,188
-730,196	-92,184	-0,116	-0,024
-729,181	-54,488	-0,032	0,011
-728,167	-200,000	0,020	-0,077
-727,152	-24,404	-0,022	-0,009
-726,137	-200,000	-0,005	-0,088
-725,123	-43,101	-0,118	-0,043
-724,108	-90,074	-0,132	-0,028
-723,094	332,914	-0,111	-0,156
-722,079	-172,805	-0,128	0,003
-721,064	-200,000	0,001	-0,108
-720,050	-200,000	0,008	0,074
-719,035	-69,153	-0,180	0,050
-718,021	-21,214	0,003	0,001
-717,006	221,163	-0,117	-0,136
-715,991	68,035	0,025	-0,018
-714,977	562,329	-0,024	-0,043
-713,962	800,000	-0,031	-0,093
-712,948	-200,000	-0,032	0,234
-711,933	379,803	-0,072	0,107
-710,918	15,233	-0,112	0,063
-709,904	146,697	0,033	0,032
-708,889	307,881	-0,067	-0,091
-707,875	66,465	0,072	-0,053
-706,860	-101,799	0,061	-0,011
-705,845	-13,569	-0,109	-0,051
-704,831	740,215	-0,017	0,034
-703,816	295,113	0,038	-0,050
-702,802	548,042	-0,024	0,042
-701,787	-15,093	-0,214	-0,099
-700,772	-200,000	0,006	-0,049
-699,758	-200,000	0,001	-0,074
-698,743	-200,000	0,004	-0,047
-697,729	800,000	0,043	0,092
-696,714	154,348	-0,072	0,072
-695,699	-200,000	-0,027	-0,114
-694,685	607,331	-0,015	0,028
-693,670	800,000	-0,052	-0,120
-692,656	-21,426	-0,067	0,029
-691,641	549,392	0,048	0,084
-690,627	-200,000	0,031	0,137
-689,612	-200,000	-0,013	0,254
-688,597	46,153	0,078	-0,052
-687,583	-83,915	-0,214	0,049
-686,568	37,185	-0,019	0,012
-685,554	-200,000	0,004	0,032
-684,539	253,767	-0,018	0,022
-683,524	-68,236	0,065	-0,018
-682,510	-85,557	-0,062	-0,014
-681,495	53,762	-0,107	0,074
-680,481	-22,313	0,072	-0,032
-679,466	-200,000	-0,019	-0,080
-678,451	-89,309	-0,083	0,018
-677,437	-200,000	-0,006	-0,049
-676,422	467,832	-0,031	-0,050
-675,408	164,156	-0,056	-0,057
-674,393	207,310	-0,097	-0,109
-673,378	-75,983	-0,079	-0,020
-672,364	-15,405	-0,061	0,028
-671,349	-200,000	0,009	-0,048
-670,335	-13,097	-0,080	-0,037
-669,320	-147,244	-0,088	0,005
-668,305	-83,775	0,061	-0,014
-667,291	-200,000	0,005	-0,113
-666,276	-79,067	0,026	-0,006
-665,262	-105,669	-0,151	-0,024
-664,247	799,910	-0,047	-0,093
-663,232	47,852	-0,063	0,042
-662,218	-160,778	0,013	0,000
-661,203	-200,000	0,000	0,084
-660,189	69,596	-0,163	0,121
-659,174	-200,000	-0,009	-0,135
-658,159	-200,000	0,018	-0,076
-657,145	111,842	-0,116	-0,101
-656,130	642,685	0,073	-0,136
-655,116	181,492	0,059	0,063
-654,101	396,863	-0,020	0,031
-653,086	-105,275	-0,155	0,025
-652,072	-162,077	-0,095	0,003
-651,057	-84,298	-0,073	-0,017
-650,043	97,472	0,116	-0,096
-649,028	-157,042	-0,049	-0,002
-648,014	-24,478	0,091	-0,039
-646,999	-200,000	-0,051	-0,178
-645,984	-200,000	-0,019	-0,127
-644,970	332,089	0,111	-0,156
-643,955	-200,000	-0,039	-0,220
-642,941	93,440	0,111	-0,090
-641,926	195,193	-0,047	0,052
-640,911	-200,000	0,009	-0,088
-639,897	10,791	0,058	-0,032
-638,882	411,652	-0,093	0,144
-637,868	271,554	0,030	-0,039
-636,853	-170,749	-0,139	0,003
-635,838	335,849	-0,054	0,076
-634,824	135,390	0,045	-0,043
-633,809	-200,000	-0,012	-0,064
-632,795	364,752	0,038	-0,056
-631,780	-31,795	0,129	0,052
-630,765	800,000	0,071	-0,146
-629,751	249,339	-0,070	-0,086
-628,736	429,023	-0,041	-0,064
-627,722	800,000	-0,009	0,026
-626,707	83,069	-0,043	0,034
-625,692	214,995	-0,080	-0,092
-624,678	-200,000	-0,010	0,063
-623,663	800,000	-0,036	-0,078
-622,649	525,715	-0,039	-0,066
-621,634	-166,621	-0,079	0,002
-620,619	-200,000	0,004	0,098
-619,605	557,102	0,048	-0,083
-618,590	-119,826	0,045	-0,006
-617,576	-200,000	0,002	0,047
-616,561	-148,851	0,057	0,003
-615,546	800,000	0,017	0,048
-614,532	-24,610	-0,076	-0,032
-613,517	800,000	0,076	-0,195
-612,503	671,797	0,056	0,105
-611,488	23,569	0,070	0,041
-610,474	82,153	-0,056	0,044
-609,459	-158,106	-0,165	0,007
-608,444	800,000	0,029	-0,072
-607,430	188,161	-0,056	-0,061
-606,415	124,247	-0,108	0,098
-605,401	-164,342	-0,049	-0,002
-604,386	136,496	0,048	0,045
-603,371	-11,639	0,169	0,080
-602,357	68,624	-0,046	-0,034
-601,342	800,000	-0,028	0,071
-600,328	-40,989	-0,226	-0,084
-599,313	389,139	-0,029	-0,044
-598,298	229,116	-0,047	0,055
-597,284	-84,972	-0,064	-0,014
-596,269	-9,720	0,097	-0,046
-595,255	-200,000	0,001	-0,009
-594,240	-165,418	-0,022	0,001
-593,225	601,014	-0,065	-0,116
-592,211	800,000	0,033	0,076
-591,196	-200,000	0,023	0,112
-590,182	-200,000	0,007	0,026
-589,167	573,302	0,059	-0,105
-588,152	262,047	-0,051	-0,063
-587,138	800,000	-0,006	0,017
-586,123	497,841	-0,035	0,059
-585,109	-116,635	-0,102	0,013
-584,094	406,473	-0,111	0,169
-583,079	27,441	-0,108	-0,065
-582,065	-57,047	0,054	0,017
-581,050	-200,000	0,006	0,041
-580,036	466,153	0,087	-0,141
-579,021	-200,000	-0,055	0,000
-578,006	698,939	-0,070	-0,133
-576,992	800,000	-0,035	-0,073
-575,977	48,079	0,144	0,097
-574,963	175,123	0,124	0,130
-573,948	-104,177	-0,096	0,016
-572,934	800,000	-0,066	-0,151
-571,919	113,921	-0,034	0,030
-570,904	-87,450	0,029	-0,006
-569,890	-200,000	0,004	-0,175
-568,875	-100,213	-0,072	-0,013
-567,861	535,719	-0,039	-0,067
-566,846	-153,783	-0,070	0,003
-565,831	800,000	0,041	0,098
-564,817	-32,320	-0,037	0,015
-563,802	318,012	-0,054	-0,074
-562,788	-33,580	-0,019	-0,007
-561,773	422,708	0,028	0,044
-560,758	120,394	0,156	-0,139
-559,744	-200,000	0,006	0,088
-558,729	800,000	-0,040	0,103
-557,715	800,000	-0,029	-0,086
-556,700	494,754	0,057	-0,095
-555,685	245,581	-0,068	-0,083
-554,671	-21,688	0,110	0,048
-553,656	-65,244	-0,117	-0,034
-552,642	-99,242	-0,021	0,004
-551,627	134,252	0,092	0,086
-550,612	800,000	-0,009	-0,028
-549,598	-118,496	-0,035	0,004
-548,583	-200,000	0,004	0,085
-547,569	-141,475	-0,002	0,000
-546,554	-200,000	0,021	0,085
-545,539	225,516	-0,093	0,109
-544,525	97,228	-0,059	-0,048
-543,510	29,594	-0,045	0,028
-542,496	307,664	-0,045	-0,060
-541,481	800,000	0,048	-0,107
-540,466	5,676	-0,143	0,076
-539,452	800,000	0,037	-0,090
-538,437	265,446	-0,061	0,076
-537,423	-81,199	-0,012	0,003
-536,408	-50,944	0,140	0,047
-535,393	-200,000	0,003	0,050
-534,379	192,659	0,066	0,071
-533,364	27,226	-0,046	0,028
-532,350	208,232	-0,060	-0,067
-531,335	51,964	0,124	0,084
-530,321	-200,000	0,049	0,229
-529,306	428,016	-0,078	0,122
-528,291	-181,563	-0,148	-0,002
-527,277	800,000	-0,034	-0,107
-526,262	391,209	-0,095	-0,142
-525,248	-38,876	0,142	0,053
-524,233	609,001	-0,048	0,087
-523,218	356,870	-0,078	0,112
-522,204	-14,203	-0,128	0,059
-521,189	-200,000	0,030	0,173
-520,175	-184,171	-0,106	0,001
-519,160	92,442	0,147	-0,119
-518,145	-200,000	-0,003	-0,033
-517,131	-200,000	-0,002	-0,008
-516,116	-47,615	0,057	-0,020
-515,102	62,941	-0,079	-0,056
-514,087	-13,999	-0,137	-0,063
-513,072	366,609	-0,026	0,038
-512,058	12,299	-0,091	0,050
-511,043	-200,000	0,025	-0,129
-510,029	800,000	0,055	-0,128
-509,014	-200,000	-0,007	0,070
-507,999	754,753	-0,078	-0,153
-506,985	456,521	-0,046	-0,073
-505,970	-200,000	-0,014	0,061
-504,956	571,947	-0,094	-0,166
-503,941	-200,000	-0,016	-0,136
-502,926	-200,000	0,002	-0,051
-501,912	-17,303	0,016	0,007
-500,897	-200,000	0,010	-0,127
-499,883	-200,000	0,016	-0,072
-498,868	344,694	0,050	-0,071
-497,853	-200,000	-0,001	-0,101
-496,839	-77,888	0,029	-0,007
-495,824	10,235	-0,092	0,050
-494,810	-110,496	0,146	-0,021
-493,795	164,131	-0,008	0,008
-492,781	173,981	0,101	-0,105
-491,766	800,000	-0,050	-0,105
-490,751	99,822	-0,091	0,076
-489,737	-101,936	-0,087	-0,015
-488,722	1,340	0,024	0,012
-487,708	-126,944	0,062	0,006
-486,693	201,956	0,038	0,042
-485,678	-0,075	0,016	-0,008
-484,664	-200,000	-0,001	-0,010
-483,649	118,529	0,057	-0,050
-482,635	-200,000	0,016	-0,180
-481,620	465,235	0,045	-0,073
-480,605	301,345	0,111	0,148
-479,591	-58,642	0,116	0,036
-478,576	611,698	-0,011	0,020
-477,562	140,140	-0,041	0,038
-476,547	-200,000	0,022	-0,110
-475,532	-52,484	-0,006	-0,002
-474,518	170,530	-0,021	0,022
-473,503	7,513	0,015	-0,008
-472,489	-148,498	0,103	0,006
-471,474	-200,000	-0,019	0,086
-470,459	-151,510	0,055	-0,003
-469,445	-45,818	-0,054	-0,019
-468,430	-17,596	0,049	-0,022
-467,416	-200,000	-0,001	-0,008
-466,401	-200,000	0,034	0,245
-465,386	670,612	-0,006	-0,011
-464,372	-130,220	-0,044	0,004
-463,357	-200,000	0,021	-0,157
-462,343	98,126	-0,098	-0,081
-461,328	197,224	-0,083	0,090
-460,313	800,000	0,042	0,090
-459,299	-89,459	0,106	0,022
-458,284	68,402	0,195	0,143
-457,270	103,890	-0,057	0,048
-456,255	0,144	-0,079	-0,040
-455,241	-3,231	-0,097	0,048
-454,226	800,000	0,034	-0,088
-453,211	260,762	-0,028	0,035
-452,197	-65,628	-0,039	0,011
-451,182	-200,000	0,019	0,143
-450,168	-19,089	-0,073	0,032
-449,153	-200,000	-0,027	-0,092
-448,138	523,107	-0,083	-0,141
-447,124	-200,000	-0,039	-0,144
-446,109	124,775	-0,116	0,104
-445,095	74,327	0,064	0,048
-444,080	-200,000	0,037	0,116
-443,065	-158,379	-0,157	0,006
-442,051	-200,000	0,035	0,180
-441,036	-200,000	-0,009	-0,062
-440,022	-37,673	-0,069	0,026
-439,007	203,673	0,134	0,149
-437,992	51,618	0,058	-0,040
-436,978	62,444	0,056	0,040
-435,963	-130,798	-0,095	-0,009
-434,949	229,700	0,054	0,063
-433,934	655,127	0,027	-0,049
-432,919	-200,000	0,040	-0,161
-431,905	800,000	0,023	-0,055
-430,890	663,684	-0,040	0,074
-429,876	-140,377	-0,056	0,004
-428,861	178,874	-0,016	-0,017
-427,846	-41,063	0,093	0,034
-426,832	141,987	0,047	-0,045
-425,817	2,507	-0,028	0,015
-424,803	110,740	0,073	-0,063
-423,788	219,014	-0,068	-0,078
-422,773	800,000	0,084	0,223
-421,759	-200,000	-0,005	0,048
-420,744	-200,000	0,011	0,079
-419,730	496,585	0,054	0,090
-418,715	-200,000	-0,039	-0,130
-417,701	71,786	-0,025	-0,019
-416,686	550,629	0,110	-0,190
-415,671	-63,710	-0,112	0,033
-414,657	-200,000	0,009	0,033
-413,642	147,673	-0,015	-0,015
-412,628	-200,000	-0,006	-0,019
-411,613	800,000	0,028	-0,076
-410,598	-179,756	0,103	0,002
-409,584	6,776	-0,076	0,041
-408,569	67,115	-0,065	-0,047
-407,555	46,104	-0,025	0,016
-406,540	147,217	-0,044	-0,042
-405,525	0,175	-0,018	0,009
-404,511	95,978	0,028	0,023
-403,496	-71,286	-0,096	0,026
-402,482	800,000	-0,030	0,064
-401,467	-27,304	0,087	0,036
-400,452	-141,309	0,088	-0,006
-399,438	162,678	-0,072	-0,072
-398,423	-41,445	-0,119	0,044
-397,409	-200,000	-0,010	-0,107
-396,394	178,846	-0,049	-0,051
-395,379	-200,000	0,009	-0,097
-394,365	204,251	0,067	0,074
-393,350	-3,714	0,108	-0,053
-392,336	330,875	0,091	0,126
-391,321	-54,259	-0,030	0,010
-390,306	137,869	-0,089	-0,083
-389,292	-200,000	-0,002	-0,186
-388,277	45,154	-0,081	0,053
-387,263	71,764	-0,104	-0,077
-386,248	-86,668	0,137	0,030
-385,233	-200,000	-0,013	0,054
-384,219	-200,000	0,004	0,037
-383,204	310,943	-0,012	0,015
-382,190	-17,038	-0,193	-0,087
-381,175	189,386	-0,049	-0,053
-380,160	467,641	0,047	0,076
-379,146	137,189	-0,064	0,060
-378,131	87,604	0,071	0,056
-377,117	302,765	0,062	0,082
-376,102	800,000	-0,047	-0,123
-375,088	-175,541	0,072	-0,001
-374,073	100,137	0,027	0,022
-373,058	113,276	-0,036	-0,032
-372,044	-7,542	0,133	-0,064
-371,029	-200,000	-0,005	0,020
-370,015	111,303	-0,030	-0,026
-369,000	50,826	-0,055	-0,037
-367,985	800,000	0,035	-0,078
-366,971	800,000	-0,021	0,055
-365,956	123,975	0,063	0,057
-364,942	430,018	0,045	0,071
-363,927	365,699	0,064	0,092
-362,912	-13,719	-0,085	-0,039
-361,898	800,000	0,055	0,155
-360,883	-200,000	-0,014	-0,053
-359,869	800,000	0,053	-0,135
-358,854	109,202	0,040	0,034
-357,839	264,703	-0,057	0,072
-356,825	91,785	-0,081	0,065
-355,810	653,258	0,053	0,097
-354,796	-120,046	-0,025	0,003
-353,781	163,519	-0,041	0,042
-352,766	-200,000	0,012	-0,098
-351,752	66,959	0,023	0,017
-350,737	800,000	0,048	0,133
-349,723	-200,000	-0,034	0,154
-348,708	38,429	0,099	0,063
-347,693	800,000	0,018	0,040
-346,679	29,476	-0,134	0,081
-345,664	203,458	-0,086	-0,095
-344,650	800,000	0,035	0,101
-343,635	434,933	-0,023	0,036
-342,620	-109,159	0,022	0,003
-341,606	-45,760	-0,051	0,018
-340,591	-200,000	0,000	-0,013
-339,577	423,151	0,064	-0,099
-338,562	-200,000	-0,002	0,075
-337,548	-200,000	0,014	0,102
-336,533	24,529	0,127	-0,075
-335,518	98,486	0,069	-0,057
-334,504	189,672	0,024	0,026
-333,489	-200,000	-0,003	0,058
-332,475	800,000	-0,020	-0,045
-331,460	-200,000	0,009	0,031
-330,445	-200,000	-0,027	-0,154
-329,431	-57,643	0,125	-0,039
-328,416	-200,000	-0,043	0,147
-327,402	39,632	-0,047	-0,030
-326,387	213,542	-0,082	0,093
-325,372	204,157	0,108	0,120
-324,358	-200,000	-0,004	-0,062
-323,343	326,571	0,032	-0,044
-322,329	-200,000	-0,033	-0,130
-321,314	157,967	0,139	0,138
-320,299	-200,000	0,009	-0,136
-319,285	77,807	-0,033	0,025
-318,270	-31,668	0,107	0,043
-317,256	800,000	0,054	-0,153
-316,241	-65,737	0,116	0,033
-315,226	-104,479	-0,127	-0,021
-314,212	-200,000	0,002	-0,022
-313,197	-25,654	0,098	0,041
-312,183	-200,000	-0,024	0,123
-311,168	426,715	-0,073	-0,112
-310,153	152,681	-0,101	-0,099
-309,139	34,830	-0,094	-0,058
-308,124	-200,000	0,014	0,075
-307,110	-154,343	-0,056	0,003
-306,095	-200,000	0,020	0,120
-305,080	-136,427	0,055	0,004
-304,066	-200,000	0,040	-0,191
-303,051	-83,535	-0,118	-0,027
-302,037	-119,457	0,090	-0,011
-301,022	747,434	-0,034	0,066
-300,008	-67,926	0,050	0,014
-298,993	-108,737	0,166	-0,025
-297,978	-185,263	0,027	-0,000
-296,964	202,898	-0,030	-0,033
-295,949	800,000	0,040	-0,109
-294,935	103,986	0,046	0,038
-293,920	155,427	0,089	-0,088
-292,905	325,809	0,123	0,169
-291,891	-97,376	0,053	0,010
-290,876	55,894	-0,053	0,037
-289,862	-34,806	0,093	-0,036
-288,847	-200,000	0,010	-0,099
-287,832	5,392	0,037	-0,019
-286,818	-85,814	-0,016	-0,003
-285,803	800,000	0,031	0,065
-284,789	510,507	0,070	-0,117
-283,774	434,022	-0,061	-0,094
-282,759	133,171	0,112	0,104
-281,745	-200,000	0,019	-0,117
-280,730	227,629	0,041	-0,047
-279,716	52,951	0,041	0,028
-278,701	-200,000	0,017	-0,079
-277,686	-80,391	0,048	-0,011
-276,672	-48,856	0,027	0,009
-275,657	-9,052	-0,066	0,032
-274,643	408,883	-0,044	0,066
-273,628	-97,330	-0,156	0,029
-272,613	-99,021	-0,095	0,017
-271,599	-200,000	0,008	0,081
-270,584	471,274	-0,013	0,021
-269,570	-200,000	-0,005	0,227
-268,555	90,781	0,065	-0,052
-267,540	800,000	0,052	-0,120
-266,526	-200,000	-0,024	-0,155
-265,511	-28,692	-0,066	-0,027
-264,497	77,973	0,121	0,092
-263,482	744,903	0,091	0,175
-262,467	-104,035	-0,093	0,015
-261,453	79,130	-0,023	-0,018
-260,438	-115,598	-0,092	0,012
-259,424	110,615	-0,059	-0,050
-258,409	162,728	-0,012	0,012
-257,395	-173,413	0,027	0,001
-256,380	-200,000	0,000	-0,014
-255,365	800,000	-0,016	-0,039
-254,351	78,216	0,080	-0,060
-253,336	-99,720	-0,115	0,020
-252,322	92,501	0,077	-0,062
-251,307	71,680	-0,071	0,053
-250,292	-50,764	0,022	0,007
-249,278	-77,684	0,183	-0,045
-248,263	572,568	0,019	0,033
-247,249	-89,122	-0,109	-0,023
-246,234	-200,000	-0,011	0,059
-245,219	367,842	-0,053	0,077
-244,205	-200,000	0,004	-0,140
-243,190	143,367	0,051	0,048
-242,176	-134,534	0,070	0,006
-241,161	-200,000	-0,022	0,086
-240,146	-163,936	0,075	-0,002
-239,132	-148,518	-0,016	-0,001
-238,117	-133,754	-0,127	-0,011
-237,103	606,708	-0,065	-0,116
-236,088	800,000	-0,027	0,059
-235,073	280,755	-0,035	0,045
-234,059	-88,373	0,066	0,014
-233,044	139,665	0,099	-0,093
-232,030	-200,000	-0,013	0,043
-231,015	71,137	-0,075	0,055
-230,000	-200,000	-0,006	-0,048
-228,986	800,000	0,028	0,087
-227,971	-200,000	0,014	0,126
-226,957	-105,994	0,045	0,007
-225,942	800,000	-0,045	0,116
-224,927	238,258	0,102	0,121
-223,913	-200,000	-0,020	-0,158
-222,898	-175,867	0,042	0,001
-221,884	-89,869	-0,112	0,023
-220,869	-166,691	0,095	0,003
-219,855	-200,000	-0,009	0,093
-218,840	499,894	-0,046	0,075
-217,825	25,812	-0,049	0,029
-216,811	63,328	-0,087	-0,062
-215,796	-133,126	-0,042	0,004
-214,782	-83,117	0,072	0,016
-213,767	-88,267	0,108	0,023
-212,752	-67,572	-0,057	-0,016
-211,738	-200,000	0,028	0,133
-210,723	215,271	0,078	0,088
-209,709	281,748	0,033	-0,043
-208,694	585,545	0,021	0,036
-207,679	41,840	-0,180	0,116
-206,665	800,000	0,032	0,064
-205,650	-135,859	0,087	-0,007
-204,636	413,473	-0,086	0,130
-203,621	63,371	-0,138	0,098
-202,606	-86,951	0,145	0,031
-201,592	564,693	-0,073	-0,125
-200,577	-200,000	-0,003	-0,065
-199,563	-200,000	0,054	0,181
-198,548	17,539	-0,073	0,041
-197,533	28,032	0,021	0,013
-196,519	-83,383	0,076	-0,017
-195,504	-200,000	-0,065	-0,215
-194,490	-200,000	-0,014	-0,119
-193,475	73,575	0,064	0,048
-192,460	-200,000	0,018	-0,065
-191,446	-180,321	0,040	0,001
-190,431	399,815	0,075	-0,112
-189,417	-64,571	0,073	0,021
-188,402	272,443	-0,014	-0,018
-187,387	73,618	0,145	0,108
-186,373	344,140	-0,045	-0,062
-185,358	260,637	0,077	0,094
-184,344	-196,518	-0,087	-0,000
-183,329	345,748	-0,063	0,088
-182,315	591,957	-0,036	0,063
-181,300	-200,000	-0,013	-0,227
-180,285	-200,000	0,005	0,034
-179,271	16,521	0,059	-0,033
-178,256	800,000	-0,053	-0,124
-177,242	-200,000	0,037	0,128
-176,227	-12,632	0,176	0,081
-175,212	3,761	-0,038	0,020
-174,198	800,000	-0,012	0,029
-173,183	-135,717	0,087	-0,007
-172,169	800,000	0,030	-0,067
-171,154	136,495	-0,020	-0,019
-170,139	-53,445	-0,054	0,017
-169,125	-200,000	0,002	-0,081
-168,110	-200,000	-0,011	0,057
-167,096	800,000	-0,037	0,076
-166,081	-200,000	-0,026	-0,100
-165,066	-31,544	-0,066	0,026
-164,052	-178,275	0,051	-0,001
-163,037	272,786	0,020	-0,025
-162,023	561,767	0,049	0,084
-161,008	90,312	0,132	0,105
-159,993	329,719	0,035	0,048
-158,979	-200,000	0,000	-0,041
-157,964	-40,304	-0,089	-0,033
-156,950	265,894	-0,057	-0,070
-155,935	471,841	0,082	0,131
-154,920	-200,000	-0,007	0,114
-153,906	800,000	0,054	0,107
-152,891	-200,000	0,006	0,048
-151,877	800,000	-0,017	-0,053
-150,862	295,265	0,067	0,087
-149,847	800,000	-0,043	-0,099
-148,833	305,593	-0,113	-0,149
-147,818	800,000	-0,030	-0,088
-146,804	-200,000	0,007	0,055
-145,789	-61,020	-0,173	0,052
-144,775	22,366	0,021	-0,012
-143,760	690,307	-0,039	-0,073
-142,745	162,969	-0,088	-0,087
-141,731	-0,753	0,066	0,033
-140,716	800,000	0,059	0,152
-139,702	-200,000	-0,001	0,077
-138,687	-25,886	0,060	0,025
-137,672	-150,807	-0,061	-0,003
-136,658	-63,648	0,130	-0,037
-135,643	124,741	-0,091	-0,082
-134,629	144,980	-0,035	0,033
-133,614	-98,481	-0,030	0,005
-132,599	800,000	-0,026	-0,073
-131,585	222,238	-0,021	0,024
-130,570	-52,521	-0,087	-0,028
-129,556	24,516	-0,084	0,049
-128,541	-11,288	0,052	-0,024
-127,526	156,834	0,126	0,123
-126,512	377,528	0,055	0,079
-125,497	-200,000	-0,009	0,070
-124,483	-200,000	-0,005	0,211
-123,468	310,594	0,036	-0,048
-122,453	800,000	0,030	0,081
-121,439	-0,911	0,062	-0,031
-120,424	-46,195	-0,132	-0,046
-119,410	-125,252	0,112	0,012
-118,395	288,834	0,117	-0,150
-117,380	57,164	0,044	-0,031
-116,366	-200,000	-0,009	-0,080
-115,351	800,000	-0,057	-0,127
-114,337	64,228	-0,083	0,059
-113,322	-200,000	-0,030	-0,192
-112,307	-200,000	0,031	0,113
-111,293	65,630	-0,018	0,013
-110,278	191,880	-0,042	-0,045
-109,264	800,000	-0,068	-0,175
-108,249	-200,000	0,020	-0,115
-107,234	-200,000	-0,011	0,046
-106,220	391,463	-0,094	0,138
-105,205	139,223	-0,074	0,069
-104,191	106,359	0,083	0,070
-103,176	-137,415	-0,032	-0,003
-102,162	800,000	-0,032	0,087
-101,147	-134,371	-0,045	-0,004
-100,132	243,878	-0,086	-0,102
-99,118	265,128	-0,043	-0,053
-98,103	-12,250	-0,017	0,008
-97,089	-200,000	-0,004	0,065
-96,074	-200,000	-0,002	0,104
-95,059	-200,000	-0,018	-0,059
-94,045	800,000	0,042	-0,099
-93,030	-8,654	-0,040	0,019
-92,016	-181,503	0,182	-0,002
-91,001	800,000	-0,054	0,116
-89,986	16,662	0,046	0,026
-88,972	-140,722	-0,126	-0,009
-87,957	800,000	-0,013	0,034
-86,943	598,680	0,064	0,113
-85,928	-96,841	-0,054	0,010
-84,913	-29,697	-0,124	0,050
-83,899	-103,310	-0,168	0,028
-82,884	108,894	0,037	-0,031
-81,870	-56,876	0,144	0,045
-80,855	-200,000	-0,005	-0,041
-79,840	63,018	-0,069	-0,049
-78,826	-18,326	-0,105	-0,046
-77,811	-50,861	0,085	-0,028
-76,797	-200,000	0,025	-0,093
-75,782	-107,624	0,048	-0,007
-74,767	-200,000	0,007	0,081
-73,753	-98,203	0,085	0,015
-72,738	800,000	-0,041	0,118
-71,724	-200,000	-0,008	-0,073
-70,709	420,453	0,023	-0,035
-69,694	-200,000	0,001	-0,077
-68,680	800,000	0,028	-0,064
-67,665	-200,000	0,003	0,102
-66,651	-200,000	-0,011	-0,051
-65,636	-200,000	0,005	0,020
-64,622	-123,769	-0,117	0,013
-63,607	800,000	0,042	-0,124
-62,592	800,000	0,014	-0,035
-61,578	-71,002	0,078	-0,021
-60,563	393,898	0,085	0,126
-59,549	800,000	0,009	0,026
-58,534	47,836	-2,000	-1,316
-57,519	461,613	-1,240	-1,958
-56,505	-200,000	-0,369	-4,311
-55,490	800,000	0,845	1,658
-54,476	800,000	5,180	11,425
-53,461	-200,000	21,634	341,629
-52,446	800,000	762,955	2331,925
-51,432	543,358	1659,856	2805,724
-50,417	70,796	1655,792	1208,257
-49,403	17,054	1529,800	853,185
-48,388	11,143	1453,450	782,097
-47,373	19,198	1445,462	816,318
-46,359	14,603	1434,295	788,192
-45,344	9,449	1430,227	761,452
-44,330	9,374	1428,351	760,065
-43,315	9,383	1426,693	759,195
-42,300	9,322	1425,002	757,977
-41,286	9,392	1423,563	757,511
-40,271	9,368	1422,167	756,627
-39,257	9,380	1421,150	756,111
-38,242	9,369	1420,136	755,488
-37,227	9,396	1419,138	755,057
-36,213	9,411	1417,644	754,300
-35,198	9,426	1416,499	753,733
-34,184	9,411	1415,634	753,173
-33,169	9,375	1413,971	752,090
-32,154	9,424	1413,143	751,850
-31,140	9,368	1412,085	750,993
-30,125	9,463	1410,627	750,632
-29,111	9,391	1409,733	749,790
-28,096	9,395	1408,272	749,004
-27,082	9,297	1407,310	748,002
-26,067	9,335	1406,317	747,622
-25,052	9,429	1404,810	747,232
-24,038	9,427	1404,056	746,792
-23,023	9,355	1403,311	746,029
-22,009	9,351	1402,229	745,408
-20,994	9,367	1401,160	744,883
-19,979	9,336	1400,300	744,249
-18,965	9,341	1399,312	743,719
-17,950	9,303	1398,454	743,056
-16,936	9,280	1397,398	742,359
-15,921	9,251	1396,510	741,724
-14,906	9,274	1395,761	741,403
-13,892	9,318	1394,515	740,918
-12,877	9,258	1393,992	740,329
-11,863	9,247	1393,128	739,790
-10,848	9,283	1392,012	739,335
-9,833	9,164	1391,360	738,413
-8,819	9,177	1390,402	737,935
-7,804	9,174	1389,373	737,342
-6,790	9,159	1388,323	736,687
-5,775	9,143	1387,420	736,107
-4,760	9,191	1386,447	735,781
-3,746	9,180	1385,610	735,258
-2,731	9,176	1384,587	734,665
-1,717	9,145	1383,685	734,016
-0,702	9,200	1381,969	733,328
0,313	13,348	1294,358	705,711
1,327	29,863	685,363	410,864
2,342	46,360	118,065	77,055
3,356	2,283	16,373	8,321
4,371	2,209	3,590	1,823
5,386	-7,738	1,200	0,570
6,400	-200,000	0,168	0,685
7,415	61,241	-0,220	-0,154
8,429	-28,569	-0,311	-0,126
9,444	38,656	-0,284	-0,178
10,459	21,089	-0,370	-0,211
11,473	-11,532	-0,382	-0,176
12,488	-59,137	-0,163	0,049
13,502	37,864	-0,386	-0,241
14,517	195,224	-0,310	-0,333
15,531	800,000	-0,167	-0,344
16,546	152,454	-0,248	-0,238
17,561	121,305	-0,380	-0,333
18,575	-99,036	-0,248	-0,044
19,590	159,238	-0,254	-0,249
20,604	-49,628	-0,275	-0,092
21,619	-29,174	-0,547	-0,220
22,634	53,457	-0,429	-0,289
23,648	7,694	-0,432	-0,227
24,663	80,249	-0,315	-0,238
25,677	-147,454	-0,282	-0,016
26,692	37,760	-0,336	-0,209
27,707	128,769	-0,322	-0,289
28,721	17,110	-0,448	-0,249
29,736	45,258	-0,414	-0,268
30,750	174,866	-0,352	-0,359
31,765	71,773	-0,356	-0,260
32,780	244,554	-0,328	-0,389
33,794	-28,067	-0,319	-0,129
34,809	51,121	-0,335	-0,223
35,823	93,127	-0,392	-0,312
36,838	68,640	-0,437	-0,315
37,853	127,763	-0,338	-0,302
38,867	117,132	-0,405	-0,350
39,882	20,387	-0,385	-0,218
40,896	50,923	-0,343	-0,228
41,911	62,171	-0,415	-0,291
42,926	75,215	-0,380	-0,281
43,940	34,637	-0,407	-0,249
44,955	74,586	-0,458	-0,338
45,969	184,345	-0,316	-0,329
46,984	140,098	-0,436	-0,404
47,999	165,132	-0,341	-0,338
49,013	79,495	-0,183	-0,137
50,028	-22,256	-0,265	-0,112
51,042	101,162	-0,278	-0,227
52,057	105,453	-0,280	-0,232
53,071	7,833	-0,264	-0,138
54,086	55,785	-0,196	-0,133
55,101	2,827	-0,417	-0,212
56,115	-75,634	-0,390	-0,096
57,130	-48,628	-0,458	-0,154
58,144	6,613	-0,361	-0,188
59,159	-41,214	-0,431	-0,155
60,174	139,237	-0,344	-0,317
61,188	177,014	-0,270	-0,276
62,203	26,589	-0,372	-0,218
63,217	135,466	-0,270	-0,246
64,232	51,083	-0,305	-0,202
65,247	126,477	-0,252	-0,223
66,261	-39,293	-0,344	-0,126
67,276	75,008	-0,258	-0,191
68,290	146,475	-0,293	-0,276
69,305	662,248	-0,163	-0,297
70,320	59,028	-0,321	-0,221
71,334	47,969	-0,316	-0,206
72,349	243,532	-0,266	-0,313
73,363	-18,466	-0,340	-0,148
74,378	146,018	-0,291	-0,273
75,393	-98,692	-0,241	-0,043
76,407	-9,685	-0,303	-0,141
77,422	-31,493	-0,265	-0,104
78,436	-153,256	-0,352	-0,017
79,451	26,718	-0,285	-0,167
80,466	-79,945	-0,330	-0,077
81,480	43,606	-0,326	-0,209
82,495	60,343	-0,337	-0,233
83,509	143,909	-0,244	-0,228
84,524	29,570	-0,313	-0,186
85,539	-30,461	-0,294	-0,116
86,553	-71,662	-0,221	-0,057
87,568	100,999	-0,298	-0,243
88,582	7,362	-0,400	-0,208
89,597	139,411	-0,252	-0,232
90,611	-4,542	-0,227	-0,109
91,626	293,888	-0,171	-0,220
92,641	-7,526	-0,231	-0,109
93,655	95,460	-0,241	-0,192
94,670	29,313	-0,392	-0,232
95,684	246,553	-0,292	-0,345
96,699	202,085	-0,212	-0,229
97,714	38,400	-0,222	-0,138
98,728	158,238	-0,120	-0,116
99,743	-119,267	-0,185	-0,022
100,757	23,128	-0,177	-0,101
101,772	-48,295	-0,256	-0,086
102,787	64,802	-0,325	-0,229
103,801	275,442	-0,218	-0,271
104,816	77,876	-0,343	-0,255
105,830	234,492	-0,155	-0,179
106,845	20,838	-0,384	-0,217
107,860	123,540	-0,268	-0,234
108,874	-89,218	-0,312	-0,064
109,889	98,816	-0,170	-0,137
110,903	4,855	-0,296	-0,151
111,918	90,524	-0,281	-0,220
112,933	-100,944	-0,432	-0,073
113,947	-50,670	-0,269	-0,088
114,962	82,398	-0,248	-0,188
115,976	59,587	-0,220	-0,151
116,991	-55,181	-0,409	-0,128
118,006	80,146	-0,192	-0,144
119,020	-89,511	-0,372	-0,076
120,035	417,550	-0,073	-0,109
121,049	184,074	-0,178	-0,185
122,064	96,584	-0,222	-0,178
123,079	-71,440	-0,398	-0,103
124,093	31,234	-0,196	-0,117
125,108	131,246	-0,263	-0,236
126,122	105,437	-0,191	-0,157
127,137	116,420	-0,269	-0,230
128,151	-4,973	-0,296	-0,142
129,166	-9,404	-0,261	-0,121
130,181	-8,467	-0,221	-0,103
131,195	-8,414	-0,375	-0,175
132,210	29,895	-0,347	-0,205
133,224	7,931	-0,289	-0,151
134,239	10,318	-0,315	-0,167
135,254	-168,784	-0,450	0,012
136,268	-143,769	-0,341	-0,022
137,283	-148,729	-0,230	-0,013
138,297	176,960	-0,182	-0,185
139,312	82,623	-0,302	-0,228
140,327	387,720	-0,159	-0,230
141,341	26,004	-0,334	-0,194
142,356	147,298	-0,288	-0,270
143,370	-166,496	-0,286	-0,008
144,385	-40,671	-0,214	-0,077
145,400	166,444	-0,254	-0,251
146,414	-22,826	-0,222	-0,093
147,429	125,880	-0,315	-0,277
148,443	-36,562	-0,318	-0,119
149,458	163,997	-0,150	-0,147
150,473	-8,154	-0,268	-0,125
151,487	55,834	-0,184	-0,124
152,502	40,180	-0,233	-0,145
153,516	111,390	-0,247	-0,207
154,531	18,481	-0,336	-0,186
155,546	44,450	-0,197	-0,126
156,560	350,164	-0,114	-0,157
157,575	201,617	-0,133	-0,142
158,589	68,566	-0,336	-0,240
159,604	42,900	-0,226	-0,143
160,619	57,184	-0,251	-0,170
161,633	208,735	-0,179	-0,195
162,648	54,500	-0,269	-0,180
163,662	-55,430	-0,429	-0,133
164,677	-67,442	-0,169	-0,046
165,692	-30,122	-0,252	-0,099
166,706	38,421	-0,199	-0,123
167,721	-68,755	-0,354	-0,094
168,735	247,802	-0,327	-0,384
169,750	-17,358	-0,339	-0,148
170,764	-108,586	-0,237	-0,035
171,779	-183,017	-0,238	-0,003
172,794	218,533	-0,091	-0,101
173,808	66,352	-0,175	-0,123
174,823	159,511	-0,201	-0,194
175,837	175,394	-0,200	-0,202
176,852	-53,124	-0,338	-0,107
177,867	-119,094	-0,241	-0,029
178,881	41,284	-0,132	-0,083
179,896	-25,405	-0,258	-0,105
180,910	-156,738	-0,209	0,009
181,925	-146,895	-0,157	-0,009
182,940	39,068	-0,266	-0,164
183,954	141,392	-0,235	-0,216
184,969	800,000	-0,094	-0,264
185,983	153,936	-0,191	-0,181
186,998	325,837	-0,197	-0,262
188,013	243,702	-0,125	-0,145
189,027	-8,226	-0,201	-0,094
190,042	109,035	-0,256	-0,213
191,056	372,038	-0,225	-0,318
192,071	0,988	-0,224	-0,111
193,086	-122,269	-0,238	-0,027
194,100	39,299	-0,192	-0,119
195,115	446,008	-0,118	-0,181
196,129	149,353	-0,206	-0,194
197,144	86,904	-0,283	-0,217
198,159	6,261	-0,185	-0,095
199,173	-114,334	-0,221	-0,029
200,188	710,718	-0,067	-0,124
201,202	97,017	-0,117	-0,093
202,217	212,373	-0,154	-0,168
203,232	182,447	-0,172	-0,176
204,246	217,019	-0,112	-0,123
205,261	119,329	-0,204	-0,175
206,275	-200,000	-0,060	-0,296
207,290	-23,727	-0,149	-0,062
208,304	800,000	-0,060	-0,153
209,319	123,439	-0,150	-0,130
210,334	79,301	-0,220	-0,163
211,348	242,840	-0,123	-0,143
212,363	51,415	-0,196	-0,128
213,377	148,004	-0,200	-0,187
214,392	52,140	-0,051	-0,034
215,407	16,693	-0,215	-0,118
216,421	87,573	-0,209	-0,160
217,436	9,968	-0,178	-0,093
218,450	60,613	-0,128	-0,088
219,465	149,822	-0,215	-0,202
220,480	77,718	-0,114	-0,084
221,494	21,169	-0,146	-0,082
222,509	81,902	-0,147	-0,110
223,523	123,087	-0,178	-0,154
224,538	-200,000	-0,037	-0,144
225,553	46,198	-0,301	-0,193
226,567	88,936	-0,291	-0,224
227,582	232,303	-0,212	-0,242
228,596	27,856	-0,268	-0,156
229,611	-106,640	-0,133	-0,020
230,626	-45,256	-0,220	-0,075
231,640	267,638	-0,122	-0,147
232,655	-14,417	-0,244	0,108
233,669	219,424	-0,197	-0,218
234,684	138,674	-0,279	-0,253
235,699	471,016	-0,111	-0,174
236,713	-123,263	-0,149	0,016
237,728	-120,252	-0,110	-0,013
238,742	-48,176	-0,251	-0,083
239,757	96,589	-0,184	-0,145
240,772	-162,357	-0,216	0,007
241,786	79,691	-0,250	-0,185
242,801	12,805	-0,114	0,061
243,815	718,094	-0,090	-0,165
244,830	-6,256	-0,127	-0,060
245,844	37,123	-0,149	-0,091
246,859	614,478	-0,129	-0,224
247,874	471,755	-0,194	-0,302
248,888	81,342	-0,203	-0,151
249,903	127,669	-0,139	-0,122
250,917	27,518	-0,297	-0,172
251,932	-119,188	-0,137	0,016
252,947	-64,715	-0,103	0,029
253,961	382,153	-0,093	-0,133
254,976	4,494	-0,310	-0,157
255,990	128,038	-0,180	-0,158
257,005	98,599	-0,162	-0,129
258,020	301,170	-0,110	-0,141
259,034	-79,864	-0,230	-0,053
260,049	-57,889	-0,134	-0,040
261,063	234,897	-0,193	-0,220
262,078	34,816	-0,110	-0,066
263,093	-58,027	-0,176	-0,053
264,107	-58,751	-0,136	-0,040
265,122	800,000	-0,057	-0,130
266,136	-60,625	-0,198	-0,058
267,151	129,192	-0,158	-0,139
268,166	-128,105	-0,239	0,023
269,180	-64,537	-0,120	-0,033
270,195	800,000	-0,092	-0,243
271,209	26,903	-0,173	-0,100
272,224	800,000	-0,112	-0,256
273,239	663,934	-0,082	-0,146
274,253	800,000	-0,038	0,103
275,268	86,182	-0,154	-0,117
276,282	131,153	-0,151	-0,133
277,297	294,605	-0,095	-0,119
278,312	1,601	-0,205	-0,101
279,326	259,260	-0,074	-0,088
280,341	88,488	-0,198	-0,151
281,355	-7,840	-0,087	0,040
282,370	57,746	-0,221	-0,148
283,384	75,201	-0,129	-0,093
284,399	370,902	-0,219	-0,306
285,414	-54,625	-0,209	-0,065
286,428	206,000	-0,092	-0,099
287,443	47,298	-0,074	-0,048
288,457	230,968	-0,088	-0,099
289,472	800,000	-0,076	-0,153
290,487	242,106	-0,084	-0,096
291,501	-57,048	-0,222	-0,067
292,516	94,622	-0,265	-0,207
293,530	26,154	-0,089	-0,051
294,545	-10,145	-0,182	-0,083
295,560	109,692	-0,156	0,128
296,574	455,259	-0,065	-0,099
297,589	-8,911	-0,219	-0,100
298,603	434,623	-0,168	-0,251
299,618	92,484	-0,203	-0,157
300,633	57,813	-0,158	-0,106
301,647	-72,228	-0,134	-0,034
302,662	-114,365	-0,101	0,013
303,676	232,844	-0,054	0,061
304,691	11,940	-0,188	-0,099
305,706	161,020	-0,202	-0,194
306,720	88,367	-0,172	-0,131
307,735	214,970	-0,110	-0,120
308,749	-117,967	-0,126	0,015
309,764	72,806	-0,066	-0,047
310,779	800,000	-0,045	-0,122
311,793	-200,000	-0,045	-0,159
312,808	267,797	-0,161	-0,193
313,822	-146,833	-0,250	-0,015
314,837	214,407	-0,139	-0,151
315,852	48,752	-0,134	-0,086
316,866	-87,213	-0,201	0,042
317,881	1,565	-0,193	-0,095
318,895	-77,704	-0,141	-0,033
319,910	189,611	-0,148	-0,152
320,925	396,949	-0,104	-0,150
321,939	102,118	-0,083	-0,067
322,954	109,658	-0,042	-0,034
323,968	-55,459	-0,171	-0,052
324,983	-19,991	-0,101	-0,043
325,997	231,960	-0,153	-0,172
327,012	-147,465	-0,183	-0,010
328,027	-200,000	-0,005	-0,092
329,041	-200,000	-0,020	-0,075
330,056	-46,267	-0,211	-0,071
331,070	-156,825	-0,075	-0,003
332,085	800,000	-0,033	-0,100
333,100	582,278	-0,090	-0,152
334,114	-64,763	-0,237	-0,065
335,129	-124,956	-0,129	-0,013
336,143	-89,170	-0,244	-0,049
337,158	800,000	-0,104	-0,273
338,173	204,128	-0,052	-0,056
339,187	-143,370	-0,103	-0,007
340,202	-8,851	-0,038	0,017
341,216	-200,000	-0,037	-0,125
342,231	-59,689	-0,198	-0,058
343,246	800,000	-0,053	-0,110
344,260	102,539	-0,158	0,127
345,275	800,000	-0,028	0,057
346,289	513,773	-0,071	-0,114
347,304	-63,978	-0,161	-0,045
348,319	129,050	-0,131	-0,114
349,333	800,000	-0,083	-0,191
350,348	68,233	-0,183	-0,128
351,362	142,614	-0,183	-0,167
352,377	257,208	-0,090	-0,106
353,392	-70,422	-0,202	-0,052
354,406	108,291	-0,147	-0,120
355,421	207,374	1305,397	1394,105
356,435	159,527	1464,948	1394,585
