DTS Sentinel unit serial number:	SN410029Multiplexer serial number:	ORYXHardware model number:	OX2-SRSoftware version number:	ORYX F/W v4,00 Oryx Data Collector v3.7.2.0data status	okinstallation	B3 Nyhavnadifferential loss correction	single-endedforward channel	channel 1reverse channel	N/Adate	2023/12/03time	07:22:30forward acquisition time	300,00reverse acquisition time	0,00gamma	499,1914k internal	0,3201k external	0,3201temperature offset calibration	1,0000default loss term (dB/km)	0,3820temperature slope calibration	1,0000multiplexer offset coefficient	1,0000multiplexer slope coefficient	1,0000fibre end	0,00T internal ref (°C)	13,31T ext. ref 1 (°C)	-1,70T ext. ref 2 (°C)	-1,70length (m)	temperature (°C)	Stokes	anti-Stokes-744,400	188,839	-0,201	-0,219
-743,385	-200,000	0,003	0,402
-742,371	16,325	-0,153	-0,088
-741,356	-200,000	-0,077	0,557
-740,342	94,004	-0,183	-0,151
-739,327	-200,000	0,004	0,283
-738,312	661,906	-0,133	-0,250
-737,298	511,925	-0,191	0,325
-736,283	78,833	-0,200	-0,156
-735,269	-200,000	0,021	0,309
-734,254	27,754	-0,223	-0,136
-733,239	800,000	-0,142	0,290
-732,225	522,362	-0,165	-0,282
-731,210	256,251	0,067	0,084
-730,196	-121,149	0,080	-0,010
-729,181	48,379	-0,105	-0,071
-728,167	47,037	0,051	-0,034
-727,152	-33,376	0,050	-0,020
-726,137	800,000	-0,013	-0,035
-725,123	145,182	-0,061	0,059
-724,108	338,699	-0,058	-0,082
-723,094	83,772	-0,064	-0,050
-722,079	34,393	0,046	-0,029
-721,064	800,000	-0,019	0,042
-720,050	304,543	-0,012	0,016
-719,035	2,655	-0,086	0,045
-718,021	-18,649	-0,034	0,015
-717,006	-165,464	-0,215	0,007
-715,991	800,000	-0,069	-0,180
-714,977	226,696	0,070	-0,083
-713,962	-200,000	0,052	0,183
-712,948	800,000	-0,032	0,066
-711,933	-200,000	-0,034	0,163
-710,918	800,000	-0,036	0,086
-709,904	-67,137	0,048	0,014
-708,889	800,000	0,067	0,193
-707,875	-41,636	-0,076	-0,028
-706,860	-59,703	-0,046	-0,014
-705,845	114,331	0,090	0,080
-704,831	-200,000	0,018	0,066
-703,816	-11,439	0,170	0,081
-702,802	39,056	-0,150	-0,097
-701,787	236,146	0,081	-0,097
-700,772	302,445	0,062	-0,084
-699,758	39,656	0,084	0,055
-698,743	-45,290	0,064	0,023
-697,729	-75,154	-0,133	0,034
-696,714	800,000	0,044	0,100
-695,699	564,117	-0,030	-0,053
-694,685	7,539	-0,087	-0,047
-693,670	-178,993	-0,111	0,002
-692,656	-50,307	-0,099	-0,034
-691,641	200,355	-0,082	0,092
-690,627	615,490	0,031	0,057
-689,612	108,914	0,046	0,040
-688,597	-134,808	0,140	-0,012
-687,583	800,000	-0,013	-0,039
-686,568	84,417	-0,057	0,045
-685,554	114,515	-0,120	-0,106
-684,539	800,000	0,043	0,092
-683,524	204,619	-0,028	0,032
-682,510	-6,657	0,120	0,059
-681,495	-200,000	0,004	0,084
-680,481	505,789	-0,094	-0,158
-679,466	800,000	0,025	0,054
-678,451	-46,460	-0,055	0,020
-677,437	-200,000	0,007	0,028
-676,422	-115,363	-0,117	-0,016
-675,408	18,218	-0,084	0,049
-674,393	378,751	0,043	0,065
-673,378	-200,000	-0,012	-0,097
-672,364	-4,609	-0,064	0,032
-671,349	800,000	0,104	-0,229
-670,335	800,000	0,019	-0,056
-669,320	674,518	0,016	-0,031
-668,305	-200,000	-0,001	0,071
-667,291	-4,404	-0,073	-0,036
-666,276	263,064	-0,115	0,146
-665,262	-77,401	-0,132	-0,033
-664,247	-200,000	0,039	-0,205
-663,232	-37,147	-0,156	-0,060
-662,218	33,030	0,074	0,047
-661,203	99,803	-0,078	0,065
-660,189	-93,615	0,113	-0,022
-659,174	-142,928	0,038	0,003
-658,159	-67,671	-0,131	-0,037
-657,145	-124,731	-0,175	-0,019
-656,130	-4,020	0,111	0,056
-655,116	93,474	0,084	0,069
-654,101	45,987	-0,094	0,063
-653,086	221,385	-0,031	0,036
-652,072	800,000	0,016	0,042
-651,057	-12,511	-0,116	-0,054
-650,043	-81,530	-0,202	-0,048
-649,028	-200,000	0,003	-0,131
-648,014	-10,984	-0,138	0,066
-646,999	800,000	-0,035	0,091
-645,984	144,444	-0,038	-0,037
-644,970	219,624	-0,028	0,033
-643,955	-14,271	0,029	0,013
-642,941	-200,000	-0,022	-0,093
-641,926	-200,000	0,008	-0,055
-640,911	444,139	0,028	0,045
-639,897	-200,000	-0,008	0,105
-638,882	48,473	-0,076	-0,051
-637,868	9,963	-0,061	-0,033
-636,853	1,978	0,128	-0,066
-635,838	-159,080	-0,142	-0,006
-634,824	-161,273	0,063	-0,002
-633,809	-200,000	-0,010	0,078
-632,795	-76,189	-0,195	-0,049
-631,780	-2,492	0,093	0,047
-630,765	-3,137	-0,105	0,053
-629,751	-200,000	-0,017	-0,130
-628,736	42,848	-0,065	0,043
-627,722	-61,845	-0,042	-0,013
-626,707	800,000	0,028	0,085
-625,692	-17,830	-0,071	-0,032
-624,678	308,240	0,084	0,113
-623,663	323,447	-0,023	-0,032
-622,649	-86,973	-0,049	0,011
-621,634	-102,995	-0,114	-0,019
-620,619	380,810	0,073	-0,109
-619,605	-200,000	-0,041	-0,150
-618,590	-63,363	-0,146	0,043
-617,576	398,112	0,028	-0,043
-616,561	-75,636	0,108	-0,027
-615,546	-75,419	-0,107	-0,027
-614,532	-99,337	-0,079	-0,014
-613,517	-55,399	-0,114	-0,037
-612,503	-200,000	-0,002	0,100
-611,488	-159,955	0,039	0,002
-610,474	93,767	-0,104	0,085
-609,459	359,321	0,104	0,151
-608,444	16,354	0,122	0,070
-607,430	-173,717	-0,210	0,004
-606,415	-116,611	-0,114	0,015
-605,401	-87,990	0,070	-0,015
-604,386	105,838	-0,048	0,041
-603,371	-132,379	0,102	0,009
-602,357	-47,581	0,011	0,004
-601,342	800,000	0,027	-0,072
-600,328	800,000	-0,063	-0,128
-599,313	-48,988	0,044	0,015
-598,298	47,892	-0,049	-0,033
-597,284	-200,000	-0,025	0,081
-596,269	-200,000	0,004	0,047
-595,255	35,924	0,095	-0,060
-594,240	163,897	-0,138	-0,141
-593,225	-109,345	-0,209	-0,032
-592,211	-71,494	-0,107	-0,029
-591,196	-65,116	0,024	0,007
-590,182	194,138	0,114	0,125
-589,167	172,709	-0,085	0,088
-588,152	107,280	-0,083	-0,071
-587,138	-5,281	-0,158	-0,078
-586,123	661,945	0,006	0,012
-585,109	-185,820	0,081	-0,001
-584,094	249,899	-0,068	-0,084
-583,079	14,078	0,107	0,060
-582,065	58,929	-0,117	-0,083
-581,050	-105,479	0,118	0,019
-580,036	366,747	0,056	-0,082
-579,021	-24,007	-0,118	-0,051
-578,006	-118,485	-0,092	0,012
-576,992	-47,413	0,082	0,029
-575,977	-116,111	0,137	0,018
-574,963	119,494	-0,080	0,072
-573,948	60,615	-0,156	0,112
-572,934	-98,611	-0,097	0,018
-571,919	9,483	0,063	-0,034
-570,904	-120,405	0,072	0,009
-569,890	-79,602	-0,161	0,039
-568,875	-10,768	0,110	0,052
-567,861	-200,000	-0,010	0,054
-566,846	256,057	0,079	-0,098
-565,831	23,667	0,057	0,034
-564,817	-102,917	-0,035	-0,006
-563,802	26,167	-0,083	-0,050
-562,788	-79,913	-0,087	-0,021
-561,773	-123,421	-0,034	-0,004
-560,758	-38,398	-0,061	0,023
-559,744	260,461	-0,068	-0,085
-558,729	416,575	-0,060	-0,093
-557,715	155,366	0,037	-0,036
-556,700	-73,337	-0,065	-0,017
-555,685	-200,000	-0,006	-0,088
-554,671	-72,986	0,010	-0,003
-553,656	231,817	0,070	0,083
-552,642	107,308	0,084	-0,072
-551,627	-200,000	-0,003	-0,022
-550,612	25,646	0,068	0,041
-549,598	249,514	-0,060	-0,073
-548,583	-124,728	-0,062	-0,007
-547,569	25,745	0,172	0,103
-546,554	-200,000	-0,029	0,136
-545,539	376,856	-0,024	0,036
-544,525	800,000	-0,024	0,075
-543,510	189,551	-0,078	0,084
-542,496	88,871	-0,094	-0,076
-541,481	273,333	0,030	-0,038
-540,466	800,000	-0,050	-0,123
-539,452	-154,096	-0,057	0,003
-538,437	-155,196	0,038	0,002
-537,423	-200,000	-0,016	0,118
-536,408	-200,000	0,029	0,131
-535,393	-200,000	0,008	0,032
-534,379	-0,654	-0,117	-0,060
-533,364	111,335	0,041	0,036
-532,350	206,584	0,087	0,098
-531,335	423,723	0,096	0,149
-530,321	30,269	0,076	-0,046
-529,306	-200,000	-0,041	0,156
-528,291	-44,362	0,108	-0,039
-527,277	645,680	0,036	0,067
-526,262	35,521	0,111	-0,070
-525,248	-17,011	-0,071	-0,032
-524,233	0,048	0,127	0,065
-523,218	-135,810	-0,147	0,012
-522,204	-125,759	-0,152	-0,016
-521,189	800,000	-0,064	-0,138
-520,175	27,388	0,050	-0,030
-519,160	-41,317	0,155	0,057
-518,145	-97,746	0,161	-0,030
-517,131	-119,805	0,061	-0,008
-516,116	-200,000	-0,012	0,083
-515,102	94,793	0,007	-0,005
-514,087	206,753	-0,072	0,081
-513,072	800,000	0,066	-0,138
-512,058	517,536	0,031	0,052
-511,043	-26,645	0,085	-0,036
-510,029	-142,897	0,100	-0,007
-509,014	530,157	0,038	0,066
-507,999	800,000	0,001	0,003
-506,985	-200,000	-0,012	0,099
-505,970	293,057	-0,041	0,054
-504,956	-200,000	-0,017	-0,138
-503,941	-100,627	0,136	-0,024
-502,926	74,274	0,070	0,053
-501,912	127,449	-0,062	0,057
-500,897	800,000	0,011	0,026
-499,883	800,000	-0,031	0,083
-498,868	131,200	-0,038	0,035
-497,853	-200,000	-0,003	0,071
-496,839	800,000	0,019	-0,041
-495,824	64,993	0,031	-0,023
-494,810	105,583	0,089	-0,076
-493,795	-200,000	0,013	0,070
-492,781	206,761	0,041	0,046
-491,766	-176,293	0,083	0,002
-490,751	-200,000	0,008	-0,092
-489,737	-200,000	-0,010	0,098
-488,722	5,040	-0,079	-0,042
-487,708	230,401	0,048	0,057
-486,693	800,000	-0,041	0,086
-485,678	142,027	0,023	0,022
-484,664	206,377	-0,017	0,019
-483,649	521,953	0,080	-0,136
-482,635	132,504	-0,062	-0,058
-481,620	-43,545	-0,119	-0,043
-480,605	342,072	-0,081	0,115
-479,591	97,223	0,096	0,079
-478,576	-21,817	-0,086	0,037
-477,562	-200,000	0,034	-0,128
-476,547	-200,000	0,005	-0,048
-475,532	-200,000	-0,013	-0,099
-474,518	-200,000	-0,037	0,131
-473,503	-200,000	-0,016	-0,053
-472,489	-9,660	0,067	-0,032
-471,474	-6,998	0,138	0,067
-470,459	-37,528	-0,089	0,034
-469,445	800,000	-0,047	-0,105
-468,430	-200,000	0,006	0,053
-467,416	-93,603	-0,013	-0,002
-466,401	-101,504	0,159	-0,027
-465,386	-99,203	0,105	-0,019
-464,372	800,000	-0,042	-0,088
-463,357	-200,000	-0,001	0,017
-462,343	800,000	-0,028	-0,083
-461,328	-94,767	-0,039	0,008
-460,313	-90,522	0,071	-0,015
-459,299	620,985	0,040	-0,073
-458,284	83,478	-0,029	0,023
-457,270	-200,000	-0,029	-0,130
-456,255	800,000	0,013	0,037
-455,241	640,001	-0,019	-0,035
-454,226	121,913	0,019	-0,017
-453,211	-200,000	-0,023	0,125
-452,197	130,705	0,025	-0,023
-451,182	165,239	0,061	0,062
-450,168	186,153	0,049	-0,053
-449,153	-200,000	-0,038	0,240
-448,138	-66,668	0,168	0,048
-447,124	164,246	-0,084	0,085
-446,109	75,345	0,023	0,018
-445,095	-200,000	-0,006	0,119
-444,080	-124,195	-0,025	-0,003
-443,065	-10,955	0,092	0,044
-442,051	-200,000	0,016	0,077
-441,036	-200,000	-0,002	-0,097
-440,022	-200,000	-0,032	0,163
-439,007	-123,303	0,144	-0,016
-437,992	93,790	-0,133	0,108
-436,978	16,481	0,076	0,043
-435,963	-134,233	-0,016	-0,001
-434,949	226,532	-0,108	-0,126
-433,934	-0,606	-0,030	-0,015
-432,919	800,000	-0,057	0,115
-431,905	14,400	0,034	-0,019
-430,890	-134,039	-0,086	0,008
-429,876	558,595	-0,042	0,074
-428,861	-6,356	-0,052	0,025
-427,846	800,000	-0,042	-0,094
-426,832	-200,000	-0,015	-0,106
-425,817	176,071	-0,049	-0,051
-424,803	-90,094	0,052	-0,011
-423,788	-28,601	-0,022	0,009
-422,773	7,872	-0,058	-0,031
-421,759	-200,000	-0,015	-0,122
-420,744	238,390	0,036	-0,043
-419,730	352,494	-0,080	-0,114
-418,715	13,806	0,170	-0,094
-417,701	0,089	-0,029	-0,015
-416,686	463,056	0,067	-0,107
-415,671	-88,818	-0,027	-0,006
-414,657	11,508	0,088	-0,048
-413,642	-148,320	-0,131	-0,008
-412,628	-71,233	-0,099	-0,027
-411,613	496,068	0,065	-0,107
-410,598	800,000	-0,005	-0,013
-409,584	-27,094	-0,057	-0,024
-408,569	93,843	0,077	-0,062
-407,555	800,000	-0,035	0,071
-406,540	-99,693	0,062	0,011
-405,525	-200,000	-0,013	-0,056
-404,511	-76,250	0,041	0,010
-403,496	-20,140	-0,072	-0,032
-402,482	63,194	-0,066	0,047
-401,467	800,000	-0,070	0,146
-400,452	-200,000	0,034	0,161
-399,438	800,000	-0,019	-0,047
-398,423	-53,607	-0,070	0,023
-397,409	15,729	-0,185	-0,104
-396,394	116,054	0,024	0,021
-395,379	800,000	0,037	-0,092
-394,365	800,000	-0,053	0,106
-393,350	351,560	-0,048	-0,069
-392,336	-200,000	-0,001	0,057
-391,321	-200,000	-0,016	-0,087
-390,306	800,000	0,005	-0,014
-389,292	800,000	-0,035	-0,079
-388,277	398,977	0,087	-0,131
-387,263	-42,555	-0,049	0,018
-386,248	-200,000	-0,008	-0,048
-385,233	56,813	0,073	0,051
-384,219	135,541	0,069	-0,065
-383,204	-23,848	-0,055	-0,024
-382,190	-200,000	0,008	-0,147
-381,175	800,000	0,032	-0,102
-380,160	535,632	0,029	0,049
-379,146	64,123	-0,056	0,040
-378,131	800,000	-0,039	0,100
-377,117	4,792	0,035	0,019
-376,102	800,000	0,036	-0,085
-375,088	-35,924	0,056	-0,021
-374,073	800,000	0,060	-0,141
-373,058	-49,359	0,097	-0,033
-372,044	800,000	-0,020	0,045
-371,029	-200,000	-0,025	-0,105
-370,015	-13,428	0,139	0,064
-369,000	-74,918	-0,071	0,018
-367,985	-74,489	0,029	-0,008
-366,971	-194,417	0,067	0,000
-365,956	70,889	0,032	-0,024
-364,942	115,340	0,132	0,115
-363,927	-135,847	0,041	-0,003
-362,912	800,000	0,131	0,263
-361,898	179,879	-0,014	0,015
-360,883	800,000	0,021	-0,047
-359,869	-7,056	-0,046	0,022
-358,854	-200,000	-0,031	0,123
-357,839	-200,000	-0,000	0,051
-356,825	-200,000	0,019	-0,187
-355,810	145,178	-0,148	0,142
-354,796	23,378	0,083	-0,049
-353,781	-8,583	-0,035	-0,017
-352,766	743,189	0,062	-0,120
-351,752	549,887	-0,032	0,056
-350,737	251,640	0,049	0,060
-349,723	-200,000	-0,026	0,084
-348,708	-164,529	0,124	-0,004
-347,693	-62,696	-0,060	-0,018
-346,679	-200,000	-0,023	-0,087
-345,664	-44,933	0,030	-0,011
-344,650	-200,000	0,001	0,062
-343,635	407,924	0,069	0,105
-342,620	-16,919	0,140	-0,063
-341,606	145,788	0,051	-0,049
-340,591	-200,000	0,013	-0,071
-339,577	-170,231	-0,123	0,003
-338,562	185,587	-0,090	0,096
-337,548	232,636	0,114	0,134
-336,533	120,070	-0,028	0,025
-335,518	-117,538	0,071	-0,009
-334,504	174,369	-0,051	0,053
-333,489	174,842	-0,113	0,118
-332,475	57,131	-0,097	-0,067
-331,460	297,510	0,013	-0,018
-330,445	249,285	-0,044	0,054
-329,431	59,824	0,040	-0,028
-328,416	-65,221	0,151	0,043
-327,402	-112,672	0,017	-0,002
-326,387	800,000	-0,029	-0,088
-325,372	-58,815	-0,221	-0,068
-324,358	-200,000	0,010	0,038
-323,343	71,674	0,016	-0,012
-322,329	-200,000	-0,014	0,047
-321,314	-18,268	-0,071	0,031
-320,299	88,968	0,097	0,077
-319,285	246,838	0,046	0,055
-318,270	-75,629	0,138	0,035
-317,256	-200,000	0,008	-0,044
-316,241	338,364	0,070	-0,098
-315,226	-200,000	-0,020	0,142
-314,212	-200,000	-0,007	0,111
-313,197	-135,492	-0,112	0,009
-312,183	-200,000	0,035	0,235
-311,168	143,854	0,048	-0,046
-310,153	-200,000	-0,013	0,103
-309,139	-200,000	-0,022	-0,227
-308,124	-45,046	0,144	-0,051
-307,110	144,314	0,063	0,061
-306,095	-200,000	0,014	0,170
-305,080	-200,000	0,008	-0,055
-304,066	800,000	0,027	0,062
-303,051	-30,412	-0,070	-0,028
-302,037	452,536	0,009	-0,015
-301,022	302,810	-0,032	0,042
-300,008	11,315	0,115	-0,063
-298,993	800,000	-0,036	-0,080
-297,978	-4,650	-0,139	0,068
-296,964	86,914	-0,059	-0,047
-295,949	-101,246	-0,082	-0,014
-294,935	800,000	0,018	-0,052
-293,920	-134,679	-0,152	0,013
-292,905	-169,029	0,066	-0,002
-291,891	-17,226	0,146	0,066
-290,876	-200,000	-0,045	0,159
-289,862	59,942	0,106	-0,075
-288,847	-200,000	0,009	-0,064
-287,832	-17,858	-0,063	0,028
-286,818	-200,000	-0,007	-0,026
-285,803	-200,000	-0,042	0,172
-284,789	-200,000	-0,009	0,038
-283,774	800,000	0,044	0,096
-282,759	-200,000	0,054	-0,187
-281,745	-200,000	-0,006	-0,140
-280,730	-192,427	-0,018	0,000
-279,716	800,000	-0,005	-0,015
-278,701	534,186	-0,075	0,128
-277,686	178,874	0,036	0,038
-276,672	-200,000	0,015	0,139
-275,657	-200,000	-0,033	-0,132
-274,643	800,000	0,026	-0,056
-273,628	126,629	-0,050	-0,045
-272,613	-200,000	-0,053	-0,219
-271,599	250,681	0,047	0,057
-270,584	525,243	0,038	-0,065
-269,570	-177,903	-0,068	0,001
-268,555	800,000	0,053	0,107
-267,540	60,728	-0,156	-0,110
-266,526	-200,000	0,016	-0,127
-265,511	114,571	0,056	0,049
-264,497	-200,000	0,008	0,188
-263,482	582,879	0,101	0,177
-262,467	111,522	0,123	0,106
-261,453	800,000	0,021	-0,058
-260,438	-69,092	-0,124	-0,034
-259,424	800,000	-0,016	0,034
-258,409	-200,000	0,048	0,159
-257,395	-94,189	0,033	-0,006
-256,380	101,890	-0,038	-0,032
-255,365	800,000	0,057	-0,146
-254,351	309,126	0,079	-0,106
-253,336	112,291	0,024	0,021
-252,322	571,376	0,046	-0,080
-251,307	-45,274	-0,051	0,018
-250,292	-200,000	-0,020	-0,088
-249,278	-38,478	0,038	-0,014
-248,263	449,243	0,073	0,116
-247,249	-200,000	-0,011	-0,071
-246,234	-200,000	-0,035	0,169
-245,219	-5,417	-0,115	0,056
-244,205	53,939	-0,051	-0,035
-243,190	800,000	0,022	0,058
-242,176	-200,000	0,024	0,112
-241,161	-120,394	0,217	0,026
-240,146	800,000	-0,056	0,134
-239,132	-200,000	0,019	-0,088
-238,117	-54,201	-0,170	-0,055
-237,103	392,590	-0,058	-0,086
-236,088	-133,287	0,083	-0,007
-235,073	143,474	0,069	-0,065
-234,059	584,877	0,083	-0,145
-233,044	-35,199	0,071	0,028
-232,030	16,726	0,086	-0,048
-231,015	119,634	0,061	-0,054
-230,000	-83,346	-0,031	0,007
-228,986	-200,000	-0,001	-0,062
-227,971	800,000	0,026	0,067
-226,957	131,999	-0,028	0,025
-225,942	60,855	0,082	0,058
-224,927	-127,878	-0,083	-0,008
-223,913	-179,749	-0,071	-0,001
-222,898	45,928	-0,041	0,027
-221,884	-200,000	0,004	-0,039
-220,869	275,500	0,049	0,062
-219,855	9,397	0,091	-0,049
-218,840	800,000	0,058	-0,131
-217,825	49,698	0,015	-0,010
-216,811	800,000	0,022	0,055
-215,796	185,340	-0,091	-0,096
-214,782	800,000	0,021	-0,055
-213,767	84,766	0,109	0,085
-212,752	-131,741	0,061	0,006
-211,738	-49,872	0,045	0,015
-210,723	-45,088	0,061	-0,021
-209,709	73,634	-0,137	-0,102
-208,694	-12,885	-0,123	-0,057
-207,679	-200,000	-0,022	0,093
-206,665	-79,082	0,097	0,023
-205,650	-42,741	-0,059	0,021
-204,636	-200,000	-0,026	-0,106
-203,621	478,715	0,008	0,013
-202,606	-200,000	-0,001	-0,136
-201,592	538,445	-0,063	-0,107
-200,577	-200,000	-0,006	-0,095
-199,563	397,392	-0,007	0,010
-198,548	6,462	-0,045	-0,023
-197,533	-33,298	0,077	-0,030
-196,519	215,230	-0,055	-0,062
-195,504	34,358	-0,043	-0,027
-194,490	79,181	-0,115	-0,088
-193,475	-200,000	-0,008	0,030
-192,460	-200,000	0,001	0,085
-191,446	197,362	0,059	-0,065
-190,431	79,788	0,134	0,103
-189,417	249,111	-0,089	0,108
-188,402	800,000	0,056	0,154
-187,387	-53,089	-0,094	-0,031
-186,373	-200,000	0,004	-0,086
-185,358	-200,000	-0,008	-0,061
-184,344	-97,153	0,067	0,012
-183,329	84,478	0,011	0,009
-182,315	619,539	-0,034	0,060
-181,300	-200,000	0,001	0,025
-180,285	-200,000	-0,012	0,096
-179,271	91,197	-0,041	-0,033
-178,256	-158,215	0,030	-0,001
-177,242	74,059	0,081	0,060
-176,227	34,758	-0,018	-0,011
-175,212	-22,481	0,115	0,049
-174,198	360,766	-0,141	0,201
-173,183	-200,000	0,009	-0,090
-172,169	99,121	0,051	-0,042
-171,154	-200,000	0,011	-0,078
-170,139	101,779	0,039	-0,032
-169,125	-99,653	-0,059	0,010
-168,110	-34,669	0,143	0,055
-167,096	-52,120	-0,011	-0,004
-166,081	-9,483	-0,092	0,044
-165,066	-99,365	-0,061	0,011
-164,052	-16,647	0,110	0,049
-163,037	30,882	-0,055	-0,033
-162,023	-200,000	0,054	-0,198
-161,008	319,419	0,098	-0,133
-159,993	800,000	0,043	-0,088
-158,979	20,419	0,026	-0,015
-157,964	-200,000	0,001	-0,040
-156,950	-28,601	-0,129	0,052
-155,935	-123,987	0,115	0,013
-154,920	800,000	-0,013	-0,036
-153,906	-200,000	-0,021	-0,069
-152,891	-200,000	0,008	-0,030
-151,877	-200,000	-0,014	0,049
-150,862	494,662	-0,106	-0,174
-149,847	-139,419	0,034	-0,003
-148,833	800,000	0,021	0,057
-147,818	800,000	-0,070	-0,152
-146,804	-30,409	0,108	0,044
-145,789	800,000	0,034	0,068
-144,775	-96,837	-0,072	-0,013
-143,760	220,954	0,040	0,045
-142,745	27,629	-0,084	-0,050
-141,731	63,988	-0,027	0,019
-140,716	-200,000	-0,031	-0,101
-139,702	-158,150	0,131	-0,005
-138,687	-200,000	0,025	-0,118
-137,672	346,543	-0,064	0,089
-136,658	310,583	-0,054	0,072
-135,643	-200,000	0,004	0,145
-134,629	-200,000	0,011	0,035
-133,614	-76,013	0,119	0,030
-132,599	74,873	0,104	0,078
-131,585	657,596	0,074	0,136
-130,570	-200,000	-0,010	-0,138
-129,556	116,417	-0,066	-0,057
-128,541	98,449	0,053	-0,043
-127,526	-200,000	0,010	-0,136
-126,512	188,938	0,181	-0,192
-125,497	97,731	0,196	0,160
-124,483	92,319	0,081	0,064
-123,468	800,000	-0,025	0,051
-122,453	342,696	-0,102	-0,143
-121,439	-200,000	-0,011	-0,055
-120,424	172,943	-0,109	-0,111
-119,410	-200,000	-0,003	0,131
-118,395	18,051	0,117	0,066
-117,380	220,006	-0,044	0,050
-116,366	59,606	-0,026	0,018
-115,351	800,000	0,021	-0,053
-114,337	782,230	-0,033	-0,065
-113,322	114,085	0,135	-0,116
-112,307	-200,000	-0,000	0,152
-111,293	-21,640	0,091	0,039
-110,278	21,939	-0,097	0,056
-109,264	182,774	0,083	0,087
-108,249	-200,000	-0,014	0,051
-107,234	89,556	-0,085	0,067
-106,220	591,063	0,025	-0,043
-105,205	-140,429	-0,109	-0,008
-104,191	-140,911	0,104	0,007
-103,176	-200,000	0,009	0,080
-102,162	800,000	-0,055	0,124
-101,147	340,119	-0,063	0,087
-100,132	114,553	0,035	-0,030
-99,118	551,700	0,049	-0,084
-98,103	800,000	0,032	0,074
-97,089	-148,422	-0,058	-0,003
-96,074	94,579	0,015	-0,012
-95,059	800,000	0,023	0,049
-94,045	-200,000	0,027	0,154
-93,030	800,000	-0,055	-0,132
-92,016	-6,031	-0,030	-0,015
-91,001	258,268	0,049	-0,060
-89,986	-29,750	0,043	0,017
-88,972	115,259	-0,114	0,099
-87,957	360,380	-0,086	0,123
-86,943	800,000	-0,066	0,138
-85,928	502,935	-0,014	0,023
-84,913	31,933	-0,088	0,053
-83,899	-84,518	0,159	0,035
-82,884	-14,676	0,070	0,032
-81,870	-162,836	0,057	-0,002
-80,855	113,458	-0,100	0,086
-79,840	-72,551	0,035	0,009
-78,826	-133,665	0,043	-0,004
-77,811	-74,264	0,025	-0,006
-76,797	800,000	0,074	0,169
-75,782	-103,786	0,122	0,020
-74,767	293,932	0,081	0,105
-73,753	-113,876	-0,083	0,011
-72,738	127,988	0,057	0,051
-71,724	390,553	-0,075	0,111
-70,709	-65,806	-0,152	0,043
-69,694	447,148	0,030	-0,047
-68,680	-80,124	0,096	0,023
-67,665	-127,687	-0,126	-0,013
-66,651	-78,257	-0,055	-0,013
-65,636	800,000	-0,025	-0,073
-64,622	-200,000	0,005	0,054
-63,607	-142,808	-0,070	0,005
-62,592	153,611	-0,044	0,043
-61,578	-200,000	-0,010	0,153
-60,563	-200,000	-0,002	0,201
-59,549	-1,305	0,080	0,040
-58,534	-17,268	-1,685	-0,749
-57,519	529,168	-1,190	-1,996
-56,505	-200,000	-0,543	-4,669
-55,490	219,700	0,904	1,026
-54,476	800,000	5,046	11,594
-53,461	-200,000	19,178	319,924
-52,446	-200,000	740,884	2334,408
-51,432	573,590	1655,654	2869,453
-50,417	78,236	1671,142	1261,501
-49,403	21,290	1544,104	885,542
-48,388	15,145	1466,619	811,217
-47,373	17,970	1456,561	819,271
-46,359	16,663	1446,767	807,465
-45,344	13,420	1442,056	789,265
-44,330	13,352	1440,104	787,841
-43,315	13,355	1438,447	786,918
-42,300	13,347	1436,643	785,862
-41,286	13,369	1435,413	785,262
-40,271	13,359	1433,895	784,356
-39,257	13,314	1432,852	783,540
-38,242	13,375	1431,481	783,048
-37,227	13,396	1430,236	782,433
-36,213	13,415	1429,016	781,828
-35,198	13,405	1427,869	781,122
-34,184	13,474	1426,757	780,811
-33,169	13,376	1425,556	779,654
-32,154	13,435	1424,366	779,255
-31,140	13,393	1423,231	778,401
-30,125	13,469	1422,008	778,063
-29,111	13,367	1421,195	777,103
-28,096	13,392	1419,779	776,418
-27,082	13,356	1418,839	775,702
-26,067	13,355	1417,615	775,000
-25,052	13,341	1416,536	774,314
-24,038	13,287	1415,688	773,565
-23,023	13,285	1414,676	772,972
-22,009	13,363	1413,449	772,634
-20,994	13,298	1412,765	771,923
-19,979	13,285	1411,887	771,355
-18,965	13,283	1410,812	770,729
-17,950	13,279	1409,807	770,127
-16,936	13,298	1408,687	769,575
-15,921	13,213	1408,081	768,817
-14,906	13,246	1407,135	768,425
-13,892	13,249	1405,967	767,769
-12,877	13,261	1405,133	767,339
-11,863	13,213	1404,469	766,722
-10,848	13,233	1403,422	766,214
-9,833	13,237	1402,543	765,722
-8,819	13,200	1401,529	764,964
-7,804	13,164	1400,817	764,380
-6,790	13,157	1399,798	763,757
-5,775	13,132	1398,679	763,002
-4,760	13,141	1397,685	762,473
-3,746	13,134	1396,727	761,885
-2,731	13,150	1396,009	761,540
-1,717	13,103	1395,074	760,780
-0,702	13,110	1393,295	759,814
0,313	16,982	1310,043	732,339
1,327	33,150	703,888	430,857
2,342	51,116	123,180	82,518
3,356	5,058	16,587	8,611
4,371	-1,529	3,317	1,648
5,386	-45,698	0,708	0,246
6,400	-200,000	0,034	0,254
7,415	83,146	-0,183	-0,141
8,429	20,477	-0,410	-0,234
9,444	52,676	-0,236	-0,159
10,459	14,226	-0,400	-0,220
11,473	168,219	-0,253	-0,255
12,488	16,641	-0,209	-0,116
13,502	16,910	-0,344	-0,192
14,517	-91,174	-0,375	-0,075
15,531	38,842	-0,311	-0,196
16,546	13,211	-0,415	-0,227
17,561	121,372	-0,363	-0,319
18,575	68,803	-0,173	-0,126
19,590	176,141	-0,213	-0,218
20,604	-102,506	-0,118	-0,020
21,619	47,051	-0,476	-0,312
22,634	130,778	-0,415	-0,376
23,648	-32,901	-0,470	-0,184
24,663	0,086	-0,362	-0,182
25,677	-50,084	-0,443	-0,147
26,692	54,308	-0,337	-0,229
27,707	347,560	-0,285	-0,397
28,721	77,720	-0,336	-0,252
29,736	60,631	-0,400	-0,279
30,750	-21,344	-0,410	-0,176
31,765	48,109	-0,450	-0,297
32,780	9,011	-0,495	-0,263
33,794	-13,982	-0,376	-0,171
34,809	-16,579	-0,344	-0,153
35,823	306,700	-0,247	-0,325
36,838	42,960	-0,465	-0,299
37,853	70,368	-0,373	-0,272
38,867	504,775	-0,218	-0,357
39,882	133,744	-0,315	-0,288
40,896	-5,713	-0,384	-0,185
41,911	81,834	-0,240	-0,183
42,926	39,778	-0,292	-0,185
43,940	42,216	-0,376	-0,240
44,955	131,501	-0,327	-0,297
45,969	66,169	-0,350	-0,250
46,984	41,783	-0,430	-0,274
47,999	5,298	-0,486	-0,252
49,013	-93,210	-0,326	-0,063
50,028	-21,672	-0,368	-0,157
51,042	8,065	-0,314	-0,166
52,057	291,306	-0,241	-0,310
53,071	10,412	-0,364	-0,195
54,086	146,078	-0,282	-0,267
55,101	-118,977	-0,321	-0,039
56,115	4,408	-0,387	-0,199
57,130	29,406	-0,343	-0,205
58,144	446,098	-0,207	-0,321
59,159	156,535	-0,377	-0,367
60,174	121,408	-0,342	-0,300
61,188	53,257	-0,339	-0,228
62,203	-7,146	-0,269	-0,128
63,217	39,570	-0,312	-0,197
64,232	7,785	-0,392	-0,206
65,247	90,792	-0,419	-0,330
66,261	40,620	-0,503	-0,318
67,276	-65,688	-0,367	-0,103
68,290	225,199	-0,322	-0,367
69,305	177,602	-0,259	-0,266
70,320	-97,859	-0,342	0,062
71,334	-70,055	-0,413	-0,110
72,349	-74,280	-0,363	-0,092
73,363	138,549	-0,245	-0,226
74,378	82,566	-0,275	-0,210
75,393	169,366	-0,207	-0,208
76,407	74,489	-0,284	-0,209
77,422	-0,731	-0,256	-0,127
78,436	-32,237	-0,235	-0,092
79,451	19,688	-0,310	-0,175
80,466	3,647	-0,327	-0,167
81,480	33,036	-0,377	-0,229
82,495	0,671	-0,354	-0,177
83,509	252,662	-0,244	-0,293
84,524	-38,499	-0,264	-0,098
85,539	20,539	-0,322	-0,182
86,553	78,879	-0,319	-0,239
87,568	100,568	-0,327	-0,266
88,582	125,391	-0,245	-0,217
89,597	33,092	-0,269	-0,163
90,611	307,169	-0,274	-0,359
91,626	30,423	-0,279	-0,167
92,641	29,878	-0,325	-0,194
93,655	15,191	-0,206	-0,113
94,670	58,529	-0,309	-0,212
95,684	76,160	-0,279	-0,207
96,699	-89,845	-0,432	-0,088
97,714	299,303	-0,134	-0,173
98,728	-18,808	-0,356	-0,155
99,743	-13,495	-0,246	-0,111
100,757	79,300	-0,251	-0,188
101,772	49,548	-0,373	-0,246
102,787	78,721	-0,322	-0,241
103,801	-11,886	-0,259	-0,119
104,816	57,297	-0,179	-0,122
105,830	59,259	-0,279	-0,192
106,845	-36,285	-0,280	-0,105
107,860	123,813	-0,221	-0,194
108,874	134,702	-0,241	-0,219
109,889	140,462	-0,273	-0,253
110,903	47,474	-0,352	-0,229
111,918	164,137	-0,174	-0,172
112,933	-105,871	-0,316	-0,049
113,947	406,071	-0,094	-0,139
114,962	-102,687	-0,202	-0,033
115,976	-14,241	-0,265	-0,119
116,991	-37,643	-0,472	-0,175
118,006	61,843	-0,207	-0,144
119,020	-15,260	-0,340	-0,152
120,035	65,532	-0,199	-0,141
121,049	94,279	-0,180	-0,143
122,064	-146,492	-0,269	0,016
123,079	29,419	-0,215	-0,128
124,093	30,762	-0,291	-0,174
125,108	243,749	-0,284	-0,334
126,122	188,026	-0,230	-0,241
127,137	172,694	-0,278	-0,281
128,151	800,000	-0,090	-0,235
129,166	798,727	-0,157	-0,304
130,181	-55,142	-0,371	-0,116
131,195	257,101	-0,208	-0,250
132,210	166,185	-0,295	-0,292
133,224	282,045	-0,314	-0,395
134,239	374,830	-0,225	-0,322
135,254	58,011	-0,199	-0,136
136,268	603,451	-0,188	-0,329
137,283	95,864	-0,194	-0,155
138,297	-49,170	-0,259	-0,086
139,312	53,793	-0,298	-0,200
140,327	-2,116	-0,234	-0,114
141,341	31,469	-0,158	-0,095
142,356	-29,041	-0,310	-0,124
143,370	292,085	-0,147	-0,188
144,385	-63,494	-0,286	-0,082
145,400	86,315	-0,133	-0,103
146,414	-36,488	-0,215	-0,081
147,429	23,875	-0,306	-0,176
148,443	74,317	-0,223	-0,163
149,458	136,015	-0,214	-0,194
150,473	24,920	-0,224	-0,130
151,487	501,945	-0,171	-0,277
152,502	167,756	-0,280	-0,278
153,516	25,707	-0,207	-0,120
154,531	83,385	-0,336	-0,255
155,546	390,016	-0,141	-0,204
156,560	-43,649	-0,278	-0,097
157,575	89,610	-0,206	-0,160
158,589	58,819	-0,258	-0,176
159,604	133,713	-0,192	-0,174
160,619	-83,461	-0,350	-0,077
161,633	98,606	-0,257	-0,207
162,648	92,046	-0,224	-0,176
163,662	-73,016	-0,203	-0,052
164,677	203,847	-0,164	-0,177
165,692	26,483	-0,217	-0,127
166,706	206,358	-0,135	-0,146
167,721	157,811	-0,184	-0,178
168,735	15,503	-0,317	-0,173
169,750	283,571	-0,095	-0,120
170,764	81,040	-0,241	-0,181
171,779	127,800	-0,216	-0,191
172,794	800,000	-0,124	-0,311
173,808	91,530	-0,138	-0,108
174,823	8,347	-0,310	-0,162
175,837	216,779	-0,224	-0,249
176,852	70,678	-0,185	-0,133
177,867	-135,303	-0,250	0,021
178,881	25,439	-0,179	-0,103
179,896	-66,506	-0,267	-0,073
180,910	-58,534	-0,173	-0,052
181,925	167,179	-0,238	-0,235
182,940	264,605	-0,200	-0,243
183,954	288,564	-0,159	-0,201
184,969	302,207	-0,160	-0,207
185,983	-77,215	-0,320	-0,077
186,998	730,206	-0,071	-0,133
188,013	275,286	-0,132	-0,164
189,027	63,177	-0,294	-0,205
190,042	118,725	-0,195	-0,168
191,056	-198,001	-0,203	-0,001
192,071	800,000	-0,105	-0,206
193,086	156,046	-0,195	-0,188
194,100	-131,956	-0,267	-0,024
195,115	5,488	-0,241	-0,124
196,129	-52,250	-0,177	-0,057
197,144	345,506	-0,196	-0,268
198,159	168,083	-0,201	-0,199
199,173	136,210	-0,198	-0,180
200,188	-107,577	-0,247	-0,037
201,202	22,135	-0,263	-0,149
202,217	-60,953	-0,147	-0,043
203,232	-139,732	-0,421	-0,031
204,246	366,897	-0,207	-0,291
205,261	223,456	-0,241	-0,271
206,275	58,899	-0,189	-0,129
207,290	800,000	-0,057	-0,121
208,304	800,000	-0,113	-0,224
209,319	51,819	-0,230	-0,152
210,334	306,158	-0,226	-0,293
211,348	33,021	-0,209	-0,126
212,363	-39,759	-0,310	-0,112
213,377	39,021	-0,234	-0,145
214,392	227,145	-0,133	-0,150
215,407	-25,510	-0,220	-0,090
216,421	-83,473	-0,099	0,022
217,436	-200,000	-0,034	-0,124
218,450	267,397	-0,193	-0,235
219,465	99,714	-0,183	-0,147
220,480	74,956	-0,197	-0,144
221,494	239,792	-0,167	-0,194
222,509	-28,726	-0,159	-0,063
223,523	-131,456	-0,186	-0,017
224,538	-29,919	-0,187	-0,074
225,553	255,271	-0,198	-0,235
226,567	-89,808	-0,162	-0,032
227,582	-10,841	-0,209	-0,095
228,596	-57,952	-0,280	-0,084
229,611	110,217	-0,162	-0,134
230,626	-94,166	-0,163	-0,031
231,640	-39,958	-0,241	-0,087
232,655	-43,653	-0,137	-0,048
233,669	629,809	-0,123	-0,216
234,684	33,060	-0,253	-0,152
235,699	178,717	-0,139	-0,141
236,713	-156,493	-0,234	-0,010
237,728	43,649	-0,206	-0,130
238,742	-35,483	-0,155	-0,058
239,757	0,363	-0,244	-0,120
240,772	41,193	-0,150	-0,094
241,786	47,728	-0,217	-0,140
242,801	-2,885	-0,117	-0,056
243,815	-7,565	-0,139	0,065
244,830	263,349	-0,153	-0,185
245,844	79,962	-0,206	-0,153
246,859	-4,270	-0,143	-0,068
247,874	-25,024	-0,256	-0,105
248,888	-44,996	-0,303	-0,104
249,903	12,924	-0,103	-0,055
250,917	175,099	-0,136	-0,136
251,932	238,985	-0,106	-0,122
252,947	168,712	-0,100	-0,098
253,961	-77,911	-0,127	-0,030
254,976	368,685	-0,122	-0,172
255,990	270,043	-0,156	-0,190
257,005	-53,363	-0,195	-0,061
258,020	-44,175	-0,129	-0,045
259,034	525,934	-0,157	-0,257
260,049	182,448	-0,130	-0,133
261,063	15,438	-0,332	-0,180
262,078	100,374	-0,152	-0,122
263,093	85,600	-0,166	-0,126
264,107	114,649	-0,228	-0,192
265,122	181,583	-0,137	-0,140
266,136	115,773	-0,199	-0,168
267,151	326,796	-0,117	-0,155
268,166	207,167	-0,115	-0,124
269,180	23,831	-0,174	-0,099
270,195	217,069	-0,174	-0,192
271,209	132,852	-0,097	-0,086
272,224	392,900	-0,078	-0,112
273,239	-10,835	-0,180	-0,082
274,253	162,953	-0,097	-0,094
275,268	34,075	-0,253	-0,152
276,282	66,763	-0,295	-0,207
277,297	389,388	-0,166	-0,238
278,312	-187,501	-0,211	-0,002
279,326	186,486	-0,106	-0,109
280,341	148,182	-0,149	-0,139
281,355	21,590	-0,209	-0,117
282,370	80,123	-0,218	-0,162
283,384	133,863	-0,221	-0,197
284,399	-85,272	-0,201	-0,043
285,414	28,725	-0,255	-0,149
286,428	348,302	-0,084	-0,114
287,443	10,280	-0,138	-0,072
288,457	258,103	-0,078	-0,093
289,472	-44,451	-0,122	-0,042
290,487	66,936	-0,108	-0,076
291,501	-27,133	-0,117	-0,047
292,516	517,889	-0,118	-0,190
293,530	208,001	-0,070	-0,076
294,545	-38,180	-0,069	-0,025
295,560	-200,000	-0,050	-0,162
296,574	270,591	-0,056	-0,068
297,589	76,929	-0,145	-0,106
298,603	311,573	-0,189	-0,245
299,618	196,183	-0,139	-0,146
300,633	228,963	-0,169	-0,190
301,647	-127,437	-0,167	-0,017
302,662	-200,000	-0,017	-0,084
303,676	800,000	-0,107	-0,217
304,691	26,670	-0,168	-0,097
305,706	-9,387	-0,224	-0,103
306,720	38,127	-0,140	-0,085
307,735	-2,410	-0,045	-0,022
308,749	49,318	-0,077	-0,050
309,764	-19,184	-0,046	0,020
310,779	189,301	-0,103	-0,106
311,793	-26,557	-0,173	-0,070
312,808	-38,284	-0,283	-0,103
313,822	-4,198	-0,216	-0,103
314,837	54,438	-0,117	-0,077
315,852	63,575	-0,160	-0,111
316,866	-39,011	-0,069	0,025
317,881	161,084	-0,158	-0,152
318,895	73,051	-0,077	-0,055
319,910	216,020	-0,123	-0,135
320,925	14,469	-0,167	-0,089
321,939	169,666	-0,081	-0,080
322,954	800,000	0,022	-0,053
323,968	-159,547	-0,138	-0,005
324,983	228,459	-0,192	-0,215
325,997	46,640	-0,172	-0,109
327,012	-106,392	-0,189	-0,029
328,027	194,572	-0,134	-0,140
329,041	275,567	-0,104	-0,127
330,056	-180,001	-0,196	-0,003
331,070	-84,842	-0,111	-0,024
332,085	0,065	-0,047	0,023
333,100	81,892	-0,166	-0,123
334,114	-59,962	-0,202	-0,059
335,129	254,249	-0,138	-0,163
336,143	-97,221	-0,246	-0,044
337,158	76,237	-0,085	-0,062
338,173	49,948	-0,097	-0,063
339,187	-83,040	-0,263	-0,058
340,202	214,097	0,009	0,010
341,216	133,845	-0,111	-0,099
342,231	800,000	-0,039	-0,114
343,246	-151,624	-0,244	-0,012
344,260	-70,469	-0,048	-0,012
345,275	-200,000	-0,006	-0,188
346,289	-85,598	-0,171	-0,036
347,304	800,000	-0,079	-0,237
348,319	64,017	-0,162	-0,112
349,333	46,878	-0,134	-0,085
350,348	29,453	-0,163	-0,095
351,362	81,230	-0,222	-0,164
352,377	199,256	-0,061	-0,064
353,392	-112,974	-0,065	-0,009
354,406	39,808	-0,122	-0,075
355,421	210,684	1313,685	1417,444
356,435	162,202	1474,285	1417,941
