DTS Sentinel unit serial number:	SN410029Multiplexer serial number:	ORYXHardware model number:	OX2-SRSoftware version number:	ORYX F/W v4,00 Oryx Data Collector v3.7.2.0data status	okinstallation	B3 Nyhavnadifferential loss correction	single-endedforward channel	channel 1reverse channel	N/Adate	2023/12/02time	10:02:30forward acquisition time	300,00reverse acquisition time	0,00gamma	499,1914k internal	0,3196k external	0,3196temperature offset calibration	1,0000default loss term (dB/km)	0,3820temperature slope calibration	1,0000multiplexer offset coefficient	1,0000multiplexer slope coefficient	1,0000fibre end	0,00T internal ref (°C)	14,77T ext. ref 1 (°C)	-0,95T ext. ref 2 (°C)	-0,97length (m)	temperature (°C)	Stokes	anti-Stokes-744,400	280,646	-0,237	-0,310
-743,385	-200,000	-0,039	0,261
-742,371	615,486	-0,118	-0,216
-741,356	-200,000	0,102	0,349
-740,342	99,728	-0,181	-0,153
-739,327	-200,000	0,007	0,257
-738,312	800,000	-0,101	-0,299
-737,298	-200,000	-0,069	0,364
-736,283	-12,603	-0,168	-0,079
-735,269	-200,000	0,002	0,286
-734,254	17,554	-0,351	-0,203
-733,239	800,000	-0,083	0,214
-732,225	-200,000	-0,055	-0,277
-731,210	303,861	0,127	0,172
-730,196	154,291	-0,035	-0,035
-729,181	-200,000	0,006	0,044
-728,167	-75,042	0,091	0,024
-727,152	197,808	-0,073	0,081
-726,137	675,835	-0,059	-0,113
-725,123	37,821	0,061	-0,039
-724,108	-200,000	-0,018	-0,073
-723,094	53,537	-0,107	-0,075
-722,079	-200,000	-0,010	-0,059
-721,064	254,845	-0,036	-0,045
-720,050	-200,000	-0,000	0,086
-719,035	800,000	-0,039	0,092
-718,021	-82,953	0,075	-0,018
-717,006	64,209	0,009	-0,007
-715,991	-200,000	-0,008	-0,048
-714,977	-185,300	0,037	0,000
-713,962	53,704	-0,083	-0,058
-712,948	157,336	0,042	0,042
-711,933	364,703	-0,059	-0,087
-710,918	85,272	-0,005	-0,004
-709,904	41,360	-0,073	-0,048
-708,889	-59,277	-0,055	-0,017
-707,875	-32,766	-0,137	-0,055
-706,860	249,404	-0,139	-0,172
-705,845	35,925	0,084	0,054
-704,831	-200,000	0,033	0,212
-703,816	-184,607	0,064	0,001
-702,802	-200,000	-0,031	-0,150
-701,787	-60,091	-0,047	-0,014
-700,772	-200,000	-0,024	-0,252
-699,758	-104,638	-0,103	-0,017
-698,743	-111,894	0,133	-0,019
-697,729	-105,303	-0,095	-0,016
-696,714	29,409	0,079	0,049
-695,699	641,721	0,077	-0,143
-694,685	-200,000	0,001	-0,150
-693,670	146,278	-0,106	-0,103
-692,656	800,000	-0,022	-0,052
-691,641	65,621	0,065	0,048
-690,627	-30,657	-0,055	-0,023
-689,612	-27,657	0,092	-0,039
-688,597	800,000	0,030	0,076
-687,583	43,103	-0,093	-0,062
-686,568	-200,000	-0,017	-0,214
-685,554	531,857	-0,032	-0,055
-684,539	41,189	0,024	0,016
-683,524	311,554	0,036	0,050
-682,510	-200,000	-0,003	0,150
-681,495	-200,000	0,029	-0,101
-680,481	163,976	-0,081	-0,083
-679,466	-71,621	-0,044	0,012
-678,451	38,696	-0,036	-0,024
-677,437	-53,408	0,066	0,022
-676,422	363,880	0,022	-0,032
-675,408	667,037	-0,028	0,053
-674,393	-80,800	-0,118	0,028
-673,378	-103,185	-0,154	-0,026
-672,364	800,000	-0,040	-0,122
-671,349	800,000	-0,057	-0,127
-670,335	316,870	-0,021	0,028
-669,320	-200,000	0,001	0,101
-668,305	313,520	-0,030	-0,041
-667,291	-97,216	-0,173	0,033
-666,276	-43,717	-0,096	-0,035
-665,262	328,861	-0,130	-0,181
-664,247	405,405	-0,097	-0,150
-663,232	-42,156	-0,139	-0,051
-662,218	-10,145	-0,021	0,010
-661,203	-200,000	-0,007	0,052
-660,189	-111,293	0,075	-0,011
-659,174	-200,000	0,009	-0,038
-658,159	-145,424	-0,057	-0,004
-657,145	800,000	-0,043	-0,106
-656,130	-99,216	-0,092	-0,017
-655,116	-200,000	-0,026	0,120
-654,101	800,000	0,021	0,053
-653,086	46,910	-0,075	0,051
-652,072	-110,910	-0,052	-0,008
-651,057	-77,801	-0,153	0,038
-650,043	-91,103	0,076	0,016
-649,028	-13,738	-0,068	-0,032
-648,014	-200,000	0,011	0,093
-646,999	-200,000	-0,002	0,116
-645,984	-200,000	0,018	0,102
-644,970	-22,244	-0,119	0,052
-643,955	792,326	-0,076	-0,153
-642,941	158,983	0,041	-0,041
-641,926	-95,616	0,119	0,023
-640,911	-169,792	0,069	-0,002
-639,897	163,798	0,081	-0,082
-638,882	-200,000	0,014	0,105
-637,868	9,566	-0,088	-0,048
-636,853	248,821	-0,044	-0,055
-635,838	15,250	-0,040	0,022
-634,824	57,331	-0,038	-0,027
-633,809	-10,758	0,123	0,059
-632,795	800,000	-0,020	0,053
-631,780	800,000	-0,033	0,088
-630,765	-200,000	0,015	-0,065
-629,751	-200,000	-0,039	-0,169
-628,736	800,000	-0,044	-0,093
-627,722	-200,000	0,024	-0,088
-626,707	-200,000	0,035	-0,157
-625,692	-200,000	0,021	0,088
-624,678	-122,709	0,025	0,003
-623,663	200,011	0,050	-0,056
-622,649	117,062	0,093	-0,083
-621,634	-200,000	0,003	0,039
-620,619	-200,000	-0,015	-0,059
-619,605	-179,361	-0,095	0,001
-618,590	326,669	-0,072	-0,100
-617,576	-25,450	0,087	0,037
-616,561	161,016	0,071	0,072
-615,546	-200,000	0,008	-0,110
-614,532	-200,000	-0,012	-0,069
-613,517	-63,598	-0,143	0,042
-612,503	-91,909	0,088	0,018
-611,488	800,000	0,009	0,018
-610,474	800,000	-0,038	-0,094
-609,459	-200,000	0,005	-0,126
-608,444	-24,953	-0,133	0,057
-607,430	288,243	-0,039	-0,051
-606,415	-200,000	0,051	-0,177
-605,401	-110,163	0,097	0,015
-604,386	-85,207	0,110	0,025
-603,371	-200,000	0,021	0,098
-602,357	-67,535	-0,114	-0,032
-601,342	201,400	-0,032	-0,036
-600,328	119,196	-0,087	-0,078
-599,313	23,691	0,034	0,020
-598,298	750,500	0,028	-0,054
-597,284	-200,000	-0,011	0,045
-596,269	-21,998	0,065	-0,028
-595,255	478,622	0,023	0,037
-594,240	-200,000	-0,011	0,059
-593,225	-200,000	-0,012	0,061
-592,211	800,000	-0,034	0,071
-591,196	-127,364	0,061	-0,006
-590,182	800,000	0,043	-0,112
-589,167	226,537	0,121	0,143
-588,152	-200,000	-0,030	-0,119
-587,138	56,486	-0,107	-0,075
-586,123	161,882	-0,051	-0,052
-585,109	253,556	-0,007	-0,009
-584,094	-77,591	-0,032	0,008
-583,079	800,000	0,035	-0,094
-582,065	48,949	0,072	0,049
-581,050	800,000	0,066	0,137
-580,036	-200,000	0,013	0,128
-579,021	78,485	-0,027	-0,021
-578,006	791,337	-0,059	-0,117
-576,992	192,787	0,033	0,036
-575,977	-68,793	0,024	0,007
-574,963	-58,197	-0,026	-0,008
-573,948	97,270	-0,058	0,048
-572,934	601,274	0,038	0,069
-571,919	53,200	-0,024	0,016
-570,904	-83,948	-0,111	-0,025
-569,890	659,939	0,035	-0,065
-568,875	-200,000	0,013	-0,099
-567,861	48,276	0,038	0,026
-566,846	135,590	0,073	0,068
-565,831	-69,728	-0,139	-0,038
-564,817	170,232	0,058	-0,060
-563,802	-13,944	-0,134	-0,063
-562,788	-105,051	-0,162	-0,026
-561,773	100,757	0,117	-0,098
-560,758	85,405	0,111	0,088
-559,744	-200,000	0,009	0,047
-558,729	-200,000	-0,012	0,161
-557,715	-200,000	0,001	0,022
-556,700	800,000	-0,020	-0,043
-555,685	66,925	-0,075	-0,055
-554,671	-16,248	0,101	0,046
-553,656	800,000	0,005	-0,014
-552,642	800,000	0,049	0,139
-551,627	22,778	-0,052	0,031
-550,612	-133,302	0,021	-0,002
-549,598	773,818	-0,019	-0,038
-548,583	123,168	-0,061	-0,055
-547,569	-26,730	0,049	0,020
-546,554	-200,000	0,001	0,025
-545,539	386,870	0,049	0,073
-544,525	800,000	-0,054	-0,143
-543,510	-200,000	-0,022	-0,125
-542,496	47,283	-0,039	0,026
-541,481	800,000	-0,025	-0,076
-540,466	-146,107	0,036	0,002
-539,452	18,876	0,063	-0,037
-538,437	241,167	0,104	0,126
-537,423	-200,000	-0,022	0,198
-536,408	-173,524	0,042	-0,001
-535,393	444,049	0,038	-0,061
-534,379	800,000	-0,057	-0,140
-533,364	-200,000	0,001	0,151
-532,350	-106,871	-0,079	-0,012
-531,335	157,706	0,040	-0,040
-530,321	-7,966	0,095	-0,046
-529,306	96,266	-0,026	-0,022
-528,291	294,761	-0,054	0,071
-527,277	677,985	-0,061	-0,114
-526,262	-200,000	-0,016	-0,094
-525,248	172,253	0,110	-0,114
-524,233	-56,993	-0,033	-0,011
-523,218	-64,318	0,065	0,019
-522,204	-77,635	-0,181	0,045
-521,189	800,000	0,037	-0,109
-520,175	-19,608	-0,108	-0,048
-519,160	-157,216	-0,200	0,009
-518,145	91,342	0,074	-0,060
-517,131	-200,000	-0,005	0,077
-516,116	-200,000	0,030	0,110
-515,102	-200,000	-0,007	0,094
-514,087	-132,534	-0,098	-0,009
-513,072	476,253	0,062	0,102
-512,058	-65,238	0,181	-0,052
-511,043	266,902	-0,100	0,127
-510,029	527,577	0,032	0,054
-509,014	-200,000	-0,012	0,056
-507,999	40,107	-0,094	-0,061
-506,985	175,963	-0,044	-0,046
-505,970	-23,320	0,041	-0,018
-504,956	-200,000	0,031	-0,109
-503,941	513,361	-0,064	0,109
-502,926	-200,000	0,003	0,064
-501,912	-152,495	-0,092	-0,005
-500,897	-40,699	-0,132	0,049
-499,883	-200,000	0,018	0,068
-498,868	-200,000	-0,009	0,060
-497,853	-200,000	0,020	-0,074
-496,839	-0,888	-0,054	-0,027
-495,824	-61,100	0,132	0,040
-494,810	-200,000	0,001	0,018
-493,795	351,335	-0,041	0,058
-492,781	-62,809	-0,068	0,020
-491,766	800,000	0,061	-0,182
-490,751	-62,664	0,160	-0,047
-489,737	-178,725	0,035	-0,001
-488,722	272,732	0,034	0,044
-487,708	-200,000	-0,002	0,118
-486,693	113,157	0,113	-0,099
-485,678	332,589	-0,056	0,078
-484,664	123,532	-0,045	0,040
-483,649	-33,619	-0,142	-0,056
-482,635	486,355	0,043	-0,071
-481,620	66,550	0,070	-0,051
-480,605	163,819	-0,089	-0,090
-479,591	-200,000	0,044	-0,149
-478,576	753,963	-0,007	0,014
-477,562	-36,352	-0,105	0,040
-476,547	-200,000	0,008	-0,063
-475,532	800,000	-0,025	-0,054
-474,518	-124,475	0,039	0,004
-473,503	-161,761	0,130	-0,005
-472,489	330,539	0,085	0,119
-471,474	-82,428	0,067	0,016
-470,459	8,758	-0,142	-0,077
-469,445	-83,457	0,083	0,019
-468,430	-173,631	0,068	-0,001
-467,416	147,288	0,063	0,061
-466,401	465,826	-0,052	0,085
-465,386	-200,000	0,016	0,083
-464,372	-200,000	-0,013	-0,134
-463,357	-0,847	0,041	-0,021
-462,343	-36,591	-0,140	-0,054
-461,328	427,599	-0,080	-0,124
-460,313	800,000	0,014	-0,028
-459,299	42,877	0,035	-0,023
-458,284	-200,000	-0,003	0,118
-457,270	67,439	0,079	-0,058
-456,255	-115,561	-0,110	0,015
-455,241	-200,000	-0,013	0,050
-454,226	800,000	-0,040	-0,087
-453,211	-75,237	0,134	0,034
-452,197	158,329	-0,089	-0,089
-451,182	-200,000	0,022	0,192
-450,168	697,413	0,077	0,147
-449,153	-200,000	0,007	-0,053
-448,138	-82,781	-0,059	-0,014
-447,124	123,434	-0,057	-0,051
-446,109	-25,467	-0,080	0,034
-445,095	-149,407	-0,036	0,002
-444,080	-90,111	-0,034	0,007
-443,065	294,634	0,047	0,062
-442,051	412,047	-0,058	-0,089
-441,036	108,306	-0,079	-0,068
-440,022	-200,000	-0,015	-0,103
-439,007	73,619	0,076	-0,057
-437,992	69,343	-0,050	0,037
-436,978	800,000	0,023	-0,051
-435,963	-117,195	0,049	-0,006
-434,949	11,437	-0,015	0,009
-433,934	76,916	-0,088	-0,067
-432,919	-200,000	-0,030	0,105
-431,905	65,836	-0,066	-0,048
-430,890	-101,523	0,045	-0,008
-429,876	-48,597	0,081	-0,028
-428,861	-200,000	-0,004	0,050
-427,846	52,979	-0,033	-0,023
-426,832	-200,000	0,012	-0,084
-425,817	-152,610	0,127	-0,006
-424,803	-200,000	-0,017	-0,075
-423,788	-200,000	0,001	0,154
-422,773	800,000	0,035	-0,081
-421,759	-137,490	0,084	-0,007
-420,744	-200,000	-0,022	0,148
-419,730	-200,000	-0,015	-0,105
-418,715	-159,486	-0,153	0,006
-417,701	800,000	-0,046	-0,118
-416,686	-63,018	0,121	0,036
-415,671	771,964	0,052	0,103
-414,657	222,119	-0,044	0,051
-413,642	800,000	0,068	0,159
-412,628	800,000	-0,027	-0,061
-411,613	-14,542	0,102	-0,047
-410,598	-200,000	0,020	0,080
-409,584	56,595	0,059	0,042
-408,569	56,867	0,086	-0,060
-407,555	-141,690	0,046	-0,003
-406,540	-103,584	-0,158	-0,026
-405,525	-99,893	-0,110	0,020
-404,511	-200,000	0,002	-0,031
-403,496	501,727	-0,036	0,059
-402,482	785,110	0,008	-0,015
-401,467	-99,607	-0,121	0,022
-400,452	-200,000	0,031	0,197
-399,438	-19,319	-0,071	0,032
-398,423	-200,000	-0,014	-0,138
-397,409	187,353	-0,043	-0,046
-396,394	313,548	-0,053	-0,072
-395,379	118,932	-0,119	0,106
-394,365	800,000	0,030	0,092
-393,350	-200,000	0,031	0,150
-392,336	272,430	0,052	-0,066
-391,321	-200,000	-0,055	0,204
-390,306	415,173	-0,039	0,060
-389,292	217,939	0,100	-0,115
-388,277	-200,000	0,001	-0,009
-387,263	800,000	-0,037	0,097
-386,248	221,384	0,042	0,049
-385,233	-81,598	-0,169	0,040
-384,219	800,000	-0,046	0,107
-383,204	800,000	-0,024	-0,051
-382,190	196,908	-0,062	-0,068
-381,175	408,167	-0,064	0,098
-380,160	147,374	-0,025	0,024
-379,146	685,163	0,079	0,150
-378,131	-83,778	-0,122	0,028
-377,117	-200,000	-0,022	0,143
-376,102	120,012	-0,058	-0,052
-375,088	14,210	-0,066	-0,037
-374,073	-200,000	0,014	-0,087
-373,058	800,000	0,037	0,109
-372,044	-200,000	0,004	0,047
-371,029	-96,509	0,123	-0,023
-370,015	122,831	-0,024	0,021
-369,000	800,000	-0,025	0,053
-367,985	732,480	0,005	-0,010
-366,971	-200,000	0,005	0,098
-365,956	575,409	-0,073	-0,128
-364,942	-69,076	-0,111	0,030
-363,927	210,646	0,080	0,090
-362,912	-200,000	0,005	0,148
-361,898	154,842	-0,083	-0,082
-360,883	-200,000	-0,016	-0,065
-359,869	-132,740	0,041	0,004
-358,854	-144,408	-0,074	0,005
-357,839	129,950	0,064	-0,059
-356,825	-200,000	-0,003	-0,059
-355,810	274,543	-0,009	0,012
-354,796	-61,589	-0,061	0,018
-353,781	-200,000	0,015	0,049
-352,766	-159,748	-0,095	-0,004
-351,752	16,476	-0,106	-0,060
-350,737	-200,000	0,007	-0,045
-349,723	307,543	0,068	0,091
-348,708	-182,243	-0,097	0,001
-347,693	-200,000	-0,017	-0,102
-346,679	123,982	0,062	-0,056
-345,664	17,996	-0,030	0,017
-344,650	-200,000	0,002	-0,006
-343,635	-200,000	-0,006	0,036
-342,620	478,297	0,040	0,065
-341,606	-117,386	0,059	0,008
-340,591	32,670	0,099	-0,061
-339,577	-200,000	-0,023	0,103
-338,562	-200,000	-0,021	0,133
-337,548	-200,000	0,003	-0,118
-336,533	-69,260	0,077	0,021
-335,518	56,317	-0,020	0,014
-334,504	-200,000	0,002	0,212
-333,489	102,129	-0,101	0,085
-332,475	800,000	-0,009	-0,024
-331,460	248,317	-0,054	-0,066
-330,445	203,780	-0,011	0,012
-329,431	54,621	0,008	-0,005
-328,416	-153,748	0,075	0,004
-327,402	800,000	0,006	-0,017
-326,387	-189,328	-0,109	-0,001
-325,372	74,013	-0,009	0,007
-324,358	476,808	0,049	0,080
-323,343	387,131	0,030	0,044
-322,329	326,336	0,073	-0,100
-321,314	620,934	-0,034	0,061
-320,299	72,197	0,073	0,054
-319,285	-59,541	-0,025	0,008
-318,270	800,000	0,021	-0,066
-317,256	183,573	-0,125	-0,133
-316,241	602,665	0,022	-0,040
-315,226	-200,000	-0,008	-0,097
-314,212	18,233	0,081	-0,046
-313,197	800,000	-0,032	0,095
-312,183	38,510	-0,095	0,061
-311,168	224,955	0,063	0,073
-310,153	-14,861	0,066	0,030
-309,139	-39,425	-0,025	0,009
-308,124	800,000	0,027	-0,068
-307,110	97,825	0,084	0,069
-306,095	4,100	0,197	0,103
-305,080	800,000	0,054	0,127
-304,066	281,066	0,017	0,021
-303,051	-116,737	-0,100	-0,013
-302,037	161,649	0,056	-0,056
-301,022	13,894	-0,154	0,086
-300,008	385,106	-0,049	-0,072
-298,993	294,156	-0,021	-0,028
-297,978	-145,061	0,106	-0,007
-296,964	-200,000	0,015	0,074
-295,949	-43,929	0,015	-0,005
-294,935	800,000	0,018	0,043
-293,920	800,000	-0,004	-0,009
-292,905	22,118	-0,037	-0,021
-291,891	-3,386	0,101	0,050
-290,876	-95,427	-0,162	0,031
-289,862	-5,734	0,053	-0,026
-288,847	-141,389	0,077	-0,006
-287,832	-200,000	-0,015	-0,133
-286,818	217,993	-0,020	0,023
-285,803	558,730	0,005	0,009
-284,789	-48,441	0,039	-0,013
-283,774	85,580	0,073	-0,058
-282,759	-102,776	-0,065	0,011
-281,745	800,000	-0,023	-0,057
-280,730	310,229	-0,032	-0,042
-279,716	-200,000	0,004	-0,026
-278,701	155,124	-0,116	0,114
-277,686	-200,000	-0,020	0,216
-276,672	93,311	0,075	0,060
-275,657	428,540	-0,040	0,063
-274,643	121,757	-0,113	-0,101
-273,628	438,707	-0,066	-0,103
-272,613	-54,103	0,074	0,024
-271,599	317,738	-0,102	0,139
-270,584	-159,038	0,037	0,001
-269,570	-125,999	0,125	-0,013
-268,555	793,264	-0,026	0,052
-267,540	-200,000	0,026	-0,264
-266,526	-200,000	-0,012	-0,082
-265,511	37,530	-0,051	-0,032
-264,497	800,000	-0,038	-0,079
-263,482	108,124	-0,065	0,056
-262,467	260,796	0,051	-0,063
-261,453	-174,926	-0,092	0,002
-260,438	-200,000	-0,004	-0,242
-259,424	-200,000	-0,009	0,071
-258,409	-41,761	0,038	0,014
-257,395	231,444	0,046	-0,054
-256,380	138,256	0,070	0,065
-255,365	-64,990	0,060	-0,017
-254,351	300,432	-0,022	-0,028
-253,336	-200,000	-0,001	-0,044
-252,322	173,035	-0,088	-0,091
-251,307	-27,446	-0,077	-0,032
-250,292	-103,931	0,157	0,026
-249,278	66,527	0,151	0,110
-248,263	800,000	-0,018	-0,038
-247,249	21,214	0,033	-0,019
-246,234	-200,000	-0,020	0,157
-245,219	800,000	-0,052	-0,105
-244,205	104,657	0,043	-0,036
-243,190	-57,139	0,030	-0,009
-242,176	-138,871	-0,039	0,003
-241,161	-90,690	0,217	0,044
-240,146	-82,388	0,089	0,020
-239,132	-135,612	0,060	-0,005
-238,117	-11,569	-0,143	-0,067
-237,103	58,940	0,120	-0,084
-236,088	-200,000	0,002	-0,118
-235,073	-200,000	0,004	0,026
-234,059	26,113	0,084	0,050
-233,044	800,000	-0,017	0,040
-232,030	-3,442	-0,065	-0,032
-231,015	800,000	-0,066	-0,157
-230,000	-200,000	0,022	0,080
-228,986	746,232	0,047	0,091
-227,971	44,379	0,069	0,045
-226,957	-40,014	0,024	-0,009
-225,942	-136,295	-0,090	0,007
-224,927	800,000	0,013	0,035
-223,913	173,679	0,097	0,100
-222,898	705,559	0,056	-0,107
-221,884	768,437	0,025	-0,049
-220,869	-86,517	-0,026	0,006
-219,855	800,000	0,021	0,058
-218,840	8,128	-0,029	-0,015
-217,825	800,000	0,041	0,116
-216,811	581,819	0,036	-0,064
-215,796	87,063	-0,146	-0,115
-214,782	-112,471	0,230	-0,032
-213,767	134,963	0,039	-0,037
-212,752	85,116	0,090	-0,070
-211,738	-200,000	0,033	0,107
-210,723	-123,518	-0,024	-0,003
-209,709	262,570	0,155	0,193
-208,694	181,959	-0,040	-0,042
-207,679	691,600	0,043	-0,082
-206,665	-200,000	0,008	0,122
-205,650	39,003	0,018	-0,011
-204,636	800,000	0,041	0,108
-203,621	800,000	-0,082	-0,172
-202,606	-114,938	-0,119	-0,016
-201,592	-200,000	-0,011	-0,091
-200,577	-88,477	-0,201	-0,042
-199,563	-200,000	0,018	-0,169
-198,548	177,572	0,113	0,117
-197,533	547,701	0,090	-0,154
-196,519	309,940	-0,019	0,025
-195,504	-200,000	0,003	0,034
-194,490	-200,000	-0,007	0,039
-193,475	-200,000	-0,010	-0,114
-192,460	-104,960	0,079	-0,013
-191,446	800,000	0,044	-0,125
-190,431	-79,549	0,174	-0,042
-189,417	230,907	-0,045	0,053
-188,402	30,890	-0,012	-0,008
-187,387	28,673	-0,106	0,064
-186,373	-123,266	0,106	0,012
-185,358	515,622	-0,084	-0,141
-184,344	-18,909	0,111	0,049
-183,329	-200,000	-0,011	0,073
-182,315	-47,186	0,055	0,019
-181,300	-200,000	0,012	0,105
-180,285	-200,000	0,004	-0,079
-179,271	-164,497	-0,126	-0,004
-178,256	-200,000	0,014	0,047
-177,242	105,208	0,058	0,049
-176,227	-200,000	0,010	0,046
-175,212	520,108	-0,070	0,117
-174,198	-104,357	0,140	0,023
-173,183	126,618	0,078	-0,070
-172,169	-51,718	-0,094	-0,031
-171,154	-200,000	-0,004	-0,094
-170,139	-124,991	-0,067	-0,007
-169,125	800,000	0,027	0,059
-168,110	-48,292	-0,037	-0,013
-167,096	800,000	-0,020	-0,047
-166,081	462,519	-0,080	-0,128
-165,066	143,315	0,056	-0,053
-164,052	22,625	-0,098	0,057
-163,037	147,197	0,068	0,066
-162,023	534,693	-0,074	0,125
-161,008	-200,000	0,006	0,144
-159,993	122,844	0,046	0,041
-158,979	-160,349	0,121	-0,005
-157,964	771,639	0,054	-0,105
-156,950	120,823	0,100	-0,089
-155,935	256,425	-0,068	0,083
-154,920	-200,000	-0,017	0,112
-153,906	-87,977	-0,033	0,007
-152,891	-200,000	0,009	-0,058
-151,877	460,541	0,066	-0,105
-150,862	157,639	-0,111	-0,109
-149,847	58,540	0,074	0,052
-148,833	-102,870	0,076	-0,013
-147,818	-200,000	0,056	-0,185
-146,804	8,336	0,169	0,090
-145,789	98,641	0,009	-0,007
-144,775	98,475	-0,140	0,115
-143,760	-200,000	0,013	-0,043
-142,745	-200,000	0,025	-0,118
-141,731	800,000	0,023	-0,056
-140,716	87,362	-0,118	0,093
-139,702	-57,773	0,130	0,040
-138,687	129,249	-0,011	0,010
-137,672	4,412	0,110	0,057
-136,658	-41,880	-0,110	0,040
-135,643	360,188	-0,060	-0,086
-134,629	800,000	-0,028	-0,077
-133,614	-39,493	0,088	-0,033
-132,599	-50,791	0,113	-0,038
-131,585	-200,000	0,011	0,035
-130,570	95,447	0,048	0,039
-129,556	800,000	-0,030	-0,074
-128,541	-200,000	-0,022	-0,113
-127,526	507,492	0,025	-0,041
-126,512	369,626	-0,030	0,043
-125,497	-200,000	-0,031	0,144
-124,483	-48,423	0,072	0,025
-123,468	800,000	-0,018	-0,046
-122,453	-93,670	0,069	-0,013
-121,439	-44,976	-0,113	0,040
-120,424	136,642	-0,059	-0,055
-119,410	22,709	0,166	-0,097
-118,395	-125,874	0,106	-0,011
-117,380	800,000	0,095	0,243
-116,366	800,000	0,035	0,107
-115,351	10,372	-0,044	0,024
-114,337	249,629	-0,121	0,146
-113,322	36,048	0,044	-0,028
-112,307	209,087	-0,005	-0,005
-111,293	28,827	-0,054	0,033
-110,278	800,000	-0,006	0,012
-109,264	183,513	0,051	-0,054
-108,249	-200,000	-0,022	0,207
-107,234	295,909	0,057	0,074
-106,220	142,787	-0,077	0,073
-105,205	443,230	0,139	-0,217
-104,191	800,000	0,041	0,113
-103,176	-97,883	0,044	0,008
-102,162	-44,798	-0,101	-0,036
-101,147	800,000	0,013	-0,028
-100,132	66,388	-0,080	-0,057
-99,118	303,388	0,091	-0,121
-98,103	557,939	-0,061	0,105
-97,089	2,470	-0,014	-0,007
-96,074	412,120	-0,020	-0,030
-95,059	800,000	-0,038	0,100
-94,045	-28,167	0,060	0,024
-93,030	57,546	-0,050	0,035
-92,016	-200,000	0,035	-0,128
-91,001	-200,000	0,010	-0,086
-89,986	800,000	0,004	-0,010
-88,972	403,467	0,044	0,066
-87,957	212,945	-0,050	-0,056
-86,943	183,649	0,044	0,047
-85,928	-109,407	-0,128	0,019
-84,913	-200,000	0,009	-0,095
-83,899	-59,305	0,077	0,023
-82,884	78,821	-0,103	0,078
-81,870	800,000	-0,020	-0,050
-80,855	-72,042	-0,040	0,011
-79,840	-200,000	0,010	0,056
-78,826	385,367	0,131	0,193
-77,811	-200,000	-0,011	-0,125
-76,797	287,154	0,095	0,122
-75,782	322,947	-0,062	0,084
-74,767	-166,392	0,108	-0,003
-73,753	96,807	0,092	0,075
-72,738	83,815	-0,039	-0,030
-71,724	-200,000	0,024	0,086
-70,709	-200,000	-0,004	-0,087
-69,694	-10,862	-0,044	-0,020
-68,680	486,231	0,046	0,075
-67,665	800,000	-0,004	0,012
-66,651	800,000	0,062	0,143
-65,636	-200,000	0,001	0,104
-64,622	175,128	-0,055	0,056
-63,607	-200,000	-0,025	-0,103
-62,592	168,680	-0,045	-0,046
-61,578	46,888	0,034	-0,022
-60,563	23,282	-0,053	0,031
-59,549	29,948	0,109	0,066
-58,534	-27,199	-1,450	-0,597
-57,519	389,865	-1,497	-2,208
-56,505	-200,000	-0,470	-4,524
-55,490	203,351	0,861	0,946
-54,476	800,000	4,744	11,310
-53,461	-200,000	18,376	292,308
-52,446	800,000	729,223	2245,060
-51,432	558,886	1645,397	2827,047
-50,417	78,983	1666,051	1263,657
-49,403	22,659	1539,341	891,318
-48,388	16,616	1462,553	817,535
-47,373	17,905	1452,261	817,965
-46,359	17,163	1442,971	809,150
-45,344	14,905	1438,210	795,651
-44,330	14,856	1436,132	794,235
-43,315	14,836	1434,340	793,116
-42,300	14,816	1432,764	792,119
-41,286	14,868	1431,819	791,814
-40,271	14,906	1430,266	791,102
-39,257	14,899	1429,040	790,361
-38,242	14,886	1427,687	789,516
-37,227	14,890	1426,641	788,926
-36,213	14,885	1425,382	788,174
-35,198	14,921	1423,987	787,546
-34,184	14,897	1423,134	786,929
-33,169	14,840	1421,982	785,987
-32,154	14,905	1420,917	785,678
-31,140	14,880	1419,620	784,808
-30,125	14,956	1418,279	784,397
-29,111	14,934	1417,089	783,604
-28,096	14,822	1416,279	782,595
-27,082	14,813	1415,086	781,864
-26,067	14,808	1413,977	781,198
-25,052	14,785	1413,032	780,534
-24,038	14,782	1412,134	779,995
-23,023	14,772	1411,011	779,295
-22,009	14,844	1409,787	778,929
-20,994	14,759	1409,186	778,165
-19,979	14,768	1408,054	777,551
-18,965	14,682	1407,145	776,615
-17,950	14,737	1406,330	776,394
-16,936	14,746	1405,115	775,734
-15,921	14,685	1404,262	774,945
-14,906	14,674	1403,379	774,378
-13,892	14,721	1402,295	773,968
-12,877	14,692	1401,648	773,445
-11,863	14,687	1400,619	772,821
-10,848	14,695	1399,760	772,358
-9,833	14,657	1398,911	771,681
-8,819	14,630	1398,150	771,104
-7,804	14,605	1397,169	770,415
-6,790	14,617	1395,987	769,790
-5,775	14,621	1394,981	769,222
-4,760	14,577	1394,143	768,526
-3,746	14,607	1393,301	768,172
-2,731	14,620	1392,498	767,758
-1,717	14,620	1391,598	767,231
-0,702	14,617	1389,577	766,074
0,313	18,227	1308,441	738,127
1,327	34,484	705,704	435,792
2,342	52,641	124,243	83,978
3,356	4,392	16,570	8,580
4,371	-2,366	3,184	1,576
5,386	-41,490	0,592	0,215
6,400	-200,000	0,051	0,293
7,415	37,750	-0,142	-0,089
8,429	230,615	-0,288	-0,334
9,444	49,539	-0,329	-0,219
10,459	17,965	-0,466	-0,262
11,473	21,367	-0,360	-0,207
12,488	153,380	-0,272	-0,264
13,502	-22,028	-0,330	-0,141
14,517	55,032	-0,212	-0,145
15,531	40,491	-0,288	-0,183
16,546	149,577	-0,222	-0,213
17,561	95,089	-0,370	-0,298
18,575	12,173	-0,220	-0,120
19,590	800,000	-0,188	-0,372
20,604	0,177	-0,331	-0,166
21,619	53,256	-0,386	-0,261
22,634	153,603	-0,372	-0,360
23,648	-6,562	-0,535	-0,257
24,663	34,470	-0,469	-0,289
25,677	-30,423	-0,383	-0,153
26,692	161,767	-0,318	-0,315
27,707	81,331	-0,359	-0,274
28,721	35,621	-0,362	-0,225
29,736	62,907	-0,331	-0,234
30,750	114,173	-0,383	-0,329
31,765	164,797	-0,298	-0,298
32,780	98,508	-0,327	-0,266
33,794	-2,267	-0,428	-0,211
34,809	5,926	-0,424	-0,221
35,823	-31,040	-0,421	-0,167
36,838	51,824	-0,407	-0,273
37,853	-35,666	-0,384	-0,146
38,867	165,121	-0,311	-0,311
39,882	32,023	-0,444	-0,269
40,896	75,531	-0,329	-0,245
41,911	536,614	-0,206	-0,347
42,926	-17,603	-0,445	-0,197
43,940	-0,718	-0,414	-0,207
44,955	211,702	-0,302	-0,336
45,969	61,382	-0,374	-0,262
46,984	224,584	-0,247	-0,283
47,999	90,977	-0,279	-0,221
49,013	164,082	-0,337	-0,335
50,028	146,420	-0,289	-0,274
51,042	185,234	-0,208	-0,218
52,057	50,316	-0,403	-0,268
53,071	116,136	-0,315	-0,272
54,086	39,602	-0,417	-0,263
55,101	56,058	-0,384	-0,262
56,115	33,877	-0,409	-0,251
57,130	66,331	-0,394	-0,282
58,144	-73,080	-0,444	-0,114
59,159	97,759	-0,420	-0,341
60,174	422,471	-0,220	-0,334
61,188	268,038	-0,264	-0,326
62,203	-23,042	-0,317	-0,134
63,217	108,965	-0,264	-0,223
64,232	88,740	-0,186	-0,145
65,247	369,624	-0,236	-0,338
66,261	11,576	-0,380	-0,205
67,276	88,440	-0,419	-0,327
68,290	143,155	-0,295	-0,277
69,305	53,280	-0,310	-0,209
70,320	136,339	-0,241	-0,221
71,334	-21,228	-0,381	-0,163
72,349	91,029	-0,246	-0,194
73,363	68,064	-0,323	-0,232
74,378	29,493	-0,369	-0,220
75,393	244,542	-0,241	-0,285
76,407	-68,242	-0,329	-0,089
77,422	-4,451	-0,294	-0,143
78,436	80,071	-0,318	-0,240
79,451	-82,094	-0,290	-0,066
80,466	94,239	-0,358	-0,286
81,480	-22,591	-0,362	-0,154
82,495	-65,271	-0,406	-0,114
83,509	164,935	-0,176	-0,175
84,524	-128,236	-0,294	-0,029
85,539	283,413	-0,122	-0,155
86,553	239,598	-0,219	-0,257
87,568	62,206	-0,368	-0,258
88,582	25,166	-0,389	-0,227
89,597	103,849	-0,236	-0,195
90,611	132,372	-0,277	-0,251
91,626	3,973	-0,313	-0,160
92,641	-98,248	-0,239	-0,043
93,655	-27,266	-0,278	-0,113
94,670	91,007	-0,270	-0,212
95,684	10,535	-0,392	-0,209
96,699	-65,295	-0,360	-0,101
97,714	-20,136	-0,292	-0,126
98,728	250,873	-0,217	-0,260
99,743	800,000	-0,091	-0,191
100,757	121,924	-0,257	-0,225
101,772	-56,126	-0,288	-0,090
102,787	83,293	-0,317	-0,242
103,801	110,900	-0,241	-0,203
104,816	58,612	-0,194	-0,133
105,830	-18,437	-0,339	-0,148
106,845	339,587	-0,205	-0,281
107,860	-78,254	-0,235	-0,056
108,874	111,005	-0,224	-0,189
109,889	30,933	-0,262	-0,157
110,903	-32,040	-0,407	-0,159
111,918	74,433	-0,251	-0,185
112,933	52,529	-0,272	-0,182
113,947	119,502	-0,252	-0,219
114,962	-161,486	-0,284	-0,010
115,976	192,701	-0,169	-0,180
116,991	94,694	-0,315	-0,251
118,006	124,792	-0,427	-0,377
119,020	39,022	-0,275	-0,172
120,035	101,803	-0,269	-0,220
121,049	43,609	-0,214	-0,137
122,064	73,820	-0,310	-0,228
123,079	-36,424	-0,256	-0,096
124,093	-23,094	-0,265	-0,112
125,108	61,645	-0,245	-0,171
126,122	285,273	-0,181	-0,229
127,137	-14,644	-0,300	-0,134
128,151	-187,399	-0,238	-0,002
129,166	195,604	-0,160	-0,171
130,181	-142,496	-0,222	-0,015
131,195	141,120	-0,279	-0,258
132,210	215,213	-0,276	-0,307
133,224	5,282	-0,206	-0,106
134,239	84,550	-0,239	-0,183
135,254	288,959	-0,175	-0,223
136,268	496,032	-0,171	-0,276
137,283	164,366	-0,240	-0,237
138,297	116,055	-0,249	-0,214
139,312	247,879	-0,240	-0,285
140,327	63,526	-0,275	-0,193
141,341	162,374	-0,249	-0,245
142,356	-59,839	-0,205	-0,061
143,370	188,099	-0,234	-0,245
144,385	168,467	-0,228	-0,227
145,400	126,609	-0,236	-0,209
146,414	58,009	-0,282	-0,193
147,429	239,457	-0,175	-0,205
148,443	169,981	-0,163	-0,163
149,458	-12,667	-0,223	-0,101
150,473	25,504	-0,262	-0,152
151,487	-133,612	-0,308	0,027
152,502	-46,998	-0,289	-0,098
153,516	56,673	-0,389	-0,264
154,531	-39,418	-0,232	-0,085
155,546	301,160	-0,175	-0,227
156,560	19,058	-0,312	-0,174
157,575	110,821	-0,109	-0,091
158,589	10,834	-0,172	-0,092
159,604	-120,685	-0,219	-0,026
160,619	66,692	-0,341	-0,242
161,633	34,399	-0,261	-0,159
162,648	-12,830	-0,311	-0,141
163,662	-21,353	-0,182	-0,077
164,677	478,993	-0,102	-0,161
165,692	123,752	-0,108	-0,094
166,706	32,378	-0,269	-0,162
167,721	5,522	-0,291	-0,149
168,735	395,422	-0,105	-0,154
169,750	140,609	-0,237	-0,219
170,764	18,324	-0,194	-0,108
171,779	126,477	-0,133	-0,118
172,794	60,901	-0,242	-0,167
173,808	281,345	-0,122	-0,153
174,823	152,597	-0,288	-0,275
175,837	9,924	-0,279	-0,148
176,852	82,442	-0,283	-0,214
177,867	456,140	-0,140	-0,218
178,881	23,429	-0,209	-0,120
179,896	113,698	-0,302	-0,256
180,910	42,539	-0,193	-0,122
181,925	194,464	-0,128	-0,135
182,940	97,403	-0,249	-0,199
183,954	-51,743	-0,123	-0,040
184,969	132,091	-0,139	-0,125
185,983	-53,289	-0,285	-0,091
186,998	465,380	-0,123	-0,192
188,013	-100,272	-0,283	0,049
189,027	-75,159	-0,245	-0,061
190,042	704,321	-0,144	-0,267
191,056	28,634	-0,289	-0,170
192,071	-200,000	-0,026	-0,129
193,086	85,085	-0,077	-0,059
194,100	67,403	-0,245	-0,174
195,115	173,665	-0,086	-0,086
196,129	93,640	-0,282	-0,222
197,144	104,091	-0,239	-0,196
198,159	-98,598	-0,324	-0,057
199,173	30,528	-0,210	-0,125
200,188	-65,061	-0,126	0,035
201,202	-33,585	-0,331	-0,127
202,217	-97,248	-0,211	-0,038
203,232	175,068	-0,111	-0,112
204,246	800,000	-0,076	-0,233
205,261	-14,153	-0,292	-0,130
206,275	15,212	-0,184	-0,100
207,290	-85,895	-0,218	-0,047
208,304	-80,939	-0,120	-0,028
209,319	54,360	-0,241	-0,161
210,334	401,233	-0,119	-0,174
211,348	171,670	-0,149	-0,149
212,363	98,064	-0,238	-0,191
213,377	446,432	-0,165	-0,253
214,392	-71,926	-0,389	-0,100
215,407	280,173	-0,129	-0,161
216,421	-112,473	-0,139	0,019
217,436	-113,156	-0,160	-0,022
218,450	3,115	-0,266	-0,134
219,465	789,464	-0,088	-0,168
220,480	190,420	-0,210	-0,219
221,494	104,639	-0,154	-0,126
222,509	-8,870	-0,176	-0,082
223,523	-123,573	-0,223	-0,024
224,538	-49,113	-0,188	-0,062
225,553	16,709	-0,200	-0,109
226,567	300,871	-0,148	-0,191
227,582	282,762	-0,208	-0,260
228,596	72,493	-0,242	-0,175
229,611	293,703	-0,171	-0,218
230,626	-121,406	-0,243	-0,028
231,640	7,913	-0,225	-0,117
232,655	133,852	-0,169	-0,152
233,669	173,588	-0,199	-0,199
234,684	50,161	-0,277	-0,181
235,699	-4,919	-0,230	-0,109
236,713	48,807	-0,210	-0,137
237,728	31,389	-0,213	-0,127
238,742	294,164	-0,208	-0,264
239,757	-5,203	-0,330	-0,157
240,772	339,138	-0,229	-0,310
241,786	162,855	-0,194	-0,189
242,801	792,678	-0,034	0,065
243,815	340,852	-0,160	-0,217
244,830	68,375	-0,140	-0,100
245,844	11,184	-0,107	-0,057
246,859	-14,824	-0,208	-0,092
247,874	153,539	-0,239	-0,227
248,888	70,502	-0,186	-0,134
249,903	278,738	-0,175	-0,216
250,917	312,802	-0,094	-0,123
251,932	351,940	-0,136	-0,188
252,947	50,443	-0,128	-0,084
253,961	103,028	-0,260	-0,211
254,976	201,811	-0,266	-0,284
255,990	800,000	-0,115	-0,226
257,005	126,238	-0,131	-0,115
258,020	-180,240	-0,127	0,002
259,034	-68,701	-0,194	-0,052
260,049	208,901	-0,160	-0,173
261,063	800,000	-0,093	-0,210
262,078	-78,977	-0,202	-0,047
263,093	-81,965	-0,173	-0,039
264,107	173,666	-0,141	-0,141
265,122	-200,000	-0,015	-0,089
266,136	146,698	-0,114	-0,106
267,151	122,407	-0,177	-0,153
268,166	367,710	-0,106	-0,148
269,180	188,034	-0,148	-0,154
270,195	97,962	-0,261	-0,208
271,209	-136,583	-0,253	0,020
272,224	-200,000	-0,053	-0,175
273,239	292,668	-0,115	-0,145
274,253	140,922	-0,167	-0,153
275,268	-137,182	-0,106	-0,008
276,282	40,599	-0,206	-0,128
277,297	25,601	-0,257	-0,148
278,312	-17,281	-0,199	-0,086
279,326	800,000	-0,054	-0,113
280,341	128,364	-0,119	-0,104
281,355	-119,785	-0,268	0,032
282,370	-45,180	-0,185	-0,063
283,384	153,222	-0,109	-0,103
284,399	158,622	-0,194	-0,186
285,414	459,268	-0,158	-0,244
286,428	-23,691	-0,050	0,020
287,443	800,000	0,029	-0,069
288,457	-98,188	-0,208	-0,037
289,472	53,673	-0,263	-0,174
290,487	324,862	-0,195	-0,259
291,501	124,958	-0,190	-0,165
292,516	6,274	-0,078	-0,040
293,530	89,507	-0,166	-0,127
294,545	800,000	-0,042	-0,114
295,560	377,165	-0,165	-0,234
296,574	65,967	-0,180	-0,126
297,589	77,359	-0,202	-0,148
298,603	-121,684	-0,077	-0,009
299,618	26,402	-0,206	-0,118
300,633	800,000	-0,096	-0,201
301,647	-200,000	-0,013	-0,173
302,662	106,767	-0,073	-0,060
303,676	-23,885	-0,086	-0,035
304,691	40,364	-0,127	-0,079
305,706	189,394	-0,162	-0,168
306,720	-157,411	-0,100	0,004
307,735	141,919	-0,169	-0,155
308,749	-125,846	-0,229	-0,024
309,764	800,000	-0,038	-0,073
310,779	287,854	-0,124	-0,155
311,793	27,519	-0,178	-0,103
312,808	281,826	-0,137	-0,170
313,822	-155,965	-0,219	-0,009
314,837	-89,032	-0,317	-0,064
315,852	-55,933	-0,143	-0,044
316,866	-92,329	-0,094	-0,018
317,881	-100,830	-0,145	-0,024
318,895	20,917	-0,138	-0,077
319,910	116,995	-0,123	-0,104
320,925	-200,000	-0,008	-0,235
321,939	206,198	-0,102	-0,110
322,954	800,000	-0,086	-0,166
323,968	-200,000	0,002	-0,146
324,983	421,453	-0,073	-0,108
325,997	-120,316	-0,202	-0,023
327,012	597,884	-0,187	-0,321
328,027	110,937	-0,063	-0,053
329,041	25,549	0,021	0,012
330,056	228,826	-0,112	-0,126
331,070	-200,000	-0,026	-0,097
332,085	-58,963	-0,200	0,059
333,100	-60,084	-0,110	-0,032
334,114	-118,169	-0,191	0,023
335,129	-35,711	-0,197	-0,073
336,143	800,000	-0,054	-0,111
337,158	-200,000	0,018	-0,073
338,173	-173,867	-0,129	0,003
339,187	165,980	-0,126	-0,122
340,202	800,000	-0,053	-0,125
341,216	179,001	-0,101	-0,101
342,231	2,735	-0,208	-0,103
343,246	132,096	-0,208	-0,184
344,260	800,000	-0,100	-0,206
345,275	800,000	-0,111	-0,216
346,289	101,246	-0,143	-0,115
347,304	27,734	-0,168	-0,097
348,319	82,011	-0,136	-0,101
349,333	-45,303	-0,298	-0,101
350,348	-96,714	-0,184	-0,033
351,362	-200,000	-0,117	-0,000
352,377	-128,262	-0,134	0,013
353,392	204,141	-0,108	-0,115
354,406	-200,000	0,004	-0,152
355,421	209,967	1312,769	1416,759
356,435	161,626	1473,257	1417,270
