DTS Sentinel unit serial number:	SN410029Multiplexer serial number:	ORYXHardware model number:	OX2-SRSoftware version number:	ORYX F/W v4,00 Oryx Data Collector v3.7.2.0data status	okinstallation	B3 Nyhavnadifferential loss correction	single-endedforward channel	channel 1reverse channel	N/Adate	2023/11/30time	07:47:30forward acquisition time	300,00reverse acquisition time	0,00gamma	499,1914k internal	0,3210k external	0,3210temperature offset calibration	1,0000default loss term (dB/km)	0,3820temperature slope calibration	1,0000multiplexer offset coefficient	1,0000multiplexer slope coefficient	1,0000fibre end	0,00T internal ref (°C)	9,94T ext. ref 1 (°C)	-5,61T ext. ref 2 (°C)	-5,70length (m)	temperature (°C)	Stokes	anti-Stokes-744,400	-1,691	-0,356	-0,181
-743,385	766,226	0,163	0,324
-742,371	321,637	-0,080	-0,110
-741,356	-200,000	0,025	0,345
-740,342	73,464	-0,066	-0,050
-739,327	-200,000	-0,063	0,308
-738,312	496,841	-0,198	-0,332
-737,298	-200,000	-0,075	0,299
-736,283	476,692	-0,117	-0,193
-735,269	-200,000	0,036	0,394
-734,254	-33,924	-0,223	-0,088
-733,239	-125,730	-0,270	0,029
-732,225	232,248	-0,117	-0,140
-731,210	86,047	0,180	0,144
-730,196	111,471	-0,008	-0,007
-729,181	-200,000	-0,006	-0,095
-728,167	6,952	-0,118	-0,063
-727,152	53,843	0,082	0,057
-726,137	-125,271	-0,048	-0,005
-725,123	178,781	-0,122	-0,129
-724,108	-92,082	-0,099	-0,020
-723,094	49,546	-0,064	-0,044
-722,079	-103,281	-0,120	0,020
-721,064	243,722	-0,049	-0,060
-720,050	475,954	-0,061	-0,101
-719,035	442,274	0,036	-0,057
-718,021	79,446	0,089	-0,069
-717,006	800,000	-0,045	0,107
-715,991	-200,000	-0,026	-0,103
-714,977	-27,575	-0,161	0,067
-713,962	-80,123	-0,042	0,010
-712,948	-200,000	0,029	-0,171
-711,933	490,392	0,024	-0,041
-710,918	-154,487	0,058	0,003
-709,904	-200,000	0,008	0,121
-708,889	64,922	-0,204	-0,149
-707,875	800,000	0,086	-0,196
-706,860	518,198	-0,046	-0,078
-705,845	-200,000	-0,004	0,109
-704,831	-19,637	-0,088	0,039
-703,816	182,613	-0,032	0,034
-702,802	39,546	0,043	0,028
-701,787	-200,000	0,019	-0,104
-700,772	-200,000	-0,009	-0,145
-699,758	-75,729	-0,085	-0,022
-698,743	85,936	0,125	0,100
-697,729	800,000	0,042	0,102
-696,714	-144,073	-0,122	0,008
-695,699	364,417	0,059	-0,087
-694,685	800,000	0,020	-0,047
-693,670	-57,928	0,040	0,013
-692,656	112,371	-0,066	-0,058
-691,641	-200,000	-0,005	0,129
-690,627	521,557	0,084	0,142
-689,612	-200,000	0,002	0,017
-688,597	361,530	-0,018	-0,026
-687,583	-200,000	-0,011	-0,129
-686,568	51,368	-0,128	-0,088
-685,554	-15,818	-0,134	0,061
-684,539	62,495	0,072	0,052
-683,524	-200,000	0,005	0,034
-682,510	800,000	0,049	-0,123
-681,495	-100,355	-0,067	0,012
-680,481	-200,000	-0,023	-0,096
-679,466	-19,169	0,082	-0,037
-678,451	800,000	0,032	-0,097
-677,437	55,650	0,131	-0,091
-676,422	-200,000	0,038	0,148
-675,408	-72,320	-0,203	0,054
-674,393	-151,978	-0,036	-0,002
-673,378	-61,780	-0,124	-0,037
-672,364	800,000	0,065	-0,151
-671,349	197,627	-0,067	0,074
-670,335	251,434	0,085	-0,105
-669,320	-5,047	0,065	0,032
-668,305	-105,957	-0,174	-0,028
-667,291	-148,445	0,110	0,006
-666,276	-200,000	0,003	-0,057
-665,262	-131,877	-0,137	-0,013
-664,247	244,224	0,050	0,061
-663,232	800,000	-0,018	0,059
-662,218	800,000	0,050	0,137
-661,203	-200,000	-0,002	-0,017
-660,189	-35,815	0,079	-0,031
-659,174	-1,477	-0,085	0,043
-658,159	377,385	-0,050	0,074
-657,145	-3,360	0,109	0,055
-656,130	-17,604	-0,103	-0,047
-655,116	800,000	-0,032	0,065
-654,101	-72,765	-0,075	-0,020
-653,086	-47,612	-0,100	-0,035
-652,072	-200,000	-0,007	-0,101
-651,057	800,000	-0,051	-0,145
-650,043	85,236	-0,226	-0,179
-649,028	-29,398	0,075	-0,031
-648,014	800,000	0,027	-0,079
-646,999	-200,000	-0,009	-0,030
-645,984	-200,000	0,017	0,096
-644,970	-200,000	-0,003	0,048
-643,955	-68,902	0,012	0,003
-642,941	338,911	-0,069	-0,098
-641,926	67,968	-0,069	-0,051
-640,911	31,501	0,144	-0,089
-639,897	-200,000	0,028	0,116
-638,882	-200,000	-0,002	-0,105
-637,868	600,797	0,045	-0,081
-636,853	-200,000	-0,024	-0,087
-635,838	-40,718	0,103	-0,038
-634,824	800,000	-0,045	-0,124
-633,809	800,000	0,032	-0,073
-632,795	-200,000	-0,001	-0,083
-631,780	-200,000	-0,015	0,222
-630,765	29,879	-0,114	0,070
-629,751	-200,000	-0,018	-0,152
-628,736	45,571	-0,069	-0,046
-627,722	218,598	-0,061	-0,071
-626,707	800,000	0,069	0,164
-625,692	280,351	0,021	0,028
-624,678	-200,000	-0,015	-0,075
-623,663	0,263	-0,153	0,078
-622,649	187,945	-0,052	-0,056
-621,634	-147,301	0,086	-0,005
-620,619	157,144	-0,065	-0,065
-619,605	34,654	-0,081	-0,051
-618,590	-23,074	-0,032	-0,014
-617,576	-200,000	0,011	-0,130
-616,561	-26,470	-0,099	0,042
-615,546	550,309	-0,079	-0,138
-614,532	-200,000	0,016	-0,083
-613,517	122,209	-0,046	0,041
-612,503	181,742	0,097	0,103
-611,488	-133,582	0,119	-0,011
-610,474	-23,200	-0,111	-0,048
-609,459	-167,062	0,126	0,004
-608,444	-200,000	0,002	-0,023
-607,430	-200,000	-0,013	-0,137
-606,415	228,449	-0,093	-0,109
-605,401	-64,740	0,058	-0,017
-604,386	-86,632	-0,074	-0,016
-603,371	-200,000	0,018	-0,082
-602,357	517,184	0,085	-0,144
-601,342	-9,333	0,046	0,022
-600,328	114,824	-0,057	0,050
-599,313	7,970	-0,048	0,026
-598,298	-34,899	0,139	-0,054
-597,284	-56,322	-0,089	-0,028
-596,269	149,626	-0,071	0,069
-595,255	800,000	0,090	0,196
-594,240	189,612	0,105	-0,113
-593,225	-99,532	-0,192	-0,034
-592,211	240,468	0,070	-0,084
-591,196	-146,208	-0,074	0,005
-590,182	649,786	-0,040	-0,073
-589,167	-200,000	0,079	0,000
-588,152	-10,129	0,030	-0,014
-587,138	169,507	-0,107	0,111
-586,123	-200,000	-0,035	-0,167
-585,109	-200,000	-0,012	0,047
-584,094	-120,907	-0,092	0,011
-583,079	446,142	-0,072	0,114
-582,065	124,954	-0,061	-0,055
-581,050	641,930	-0,031	-0,057
-580,036	191,560	0,067	-0,073
-579,021	-200,000	-0,015	-0,099
-578,006	157,090	0,046	-0,046
-576,992	63,243	0,054	0,039
-575,977	194,358	0,061	-0,067
-574,963	-200,000	-0,008	0,038
-573,948	-84,750	-0,024	0,005
-572,934	-60,125	-0,142	-0,043
-571,919	-200,000	-0,001	-0,100
-570,904	61,065	-0,056	-0,040
-569,890	340,192	0,145	-0,205
-568,875	-200,000	0,037	-0,140
-567,861	-200,000	0,018	0,091
-566,846	-81,787	-0,040	0,009
-565,831	289,972	0,120	0,157
-564,817	178,008	-0,111	0,117
-563,802	-200,000	-0,005	-0,024
-562,788	169,185	0,064	-0,066
-561,773	-200,000	-0,008	-0,053
-560,758	-129,792	-0,007	-0,001
-559,744	-168,897	0,055	-0,001
-558,729	605,762	-0,062	-0,111
-557,715	48,295	0,138	-0,093
-556,700	91,187	-0,104	-0,084
-555,685	-200,000	-0,017	-0,116
-554,671	-200,000	-0,003	0,042
-553,656	167,932	0,073	-0,074
-552,642	16,191	0,190	-0,107
-551,627	377,237	-0,043	-0,063
-550,612	-200,000	0,009	-0,112
-549,598	-200,000	0,003	-0,068
-548,583	53,940	-0,081	-0,056
-547,569	-200,000	-0,013	0,082
-546,554	-136,030	0,057	-0,005
-545,539	25,644	0,054	0,032
-544,525	475,727	0,128	0,209
-543,510	612,675	-0,069	-0,125
-542,496	-29,602	0,015	0,006
-541,481	37,854	-0,097	0,062
-540,466	-24,996	-0,061	-0,026
-539,452	800,000	0,026	0,071
-538,437	222,094	0,082	0,095
-537,423	-200,000	-0,030	0,198
-536,408	-167,755	-0,098	-0,003
-535,393	800,000	0,018	-0,044
-534,379	800,000	-0,025	-0,061
-533,364	789,461	-0,014	0,028
-532,350	231,665	0,118	0,139
-531,335	-64,823	0,179	-0,052
-530,321	-200,000	-0,015	0,103
-529,306	97,579	-0,076	0,063
-528,291	-150,456	0,057	0,003
-527,277	800,000	0,030	-0,083
-526,262	60,194	-0,084	0,060
-525,248	800,000	0,036	-0,091
-524,233	-200,000	0,049	0,178
-523,218	800,000	-0,048	0,122
-522,204	-200,000	-0,002	0,025
-521,189	31,469	0,033	0,020
-520,175	164,217	0,057	0,058
-519,160	-59,742	-0,037	-0,011
-518,145	-52,812	0,022	0,007
-517,131	-85,981	-0,113	-0,025
-516,116	107,841	0,085	0,072
-515,102	-200,000	-0,005	-0,168
-514,087	-7,746	-0,050	0,024
-513,072	-4,744	-0,056	-0,028
-512,058	800,000	-0,072	-0,200
-511,043	-56,905	-0,078	-0,025
-510,029	288,108	0,015	-0,019
-509,014	800,000	0,031	0,067
-507,999	800,000	0,037	-0,079
-506,985	-200,000	0,019	0,111
-505,970	67,967	0,027	0,020
-504,956	800,000	-0,045	-0,109
-503,941	-134,597	0,105	0,009
-502,926	-200,000	0,030	-0,102
-501,912	-35,891	0,099	0,038
-500,897	-40,028	-0,113	0,042
-499,883	-112,154	0,122	0,017
-498,868	800,000	-0,040	-0,111
-497,853	-122,439	0,070	0,008
-496,839	-171,178	-0,193	-0,005
-495,824	640,693	0,042	0,077
-494,810	174,341	0,123	-0,128
-493,795	417,402	0,010	-0,015
-492,781	-53,443	-0,110	0,036
-491,766	-174,942	0,046	-0,001
-490,751	-80,597	-0,083	-0,020
-489,737	800,000	-0,028	-0,065
-488,722	-200,000	-0,004	0,065
-487,708	-18,400	0,160	0,072
-486,693	137,262	-0,124	-0,116
-485,678	102,094	0,183	0,153
-484,664	120,258	-0,135	0,120
-483,649	24,185	-0,130	-0,077
-482,635	800,000	0,056	0,142
-481,620	800,000	-0,031	-0,070
-480,605	800,000	0,077	0,188
-479,591	42,086	-0,173	0,112
-478,576	800,000	-0,007	0,022
-477,562	81,601	-0,067	-0,052
-476,547	325,226	0,093	-0,128
-475,532	687,537	-0,017	-0,031
-474,518	543,984	-0,065	0,112
-473,503	61,421	0,112	0,080
-472,489	570,689	0,060	-0,106
-471,474	800,000	-0,021	-0,057
-470,459	-200,000	0,004	0,045
-469,445	173,058	0,089	-0,092
-468,430	37,188	-0,134	-0,085
-467,416	124,759	-0,090	0,082
-466,401	65,659	0,136	0,099
-465,386	-200,000	-0,005	0,052
-464,372	-200,000	-0,014	0,052
-463,357	-200,000	-0,014	-0,096
-462,343	39,488	0,077	0,050
-461,328	800,000	-0,029	-0,071
-460,313	-200,000	0,023	0,086
-459,299	-138,828	0,143	0,011
-458,284	-200,000	-0,012	-0,135
-457,270	764,224	0,028	0,055
-456,255	665,045	-0,089	0,166
-455,241	-42,947	-0,112	0,041
-454,226	53,000	-0,061	0,042
-453,211	800,000	0,053	-0,111
-452,197	800,000	0,044	0,110
-451,182	-60,207	0,079	-0,024
-450,168	800,000	0,006	-0,015
-449,153	142,708	-0,044	-0,042
-448,138	-200,000	-0,180	-0,000
-447,124	445,627	-0,064	0,102
-446,109	-200,000	-0,012	0,061
-445,095	10,465	-0,007	-0,004
-444,080	800,000	0,041	0,124
-443,065	500,688	-0,059	-0,097
-442,051	-87,454	-0,080	-0,017
-441,036	-138,978	-0,133	-0,010
-440,022	-84,334	0,048	-0,011
-439,007	326,063	-0,064	0,088
-437,992	226,164	-0,062	-0,072
-436,978	-76,427	-0,056	0,014
-435,963	-200,000	0,012	0,063
-434,949	-111,125	-0,086	0,012
-433,934	34,423	-0,079	0,049
-432,919	-200,000	0,004	-0,094
-431,905	800,000	-0,026	-0,065
-430,890	316,294	0,027	-0,037
-429,876	-174,377	0,179	-0,004
-428,861	115,730	0,076	0,066
-427,846	-115,830	0,119	0,016
-426,832	242,212	0,030	0,036
-425,817	-60,870	-0,062	0,019
-424,803	371,822	0,031	-0,045
-423,788	800,000	0,049	0,098
-422,773	-94,491	0,085	-0,016
-421,759	96,597	-0,102	0,084
-420,744	-11,571	-0,035	-0,016
-419,730	106,117	0,036	0,031
-418,715	197,082	-0,026	-0,029
-417,701	-200,000	0,013	-0,061
-416,686	-200,000	-0,017	-0,084
-415,671	75,792	0,039	0,030
-414,657	-108,261	-0,091	0,014
-413,642	-33,387	-0,106	-0,042
-412,628	23,134	0,063	0,037
-411,613	-109,628	0,040	-0,006
-410,598	800,000	0,027	0,064
-409,584	453,350	-0,028	-0,044
-408,569	255,289	0,070	0,087
-407,555	8,941	0,054	-0,029
-406,540	-93,575	0,049	0,010
-405,525	-28,998	-0,048	-0,020
-404,511	183,798	-0,012	-0,013
-403,496	-23,066	-0,109	0,047
-402,482	-200,000	-0,007	0,087
-401,467	210,490	0,094	0,105
-400,452	84,375	0,120	0,094
-399,438	-200,000	-0,036	0,142
-398,423	800,000	0,042	0,107
-397,409	349,179	-0,021	-0,030
-396,394	-200,000	0,007	0,037
-395,379	34,646	-0,052	-0,033
-394,365	-135,093	-0,049	0,004
-393,350	-127,727	-0,068	-0,007
-392,336	-200,000	0,012	0,058
-391,321	-200,000	-0,013	0,184
-390,306	-111,870	0,118	-0,017
-389,292	792,277	-0,032	0,063
-388,277	-200,000	0,001	-0,033
-387,263	-70,578	0,031	-0,008
-386,248	-200,000	0,070	0,000
-385,233	113,937	-0,030	0,026
-384,219	349,103	-0,084	0,119
-383,204	-105,594	-0,059	-0,009
-382,190	-200,000	-0,038	-0,189
-381,175	-22,178	-0,054	-0,023
-380,160	-200,000	-0,000	0,032
-379,146	-104,168	-0,103	0,017
-378,131	-14,666	0,100	-0,046
-377,117	-9,075	0,076	0,036
-376,102	-62,017	-0,146	-0,043
-375,088	-46,513	0,065	-0,023
-374,073	-200,000	-0,001	-0,053
-373,058	39,948	0,072	0,046
-372,044	-200,000	-0,047	-0,151
-371,029	800,000	-0,036	-0,084
-370,015	-58,864	0,043	0,013
-369,000	267,978	-0,068	-0,086
-367,985	269,857	0,081	-0,103
-366,971	-135,431	0,013	-0,001
-365,956	415,309	0,045	-0,069
-364,942	293,239	0,085	0,111
-363,927	-200,000	0,001	-0,008
-362,912	800,000	0,057	0,141
-361,898	175,155	-0,085	0,088
-360,883	-200,000	-0,027	-0,094
-359,869	42,330	-0,020	-0,013
-358,854	84,938	-0,039	-0,030
-357,839	-200,000	-0,011	-0,080
-356,825	129,952	0,058	0,053
-355,810	704,124	0,069	0,131
-354,796	-200,000	0,003	-0,023
-353,781	800,000	-0,018	-0,056
-352,766	-89,533	-0,044	-0,009
-351,752	651,724	0,070	0,129
-350,737	60,746	0,045	-0,032
-349,723	-93,451	0,038	0,007
-348,708	800,000	-0,016	0,044
-347,693	575,666	-0,047	-0,082
-346,679	159,622	0,026	0,026
-345,664	800,000	-0,033	-0,082
-344,650	-62,379	0,147	0,043
-343,635	-200,000	-0,025	0,244
-342,620	26,220	-0,009	0,005
-341,606	62,266	-0,105	-0,075
-340,591	-200,000	0,007	0,095
-339,577	-24,775	0,053	-0,022
-338,562	-117,080	-0,088	-0,011
-337,548	183,805	0,134	-0,142
-336,533	-68,146	-0,041	0,011
-335,518	-200,000	0,032	0,205
-334,504	-200,000	-0,010	0,191
-333,489	109,182	-0,052	-0,044
-332,475	-200,000	0,024	-0,145
-331,460	-200,000	-0,011	-0,077
-330,445	-200,000	0,000	-0,038
-329,431	-102,440	0,116	-0,020
-328,416	32,972	0,108	0,067
-327,402	9,642	-0,091	0,049
-326,387	-126,710	-0,107	-0,011
-325,372	-16,562	0,087	0,039
-324,358	405,631	0,071	-0,107
-323,343	564,603	-0,091	-0,159
-322,329	272,419	-0,092	-0,116
-321,314	150,107	-0,091	0,089
-320,299	135,802	0,083	0,077
-319,285	42,800	-0,016	0,010
-318,270	78,318	-0,120	0,091
-317,256	65,932	0,101	0,073
-316,241	-157,400	0,096	-0,004
-315,226	-200,000	-0,015	-0,103
-314,212	-120,125	0,045	0,005
-313,197	-200,000	-0,041	0,156
-312,183	-151,196	0,182	-0,010
-311,168	19,261	-0,035	-0,020
-310,153	-200,000	0,035	-0,123
-309,139	-200,000	0,018	-0,059
-308,124	-200,000	-0,009	-0,029
-307,110	800,000	-0,024	-0,061
-306,095	-161,668	-0,101	0,004
-305,080	-153,530	-0,120	0,006
-304,066	-97,429	0,072	0,013
-303,051	787,013	0,042	-0,083
-302,037	7,658	-0,062	0,033
-301,022	-200,000	0,019	0,083
-300,008	-70,827	0,082	0,022
-298,993	113,227	0,110	0,095
-297,978	800,000	-0,005	0,015
-296,964	60,756	0,116	0,082
-295,949	399,220	-0,035	0,053
-294,935	-93,316	-0,065	-0,013
-293,920	-200,000	0,027	0,146
-292,905	14,201	0,114	-0,063
-291,891	172,435	0,082	0,084
-290,876	126,423	-0,071	0,064
-289,862	800,000	-0,021	0,059
-288,847	-143,361	-0,205	0,014
-287,832	260,479	-0,094	-0,116
-286,818	530,517	0,033	-0,056
-285,803	-46,318	0,108	-0,038
-284,789	689,890	0,076	0,142
-283,774	-200,000	0,014	0,139
-282,759	202,476	-0,096	0,106
-281,745	5,684	-0,119	0,062
-280,730	690,757	0,004	0,008
-279,716	567,923	0,034	-0,058
-278,701	41,858	0,047	0,030
-277,686	-21,659	0,092	-0,040
-276,672	337,275	0,017	0,024
-275,657	-200,000	0,005	-0,081
-274,643	-132,571	-0,055	0,005
-273,628	-200,000	0,009	-0,047
-272,613	800,000	-0,037	-0,086
-271,599	355,173	0,059	0,084
-270,584	-200,000	-0,021	0,172
-269,570	-99,171	0,158	0,028
-268,555	678,618	-0,031	0,058
-267,540	117,310	-0,039	-0,034
-266,526	-121,667	-0,107	0,012
-265,511	-49,480	0,125	-0,042
-264,497	96,591	0,115	-0,094
-263,482	-200,000	-0,004	0,112
-262,467	195,586	-0,011	-0,012
-261,453	-200,000	0,003	0,051
-260,438	128,025	0,024	-0,022
-259,424	156,737	-0,071	0,070
-258,409	-103,842	0,048	0,008
-257,395	24,383	-0,056	0,033
-256,380	43,927	0,090	0,058
-255,365	800,000	-0,039	-0,106
-254,351	89,139	0,068	0,054
-253,336	222,962	0,046	-0,052
-252,322	-50,465	-0,182	-0,061
-251,307	800,000	0,019	-0,056
-250,292	189,747	-0,037	0,039
-249,278	-57,642	0,090	0,028
-248,263	45,031	0,114	-0,075
-247,249	-200,000	-0,033	-0,161
-246,234	-200,000	0,000	-0,075
-245,219	-29,505	0,087	-0,035
-244,205	47,364	-0,083	0,055
-243,190	-200,000	-0,002	-0,041
-242,176	-200,000	0,009	-0,078
-241,161	51,203	-0,077	-0,052
-240,146	-90,786	0,140	-0,028
-239,132	27,341	0,066	-0,040
-238,117	-72,434	-0,140	0,037
-237,103	-78,869	0,008	-0,002
-236,088	-28,416	-0,187	-0,076
-235,073	444,082	0,019	0,030
-234,059	123,219	-0,072	-0,064
-233,044	76,860	0,108	-0,081
-232,030	-56,846	-0,016	-0,005
-231,015	393,521	-0,077	0,115
-230,000	-200,000	0,000	0,108
-228,986	24,309	0,030	0,018
-227,971	84,873	-0,043	0,034
-226,957	800,000	0,017	0,048
-225,942	2,188	0,036	0,018
-224,927	62,275	-0,077	0,054
-223,913	220,262	-0,032	0,036
-222,898	272,084	-0,060	-0,075
-221,884	199,767	0,049	0,053
-220,869	-200,000	0,020	0,088
-219,855	475,948	0,051	0,081
-218,840	226,296	0,109	0,126
-217,825	-143,623	0,081	0,005
-216,811	800,000	-0,015	-0,030
-215,796	-73,025	-0,153	0,039
-214,782	800,000	-0,046	-0,117
-213,767	-142,018	0,048	0,003
-212,752	-200,000	0,004	0,031
-211,738	645,270	0,015	0,027
-210,723	-200,000	0,018	0,174
-209,709	176,389	-0,063	0,065
-208,694	-49,881	-0,102	-0,034
-207,679	39,260	-0,129	-0,082
-206,665	-200,000	-0,002	0,046
-205,650	-113,155	0,009	0,001
-204,636	-200,000	-0,037	-0,125
-203,621	448,153	-0,045	-0,070
-202,606	58,443	0,076	0,053
-201,592	-200,000	-0,025	-0,138
-200,577	-200,000	-0,008	0,089
-199,563	-200,000	-0,009	0,040
-198,548	-84,035	0,071	0,016
-197,533	-169,792	0,020	0,001
-196,519	-151,008	0,077	0,004
-195,504	-82,217	-0,053	-0,012
-194,490	20,446	-0,163	-0,093
-193,475	800,000	0,012	-0,031
-192,460	-200,000	-0,021	0,142
-191,446	-14,386	0,080	0,036
-190,431	247,738	0,088	0,106
-189,417	-200,000	0,004	-0,016
-188,402	23,242	-0,055	0,032
-187,387	-200,000	0,009	-0,119
-186,373	-200,000	0,018	-0,153
-185,358	800,000	-0,004	0,009
-184,344	90,091	0,045	0,036
-183,329	-200,000	0,036	0,132
-182,315	-71,458	-0,081	0,021
-181,300	519,306	0,080	-0,133
-180,285	-200,000	-0,039	-0,127
-179,271	-200,000	-0,023	0,124
-178,256	167,349	-0,042	0,043
-177,242	-121,822	0,133	-0,015
-176,227	-200,000	0,036	0,119
-175,212	26,771	0,111	0,066
-174,198	424,646	0,055	0,084
-173,183	119,324	-0,198	-0,174
-172,169	-59,006	-0,119	-0,036
-171,154	-55,254	-0,051	-0,016
-170,139	-69,042	0,090	-0,024
-169,125	201,854	0,154	-0,169
-168,110	63,298	0,098	0,070
-167,096	-145,025	-0,052	0,003
-166,081	423,346	0,022	0,034
-165,066	262,561	-0,107	-0,132
-164,052	-200,000	-0,001	0,128
-163,037	800,000	-0,036	0,072
-162,023	114,524	0,036	0,031
-161,008	283,568	0,040	0,051
-159,993	207,644	-0,062	-0,069
-158,979	800,000	0,041	-0,086
-157,964	-200,000	-0,008	-0,064
-156,950	-200,000	-0,004	-0,023
-155,935	-156,325	0,095	0,004
-154,920	-1,112	-0,104	0,052
-153,906	206,686	-0,044	0,049
-152,891	-78,239	0,081	-0,020
-151,877	-90,355	0,105	-0,021
-150,862	-200,000	-0,043	-0,234
-149,847	-63,035	0,086	-0,025
-148,833	-200,000	0,004	-0,064
-147,818	134,809	-0,077	0,071
-146,804	-53,430	0,075	-0,024
-145,789	120,280	0,100	0,088
-144,775	-7,887	0,052	-0,025
-143,760	253,148	-0,010	0,012
-142,745	201,557	-0,035	0,038
-141,731	-56,265	-0,090	0,028
-140,716	76,557	0,140	0,105
-139,702	681,999	0,019	0,034
-138,687	-200,000	-0,005	0,052
-137,672	800,000	0,051	-0,145
-136,658	-200,000	0,000	0,019
-135,643	-200,000	-0,010	0,135
-134,629	-29,442	0,045	0,018
-133,614	-155,776	0,033	0,001
-132,599	-200,000	-0,001	0,157
-131,585	-200,000	-0,032	0,134
-130,570	169,008	0,078	-0,079
-129,556	24,817	-0,121	-0,071
-128,541	-15,707	-0,118	-0,053
-127,526	800,000	0,035	0,077
-126,512	466,798	0,057	0,091
-125,497	800,000	-0,061	0,130
-124,483	-63,519	0,093	0,027
-123,468	-200,000	-0,001	-0,047
-122,453	-34,928	-0,063	-0,024
-121,439	216,507	-0,034	0,038
-120,424	70,267	-0,111	0,081
-119,410	-171,361	0,133	-0,003
-118,395	800,000	0,016	0,033
-117,380	92,759	-0,119	0,095
-116,366	-200,000	0,002	-0,094
-115,351	-200,000	-0,036	-0,148
-114,337	800,000	0,079	-0,200
-113,322	251,653	0,106	-0,128
-112,307	390,101	0,021	-0,030
-111,293	-74,155	0,104	-0,026
-110,278	-30,034	0,101	-0,040
-109,264	-172,349	0,130	0,003
-108,249	-200,000	-0,054	-0,000
-107,234	1,416	-0,068	-0,034
-106,220	-200,000	0,004	-0,025
-105,205	110,814	0,120	0,103
-104,191	-125,974	-0,097	-0,010
-103,176	-87,622	0,063	0,013
-102,162	97,970	0,028	0,023
-101,147	-112,862	-0,102	0,014
-100,132	47,938	-0,127	0,084
-99,118	-200,000	0,005	0,110
-98,103	39,417	0,070	-0,044
-97,089	518,964	0,028	0,046
-96,074	32,950	0,068	0,042
-95,059	-200,000	0,042	0,190
-94,045	-18,089	-0,128	-0,056
-93,030	39,020	-0,112	-0,071
-92,016	24,793	0,117	-0,068
-91,001	39,308	0,033	0,021
-89,986	-200,000	0,023	-0,106
-88,972	-17,968	-0,092	-0,041
-87,957	157,597	-0,095	-0,093
-86,943	177,413	-0,054	0,056
-85,928	-122,153	0,147	-0,017
-84,913	800,000	0,051	-0,129
-83,899	-20,898	0,205	-0,088
-82,884	257,038	0,041	0,050
-81,870	800,000	-0,041	0,110
-80,855	-90,299	0,111	0,023
-79,840	19,798	-0,029	0,017
-78,826	800,000	-0,013	0,041
-77,811	-200,000	0,003	0,020
-76,797	800,000	-0,027	0,082
-75,782	61,582	0,077	-0,054
-74,767	247,665	0,067	0,080
-73,753	562,271	-0,014	0,024
-72,738	6,428	-0,095	0,050
-71,724	-109,275	-0,124	0,018
-70,709	143,554	-0,095	-0,089
-69,694	129,302	0,086	0,077
-68,680	-66,799	-0,024	0,007
-67,665	105,805	0,120	0,100
-66,651	-200,000	0,039	0,153
-65,636	-200,000	0,027	0,122
-64,622	131,242	-0,108	0,098
-63,607	-100,821	0,067	-0,012
-62,592	-200,000	0,012	-0,042
-61,578	800,000	0,048	-0,135
-60,563	63,798	0,079	0,056
-59,549	315,041	-0,092	0,123
-58,534	34,923	-1,952	-1,204
-57,519	422,190	-1,335	-2,030
-56,505	-200,000	-0,402	-4,449
-55,490	430,751	1,001	1,536
-54,476	800,000	5,082	11,248
-53,461	-200,000	21,557	342,567
-52,446	800,000	762,177	2365,764
-51,432	558,873	1664,141	2846,146
-50,417	73,340	1661,030	1225,461
-49,403	17,831	1534,655	860,112
-48,388	11,768	1458,297	787,988
-47,373	19,485	1449,468	820,219
-46,359	15,294	1438,666	794,147
-45,344	10,058	1434,577	766,922
-44,330	9,978	1432,773	765,548
-43,315	9,974	1431,019	764,558
-42,300	9,928	1429,238	763,359
-41,286	9,992	1427,871	762,901
-40,271	9,997	1426,580	762,208
-39,257	9,961	1425,545	761,452
-38,242	10,013	1424,405	761,058
-37,227	9,982	1423,526	760,415
-36,213	10,028	1422,001	759,786
-35,198	10,025	1420,692	759,044
-34,184	10,024	1420,053	758,665
-33,169	9,995	1418,364	757,594
-32,154	10,043	1417,565	757,365
-31,140	10,038	1416,177	756,572
-30,125	10,053	1415,305	756,146
-29,111	10,066	1414,049	755,506
-28,096	10,028	1412,926	754,696
-27,082	9,967	1411,530	753,635
-26,067	10,001	1410,393	753,159
-25,052	9,968	1409,606	752,552
-24,038	10,035	1408,510	752,251
-23,023	9,999	1407,496	751,511
-22,009	10,011	1406,593	751,054
-20,994	9,907	1405,795	750,115
-19,979	9,983	1404,675	749,840
-18,965	9,961	1403,803	749,246
-17,950	9,929	1402,970	748,622
-16,936	9,908	1402,124	748,040
-15,921	9,906	1401,057	747,430
-14,906	9,919	1400,050	746,927
-13,892	9,897	1399,208	746,345
-12,877	9,853	1398,407	745,684
-11,863	9,876	1397,576	745,318
-10,848	9,839	1396,574	744,581
-9,833	9,815	1395,690	743,971
-8,819	9,823	1394,656	743,426
-7,804	9,754	1394,275	742,874
-6,790	9,802	1392,974	742,374
-5,775	9,811	1391,706	741,708
-4,760	9,762	1390,865	741,005
-3,746	9,821	1389,867	740,715
-2,731	9,802	1389,160	740,224
-1,717	9,794	1388,330	739,715
-0,702	9,768	1386,461	738,570
0,313	13,903	1299,021	710,879
1,327	30,330	689,396	414,467
2,342	47,004	119,170	78,046
3,356	3,180	16,384	8,378
4,371	10,204	3,517	1,881
5,386	27,638	1,158	0,686
6,400	-200,000	0,145	0,623
7,415	46,172	-0,216	-0,141
8,429	-71,386	-0,251	-0,066
9,444	144,651	-0,283	-0,267
10,459	-53,622	-0,139	-0,045
11,473	126,521	-0,189	-0,168
12,488	-83,423	-0,379	-0,085
13,502	-30,601	-0,237	-0,094
14,517	-93,833	-0,272	-0,052
15,531	268,504	-0,271	-0,335
16,546	42,532	-0,266	-0,170
17,561	1,423	-0,382	-0,193
18,575	-170,802	-0,107	-0,003
19,590	18,829	-0,339	-0,191
20,604	-4,611	-0,305	-0,148
21,619	56,362	-0,340	-0,232
22,634	133,990	-0,387	-0,353
23,648	134,765	-0,414	-0,379
24,663	99,244	-0,420	-0,342
25,677	480,616	-0,276	-0,442
26,692	14,306	-0,290	-0,159
27,707	30,205	-0,335	-0,201
28,721	126,267	-0,386	-0,344
29,736	116,005	-0,381	-0,329
30,750	110,420	-0,456	-0,386
31,765	123,265	-0,308	-0,271
32,780	46,679	-0,334	-0,218
33,794	143,098	-0,331	-0,310
34,809	31,656	-0,365	-0,220
35,823	-26,718	-0,257	-0,105
36,838	-42,908	-0,433	-0,154
37,853	69,979	-0,403	-0,292
38,867	27,773	-0,422	-0,249
39,882	800,000	-0,133	-0,263
40,896	33,190	-0,334	-0,203
41,911	87,793	-0,380	-0,296
42,926	69,379	-0,327	-0,236
43,940	90,390	-0,268	-0,211
44,955	16,134	-0,384	-0,212
45,969	39,555	-0,381	-0,239
46,984	119,734	-0,356	-0,310
47,999	800,000	-0,187	-0,399
49,013	-40,589	-0,233	-0,085
50,028	71,620	-0,304	-0,221
51,042	132,128	-0,236	-0,214
52,057	158,646	-0,287	-0,280
53,071	108,288	-0,319	-0,267
54,086	151,092	-0,313	-0,299
55,101	-1,606	-0,441	-0,217
56,115	-22,031	-0,348	-0,148
57,130	-15,652	-0,322	-0,144
58,144	-1,819	-0,392	-0,193
59,159	43,510	-0,390	-0,250
60,174	57,647	-0,342	-0,234
61,188	-0,641	-0,234	-0,116
62,203	12,091	-0,354	-0,191
63,217	193,701	-0,233	-0,248
64,232	57,508	-0,299	-0,205
65,247	27,385	-0,340	-0,200
66,261	14,640	-0,365	-0,199
67,276	19,405	-0,444	-0,249
68,290	114,451	-0,332	-0,283
69,305	48,087	-0,263	-0,172
70,320	-59,402	-0,332	-0,099
71,334	116,371	-0,292	-0,251
72,349	27,149	-0,373	-0,219
73,363	45,146	-0,366	-0,236
74,378	95,371	-0,383	-0,306
75,393	63,583	-0,220	-0,155
76,407	47,701	-0,232	-0,151
77,422	131,483	-0,262	-0,236
78,436	-25,691	-0,235	-0,097
79,451	-133,001	-0,162	-0,014
80,466	134,820	-0,404	-0,367
81,480	71,869	-0,414	-0,301
82,495	118,378	-0,282	-0,244
83,509	-106,021	-0,238	0,037
84,524	236,893	-0,157	-0,183
85,539	87,850	-0,214	-0,166
86,553	145,137	-0,237	-0,222
87,568	-21,431	-0,266	-0,113
88,582	44,989	-0,328	-0,211
89,597	336,594	-0,155	-0,212
90,611	363,997	-0,243	-0,344
91,626	-29,255	-0,299	-0,119
92,641	79,039	-0,154	-0,115
93,655	208,973	-0,229	-0,251
94,670	-58,715	-0,397	-0,120
95,684	-30,452	-0,398	-0,157
96,699	114,218	-0,212	-0,180
97,714	50,636	-0,278	-0,184
98,728	6,811	-0,273	-0,141
99,743	-51,849	-0,222	-0,072
100,757	23,336	-0,280	-0,160
101,772	-76,807	-0,424	-0,103
102,787	392,430	-0,249	-0,363
103,801	228,488	-0,154	-0,176
104,816	130,857	-0,211	-0,189
105,830	10,869	-0,174	-0,092
106,845	28,289	-0,199	-0,117
107,860	116,519	-0,191	-0,163
108,874	11,413	-0,336	-0,180
109,889	66,623	-0,322	-0,228
110,903	40,083	-0,289	-0,181
111,918	-70,213	-0,255	-0,067
112,933	69,626	-0,246	-0,177
113,947	438,247	-0,172	-0,263
114,962	-48,914	-0,200	-0,067
115,976	-30,230	-0,278	-0,110
116,991	58,153	-0,291	-0,199
118,006	149,268	-0,217	-0,205
119,020	54,969	-0,221	-0,149
120,035	13,993	-0,339	-0,184
121,049	57,252	-0,279	-0,190
122,064	-19,788	-0,255	-0,109
123,079	-12,404	-0,258	-0,117
124,093	64,614	-0,298	-0,209
125,108	154,322	-0,314	-0,301
126,122	44,568	-0,162	-0,104
127,137	-38,368	-0,179	-0,066
128,151	0,276	-0,150	-0,074
129,166	-64,365	-0,319	-0,090
130,181	29,641	-0,203	-0,120
131,195	56,239	-0,189	-0,128
132,210	60,528	-0,122	-0,084
133,224	40,988	-0,181	-0,114
134,239	129,264	-0,185	-0,165
135,254	-57,286	-0,124	-0,038
136,268	-3,266	-0,188	-0,091
137,283	54,361	-0,312	-0,209
138,297	119,557	-0,219	-0,189
139,312	126,906	-0,221	-0,195
140,327	333,434	-0,174	-0,234
141,341	174,536	-0,239	-0,242
142,356	800,000	-0,087	-0,261
143,370	-71,171	-0,318	-0,083
144,385	149,070	-0,120	0,113
145,400	-58,334	-0,228	-0,068
146,414	199,812	-0,189	-0,202
147,429	72,375	-0,293	-0,213
148,443	247,778	-0,243	-0,287
149,458	-144,800	-0,201	-0,013
150,473	103,829	-0,202	-0,165
151,487	800,000	-0,143	-0,327
152,502	166,558	-0,144	-0,142
153,516	212,386	-0,245	-0,270
154,531	80,260	-0,175	-0,131
155,546	124,436	-0,199	-0,174
156,560	-112,930	-0,248	-0,034
157,575	-89,104	-0,337	-0,069
158,589	800,000	-0,074	-0,217
159,604	-52,976	-0,374	-0,119
160,619	-91,604	-0,183	-0,036
161,633	-28,711	-0,256	-0,102
162,648	-26,523	-0,348	-0,141
163,662	-76,398	-0,213	-0,052
164,677	-55,039	-0,289	-0,090
165,692	-12,110	-0,343	-0,156
166,706	612,231	-0,168	-0,294
167,721	90,366	-0,216	-0,168
168,735	337,680	-0,166	-0,225
169,750	183,770	-0,131	-0,135
170,764	-34,430	-0,246	-0,093
171,779	730,274	-0,105	-0,195
172,794	86,233	-0,213	-0,163
173,808	-117,460	-0,340	-0,042
174,823	-47,331	-0,323	-0,109
175,837	140,186	-0,239	-0,219
176,852	670,966	-0,106	-0,192
177,867	-38,045	-0,280	-0,103
178,881	-155,128	-0,117	-0,005
179,896	414,582	-0,084	-0,125
180,910	131,414	-0,174	-0,156
181,925	40,172	-0,237	-0,148
182,940	44,824	-0,254	-0,162
183,954	103,827	-0,267	-0,218
184,969	351,221	-0,154	-0,213
185,983	800,000	-0,073	-0,177
186,998	-37,679	-0,281	-0,103
188,013	18,649	-0,260	-0,144
189,027	217,729	-0,221	-0,245
190,042	-10,463	-0,275	-0,126
191,056	156,614	-0,215	-0,206
192,071	221,139	-0,120	-0,133
193,086	161,375	-0,159	-0,154
194,100	189,935	-0,107	-0,111
195,115	31,281	-0,255	-0,152
196,129	28,333	-0,225	-0,131
197,144	326,365	-0,147	-0,196
198,159	-35,600	-0,298	-0,111
199,173	124,193	-0,173	-0,151
200,188	28,233	-0,239	-0,139
201,202	60,355	-0,235	-0,161
202,217	404,980	-0,109	-0,160
203,232	-63,881	-0,400	-0,113
204,246	-42,349	-0,233	-0,082
205,261	59,868	-0,193	-0,132
206,275	87,368	-0,216	-0,165
207,290	197,547	-0,181	-0,192
208,304	-130,059	-0,252	-0,024
209,319	800,000	-0,100	-0,228
210,334	414,872	-0,114	-0,168
211,348	-52,577	-0,225	-0,071
212,363	202,191	-0,155	-0,166
213,377	68,834	-0,129	-0,092
214,392	321,938	-0,088	-0,116
215,407	-200,000	-0,060	-0,249
216,421	328,293	-0,111	-0,148
217,436	98,256	-0,187	-0,149
218,450	-84,783	-0,228	-0,049
219,465	14,786	-0,235	-0,127
220,480	800,000	-0,122	-0,273
221,494	216,290	-0,131	-0,144
222,509	129,424	-0,208	-0,184
223,523	29,261	-0,237	-0,139
224,538	-122,002	-0,086	0,010
225,553	64,800	-0,199	-0,139
226,567	128,076	-0,206	-0,181
227,582	377,563	-0,063	-0,089
228,596	586,078	-0,081	-0,138
229,611	-110,152	-0,202	-0,029
230,626	108,212	-0,165	-0,136
231,640	66,575	-0,186	-0,131
232,655	62,213	-0,226	-0,156
233,669	338,229	-0,146	-0,197
234,684	78,183	-0,245	-0,180
235,699	469,821	-0,137	-0,214
236,713	-10,659	-0,201	-0,092
237,728	-18,454	-0,185	-0,079
238,742	90,390	-0,220	-0,170
239,757	332,452	-0,118	-0,158
240,772	501,182	-0,092	-0,147
241,786	456,918	-0,131	-0,202
242,801	62,091	-0,093	-0,064
243,815	-200,000	0,000	-0,070
244,830	-124,871	-0,172	-0,018
245,844	16,017	-0,267	-0,145
246,859	108,606	-0,185	-0,153
247,874	323,251	-0,092	-0,121
248,888	321,221	-0,176	-0,232
249,903	52,298	-0,161	-0,106
250,917	626,447	-0,112	-0,195
251,932	11,260	-0,148	-0,078
252,947	-28,454	-0,234	-0,093
253,961	651,083	-0,098	-0,174
254,976	18,617	-0,186	-0,102
255,990	-12,808	-0,214	-0,096
257,005	-129,934	-0,083	0,008
258,020	95,292	-0,138	-0,109
259,034	-22,044	-0,219	-0,091
260,049	-110,311	-0,140	0,020
261,063	228,909	-0,174	-0,196
262,078	178,812	-0,143	-0,144
263,093	-2,641	-0,298	-0,143
264,107	-200,000	-0,038	-0,330
265,122	63,281	-0,232	-0,160
266,136	-62,882	-0,089	-0,025
267,151	192,205	-0,073	-0,076
268,166	-143,753	-0,113	-0,007
269,180	-44,562	-0,143	-0,049
270,195	143,301	-0,193	-0,177
271,209	-9,387	-0,279	-0,128
272,224	-132,106	-0,052	-0,005
273,239	627,726	-0,112	-0,196
274,253	558,734	-0,118	-0,196
275,268	49,245	-0,128	-0,083
276,282	0,185	-0,137	-0,067
277,297	120,573	-0,226	-0,194
278,312	145,302	-0,186	-0,172
279,326	222,696	-0,149	-0,166
280,341	142,861	-0,083	-0,076
281,355	536,435	-0,093	-0,152
282,370	335,888	-0,150	-0,200
283,384	14,378	-0,180	-0,096
284,399	37,977	-0,195	-0,119
285,414	800,000	-0,112	-0,296
286,428	76,864	-0,065	-0,047
287,443	-30,647	-0,113	-0,044
288,457	6,182	-0,156	-0,079
289,472	800,000	-0,149	-0,299
290,487	4,851	-0,143	-0,072
291,501	800,000	-0,061	-0,178
292,516	354,207	-0,156	-0,214
293,530	-200,000	-0,012	0,052
294,545	376,354	-0,021	0,029
295,560	99,882	-0,180	-0,144
296,574	282,220	-0,170	-0,210
297,589	335,255	-0,169	-0,226
298,603	238,469	-0,107	-0,122
299,618	568,152	-0,126	-0,211
300,633	-102,071	-0,135	0,022
301,647	-97,003	-0,117	-0,021
302,662	533,871	-0,055	-0,090
303,676	67,524	-0,119	-0,083
304,691	-103,909	-0,140	0,022
305,706	183,987	-0,157	-0,160
306,720	438,110	-0,064	-0,096
307,735	-15,107	0,101	-0,044
308,749	192,561	-0,110	-0,114
309,764	-160,688	-0,091	-0,003
310,779	-200,000	-0,049	-0,176
311,793	-170,842	-0,161	-0,004
312,808	227,185	-0,139	-0,155
313,822	441,858	-0,092	-0,139
314,837	47,238	-0,202	-0,129
315,852	10,922	-0,136	-0,071
316,866	-117,430	-0,176	-0,022
317,881	-200,000	-0,054	-0,166
318,895	800,000	-0,027	-0,080
319,910	381,089	-0,150	-0,212
320,925	71,175	-0,183	-0,130
321,939	-84,005	-0,202	0,044
322,954	-174,801	-0,054	-0,001
323,968	12,624	-0,044	-0,023
324,983	-67,552	-0,136	-0,036
325,997	-124,170	-0,199	-0,021
327,012	21,511	-0,213	-0,119
328,027	-46,555	-0,162	-0,054
329,041	102,090	-0,163	-0,130
330,056	94,138	-0,189	-0,147
331,070	27,221	-0,116	0,066
332,085	-105,922	-0,112	0,017
333,100	399,777	-0,090	-0,130
334,114	800,000	-0,102	-0,262
335,129	-186,758	-0,225	-0,002
336,143	7,514	-0,138	-0,071
337,158	164,138	-0,059	-0,057
338,173	-56,800	-0,152	-0,046
339,187	-31,504	-0,141	0,054
340,202	800,000	-0,066	-0,165
341,216	645,111	-0,098	-0,172
342,231	112,088	-0,101	-0,083
343,246	-51,307	-0,131	-0,042
344,260	257,812	-0,067	-0,079
345,275	-161,545	-0,211	0,007
346,289	-67,077	-0,133	0,036
347,304	800,000	0,022	-0,066
348,319	269,375	-0,106	-0,127
349,333	74,009	-0,225	-0,161
350,348	262,515	-0,135	-0,161
351,362	18,147	-0,164	-0,089
352,377	-200,000	-0,047	-0,207
353,392	800,000	-0,044	-0,121
354,406	300,646	-0,126	-0,159
355,421	207,299	1309,549	1398,769
356,435	159,459	1469,615	1399,232
