DTS Sentinel unit serial number:	SN410029Multiplexer serial number:	ORYXHardware model number:	OX2-SRSoftware version number:	ORYX F/W v4,00 Oryx Data Collector v3.7.2.0data status	okinstallation	B3 Nyhavnadifferential loss correction	single-endedforward channel	channel 1reverse channel	N/Adate	2023/12/01time	06:57:30forward acquisition time	300,00reverse acquisition time	0,00gamma	499,1914k internal	0,3213k external	0,3213temperature offset calibration	1,0000default loss term (dB/km)	0,3820temperature slope calibration	1,0000multiplexer offset coefficient	1,0000multiplexer slope coefficient	1,0000fibre end	0,00T internal ref (°C)	7,88T ext. ref 1 (°C)	-6,33T ext. ref 2 (°C)	-6,48length (m)	temperature (°C)	Stokes	anti-Stokes-744,400	717,517	-0,129	-0,249
-743,385	-200,000	-0,060	0,230
-742,371	193,586	-0,152	-0,167
-741,356	-200,000	-0,013	0,342
-740,342	-69,242	-0,165	-0,046
-739,327	800,000	-0,160	0,389
-738,312	84,101	-0,247	-0,195
-737,298	-200,000	0,026	0,214
-736,283	192,358	-0,211	-0,231
-735,269	-200,000	0,012	0,308
-734,254	376,711	-0,197	-0,293
-733,239	11,227	-0,290	0,161
-732,225	72,474	-0,173	-0,131
-731,210	-200,000	-0,053	0,201
-730,196	107,686	0,131	0,113
-729,181	-200,000	-0,021	-0,077
-728,167	-200,000	-0,008	0,152
-727,152	2,230	0,040	-0,021
-726,137	299,737	0,093	-0,125
-725,123	198,613	0,084	-0,094
-724,108	114,666	-0,122	-0,108
-723,094	-200,000	0,019	-0,069
-722,079	800,000	-0,056	-0,150
-721,064	-200,000	0,000	-0,073
-720,050	-200,000	0,007	-0,086
-719,035	-200,000	0,005	-0,017
-718,021	-200,000	0,000	-0,124
-717,006	-200,000	-0,004	-0,104
-715,991	800,000	-0,046	-0,100
-714,977	-200,000	-0,022	0,087
-713,962	152,910	-0,023	-0,023
-712,948	89,216	-0,041	-0,033
-711,933	299,246	-0,037	0,049
-710,918	800,000	-0,050	-0,123
-709,904	-200,000	-0,029	-0,154
-708,889	-200,000	-0,006	-0,069
-707,875	-200,000	-0,006	-0,250
-706,860	-10,246	0,102	0,049
-705,845	384,792	0,110	0,164
-704,831	-200,000	-0,018	0,153
-703,816	386,660	-0,115	-0,173
-702,802	800,000	0,030	-0,080
-701,787	-19,857	-0,097	0,043
-700,772	130,623	-0,004	-0,004
-699,758	-59,227	-0,090	0,028
-698,743	800,000	0,030	0,089
-697,729	800,000	0,016	-0,046
-696,714	118,158	-0,024	-0,021
-695,699	-200,000	-0,017	0,058
-694,685	760,699	-0,051	-0,101
-693,670	-28,414	0,117	-0,049
-692,656	45,054	-0,136	0,090
-691,641	87,207	0,128	0,102
-690,627	684,407	0,043	-0,081
-689,612	800,000	-0,058	-0,121
-688,597	5,951	0,114	-0,061
-687,583	800,000	-0,055	-0,152
-686,568	313,569	0,026	0,036
-685,554	202,672	-0,168	-0,188
-684,539	800,000	0,012	-0,032
-683,524	800,000	0,020	-0,041
-682,510	-86,177	-0,091	-0,020
-681,495	800,000	-0,040	-0,085
-680,481	114,052	-0,069	-0,060
-679,466	4,007	-0,105	-0,056
-678,451	67,408	-0,117	-0,086
-677,437	800,000	0,061	0,135
-676,422	414,607	-0,042	0,065
-675,408	79,277	0,068	-0,052
-674,393	729,332	-0,029	-0,056
-673,378	0,972	-0,137	-0,071
-672,364	510,737	-0,048	-0,081
-671,349	800,000	-0,033	-0,090
-670,335	-185,946	0,015	-0,000
-669,320	-200,000	0,032	0,105
-668,305	-200,000	0,023	0,146
-667,291	-94,849	-0,027	0,005
-666,276	63,385	-0,081	-0,059
-665,262	-200,000	-0,019	-0,078
-664,247	253,996	-0,050	-0,062
-663,232	800,000	0,016	-0,039
-662,218	240,316	0,060	-0,072
-661,203	-138,523	0,111	0,009
-660,189	-200,000	-0,020	-0,106
-659,174	-200,000	-0,027	-0,101
-658,159	89,254	-0,095	0,076
-657,145	728,235	0,013	-0,026
-656,130	-200,000	-0,015	-0,077
-655,116	800,000	-0,057	-0,131
-654,101	459,408	0,020	-0,033
-653,086	176,969	-0,034	0,036
-652,072	-200,000	0,037	-0,144
-651,057	467,321	-0,069	-0,112
-650,043	-165,693	-0,122	0,004
-649,028	138,834	-0,070	-0,066
-648,014	800,000	0,015	-0,043
-646,999	661,957	0,059	-0,110
-645,984	800,000	0,039	-0,111
-644,970	415,744	-0,042	0,064
-643,955	441,117	-0,035	-0,055
-642,941	63,958	0,028	-0,020
-641,926	-200,000	0,029	-0,104
-640,911	212,704	-0,021	-0,024
-639,897	40,624	0,070	0,045
-638,882	-200,000	0,003	0,044
-637,868	84,629	0,032	-0,026
-636,853	-104,009	-0,060	-0,010
-635,838	-200,000	0,027	-0,089
-634,824	-200,000	-0,008	-0,094
-633,809	-6,271	0,151	-0,074
-632,795	723,750	-0,041	0,079
-631,780	139,052	-0,023	0,021
-630,765	371,798	0,084	-0,123
-629,751	94,409	0,041	0,033
-628,736	453,942	0,027	-0,043
-627,722	-200,000	-0,007	0,051
-626,707	-2,260	-0,144	0,073
-625,692	-200,000	-0,007	0,117
-624,678	-200,000	-0,018	0,081
-623,663	-200,000	0,051	-0,171
-622,649	79,512	-0,039	0,030
-621,634	-17,196	-0,159	-0,072
-620,619	-200,000	-0,001	0,090
-619,605	-125,768	-0,116	-0,012
-618,590	-60,330	-0,072	0,022
-617,576	44,939	0,054	0,035
-616,561	-200,000	0,022	-0,078
-615,546	-200,000	-0,010	-0,113
-614,532	800,000	-0,029	-0,089
-613,517	3,530	0,125	0,065
-612,503	44,245	-0,182	0,120
-611,488	-200,000	0,011	-0,086
-610,474	-96,389	-0,137	-0,026
-609,459	212,842	0,064	-0,073
-608,444	-200,000	-0,016	0,074
-607,430	-200,000	-0,004	-0,040
-606,415	116,563	-0,048	-0,043
-605,401	-12,477	-0,074	-0,034
-604,386	-200,000	0,006	0,082
-603,371	147,581	-0,071	0,069
-602,357	50,350	-0,092	0,063
-601,342	271,357	-0,081	0,103
-600,328	-200,000	0,002	0,055
-599,313	42,799	-0,106	-0,069
-598,298	13,597	0,074	-0,041
-597,284	800,000	-0,041	0,089
-596,269	-112,325	0,175	0,025
-595,255	-109,880	-0,175	0,026
-594,240	-130,325	-0,067	-0,006
-593,225	800,000	0,015	0,037
-592,211	800,000	0,057	-0,171
-591,196	-26,843	0,023	0,010
-590,182	155,653	0,090	0,089
-589,167	326,684	-0,037	0,051
-588,152	409,091	0,021	-0,033
-587,138	800,000	0,029	-0,074
-586,123	230,034	-0,081	-0,095
-585,109	176,635	-0,048	-0,050
-584,094	235,503	-0,029	-0,034
-583,079	-200,000	-0,009	0,066
-582,065	-71,141	-0,187	-0,050
-581,050	19,102	-0,010	-0,006
-580,036	-154,071	0,066	0,003
-579,021	-26,811	0,066	0,028
-578,006	766,107	-0,023	0,046
-576,992	-140,092	-0,057	-0,004
-575,977	301,205	-0,068	-0,091
-574,963	36,221	-0,106	0,067
-573,948	-23,268	0,189	0,081
-572,934	348,651	0,046	0,065
-571,919	800,000	0,023	0,049
-570,904	800,000	0,024	-0,063
-569,890	800,000	0,014	-0,038
-568,875	800,000	0,061	0,187
-567,861	474,576	-0,030	0,050
-566,846	517,467	0,062	0,105
-565,831	-200,000	0,017	0,066
-564,817	-200,000	-0,019	0,062
-563,802	531,849	-0,067	-0,114
-562,788	251,807	-0,025	-0,030
-561,773	2,383	0,055	-0,028
-560,758	91,398	0,037	-0,030
-559,744	148,846	0,048	0,047
-558,729	-77,026	-0,066	0,016
-557,715	800,000	0,033	0,095
-556,700	-200,000	-0,021	-0,080
-555,685	-78,392	0,125	-0,031
-554,671	124,237	-0,035	-0,031
-553,656	116,873	0,143	0,126
-552,642	800,000	0,020	-0,061
-551,627	800,000	-0,025	-0,070
-550,612	800,000	-0,031	0,083
-549,598	447,030	-0,085	-0,135
-548,583	800,000	-0,033	-0,074
-547,569	-85,215	-0,067	-0,015
-546,554	15,775	0,019	0,011
-545,539	3,617	-0,032	0,017
-544,525	-200,000	-0,015	0,116
-543,510	-29,292	-0,124	0,051
-542,496	-57,861	0,076	0,024
-541,481	-27,531	-0,073	-0,031
-540,466	-83,526	-0,079	-0,018
-539,452	-200,000	-0,002	0,082
-538,437	800,000	-0,041	0,097
-537,423	36,620	0,049	-0,031
-536,408	-30,743	-0,075	-0,030
-535,393	-14,538	-0,099	-0,046
-534,379	-200,000	-0,007	-0,079
-533,364	148,200	0,038	-0,037
-532,350	-200,000	-0,032	0,174
-531,335	32,260	0,073	0,045
-530,321	-36,071	-0,043	-0,017
-529,306	-61,139	-0,030	0,009
-528,291	-86,051	-0,067	-0,015
-527,277	356,583	-0,024	-0,034
-526,262	800,000	-0,035	-0,077
-525,248	190,967	0,051	-0,055
-524,233	-89,665	0,040	-0,008
-523,218	131,004	0,025	0,023
-522,204	698,891	0,036	-0,068
-521,189	-200,000	0,016	-0,209
-520,175	-29,363	-0,174	-0,071
-519,160	800,000	-0,004	0,010
-518,145	133,748	-0,117	-0,109
-517,131	330,339	0,077	0,106
-516,116	144,152	-0,054	0,052
-515,102	135,059	-0,053	0,049
-514,087	800,000	0,051	0,120
-513,072	184,590	-0,028	-0,030
-512,058	68,164	-0,099	-0,073
-511,043	-195,154	-0,026	0,000
-510,029	-146,877	0,076	0,005
-509,014	-151,243	0,051	-0,003
-507,999	437,013	0,044	0,069
-506,985	-91,126	0,109	0,022
-505,970	56,047	-0,050	-0,035
-504,956	800,000	0,027	0,060
-503,941	34,814	0,064	0,040
-502,926	-62,207	-0,039	0,012
-501,912	-12,633	0,049	0,023
-500,897	-200,000	0,010	0,075
-499,883	-85,939	0,132	-0,029
-498,868	800,000	-0,025	-0,073
-497,853	-200,000	-0,009	-0,093
-496,839	299,956	0,076	0,101
-495,824	-131,344	-0,120	0,011
-494,810	544,554	-0,056	0,096
-493,795	-79,135	0,116	0,028
-492,781	-32,511	0,044	0,018
-491,766	-200,000	-0,012	0,112
-490,751	-146,258	-0,067	-0,004
-489,737	438,767	0,097	-0,152
-488,722	170,363	0,041	-0,042
-487,708	217,923	0,111	0,128
-486,693	-200,000	0,023	0,105
-485,678	-25,481	-0,063	-0,027
-484,664	-200,000	0,001	-0,078
-483,649	39,072	0,068	-0,044
-482,635	800,000	0,026	-0,074
-481,620	51,404	-0,103	-0,070
-480,605	-3,517	-0,065	-0,032
-479,591	-50,250	-0,059	0,020
-478,576	-51,373	0,179	0,060
-477,562	155,385	-0,050	0,050
-476,547	-200,000	-0,004	0,092
-475,532	-200,000	-0,011	-0,127
-474,518	639,304	-0,042	-0,078
-473,503	96,465	0,108	0,088
-472,489	-161,629	0,104	-0,004
-471,474	170,343	-0,141	0,144
-470,459	-55,837	0,022	-0,007
-469,445	585,240	-0,040	-0,071
-468,430	-200,000	0,004	-0,167
-467,416	-89,521	0,153	-0,032
-466,401	-10,080	-0,052	-0,024
-465,386	656,452	0,033	0,061
-464,372	-200,000	-0,004	0,043
-463,357	800,000	-0,042	0,097
-462,343	504,189	0,027	0,045
-461,328	-73,965	0,053	-0,014
-460,313	455,946	-0,023	-0,036
-459,299	12,032	-0,100	-0,055
-458,284	-200,000	0,022	-0,180
-457,270	-27,727	-0,062	-0,026
-456,255	800,000	-0,023	0,069
-455,241	-72,754	0,129	0,034
-454,226	59,235	0,035	-0,025
-453,211	124,840	0,164	0,148
-452,197	-37,145	0,117	0,045
-451,182	-68,414	0,009	0,002
-450,168	86,887	-0,105	0,083
-449,153	526,182	0,092	0,155
-448,138	548,540	0,039	-0,068
-447,124	-7,583	-0,082	0,039
-446,109	800,000	-0,012	-0,031
-445,095	172,801	0,079	0,082
-444,080	800,000	0,030	0,072
-443,065	187,576	0,075	0,081
-442,051	328,223	0,033	0,045
-441,036	1,263	-0,104	-0,053
-440,022	419,436	-0,089	0,137
-439,007	-14,820	-0,040	-0,018
-437,992	-84,357	0,108	-0,024
-436,978	417,476	0,055	0,084
-435,963	-97,444	-0,126	0,023
-434,949	-200,000	-0,017	0,116
-433,934	345,071	-0,035	0,050
-432,919	-102,650	-0,030	0,005
-431,905	63,164	-0,058	0,042
-430,890	-31,528	0,085	-0,034
-429,876	633,335	0,048	-0,088
-428,861	322,091	-0,066	0,091
-427,846	134,216	-0,038	-0,035
-426,832	800,000	-0,040	0,104
-425,817	-173,135	-0,094	-0,002
-424,803	-24,493	0,031	-0,013
-423,788	445,098	-0,006	0,010
-422,773	191,602	0,042	0,045
-421,759	143,537	0,083	0,080
-420,744	369,791	-0,041	-0,059
-419,730	350,146	0,102	-0,144
-418,715	74,561	-0,061	-0,046
-417,701	-200,000	-0,009	0,031
-416,686	92,854	-0,065	0,052
-415,671	725,712	0,043	0,082
-414,657	91,596	-0,039	0,032
-413,642	-200,000	0,010	0,086
-412,628	800,000	-0,035	0,070
-411,613	800,000	-0,045	-0,091
-410,598	89,378	-0,022	0,018
-409,584	-113,280	0,096	0,013
-408,569	-135,793	0,073	-0,006
-407,555	-200,000	0,009	0,073
-406,540	2,089	-0,072	0,037
-405,525	49,704	-0,033	-0,022
-404,511	-200,000	-0,010	-0,118
-403,496	114,057	0,045	0,039
-402,482	133,817	0,005	-0,004
-401,467	89,610	0,069	0,055
-400,452	800,000	-0,048	0,106
-399,438	99,804	0,045	-0,037
-398,423	-200,000	0,012	0,116
-397,409	258,534	-0,117	-0,145
-396,394	-21,173	-0,085	0,037
-395,379	-18,307	-0,227	-0,101
-394,365	-200,000	-0,003	0,042
-393,350	-96,714	-0,046	-0,009
-392,336	800,000	0,091	0,223
-391,321	152,705	0,052	0,051
-390,306	-14,580	0,057	0,026
-389,292	194,955	0,031	-0,033
-388,277	800,000	0,027	0,058
-387,263	76,612	0,035	-0,026
-386,248	-29,677	0,067	-0,027
-385,233	800,000	0,027	0,077
-384,219	-131,510	-0,040	-0,004
-383,204	800,000	0,082	-0,217
-382,190	47,599	0,059	-0,039
-381,175	22,897	-0,136	-0,079
-380,160	-24,907	0,118	-0,050
-379,146	284,601	-0,025	-0,032
-378,131	334,147	-0,036	0,050
-377,117	-18,374	-0,146	0,065
-376,102	-200,000	-0,034	0,114
-375,088	-200,000	0,000	0,024
-374,073	-200,000	0,024	-0,148
-373,058	113,086	0,154	-0,134
-372,044	-200,000	-0,010	-0,134
-371,029	-200,000	-0,006	-0,075
-370,015	-200,000	0,015	-0,106
-369,000	100,182	-0,092	-0,076
-367,985	-55,313	-0,096	-0,031
-366,971	216,505	-0,098	0,111
-365,956	267,908	-0,047	-0,059
-364,942	800,000	-0,019	-0,047
-363,927	-200,000	-0,018	-0,079
-362,912	800,000	-0,057	0,131
-361,898	-90,430	-0,103	0,021
-360,883	-200,000	0,013	0,061
-359,869	-115,117	0,130	-0,017
-358,854	-46,023	0,008	0,003
-357,839	800,000	-0,023	-0,051
-356,825	-15,224	0,045	-0,021
-355,810	-136,574	-0,099	-0,008
-354,796	-137,758	-0,132	0,010
-353,781	-18,675	-0,071	0,032
-352,766	-131,683	-0,191	-0,018
-351,752	209,537	0,020	0,022
-350,737	-147,665	0,084	-0,005
-349,723	-15,613	0,051	0,023
-348,708	63,425	0,075	-0,054
-347,693	348,413	-0,088	-0,124
-346,679	800,000	0,073	-0,145
-345,664	-64,494	-0,052	0,015
-344,650	-200,000	-0,004	0,069
-343,635	51,081	0,078	0,053
-342,620	-200,000	0,034	0,123
-341,606	-108,515	0,129	0,020
-340,591	-55,538	-0,073	-0,023
-339,577	-200,000	-0,068	-0,276
-338,562	53,575	-0,023	-0,016
-337,548	-200,000	0,034	-0,113
-336,533	-93,519	0,158	-0,031
-335,518	596,261	-0,054	0,095
-334,504	-200,000	0,013	-0,068
-333,489	-91,516	0,072	-0,015
-332,475	379,582	-0,025	-0,036
-331,460	75,864	-0,139	0,105
-330,445	800,000	-0,018	0,036
-329,431	800,000	0,059	0,132
-328,416	-200,000	0,001	0,047
-327,402	-20,124	-0,122	-0,053
-326,387	-200,000	0,000	-0,040
-325,372	342,239	-0,116	-0,162
-324,358	206,501	0,030	-0,034
-323,343	698,511	-0,054	0,102
-322,329	766,164	0,082	0,159
-321,314	-32,465	0,065	0,026
-320,299	19,862	-0,022	-0,013
-319,285	620,389	-0,042	-0,075
-318,270	-200,000	-0,043	-0,138
-317,256	-79,900	-0,151	0,036
-316,241	52,379	0,016	0,011
-315,226	800,000	-0,037	-0,074
-314,212	577,606	0,035	0,060
-313,197	97,035	0,053	0,043
-312,183	-44,717	-0,071	0,025
-311,168	331,778	0,095	-0,130
-310,153	128,070	-0,091	0,082
-309,139	800,000	0,033	-0,075
-308,124	89,921	-0,063	-0,050
-307,110	-48,412	0,105	0,036
-306,095	-111,574	0,041	-0,006
-305,080	-29,869	0,109	-0,044
-304,066	-74,630	-0,031	-0,008
-303,051	576,283	0,045	-0,078
-302,037	33,718	-0,184	-0,113
-301,022	-200,000	-0,013	0,060
-300,008	-12,043	0,082	-0,038
-298,993	544,661	0,045	0,076
-297,978	-143,311	-0,183	-0,012
-296,964	275,548	-0,020	0,026
-295,949	800,000	-0,036	-0,083
-294,935	-31,542	-0,079	-0,031
-293,920	800,000	-0,040	-0,091
-292,905	337,133	0,034	-0,047
-291,891	56,187	0,117	0,081
-290,876	337,102	0,095	0,131
-289,862	126,823	-0,065	0,058
-288,847	80,050	-0,026	0,020
-287,832	-200,000	0,029	-0,121
-286,818	-115,819	0,118	0,016
-285,803	800,000	0,048	-0,107
-284,789	238,447	0,078	-0,093
-283,774	41,424	-0,054	0,035
-282,759	543,997	0,040	-0,068
-281,745	297,632	-0,067	-0,088
-280,730	-78,594	-0,049	-0,012
-279,716	-200,000	0,002	-0,048
-278,701	-11,519	0,070	-0,033
-277,686	426,044	0,049	0,075
-276,672	-24,901	0,095	0,040
-275,657	800,000	-0,037	0,102
-274,643	-200,000	-0,006	0,087
-273,628	-200,000	0,017	0,108
-272,613	175,714	-0,023	-0,024
-271,599	-200,000	0,001	-0,021
-270,584	-44,320	0,032	-0,011
-269,570	-41,216	0,059	0,021
-268,555	-158,306	0,070	-0,003
-267,540	800,000	0,041	-0,125
-266,526	-200,000	-0,021	-0,070
-265,511	592,675	0,041	0,072
-264,497	-30,313	0,118	-0,047
-263,482	-188,524	0,054	0,000
-262,467	38,086	0,079	-0,050
-261,453	659,411	-0,051	0,094
-260,438	-71,067	-0,084	-0,022
-259,424	-200,000	-0,018	-0,141
-258,409	-156,717	0,096	-0,004
-257,395	-200,000	-0,014	0,101
-256,380	214,635	0,055	-0,062
-255,365	17,302	0,014	-0,008
-254,351	-10,137	-0,049	0,023
-253,336	8,241	0,107	0,057
-252,322	-50,711	-0,032	0,011
-251,307	-200,000	0,012	0,073
-250,292	800,000	0,046	0,095
-249,278	15,875	-0,063	0,035
-248,263	-200,000	0,043	-0,167
-247,249	73,743	0,142	0,106
-246,234	-200,000	0,008	-0,128
-245,219	-139,875	-0,072	0,005
-244,205	15,804	-0,133	-0,074
-243,190	90,418	0,093	-0,074
-242,176	800,000	-0,002	-0,006
-241,161	402,910	0,077	0,115
-240,146	-129,974	0,083	-0,008
-239,132	-200,000	-0,014	-0,068
-238,117	616,992	0,019	-0,034
-237,103	67,178	0,010	0,007
-236,088	800,000	0,033	0,064
-235,073	-200,000	0,001	-0,008
-234,059	175,274	0,028	0,029
-233,044	-200,000	0,003	0,112
-232,030	-64,279	-0,032	-0,009
-231,015	-44,711	0,063	-0,022
-230,000	-72,108	-0,048	0,013
-228,986	-200,000	0,042	0,166
-227,971	370,037	-0,037	-0,053
-226,957	-82,724	-0,052	0,012
-225,942	-47,084	0,070	0,024
-224,927	-13,849	0,089	0,041
-223,913	-200,000	0,009	-0,117
-222,898	800,000	-0,033	-0,102
-221,884	-200,000	0,024	0,089
-220,869	4,104	0,103	0,054
-219,855	-200,000	0,012	0,105
-218,840	229,611	-0,037	-0,043
-217,825	800,000	0,030	0,067
-216,811	-41,889	0,052	0,019
-215,796	800,000	0,008	-0,024
-214,782	249,225	-0,037	-0,044
-213,767	199,892	0,055	-0,061
-212,752	279,801	0,108	0,137
-211,738	-200,000	0,024	0,090
-210,723	-88,034	-0,097	0,020
-209,709	800,000	-0,043	-0,107
-208,694	303,763	-0,037	-0,049
-207,679	572,869	-0,053	-0,092
-206,665	800,000	0,015	-0,034
-205,650	-200,000	0,009	-0,074
-204,636	-25,018	-0,055	0,023
-203,621	35,157	0,153	-0,095
-202,606	-200,000	0,017	-0,105
-201,592	800,000	-0,019	-0,039
-200,577	-153,414	0,075	-0,004
-199,563	-147,496	-0,098	-0,006
-198,548	604,991	0,112	0,199
-197,533	63,174	0,104	0,074
-196,519	421,630	0,087	-0,132
-195,504	242,748	0,016	-0,019
-194,490	521,190	-0,057	0,095
-193,475	800,000	-0,016	0,050
-192,460	242,087	-0,067	0,080
-191,446	-35,377	-0,134	-0,051
-190,431	-38,171	0,046	-0,017
-189,417	800,000	-0,008	-0,019
-188,402	68,872	0,091	-0,066
-187,387	1,581	-0,034	-0,018
-186,373	449,113	0,027	-0,042
-185,358	240,768	0,006	-0,007
-184,344	-159,625	0,048	0,002
-183,329	-200,000	0,003	0,013
-182,315	-69,407	-0,082	0,022
-181,300	800,000	-0,085	0,167
-180,285	-56,735	-0,090	0,028
-179,271	-200,000	-0,006	-0,025
-178,256	-200,000	0,239	-0,001
-177,242	578,073	-0,067	0,116
-176,227	800,000	-0,014	0,029
-175,212	-58,212	-0,040	0,012
-174,198	-200,000	0,036	-0,167
-173,183	-200,000	-0,002	-0,150
-172,169	-31,456	-0,051	-0,020
-171,154	79,175	-0,077	0,058
-170,139	187,223	-0,113	0,119
-169,125	227,797	0,208	0,240
-168,110	114,256	-0,069	-0,060
-167,096	615,035	-0,017	-0,030
-166,081	-58,763	0,059	0,018
-165,066	86,177	0,017	-0,013
-164,052	137,306	0,052	0,048
-163,037	-62,251	0,107	-0,031
-162,023	105,179	0,074	0,062
-161,008	4,675	-0,078	0,040
-159,993	149,060	-0,080	0,076
-158,979	-200,000	0,045	-0,148
-157,964	38,950	-0,145	-0,092
-156,950	743,255	0,045	0,086
-155,935	278,655	0,072	-0,091
-154,920	546,430	-0,047	-0,080
-153,906	52,529	0,108	0,073
-152,891	33,375	-0,084	0,051
-151,877	541,400	-0,078	0,132
-150,862	162,757	0,023	0,023
-149,847	-200,000	0,023	-0,082
-148,833	-4,097	0,071	0,035
-147,818	67,819	0,057	-0,041
-146,804	-111,977	0,072	0,010
-145,789	800,000	0,037	0,089
-144,775	260,614	-0,075	-0,092
-143,760	800,000	-0,038	0,078
-142,745	-200,000	-0,037	-0,131
-141,731	443,060	0,030	0,047
-140,716	800,000	-0,034	0,070
-139,702	269,543	0,013	-0,016
-138,687	-17,388	-0,198	-0,088
-137,672	47,193	0,139	0,091
-136,658	-200,000	-0,121	0,000
-135,643	402,018	0,091	0,135
-134,629	678,903	-0,042	-0,078
-133,614	73,780	0,017	0,012
-132,599	39,386	0,052	0,033
-131,585	-200,000	-0,026	0,088
-130,570	800,000	0,044	0,095
-129,556	-200,000	0,013	-0,154
-128,541	-44,296	0,085	-0,030
-127,526	-87,035	-0,091	-0,020
-126,512	238,621	0,072	0,084
-125,497	-115,823	0,106	-0,014
-124,483	-200,000	-0,008	0,111
-123,468	19,525	0,015	0,008
-122,453	22,783	-0,115	-0,066
-121,439	78,198	-0,140	-0,105
-120,424	159,151	0,035	0,034
-119,410	-200,000	-0,003	-0,035
-118,395	117,591	0,106	0,092
-117,380	-80,700	-0,184	0,043
-116,366	-38,921	-0,043	0,016
-115,351	453,235	-0,031	-0,048
-114,337	-9,337	0,021	0,010
-113,322	-200,000	0,010	-0,099
-112,307	-200,000	-0,007	-0,103
-111,293	-200,000	0,003	-0,052
-110,278	800,000	0,066	0,191
-109,264	800,000	0,029	0,069
-108,249	221,434	0,071	0,081
-107,234	642,235	-0,023	-0,042
-106,220	-66,937	-0,145	0,040
-105,205	390,027	-0,045	0,066
-104,191	148,004	-0,139	0,133
-103,176	-22,042	0,195	0,083
-102,162	88,203	0,017	-0,013
-101,147	-200,000	-0,015	0,103
-100,132	14,689	-0,133	0,073
-99,118	-157,296	-0,087	-0,004
-98,103	-200,000	-0,003	0,017
-97,089	414,694	-0,089	0,135
-96,074	606,207	0,054	0,095
-95,059	800,000	-0,048	0,100
-94,045	-200,000	0,003	0,070
-93,030	195,454	0,014	0,016
-92,016	-39,210	0,035	-0,013
-91,001	36,948	0,064	0,040
-89,986	252,750	0,081	0,097
-88,972	800,000	0,070	0,179
-87,957	-142,176	-0,085	0,006
-86,943	259,627	-0,005	0,006
-85,928	100,361	-0,053	-0,043
-84,913	-200,000	-0,001	-0,049
-83,899	800,000	0,047	-0,121
-82,884	364,605	-0,061	-0,086
-81,870	140,775	0,107	0,100
-80,855	108,973	0,043	-0,037
-79,840	-200,000	0,004	-0,019
-78,826	800,000	0,022	-0,056
-77,811	72,024	-0,160	-0,118
-76,797	-200,000	-0,013	-0,042
-75,782	-82,511	0,139	-0,032
-74,767	-135,837	0,119	0,010
-73,753	-130,700	-0,032	0,003
-72,738	290,277	-0,024	0,031
-71,724	222,358	-0,105	-0,119
-70,709	649,830	-0,026	0,047
-69,694	599,636	0,016	0,027
-68,680	-31,776	0,161	0,063
-67,665	194,541	0,111	0,119
-66,651	461,711	0,087	0,138
-65,636	-91,972	-0,109	0,022
-64,622	-86,434	0,038	-0,008
-63,607	175,260	0,073	0,075
-62,592	-24,154	-0,183	0,077
-61,578	-200,000	0,004	-0,053
-60,563	-200,000	0,032	0,108
-59,549	306,037	0,068	0,089
-58,534	67,071	-2,123	-1,525
-57,519	506,104	-1,132	-1,858
-56,505	-200,000	-0,415	-4,463
-55,490	701,148	0,914	1,706
-54,476	800,000	5,305	11,552
-53,461	-200,000	22,571	347,443
-52,446	800,000	758,001	2293,256
-51,432	532,841	1643,890	2755,553
-50,417	67,773	1642,378	1182,672
-49,403	15,545	1519,877	839,729
-48,388	9,718	1446,187	771,023
-47,373	19,177	1438,781	812,119
-46,359	13,249	1427,214	777,583
-45,344	8,088	1422,876	750,788
-44,330	7,991	1421,243	749,437
-43,315	7,948	1419,327	748,195
-42,300	7,954	1417,446	747,202
-41,286	8,016	1416,325	746,872
-40,271	7,994	1414,950	746,015
-39,257	8,002	1413,739	745,381
-38,242	7,989	1412,800	744,799
-37,227	7,948	1411,813	744,057
-36,213	7,976	1410,376	743,401
-35,198	8,008	1409,182	742,891
-34,184	8,012	1408,292	742,409
-33,169	7,927	1406,959	741,283
-32,154	7,939	1406,064	740,836
-31,140	7,949	1404,729	740,151
-30,125	8,004	1403,452	739,707
-29,111	7,933	1402,432	738,807
-28,096	7,928	1401,483	738,253
-27,082	7,888	1400,160	737,342
-26,067	7,886	1399,094	736,741
-25,052	7,896	1397,936	736,148
-24,038	7,937	1396,968	735,802
-23,023	7,932	1396,061	735,272
-22,009	7,843	1395,225	734,388
-20,994	7,876	1394,084	733,913
-19,979	7,915	1392,969	733,473
-18,965	7,840	1392,263	732,726
-17,950	7,848	1391,136	732,144
-16,936	7,846	1390,315	731,670
-15,921	7,821	1389,288	730,988
-14,906	7,857	1388,190	730,546
-13,892	7,855	1387,346	730,064
-12,877	7,843	1386,445	729,503
-11,863	7,798	1386,106	729,092
-10,848	7,792	1384,919	728,411
-9,833	7,795	1383,871	727,842
-8,819	7,693	1383,363	727,080
-7,804	7,730	1382,247	726,631
-6,790	7,733	1381,357	726,148
-5,775	7,760	1380,094	725,581
-4,760	7,773	1379,080	725,080
-3,746	7,755	1378,375	724,598
-2,731	7,725	1377,546	723,995
-1,717	7,775	1376,638	723,717
-0,702	7,757	1374,751	722,614
0,313	11,719	1285,184	693,488
1,327	27,507	676,817	400,377
2,342	43,131	116,271	74,653
3,356	0,642	16,546	8,315
4,371	4,058	3,797	1,951
5,386	30,708	1,296	0,780
6,400	800,000	0,262	0,686
7,415	-190,430	-0,209	-0,002
8,429	-68,988	-0,313	-0,085
9,444	-20,191	-0,401	-0,173
10,459	217,677	-0,176	-0,198
11,473	98,934	-0,251	-0,204
12,488	-178,805	-0,246	-0,004
13,502	108,723	-0,343	-0,289
14,517	24,972	-0,313	-0,182
15,531	128,616	-0,373	-0,335
16,546	7,297	-0,360	-0,189
17,561	234,935	-0,301	-0,350
18,575	-200,000	-0,034	-0,157
19,590	153,375	-0,296	-0,285
20,604	-85,099	-0,317	-0,069
21,619	106,408	-0,332	-0,277
22,634	76,497	-0,438	-0,326
23,648	-2,248	-0,346	-0,170
24,663	89,819	-0,331	-0,260
25,677	64,082	-0,296	-0,209
26,692	-40,714	-0,389	-0,141
27,707	70,789	-0,416	-0,302
28,721	36,292	-0,398	-0,246
29,736	114,967	-0,299	-0,257
30,750	24,581	-0,366	-0,212
31,765	8,420	-0,428	-0,226
32,780	138,474	-0,351	-0,324
33,794	57,173	-0,330	-0,226
34,809	132,996	-0,363	-0,329
35,823	-30,458	-0,445	-0,176
36,838	37,470	-0,419	-0,261
37,853	45,848	-0,344	-0,223
38,867	23,425	-0,404	-0,233
39,882	351,520	-0,187	-0,260
40,896	124,839	-0,364	-0,322
41,911	43,010	-0,345	-0,220
42,926	-63,550	-0,437	-0,125
43,940	-38,056	-0,506	-0,188
44,955	103,181	-0,283	-0,233
45,969	22,362	-0,333	-0,191
46,984	12,853	-0,358	-0,194
47,999	119,919	-0,296	-0,258
49,013	5,673	-0,302	-0,156
50,028	-42,108	-0,399	-0,143
51,042	71,624	-0,238	-0,173
52,057	28,617	-0,395	-0,234
53,071	250,639	-0,325	-0,388
54,086	67,534	-0,356	-0,255
55,101	67,384	-0,401	-0,287
56,115	73,420	-0,367	-0,269
57,130	-58,033	-0,340	-0,103
58,144	-58,567	-0,427	-0,129
59,159	123,937	-0,418	-0,368
60,174	-18,319	-0,500	-0,218
61,188	-25,545	-0,440	-0,182
62,203	66,270	-0,343	-0,244
63,217	100,850	-0,252	-0,205
64,232	7,641	-0,273	-0,143
65,247	152,914	-0,231	-0,221
66,261	-7,150	-0,529	-0,250
67,276	-12,990	-0,409	-0,186
68,290	105,093	-0,365	-0,302
69,305	54,692	-0,379	-0,256
70,320	103,152	-0,368	-0,302
71,334	40,897	-0,278	-0,175
72,349	43,122	-0,276	-0,176
73,363	214,695	-0,154	-0,171
74,378	56,928	-0,204	-0,139
75,393	67,277	-0,293	-0,209
76,407	9,070	-0,325	-0,171
77,422	22,902	-0,203	-0,116
78,436	-160,342	-0,346	-0,013
79,451	502,591	-0,171	-0,277
80,466	20,736	-0,321	-0,182
81,480	35,366	-0,268	-0,164
82,495	-10,368	-0,325	-0,150
83,509	49,285	-0,297	-0,195
84,524	116,383	-0,256	-0,220
85,539	-43,880	-0,275	-0,096
86,553	-92,825	-0,337	-0,065
87,568	17,444	-0,326	-0,181
88,582	1,989	-0,405	-0,204
89,597	201,722	-0,286	-0,309
90,611	6,846	-0,174	-0,090
91,626	-54,069	-0,169	-0,053
92,641	-3,137	-0,414	-0,201
93,655	47,987	-0,221	-0,144
94,670	53,016	-0,328	-0,219
95,684	139,354	-0,327	-0,301
96,699	58,896	-0,284	-0,195
97,714	41,780	-0,186	-0,117
98,728	-74,975	-0,332	-0,083
99,743	69,033	-0,303	-0,217
100,757	10,815	-0,167	-0,089
101,772	-57,400	-0,167	-0,051
102,787	142,192	-0,257	-0,238
103,801	376,157	-0,154	-0,221
104,816	-4,332	-0,335	-0,161
105,830	-68,495	-0,224	-0,060
106,845	-80,323	-0,208	-0,048
107,860	200,963	-0,114	-0,123
108,874	95,138	-0,249	-0,198
109,889	174,589	-0,356	-0,360
110,903	57,399	-0,334	-0,227
111,918	169,596	-0,322	-0,321
112,933	67,054	-0,289	-0,206
113,947	-113,693	-0,353	-0,047
114,962	90,998	-0,285	-0,223
115,976	177,076	-0,251	-0,255
116,991	5,799	-0,357	-0,184
118,006	48,525	-0,212	-0,138
119,020	-14,775	-0,337	-0,150
120,035	-105,038	-0,170	-0,027
121,049	-29,516	-0,124	-0,049
122,064	-66,055	-0,221	-0,061
123,079	60,502	-0,222	-0,153
124,093	-17,294	-0,312	-0,136
125,108	171,804	-0,218	-0,219
126,122	75,727	-0,251	-0,185
127,137	77,039	-0,151	-0,112
128,151	-200,000	-0,003	-0,212
129,166	29,067	-0,313	-0,184
130,181	29,892	-0,312	-0,185
131,195	378,451	-0,221	-0,316
132,210	169,617	-0,167	-0,167
133,224	185,133	-0,306	-0,317
134,239	-123,761	-0,349	-0,038
135,254	85,604	-0,151	-0,115
136,268	47,442	-0,250	-0,162
137,283	27,393	-0,232	-0,136
138,297	17,865	-0,325	-0,180
139,312	122,430	-0,292	-0,255
140,327	-200,000	-0,060	-0,318
141,341	78,167	-0,155	-0,115
142,356	-135,889	-0,252	0,020
143,370	195,544	-0,216	-0,229
144,385	102,491	-0,291	-0,237
145,400	54,106	-0,252	-0,168
146,414	18,118	-0,365	-0,202
147,429	164,837	-0,173	-0,170
148,443	188,249	-0,198	-0,206
149,458	1,788	-0,247	-0,123
150,473	102,004	-0,173	-0,141
151,487	83,788	-0,248	-0,188
152,502	230,998	-0,201	-0,230
153,516	31,754	-0,340	-0,203
154,531	194,945	-0,187	-0,198
155,546	94,259	-0,300	-0,237
156,560	512,653	-0,183	-0,298
157,575	88,505	-0,101	-0,078
158,589	33,968	-0,162	-0,098
159,604	17,047	-0,228	-0,125
160,619	63,923	-0,222	-0,155
161,633	18,978	-0,297	-0,165
162,648	51,996	-0,217	-0,143
163,662	258,111	-0,136	-0,163
164,677	89,956	-0,265	-0,206
165,692	-81,143	-0,170	-0,039
166,706	28,489	-0,259	-0,152
167,721	108,054	-0,203	-0,168
168,735	-13,075	-0,236	-0,106
169,750	46,632	-0,166	-0,107
170,764	185,555	-0,172	-0,178
171,779	142,848	-0,232	-0,214
172,794	269,165	-0,169	-0,207
173,808	4,195	-0,278	-0,141
174,823	-1,638	-0,305	-0,149
175,837	-95,207	-0,331	-0,061
176,852	93,444	-0,237	-0,186
177,867	-21,920	-0,142	-0,060
178,881	-29,643	-0,303	-0,120
179,896	228,133	-0,138	-0,156
180,910	-156,284	-0,259	-0,011
181,925	60,712	-0,264	-0,181
182,940	-101,142	-0,266	-0,045
183,954	126,320	-0,344	-0,302
184,969	-117,371	-0,224	-0,028
185,983	-200,000	-0,009	-0,204
186,998	583,735	-0,081	-0,139
188,013	144,187	-0,166	-0,154
189,027	-92,024	-0,282	-0,055
190,042	88,037	-0,189	-0,146
191,056	168,989	-0,243	-0,240
192,071	105,427	-0,246	-0,201
193,086	104,890	-0,210	-0,172
194,100	61,895	-0,266	-0,184
195,115	-49,003	-0,058	-0,019
196,129	2,362	-0,264	-0,132
197,144	-70,218	-0,299	0,078
198,159	-86,400	-0,231	-0,049
199,173	81,858	-0,221	-0,166
200,188	-86,689	-0,196	0,041
201,202	-123,419	-0,120	-0,013
202,217	-54,401	-0,195	-0,061
203,232	-49,120	-0,278	-0,092
204,246	795,258	-0,195	-0,374
205,261	97,720	-0,193	-0,154
206,275	27,737	-0,146	-0,085
207,290	111,186	-0,295	-0,246
208,304	38,599	-0,198	-0,122
209,319	269,507	-0,185	-0,226
210,334	286,303	-0,141	-0,176
211,348	-142,339	-0,152	-0,010
212,363	30,014	-0,203	-0,120
213,377	344,084	-0,101	-0,137
214,392	381,157	-0,119	-0,169
215,407	-136,983	-0,170	-0,013
216,421	91,424	-0,113	-0,088
217,436	-84,498	-0,180	-0,039
218,450	18,433	-0,281	-0,155
219,465	-63,275	-0,358	-0,101
220,480	44,256	-0,247	-0,157
221,494	69,515	-0,104	-0,074
222,509	639,952	-0,052	-0,092
223,523	26,904	-0,293	-0,169
224,538	30,298	-0,115	-0,068
225,553	481,118	-0,152	-0,239
226,567	285,760	-0,125	-0,156
227,582	89,642	-0,170	-0,131
228,596	-129,664	-0,213	-0,020
229,611	88,907	-0,136	-0,104
230,626	-97,073	-0,115	0,021
231,640	-155,578	-0,192	-0,008
232,655	-18,995	-0,156	-0,067
233,669	-155,308	-0,220	-0,010
234,684	75,914	-0,202	-0,147
235,699	-3,846	-0,159	-0,076
236,713	57,579	-0,154	-0,104
237,728	-38,350	-0,161	-0,059
238,742	68,868	-0,185	-0,131
239,757	-18,062	-0,245	-0,106
240,772	0,526	-0,351	-0,172
241,786	-18,381	-0,176	-0,076
242,801	-23,525	-0,122	-0,050
243,815	526,458	-0,070	-0,114
244,830	-200,000	-0,038	-0,129
245,844	-17,237	-0,109	-0,047
246,859	-62,864	-0,397	-0,113
247,874	43,673	-0,180	-0,113
248,888	-27,445	-0,172	-0,069
249,903	288,717	-0,130	-0,163
250,917	-45,366	-0,150	-0,051
251,932	2,733	-0,177	-0,088
252,947	-46,474	-0,173	-0,058
253,961	65,727	-0,182	-0,127
254,976	800,000	-0,129	-0,267
255,990	217,839	-0,086	-0,095
257,005	21,935	-0,234	-0,131
258,020	-40,595	-0,153	-0,054
259,034	-32,690	-0,088	-0,034
260,049	44,594	-0,087	0,055
261,063	129,288	-0,273	-0,240
262,078	11,616	-0,258	-0,136
263,093	184,219	-0,228	-0,232
264,107	-118,427	-0,183	-0,022
265,122	488,030	-0,110	-0,174
266,136	155,941	-0,109	-0,104
267,151	-200,000	-0,015	-0,129
268,166	177,997	-0,058	-0,058
269,180	110,547	-0,112	-0,092
270,195	409,669	-0,137	-0,200
271,209	388,907	-0,092	-0,132
272,224	70,595	-0,159	-0,113
273,239	-106,100	-0,263	-0,040
274,253	-57,312	-0,219	0,066
275,268	16,737	-0,177	-0,096
276,282	398,871	-0,170	-0,246
277,297	-75,347	-0,154	-0,037
278,312	77,751	-0,135	-0,099
279,326	126,888	-0,191	-0,166
280,341	-137,003	-0,233	-0,018
281,355	283,391	-0,137	-0,169
282,370	181,865	-0,152	-0,154
283,384	800,000	-0,100	-0,222
284,399	45,171	-0,331	-0,210
285,414	-51,908	-0,215	-0,068
286,428	273,378	-0,119	-0,145
287,443	41,076	-0,122	0,076
288,457	-1,414	-0,073	0,035
289,472	-128,226	-0,229	-0,022
290,487	93,543	-0,188	-0,146
291,501	45,522	-0,202	-0,128
292,516	104,486	-0,215	-0,174
293,530	191,467	-0,212	-0,219
294,545	-198,556	-0,180	0,001
295,560	31,650	-0,190	-0,112
296,574	-10,964	-0,123	-0,056
297,589	88,468	-0,186	-0,142
298,603	-34,070	-0,241	-0,091
299,618	11,882	-0,280	-0,147
300,633	-35,460	-0,149	-0,055
301,647	117,043	-0,172	-0,145
302,662	800,000	-0,024	-0,066
303,676	31,415	-0,224	-0,132
304,691	54,409	-0,144	-0,095
305,706	138,673	-0,172	-0,155
306,720	164,050	-0,166	-0,161
307,735	-63,303	-0,163	-0,046
308,749	-78,186	-0,136	-0,032
309,764	-6,571	-0,110	-0,051
310,779	143,896	-0,089	-0,081
311,793	35,688	-0,115	-0,069
312,808	56,966	-0,169	-0,113
313,822	-32,858	-0,231	-0,088
314,837	133,277	-0,167	-0,148
315,852	800,000	-0,074	-0,215
316,866	57,915	-0,076	0,051
317,881	87,358	-0,135	-0,102
318,895	-1,437	-0,140	-0,067
319,910	202,057	-0,105	-0,111
320,925	217,679	-0,099	-0,108
321,939	-3,611	-0,142	-0,068
322,954	233,308	-0,069	-0,078
323,968	-200,000	-0,012	0,136
324,983	-186,409	-0,301	-0,003
325,997	217,723	-0,209	-0,229
327,012	-87,515	-0,178	0,037
328,027	-97,136	-0,143	0,025
329,041	-93,608	-0,182	-0,034
330,056	-54,316	-0,089	-0,027
331,070	-35,557	-0,153	-0,057
332,085	-92,587	-0,137	-0,026
333,100	-15,988	-0,217	-0,094
334,114	800,000	-0,099	-0,278
335,129	63,010	-0,053	-0,037
336,143	-65,441	-0,204	-0,056
337,158	93,587	-0,105	-0,082
338,173	-20,115	-0,161	-0,068
339,187	-70,914	-0,186	-0,047
340,202	-60,074	-0,095	-0,027
341,216	716,232	0,044	-0,081
342,231	134,628	-0,214	-0,190
343,246	-200,000	-0,024	-0,323
344,260	-99,588	-0,046	0,008
345,275	-200,000	-0,023	-0,109
346,289	23,578	-0,088	-0,050
347,304	-67,685	-0,201	-0,053
348,319	-7,124	-0,262	-0,121
349,333	-69,881	-0,153	-0,040
350,348	174,475	-0,151	-0,149
351,362	800,000	-0,106	-0,213
352,377	-113,096	-0,170	0,023
353,392	-200,000	-0,014	-0,051
354,406	-59,897	-0,136	-0,040
355,421	208,488	1308,423	1400,138
356,435	160,425	1468,311	1400,569
