DTS Sentinel unit serial number:	SN410029Multiplexer serial number:	ORYXHardware model number:	OX2-SRSoftware version number:	ORYX F/W v4,00 Oryx Data Collector v3.7.2.0data status	okinstallation	B3 Nyhavnadifferential loss correction	single-endedforward channel	channel 1reverse channel	N/Adate	2023/11/30time	20:57:30forward acquisition time	300,00reverse acquisition time	0,00gamma	499,1914k internal	0,3208k external	0,3208temperature offset calibration	1,0000default loss term (dB/km)	0,3820temperature slope calibration	1,0000multiplexer offset coefficient	1,0000multiplexer slope coefficient	1,0000fibre end	0,00T internal ref (°C)	10,92T ext. ref 1 (°C)	-4,46T ext. ref 2 (°C)	-4,57length (m)	temperature (°C)	Stokes	anti-Stokes-744,400	145,501	-0,288	-0,281
-743,385	800,000	0,078	0,186
-742,371	800,000	-0,056	-0,151
-741,356	-200,000	0,026	0,161
-740,342	255,422	-0,204	-0,255
-739,327	-200,000	0,005	0,238
-738,312	328,907	-0,229	-0,319
-737,298	617,170	-0,135	0,246
-736,283	800,000	-0,090	-0,260
-735,269	-200,000	0,041	0,337
-734,254	82,958	-0,240	-0,189
-733,239	1,731	-0,259	0,135
-732,225	800,000	-0,084	-0,235
-731,210	-200,000	-0,042	0,203
-730,196	357,025	-0,037	-0,053
-729,181	800,000	0,031	-0,094
-728,167	-200,000	-0,018	-0,087
-727,152	-116,700	0,090	-0,012
-726,137	-6,831	-0,130	0,064
-725,123	-200,000	-0,001	0,195
-724,108	-129,132	-0,166	-0,017
-723,094	-68,850	-0,079	-0,022
-722,079	-200,000	0,005	-0,093
-721,064	800,000	0,011	0,029
-720,050	-20,610	-0,090	0,040
-719,035	-59,357	-0,150	0,047
-718,021	-200,000	0,009	-0,043
-717,006	127,791	-0,075	-0,069
-715,991	-86,854	-0,081	-0,018
-714,977	246,723	0,083	-0,101
-713,962	13,082	-0,140	-0,078
-712,948	135,123	0,102	-0,096
-711,933	-200,000	-0,000	0,192
-710,918	152,172	-0,099	-0,098
-709,904	-32,033	-0,073	0,030
-708,889	-200,000	0,011	0,047
-707,875	-7,384	0,064	0,031
-706,860	-200,000	0,003	-0,046
-705,845	-66,246	-0,014	0,004
-704,831	546,645	0,091	0,158
-703,816	-83,437	-0,020	0,005
-702,802	-200,000	-0,025	0,131
-701,787	190,499	-0,042	-0,046
-700,772	-16,264	0,095	0,043
-699,758	86,190	-0,049	-0,039
-698,743	-26,373	0,191	-0,081
-697,729	800,000	-0,026	-0,074
-696,714	15,426	-0,094	0,053
-695,699	637,702	0,026	0,047
-694,685	-128,889	-0,038	-0,004
-693,670	-4,121	-0,113	-0,056
-692,656	36,945	0,042	-0,027
-691,641	675,494	0,014	0,027
-690,627	800,000	-0,042	0,107
-689,612	-114,751	-0,124	0,017
-688,597	800,000	0,015	-0,047
-687,583	613,516	-0,072	-0,131
-686,568	-200,000	0,004	-0,133
-685,554	800,000	-0,046	-0,137
-684,539	-200,000	0,012	0,068
-683,524	-51,144	-0,056	0,019
-682,510	-200,000	-0,021	-0,072
-681,495	103,303	-0,088	-0,075
-680,481	-200,000	-0,004	0,042
-679,466	5,359	0,035	-0,019
-678,451	88,132	0,034	-0,028
-677,437	-200,000	-0,011	-0,051
-676,422	-200,000	0,013	0,131
-675,408	-15,314	-0,084	0,039
-674,393	-154,494	0,065	0,003
-673,378	514,162	-0,107	-0,182
-672,364	-70,285	-0,062	0,017
-671,349	-26,456	-0,076	0,032
-670,335	800,000	0,063	-0,139
-669,320	-200,000	-0,002	-0,032
-668,305	470,023	0,034	0,056
-667,291	-68,489	-0,203	-0,057
-666,276	-200,000	0,032	-0,118
-665,262	800,000	0,011	-0,035
-664,247	-200,000	0,014	-0,167
-663,232	-50,237	-0,075	0,025
-662,218	153,605	0,042	0,042
-661,203	383,473	0,064	0,095
-660,189	116,715	0,050	0,045
-659,174	-96,233	-0,089	0,017
-658,159	435,629	0,040	-0,063
-657,145	723,006	-0,033	-0,064
-656,130	-200,000	0,012	0,067
-655,116	-0,635	0,029	-0,015
-654,101	-200,000	0,011	0,070
-653,086	-74,642	-0,113	-0,029
-652,072	-126,034	-0,224	-0,024
-651,057	-3,869	-0,032	-0,016
-650,043	23,432	-0,022	0,013
-649,028	-58,291	-0,122	-0,038
-648,014	266,618	-0,097	0,123
-646,999	-200,000	0,018	0,068
-645,984	-200,000	0,007	0,129
-644,970	-141,193	-0,104	-0,008
-643,955	-200,000	-0,028	-0,115
-642,941	-75,268	-0,038	-0,010
-641,926	800,000	0,011	-0,032
-640,911	84,630	0,132	-0,105
-639,897	-200,000	0,004	-0,032
-638,882	-200,000	-0,001	0,057
-637,868	-165,732	-0,075	-0,002
-636,853	-83,677	-0,157	0,036
-635,838	-53,660	-0,173	0,057
-634,824	-29,132	0,046	-0,019
-633,809	-98,702	-0,115	-0,021
-632,795	800,000	0,028	-0,067
-631,780	800,000	-0,021	-0,052
-630,765	-200,000	-0,052	-0,213
-629,751	8,209	0,078	-0,042
-628,736	-132,783	-0,135	-0,012
-627,722	-200,000	0,005	-0,138
-626,707	-58,923	0,163	0,051
-625,692	76,113	-0,112	-0,086
-624,678	-200,000	0,006	0,072
-623,663	-200,000	0,003	0,015
-622,649	-60,669	-0,193	0,059
-621,634	-200,000	0,001	0,021
-620,619	-200,000	-0,034	0,123
-619,605	168,583	-0,108	0,111
-618,590	800,000	0,030	0,094
-617,576	426,333	-0,031	-0,049
-616,561	-26,193	0,074	0,031
-615,546	-200,000	-0,017	0,079
-614,532	219,812	-0,087	0,100
-613,517	364,529	0,032	0,047
-612,503	-200,000	-0,006	-0,065
-611,488	-100,515	-0,077	0,014
-610,474	206,820	0,093	0,105
-609,459	154,319	-0,121	-0,120
-608,444	503,750	-0,054	0,091
-607,430	-200,000	-0,011	-0,037
-606,415	95,695	-0,156	-0,129
-605,401	800,000	-0,020	0,049
-604,386	-65,019	-0,015	0,004
-603,371	800,000	0,039	-0,103
-602,357	-36,859	-0,073	0,028
-601,342	800,000	-0,015	-0,035
-600,328	384,011	-0,102	0,152
-599,313	800,000	0,022	0,068
-598,298	83,351	-0,016	-0,013
-597,284	409,078	0,064	0,097
-596,269	679,008	-0,041	0,078
-595,255	450,301	0,019	-0,030
-594,240	105,723	0,066	-0,056
-593,225	473,548	-0,029	-0,048
-592,211	158,225	0,020	-0,020
-591,196	-10,153	0,111	0,053
-590,182	99,525	0,033	0,028
-589,167	198,806	0,039	-0,043
-588,152	215,073	0,018	-0,021
-587,138	381,375	-0,005	0,008
-586,123	-200,000	-0,026	-0,143
-585,109	33,052	-0,069	-0,043
-584,094	336,950	0,153	-0,214
-583,079	-200,000	-0,000	-0,052
-582,065	498,808	-0,073	-0,121
-581,050	-111,259	0,142	0,021
-580,036	20,785	-0,084	-0,049
-579,021	70,226	-0,163	0,121
-578,006	-91,556	-0,080	0,016
-576,992	-200,000	0,003	0,031
-575,977	54,533	0,065	0,045
-574,963	625,811	-0,008	-0,014
-573,948	-98,710	-0,122	0,022
-572,934	80,081	0,065	0,050
-571,919	747,875	-0,093	0,182
-570,904	800,000	-0,050	-0,130
-569,890	-200,000	-0,008	0,092
-568,875	82,181	0,113	0,089
-567,861	800,000	0,078	0,168
-566,846	-49,486	0,008	-0,003
-565,831	-12,806	0,037	0,017
-564,817	800,000	-0,023	-0,054
-563,802	-200,000	-0,021	-0,180
-562,788	108,789	-0,085	-0,073
-561,773	-200,000	0,001	0,052
-560,758	157,551	0,018	0,018
-559,744	-200,000	-0,002	-0,148
-558,729	369,078	0,088	-0,128
-557,715	-200,000	0,015	0,078
-556,700	-32,107	-0,176	0,071
-555,685	-57,347	-0,199	-0,063
-554,671	278,877	0,129	0,167
-553,656	158,052	-0,105	-0,105
-552,642	150,531	0,071	-0,069
-551,627	-133,066	-0,034	0,003
-550,612	-93,263	-0,127	0,025
-549,598	-0,022	-0,024	0,012
-548,583	-161,320	-0,097	0,004
-547,569	80,918	-0,021	-0,016
-546,554	-82,108	0,106	0,025
-545,539	-87,930	0,110	0,024
-544,525	87,684	-0,011	-0,009
-543,510	387,616	-0,032	0,048
-542,496	-66,382	-0,044	-0,013
-541,481	-28,849	-0,054	-0,022
-540,466	-200,000	0,004	0,015
-539,452	-88,290	0,062	0,013
-538,437	193,659	0,080	0,088
-537,423	-85,309	-0,081	0,018
-536,408	-200,000	0,024	0,128
-535,393	-200,000	-0,016	-0,188
-534,379	533,440	-0,061	-0,105
-533,364	-200,000	0,049	-0,186
-532,350	36,640	0,124	-0,078
-531,335	509,421	0,033	0,055
-530,321	-200,000	-0,010	-0,098
-529,306	-200,000	0,007	0,032
-528,291	147,994	-0,053	0,051
-527,277	800,000	0,054	0,114
-526,262	410,752	0,029	-0,044
-525,248	-200,000	0,000	-0,095
-524,233	-107,687	0,022	-0,003
-523,218	-200,000	-0,004	0,204
-522,204	16,962	0,203	-0,116
-521,189	11,129	-0,076	-0,041
-520,175	-200,000	-0,002	0,074
-519,160	-159,693	-0,178	0,007
-518,145	-83,269	0,080	-0,018
-517,131	402,893	0,055	-0,084
-516,116	-200,000	-0,026	0,163
-515,102	-200,000	-0,005	0,050
-514,087	-200,000	0,016	-0,112
-513,072	152,051	-0,045	-0,044
-512,058	-136,121	0,154	-0,013
-511,043	800,000	0,005	-0,010
-510,029	-30,716	-0,114	-0,046
-509,014	-12,279	0,135	0,063
-507,999	561,833	0,069	0,120
-506,985	163,215	-0,114	0,115
-505,970	-200,000	0,037	-0,154
-504,956	322,385	-0,037	-0,051
-503,941	193,709	0,031	0,034
-502,926	-200,000	0,015	-0,086
-501,912	402,687	-0,058	0,088
-500,897	164,721	-0,085	0,086
-499,883	-22,751	-0,140	0,060
-498,868	-200,000	0,007	-0,150
-497,853	496,563	0,063	-0,104
-496,839	-4,308	-0,084	0,042
-495,824	212,586	0,089	0,101
-494,810	-200,000	0,041	-0,169
-493,795	-145,510	-0,039	0,002
-492,781	-90,587	-0,100	0,021
-491,766	-200,000	-0,042	-0,149
-490,751	167,352	-0,142	-0,145
-489,737	174,347	-0,005	0,005
-488,722	501,343	-0,047	-0,078
-487,708	-200,000	0,031	0,112
-486,693	-200,000	-0,000	-0,015
-485,678	227,162	0,040	0,047
-484,664	238,124	0,032	0,038
-483,649	-200,000	-0,011	-0,044
-482,635	800,000	0,029	-0,059
-481,620	447,256	0,052	0,082
-480,605	188,204	-0,022	-0,024
-479,591	-200,000	0,019	0,097
-478,576	167,086	-0,065	-0,067
-477,562	-160,793	0,047	-0,002
-476,547	-200,000	-0,017	0,123
-475,532	-37,359	-0,122	-0,047
-474,518	106,030	0,041	0,035
-473,503	166,022	0,026	-0,027
-472,489	-200,000	-0,006	-0,023
-471,474	-118,995	0,148	-0,018
-470,459	290,045	-0,032	0,042
-469,445	800,000	0,043	-0,107
-468,430	237,074	-0,027	0,032
-467,416	-124,858	-0,100	0,011
-466,401	-72,125	0,212	0,056
-465,386	-200,000	0,011	-0,071
-464,372	348,076	0,097	-0,138
-463,357	-200,000	-0,010	-0,093
-462,343	-12,980	-0,060	0,028
-461,328	-15,960	0,069	-0,031
-460,313	153,515	-0,076	-0,075
-459,299	-128,214	0,151	0,015
-458,284	-186,110	0,140	0,001
-457,270	-200,000	-0,020	0,067
-456,255	-200,000	-0,020	0,088
-455,241	-80,303	-0,074	0,018
-454,226	-200,000	0,035	-0,117
-453,211	800,000	0,014	-0,033
-452,197	-200,000	-0,003	0,089
-451,182	-200,000	-0,033	0,132
-450,168	617,610	0,054	-0,097
-449,153	-23,028	-0,044	0,019
-448,138	-200,000	-0,018	-0,177
-447,124	-136,360	-0,045	-0,004
-446,109	800,000	0,037	0,080
-445,095	51,414	0,058	-0,039
-444,080	-200,000	-0,017	0,075
-443,065	-200,000	-0,017	0,080
-442,051	-200,000	-0,013	-0,084
-441,036	105,793	-0,088	0,074
-440,022	-200,000	-0,023	-0,096
-439,007	-118,581	0,095	-0,012
-437,992	426,770	0,040	-0,062
-436,978	-200,000	0,007	-0,066
-435,963	66,949	-0,144	0,105
-434,949	-40,115	0,049	0,018
-433,934	-200,000	-0,003	0,047
-432,919	-200,000	0,050	-0,179
-431,905	-72,730	-0,083	0,022
-430,890	-73,392	-0,056	0,015
-429,876	-110,764	0,115	-0,017
-428,861	3,251	0,007	-0,003
-427,846	206,141	0,056	-0,062
-426,832	267,529	-0,067	-0,084
-425,817	800,000	0,023	-0,063
-424,803	-2,736	-0,047	-0,023
-423,788	-200,000	0,026	-0,143
-422,773	-9,256	0,046	0,022
-421,759	-59,587	-0,045	0,014
-420,744	218,595	0,039	0,045
-419,730	-200,000	-0,013	0,068
-418,715	-186,529	-0,068	-0,001
-417,701	-200,000	0,012	-0,100
-416,686	-167,062	0,152	-0,004
-415,671	141,546	0,092	0,087
-414,657	98,560	0,025	-0,021
-413,642	64,441	0,084	0,061
-412,628	6,002	0,128	-0,068
-411,613	-200,000	-0,027	-0,095
-410,598	103,019	-0,097	-0,081
-409,584	-82,839	0,183	0,042
-408,569	-200,000	-0,005	-0,079
-407,555	-36,234	0,163	0,063
-406,540	-79,435	0,056	0,013
-405,525	726,688	-0,034	-0,065
-404,511	-17,279	-0,123	0,055
-403,496	800,000	-0,026	0,065
-402,482	-200,000	0,047	0,169
-401,467	-200,000	0,022	0,163
-400,452	96,748	-0,036	-0,030
-399,438	-200,000	0,015	-0,061
-398,423	-31,694	0,077	0,031
-397,409	-200,000	0,000	0,034
-396,394	183,882	-0,010	0,011
-395,379	-61,305	0,151	0,045
-394,365	-200,000	-0,012	0,063
-393,350	101,423	0,143	0,119
-392,336	-200,000	-0,007	0,066
-391,321	-110,699	-0,040	-0,006
-390,306	279,707	0,014	0,018
-389,292	29,489	0,019	-0,011
-388,277	-200,000	0,016	0,100
-387,263	800,000	-0,013	-0,027
-386,248	188,434	0,082	-0,088
-385,233	69,858	0,119	-0,087
-384,219	251,906	-0,054	-0,066
-383,204	82,427	-0,117	-0,091
-382,190	-43,054	0,036	0,013
-381,175	127,185	-0,056	-0,051
-380,160	122,254	0,169	0,151
-379,146	-5,276	-0,118	0,058
-378,131	-102,885	0,155	0,026
-377,117	-200,000	0,003	0,010
-376,102	-93,300	-0,065	-0,013
-375,088	-200,000	-0,005	-0,155
-374,073	-110,085	-0,098	-0,014
-373,058	-112,376	-0,163	0,023
-372,044	82,392	0,052	0,040
-371,029	310,757	0,053	-0,071
-370,015	-57,462	0,142	-0,044
-369,000	-67,797	-0,071	-0,020
-367,985	444,405	0,033	0,052
-366,971	78,970	-0,063	-0,048
-365,956	0,130	-0,137	-0,070
-364,942	-200,000	0,024	0,083
-363,927	267,965	0,078	-0,097
-362,912	800,000	-0,038	0,093
-361,898	800,000	0,011	-0,031
-360,883	711,921	-0,018	0,035
-359,869	-200,000	-0,029	-0,110
-358,854	-78,713	0,081	0,020
-357,839	-78,992	0,065	-0,016
-356,825	243,496	-0,063	0,075
-355,810	-87,527	0,221	0,047
-354,796	800,000	-0,025	-0,059
-353,781	-86,540	-0,043	0,009
-352,766	800,000	-0,006	0,019
-351,752	-200,000	0,003	0,036
-350,737	-89,148	0,229	0,048
-349,723	800,000	0,027	0,083
-348,708	800,000	0,008	0,017
-347,693	319,157	0,047	-0,064
-346,679	426,880	0,067	-0,103
-345,664	-41,943	-0,042	-0,015
-344,650	-200,000	-0,036	-0,127
-343,635	-200,000	0,014	0,079
-342,620	260,317	0,108	-0,133
-341,606	43,043	-0,073	-0,048
-340,591	172,623	-0,108	-0,112
-339,577	800,000	-0,042	-0,088
-338,562	172,337	0,024	-0,024
-337,548	603,288	0,007	-0,012
-336,533	-200,000	-0,007	0,081
-335,518	122,358	0,115	0,102
-334,504	168,898	-0,049	0,050
-333,489	-78,520	0,073	0,018
-332,475	-117,937	-0,042	0,005
-331,460	-200,000	-0,010	-0,071
-330,445	470,235	0,012	0,020
-329,431	800,000	0,080	0,163
-328,416	-35,200	-0,031	-0,012
-327,402	-88,014	-0,019	-0,004
-326,387	64,175	0,042	0,030
-325,372	38,313	-0,166	0,105
-324,358	555,558	-0,046	-0,079
-323,343	-74,400	-0,142	-0,036
-322,329	58,632	0,106	-0,074
-321,314	83,619	-0,012	0,009
-320,299	-40,156	0,137	0,051
-319,285	169,623	-0,033	-0,034
-318,270	-121,257	-0,115	-0,014
-317,256	-171,683	0,128	-0,003
-316,241	-40,771	-0,108	-0,040
-315,226	420,226	0,068	0,104
-314,212	174,757	0,182	0,188
-313,197	-200,000	0,010	0,148
-312,183	-113,530	0,100	0,014
-311,168	800,000	-0,022	-0,069
-310,153	542,567	0,048	-0,082
-309,139	-47,270	-0,088	-0,030
-308,124	-200,000	0,049	0,166
-307,110	153,395	0,082	0,080
-306,095	800,000	0,009	0,027
-305,080	-200,000	0,001	-0,063
-304,066	800,000	-0,074	-0,210
-303,051	1,840	-0,075	-0,038
-302,037	-43,703	-0,143	0,051
-301,022	-200,000	-0,015	0,081
-300,008	748,204	-0,037	0,072
-298,993	-57,716	0,109	0,034
-297,978	-187,612	0,120	0,001
-296,964	-90,115	-0,078	-0,016
-295,949	662,813	0,070	-0,129
-294,935	800,000	0,054	-0,140
-293,920	-200,000	0,003	0,133
-292,905	-130,355	0,082	0,008
-291,891	-200,000	-0,009	0,186
-290,876	359,356	0,040	0,057
-289,862	135,112	0,039	0,036
-288,847	-82,290	0,094	-0,022
-287,832	-0,610	0,066	0,034
-286,818	78,963	-0,087	0,066
-285,803	19,630	0,093	0,053
-284,789	-101,599	-0,059	-0,010
-283,774	-200,000	0,001	-0,020
-282,759	298,123	0,056	-0,074
-281,745	275,029	-0,071	0,090
-280,730	800,000	0,037	-0,107
-279,716	-31,568	-0,031	-0,012
-278,701	279,928	-0,093	-0,119
-277,686	23,440	0,086	-0,050
-276,672	-200,000	0,046	0,273
-275,657	800,000	0,028	-0,076
-274,643	345,458	-0,153	-0,215
-273,628	800,000	0,023	0,057
-272,613	-200,000	0,009	0,035
-271,599	690,261	0,099	0,185
-270,584	590,014	0,038	-0,068
-269,570	-16,697	0,086	-0,039
-268,555	26,287	-0,094	0,056
-267,540	-200,000	-0,021	-0,078
-266,526	625,976	-0,021	-0,038
-265,511	111,229	-0,137	-0,117
-264,497	25,925	0,073	0,043
-263,482	44,923	0,127	-0,083
-262,467	475,684	-0,050	0,081
-261,453	246,092	-0,054	0,065
-260,438	-35,038	-0,189	-0,073
-259,424	53,454	0,125	0,085
-258,409	353,736	-0,082	-0,117
-257,395	800,000	0,034	0,072
-256,380	-200,000	-0,006	0,053
-255,365	800,000	0,029	0,092
-254,351	800,000	0,008	-0,018
-253,336	-200,000	-0,006	-0,055
-252,322	800,000	0,055	-0,122
-251,307	-16,679	-0,079	0,035
-250,292	716,961	0,019	-0,036
-249,278	800,000	0,036	-0,073
-248,263	438,297	-0,026	-0,040
-247,249	-115,656	0,104	-0,014
-246,234	-125,021	-0,069	-0,007
-245,219	277,027	0,081	-0,103
-244,205	-200,000	-0,007	0,034
-243,190	-81,647	0,103	0,024
-242,176	-200,000	-0,014	0,081
-241,161	-23,030	0,060	-0,026
-240,146	161,720	0,093	-0,092
-239,132	87,967	-0,061	0,048
-238,117	800,000	0,031	0,067
-237,103	-200,000	-0,027	-0,095
-236,088	209,483	-0,075	-0,084
-235,073	-73,069	0,138	0,036
-234,059	-12,510	0,024	-0,011
-233,044	-200,000	-0,005	0,051
-232,030	-22,073	0,021	0,009
-231,015	420,353	0,105	-0,160
-230,000	800,000	-0,022	0,053
-228,986	800,000	0,035	0,102
-227,971	39,566	0,048	-0,030
-226,957	-75,837	0,106	-0,027
-225,942	-62,529	0,026	0,008
-224,927	83,555	0,030	-0,023
-223,913	800,000	-0,024	-0,067
-222,898	37,452	0,109	-0,068
-221,884	129,514	0,007	0,007
-220,869	-121,571	-0,039	0,005
-219,855	226,162	0,077	-0,089
-218,840	800,000	0,024	0,072
-217,825	-19,943	-0,059	0,026
-216,811	-200,000	-0,027	0,086
-215,796	129,521	0,005	0,005
-214,782	-136,406	0,117	0,010
-213,767	138,725	-0,046	0,043
-212,752	-22,633	0,079	0,034
-211,738	-200,000	0,004	0,066
-210,723	724,529	0,011	0,021
-209,709	167,332	-0,109	-0,110
-208,694	42,259	0,050	-0,032
-207,679	-200,000	0,011	-0,036
-206,665	169,401	-0,044	-0,044
-205,650	89,432	-0,021	0,017
-204,636	-85,338	0,025	0,005
-203,621	-110,204	0,096	0,014
-202,606	126,698	-0,152	0,136
-201,592	-175,649	-0,019	-0,000
-200,577	24,578	-0,033	-0,019
-199,563	-200,000	0,051	0,177
-198,548	2,024	-0,087	-0,045
-197,533	-153,215	-0,103	0,005
-196,519	800,000	-0,039	0,112
-195,504	-200,000	-0,004	-0,084
-194,490	-96,455	-0,028	0,005
-193,475	271,235	-0,074	-0,093
-192,460	732,711	-0,030	-0,057
-191,446	29,253	0,159	0,096
-190,431	-42,930	0,074	0,027
-189,417	6,626	-0,099	0,052
-188,402	-200,000	-0,011	0,047
-187,387	-112,846	-0,103	-0,014
-186,373	-200,000	0,019	-0,107
-185,358	-200,000	-0,048	-0,177
-184,344	214,112	-0,042	0,047
-183,329	-200,000	0,003	0,028
-182,315	-200,000	0,025	0,078
-181,300	-28,502	-0,095	-0,039
-180,285	-200,000	-0,002	-0,100
-179,271	-200,000	0,001	-0,067
-178,256	144,869	-0,018	0,017
-177,242	-200,000	0,015	0,072
-176,227	800,000	0,084	0,172
-175,212	417,609	0,072	0,110
-174,198	70,017	-0,140	0,102
-173,183	37,955	-0,130	0,082
-172,169	514,591	-0,095	-0,158
-171,154	-169,749	-0,122	-0,003
-170,139	-63,625	0,036	-0,010
-169,125	599,527	0,098	0,174
-168,110	-131,575	0,095	0,009
-167,096	348,203	0,051	0,071
-166,081	-48,480	-0,152	0,052
-165,066	-121,726	-0,086	-0,010
-164,052	-105,171	-0,057	0,009
-163,037	-200,000	0,007	0,118
-162,023	-24,463	-0,105	-0,044
-161,008	-200,000	-0,022	0,071
-159,993	-91,225	0,034	-0,007
-158,979	800,000	0,036	-0,095
-157,964	-133,401	-0,111	-0,010
-156,950	693,702	-0,070	-0,131
-155,935	-200,000	-0,029	0,130
-154,920	59,091	-0,046	0,032
-153,906	-200,000	0,013	0,144
-152,891	-103,631	0,051	-0,008
-151,877	800,000	-0,060	-0,161
-150,862	84,402	-0,094	-0,073
-149,847	-200,000	0,014	-0,053
-148,833	-150,944	-0,170	0,009
-147,818	29,440	-0,115	0,069
-146,804	800,000	-0,038	0,087
-145,789	800,000	0,018	-0,055
-144,775	49,748	0,089	-0,059
-143,760	-30,529	0,051	-0,020
-142,745	190,602	-0,083	-0,089
-141,731	-200,000	0,005	0,044
-140,716	8,816	-0,034	0,018
-139,702	-90,353	-0,165	0,034
-138,687	-200,000	-0,047	0,173
-137,672	-82,607	0,043	0,010
-136,658	-37,847	0,038	-0,014
-135,643	324,317	0,043	-0,059
-134,629	-80,053	0,124	0,029
-133,614	-200,000	-0,005	-0,035
-132,599	63,156	-0,063	0,045
-131,585	97,147	-0,042	0,034
-130,570	-200,000	0,012	-0,162
-129,556	106,658	-0,018	0,015
-128,541	-68,712	0,033	0,009
-127,526	136,942	-0,045	-0,041
-126,512	163,750	0,105	0,105
-125,497	-200,000	-0,001	0,102
-124,483	-200,000	0,007	-0,027
-123,468	5,353	-0,088	0,046
-122,453	166,827	-0,015	0,016
-121,439	-200,000	0,012	-0,158
-120,424	-200,000	0,037	0,125
-119,410	24,315	0,066	0,038
-118,395	-127,516	0,148	0,015
-117,380	57,761	-0,101	0,070
-116,366	-32,359	-0,127	-0,050
-115,351	221,298	-0,053	0,060
-114,337	99,999	0,086	0,070
-113,322	-200,000	-0,021	0,092
-112,307	-200,000	0,017	-0,067
-111,293	800,000	0,017	-0,039
-110,278	-97,426	-0,140	0,025
-109,264	719,975	-0,065	0,123
-108,249	800,000	-0,021	-0,060
-107,234	800,000	0,046	0,126
-106,220	800,000	-0,030	-0,072
-105,205	693,350	-0,023	0,043
-104,191	800,000	0,094	0,260
-103,176	800,000	0,030	0,062
-102,162	-119,938	0,064	-0,008
-101,147	7,322	0,056	0,030
-100,132	67,034	-0,165	-0,119
-99,118	50,656	0,040	-0,027
-98,103	33,792	-0,010	-0,006
-97,089	321,892	-0,021	0,029
-96,074	163,384	0,055	0,055
-95,059	63,292	-0,074	-0,052
-94,045	-200,000	-0,027	0,190
-93,030	375,079	-0,054	0,078
-92,016	314,155	-0,053	0,071
-91,001	770,186	0,035	0,067
-89,986	621,002	-0,037	-0,066
-88,972	-200,000	0,009	-0,034
-87,957	-177,133	0,083	-0,001
-86,943	87,302	-0,071	-0,056
-85,928	183,314	-0,015	-0,015
-84,913	471,137	0,060	-0,096
-83,899	-120,977	-0,103	-0,012
-82,884	16,087	0,140	0,078
-81,870	-200,000	0,003	0,082
-80,855	-154,026	0,182	-0,009
-79,840	-84,038	0,101	-0,023
-78,826	800,000	-0,007	-0,014
-77,811	471,683	-0,073	-0,117
-76,797	7,686	-0,066	0,035
-75,782	-41,372	0,076	0,028
-74,767	-49,342	0,072	0,024
-73,753	800,000	-0,042	-0,118
-72,738	531,762	-0,034	0,058
-71,724	-97,867	-0,064	-0,012
-70,709	800,000	0,027	0,054
-69,694	-67,863	-0,098	0,027
-68,680	-58,074	0,119	-0,036
-67,665	-14,597	0,175	0,079
-66,651	-200,000	-0,002	-0,108
-65,636	-105,415	0,084	-0,013
-64,622	356,672	-0,043	-0,061
-63,607	800,000	0,034	0,090
-62,592	-200,000	0,002	-0,055
-61,578	800,000	0,012	0,027
-60,563	693,725	0,047	0,087
-59,549	-200,000	-0,017	0,151
-58,534	28,752	-1,939	-1,158
-57,519	616,166	-1,226	-2,182
-56,505	-200,000	-0,473	-4,448
-55,490	392,831	0,780	1,149
-54,476	800,000	5,088	11,603
-53,461	-200,000	21,124	332,889
-52,446	800,000	758,437	2330,387
-51,432	550,430	1664,244	2830,687
-50,417	73,601	1666,247	1231,435
-49,403	18,734	1539,464	867,957
-48,388	12,730	1462,465	795,422
-47,373	19,148	1453,171	821,226
-46,359	15,972	1442,345	799,929
-45,344	11,058	1438,216	774,149
-44,330	10,956	1436,322	772,610
-43,315	10,944	1434,481	771,532
-42,300	10,965	1432,749	770,671
-41,286	10,962	1431,419	769,908
-40,271	10,957	1430,185	769,190
-39,257	10,935	1428,921	768,375
-38,242	11,014	1427,935	768,191
-37,227	10,988	1426,843	767,449
-36,213	10,967	1425,663	766,684
-35,198	11,025	1424,422	766,263
-34,184	11,037	1423,526	765,806
-33,169	10,963	1422,313	764,771
-32,154	10,999	1421,025	764,221
-31,140	11,043	1419,823	763,752
-30,125	11,071	1418,799	763,301
-29,111	11,031	1417,567	762,420
-28,096	11,048	1416,428	761,859
-27,082	10,976	1415,256	760,861
-26,067	10,935	1414,444	760,201
-25,052	10,998	1413,267	759,832
-24,038	10,948	1412,246	759,021
-23,023	10,945	1411,429	758,535
-22,009	10,952	1410,220	757,888
-20,994	10,930	1409,200	757,209
-19,979	10,919	1408,279	756,631
-18,965	10,905	1407,312	756,016
-17,950	10,925	1406,363	755,569
-16,936	10,889	1405,646	754,985
-15,921	10,848	1404,688	754,250
-14,906	10,839	1403,808	753,705
-13,892	10,907	1402,680	753,385
-12,877	10,861	1401,944	752,745
-11,863	10,888	1401,177	752,433
-10,848	10,845	1400,167	751,660
-9,833	10,760	1399,454	750,853
-8,819	10,779	1398,456	750,374
-7,804	10,767	1397,824	749,950
-6,790	10,771	1396,592	749,280
-5,775	10,772	1395,415	748,622
-4,760	10,795	1394,421	748,166
-3,746	10,792	1393,612	747,688
-2,731	10,755	1392,770	747,035
-1,717	10,729	1392,019	746,484
-0,702	10,701	1390,169	745,332
0,313	14,758	1303,111	717,266
1,327	31,024	693,573	418,815
2,342	48,001	120,334	79,242
3,356	0,243	16,456	8,259
4,371	8,034	3,338	1,762
5,386	-25,243	0,936	0,389
6,400	427,230	0,218	0,333
7,415	85,032	-0,286	-0,221
8,429	-10,538	-0,412	-0,192
9,444	21,927	-0,238	-0,136
10,459	6,116	-0,272	-0,142
11,473	-28,627	-0,431	-0,174
12,488	-74,171	-0,286	-0,072
13,502	-36,939	-0,414	-0,156
14,517	26,527	-0,306	-0,180
15,531	-56,587	-0,410	-0,127
16,546	6,794	-0,413	-0,216
17,561	195,331	-0,308	-0,330
18,575	133,375	-0,072	-0,066
19,590	312,147	-0,180	-0,239
20,604	126,379	-0,195	-0,174
21,619	234,923	-0,349	-0,406
22,634	-36,421	-0,418	-0,158
23,648	82,470	-0,415	-0,317
24,663	346,628	-0,306	-0,425
25,677	22,924	-0,291	-0,168
26,692	-0,014	-0,255	-0,128
27,707	32,549	-0,443	-0,269
28,721	55,330	-0,321	-0,218
29,736	122,097	-0,423	-0,372
30,750	114,943	-0,494	-0,425
31,765	100,359	-0,373	-0,305
32,780	-43,632	-0,375	-0,132
33,794	22,505	-0,403	-0,231
34,809	128,976	-0,358	-0,321
35,823	-13,830	-0,462	-0,209
36,838	59,202	-0,479	-0,331
37,853	74,611	-0,327	-0,242
38,867	-71,915	-0,420	-0,109
39,882	90,787	-0,382	-0,301
40,896	223,634	-0,254	-0,289
41,911	2,575	-0,398	-0,202
42,926	-55,406	-0,445	-0,140
43,940	349,925	-0,197	-0,274
44,955	4,618	-0,415	-0,214
45,969	800,000	-0,148	-0,334
46,984	13,344	-0,406	-0,221
47,999	104,034	-0,231	-0,191
49,013	-75,392	-0,418	-0,104
50,028	140,769	-0,284	-0,264
51,042	86,524	-0,342	-0,265
52,057	67,176	-0,399	-0,286
53,071	163,262	-0,248	-0,245
54,086	15,032	-0,324	-0,178
55,101	6,175	-0,398	-0,207
56,115	-66,306	-0,314	-0,087
57,130	-108,864	-0,428	-0,064
58,144	161,595	-0,342	-0,336
59,159	113,863	-0,263	-0,224
60,174	74,195	-0,329	-0,242
61,188	151,769	-0,348	-0,333
62,203	112,302	-0,254	-0,216
63,217	144,800	-0,212	-0,199
64,232	211,468	-0,344	-0,381
65,247	56,417	-0,370	-0,252
66,261	29,621	-0,420	-0,250
67,276	65,155	-0,381	-0,270
68,290	59,778	-0,371	-0,257
69,305	211,291	-0,255	-0,282
70,320	-39,046	-0,299	-0,110
71,334	65,452	-0,318	-0,226
72,349	8,467	-0,319	-0,168
73,363	79,127	-0,373	-0,280
74,378	257,244	-0,286	-0,346
75,393	105,794	-0,311	-0,258
76,407	225,174	-0,204	-0,232
77,422	-15,270	-0,288	-0,129
78,436	800,000	-0,146	-0,286
79,451	-95,511	-0,473	-0,088
80,466	185,373	-0,277	-0,289
81,480	47,136	-0,392	-0,256
82,495	210,441	-0,246	-0,272
83,509	0,297	-0,218	-0,109
84,524	148,678	-0,228	-0,216
85,539	101,880	-0,163	-0,133
86,553	-16,856	-0,246	-0,109
87,568	3,441	-0,299	-0,152
88,582	120,422	-0,182	-0,158
89,597	79,181	-0,317	-0,238
90,611	17,147	-0,217	-0,120
91,626	-25,579	-0,296	-0,122
92,641	0,184	-0,348	-0,173
93,655	4,925	-0,344	-0,177
94,670	40,136	-0,232	-0,146
95,684	50,105	-0,357	-0,236
96,699	-49,203	-0,358	-0,119
97,714	113,091	-0,269	-0,228
98,728	-63,706	-0,212	-0,060
99,743	138,382	-0,303	-0,279
100,757	75,325	-0,273	-0,201
101,772	132,234	-0,292	-0,264
102,787	-41,955	-0,273	-0,097
103,801	-48,510	-0,312	-0,104
104,816	85,217	-0,253	-0,194
105,830	-34,360	-0,267	-0,102
106,845	-25,557	-0,252	-0,104
107,860	26,278	-0,223	-0,130
108,874	4,489	-0,265	-0,136
109,889	74,345	-0,271	-0,199
110,903	-45,243	-0,336	-0,116
111,918	-5,034	-0,381	-0,183
112,933	-1,063	-0,334	-0,165
113,947	-32,972	-0,259	-0,100
114,962	-23,376	-0,259	-0,108
115,976	-47,010	-0,279	-0,095
116,991	210,801	-0,267	-0,294
118,006	106,076	-0,279	-0,231
119,020	-21,843	-0,310	-0,131
120,035	63,681	-0,261	-0,183
121,049	127,460	-0,155	-0,137
122,064	388,241	-0,199	-0,288
123,079	30,320	-0,267	-0,159
124,093	800,000	-0,086	-0,188
125,108	407,835	-0,232	-0,343
126,122	-200,000	-0,060	-0,309
127,137	40,861	-0,177	-0,111
128,151	-122,548	-0,137	-0,015
129,166	66,725	-0,266	-0,189
130,181	-32,449	-0,170	-0,066
131,195	140,768	-0,293	-0,270
132,210	135,827	-0,237	-0,216
133,224	398,436	-0,122	-0,179
134,239	-200,000	-0,037	-0,132
135,254	-186,152	-0,210	-0,002
136,268	-156,560	-0,295	0,013
137,283	-94,170	-0,390	-0,074
138,297	120,984	-0,254	-0,221
139,312	118,725	-0,185	-0,159
140,327	38,536	-0,383	-0,238
141,341	95,661	-0,260	-0,207
142,356	187,362	-0,236	-0,246
143,370	17,284	-0,287	-0,158
144,385	-134,816	-0,277	-0,023
145,400	89,429	-0,233	-0,181
146,414	75,811	-0,306	-0,225
147,429	-55,658	-0,401	-0,124
148,443	145,855	-0,231	-0,216
149,458	19,217	-0,274	-0,153
150,473	-22,488	-0,242	-0,101
151,487	73,725	-0,248	-0,181
152,502	184,422	-0,255	-0,264
153,516	159,500	-0,220	-0,213
154,531	73,272	-0,091	-0,066
155,546	-77,382	-0,112	-0,027
156,560	-57,739	-0,236	-0,071
157,575	198,448	-0,234	-0,250
158,589	-37,824	-0,207	-0,076
159,604	-68,363	-0,376	-0,101
160,619	139,115	-0,167	-0,153
161,633	-38,297	-0,245	-0,090
162,648	-41,657	-0,316	-0,112
163,662	129,626	-0,150	-0,133
164,677	154,743	-0,204	-0,195
165,692	65,823	-0,243	-0,171
166,706	62,474	-0,286	-0,198
167,721	698,111	-0,133	-0,244
168,735	197,248	-0,281	-0,298
169,750	188,461	-0,121	-0,126
170,764	-66,500	-0,196	-0,054
171,779	-12,977	-0,231	-0,104
172,794	55,117	-0,187	-0,126
173,808	18,447	-0,208	-0,115
174,823	121,546	-0,269	-0,233
175,837	-72,884	-0,269	-0,068
176,852	-2,221	-0,244	-0,119
177,867	315,884	-0,062	-0,081
178,881	363,616	-0,136	-0,190
179,896	116,872	-0,187	-0,160
180,910	421,447	-0,181	-0,271
181,925	59,886	-0,206	-0,141
182,940	-18,896	-0,339	-0,146
183,954	800,000	-0,098	-0,225
184,969	186,305	-0,136	-0,141
185,983	164,666	-0,129	-0,127
186,998	-100,883	-0,318	-0,054
188,013	84,868	-0,105	-0,080
189,027	-25,627	-0,263	-0,107
190,042	-70,746	-0,256	-0,067
191,056	134,898	-0,223	-0,201
192,071	250,380	-0,124	-0,146
193,086	100,809	-0,268	-0,216
194,100	-120,512	-0,267	-0,031
195,115	113,264	-0,124	-0,104
196,129	229,987	-0,142	-0,162
197,144	-10,271	-0,330	-0,151
198,159	120,259	-0,317	-0,273
199,173	190,607	-0,198	-0,206
200,188	-34,618	-0,163	-0,062
201,202	800,000	-0,098	-0,201
202,217	-113,563	-0,131	-0,018
203,232	-55,898	-0,294	-0,090
204,246	16,009	-0,186	-0,101
205,261	200,501	-0,219	-0,234
206,275	61,184	-0,201	-0,138
207,290	259,476	-0,110	-0,132
208,304	139,125	-0,141	-0,129
209,319	122,640	-0,195	-0,169
210,334	105,117	-0,236	-0,193
211,348	49,635	-0,187	-0,122
212,363	800,000	-0,080	-0,174
213,377	218,667	-0,109	-0,121
214,392	-25,790	-0,190	-0,077
215,407	181,380	-0,165	-0,168
216,421	-57,881	-0,136	-0,041
217,436	182,301	-0,149	-0,152
218,450	-50,461	-0,136	-0,044
219,465	112,554	-0,237	-0,198
220,480	93,967	-0,180	-0,141
221,494	-51,377	-0,214	-0,069
222,509	-200,000	-0,036	-0,281
223,523	123,550	-0,207	-0,180
224,538	-5,875	-0,188	-0,089
225,553	375,226	-0,105	-0,149
226,567	83,439	-0,198	-0,149
227,582	-200,000	-0,000	-0,225
228,596	12,052	-0,220	0,117
229,611	-82,400	-0,278	-0,062
230,626	-38,467	-0,232	-0,085
231,640	367,520	-0,103	-0,145
232,655	527,232	-0,161	-0,264
233,669	2,010	-0,273	-0,136
234,684	-121,356	-0,207	-0,024
235,699	149,200	-0,130	-0,122
236,713	310,839	-0,095	-0,123
237,728	145,041	-0,184	-0,170
238,742	-200,000	-0,044	-0,203
239,757	128,131	-0,198	-0,175
240,772	-66,912	-0,154	-0,042
241,786	35,644	-0,212	-0,128
242,801	-66,915	-0,265	-0,072
243,815	43,998	-0,082	-0,052
244,830	-51,410	-0,189	-0,061
245,844	225,406	-0,177	-0,198
246,859	-79,450	-0,139	-0,032
247,874	0,943	-0,277	-0,137
248,888	58,546	-0,216	-0,146
249,903	189,977	-0,157	-0,163
250,917	36,338	-0,201	-0,122
251,932	-84,464	-0,120	-0,026
252,947	362,583	-0,159	-0,221
253,961	43,786	-0,174	-0,109
254,976	139,681	-0,214	-0,195
255,990	575,808	-0,184	-0,311
257,005	482,967	-0,135	-0,213
258,020	-62,666	-0,135	0,038
259,034	519,330	-0,036	-0,059
260,049	7,552	-0,185	-0,095
261,063	-47,504	-0,203	-0,068
262,078	-33,939	-0,160	-0,060
263,093	-89,281	-0,323	-0,065
264,107	-200,000	0,038	-0,207
265,122	800,000	-0,050	-0,137
266,136	258,584	-0,098	-0,116
267,151	424,111	-0,086	-0,127
268,166	87,167	-0,116	-0,088
269,180	381,702	-0,186	-0,264
270,195	298,645	-0,119	-0,151
271,209	362,739	-0,128	-0,178
272,224	455,258	-0,063	-0,096
273,239	-19,975	0,010	0,004
274,253	-84,819	-0,159	0,034
275,268	73,599	-0,137	-0,099
276,282	115,010	-0,162	-0,136
277,297	195,219	-0,198	-0,208
278,312	266,751	-0,110	-0,133
279,326	-200,000	0,003	0,010
280,341	49,290	-0,108	-0,070
281,355	-42,674	-0,264	-0,092
282,370	800,000	-0,052	-0,114
283,384	-62,539	-0,165	-0,047
284,399	800,000	-0,141	-0,277
285,414	124,077	-0,060	-0,052
286,428	-65,097	-0,158	-0,043
287,443	-168,265	-0,078	0,002
288,457	-200,000	0,011	-0,136
289,472	735,804	-0,087	-0,161
290,487	34,740	-0,211	-0,127
291,501	126,835	-0,233	-0,204
292,516	-89,764	-0,212	-0,042
293,530	220,279	-0,157	-0,173
294,545	-21,886	-0,076	0,032
295,560	-137,817	-0,297	0,023
296,574	-200,000	-0,065	-0,220
297,589	-104,461	-0,242	0,038
298,603	171,501	-0,156	-0,154
299,618	563,865	-0,057	-0,095
300,633	-200,000	-0,066	-0,251
301,647	-127,753	-0,136	-0,013
302,662	-18,641	-0,100	-0,043
303,676	-3,272	-0,202	-0,096
304,691	306,722	-0,060	-0,077
305,706	26,009	-0,277	-0,158
306,720	177,392	-0,125	-0,125
307,735	6,365	-0,125	-0,063
308,749	-200,000	0,006	-0,080
309,764	-72,503	-0,057	-0,014
310,779	665,468	-0,060	-0,106
311,793	263,901	-0,127	-0,152
312,808	139,387	-0,219	-0,198
313,822	800,000	-0,066	-0,189
314,837	387,615	-0,095	-0,135
315,852	800,000	-0,136	-0,261
316,866	201,680	-0,159	-0,168
317,881	640,353	-0,122	-0,214
318,895	47,131	-0,180	-0,115
319,910	31,203	-0,250	-0,147
320,925	94,257	-0,192	-0,150
321,939	53,622	-0,065	-0,043
322,954	-89,275	-0,218	-0,044
323,968	-200,000	-0,024	-0,189
324,983	188,878	-0,058	-0,059
325,997	-8,112	-0,352	-0,162
327,012	800,000	-0,103	-0,245
328,027	148,715	-0,245	-0,227
329,041	237,747	-0,051	-0,058
330,056	-28,398	-0,199	-0,079
331,070	-129,077	-0,123	-0,012
332,085	-11,560	-0,127	-0,057
333,100	146,041	-0,069	-0,064
334,114	314,328	-0,197	-0,254
335,129	800,000	-0,074	-0,186
336,143	18,946	-0,114	-0,062
337,158	-46,509	-0,135	-0,045
338,173	-69,520	-0,166	0,043
339,187	-86,812	-0,106	0,022
340,202	595,336	-0,082	-0,140
341,216	-142,814	-0,077	-0,005
342,231	36,902	-0,062	-0,037
343,246	800,000	-0,112	-0,269
344,260	436,576	-0,095	-0,142
345,275	800,000	-0,079	-0,210
346,289	170,694	0,054	0,053
347,304	-71,065	-0,142	-0,036
348,319	-42,111	-0,145	-0,051
349,333	-67,290	-0,181	-0,048
350,348	100,566	-0,183	-0,145
351,362	800,000	-0,049	0,099
352,377	-94,363	-0,121	0,022
353,392	267,990	-0,142	-0,171
354,406	488,938	-0,066	-0,103
355,421	208,036	1312,842	1405,421
356,435	160,060	1473,318	1405,904
