DTS Sentinel unit serial number:	SN410029Multiplexer serial number:	ORYXHardware model number:	OX2-SRSoftware version number:	ORYX F/W v4,00 Oryx Data Collector v3.7.2.0data status	okinstallation	B3 Nyhavnadifferential loss correction	single-endedforward channel	channel 1reverse channel	N/Adate	2023/12/01time	12:37:30forward acquisition time	300,00reverse acquisition time	0,00gamma	499,1914k internal	0,3213k external	0,3213temperature offset calibration	1,0000default loss term (dB/km)	0,3820temperature slope calibration	1,0000multiplexer offset coefficient	1,0000multiplexer slope coefficient	1,0000fibre end	0,00T internal ref (°C)	8,95T ext. ref 1 (°C)	-5,08T ext. ref 2 (°C)	-5,20length (m)	temperature (°C)	Stokes	anti-Stokes-744,400	163,415	-0,111	-0,113
-743,385	-200,000	0,067	0,233
-742,371	151,437	-0,167	-0,165
-741,356	800,000	-0,078	0,190
-740,342	-200,000	-0,028	-0,177
-739,327	439,571	-0,127	0,202
-738,312	308,994	-0,216	-0,294
-737,298	800,000	-0,104	0,210
-736,283	-200,000	-0,047	-0,267
-735,269	-200,000	-0,008	0,075
-734,254	800,000	-0,081	-0,251
-733,239	7,392	-0,144	-0,077
-732,225	-200,000	-0,054	-0,251
-731,210	-47,389	0,114	-0,040
-730,196	706,144	0,053	0,101
-729,181	689,856	-0,012	0,023
-728,167	800,000	-0,028	0,057
-727,152	-200,000	0,010	0,047
-726,137	-83,995	-0,022	0,005
-725,123	-200,000	-0,009	-0,100
-724,108	89,102	-0,029	0,023
-723,094	-200,000	0,023	-0,087
-722,079	-200,000	0,019	-0,134
-721,064	23,952	-0,075	-0,045
-720,050	-200,000	-0,010	-0,075
-719,035	-116,173	0,067	0,009
-718,021	169,013	-0,075	0,077
-717,006	-151,193	-0,132	-0,007
-715,991	124,965	-0,080	-0,073
-714,977	-97,322	-0,055	0,010
-713,962	398,858	0,029	0,044
-712,948	800,000	-0,041	-0,095
-711,933	-95,742	-0,021	0,004
-710,918	91,666	0,035	0,029
-709,904	74,896	0,063	-0,048
-708,889	456,654	-0,103	0,166
-707,875	35,815	-0,112	-0,071
-706,860	209,206	0,100	-0,114
-705,845	-200,000	-0,041	-0,159
-704,831	420,063	0,083	0,129
-703,816	-31,525	-0,042	-0,017
-702,802	356,259	-0,091	-0,132
-701,787	139,554	-0,080	-0,076
-700,772	-200,000	-0,042	0,139
-699,758	-200,000	-0,041	-0,153
-698,743	-200,000	-0,011	-0,106
-697,729	-142,373	-0,136	0,010
-696,714	-2,949	0,076	0,038
-695,699	90,702	-0,091	-0,074
-694,685	355,556	-0,089	-0,128
-693,670	164,386	0,096	-0,098
-692,656	-200,000	-0,009	-0,068
-691,641	788,306	-0,047	0,094
-690,627	-88,600	0,035	0,008
-689,612	-80,993	0,087	0,021
-688,597	560,260	-0,072	0,126
-687,583	154,996	-0,142	0,141
-686,568	291,334	-0,080	0,105
-685,554	783,588	-0,080	0,158
-684,539	800,000	0,001	-0,003
-683,524	-200,000	0,013	-0,053
-682,510	25,304	-0,157	0,094
-681,495	-200,000	0,011	-0,129
-680,481	-200,000	-0,018	-0,111
-679,466	122,848	-0,106	-0,096
-678,451	-172,057	-0,176	-0,004
-677,437	-52,590	-0,066	-0,022
-676,422	-200,000	0,018	-0,150
-675,408	-119,045	-0,046	-0,006
-674,393	-104,833	0,025	0,004
-673,378	800,000	-0,041	-0,123
-672,364	-200,000	0,044	0,141
-671,349	67,802	0,046	-0,034
-670,335	-66,316	0,079	-0,023
-669,320	-200,000	0,010	0,053
-668,305	800,000	-0,036	0,108
-667,291	-200,000	0,011	0,038
-666,276	-200,000	-0,001	-0,106
-665,262	163,044	-0,113	-0,115
-664,247	284,325	-0,111	-0,145
-663,232	139,401	-0,039	0,038
-662,218	-59,251	-0,150	0,046
-661,203	-28,335	0,082	0,034
-660,189	-200,000	0,023	-0,077
-659,174	-200,000	-0,011	-0,091
-658,159	710,228	-0,056	-0,108
-657,145	-85,874	-0,100	-0,022
-656,130	360,810	0,047	0,068
-655,116	574,712	0,052	0,092
-654,101	800,000	-0,031	-0,086
-653,086	-200,000	0,007	0,079
-652,072	800,000	-0,017	0,048
-651,057	441,477	-0,065	0,103
-650,043	-15,030	0,046	-0,021
-649,028	183,615	-0,065	-0,069
-648,014	16,640	-0,058	0,033
-646,999	-70,270	-0,065	-0,018
-645,984	-200,000	-0,011	-0,056
-644,970	-200,000	-0,000	-0,019
-643,955	307,806	-0,083	-0,111
-642,941	127,960	0,012	-0,011
-641,926	-200,000	0,031	-0,106
-640,911	3,077	-0,047	-0,024
-639,897	348,947	0,057	-0,082
-638,882	602,457	-0,041	0,074
-637,868	-200,000	0,028	-0,134
-636,853	102,069	-0,050	-0,042
-635,838	253,243	-0,103	-0,128
-634,824	-127,847	-0,046	0,005
-633,809	-57,138	-0,011	-0,004
-632,795	-200,000	0,000	0,034
-631,780	800,000	0,023	-0,053
-630,765	-118,475	0,131	-0,017
-629,751	168,118	-0,039	-0,041
-628,736	-134,133	-0,045	-0,004
-627,722	800,000	-0,034	0,072
-626,707	800,000	-0,079	0,171
-625,692	800,000	-0,045	-0,095
-624,678	54,203	0,083	0,058
-623,663	-118,462	-0,027	-0,003
-622,649	-22,561	-0,131	-0,057
-621,634	800,000	0,046	-0,098
-620,619	375,269	0,044	-0,064
-619,605	-200,000	-0,016	-0,052
-618,590	-66,948	0,103	-0,029
-617,576	427,622	-0,048	-0,075
-616,561	-10,608	-0,040	-0,019
-615,546	800,000	-0,028	-0,071
-614,532	235,305	0,020	-0,024
-613,517	141,044	0,057	-0,055
-612,503	-30,382	-0,104	0,042
-611,488	18,483	0,146	-0,084
-610,474	-200,000	0,006	0,038
-609,459	-57,789	0,042	-0,013
-608,444	16,670	-0,204	-0,116
-607,430	-38,521	-0,037	-0,014
-606,415	800,000	0,013	0,034
-605,401	-200,000	0,025	0,111
-604,386	-62,013	0,078	-0,023
-603,371	-99,914	0,216	0,039
-602,357	85,554	0,062	0,049
-601,342	-200,000	-0,004	0,022
-600,328	800,000	-0,020	-0,062
-599,313	800,000	-0,023	0,058
-598,298	-46,773	0,139	-0,049
-597,284	-108,452	-0,061	0,009
-596,269	-19,742	-0,077	-0,034
-595,255	-200,000	-0,021	0,085
-594,240	-200,000	-0,008	0,037
-593,225	-107,572	-0,084	0,013
-592,211	-200,000	-0,007	-0,097
-591,196	-59,557	0,093	-0,028
-590,182	-99,625	-0,003	0,001
-589,167	296,521	0,015	0,020
-588,152	-200,000	-0,013	0,068
-587,138	22,241	0,018	-0,011
-586,123	126,074	0,059	-0,054
-585,109	-200,000	-0,064	-0,221
-584,094	-55,734	-0,022	0,007
-583,079	-60,953	0,090	0,027
-582,065	-8,504	-0,061	-0,029
-581,050	57,635	0,190	0,133
-580,036	-123,939	-0,102	-0,011
-579,021	800,000	-0,030	0,092
-578,006	-39,243	0,101	-0,038
-576,992	337,289	-0,092	0,130
-575,977	-200,000	0,003	0,132
-574,963	-200,000	0,067	0,240
-573,948	-200,000	0,003	0,058
-572,934	77,463	0,113	-0,086
-571,919	-101,774	-0,085	-0,015
-570,904	-200,000	-0,003	-0,177
-569,890	800,000	0,019	0,056
-568,875	-17,489	-0,181	-0,082
-567,861	45,619	0,055	-0,036
-566,846	316,309	0,099	-0,135
-565,831	94,324	0,025	0,021
-564,817	-200,000	0,034	-0,118
-563,802	30,760	-0,046	0,028
-562,788	-20,211	-0,054	-0,024
-561,773	570,399	0,075	0,132
-560,758	118,217	0,024	0,021
-559,744	43,095	0,043	-0,028
-558,729	-154,544	0,057	0,003
-557,715	800,000	0,048	0,138
-556,700	800,000	-0,032	0,072
-555,685	-25,175	-0,092	-0,039
-554,671	-200,000	0,010	0,042
-553,656	-91,975	0,017	0,004
-552,642	-40,730	0,140	-0,052
-551,627	90,064	-0,090	0,072
-550,612	-66,299	-0,039	-0,011
-549,598	-33,070	-0,077	-0,030
-548,583	-200,000	0,042	-0,138
-547,569	-200,000	0,010	-0,118
-546,554	3,135	-0,011	0,006
-545,539	67,308	0,045	0,033
-544,525	301,570	-0,054	0,072
-543,510	-155,463	-0,129	0,006
-542,496	17,094	-0,113	-0,064
-541,481	344,186	-0,051	0,072
-540,466	-137,998	0,114	-0,009
-539,452	-200,000	0,016	-0,141
-538,437	83,986	-0,089	0,070
-537,423	-200,000	0,091	0,000
-536,408	-146,646	0,048	-0,003
-535,393	-20,528	-0,079	-0,035
-534,379	444,210	0,022	-0,035
-533,364	-107,392	0,108	-0,017
-532,350	35,370	-0,080	0,050
-531,335	33,045	-0,058	0,036
-530,321	-69,579	-0,021	-0,006
-529,306	-200,000	-0,014	-0,086
-528,291	-21,717	0,149	-0,065
-527,277	-6,261	0,018	0,009
-526,262	26,414	-0,049	0,029
-525,248	-28,970	0,158	0,065
-524,233	-192,450	-0,186	-0,001
-523,218	800,000	-0,027	-0,063
-522,204	800,000	-0,039	0,116
-521,189	-200,000	0,008	-0,158
-520,175	469,599	0,064	-0,104
-519,160	-92,566	-0,072	-0,014
-518,145	800,000	-0,023	-0,056
-517,131	-200,000	-0,030	0,105
-516,116	-149,536	0,038	0,002
-515,102	-144,925	-0,091	0,006
-514,087	-86,973	-0,092	-0,020
-513,072	150,852	-0,055	0,054
-512,058	87,902	0,035	0,028
-511,043	476,291	-0,011	0,018
-510,029	524,287	0,033	0,056
-509,014	800,000	-0,042	0,098
-507,999	80,098	-0,061	-0,047
-506,985	246,728	0,031	0,038
-505,970	-113,098	-0,104	-0,015
-504,956	145,155	-0,016	-0,015
-503,941	800,000	0,036	-0,104
-502,926	800,000	0,003	0,008
-501,912	-67,686	0,063	-0,018
-500,897	575,261	0,024	0,042
-499,883	43,073	-0,145	-0,095
-498,868	-200,000	-0,002	-0,050
-497,853	-200,000	-0,057	-0,217
-496,839	800,000	0,062	-0,167
-495,824	-200,000	0,044	0,145
-494,810	4,108	-0,043	-0,023
-493,795	-85,155	0,101	-0,022
-492,781	83,203	0,046	-0,036
-491,766	66,234	0,044	-0,032
-490,751	62,823	-0,096	-0,069
-489,737	-200,000	0,005	-0,031
-488,722	-200,000	0,019	0,092
-487,708	343,041	-0,038	0,054
-486,693	800,000	-0,019	-0,041
-485,678	242,005	-0,076	-0,091
-484,664	66,501	-0,012	-0,009
-483,649	-65,057	0,031	0,009
-482,635	-200,000	0,000	-0,027
-481,620	-200,000	0,006	-0,102
-480,605	183,800	0,024	0,026
-479,591	800,000	0,061	0,185
-478,576	-150,750	-0,057	0,003
-477,562	453,693	0,058	0,093
-476,547	285,222	-0,076	-0,098
-475,532	-146,056	-0,069	0,004
-474,518	365,326	-0,064	0,093
-473,503	-88,520	0,110	0,023
-472,489	166,258	-0,048	-0,048
-471,474	61,713	-0,045	-0,032
-470,459	-42,323	-0,159	-0,058
-469,445	-5,090	0,085	0,042
-468,430	-16,886	0,036	0,016
-467,416	180,719	0,014	0,015
-466,401	-98,092	0,051	-0,009
-465,386	-200,000	-0,014	-0,128
-464,372	-115,651	0,096	0,013
-463,357	-44,835	-0,175	-0,062
-462,343	800,000	0,088	-0,197
-461,328	800,000	0,067	-0,137
-460,313	-58,627	-0,140	-0,043
-459,299	256,968	0,133	0,164
-458,284	183,201	0,081	0,086
-457,270	-200,000	-0,027	0,087
-456,255	50,897	-0,087	-0,059
-455,241	-89,669	-0,102	0,021
-454,226	-111,130	-0,082	-0,012
-453,211	-86,384	0,078	-0,017
-452,197	800,000	0,026	0,056
-451,182	537,991	0,055	0,094
-450,168	-200,000	0,004	-0,034
-449,153	-42,940	-0,105	-0,038
-448,138	155,654	0,078	0,077
-447,124	94,791	-0,051	-0,041
-446,109	-51,358	-0,081	-0,027
-445,095	-36,356	0,105	0,040
-444,080	69,084	0,145	0,107
-443,065	-200,000	0,000	-0,075
-442,051	-32,986	0,056	-0,022
-441,036	-126,679	-0,062	0,006
-440,022	232,405	-0,043	0,050
-439,007	-77,934	-0,110	0,027
-437,992	205,172	0,100	-0,111
-436,978	377,182	-0,085	0,125
-435,963	269,084	0,029	0,037
-434,949	179,790	-0,051	0,054
-433,934	-200,000	0,004	-0,064
-432,919	800,000	-0,027	0,078
-431,905	89,475	-0,060	0,048
-430,890	-200,000	0,011	0,086
-429,876	800,000	0,036	0,100
-428,861	142,747	0,171	0,163
-427,846	127,344	0,004	-0,003
-426,832	-200,000	-0,030	0,165
-425,817	463,094	0,049	-0,079
-424,803	-142,752	0,002	-0,000
-423,788	-79,473	0,151	0,036
-422,773	80,620	-0,069	0,053
-421,759	800,000	-0,025	0,078
-420,744	-121,491	-0,137	0,016
-419,730	641,575	0,056	-0,103
-418,715	-200,000	0,027	-0,141
-417,701	49,917	-0,111	0,075
-416,686	-200,000	0,039	0,164
-415,671	271,213	0,045	0,057
-414,657	34,638	0,114	0,071
-413,642	101,437	0,033	0,028
-412,628	-200,000	0,011	-0,135
-411,613	358,926	-0,064	-0,092
-410,598	115,730	0,127	0,111
-409,584	800,000	-0,030	0,073
-408,569	346,325	-0,012	-0,017
-407,555	-4,390	-0,032	-0,016
-406,540	-200,000	0,011	0,107
-405,525	466,870	0,037	0,060
-404,511	22,715	-0,096	-0,056
-403,496	456,378	0,023	0,036
-402,482	347,967	-0,027	0,039
-401,467	-200,000	0,033	0,208
-400,452	-200,000	-0,001	-0,008
-399,438	42,366	0,032	0,021
-398,423	-71,543	-0,148	0,039
-397,409	-167,472	0,036	0,001
-396,394	575,223	0,052	-0,090
-395,379	293,254	-0,013	-0,018
-394,365	-87,724	0,033	-0,007
-393,350	-121,737	-0,037	0,004
-392,336	-82,921	-0,122	0,028
-391,321	343,500	-0,033	0,047
-390,306	331,242	-0,006	-0,008
-389,292	800,000	-0,022	-0,058
-388,277	-200,000	-0,003	0,182
-387,263	-37,580	0,146	0,055
-386,248	800,000	0,024	-0,056
-385,233	800,000	0,035	0,084
-384,219	-200,000	-0,011	0,156
-383,204	-200,000	0,001	-0,117
-382,190	115,909	-0,101	-0,089
-381,175	773,564	0,046	0,089
-380,160	205,572	-0,068	-0,075
-379,146	-200,000	0,020	0,063
-378,131	25,099	0,077	0,046
-377,117	46,316	-0,145	-0,096
-376,102	479,328	0,047	0,077
-375,088	-200,000	-0,037	-0,145
-374,073	242,009	0,049	0,059
-373,058	85,304	0,073	-0,057
-372,044	770,464	0,034	-0,066
-371,029	83,568	0,118	0,092
-370,015	800,000	0,017	0,044
-369,000	684,655	0,041	-0,077
-367,985	-53,285	-0,059	0,019
-366,971	71,541	0,018	0,013
-365,956	222,376	0,034	-0,039
-364,942	-200,000	0,001	0,018
-363,927	-25,075	0,021	0,009
-362,912	-65,400	-0,096	-0,027
-361,898	-72,687	0,077	-0,020
-360,883	21,194	-0,092	-0,053
-359,869	800,000	0,039	-0,102
-358,854	-200,000	0,008	-0,083
-357,839	150,202	-0,117	0,113
-356,825	112,964	0,110	-0,095
-355,810	800,000	0,049	0,151
-354,796	800,000	0,050	-0,102
-353,781	447,560	-0,028	-0,045
-352,766	800,000	-0,037	-0,080
-351,752	189,174	0,032	0,035
-350,737	-55,585	0,133	0,042
-349,723	112,512	0,026	0,023
-348,708	-66,545	-0,108	0,030
-347,693	-87,138	0,073	0,016
-346,679	675,021	0,076	-0,142
-345,664	15,619	-0,058	-0,032
-344,650	800,000	-0,061	-0,169
-343,635	800,000	-0,025	-0,054
-342,620	800,000	-0,020	0,061
-341,606	-200,000	-0,009	-0,030
-340,591	-158,845	-0,039	0,002
-339,577	800,000	0,050	-0,152
-338,562	274,192	0,011	-0,014
-337,548	-66,393	0,049	0,014
-336,533	-2,000	-0,055	0,028
-335,518	155,225	0,042	0,041
-334,504	-161,150	0,132	-0,005
-333,489	-75,736	-0,139	-0,035
-332,475	-200,000	0,017	-0,085
-331,460	-20,046	0,053	-0,023
-330,445	284,335	-0,033	0,043
-329,431	-200,000	0,015	0,148
-328,416	-137,458	-0,055	-0,004
-327,402	-58,549	-0,201	-0,062
-326,387	15,278	0,143	0,080
-325,372	-78,350	0,028	0,007
-324,358	-200,000	-0,022	-0,138
-323,343	85,788	-0,099	-0,077
-322,329	108,334	0,092	0,078
-321,314	-200,000	-0,055	0,181
-320,299	-200,000	-0,004	0,147
-319,285	-150,123	-0,058	-0,003
-318,270	35,660	-0,023	0,014
-317,256	800,000	-0,038	0,112
-316,241	462,412	-0,006	-0,009
-315,226	-87,905	0,045	-0,010
-314,212	-148,439	0,172	-0,010
-313,197	44,941	0,086	0,057
-312,183	343,646	0,030	-0,042
-311,168	800,000	0,060	-0,119
-310,153	265,104	-0,058	-0,072
-309,139	-200,000	-0,023	0,073
-308,124	280,513	-0,073	0,093
-307,110	-24,282	0,091	0,038
-306,095	345,945	-0,103	0,145
-305,080	-180,171	0,046	-0,001
-304,066	800,000	0,040	-0,100
-303,051	136,351	-0,093	-0,086
-302,037	-200,000	-0,011	-0,105
-301,022	-125,346	-0,045	0,005
-300,008	80,072	0,100	0,076
-298,993	12,160	0,052	0,028
-297,978	-96,146	-0,091	0,017
-296,964	593,844	-0,041	-0,072
-295,949	132,399	-0,063	0,058
-294,935	-200,000	0,002	-0,120
-293,920	135,725	0,062	-0,058
-292,905	-200,000	0,029	-0,106
-291,891	27,837	0,059	-0,035
-290,876	36,046	-0,029	-0,018
-289,862	-170,727	-0,196	-0,005
-288,847	-151,022	-0,081	0,004
-287,832	-72,727	0,176	-0,046
-286,818	-200,000	-0,003	0,168
-285,803	-200,000	-0,019	0,107
-284,789	-200,000	-0,024	0,092
-283,774	330,862	0,102	0,140
-282,759	237,277	0,042	0,050
-281,745	800,000	0,004	-0,011
-280,730	-48,556	0,034	0,011
-279,716	-103,146	-0,019	-0,003
-278,701	-200,000	-0,005	0,065
-277,686	268,847	0,026	0,032
-276,672	-67,556	-0,101	-0,028
-275,657	800,000	-0,041	-0,115
-274,643	588,851	0,070	0,124
-273,628	-200,000	-0,012	-0,038
-272,613	-62,958	-0,039	-0,011
-271,599	-16,194	0,065	0,029
-270,584	-102,660	0,166	-0,028
-269,570	-200,000	0,002	0,072
-268,555	295,597	-0,045	-0,059
-267,540	-200,000	-0,017	0,067
-266,526	-200,000	-0,020	-0,209
-265,511	-200,000	-0,001	0,056
-264,497	-142,066	-0,198	0,014
-263,482	-41,601	0,173	-0,063
-262,467	-200,000	0,033	0,000
-261,453	113,818	-0,017	0,015
-260,438	-200,000	0,030	-0,102
-259,424	-72,921	0,197	0,051
-258,409	32,471	-0,069	-0,043
-257,395	59,088	0,078	0,054
-256,380	-200,000	0,007	0,036
-255,365	-62,873	0,120	0,035
-254,351	-200,000	-0,014	0,084
-253,336	32,622	-0,066	-0,041
-252,322	-200,000	0,054	-0,210
-251,307	47,194	-0,135	-0,089
-250,292	168,215	0,068	0,069
-249,278	-122,021	-0,168	-0,019
-248,263	-187,991	0,046	0,000
-247,249	140,418	-0,066	0,062
-246,234	-96,364	-0,114	-0,021
-245,219	800,000	-0,036	-0,095
-244,205	800,000	0,029	0,077
-243,190	372,986	-0,026	-0,038
-242,176	-200,000	0,024	-0,101
-241,161	173,201	0,072	0,074
-240,146	-51,430	0,140	0,046
-239,132	171,100	0,098	0,100
-238,117	-200,000	-0,015	-0,099
-237,103	45,986	-0,049	-0,032
-236,088	138,454	-0,161	0,150
-235,073	-200,000	0,031	0,113
-234,059	800,000	-0,020	-0,049
-233,044	179,833	-0,052	0,054
-232,030	-27,023	-0,020	-0,008
-231,015	12,371	-0,063	-0,035
-230,000	800,000	0,033	-0,089
-228,986	132,177	0,057	0,053
-227,971	-77,860	0,052	-0,013
-226,957	-74,849	0,029	0,007
-225,942	800,000	0,069	0,160
-224,927	67,937	0,085	-0,062
-223,913	308,057	-0,054	-0,071
-222,898	88,459	-0,133	-0,105
-221,884	270,345	-0,053	-0,067
-220,869	-200,000	0,009	0,080
-219,855	372,572	0,087	-0,126
-218,840	-200,000	0,000	-0,103
-217,825	-200,000	-0,001	0,038
-216,811	-114,744	0,029	-0,004
-215,796	-200,000	-0,023	-0,116
-214,782	616,148	-0,052	0,093
-213,767	800,000	-0,056	0,147
-212,752	-26,045	0,053	-0,022
-211,738	-141,468	0,088	0,006
-210,723	77,496	-0,043	-0,032
-209,709	183,707	-0,068	-0,072
-208,694	214,893	-0,049	-0,055
-207,679	108,550	-0,027	0,023
-206,665	-27,138	0,107	-0,044
-205,650	-88,685	0,190	0,040
-204,636	800,000	0,031	-0,066
-203,621	234,544	-0,051	0,060
-202,606	271,590	0,041	-0,051
-201,592	542,297	-0,002	0,003
-200,577	800,000	-0,065	-0,127
-199,563	261,777	0,137	-0,169
-198,548	732,363	0,027	-0,052
-197,533	54,270	0,067	-0,046
-196,519	344,131	-0,072	0,100
-195,504	800,000	0,028	0,065
-194,490	55,676	-0,086	0,059
-193,475	-200,000	0,003	-0,047
-192,460	-200,000	0,001	0,057
-191,446	-200,000	-0,006	-0,068
-190,431	-107,874	0,123	0,019
-189,417	800,000	0,040	0,080
-188,402	-200,000	-0,008	0,036
-187,387	-200,000	0,003	0,108
-186,373	-138,630	-0,111	-0,008
-185,358	-200,000	0,004	0,172
-184,344	-106,879	0,087	-0,014
-183,329	129,328	0,188	0,171
-182,315	-0,834	0,028	0,014
-181,300	-200,000	0,000	-0,041
-180,285	-186,316	-0,026	0,000
-179,271	-144,682	-0,136	0,009
-178,256	26,415	0,039	-0,023
-177,242	-166,737	0,087	-0,003
-176,227	800,000	0,058	0,144
-175,212	110,638	0,038	0,032
-174,198	721,817	0,018	-0,034
-173,183	-26,471	-0,094	-0,039
-172,169	601,486	-0,062	0,110
-171,154	375,940	-0,015	-0,022
-170,139	-121,772	-0,073	-0,008
-169,125	12,569	0,041	-0,023
-168,110	-200,000	-0,001	0,014
-167,096	14,710	-0,060	0,033
-166,081	54,566	-0,021	-0,015
-165,066	-88,268	-0,159	0,033
-164,052	-194,697	-0,051	-0,000
-163,037	-157,767	-0,050	-0,002
-162,023	-200,000	0,006	0,063
-161,008	380,861	0,030	0,044
-159,993	-200,000	0,002	-0,070
-158,979	119,725	-0,101	0,089
-157,964	800,000	-0,024	-0,050
-156,950	-77,226	0,024	0,006
-155,935	-200,000	0,013	0,124
-154,920	-18,770	0,152	0,067
-153,906	194,135	-0,039	0,042
-152,891	92,363	0,011	-0,009
-151,877	328,583	-0,029	-0,039
-150,862	-200,000	-0,025	0,114
-149,847	-125,136	0,137	0,015
-148,833	184,446	0,032	0,034
-147,818	-105,288	0,026	0,004
-146,804	-200,000	0,019	0,102
-145,789	-54,903	0,121	-0,039
-144,775	-200,000	-0,030	-0,109
-143,760	276,863	-0,076	-0,096
-142,745	241,096	-0,081	0,096
-141,731	622,201	-0,038	0,068
-140,716	-87,613	0,055	-0,012
-139,702	3,741	0,063	-0,032
-138,687	185,490	-0,064	-0,068
-137,672	-142,995	0,035	-0,002
-136,658	-200,000	-0,036	-0,141
-135,643	58,278	-0,149	0,103
-134,629	736,347	-0,050	0,094
-133,614	13,181	0,241	0,132
-132,599	-173,950	0,142	0,003
-131,585	-127,427	0,088	-0,009
-130,570	153,137	-0,003	-0,003
-129,556	291,779	-0,120	-0,154
-128,541	-200,000	-0,004	0,032
-127,526	800,000	0,023	0,055
-126,512	-10,135	-0,082	0,038
-125,497	325,617	-0,037	0,050
-124,483	91,019	-0,105	0,083
-123,468	234,935	-0,015	-0,017
-122,453	8,779	-0,069	0,037
-121,439	-200,000	0,046	0,145
-120,424	-37,514	-0,101	-0,038
-119,410	800,000	0,074	0,151
-118,395	-200,000	-0,019	0,091
-117,380	101,058	0,179	0,147
-116,366	-200,000	-0,002	0,051
-115,351	-200,000	-0,013	-0,064
-114,337	-200,000	0,014	0,062
-113,322	-96,249	0,044	0,008
-112,307	677,360	0,025	-0,046
-111,293	-93,257	0,095	-0,019
-110,278	-200,000	0,047	0,192
-109,264	128,732	-0,087	0,079
-108,249	800,000	0,011	0,024
-107,234	-200,000	0,003	-0,062
-106,220	314,523	0,048	-0,064
-105,205	-41,534	0,049	-0,018
-104,191	74,060	0,017	-0,012
-103,176	-98,202	0,138	0,025
-102,162	360,825	-0,018	-0,025
-101,147	124,472	-0,051	-0,046
-100,132	-200,000	-0,001	-0,074
-99,118	-44,111	-0,031	0,011
-98,103	-20,552	0,120	0,052
-97,089	-58,377	0,191	0,058
-96,074	-1,058	0,092	-0,046
-95,059	133,419	-0,029	0,026
-94,045	161,015	-0,056	0,056
-93,030	106,617	-0,105	-0,088
-92,016	-200,000	-0,015	-0,162
-91,001	-5,956	0,063	0,030
-89,986	-2,079	-0,105	-0,052
-88,972	-200,000	0,012	-0,075
-87,957	158,073	0,064	0,063
-86,943	-137,833	-0,060	0,005
-85,928	-120,870	-0,089	-0,010
-84,913	348,725	0,129	-0,180
-83,899	-4,758	0,134	-0,065
-82,884	-200,000	-0,001	0,022
-81,870	216,957	-0,068	0,076
-80,855	-164,225	0,083	-0,003
-79,840	439,004	-0,015	-0,023
-78,826	-131,046	0,081	-0,008
-77,811	-99,337	-0,021	0,004
-76,797	800,000	0,044	-0,088
-75,782	-107,943	-0,126	0,019
-74,767	-90,119	0,060	0,012
-73,753	605,643	0,062	0,110
-72,738	800,000	0,031	0,076
-71,724	609,969	-0,055	-0,097
-70,709	-16,258	-0,074	-0,033
-69,694	157,440	0,115	0,112
-68,680	198,343	-0,012	0,013
-67,665	-110,307	0,037	-0,005
-66,651	-121,913	0,098	-0,011
-65,636	-200,000	0,008	0,056
-64,622	-120,561	-0,253	-0,030
-63,607	-200,000	-0,047	-0,146
-62,592	-200,000	0,002	-0,134
-61,578	-200,000	0,023	0,082
-60,563	800,000	-0,035	-0,094
-59,549	-147,136	-0,050	-0,003
-58,534	53,875	-2,069	-1,400
-57,519	407,936	-1,204	-1,802
-56,505	-200,000	-0,436	-4,614
-55,490	654,660	0,903	1,642
-54,476	800,000	5,226	11,281
-53,461	-200,000	21,852	339,496
-52,446	800,000	761,338	2296,728
-51,432	530,998	1656,856	2772,960
-50,417	69,199	1654,479	1198,504
-49,403	16,616	1528,888	850,003
-48,388	10,752	1453,496	779,811
-47,373	19,094	1445,720	815,530
-46,359	14,124	1434,305	785,497
-45,344	9,053	1430,281	759,184
-44,330	9,034	1428,485	758,110
-43,315	8,993	1426,624	756,896
-42,300	8,981	1424,820	755,853
-41,286	9,050	1423,524	755,461
-40,271	9,003	1422,148	754,478
-39,257	9,006	1421,005	753,857
-38,242	9,012	1420,007	753,325
-37,227	9,030	1418,939	752,817
-36,213	9,063	1417,329	752,085
-35,198	9,049	1416,299	751,445
-34,184	9,101	1415,303	751,129
-33,169	8,978	1413,868	749,760
-32,154	9,071	1412,974	749,696
-31,140	9,039	1411,775	748,879
-30,125	9,031	1410,623	748,202
-29,111	9,021	1409,545	747,554
-28,096	9,028	1408,242	746,863
-27,082	8,979	1407,010	745,950
-26,067	8,984	1405,949	745,380
-25,052	8,963	1405,117	744,814
-24,038	9,004	1403,905	744,335
-23,023	8,999	1402,970	743,785
-22,009	9,011	1401,892	743,239
-20,994	9,002	1400,803	742,589
-19,979	8,968	1400,063	742,011
-18,965	8,968	1398,987	741,409
-17,950	8,950	1398,036	740,796
-16,936	8,884	1397,460	740,155
-15,921	8,824	1396,531	739,354
-14,906	8,891	1395,421	739,045
-13,892	8,934	1394,257	738,600
-12,877	8,875	1393,711	738,008
-11,863	8,908	1392,782	737,642
-10,848	8,891	1391,920	737,076
-9,833	8,849	1391,086	736,410
-8,819	8,805	1390,220	735,720
-7,804	8,805	1389,221	735,160
-6,790	8,805	1388,144	734,564
-5,775	8,812	1386,984	733,953
-4,760	8,785	1386,295	733,434
-3,746	8,818	1385,381	733,071
-2,731	8,847	1384,372	732,643
-1,717	8,830	1383,419	732,030
-0,702	8,829	1381,781	731,132
0,313	12,804	1292,971	702,245
1,327	28,757	683,843	407,266
2,342	44,719	117,944	76,316
3,356	0,498	16,543	8,304
4,371	7,790	3,797	1,998
5,386	-23,056	1,229	0,519
6,400	-200,000	0,162	0,545
7,415	21,473	-0,156	-0,089
8,429	141,013	-0,253	-0,235
9,444	129,610	-0,254	-0,228
10,459	-46,841	-0,351	-0,120
11,473	47,650	-0,185	-0,122
12,488	45,166	-0,306	-0,198
13,502	-91,256	-0,308	0,062
14,517	-147,194	-0,357	0,021
15,531	88,234	-0,290	-0,226
16,546	-47,003	-0,408	-0,139
17,561	126,819	-0,418	-0,373
18,575	21,573	-0,135	-0,077
19,590	-59,820	-0,382	-0,114
20,604	-17,806	-0,287	-0,126
21,619	33,302	-0,341	-0,208
22,634	57,455	-0,467	-0,321
23,648	-9,954	-0,316	-0,147
24,663	-31,411	-0,645	-0,254
25,677	-54,748	-0,364	-0,115
26,692	80,144	-0,235	-0,178
27,707	28,977	-0,270	-0,160
28,721	25,238	-0,337	-0,197
29,736	3,252	-0,273	-0,139
30,750	39,247	-0,425	-0,267
31,765	-39,234	-0,408	-0,150
32,780	-24,968	-0,316	-0,131
33,794	158,960	-0,412	-0,403
34,809	92,109	-0,366	-0,289
35,823	200,301	-0,285	-0,308
36,838	-15,267	-0,383	-0,172
37,853	113,607	-0,311	-0,266
38,867	120,097	-0,304	-0,265
39,882	69,188	-0,353	-0,255
40,896	108,818	-0,285	-0,239
41,911	124,067	-0,211	-0,187
42,926	97,610	-0,412	-0,332
43,940	67,137	-0,266	-0,190
44,955	74,309	-0,344	-0,254
45,969	182,604	-0,307	-0,319
46,984	86,686	-0,463	-0,358
47,999	105,007	-0,273	-0,226
49,013	101,323	-0,187	-0,153
50,028	-40,768	-0,393	-0,142
51,042	-41,970	-0,533	-0,191
52,057	82,401	-0,153	-0,117
53,071	70,202	-0,253	-0,183
54,086	-12,588	-0,347	-0,158
55,101	67,879	-0,350	-0,251
56,115	37,292	-0,298	-0,185
57,130	-42,895	-0,346	-0,123
58,144	53,473	-0,409	-0,274
59,159	13,114	-0,436	-0,236
60,174	-51,553	-0,392	-0,128
61,188	155,402	-0,397	-0,383
62,203	-29,311	-0,345	-0,138
63,217	32,933	-0,406	-0,246
64,232	-30,915	-0,324	-0,128
65,247	-46,007	-0,385	-0,132
66,261	-41,185	-0,488	-0,175
67,276	75,045	-0,416	-0,307
68,290	-65,886	-0,294	-0,082
69,305	-85,646	-0,333	-0,072
70,320	-34,025	-0,339	-0,130
71,334	23,147	-0,325	-0,186
72,349	-19,242	-0,330	-0,143
73,363	61,496	-0,434	-0,302
74,378	178,461	-0,276	-0,282
75,393	108,369	-0,323	-0,270
76,407	47,211	-0,351	-0,228
77,422	74,767	-0,279	-0,205
78,436	43,181	-0,306	-0,195
79,451	77,755	-0,213	-0,159
80,466	11,219	-0,323	-0,172
81,480	-23,947	-0,359	-0,150
82,495	383,242	-0,181	-0,261
83,509	39,325	-0,241	-0,150
84,524	-11,866	-0,307	-0,140
85,539	-31,669	-0,257	-0,100
86,553	-36,625	-0,302	-0,113
87,568	0,715	-0,199	-0,100
88,582	1,839	-0,328	-0,165
89,597	429,298	-0,100	-0,151
90,611	133,853	-0,251	-0,227
91,626	16,356	-0,196	-0,108
92,641	-29,177	-0,144	-0,058
93,655	1,665	-0,304	-0,153
94,670	249,101	-0,267	-0,317
95,684	145,724	-0,251	-0,235
96,699	71,924	-0,208	-0,151
97,714	210,787	-0,190	-0,209
98,728	34,051	-0,214	-0,130
99,743	60,352	-0,268	-0,185
100,757	-67,172	-0,221	-0,060
101,772	118,289	-0,242	-0,208
102,787	145,566	-0,305	-0,285
103,801	69,186	-0,279	-0,200
104,816	135,347	-0,108	-0,098
105,830	800,000	-0,075	-0,167
106,845	27,860	-0,228	-0,134
107,860	318,541	-0,160	-0,212
108,874	49,424	-0,284	-0,186
109,889	130,739	-0,261	-0,233
110,903	71,960	-0,246	-0,179
111,918	62,283	-0,332	-0,231
112,933	288,345	-0,155	-0,197
113,947	31,031	-0,220	-0,131
114,962	23,981	-0,264	-0,152
115,976	-42,197	-0,284	-0,101
116,991	22,587	-0,266	-0,152
118,006	86,174	-0,338	-0,259
119,020	72,418	-0,163	-0,118
120,035	-144,944	-0,328	-0,021
121,049	102,794	-0,220	-0,180
122,064	-25,124	-0,273	-0,112
123,079	-30,006	-0,274	-0,108
124,093	-124,269	-0,338	-0,036
125,108	-68,398	-0,295	-0,079
126,122	489,741	-0,148	-0,236
127,137	102,834	-0,131	-0,107
128,151	-103,690	-0,170	-0,027
129,166	84,714	-0,187	-0,143
130,181	58,057	-0,234	-0,160
131,195	-8,121	-0,348	-0,163
132,210	70,186	-0,254	-0,182
133,224	51,649	-0,189	-0,125
134,239	245,793	-0,149	-0,175
135,254	-32,061	-0,297	-0,115
136,268	12,063	-0,195	-0,104
137,283	48,687	-0,171	-0,111
138,297	80,537	-0,359	-0,269
139,312	-19,504	-0,190	-0,082
140,327	31,016	-0,334	-0,199
141,341	70,571	-0,261	-0,187
142,356	-86,729	-0,132	-0,028
143,370	-43,430	-0,221	0,077
144,385	-149,883	-0,233	-0,012
145,400	233,984	-0,252	-0,289
146,414	-5,040	-0,348	-0,166
147,429	175,139	-0,244	-0,246
148,443	186,216	-0,272	-0,282
149,458	-53,550	-0,120	0,038
150,473	68,536	-0,231	-0,164
151,487	231,274	-0,235	-0,268
152,502	140,848	-0,250	-0,230
153,516	-57,985	-0,314	-0,095
154,531	104,580	-0,230	-0,188
155,546	126,507	-0,130	-0,114
156,560	148,388	-0,170	-0,160
157,575	44,504	-0,256	-0,163
158,589	29,596	-0,216	-0,127
159,604	213,597	-0,160	-0,176
160,619	12,720	-0,363	-0,194
161,633	2,032	-0,240	-0,120
162,648	-40,004	-0,267	-0,096
163,662	325,111	-0,058	-0,078
164,677	-88,317	-0,269	-0,055
165,692	-28,233	-0,203	-0,081
166,706	20,915	-0,201	-0,113
167,721	-23,789	-0,256	-0,106
168,735	-121,076	-0,404	-0,046
169,750	671,879	-0,055	-0,100
170,764	-67,022	-0,196	-0,053
171,779	-19,357	-0,201	-0,086
172,794	-26,430	-0,409	-0,166
173,808	335,518	-0,153	-0,207
174,823	800,000	-0,054	-0,137
175,837	90,627	-0,257	-0,200
176,852	37,262	-0,167	-0,102
177,867	-5,060	-0,185	-0,088
178,881	-121,625	-0,236	0,027
179,896	89,826	-0,218	-0,169
180,910	800,000	-0,099	-0,226
181,925	83,989	-0,177	-0,134
182,940	117,674	-0,229	-0,196
183,954	425,319	-0,159	-0,238
184,969	-52,624	-0,246	-0,078
185,983	102,792	-0,206	-0,167
186,998	-4,443	-0,210	-0,100
188,013	100,427	-0,199	-0,160
189,027	665,625	-0,123	-0,222
190,042	199,378	-0,229	-0,244
191,056	26,617	-0,249	-0,144
192,071	800,000	-0,058	-0,174
193,086	412,334	-0,085	-0,126
194,100	-106,174	-0,169	-0,026
195,115	26,977	-0,304	-0,176
196,129	139,046	-0,150	-0,137
197,144	194,422	-0,222	-0,234
198,159	388,838	-0,153	-0,220
199,173	800,000	-0,072	-0,196
200,188	89,537	-0,107	-0,082
201,202	232,077	-0,139	-0,158
202,217	86,938	-0,200	-0,153
203,232	94,440	-0,222	-0,174
204,246	81,717	-0,131	-0,098
205,261	87,280	-0,215	-0,164
206,275	132,555	-0,202	-0,180
207,290	324,162	-0,132	-0,175
208,304	2,971	-0,180	-0,090
209,319	-79,459	-0,287	-0,067
210,334	103,679	-0,233	-0,189
211,348	33,450	-0,222	-0,133
212,363	42,773	-0,144	-0,091
213,377	-12,883	-0,220	-0,099
214,392	69,781	-0,101	-0,072
215,407	227,035	-0,172	-0,194
216,421	129,941	-0,132	-0,117
217,436	171,421	-0,172	-0,171
218,450	96,525	-0,192	-0,152
219,465	228,578	-0,060	-0,068
220,480	291,347	-0,126	-0,159
221,494	-116,273	-0,197	-0,025
222,509	-30,044	-0,164	-0,064
223,523	-58,883	-0,285	-0,085
224,538	-43,996	-0,224	-0,077
225,553	117,735	-0,270	-0,230
226,567	53,688	-0,140	-0,093
227,582	109,451	-0,118	-0,098
228,596	243,955	-0,124	-0,144
229,611	335,232	-0,219	-0,294
230,626	800,000	-0,081	-0,156
231,640	800,000	-0,083	-0,171
232,655	-104,724	-0,281	-0,044
233,669	-172,721	-0,161	-0,003
234,684	800,000	-0,060	-0,153
235,699	-48,090	-0,200	-0,066
236,713	-200,000	-0,032	-0,168
237,728	-169,970	-0,172	-0,004
238,742	-62,607	-0,086	0,024
239,757	-51,319	-0,188	-0,060
240,772	87,919	-0,104	-0,080
241,786	174,849	-0,202	-0,202
242,801	75,917	-0,123	-0,089
243,815	-35,874	-0,145	-0,054
244,830	-103,659	-0,215	-0,034
245,844	-52,311	-0,241	-0,077
246,859	71,451	-0,119	-0,085
247,874	92,043	-0,390	-0,303
248,888	203,044	-0,137	-0,146
249,903	156,433	-0,130	-0,124
250,917	120,335	-0,152	-0,130
251,932	-95,484	-0,123	-0,023
252,947	150,502	-0,233	-0,218
253,961	800,000	-0,111	-0,233
254,976	800,000	-0,152	-0,304
255,990	94,203	-0,159	-0,124
257,005	-58,844	-0,142	-0,042
258,020	77,457	-0,201	-0,147
259,034	-105,711	-0,204	0,032
260,049	143,385	-0,213	-0,196
261,063	-64,671	-0,213	-0,059
262,078	-32,148	-0,211	-0,081
263,093	184,647	-0,140	-0,143
264,107	-30,169	-0,175	-0,068
265,122	800,000	0,049	-0,129
266,136	230,567	-0,106	-0,120
267,151	97,929	-0,215	-0,170
268,166	800,000	-0,085	-0,169
269,180	531,404	-0,057	-0,092
270,195	-33,857	-0,243	-0,092
271,209	-104,708	-0,145	-0,023
272,224	-181,028	-0,141	-0,002
273,239	99,232	-0,163	-0,130
274,253	-94,147	-0,143	-0,027
275,268	-116,473	-0,211	-0,026
276,282	188,843	-0,128	-0,132
277,297	734,776	-0,088	-0,163
278,312	-74,570	-0,058	-0,014
279,326	108,082	-0,123	-0,101
280,341	41,511	-0,118	-0,074
281,355	-96,686	-0,134	0,024
282,370	160,937	-0,178	-0,171
283,384	6,975	-0,157	-0,080
284,399	269,204	-0,114	-0,138
285,414	405,693	-0,076	-0,111
286,428	800,000	-0,065	-0,148
287,443	800,000	-0,079	-0,150
288,457	171,607	-0,089	-0,087
289,472	-18,900	-0,129	-0,055
290,487	-7,050	-0,269	-0,125
291,501	87,528	-0,169	-0,128
292,516	127,269	-0,208	-0,181
293,530	-14,573	-0,131	0,058
294,545	343,329	-0,071	-0,096
295,560	800,000	-0,089	-0,176
296,574	112,845	-0,097	-0,081
297,589	-132,918	-0,142	-0,012
298,603	130,752	-0,199	-0,175
299,618	232,731	-0,106	-0,120
300,633	-73,697	-0,206	-0,051
301,647	559,353	-0,100	-0,166
302,662	-83,743	-0,105	0,023
303,676	7,554	-0,104	0,053
304,691	100,763	-0,185	-0,148
305,706	633,059	-0,195	-0,340
306,720	125,050	-0,081	-0,070
307,735	800,000	-0,023	-0,046
308,749	-80,297	-0,256	-0,058
309,764	-150,772	-0,187	0,010
310,779	-151,417	-0,051	-0,003
311,793	303,655	-0,139	-0,177
312,808	443,812	-0,110	-0,166
313,822	244,085	-0,180	-0,208
314,837	-198,407	-0,154	0,001
315,852	-80,366	-0,139	-0,032
316,866	732,664	0,019	-0,035
317,881	-77,047	-0,078	-0,019
318,895	57,074	-0,201	-0,134
319,910	-56,480	-0,213	-0,064
320,925	8,349	-0,212	-0,109
321,939	-153,366	-0,247	-0,012
322,954	267,337	-0,076	-0,092
323,968	800,000	-0,066	-0,189
324,983	-128,621	-0,149	-0,014
325,997	-146,460	-0,167	0,010
327,012	326,231	-0,169	-0,222
328,027	151,106	-0,235	-0,219
329,041	43,321	-0,222	-0,138
330,056	334,528	-0,068	-0,090
331,070	-66,912	-0,166	-0,045
332,085	108,038	-0,084	-0,069
333,100	-200,000	-0,023	-0,096
334,114	236,202	-0,134	-0,153
335,129	800,000	-0,073	-0,188
336,143	210,561	-0,130	-0,140
337,158	-200,000	0,029	-0,158
338,173	154,148	-0,046	-0,044
339,187	800,000	-0,057	-0,128
340,202	62,922	-0,205	-0,140
341,216	188,735	-0,118	-0,121
342,231	551,856	-0,131	-0,216
343,246	800,000	-0,068	-0,145
344,260	52,207	-0,071	-0,046
345,275	453,567	-0,075	-0,114
346,289	-87,184	-0,166	0,034
347,304	106,285	-0,192	-0,156
348,319	-59,224	-0,079	-0,023
349,333	800,000	-0,036	-0,093
350,348	22,206	-0,073	-0,041
351,362	383,090	-0,123	-0,174
352,377	-69,400	-0,113	0,029
353,392	651,121	-0,065	-0,114
354,406	213,944	-0,117	-0,127
355,421	207,235	1312,030	1400,012
356,435	159,411	1472,380	1400,472
