DTS Sentinel unit serial number:	SN410029Multiplexer serial number:	ORYXHardware model number:	OX2-SRSoftware version number:	ORYX F/W v4,00 Oryx Data Collector v3.7.2.0data status	okinstallation	B3 Nyhavnadifferential loss correction	single-endedforward channel	channel 1reverse channel	N/Adate	2023/12/03time	02:12:30forward acquisition time	300,00reverse acquisition time	0,00gamma	499,1914k internal	0,3201k external	0,3201temperature offset calibration	1,0000default loss term (dB/km)	0,3820temperature slope calibration	1,0000multiplexer offset coefficient	1,0000multiplexer slope coefficient	1,0000fibre end	0,00T internal ref (°C)	13,33T ext. ref 1 (°C)	-1,76T ext. ref 2 (°C)	-1,78length (m)	temperature (°C)	Stokes	anti-Stokes-744,400	3,119	-0,236	-0,124
-743,385	800,000	0,126	0,263
-742,371	-16,339	-0,173	-0,080
-741,356	-200,000	0,064	0,270
-740,342	410,852	-0,149	-0,231
-739,327	-200,000	-0,015	0,264
-738,312	266,207	-0,166	-0,211
-737,298	800,000	-0,079	0,249
-736,283	800,000	-0,118	-0,284
-735,269	-200,000	-0,045	0,415
-734,254	283,769	-0,144	-0,189
-733,239	-33,773	-0,250	0,100
-732,225	620,733	-0,109	-0,200
-731,210	174,369	0,253	0,266
-730,196	95,644	-0,191	-0,158
-729,181	-200,000	0,001	-0,035
-728,167	800,000	-0,028	-0,056
-727,152	550,060	0,062	-0,109
-726,137	19,762	-0,080	-0,047
-725,123	-135,707	-0,084	0,007
-724,108	86,539	-0,079	0,063
-723,094	800,000	-0,052	-0,159
-722,079	170,874	-0,101	-0,105
-721,064	145,384	-0,023	-0,023
-720,050	-16,779	-0,091	0,042
-719,035	632,358	-0,037	0,068
-718,021	129,378	-0,104	-0,097
-717,006	53,991	-0,146	-0,102
-715,991	-200,000	0,011	-0,060
-714,977	33,777	-0,069	-0,043
-713,962	-200,000	-0,001	-0,066
-712,948	198,248	-0,042	0,047
-711,933	48,221	-0,107	0,073
-710,918	-200,000	-0,006	-0,138
-709,904	-87,573	0,064	-0,014
-708,889	524,325	0,021	-0,037
-707,875	115,194	0,076	-0,068
-706,860	340,891	-0,096	-0,137
-705,845	86,277	-0,075	0,060
-704,831	-200,000	0,020	0,067
-703,816	800,000	0,013	0,029
-702,802	-84,029	0,087	-0,020
-701,787	800,000	0,025	-0,066
-700,772	-146,985	-0,012	-0,001
-699,758	800,000	-0,057	-0,137
-698,743	189,831	0,053	0,058
-697,729	41,367	-0,126	0,082
-696,714	632,973	-0,041	-0,076
-695,699	480,355	0,047	-0,077
-694,685	77,073	-0,132	-0,101
-693,670	-97,628	0,170	0,032
-692,656	430,123	0,046	-0,072
-691,641	7,884	-0,098	-0,053
-690,627	800,000	0,051	0,115
-689,612	169,702	0,087	-0,091
-688,597	-76,651	-0,085	-0,021
-687,583	-200,000	0,016	-0,092
-686,568	-200,000	0,023	-0,172
-685,554	800,000	-0,008	0,021
-684,539	800,000	0,040	0,096
-683,524	98,203	0,074	-0,061
-682,510	-200,000	0,003	-0,025
-681,495	800,000	0,040	0,087
-680,481	434,510	-0,048	-0,076
-679,466	-200,000	-0,020	-0,087
-678,451	-200,000	-0,003	-0,179
-677,437	-200,000	-0,012	-0,160
-676,422	-125,448	0,056	0,006
-675,408	-173,022	-0,031	-0,001
-674,393	417,894	0,024	0,038
-673,378	-200,000	0,015	-0,110
-672,364	-47,146	-0,070	-0,024
-671,349	-200,000	0,034	-0,189
-670,335	800,000	0,029	-0,074
-669,320	-200,000	-0,003	-0,043
-668,305	-200,000	0,026	-0,105
-667,291	68,801	-0,069	-0,051
-666,276	236,212	-0,097	-0,117
-665,262	-75,140	-0,189	-0,049
-664,247	-200,000	0,005	0,094
-663,232	-200,000	-0,029	-0,168
-662,218	-42,620	-0,207	-0,076
-661,203	-200,000	0,005	0,085
-660,189	-17,091	0,182	-0,083
-659,174	306,391	-0,080	0,109
-658,159	-200,000	0,001	-0,095
-657,145	-46,907	0,091	0,032
-656,130	430,602	-0,038	-0,060
-655,116	-59,688	-0,114	0,035
-654,101	469,044	0,065	-0,106
-653,086	98,587	-0,092	-0,076
-652,072	46,091	-0,013	-0,009
-651,057	-200,000	0,014	-0,178
-650,043	-200,000	0,039	-0,224
-649,028	-200,000	0,002	0,013
-648,014	-81,578	-0,102	-0,024
-646,999	124,109	-0,026	-0,024
-645,984	800,000	-0,046	0,127
-644,970	800,000	0,032	-0,083
-643,955	800,000	0,022	0,047
-642,941	-3,063	-0,053	-0,027
-641,926	-128,804	-0,063	-0,006
-640,911	344,113	0,080	0,114
-639,897	71,735	-0,066	0,050
-638,882	298,424	0,070	-0,094
-637,868	-68,824	-0,034	0,009
-636,853	91,402	-0,040	0,033
-635,838	520,268	-0,046	-0,078
-634,824	-98,752	0,080	0,015
-633,809	-47,288	0,065	0,023
-632,795	35,908	0,082	-0,052
-631,780	-164,089	-0,149	0,005
-630,765	-200,000	0,004	-0,041
-629,751	303,119	-0,063	-0,085
-628,736	278,179	0,019	-0,025
-627,722	433,777	0,028	-0,044
-626,707	15,499	-0,057	-0,032
-625,692	-36,200	-0,085	0,033
-624,678	25,934	0,037	0,022
-623,663	-80,979	0,063	-0,015
-622,649	-177,912	0,024	0,000
-621,634	800,000	-0,013	-0,031
-620,619	346,992	0,039	0,056
-619,605	-55,659	-0,074	-0,024
-618,590	75,316	0,090	-0,068
-617,576	541,247	-0,030	0,052
-616,561	174,931	-0,098	0,103
-615,546	61,256	-0,059	-0,042
-614,532	54,565	-0,086	-0,060
-613,517	-169,292	0,032	-0,001
-612,503	328,430	0,065	-0,090
-611,488	-200,000	-0,002	0,079
-610,474	-200,000	0,015	-0,072
-609,459	-44,320	-0,050	0,018
-608,444	48,127	-0,096	-0,065
-607,430	724,203	0,063	0,121
-606,415	6,692	0,121	-0,065
-605,401	-200,000	-0,024	-0,103
-604,386	-37,395	0,044	0,017
-603,371	800,000	0,011	-0,022
-602,357	-80,750	-0,076	0,018
-601,342	51,112	-0,099	-0,068
-600,328	48,340	-0,145	0,098
-599,313	-200,000	-0,018	0,153
-598,298	426,832	0,054	0,084
-597,284	151,363	0,044	-0,043
-596,269	68,379	0,086	0,064
-595,255	-38,948	0,098	0,037
-594,240	-130,653	-0,076	0,007
-593,225	-155,019	-0,122	-0,006
-592,211	64,991	-0,097	0,070
-591,196	317,713	-0,018	-0,025
-590,182	-30,639	0,087	0,036
-589,167	-21,484	0,040	-0,018
-588,152	69,575	-0,099	0,074
-587,138	-73,879	0,045	-0,012
-586,123	-49,839	-0,040	-0,014
-585,109	-200,000	-0,003	-0,094
-584,094	52,547	-0,173	-0,119
-583,079	-150,724	-0,033	0,002
-582,065	-5,769	0,111	0,055
-581,050	-69,791	-0,094	0,026
-580,036	-200,000	0,032	-0,114
-579,021	39,600	0,017	0,011
-578,006	280,843	-0,069	0,090
-576,992	-200,000	-0,037	0,137
-575,977	-64,979	0,139	-0,040
-574,963	97,757	-0,029	0,024
-573,948	276,490	-0,120	0,154
-572,934	-200,000	-0,044	-0,192
-571,919	-121,496	-0,119	0,014
-570,904	108,666	0,064	-0,055
-569,890	324,415	0,036	-0,050
-568,875	404,609	-0,038	-0,059
-567,861	163,845	0,064	0,065
-566,846	3,029	0,121	0,063
-565,831	472,703	0,038	-0,062
-564,817	-77,642	-0,100	-0,025
-563,802	-85,593	-0,135	-0,030
-562,788	800,000	-0,008	0,022
-561,773	-200,000	-0,019	-0,068
-560,758	74,704	-0,016	0,012
-559,744	331,701	0,045	-0,063
-558,729	530,581	-0,040	0,069
-557,715	-69,924	-0,186	-0,051
-556,700	-200,000	0,023	0,115
-555,685	-75,035	-0,128	-0,033
-554,671	263,224	0,037	-0,047
-553,656	-39,803	0,104	-0,039
-552,642	-200,000	-0,002	0,051
-551,627	-146,175	-0,123	-0,008
-550,612	262,842	-0,036	-0,045
-549,598	-200,000	-0,008	0,042
-548,583	-18,201	0,071	0,032
-547,569	471,288	0,030	-0,048
-546,554	-200,000	0,013	-0,057
-545,539	-200,000	0,002	-0,060
-544,525	131,926	-0,053	0,050
-543,510	-32,245	-0,087	0,035
-542,496	800,000	-0,025	0,051
-541,481	-133,380	-0,173	-0,015
-540,466	338,239	-0,027	0,038
-539,452	-200,000	-0,017	-0,101
-538,437	-57,198	0,005	0,002
-537,423	-200,000	-0,007	0,144
-536,408	389,842	-0,042	-0,062
-535,393	41,259	-0,004	-0,003
-534,379	-200,000	0,007	0,058
-533,364	67,958	-0,035	0,026
-532,350	-200,000	0,007	-0,041
-531,335	-116,091	-0,100	-0,013
-530,321	-109,560	0,117	-0,018
-529,306	-200,000	0,011	-0,049
-528,291	554,908	-0,040	-0,070
-527,277	-200,000	-0,024	-0,199
-526,262	343,505	0,026	0,036
-525,248	-200,000	-0,008	0,047
-524,233	-200,000	0,016	0,052
-523,218	-200,000	-0,006	0,079
-522,204	173,011	0,030	-0,031
-521,189	341,711	-0,119	-0,168
-520,175	800,000	0,036	-0,112
-519,160	-40,606	-0,038	-0,014
-518,145	147,963	-0,080	0,077
-517,131	195,701	-0,074	0,082
-516,116	800,000	-0,009	-0,024
-515,102	800,000	0,002	0,005
-514,087	-200,000	-0,033	-0,136
-513,072	-200,000	-0,014	-0,130
-512,058	-45,462	-0,107	-0,038
-511,043	800,000	0,028	0,072
-510,029	274,216	0,084	0,107
-509,014	-200,000	0,035	0,115
-507,999	-200,000	-0,003	0,059
-506,985	-200,000	0,015	0,062
-505,970	800,000	0,023	0,072
-504,956	800,000	0,019	-0,043
-503,941	117,181	0,081	0,072
-502,926	-36,116	-0,011	-0,004
-501,912	8,531	0,075	-0,041
-500,897	800,000	-0,006	0,013
-499,883	600,045	-0,013	0,023
-498,868	198,250	-0,038	-0,042
-497,853	36,324	0,025	0,016
-496,839	-138,235	0,054	-0,004
-495,824	130,439	-0,061	-0,057
-494,810	800,000	-0,038	0,077
-493,795	403,095	-0,012	0,019
-492,781	-63,151	-0,172	-0,051
-491,766	144,796	-0,093	-0,089
-490,751	-151,296	0,165	0,009
-489,737	800,000	0,037	-0,100
-488,722	21,756	0,070	-0,041
-487,708	-3,435	0,100	0,050
-486,693	136,574	0,057	0,054
-485,678	-200,000	-0,018	-0,079
-484,664	784,390	0,054	-0,107
-483,649	183,574	-0,081	-0,086
-482,635	360,354	0,036	0,052
-481,620	159,827	-0,070	-0,070
-480,605	150,033	-0,101	-0,099
-479,591	-79,201	-0,020	-0,005
-478,576	497,991	-0,008	0,013
-477,562	113,800	-0,081	-0,071
-476,547	-200,000	0,004	-0,083
-475,532	214,177	-0,116	0,132
-474,518	-200,000	-0,026	-0,092
-473,503	406,593	0,027	-0,041
-472,489	-52,619	0,036	0,012
-471,474	800,000	-0,039	0,084
-470,459	106,485	0,014	0,012
-469,445	9,067	-0,062	-0,034
-468,430	-200,000	0,032	-0,155
-467,416	-200,000	0,001	-0,039
-466,401	-106,551	0,137	0,022
-465,386	-200,000	-0,010	0,034
-464,372	21,070	-0,102	0,059
-463,357	800,000	-0,041	-0,126
-462,343	34,879	0,079	-0,049
-461,328	76,356	0,044	-0,034
-460,313	-200,000	0,024	-0,147
-459,299	-41,830	0,054	0,020
-458,284	-4,050	-0,038	-0,019
-457,270	-200,000	-0,008	-0,065
-456,255	-16,830	0,023	-0,010
-455,241	800,000	-0,075	-0,183
-454,226	39,304	0,127	-0,082
-453,211	-22,257	-0,029	-0,012
-452,197	-200,000	0,027	0,124
-451,182	250,058	0,087	0,107
-450,168	267,905	0,051	0,064
-449,153	-200,000	0,045	-0,154
-448,138	-4,237	-0,097	-0,048
-447,124	800,000	0,050	-0,115
-446,109	-200,000	-0,027	-0,114
-445,095	18,309	-0,115	0,066
-444,080	800,000	-0,017	-0,054
-443,065	800,000	0,032	0,071
-442,051	-51,504	0,088	0,029
-441,036	-200,000	-0,027	-0,147
-440,022	85,460	0,038	0,030
-439,007	137,888	-0,081	-0,077
-437,992	262,179	0,063	0,079
-436,978	99,536	0,089	0,074
-435,963	161,046	-0,113	0,114
-434,949	-74,253	0,167	-0,043
-433,934	-43,241	-0,061	-0,022
-432,919	-109,111	-0,072	0,011
-431,905	-200,000	-0,012	0,048
-430,890	-200,000	-0,004	0,099
-429,876	310,729	0,053	-0,071
-428,861	71,687	0,049	0,036
-427,846	-200,000	0,039	-0,138
-426,832	-126,066	-0,030	-0,003
-425,817	105,789	-0,063	-0,054
-424,803	413,120	0,111	-0,170
-423,788	748,776	0,014	0,027
-422,773	-200,000	-0,015	0,092
-421,759	34,671	0,077	-0,048
-420,744	-36,075	0,089	-0,034
-419,730	-200,000	-0,028	-0,115
-418,715	551,700	-0,039	-0,067
-417,701	-200,000	-0,000	0,071
-416,686	800,000	-0,058	0,143
-415,671	-154,822	0,088	0,004
-414,657	-65,886	0,079	0,022
-413,642	-200,000	-0,020	-0,080
-412,628	258,035	0,053	-0,066
-411,613	-69,284	-0,093	-0,025
-410,598	12,311	0,028	-0,015
-409,584	354,025	-0,103	0,147
-408,569	413,139	0,084	0,128
-407,555	198,183	-0,032	-0,035
-406,540	55,498	0,083	0,058
-405,525	-200,000	0,007	0,104
-404,511	-113,537	-0,031	0,004
-403,496	18,617	-0,094	0,054
-402,482	-92,716	-0,045	0,009
-401,467	-139,556	-0,102	-0,008
-400,452	-0,314	0,090	0,046
-399,438	86,533	0,098	0,077
-398,423	290,385	0,015	0,020
-397,409	-121,628	0,039	0,005
-396,394	-52,706	-0,045	0,015
-395,379	-99,511	0,053	-0,010
-394,365	725,147	-0,029	0,056
-393,350	770,316	0,026	0,052
-392,336	-200,000	-0,011	0,074
-391,321	800,000	0,041	-0,118
-390,306	800,000	-0,054	-0,125
-389,292	-12,320	0,105	0,049
-388,277	-200,000	-0,009	0,035
-387,263	-119,973	0,102	0,012
-386,248	229,971	-0,009	0,010
-385,233	-200,000	0,005	-0,032
-384,219	9,410	0,077	-0,042
-383,204	-18,886	-0,099	0,044
-382,190	251,892	0,028	0,035
-381,175	236,376	0,035	-0,041
-380,160	476,322	0,036	-0,059
-379,146	98,613	0,072	-0,060
-378,131	800,000	0,073	0,192
-377,117	-157,268	-0,065	0,003
-376,102	79,856	0,098	-0,076
-375,088	-12,105	-0,025	-0,012
-374,073	37,373	-0,076	0,048
-373,058	-2,790	0,077	0,038
-372,044	210,411	0,107	0,120
-371,029	554,937	-0,059	0,101
-370,015	-65,701	0,064	0,018
-369,000	-27,724	0,059	-0,024
-367,985	119,322	-0,030	0,026
-366,971	137,792	-0,028	0,026
-365,956	263,479	-0,033	-0,041
-364,942	595,237	-0,020	-0,035
-363,927	-200,000	-0,016	0,083
-362,912	-113,318	0,084	0,012
-361,898	-105,860	0,026	0,004
-360,883	-132,555	-0,076	0,007
-359,869	397,859	0,070	-0,105
-358,854	-55,810	-0,045	-0,014
-357,839	800,000	0,041	0,115
-356,825	175,366	0,130	0,135
-355,810	19,719	0,036	-0,021
-354,796	-156,175	-0,081	-0,004
-353,781	163,407	0,104	0,105
-352,766	-200,000	0,007	0,048
-351,752	800,000	0,094	0,217
-350,737	800,000	-0,020	0,061
-349,723	260,664	0,070	-0,087
-348,708	-147,255	-0,103	-0,006
-347,693	101,512	-0,077	-0,065
-346,679	-75,902	-0,059	0,015
-345,664	-200,000	0,021	-0,178
-344,650	-200,000	-0,019	-0,117
-343,635	1,115	0,173	0,089
-342,620	67,930	0,041	0,030
-341,606	-16,793	-0,108	0,049
-340,591	-22,792	0,144	-0,062
-339,577	310,791	0,076	-0,102
-338,562	-200,000	-0,008	0,159
-337,548	238,480	-0,077	-0,092
-336,533	-151,522	0,227	0,012
-335,518	529,473	0,117	0,198
-334,504	800,000	-0,038	0,077
-333,489	-200,000	-0,006	0,068
-332,475	213,978	-0,089	-0,101
-331,460	304,301	-0,093	-0,124
-330,445	185,154	0,080	-0,085
-329,431	-106,742	0,084	0,013
-328,416	97,899	0,093	-0,076
-327,402	594,060	-0,007	0,012
-326,387	1,172	0,140	0,072
-325,372	80,585	0,037	-0,028
-324,358	-200,000	0,011	-0,056
-323,343	521,482	0,025	0,042
-322,329	116,146	-0,109	-0,096
-321,314	-200,000	0,058	-0,188
-320,299	77,656	0,116	0,088
-319,285	82,477	0,029	0,022
-318,270	-200,000	0,027	0,104
-317,256	-99,541	-0,023	-0,004
-316,241	169,855	-0,035	-0,036
-315,226	-200,000	-0,011	0,120
-314,212	-76,263	0,053	-0,013
-313,197	-200,000	-0,015	0,168
-312,183	-200,000	-0,001	-0,098
-311,168	-200,000	-0,010	-0,033
-310,153	-200,000	0,014	-0,072
-309,139	493,542	-0,087	-0,143
-308,124	-173,070	-0,059	0,001
-307,110	-200,000	0,010	0,053
-306,095	14,232	0,163	0,091
-305,080	-200,000	0,007	-0,104
-304,066	278,524	-0,081	-0,104
-303,051	800,000	-0,013	0,041
-302,037	-129,923	-0,138	-0,013
-301,022	-77,914	0,062	-0,015
-300,008	-200,000	-0,022	0,147
-298,993	800,000	0,041	0,100
-297,978	122,632	0,134	0,120
-296,964	154,686	0,058	0,057
-295,949	68,823	0,048	0,035
-294,935	212,516	0,046	-0,052
-293,920	706,138	-0,052	-0,098
-292,905	241,366	0,081	-0,096
-291,891	-200,000	-0,007	-0,160
-290,876	149,749	-0,091	0,088
-289,862	660,192	0,066	0,122
-288,847	34,263	-0,086	-0,053
-287,832	35,824	0,085	-0,053
-286,818	-200,000	-0,017	-0,201
-285,803	681,515	-0,034	0,063
-284,789	-28,151	0,077	0,031
-283,774	217,602	-0,035	0,040
-282,759	800,000	0,010	-0,030
-281,745	793,154	-0,039	-0,076
-280,730	-57,789	0,044	0,014
-279,716	-200,000	-0,013	-0,135
-278,701	-200,000	0,012	-0,082
-277,686	410,403	0,063	0,096
-276,672	800,000	-0,077	0,218
-275,657	-72,408	0,150	-0,039
-274,643	284,153	-0,114	-0,147
-273,628	-40,690	0,079	-0,029
-272,613	-200,000	0,004	-0,024
-271,599	-200,000	0,021	0,124
-270,584	-120,862	-0,137	-0,016
-269,570	-200,000	-0,008	0,240
-268,555	93,015	-0,050	-0,040
-267,540	-74,547	-0,049	0,013
-266,526	756,270	-0,095	-0,184
-265,511	-100,707	-0,083	0,014
-264,497	-200,000	-0,014	0,054
-263,482	-58,190	0,101	0,031
-262,467	-56,278	-0,143	-0,045
-261,453	-200,000	-0,002	0,192
-260,438	117,789	0,037	-0,033
-259,424	-200,000	-0,127	0,000
-258,409	-200,000	-0,023	-0,211
-257,395	17,210	0,128	-0,072
-256,380	800,000	-0,011	-0,033
-255,365	38,266	0,039	-0,025
-254,351	-200,000	-0,023	0,100
-253,336	-86,204	-0,102	0,022
-252,322	-3,904	0,076	-0,037
-251,307	-38,253	-0,077	-0,029
-250,292	-129,707	0,095	-0,009
-249,278	-200,000	-0,013	0,126
-248,263	-3,005	0,028	0,014
-247,249	164,624	-0,065	0,065
-246,234	800,000	0,015	0,031
-245,219	-38,875	-0,082	0,031
-244,205	69,227	-0,086	-0,063
-243,190	165,229	-0,067	0,067
-242,176	-200,000	-0,018	-0,062
-241,161	61,143	0,103	-0,073
-240,146	800,000	-0,049	0,134
-239,132	123,839	-0,062	-0,056
-238,117	126,363	0,056	0,050
-237,103	393,360	0,051	-0,077
-236,088	-124,042	-0,073	-0,008
-235,073	-200,000	0,016	0,074
-234,059	-200,000	0,031	-0,143
-233,044	-200,000	-0,002	0,131
-232,030	800,000	0,050	-0,105
-231,015	-200,000	-0,002	0,040
-230,000	429,957	-0,068	0,105
-228,986	-200,000	0,022	-0,097
-227,971	-200,000	0,005	-0,086
-226,957	460,621	0,081	0,129
-225,942	4,592	-0,102	-0,053
-224,927	-200,000	-0,001	0,005
-223,913	800,000	-0,063	-0,126
-222,898	-141,048	0,066	0,005
-221,884	-200,000	0,024	0,084
-220,869	-200,000	-0,005	-0,086
-219,855	565,439	-0,057	0,099
-218,840	-200,000	0,008	0,029
-217,825	172,052	0,020	0,021
-216,811	56,065	-0,086	-0,060
-215,796	-200,000	-0,002	-0,007
-214,782	-59,335	-0,140	-0,043
-213,767	-166,640	0,124	0,004
-212,752	-200,000	0,004	0,023
-211,738	-112,102	0,057	-0,008
-210,723	800,000	0,024	0,068
-209,709	-197,609	-0,034	0,000
-208,694	100,993	0,049	-0,040
-207,679	0,692	-0,137	0,069
-206,665	294,794	0,042	-0,054
-205,650	800,000	-0,016	-0,046
-204,636	-30,666	-0,064	0,026
-203,621	-200,000	-0,016	0,135
-202,606	-200,000	-0,003	0,086
-201,592	-79,459	-0,129	0,031
-200,577	12,598	-0,095	0,052
-199,563	800,000	0,037	0,074
-198,548	-120,693	0,031	-0,004
-197,533	-159,263	0,043	-0,002
-196,519	-200,000	0,048	0,172
-195,504	128,295	-0,042	-0,038
-194,490	-200,000	0,017	-0,112
-193,475	-119,725	0,097	0,012
-192,460	-64,098	-0,153	0,044
-191,446	-151,509	0,064	-0,003
-190,431	-200,000	0,021	0,073
-189,417	-139,896	0,118	0,009
-188,402	-200,000	0,014	-0,165
-187,387	108,074	-0,076	0,065
-186,373	438,474	0,026	-0,041
-185,358	-200,000	0,011	-0,060
-184,344	328,523	-0,081	0,110
-183,329	800,000	-0,038	0,076
-182,315	228,584	-0,048	0,055
-181,300	-176,552	0,153	0,003
-180,285	-200,000	0,007	-0,147
-179,271	-26,392	-0,030	-0,012
-178,256	67,907	-0,059	-0,043
-177,242	87,305	0,099	0,078
-176,227	-25,997	0,098	0,041
-175,212	-200,000	0,005	0,140
-174,198	169,192	-0,049	0,049
-173,183	517,748	-0,083	-0,139
-172,169	-200,000	-0,019	-0,128
-171,154	-136,891	0,099	-0,008
-170,139	-21,002	-0,072	0,031
-169,125	-127,291	0,048	0,005
-168,110	-200,000	-0,006	0,025
-167,096	-200,000	0,013	0,169
-166,081	-86,151	-0,109	-0,024
-165,066	-126,282	0,031	-0,003
-164,052	136,934	0,037	-0,034
-163,037	203,741	-0,044	0,049
-162,023	-25,401	0,153	0,064
-161,008	-200,000	0,002	0,125
-159,993	-112,121	0,128	-0,018
-158,979	623,986	0,102	-0,184
-157,964	800,000	-0,028	-0,057
-156,950	-174,441	-0,009	-0,000
-155,935	-46,681	0,131	-0,045
-154,920	580,315	0,036	0,063
-153,906	-200,000	0,064	0,211
-152,891	800,000	-0,071	0,170
-151,877	-200,000	-0,006	0,046
-150,862	-89,420	0,070	-0,014
-149,847	-200,000	0,000	-0,041
-148,833	59,788	0,151	0,106
-147,818	147,350	0,059	0,057
-146,804	640,215	-0,074	0,134
-145,789	-4,331	-0,064	0,031
-144,775	112,413	-0,062	0,053
-143,760	-200,000	0,021	-0,084
-142,745	440,482	-0,062	-0,097
-141,731	543,671	-0,044	-0,075
-140,716	-122,189	0,075	0,009
-139,702	-175,509	0,075	-0,001
-138,687	-26,503	-0,042	0,017
-137,672	19,693	-0,076	0,043
-136,658	800,000	-0,030	-0,092
-135,643	432,907	-0,018	-0,028
-134,629	-110,210	0,118	-0,017
-133,614	-200,000	0,026	0,088
-132,599	48,567	-0,042	0,028
-131,585	21,477	0,101	0,058
-130,570	800,000	-0,034	-0,084
-129,556	-184,527	0,050	-0,001
-128,541	388,902	-0,056	-0,082
-127,526	-25,825	-0,121	-0,050
-126,512	-93,139	0,028	-0,005
-125,497	3,356	0,084	-0,043
-124,483	408,930	-0,072	-0,108
-123,468	-200,000	-0,001	0,016
-122,453	437,931	-0,028	-0,043
-121,439	227,680	-0,050	0,058
-120,424	305,530	0,110	-0,146
-119,410	441,833	0,034	0,053
-118,395	189,871	0,069	-0,073
-117,380	140,965	-0,084	-0,078
-116,366	9,761	0,066	-0,035
-115,351	14,741	-0,177	-0,098
-114,337	-104,468	-0,075	-0,012
-113,322	-200,000	-0,011	0,068
-112,307	709,144	0,020	-0,038
-111,293	-19,443	0,035	-0,015
-110,278	4,750	0,077	0,040
-109,264	-148,023	-0,089	0,005
-108,249	21,104	-0,049	0,028
-107,234	-200,000	0,005	-0,092
-106,220	-200,000	0,023	0,098
-105,205	35,033	-0,090	0,056
-104,191	38,770	0,129	-0,082
-103,176	517,396	-0,021	0,035
-102,162	162,815	0,062	-0,062
-101,147	-200,000	-0,015	-0,080
-100,132	-16,208	-0,040	-0,018
-99,118	229,285	-0,082	-0,095
-98,103	-101,984	0,072	-0,012
-97,089	-89,597	-0,042	-0,009
-96,074	-200,000	-0,007	-0,092
-95,059	-200,000	0,017	-0,067
-94,045	-99,975	0,097	-0,017
-93,030	75,212	-0,072	-0,054
-92,016	-107,926	-0,165	-0,025
-91,001	-200,000	-0,045	-0,153
-89,986	-200,000	0,002	-0,052
-88,972	-66,943	-0,121	0,034
-87,957	-157,452	0,069	-0,003
-86,943	-200,000	-0,024	0,089
-85,928	269,816	-0,031	-0,038
-84,913	6,366	-0,074	-0,039
-83,899	27,421	-0,057	0,034
-82,884	-200,000	-0,004	0,033
-81,870	-7,254	0,081	0,039
-80,855	800,000	0,035	0,097
-79,840	-57,097	-0,064	-0,020
-78,826	-99,368	-0,083	-0,015
-77,811	42,110	-0,151	-0,097
-76,797	202,438	-0,063	-0,069
-75,782	-25,118	0,086	-0,036
-74,767	71,611	-0,095	0,070
-73,753	28,709	0,099	-0,059
-72,738	-123,969	0,026	0,003
-71,724	-9,234	-0,116	0,055
-70,709	-57,632	-0,118	0,036
-69,694	-200,000	0,013	-0,078
-68,680	-8,158	0,032	0,015
-67,665	800,000	0,044	0,102
-66,651	105,338	0,078	0,065
-65,636	427,261	-0,016	0,024
-64,622	-119,329	0,034	0,004
-63,607	-124,667	-0,034	-0,004
-62,592	-110,363	-0,055	0,008
-61,578	315,103	-0,025	-0,034
-60,563	-200,000	0,005	-0,039
-59,549	-200,000	-0,034	0,125
-58,534	-20,337	-1,753	-0,761
-57,519	393,738	-1,399	-2,068
-56,505	-200,000	-0,440	-4,443
-55,490	208,334	1,029	1,141
-54,476	800,000	4,937	11,497
-53,461	-200,000	19,162	319,739
-52,446	-200,000	740,733	2334,574
-51,432	573,729	1655,722	2870,197
-50,417	78,249	1671,170	1261,744
-49,403	21,295	1544,118	885,683
-48,388	15,205	1466,461	811,522
-47,373	17,942	1456,651	819,290
-46,359	16,653	1446,537	807,387
-45,344	13,444	1441,975	789,434
-44,330	13,362	1439,959	787,905
-43,315	13,360	1438,199	786,903
-42,300	13,401	1436,521	786,150
-41,286	13,393	1435,367	785,447
-40,271	13,358	1433,936	784,467
-39,257	13,388	1432,644	783,871
-38,242	13,436	1431,299	783,331
-37,227	13,436	1430,131	782,662
-36,213	13,437	1428,900	781,961
-35,198	13,427	1427,797	781,281
-34,184	13,460	1426,710	780,812
-33,169	13,418	1425,429	779,879
-32,154	13,414	1424,560	779,357
-31,140	13,448	1423,051	778,660
-30,125	13,468	1421,984	778,141
-29,111	13,438	1420,807	777,321
-28,096	13,376	1419,854	776,477
-27,082	13,359	1418,659	775,715
-26,067	13,344	1417,490	774,973
-25,052	13,339	1416,508	774,381
-24,038	13,362	1415,498	773,907
-23,023	13,343	1414,412	773,194
-22,009	13,335	1413,451	772,599
-20,994	13,259	1412,744	771,823
-19,979	13,322	1411,738	771,541
-18,965	13,298	1410,890	770,932
-17,950	13,296	1409,915	770,360
-16,936	13,314	1408,759	769,782
-15,921	13,262	1407,809	768,988
-14,906	13,219	1407,094	768,368
-13,892	13,277	1406,016	768,022
-12,877	13,299	1405,025	767,550
-11,863	13,269	1404,107	766,877
-10,848	13,294	1403,102	766,416
-9,833	13,201	1402,546	765,649
-8,819	13,218	1401,531	765,145
-7,804	13,176	1400,619	764,418
-6,790	13,195	1399,499	763,866
-5,775	13,167	1398,617	763,226
-4,760	13,171	1397,791	762,763
-3,746	13,169	1396,972	762,277
-2,731	13,137	1395,972	761,552
-1,717	13,132	1395,055	760,999
-0,702	13,143	1393,291	760,053
0,313	16,958	1310,118	732,366
1,327	33,271	703,634	431,033
2,342	51,168	123,299	82,628
3,356	0,543	16,749	8,443
4,371	0,900	3,132	1,582
5,386	57,146	0,443	0,305
6,400	-200,000	-0,007	0,168
7,415	-85,558	-0,317	-0,069
8,429	121,091	-0,297	-0,262
9,444	131,252	-0,301	-0,273
10,459	-152,813	-0,371	-0,018
11,473	3,748	-0,339	-0,174
12,488	-21,764	-0,399	-0,171
13,502	-7,895	-0,276	-0,131
14,517	13,296	-0,324	-0,177
15,531	-67,274	-0,404	-0,112
16,546	-41,332	-0,262	-0,095
17,561	173,227	-0,371	-0,379
18,575	-165,060	-0,206	0,006
19,590	68,233	-0,291	-0,211
20,604	16,897	-0,321	-0,179
21,619	101,717	-0,455	-0,374
22,634	94,654	-0,443	-0,355
23,648	201,199	-0,262	-0,285
24,663	81,837	-0,315	-0,240
25,677	55,435	-0,376	-0,256
26,692	84,086	-0,275	-0,212
27,707	24,047	-0,452	-0,263
28,721	71,549	-0,302	-0,222
29,736	192,188	-0,269	-0,287
30,750	117,565	-0,462	-0,401
31,765	131,588	-0,515	-0,468
32,780	74,699	-0,526	-0,390
33,794	72,508	-0,259	-0,190
34,809	53,166	-0,410	-0,277
35,823	-29,536	-0,362	-0,145
36,838	266,102	-0,253	-0,312
37,853	77,938	-0,307	-0,231
38,867	303,219	-0,236	-0,309
39,882	149,003	-0,338	-0,323
40,896	-17,862	-0,403	-0,178
41,911	115,469	-0,376	-0,324
42,926	17,272	-0,324	-0,181
43,940	-9,218	-0,340	-0,159
44,955	35,075	-0,309	-0,191
45,969	23,470	-0,359	-0,208
46,984	-19,711	-0,430	-0,187
47,999	68,898	-0,256	-0,185
49,013	101,215	-0,353	-0,289
50,028	-17,651	-0,388	-0,171
51,042	38,269	-0,301	-0,189
52,057	175,935	-0,241	-0,246
53,071	544,764	-0,188	-0,318
54,086	11,046	-0,361	-0,194
55,101	-100,959	-0,382	-0,065
56,115	244,975	-0,342	-0,405
57,130	84,884	-0,424	-0,327
58,144	104,600	-0,356	-0,295
59,159	100,755	-0,327	-0,268
60,174	216,719	-0,322	-0,362
61,188	126,791	-0,339	-0,302
62,203	163,617	-0,278	-0,276
63,217	-14,112	-0,309	-0,140
64,232	145,881	-0,204	-0,193
65,247	18,978	-0,408	-0,229
66,261	-61,797	-0,377	-0,110
67,276	92,106	-0,269	-0,213
68,290	92,487	-0,284	-0,225
69,305	166,104	-0,303	-0,302
70,320	-4,326	-0,298	-0,145
71,334	-70,491	-0,480	-0,127
72,349	-131,641	-0,366	-0,033
73,363	-11,048	-0,378	-0,175
74,378	206,202	-0,267	-0,293
75,393	107,188	-0,290	-0,242
76,407	337,807	-0,246	-0,337
77,422	57,950	-0,286	-0,197
78,436	-55,955	-0,405	-0,126
79,451	30,288	-0,305	-0,183
80,466	80,823	-0,410	-0,310
81,480	4,306	-0,293	-0,151
82,495	-6,721	-0,338	-0,161
83,509	800,000	-0,153	-0,303
84,524	-18,185	-0,130	-0,057
85,539	9,975	-0,290	-0,154
86,553	29,190	-0,273	-0,163
87,568	-10,911	-0,378	-0,175
88,582	43,267	-0,185	-0,118
89,597	86,917	-0,371	-0,288
90,611	155,121	-0,241	-0,233
91,626	126,061	-0,182	-0,162
92,641	53,261	-0,369	-0,248
93,655	297,786	-0,208	-0,269
94,670	100,725	-0,320	-0,261
95,684	-156,102	-0,295	0,013
96,699	18,100	-0,257	-0,143
97,714	-135,519	-0,316	-0,026
98,728	-22,625	-0,251	-0,106
99,743	-85,126	-0,215	-0,047
100,757	-77,371	-0,395	-0,095
101,772	25,095	-0,266	-0,155
102,787	62,016	-0,265	-0,185
103,801	36,182	-0,267	-0,164
104,816	356,370	-0,078	-0,110
105,830	51,672	-0,265	-0,176
106,845	82,250	-0,225	-0,171
107,860	24,970	-0,372	-0,216
108,874	-75,500	-0,307	-0,076
109,889	16,330	-0,318	-0,175
110,903	131,535	-0,238	-0,215
111,918	-23,279	-0,231	-0,097
112,933	157,107	-0,149	-0,144
113,947	244,113	-0,187	-0,220
114,962	-17,754	-0,238	-0,104
115,976	78,702	-0,302	-0,226
116,991	62,522	-0,326	-0,228
118,006	177,441	-0,281	-0,287
119,020	379,637	-0,144	-0,207
120,035	-35,684	-0,260	-0,098
121,049	93,342	-0,209	-0,166
122,064	537,409	-0,123	-0,205
123,079	129,184	-0,267	-0,239
124,093	229,935	-0,188	-0,216
125,108	66,729	-0,292	-0,208
126,122	29,819	-0,286	-0,170
127,137	226,029	-0,216	-0,246
128,151	577,733	-0,074	-0,128
129,166	14,844	-0,290	-0,158
130,181	215,394	-0,138	-0,154
131,195	66,741	-0,214	-0,152
132,210	400,327	-0,180	-0,265
133,224	26,086	-0,328	-0,191
134,239	-17,959	-0,342	-0,149
135,254	-12,029	-0,209	-0,096
136,268	82,701	-0,329	-0,250
137,283	56,736	-0,221	-0,150
138,297	67,058	-0,292	-0,208
139,312	137,386	-0,204	-0,186
140,327	27,396	-0,353	-0,207
141,341	42,050	-0,287	-0,182
142,356	17,856	-0,303	-0,168
143,370	252,457	-0,163	-0,195
144,385	-110,231	-0,266	-0,038
145,400	-47,509	-0,208	-0,070
146,414	178,596	-0,168	-0,172
147,429	-33,002	-0,224	-0,086
148,443	58,198	-0,242	-0,166
149,458	-31,641	-0,267	-0,104
150,473	161,527	-0,275	-0,269
151,487	386,460	-0,203	-0,294
152,502	-32,401	-0,219	-0,085
153,516	52,976	-0,336	-0,224
154,531	89,909	-0,348	-0,271
155,546	93,565	-0,194	-0,153
156,560	-136,611	-0,255	-0,020
157,575	85,966	-0,188	-0,145
158,589	87,338	-0,166	-0,128
159,604	44,994	-0,239	-0,154
160,619	409,187	-0,182	-0,270
161,633	779,393	-0,135	-0,259
162,648	134,372	-0,179	-0,162
163,662	291,015	-0,138	-0,176
164,677	330,911	-0,191	-0,257
165,692	-140,171	-0,312	-0,023
166,706	577,689	-0,110	-0,188
167,721	129,492	-0,234	-0,208
168,735	46,459	-0,348	-0,225
169,750	800,000	-0,120	-0,311
170,764	318,940	-0,282	-0,373
171,779	-32,942	-0,169	-0,065
172,794	638,643	-0,120	-0,214
173,808	800,000	-0,090	-0,241
174,823	45,067	-0,221	-0,142
175,837	154,165	-0,272	-0,260
176,852	-41,746	-0,238	-0,085
177,867	78,212	-0,215	-0,159
178,881	752,012	-0,154	-0,291
179,896	8,324	-0,277	-0,145
180,910	373,372	-0,184	-0,262
181,925	800,000	-0,116	-0,250
182,940	106,584	-0,238	-0,196
183,954	312,212	-0,184	-0,241
184,969	-17,008	-0,164	-0,072
185,983	49,204	-0,101	-0,066
186,998	36,761	-0,141	-0,086
188,013	278,591	-0,115	-0,143
189,027	68,003	-0,239	-0,170
190,042	69,289	-0,206	-0,147
191,056	117,853	-0,219	-0,188
192,071	-200,000	-0,037	-0,129
193,086	319,198	-0,186	-0,247
194,100	409,891	-0,208	-0,307
195,115	51,916	-0,245	-0,162
196,129	158,851	-0,254	-0,246
197,144	-3,178	-0,343	-0,166
198,159	-22,208	-0,297	-0,125
199,173	132,484	-0,239	-0,214
200,188	22,187	-0,196	-0,111
201,202	75,284	-0,350	-0,256
202,217	322,083	-0,155	-0,205
203,232	77,722	-0,230	-0,170
204,246	105,931	-0,199	-0,164
205,261	270,750	-0,217	-0,265
206,275	106,309	-0,198	-0,163
207,290	21,563	-0,213	-0,120
208,304	248,190	-0,209	-0,246
209,319	287,002	-0,122	-0,153
210,334	-112,765	-0,149	-0,020
211,348	77,350	-0,256	-0,189
212,363	32,174	-0,203	-0,121
213,377	91,812	-0,236	-0,184
214,392	-200,000	0,007	-0,269
215,407	-81,502	-0,178	0,040
216,421	-10,821	-0,201	-0,092
217,436	-5,205	-0,220	-0,105
218,450	431,073	-0,125	-0,189
219,465	608,009	-0,132	-0,230
220,480	-88,069	-0,172	-0,035
221,494	106,494	-0,258	-0,212
222,509	374,337	-0,036	-0,051
223,523	221,497	-0,184	-0,205
224,538	68,381	-0,195	-0,139
225,553	648,399	-0,192	-0,342
226,567	-5,479	-0,233	-0,110
227,582	122,705	-0,191	-0,165
228,596	400,638	-0,137	-0,200
229,611	22,730	-0,097	-0,055
230,626	-94,898	-0,247	-0,046
231,640	107,958	-0,166	-0,137
232,655	800,000	-0,074	-0,170
233,669	128,453	-0,239	-0,211
234,684	323,638	-0,156	-0,207
235,699	-200,000	-0,024	-0,159
236,713	-200,000	-0,049	-0,194
237,728	214,222	-0,262	-0,288
238,742	111,349	-0,117	-0,098
239,757	45,578	-0,163	-0,104
240,772	29,325	-0,310	-0,182
241,786	258,024	-0,154	-0,184
242,801	717,110	-0,126	-0,232
243,815	-200,000	0,012	-0,189
244,830	-47,054	-0,217	-0,073
245,844	-100,671	-0,263	-0,045
246,859	241,302	-0,134	-0,155
247,874	407,727	-0,186	-0,273
248,888	491,209	-0,114	-0,182
249,903	3,633	-0,298	-0,150
250,917	-139,585	-0,281	-0,020
251,932	-13,643	-0,186	0,083
252,947	44,821	-0,155	-0,098
253,961	-41,516	-0,256	-0,091
254,976	21,526	-0,185	-0,104
255,990	-28,718	-0,194	-0,077
257,005	17,008	-0,182	-0,100
258,020	-142,866	-0,132	0,009
259,034	525,590	-0,061	-0,100
260,049	49,294	-0,231	-0,150
261,063	707,879	-0,078	-0,143
262,078	146,741	-0,167	-0,156
263,093	327,118	-0,179	-0,238
264,107	109,182	-0,178	-0,147
265,122	16,963	-0,057	-0,031
266,136	-108,387	-0,185	-0,027
267,151	301,225	-0,161	-0,207
268,166	-131,136	-0,302	-0,027
269,180	320,305	-0,125	-0,165
270,195	54,050	-0,250	-0,166
271,209	32,942	-0,153	-0,091
272,224	702,242	-0,098	-0,179
273,239	603,032	-0,044	-0,077
274,253	-152,402	-0,250	-0,012
275,268	-18,963	-0,209	-0,089
276,282	800,000	-0,114	-0,226
277,297	74,468	-0,200	-0,145
278,312	285,629	-0,148	-0,184
279,326	98,989	-0,079	-0,063
280,341	10,151	-0,105	-0,055
281,355	17,914	-0,199	-0,109
282,370	91,883	-0,186	-0,144
283,384	-67,884	-0,230	-0,062
284,399	35,802	-0,270	-0,163
285,414	800,000	-0,089	-0,211
286,428	800,000	-0,108	-0,211
287,443	83,836	-0,111	-0,084
288,457	28,916	-0,089	-0,052
289,472	568,030	-0,086	-0,145
290,487	201,259	-0,117	-0,124
291,501	177,001	-0,087	-0,088
292,516	53,632	-0,142	-0,094
293,530	-162,059	-0,148	-0,005
294,545	-38,952	-0,058	-0,021
295,560	-85,709	-0,199	0,042
296,574	800,000	-0,078	-0,184
297,589	-53,213	-0,168	-0,053
298,603	73,087	-0,176	-0,127
299,618	-176,060	-0,198	-0,004
300,633	87,186	-0,205	-0,156
301,647	-53,944	-0,133	-0,042
302,662	258,493	-0,102	-0,122
303,676	108,592	-0,111	-0,091
304,691	653,420	-0,074	-0,131
305,706	117,373	-0,226	-0,192
306,720	12,543	-0,088	-0,047
307,735	5,242	-0,112	-0,057
308,749	555,891	-0,061	-0,102
309,764	82,805	-0,090	-0,068
310,779	800,000	-0,079	-0,178
311,793	-64,869	-0,154	-0,043
312,808	116,101	-0,126	-0,106
313,822	800,000	-0,091	-0,184
314,837	-68,851	-0,167	-0,044
315,852	-46,917	-0,092	-0,031
316,866	216,770	-0,091	-0,099
317,881	-58,320	-0,090	-0,027
318,895	226,572	-0,144	-0,161
319,910	81,680	-0,104	-0,078
320,925	-9,054	-0,130	0,059
321,939	166,325	-0,171	-0,166
322,954	214,511	-0,157	-0,172
323,968	33,732	-0,028	-0,017
324,983	-99,380	-0,252	-0,043
325,997	-80,552	-0,162	-0,037
327,012	140,887	-0,174	-0,158
328,027	-200,000	-0,028	-0,148
329,041	106,821	-0,176	-0,144
330,056	168,859	-0,063	-0,062
331,070	212,429	-0,122	-0,132
332,085	-67,528	-0,104	-0,028
333,100	110,760	-0,135	-0,112
334,114	-200,000	-0,048	-0,190
335,129	9,508	-0,113	-0,059
336,143	-32,760	-0,094	-0,036
337,158	425,966	-0,156	-0,232
338,173	174,577	-0,156	-0,155
339,187	-200,000	-0,068	-0,284
340,202	-92,835	-0,180	-0,034
341,216	-140,835	-0,099	0,007
342,231	51,479	-0,179	-0,116
343,246	335,617	-0,098	-0,130
344,260	508,858	-0,056	-0,090
345,275	-154,660	-0,122	0,005
346,289	800,000	-0,012	-0,025
347,304	188,680	-0,071	-0,073
348,319	-65,644	-0,169	-0,046
349,333	-200,000	-0,009	-0,133
350,348	86,126	-0,112	-0,084
351,362	88,359	-0,228	-0,174
352,377	71,938	-0,123	-0,087
353,392	354,937	-0,120	-0,164
354,406	221,274	-0,032	-0,036
355,421	210,181	1314,283	1416,739
356,435	161,792	1474,962	1417,231
