DTS Sentinel unit serial number:	SN410029Multiplexer serial number:	ORYXHardware model number:	OX2-SRSoftware version number:	ORYX F/W v4,00 Oryx Data Collector v3.7.2.0data status	okinstallation	B3 Nyhavnadifferential loss correction	single-endedforward channel	channel 1reverse channel	N/Adate	2023/12/01time	15:17:30forward acquisition time	300,00reverse acquisition time	0,00gamma	499,1914k internal	0,3210k external	0,3210temperature offset calibration	1,0000default loss term (dB/km)	0,3820temperature slope calibration	1,0000multiplexer offset coefficient	1,0000multiplexer slope coefficient	1,0000fibre end	0,00T internal ref (°C)	11,78T ext. ref 1 (°C)	-1,63T ext. ref 2 (°C)	-1,69length (m)	temperature (°C)	Stokes	anti-Stokes-744,400	354,018	-0,130	-0,188
-743,385	-200,000	-0,061	0,285
-742,371	560,868	-0,087	-0,153
-741,356	-200,000	0,099	0,329
-740,342	-47,627	-0,212	-0,074
-739,327	-200,000	0,054	0,205
-738,312	800,000	-0,221	-0,475
-737,298	3,018	-0,126	0,066
-736,283	70,463	-0,229	-0,172
-735,269	-200,000	0,083	0,487
-734,254	279,630	-0,160	-0,208
-733,239	14,712	-0,359	0,203
-732,225	162,704	-0,122	-0,124
-731,210	-67,645	0,183	-0,052
-730,196	-72,536	-0,142	-0,038
-729,181	155,238	-0,068	0,068
-728,167	800,000	-0,032	-0,080
-727,152	-193,939	-0,079	0,000
-726,137	-200,000	-0,026	-0,126
-725,123	257,951	0,058	0,073
-724,108	22,154	-0,270	-0,159
-723,094	304,237	0,041	0,056
-722,079	667,004	0,005	0,010
-721,064	-38,117	0,060	0,023
-720,050	23,909	0,039	0,023
-719,035	45,760	-0,101	0,067
-718,021	-7,082	-0,035	-0,017
-717,006	-106,774	-0,153	-0,024
-715,991	-126,122	-0,063	-0,007
-714,977	-56,809	-0,083	-0,026
-713,962	14,791	-0,124	-0,070
-712,948	800,000	-0,060	0,149
-711,933	-118,723	-0,044	-0,005
-710,918	800,000	0,017	-0,047
-709,904	800,000	-0,030	0,075
-708,889	800,000	-0,018	0,045
-707,875	764,343	-0,039	-0,076
-706,860	-200,000	-0,001	0,014
-705,845	183,725	0,082	0,088
-704,831	276,328	0,041	-0,053
-703,816	127,483	-0,087	-0,080
-702,802	800,000	-0,025	0,070
-701,787	-200,000	-0,004	-0,079
-700,772	149,410	-0,087	0,085
-699,758	-114,090	0,022	0,003
-698,743	-116,550	-0,033	-0,004
-697,729	34,143	0,132	0,083
-696,714	-153,860	-0,092	0,004
-695,699	171,760	-0,071	0,074
-694,685	14,673	-0,019	-0,011
-693,670	-104,941	0,060	-0,010
-692,656	15,282	-0,018	-0,010
-691,641	46,328	0,097	-0,065
-690,627	33,381	0,076	-0,047
-689,612	-200,000	-0,010	0,082
-688,597	9,086	0,062	-0,034
-687,583	544,432	-0,067	0,116
-686,568	-200,000	-0,031	-0,118
-685,554	-194,288	0,078	0,000
-684,539	-10,061	0,096	0,046
-683,524	207,962	-0,027	-0,030
-682,510	-200,000	-0,004	0,111
-681,495	-44,064	-0,063	-0,023
-680,481	-200,000	0,021	-0,161
-679,466	-4,208	-0,134	0,067
-678,451	-200,000	0,004	-0,046
-677,437	645,099	0,038	0,070
-676,422	382,086	-0,053	0,080
-675,408	-75,054	-0,125	-0,032
-674,393	-200,000	0,006	0,027
-673,378	17,064	-0,050	0,028
-672,364	-200,000	0,020	0,095
-671,349	187,505	-0,111	0,120
-670,335	-156,185	-0,146	-0,007
-669,320	-144,653	-0,138	-0,009
-668,305	800,000	-0,007	0,017
-667,291	21,480	-0,070	-0,041
-666,276	-200,000	0,017	0,062
-665,262	-72,650	-0,032	-0,008
-664,247	-200,000	-0,013	-0,113
-663,232	84,860	0,050	0,039
-662,218	59,276	-0,075	0,053
-661,203	800,000	0,016	0,043
-660,189	326,217	-0,075	-0,104
-659,174	-200,000	0,007	-0,052
-658,159	-200,000	-0,010	0,056
-657,145	-200,000	-0,021	0,173
-656,130	-10,055	-0,010	0,005
-655,116	800,000	0,040	-0,084
-654,101	-200,000	-0,002	-0,018
-653,086	-200,000	-0,005	-0,023
-652,072	-106,926	-0,073	0,012
-651,057	212,461	0,048	-0,055
-650,043	-102,584	-0,120	-0,021
-649,028	86,604	0,058	0,046
-648,014	800,000	0,038	-0,108
-646,999	-32,163	-0,098	-0,039
-645,984	-28,112	-0,065	0,027
-644,970	-200,000	0,019	-0,087
-643,955	-200,000	0,002	0,023
-642,941	-160,815	-0,064	0,002
-641,926	226,072	-0,040	0,047
-640,911	800,000	0,009	-0,028
-639,897	374,236	0,057	0,084
-638,882	800,000	0,025	0,079
-637,868	-200,000	0,012	-0,085
-636,853	316,397	0,033	-0,045
-635,838	-85,834	-0,107	0,024
-634,824	800,000	-0,059	-0,119
-633,809	398,014	0,071	-0,108
-632,795	-25,663	-0,070	0,030
-631,780	-200,000	0,031	0,145
-630,765	-200,000	0,020	-0,127
-629,751	800,000	-0,062	-0,162
-628,736	712,623	-0,017	-0,033
-627,722	41,118	0,019	0,012
-626,707	788,796	0,013	-0,026
-625,692	-45,756	0,089	-0,032
-624,678	-101,117	-0,108	0,019
-623,663	54,937	-0,054	0,037
-622,649	-200,000	0,007	-0,128
-621,634	-200,000	-0,018	-0,123
-620,619	-101,790	-0,093	-0,016
-619,605	-200,000	-0,011	-0,057
-618,590	-131,378	0,267	0,025
-617,576	-40,817	-0,032	-0,012
-616,561	41,403	-0,074	-0,048
-615,546	-200,000	-0,041	-0,147
-614,532	-67,252	-0,068	-0,019
-613,517	-51,940	0,170	0,057
-612,503	63,309	-0,032	-0,023
-611,488	87,328	0,101	0,081
-610,474	800,000	0,030	0,074
-609,459	800,000	0,021	0,059
-608,444	105,040	-0,129	-0,109
-607,430	800,000	-0,016	-0,039
-606,415	10,259	-0,117	-0,064
-605,401	-155,088	0,070	0,003
-604,386	800,000	0,025	-0,060
-603,371	246,498	0,107	-0,131
-602,357	-200,000	-0,003	0,049
-601,342	800,000	-0,035	0,074
-600,328	-200,000	-0,008	-0,066
-599,313	503,832	-0,072	-0,120
-598,298	437,834	-0,044	0,069
-597,284	648,708	0,017	0,032
-596,269	-200,000	0,018	0,061
-595,255	-180,458	-0,069	0,001
-594,240	210,865	0,062	-0,071
-593,225	800,000	0,054	-0,134
-592,211	-24,326	0,066	-0,028
-591,196	-166,383	-0,143	0,004
-590,182	-40,850	-0,033	0,012
-589,167	-135,135	-0,029	0,003
-588,152	-30,144	0,133	-0,054
-587,138	144,370	-0,088	0,085
-586,123	494,480	0,025	-0,042
-585,109	-200,000	0,023	0,108
-584,094	483,808	0,022	-0,037
-583,079	-200,000	0,000	-0,023
-582,065	-110,426	0,155	-0,023
-581,050	-200,000	0,003	0,074
-580,036	-200,000	-0,049	0,189
-579,021	-200,000	-0,005	0,046
-578,006	-123,262	0,058	0,007
-576,992	343,406	-0,048	-0,067
-575,977	-189,930	0,121	-0,001
-574,963	-200,000	0,016	-0,132
-573,948	44,531	0,090	-0,059
-572,934	-53,489	-0,199	-0,065
-571,919	403,314	0,018	-0,028
-570,904	391,147	-0,023	0,034
-569,890	313,447	-0,086	-0,116
-568,875	-3,343	0,065	0,033
-567,861	-200,000	-0,004	-0,028
-566,846	800,000	-0,029	0,065
-565,831	-45,782	0,064	-0,023
-564,817	-200,000	-0,036	0,195
-563,802	-149,962	-0,051	-0,003
-562,788	231,386	0,033	-0,039
-561,773	-200,000	0,035	-0,150
-560,758	-200,000	-0,007	0,081
-559,744	82,852	0,026	0,020
-558,729	800,000	0,033	0,100
-557,715	-200,000	0,003	-0,143
-556,700	-200,000	-0,004	-0,079
-555,685	-40,711	-0,044	0,016
-554,671	-200,000	0,017	0,057
-553,656	-200,000	-0,010	-0,046
-552,642	-200,000	0,002	0,075
-551,627	12,021	-0,067	0,037
-550,612	488,655	0,013	0,021
-549,598	107,723	0,039	-0,033
-548,583	-200,000	-0,007	-0,046
-547,569	-59,216	-0,068	-0,021
-546,554	-14,975	0,155	-0,071
-545,539	4,501	-0,074	0,039
-544,525	-200,000	-0,001	0,093
-543,510	125,828	-0,168	-0,153
-542,496	333,862	-0,038	-0,054
-541,481	-200,000	-0,027	-0,142
-540,466	11,838	-0,021	0,012
-539,452	723,103	0,069	-0,133
-538,437	-38,353	0,037	-0,014
-537,423	-92,270	0,111	0,022
-536,408	-200,000	0,007	0,110
-535,393	-200,000	-0,002	-0,127
-534,379	521,761	0,018	-0,031
-533,364	-200,000	0,010	-0,045
-532,350	-141,924	-0,137	-0,010
-531,335	-3,103	0,130	0,065
-530,321	716,901	0,091	0,174
-529,306	84,149	-0,079	-0,062
-528,291	17,155	-0,073	0,041
-527,277	-127,342	-0,193	-0,020
-526,262	39,368	0,020	-0,013
-525,248	233,697	0,009	0,010
-524,233	376,197	0,052	0,077
-523,218	53,424	-0,064	0,044
-522,204	-80,313	0,124	-0,030
-521,189	-78,814	-0,023	-0,005
-520,175	-48,074	-0,076	-0,026
-519,160	136,096	0,067	-0,063
-518,145	-75,023	0,026	-0,007
-517,131	237,041	0,070	-0,084
-516,116	-200,000	-0,013	-0,042
-515,102	-200,000	0,015	-0,141
-514,087	-8,647	0,048	-0,023
-513,072	675,428	-0,029	-0,054
-512,058	325,674	-0,084	-0,116
-511,043	112,366	0,017	-0,015
-510,029	313,409	-0,065	-0,088
-509,014	800,000	0,034	0,093
-507,999	-69,193	-0,101	-0,028
-506,985	95,519	-0,056	0,046
-505,970	-130,306	0,031	-0,003
-504,956	-83,061	-0,063	-0,014
-503,941	172,426	0,046	0,047
-502,926	754,832	-0,025	0,049
-501,912	237,146	0,032	-0,038
-500,897	-200,000	0,000	-0,029
-499,883	94,541	0,093	0,076
-498,868	800,000	-0,052	-0,128
-497,853	-139,959	-0,113	0,008
-496,839	207,500	0,071	-0,080
-495,824	-200,000	-0,031	0,149
-494,810	283,646	-0,052	0,067
-493,795	507,013	0,099	0,166
-492,781	12,943	-0,100	0,056
-491,766	159,751	-0,025	-0,025
-490,751	-75,955	0,128	0,032
-489,737	405,866	-0,059	-0,089
-488,722	608,678	-0,056	0,100
-487,708	-9,745	0,071	0,034
-486,693	762,210	-0,031	0,060
-485,678	28,475	0,025	-0,015
-484,664	95,821	-0,125	-0,103
-483,649	-26,609	-0,062	-0,026
-482,635	-200,000	0,018	-0,108
-481,620	-4,088	0,079	-0,039
-480,605	105,462	-0,161	0,137
-479,591	483,169	0,053	-0,086
-478,576	-90,339	0,084	-0,017
-477,562	361,157	-0,079	-0,114
-476,547	800,000	0,012	-0,029
-475,532	-92,875	-0,070	-0,014
-474,518	-200,000	0,006	-0,097
-473,503	-200,000	0,009	-0,136
-472,489	-200,000	-0,045	0,145
-471,474	-200,000	0,003	-0,032
-470,459	21,312	0,072	0,042
-469,445	83,131	0,060	-0,047
-468,430	238,943	-0,010	-0,012
-467,416	179,405	0,099	-0,104
-466,401	384,183	0,026	0,039
-465,386	-200,000	-0,006	-0,024
-464,372	142,431	0,055	0,052
-463,357	-200,000	-0,013	-0,164
-462,343	-101,584	-0,141	0,024
-461,328	92,014	-0,097	-0,078
-460,313	92,753	0,066	0,054
-459,299	-63,818	0,148	-0,043
-458,284	-156,413	0,106	0,005
-457,270	800,000	0,024	0,065
-456,255	800,000	-0,068	0,193
-455,241	-100,139	-0,099	-0,017
-454,226	-200,000	0,007	-0,088
-453,211	182,037	0,092	0,097
-452,197	-200,000	-0,006	-0,034
-451,182	800,000	0,046	-0,101
-450,168	-170,058	0,130	0,003
-449,153	70,769	-0,047	-0,035
-448,138	174,127	-0,125	-0,129
-447,124	57,382	0,022	-0,016
-446,109	-200,000	0,012	-0,084
-445,095	-53,266	0,019	-0,006
-444,080	-200,000	-0,019	0,061
-443,065	-200,000	0,003	0,051
-442,051	104,254	0,007	-0,006
-441,036	-126,562	-0,033	0,003
-440,022	105,809	-0,094	-0,080
-439,007	-110,136	-0,043	-0,006
-437,992	177,880	-0,023	-0,024
-436,978	-200,000	-0,001	0,007
-435,963	154,339	0,081	0,080
-434,949	800,000	0,026	-0,063
-433,934	570,359	-0,060	-0,106
-432,919	-97,747	-0,068	0,012
-431,905	-56,722	0,116	0,037
-430,890	253,388	0,047	-0,058
-429,876	-200,000	0,040	0,143
-428,861	-114,573	0,131	0,018
-427,846	800,000	-0,021	-0,063
-426,832	800,000	0,044	0,106
-425,817	-200,000	-0,000	-0,010
-424,803	800,000	0,032	-0,096
-423,788	494,434	-0,036	0,060
-422,773	800,000	-0,018	0,051
-421,759	800,000	0,067	0,172
-420,744	-146,276	-0,037	0,002
-419,730	800,000	0,027	-0,053
-418,715	101,767	-0,126	0,106
-417,701	800,000	-0,039	-0,112
-416,686	-200,000	-0,002	0,141
-415,671	-32,878	-0,020	-0,008
-414,657	413,873	0,078	-0,120
-413,642	375,001	-0,095	0,139
-412,628	-93,733	-0,140	-0,027
-411,613	573,421	0,083	-0,146
-410,598	-200,000	-0,007	-0,045
-409,584	109,495	0,029	-0,025
-408,569	53,182	-0,058	0,040
-407,555	-200,000	0,006	-0,036
-406,540	773,384	-0,084	0,164
-405,525	-96,999	-0,021	-0,004
-404,511	-200,000	0,014	-0,089
-403,496	91,842	-0,122	-0,099
-402,482	2,724	-0,031	0,016
-401,467	12,083	0,066	-0,036
-400,452	106,506	0,065	-0,055
-399,438	110,471	0,113	0,097
-398,423	800,000	-0,054	0,111
-397,409	-3,670	0,069	0,034
-396,394	-3,548	-0,147	0,073
-395,379	234,914	-0,089	-0,105
-394,365	-122,274	0,039	0,004
-393,350	153,074	-0,085	-0,083
-392,336	54,476	0,056	-0,039
-391,321	398,633	0,045	-0,068
-390,306	55,955	-0,075	0,052
-389,292	22,996	-0,135	0,079
-388,277	201,134	-0,034	-0,037
-387,263	-90,364	0,063	0,013
-386,248	-200,000	-0,007	0,066
-385,233	-52,257	0,168	0,056
-384,219	800,000	0,020	0,055
-383,204	800,000	-0,072	-0,181
-382,190	-200,000	-0,034	-0,140
-381,175	800,000	-0,004	-0,011
-380,160	789,663	0,039	-0,077
-379,146	-200,000	-0,010	0,083
-378,131	800,000	0,058	0,120
-377,117	131,932	-0,071	0,065
-376,102	377,407	0,063	0,092
-375,088	686,954	0,046	0,087
-374,073	800,000	0,025	-0,066
-373,058	-200,000	0,013	-0,105
-372,044	287,490	0,090	0,117
-371,029	106,625	-0,069	-0,059
-370,015	185,344	-0,046	0,049
-369,000	36,733	-0,136	0,086
-367,985	-200,000	-0,023	0,087
-366,971	-33,773	0,018	-0,007
-365,956	234,433	0,077	-0,091
-364,942	691,839	0,085	0,160
-363,927	86,437	0,154	0,122
-362,912	-200,000	0,019	0,084
-361,898	-200,000	0,005	-0,040
-360,883	-200,000	0,018	0,133
-359,869	-25,042	0,055	-0,023
-358,854	83,494	0,046	-0,036
-357,839	87,979	0,076	-0,060
-356,825	-159,633	0,022	-0,001
-355,810	23,152	-0,032	0,019
-354,796	-200,000	-0,008	-0,045
-353,781	46,995	-0,105	-0,070
-352,766	-52,891	0,156	-0,051
-351,752	597,464	0,016	-0,028
-350,737	-68,255	0,127	-0,035
-349,723	-200,000	-0,016	0,124
-348,708	603,202	-0,090	0,161
-347,693	800,000	0,041	-0,095
-346,679	133,982	-0,080	-0,074
-345,664	556,563	-0,094	-0,162
-344,650	-27,320	-0,090	0,037
-343,635	-127,490	0,096	0,010
-342,620	138,584	0,078	0,073
-341,606	419,127	-0,022	0,033
-340,591	-200,000	0,017	0,148
-339,577	-200,000	-0,013	-0,176
-338,562	-200,000	0,012	-0,151
-337,548	412,439	0,035	0,053
-336,533	699,149	-0,037	-0,070
-335,518	155,717	0,047	-0,046
-334,504	-200,000	-0,015	-0,047
-333,489	-72,320	-0,093	0,024
-332,475	639,290	-0,074	-0,134
-331,460	273,537	0,150	-0,190
-330,445	369,666	0,029	0,043
-329,431	-200,000	0,043	0,172
-328,416	800,000	-0,021	0,064
-327,402	211,669	-0,008	0,010
-326,387	247,899	0,042	-0,051
-325,372	-127,344	-0,042	0,004
-324,358	-200,000	-0,004	-0,052
-323,343	-200,000	0,009	0,036
-322,329	800,000	0,023	0,049
-321,314	448,586	0,074	-0,117
-320,299	342,051	-0,037	0,051
-319,285	-149,527	0,039	0,002
-318,270	31,424	0,028	0,017
-317,256	63,239	-0,051	-0,036
-316,241	-54,441	-0,083	-0,027
-315,226	60,865	0,058	-0,041
-314,212	-98,446	0,124	0,022
-313,197	-200,000	-0,009	0,135
-312,183	-200,000	-0,000	0,153
-311,168	162,878	-0,041	0,041
-310,153	800,000	-0,025	0,065
-309,139	343,201	0,071	-0,100
-308,124	796,578	-0,017	0,034
-307,110	-8,683	0,061	-0,029
-306,095	81,838	0,066	-0,051
-305,080	800,000	0,013	-0,027
-304,066	666,200	-0,074	0,136
-303,051	-76,017	-0,101	0,025
-302,037	-45,604	-0,021	-0,008
-301,022	257,604	-0,029	-0,035
-300,008	-21,606	0,047	-0,021
-298,993	615,303	0,025	0,044
-297,978	-41,269	0,024	0,009
-296,964	-200,000	0,026	0,163
-295,949	29,675	-0,203	-0,123
-294,935	92,641	0,052	-0,042
-293,920	190,153	0,078	0,083
-292,905	-101,455	0,016	-0,003
-291,891	24,268	0,072	0,042
-290,876	-200,000	0,039	0,179
-289,862	-200,000	-0,007	0,170
-288,847	116,638	-0,076	-0,067
-287,832	161,127	-0,040	-0,040
-286,818	520,928	-0,032	-0,053
-285,803	386,248	0,026	-0,039
-284,789	800,000	0,021	-0,059
-283,774	147,639	0,079	0,075
-282,759	-32,124	0,126	0,050
-281,745	-200,000	0,001	0,018
-280,730	-138,751	-0,139	-0,011
-279,716	-48,415	0,022	-0,007
-278,701	22,806	0,122	0,071
-277,686	273,467	0,062	0,078
-276,672	-200,000	0,006	-0,031
-275,657	800,000	-0,020	-0,062
-274,643	121,129	-0,038	-0,034
-273,628	-34,151	0,017	-0,007
-272,613	164,927	-0,022	-0,022
-271,599	-200,000	0,007	-0,021
-270,584	252,495	0,012	0,015
-269,570	800,000	0,063	0,152
-268,555	38,795	0,032	-0,021
-267,540	536,745	0,025	-0,042
-266,526	421,894	0,079	-0,121
-265,511	-131,733	-0,166	-0,015
-264,497	689,118	-0,016	0,029
-263,482	-98,416	0,184	0,033
-262,467	-200,000	-0,011	0,086
-261,453	639,002	-0,087	0,159
-260,438	800,000	0,014	0,041
-259,424	800,000	0,045	0,115
-258,409	257,532	-0,044	0,054
-257,395	-200,000	-0,012	0,047
-256,380	-18,155	-0,099	-0,044
-255,365	-200,000	0,010	-0,051
-254,351	-120,379	-0,115	0,014
-253,336	800,000	0,047	-0,099
-252,322	-116,120	-0,222	0,029
-251,307	-200,000	-0,031	-0,191
-250,292	-100,303	0,069	-0,012
-249,278	88,903	0,076	0,060
-248,263	-200,000	-0,032	0,145
-247,249	232,197	-0,107	0,125
-246,234	-131,114	0,049	0,005
-245,219	307,270	-0,098	-0,130
-244,205	800,000	0,028	-0,073
-243,190	-200,000	-0,019	0,093
-242,176	-41,894	0,096	-0,035
-241,161	-74,785	0,096	0,024
-240,146	-21,548	-0,074	-0,032
-239,132	-200,000	0,023	0,090
-238,117	60,501	0,076	-0,053
-237,103	-200,000	-0,019	-0,119
-236,088	314,205	-0,086	0,116
-235,073	214,803	0,106	0,120
-234,059	-109,203	0,065	0,010
-233,044	-62,780	-0,082	0,024
-232,030	60,298	-0,158	-0,111
-231,015	-200,000	-0,018	-0,078
-230,000	-62,146	-0,064	-0,019
-228,986	78,317	-0,093	-0,071
-227,971	-173,371	0,124	0,003
-226,957	-41,807	-0,057	0,021
-225,942	-200,000	-0,006	-0,120
-224,927	800,000	0,017	-0,040
-223,913	40,218	-0,128	0,082
-222,898	-200,000	0,017	0,079
-221,884	800,000	0,081	-0,176
-220,869	42,617	-0,010	0,006
-219,855	-117,473	-0,006	0,001
-218,840	800,000	-0,018	0,048
-217,825	236,017	-0,053	0,062
-216,811	538,408	0,027	0,046
-215,796	-200,000	0,001	-0,039
-214,782	-181,409	-0,088	0,001
-213,767	-200,000	0,038	0,182
-212,752	447,977	0,048	0,076
-211,738	-118,339	0,063	0,008
-210,723	800,000	0,031	0,087
-209,709	-200,000	0,011	-0,116
-208,694	800,000	-0,036	-0,092
-207,679	-90,025	-0,109	-0,022
-206,665	662,339	0,012	0,022
-205,650	-200,000	-0,011	0,156
-204,636	800,000	0,021	0,052
-203,621	213,625	0,093	0,104
-202,606	40,948	-0,169	0,108
-201,592	-88,772	-0,057	-0,012
-200,577	26,221	-0,146	-0,086
-199,563	800,000	0,014	0,030
-198,548	469,268	-0,039	0,062
-197,533	135,738	0,018	-0,017
-196,519	641,424	0,033	0,059
-195,504	-200,000	-0,012	-0,135
-194,490	-200,000	0,001	-0,068
-193,475	-10,135	-0,130	0,061
-192,460	47,404	0,043	0,028
-191,446	-48,082	0,165	-0,056
-190,431	126,555	-0,067	0,060
-189,417	147,298	0,025	0,024
-188,402	800,000	0,026	0,081
-187,387	173,088	0,055	-0,056
-186,373	-85,881	0,053	0,011
-185,358	129,474	-0,095	-0,086
-184,344	297,056	0,069	0,090
-183,329	-200,000	0,018	0,149
-182,315	-7,213	0,167	0,080
-181,300	-200,000	0,028	0,095
-180,285	-43,157	0,024	0,009
-179,271	-200,000	-0,007	-0,091
-178,256	-80,838	-0,072	-0,017
-177,242	763,782	0,052	0,100
-176,227	800,000	0,036	0,102
-175,212	-200,000	-0,021	0,118
-174,198	-200,000	0,011	0,115
-173,183	-200,000	0,000	0,034
-172,169	-87,174	0,085	0,018
-171,154	-200,000	-0,002	0,120
-170,139	235,266	0,057	0,067
-169,125	767,539	-0,037	-0,072
-168,110	113,144	-0,104	-0,090
-167,096	3,308	-0,034	0,017
-166,081	363,833	0,023	-0,033
-165,066	-124,192	-0,096	-0,011
-164,052	-11,879	0,061	-0,028
-163,037	340,485	-0,065	-0,091
-162,023	-93,963	0,176	0,034
-161,008	-200,000	-0,019	0,181
-159,993	70,064	0,053	0,039
-158,979	125,312	-0,086	0,077
-157,964	800,000	-0,020	-0,045
-156,950	-135,019	0,052	-0,004
-155,935	81,099	-0,046	-0,035
-154,920	800,000	0,030	-0,084
-153,906	-200,000	0,029	0,093
-152,891	491,746	0,011	-0,018
-151,877	159,232	-0,032	0,031
-150,862	-106,767	-0,109	-0,017
-149,847	-200,000	-0,005	0,038
-148,833	264,802	-0,050	0,062
-147,818	298,656	0,028	0,036
-146,804	-200,000	0,021	0,074
-145,789	-200,000	0,007	0,126
-144,775	-91,903	0,026	0,005
-143,760	-200,000	0,011	-0,061
-142,745	-24,517	0,110	0,046
-141,731	423,851	-0,068	0,104
-140,716	62,306	-0,097	0,069
-139,702	800,000	0,021	0,049
-138,687	296,210	-0,062	0,081
-137,672	800,000	-0,032	0,071
-136,658	-89,111	-0,088	-0,018
-135,643	-146,733	-0,043	0,003
-134,629	800,000	0,026	0,076
-133,614	170,738	-0,069	0,070
-132,599	-76,352	0,189	-0,047
-131,585	-200,000	0,017	0,099
-130,570	40,278	-0,021	0,013
-129,556	170,544	-0,079	0,081
-128,541	348,465	-0,048	-0,067
-127,526	796,104	-0,023	-0,044
-126,512	-55,019	0,067	-0,021
-125,497	-200,000	0,017	0,080
-124,483	-200,000	0,009	-0,088
-123,468	589,122	0,043	-0,075
-122,453	-0,431	-0,087	-0,043
-121,439	403,779	0,043	-0,065
-120,424	800,000	-0,036	0,071
-119,410	-200,000	0,013	0,137
-118,395	179,126	-0,080	0,082
-117,380	800,000	-0,041	0,104
-116,366	74,123	-0,058	-0,043
-115,351	-29,518	-0,057	-0,023
-114,337	144,021	-0,099	-0,093
-113,322	-9,052	-0,130	-0,061
-112,307	-200,000	0,021	0,186
-111,293	181,206	-0,078	0,082
-110,278	130,585	0,022	0,020
-109,264	-165,147	0,127	0,004
-108,249	183,677	-0,072	0,076
-107,234	800,000	-0,018	-0,043
-106,220	-200,000	-0,030	-0,111
-105,205	349,715	0,104	0,146
-104,191	687,029	0,060	0,112
-103,176	-70,377	0,112	0,030
-102,162	200,187	-0,095	-0,103
-101,147	462,605	0,038	-0,060
-100,132	303,796	-0,025	0,033
-99,118	-126,107	-0,006	-0,001
-98,103	277,124	-0,025	0,032
-97,089	282,893	0,105	0,133
-96,074	-95,786	0,129	0,024
-95,059	800,000	-0,043	0,103
-94,045	-137,252	-0,136	-0,011
-93,030	-175,920	-0,106	0,002
-92,016	258,121	-0,046	0,056
-91,001	-20,278	0,051	-0,022
-89,986	-182,769	0,133	0,002
-88,972	170,810	-0,075	-0,076
-87,957	48,744	-0,053	-0,035
-86,943	800,000	0,076	0,159
-85,928	357,309	-0,102	-0,144
-84,913	789,646	-0,058	-0,114
-83,899	-24,144	-0,039	-0,016
-82,884	193,685	-0,077	0,083
-81,870	13,234	0,191	0,104
-80,855	800,000	-0,009	-0,027
-79,840	-200,000	0,008	0,062
-78,826	-94,745	0,089	-0,017
-77,811	-200,000	0,004	0,046
-76,797	800,000	0,027	-0,054
-75,782	-1,258	0,085	0,042
-74,767	44,289	-0,067	0,043
-73,753	-200,000	-0,023	0,119
-72,738	307,058	-0,042	0,056
-71,724	-200,000	-0,006	-0,064
-70,709	326,551	0,031	-0,041
-69,694	-184,489	-0,036	-0,000
-68,680	800,000	-0,012	0,030
-67,665	228,271	0,019	-0,021
-66,651	209,772	-0,062	0,069
-65,636	641,138	-0,040	0,072
-64,622	174,557	-0,094	-0,096
-63,607	496,068	-0,047	-0,077
-62,592	657,142	-0,036	-0,066
-61,578	781,203	-0,046	0,089
-60,563	63,471	0,128	0,091
-59,549	48,263	-0,234	0,155
-58,534	9,661	-1,791	-0,956
-57,519	481,926	-1,247	-2,007
-56,505	-200,000	-0,307	-4,371
-55,490	360,945	0,980	1,390
-54,476	800,000	4,905	11,020
-53,461	-200,000	20,317	328,514
-52,446	800,000	750,740	2314,731
-51,432	551,032	1658,482	2821,079
-50,417	74,680	1665,865	1236,204
-49,403	19,605	1539,015	871,802
-48,388	13,635	1461,104	798,774
-47,373	18,764	1451,593	818,189
-46,359	16,382	1441,224	800,961
-45,344	11,890	1436,732	777,032
-44,330	11,790	1434,756	775,454
-43,315	11,788	1433,223	774,589
-42,300	11,837	1431,252	773,724
-41,286	11,884	1429,949	773,214
-40,271	11,827	1428,802	772,293
-39,257	11,811	1427,422	771,438
-38,242	11,865	1426,212	771,011
-37,227	11,864	1425,216	770,437
-36,213	11,834	1423,962	769,585
-35,198	11,855	1422,721	768,985
-34,184	11,897	1421,822	768,668
-33,169	11,881	1420,125	767,644
-32,154	11,912	1419,473	767,408
-31,140	11,889	1418,073	766,513
-30,125	11,925	1416,947	766,042
-29,111	11,903	1415,897	765,341
-28,096	11,886	1414,536	764,494
-27,082	11,806	1413,689	763,632
-26,067	11,779	1412,600	762,886
-25,052	11,815	1411,370	762,358
-24,038	11,834	1410,261	761,820
-23,023	11,772	1409,503	761,090
-22,009	11,841	1408,403	760,789
-20,994	11,748	1407,656	759,917
-19,979	11,776	1406,769	759,538
-18,965	11,760	1405,844	758,937
-17,950	11,788	1404,772	758,458
-16,936	11,744	1404,074	757,847
-15,921	11,708	1402,808	756,965
-14,906	11,718	1401,935	756,511
-13,892	11,764	1401,124	756,256
-12,877	11,758	1400,276	755,741
-11,863	11,743	1399,248	755,089
-10,848	11,693	1398,280	754,302
-9,833	11,625	1397,737	753,666
-8,819	11,634	1396,748	753,142
-7,804	11,596	1395,799	752,423
-6,790	11,610	1394,916	751,984
-5,775	11,664	1393,628	751,511
-4,760	11,663	1392,905	751,085
-3,746	11,645	1391,920	750,439
-2,731	11,637	1391,101	749,935
-1,717	11,614	1390,190	749,308
-0,702	11,639	1388,248	748,345
0,313	15,751	1303,700	721,609
1,327	32,153	696,905	423,230
2,342	50,368	121,320	80,775
3,356	3,579	16,378	8,400
4,371	10,281	3,297	1,764
5,386	4,526	0,730	0,377
6,400	800,000	0,131	0,315
7,415	-111,851	-0,200	-0,028
8,429	245,039	-0,217	-0,258
9,444	17,156	-0,355	-0,198
10,459	-7,334	-0,311	-0,148
11,473	194,450	-0,223	-0,239
12,488	-92,927	-0,356	-0,070
13,502	97,906	-0,293	-0,237
14,517	22,380	-0,342	-0,197
15,531	-10,800	-0,445	-0,206
16,546	166,984	-0,312	-0,312
17,561	40,338	-0,327	-0,207
18,575	-71,875	-0,191	-0,050
19,590	106,402	-0,256	-0,214
20,604	85,726	-0,235	-0,182
21,619	180,093	-0,282	-0,291
22,634	71,336	-0,368	-0,268
23,648	34,446	-0,515	-0,316
24,663	55,782	-0,350	-0,238
25,677	259,022	-0,244	-0,297
26,692	-153,585	-0,282	-0,013
27,707	-14,235	-0,422	-0,191
28,721	77,118	-0,443	-0,331
29,736	-1,576	-0,535	-0,265
30,750	48,178	-0,423	-0,278
31,765	190,466	-0,272	-0,288
32,780	136,418	-0,288	-0,265
33,794	134,303	-0,275	-0,251
34,809	79,942	-0,483	-0,365
35,823	38,742	-0,317	-0,199
36,838	193,030	-0,292	-0,310
37,853	70,372	-0,347	-0,252
38,867	-2,773	-0,344	-0,168
39,882	39,620	-0,259	-0,163
40,896	126,205	-0,311	-0,277
41,911	-14,373	-0,379	-0,171
42,926	124,697	-0,287	-0,254
43,940	216,378	-0,353	-0,396
44,955	96,287	-0,502	-0,404
45,969	1,300	-0,434	-0,219
46,984	112,375	-0,347	-0,295
47,999	124,252	-0,290	-0,256
49,013	225,112	-0,229	-0,261
50,028	-13,975	-0,282	-0,128
51,042	35,386	-0,343	-0,211
52,057	112,807	-0,352	-0,300
53,071	78,470	-0,297	-0,222
54,086	57,610	-0,331	-0,227
55,101	42,185	-0,344	-0,219
56,115	-65,449	-0,313	-0,088
57,130	-7,523	-0,363	-0,172
58,144	-73,709	-0,369	-0,094
59,159	252,944	-0,319	-0,383
60,174	103,729	-0,384	-0,317
61,188	65,622	-0,307	-0,218
62,203	-38,035	-0,299	-0,111
63,217	-38,374	-0,334	-0,124
64,232	-94,744	-0,392	-0,074
65,247	62,463	-0,381	-0,266
66,261	59,907	-0,429	-0,297
67,276	-8,303	-0,352	-0,166
68,290	-25,269	-0,345	-0,143
69,305	63,764	-0,430	-0,303
70,320	-70,936	-0,301	-0,079
71,334	37,925	-0,257	-0,160
72,349	4,857	-0,345	-0,177
73,363	162,173	-0,182	-0,179
74,378	14,000	-0,454	-0,247
75,393	-169,927	-0,339	0,008
76,407	265,215	-0,169	-0,207
77,422	-122,752	-0,209	-0,023
78,436	-30,804	-0,283	-0,112
79,451	81,164	-0,319	-0,241
80,466	-17,669	-0,460	-0,202
81,480	240,817	-0,316	-0,370
82,495	105,729	-0,310	-0,257
83,509	-35,740	-0,163	-0,062
84,524	-56,080	-0,315	-0,098
85,539	9,849	-0,284	-0,151
86,553	-45,433	-0,299	-0,103
87,568	-10,027	-0,369	-0,171
88,582	-0,678	-0,305	-0,151
89,597	56,097	-0,241	-0,164
90,611	20,678	-0,244	-0,138
91,626	179,970	-0,197	-0,202
92,641	68,307	-0,236	-0,169
93,655	101,855	-0,231	-0,189
94,670	88,406	-0,290	-0,225
95,684	316,987	-0,137	-0,182
96,699	-78,803	-0,339	-0,080
97,714	67,404	-0,304	-0,216
98,728	-73,002	-0,252	-0,064
99,743	62,504	-0,351	-0,245
100,757	-11,266	-0,183	-0,084
101,772	130,865	-0,243	-0,218
102,787	18,253	-0,406	-0,226
103,801	-66,143	-0,268	-0,074
104,816	178,885	-0,350	-0,358
105,830	104,425	-0,232	-0,191
106,845	64,993	-0,217	-0,153
107,860	151,751	-0,262	-0,250
108,874	161,523	-0,285	-0,278
109,889	362,363	-0,194	-0,273
110,903	121,633	-0,251	-0,219
111,918	533,749	-0,170	-0,283
112,933	404,285	-0,122	-0,181
113,947	-59,138	-0,270	-0,081
114,962	231,888	-0,249	-0,286
115,976	241,452	-0,195	-0,228
116,991	-19,387	-0,422	-0,182
118,006	28,313	-0,274	-0,161
119,020	32,359	-0,243	-0,146
120,035	132,889	-0,214	-0,193
121,049	-131,101	-0,275	-0,025
122,064	-200,000	-0,095	-0,296
123,079	151,511	-0,271	-0,257
124,093	-139,424	-0,386	-0,028
125,108	-80,624	-0,294	-0,068
126,122	49,226	-0,282	-0,185
127,137	117,921	-0,258	-0,222
128,151	-87,257	-0,200	-0,042
129,166	-18,518	-0,216	-0,093
130,181	-135,926	-0,261	-0,021
131,195	-38,781	-0,299	-0,109
132,210	123,548	-0,297	-0,260
133,224	-54,303	-0,357	-0,112
134,239	800,000	-0,097	-0,192
135,254	336,635	-0,192	-0,260
136,268	121,337	-0,300	-0,260
137,283	-21,387	-0,242	-0,103
138,297	6,684	-0,222	-0,115
139,312	194,086	-0,338	-0,357
140,327	119,527	-0,231	-0,199
141,341	157,330	-0,196	-0,189
142,356	-59,047	-0,238	-0,071
143,370	43,874	-0,252	-0,161
144,385	166,690	-0,169	-0,167
145,400	111,491	-0,263	-0,221
146,414	-7,107	-0,286	-0,135
147,429	84,668	-0,195	-0,149
148,443	164,793	-0,179	-0,176
149,458	63,167	-0,154	-0,108
150,473	9,151	-0,357	-0,188
151,487	69,901	-0,222	-0,159
152,502	-23,588	-0,247	-0,103
153,516	95,566	-0,340	-0,270
154,531	9,460	-0,273	-0,144
155,546	287,285	-0,152	-0,192
156,560	-144,551	-0,215	-0,014
157,575	17,694	-0,263	-0,145
158,589	6,731	-0,283	-0,146
159,604	212,133	-0,106	-0,117
160,619	-1,818	-0,200	-0,097
161,633	74,313	-0,218	-0,159
162,648	192,237	-0,198	-0,208
163,662	2,998	-0,279	-0,141
164,677	71,038	-0,170	-0,122
165,692	262,092	-0,184	-0,222
166,706	800,000	-0,091	-0,195
167,721	217,055	-0,227	-0,252
168,735	216,399	-0,234	-0,259
169,750	591,104	-0,091	-0,157
170,764	23,654	-0,182	-0,104
171,779	-8,941	-0,122	-0,056
172,794	157,046	-0,217	-0,209
173,808	-56,101	-0,193	-0,059
174,823	253,858	-0,280	-0,333
175,837	-64,325	-0,227	-0,064
176,852	-21,683	-0,179	-0,075
177,867	-50,528	-0,218	-0,071
178,881	11,052	-0,239	-0,127
179,896	-133,094	-0,240	-0,021
180,910	800,000	-0,108	-0,232
181,925	43,716	-0,220	-0,139
182,940	23,606	-0,305	-0,174
183,954	296,334	-0,102	-0,131
184,969	49,486	-0,210	-0,137
185,983	61,313	-0,143	-0,098
186,998	-51,419	-0,221	-0,071
188,013	50,086	-0,267	-0,174
189,027	-24,855	-0,284	-0,116
190,042	-140,003	-0,167	-0,012
191,056	201,704	-0,115	-0,123
192,071	800,000	-0,067	-0,159
193,086	46,550	-0,217	-0,139
194,100	103,401	-0,129	-0,105
195,115	-40,286	-0,159	0,057
196,129	195,547	-0,160	-0,168
197,144	800,000	-0,136	-0,273
198,159	-145,586	-0,096	0,006
199,173	175,591	-0,162	-0,163
200,188	249,555	-0,130	-0,153
201,202	-124,701	-0,234	0,025
202,217	205,215	-0,206	-0,222
203,232	105,104	-0,256	-0,209
204,246	71,924	-0,208	-0,150
205,261	55,402	-0,227	-0,152
206,275	57,058	-0,151	-0,102
207,290	709,340	-0,155	-0,285
208,304	553,204	-0,093	-0,156
209,319	-107,535	-0,101	-0,015
210,334	226,295	-0,180	-0,202
211,348	-64,020	-0,256	-0,072
212,363	-60,247	-0,300	-0,088
213,377	3,312	-0,165	-0,083
214,392	-43,901	-0,253	-0,088
215,407	-85,185	-0,250	-0,054
216,421	10,966	-0,156	0,082
217,436	186,427	-0,110	-0,114
218,450	83,200	-0,171	-0,129
219,465	58,082	-0,263	-0,178
220,480	460,866	-0,186	-0,288
221,494	3,165	-0,219	-0,110
222,509	-47,747	-0,141	-0,047
223,523	8,574	-0,260	-0,135
224,538	-1,040	-0,204	-0,100
225,553	695,291	-0,111	-0,202
226,567	325,848	-0,130	-0,173
227,582	50,090	-0,307	-0,200
228,596	170,535	-0,220	-0,218
229,611	29,293	-0,124	-0,072
230,626	-42,799	-0,149	-0,052
231,640	87,066	-0,148	-0,113
232,655	-117,947	-0,259	-0,032
233,669	14,125	-0,282	-0,152
234,684	-20,312	-0,093	-0,039
235,699	65,429	-0,125	-0,088
236,713	161,010	-0,058	0,056
237,728	35,309	-0,116	-0,070
238,742	-99,912	-0,226	-0,039
239,757	59,685	-0,116	-0,079
240,772	800,000	-0,063	-0,184
241,786	293,668	-0,174	-0,220
242,801	319,442	-0,185	-0,243
243,815	-110,173	-0,195	-0,028
244,830	-175,689	-0,147	-0,003
245,844	228,786	-0,177	-0,200
246,859	800,000	-0,099	-0,269
247,874	95,733	-0,175	-0,138
248,888	-32,720	-0,193	-0,074
249,903	-52,034	-0,181	-0,058
250,917	-140,215	-0,124	-0,009
251,932	-76,903	-0,212	-0,051
252,947	-7,072	-0,146	-0,068
253,961	800,000	-0,149	-0,304
254,976	43,342	-0,195	-0,123
255,990	349,884	-0,144	-0,197
257,005	800,000	-0,067	-0,150
258,020	-200,000	-0,007	-0,100
259,034	-45,390	-0,147	-0,050
260,049	149,373	-0,176	-0,165
261,063	266,213	-0,142	-0,171
262,078	75,406	-0,151	-0,110
263,093	124,021	-0,224	-0,194
264,107	64,536	-0,185	-0,128
265,122	-200,000	0,010	-0,101
266,136	94,398	-0,116	-0,091
267,151	81,121	-0,079	-0,059
268,166	13,151	-0,207	-0,110
269,180	308,530	-0,079	-0,102
270,195	239,353	-0,192	-0,221
271,209	-31,019	-0,231	-0,090
272,224	229,535	-0,274	-0,308
273,239	419,246	-0,164	-0,243
274,253	-200,000	-0,029	-0,119
275,268	-101,438	-0,117	-0,020
276,282	-16,711	-0,278	-0,121
277,297	19,436	-0,236	-0,130
278,312	-20,758	-0,248	-0,104
279,326	800,000	-0,098	-0,207
280,341	-85,391	-0,147	-0,031
281,355	-66,714	-0,136	-0,037
282,370	49,528	-0,192	-0,124
283,384	-2,035	-0,274	-0,132
284,399	8,677	-0,192	-0,099
285,414	25,480	-0,102	-0,058
286,428	152,083	-0,113	-0,106
287,443	316,146	-0,111	-0,144
288,457	-131,057	-0,126	-0,011
289,472	-20,296	-0,079	-0,033
290,487	71,657	-0,174	-0,124
291,501	80,598	-0,259	-0,192
292,516	75,110	-0,177	-0,128
293,530	-17,579	-0,163	-0,070
294,545	463,439	-0,029	0,045
295,560	421,891	-0,060	-0,089
296,574	99,380	-0,189	-0,150
297,589	215,974	-0,198	-0,216
298,603	800,000	-0,043	-0,104
299,618	398,990	-0,095	-0,138
300,633	172,102	-0,131	-0,130
301,647	7,434	-0,114	-0,059
302,662	-200,000	0,038	-0,257
303,676	-9,794	-0,175	-0,080
304,691	-150,088	-0,135	-0,007
305,706	144,176	-0,168	-0,154
306,720	322,121	-0,129	-0,169
307,735	-25,588	-0,184	-0,074
308,749	-133,176	-0,167	-0,014
309,764	18,388	-0,147	0,081
310,779	-112,812	-0,227	-0,031
311,793	-69,037	-0,193	-0,051
312,808	233,530	-0,168	-0,190
313,822	0,187	-0,172	-0,084
314,837	107,033	-0,090	-0,073
315,852	134,980	-0,139	-0,124
316,866	331,239	-0,065	-0,086
317,881	201,398	-0,107	-0,113
318,895	-200,000	0,018	-0,155
319,910	252,616	-0,109	-0,127
320,925	233,868	-0,136	-0,154
321,939	-94,211	-0,130	0,024
322,954	-194,743	-0,122	-0,001
323,968	6,568	-0,113	0,057
324,983	95,458	-0,091	-0,071
325,997	-129,467	-0,234	0,022
327,012	259,849	-0,194	-0,230
328,027	188,725	-0,177	-0,182
329,041	415,631	-0,152	-0,223
330,056	800,000	-0,059	-0,175
331,070	550,963	-0,139	-0,230
332,085	115,796	-0,133	-0,112
333,100	117,494	-0,180	-0,152
334,114	-57,339	-0,247	-0,074
335,129	137,965	-0,185	-0,166
336,143	48,659	-0,090	-0,058
337,158	83,050	-0,186	-0,138
338,173	117,645	-0,073	-0,062
339,187	33,085	-0,145	-0,086
340,202	120,891	-0,049	-0,042
341,216	189,667	-0,183	-0,189
342,231	32,668	-0,143	-0,085
343,246	-200,000	-0,040	-0,152
344,260	4,564	-0,167	-0,083
345,275	800,000	-0,028	-0,058
346,289	111,298	-0,100	-0,083
347,304	-81,216	-0,134	-0,030
348,319	-67,905	-0,214	-0,057
349,333	252,866	-0,026	-0,031
350,348	62,908	-0,062	-0,042
351,362	-40,304	-0,112	-0,040
352,377	800,000	-0,065	-0,145
353,392	227,622	-0,123	-0,137
354,406	84,670	-0,093	-0,070
355,421	208,384	1314,772	1408,016
356,435	160,344	1475,480	1408,503
