DTS Sentinel unit serial number:	SN410029Multiplexer serial number:	ORYXHardware model number:	OX2-SRSoftware version number:	ORYX F/W v4,00 Oryx Data Collector v3.7.2.0data status	okinstallation	B3 Nyhavnadifferential loss correction	single-endedforward channel	channel 1reverse channel	N/Adate	2023/12/03time	19:17:30forward acquisition time	300,00reverse acquisition time	0,00gamma	499,1914k internal	0,3198k external	0,3198temperature offset calibration	1,0000default loss term (dB/km)	0,3820temperature slope calibration	1,0000multiplexer offset coefficient	1,0000multiplexer slope coefficient	1,0000fibre end	0,00T internal ref (°C)	14,31T ext. ref 1 (°C)	-1,02T ext. ref 2 (°C)	-1,03length (m)	temperature (°C)	Stokes	anti-Stokes-744,400	78,620	-0,131	-0,102
-743,385	-200,000	0,055	0,271
-742,371	76,667	-0,160	-0,123
-741,356	-200,000	-0,026	0,333
-740,342	220,985	-0,204	-0,238
-739,327	-200,000	-0,031	0,462
-738,312	163,990	-0,281	-0,288
-737,298	-200,000	0,015	0,337
-736,283	118,891	-0,203	-0,183
-735,269	-200,000	0,123	0,423
-734,254	532,726	-0,192	-0,333
-733,239	-1,607	-0,296	0,151
-732,225	307,564	-0,150	-0,204
-731,210	163,383	0,108	0,111
-730,196	-149,208	0,022	0,001
-729,181	8,587	-0,046	0,025
-728,167	-200,000	0,002	-0,060
-727,152	-69,892	-0,107	0,029
-726,137	-200,000	-0,002	0,049
-725,123	-63,540	-0,130	0,039
-724,108	20,358	-0,066	0,039
-723,094	-200,000	0,012	-0,091
-722,079	83,678	-0,043	-0,034
-721,064	40,332	0,078	-0,051
-720,050	-42,808	-0,055	-0,020
-719,035	-107,713	-0,126	0,020
-718,021	267,933	0,043	0,055
-717,006	-50,777	0,070	-0,024
-715,991	61,459	-0,045	0,032
-714,977	79,196	0,014	-0,011
-713,962	9,684	-0,145	-0,080
-712,948	800,000	-0,030	-0,076
-711,933	-200,000	-0,030	0,105
-710,918	55,770	-0,092	0,065
-709,904	-200,000	0,006	-0,029
-708,889	-100,801	0,020	0,003
-707,875	800,000	-0,110	-0,280
-706,860	22,500	0,095	-0,057
-705,845	-23,486	-0,120	0,052
-704,831	218,551	0,042	0,048
-703,816	-97,885	0,038	0,007
-702,802	740,798	0,054	0,106
-701,787	-144,253	-0,194	0,013
-700,772	241,600	-0,006	0,007
-699,758	29,802	0,099	0,061
-698,743	-200,000	-0,031	0,155
-697,729	-200,000	-0,010	-0,060
-696,714	574,565	0,036	0,064
-695,699	-106,937	-0,015	0,002
-694,685	-200,000	-0,009	-0,114
-693,670	-200,000	0,011	-0,070
-692,656	-76,141	-0,016	-0,004
-691,641	-200,000	-0,006	-0,035
-690,627	-112,903	0,096	0,014
-689,612	66,665	-0,045	0,033
-688,597	-153,651	0,018	0,001
-687,583	-200,000	0,002	-0,028
-686,568	-200,000	0,011	-0,074
-685,554	140,648	-0,081	-0,078
-684,539	109,858	-0,047	0,041
-683,524	435,593	0,074	-0,117
-682,510	800,000	0,038	0,114
-681,495	-59,721	0,151	-0,047
-680,481	-65,983	0,155	-0,045
-679,466	100,802	-0,106	-0,089
-678,451	-200,000	-0,001	-0,187
-677,437	53,007	0,064	0,044
-676,422	343,720	-0,033	0,047
-675,408	192,237	0,086	0,095
-674,393	800,000	0,034	-0,104
-673,378	800,000	-0,050	0,103
-672,364	188,319	-0,029	-0,031
-671,349	-121,222	0,056	0,007
-670,335	-28,237	-0,033	-0,014
-669,320	-200,000	0,013	-0,059
-668,305	-200,000	-0,016	-0,090
-667,291	154,786	0,042	0,042
-666,276	800,000	0,023	0,051
-665,262	-4,236	-0,084	-0,042
-664,247	-26,272	-0,029	0,012
-663,232	-200,000	0,001	0,120
-662,218	107,380	0,095	0,082
-661,203	236,368	-0,015	0,018
-660,189	-200,000	-0,008	0,086
-659,174	51,374	-0,054	-0,037
-658,159	800,000	0,042	-0,093
-657,145	282,827	0,038	-0,050
-656,130	379,525	0,070	-0,105
-655,116	-78,916	0,051	0,013
-654,101	-84,125	0,081	-0,018
-653,086	155,417	-0,072	0,072
-652,072	-77,368	0,054	0,014
-651,057	349,307	-0,008	0,012
-650,043	-178,556	0,098	-0,002
-649,028	800,000	-0,060	0,139
-648,014	286,854	-0,065	0,085
-646,999	-200,000	0,026	0,099
-645,984	-151,167	-0,073	0,004
-644,970	-200,000	0,009	-0,058
-643,955	75,633	-0,107	0,082
-642,941	656,451	0,076	-0,143
-641,926	159,992	-0,082	0,083
-640,911	800,000	0,015	0,042
-639,897	-58,547	-0,063	-0,020
-638,882	613,178	0,052	-0,095
-637,868	277,839	-0,041	-0,053
-636,853	248,320	-0,063	-0,077
-635,838	800,000	-0,030	-0,093
-634,824	201,039	-0,058	-0,065
-633,809	-25,603	0,052	-0,022
-632,795	-85,176	0,080	0,018
-631,780	634,247	-0,050	0,092
-630,765	22,324	-0,054	0,032
-629,751	-200,000	-0,015	-0,074
-628,736	800,000	-0,056	-0,152
-627,722	-200,000	0,011	-0,161
-626,707	-63,918	0,049	0,014
-625,692	-200,000	0,007	-0,033
-624,678	-70,130	-0,085	-0,023
-623,663	800,000	0,028	0,081
-622,649	328,430	0,076	-0,107
-621,634	-91,108	-0,007	0,001
-620,619	482,005	0,124	-0,205
-619,605	142,287	-0,048	-0,046
-618,590	-23,869	0,124	-0,053
-617,576	85,726	0,025	-0,020
-616,561	-156,745	0,194	0,009
-615,546	-200,000	0,007	0,098
-614,532	-200,000	-0,003	-0,049
-613,517	-200,000	-0,000	0,005
-612,503	-200,000	0,013	0,093
-611,488	-200,000	-0,015	0,101
-610,474	800,000	0,042	0,099
-609,459	219,627	0,079	0,092
-608,444	-21,320	-0,057	0,025
-607,430	302,729	-0,140	-0,188
-606,415	-98,060	-0,095	-0,018
-605,401	53,518	-0,121	-0,084
-604,386	-200,000	-0,007	-0,049
-603,371	-200,000	0,001	-0,114
-602,357	127,027	-0,093	0,085
-601,342	108,862	0,168	0,145
-600,328	41,596	-0,153	-0,100
-599,313	800,000	-0,021	-0,063
-598,298	63,900	0,114	0,083
-597,284	-58,755	-0,116	0,036
-596,269	-200,000	0,006	0,155
-595,255	800,000	0,036	-0,079
-594,240	-200,000	-0,010	-0,071
-593,225	800,000	-0,042	-0,103
-592,211	-106,326	0,047	0,008
-591,196	-200,000	0,037	-0,126
-590,182	800,000	-0,058	0,122
-589,167	556,581	-0,041	0,072
-588,152	-36,280	0,089	-0,035
-587,138	-167,152	0,004	0,000
-586,123	16,174	-0,075	-0,043
-585,109	800,000	-0,040	-0,110
-584,094	113,836	-0,114	-0,100
-583,079	-91,637	0,314	-0,064
-582,065	-194,377	0,214	-0,001
-581,050	800,000	-0,065	-0,144
-580,036	324,098	-0,065	-0,090
-579,021	32,377	-0,104	0,065
-578,006	-200,000	0,062	-0,229
-576,992	-200,000	0,013	-0,068
-575,977	-200,000	0,018	0,089
-574,963	649,022	0,051	0,094
-573,948	-85,483	0,089	0,020
-572,934	21,729	0,050	0,029
-571,919	-200,000	0,042	-0,155
-570,904	800,000	0,054	-0,128
-569,890	196,158	-0,084	-0,092
-568,875	5,586	0,150	0,080
-567,861	-70,259	0,126	0,034
-566,846	-174,329	0,153	-0,003
-565,831	-132,400	0,150	0,014
-564,817	-103,085	-0,167	-0,028
-563,802	416,743	-0,099	-0,154
-562,788	800,000	-0,028	-0,066
-561,773	67,568	-0,064	0,047
-560,758	197,757	0,042	0,046
-559,744	-200,000	0,012	0,048
-558,729	-38,785	-0,093	0,035
-557,715	-200,000	-0,021	-0,117
-556,700	194,338	-0,054	-0,059
-555,685	-200,000	-0,020	-0,065
-554,671	-75,327	-0,078	0,020
-553,656	-58,421	0,110	0,034
-552,642	255,058	-0,072	-0,089
-551,627	-200,000	0,012	0,139
-550,612	63,913	0,040	-0,029
-549,598	800,000	0,039	0,099
-548,583	800,000	-0,076	-0,204
-547,569	271,207	-0,088	-0,112
-546,554	62,195	0,094	0,068
-545,539	318,914	0,059	0,081
-544,525	79,293	0,024	-0,018
-543,510	-200,000	0,012	0,143
-542,496	114,853	0,103	-0,090
-541,481	-200,000	-0,021	-0,123
-540,466	800,000	0,011	0,026
-539,452	-138,853	-0,078	0,006
-538,437	-200,000	0,030	0,099
-537,423	-200,000	-0,035	0,131
-536,408	-176,074	-0,075	-0,001
-535,393	630,489	0,015	0,028
-534,379	-13,909	-0,052	-0,024
-533,364	-180,139	0,030	-0,000
-532,350	-99,146	0,146	0,026
-531,335	350,661	0,053	-0,075
-530,321	-200,000	-0,007	-0,057
-529,306	-6,264	-0,142	0,070
-528,291	-200,000	-0,007	-0,144
-527,277	800,000	0,033	-0,103
-526,262	-41,052	0,131	0,049
-525,248	93,783	-0,064	0,052
-524,233	-200,000	0,006	-0,024
-523,218	37,578	0,099	0,063
-522,204	-27,791	0,076	0,032
-521,189	71,476	-0,026	-0,019
-520,175	-113,715	-0,115	-0,016
-519,160	-71,820	0,025	0,007
-518,145	-200,000	-0,009	-0,066
-517,131	347,521	0,067	0,095
-516,116	40,037	-0,077	-0,050
-515,102	-200,000	-0,019	0,062
-514,087	81,592	-0,028	-0,022
-513,072	-200,000	0,003	-0,037
-512,058	546,221	-0,032	0,055
-511,043	-200,000	0,003	-0,015
-510,029	0,139	0,135	-0,069
-509,014	-35,891	0,106	0,041
-507,999	-50,771	0,090	0,030
-506,985	800,000	-0,020	-0,045
-505,970	336,255	-0,092	-0,129
-504,956	-200,000	-0,020	-0,129
-503,941	345,258	0,087	-0,124
-502,926	-200,000	0,003	0,123
-501,912	-39,189	-0,048	0,018
-500,897	800,000	-0,017	-0,036
-499,883	101,183	0,081	0,068
-498,868	800,000	-0,005	-0,015
-497,853	133,107	-0,049	-0,045
-496,839	-158,674	-0,093	-0,004
-495,824	-62,869	-0,094	-0,028
-494,810	-200,000	0,036	0,216
-493,795	-26,235	0,043	0,018
-492,781	27,050	-0,075	-0,045
-491,766	-200,000	-0,001	-0,079
-490,751	-200,000	0,008	-0,130
-489,737	303,954	-0,048	-0,065
-488,722	2,458	-0,065	0,034
-487,708	411,968	0,028	0,043
-486,693	800,000	0,018	0,040
-485,678	-200,000	-0,001	-0,009
-484,664	-145,669	-0,127	0,008
-483,649	-17,376	0,015	0,007
-482,635	800,000	0,021	-0,062
-481,620	355,265	-0,062	-0,090
-480,605	69,137	-0,032	0,024
-479,591	27,538	0,044	-0,026
-478,576	-200,000	-0,007	-0,090
-477,562	449,952	0,085	0,136
-476,547	42,704	-0,125	-0,082
-475,532	105,902	-0,109	-0,093
-474,518	213,343	0,119	-0,136
-473,503	-77,721	0,095	0,024
-472,489	800,000	0,045	-0,119
-471,474	-200,000	0,011	0,055
-470,459	110,898	-0,134	0,116
-469,445	-64,856	-0,065	-0,019
-468,430	20,187	-0,040	-0,023
-467,416	519,640	0,050	0,085
-466,401	11,667	0,086	0,047
-465,386	800,000	0,076	0,168
-464,372	-200,000	0,010	0,111
-463,357	-49,601	-0,028	-0,010
-462,343	-200,000	0,013	-0,087
-461,328	60,537	0,046	0,033
-460,313	-200,000	-0,007	-0,027
-459,299	115,463	0,084	0,074
-458,284	-200,000	0,029	0,212
-457,270	192,535	-0,115	0,125
-456,255	-200,000	-0,007	0,096
-455,241	507,737	-0,059	0,099
-454,226	-97,804	-0,081	-0,015
-453,211	723,137	-0,047	-0,091
-452,197	-48,339	0,102	0,035
-451,182	-200,000	-0,018	0,059
-450,168	141,521	0,075	-0,072
-449,153	-46,020	-0,047	0,017
-448,138	146,898	-0,036	0,035
-447,124	-195,646	0,061	-0,000
-446,109	555,537	-0,060	-0,105
-445,095	-200,000	0,039	-0,207
-444,080	215,208	-0,035	-0,040
-443,065	486,984	0,052	0,085
-442,051	201,347	0,041	-0,046
-441,036	800,000	0,030	-0,088
-440,022	23,881	-0,077	0,045
-439,007	800,000	-0,036	-0,099
-437,992	-27,253	0,091	0,038
-436,978	588,914	-0,088	0,156
-435,963	469,619	0,045	-0,073
-434,949	202,189	-0,025	-0,028
-433,934	-140,546	0,021	-0,002
-432,919	77,097	-0,095	0,073
-431,905	291,254	0,089	-0,116
-430,890	-119,389	0,049	-0,006
-429,876	394,422	0,070	0,105
-428,861	800,000	0,083	0,185
-427,846	293,987	-0,017	0,023
-426,832	-80,934	-0,094	0,022
-425,817	415,409	-0,094	-0,145
-424,803	-200,000	-0,017	-0,174
-423,788	112,795	0,053	-0,046
-422,773	-22,828	-0,026	0,011
-421,759	-200,000	0,003	0,108
-420,744	-106,240	0,133	-0,021
-419,730	-114,504	-0,107	0,015
-418,715	-33,914	-0,165	-0,065
-417,701	39,903	-0,115	-0,074
-416,686	800,000	0,054	-0,149
-415,671	45,869	-0,038	0,025
-414,657	-90,602	0,077	0,016
-413,642	-200,000	-0,011	-0,041
-412,628	-200,000	-0,004	-0,024
-411,613	-200,000	0,011	-0,163
-410,598	353,532	0,018	0,026
-409,584	78,195	-0,097	0,074
-408,569	45,996	0,178	0,118
-407,555	52,422	-0,146	0,100
-406,540	-56,996	0,031	-0,010
-405,525	-200,000	0,005	-0,075
-404,511	-32,215	0,048	-0,019
-403,496	0,815	0,059	0,030
-402,482	800,000	0,006	0,014
-401,467	-200,000	-0,009	0,089
-400,452	195,043	-0,042	0,045
-399,438	9,268	0,014	-0,008
-398,423	315,971	-0,015	0,020
-397,409	715,384	-0,028	-0,054
-396,394	800,000	-0,035	-0,090
-395,379	-64,939	-0,030	0,009
-394,365	800,000	-0,061	0,152
-393,350	-34,609	0,029	0,011
-392,336	693,926	0,049	-0,092
-391,321	-200,000	0,030	0,105
-390,306	65,989	-0,142	-0,103
-389,292	-200,000	0,043	-0,142
-388,277	93,984	-0,042	-0,034
-387,263	-120,947	-0,005	-0,001
-386,248	-141,878	-0,063	0,004
-385,233	7,675	-0,082	0,044
-384,219	119,127	0,065	-0,058
-383,204	-200,000	0,004	-0,020
-382,190	350,062	0,067	-0,095
-381,175	-125,429	-0,061	0,007
-380,160	-29,174	0,087	0,035
-379,146	90,140	0,043	0,035
-378,131	800,000	0,064	0,148
-377,117	-200,000	0,004	0,037
-376,102	27,711	0,105	0,063
-375,088	-135,021	-0,020	0,002
-374,073	-51,237	0,056	0,019
-373,058	-171,828	0,131	0,003
-372,044	296,109	-0,026	-0,035
-371,029	-71,732	0,080	0,021
-370,015	-146,907	-0,060	-0,004
-369,000	-200,000	0,030	0,118
-367,985	-200,000	-0,017	-0,065
-366,971	800,000	0,033	-0,085
-365,956	451,539	-0,058	0,091
-364,942	-69,548	0,059	0,016
-363,927	119,540	0,120	0,106
-362,912	-5,560	-0,065	0,032
-361,898	348,684	0,106	-0,151
-360,883	-64,195	-0,041	-0,012
-359,869	5,790	-0,097	0,051
-358,854	-108,121	0,079	-0,012
-357,839	129,814	0,089	0,082
-356,825	-31,948	0,118	0,047
-355,810	1,525	0,091	0,047
-354,796	111,600	-0,055	0,047
-353,781	321,846	-0,011	0,015
-352,766	157,329	-0,149	-0,148
-351,752	-144,289	-0,125	-0,008
-350,737	258,685	-0,068	-0,084
-349,723	-200,000	0,011	0,053
-348,708	-93,212	0,168	-0,033
-347,693	-63,730	-0,030	-0,009
-346,679	-116,343	0,081	0,011
-345,664	401,452	0,097	0,146
-344,650	-6,852	0,071	-0,035
-343,635	-200,000	-0,015	0,080
-342,620	240,598	0,037	0,045
-341,606	329,526	0,035	0,048
-340,591	-16,987	-0,040	0,018
-339,577	213,030	-0,003	-0,003
-338,562	-83,264	0,060	0,014
-337,548	-40,179	-0,043	0,016
-336,533	38,085	0,009	0,006
-335,518	657,440	-0,115	0,212
-334,504	125,794	0,096	0,087
-333,489	24,779	-0,015	0,009
-332,475	563,845	-0,065	0,113
-331,460	283,747	0,053	0,069
-330,445	800,000	-0,014	0,040
-329,431	690,542	-0,037	0,071
-328,416	-56,063	-0,018	0,006
-327,402	43,917	0,108	0,071
-326,387	-200,000	-0,001	-0,038
-325,372	316,301	-0,019	0,025
-324,358	-200,000	-0,032	-0,116
-323,343	-139,329	-0,046	0,003
-322,329	-64,089	0,037	-0,011
-321,314	398,989	0,050	-0,075
-320,299	8,986	-0,074	0,040
-319,285	-200,000	0,039	-0,189
-318,270	143,267	0,047	-0,045
-317,256	-52,342	-0,070	0,023
-316,241	16,802	-0,076	-0,043
-315,226	320,036	0,079	-0,107
-314,212	-200,000	-0,019	0,135
-313,197	103,058	0,028	-0,023
-312,183	612,894	0,070	0,126
-311,168	168,783	-0,084	0,085
-310,153	153,792	-0,153	-0,150
-309,139	347,524	0,095	-0,135
-308,124	-68,415	0,044	-0,012
-307,110	-158,039	-0,104	-0,004
-306,095	142,463	-0,032	0,030
-305,080	784,780	-0,068	0,134
-304,066	-200,000	-0,016	0,055
-303,051	800,000	0,065	-0,133
-302,037	-182,691	-0,067	0,001
-301,022	800,000	0,026	0,081
-300,008	-148,864	-0,021	-0,001
-298,993	-200,000	0,001	0,083
-297,978	32,641	-0,099	0,061
-296,964	-69,907	-0,029	-0,008
-295,949	-200,000	-0,022	-0,121
-294,935	748,076	0,035	-0,069
-293,920	2,420	0,041	0,021
-292,905	-200,000	0,035	0,127
-291,891	605,595	-0,031	-0,056
-290,876	-200,000	0,022	-0,109
-289,862	-74,535	0,126	0,032
-288,847	800,000	-0,034	-0,091
-287,832	74,227	-0,065	-0,049
-286,818	-200,000	-0,024	0,080
-285,803	800,000	0,003	0,006
-284,789	-164,726	-0,062	0,002
-283,774	52,928	0,032	0,022
-282,759	-114,224	-0,084	-0,011
-281,745	-125,379	-0,066	0,007
-280,730	401,324	-0,106	0,159
-279,716	-89,421	0,094	-0,020
-278,701	276,205	0,049	0,063
-277,686	-130,962	0,024	-0,002
-276,672	800,000	-0,046	0,122
-275,657	-200,000	0,000	0,040
-274,643	-200,000	-0,035	-0,132
-273,628	84,600	-0,036	-0,028
-272,613	422,597	0,067	-0,102
-271,599	152,419	0,108	0,106
-270,584	-200,000	0,024	0,134
-269,570	49,968	0,075	-0,051
-268,555	-200,000	-0,008	-0,029
-267,540	-200,000	-0,009	0,048
-266,526	389,236	-0,058	-0,086
-265,511	-155,650	0,182	0,008
-264,497	-182,740	-0,067	-0,001
-263,482	-54,521	0,141	0,045
-262,467	800,000	-0,035	0,082
-261,453	-200,000	-0,002	-0,011
-260,438	-69,023	-0,081	0,022
-259,424	-71,492	0,115	-0,030
-258,409	-27,142	0,070	0,029
-257,395	-46,163	-0,086	-0,030
-256,380	800,000	-0,056	-0,121
-255,365	286,158	0,056	0,072
-254,351	114,459	0,031	-0,027
-253,336	-46,177	0,035	0,012
-252,322	-200,000	-0,030	-0,094
-251,307	183,215	-0,052	-0,055
-250,292	-200,000	-0,021	0,117
-249,278	-200,000	0,003	0,017
-248,263	-200,000	-0,005	0,117
-247,249	92,675	0,080	0,064
-246,234	-5,210	-0,132	0,064
-245,219	-116,327	-0,103	-0,013
-244,205	153,278	-0,168	-0,164
-243,190	593,079	-0,102	-0,181
-242,176	-36,427	-0,069	-0,027
-241,161	-111,701	-0,111	-0,016
-240,146	40,869	0,121	0,078
-239,132	-96,178	0,050	0,009
-238,117	-17,328	-0,118	-0,053
-237,103	204,355	-0,112	-0,124
-236,088	28,436	0,061	-0,037
-235,073	-49,619	0,081	0,028
-234,059	221,568	0,067	0,077
-233,044	26,596	0,123	-0,073
-232,030	108,750	-0,125	-0,107
-231,015	149,826	0,029	0,028
-230,000	-200,000	0,004	0,076
-228,986	51,107	-0,047	0,032
-227,971	-200,000	-0,020	0,088
-226,957	258,762	-0,027	0,033
-225,942	91,343	0,116	0,093
-224,927	459,838	-0,067	-0,107
-223,913	522,453	0,008	-0,013
-222,898	31,909	-0,170	0,104
-221,884	204,002	-0,088	-0,097
-220,869	23,930	0,085	0,050
-219,855	-148,864	0,053	-0,003
-218,840	-200,000	-0,045	0,173
-217,825	672,782	0,070	0,130
-216,811	39,758	-0,045	0,029
-215,796	-200,000	-0,006	-0,071
-214,782	-200,000	0,034	-0,144
-213,767	5,440	0,078	-0,041
-212,752	211,215	-0,135	0,151
-211,738	24,961	0,050	-0,030
-210,723	-200,000	-0,041	0,151
-209,709	-53,656	-0,020	0,006
-208,694	-72,705	-0,194	0,051
-207,679	33,719	-0,046	0,028
-206,665	-157,556	0,110	0,005
-205,650	167,133	-0,055	0,055
-204,636	70,809	0,153	0,113
-203,621	64,713	-0,131	0,094
-202,606	-200,000	0,008	-0,026
-201,592	800,000	0,048	-0,099
-200,577	-123,813	0,118	0,013
-199,563	-200,000	0,005	-0,041
-198,548	-91,458	0,086	0,017
-197,533	151,863	0,016	0,016
-196,519	421,060	0,018	0,027
-195,504	67,005	-0,054	-0,039
-194,490	-77,396	-0,105	0,026
-193,475	78,216	-0,084	-0,064
-192,460	375,642	-0,040	-0,058
-191,446	-200,000	0,002	0,026
-190,431	-200,000	0,016	0,168
-189,417	-5,037	0,048	0,023
-188,402	28,858	-0,076	-0,045
-187,387	800,000	0,073	-0,201
-186,373	-63,833	-0,059	0,017
-185,358	800,000	0,035	0,075
-184,344	97,502	-0,032	0,026
-183,329	543,222	0,111	0,189
-182,315	800,000	0,032	-0,100
-181,300	397,758	-0,035	0,052
-180,285	-200,000	-0,008	-0,038
-179,271	-76,928	0,087	-0,021
-178,256	430,507	0,016	-0,024
-177,242	193,602	-0,051	-0,055
-176,227	-200,000	0,002	0,093
-175,212	-200,000	0,025	0,140
-174,198	-169,722	-0,207	-0,005
-173,183	-130,817	-0,120	0,011
-172,169	800,000	-0,068	-0,174
-171,154	7,339	0,068	0,036
-170,139	397,830	0,092	0,137
-169,125	8,049	0,153	0,081
-168,110	-200,000	-0,001	0,103
-167,096	131,833	-0,063	-0,058
-166,081	208,876	0,095	-0,106
-165,066	479,777	0,045	0,072
-164,052	10,474	-0,116	-0,063
-163,037	-179,061	0,112	0,002
-162,023	-200,000	0,001	0,021
-161,008	95,063	0,078	-0,063
-159,993	318,150	-0,090	0,122
-158,979	-108,911	0,055	-0,008
-157,964	-140,304	-0,070	0,005
-156,950	589,585	0,038	-0,067
-155,935	120,709	0,087	-0,077
-154,920	125,217	0,056	0,050
-153,906	-200,000	-0,006	0,119
-152,891	-38,012	-0,079	0,030
-151,877	283,196	-0,090	0,115
-150,862	488,717	0,017	0,028
-149,847	147,270	0,024	-0,023
-148,833	104,197	0,079	0,066
-147,818	-139,125	0,044	-0,003
-146,804	-200,000	-0,006	0,044
-145,789	-167,101	0,053	0,001
-144,775	-80,553	-0,018	0,004
-143,760	-200,000	0,005	0,035
-142,745	-200,000	-0,006	0,036
-141,731	94,450	0,025	-0,020
-140,716	104,057	0,087	0,073
-139,702	290,589	0,091	0,117
-138,687	97,729	0,066	0,054
-137,672	549,656	0,021	0,037
-136,658	89,240	-0,090	0,071
-135,643	1,416	0,090	-0,046
-134,629	-200,000	-0,003	0,051
-133,614	-22,529	0,122	0,052
-132,599	-51,980	0,043	0,014
-131,585	-200,000	0,018	0,068
-130,570	186,246	-0,095	0,100
-129,556	-137,783	-0,134	-0,010
-128,541	226,166	-0,020	-0,024
-127,526	-63,973	-0,072	0,021
-126,512	40,848	0,051	0,033
-125,497	800,000	-0,052	0,160
-124,483	218,500	0,039	0,045
-123,468	161,542	-0,054	0,053
-122,453	-200,000	0,015	-0,086
-121,439	-123,504	-0,170	-0,019
-120,424	800,000	0,015	0,035
-119,410	-144,650	0,111	-0,007
-118,395	28,997	0,081	0,048
-117,380	-49,137	-0,066	0,022
-116,366	-200,000	0,007	-0,026
-115,351	69,941	-0,015	0,011
-114,337	0,310	-0,010	-0,005
-113,322	-200,000	0,022	-0,147
-112,307	-56,546	0,111	0,035
-111,293	197,636	0,046	0,049
-110,278	-62,971	-0,056	0,016
-109,264	58,462	0,005	0,004
-108,249	-90,848	-0,116	0,024
-107,234	-200,000	0,034	-0,126
-106,220	-41,381	-0,063	-0,023
-105,205	129,293	0,004	0,004
-104,191	-200,000	0,022	0,167
-103,176	-66,495	0,069	-0,019
-102,162	-200,000	0,002	0,044
-101,147	-200,000	0,012	-0,086
-100,132	34,703	-0,143	-0,088
-99,118	581,520	-0,026	0,046
-98,103	800,000	-0,060	0,181
-97,089	-87,648	0,066	-0,014
-96,074	-200,000	0,010	0,087
-95,059	-0,380	0,063	0,032
-94,045	127,880	-0,054	0,048
-93,030	-78,036	-0,079	-0,019
-92,016	-200,000	-0,013	0,077
-91,001	-15,482	-0,066	-0,030
-89,986	315,051	0,108	0,145
-88,972	631,420	-0,063	0,113
-87,957	24,535	-0,034	0,020
-86,943	742,543	-0,050	0,096
-85,928	-200,000	0,013	-0,041
-84,913	96,870	-0,038	0,031
-83,899	-81,154	-0,131	-0,030
-82,884	642,774	0,106	0,193
-81,870	-173,669	0,084	0,002
-80,855	-200,000	-0,002	0,150
-79,840	800,000	-0,067	0,132
-78,826	-150,377	0,118	0,006
-77,811	-155,014	-0,115	-0,005
-76,797	663,238	-0,036	-0,065
-75,782	-68,415	0,011	-0,003
-74,767	-12,410	-0,041	-0,019
-73,753	-70,620	0,017	-0,005
-72,738	-14,312	0,017	-0,008
-71,724	800,000	-0,010	-0,025
-70,709	-102,919	0,102	-0,017
-69,694	351,296	-0,033	-0,047
-68,680	800,000	-0,009	-0,020
-67,665	565,782	-0,042	-0,072
-66,651	-200,000	-0,007	0,101
-65,636	-117,730	-0,041	-0,005
-64,622	25,936	0,073	-0,043
-63,607	-200,000	0,052	-0,177
-62,592	-99,748	-0,204	0,036
-61,578	-116,565	0,206	-0,027
-60,563	-200,000	-0,017	-0,062
-59,549	-86,304	-0,082	0,018
-58,534	-67,393	-1,560	-0,432
-57,519	367,805	-1,477	-2,121
-56,505	-200,000	-0,541	-4,531
-55,490	270,464	0,986	1,231
-54,476	800,000	4,807	10,932
-53,461	-200,000	18,739	301,208
-52,446	800,000	734,540	2274,543
-51,432	562,522	1650,669	2841,183
-50,417	78,794	1668,846	1263,774
-49,403	22,244	1541,773	889,880
-48,388	16,157	1464,803	815,887
-47,373	17,755	1454,886	818,050
-46,359	16,990	1445,050	808,817
-45,344	14,443	1440,460	794,027
-44,330	14,333	1438,479	792,377
-43,315	14,352	1436,745	791,482
-42,300	14,370	1434,964	790,556
-41,286	14,429	1433,816	790,169
-40,271	14,384	1432,547	789,225
-39,257	14,338	1431,297	788,286
-38,242	14,429	1430,157	788,059
-37,227	14,472	1428,780	787,475
-36,213	14,456	1427,339	786,573
-35,198	14,401	1426,424	785,775
-34,184	14,429	1425,516	785,377
-33,169	14,361	1424,039	784,211
-32,154	14,414	1422,996	783,857
-31,140	14,406	1421,799	783,127
-30,125	14,472	1420,557	782,726
-29,111	14,444	1419,299	781,868
-28,096	14,378	1418,523	781,100
-27,082	14,344	1417,343	780,257
-26,067	14,371	1416,242	779,749
-25,052	14,376	1415,147	779,140
-24,038	14,334	1414,124	778,346
-23,023	14,310	1413,137	777,661
-22,009	14,279	1412,319	777,033
-20,994	14,323	1411,376	776,692
-19,979	14,254	1410,490	775,849
-18,965	14,287	1409,444	775,395
-17,950	14,260	1408,545	774,746
-16,936	14,308	1407,441	774,329
-15,921	14,228	1406,512	773,414
-14,906	14,234	1405,687	772,959
-13,892	14,223	1404,603	772,280
-12,877	14,218	1403,917	771,848
-11,863	14,256	1402,885	771,429
-10,848	14,214	1401,948	770,687
-9,833	14,197	1401,131	770,130
-8,819	14,178	1400,067	769,424
-7,804	14,173	1399,298	768,947
-6,790	14,133	1398,244	768,155
-5,775	14,154	1397,227	767,661
-4,760	14,174	1396,158	767,135
-3,746	14,128	1395,462	766,508
-2,731	14,085	1394,845	765,942
-1,717	14,113	1393,876	765,507
-0,702	14,090	1392,016	764,352
0,313	18,027	1309,950	737,501
1,327	34,476	705,518	435,303
2,342	52,716	124,021	83,789
3,356	1,489	16,646	8,450
4,371	5,576	3,190	1,663
5,386	34,614	0,506	0,312
6,400	-200,000	0,001	0,106
7,415	-15,088	-0,164	-0,074
8,429	73,941	-0,333	-0,247
9,444	117,654	-0,372	-0,324
10,459	94,305	-0,243	-0,195
11,473	47,238	-0,356	-0,234
12,488	44,532	-0,378	-0,245
13,502	27,943	-0,323	-0,192
14,517	1,135	-0,279	-0,141
15,531	86,245	-0,412	-0,321
16,546	96,220	-0,246	-0,199
17,561	-37,722	-0,362	-0,136
18,575	-39,480	-0,165	-0,061
19,590	206,386	-0,174	-0,192
20,604	291,367	-0,232	-0,299
21,619	51,668	-0,424	-0,285
22,634	270,884	-0,351	-0,438
23,648	276,273	-0,271	-0,341
24,663	202,421	-0,357	-0,390
25,677	115,002	-0,280	-0,241
26,692	17,363	-0,268	-0,150
27,707	82,030	-0,335	-0,257
28,721	-6,525	-0,386	-0,185
29,736	50,879	-0,448	-0,299
30,750	30,987	-0,428	-0,258
31,765	5,869	-0,447	-0,233
32,780	11,875	-0,411	-0,222
33,794	48,350	-0,273	-0,180
34,809	-12,927	-0,398	-0,182
35,823	90,884	-0,457	-0,361
36,838	80,609	-0,336	-0,256
37,853	99,205	-0,364	-0,297
38,867	26,199	-0,388	-0,228
39,882	129,667	-0,319	-0,287
40,896	56,524	-0,305	-0,209
41,911	-4,318	-0,418	-0,203
42,926	0,728	-0,382	-0,192
43,940	119,574	-0,271	-0,237
44,955	320,044	-0,251	-0,337
45,969	253,383	-0,306	-0,369
46,984	-61,875	-0,374	-0,110
47,999	-15,131	-0,345	-0,155
49,013	21,346	-0,378	-0,216
50,028	-52,445	-0,302	-0,098
51,042	139,274	-0,222	-0,206
52,057	259,710	-0,322	-0,393
53,071	51,378	-0,371	-0,248
54,086	24,647	-0,377	-0,219
55,101	37,863	-0,347	-0,217
56,115	90,218	-0,275	-0,216
57,130	119,429	-0,268	-0,233
58,144	-10,423	-0,350	-0,163
59,159	134,396	-0,311	-0,284
60,174	67,794	-0,397	-0,285
61,188	2,868	-0,369	-0,188
62,203	30,550	-0,354	-0,213
63,217	31,676	-0,313	-0,190
64,232	112,636	-0,253	-0,216
65,247	87,528	-0,401	-0,312
66,261	152,623	-0,265	-0,255
67,276	41,949	-0,391	-0,250
68,290	154,070	-0,311	-0,301
69,305	53,292	-0,402	-0,271
70,320	16,244	-0,353	-0,195
71,334	-43,859	-0,178	-0,063
72,349	58,487	-0,323	-0,223
73,363	520,600	-0,215	-0,356
74,378	110,391	-0,309	-0,261
75,393	-51,526	-0,402	-0,131
76,407	36,022	-0,243	-0,150
77,422	7,652	-0,351	-0,184
78,436	-101,507	-0,198	0,033
79,451	48,716	-0,301	-0,198
80,466	72,779	-0,295	-0,216
81,480	69,410	-0,273	-0,198
82,495	-35,481	-0,381	-0,145
83,509	38,180	-0,241	-0,151
84,524	-83,379	-0,355	-0,079
85,539	352,614	-0,215	-0,301
86,553	196,099	-0,214	-0,229
87,568	152,238	-0,193	-0,185
88,582	55,886	-0,266	-0,181
89,597	-6,980	-0,257	-0,122
90,611	-44,181	-0,312	-0,109
91,626	-1,432	-0,210	-0,104
92,641	651,462	-0,208	-0,377
93,655	22,955	-0,303	-0,174
94,670	42,726	-0,200	-0,128
95,684	4,690	-0,242	-0,124
96,699	98,350	-0,219	-0,177
97,714	43,253	-0,342	-0,219
98,728	381,259	-0,240	-0,347
99,743	-43,827	-0,312	-0,110
100,757	39,241	-0,261	-0,164
101,772	-0,958	-0,356	-0,176
102,787	181,079	-0,241	-0,249
103,801	74,269	-0,207	-0,152
104,816	-140,806	-0,327	0,023
105,830	318,159	-0,144	-0,191
106,845	182,191	-0,164	-0,170
107,860	143,340	-0,280	-0,262
108,874	4,435	-0,298	-0,153
109,889	200,681	-0,149	-0,161
110,903	-5,536	-0,319	-0,153
111,918	-85,848	-0,213	-0,046
112,933	84,059	-0,239	-0,183
113,947	-29,363	-0,236	-0,094
114,962	409,465	-0,152	-0,227
115,976	74,490	-0,180	-0,132
116,991	133,100	-0,216	-0,195
118,006	-104,387	-0,238	-0,038
119,020	-39,505	-0,252	-0,092
120,035	-63,107	-0,232	-0,067
121,049	-18,261	-0,195	-0,085
122,064	-57,531	-0,358	-0,109
123,079	42,112	-0,153	-0,097
124,093	114,812	-0,328	-0,280
125,108	-49,030	-0,304	-0,101
126,122	157,165	-0,125	-0,121
127,137	-156,899	-0,253	-0,011
128,151	-167,053	-0,340	-0,010
129,166	39,310	-0,232	-0,145
130,181	92,039	-0,233	-0,184
131,195	515,669	-0,121	-0,199
132,210	66,064	-0,329	-0,233
133,224	75,522	-0,307	-0,226
134,239	6,359	-0,223	-0,116
135,254	138,498	-0,166	-0,152
136,268	-39,831	-0,299	-0,109
137,283	-20,783	-0,253	-0,108
138,297	-18,418	-0,308	-0,134
139,312	-63,610	-0,329	-0,094
140,327	480,240	-0,181	-0,287
141,341	392,291	-0,192	-0,280
142,356	63,875	-0,287	-0,201
143,370	-31,153	-0,179	-0,070
144,385	125,695	-0,206	-0,182
145,400	-59,394	-0,283	-0,084
146,414	118,640	-0,310	-0,267
147,429	89,212	-0,311	-0,242
148,443	194,179	-0,192	-0,203
149,458	-64,473	-0,222	-0,063
150,473	-122,015	-0,370	-0,042
151,487	520,753	-0,154	-0,254
152,502	123,923	-0,110	-0,096
153,516	30,183	-0,353	-0,210
154,531	265,103	-0,276	-0,337
155,546	-200,000	-0,046	-0,152
156,560	458,488	-0,282	-0,439
157,575	-64,464	-0,285	-0,080
158,589	-16,850	-0,294	-0,129
159,604	39,447	-0,238	-0,149
160,619	80,931	-0,309	-0,233
161,633	-44,078	-0,332	-0,116
162,648	12,163	-0,294	-0,158
163,662	800,000	-0,088	-0,174
164,677	47,245	-0,144	-0,093
165,692	64,989	-0,170	-0,120
166,706	-61,443	-0,323	-0,094
167,721	115,979	-0,224	-0,191
168,735	81,223	-0,248	-0,187
169,750	141,819	-0,228	-0,210
170,764	800,000	-0,108	-0,284
171,779	-162,518	-0,128	0,004
172,794	-198,972	-0,259	0,001
173,808	123,178	-0,235	-0,205
174,823	137,973	-0,214	-0,196
175,837	70,451	-0,311	-0,224
176,852	161,833	-0,199	-0,195
177,867	-111,775	-0,177	-0,025
178,881	-33,454	-0,239	-0,092
179,896	-9,743	-0,201	-0,093
180,910	90,173	-0,255	-0,199
181,925	442,023	-0,165	-0,253
182,940	-200,000	-0,092	-0,308
183,954	113,228	-0,293	-0,247
184,969	-6,633	-0,238	-0,112
185,983	219,962	-0,158	-0,176
186,998	78,932	-0,238	-0,177
188,013	-24,480	-0,268	-0,111
189,027	82,807	-0,171	-0,129
190,042	148,455	-0,194	-0,182
191,056	6,701	-0,175	-0,090
192,071	800,000	-0,124	-0,285
193,086	390,940	-0,201	-0,292
194,100	80,056	-0,210	-0,157
195,115	-5,407	-0,262	-0,125
196,129	203,794	-0,138	-0,148
197,144	-6,240	-0,150	-0,071
198,159	133,047	-0,221	-0,198
199,173	-15,082	-0,167	-0,074
200,188	-122,720	-0,208	-0,023
201,202	74,576	-0,193	-0,141
202,217	246,886	-0,074	-0,087
203,232	94,806	-0,159	-0,125
204,246	-60,150	-0,287	-0,085
205,261	291,848	-0,114	-0,145
206,275	75,989	-0,261	-0,192
207,290	40,252	-0,109	-0,068
208,304	525,886	-0,055	-0,090
209,319	-126,107	-0,220	-0,023
210,334	-200,000	-0,030	-0,103
211,348	67,299	-0,257	-0,182
212,363	328,412	-0,187	-0,251
213,377	40,930	-0,256	-0,160
214,392	-56,548	-0,196	-0,060
215,407	208,887	-0,174	-0,190
216,421	128,502	-0,131	-0,116
217,436	23,963	-0,278	-0,159
218,450	103,160	-0,239	-0,194
219,465	65,352	-0,203	-0,142
220,480	127,588	-0,164	-0,144
221,494	219,407	-0,134	-0,149
222,509	-163,656	-0,131	-0,004
223,523	-136,983	-0,165	0,013
224,538	-28,199	-0,098	-0,039
225,553	1,171	-0,268	-0,133
226,567	167,732	-0,199	-0,197
227,582	-59,858	-0,217	-0,064
228,596	72,795	-0,129	-0,093
229,611	-64,581	-0,153	-0,043
230,626	59,512	-0,118	-0,081
231,640	-30,004	-0,173	-0,068
232,655	-35,910	-0,383	-0,143
233,669	447,343	-0,181	-0,277
234,684	276,254	-0,066	-0,082
235,699	52,482	-0,151	-0,100
236,713	800,000	-0,052	-0,113
237,728	-4,046	-0,220	-0,105
238,742	11,519	-0,179	-0,095
239,757	-8,608	-0,198	-0,092
240,772	147,329	-0,268	-0,251
241,786	36,705	-0,228	-0,139
242,801	-22,772	-0,246	-0,102
243,815	370,322	-0,110	-0,155
244,830	-75,707	-0,193	-0,047
245,844	-63,226	-0,147	-0,042
246,859	113,664	-0,127	-0,107
247,874	-140,825	-0,150	0,011
248,888	-71,523	-0,138	-0,035
249,903	77,042	-0,093	-0,068
250,917	43,046	-0,285	-0,180
251,932	-56,080	-0,218	0,067
252,947	-47,290	-0,137	0,046
253,961	-22,556	-0,272	-0,114
254,976	229,403	-0,227	-0,257
255,990	35,201	-0,325	-0,197
257,005	-43,734	-0,211	-0,073
258,020	-200,000	-0,038	-0,170
259,034	3,879	-0,130	-0,066
260,049	76,204	-0,207	-0,152
261,063	178,716	-0,143	-0,144
262,078	12,146	-0,204	-0,108
263,093	316,418	-0,148	-0,193
264,107	97,395	-0,180	-0,143
265,122	-137,265	-0,067	0,005
266,136	40,570	-0,177	-0,110
267,151	358,017	-0,086	-0,120
268,166	153,728	-0,181	-0,172
269,180	94,668	-0,256	-0,201
270,195	180,415	-0,190	-0,193
271,209	-87,988	-0,190	-0,039
272,224	125,519	-0,085	-0,074
273,239	72,784	-0,137	-0,099
274,253	-58,580	-0,148	-0,044
275,268	143,188	-0,154	-0,142
276,282	183,208	-0,128	-0,131
277,297	800,000	-0,097	-0,204
278,312	108,099	-0,240	-0,198
279,326	41,735	-0,177	-0,110
280,341	800,000	-0,059	-0,179
281,355	226,182	-0,193	-0,217
282,370	-105,955	-0,183	-0,028
283,384	800,000	-0,030	-0,077
284,399	222,750	0,046	0,052
285,414	5,277	-0,215	-0,109
286,428	-97,685	-0,101	-0,018
287,443	-200,000	-0,016	-0,210
288,457	182,818	-0,159	-0,162
289,472	-50,898	-0,179	-0,058
290,487	71,479	-0,273	-0,195
291,501	262,512	-0,160	-0,192
292,516	46,690	-0,231	-0,148
293,530	-6,345	-0,180	-0,085
294,545	-200,000	0,008	-0,094
295,560	759,803	-0,045	0,084
296,574	131,923	-0,073	-0,065
297,589	318,779	-0,107	-0,140
298,603	9,612	-0,241	-0,126
299,618	-7,626	-0,110	-0,051
300,633	83,579	-0,097	-0,073
301,647	-39,946	-0,215	-0,077
302,662	227,593	-0,173	-0,195
303,676	18,623	-0,100	0,055
304,691	10,597	-0,139	-0,073
305,706	480,775	-0,133	-0,209
306,720	382,255	-0,141	-0,201
307,735	5,902	-0,279	-0,142
308,749	231,842	-0,171	-0,194
309,764	800,000	-0,054	-0,142
310,779	-200,000	-0,048	-0,219
311,793	651,894	-0,110	-0,195
312,808	134,887	-0,190	-0,170
313,822	-7,963	-0,198	-0,091
314,837	67,149	-0,181	-0,127
315,852	487,630	-0,070	-0,111
316,866	-200,000	-0,004	0,016
317,881	-200,000	0,020	-0,112
318,895	5,961	-0,226	-0,115
319,910	-113,716	-0,042	0,006
320,925	-83,879	-0,153	-0,033
321,939	133,367	-0,194	-0,173
322,954	-12,699	-0,098	-0,044
323,968	94,580	-0,111	-0,087
324,983	106,355	-0,102	-0,083
325,997	-50,058	-0,060	0,019
327,012	90,099	-0,187	-0,144
328,027	-88,894	-0,143	-0,029
329,041	495,751	-0,111	-0,175
330,056	-200,000	-0,045	-0,242
331,070	-52,160	-0,100	-0,032
332,085	-123,791	-0,213	0,023
333,100	-86,983	-0,221	-0,046
334,114	1,638	-0,234	-0,115
335,129	9,411	-0,187	-0,097
336,143	-147,944	-0,029	-0,002
337,158	440,040	-0,071	-0,107
338,173	-159,115	-0,156	0,006
339,187	27,650	-0,104	-0,060
340,202	-200,000	-0,009	-0,051
341,216	-13,842	-0,081	-0,036
342,231	-128,248	-0,118	-0,011
343,246	800,000	-0,078	-0,161
344,260	-200,000	0,020	-0,113
345,275	7,920	-0,153	-0,079
346,289	159,532	-0,071	0,068
347,304	-36,590	-0,166	-0,061
348,319	-200,000	-0,032	-0,107
349,333	-25,880	-0,184	-0,074
350,348	-51,705	-0,163	-0,052
351,362	-200,000	0,019	-0,133
352,377	-200,000	-0,007	-0,068
353,392	800,000	-0,022	-0,060
354,406	40,870	-0,087	-0,054
355,421	208,160	1314,904	1412,405
356,435	160,155	1475,657	1412,895
