DTS Sentinel unit serial number:	SN410029Multiplexer serial number:	ORYXHardware model number:	OX2-SRSoftware version number:	ORYX F/W v4,00 Oryx Data Collector v3.7.2.0data status	okinstallation	B3 Nyhavnadifferential loss correction	single-endedforward channel	channel 1reverse channel	N/Adate	2023/12/04time	22:47:30forward acquisition time	300,00reverse acquisition time	0,00gamma	499,1914k internal	0,3200k external	0,3200temperature offset calibration	1,0000default loss term (dB/km)	0,3820temperature slope calibration	1,0000multiplexer offset coefficient	1,0000multiplexer slope coefficient	1,0000fibre end	0,00T internal ref (°C)	14,40T ext. ref 1 (°C)	-0,91T ext. ref 2 (°C)	-0,92length (m)	temperature (°C)	Stokes	anti-Stokes-744,400	72,778	-0,235	-0,178
-743,385	-200,000	0,012	0,263
-742,371	25,241	-0,255	-0,154
-741,356	-200,000	-0,015	0,350
-740,342	455,123	-0,130	-0,210
-739,327	-200,000	-0,043	0,366
-738,312	152,397	-0,244	-0,243
-737,298	800,000	0,088	0,282
-736,283	361,382	-0,249	-0,365
-735,269	-200,000	0,026	0,272
-734,254	63,488	-0,210	-0,153
-733,239	-5,235	-0,129	0,065
-732,225	308,570	-0,150	-0,205
-731,210	93,497	0,067	0,056
-730,196	800,000	-0,013	0,026
-729,181	-200,000	-0,013	0,065
-728,167	-200,000	0,035	0,113
-727,152	-123,222	-0,049	-0,006
-726,137	315,092	-0,141	-0,193
-725,123	304,621	-0,032	-0,043
-724,108	178,798	-0,037	-0,040
-723,094	800,000	-0,036	-0,088
-722,079	709,059	0,046	-0,088
-721,064	-126,236	0,090	-0,010
-720,050	78,070	0,035	-0,027
-719,035	79,672	-0,171	0,134
-718,021	-71,323	-0,117	0,032
-717,006	103,324	-0,080	0,068
-715,991	36,085	-0,069	0,044
-714,977	-200,000	-0,008	-0,115
-713,962	-200,000	0,001	-0,097
-712,948	-81,152	-0,142	0,034
-711,933	800,000	0,022	-0,058
-710,918	179,768	0,028	0,030
-709,904	656,367	-0,111	-0,208
-708,889	800,000	-0,069	-0,167
-707,875	245,629	0,040	-0,049
-706,860	-200,000	-0,021	0,103
-705,845	-79,997	0,133	0,032
-704,831	83,542	-0,094	0,075
-703,816	692,313	-0,014	0,028
-702,802	-33,232	0,054	-0,021
-701,787	-153,189	-0,121	-0,006
-700,772	286,124	-0,076	-0,100
-699,758	303,143	0,038	-0,052
-698,743	-200,000	-0,050	0,180
-697,729	315,654	0,018	-0,025
-696,714	618,004	-0,036	-0,066
-695,699	-151,812	0,023	0,001
-694,685	-200,000	0,002	0,056
-693,670	-200,000	0,001	0,044
-692,656	-105,408	0,045	0,007
-691,641	-200,000	0,040	0,146
-690,627	800,000	-0,041	-0,094
-689,612	133,296	0,055	-0,052
-688,597	-200,000	-0,018	0,143
-687,583	-200,000	-0,025	-0,082
-686,568	-200,000	-0,002	-0,032
-685,554	-68,386	-0,056	-0,016
-684,539	251,195	-0,023	0,028
-683,524	363,177	0,017	0,025
-682,510	-200,000	0,029	-0,155
-681,495	-200,000	0,020	0,074
-680,481	-200,000	0,013	-0,118
-679,466	99,995	-0,117	-0,099
-678,451	-113,573	-0,070	-0,010
-677,437	57,457	0,039	0,027
-676,422	220,509	0,107	-0,125
-675,408	-200,000	-0,007	0,072
-674,393	318,423	0,107	0,147
-673,378	-28,501	-0,051	-0,021
-672,364	-200,000	-0,009	0,072
-671,349	800,000	0,028	-0,072
-670,335	105,292	-0,091	-0,078
-669,320	216,842	0,136	-0,157
-668,305	234,373	0,072	-0,086
-667,291	-145,886	-0,058	0,004
-666,276	-52,102	0,071	-0,024
-665,262	800,000	0,038	-0,084
-664,247	-95,057	-0,151	-0,029
-663,232	-200,000	0,009	-0,146
-662,218	163,777	0,108	-0,110
-661,203	-200,000	-0,008	-0,042
-660,189	800,000	0,028	-0,079
-659,174	-65,612	-0,106	-0,031
-658,159	55,491	-0,112	-0,079
-657,145	-200,000	0,011	-0,096
-656,130	742,859	0,031	0,061
-655,116	-200,000	-0,002	-0,089
-654,101	187,878	-0,067	0,073
-653,086	613,157	0,036	-0,066
-652,072	-200,000	-0,007	-0,080
-651,057	-200,000	0,000	-0,051
-650,043	-166,054	0,101	0,003
-649,028	107,716	0,026	0,022
-648,014	-16,997	0,085	-0,039
-646,999	800,000	-0,066	0,169
-645,984	-200,000	-0,011	0,050
-644,970	-200,000	0,009	-0,125
-643,955	-200,000	-0,023	-0,151
-642,941	800,000	-0,020	0,052
-641,926	3,758	-0,056	-0,029
-640,911	-113,323	0,054	-0,008
-639,897	-147,024	0,119	0,007
-638,882	-200,000	-0,017	0,129
-637,868	-200,000	-0,031	0,213
-636,853	235,822	-0,031	-0,037
-635,838	65,795	-0,025	0,018
-634,824	517,211	0,020	0,034
-633,809	-200,000	0,006	0,060
-632,795	-105,014	0,045	0,007
-631,780	276,776	-0,078	0,101
-630,765	800,000	-0,007	0,015
-629,751	-103,151	-0,191	-0,032
-628,736	37,613	-0,137	-0,088
-627,722	800,000	0,043	-0,104
-626,707	-140,122	0,082	0,006
-625,692	800,000	0,028	-0,061
-624,678	800,000	-0,017	-0,043
-623,663	-126,966	-0,028	-0,003
-622,649	-8,025	-0,189	-0,092
-621,634	154,622	-0,075	-0,074
-620,619	800,000	-0,058	-0,130
-619,605	474,733	0,150	0,246
-618,590	-112,435	-0,050	-0,007
-617,576	-39,542	-0,138	0,052
-616,561	17,354	-0,077	0,044
-615,546	-200,000	-0,019	-0,075
-614,532	800,000	-0,088	-0,231
-613,517	-59,540	-0,079	-0,024
-612,503	122,458	0,060	0,054
-611,488	-200,000	0,092	0,000
-610,474	-200,000	-0,008	0,124
-609,459	353,434	-0,024	0,034
-608,444	293,736	-0,018	0,023
-607,430	-200,000	0,022	0,092
-606,415	8,670	-0,045	0,025
-605,401	167,152	-0,028	0,029
-604,386	-115,897	0,172	-0,023
-603,371	-29,341	-0,100	0,041
-602,357	603,363	0,061	0,110
-601,342	800,000	-0,017	0,046
-600,328	-56,836	-0,237	-0,075
-599,313	12,450	-0,079	0,044
-598,298	-21,616	0,028	0,012
-597,284	123,625	-0,042	-0,039
-596,269	346,216	0,026	0,038
-595,255	124,802	-0,128	-0,116
-594,240	-170,944	0,147	-0,004
-593,225	4,737	-0,095	-0,050
-592,211	126,563	-0,067	-0,061
-591,196	-200,000	-0,013	-0,137
-590,182	-38,780	0,116	-0,044
-589,167	20,722	0,139	0,081
-588,152	68,114	-0,070	0,051
-587,138	800,000	-0,021	0,057
-586,123	782,081	0,040	0,079
-585,109	-65,726	-0,052	0,015
-584,094	800,000	-0,068	-0,160
-583,079	-64,315	-0,057	0,017
-582,065	-172,742	0,136	-0,003
-581,050	800,000	0,036	-0,073
-580,036	-200,000	-0,013	0,049
-579,021	-51,613	-0,074	-0,025
-578,006	-200,000	-0,010	-0,039
-576,992	800,000	-0,030	-0,065
-575,977	-82,947	0,094	0,022
-574,963	-200,000	-0,001	0,038
-573,948	800,000	-0,032	0,082
-572,934	285,599	-0,098	0,128
-571,919	-200,000	-0,024	0,104
-570,904	-96,878	-0,079	0,015
-569,890	800,000	0,022	-0,060
-568,875	18,319	0,038	0,022
-567,861	800,000	-0,059	0,131
-566,846	22,805	0,068	0,040
-565,831	139,125	-0,042	-0,040
-564,817	260,869	0,063	-0,079
-563,802	47,296	-0,018	0,012
-562,788	-155,493	0,076	0,003
-561,773	543,525	-0,074	-0,128
-560,758	-200,000	-0,019	0,098
-559,744	129,007	-0,015	-0,014
-558,729	20,920	-0,116	-0,068
-557,715	127,082	-0,102	-0,093
-556,700	-108,614	0,130	-0,020
-555,685	800,000	0,024	-0,064
-554,671	-29,066	-0,075	-0,031
-553,656	-57,370	0,114	-0,036
-552,642	-200,000	0,070	0,250
-551,627	-200,000	-0,043	0,156
-550,612	-200,000	-0,008	-0,133
-549,598	87,919	-0,057	0,046
-548,583	800,000	0,056	-0,120
-547,569	-19,188	-0,103	0,046
-546,554	584,382	0,076	-0,135
-545,539	-200,000	0,003	-0,026
-544,525	782,896	-0,036	0,072
-543,510	-116,491	-0,063	0,008
-542,496	-72,585	-0,007	-0,002
-541,481	-43,543	-0,123	-0,045
-540,466	-85,900	0,086	-0,019
-539,452	-200,000	0,005	0,053
-538,437	-200,000	-0,009	0,081
-537,423	-200,000	-0,007	-0,092
-536,408	-200,000	0,002	-0,041
-535,393	-68,787	0,048	0,013
-534,379	-200,000	0,018	-0,100
-533,364	-151,069	0,240	-0,013
-532,350	-32,159	-0,095	-0,038
-531,335	800,000	-0,037	0,081
-530,321	81,534	0,052	0,040
-529,306	800,000	0,024	-0,065
-528,291	64,490	-0,031	0,022
-527,277	-200,000	0,022	-0,089
-526,262	-200,000	-0,004	-0,023
-525,248	15,945	-0,046	0,026
-524,233	-200,000	0,053	0,251
-523,218	319,468	0,050	0,069
-522,204	-200,000	-0,026	-0,173
-521,189	800,000	0,050	0,138
-520,175	183,240	-0,100	-0,107
-519,160	5,446	-0,046	0,025
-518,145	-200,000	-0,050	0,172
-517,131	-24,185	0,066	-0,028
-516,116	-101,549	0,127	0,022
-515,102	800,000	-0,085	0,222
-514,087	-32,586	-0,112	-0,045
-513,072	341,767	-0,066	-0,093
-512,058	-106,601	-0,047	-0,007
-511,043	76,299	-0,108	0,083
-510,029	202,250	-0,056	-0,062
-509,014	57,751	0,031	-0,022
-507,999	-200,000	0,006	0,061
-506,985	-163,163	-0,058	0,002
-505,970	800,000	0,030	-0,091
-504,956	-43,550	-0,020	-0,007
-503,941	12,401	0,065	0,036
-502,926	-200,000	0,000	0,064
-501,912	168,108	-0,040	-0,041
-500,897	203,964	0,081	-0,090
-499,883	283,732	-0,073	-0,094
-498,868	174,665	-0,067	0,070
-497,853	800,000	0,017	-0,049
-496,839	72,628	0,138	-0,103
-495,824	800,000	-0,027	0,082
-494,810	20,846	-0,014	-0,008
-493,795	-200,000	-0,021	-0,100
-492,781	800,000	0,044	0,119
-491,766	87,553	-0,117	0,094
-490,751	368,996	0,066	-0,096
-489,737	-200,000	0,029	-0,110
-488,722	331,155	-0,074	-0,103
-487,708	-120,400	-0,048	-0,006
-486,693	198,775	-0,021	0,023
-485,678	530,600	-0,035	-0,060
-484,664	800,000	-0,068	-0,202
-483,649	-200,000	-0,025	0,122
-482,635	286,878	-0,103	-0,135
-481,620	-200,000	0,003	-0,049
-480,605	48,683	0,108	0,073
-479,591	406,338	-0,031	-0,048
-478,576	800,000	-0,011	0,029
-477,562	800,000	-0,035	0,100
-476,547	-200,000	0,026	-0,096
-475,532	-121,596	0,092	-0,011
-474,518	-32,980	-0,067	0,027
-473,503	367,934	-0,071	0,104
-472,489	218,403	0,137	0,158
-471,474	-191,360	0,157	0,001
-470,459	-200,000	0,008	-0,069
-469,445	327,925	-0,073	0,102
-468,430	452,600	-0,048	0,077
-467,416	-65,563	0,068	-0,019
-466,401	140,956	-0,170	0,162
-465,386	-141,619	0,115	0,008
-464,372	-39,027	-0,102	0,039
-463,357	85,365	-0,041	0,032
-462,343	752,234	0,048	0,093
-461,328	-160,407	0,107	-0,004
-460,313	-200,000	-0,000	-0,113
-459,299	-200,000	-0,009	-0,089
-458,284	78,122	0,080	0,061
-457,270	35,135	0,037	0,024
-456,255	96,117	-0,088	-0,072
-455,241	800,000	0,011	-0,024
-454,226	800,000	0,053	-0,107
-453,211	-200,000	-0,048	-0,192
-452,197	203,645	-0,023	-0,026
-451,182	368,070	0,061	0,089
-450,168	19,130	-0,056	-0,032
-449,153	800,000	0,059	-0,133
-448,138	-143,442	-0,105	-0,007
-447,124	-22,662	-0,109	0,047
-446,109	37,184	0,059	0,037
-445,095	257,244	0,043	-0,054
-444,080	185,147	0,052	-0,055
-443,065	-59,268	0,020	-0,006
-442,051	800,000	-0,032	-0,099
-441,036	800,000	0,020	-0,054
-440,022	-200,000	0,004	-0,031
-439,007	-200,000	-0,029	-0,167
-437,992	-200,000	0,016	-0,056
-436,978	-200,000	-0,011	0,131
-435,963	-130,802	-0,050	0,005
-434,949	800,000	0,042	0,133
-433,934	-98,777	-0,070	0,013
-432,919	370,485	0,113	-0,165
-431,905	-25,084	-0,159	-0,067
-430,890	260,474	0,073	0,091
-429,876	132,430	0,084	-0,078
-428,861	-200,000	-0,019	0,080
-427,846	85,854	-0,105	0,083
-426,832	-89,500	0,106	-0,022
-425,817	-200,000	0,006	0,029
-424,803	15,169	0,129	0,073
-423,788	13,601	0,063	0,035
-422,773	129,732	0,131	0,121
-421,759	-200,000	-0,031	0,173
-420,744	-11,500	-0,079	-0,037
-419,730	-95,069	0,061	-0,012
-418,715	-24,437	-0,060	-0,026
-417,701	242,600	-0,050	0,060
-416,686	800,000	-0,024	-0,054
-415,671	-137,271	0,016	-0,001
-414,657	302,890	0,056	0,075
-413,642	199,721	0,038	0,042
-412,628	448,048	-0,100	-0,159
-411,613	-42,909	-0,028	-0,010
-410,598	-6,334	0,048	0,023
-409,584	475,060	0,060	-0,097
-408,569	-200,000	0,011	0,069
-407,555	139,991	0,065	0,062
-406,540	-6,347	0,074	0,036
-405,525	-151,637	0,122	-0,006
-404,511	246,960	0,083	-0,100
-403,496	-47,004	-0,055	-0,019
-402,482	-124,986	0,088	0,010
-401,467	-97,916	-0,035	-0,006
-400,452	-34,609	0,037	0,014
-399,438	-200,000	0,017	-0,071
-398,423	-91,609	0,120	0,024
-397,409	440,861	0,078	0,122
-396,394	6,940	-0,097	-0,051
-395,379	1,216	0,093	-0,048
-394,365	54,531	-0,081	-0,056
-393,350	13,435	0,049	-0,027
-392,336	-160,803	0,153	-0,006
-391,321	-22,524	-0,148	-0,064
-390,306	-200,000	0,006	-0,046
-389,292	-200,000	-0,004	0,089
-388,277	564,045	-0,038	0,067
-387,263	-200,000	-0,017	0,142
-386,248	-83,831	0,115	-0,026
-385,233	282,380	0,088	0,114
-384,219	347,636	0,064	-0,091
-383,204	378,329	-0,120	-0,177
-382,190	-5,679	-0,057	-0,028
-381,175	800,000	-0,032	0,095
-380,160	-77,986	0,021	0,005
-379,146	-128,323	0,054	-0,005
-378,131	-88,691	0,172	0,036
-377,117	-200,000	-0,017	-0,222
-376,102	100,052	0,095	-0,079
-375,088	800,000	0,011	-0,030
-374,073	-200,000	0,029	-0,103
-373,058	-178,426	0,167	0,003
-372,044	761,915	0,006	-0,012
-371,029	-73,974	0,227	-0,059
-370,015	525,296	-0,044	0,074
-369,000	-74,952	0,087	-0,022
-367,985	294,843	-0,045	-0,059
-366,971	-130,199	0,035	-0,003
-365,956	590,219	0,037	0,066
-364,942	-200,000	0,007	0,070
-363,927	-200,000	0,002	-0,095
-362,912	-136,035	-0,086	-0,007
-361,898	-200,000	0,005	0,127
-360,883	-107,150	-0,058	-0,009
-359,869	800,000	0,028	0,079
-358,854	95,321	0,038	0,031
-357,839	-200,000	0,012	0,090
-356,825	31,034	0,082	-0,051
-355,810	483,855	-0,028	0,045
-354,796	-19,832	-0,094	-0,041
-353,781	2,049	0,049	-0,025
-352,766	114,763	0,067	0,059
-351,752	109,850	0,066	-0,056
-350,737	151,299	-0,090	-0,088
-349,723	131,001	0,029	0,027
-348,708	-87,338	0,086	0,019
-347,693	347,938	0,082	-0,116
-346,679	776,208	0,004	-0,008
-345,664	-44,443	-0,047	0,017
-344,650	-200,000	0,005	0,046
-343,635	74,453	0,051	0,038
-342,620	800,000	0,082	0,187
-341,606	-200,000	-0,013	0,068
-340,591	161,005	0,134	-0,134
-339,577	-200,000	-0,013	-0,143
-338,562	-164,375	-0,053	-0,002
-337,548	76,668	-0,142	0,108
-336,533	351,191	0,107	-0,151
-335,518	-113,224	-0,118	0,016
-334,504	-200,000	-0,019	0,064
-333,489	-80,594	-0,125	-0,030
-332,475	434,118	-0,085	-0,133
-331,460	-200,000	-0,011	-0,130
-330,445	121,292	-0,053	-0,047
-329,431	303,626	0,083	0,111
-328,416	73,451	0,076	-0,057
-327,402	43,593	0,045	-0,029
-326,387	725,620	0,027	0,052
-325,372	407,163	-0,127	-0,193
-324,358	800,000	-0,038	-0,109
-323,343	158,359	0,094	-0,093
-322,329	-71,914	-0,062	-0,017
-321,314	736,648	0,034	0,065
-320,299	30,679	0,180	-0,110
-319,285	195,690	-0,100	0,108
-318,270	185,569	0,007	0,007
-317,256	61,541	-0,055	-0,039
-316,241	743,374	-0,068	-0,131
-315,226	-200,000	-0,001	0,109
-314,212	375,559	0,076	0,112
-313,197	110,742	0,117	0,101
-312,183	17,737	-0,139	0,079
-311,168	70,659	0,063	-0,047
-310,153	189,608	0,102	-0,109
-309,139	-112,896	-0,036	0,005
-308,124	-200,000	-0,004	0,021
-307,110	800,000	0,036	0,084
-306,095	-200,000	0,008	0,114
-305,080	-200,000	-0,004	0,098
-304,066	-19,961	-0,133	0,058
-303,051	-71,338	-0,107	-0,028
-302,037	-59,975	0,082	0,025
-301,022	-148,345	-0,136	-0,008
-300,008	153,049	0,006	-0,006
-298,993	396,288	-0,047	0,070
-297,978	-14,729	0,073	0,033
-296,964	-72,434	0,066	0,017
-295,949	279,346	0,060	-0,077
-294,935	800,000	-0,021	-0,054
-293,920	-200,000	0,040	-0,191
-292,905	224,098	-0,095	0,110
-291,891	-200,000	0,011	0,115
-290,876	69,021	0,096	0,070
-289,862	-200,000	-0,006	0,055
-288,847	150,526	-0,017	0,017
-287,832	220,885	-0,061	0,070
-286,818	-78,599	0,016	-0,004
-285,803	-200,000	0,002	0,051
-284,789	-200,000	-0,129	0,000
-283,774	800,000	-0,033	-0,095
-282,759	-111,420	0,057	0,008
-281,745	211,048	0,053	0,059
-280,730	39,064	-0,074	0,047
-279,716	800,000	-0,046	-0,101
-278,701	-106,727	0,070	0,011
-277,686	-96,986	0,088	0,016
-276,672	62,615	-0,128	0,091
-275,657	-200,000	-0,002	-0,019
-274,643	98,740	-0,003	-0,003
-273,628	8,556	-0,091	-0,049
-272,613	-99,504	-0,073	-0,013
-271,599	132,495	-0,055	-0,051
-270,584	321,503	0,028	0,039
-269,570	-200,000	-0,023	0,096
-268,555	-33,037	-0,113	-0,044
-267,540	-200,000	-0,006	0,107
-266,526	-200,000	-0,026	0,094
-265,511	-26,975	-0,068	-0,028
-264,497	-13,614	0,057	-0,026
-263,482	-114,151	-0,020	-0,003
-262,467	201,223	-0,011	0,012
-261,453	-200,000	0,020	0,078
-260,438	-183,300	-0,154	0,002
-259,424	491,497	0,048	-0,080
-258,409	90,424	-0,012	0,010
-257,395	-200,000	0,002	0,009
-256,380	-116,981	0,102	0,013
-255,365	-200,000	-0,006	0,084
-254,351	94,693	0,021	-0,017
-253,336	269,840	0,008	-0,010
-252,322	446,517	0,075	-0,118
-251,307	123,750	0,133	-0,119
-250,292	-158,876	-0,053	-0,002
-249,278	-114,834	0,094	-0,013
-248,263	-200,000	-0,000	0,048
-247,249	87,329	0,147	-0,116
-246,234	-129,620	-0,068	0,007
-245,219	690,635	-0,081	-0,151
-244,205	323,777	0,025	0,034
-243,190	-200,000	-0,037	-0,153
-242,176	-200,000	0,001	-0,016
-241,161	22,460	0,029	-0,017
-240,146	-127,144	0,119	0,012
-239,132	-84,389	0,074	0,017
-238,117	-200,000	0,009	-0,134
-237,103	-200,000	-0,011	-0,070
-236,088	-200,000	-0,036	-0,187
-235,073	-200,000	0,003	-0,077
-234,059	-81,553	0,068	-0,016
-233,044	308,461	0,059	-0,078
-232,030	-84,094	-0,116	-0,026
-231,015	-83,919	-0,040	-0,009
-230,000	75,193	0,097	0,073
-228,986	-25,211	-0,094	0,040
-227,971	576,035	0,051	-0,088
-226,957	202,810	0,044	0,049
-225,942	-200,000	-0,020	0,174
-224,927	109,504	0,103	0,088
-223,913	-200,000	0,007	-0,052
-222,898	17,323	0,133	0,075
-221,884	-200,000	-0,029	-0,107
-220,869	19,129	0,139	0,079
-219,855	800,000	0,045	0,099
-218,840	-200,000	0,036	0,160
-217,825	-200,000	-0,007	-0,058
-216,811	736,492	-0,046	-0,087
-215,796	-36,745	0,017	0,007
-214,782	219,789	-0,089	0,101
-213,767	-200,000	0,004	0,026
-212,752	-55,967	-0,061	0,019
-211,738	185,501	0,030	-0,032
-210,723	-76,088	-0,043	0,011
-209,709	-200,000	0,010	0,048
-208,694	98,026	-0,147	-0,121
-207,679	-200,000	-0,006	-0,050
-206,665	395,700	-0,059	0,088
-205,650	-200,000	-0,016	0,074
-204,636	153,581	0,109	0,107
-203,621	357,641	-0,028	0,039
-202,606	279,822	0,024	0,031
-201,592	93,819	-0,067	-0,054
-200,577	291,694	0,024	0,031
-199,563	-38,304	0,139	0,052
-198,548	-4,482	-0,179	0,088
-197,533	53,813	0,079	0,054
-196,519	86,688	-0,032	-0,025
-195,504	-125,280	0,053	0,006
-194,490	83,717	-0,071	0,055
-193,475	-200,000	-0,026	0,092
-192,460	-141,883	-0,057	0,004
-191,446	-96,901	0,074	0,014
-190,431	800,000	-0,022	0,047
-189,417	76,876	-0,051	0,038
-188,402	800,000	0,030	-0,078
-187,387	46,592	-0,149	-0,098
-186,373	-38,647	-0,069	-0,026
-185,358	-32,554	-0,118	0,047
-184,344	476,384	0,090	0,146
-183,329	-4,773	-0,061	0,030
-182,315	-95,392	0,075	0,014
-181,300	-95,415	0,074	0,014
-180,285	-41,927	0,016	0,006
-179,271	166,798	-0,036	0,037
-178,256	-29,887	-0,059	0,024
-177,242	34,862	0,010	0,006
-176,227	517,941	0,053	-0,088
-175,212	-83,162	0,142	-0,032
-174,198	-137,017	-0,080	0,006
-173,183	-200,000	0,009	-0,095
-172,169	-55,140	0,020	-0,006
-171,154	800,000	0,018	-0,050
-170,139	-200,000	-0,006	-0,046
-169,125	-200,000	0,005	0,033
-168,110	688,930	0,074	0,137
-167,096	-43,041	-0,067	0,024
-166,081	-104,240	-0,090	-0,015
-165,066	321,949	0,047	-0,064
-164,052	-121,977	0,087	0,010
-163,037	-200,000	-0,014	-0,057
-162,023	-200,000	-0,002	0,088
-161,008	41,434	0,104	-0,067
-159,993	368,354	0,011	-0,015
-158,979	46,863	-0,047	-0,031
-157,964	-167,005	-0,069	0,002
-156,950	-200,000	-0,011	-0,086
-155,935	172,046	-0,104	0,107
-154,920	-200,000	-0,024	-0,100
-153,906	-60,024	0,092	0,028
-152,891	-200,000	-0,020	0,155
-151,877	-200,000	-0,007	0,030
-150,862	661,482	-0,060	-0,111
-149,847	-26,441	0,012	-0,005
-148,833	-200,000	0,007	0,047
-147,818	462,223	-0,026	0,041
-146,804	79,042	-0,071	0,054
-145,789	132,645	0,115	-0,105
-144,775	92,764	-0,072	-0,057
-143,760	0,535	0,053	0,027
-142,745	11,166	0,052	-0,028
-141,731	318,465	0,012	0,016
-140,716	-144,194	0,047	-0,003
-139,702	-123,814	0,127	-0,014
-138,687	345,181	0,048	-0,068
-137,672	97,802	-0,032	0,026
-136,658	593,453	-0,053	-0,093
-135,643	-200,000	-0,019	-0,163
-134,629	800,000	-0,042	-0,100
-133,614	-156,716	0,072	-0,003
-132,599	-61,185	-0,068	0,020
-131,585	65,665	-0,081	-0,058
-130,570	-200,000	0,013	0,073
-129,556	800,000	0,011	0,023
-128,541	257,915	-0,059	-0,073
-127,526	140,660	0,141	-0,132
-126,512	284,429	0,052	-0,067
-125,497	93,543	-0,053	0,042
-124,483	-200,000	-0,014	0,112
-123,468	223,875	0,060	-0,068
-122,453	720,875	-0,041	-0,078
-121,439	141,370	-0,109	-0,102
-120,424	84,802	-0,061	-0,048
-119,410	40,303	0,088	0,056
-118,395	-200,000	0,028	0,111
-117,380	-165,870	-0,072	-0,002
-116,366	-200,000	0,010	-0,033
-115,351	170,634	-0,054	-0,055
-114,337	443,806	-0,034	-0,054
-113,322	86,026	0,057	0,044
-112,307	-200,000	-0,003	-0,148
-111,293	-42,784	-0,077	0,028
-110,278	-200,000	-0,010	0,040
-109,264	257,921	0,076	-0,093
-108,249	-1,938	-0,085	0,042
-107,234	302,122	-0,082	-0,108
-106,220	205,584	0,028	0,031
-105,205	90,537	-0,090	-0,071
-104,191	-192,653	-0,045	-0,000
-103,176	-104,155	0,108	-0,018
-102,162	800,000	-0,030	0,069
-101,147	11,897	0,084	-0,045
-100,132	-98,883	-0,170	0,030
-99,118	555,175	0,080	-0,137
-98,103	-200,000	0,013	-0,093
-97,089	345,365	0,080	0,112
-96,074	-200,000	-0,017	0,099
-95,059	-153,282	0,140	0,007
-94,045	800,000	-0,068	-0,137
-93,030	698,410	-0,012	-0,022
-92,016	800,000	-0,037	0,073
-91,001	800,000	-0,023	-0,066
-89,986	720,496	0,041	0,077
-88,972	-70,193	0,078	0,021
-87,957	-9,796	0,029	-0,014
-86,943	148,903	0,037	0,035
-85,928	132,600	0,089	-0,082
-84,913	-89,425	-0,117	0,024
-83,899	433,423	-0,124	-0,192
-82,884	-9,683	-0,077	0,036
-81,870	-117,398	0,061	0,008
-80,855	574,229	0,056	0,098
-79,840	-4,447	0,034	0,017
-78,826	-4,966	-0,077	-0,038
-77,811	50,780	0,068	-0,045
-76,797	284,966	-0,101	-0,129
-75,782	165,916	0,042	-0,043
-74,767	800,000	0,054	-0,148
-73,753	-128,436	-0,164	0,016
-72,738	-200,000	-0,027	-0,155
-71,724	390,509	-0,040	-0,058
-70,709	-9,267	-0,036	0,017
-69,694	-52,016	0,019	-0,006
-68,680	682,137	0,046	0,086
-67,665	439,975	-0,069	0,107
-66,651	-200,000	0,003	0,078
-65,636	42,009	-0,097	0,062
-64,622	560,454	-0,061	-0,104
-63,607	87,805	0,104	-0,082
-62,592	-200,000	0,034	-0,128
-61,578	-77,958	-0,080	0,019
-60,563	800,000	0,026	0,071
-59,549	79,117	-0,036	-0,027
-58,534	-23,873	-1,444	-0,610
-57,519	378,502	-1,491	-2,167
-56,505	-200,000	-0,555	-4,687
-55,490	191,198	0,855	0,913
-54,476	800,000	4,968	11,444
-53,461	-200,000	18,588	299,692
-52,446	800,000	733,480	2267,654
-51,432	560,080	1650,021	2833,739
-50,417	78,832	1668,700	1263,250
-49,403	22,333	1541,938	889,998
-48,388	16,263	1464,517	815,855
-47,373	17,772	1454,904	817,751
-46,359	17,033	1445,014	808,617
-45,344	14,572	1440,274	794,162
-44,330	14,467	1438,322	792,552
-43,315	14,459	1436,813	791,648
-42,300	14,439	1435,280	790,677
-41,286	14,510	1434,023	790,291
-40,271	14,443	1432,636	789,178
-39,257	14,456	1431,420	788,540
-38,242	14,496	1430,253	788,055
-37,227	14,501	1428,812	787,254
-36,213	14,514	1427,618	786,624
-35,198	14,470	1426,504	785,774
-34,184	14,506	1425,530	785,377
-33,169	14,448	1424,502	784,501
-32,154	14,550	1422,972	784,111
-31,140	14,535	1421,726	783,323
-30,125	14,525	1420,853	782,765
-29,111	14,521	1419,602	782,025
-28,096	14,489	1418,563	781,271
-27,082	14,441	1417,644	780,505
-26,067	14,410	1416,523	779,711
-25,052	14,427	1415,390	779,140
-24,038	14,434	1414,225	778,497
-23,023	14,423	1413,367	777,943
-22,009	14,378	1412,284	777,108
-20,994	14,374	1411,556	776,654
-19,979	14,410	1410,620	776,278
-18,965	14,363	1409,680	775,510
-17,950	14,313	1408,695	774,704
-16,936	14,387	1407,717	774,480
-15,921	14,368	1406,415	773,643
-14,906	14,310	1405,639	772,918
-13,892	14,359	1404,780	772,643
-12,877	14,338	1403,795	771,974
-11,863	14,340	1402,802	771,403
-10,848	14,309	1402,239	770,922
-9,833	14,290	1401,220	770,239
-8,819	14,238	1400,471	769,555
-7,804	14,232	1399,384	768,902
-6,790	14,244	1398,369	768,371
-5,775	14,239	1397,129	767,634
-4,760	14,234	1396,304	767,129
-3,746	14,203	1395,641	766,586
-2,731	14,250	1394,769	766,296
-1,717	14,183	1394,143	765,614
-0,702	14,216	1392,117	764,621
0,313	17,991	1310,280	737,178
1,327	34,230	705,707	434,644
2,342	52,674	124,052	83,753
3,356	4,021	16,652	8,591
4,371	9,148	3,265	1,740
5,386	-23,595	0,570	0,241
6,400	204,788	0,152	0,167
7,415	138,564	-0,111	-0,103
8,429	152,916	-0,273	-0,264
9,444	-135,807	-0,369	-0,030
10,459	-60,653	-0,278	-0,083
11,473	18,800	-0,315	-0,178
12,488	164,728	-0,250	-0,249
13,502	191,506	-0,286	-0,305
14,517	30,835	-0,285	-0,172
15,531	-4,105	-0,409	-0,200
16,546	193,205	-0,235	-0,252
17,561	15,629	-0,391	-0,216
18,575	89,426	-0,195	-0,154
19,590	800,000	-0,082	-0,220
20,604	-115,152	-0,310	-0,041
21,619	32,611	-0,435	-0,265
22,634	69,962	-0,556	-0,405
23,648	42,233	-0,365	-0,234
24,663	46,683	-0,486	-0,318
25,677	104,626	-0,340	-0,283
26,692	45,751	-0,355	-0,232
27,707	26,772	-0,341	-0,201
28,721	161,203	-0,361	-0,356
29,736	38,856	-0,320	-0,201
30,750	37,597	-0,510	-0,319
31,765	-20,889	-0,403	-0,173
32,780	35,591	-0,379	-0,235
33,794	34,580	-0,294	-0,181
34,809	39,737	-0,444	-0,281
35,823	177,935	-0,301	-0,310
36,838	67,845	-0,389	-0,280
37,853	138,197	-0,382	-0,353
38,867	79,956	-0,302	-0,229
39,882	-64,830	-0,322	-0,091
40,896	102,673	-0,260	-0,215
41,911	119,013	-0,291	-0,254
42,926	115,788	-0,300	-0,258
43,940	22,958	-0,373	-0,215
44,955	9,814	-0,422	-0,225
45,969	64,380	-0,394	-0,280
46,984	11,453	-0,370	-0,199
47,999	115,652	-0,249	-0,214
49,013	258,418	-0,230	-0,280
50,028	105,285	-0,279	-0,232
51,042	223,002	-0,199	-0,226
52,057	44,875	-0,281	-0,182
53,071	26,490	-0,423	-0,249
54,086	427,763	-0,152	-0,231
55,101	52,853	-0,407	-0,274
56,115	54,579	-0,299	-0,202
57,130	264,263	-0,292	-0,359
58,144	100,017	-0,367	-0,299
59,159	79,956	-0,463	-0,350
60,174	10,888	-0,441	-0,236
61,188	32,371	-0,370	-0,225
62,203	92,030	-0,304	-0,240
63,217	367,303	-0,206	-0,294
64,232	116,191	-0,321	-0,276
65,247	-47,258	-0,343	-0,117
66,261	325,932	-0,259	-0,350
67,276	63,974	-0,448	-0,316
68,290	11,313	-0,353	-0,190
69,305	137,350	-0,280	-0,258
70,320	-75,747	-0,287	-0,071
71,334	-15,682	-0,384	-0,172
72,349	14,261	-0,305	-0,167
73,363	163,643	-0,289	-0,286
74,378	-63,010	-0,228	-0,066
75,393	97,558	-0,227	-0,183
76,407	84,242	-0,206	-0,158
77,422	185,848	-0,302	-0,316
78,436	185,215	-0,240	-0,251
79,451	125,354	-0,251	-0,223
80,466	194,625	-0,275	-0,293
81,480	175,893	-0,285	-0,290
82,495	113,867	-0,366	-0,313
83,509	18,596	-0,272	-0,153
84,524	-14,433	-0,308	-0,139
85,539	-6,203	-0,376	-0,180
86,553	-87,480	-0,293	-0,062
87,568	-49,215	-0,232	-0,077
88,582	86,152	-0,235	-0,182
89,597	786,853	-0,156	-0,303
90,611	56,028	-0,223	-0,152
91,626	63,214	-0,263	-0,185
92,641	-58,711	-0,285	-0,086
93,655	175,078	-0,267	-0,271
94,670	209,951	-0,272	-0,300
95,684	99,792	-0,280	-0,228
96,699	221,061	-0,180	-0,203
97,714	-106,108	-0,262	-0,041
98,728	-0,781	-0,414	-0,205
99,743	26,466	-0,175	-0,102
100,757	305,445	-0,244	-0,319
101,772	84,141	-0,310	-0,238
102,787	76,676	-0,339	-0,252
103,801	49,026	-0,305	-0,200
104,816	163,275	-0,287	-0,283
105,830	102,757	-0,233	-0,191
106,845	170,105	-0,221	-0,222
107,860	-83,567	-0,174	-0,039
108,874	101,634	-0,304	-0,248
109,889	800,000	-0,123	-0,295
110,903	52,849	-0,235	-0,158
111,918	509,333	-0,152	-0,249
112,933	-84,472	-0,218	-0,048
113,947	27,680	-0,380	-0,224
114,962	-58,521	-0,344	-0,104
115,976	289,464	-0,197	-0,250
116,991	197,733	-0,239	-0,256
118,006	155,081	-0,348	-0,336
119,020	110,061	-0,193	-0,162
120,035	118,858	-0,214	-0,185
121,049	-88,966	-0,270	-0,055
122,064	124,646	-0,248	-0,219
123,079	-25,406	-0,275	-0,113
124,093	68,278	-0,276	-0,198
125,108	160,291	-0,213	-0,208
126,122	42,806	-0,285	-0,181
127,137	142,868	-0,167	-0,156
128,151	29,313	-0,209	-0,124
129,166	-38,243	-0,211	-0,078
130,181	131,835	-0,211	-0,190
131,195	169,545	-0,230	-0,230
132,210	60,732	-0,221	-0,153
133,224	190,985	-0,172	-0,181
134,239	213,207	-0,219	-0,242
135,254	548,167	-0,164	-0,275
136,268	369,510	-0,195	-0,277
137,283	129,497	-0,295	-0,264
138,297	-22,003	-0,341	-0,144
139,312	127,351	-0,195	-0,173
140,327	10,514	-0,369	-0,196
141,341	113,269	-0,255	-0,217
142,356	297,185	-0,194	-0,250
143,370	-143,634	-0,259	-0,017
144,385	78,838	-0,227	-0,169
145,400	-34,161	-0,256	-0,098
146,414	-5,191	-0,378	-0,181
147,429	-15,281	-0,293	-0,130
148,443	75,307	-0,245	-0,180
149,458	-8,746	-0,200	-0,093
150,473	-176,446	-0,243	-0,004
151,487	267,425	-0,167	-0,205
152,502	112,230	-0,290	-0,245
153,516	92,763	-0,275	-0,216
154,531	123,404	-0,241	-0,211
155,546	101,150	-0,268	-0,217
156,560	86,677	-0,216	-0,166
157,575	-24,890	-0,160	-0,066
158,589	-5,777	-0,265	-0,126
159,604	-23,601	-0,206	-0,086
160,619	-25,281	-0,494	-0,203
161,633	-22,631	-0,202	-0,085
162,648	32,610	-0,278	-0,167
163,662	-78,700	-0,251	-0,059
164,677	-198,732	-0,368	-0,001
165,692	-22,286	-0,170	-0,072
166,706	328,949	-0,158	-0,213
167,721	508,925	-0,215	-0,350
168,735	296,224	-0,185	-0,237
169,750	441,393	-0,135	-0,207
170,764	-23,309	-0,290	-0,121
171,779	80,285	-0,231	-0,173
172,794	-28,745	-0,161	-0,064
173,808	145,802	-0,222	-0,208
174,823	-56,217	-0,203	-0,063
175,837	95,848	-0,236	-0,188
176,852	54,049	-0,266	-0,178
177,867	-19,422	-0,159	-0,068
178,881	88,367	-0,222	-0,172
179,896	148,045	-0,209	-0,196
180,910	340,177	-0,183	-0,249
181,925	152,654	-0,171	-0,163
182,940	78,169	-0,290	-0,215
183,954	800,000	-0,063	-0,175
184,969	484,310	-0,154	-0,246
185,983	291,754	-0,176	-0,224
186,998	-10,183	-0,185	0,085
188,013	67,476	-0,209	-0,149
189,027	329,934	-0,192	-0,258
190,042	-53,530	-0,199	-0,063
191,056	64,842	-0,243	-0,170
192,071	493,359	-0,134	-0,214
193,086	238,252	-0,156	-0,180
194,100	109,999	-0,236	-0,197
195,115	324,168	-0,121	-0,161
196,129	310,625	-0,189	-0,247
197,144	229,453	-0,245	-0,279
198,159	430,498	-0,166	-0,251
199,173	61,505	-0,184	-0,127
200,188	59,977	-0,128	-0,088
201,202	800,000	-0,089	-0,192
202,217	142,178	-0,163	-0,150
203,232	54,626	-0,223	-0,149
204,246	-70,631	-0,148	-0,039
205,261	100,340	-0,250	-0,202
206,275	-27,386	-0,173	-0,070
207,290	232,573	-0,218	-0,250
208,304	23,059	-0,221	-0,126
209,319	54,482	-0,218	-0,146
210,334	52,217	-0,233	-0,154
211,348	-35,910	-0,217	-0,081
212,363	43,273	-0,205	-0,130
213,377	59,600	-0,225	-0,154
214,392	800,000	-0,100	-0,211
215,407	-7,523	-0,187	-0,087
216,421	169,086	-0,067	-0,066
217,436	8,142	-0,231	-0,120
218,450	192,400	-0,157	-0,165
219,465	41,126	-0,326	-0,204
220,480	75,327	-0,137	-0,100
221,494	371,456	-0,158	-0,224
222,509	800,000	-0,069	-0,136
223,523	654,175	-0,110	-0,197
224,538	-105,745	-0,237	-0,037
225,553	-24,010	-0,300	-0,124
226,567	20,662	-0,140	-0,079
227,582	201,737	-0,174	-0,187
228,596	105,203	-0,159	-0,130
229,611	215,965	-0,147	-0,162
230,626	4,872	-0,267	-0,136
231,640	48,215	-0,196	-0,127
232,655	-42,034	-0,202	-0,071
233,669	92,114	-0,165	-0,129
234,684	114,731	-0,195	-0,165
235,699	163,790	-0,152	-0,148
236,713	-73,514	-0,147	-0,037
237,728	18,657	-0,095	-0,052
238,742	-4,045	-0,260	-0,124
239,757	800,000	-0,143	-0,311
240,772	17,780	-0,133	-0,073
241,786	541,527	-0,055	-0,092
242,801	800,000	-0,104	-0,240
243,815	45,578	-0,120	-0,076
244,830	99,089	-0,181	-0,145
245,844	347,601	-0,170	-0,233
246,859	10,483	-0,239	-0,126
247,874	37,842	-0,149	-0,092
248,888	175,220	-0,190	-0,191
249,903	756,702	-0,099	-0,187
250,917	170,859	-0,186	-0,184
251,932	-84,897	-0,193	-0,042
252,947	-69,545	-0,257	-0,068
253,961	637,225	-0,136	-0,241
254,976	-200,000	-0,042	-0,253
255,990	341,617	-0,118	-0,160
257,005	280,692	-0,118	-0,147
258,020	130,390	-0,079	-0,070
259,034	284,520	-0,098	-0,122
260,049	142,879	-0,269	-0,248
261,063	297,247	-0,209	-0,266
262,078	298,447	-0,162	-0,207
263,093	-200,000	-0,052	-0,190
264,107	119,521	-0,290	-0,249
265,122	218,212	-0,187	-0,207
266,136	-200,000	-0,035	-0,222
267,151	34,118	-0,108	-0,065
268,166	40,575	-0,257	-0,160
269,180	168,429	-0,116	-0,114
270,195	800,000	-0,118	-0,257
271,209	89,914	-0,074	-0,057
272,224	-23,183	-0,231	-0,096
273,239	-62,762	-0,088	0,025
274,253	-169,417	-0,221	-0,005
275,268	33,832	-0,200	-0,120
276,282	85,903	-0,098	-0,075
277,297	254,818	-0,129	-0,152
278,312	-95,131	-0,243	-0,045
279,326	-199,685	-0,273	-0,001
280,341	200,688	-0,087	-0,092
281,355	-109,031	-0,176	-0,026
282,370	80,665	-0,135	-0,100
283,384	10,767	-0,145	-0,076
284,399	-76,148	-0,229	-0,055
285,414	112,093	-0,165	-0,137
286,428	15,804	-0,062	-0,033
287,443	-148,339	-0,123	0,007
288,457	-200,000	-0,047	-0,157
289,472	-149,834	-0,196	-0,010
290,487	80,286	-0,261	-0,194
291,501	434,882	-0,084	-0,126
292,516	145,944	-0,173	-0,160
293,530	-109,452	-0,107	-0,015
294,545	186,279	-0,170	-0,175
295,560	0,581	-0,133	-0,065
296,574	56,910	-0,091	-0,061
297,589	-35,921	-0,192	0,071
298,603	800,000	-0,056	-0,111
299,618	300,285	-0,255	-0,326
300,633	-192,348	-0,242	0,002
301,647	-200,000	0,018	-0,173
302,662	-51,183	-0,121	-0,039
303,676	-30,880	-0,136	-0,053
304,691	-5,838	-0,285	-0,134
305,706	-89,840	-0,257	-0,051
306,720	229,907	-0,134	-0,151
307,735	439,848	-0,076	-0,115
308,749	275,951	-0,098	-0,120
309,764	151,519	-0,174	-0,163
310,779	-51,563	-0,249	-0,080
311,793	-70,381	-0,179	-0,046
312,808	15,828	-0,267	-0,144
313,822	-131,127	-0,218	-0,020
314,837	800,000	-0,026	-0,074
315,852	257,092	-0,145	-0,172
316,866	-200,000	0,019	-0,285
317,881	112,228	-0,126	-0,105
318,895	219,285	-0,097	-0,107
319,910	252,138	-0,158	-0,186
320,925	61,384	-0,116	-0,079
321,939	-2,350	-0,163	-0,078
322,954	122,358	-0,113	-0,097
323,968	23,289	-0,179	-0,101
324,983	-115,229	-0,179	-0,023
325,997	104,128	-0,123	-0,099
327,012	91,194	-0,093	-0,072
328,027	295,732	-0,123	-0,155
329,041	80,742	-0,131	-0,097
330,056	186,169	-0,203	-0,207
331,070	-19,337	-0,153	-0,065
332,085	-200,000	0,012	-0,176
333,100	496,137	-0,071	-0,113
334,114	800,000	-0,142	-0,320
335,129	651,843	-0,099	-0,174
336,143	-200,000	0,016	-0,115
337,158	-200,000	-0,035	-0,181
338,173	-98,472	-0,071	-0,012
339,187	-12,745	-0,160	-0,071
340,202	123,208	-0,115	-0,099
341,216	48,243	-0,093	-0,060
342,231	95,849	-0,145	-0,114
343,246	482,653	-0,121	-0,190
344,260	90,274	-0,232	-0,178
345,275	40,062	-0,056	-0,035
346,289	-31,499	-0,084	0,032
347,304	65,187	-0,243	-0,169
348,319	137,111	-0,161	-0,145
349,333	-200,000	0,047	-0,208
350,348	-200,000	-0,025	-0,176
351,362	712,294	-0,060	-0,109
352,377	117,087	-0,131	-0,110
353,392	219,933	-0,086	-0,094
354,406	-185,516	-0,177	-0,002
355,421	208,312	1317,625	1415,115
356,435	160,280	1478,719	1415,620
