DTS Sentinel unit serial number:	SN410029Multiplexer serial number:	ORYXHardware model number:	OX2-SRSoftware version number:	ORYX F/W v4,00 Oryx Data Collector v3.7.2.0data status	okinstallation	B3 Nyhavnadifferential loss correction	single-endedforward channel	channel 1reverse channel	N/Adate	2023/11/29time	20:17:30forward acquisition time	300,00reverse acquisition time	0,00gamma	499,1914k internal	0,3210k external	0,3210temperature offset calibration	1,0000default loss term (dB/km)	0,3820temperature slope calibration	1,0000multiplexer offset coefficient	1,0000multiplexer slope coefficient	1,0000fibre end	0,00T internal ref (°C)	10,87T ext. ref 1 (°C)	-4,20T ext. ref 2 (°C)	-4,29length (m)	temperature (°C)	Stokes	anti-Stokes-744,400	529,824	-0,121	-0,208
-743,385	800,000	0,102	0,295
-742,371	2,210	-0,187	-0,098
-741,356	800,000	-0,139	0,343
-740,342	154,271	-0,218	-0,217
-739,327	-200,000	0,029	0,302
-738,312	713,517	-0,080	-0,154
-737,298	-200,000	-0,047	0,213
-736,283	229,682	-0,173	-0,205
-735,269	-200,000	-0,038	0,270
-734,254	-54,892	-0,251	-0,082
-733,239	118,624	-0,238	0,213
-732,225	800,000	-0,065	-0,136
-731,210	129,273	0,134	0,124
-730,196	426,934	-0,069	-0,109
-729,181	74,217	0,042	-0,032
-728,167	339,037	0,046	-0,065
-727,152	554,361	0,039	0,068
-726,137	263,013	-0,032	0,041
-725,123	430,276	-0,035	0,055
-724,108	266,360	-0,060	-0,076
-723,094	223,432	0,091	-0,107
-722,079	800,000	-0,028	-0,063
-721,064	800,000	0,018	-0,037
-720,050	36,499	-0,014	0,009
-719,035	428,903	-0,047	0,074
-718,021	-95,797	0,040	0,008
-717,006	569,148	0,014	-0,024
-715,991	-200,000	-0,008	-0,083
-714,977	284,443	0,073	-0,096
-713,962	65,851	0,035	-0,026
-712,948	-200,000	0,007	-0,024
-711,933	206,260	-0,047	0,054
-710,918	11,380	0,055	-0,030
-709,904	308,817	-0,080	0,108
-708,889	34,910	-0,046	-0,029
-707,875	248,915	-0,165	-0,203
-706,860	-200,000	-0,009	0,095
-705,845	536,482	0,023	0,039
-704,831	563,213	-0,064	-0,112
-703,816	800,000	0,043	0,091
-702,802	800,000	-0,019	0,057
-701,787	22,178	-0,142	-0,084
-700,772	-176,418	-0,103	0,002
-699,758	-16,958	-0,023	-0,011
-698,743	72,042	-0,060	-0,045
-697,729	100,505	0,121	0,101
-696,714	-41,378	-0,163	0,061
-695,699	137,313	0,060	0,057
-694,685	-105,133	-0,126	0,021
-693,670	77,537	0,037	0,028
-692,656	75,970	-0,041	0,031
-691,641	-200,000	-0,017	0,055
-690,627	-106,880	0,133	0,021
-689,612	607,192	-0,030	0,055
-688,597	-138,813	-0,091	0,007
-687,583	-15,965	-0,098	0,045
-686,568	-200,000	0,014	-0,051
-685,554	-84,623	-0,136	0,031
-684,539	-138,244	-0,106	0,008
-683,524	-77,240	-0,058	-0,014
-682,510	-200,000	0,003	-0,041
-681,495	36,754	0,063	-0,040
-680,481	342,766	-0,058	-0,083
-679,466	-200,000	0,018	-0,090
-678,451	173,377	-0,058	0,060
-677,437	-200,000	-0,000	-0,033
-676,422	-100,365	0,148	0,026
-675,408	-111,773	0,032	-0,005
-674,393	-45,233	0,033	0,012
-673,378	800,000	-0,053	-0,119
-672,364	99,138	-0,137	-0,115
-671,349	512,791	-0,009	0,014
-670,335	-200,000	-0,020	-0,075
-669,320	800,000	0,026	-0,056
-668,305	-47,958	0,064	0,022
-667,291	-200,000	0,014	0,068
-666,276	202,760	-0,016	0,018
-665,262	137,936	-0,055	-0,052
-664,247	481,792	0,021	-0,034
-663,232	87,313	0,078	-0,063
-662,218	157,920	-0,030	0,030
-661,203	115,813	-0,028	0,025
-660,189	800,000	-0,028	0,081
-659,174	41,644	-0,125	-0,082
-658,159	88,166	0,049	-0,039
-657,145	-200,000	0,014	-0,049
-656,130	800,000	0,033	-0,073
-655,116	-200,000	-0,001	-0,015
-654,101	-84,366	0,192	0,044
-653,086	-6,751	-0,075	-0,037
-652,072	-147,398	-0,133	0,008
-651,057	-14,648	-0,079	-0,037
-650,043	-200,000	0,015	-0,076
-649,028	-63,997	-0,070	-0,020
-648,014	29,930	0,064	-0,039
-646,999	-124,433	-0,010	0,001
-645,984	800,000	-0,044	0,099
-644,970	503,868	-0,067	0,113
-643,955	-200,000	0,002	-0,040
-642,941	477,853	-0,069	-0,113
-641,926	15,957	0,079	0,045
-640,911	800,000	-0,048	0,113
-639,897	800,000	0,051	0,101
-638,882	800,000	-0,046	0,113
-637,868	79,299	-0,096	0,074
-636,853	-200,000	0,017	-0,143
-635,838	664,376	-0,056	-0,104
-634,824	-70,669	-0,022	-0,006
-633,809	81,777	0,169	-0,132
-632,795	800,000	0,059	-0,130
-631,780	-100,419	-0,012	0,002
-630,765	800,000	0,029	0,086
-629,751	-200,000	-0,015	-0,059
-628,736	19,725	-0,112	-0,065
-627,722	-84,309	0,074	0,017
-626,707	93,335	-0,194	0,158
-625,692	-200,000	0,018	-0,072
-624,678	-58,088	-0,045	-0,014
-623,663	-200,000	0,015	-0,050
-622,649	19,576	-0,163	-0,094
-621,634	252,101	0,051	-0,063
-620,619	800,000	-0,016	-0,050
-619,605	800,000	0,025	-0,071
-618,590	-63,262	-0,109	-0,032
-617,576	-13,383	0,102	0,047
-616,561	124,093	0,112	-0,102
-615,546	-43,519	0,124	-0,045
-614,532	-200,000	0,017	-0,059
-613,517	156,034	-0,029	-0,028
-612,503	800,000	0,007	-0,021
-611,488	-10,248	-0,039	-0,019
-610,474	37,470	-0,058	-0,037
-609,459	-200,000	-0,011	-0,116
-608,444	-42,023	-0,141	-0,052
-607,430	546,931	-0,020	-0,035
-606,415	70,719	0,081	-0,060
-605,401	438,707	0,038	-0,059
-604,386	64,374	-0,029	-0,021
-603,371	404,315	-0,022	-0,034
-602,357	130,907	0,101	0,094
-601,342	342,445	-0,115	-0,163
-600,328	464,489	0,058	-0,094
-599,313	-18,269	0,061	-0,027
-598,298	-200,000	-0,043	-0,185
-597,284	-101,971	0,107	-0,019
-596,269	-81,331	-0,028	0,007
-595,255	-29,147	-0,134	0,055
-594,240	-200,000	0,004	-0,122
-593,225	-200,000	-0,047	-0,205
-592,211	-158,770	-0,071	-0,003
-591,196	800,000	0,021	0,055
-590,182	51,975	0,150	0,103
-589,167	26,805	0,003	0,002
-588,152	95,994	0,063	-0,052
-587,138	263,395	-0,016	0,021
-586,123	800,000	0,029	-0,072
-585,109	-57,767	-0,073	-0,023
-584,094	383,686	-0,050	-0,075
-583,079	-200,000	-0,036	0,142
-582,065	-7,716	0,158	-0,077
-581,050	6,254	-0,123	0,065
-580,036	-25,726	0,136	-0,057
-579,021	800,000	-0,027	-0,072
-578,006	-200,000	-0,038	-0,182
-576,992	327,030	0,028	0,039
-575,977	202,978	0,110	-0,123
-574,963	-10,242	-0,128	0,061
-573,948	800,000	-0,059	0,160
-572,934	418,020	0,070	-0,108
-571,919	73,956	-0,097	-0,073
-570,904	-200,000	-0,046	-0,166
-569,890	177,978	-0,055	-0,058
-568,875	-200,000	-0,003	-0,156
-567,861	34,680	-0,040	0,025
-566,846	-34,695	0,196	-0,077
-565,831	305,262	-0,035	0,046
-564,817	-159,776	-0,143	-0,006
-563,802	800,000	-0,004	-0,012
-562,788	261,177	0,006	-0,007
-561,773	-65,276	0,119	0,034
-560,758	19,905	-0,075	0,044
-559,744	72,792	0,056	0,042
-558,729	639,085	-0,030	0,054
-557,715	100,256	0,129	0,108
-556,700	-74,058	-0,087	0,023
-555,685	-200,000	-0,006	0,032
-554,671	-160,951	0,098	-0,004
-553,656	-21,339	0,134	-0,059
-552,642	168,138	-0,071	-0,073
-551,627	48,755	-0,150	0,101
-550,612	145,868	-0,123	0,119
-549,598	-200,000	0,020	-0,099
-548,583	-113,323	-0,092	-0,013
-547,569	81,712	0,012	-0,009
-546,554	141,556	-0,130	-0,124
-545,539	-200,000	0,055	0,226
-544,525	30,740	-0,131	0,080
-543,510	-46,168	-0,032	0,011
-542,496	-91,076	0,020	-0,004
-541,481	61,716	-0,070	-0,050
-540,466	-200,000	0,011	0,057
-539,452	-87,054	0,080	-0,017
-538,437	-188,974	0,121	0,001
-537,423	432,516	0,010	-0,015
-536,408	-71,036	0,114	-0,031
-535,393	-56,763	-0,176	-0,056
-534,379	84,540	-0,057	-0,045
-533,364	244,515	0,170	-0,206
-532,350	88,895	0,076	-0,061
-531,335	130,546	0,113	0,104
-530,321	-119,430	0,015	0,002
-529,306	170,396	0,016	-0,016
-528,291	1,626	-0,081	-0,042
-527,277	-16,560	-0,059	0,027
-526,262	-200,000	-0,018	-0,061
-525,248	357,259	0,089	-0,127
-524,233	800,000	-0,084	0,209
-523,218	-96,912	0,221	0,041
-522,204	-60,018	-0,043	0,013
-521,189	461,143	-0,032	-0,052
-520,175	-156,666	0,034	-0,001
-519,160	-142,446	-0,088	0,006
-518,145	65,728	0,103	-0,075
-517,131	800,000	0,007	-0,017
-516,116	-200,000	-0,012	0,130
-515,102	17,936	-0,054	0,031
-514,087	582,757	0,010	0,018
-513,072	-200,000	-0,011	-0,053
-512,058	71,961	-0,089	-0,066
-511,043	800,000	-0,038	0,101
-510,029	-200,000	-0,009	-0,157
-509,014	-200,000	-0,009	0,034
-507,999	152,111	-0,041	0,040
-506,985	446,544	0,062	0,099
-505,970	-200,000	-0,007	-0,104
-504,956	406,182	0,045	-0,068
-503,941	-200,000	0,005	0,072
-502,926	9,664	0,108	0,059
-501,912	143,761	-0,032	0,030
-500,897	6,477	0,096	0,051
-499,883	-200,000	0,012	0,055
-498,868	800,000	-0,077	-0,173
-497,853	800,000	0,026	-0,055
-496,839	-69,873	0,084	-0,023
-495,824	182,379	0,024	-0,025
-494,810	191,513	0,066	0,071
-493,795	36,398	0,077	0,049
-492,781	-102,300	0,021	-0,004
-491,766	32,152	-0,198	-0,122
-490,751	-86,623	-0,194	-0,042
-489,737	800,000	0,017	0,047
-488,722	-200,000	-0,001	-0,057
-487,708	-74,205	0,031	-0,008
-486,693	-137,885	0,059	-0,005
-485,678	-200,000	-0,005	-0,053
-484,664	-66,661	-0,156	-0,044
-483,649	-200,000	-0,009	-0,071
-482,635	37,286	0,054	-0,034
-481,620	-109,805	-0,020	-0,003
-480,605	-77,208	0,045	-0,011
-479,591	-200,000	-0,036	-0,139
-478,576	-137,400	-0,086	0,007
-477,562	-27,980	-0,042	-0,017
-476,547	-200,000	-0,034	-0,115
-475,532	309,582	-0,047	-0,063
-474,518	74,850	0,099	0,075
-473,503	-112,871	0,102	-0,014
-472,489	255,531	0,066	0,082
-471,474	-125,919	-0,104	0,011
-470,459	-61,094	-0,043	-0,013
-469,445	417,641	-0,100	-0,153
-468,430	39,921	0,116	-0,074
-467,416	-12,623	0,039	0,018
-466,401	369,142	0,026	0,038
-465,386	-200,000	-0,014	0,119
-464,372	316,852	-0,069	-0,094
-463,357	-200,000	-0,008	0,098
-462,343	800,000	-0,087	-0,191
-461,328	-130,300	-0,139	0,013
-460,313	-200,000	-0,003	-0,105
-459,299	111,141	0,120	0,103
-458,284	111,556	0,120	0,104
-457,270	-200,000	0,034	0,173
-456,255	211,632	-0,064	-0,072
-455,241	800,000	0,034	0,089
-454,226	-200,000	0,007	0,039
-453,211	42,422	0,130	-0,085
-452,197	774,477	0,040	-0,079
-451,182	427,028	0,022	-0,034
-450,168	-200,000	-0,042	-0,147
-449,153	12,467	-0,103	0,057
-448,138	-5,370	0,029	0,014
-447,124	212,143	0,058	-0,065
-446,109	22,756	-0,085	0,050
-445,095	800,000	-0,045	0,109
-444,080	-200,000	-0,003	0,045
-443,065	-200,000	0,017	0,082
-442,051	800,000	0,062	-0,124
-441,036	457,222	-0,027	-0,042
-440,022	-73,348	-0,051	0,013
-439,007	224,880	-0,043	-0,050
-437,992	17,747	-0,076	0,043
-436,978	438,798	0,059	0,093
-435,963	-69,528	0,021	-0,006
-434,949	-200,000	-0,002	0,076
-433,934	-200,000	0,008	-0,100
-432,919	105,259	-0,087	0,074
-431,905	-120,606	0,068	-0,008
-430,890	195,625	0,035	-0,038
-429,876	141,671	-0,010	-0,009
-428,861	610,072	-0,030	-0,054
-427,846	-34,573	0,024	-0,009
-426,832	563,584	-0,064	-0,111
-425,817	294,335	0,029	-0,038
-424,803	-153,480	0,074	0,004
-423,788	163,329	0,106	0,107
-422,773	-29,554	0,034	0,014
-421,759	197,575	0,121	0,133
-420,744	-200,000	-0,009	0,090
-419,730	125,359	-0,041	0,037
-418,715	165,794	-0,022	-0,022
-417,701	70,063	0,030	0,022
-416,686	-200,000	0,008	-0,061
-415,671	-48,530	0,162	-0,055
-414,657	-102,107	-0,148	-0,025
-413,642	385,046	0,137	0,203
-412,628	491,757	-0,081	-0,133
-411,613	-200,000	-0,011	-0,107
-410,598	130,529	0,063	-0,058
-409,584	190,345	-0,150	-0,162
-408,569	-96,483	0,147	0,027
-407,555	57,958	0,148	0,104
-406,540	800,000	-0,017	0,037
-405,525	-184,148	0,079	-0,001
-404,511	4,523	-0,102	-0,053
-403,496	-200,000	0,019	-0,224
-402,482	-122,637	0,067	0,008
-401,467	-132,064	0,064	0,006
-400,452	394,123	-0,012	-0,018
-399,438	523,019	0,045	0,076
-398,423	378,410	0,056	0,083
-397,409	-200,000	0,015	0,075
-396,394	335,892	-0,068	0,095
-395,379	-106,126	0,056	0,009
-394,365	10,316	0,182	0,099
-393,350	800,000	-0,062	0,136
-392,336	-87,742	0,109	0,023
-391,321	288,912	-0,099	0,128
-390,306	-2,374	0,103	0,052
-389,292	300,507	0,109	-0,144
-388,277	-200,000	-0,003	-0,115
-387,263	800,000	-0,044	0,091
-386,248	800,000	-0,023	0,062
-385,233	41,596	-0,117	-0,076
-384,219	355,620	0,061	0,087
-383,204	419,951	-0,052	0,080
-382,190	147,109	-0,119	-0,114
-381,175	-200,000	-0,014	-0,078
-380,160	62,851	0,095	0,068
-379,146	800,000	0,004	0,013
-378,131	-200,000	0,021	0,151
-377,117	800,000	-0,023	-0,059
-376,102	82,701	-0,090	0,070
-375,088	800,000	-0,070	-0,186
-374,073	-16,239	0,180	0,081
-373,058	732,284	0,040	0,078
-372,044	-120,843	-0,082	0,010
-371,029	133,611	0,086	0,079
-370,015	-105,180	0,109	0,018
-369,000	-18,372	-0,114	-0,051
-367,985	-136,017	-0,113	0,009
-366,971	266,384	0,089	0,111
-365,956	-200,000	0,033	0,122
-364,942	-8,278	0,106	0,051
-363,927	-200,000	-0,023	0,088
-362,912	332,848	-0,050	-0,069
-361,898	107,294	0,087	0,074
-360,883	-74,844	-0,077	-0,020
-359,869	293,518	-0,015	-0,020
-358,854	360,170	0,013	-0,018
-357,839	-200,000	-0,015	0,060
-356,825	275,188	0,051	0,064
-355,810	552,550	-0,020	0,035
-354,796	-43,346	-0,020	-0,007
-353,781	12,094	-0,123	-0,067
-352,766	-59,826	-0,042	-0,013
-351,752	-200,000	0,016	0,116
-350,737	-178,019	0,088	0,001
-349,723	800,000	-0,029	0,066
-348,708	800,000	0,081	0,198
-347,693	-49,789	0,054	0,018
-346,679	428,071	0,024	0,037
-345,664	-200,000	0,010	0,040
-344,650	219,856	-0,091	0,104
-343,635	58,142	0,083	0,058
-342,620	-200,000	0,009	0,036
-341,606	-105,261	0,095	-0,015
-340,591	-119,693	-0,066	-0,008
-339,577	-102,563	-0,117	-0,020
-338,562	-173,235	-0,064	0,001
-337,548	-200,000	0,029	-0,129
-336,533	-41,121	0,043	0,016
-335,518	-200,000	0,016	0,181
-334,504	343,660	0,071	0,100
-333,489	604,609	-0,112	0,200
-332,475	-53,739	-0,166	-0,054
-331,460	-108,578	0,031	0,005
-330,445	-56,959	0,083	-0,026
-329,431	-0,571	-0,153	-0,077
-328,416	450,221	-0,092	0,145
-327,402	29,783	0,035	0,021
-326,387	465,639	-0,040	0,063
-325,372	294,598	-0,048	0,063
-324,358	99,140	0,052	-0,043
-323,343	-200,000	0,006	-0,031
-322,329	-86,884	0,159	0,034
-321,314	-200,000	0,021	0,103
-320,299	800,000	0,046	0,119
-319,285	597,456	0,077	-0,136
-318,270	-74,631	-0,030	0,008
-317,256	415,571	0,087	-0,133
-316,241	-92,372	-0,061	-0,012
-315,226	-200,000	0,024	0,131
-314,212	379,008	0,079	0,116
-313,197	25,552	0,079	-0,046
-312,183	-200,000	0,012	0,065
-311,168	-61,616	-0,071	0,021
-310,153	137,890	0,047	0,044
-309,139	169,604	0,062	0,063
-308,124	457,641	0,082	-0,130
-307,110	-200,000	0,004	0,019
-306,095	-200,000	-0,018	-0,070
-305,080	-17,490	0,058	0,026
-304,066	93,006	-0,040	-0,032
-303,051	118,627	-0,066	-0,058
-302,037	-32,076	0,068	-0,027
-301,022	-200,000	0,008	0,038
-300,008	-19,352	0,075	0,033
-298,993	124,491	0,114	0,102
-297,978	168,302	-0,032	0,032
-296,964	-200,000	-0,015	-0,083
-295,949	36,074	-0,041	0,026
-294,935	-14,860	-0,059	-0,027
-293,920	-2,246	-0,059	0,030
-292,905	800,000	0,045	0,111
-291,891	-108,859	-0,047	0,007
-290,876	-200,000	0,030	0,102
-289,862	-154,278	0,017	0,001
-288,847	143,823	0,164	-0,156
-287,832	-200,000	-0,030	-0,128
-286,818	-200,000	-0,039	0,249
-285,803	202,277	0,047	0,051
-284,789	-200,000	0,011	0,067
-283,774	33,958	0,058	-0,036
-282,759	77,874	-0,120	-0,091
-281,745	800,000	-0,044	-0,134
-280,730	173,711	0,094	0,096
-279,716	-200,000	0,013	0,065
-278,701	216,250	-0,034	0,038
-277,686	87,201	-0,060	-0,047
-276,672	19,443	0,117	0,067
-275,657	800,000	-0,045	-0,125
-274,643	-200,000	0,022	-0,090
-273,628	-200,000	0,019	-0,076
-272,613	-90,094	0,026	0,005
-271,599	-45,099	0,065	-0,023
-270,584	-79,797	0,145	0,034
-269,570	-47,490	0,128	-0,044
-268,555	-97,105	0,062	-0,011
-267,540	-133,435	-0,150	0,013
-266,526	295,462	-0,123	-0,161
-265,511	-129,079	0,067	0,007
-264,497	-133,920	-0,124	0,011
-263,482	-115,697	0,075	-0,010
-262,467	36,939	-0,058	0,037
-261,453	-200,000	0,006	-0,043
-260,438	98,555	-0,039	0,032
-259,424	-200,000	0,010	0,112
-258,409	-200,000	0,060	0,207
-257,395	-200,000	0,004	0,055
-256,380	-49,316	0,011	-0,004
-255,365	-200,000	0,057	0,000
-254,351	800,000	-0,035	0,082
-253,336	800,000	0,017	0,037
-252,322	-200,000	0,024	-0,090
-251,307	-59,992	-0,047	-0,014
-250,292	-126,177	0,094	0,010
-249,278	22,449	-0,079	0,046
-248,263	-28,910	0,167	0,068
-247,249	-104,314	0,039	-0,006
-246,234	370,372	-0,043	-0,062
-245,219	92,744	0,051	-0,041
-244,205	-1,452	-0,150	0,075
-243,190	774,462	-0,042	0,081
-242,176	702,062	0,008	0,016
-241,161	-200,000	0,027	0,124
-240,146	800,000	-0,024	0,076
-239,132	3,906	-0,102	0,053
-238,117	69,049	0,068	0,049
-237,103	-200,000	-0,035	0,135
-236,088	38,446	0,058	-0,037
-235,073	657,610	-0,034	0,062
-234,059	36,880	0,185	-0,116
-233,044	-200,000	-0,010	0,076
-232,030	526,389	-0,070	-0,118
-231,015	-35,544	-0,124	0,048
-230,000	-22,735	0,132	-0,056
-228,986	-64,467	-0,100	0,029
-227,971	69,447	-0,130	-0,095
-226,957	-200,000	0,023	0,075
-225,942	-102,523	0,126	0,021
-224,927	800,000	-0,034	-0,102
-223,913	800,000	0,023	-0,051
-222,898	33,686	0,048	-0,030
-221,884	258,160	-0,068	-0,084
-220,869	800,000	-0,027	0,076
-219,855	800,000	-0,011	0,033
-218,840	-148,385	-0,140	0,008
-217,825	-43,055	-0,074	0,027
-216,811	800,000	-0,034	0,103
-215,796	-109,916	-0,104	0,015
-214,782	-200,000	-0,001	0,019
-213,767	-113,191	0,167	0,023
-212,752	-200,000	0,033	-0,122
-211,738	-47,112	-0,074	-0,025
-210,723	274,883	0,026	0,033
-209,709	171,006	-0,066	0,067
-208,694	738,068	-0,034	0,066
-207,679	385,966	0,036	-0,053
-206,665	-157,219	0,170	-0,007
-205,650	8,541	0,141	-0,075
-204,636	-107,477	-0,165	0,025
-203,621	586,607	0,046	-0,080
-202,606	195,202	-0,060	0,065
-201,592	-26,380	-0,091	0,038
-200,577	-134,729	-0,105	0,009
-199,563	58,497	0,045	0,032
-198,548	-200,000	0,005	0,058
-197,533	-26,082	0,060	0,025
-196,519	-75,857	-0,155	-0,039
-195,504	-200,000	0,035	-0,144
-194,490	408,814	-0,054	0,081
-193,475	152,363	0,020	-0,020
-192,460	374,808	0,029	-0,042
-191,446	-58,987	-0,071	0,022
-190,431	-157,897	0,056	0,002
-189,417	129,245	-0,014	-0,013
-188,402	-52,514	0,112	0,037
-187,387	-200,000	-0,004	-0,071
-186,373	-53,589	-0,071	0,023
-185,358	-200,000	-0,008	-0,067
-184,344	-200,000	-0,003	0,060
-183,329	415,634	0,047	-0,071
-182,315	37,114	-0,064	0,040
-181,300	-200,000	0,001	0,048
-180,285	-25,117	-0,116	0,049
-179,271	-200,000	-0,021	-0,070
-178,256	-200,000	-0,013	0,117
-177,242	-59,337	-0,041	-0,012
-176,227	-155,505	0,085	-0,004
-175,212	800,000	-0,014	0,038
-174,198	-127,063	-0,077	0,008
-173,183	800,000	-0,039	0,106
-172,169	-200,000	0,043	-0,196
-171,154	226,649	-0,053	-0,062
-170,139	-200,000	0,010	0,065
-169,125	-28,803	-0,101	0,041
-168,110	186,222	0,134	0,141
-167,096	-162,030	0,165	-0,006
-166,081	800,000	0,028	-0,070
-165,066	-200,000	0,025	-0,157
-164,052	198,817	-0,171	-0,185
-163,037	55,413	-0,033	0,023
-162,023	-200,000	-0,027	0,100
-161,008	15,553	-0,125	0,069
-159,993	-44,910	0,015	-0,005
-158,979	-200,000	-0,024	0,079
-157,964	-117,149	-0,128	0,016
-156,950	-184,666	-0,121	0,001
-155,935	-14,213	-0,018	-0,008
-154,920	-10,983	0,034	-0,016
-153,906	543,822	0,024	0,041
-152,891	593,701	-0,110	-0,193
-151,877	-200,000	-0,028	-0,160
-150,862	518,648	0,036	0,059
-149,847	-200,000	0,025	-0,084
-148,833	-61,332	0,037	0,011
-147,818	800,000	-0,021	0,059
-146,804	-90,634	0,112	-0,023
-145,789	-56,752	-0,044	-0,014
-144,775	394,576	-0,081	0,120
-143,760	56,230	0,129	0,089
-142,745	-200,000	0,020	0,082
-141,731	-51,778	0,025	-0,008
-140,716	-164,920	0,071	0,002
-139,702	800,000	0,036	0,079
-138,687	-144,009	-0,108	0,007
-137,672	-100,951	0,094	0,016
-136,658	-200,000	-0,020	-0,069
-135,643	57,899	-0,126	-0,087
-134,629	-104,118	0,106	-0,017
-133,614	63,016	0,026	0,019
-132,599	751,711	0,052	0,100
-131,585	513,590	-0,063	0,105
-130,570	130,552	-0,039	-0,035
-129,556	81,594	-0,081	-0,062
-128,541	281,067	-0,047	-0,059
-127,526	-200,000	-0,025	0,085
-126,512	75,979	-0,035	0,026
-125,497	92,812	-0,021	0,016
-124,483	800,000	-0,073	0,154
-123,468	-78,496	-0,119	0,029
-122,453	-54,882	0,087	-0,028
-121,439	104,688	0,107	0,089
-120,424	-25,100	0,074	-0,031
-119,410	-200,000	0,009	-0,031
-118,395	513,128	0,071	-0,117
-117,380	-200,000	0,025	0,083
-116,366	800,000	-0,017	-0,042
-115,351	-150,782	-0,015	0,001
-114,337	416,793	-0,081	-0,122
-113,322	-56,559	0,074	0,023
-112,307	800,000	-0,031	0,076
-111,293	-200,000	-0,007	0,152
-110,278	106,146	-0,049	0,041
-109,264	-200,000	0,007	0,029
-108,249	-2,895	0,023	-0,011
-107,234	4,243	-0,082	-0,042
-106,220	-107,617	-0,219	-0,034
-105,205	-200,000	-0,029	-0,108
-104,191	416,615	0,022	0,034
-103,176	66,206	0,075	-0,054
-102,162	-78,142	-0,047	0,011
-101,147	433,808	0,009	0,014
-100,132	10,477	-0,143	-0,077
-99,118	79,101	0,118	0,089
-98,103	-200,000	0,007	-0,190
-97,089	271,011	-0,043	-0,053
-96,074	-200,000	-0,007	0,075
-95,059	-107,931	0,126	0,019
-94,045	72,573	-0,085	-0,063
-93,030	-84,919	-0,113	0,025
-92,016	-200,000	0,007	-0,065
-91,001	459,808	0,077	0,122
-89,986	-200,000	-0,001	0,029
-88,972	-200,000	-0,002	0,044
-87,957	-200,000	-0,024	-0,086
-86,943	-200,000	0,047	0,152
-85,928	-145,592	0,048	0,003
-84,913	-193,021	0,080	0,000
-83,899	533,772	0,023	-0,039
-82,884	261,186	-0,098	0,120
-81,870	-117,833	-0,091	0,011
-80,855	800,000	0,038	0,086
-79,840	-200,000	0,038	-0,148
-78,826	507,163	0,034	-0,056
-77,811	-141,413	0,062	0,004
-76,797	312,925	-0,080	0,107
-75,782	-177,464	-0,105	0,002
-74,767	800,000	0,061	0,148
-73,753	292,583	-0,057	0,074
-72,738	-200,000	0,025	0,078
-71,724	27,089	-0,063	0,037
-70,709	-161,672	-0,124	0,004
-69,694	800,000	-0,035	-0,085
-68,680	-200,000	0,016	0,139
-67,665	-118,590	0,091	-0,011
-66,651	-4,194	-0,090	-0,044
-65,636	-200,000	-0,002	-0,192
-64,622	800,000	0,031	0,066
-63,607	-200,000	0,016	0,149
-62,592	172,742	-0,149	-0,151
-61,578	-99,224	-0,076	-0,013
-60,563	251,906	-0,014	0,017
-59,549	251,133	-0,083	0,100
-58,534	49,040	-1,811	-1,199
-57,519	381,306	-1,269	-1,845
-56,505	-200,000	-0,274	-4,303
-55,490	641,518	0,878	1,587
-54,476	800,000	4,882	11,153
-53,461	-200,000	21,022	330,471
-52,446	800,000	758,138	2324,704
-51,432	549,621	1662,632	2824,719
-50,417	73,418	1664,106	1228,247
-49,403	18,736	1537,178	866,206
-48,388	12,679	1460,314	793,571
-47,373	19,068	1451,021	819,181
-46,359	15,838	1440,381	797,766
-45,344	10,994	1436,094	772,279
-44,330	10,914	1434,189	770,840
-43,315	10,918	1432,107	769,712
-42,300	10,923	1430,625	768,908
-41,286	10,893	1429,294	768,022
-40,271	10,909	1427,979	767,356
-39,257	10,913	1426,832	766,729
-38,242	10,932	1425,792	766,232
-37,227	10,904	1424,645	765,453
-36,213	10,966	1423,264	764,974
-35,198	11,004	1422,163	764,528
-34,184	10,975	1421,462	763,984
-33,169	10,882	1420,023	762,742
-32,154	10,969	1419,048	762,602
-31,140	10,980	1417,794	761,947
-30,125	11,058	1416,697	761,695
-29,111	10,998	1415,464	760,719
-28,096	10,945	1414,412	759,874
-27,082	10,906	1413,201	759,011
-26,067	10,892	1412,261	758,411
-25,052	10,950	1410,905	757,924
-24,038	10,930	1410,024	757,325
-23,023	10,894	1409,129	756,649
-22,009	10,872	1408,173	755,999
-20,994	10,865	1406,875	755,242
-19,979	10,893	1406,215	754,988
-18,965	10,865	1405,173	754,269
-17,950	10,812	1404,328	753,540
-16,936	10,826	1403,609	753,189
-15,921	10,795	1402,402	752,364
-14,906	10,805	1401,741	752,026
-13,892	10,842	1400,431	751,468
-12,877	10,836	1399,783	751,061
-11,863	10,791	1398,944	750,374
-10,848	10,790	1398,017	749,841
-9,833	10,749	1397,111	749,132
-8,819	10,752	1396,320	748,695
-7,804	10,733	1395,299	748,030
-6,790	10,728	1394,454	747,525
-5,775	10,739	1393,294	746,924
-4,760	10,701	1392,404	746,240
-3,746	10,738	1391,483	745,889
-2,731	10,734	1390,606	745,372
-1,717	10,694	1389,727	744,685
-0,702	10,706	1387,883	743,721
0,313	14,723	1301,677	715,939
1,327	31,041	692,765	418,136
2,342	48,030	120,098	79,055
3,356	0,891	16,565	8,345
4,371	9,554	3,275	1,744
5,386	-7,677	0,890	0,423
6,400	-200,000	0,112	0,350
7,415	-8,328	-0,171	-0,081
8,429	800,000	-0,122	-0,256
9,444	60,018	-0,272	-0,189
10,459	-131,528	-0,191	0,018
11,473	163,517	-0,264	-0,262
12,488	30,037	-0,349	-0,209
13,502	439,409	-0,114	-0,175
14,517	-7,748	-0,341	-0,162
15,531	145,354	-0,429	-0,405
16,546	-12,615	-0,382	-0,175
17,561	416,613	-0,334	-0,503
18,575	-92,713	-0,138	-0,027
19,590	731,995	-0,199	-0,376
20,604	22,410	-0,305	-0,175
21,619	128,519	-0,391	-0,351
22,634	54,414	-0,519	-0,352
23,648	9,629	-0,295	-0,157
24,663	130,344	-0,361	-0,326
25,677	77,968	-0,384	-0,288
26,692	33,527	-0,271	-0,165
27,707	-32,950	-0,220	-0,086
28,721	-83,930	-0,372	-0,083
29,736	18,666	-0,339	-0,190
30,750	133,452	-0,415	-0,378
31,765	136,509	-0,412	-0,378
32,780	104,036	-0,436	-0,361
33,794	183,848	-0,334	-0,348
34,809	31,810	-0,404	-0,244
35,823	71,629	-0,304	-0,222
36,838	31,446	-0,457	-0,275
37,853	60,371	-0,350	-0,243
38,867	254,615	-0,309	-0,372
39,882	51,916	-0,418	-0,280
40,896	17,342	-0,368	-0,205
41,911	-37,006	-0,404	-0,152
42,926	74,985	-0,413	-0,306
43,940	183,032	-0,284	-0,295
44,955	77,269	-0,371	-0,277
45,969	256,833	-0,249	-0,301
46,984	7,619	-0,407	-0,213
47,999	159,138	-0,259	-0,254
49,013	84,322	-0,350	-0,269
50,028	138,968	-0,277	-0,256
51,042	91,054	-0,269	-0,212
52,057	93,239	-0,303	-0,241
53,071	358,604	-0,304	-0,427
54,086	15,561	-0,357	-0,196
55,101	32,113	-0,297	-0,179
56,115	-29,116	-0,314	-0,126
57,130	409,915	-0,159	-0,238
58,144	68,692	-0,367	-0,264
59,159	46,119	-0,396	-0,257
60,174	130,209	-0,220	-0,198
61,188	1,993	-0,408	-0,206
62,203	76,117	-0,268	-0,199
63,217	-149,582	-0,203	-0,011
64,232	-43,148	-0,387	-0,137
65,247	2,451	-0,282	-0,143
66,261	110,024	-0,295	-0,249
67,276	91,968	-0,349	-0,275
68,290	-53,376	-0,387	-0,123
69,305	129,284	-0,274	-0,245
70,320	171,806	-0,160	-0,161
71,334	15,049	-0,395	-0,216
72,349	61,118	-0,282	-0,196
73,363	8,074	-0,320	-0,168
74,378	18,232	-0,311	-0,174
75,393	15,157	-0,384	-0,210
76,407	-17,179	-0,241	-0,106
77,422	-36,555	-0,261	-0,098
78,436	86,918	-0,321	-0,248
79,451	-30,216	-0,436	-0,173
80,466	34,619	-0,448	-0,274
81,480	-29,504	-0,371	-0,148
82,495	-30,872	-0,244	-0,096
83,509	224,748	-0,216	-0,245
84,524	3,933	-0,177	0,090
85,539	-92,835	-0,316	-0,061
86,553	255,143	-0,221	-0,266
87,568	-38,514	-0,336	-0,124
88,582	148,785	-0,214	-0,202
89,597	24,866	-0,289	-0,167
90,611	-34,346	-0,145	-0,056
91,626	-16,123	-0,265	-0,118
92,641	-18,458	-0,301	-0,131
93,655	-2,918	-0,395	-0,192
94,670	35,217	-0,214	-0,131
95,684	64,610	-0,239	-0,169
96,699	-8,379	-0,303	-0,142
97,714	-17,139	-0,275	-0,121
98,728	250,062	-0,247	-0,294
99,743	108,243	-0,287	-0,240
100,757	55,611	-0,219	-0,148
101,772	124,523	-0,306	-0,270
102,787	61,109	-0,378	-0,262
103,801	42,918	-0,328	-0,209
104,816	109,870	-0,148	-0,124
105,830	555,439	-0,093	-0,157
106,845	-33,735	-0,236	-0,091
107,860	800,000	-0,085	-0,235
108,874	108,435	-0,203	-0,169
109,889	160,956	-0,240	-0,235
110,903	-42,189	-0,367	-0,131
111,918	160,922	-0,159	-0,155
112,933	19,139	-0,336	-0,188
113,947	299,201	-0,114	-0,147
114,962	487,451	-0,167	-0,267
115,976	102,502	-0,285	-0,233
116,991	331,412	-0,226	-0,305
118,006	800,000	-0,191	-0,392
119,020	-86,371	-0,182	-0,039
120,035	9,869	-0,244	-0,129
121,049	-88,846	-0,264	-0,054
122,064	-83,530	-0,213	0,047
123,079	221,284	-0,225	-0,252
124,093	47,012	-0,207	-0,134
125,108	132,721	-0,284	-0,256
126,122	9,205	-0,302	-0,159
127,137	-30,544	-0,167	-0,066
128,151	-36,830	-0,277	-0,103
129,166	139,475	-0,205	-0,189
130,181	171,502	-0,286	-0,287
131,195	60,502	-0,269	-0,186
132,210	95,662	-0,296	-0,235
133,224	142,928	-0,170	-0,157
134,239	394,427	-0,129	-0,188
135,254	-200,000	-0,002	-0,198
136,268	-126,546	-0,196	-0,020
137,283	76,535	-0,302	-0,223
138,297	31,522	-0,313	-0,187
139,312	474,433	-0,197	-0,311
140,327	58,277	-0,352	-0,240
141,341	-76,619	-0,245	-0,059
142,356	7,000	-0,294	-0,152
143,370	265,276	-0,205	-0,250
144,385	28,265	-0,301	-0,177
145,400	44,894	-0,270	-0,173
146,414	166,495	-0,247	-0,244
147,429	16,056	-0,232	-0,127
148,443	172,554	-0,163	-0,164
149,458	200,981	-0,250	-0,268
150,473	-72,658	-0,291	-0,074
151,487	110,463	-0,118	-0,099
152,502	-27,489	-0,386	-0,155
153,516	28,150	-0,198	-0,116
154,531	3,857	-0,244	-0,124
155,546	57,340	-0,124	-0,084
156,560	151,087	-0,267	-0,253
157,575	-25,409	-0,261	-0,107
158,589	235,841	-0,178	-0,205
159,604	800,000	-0,105	-0,259
160,619	-45,287	-0,235	-0,081
161,633	8,786	-0,333	-0,174
162,648	-181,928	-0,172	0,002
163,662	-11,303	-0,247	-0,113
164,677	239,997	-0,169	-0,197
165,692	800,000	-0,132	-0,263
166,706	-200,000	-0,063	-0,270
167,721	142,142	-0,238	-0,219
168,735	199,370	-0,148	-0,158
169,750	37,511	-0,188	-0,115
170,764	1,991	-0,242	-0,121
171,779	84,658	-0,204	-0,155
172,794	49,077	-0,321	-0,209
173,808	57,943	-0,243	-0,165
174,823	31,482	-0,253	-0,151
175,837	800,000	-0,090	-0,176
176,852	183,529	-0,223	-0,229
177,867	-70,328	-0,313	-0,082
178,881	96,465	-0,182	-0,145
179,896	-4,005	-0,271	-0,130
180,910	26,471	-0,157	-0,091
181,925	-123,380	-0,213	-0,023
182,940	49,542	-0,309	-0,202
183,954	-74,967	-0,138	-0,034
184,969	125,199	-0,170	-0,149
185,983	6,180	-0,137	-0,070
186,998	104,065	-0,165	-0,134
188,013	498,418	-0,171	-0,275
189,027	58,475	-0,265	-0,180
190,042	388,204	-0,183	-0,264
191,056	192,872	-0,229	-0,240
192,071	-4,520	-0,202	-0,096
193,086	239,108	-0,152	-0,176
194,100	6,547	-0,144	-0,074
195,115	59,653	-0,239	-0,163
196,129	90,915	-0,203	-0,158
197,144	168,437	-0,226	-0,223
198,159	-64,449	-0,279	-0,078
199,173	56,928	-0,257	-0,173
200,188	113,237	-0,218	-0,183
201,202	82,347	-0,167	-0,125
202,217	3,298	-0,232	-0,117
203,232	61,170	-0,252	-0,173
204,246	31,537	-0,239	-0,142
205,261	69,846	-0,200	-0,143
206,275	442,083	-0,129	-0,196
207,290	-25,325	-0,083	0,034
208,304	154,957	-0,084	-0,080
209,319	59,845	-0,131	-0,090
210,334	297,060	-0,148	-0,189
211,348	173,067	-0,166	-0,166
212,363	457,888	-0,133	-0,205
213,377	-12,557	-0,225	-0,101
214,392	24,435	-0,128	-0,073
215,407	54,636	-0,295	-0,197
216,421	-27,745	-0,187	-0,075
217,436	74,163	-0,148	-0,108
218,450	82,748	-0,353	-0,265
219,465	6,768	-0,181	-0,093
220,480	-66,207	-0,226	-0,062
221,494	386,441	-0,139	-0,199
222,509	-36,357	-0,328	-0,122
223,523	510,947	-0,116	-0,188
224,538	-8,971	-0,097	-0,045
225,553	461,742	-0,159	-0,246
226,567	80,578	-0,170	-0,127
227,582	71,391	-0,239	-0,171
228,596	197,832	-0,245	-0,259
229,611	162,663	-0,131	-0,127
230,626	91,376	-0,169	-0,131
231,640	53,180	-0,155	-0,102
232,655	800,000	-0,092	-0,202
233,669	68,757	-0,216	-0,153
234,684	-131,507	-0,186	-0,017
235,699	191,785	-0,194	-0,203
236,713	-51,032	-0,167	-0,054
237,728	800,000	-0,075	-0,177
238,742	-115,368	-0,123	-0,016
239,757	-0,421	-0,212	-0,104
240,772	69,909	-0,305	-0,217
241,786	83,644	-0,206	-0,155
242,801	15,366	-0,051	-0,028
243,815	199,208	-0,084	-0,089
244,830	171,291	-0,148	-0,147
245,844	-23,213	-0,143	-0,059
246,859	33,017	-0,196	-0,117
247,874	37,347	-0,173	-0,106
248,888	111,333	-0,183	-0,152
249,903	443,294	-0,108	-0,163
250,917	-11,779	-0,143	-0,064
251,932	5,284	-0,247	-0,125
252,947	-161,080	-0,068	0,002
253,961	72,452	-0,237	-0,170
254,976	0,771	-0,142	-0,070
255,990	-15,349	-0,229	-0,101
257,005	-154,293	-0,214	-0,010
258,020	0,152	-0,122	-0,060
259,034	34,176	-0,153	-0,092
260,049	-42,747	-0,168	-0,059
261,063	150,629	-0,133	-0,125
262,078	235,707	-0,176	-0,201
263,093	-4,083	-0,190	-0,091
264,107	0,736	-0,289	-0,142
265,122	243,062	-0,090	-0,104
266,136	51,672	-0,168	-0,110
267,151	-135,122	-0,102	0,008
268,166	53,613	-0,208	-0,138
269,180	-73,850	-0,252	-0,063
270,195	56,145	-0,199	-0,133
271,209	513,097	-0,066	-0,106
272,224	-109,084	-0,262	-0,038
273,239	124,821	-0,127	-0,110
274,253	127,241	-0,146	-0,128
275,268	135,053	-0,191	-0,171
276,282	57,509	-0,234	-0,157
277,297	-200,000	0,016	-0,187
278,312	-66,771	-0,251	-0,068
279,326	33,202	-0,250	-0,149
280,341	128,027	-0,188	-0,165
281,355	4,374	-0,196	-0,099
282,370	397,738	-0,174	-0,252
283,384	-143,678	-0,219	-0,014
284,399	113,768	-0,124	-0,104
285,414	-22,508	-0,191	-0,079
286,428	163,118	-0,186	-0,180
287,443	-183,672	-0,081	-0,001
288,457	357,188	-0,044	-0,061
289,472	201,977	-0,099	-0,105
290,487	800,000	-0,058	-0,174
291,501	590,766	-0,107	-0,183
292,516	-36,236	-0,204	-0,075
293,530	-15,451	-0,184	-0,080
294,545	42,199	-0,121	0,076
295,560	43,936	-0,150	-0,094
296,574	-60,850	-0,190	-0,055
297,589	-29,475	-0,255	-0,100
298,603	-200,000	-0,042	-0,191
299,618	41,977	-0,168	-0,104
300,633	38,527	-0,063	-0,039
301,647	-54,660	-0,072	-0,022
302,662	169,227	-0,138	-0,136
303,676	171,216	-0,050	-0,049
304,691	4,914	-0,267	-0,134
305,706	52,562	-0,212	-0,139
306,720	-123,545	-0,166	-0,018
307,735	171,012	-0,172	-0,169
308,749	-200,000	-0,019	-0,120
309,764	800,000	-0,094	-0,227
310,779	31,756	-0,084	-0,050
311,793	109,595	-0,031	-0,025
312,808	-9,770	-0,193	-0,088
313,822	-129,255	-0,082	-0,008
314,837	7,317	-0,070	0,036
315,852	77,232	-0,092	-0,067
316,866	-118,471	-0,196	0,024
317,881	169,469	-0,035	-0,034
318,895	-52,473	-0,302	-0,095
319,910	162,690	-0,098	-0,095
320,925	50,862	-0,254	-0,165
321,939	128,129	-0,153	-0,134
322,954	-196,284	-0,105	-0,000
323,968	-94,014	-0,104	0,019
324,983	26,055	-0,183	0,104
325,997	481,971	0,064	-0,100
327,012	149,452	-0,114	-0,106
328,027	47,651	-0,126	-0,080
329,041	800,000	-0,050	-0,151
330,056	20,676	-0,032	0,018
331,070	-11,906	-0,134	-0,060
332,085	24,916	-0,087	0,049
333,100	800,000	-0,044	-0,115
334,114	-123,825	-0,241	0,026
335,129	163,796	-0,120	-0,116
336,143	170,137	-0,096	-0,094
337,158	635,434	-0,046	-0,080
338,173	382,411	-0,004	-0,006
339,187	-55,581	-0,194	0,059
340,202	-31,547	-0,201	-0,077
341,216	416,850	-0,187	-0,274
342,231	125,966	-0,122	-0,105
343,246	269,462	-0,136	-0,164
344,260	-125,304	-0,109	-0,011
345,275	800,000	-0,031	-0,068
346,289	2,073	-0,136	-0,067
347,304	-50,805	-0,194	0,062
348,319	-193,624	-0,144	-0,001
349,333	508,486	-0,104	-0,166
350,348	-78,931	-0,149	-0,035
351,362	248,646	-0,095	-0,111
352,377	62,608	-0,110	0,075
353,392	800,000	-0,054	-0,104
354,406	800,000	-0,104	-0,230
355,421	206,615	1310,949	1398,327
356,435	158,909	1471,201	1398,818
