DTS Sentinel unit serial number:	SN410029Multiplexer serial number:	ORYXHardware model number:	OX2-SRSoftware version number:	ORYX F/W v4,00 Oryx Data Collector v3.7.2.0data status	okinstallation	B3 Nyhavnadifferential loss correction	single-endedforward channel	channel 1reverse channel	N/Adate	2023/11/29time	11:07:30forward acquisition time	300,00reverse acquisition time	0,00gamma	499,1914k internal	0,3211k external	0,3211temperature offset calibration	1,0000default loss term (dB/km)	0,3820temperature slope calibration	1,0000multiplexer offset coefficient	1,0000multiplexer slope coefficient	1,0000fibre end	0,00T internal ref (°C)	9,50T ext. ref 1 (°C)	-5,57T ext. ref 2 (°C)	-5,71length (m)	temperature (°C)	Stokes	anti-Stokes-744,400	109,604	-0,148	-0,129
-743,385	543,329	0,101	0,175
-742,371	-200,000	0,051	-0,218
-741,356	800,000	-0,067	0,144
-740,342	-200,000	0,005	-0,209
-739,327	-200,000	-0,020	0,193
-738,312	-12,755	-0,335	-0,157
-737,298	800,000	-0,073	0,150
-736,283	-200,000	-0,044	-0,261
-735,269	-200,000	0,003	0,262
-734,254	149,364	-0,243	-0,238
-733,239	50,938	-0,264	0,181
-732,225	39,243	-0,182	-0,118
-731,210	431,994	0,128	0,201
-730,196	-200,000	0,000	0,055
-729,181	435,275	0,053	0,085
-728,167	89,759	0,063	0,051
-727,152	-64,259	0,124	-0,036
-726,137	200,321	-0,058	-0,064
-725,123	-12,708	0,048	-0,023
-724,108	-200,000	-0,014	-0,164
-723,094	-54,384	-0,155	-0,051
-722,079	-15,746	-0,167	-0,077
-721,064	540,312	0,036	-0,062
-720,050	-124,312	-0,097	0,011
-719,035	800,000	0,008	0,018
-718,021	-200,000	-0,017	-0,080
-717,006	800,000	-0,027	-0,082
-715,991	106,384	-0,132	-0,114
-714,977	-200,000	0,053	-0,191
-713,962	-200,000	-0,046	-0,168
-712,948	-73,748	0,029	-0,007
-711,933	66,124	0,159	-0,117
-710,918	800,000	0,016	-0,038
-709,904	-17,224	-0,173	-0,078
-708,889	244,744	-0,044	-0,054
-707,875	-200,000	0,024	-0,097
-706,860	624,067	-0,015	-0,028
-705,845	50,749	-0,050	0,034
-704,831	-200,000	-0,006	-0,064
-703,816	602,681	0,021	-0,038
-702,802	-200,000	-0,013	-0,094
-701,787	-200,000	0,031	-0,116
-700,772	139,094	0,051	-0,049
-699,758	-94,424	-0,056	-0,011
-698,743	-13,804	0,121	-0,056
-697,729	401,131	-0,022	-0,033
-696,714	14,219	-0,025	0,014
-695,699	-2,915	0,027	-0,014
-694,685	140,812	-0,161	-0,154
-693,670	-200,000	-0,046	-0,261
-692,656	-200,000	0,000	-0,126
-691,641	-142,585	-0,139	-0,010
-690,627	17,472	0,122	-0,070
-689,612	23,243	0,036	0,021
-688,597	-57,552	-0,074	-0,023
-687,583	122,266	-0,096	-0,087
-686,568	191,321	-0,041	-0,045
-685,554	800,000	-0,058	-0,120
-684,539	12,801	-0,049	-0,028
-683,524	-200,000	-0,007	0,024
-682,510	-158,508	0,106	-0,004
-681,495	253,416	-0,054	-0,066
-680,481	-43,107	-0,083	-0,030
-679,466	14,115	-0,129	0,072
-678,451	308,845	0,069	0,094
-677,437	-200,000	-0,023	0,111
-676,422	-200,000	-0,011	0,093
-675,408	-123,501	0,059	0,007
-674,393	-200,000	-0,003	-0,062
-673,378	-90,166	0,085	-0,018
-672,364	-200,000	-0,013	0,051
-671,349	-58,521	-0,040	0,012
-670,335	416,733	0,074	-0,114
-669,320	242,192	0,078	-0,094
-668,305	-200,000	-0,002	0,072
-667,291	105,222	-0,079	-0,068
-666,276	0,755	-0,080	-0,042
-665,262	-62,631	-0,073	-0,022
-664,247	31,204	-0,095	-0,059
-663,232	715,385	-0,043	-0,082
-662,218	48,144	0,142	-0,096
-661,203	202,295	0,038	-0,043
-660,189	-200,000	0,003	0,054
-659,174	800,000	-0,019	0,054
-658,159	-200,000	0,018	-0,071
-657,145	-200,000	-0,008	-0,087
-656,130	-200,000	-0,009	-0,101
-655,116	140,723	0,029	0,028
-654,101	-38,327	-0,074	-0,028
-653,086	530,855	-0,033	-0,056
-652,072	-200,000	0,016	0,075
-651,057	800,000	-0,062	-0,138
-650,043	-200,000	-0,018	-0,101
-649,028	68,084	0,066	0,049
-648,014	-200,000	0,002	0,151
-646,999	128,063	-0,054	0,049
-645,984	518,329	0,036	-0,060
-644,970	-124,775	-0,135	-0,015
-643,955	-103,468	-0,088	-0,015
-642,941	800,000	0,075	-0,183
-641,926	-63,533	-0,045	-0,013
-640,911	178,753	0,051	0,054
-639,897	-148,499	0,125	-0,007
-638,882	14,114	-0,064	0,036
-637,868	-200,000	-0,016	-0,057
-636,853	-39,261	-0,159	-0,060
-635,838	37,451	-0,064	-0,041
-634,824	96,724	-0,059	0,049
-633,809	-64,415	0,078	0,023
-632,795	50,548	0,145	0,099
-631,780	800,000	-0,044	0,104
-630,765	800,000	0,061	-0,167
-629,751	293,735	-0,083	-0,110
-628,736	-24,675	-0,059	0,025
-627,722	-200,000	0,031	-0,103
-626,707	129,632	0,128	-0,118
-625,692	-200,000	-0,002	-0,033
-624,678	800,000	-0,066	0,173
-623,663	126,644	-0,063	0,058
-622,649	75,311	-0,052	-0,039
-621,634	-200,000	-0,023	-0,116
-620,619	-200,000	0,011	0,159
-619,605	249,404	-0,052	-0,064
-618,590	-200,000	-0,003	-0,027
-617,576	178,983	-0,065	0,069
-616,561	800,000	0,090	-0,214
-615,546	800,000	-0,024	-0,069
-614,532	800,000	-0,054	-0,113
-613,517	429,619	0,072	-0,112
-612,503	-1,325	-0,058	0,029
-611,488	65,091	0,067	-0,049
-610,474	800,000	0,018	0,047
-609,459	-200,000	0,016	-0,064
-608,444	800,000	-0,053	-0,108
-607,430	-200,000	-0,037	-0,124
-606,415	310,508	-0,051	-0,069
-605,401	335,677	0,026	0,036
-604,386	163,417	0,046	-0,046
-603,371	800,000	0,019	0,042
-602,357	-51,774	0,105	-0,035
-601,342	634,398	0,074	-0,137
-600,328	31,627	0,069	-0,043
-599,313	55,408	-0,210	-0,146
-598,298	427,845	0,105	-0,164
-597,284	-200,000	-0,002	-0,079
-596,269	-200,000	0,016	0,138
-595,255	472,008	-0,047	-0,076
-594,240	0,349	-0,133	-0,068
-593,225	-200,000	-0,005	-0,034
-592,211	-40,806	-0,126	-0,047
-591,196	800,000	-0,014	0,038
-590,182	-200,000	-0,014	0,062
-589,167	-146,567	0,090	-0,006
-588,152	87,390	0,116	0,093
-587,138	-200,000	-0,008	-0,121
-586,123	-200,000	0,003	-0,050
-585,109	800,000	-0,070	-0,168
-584,094	-14,575	0,143	-0,066
-583,079	290,318	-0,062	0,081
-582,065	-55,251	0,079	-0,026
-581,050	-130,063	0,041	-0,004
-580,036	800,000	-0,032	-0,073
-579,021	-71,784	-0,093	-0,025
-578,006	236,141	-0,029	-0,035
-576,992	207,709	-0,067	-0,075
-575,977	-113,916	-0,063	0,009
-574,963	585,515	-0,099	0,177
-573,948	20,449	-0,134	0,078
-572,934	191,442	0,086	0,094
-571,919	-200,000	-0,014	-0,174
-570,904	231,740	0,059	-0,069
-569,890	-189,842	0,018	0,000
-568,875	630,620	0,031	-0,057
-567,861	326,525	0,088	0,122
-566,846	118,993	0,095	0,084
-565,831	-200,000	-0,010	0,116
-564,817	800,000	0,028	0,075
-563,802	-200,000	0,010	-0,157
-562,788	-200,000	-0,037	-0,184
-561,773	800,000	-0,132	0,297
-560,758	-200,000	0,043	0,167
-559,744	-200,000	0,007	-0,044
-558,729	280,401	0,085	0,109
-557,715	368,477	-0,082	-0,120
-556,700	274,588	-0,021	0,027
-555,685	-14,694	0,126	0,058
-554,671	-200,000	-0,023	-0,077
-553,656	-200,000	0,010	0,036
-552,642	62,799	0,020	0,014
-551,627	-200,000	0,010	0,182
-550,612	800,000	0,030	0,065
-549,598	-200,000	-0,003	0,033
-548,583	281,384	-0,059	0,076
-547,569	-200,000	-0,007	-0,083
-546,554	-101,058	0,108	-0,019
-545,539	-200,000	0,030	0,109
-544,525	-172,806	0,031	-0,001
-543,510	-31,959	-0,131	0,052
-542,496	58,385	-0,039	0,027
-541,481	46,785	0,081	-0,054
-540,466	682,266	-0,053	0,100
-539,452	470,510	0,102	0,165
-538,437	-11,746	0,056	0,026
-537,423	-146,440	-0,126	0,008
-536,408	-200,000	0,004	-0,142
-535,393	-200,000	-0,032	-0,129
-534,379	-85,173	-0,074	0,017
-533,364	-114,688	0,089	-0,012
-532,350	800,000	-0,035	-0,084
-531,335	800,000	0,022	-0,045
-530,321	-200,000	-0,044	0,143
-529,306	3,001	-0,170	0,088
-528,291	800,000	-0,051	0,138
-527,277	41,999	-0,028	0,018
-526,262	800,000	-0,053	-0,157
-525,248	23,660	0,237	0,140
-524,233	-200,000	-0,005	-0,026
-523,218	-200,000	0,015	-0,100
-522,204	-200,000	-0,034	-0,183
-521,189	535,459	0,021	-0,037
-520,175	19,151	0,029	0,017
-519,160	800,000	0,012	0,025
-518,145	-200,000	0,037	0,140
-517,131	-27,074	0,065	0,027
-516,116	330,449	-0,087	-0,120
-515,102	-200,000	-0,033	0,105
-514,087	-200,000	-0,030	-0,102
-513,072	7,557	-0,051	-0,027
-512,058	800,000	0,055	-0,166
-511,043	800,000	0,008	-0,025
-510,029	-109,508	0,080	0,012
-509,014	177,579	-0,079	-0,083
-507,999	-94,240	0,118	-0,023
-506,985	-200,000	0,031	-0,153
-505,970	-38,079	0,080	-0,030
-504,956	800,000	0,043	-0,108
-503,941	496,227	0,019	-0,032
-502,926	664,762	-0,063	0,117
-501,912	-200,000	0,002	0,138
-500,897	800,000	0,047	0,130
-499,883	172,305	-0,056	0,058
-498,868	26,920	0,068	0,041
-497,853	-200,000	-0,015	-0,049
-496,839	-200,000	0,007	-0,146
-495,824	-50,423	0,021	0,007
-494,810	-82,998	0,074	-0,017
-493,795	170,063	0,052	-0,053
-492,781	800,000	0,015	-0,045
-491,766	-200,000	0,012	-0,147
-490,751	377,376	-0,046	-0,067
-489,737	265,774	-0,119	-0,150
-488,722	-91,372	0,044	-0,009
-487,708	-200,000	0,012	0,054
-486,693	-38,245	0,145	0,055
-485,678	203,231	-0,059	0,065
-484,664	-200,000	0,048	-0,166
-483,649	-200,000	0,010	-0,058
-482,635	-200,000	-0,026	0,225
-481,620	-200,000	-0,035	-0,116
-480,605	-200,000	0,020	0,066
-479,591	516,282	-0,036	0,061
-478,576	-200,000	-0,000	-0,058
-477,562	-200,000	0,013	0,067
-476,547	-200,000	-0,017	-0,085
-475,532	-3,178	-0,091	-0,046
-474,518	-140,337	-0,029	-0,002
-473,503	80,351	0,050	0,038
-472,489	3,997	-0,085	0,044
-471,474	-63,978	-0,106	0,031
-470,459	777,755	-0,038	0,075
-469,445	-170,907	-0,046	-0,001
-468,430	129,558	0,078	-0,071
-467,416	463,426	-0,044	-0,070
-466,401	44,364	0,111	-0,073
-465,386	-200,000	-0,016	-0,088
-464,372	46,832	0,106	0,070
-463,357	125,657	0,051	-0,046
-462,343	82,409	-0,062	-0,048
-461,328	-96,539	0,042	-0,008
-460,313	800,000	0,078	-0,167
-459,299	-200,000	0,014	-0,090
-458,284	-200,000	0,040	0,144
-457,270	-149,507	-0,032	0,002
-456,255	-200,000	0,002	-0,030
-455,241	135,409	-0,112	-0,104
-454,226	-101,424	-0,127	0,022
-453,211	363,739	0,067	0,096
-452,197	15,027	0,083	0,047
-451,182	800,000	0,047	0,118
-450,168	-64,325	-0,096	-0,028
-449,153	-135,151	-0,074	-0,006
-448,138	70,403	-0,040	-0,030
-447,124	104,597	0,009	0,008
-446,109	127,097	0,029	0,026
-445,095	-28,743	-0,117	0,048
-444,080	-42,514	0,138	-0,050
-443,065	-200,000	-0,022	0,160
-442,051	205,444	-0,080	0,089
-441,036	-200,000	0,013	0,111
-440,022	-123,948	0,095	-0,011
-439,007	-79,802	0,076	0,018
-437,992	-137,558	-0,053	0,004
-436,978	800,000	0,049	0,147
-435,963	251,907	-0,040	-0,049
-434,949	434,381	0,054	-0,084
-433,934	-103,602	-0,138	-0,023
-432,919	-77,178	0,042	-0,011
-431,905	-36,334	0,065	-0,025
-430,890	186,577	-0,106	-0,113
-429,876	-46,544	0,087	-0,030
-428,861	-128,463	0,030	-0,003
-427,846	492,379	0,054	-0,089
-426,832	-53,981	0,140	0,046
-425,817	-42,412	-0,123	-0,045
-424,803	800,000	-0,023	-0,063
-423,788	40,890	0,124	-0,080
-422,773	800,000	-0,024	-0,053
-421,759	569,449	0,039	0,069
-420,744	624,682	0,049	-0,088
-419,730	-78,845	0,033	-0,008
-418,715	282,981	0,009	0,011
-417,701	-26,522	-0,066	-0,027
-416,686	-200,000	0,004	0,058
-415,671	800,000	0,034	0,102
-414,657	248,248	-0,033	0,040
-413,642	-73,800	-0,109	0,028
-412,628	800,000	-0,054	0,115
-411,613	800,000	0,009	-0,025
-410,598	59,526	0,059	0,042
-409,584	-200,000	0,031	-0,143
-408,569	136,018	-0,038	-0,036
-407,555	180,791	0,061	-0,064
-406,540	300,861	-0,063	-0,083
-405,525	663,014	0,030	-0,055
-404,511	800,000	0,088	-0,189
-403,496	-200,000	-0,013	-0,164
-402,482	-67,270	0,022	-0,006
-401,467	18,486	0,055	-0,031
-400,452	-103,650	-0,094	0,016
-399,438	278,125	-0,159	0,203
-398,423	380,038	0,102	0,150
-397,409	-85,698	-0,092	0,020
-396,394	762,192	-0,065	0,128
-395,379	-60,664	0,054	0,016
-394,365	-58,261	-0,019	0,006
-393,350	-200,000	0,007	0,133
-392,336	90,718	-0,091	0,073
-391,321	-200,000	0,014	-0,059
-390,306	-200,000	-0,011	0,060
-389,292	0,304	0,037	-0,019
-388,277	-127,979	0,056	-0,006
-387,263	-17,472	0,065	-0,029
-386,248	282,732	0,033	-0,042
-385,233	800,000	0,004	0,010
-384,219	151,759	-0,072	-0,070
-383,204	357,648	-0,038	0,054
-382,190	-200,000	-0,007	0,048
-381,175	172,503	0,037	-0,038
-380,160	244,769	0,103	0,124
-379,146	-200,000	0,017	-0,074
-378,131	200,787	-0,091	0,100
-377,117	238,347	0,060	0,071
-376,102	32,999	-0,089	0,055
-375,088	-109,644	0,090	0,013
-374,073	-200,000	0,022	0,099
-373,058	800,000	0,047	0,103
-372,044	-156,015	-0,088	-0,004
-371,029	-93,032	0,125	-0,025
-370,015	14,523	0,133	0,074
-369,000	-200,000	0,015	0,102
-367,985	82,446	-0,040	-0,031
-366,971	-200,000	0,007	-0,036
-365,956	240,774	-0,010	-0,012
-364,942	391,922	0,062	0,093
-363,927	-27,099	0,070	-0,029
-362,912	800,000	0,020	-0,057
-361,898	-200,000	0,026	0,085
-360,883	125,774	-0,085	-0,077
-359,869	276,010	0,049	0,062
-358,854	-23,360	-0,077	-0,033
-357,839	44,173	0,065	-0,043
-356,825	-14,691	-0,154	0,071
-355,810	-53,760	0,092	0,030
-354,796	800,000	-0,062	-0,147
-353,781	-139,304	0,085	0,006
-352,766	511,722	-0,021	-0,036
-351,752	-200,000	-0,029	0,123
-350,737	-20,377	0,045	0,020
-349,723	-117,287	0,006	-0,001
-348,708	-200,000	0,024	-0,084
-347,693	140,512	-0,044	0,042
-346,679	238,219	-0,103	-0,122
-345,664	81,191	-0,082	-0,063
-344,650	800,000	-0,043	0,122
-343,635	294,609	0,030	-0,039
-342,620	321,325	-0,023	0,032
-341,606	27,849	-0,095	0,057
-340,591	11,551	-0,123	0,067
-339,577	574,684	-0,011	0,019
-338,562	479,601	-0,045	-0,074
-337,548	-200,000	-0,008	-0,033
-336,533	-79,468	0,131	-0,031
-335,518	800,000	0,013	0,038
-334,504	77,555	-0,060	0,045
-333,489	-200,000	0,006	0,031
-332,475	-88,562	-0,154	-0,032
-331,460	-140,986	-0,024	-0,002
-330,445	-79,057	-0,090	0,022
-329,431	-200,000	0,006	0,088
-328,416	-24,804	0,169	0,071
-327,402	461,591	-0,109	0,174
-326,387	-200,000	-0,017	0,149
-325,372	800,000	0,030	-0,091
-324,358	800,000	0,041	-0,104
-323,343	-61,353	-0,092	0,028
-322,329	-200,000	0,009	-0,031
-321,314	800,000	-0,023	0,058
-320,299	800,000	-0,033	0,091
-319,285	800,000	-0,038	0,091
-318,270	-200,000	0,019	0,094
-317,256	800,000	-0,056	-0,158
-316,241	800,000	0,063	-0,171
-315,226	24,190	0,141	-0,083
-314,212	-142,436	-0,023	-0,002
-313,197	12,195	-0,051	0,028
-312,183	-200,000	-0,028	-0,107
-311,168	-177,145	-0,076	-0,001
-310,153	-200,000	-0,023	-0,087
-309,139	-200,000	-0,012	0,071
-308,124	15,058	0,045	0,025
-307,110	168,578	0,071	0,072
-306,095	465,395	0,027	0,043
-305,080	-200,000	0,011	0,059
-304,066	-200,000	-0,002	-0,065
-303,051	115,505	0,087	0,076
-302,037	-200,000	-0,002	0,036
-301,022	-125,551	0,086	-0,009
-300,008	116,228	-0,061	-0,053
-298,993	-200,000	-0,004	-0,038
-297,978	360,132	-0,036	0,052
-296,964	87,739	0,088	0,069
-295,949	800,000	-0,064	-0,133
-294,935	213,754	0,045	0,051
-293,920	-113,544	0,143	-0,020
-292,905	800,000	-0,039	0,100
-291,891	242,062	0,027	0,033
-290,876	99,697	0,112	0,092
-289,862	179,674	0,053	0,056
-288,847	-200,000	-0,012	-0,124
-287,832	30,417	-0,109	-0,066
-286,818	-131,082	0,155	-0,015
-285,803	298,128	0,048	0,063
-284,789	-195,524	0,036	0,000
-283,774	800,000	-0,035	0,084
-282,759	112,136	-0,044	0,038
-281,745	-95,519	-0,084	0,016
-280,730	800,000	0,039	-0,085
-279,716	254,453	0,132	-0,161
-278,701	68,291	-0,057	0,042
-277,686	-111,867	0,045	-0,006
-276,672	13,344	0,206	-0,113
-275,657	-69,099	-0,133	0,036
-274,643	-200,000	-0,000	0,110
-273,628	-33,918	-0,129	-0,050
-272,613	-168,925	0,114	0,003
-271,599	800,000	-0,009	0,025
-270,584	-200,000	0,030	0,106
-269,570	800,000	0,041	0,114
-268,555	-27,636	-0,094	0,039
-267,540	152,184	-0,024	0,023
-266,526	253,493	-0,042	-0,051
-265,511	-70,272	0,130	0,035
-264,497	-159,036	0,084	0,003
-263,482	-156,034	0,092	-0,004
-262,467	-200,000	-0,141	0,000
-261,453	-200,000	0,024	-0,086
-260,438	-0,873	-0,059	0,029
-259,424	800,000	0,059	-0,123
-258,409	-200,000	-0,003	-0,106
-257,395	89,161	0,097	0,076
-256,380	631,096	-0,008	0,015
-255,365	-46,984	0,002	-0,001
-254,351	800,000	-0,015	0,037
-253,336	669,378	-0,065	-0,121
-252,322	-6,573	-0,024	0,012
-251,307	800,000	-0,034	0,072
-250,292	358,004	-0,056	0,079
-249,278	321,685	0,065	-0,089
-248,263	-200,000	-0,032	0,111
-247,249	684,243	-0,092	0,171
-246,234	800,000	0,023	-0,066
-245,219	97,444	-0,079	-0,064
-244,205	-200,000	0,024	-0,092
-243,190	800,000	-0,076	0,202
-242,176	12,345	0,132	0,072
-241,161	-16,364	-0,037	-0,017
-240,146	800,000	0,027	-0,066
-239,132	29,399	-0,076	-0,046
-238,117	367,304	0,032	0,046
-237,103	235,011	-0,043	0,051
-236,088	693,462	-0,005	0,010
-235,073	19,410	-0,061	0,035
-234,059	-200,000	-0,002	-0,076
-233,044	-200,000	0,016	0,068
-232,030	-49,930	0,130	-0,043
-231,015	800,000	-0,030	-0,083
-230,000	-115,981	-0,087	0,011
-228,986	343,938	0,006	-0,008
-227,971	-200,000	0,012	0,134
-226,957	-200,000	0,009	0,033
-225,942	-200,000	0,021	-0,193
-224,927	126,252	0,083	0,075
-223,913	800,000	-0,064	-0,143
-222,898	-90,857	-0,075	-0,015
-221,884	140,727	-0,088	-0,083
-220,869	-82,484	0,141	0,032
-219,855	-40,223	-0,048	0,018
-218,840	-38,557	0,113	0,042
-217,825	788,366	0,026	-0,050
-216,811	-108,215	-0,128	-0,020
-215,796	-74,789	-0,095	-0,024
-214,782	-33,316	-0,060	0,023
-213,767	20,500	0,079	0,045
-212,752	800,000	-0,024	0,070
-211,738	800,000	-0,048	0,107
-210,723	-200,000	0,022	0,145
-209,709	33,237	-0,029	-0,018
-208,694	-200,000	-0,010	-0,084
-207,679	705,462	0,049	-0,092
-206,665	-41,028	0,104	0,038
-205,650	-200,000	-0,005	0,195
-204,636	-25,528	0,084	0,035
-203,621	26,993	0,052	-0,031
-202,606	-200,000	0,005	-0,050
-201,592	288,793	-0,043	0,056
-200,577	426,375	-0,072	0,111
-199,563	800,000	0,036	0,084
-198,548	247,146	-0,008	-0,009
-197,533	153,609	0,021	0,020
-196,519	-40,350	-0,121	0,044
-195,504	459,787	0,081	-0,129
-194,490	-200,000	0,002	-0,014
-193,475	184,723	-0,060	-0,063
-192,460	-37,159	-0,052	-0,020
-191,446	-18,935	0,061	0,027
-190,431	447,006	0,100	0,157
-189,417	-200,000	-0,041	0,198
-188,402	-18,326	0,107	-0,047
-187,387	-200,000	0,025	-0,092
-186,373	102,217	-0,102	-0,084
-185,358	18,533	-0,060	0,034
-184,344	-43,383	-0,096	-0,034
-183,329	277,433	0,029	0,037
-182,315	603,517	0,074	0,131
-181,300	-200,000	0,009	0,088
-180,285	117,144	-0,120	-0,105
-179,271	800,000	-0,062	-0,148
-178,256	-37,179	0,134	-0,051
-177,242	414,310	0,057	0,087
-176,227	-52,077	-0,100	0,033
-175,212	609,226	0,046	0,082
-174,198	-105,563	-0,105	-0,017
-173,183	-6,013	-0,126	-0,061
-172,169	710,075	0,019	-0,035
-171,154	-65,830	0,019	0,005
-170,139	-28,727	0,134	0,055
-169,125	321,057	0,099	-0,134
-168,110	126,959	-0,034	0,031
-167,096	-200,000	0,018	-0,071
-166,081	-198,514	-0,047	-0,000
-165,066	216,656	0,003	0,004
-164,052	128,089	-0,148	0,133
-163,037	-78,149	0,159	-0,039
-162,023	15,688	-0,098	0,054
-161,008	-6,031	-0,118	-0,057
-159,993	308,395	0,029	0,039
-158,979	-200,000	0,001	0,048
-157,964	-167,464	-0,110	0,003
-156,950	-131,784	0,109	-0,010
-155,935	69,614	0,119	0,087
-154,920	-200,000	-0,010	-0,119
-153,906	-40,630	0,098	-0,036
-152,891	183,706	-0,119	0,124
-151,877	176,869	-0,055	-0,057
-150,862	309,359	-0,032	0,042
-149,847	-145,190	-0,096	0,006
-148,833	45,801	-0,043	-0,028
-147,818	700,059	0,044	-0,083
-146,804	400,663	-0,032	-0,048
-145,789	75,109	0,065	0,049
-144,775	243,243	-0,101	-0,120
-143,760	-200,000	0,011	-0,164
-142,745	-88,809	-0,022	0,005
-141,731	62,453	0,122	0,086
-140,716	50,496	0,058	0,039
-139,702	14,508	-0,064	0,035
-138,687	-161,794	-0,054	0,002
-137,672	-200,000	-0,026	0,083
-136,658	-86,815	0,039	-0,008
-135,643	538,427	0,037	-0,062
-134,629	-97,884	0,109	-0,020
-133,614	-53,418	-0,083	-0,027
-132,599	-18,861	-0,051	-0,022
-131,585	28,072	-0,037	0,022
-130,570	-200,000	-0,001	0,073
-129,556	425,305	0,007	-0,011
-128,541	800,000	-0,038	-0,101
-127,526	498,844	0,028	-0,046
-126,512	168,139	0,023	0,023
-125,497	800,000	0,081	0,199
-124,483	-37,211	0,071	-0,027
-123,468	662,055	-0,041	-0,075
-122,453	-74,869	-0,111	-0,028
-121,439	204,223	-0,032	-0,035
-120,424	-200,000	-0,036	0,188
-119,410	14,332	0,046	0,026
-118,395	-3,536	-0,088	0,043
-117,380	-200,000	0,029	0,134
-116,366	-166,968	0,039	-0,001
-115,351	-200,000	-0,031	-0,108
-114,337	-23,671	0,157	-0,066
-113,322	-200,000	-0,003	0,168
-112,307	-200,000	-0,006	0,167
-111,293	-200,000	0,022	0,246
-110,278	78,715	-0,082	0,062
-109,264	-200,000	-0,010	0,047
-108,249	-200,000	-0,008	0,053
-107,234	254,077	-0,103	-0,124
-106,220	632,052	0,087	-0,156
-105,205	138,798	-0,003	0,003
-104,191	800,000	0,065	0,153
-103,176	800,000	0,026	0,053
-102,162	216,517	-0,041	-0,046
-101,147	478,869	0,032	0,052
-100,132	-82,283	-0,158	0,036
-99,118	800,000	0,037	0,099
-98,103	-143,609	0,082	-0,005
-97,089	300,358	0,100	0,130
-96,074	421,102	0,057	-0,087
-95,059	386,696	-0,043	0,063
-94,045	-74,985	-0,084	-0,021
-93,030	-200,000	-0,010	-0,092
-92,016	-115,276	-0,033	0,004
-91,001	-106,223	0,061	0,010
-89,986	95,639	0,028	-0,022
-88,972	159,336	-0,046	-0,045
-87,957	-200,000	-0,020	0,000
-86,943	-200,000	-0,018	-0,109
-85,928	402,221	0,097	0,145
-84,913	-104,010	-0,193	0,031
-83,899	35,575	-0,032	0,020
-82,884	57,981	0,039	0,027
-81,870	-29,853	-0,087	0,035
-80,855	-200,000	0,005	0,104
-79,840	268,978	-0,030	-0,038
-78,826	-76,111	-0,037	0,009
-77,811	-86,969	0,018	-0,004
-76,797	-200,000	0,001	0,047
-75,782	800,000	-0,040	-0,096
-74,767	-200,000	-0,023	0,084
-73,753	800,000	0,004	0,010
-72,738	-200,000	0,005	0,077
-71,724	-62,238	-0,101	0,030
-70,709	800,000	-0,027	-0,069
-69,694	-14,848	-0,141	0,063
-68,680	-82,028	0,079	-0,018
-67,665	-40,935	0,105	0,038
-66,651	478,740	-0,079	-0,127
-65,636	-200,000	0,011	-0,103
-64,622	-200,000	0,003	0,095
-63,607	800,000	-0,053	-0,144
-62,592	800,000	-0,032	-0,063
-61,578	-110,000	-0,041	0,006
-60,563	-77,064	0,047	-0,011
-59,549	-198,811	-0,077	0,000
-58,534	48,827	-2,098	-1,387
-57,519	514,024	-1,216	-2,009
-56,505	-200,000	-0,188	-4,268
-55,490	541,037	0,851	1,436
-54,476	800,000	5,206	11,503
-53,461	-200,000	21,715	344,991
-52,446	800,000	763,047	2350,332
-51,432	549,755	1662,533	2823,922
-50,417	71,772	1658,850	1215,594
-49,403	17,336	1532,153	856,013
-48,388	11,366	1455,907	784,575
-47,373	19,548	1447,692	819,333
-46,359	14,906	1436,488	790,922
-45,344	9,617	1432,479	763,525
-44,330	9,564	1430,675	762,282
-43,315	9,534	1429,013	761,222
-42,300	9,537	1427,143	760,212
-41,286	9,550	1425,884	759,573
-40,271	9,558	1424,612	758,905
-39,257	9,553	1423,487	758,251
-38,242	9,566	1422,378	757,691
-37,227	9,605	1421,273	757,254
-36,213	9,580	1420,001	756,429
-35,198	9,578	1418,535	755,612
-34,184	9,608	1417,781	755,320
-33,169	9,551	1416,425	754,299
-32,154	9,558	1415,430	753,771
-31,140	9,603	1413,999	753,191
-30,125	9,665	1412,839	752,835
-29,111	9,602	1411,897	752,010
-28,096	9,595	1410,468	751,183
-27,082	9,521	1409,416	750,246
-26,067	9,512	1408,517	749,699
-25,052	9,561	1407,365	749,282
-24,038	9,594	1406,407	748,896
-23,023	9,534	1405,541	748,125
-22,009	9,532	1404,555	747,562
-20,994	9,526	1403,516	746,953
-19,979	9,578	1402,442	746,592
-18,965	9,532	1401,677	745,939
-17,950	9,512	1400,783	745,341
-16,936	9,458	1399,882	744,582
-15,921	9,437	1398,942	743,955
-14,906	9,423	1398,029	743,377
-13,892	9,499	1396,984	743,141
-12,877	9,453	1396,450	742,617
-11,863	9,416	1395,618	741,972
-10,848	9,394	1394,462	741,229
-9,833	9,382	1393,654	740,711
-8,819	9,306	1392,752	739,850
-7,804	9,295	1391,868	739,304
-6,790	9,341	1390,669	738,848
-5,775	9,384	1389,432	738,361
-4,760	9,405	1388,495	737,931
-3,746	9,375	1387,713	737,348
-2,731	9,370	1386,962	736,896
-1,717	9,376	1385,958	736,360
-0,702	9,331	1384,339	735,265
0,313	13,379	1296,700	707,194
1,327	29,485	687,563	411,377
2,342	46,012	118,788	77,403
3,356	-0,196	16,414	8,207
4,371	2,746	3,680	1,876
5,386	29,458	1,097	0,656
6,400	517,643	0,343	0,568
7,415	-5,481	-0,190	-0,092
8,429	-120,889	-0,272	0,032
9,444	800,000	-0,159	-0,343
10,459	76,194	-0,275	-0,205
11,473	199,200	-0,226	-0,245
12,488	130,879	-0,266	-0,241
13,502	10,710	-0,309	-0,166
14,517	112,360	-0,328	-0,280
15,531	83,120	-0,346	-0,265
16,546	-60,762	-0,492	-0,146
17,561	68,150	-0,326	-0,235
18,575	-12,317	-0,199	-0,091
19,590	129,774	-0,202	-0,182
20,604	84,694	-0,313	-0,241
21,619	53,324	-0,510	-0,343
22,634	-12,514	-0,458	-0,210
23,648	121,453	-0,307	-0,269
24,663	168,962	-0,311	-0,312
25,677	135,452	-0,318	-0,291
26,692	-77,335	-0,405	-0,098
27,707	85,721	-0,259	-0,200
28,721	-31,431	-0,410	-0,161
29,736	26,724	-0,412	-0,242
30,750	257,685	-0,300	-0,364
31,765	24,934	-0,362	-0,211
32,780	162,375	-0,257	-0,253
33,794	17,584	-0,327	-0,183
34,809	89,018	-0,401	-0,314
35,823	-45,797	-0,350	-0,121
36,838	144,510	-0,422	-0,396
37,853	45,034	-0,319	-0,206
38,867	267,172	-0,330	-0,406
39,882	460,392	-0,255	-0,401
40,896	-30,310	-0,296	-0,118
41,911	-40,453	-0,276	-0,100
42,926	112,361	-0,357	-0,303
43,940	11,313	-0,422	-0,226
44,955	69,180	-0,321	-0,232
45,969	5,533	-0,409	-0,211
46,984	142,624	-0,300	-0,280
47,999	-41,273	-0,395	-0,142
49,013	36,931	-0,389	-0,241
50,028	168,020	-0,177	-0,177
51,042	78,077	-0,223	-0,167
52,057	141,883	-0,342	-0,319
53,071	58,523	-0,427	-0,294
54,086	-29,802	-0,345	-0,137
55,101	109,952	-0,333	-0,280
56,115	-12,594	-0,354	-0,162
57,130	4,524	-0,380	-0,195
58,144	-4,640	-0,420	-0,203
59,159	110,124	-0,419	-0,353
60,174	164,253	-0,335	-0,332
61,188	109,998	-0,226	-0,190
62,203	19,694	-0,305	-0,172
63,217	-53,854	-0,335	-0,106
64,232	65,457	-0,255	-0,181
65,247	149,056	-0,306	-0,290
66,261	98,499	-0,365	-0,295
67,276	65,168	-0,413	-0,292
68,290	127,100	-0,290	-0,258
69,305	81,857	-0,322	-0,244
70,320	27,038	-0,245	-0,144
71,334	-1,017	-0,317	-0,156
72,349	-21,325	-0,470	-0,200
73,363	39,514	-0,357	-0,224
74,378	79,059	-0,380	-0,285
75,393	-59,047	-0,296	-0,089
76,407	198,338	-0,224	-0,240
77,422	472,816	-0,143	-0,227
78,436	-54,994	-0,346	-0,109
79,451	-85,730	-0,328	-0,071
80,466	171,401	-0,242	-0,244
81,480	81,062	-0,328	-0,248
82,495	179,116	-0,280	-0,288
83,509	72,795	-0,322	-0,235
84,524	96,127	-0,218	-0,175
85,539	-95,193	-0,328	-0,061
86,553	51,565	-0,273	-0,181
87,568	-31,503	-0,310	-0,121
88,582	145,871	-0,293	-0,275
89,597	133,372	-0,312	-0,282
90,611	-29,741	-0,367	-0,146
91,626	-30,821	-0,264	-0,104
92,641	376,610	-0,194	-0,278
93,655	153,570	-0,157	-0,150
94,670	152,362	-0,216	-0,206
95,684	144,395	-0,203	-0,190
96,699	-7,944	-0,368	-0,173
97,714	77,243	-0,260	-0,193
98,728	168,801	-0,283	-0,283
99,743	48,666	-0,261	-0,171
100,757	299,592	-0,208	-0,268
101,772	24,494	-0,269	-0,155
102,787	260,406	-0,223	-0,269
103,801	51,542	-0,133	-0,088
104,816	-125,602	-0,277	-0,029
105,830	480,962	-0,083	-0,132
106,845	38,243	-0,242	-0,150
107,860	5,164	-0,296	-0,152
108,874	111,438	-0,310	-0,261
109,889	18,436	-0,378	-0,211
110,903	212,138	-0,253	-0,279
111,918	32,769	-0,290	-0,175
112,933	196,718	-0,168	-0,179
113,947	57,624	-0,076	-0,052
114,962	71,350	-0,206	-0,149
115,976	117,842	-0,257	-0,221
116,991	126,676	-0,263	-0,233
118,006	135,654	-0,307	-0,279
119,020	526,366	-0,221	-0,365
120,035	95,426	-0,140	-0,111
121,049	-47,182	-0,129	-0,044
122,064	40,929	-0,266	-0,167
123,079	192,011	-0,139	-0,146
124,093	138,038	-0,253	-0,231
125,108	144,743	-0,298	-0,278
126,122	66,596	-0,250	-0,178
127,137	318,830	-0,230	-0,304
128,151	-48,588	-0,116	0,039
129,166	691,643	-0,121	-0,221
130,181	152,520	-0,285	-0,271
131,195	52,511	-0,322	-0,214
132,210	89,424	-0,245	-0,190
133,224	71,619	-0,276	-0,200
134,239	800,000	-0,106	-0,252
135,254	0,280	-0,247	-0,122
136,268	339,071	-0,166	-0,226
137,283	-109,920	-0,194	-0,028
138,297	-25,699	-0,322	-0,132
139,312	38,828	-0,349	-0,216
140,327	-84,519	-0,227	-0,050
141,341	52,019	-0,231	-0,153
142,356	70,142	-0,215	-0,154
143,370	27,041	-0,362	-0,211
144,385	-11,446	-0,262	-0,119
145,400	-49,327	-0,310	-0,102
146,414	138,235	-0,243	-0,222
147,429	800,000	-0,132	-0,327
148,443	141,797	-0,279	-0,258
149,458	5,173	-0,228	-0,117
150,473	8,229	-0,187	-0,097
151,487	800,000	-0,159	-0,314
152,502	351,184	-0,151	-0,209
153,516	319,108	-0,223	-0,294
154,531	154,119	-0,294	-0,281
155,546	70,631	-0,186	-0,134
156,560	153,073	-0,274	-0,261
157,575	-45,258	-0,240	-0,082
158,589	379,474	-0,172	-0,246
159,604	800,000	-0,101	-0,211
160,619	306,554	-0,222	-0,289
161,633	78,055	-0,337	-0,250
162,648	235,960	-0,219	-0,253
163,662	99,063	-0,108	-0,087
164,677	316,300	-0,099	-0,130
165,692	173,416	-0,286	-0,287
166,706	-26,241	-0,220	-0,090
167,721	61,738	-0,243	-0,168
168,735	156,697	-0,161	-0,154
169,750	84,336	-0,240	-0,182
170,764	170,131	-0,110	-0,109
171,779	156,936	-0,180	-0,173
172,794	-68,873	-0,178	-0,047
173,808	42,810	-0,227	-0,143
174,823	-57,388	-0,285	-0,086
175,837	51,359	-0,256	-0,168
176,852	-200,000	-0,050	-0,169
177,867	79,097	-0,157	-0,116
178,881	17,289	-0,170	-0,093
179,896	35,144	-0,231	-0,140
180,910	-7,689	-0,174	-0,081
181,925	275,964	-0,151	-0,187
182,940	-20,566	-0,322	-0,137
183,954	800,000	-0,200	-0,442
184,969	266,161	-0,202	-0,246
185,983	38,252	-0,253	-0,156
186,998	19,646	-0,159	-0,089
188,013	114,530	-0,121	-0,102
189,027	67,181	-0,349	-0,247
190,042	800,000	-0,191	-0,440
191,056	-6,314	-0,297	-0,140
192,071	93,699	-0,208	-0,164
193,086	449,589	-0,122	-0,187
194,100	-99,099	-0,172	-0,030
195,115	115,292	-0,172	-0,146
196,129	107,507	-0,193	-0,159
197,144	35,510	-0,299	-0,182
198,159	52,847	-0,194	-0,128
199,173	43,305	-0,252	-0,159
200,188	-84,779	-0,300	-0,065
201,202	-55,705	-0,275	-0,085
202,217	411,517	-0,125	-0,184
203,232	7,760	-0,229	-0,119
204,246	694,954	-0,171	-0,312
205,261	-138,303	-0,164	-0,012
206,275	-4,337	-0,276	-0,132
207,290	33,858	-0,218	-0,131
208,304	-200,000	-0,028	-0,121
209,319	800,000	-0,080	-0,185
210,334	175,408	-0,129	-0,130
211,348	271,131	-0,198	-0,242
212,363	421,633	-0,145	-0,216
213,377	-46,450	-0,244	-0,082
214,392	298,573	-0,082	-0,104
215,407	72,619	-0,178	-0,128
216,421	52,628	-0,142	-0,094
217,436	758,764	-0,175	-0,330
218,450	262,272	-0,148	-0,178
219,465	178,962	-0,225	-0,227
220,480	196,248	-0,155	-0,164
221,494	80,093	-0,184	-0,137
222,509	74,878	-0,121	-0,088
223,523	-200,000	-0,058	-0,199
224,538	143,904	-0,285	-0,263
225,553	114,457	-0,268	-0,226
226,567	-98,408	-0,218	-0,038
227,582	-92,703	-0,149	-0,029
228,596	151,553	-0,144	-0,136
229,611	800,000	-0,054	-0,130
230,626	-38,307	-0,254	-0,092
231,640	156,842	-0,135	-0,129
232,655	-9,174	-0,292	-0,134
233,669	200,237	-0,218	-0,231
234,684	36,789	-0,209	-0,127
235,699	-91,631	-0,164	-0,032
236,713	169,430	-0,125	-0,124
237,728	27,065	-0,166	-0,096
238,742	196,552	-0,177	-0,187
239,757	85,908	-0,251	-0,190
240,772	519,809	-0,102	-0,166
241,786	77,963	-0,238	-0,175
242,801	460,116	-0,055	-0,085
243,815	425,332	-0,127	-0,189
244,830	-31,714	-0,207	-0,080
245,844	79,049	-0,238	-0,176
246,859	166,947	-0,171	-0,167
247,874	27,135	-0,251	-0,145
248,888	259,949	-0,177	-0,211
249,903	61,659	-0,282	-0,193
250,917	524,601	-0,131	-0,213
251,932	-87,254	-0,199	-0,041
252,947	613,555	-0,073	-0,127
253,961	38,079	-0,104	-0,063
254,976	315,122	-0,168	-0,219
255,990	-53,282	-0,240	-0,076
257,005	222,735	-0,105	-0,117
258,020	128,286	-0,164	-0,144
259,034	115,565	-0,100	-0,085
260,049	93,378	-0,161	-0,126
261,063	68,285	-0,211	-0,149
262,078	29,658	-0,116	-0,068
263,093	90,345	-0,122	-0,094
264,107	158,582	-0,170	-0,163
265,122	-65,725	-0,093	-0,026
266,136	-62,248	-0,090	-0,026
267,151	254,489	-0,124	-0,147
268,166	123,661	-0,193	-0,167
269,180	433,295	-0,106	-0,159
270,195	-40,258	-0,335	-0,120
271,209	-200,000	-0,069	-0,283
272,224	300,088	-0,175	-0,223
273,239	244,926	-0,129	-0,149
274,253	-37,744	-0,096	0,035
275,268	-63,866	-0,138	-0,039
276,282	92,272	-0,204	-0,158
277,297	129,096	-0,233	-0,204
278,312	182,264	-0,216	-0,219
279,326	161,705	-0,250	-0,241
280,341	71,649	-0,161	-0,115
281,355	283,720	-0,131	-0,162
282,370	-83,564	-0,127	-0,028
283,384	96,423	-0,199	-0,157
284,399	190,938	-0,150	-0,155
285,414	82,396	-0,175	-0,130
286,428	57,215	-0,134	-0,090
287,443	-15,752	-0,155	-0,068
288,457	101,495	-0,154	-0,123
289,472	176,323	-0,171	-0,171
290,487	83,363	-0,201	-0,150
291,501	-51,442	-0,188	-0,060
292,516	133,778	-0,162	-0,144
293,530	1,427	-0,324	-0,159
294,545	-107,317	-0,128	-0,019
295,560	5,784	-0,222	-0,113
296,574	35,743	-0,074	-0,044
297,589	-10,664	-0,135	0,061
298,603	14,794	-0,230	-0,123
299,618	507,351	-0,156	-0,250
300,633	-3,450	-0,094	0,045
301,647	-200,000	-0,006	-0,180
302,662	-86,160	0,023	0,005
303,676	380,470	-0,085	-0,119
304,691	26,919	-0,216	-0,124
305,706	657,252	-0,045	-0,080
306,720	-43,120	-0,345	-0,119
307,735	-200,000	-0,024	-0,093
308,749	-200,000	0,015	-0,268
309,764	504,631	-0,077	-0,122
310,779	-200,000	-0,013	0,088
311,793	-67,590	-0,100	-0,027
312,808	289,952	-0,202	-0,252
313,822	124,171	-0,212	-0,183
314,837	70,130	-0,138	-0,098
315,852	127,055	-0,273	-0,237
316,866	-88,969	-0,190	-0,038
317,881	-9,405	-0,159	-0,072
318,895	90,996	-0,314	-0,242
319,910	80,931	-0,200	-0,148
320,925	5,967	-0,143	-0,072
321,939	71,012	-0,195	-0,139
322,954	-93,272	-0,085	0,016
323,968	-131,342	-0,094	0,008
324,983	800,000	-0,124	-0,322
325,997	41,150	-0,183	-0,113
327,012	-117,132	-0,175	-0,022
328,027	148,099	-0,196	-0,182
329,041	114,130	-0,109	-0,091
330,056	122,014	-0,056	-0,048
331,070	-103,030	-0,151	-0,024
332,085	-28,236	-0,114	-0,045
333,100	-123,210	-0,173	-0,019
334,114	-54,555	-0,154	-0,047
335,129	453,732	-0,116	-0,177
336,143	-200,000	-0,009	-0,156
337,158	532,221	-0,095	-0,155
338,173	-200,000	-0,001	-0,131
339,187	744,953	-0,143	-0,265
340,202	32,876	-0,049	-0,029
341,216	-70,170	-0,138	0,036
342,231	332,148	-0,149	-0,197
343,246	411,030	-0,072	-0,105
344,260	-89,642	-0,180	-0,036
345,275	800,000	-0,094	-0,179
346,289	-200,000	-0,017	-0,180
347,304	589,951	-0,139	-0,236
348,319	-200,000	-0,006	-0,191
349,333	157,709	-0,223	-0,211
350,348	-60,756	-0,186	-0,053
351,362	-87,877	-0,082	-0,017
352,377	103,593	-0,064	-0,051
353,392	-61,234	-0,158	-0,045
354,406	531,004	0,041	-0,066
355,421	208,207	1305,691	1397,069
356,435	160,201	1465,259	1397,528
