DTS Sentinel unit serial number:	SN410029Multiplexer serial number:	ORYXHardware model number:	OX2-SRSoftware version number:	ORYX F/W v4,00 Oryx Data Collector v3.7.2.0data status	okinstallation	B3 Nyhavnadifferential loss correction	single-endedforward channel	channel 1reverse channel	N/Adate	2023/12/02time	15:47:30forward acquisition time	300,00reverse acquisition time	0,00gamma	499,1914k internal	0,3198k external	0,3198temperature offset calibration	1,0000default loss term (dB/km)	0,3820temperature slope calibration	1,0000multiplexer offset coefficient	1,0000multiplexer slope coefficient	1,0000fibre end	0,00T internal ref (°C)	14,55T ext. ref 1 (°C)	-1,03T ext. ref 2 (°C)	-1,04length (m)	temperature (°C)	Stokes	anti-Stokes-744,400	800,000	-0,107	-0,233
-743,385	-200,000	0,035	0,159
-742,371	141,648	-0,221	-0,213
-741,356	-200,000	0,098	0,414
-740,342	666,795	-0,140	-0,265
-739,327	-200,000	0,068	0,333
-738,312	67,523	-0,259	-0,192
-737,298	-200,000	0,077	0,280
-736,283	97,142	-0,156	-0,130
-735,269	-200,000	0,062	0,358
-734,254	101,548	-0,214	-0,181
-733,239	-52,928	-0,242	0,081
-732,225	-65,777	-0,228	-0,066
-731,210	141,822	0,155	0,150
-730,196	-139,959	0,118	0,009
-729,181	99,993	0,036	-0,031
-728,167	119,243	-0,060	-0,054
-727,152	14,505	-0,004	-0,002
-726,137	-108,125	-0,114	0,018
-725,123	-200,000	-0,044	-0,159
-724,108	357,619	-0,067	0,097
-723,094	52,679	0,112	-0,078
-722,079	152,782	-0,082	-0,081
-721,064	-100,271	-0,120	0,021
-720,050	178,321	-0,083	0,089
-719,035	61,338	-0,098	0,071
-718,021	44,604	-0,161	-0,108
-717,006	649,679	-0,076	-0,142
-715,991	776,674	-0,026	-0,052
-714,977	800,000	-0,030	-0,075
-713,962	-200,000	-0,003	0,066
-712,948	-200,000	-0,002	0,062
-711,933	201,946	-0,065	-0,073
-710,918	138,744	-0,107	0,102
-709,904	172,553	0,055	-0,058
-708,889	213,089	-0,085	-0,098
-707,875	800,000	0,059	-0,134
-706,860	715,400	0,040	-0,078
-705,845	-200,000	0,018	-0,158
-704,831	121,294	0,051	0,046
-703,816	800,000	-0,027	0,059
-702,802	-77,315	-0,232	0,058
-701,787	252,039	-0,033	0,041
-700,772	-200,000	-0,016	-0,107
-699,758	73,132	-0,046	0,035
-698,743	-151,445	0,018	-0,001
-697,729	183,257	-0,029	-0,031
-696,714	434,967	0,058	0,091
-695,699	-168,118	-0,034	0,001
-694,685	440,407	-0,002	-0,002
-693,670	-200,000	-0,004	0,023
-692,656	182,449	-0,028	0,030
-691,641	14,239	0,059	0,033
-690,627	666,777	-0,044	-0,084
-689,612	-108,812	-0,130	0,020
-688,597	-55,900	-0,143	0,046
-687,583	30,246	0,081	-0,050
-686,568	800,000	-0,059	-0,121
-685,554	-200,000	0,009	-0,130
-684,539	59,621	0,105	-0,075
-683,524	480,168	-0,019	0,032
-682,510	-133,453	0,110	-0,010
-681,495	800,000	0,035	-0,076
-680,481	-200,000	-0,005	-0,282
-679,466	800,000	-0,044	0,129
-678,451	-121,962	-0,168	-0,020
-677,437	-200,000	0,003	0,054
-676,422	-111,086	-0,050	-0,007
-675,408	800,000	0,032	0,093
-674,393	4,033	-0,092	-0,049
-673,378	16,362	-0,186	-0,106
-672,364	800,000	0,070	-0,171
-671,349	663,143	-0,061	-0,114
-670,335	453,931	-0,084	-0,135
-669,320	-200,000	0,042	-0,176
-668,305	-200,000	-0,005	-0,086
-667,291	233,083	0,108	-0,130
-666,276	-200,000	0,028	-0,149
-665,262	800,000	-0,057	-0,175
-664,247	-200,000	-0,048	-0,161
-663,232	-200,000	-0,026	-0,151
-662,218	800,000	-0,042	0,112
-661,203	-146,682	0,053	-0,003
-660,189	-200,000	-0,017	-0,098
-659,174	500,281	0,048	-0,081
-658,159	316,397	-0,035	-0,048
-657,145	57,172	-0,114	-0,081
-656,130	177,874	0,063	0,067
-655,116	-200,000	0,017	-0,072
-654,101	135,768	0,056	0,053
-653,086	800,000	0,041	0,104
-652,072	56,849	0,049	0,035
-651,057	-79,522	-0,186	-0,045
-650,043	47,054	-0,122	-0,082
-649,028	-131,302	0,142	0,013
-648,014	100,975	-0,047	-0,040
-646,999	247,432	0,092	0,113
-645,984	-40,418	0,038	-0,014
-644,970	459,359	-0,083	0,135
-643,955	209,765	0,097	-0,110
-642,941	-27,549	0,146	-0,061
-641,926	198,504	0,030	-0,034
-640,911	86,913	0,133	0,106
-639,897	26,600	-0,133	0,080
-638,882	30,657	0,129	0,080
-637,868	18,316	-0,030	0,017
-636,853	-200,000	0,004	-0,045
-635,838	88,686	-0,091	-0,074
-634,824	-200,000	-0,001	-0,059
-633,809	172,822	-0,031	0,032
-632,795	-129,479	-0,071	-0,007
-631,780	302,281	0,042	0,057
-630,765	177,886	-0,137	0,145
-629,751	-53,064	-0,067	0,022
-628,736	72,802	-0,134	0,101
-627,722	208,688	-0,082	-0,094
-626,707	-200,000	-0,053	0,198
-625,692	-91,378	0,077	0,016
-624,678	-200,000	0,001	0,083
-623,663	59,689	0,027	-0,020
-622,649	-111,560	0,051	0,007
-621,634	-139,537	-0,071	0,005
-620,619	800,000	-0,028	-0,067
-619,605	-97,898	-0,108	-0,020
-618,590	800,000	0,017	-0,042
-617,576	-200,000	-0,007	-0,167
-616,561	-23,878	-0,060	-0,026
-615,546	-30,667	-0,111	0,045
-614,532	-200,000	-0,030	-0,167
-613,517	-200,000	-0,041	-0,152
-612,503	-6,314	0,068	0,033
-611,488	129,109	0,061	-0,057
-610,474	-24,240	-0,112	-0,048
-609,459	121,076	-0,065	0,058
-608,444	12,815	-0,130	-0,073
-607,430	-162,687	-0,074	-0,003
-606,415	24,826	-0,078	0,047
-605,401	94,395	0,058	-0,048
-604,386	-84,498	0,058	0,013
-603,371	-200,000	-0,002	0,049
-602,357	800,000	0,018	0,056
-601,342	-200,000	0,012	0,043
-600,328	591,768	-0,056	0,101
-599,313	358,286	0,085	-0,124
-598,298	-200,000	-0,042	-0,183
-597,284	-75,366	0,108	-0,028
-596,269	-200,000	-0,010	-0,083
-595,255	800,000	-0,022	-0,055
-594,240	-144,891	0,050	-0,003
-593,225	228,206	-0,080	0,094
-592,211	-58,736	0,070	0,022
-591,196	-165,975	-0,138	-0,004
-590,182	1,731	0,040	0,021
-589,167	-121,033	0,091	0,011
-588,152	0,150	-0,062	-0,032
-587,138	-102,804	0,063	-0,011
-586,123	-54,758	-0,104	-0,034
-585,109	-142,317	0,077	0,005
-584,094	800,000	-0,027	0,063
-583,079	-200,000	-0,010	0,047
-582,065	785,513	-0,024	0,048
-581,050	-200,000	0,016	0,109
-580,036	-119,828	-0,203	-0,025
-579,021	-200,000	0,007	0,024
-578,006	194,300	-0,113	-0,124
-576,992	-14,471	0,062	-0,029
-575,977	497,210	0,040	-0,066
-574,963	-113,617	0,043	0,006
-573,948	-5,781	0,105	-0,052
-572,934	-200,000	0,015	0,093
-571,919	800,000	-0,030	-0,094
-570,904	800,000	-0,018	-0,051
-569,890	-115,033	-0,017	0,002
-568,875	-200,000	0,015	-0,142
-567,861	302,695	0,061	-0,082
-566,846	-34,668	-0,023	0,009
-565,831	67,886	0,044	0,033
-564,817	-200,000	0,018	-0,159
-563,802	66,929	-0,170	-0,125
-562,788	800,000	-0,034	-0,085
-561,773	29,221	-0,024	-0,015
-560,758	800,000	-0,025	0,062
-559,744	127,721	0,096	0,088
-558,729	-145,336	-0,106	-0,007
-557,715	800,000	0,014	0,044
-556,700	-101,097	0,173	-0,030
-555,685	-46,095	-0,056	0,020
-554,671	389,246	0,038	0,057
-553,656	-113,388	0,045	0,006
-552,642	185,708	0,045	0,049
-551,627	-9,238	0,027	0,013
-550,612	194,223	0,070	-0,076
-549,598	350,780	0,108	-0,155
-548,583	-81,995	-0,091	-0,021
-547,569	-200,000	0,019	0,128
-546,554	-56,048	-0,072	-0,023
-545,539	-200,000	-0,003	0,034
-544,525	-153,034	-0,134	0,007
-543,510	465,056	-0,101	0,164
-542,496	238,991	-0,139	0,167
-541,481	800,000	0,049	-0,099
-540,466	100,027	0,058	-0,048
-539,452	-200,000	0,001	0,052
-538,437	-91,600	0,096	-0,020
-537,423	800,000	-0,041	0,089
-536,408	-200,000	-0,006	0,044
-535,393	-200,000	0,007	-0,065
-534,379	-200,000	-0,033	-0,113
-533,364	137,373	-0,045	-0,042
-532,350	197,565	0,127	-0,140
-531,335	-111,378	-0,039	0,006
-530,321	-200,000	0,004	0,112
-529,306	-65,616	0,060	0,017
-528,291	-25,708	-0,147	-0,063
-527,277	64,444	0,076	-0,055
-526,262	-26,186	0,120	-0,051
-525,248	391,189	0,013	0,019
-524,233	113,968	0,110	0,097
-523,218	-21,243	0,100	0,044
-522,204	-200,000	-0,013	-0,148
-521,189	-200,000	0,036	-0,212
-520,175	-200,000	-0,038	-0,182
-519,160	98,090	0,038	-0,032
-518,145	800,000	0,039	-0,099
-517,131	114,287	0,198	0,174
-516,116	319,859	-0,109	-0,150
-515,102	67,312	0,020	0,014
-514,087	345,959	0,094	-0,133
-513,072	119,958	-0,094	-0,084
-512,058	-200,000	0,027	0,115
-511,043	-93,175	0,176	0,035
-510,029	-200,000	0,030	0,133
-509,014	800,000	-0,070	0,207
-507,999	-200,000	-0,013	-0,051
-506,985	-89,018	-0,077	0,016
-505,970	-79,382	-0,030	0,007
-504,956	80,521	-0,136	-0,105
-503,941	392,698	0,049	0,074
-502,926	-200,000	-0,003	0,038
-501,912	-12,570	0,198	0,093
-500,897	112,230	-0,068	-0,059
-499,883	75,467	-0,061	0,046
-498,868	-200,000	-0,009	0,085
-497,853	-93,873	-0,062	0,012
-496,839	-200,000	0,013	-0,109
-495,824	70,396	-0,077	-0,057
-494,810	5,184	0,030	-0,016
-493,795	467,223	-0,070	0,113
-492,781	-131,655	-0,102	-0,010
-491,766	-200,000	-0,009	0,206
-490,751	199,294	0,023	-0,025
-489,737	569,905	0,018	0,031
-488,722	158,230	0,070	-0,070
-487,708	800,000	0,039	0,106
-486,693	352,277	0,045	-0,064
-485,678	800,000	-0,019	0,042
-484,664	306,164	-0,073	-0,098
-483,649	163,572	-0,095	0,096
-482,635	490,834	0,015	-0,025
-481,620	106,472	-0,032	0,027
-480,605	152,243	0,096	0,094
-479,591	800,000	0,020	-0,057
-478,576	-64,175	0,057	-0,017
-477,562	186,876	0,009	0,010
-476,547	250,513	-0,012	-0,015
-475,532	-200,000	-0,010	-0,069
-474,518	-6,786	0,121	0,059
-473,503	75,738	0,045	0,034
-472,489	233,326	0,031	0,037
-471,474	800,000	-0,049	0,117
-470,459	-47,248	0,033	0,012
-469,445	-200,000	-0,009	-0,054
-468,430	14,603	0,073	-0,041
-467,416	-29,550	-0,042	0,017
-466,401	38,852	0,100	0,064
-465,386	-72,963	0,050	-0,013
-464,372	-200,000	0,028	0,128
-463,357	-9,144	-0,097	0,047
-462,343	-200,000	-0,009	0,034
-461,328	176,943	0,025	0,027
-460,313	11,128	-0,072	-0,039
-459,299	-11,831	0,039	0,018
-458,284	39,697	-0,042	-0,027
-457,270	-41,964	0,039	0,014
-456,255	-137,733	-0,248	-0,020
-455,241	-200,000	-0,018	0,066
-454,226	800,000	-0,020	-0,049
-453,211	134,062	0,030	0,028
-452,197	-200,000	0,011	-0,097
-451,182	-200,000	0,018	0,096
-450,168	-200,000	0,029	-0,131
-449,153	55,956	0,032	-0,022
-448,138	18,305	0,033	0,019
-447,124	-44,090	0,033	0,012
-446,109	1,486	-0,055	0,028
-445,095	47,829	0,215	0,144
-444,080	-200,000	0,010	0,117
-443,065	91,702	0,062	0,050
-442,051	-94,905	-0,102	-0,020
-441,036	298,549	-0,059	-0,078
-440,022	164,508	-0,068	0,069
-439,007	-8,957	-0,125	0,060
-437,992	-68,265	0,093	0,026
-436,978	-200,000	0,001	0,050
-435,963	53,134	0,025	-0,018
-434,949	55,582	-0,141	0,098
-433,934	-136,979	-0,117	0,009
-432,919	86,196	-0,016	-0,013
-431,905	-200,000	-0,007	-0,149
-430,890	44,708	-0,035	-0,023
-429,876	-106,347	0,176	-0,028
-428,861	259,344	0,032	0,040
-427,846	244,493	0,028	0,033
-426,832	-84,530	-0,054	-0,012
-425,817	-142,398	0,044	-0,003
-424,803	149,093	-0,055	-0,053
-423,788	646,729	0,076	0,140
-422,773	11,426	0,054	-0,029
-421,759	52,409	0,089	0,061
-420,744	-200,000	-0,030	0,144
-419,730	-200,000	0,004	-0,076
-418,715	-29,171	-0,045	0,018
-417,701	33,685	0,061	0,038
-416,686	-3,671	-0,026	0,013
-415,671	-80,216	-0,060	0,014
-414,657	13,398	-0,078	-0,043
-413,642	107,845	-0,154	-0,132
-412,628	-200,000	-0,004	0,112
-411,613	-200,000	0,014	-0,255
-410,598	291,228	0,108	0,141
-409,584	-109,406	-0,098	-0,015
-408,569	-200,000	-0,016	0,087
-407,555	-132,237	0,031	-0,003
-406,540	159,469	0,081	0,081
-405,525	743,505	-0,041	0,081
-404,511	-123,088	0,140	-0,016
-403,496	321,478	-0,037	-0,050
-402,482	1,508	-0,175	-0,090
-401,467	636,174	0,055	0,100
-400,452	-154,307	0,056	-0,003
-399,438	10,011	0,040	-0,022
-398,423	570,560	-0,053	-0,093
-397,409	800,000	-0,053	-0,140
-396,394	-194,118	0,116	0,001
-395,379	487,716	0,078	-0,128
-394,365	-100,917	-0,039	-0,007
-393,350	196,881	0,025	0,027
-392,336	75,202	0,122	-0,092
-391,321	-200,000	0,022	-0,100
-390,306	800,000	0,029	0,091
-389,292	-155,060	0,082	-0,004
-388,277	107,723	0,067	0,057
-387,263	-44,804	-0,024	0,009
-386,248	106,469	0,069	0,058
-385,233	74,086	0,137	0,103
-384,219	40,992	-0,118	0,076
-383,204	153,818	-0,045	0,044
-382,190	95,444	-0,060	0,049
-381,175	-24,438	0,054	0,023
-380,160	-200,000	0,017	0,070
-379,146	-74,197	0,097	0,025
-378,131	6,065	-0,020	0,010
-377,117	85,666	0,102	-0,081
-376,102	7,148	-0,088	0,047
-375,088	800,000	-0,051	-0,116
-374,073	-134,244	0,063	-0,005
-373,058	32,729	-0,046	0,028
-372,044	-138,479	0,088	0,007
-371,029	-51,767	-0,012	-0,004
-370,015	288,164	-0,107	0,140
-369,000	-118,660	-0,075	-0,009
-367,985	283,817	0,037	-0,048
-366,971	-100,837	-0,098	0,017
-365,956	800,000	-0,050	0,156
-364,942	-152,224	0,131	0,007
-363,927	800,000	0,026	-0,052
-362,912	123,174	0,040	0,036
-361,898	9,560	0,100	-0,054
-360,883	40,709	-0,104	-0,067
-359,869	110,979	-0,025	0,021
-358,854	-200,000	-0,021	0,155
-357,839	27,733	0,126	-0,076
-356,825	-200,000	0,012	0,180
-355,810	69,515	0,074	-0,054
-354,796	-200,000	0,025	-0,163
-353,781	800,000	-0,038	-0,103
-352,766	249,525	-0,077	-0,094
-351,752	-200,000	0,017	0,077
-350,737	103,248	0,038	-0,032
-349,723	31,062	0,019	0,012
-348,708	-200,000	-0,026	0,135
-347,693	800,000	-0,040	-0,118
-346,679	800,000	-0,033	-0,096
-345,664	-83,744	0,091	-0,021
-344,650	-200,000	0,007	-0,175
-343,635	92,765	-0,058	-0,047
-342,620	-200,000	0,032	0,134
-341,606	-200,000	0,021	0,160
-340,591	-24,264	-0,070	-0,030
-339,577	-200,000	-0,044	-0,155
-338,562	800,000	-0,065	-0,142
-337,548	-52,200	0,038	-0,013
-336,533	68,420	-0,063	0,047
-335,518	-200,000	-0,014	0,109
-334,504	265,078	0,050	-0,063
-333,489	69,488	0,154	-0,114
-332,475	550,952	-0,037	-0,064
-331,460	723,698	-0,084	0,161
-330,445	46,849	-0,081	-0,054
-329,431	-22,135	0,099	-0,043
-328,416	-200,000	-0,009	0,036
-327,402	-200,000	-0,037	0,170
-326,387	46,715	-0,057	0,038
-325,372	800,000	-0,067	-0,143
-324,358	800,000	-0,049	-0,132
-323,343	-200,000	0,024	-0,093
-322,329	319,069	0,030	-0,041
-321,314	84,599	0,092	0,072
-320,299	56,590	-0,085	-0,059
-319,285	-200,000	0,006	-0,036
-318,270	560,261	-0,026	-0,046
-317,256	434,720	0,096	0,151
-316,241	800,000	-0,046	-0,108
-315,226	634,558	0,014	0,026
-314,212	-76,691	0,084	0,021
-313,197	360,095	0,081	0,117
-312,183	800,000	0,042	0,122
-311,168	-200,000	0,009	0,121
-310,153	67,374	0,046	0,034
-309,139	570,709	-0,058	0,102
-308,124	276,845	-0,056	0,072
-307,110	-14,519	0,123	0,056
-306,095	32,298	-0,074	0,046
-305,080	423,204	-0,082	0,127
-304,066	800,000	-0,027	0,076
-303,051	800,000	0,008	0,017
-302,037	192,198	0,049	-0,053
-301,022	575,605	-0,083	0,146
-300,008	13,976	-0,114	-0,063
-298,993	-77,801	-0,139	-0,034
-297,978	-200,000	0,006	-0,049
-296,964	-17,954	-0,087	-0,039
-295,949	800,000	-0,025	0,052
-294,935	498,463	0,054	0,089
-293,920	511,979	-0,057	-0,095
-292,905	800,000	0,072	0,146
-291,891	800,000	0,013	-0,035
-290,876	-200,000	-0,016	0,098
-289,862	-21,595	0,088	0,038
-288,847	169,240	-0,047	-0,048
-287,832	-68,182	-0,089	0,024
-286,818	60,092	-0,135	-0,096
-285,803	-159,139	-0,110	-0,004
-284,789	14,540	0,100	0,056
-283,774	-200,000	0,001	-0,017
-282,759	-102,952	-0,096	0,016
-281,745	-200,000	-0,020	0,066
-280,730	-200,000	0,008	-0,132
-279,716	-200,000	0,006	-0,199
-278,701	-200,000	-0,016	-0,125
-277,686	800,000	0,058	0,153
-276,672	-200,000	-0,026	0,110
-275,657	-144,955	-0,079	-0,005
-274,643	55,445	-0,070	0,048
-273,628	-72,462	-0,037	0,010
-272,613	800,000	-0,029	-0,061
-271,599	760,998	-0,017	0,034
-270,584	-200,000	0,012	0,083
-269,570	258,316	0,024	-0,029
-268,555	158,159	0,085	0,085
-267,540	-200,000	0,004	-0,022
-266,526	-200,000	0,014	-0,089
-265,511	800,000	-0,036	0,083
-264,497	-48,643	0,061	0,021
-263,482	-79,858	0,222	-0,053
-262,467	-200,000	0,023	-0,091
-261,453	-200,000	-0,009	0,052
-260,438	-141,516	0,068	-0,005
-259,424	-71,167	-0,049	-0,013
-258,409	127,239	-0,115	-0,104
-257,395	249,491	0,092	-0,112
-256,380	-200,000	-0,017	0,152
-255,365	-24,888	-0,049	0,021
-254,351	-200,000	0,012	0,049
-253,336	-137,025	-0,167	-0,013
-252,322	282,337	0,033	-0,042
-251,307	1,248	0,051	0,026
-250,292	691,627	0,075	-0,141
-249,278	-125,294	-0,129	-0,014
-248,263	800,000	0,010	-0,029
-247,249	502,337	-0,039	0,065
-246,234	421,482	-0,026	-0,040
-245,219	-182,178	-0,130	0,002
-244,205	-171,987	0,101	0,002
-243,190	138,125	0,055	-0,052
-242,176	27,954	-0,077	-0,046
-241,161	295,779	0,141	0,185
-240,146	410,802	0,010	-0,016
-239,132	-200,000	0,021	0,096
-238,117	-200,000	0,019	-0,064
-237,103	158,826	0,051	-0,051
-236,088	331,393	-0,056	-0,078
-235,073	-200,000	-0,036	0,130
-234,059	800,000	0,016	-0,044
-233,044	8,387	0,092	0,049
-232,030	179,066	0,034	-0,036
-231,015	-6,768	-0,131	-0,063
-230,000	-200,000	0,023	-0,220
-228,986	89,692	-0,089	0,071
-227,971	-114,060	0,121	0,017
-226,957	800,000	0,048	-0,112
-225,942	-45,011	0,124	0,044
-224,927	50,870	0,079	-0,053
-223,913	-131,377	0,106	0,010
-222,898	422,825	0,059	-0,091
-221,884	-200,000	-0,014	0,120
-220,869	196,217	0,051	0,055
-219,855	-10,953	0,055	0,026
-218,840	153,711	0,006	0,005
-217,825	135,382	-0,031	-0,028
-216,811	-200,000	0,005	0,047
-215,796	-160,418	-0,078	0,003
-214,782	313,224	-0,026	0,035
-213,767	-200,000	-0,007	0,033
-212,752	800,000	0,007	0,015
-211,738	-32,699	0,102	-0,040
-210,723	-7,339	0,079	0,038
-209,709	-47,937	-0,082	-0,028
-208,694	174,448	-0,060	0,061
-207,679	479,382	0,027	-0,044
-206,665	-70,005	0,051	-0,014
-205,650	623,784	0,004	0,007
-204,636	28,268	0,071	-0,042
-203,621	36,962	0,192	-0,121
-202,606	554,360	0,024	0,041
-201,592	-200,000	0,043	-0,185
-200,577	41,485	-0,025	-0,016
-199,563	46,025	-0,099	-0,065
-198,548	151,980	0,077	-0,075
-197,533	-51,166	-0,079	-0,026
-196,519	800,000	0,009	0,021
-195,504	478,123	-0,053	-0,086
-194,490	60,042	-0,042	-0,029
-193,475	58,213	-0,106	-0,074
-192,460	800,000	0,047	-0,121
-191,446	-73,196	-0,074	-0,019
-190,431	-200,000	-0,024	0,127
-189,417	-200,000	-0,012	-0,059
-188,402	39,680	0,034	0,022
-187,387	-124,007	-0,131	-0,014
-186,373	-200,000	0,007	0,103
-185,358	800,000	-0,042	0,108
-184,344	-54,186	-0,024	0,008
-183,329	-44,082	-0,026	0,009
-182,315	800,000	0,042	0,118
-181,300	-120,849	0,074	-0,009
-180,285	-200,000	0,001	-0,013
-179,271	267,533	0,020	0,025
-178,256	145,800	0,051	0,049
-177,242	-200,000	0,004	0,071
-176,227	221,521	-0,059	0,067
-175,212	-17,539	0,031	-0,014
-174,198	-5,798	0,097	0,047
-173,183	321,376	-0,055	-0,075
-172,169	800,000	-0,042	-0,104
-171,154	690,192	0,009	0,016
-170,139	800,000	-0,037	0,106
-169,125	-200,000	0,009	0,101
-168,110	253,632	0,095	0,116
-167,096	-1,016	0,045	0,022
-166,081	-200,000	-0,011	0,063
-165,066	52,430	-0,151	-0,103
-164,052	-152,416	0,054	-0,003
-163,037	-134,042	0,083	-0,007
-162,023	-59,572	0,042	-0,013
-161,008	-200,000	-0,042	-0,155
-159,993	-94,814	-0,046	-0,009
-158,979	215,250	-0,115	-0,130
-157,964	-3,920	0,077	0,038
-156,950	101,233	-0,119	-0,099
-155,935	126,663	-0,075	-0,068
-154,920	-200,000	0,006	-0,102
-153,906	800,000	0,030	0,065
-152,891	-200,000	0,001	-0,084
-151,877	491,383	0,024	-0,038
-150,862	-176,477	-0,037	0,001
-149,847	27,897	-0,082	0,049
-148,833	-3,856	0,121	-0,060
-147,818	-200,000	-0,021	-0,085
-146,804	-76,503	0,073	-0,018
-145,789	38,859	0,077	0,049
-144,775	23,006	-0,051	0,029
-143,760	-167,978	0,140	-0,004
-142,745	800,000	-0,068	-0,134
-141,731	-37,985	-0,090	-0,034
-140,716	397,477	0,074	0,110
-139,702	-200,000	-0,023	0,090
-138,687	128,810	-0,085	-0,077
-137,672	-200,000	0,019	0,081
-136,658	45,989	0,084	-0,055
-135,643	273,829	-0,028	0,035
-134,629	-193,539	0,088	-0,001
-133,614	-28,943	0,057	0,023
-132,599	-125,849	0,109	0,012
-131,585	-200,000	-0,005	0,074
-130,570	-97,725	-0,132	0,024
-129,556	-200,000	-0,061	-0,239
-128,541	128,360	-0,070	-0,063
-127,526	-173,300	0,050	0,001
-126,512	800,000	-0,061	0,130
-125,497	244,979	0,077	0,092
-124,483	102,945	0,064	0,053
-123,468	442,424	0,042	-0,065
-122,453	-200,000	-0,002	-0,013
-121,439	-124,847	-0,232	-0,025
-120,424	54,399	-0,045	0,031
-119,410	-158,681	-0,059	0,002
-118,395	800,000	-0,005	0,011
-117,380	436,963	0,122	-0,189
-116,366	-3,624	0,065	0,032
-115,351	234,990	-0,039	-0,046
-114,337	-200,000	0,010	-0,090
-113,322	-200,000	0,001	0,107
-112,307	474,007	-0,032	-0,051
-111,293	115,164	0,064	-0,055
-110,278	-200,000	0,010	-0,095
-109,264	800,000	0,028	0,056
-108,249	-39,837	-0,204	-0,075
-107,234	-67,499	-0,108	-0,030
-106,220	353,197	-0,107	-0,151
-105,205	-75,394	0,093	0,023
-104,191	-200,000	0,000	0,016
-103,176	-138,229	0,054	0,004
-102,162	-200,000	-0,047	0,186
-101,147	800,000	0,022	0,066
-100,132	-0,975	0,070	-0,035
-99,118	800,000	-0,060	0,126
-98,103	800,000	0,040	-0,093
-97,089	22,082	-0,044	-0,025
-96,074	-86,997	-0,033	0,007
-95,059	48,441	-0,054	-0,036
-94,045	718,524	-0,052	-0,098
-93,030	-200,000	-0,032	-0,180
-92,016	-200,000	-0,013	0,043
-91,001	494,141	0,093	0,152
-89,986	-200,000	0,003	-0,010
-88,972	-200,000	0,008	0,051
-87,957	170,791	0,125	0,127
-86,943	422,397	-0,059	0,090
-85,928	774,997	0,014	0,028
-84,913	267,965	-0,026	0,033
-83,899	211,711	-0,102	-0,114
-82,884	-82,943	0,085	0,019
-81,870	365,821	0,026	0,037
-80,855	-200,000	-0,033	0,163
-79,840	-200,000	-0,017	0,138
-78,826	30,462	-0,146	-0,088
-77,811	-87,181	-0,065	0,014
-76,797	-200,000	0,053	-0,171
-75,782	-122,151	0,103	-0,012
-74,767	-44,483	0,044	-0,015
-73,753	202,091	-0,017	0,018
-72,738	55,599	0,089	0,061
-71,724	-12,691	0,045	-0,021
-70,709	388,725	0,054	-0,080
-69,694	-55,261	0,011	0,004
-68,680	-173,716	-0,056	0,001
-67,665	263,247	0,064	-0,079
-66,651	53,536	0,054	-0,037
-65,636	-200,000	-0,031	-0,109
-64,622	264,587	0,083	-0,103
-63,607	541,123	0,071	-0,121
-62,592	268,598	-0,046	-0,058
-61,578	-200,000	0,014	-0,099
-60,563	17,012	-0,033	-0,018
-59,549	-149,920	0,050	0,003
-58,534	-44,882	-1,523	-0,535
-57,519	270,886	-1,537	-1,921
-56,505	-200,000	-0,555	-4,485
-55,490	164,498	0,994	0,994
-54,476	800,000	4,874	11,269
-53,461	-200,000	18,313	295,343
-52,446	800,000	731,434	2254,487
-51,432	559,264	1647,609	2829,952
-50,417	78,789	1667,093	1262,716
-49,403	22,423	1540,318	890,157
-48,388	16,389	1463,246	816,340
-47,373	17,898	1453,042	817,893
-46,359	17,110	1443,684	808,816
-45,344	14,654	1439,006	794,422
-44,330	14,610	1436,901	793,018
-43,315	14,637	1435,124	792,130
-42,300	14,662	1433,483	791,315
-41,286	14,683	1432,382	790,774
-40,271	14,652	1431,092	789,886
-39,257	14,616	1429,998	789,079
-38,242	14,649	1428,562	788,409
-37,227	14,691	1427,327	787,896
-36,213	14,684	1425,989	787,095
-35,198	14,641	1425,054	786,341
-34,184	14,690	1424,025	785,975
-33,169	14,613	1422,746	784,876
-32,154	14,667	1421,652	784,496
-31,140	14,675	1420,257	783,732
-30,125	14,653	1419,336	783,087
-29,111	14,644	1418,134	782,354
-28,096	14,641	1416,869	781,610
-27,082	14,582	1416,048	780,846
-26,067	14,576	1415,063	780,244
-25,052	14,591	1413,771	779,571
-24,038	14,573	1412,986	779,025
-23,023	14,556	1411,659	778,181
-22,009	14,521	1410,872	777,555
-20,994	14,554	1409,906	777,146
-19,979	14,531	1409,028	776,520
-18,965	14,536	1407,983	775,938
-17,950	14,565	1406,908	775,449
-16,936	14,521	1406,090	774,762
-15,921	14,455	1404,992	773,818
-14,906	14,502	1404,152	773,544
-13,892	14,495	1403,395	773,067
-12,877	14,443	1402,356	772,222
-11,863	14,467	1401,369	771,760
-10,848	14,429	1400,573	771,109
-9,833	14,431	1399,793	770,661
-8,819	14,381	1398,871	769,890
-7,804	14,432	1397,672	769,435
-6,790	14,383	1396,759	768,675
-5,775	14,346	1395,722	767,904
-4,760	14,380	1395,032	767,649
-3,746	14,375	1394,271	767,178
-2,731	14,415	1393,135	766,706
-1,717	14,377	1392,369	766,079
-0,702	14,354	1390,689	765,019
0,313	18,211	1309,007	737,942
1,327	34,551	705,844	435,777
2,342	53,242	124,098	84,068
3,356	1,670	16,608	8,443
4,371	17,221	3,140	1,759
5,386	-20,655	0,478	0,207
6,400	233,482	0,132	0,154
7,415	-144,453	-0,291	-0,019
8,429	367,990	-0,226	-0,324
9,444	311,910	-0,202	-0,269
10,459	22,202	-0,335	-0,193
11,473	-102,197	-0,361	-0,061
12,488	-17,877	-0,358	-0,158
13,502	97,509	-0,327	-0,266
14,517	-19,513	-0,283	-0,124
15,531	-12,035	-0,424	-0,196
16,546	276,445	-0,204	-0,257
17,561	519,417	-0,244	-0,405
18,575	257,469	-0,148	-0,180
19,590	129,419	-0,223	-0,201
20,604	-85,542	-0,308	-0,067
21,619	25,615	-0,495	-0,291
22,634	134,425	-0,454	-0,416
23,648	162,719	-0,354	-0,351
24,663	25,672	-0,491	-0,288
25,677	62,474	-0,426	-0,301
26,692	186,788	-0,288	-0,304
27,707	106,506	-0,283	-0,237
28,721	226,774	-0,264	-0,304
29,736	-12,238	-0,474	-0,218
30,750	-20,414	-0,565	-0,245
31,765	25,122	-0,382	-0,223
32,780	12,663	-0,523	-0,284
33,794	175,410	-0,273	-0,279
34,809	83,594	-0,327	-0,252
35,823	133,658	-0,318	-0,291
36,838	77,109	-0,331	-0,248
37,853	126,270	-0,468	-0,418
38,867	87,873	-0,366	-0,286
39,882	29,060	-0,282	-0,169
40,896	148,748	-0,237	-0,226
41,911	6,050	-0,495	-0,258
42,926	33,780	-0,386	-0,237
43,940	137,310	-0,426	-0,393
44,955	36,085	-0,402	-0,249
45,969	16,098	-0,462	-0,256
46,984	389,024	-0,294	-0,430
47,999	102,887	-0,339	-0,280
49,013	273,736	-0,209	-0,261
50,028	20,497	-0,255	-0,145
51,042	75,620	-0,317	-0,236
52,057	-0,167	-0,296	-0,148
53,071	-28,239	-0,495	-0,201
54,086	186,490	-0,253	-0,265
55,101	31,567	-0,389	-0,236
56,115	65,419	-0,330	-0,235
57,130	5,567	-0,440	-0,228
58,144	-35,632	-0,528	-0,201
59,159	177,611	-0,340	-0,350
60,174	-18,645	-0,370	-0,162
61,188	70,735	-0,368	-0,268
62,203	77,854	-0,282	-0,212
63,217	54,442	-0,260	-0,176
64,232	66,238	-0,348	-0,249
65,247	101,781	-0,259	-0,213
66,261	-3,097	-0,396	-0,194
67,276	-10,686	-0,407	-0,189
68,290	-37,698	-0,314	-0,117
69,305	83,591	-0,414	-0,318
70,320	300,171	-0,139	-0,181
71,334	-23,317	-0,251	-0,106
72,349	-57,210	-0,180	-0,055
73,363	-8,700	-0,397	-0,187
74,378	88,419	-0,269	-0,210
75,393	47,288	-0,303	-0,198
76,407	86,237	-0,365	-0,283
77,422	250,124	-0,198	-0,237
78,436	-3,442	-0,326	-0,159
79,451	56,378	-0,378	-0,258
80,466	46,641	-0,311	-0,203
81,480	7,212	-0,318	-0,167
82,495	15,319	-0,439	-0,242
83,509	17,781	-0,175	-0,098
84,524	138,708	-0,134	-0,124
85,539	-11,512	-0,304	-0,140
86,553	385,364	-0,168	-0,244
87,568	301,852	-0,267	-0,348
88,582	152,372	-0,310	-0,297
89,597	209,408	-0,263	-0,290
90,611	82,845	-0,401	-0,306
91,626	27,297	-0,239	-0,141
92,641	-105,941	-0,225	-0,035
93,655	224,189	-0,224	-0,255
94,670	-63,720	-0,303	-0,087
95,684	20,724	-0,358	-0,203
96,699	-81,809	-0,366	-0,084
97,714	-101,443	-0,289	-0,049
98,728	138,640	-0,215	-0,199
99,743	142,905	-0,241	-0,225
100,757	-145,717	-0,237	0,015
101,772	71,885	-0,294	-0,214
102,787	246,528	-0,184	-0,219
103,801	86,261	-0,249	-0,192
104,816	-26,827	-0,355	-0,145
105,830	90,032	-0,296	-0,232
106,845	96,519	-0,199	-0,160
107,860	-1,018	-0,261	-0,129
108,874	296,770	-0,206	-0,266
109,889	100,444	-0,278	-0,226
110,903	-3,808	-0,293	-0,142
111,918	120,753	-0,201	-0,175
112,933	107,452	-0,119	-0,100
113,947	122,918	-0,156	-0,137
114,962	81,214	-0,291	-0,221
115,976	-114,956	-0,146	0,019
116,991	-69,588	-0,315	-0,084
118,006	213,124	-0,213	-0,236
119,020	23,465	-0,288	-0,165
120,035	-49,055	-0,321	-0,107
121,049	178,349	-0,211	-0,216
122,064	36,861	-0,180	-0,111
123,079	143,115	-0,244	-0,228
124,093	215,236	-0,130	-0,145
125,108	59,469	-0,377	-0,260
126,122	166,573	-0,249	-0,247
127,137	38,124	-0,199	-0,124
128,151	23,307	-0,316	-0,181
129,166	-55,425	-0,288	-0,090
130,181	-47,342	-0,170	-0,058
131,195	18,380	-0,222	-0,124
132,210	94,055	-0,273	-0,217
133,224	30,509	-0,240	-0,143
134,239	47,326	-0,282	-0,184
135,254	-173,164	-0,073	0,002
136,268	800,000	-0,132	-0,261
137,283	187,706	-0,227	-0,238
138,297	-78,239	-0,335	-0,080
139,312	123,647	-0,250	-0,219
140,327	218,952	-0,099	-0,111
141,341	216,783	-0,240	-0,268
142,356	-24,222	-0,273	-0,114
143,370	-70,863	-0,259	-0,068
144,385	0,646	-0,196	-0,098
145,400	26,522	-0,266	-0,155
146,414	4,823	-0,242	-0,124
147,429	35,933	-0,238	-0,146
148,443	-0,622	-0,195	-0,096
149,458	378,295	-0,141	-0,203
150,473	344,595	-0,179	-0,246
151,487	509,030	-0,145	-0,236
152,502	-4,721	-0,226	-0,109
153,516	390,652	-0,159	-0,231
154,531	175,251	-0,277	-0,280
155,546	48,246	-0,231	-0,151
156,560	74,087	-0,150	-0,110
157,575	-104,322	-0,231	-0,037
158,589	130,680	-0,265	-0,237
159,604	230,727	-0,239	-0,274
160,619	35,523	-0,264	-0,161
161,633	0,461	-0,225	-0,112
162,648	109,242	-0,285	-0,239
163,662	208,311	-0,168	-0,184
164,677	5,963	-0,335	-0,173
165,692	-87,661	-0,228	-0,048
166,706	97,987	-0,286	-0,230
167,721	-34,626	-0,418	-0,159
168,735	301,948	-0,225	-0,291
169,750	92,833	-0,273	-0,215
170,764	221,234	-0,179	-0,201
171,779	-18,559	-0,233	-0,101
172,794	347,107	-0,147	-0,202
173,808	526,199	-0,170	-0,281
174,823	205,804	-0,238	-0,258
175,837	319,077	-0,104	-0,138
176,852	-74,506	-0,303	-0,076
177,867	-48,385	-0,282	-0,094
178,881	71,564	-0,175	-0,127
179,896	314,399	-0,165	-0,217
180,910	301,022	-0,192	-0,248
181,925	179,507	-0,256	-0,262
182,940	271,035	-0,199	-0,244
183,954	167,265	-0,226	-0,224
184,969	292,774	-0,253	-0,322
185,983	3,430	-0,220	-0,111
186,998	-48,697	-0,261	-0,087
188,013	188,967	-0,268	-0,280
189,027	79,971	-0,176	-0,132
190,042	424,413	-0,111	-0,167
191,056	45,243	-0,250	-0,160
192,071	130,341	-0,176	-0,157
193,086	-114,986	-0,085	-0,011
194,100	62,104	-0,179	-0,124
195,115	-30,999	-0,174	-0,068
196,129	116,804	-0,183	-0,156
197,144	120,438	-0,306	-0,265
198,159	-6,518	-0,123	-0,058
199,173	788,437	-0,087	-0,168
200,188	-18,597	-0,167	-0,072
201,202	100,506	-0,269	-0,217
202,217	-8,642	-0,206	-0,096
203,232	460,631	-0,135	-0,211
204,246	27,119	-0,260	-0,151
205,261	800,000	-0,052	-0,158
206,275	70,519	-0,146	-0,105
207,290	10,623	-0,219	-0,116
208,304	355,869	-0,075	-0,104
209,319	234,549	-0,086	-0,099
210,334	800,000	-0,095	-0,224
211,348	142,514	-0,242	-0,223
212,363	-174,302	-0,027	-0,001
213,377	165,695	-0,112	-0,110
214,392	198,744	-0,130	-0,138
215,407	-23,317	-0,227	-0,095
216,421	80,791	-0,149	-0,111
217,436	800,000	-0,038	-0,101
218,450	313,420	-0,198	-0,259
219,465	-147,772	-0,226	0,013
220,480	550,816	-0,111	-0,185
221,494	47,511	-0,126	-0,082
222,509	-66,948	-0,247	0,067
223,523	-18,844	-0,217	-0,093
224,538	22,033	-0,151	-0,085
225,553	92,021	-0,232	-0,181
226,567	47,226	-0,255	-0,165
227,582	437,517	-0,194	-0,294
228,596	11,646	-0,208	-0,110
229,611	83,220	-0,190	-0,144
230,626	-95,931	-0,242	-0,044
231,640	308,902	-0,122	-0,158
232,655	353,142	-0,125	-0,173
233,669	338,492	-0,161	-0,218
234,684	49,635	-0,205	-0,134
235,699	299,782	-0,210	-0,269
236,713	507,186	-0,141	-0,228
237,728	-200,000	-0,054	-0,193
238,742	708,895	-0,122	-0,225
239,757	404,006	-0,059	-0,087
240,772	73,932	-0,246	-0,178
241,786	328,678	-0,177	-0,237
242,801	-76,181	-0,241	-0,058
243,815	335,948	-0,087	-0,117
244,830	-109,688	-0,082	0,012
245,844	-37,403	-0,136	-0,050
246,859	36,467	-0,214	-0,130
247,874	89,100	-0,192	-0,148
248,888	21,514	-0,242	-0,136
249,903	-109,966	-0,213	0,031
250,917	583,771	-0,101	-0,172
251,932	-200,000	-0,025	-0,132
252,947	-69,060	-0,197	-0,052
253,961	144,401	-0,246	-0,227
254,976	29,538	-0,101	-0,059
255,990	301,553	-0,187	-0,240
257,005	-58,770	-0,149	-0,044
258,020	797,685	-0,081	-0,155
259,034	-187,500	-0,142	-0,001
260,049	-200,000	-0,267	0,000
261,063	101,339	-0,256	-0,206
262,078	-89,591	-0,350	-0,071
263,093	21,696	-0,209	-0,118
264,107	371,505	-0,126	-0,177
265,122	278,073	-0,070	-0,086
266,136	80,716	-0,173	-0,129
267,151	5,577	-0,057	0,029
268,166	115,030	-0,208	-0,176
269,180	-128,574	-0,150	0,014
270,195	-113,402	-0,172	-0,023
271,209	-200,000	-0,009	-0,135
272,224	-12,466	-0,074	-0,034
273,239	226,053	-0,154	-0,174
274,253	51,556	-0,179	-0,117
275,268	-191,103	-0,158	0,001
276,282	349,607	-0,166	-0,227
277,297	-5,751	-0,067	-0,032
278,312	207,069	-0,179	-0,194
279,326	61,410	-0,142	-0,097
280,341	-124,187	-0,129	-0,014
281,355	517,111	0,025	-0,041
282,370	33,476	-0,191	-0,114
283,384	168,264	-0,150	-0,147
284,399	306,156	-0,150	-0,193
285,414	37,444	-0,198	-0,121
286,428	231,432	-0,168	-0,190
287,443	203,851	-0,082	-0,088
288,457	-82,423	-0,158	-0,035
289,472	58,485	-0,139	-0,094
290,487	-4,961	-0,137	-0,065
291,501	69,714	-0,216	-0,154
292,516	-87,616	-0,247	-0,051
293,530	265,954	-0,099	-0,120
294,545	-154,689	-0,140	-0,006
295,560	108,485	-0,096	-0,079
296,574	800,000	-0,093	-0,212
297,589	800,000	-0,089	-0,171
298,603	-100,996	-0,171	-0,029
299,618	66,978	-0,184	-0,129
300,633	18,330	-0,233	-0,128
301,647	-59,529	-0,182	-0,053
302,662	-2,656	-0,260	-0,125
303,676	282,540	-0,093	-0,115
304,691	388,331	-0,186	-0,267
305,706	148,338	-0,151	-0,140
306,720	75,010	-0,139	-0,101
307,735	70,098	-0,084	-0,060
308,749	11,384	-0,180	-0,095
309,764	-39,385	-0,109	0,039
310,779	85,979	-0,213	-0,161
311,793	57,274	-0,170	-0,114
312,808	202,125	-0,127	-0,136
313,822	20,161	-0,156	-0,087
314,837	237,799	-0,093	-0,107
315,852	-16,122	-0,091	-0,040
316,866	448,013	-0,052	0,079
317,881	-109,874	-0,191	-0,027
318,895	-72,697	-0,248	-0,062
319,910	-12,005	-0,188	-0,084
320,925	44,811	-0,198	-0,125
321,939	800,000	-0,081	-0,167
322,954	800,000	0,030	-0,074
323,968	183,789	-0,053	-0,054
324,983	-98,723	-0,231	0,040
325,997	-106,480	-0,174	-0,026
327,012	120,344	-0,147	-0,126
328,027	442,558	-0,091	-0,138
329,041	800,000	-0,110	-0,219
330,056	-200,000	0,005	-0,094
331,070	321,198	0,023	-0,030
332,085	-12,726	-0,160	-0,072
333,100	79,279	-0,148	-0,109
334,114	-99,454	-0,148	-0,025
335,129	34,691	-0,140	-0,084
336,143	800,000	-0,072	-0,142
337,158	329,178	-0,099	-0,131
338,173	-7,576	-0,155	-0,072
339,187	46,060	-0,199	-0,126
340,202	-49,485	-0,130	-0,042
341,216	-63,309	-0,240	-0,068
342,231	38,419	-0,196	-0,120
343,246	7,696	-0,245	-0,126
344,260	5,694	-0,080	-0,040
345,275	182,421	-0,123	-0,125
346,289	-97,762	-0,230	-0,040
347,304	49,852	-0,155	-0,100
348,319	564,948	-0,085	-0,142
349,333	13,371	-0,181	-0,096
350,348	-77,363	-0,115	0,027
351,362	-59,544	-0,151	-0,044
352,377	60,414	-0,040	-0,027
353,392	74,142	0,057	0,041
354,406	-200,000	-0,071	-0,235
355,421	207,339	1314,745	1410,066
356,435	159,489	1475,492	1410,565
