DTS Sentinel unit serial number:	SN410029Multiplexer serial number:	ORYXHardware model number:	OX2-SRSoftware version number:	ORYX F/W v4,00 Oryx Data Collector v3.7.2.0data status	okinstallation	B3 Nyhavnadifferential loss correction	single-endedforward channel	channel 1reverse channel	N/Adate	2023/11/30time	23:22:30forward acquisition time	300,00reverse acquisition time	0,00gamma	499,1914k internal	0,3210k external	0,3210temperature offset calibration	1,0000default loss term (dB/km)	0,3820temperature slope calibration	1,0000multiplexer offset coefficient	1,0000multiplexer slope coefficient	1,0000fibre end	0,00T internal ref (°C)	9,64T ext. ref 1 (°C)	-5,48T ext. ref 2 (°C)	-5,61length (m)	temperature (°C)	Stokes	anti-Stokes-744,400	201,926	-0,194	-0,217
-743,385	-200,000	0,044	0,183
-742,371	16,932	-0,226	-0,130
-741,356	-200,000	0,097	0,462
-740,342	68,404	-0,230	-0,171
-739,327	800,000	-0,081	0,184
-738,312	-101,448	-0,249	-0,044
-737,298	388,677	-0,108	0,163
-736,283	91,279	-0,150	-0,122
-735,269	-200,000	0,031	0,293
-734,254	800,000	-0,102	-0,241
-733,239	-102,560	-0,413	0,071
-732,225	-200,000	0,035	-0,161
-731,210	800,000	0,088	0,236
-730,196	168,376	-0,076	-0,079
-729,181	-200,000	-0,028	-0,114
-728,167	12,055	-0,063	-0,035
-727,152	800,000	0,075	0,154
-726,137	111,334	-0,107	-0,094
-725,123	800,000	0,036	-0,092
-724,108	-68,144	-0,088	-0,025
-723,094	-200,000	0,000	-0,078
-722,079	-109,528	-0,068	0,010
-721,064	-121,714	-0,053	-0,006
-720,050	-103,145	0,073	0,012
-719,035	63,143	0,013	0,010
-718,021	-33,412	-0,193	0,077
-717,006	-30,434	-0,028	-0,011
-715,991	-136,220	-0,136	0,011
-714,977	159,781	-0,023	-0,023
-713,962	120,512	0,023	0,021
-712,948	-200,000	-0,029	0,097
-711,933	92,084	-0,045	-0,036
-710,918	-200,000	0,004	-0,037
-709,904	565,457	-0,077	0,135
-708,889	-143,627	-0,030	0,002
-707,875	800,000	-0,100	-0,206
-706,860	-78,531	0,097	0,024
-705,845	367,249	-0,014	0,020
-704,831	77,946	0,064	-0,049
-703,816	216,803	0,041	-0,047
-702,802	-200,000	0,025	-0,197
-701,787	800,000	-0,024	-0,049
-700,772	114,493	0,051	0,045
-699,758	522,217	0,038	0,064
-698,743	-62,686	0,112	-0,033
-697,729	-95,586	0,049	-0,009
-696,714	-115,385	-0,081	-0,011
-695,699	-55,552	-0,111	0,036
-694,685	-142,867	-0,114	-0,008
-693,670	88,467	-0,111	-0,089
-692,656	-30,096	0,068	-0,028
-691,641	476,128	-0,062	0,101
-690,627	441,007	0,031	-0,049
-689,612	48,340	0,031	0,021
-688,597	491,898	0,079	-0,131
-687,583	145,721	-0,082	-0,079
-686,568	800,000	0,042	-0,119
-685,554	37,429	-0,074	-0,048
-684,539	31,150	0,067	0,042
-683,524	89,654	-0,058	-0,047
-682,510	91,096	0,043	0,035
-681,495	-185,513	-0,107	-0,001
-680,481	800,000	-0,031	-0,075
-679,466	-94,582	-0,111	0,022
-678,451	431,920	0,070	-0,111
-677,437	224,157	0,081	0,095
-676,422	22,678	0,026	-0,015
-675,408	-53,307	-0,052	-0,017
-674,393	-200,000	-0,010	-0,033
-673,378	-155,564	-0,102	0,005
-672,364	-27,698	-0,078	0,032
-671,349	-58,783	-0,131	-0,041
-670,335	-21,931	-0,058	0,026
-669,320	800,000	-0,053	0,113
-668,305	800,000	0,051	0,159
-667,291	-84,316	-0,096	-0,022
-666,276	800,000	0,012	0,034
-665,262	39,009	0,054	0,035
-664,247	-200,000	0,035	-0,178
-663,232	137,449	-0,104	-0,098
-662,218	800,000	0,078	-0,167
-661,203	-126,667	0,065	-0,007
-660,189	230,015	-0,126	-0,149
-659,174	571,590	-0,058	-0,103
-658,159	-200,000	0,017	0,093
-657,145	-34,702	-0,146	-0,058
-656,130	60,195	0,079	-0,056
-655,116	167,117	-0,083	-0,085
-654,101	-200,000	0,027	0,091
-653,086	-200,000	0,036	0,123
-652,072	-200,000	-0,008	-0,054
-651,057	272,901	0,074	-0,094
-650,043	-161,255	0,036	-0,001
-649,028	368,156	-0,023	-0,034
-648,014	30,954	0,069	-0,043
-646,999	12,666	0,088	-0,049
-645,984	155,480	0,088	-0,087
-644,970	-1,043	0,065	-0,033
-643,955	-200,000	0,014	-0,208
-642,941	65,605	-0,117	-0,086
-641,926	288,378	0,078	-0,102
-640,911	8,039	-0,088	-0,048
-639,897	800,000	-0,033	-0,077
-638,882	800,000	0,048	-0,113
-637,868	-53,438	0,027	-0,009
-636,853	334,226	-0,065	-0,092
-635,838	285,754	-0,104	-0,135
-634,824	18,183	0,034	0,019
-633,809	229,651	0,079	0,093
-632,795	118,462	-0,030	-0,027
-631,780	-164,893	0,201	0,006
-630,765	-66,259	-0,117	0,034
-629,751	800,000	-0,037	-0,093
-628,736	-200,000	-0,012	-0,116
-627,722	39,883	-0,116	0,075
-626,707	-200,000	0,009	-0,069
-625,692	300,395	0,090	-0,121
-624,678	-169,123	-0,101	-0,003
-623,663	-52,689	0,023	0,008
-622,649	435,332	-0,032	-0,051
-621,634	-7,924	0,026	0,013
-620,619	-148,600	-0,074	-0,004
-619,605	-200,000	-0,013	-0,113
-618,590	-46,559	0,058	0,021
-617,576	399,658	-0,032	-0,048
-616,561	-200,000	-0,014	0,060
-615,546	89,535	-0,031	-0,025
-614,532	506,047	-0,079	0,133
-613,517	800,000	-0,045	0,127
-612,503	-146,140	0,037	0,002
-611,488	-119,153	-0,041	0,005
-610,474	131,136	0,061	0,057
-609,459	108,733	-0,103	0,088
-608,444	-99,067	0,069	0,013
-607,430	-200,000	-0,009	0,103
-606,415	800,000	-0,019	0,048
-605,401	-90,399	0,038	-0,008
-604,386	211,816	-0,051	0,058
-603,371	-200,000	0,003	-0,111
-602,357	-200,000	0,004	-0,062
-601,342	-74,129	-0,060	-0,016
-600,328	-200,000	-0,036	-0,123
-599,313	13,647	-0,068	-0,038
-598,298	-200,000	-0,005	0,133
-597,284	-82,068	-0,065	0,015
-596,269	-122,906	0,177	-0,020
-595,255	-15,202	0,073	-0,034
-594,240	-200,000	-0,006	-0,200
-593,225	489,136	-0,089	-0,147
-592,211	468,165	-0,076	-0,124
-591,196	-97,508	-0,059	-0,011
-590,182	121,334	0,048	0,043
-589,167	41,875	0,108	0,070
-588,152	138,305	-0,055	0,052
-587,138	-47,127	0,145	-0,051
-586,123	-200,000	-0,023	-0,107
-585,109	-200,000	0,018	-0,176
-584,094	-24,083	-0,058	-0,025
-583,079	312,689	-0,083	0,113
-582,065	800,000	0,053	0,169
-581,050	22,052	0,075	-0,044
-580,036	35,505	-0,129	-0,081
-579,021	137,210	-0,047	-0,044
-578,006	800,000	-0,052	-0,107
-576,992	-163,324	-0,119	-0,004
-575,977	-200,000	0,017	0,130
-574,963	115,666	-0,079	0,070
-573,948	743,304	-0,030	0,058
-572,934	800,000	-0,044	0,090
-571,919	35,030	0,040	0,025
-570,904	-200,000	0,001	-0,079
-569,890	-193,484	0,065	-0,000
-568,875	800,000	-0,037	0,114
-567,861	338,227	0,077	0,108
-566,846	-23,928	0,190	0,081
-565,831	69,112	-0,098	-0,073
-564,817	-14,298	-0,091	0,042
-563,802	-50,780	-0,110	-0,037
-562,788	-200,000	0,005	-0,204
-561,773	-200,000	-0,018	-0,112
-560,758	-200,000	-0,031	0,105
-559,744	-150,306	0,084	-0,005
-558,729	800,000	-0,026	0,082
-557,715	-83,508	-0,074	0,017
-556,700	61,499	0,060	-0,043
-555,685	251,924	-0,003	-0,003
-554,671	-120,211	0,075	0,009
-553,656	100,233	0,052	-0,044
-552,642	-200,000	0,002	0,037
-551,627	-200,000	0,031	0,126
-550,612	-200,000	0,009	0,029
-549,598	800,000	-0,065	-0,181
-548,583	3,622	-0,013	0,007
-547,569	327,379	0,043	0,060
-546,554	-200,000	0,017	-0,065
-545,539	-16,069	0,050	-0,023
-544,525	-200,000	-0,042	0,150
-543,510	-200,000	-0,014	0,049
-542,496	414,282	-0,070	-0,108
-541,481	120,496	-0,065	0,058
-540,466	-200,000	-0,007	-0,131
-539,452	217,394	-0,056	-0,065
-538,437	-200,000	0,016	0,156
-537,423	-200,000	-0,024	0,086
-536,408	-200,000	0,018	0,072
-535,393	-172,620	-0,021	0,000
-534,379	-3,922	-0,108	0,054
-533,364	800,000	-0,014	0,038
-532,350	-200,000	0,010	-0,101
-531,335	-125,935	-0,062	-0,007
-530,321	238,460	-0,022	0,027
-529,306	161,175	-0,041	0,041
-528,291	-200,000	-0,009	-0,168
-527,277	800,000	-0,049	-0,128
-526,262	175,931	0,073	-0,076
-525,248	119,723	0,075	0,067
-524,233	126,562	0,106	0,097
-523,218	800,000	0,021	0,060
-522,204	800,000	-0,030	-0,066
-521,189	23,562	0,021	-0,012
-520,175	-200,000	-0,026	-0,143
-519,160	800,000	-0,052	-0,116
-518,145	33,263	0,059	-0,037
-517,131	-200,000	0,168	-0,000
-516,116	800,000	0,054	-0,113
-515,102	-200,000	-0,003	-0,084
-514,087	-200,000	0,003	0,083
-513,072	232,476	-0,064	-0,076
-512,058	-30,719	-0,104	0,042
-511,043	-200,000	0,014	-0,124
-510,029	-26,219	0,031	-0,013
-509,014	-113,188	0,055	0,008
-507,999	349,685	0,088	0,126
-506,985	321,046	0,072	0,099
-505,970	38,781	0,108	-0,069
-504,956	800,000	-0,002	-0,006
-503,941	242,741	-0,054	-0,065
-502,926	-183,481	0,103	-0,001
-501,912	-63,719	-0,067	0,020
-500,897	193,239	0,057	0,062
-499,883	786,883	-0,039	-0,077
-498,868	-200,000	-0,047	-0,171
-497,853	800,000	0,009	0,021
-496,839	189,513	0,047	-0,050
-495,824	800,000	-0,015	0,033
-494,810	-200,000	0,001	0,113
-493,795	-32,035	0,081	-0,032
-492,781	201,676	-0,022	0,025
-491,766	-100,792	-0,157	-0,028
-490,751	-200,000	-0,000	0,063
-489,737	358,918	0,106	0,152
-488,722	-93,840	0,068	-0,013
-487,708	316,497	-0,018	-0,025
-486,693	-200,000	-0,001	0,049
-485,678	146,858	-0,035	0,034
-484,664	-200,000	0,020	-0,164
-483,649	-9,854	-0,113	0,054
-482,635	332,465	0,074	0,103
-481,620	775,389	0,065	-0,128
-480,605	27,706	0,051	0,031
-479,591	-200,000	0,018	0,195
-478,576	73,001	0,110	0,082
-477,562	-200,000	-0,002	0,024
-476,547	-200,000	0,005	0,018
-475,532	206,358	-0,100	0,112
-474,518	800,000	0,083	0,180
-473,503	-169,289	-0,112	0,003
-472,489	-200,000	0,003	0,093
-471,474	379,992	0,044	0,065
-470,459	27,318	0,076	-0,046
-469,445	395,229	0,046	0,069
-468,430	-200,000	-0,000	-0,250
-467,416	-200,000	0,003	0,018
-466,401	-13,010	0,114	0,053
-465,386	-63,949	-0,139	0,041
-464,372	494,742	-0,004	0,006
-463,357	-200,000	-0,006	-0,042
-462,343	100,102	-0,055	-0,046
-461,328	-200,000	0,021	0,160
-460,313	800,000	0,039	0,079
-459,299	351,409	0,077	0,109
-458,284	127,913	0,056	-0,051
-457,270	-49,654	0,070	-0,024
-456,255	-187,279	-0,119	0,001
-455,241	125,473	0,082	0,074
-454,226	-111,006	-0,055	-0,008
-453,211	-200,000	-0,013	0,060
-452,197	-88,451	-0,003	0,001
-451,182	800,000	0,058	0,133
-450,168	-200,000	0,005	-0,029
-449,153	-64,766	-0,090	-0,026
-448,138	-2,943	-0,069	0,035
-447,124	-27,998	-0,029	-0,012
-446,109	-57,957	0,023	-0,007
-445,095	-44,610	0,075	0,027
-444,080	193,036	0,068	0,074
-443,065	38,069	-0,127	-0,081
-442,051	163,930	-0,057	0,058
-441,036	-200,000	0,006	-0,069
-440,022	45,983	0,037	0,024
-439,007	-15,777	-0,054	0,025
-437,992	-60,454	0,051	-0,015
-436,978	209,466	0,054	0,060
-435,963	800,000	-0,001	0,002
-434,949	-28,582	0,204	-0,084
-433,934	-200,000	0,002	-0,074
-432,919	432,866	-0,052	-0,080
-431,905	204,277	0,061	-0,067
-430,890	-4,804	0,025	-0,012
-429,876	41,316	0,086	0,055
-428,861	-200,000	-0,024	0,118
-427,846	68,816	0,083	-0,061
-426,832	-95,209	0,023	-0,004
-425,817	512,750	-0,029	-0,049
-424,803	-200,000	-0,001	0,065
-423,788	-185,832	-0,027	-0,000
-422,773	-127,481	-0,061	0,006
-421,759	-143,923	-0,038	0,003
-420,744	-200,000	-0,008	0,094
-419,730	800,000	-0,063	-0,174
-418,715	-200,000	0,015	-0,125
-417,701	109,459	0,013	0,011
-416,686	-200,000	-0,017	0,065
-415,671	-51,509	0,042	-0,014
-414,657	-37,491	0,060	-0,023
-413,642	741,099	-0,056	0,107
-412,628	-200,000	-0,025	-0,185
-411,613	79,443	-0,058	-0,045
-410,598	-23,015	0,096	-0,041
-409,584	-56,125	0,107	-0,034
-408,569	-200,000	-0,008	0,091
-407,555	-200,000	0,009	0,043
-406,540	-200,000	-0,001	0,026
-405,525	800,000	0,032	0,072
-404,511	22,893	0,044	-0,026
-403,496	84,122	0,095	-0,075
-402,482	-141,084	-0,012	-0,001
-401,467	-109,810	-0,036	0,005
-400,452	332,206	-0,090	0,125
-399,438	69,719	0,063	-0,047
-398,423	-200,000	-0,008	-0,129
-397,409	-75,512	0,046	-0,012
-396,394	-73,194	-0,035	0,009
-395,379	-7,402	0,127	-0,061
-394,365	-200,000	-0,003	-0,023
-393,350	22,082	-0,105	0,061
-392,336	456,360	-0,031	-0,050
-391,321	334,427	-0,025	0,034
-390,306	-200,000	-0,014	-0,053
-389,292	-11,795	0,128	-0,060
-388,277	-6,755	-0,095	-0,046
-387,263	-95,122	0,123	0,024
-386,248	800,000	0,052	0,149
-385,233	428,220	0,036	-0,057
-384,219	-200,000	0,012	-0,054
-383,204	281,643	-0,082	-0,105
-382,190	744,012	0,064	-0,123
-381,175	-200,000	-0,003	-0,043
-380,160	-200,000	-0,012	-0,063
-379,146	8,956	0,117	0,063
-378,131	540,806	-0,087	0,148
-377,117	-200,000	-0,015	-0,117
-376,102	-124,264	0,027	-0,003
-375,088	800,000	-0,024	0,074
-374,073	-200,000	0,009	0,075
-373,058	18,345	-0,150	-0,086
-372,044	-134,867	0,031	-0,003
-371,029	7,325	-0,079	-0,042
-370,015	-11,557	0,004	-0,002
-369,000	87,057	0,065	0,052
-367,985	-109,836	0,097	0,014
-366,971	800,000	-0,015	-0,044
-365,956	800,000	0,052	-0,142
-364,942	209,309	-0,062	-0,070
-363,927	346,034	0,076	0,107
-362,912	493,383	-0,027	0,044
-361,898	-49,211	-0,090	0,031
-360,883	45,015	-0,061	-0,040
-359,869	303,868	0,035	-0,046
-358,854	800,000	-0,028	-0,070
-357,839	192,558	0,109	0,118
-356,825	800,000	-0,053	0,128
-355,810	166,568	-0,087	0,088
-354,796	-82,169	-0,122	-0,028
-353,781	468,036	0,084	-0,135
-352,766	800,000	-0,053	-0,112
-351,752	12,822	-0,046	-0,026
-350,737	-87,504	0,094	0,020
-349,723	668,634	-0,034	-0,063
-348,708	8,858	-0,066	-0,035
-347,693	-119,058	-0,104	0,013
-346,679	-200,000	-0,011	-0,079
-345,664	-122,396	-0,032	-0,004
-344,650	-200,000	0,012	0,140
-343,635	58,191	0,060	-0,042
-342,620	-200,000	-0,016	0,152
-341,606	292,003	0,078	0,101
-340,591	-148,047	0,066	-0,004
-339,577	800,000	-0,036	-0,110
-338,562	800,000	0,028	0,071
-337,548	-113,997	0,103	0,014
-336,533	82,164	0,053	-0,041
-335,518	147,860	0,023	-0,022
-334,504	-200,000	0,016	0,149
-333,489	-13,112	-0,095	-0,044
-332,475	67,795	0,118	-0,086
-331,460	278,617	-0,040	0,051
-330,445	800,000	0,028	0,072
-329,431	53,674	-0,051	-0,035
-328,416	354,995	-0,094	0,133
-327,402	59,036	0,055	-0,039
-326,387	-200,000	0,000	0,009
-325,372	75,919	-0,124	-0,094
-324,358	247,424	0,105	-0,126
-323,343	800,000	-0,012	0,033
-322,329	28,079	-0,139	0,083
-321,314	-14,418	0,125	0,057
-320,299	82,592	0,071	0,055
-319,285	-200,000	-0,003	-0,052
-318,270	800,000	-0,013	0,027
-317,256	-5,470	-0,113	0,055
-316,241	800,000	-0,041	0,087
-315,226	-123,168	0,173	0,020
-314,212	32,939	-0,076	-0,047
-313,197	-12,201	0,094	0,044
-312,183	55,008	0,009	0,006
-311,168	-200,000	0,013	-0,195
-310,153	-200,000	-0,013	-0,069
-309,139	-200,000	-0,028	0,098
-308,124	800,000	0,041	0,099
-307,110	227,483	-0,025	0,029
-306,095	87,865	0,005	-0,004
-305,080	-200,000	-0,012	0,078
-304,066	-137,441	0,093	-0,007
-303,051	540,523	-0,077	-0,131
-302,037	-62,486	-0,093	-0,027
-301,022	262,147	0,022	0,027
-300,008	-200,000	-0,019	0,064
-298,993	800,000	0,054	0,128
-297,978	167,150	-0,019	0,020
-296,964	-200,000	-0,017	-0,169
-295,949	800,000	-0,081	-0,201
-294,935	-200,000	-0,013	0,060
-293,920	-47,245	0,040	0,014
-292,905	800,000	0,031	-0,062
-291,891	213,117	-0,008	0,009
-290,876	800,000	0,012	0,025
-289,862	-200,000	0,023	-0,100
-288,847	-200,000	-0,007	-0,045
-287,832	128,684	-0,066	-0,060
-286,818	54,640	0,037	0,025
-285,803	-200,000	-0,001	0,109
-284,789	75,597	-0,057	-0,043
-283,774	393,591	-0,037	0,055
-282,759	218,952	0,077	0,088
-281,745	-176,495	0,098	0,002
-280,730	441,995	0,021	-0,032
-279,716	-131,171	0,059	0,006
-278,701	800,000	-0,033	-0,070
-277,686	-200,000	-0,012	0,052
-276,672	-200,000	-0,033	-0,119
-275,657	74,614	-0,061	-0,046
-274,643	48,450	0,054	0,036
-273,628	-106,389	0,005	0,001
-272,613	302,824	-0,011	0,015
-271,599	800,000	0,047	-0,118
-270,584	582,744	0,078	-0,136
-269,570	61,499	-0,045	0,032
-268,555	800,000	-0,005	0,010
-267,540	278,954	-0,078	-0,099
-266,526	-83,311	-0,175	-0,040
-265,511	-141,071	0,085	-0,006
-264,497	-200,000	-0,030	0,230
-263,482	61,071	0,094	0,067
-262,467	-200,000	-0,006	0,104
-261,453	-69,053	-0,122	-0,033
-260,438	87,462	-0,165	-0,130
-259,424	-105,479	-0,035	0,006
-258,409	-132,837	0,063	0,006
-257,395	-200,000	-0,011	0,041
-256,380	-3,146	0,072	0,035
-255,365	800,000	-0,022	0,064
-254,351	311,539	-0,052	-0,070
-253,336	-55,938	0,080	0,025
-252,322	-38,016	-0,106	-0,040
-251,307	-117,580	-0,076	-0,010
-250,292	-62,315	0,116	-0,034
-249,278	50,253	-0,059	0,040
-248,263	800,000	-0,042	0,121
-247,249	-33,316	0,089	-0,035
-246,234	-200,000	0,050	0,205
-245,219	67,061	-0,071	-0,052
-244,205	643,938	0,053	-0,096
-243,190	137,043	0,048	0,045
-242,176	-110,001	-0,014	-0,002
-241,161	-117,523	0,156	0,020
-240,146	-19,586	0,038	0,017
-239,132	254,330	-0,045	-0,054
-238,117	21,819	-0,135	-0,078
-237,103	-17,843	-0,067	-0,030
-236,088	76,114	-0,129	-0,097
-235,073	-74,709	0,100	0,025
-234,059	160,387	0,101	0,100
-233,044	202,517	0,061	0,067
-232,030	-88,574	0,120	0,025
-231,015	-56,165	-0,156	0,049
-230,000	-200,000	-0,064	-0,206
-228,986	136,410	0,054	0,050
-227,971	-200,000	0,006	0,095
-226,957	659,503	-0,041	0,075
-225,942	161,206	0,014	-0,014
-224,927	-16,471	-0,093	-0,042
-223,913	220,956	-0,019	-0,022
-222,898	147,853	0,061	-0,058
-221,884	136,807	-0,050	0,047
-220,869	35,278	0,099	-0,061
-219,855	-200,000	-0,005	-0,026
-218,840	88,150	-0,051	0,040
-217,825	-200,000	-0,001	0,046
-216,811	-200,000	-0,024	0,195
-215,796	800,000	-0,059	-0,122
-214,782	2,836	0,110	-0,056
-213,767	800,000	-0,069	0,156
-212,752	152,786	0,104	0,101
-211,738	800,000	-0,057	0,122
-210,723	208,099	0,135	0,150
-209,709	-97,473	-0,146	-0,027
-208,694	-1,337	-0,067	0,034
-207,679	-20,638	0,134	-0,058
-206,665	-87,931	-0,121	0,026
-205,650	224,619	0,116	0,133
-204,636	-200,000	-0,018	0,102
-203,621	63,096	0,074	0,052
-202,606	-200,000	-0,011	0,037
-201,592	122,676	0,068	-0,061
-200,577	65,789	-0,110	-0,079
-199,563	800,000	-0,020	-0,043
-198,548	37,647	0,132	0,083
-197,533	800,000	-0,044	-0,091
-196,519	-26,068	-0,062	-0,026
-195,504	-105,447	0,060	-0,010
-194,490	-108,471	-0,130	0,020
-193,475	13,114	-0,044	-0,024
-192,460	-200,000	-0,032	-0,204
-191,446	-9,423	-0,034	0,016
-190,431	800,000	-0,057	0,157
-189,417	-200,000	0,035	0,123
-188,402	104,802	0,053	0,044
-187,387	-65,687	0,051	-0,014
-186,373	800,000	-0,018	0,044
-185,358	-200,000	0,001	0,012
-184,344	-78,066	0,087	0,021
-183,329	-200,000	0,064	0,235
-182,315	800,000	-0,031	-0,087
-181,300	-200,000	-0,016	-0,074
-180,285	36,368	-0,049	0,031
-179,271	-104,617	-0,019	0,003
-178,256	199,703	0,029	0,032
-177,242	1,961	0,110	0,056
-176,227	109,234	-0,102	0,087
-175,212	-132,842	0,134	0,012
-174,198	-166,094	-0,023	0,001
-173,183	-59,852	-0,137	-0,041
-172,169	-127,790	-0,022	-0,002
-171,154	186,395	0,048	0,050
-170,139	539,555	0,060	-0,101
-169,125	606,845	0,041	0,073
-168,110	-12,695	-0,089	-0,041
-167,096	724,896	-0,070	-0,133
-166,081	-33,087	0,014	-0,006
-165,066	-81,950	-0,088	-0,020
-164,052	-200,000	-0,008	0,057
-163,037	800,000	-0,033	0,072
-162,023	800,000	-0,007	-0,018
-161,008	800,000	0,056	0,131
-159,993	-200,000	0,030	0,142
-158,979	550,509	0,039	-0,067
-157,964	197,996	-0,115	-0,125
-156,950	-200,000	-0,004	-0,047
-155,935	-8,908	-0,014	-0,007
-154,920	729,929	0,060	0,114
-153,906	800,000	0,064	0,141
-152,891	-96,916	-0,176	0,032
-151,877	5,306	0,148	-0,077
-150,862	296,288	0,050	0,065
-149,847	-200,000	0,020	-0,086
-148,833	65,205	-0,060	0,043
-147,818	341,815	-0,046	0,063
-146,804	117,622	-0,096	0,084
-145,789	800,000	-0,023	0,048
-144,775	-200,000	-0,005	0,076
-143,760	-200,000	-0,024	-0,077
-142,745	800,000	-0,079	-0,161
-141,731	50,634	0,110	-0,073
-140,716	-200,000	-0,016	-0,171
-139,702	252,115	0,071	0,086
-138,687	425,260	-0,038	0,059
-137,672	-21,101	0,024	-0,010
-136,658	51,331	0,104	-0,070
-135,643	-55,807	-0,036	0,011
-134,629	800,000	-0,040	-0,088
-133,614	-32,714	0,060	0,023
-132,599	-143,925	0,089	0,006
-131,585	-200,000	-0,005	0,021
-130,570	-200,000	-0,029	0,114
-129,556	-200,000	-0,008	-0,036
-128,541	-154,216	-0,128	0,006
-127,526	73,886	-0,091	0,067
-126,512	-200,000	0,005	0,110
-125,497	308,062	-0,067	0,089
-124,483	341,582	-0,033	0,046
-123,468	94,391	0,021	-0,017
-122,453	42,079	0,038	-0,024
-121,439	434,628	-0,035	0,054
-120,424	-200,000	-0,022	-0,072
-119,410	532,048	-0,021	-0,035
-118,395	-200,000	0,013	0,181
-117,380	-200,000	0,041	-0,146
-116,366	427,612	-0,067	0,103
-115,351	-51,563	-0,089	-0,029
-114,337	800,000	-0,028	-0,085
-113,322	-10,771	0,029	0,013
-112,307	43,788	-0,079	-0,051
-111,293	124,754	0,050	-0,044
-110,278	800,000	-0,047	0,102
-109,264	800,000	0,122	0,257
-108,249	184,159	0,093	0,098
-107,234	-115,177	-0,065	0,009
-106,220	-55,255	0,080	-0,025
-105,205	54,883	0,055	0,038
-104,191	-200,000	0,027	0,093
-103,176	227,501	-0,091	0,105
-102,162	-200,000	0,036	-0,112
-101,147	385,626	0,024	-0,036
-100,132	-18,000	0,056	-0,025
-99,118	322,454	0,026	-0,035
-98,103	15,923	0,123	-0,068
-97,089	303,818	0,101	0,133
-96,074	-200,000	0,001	-0,066
-95,059	-54,458	0,106	0,034
-94,045	96,333	0,050	0,041
-93,030	126,013	-0,068	-0,060
-92,016	20,740	-0,097	0,055
-91,001	-200,000	-0,021	-0,088
-89,986	375,688	-0,070	-0,101
-88,972	680,334	0,094	0,174
-87,957	415,755	0,087	-0,132
-86,943	-200,000	-0,018	0,068
-85,928	-119,740	0,061	0,007
-84,913	800,000	-0,056	-0,119
-83,899	460,870	0,026	-0,042
-82,884	-124,931	0,095	-0,010
-81,870	-46,462	-0,038	0,013
-80,855	352,424	-0,037	0,052
-79,840	-200,000	0,007	0,101
-78,826	-138,687	-0,145	0,011
-77,811	-90,117	-0,125	0,025
-76,797	9,458	-0,109	-0,058
-75,782	-96,476	0,066	-0,012
-74,767	-115,925	0,040	-0,005
-73,753	-200,000	-0,015	0,111
-72,738	48,751	0,035	-0,023
-71,724	800,000	-0,057	-0,127
-70,709	-38,482	-0,054	-0,020
-69,694	49,731	-0,046	-0,030
-68,680	800,000	-0,018	0,039
-67,665	-200,000	-0,005	-0,020
-66,651	493,792	0,021	-0,034
-65,636	-200,000	0,023	0,159
-64,622	218,732	0,068	-0,077
-63,607	597,671	-0,072	-0,126
-62,592	26,469	-0,035	-0,020
-61,578	-37,175	0,131	0,049
-60,563	131,544	0,025	0,023
-59,549	432,384	-0,048	-0,073
-58,534	19,551	-2,153	-1,220
-57,519	685,774	-1,078	-1,997
-56,505	-200,000	-0,501	-4,405
-55,490	286,817	1,003	1,282
-54,476	800,000	5,169	11,977
-53,461	-200,000	21,723	345,010
-52,446	800,000	763,520	2349,496
-51,432	548,680	1664,377	2825,621
-50,417	71,844	1661,007	1217,889
-49,403	17,443	1534,351	858,028
-48,388	11,470	1458,173	786,526
-47,373	19,479	1449,696	820,369
-46,359	14,996	1438,600	792,738
-45,344	9,748	1434,651	765,531
-44,330	9,691	1432,842	764,262
-43,315	9,649	1431,033	763,065
-42,300	9,652	1429,184	762,065
-41,286	9,742	1427,830	761,740
-40,271	9,681	1426,671	760,801
-39,257	9,680	1425,558	760,173
-38,242	9,739	1424,329	759,768
-37,227	9,703	1423,373	759,057
-36,213	9,767	1421,929	758,557
-35,198	9,748	1421,011	757,949
-34,184	9,732	1420,109	757,364
-33,169	9,638	1418,619	756,094
-32,154	9,707	1417,488	755,787
-31,140	9,714	1416,419	755,221
-30,125	9,769	1415,108	754,748
-29,111	9,744	1413,800	753,903
-28,096	9,694	1412,859	753,136
-27,082	9,652	1411,544	752,208
-26,067	9,673	1410,491	751,718
-25,052	9,730	1409,338	751,340
-24,038	9,723	1408,505	750,834
-23,023	9,685	1407,694	750,194
-22,009	9,683	1406,457	749,494
-20,994	9,656	1405,505	748,831
-19,979	9,662	1404,869	748,493
-18,965	9,623	1403,763	747,692
-17,950	9,660	1402,686	747,259
-16,936	9,605	1402,194	746,710
-15,921	9,598	1400,900	745,960
-14,906	9,567	1400,150	745,385
-13,892	9,641	1399,156	745,172
-12,877	9,622	1398,243	744,566
-11,863	9,603	1397,431	744,016
-10,848	9,533	1396,650	743,246
-9,833	9,551	1395,635	742,760
-8,819	9,464	1394,965	741,972
-7,804	9,497	1393,916	741,538
-6,790	9,468	1392,882	740,823
-5,775	9,503	1391,856	740,408
-4,760	9,489	1390,945	739,831
-3,746	9,533	1389,893	739,448
-2,731	9,503	1389,038	738,822
-1,717	9,429	1388,293	738,058
-0,702	9,509	1386,398	737,389
0,313	13,423	1298,468	708,549
1,327	29,252	688,333	411,432
2,342	45,144	119,127	77,316
3,356	0,443	16,507	8,291
4,371	-1,560	3,605	1,786
5,386	-3,202	1,210	0,593
6,400	800,000	0,208	0,518
7,415	-77,613	-0,207	0,050
8,429	-29,543	-0,367	-0,147
9,444	63,184	-0,335	-0,236
10,459	71,230	-0,356	-0,260
11,473	-11,689	-0,335	-0,155
12,488	-103,858	-0,312	-0,051
13,502	3,479	-0,208	-0,107
14,517	19,160	-0,302	-0,170
15,531	63,882	-0,418	-0,296
16,546	113,105	-0,296	-0,253
17,561	182,169	-0,309	-0,321
18,575	82,323	-0,181	-0,138
19,590	614,947	-0,183	-0,324
20,604	-134,553	-0,322	-0,027
21,619	42,410	-0,352	-0,225
22,634	102,417	-0,469	-0,386
23,648	108,050	-0,402	-0,338
24,663	-5,543	-0,417	-0,201
25,677	14,010	-0,335	-0,183
26,692	49,057	-0,224	-0,148
27,707	74,056	-0,355	-0,262
28,721	16,340	-0,406	-0,225
29,736	62,384	-0,311	-0,218
30,750	27,580	-0,523	-0,309
31,765	168,984	-0,338	-0,340
32,780	-77,370	-0,336	-0,081
33,794	156,057	-0,149	-0,145
34,809	95,064	-0,341	-0,273
35,823	238,285	-0,254	-0,298
36,838	135,111	-0,491	-0,449
37,853	123,984	-0,331	-0,293
38,867	34,824	-0,484	-0,297
39,882	69,046	-0,304	-0,219
40,896	404,659	-0,256	-0,380
41,911	800,000	-0,129	-0,325
42,926	23,408	-0,474	-0,273
43,940	94,739	-0,352	-0,281
44,955	93,008	-0,303	-0,240
45,969	112,557	-0,318	-0,271
46,984	22,237	-0,260	-0,149
47,999	71,879	-0,332	-0,242
49,013	273,347	-0,224	-0,278
50,028	-4,811	-0,380	-0,184
51,042	630,550	-0,162	-0,289
52,057	74,490	-0,433	-0,319
53,071	45,074	-0,320	-0,206
54,086	60,903	-0,280	-0,195
55,101	46,909	-0,271	-0,176
56,115	58,014	-0,275	-0,189
57,130	109,336	-0,294	-0,247
58,144	56,949	-0,438	-0,299
59,159	70,803	-0,326	-0,237
60,174	129,687	-0,359	-0,322
61,188	254,467	-0,380	-0,457
62,203	129,380	-0,281	-0,252
63,217	112,657	-0,188	-0,160
64,232	594,063	-0,222	-0,387
65,247	21,901	-0,341	-0,194
66,261	58,069	-0,295	-0,202
67,276	116,867	-0,298	-0,256
68,290	53,972	-0,320	-0,215
69,305	50,560	-0,299	-0,198
70,320	-81,625	-0,420	-0,096
71,334	-15,914	-0,409	-0,182
72,349	-6,318	-0,370	-0,176
73,363	138,696	-0,343	-0,316
74,378	-26,265	-0,385	-0,158
75,393	-64,969	-0,496	-0,139
76,407	148,328	-0,222	-0,210
77,422	137,353	-0,298	-0,273
78,436	106,826	-0,196	-0,163
79,451	89,499	-0,254	-0,198
80,466	83,374	-0,316	-0,241
81,480	37,438	-0,371	-0,230
82,495	103,627	-0,163	-0,134
83,509	245,103	-0,254	-0,300
84,524	-71,985	-0,200	-0,052
85,539	418,489	-0,126	-0,189
86,553	52,614	-0,178	-0,119
87,568	-8,844	-0,280	-0,131
88,582	123,615	-0,232	-0,204
89,597	-184,156	-0,347	0,004
90,611	176,858	-0,195	-0,199
91,626	124,897	-0,274	-0,242
92,641	92,130	-0,228	-0,179
93,655	47,616	-0,326	-0,212
94,670	552,988	-0,138	-0,233
95,684	226,041	-0,254	-0,289
96,699	167,917	-0,298	-0,296
97,714	-83,970	-0,220	-0,048
98,728	-84,688	-0,337	-0,074
99,743	-37,736	-0,239	-0,089
100,757	75,962	-0,201	-0,149
101,772	168,122	-0,265	-0,264
102,787	-15,456	-0,393	-0,175
103,801	-97,129	-0,365	-0,066
104,816	-1,386	-0,326	-0,160
105,830	51,728	-0,192	-0,127
106,845	32,944	-0,210	-0,127
107,860	-60,782	-0,221	-0,065
108,874	178,787	-0,186	-0,190
109,889	-51,884	-0,429	-0,139
110,903	355,325	-0,268	-0,373
111,918	-200,000	-0,249	0,000
112,933	160,189	-0,159	-0,155
113,947	-102,873	-0,264	-0,043
114,962	4,698	-0,206	-0,105
115,976	160,737	-0,244	-0,238
116,991	323,321	-0,155	-0,207
118,006	27,733	-0,234	-0,137
119,020	37,755	-0,213	-0,132
120,035	-119,331	-0,206	-0,025
121,049	-53,518	-0,203	-0,065
122,064	30,901	-0,367	-0,219
123,079	29,749	-0,305	-0,181
124,093	109,730	-0,265	-0,222
125,108	-82,460	-0,280	-0,063
126,122	450,782	-0,098	-0,151
127,137	42,491	-0,126	-0,080
128,151	1,098	-0,182	-0,091
129,166	-95,874	-0,264	-0,049
130,181	131,656	-0,144	-0,130
131,195	12,261	-0,380	-0,203
132,210	94,865	-0,303	-0,240
133,224	200,795	-0,179	-0,193
134,239	-26,546	-0,169	-0,069
135,254	123,344	-0,118	-0,103
136,268	247,271	-0,131	-0,154
137,283	136,455	-0,193	-0,175
138,297	77,410	-0,334	-0,248
139,312	-33,663	-0,302	-0,116
140,327	27,122	-0,272	-0,159
141,341	165,180	-0,234	-0,230
142,356	58,343	-0,342	-0,233
143,370	13,731	-0,288	-0,155
144,385	77,901	-0,225	-0,167
145,400	-115,036	-0,340	-0,045
146,414	374,841	-0,192	-0,274
147,429	253,104	-0,116	-0,138
148,443	-18,777	-0,294	-0,127
149,458	13,918	-0,226	-0,122
150,473	20,348	-0,194	-0,109
151,487	800,000	-0,085	-0,166
152,502	-19,390	-0,345	-0,148
153,516	8,774	-0,299	-0,156
154,531	157,721	-0,236	-0,228
155,546	-80,535	-0,292	-0,067
156,560	-8,837	-0,242	-0,113
157,575	-139,284	-0,141	-0,010
158,589	67,123	-0,267	-0,189
159,604	85,522	-0,251	-0,191
160,619	61,993	-0,218	-0,151
161,633	30,457	-0,238	-0,141
162,648	120,530	-0,154	-0,133
163,662	-91,465	-0,234	0,046
164,677	521,098	-0,119	-0,194
165,692	12,888	-0,299	-0,160
166,706	-31,919	-0,201	-0,078
167,721	303,529	-0,176	-0,227
168,735	-56,578	-0,322	-0,099
169,750	102,643	-0,134	-0,109
170,764	-82,312	-0,259	-0,058
171,779	202,289	-0,090	-0,097
172,794	-70,640	-0,267	-0,070
173,808	96,601	-0,213	-0,169
174,823	-49,737	-0,166	-0,054
175,837	13,435	-0,353	-0,190
176,852	208,834	-0,175	-0,190
177,867	20,219	-0,257	-0,144
178,881	8,142	-0,163	-0,085
179,896	61,385	-0,262	-0,181
180,910	25,204	-0,254	-0,146
181,925	-11,492	-0,181	-0,082
182,940	101,557	-0,265	-0,214
183,954	-21,268	-0,324	-0,137
184,969	85,548	-0,178	-0,135
185,983	104,157	-0,242	-0,198
186,998	-68,106	-0,259	-0,070
188,013	800,000	-0,107	-0,241
189,027	47,171	-0,235	-0,152
190,042	41,149	-0,246	-0,154
191,056	10,753	-0,214	-0,113
192,071	121,215	-0,197	-0,170
193,086	-56,995	-0,287	-0,087
194,100	89,995	-0,202	-0,156
195,115	-34,083	-0,274	-0,104
196,129	96,507	-0,156	-0,124
197,144	104,569	-0,265	-0,216
198,159	86,564	-0,179	-0,137
199,173	-8,614	-0,342	-0,159
200,188	426,929	-0,136	-0,204
201,202	75,279	-0,220	-0,161
202,217	-192,836	-0,174	0,001
203,232	159,075	-0,216	-0,209
204,246	200,551	-0,134	-0,143
205,261	55,960	-0,185	-0,124
206,275	107,510	-0,143	-0,118
207,290	-47,312	-0,112	0,038
208,304	-74,350	-0,147	-0,036
209,319	-78,826	-0,232	-0,054
210,334	203,094	-0,127	-0,136
211,348	85,869	-0,199	-0,152
212,363	800,000	-0,110	-0,259
213,377	159,040	-0,245	-0,236
214,392	800,000	-0,069	-0,152
215,407	55,366	-0,242	-0,162
216,421	86,079	-0,127	-0,097
217,436	207,850	-0,249	-0,270
218,450	88,166	-0,205	-0,157
219,465	566,712	-0,177	-0,298
220,480	85,360	-0,147	-0,112
221,494	-200,000	-0,054	-0,194
222,509	38,161	-0,127	-0,078
223,523	378,008	-0,143	-0,203
224,538	185,824	-0,297	-0,306
225,553	-53,924	-0,274	-0,086
226,567	-128,770	-0,329	-0,032
227,582	29,797	-0,206	-0,121
228,596	284,013	-0,084	-0,104
229,611	-59,532	-0,224	-0,066
230,626	179,368	-0,101	-0,102
231,640	55,701	-0,166	-0,111
232,655	78,106	-0,219	-0,161
233,669	80,789	-0,196	-0,146
234,684	159,956	-0,224	-0,215
235,699	231,393	-0,222	-0,252
236,713	222,605	-0,130	-0,145
237,728	42,858	-0,177	-0,111
238,742	-76,419	-0,140	-0,034
239,757	11,959	-0,394	-0,209
240,772	249,874	-0,102	-0,119
241,786	39,032	-0,251	-0,154
242,801	42,752	-0,065	-0,041
243,815	-200,000	-0,014	-0,069
244,830	269,767	-0,071	-0,086
245,844	66,129	-0,292	-0,204
246,859	395,842	-0,068	-0,098
247,874	-14,100	-0,279	-0,124
248,888	92,225	-0,287	-0,223
249,903	-200,000	-0,028	-0,135
250,917	800,000	-0,061	-0,136
251,932	159,070	-0,232	-0,223
252,947	117,799	-0,221	-0,187
253,961	255,824	-0,162	-0,192
254,976	111,357	-0,198	-0,165
255,990	-114,774	-0,251	0,033
257,005	114,811	-0,131	-0,110
258,020	-200,000	-0,049	-0,236
259,034	-127,272	-0,202	0,020
260,049	-12,957	-0,143	-0,064
261,063	653,162	-0,116	-0,206
262,078	36,914	-0,234	-0,142
263,093	257,930	-0,087	-0,103
264,107	110,903	-0,123	-0,102
265,122	-164,752	-0,141	0,004
266,136	-38,603	-0,139	-0,050
267,151	800,000	-0,069	-0,171
268,166	-1,462	-0,133	-0,064
269,180	-99,115	-0,198	-0,034
270,195	-171,073	-0,262	0,006
271,209	285,079	-0,108	-0,134
272,224	6,260	-0,270	-0,138
273,239	7,072	-0,136	-0,070
274,253	71,751	-0,248	-0,177
275,268	-119,302	-0,294	-0,035
276,282	-44,331	-0,185	-0,063
277,297	182,553	-0,114	-0,116
278,312	7,178	-0,179	-0,092
279,326	800,000	-0,090	-0,193
280,341	-200,000	-0,046	-0,165
281,355	-200,000	0,056	-0,180
282,370	257,018	-0,054	-0,064
283,384	800,000	-0,109	-0,225
284,399	-8,768	-0,158	-0,073
285,414	174,160	-0,168	-0,167
286,428	121,652	-0,129	-0,111
287,443	-58,085	-0,230	-0,069
288,457	800,000	-0,099	-0,189
289,472	-41,815	-0,155	-0,054
290,487	43,720	-0,191	-0,120
291,501	163,431	-0,090	-0,087
292,516	17,485	-0,253	-0,138
293,530	-79,389	-0,125	-0,029
294,545	202,581	-0,095	-0,101
295,560	-200,000	-0,019	-0,095
296,574	8,338	-0,135	-0,070
297,589	763,731	-0,124	-0,232
298,603	509,402	-0,112	-0,180
299,618	800,000	-0,079	-0,157
300,633	-92,828	-0,165	-0,031
301,647	124,975	-0,067	-0,058
302,662	-200,000	-0,007	-0,078
303,676	-200,000	-0,015	-0,101
304,691	0,137	-0,277	-0,135
305,706	800,000	-0,086	-0,166
306,720	26,456	-0,112	-0,064
307,735	272,024	-0,139	-0,168
308,749	-52,378	-0,024	0,008
309,764	5,529	-0,084	0,043
310,779	-24,692	-0,219	-0,089
311,793	-113,786	-0,219	-0,029
312,808	194,184	-0,161	-0,167
313,822	140,501	-0,136	-0,124
314,837	3,737	-0,163	-0,082
315,852	28,053	-0,176	-0,101
316,866	-200,000	-0,009	-0,128
317,881	106,759	-0,046	0,037
318,895	-60,847	-0,212	-0,061
319,910	318,214	-0,184	-0,240
320,925	-200,000	-0,032	-0,182
321,939	-200,000	-0,013	-0,138
322,954	196,293	-0,071	0,074
323,968	-137,187	-0,134	0,010
324,983	103,716	-0,059	-0,048
325,997	-99,543	-0,320	-0,055
327,012	95,599	-0,214	-0,167
328,027	100,342	-0,135	-0,108
329,041	-200,000	-0,007	-0,101
330,056	-154,634	-0,171	-0,008
331,070	-200,000	0,004	0,013
332,085	-36,573	-0,161	-0,059
333,100	-8,484	-0,165	-0,076
334,114	-128,100	-0,159	0,015
335,129	35,695	-0,188	-0,113
336,143	800,000	-0,057	-0,138
337,158	800,000	-0,055	-0,106
338,173	-150,639	-0,105	0,005
339,187	-119,515	-0,184	0,022
340,202	108,874	-0,081	-0,067
341,216	0,401	-0,090	-0,044
342,231	-36,141	-0,060	-0,022
343,246	31,806	-0,180	-0,106
344,260	-200,000	0,002	-0,199
345,275	800,000	-0,098	-0,197
346,289	554,160	-0,075	-0,124
347,304	185,183	-0,059	-0,060
348,319	199,583	-0,120	-0,126
349,333	120,704	-0,089	-0,076
350,348	-11,450	-0,138	-0,062
351,362	24,148	-0,163	-0,092
352,377	800,000	-0,005	-0,015
353,392	800,000	-0,071	-0,155
354,406	-118,046	-0,072	-0,009
355,421	208,569	1311,861	1405,169
356,435	160,492	1472,198	1405,632
