DTS Sentinel unit serial number:	SN410029Multiplexer serial number:	ORYXHardware model number:	OX2-SRSoftware version number:	ORYX F/W v4,00 Oryx Data Collector v3.7.2.0data status	okinstallation	B3 Nyhavnadifferential loss correction	single-endedforward channel	channel 1reverse channel	N/Adate	2023/12/04time	22:37:30forward acquisition time	300,00reverse acquisition time	0,00gamma	499,1914k internal	0,3200k external	0,3200temperature offset calibration	1,0000default loss term (dB/km)	0,3820temperature slope calibration	1,0000multiplexer offset coefficient	1,0000multiplexer slope coefficient	1,0000fibre end	0,00T internal ref (°C)	14,44T ext. ref 1 (°C)	-0,84T ext. ref 2 (°C)	-0,84length (m)	temperature (°C)	Stokes	anti-Stokes-744,400	-4,193	-0,303	-0,152
-743,385	800,000	-0,137	0,364
-742,371	95,204	-0,239	-0,198
-741,356	-200,000	0,077	0,293
-740,342	567,047	-0,108	-0,192
-739,327	-200,000	-0,066	0,284
-738,312	-63,588	-0,318	-0,094
-737,298	-200,000	-0,027	0,295
-736,283	800,000	-0,082	-0,169
-735,269	-200,000	0,025	0,195
-734,254	256,523	-0,224	-0,280
-733,239	-41,344	-0,211	0,078
-732,225	-200,000	-0,027	-0,177
-731,210	124,771	-0,102	0,093
-730,196	-39,971	-0,098	0,037
-729,181	-13,403	-0,110	-0,052
-728,167	-71,633	-0,049	-0,013
-727,152	-26,415	-0,057	0,024
-726,137	362,243	-0,088	-0,128
-725,123	-90,512	-0,117	0,024
-724,108	-200,000	-0,003	-0,072
-723,094	-177,609	-0,151	-0,003
-722,079	590,422	-0,061	-0,109
-721,064	456,634	0,003	0,006
-720,050	-112,518	-0,016	0,002
-719,035	-200,000	-0,004	-0,077
-718,021	-75,710	-0,172	-0,044
-717,006	48,843	-0,029	0,020
-715,991	564,131	-0,087	-0,154
-714,977	-200,000	-0,002	0,008
-713,962	-176,827	0,081	-0,001
-712,948	-82,717	-0,067	-0,016
-711,933	-200,000	-0,006	0,055
-710,918	239,729	-0,048	0,059
-709,904	-200,000	-0,012	0,050
-708,889	-114,347	0,082	-0,011
-707,875	135,957	-0,123	-0,117
-706,860	-57,897	0,064	-0,020
-705,845	-95,715	0,070	-0,014
-704,831	-48,700	0,125	-0,044
-703,816	38,246	-0,122	0,079
-702,802	-1,543	-0,060	0,031
-701,787	-116,324	-0,069	-0,009
-700,772	-59,133	-0,126	-0,039
-699,758	157,902	-0,020	0,021
-698,743	73,655	0,094	-0,072
-697,729	555,445	0,036	0,064
-696,714	67,982	-0,044	0,032
-695,699	-116,410	-0,058	0,008
-694,685	-200,000	-0,022	-0,165
-693,670	-200,000	-0,003	-0,010
-692,656	256,162	-0,077	-0,096
-691,641	-43,036	-0,060	-0,022
-690,627	497,864	-0,082	-0,138
-689,612	-113,570	-0,094	-0,013
-688,597	245,407	-0,049	0,059
-687,583	544,508	-0,080	-0,139
-686,568	-200,000	-0,010	-0,090
-685,554	-200,000	0,003	0,048
-684,539	-10,630	-0,075	-0,036
-683,524	-61,549	0,045	0,014
-682,510	-200,000	-0,004	-0,047
-681,495	-200,000	-0,014	0,090
-680,481	6,056	-0,150	-0,080
-679,466	700,236	0,028	-0,054
-678,451	-200,000	-0,012	-0,048
-677,437	-70,109	-0,059	0,016
-676,422	19,806	-0,103	-0,060
-675,408	-109,991	-0,045	0,007
-674,393	233,208	0,076	-0,091
-673,378	-52,626	-0,074	0,025
-672,364	307,795	0,046	0,062
-671,349	-200,000	-0,031	-0,105
-670,335	-200,000	0,022	-0,129
-669,320	179,478	0,049	0,052
-668,305	221,752	-0,087	0,102
-667,291	800,000	-0,053	0,165
-666,276	800,000	-0,074	-0,196
-665,262	-200,000	-0,000	-0,142
-664,247	463,344	-0,074	-0,120
-663,232	-200,000	0,004	-0,040
-662,218	-38,419	0,081	0,031
-661,203	-200,000	0,010	-0,033
-660,189	-19,060	-0,095	-0,043
-659,174	116,647	0,055	-0,049
-658,159	-200,000	-0,001	-0,045
-657,145	-200,000	-0,011	-0,053
-656,130	-200,000	0,001	0,013
-655,116	147,121	0,055	0,054
-654,101	-200,000	0,015	0,106
-653,086	-200,000	0,001	0,045
-652,072	800,000	-0,044	-0,098
-651,057	149,697	0,034	-0,034
-650,043	209,077	-0,109	0,124
-649,028	169,817	-0,059	-0,061
-648,014	-20,954	-0,044	-0,020
-646,999	299,225	0,024	-0,032
-645,984	522,917	-0,062	-0,106
-644,970	24,982	-0,023	-0,014
-643,955	-200,000	0,007	0,030
-642,941	-200,000	0,004	-0,022
-641,926	-155,047	0,037	0,002
-640,911	156,526	0,056	-0,056
-639,897	800,000	-0,048	0,111
-638,882	-200,000	-0,014	0,093
-637,868	-49,535	-0,060	0,021
-636,853	315,981	-0,074	-0,102
-635,838	800,000	0,075	-0,235
-634,824	-200,000	-0,007	0,026
-633,809	-119,235	0,030	0,004
-632,795	-126,730	0,069	-0,007
-631,780	-35,677	0,033	-0,013
-630,765	-143,665	0,079	0,005
-629,751	248,656	-0,057	-0,070
-628,736	-200,000	-0,011	-0,188
-627,722	-200,000	-0,061	0,000
-626,707	800,000	-0,041	0,089
-625,692	-191,044	-0,027	0,000
-624,678	-200,000	-0,009	-0,134
-623,663	75,143	0,116	-0,089
-622,649	-155,025	-0,101	0,005
-621,634	72,429	-0,051	-0,038
-620,619	-127,963	-0,126	0,013
-619,605	25,893	-0,021	0,013
-618,590	-85,809	0,111	0,025
-617,576	-200,000	0,022	-0,083
-616,561	-125,239	-0,160	-0,018
-615,546	122,386	0,060	-0,054
-614,532	89,935	-0,054	-0,044
-613,517	-200,000	0,017	0,153
-612,503	-200,000	0,005	-0,020
-611,488	-65,924	0,086	-0,025
-610,474	490,509	0,038	-0,063
-609,459	-200,000	-0,039	-0,194
-608,444	800,000	-0,021	0,048
-607,430	343,825	-0,031	-0,044
-606,415	-200,000	0,027	-0,141
-605,401	-200,000	-0,019	0,081
-604,386	505,870	0,037	-0,063
-603,371	-11,543	0,017	0,008
-602,357	426,187	0,055	-0,085
-601,342	-200,000	0,019	0,084
-600,328	600,691	0,032	0,058
-599,313	172,311	0,007	0,008
-598,298	36,059	-0,031	0,020
-597,284	-200,000	-0,022	-0,086
-596,269	471,298	-0,024	0,039
-595,255	394,252	0,040	0,060
-594,240	323,522	0,020	-0,028
-593,225	-57,122	-0,042	-0,013
-592,211	-1,419	-0,093	0,047
-591,196	405,340	0,039	0,059
-590,182	643,539	0,008	-0,015
-589,167	-118,285	0,124	0,016
-588,152	371,093	-0,061	0,089
-587,138	54,836	0,086	0,060
-586,123	-200,000	-0,039	-0,146
-585,109	181,867	-0,095	-0,102
-584,094	800,000	-0,007	0,016
-583,079	-67,820	0,133	0,037
-582,065	-200,000	0,019	0,098
-581,050	-30,106	0,076	-0,031
-580,036	-200,000	-0,013	-0,125
-579,021	-200,000	-0,025	-0,152
-578,006	51,550	0,024	0,017
-576,992	-166,476	-0,216	-0,006
-575,977	381,864	-0,049	-0,073
-574,963	90,656	0,132	0,107
-573,948	800,000	0,024	-0,053
-572,934	342,253	0,080	0,113
-571,919	-19,211	-0,041	0,018
-570,904	800,000	0,029	0,058
-569,890	312,871	0,087	0,118
-568,875	800,000	-0,034	-0,070
-567,861	800,000	0,020	0,057
-566,846	779,540	0,006	-0,013
-565,831	-148,557	0,083	-0,005
-564,817	-200,000	0,008	-0,084
-563,802	800,000	-0,057	-0,153
-562,788	323,574	-0,040	-0,056
-561,773	199,224	-0,042	-0,047
-560,758	-200,000	0,007	0,087
-559,744	800,000	0,039	0,082
-558,729	-129,308	-0,049	0,005
-557,715	-63,553	-0,087	0,026
-556,700	-200,000	-0,008	-0,077
-555,685	-37,680	-0,351	0,134
-554,671	-152,649	0,015	0,001
-553,656	800,000	-0,011	0,030
-552,642	128,336	0,055	-0,050
-551,627	3,180	0,042	0,022
-550,612	-200,000	0,005	-0,117
-549,598	-200,000	0,024	-0,098
-548,583	69,156	-0,040	-0,029
-547,569	-35,196	-0,059	-0,023
-546,554	127,259	-0,072	0,066
-545,539	800,000	0,065	0,144
-544,525	-200,000	-0,033	0,178
-543,510	-200,000	-0,029	-0,111
-542,496	28,493	0,105	0,064
-541,481	800,000	-0,035	-0,076
-540,466	-9,947	-0,133	-0,064
-539,452	14,379	0,076	-0,043
-538,437	54,215	-0,013	0,009
-537,423	-72,998	-0,051	-0,013
-536,408	7,968	-0,078	-0,042
-535,393	-93,497	-0,089	0,018
-534,379	8,820	-0,117	-0,064
-533,364	86,453	0,039	-0,031
-532,350	-162,672	0,081	-0,003
-531,335	446,080	0,065	0,104
-530,321	6,535	0,063	0,034
-529,306	58,841	0,084	-0,059
-528,291	-55,001	-0,160	0,052
-527,277	31,815	-0,209	-0,130
-526,262	214,972	0,087	0,099
-525,248	41,325	0,064	-0,041
-524,233	357,950	0,047	0,067
-523,218	336,113	0,015	-0,021
-522,204	-200,000	0,024	0,099
-521,189	81,833	0,065	-0,051
-520,175	-26,506	0,044	0,018
-519,160	-158,200	0,114	0,005
-518,145	800,000	0,030	-0,079
-517,131	333,245	0,101	0,141
-516,116	-200,000	-0,037	0,186
-515,102	75,323	-0,033	-0,025
-514,087	283,401	0,038	0,049
-513,072	-111,224	-0,086	-0,013
-512,058	644,946	-0,024	0,045
-511,043	-15,295	0,045	-0,021
-510,029	149,644	0,097	0,094
-509,014	4,271	0,051	-0,027
-507,999	32,468	0,063	0,039
-506,985	333,407	-0,018	-0,025
-505,970	78,363	-0,010	0,008
-504,956	-200,000	0,007	-0,060
-503,941	-200,000	0,018	-0,061
-502,926	109,664	0,069	0,060
-501,912	22,846	0,058	0,034
-500,897	-98,409	-0,075	0,014
-499,883	-132,111	0,039	-0,004
-498,868	121,983	-0,088	-0,079
-497,853	-200,000	-0,000	-0,014
-496,839	-99,940	0,109	-0,019
-495,824	800,000	0,037	-0,107
-494,810	800,000	-0,058	0,119
-493,795	-200,000	-0,025	0,109
-492,781	800,000	0,019	-0,047
-491,766	-200,000	-0,011	0,146
-490,751	33,376	0,159	-0,099
-489,737	-200,000	-0,036	-0,197
-488,722	-131,685	0,110	-0,010
-487,708	-68,237	0,106	-0,029
-486,693	800,000	0,008	-0,024
-485,678	-110,164	-0,063	0,009
-484,664	-200,000	-0,001	0,014
-483,649	-114,857	-0,137	-0,019
-482,635	800,000	0,058	-0,161
-481,620	-200,000	-0,030	0,101
-480,605	-200,000	0,022	0,105
-479,591	-150,026	-0,088	0,005
-478,576	-61,915	-0,056	0,017
-477,562	-200,000	-0,010	0,041
-476,547	499,090	-0,080	-0,133
-475,532	800,000	-0,056	-0,168
-474,518	560,339	0,075	-0,131
-473,503	800,000	0,025	0,062
-472,489	-200,000	-0,003	0,064
-471,474	800,000	0,007	-0,013
-470,459	64,033	-0,084	-0,061
-469,445	-200,000	0,010	-0,073
-468,430	142,162	0,095	0,091
-467,416	721,601	-0,079	-0,152
-466,401	34,252	0,021	0,013
-465,386	-200,000	-0,022	0,081
-464,372	-200,000	0,002	0,081
-463,357	-200,000	-0,008	0,157
-462,343	96,770	-0,035	-0,029
-461,328	-200,000	-0,007	-0,077
-460,313	1,397	0,091	0,047
-459,299	-200,000	0,039	0,166
-458,284	800,000	-0,096	0,194
-457,270	-20,952	0,092	-0,040
-456,255	-33,950	0,172	0,068
-455,241	-78,868	-0,157	-0,038
-454,226	238,468	-0,052	-0,062
-453,211	-35,839	0,081	0,032
-452,197	-102,944	0,085	0,014
-451,182	-200,000	-0,020	0,092
-450,168	132,239	-0,150	0,139
-449,153	-29,597	-0,020	0,008
-448,138	63,336	0,012	0,009
-447,124	116,275	-0,051	-0,045
-446,109	111,325	-0,075	0,065
-445,095	8,782	-0,114	0,062
-444,080	143,564	0,055	0,053
-443,065	393,466	0,063	0,094
-442,051	-163,065	-0,075	0,003
-441,036	226,727	-0,052	-0,060
-440,022	-115,992	-0,018	0,002
-439,007	83,891	0,075	0,059
-437,992	-200,000	0,010	0,170
-436,978	256,865	-0,054	0,066
-435,963	47,304	-0,046	0,031
-434,949	-10,775	0,054	-0,026
-433,934	249,645	-0,016	0,019
-432,919	-98,785	-0,134	-0,024
-431,905	800,000	-0,064	-0,181
-430,890	179,857	0,055	0,058
-429,876	800,000	0,092	0,187
-428,861	387,234	-0,067	0,099
-427,846	800,000	-0,013	0,041
-426,832	800,000	-0,063	-0,130
-425,817	-7,537	0,145	-0,070
-424,803	-200,000	-0,022	0,076
-423,788	-200,000	0,009	0,056
-422,773	371,597	0,068	0,100
-421,759	107,497	0,081	-0,069
-420,744	-200,000	-0,028	0,124
-419,730	164,787	-0,106	0,108
-418,715	412,721	0,072	-0,110
-417,701	-146,441	-0,088	0,005
-416,686	434,952	0,050	-0,079
-415,671	-200,000	0,018	0,142
-414,657	203,149	0,052	0,058
-413,642	341,185	-0,050	0,071
-412,628	57,939	-0,058	0,041
-411,613	-88,832	-0,068	0,014
-410,598	-200,000	0,006	0,042
-409,584	426,926	0,070	0,110
-408,569	800,000	0,033	0,101
-407,555	800,000	-0,055	0,131
-406,540	800,000	-0,012	0,036
-405,525	654,140	-0,084	-0,155
-404,511	718,553	-0,041	-0,079
-403,496	129,415	-0,052	0,047
-402,482	120,654	0,026	0,023
-401,467	-11,647	-0,133	0,062
-400,452	182,470	0,114	0,120
-399,438	-62,959	0,042	-0,012
-398,423	-65,143	0,026	-0,008
-397,409	147,188	-0,057	-0,055
-396,394	85,955	0,006	0,005
-395,379	39,368	0,027	0,017
-394,365	-200,000	0,034	-0,122
-393,350	-90,486	0,014	0,003
-392,336	642,685	-0,067	-0,123
-391,321	800,000	0,026	-0,057
-390,306	-52,671	0,066	-0,022
-389,292	-15,509	-0,107	-0,049
-388,277	-200,000	0,017	-0,096
-387,263	249,149	-0,088	0,107
-386,248	177,800	0,080	0,084
-385,233	800,000	0,022	-0,045
-384,219	7,719	-0,116	-0,062
-383,204	800,000	-0,039	0,082
-382,190	-200,000	-0,004	-0,060
-381,175	199,643	-0,056	0,061
-380,160	-56,921	0,252	-0,079
-379,146	191,388	0,067	-0,073
-378,131	102,127	0,102	0,086
-377,117	-107,132	0,065	0,010
-376,102	739,250	-0,032	-0,063
-375,088	13,810	-0,110	0,061
-374,073	15,839	0,117	0,066
-373,058	-24,997	0,137	0,058
-372,044	-32,121	-0,074	-0,029
-371,029	102,485	0,058	-0,048
-370,015	-200,000	0,015	0,111
-369,000	-98,546	0,047	0,008
-367,985	-49,341	-0,055	0,019
-366,971	-21,722	0,083	-0,036
-365,956	-29,094	-0,137	0,056
-364,942	105,394	0,056	0,047
-363,927	57,981	0,075	0,053
-362,912	-9,597	-0,100	0,048
-361,898	-135,242	-0,069	0,006
-360,883	800,000	0,018	-0,054
-359,869	234,530	0,050	0,060
-358,854	-55,000	0,086	-0,028
-357,839	668,589	0,030	-0,055
-356,825	-65,523	0,171	0,049
-355,810	-200,000	-0,029	0,093
-354,796	-24,053	-0,108	0,046
-353,781	-200,000	0,016	-0,082
-352,766	35,306	-0,035	0,022
-351,752	-200,000	0,019	0,112
-350,737	-44,308	0,082	0,029
-349,723	800,000	0,051	0,143
-348,708	-94,517	-0,075	-0,015
-347,693	99,920	0,067	0,055
-346,679	84,254	0,066	0,052
-345,664	800,000	0,014	0,042
-344,650	572,307	0,051	0,089
-343,635	412,416	0,061	-0,093
-342,620	-200,000	-0,017	0,086
-341,606	800,000	0,034	0,088
-340,591	67,441	-0,049	-0,036
-339,577	-19,729	-0,132	0,058
-338,562	-200,000	0,056	-0,258
-337,548	-5,107	0,088	-0,043
-336,533	-132,578	-0,109	-0,010
-335,518	800,000	-0,024	-0,055
-334,504	84,643	0,043	0,034
-333,489	-200,000	-0,020	-0,086
-332,475	-151,992	0,077	0,004
-331,460	-200,000	-0,004	0,013
-330,445	-200,000	0,029	0,107
-329,431	84,491	0,047	0,037
-328,416	536,819	0,044	0,075
-327,402	800,000	0,057	0,159
-326,387	85,230	-0,067	0,053
-325,372	-200,000	-0,006	-0,060
-324,358	486,422	-0,096	-0,157
-323,343	-200,000	-0,034	-0,113
-322,329	800,000	0,036	-0,087
-321,314	800,000	-0,045	0,112
-320,299	51,486	0,106	0,072
-319,285	-200,000	0,016	0,079
-318,270	-134,460	0,149	-0,013
-317,256	-200,000	0,037	-0,123
-316,241	86,331	-0,037	0,030
-315,226	373,193	-0,060	-0,088
-314,212	-200,000	0,001	-0,013
-313,197	-200,000	0,019	0,112
-312,183	230,151	0,050	0,059
-311,168	800,000	0,031	-0,094
-310,153	-80,199	-0,112	-0,027
-309,139	-115,573	-0,099	-0,013
-308,124	295,574	0,059	0,078
-307,110	-90,657	0,097	-0,020
-306,095	76,380	-0,167	0,126
-305,080	800,000	0,035	-0,075
-304,066	618,322	0,028	-0,051
-303,051	306,108	-0,045	-0,060
-302,037	-200,000	0,007	-0,130
-301,022	800,000	0,088	0,189
-300,008	250,233	-0,025	0,030
-298,993	65,295	0,100	0,072
-297,978	800,000	-0,010	-0,030
-296,964	399,813	-0,084	-0,126
-295,949	-121,486	-0,135	-0,016
-294,935	-200,000	0,017	-0,084
-293,920	280,259	-0,062	-0,080
-292,905	33,591	-0,068	0,042
-291,891	117,249	0,029	-0,025
-290,876	-50,705	0,128	0,043
-289,862	39,176	-0,057	0,036
-288,847	-156,939	-0,087	0,004
-287,832	30,851	0,115	-0,070
-286,818	-134,650	-0,186	0,016
-285,803	-22,565	0,031	-0,013
-284,789	-200,000	-0,023	-0,116
-283,774	64,065	0,024	0,017
-282,759	246,444	-0,025	0,030
-281,745	800,000	-0,034	-0,101
-280,730	109,869	-0,127	-0,109
-279,716	30,471	-0,113	0,069
-278,701	800,000	-0,065	-0,187
-277,686	-121,866	-0,093	-0,011
-276,672	-37,394	0,123	0,047
-275,657	-96,660	-0,068	0,013
-274,643	47,157	-0,180	-0,120
-273,628	15,963	-0,038	-0,021
-272,613	800,000	-0,024	0,052
-271,599	177,098	0,028	0,030
-270,584	800,000	0,038	-0,119
-269,570	-101,693	-0,097	0,017
-268,555	-112,534	-0,198	-0,028
-267,540	208,671	-0,051	0,057
-266,526	30,481	-0,042	-0,026
-265,511	-162,795	0,147	-0,005
-264,497	170,937	0,076	-0,078
-263,482	46,943	0,074	0,049
-262,467	800,000	0,033	0,082
-261,453	-200,000	-0,007	-0,085
-260,438	-173,099	-0,065	0,001
-259,424	-200,000	-0,017	-0,089
-258,409	-200,000	-0,023	-0,119
-257,395	-92,963	0,113	-0,022
-256,380	-109,488	0,130	0,019
-255,365	116,613	0,104	0,091
-254,351	-200,000	0,009	0,063
-253,336	250,495	-0,006	-0,008
-252,322	-78,534	-0,047	-0,011
-251,307	800,000	-0,019	0,042
-250,292	-200,000	0,013	0,057
-249,278	-200,000	-0,003	0,084
-248,263	-80,291	0,101	0,024
-247,249	327,497	-0,047	-0,064
-246,234	800,000	0,035	-0,083
-245,219	518,793	0,022	0,037
-244,205	-76,761	-0,085	-0,021
-243,190	444,368	-0,063	-0,098
-242,176	-39,836	-0,017	0,006
-241,161	94,299	0,023	0,019
-240,146	532,737	0,060	0,101
-239,132	800,000	-0,010	-0,024
-238,117	216,525	-0,023	-0,026
-237,103	87,331	-0,131	-0,103
-236,088	189,252	-0,054	-0,058
-235,073	-99,825	0,085	0,015
-234,059	102,574	0,055	0,046
-233,044	-200,000	0,005	0,088
-232,030	198,399	0,054	0,059
-231,015	-200,000	0,000	-0,064
-230,000	-200,000	0,001	-0,033
-228,986	7,934	-0,121	0,064
-227,971	800,000	0,011	-0,025
-226,957	-35,613	0,049	-0,019
-225,942	-7,454	0,018	0,009
-224,927	373,573	-0,056	-0,081
-223,913	800,000	-0,041	-0,109
-222,898	6,154	-0,070	-0,037
-221,884	800,000	0,010	-0,029
-220,869	-200,000	0,019	-0,096
-219,855	305,837	-0,052	0,069
-218,840	292,490	0,093	0,121
-217,825	198,115	-0,016	0,018
-216,811	-27,023	0,029	0,012
-215,796	-134,693	-0,099	-0,008
-214,782	332,017	0,087	-0,120
-213,767	157,256	-0,033	0,033
-212,752	-13,868	-0,044	-0,020
-211,738	-195,205	0,204	0,001
-210,723	370,120	-0,081	0,118
-209,709	-200,000	0,012	-0,074
-208,694	-200,000	0,032	-0,107
-207,679	800,000	-0,029	-0,064
-206,665	-200,000	0,011	0,049
-205,650	723,564	-0,081	0,154
-204,636	-115,475	0,132	0,017
-203,621	167,236	-0,114	-0,116
-202,606	-50,628	0,052	-0,017
-201,592	271,446	-0,060	-0,075
-200,577	800,000	0,047	0,104
-199,563	36,673	0,006	-0,004
-198,548	-200,000	-0,025	-0,081
-197,533	286,203	0,020	-0,025
-196,519	-200,000	0,035	0,122
-195,504	-126,568	0,026	0,003
-194,490	-158,576	-0,175	-0,007
-193,475	-7,298	-0,078	-0,037
-192,460	-200,000	-0,014	0,126
-191,446	239,821	0,072	0,085
-190,431	178,986	0,079	0,082
-189,417	-200,000	0,006	0,085
-188,402	-91,227	0,089	0,018
-187,387	800,000	-0,039	-0,114
-186,373	125,056	0,071	-0,064
-185,358	502,708	0,035	0,057
-184,344	79,756	0,221	-0,169
-183,329	-104,506	0,042	0,007
-182,315	597,944	0,089	0,157
-181,300	-200,000	-0,014	0,104
-180,285	-200,000	0,007	-0,158
-179,271	800,000	0,064	-0,145
-178,256	-85,481	-0,027	0,006
-177,242	-96,665	-0,021	0,004
-176,227	26,258	-0,034	0,020
-175,212	600,272	-0,011	0,019
-174,198	800,000	0,035	0,080
-173,183	800,000	0,027	0,079
-172,169	-37,784	-0,046	0,017
-171,154	84,082	-0,100	-0,078
-170,139	-200,000	-0,043	-0,153
-169,125	278,035	0,058	-0,074
-168,110	52,199	0,144	0,097
-167,096	116,482	-0,054	0,047
-166,081	66,564	0,116	-0,084
-165,066	-162,985	-0,135	-0,005
-164,052	-200,000	-0,005	-0,104
-163,037	94,246	0,139	0,113
-162,023	248,243	0,099	0,119
-161,008	-47,086	-0,041	-0,014
-159,993	108,643	-0,063	-0,053
-158,979	-200,000	0,018	0,072
-157,964	243,741	-0,153	-0,183
-156,950	-115,270	0,067	-0,009
-155,935	68,575	-0,086	0,062
-154,920	-200,000	-0,017	-0,133
-153,906	779,513	0,042	0,082
-152,891	639,151	0,069	-0,126
-151,877	-7,002	0,113	0,054
-150,862	-200,000	-0,042	-0,149
-149,847	540,805	-0,023	0,038
-148,833	-68,140	0,106	-0,029
-147,818	-157,032	-0,158	-0,007
-146,804	271,645	0,078	0,098
-145,789	-200,000	0,027	0,169
-144,775	-30,679	-0,059	0,024
-143,760	-85,831	-0,076	-0,017
-142,745	-105,364	-0,179	-0,029
-141,731	800,000	-0,029	-0,072
-140,716	-200,000	-0,029	0,104
-139,702	-109,390	0,122	-0,018
-138,687	19,106	0,037	-0,021
-137,672	-83,341	-0,162	0,037
-136,658	168,728	0,049	-0,049
-135,643	165,120	0,016	-0,016
-134,629	-23,149	-0,051	-0,022
-133,614	800,000	-0,025	0,060
-132,599	-200,000	0,026	0,149
-131,585	547,942	0,067	0,115
-130,570	800,000	-0,025	-0,077
-129,556	-200,000	0,002	-0,009
-128,541	22,193	-0,150	0,087
-127,526	175,946	-0,083	0,085
-126,512	-129,529	-0,045	-0,004
-125,497	196,952	0,036	0,039
-124,483	-200,000	0,038	-0,132
-123,468	800,000	0,028	-0,065
-122,453	-37,950	0,073	-0,027
-121,439	550,621	-0,091	0,155
-120,424	-17,974	-0,155	-0,069
-119,410	-165,040	0,134	0,004
-118,395	-32,402	0,045	-0,018
-117,380	594,723	0,051	0,089
-116,366	191,446	-0,048	-0,051
-115,351	-129,573	-0,161	0,016
-114,337	800,000	0,030	-0,082
-113,322	-64,486	0,146	-0,042
-112,307	53,830	0,077	0,053
-111,293	309,603	0,022	0,029
-110,278	-200,000	0,018	0,113
-109,264	800,000	0,027	-0,083
-108,249	-122,475	-0,107	-0,012
-107,234	-164,708	0,064	0,002
-106,220	-200,000	0,008	0,025
-105,205	484,773	-0,046	-0,074
-104,191	-200,000	0,031	-0,109
-103,176	329,400	0,049	0,067
-102,162	800,000	0,046	0,131
-101,147	471,004	-0,037	-0,059
-100,132	162,336	0,021	-0,020
-99,118	701,024	-0,036	0,067
-98,103	-13,218	0,163	-0,075
-97,089	558,731	-0,045	-0,077
-96,074	-200,000	-0,024	0,120
-95,059	188,147	0,135	0,143
-94,045	17,835	0,138	-0,078
-93,030	85,849	-0,091	-0,071
-92,016	29,629	0,011	0,007
-91,001	-200,000	0,020	0,067
-89,986	-25,252	-0,075	0,031
-88,972	88,323	0,085	0,067
-87,957	-133,106	-0,051	0,005
-86,943	-2,282	-0,144	-0,072
-85,928	-128,820	-0,105	-0,010
-84,913	601,639	-0,086	-0,152
-83,899	-152,232	0,122	0,006
-82,884	167,181	0,054	0,054
-81,870	800,000	-0,033	-0,070
-80,855	33,433	-0,035	0,021
-79,840	356,914	-0,060	0,085
-78,826	75,464	0,014	0,011
-77,811	143,135	-0,067	-0,063
-76,797	800,000	0,029	-0,076
-75,782	-200,000	0,005	0,033
-74,767	-88,317	-0,077	-0,016
-73,753	574,078	-0,026	0,046
-72,738	127,643	0,178	0,161
-71,724	800,000	0,003	0,010
-70,709	-116,213	0,099	-0,013
-69,694	550,598	0,037	-0,063
-68,680	-200,000	-0,007	-0,070
-67,665	490,196	0,039	-0,064
-66,651	-46,391	0,081	0,028
-65,636	104,235	-0,012	-0,010
-64,622	52,159	-0,057	-0,038
-63,607	156,836	-0,107	0,105
-62,592	171,550	0,040	0,041
-61,578	90,489	-0,044	-0,035
-60,563	5,356	0,062	-0,032
-59,549	164,221	-0,113	0,113
-58,534	-26,102	-1,614	-0,669
-57,519	347,199	-1,521	-2,127
-56,505	-200,000	-0,593	-4,604
-55,490	226,329	1,051	1,210
-54,476	800,000	4,908	11,318
-53,461	-200,000	18,523	298,444
-52,446	800,000	732,733	2263,313
-51,432	559,627	1649,066	2831,203
-50,417	78,798	1668,418	1262,876
-49,403	22,352	1541,617	889,918
-48,388	16,307	1464,541	816,086
-47,373	17,781	1454,498	817,572
-46,359	17,032	1444,771	808,485
-45,344	14,605	1440,205	794,288
-44,330	14,525	1438,096	792,713
-43,315	14,483	1436,588	791,649
-42,300	14,513	1434,940	790,850
-41,286	14,547	1433,734	790,318
-40,271	14,505	1432,578	789,447
-39,257	14,504	1431,027	788,557
-38,242	14,493	1430,009	787,911
-37,227	14,565	1428,696	787,498
-36,213	14,575	1427,425	786,814
-35,198	14,558	1426,176	786,014
-34,184	14,562	1425,350	785,547
-33,169	14,496	1423,994	784,457
-32,154	14,529	1422,842	783,948
-31,140	14,576	1421,539	783,419
-30,125	14,563	1420,538	782,775
-29,111	14,562	1419,247	782,031
-28,096	14,545	1418,343	781,418
-27,082	14,481	1417,370	780,549
-26,067	14,448	1416,071	779,648
-25,052	14,482	1415,107	779,248
-24,038	14,436	1414,025	778,407
-23,023	14,430	1413,043	777,808
-22,009	14,460	1412,064	777,378
-20,994	14,401	1411,202	776,596
-19,979	14,441	1410,334	776,275
-18,965	14,408	1409,354	775,548
-17,950	14,381	1408,497	774,920
-16,936	14,400	1407,450	774,402
-15,921	14,386	1406,310	773,677
-14,906	14,352	1405,664	773,134
-13,892	14,395	1404,595	772,717
-12,877	14,390	1403,646	772,139
-11,863	14,379	1402,656	771,512
-10,848	14,340	1401,835	770,850
-9,833	14,331	1401,167	770,409
-8,819	14,328	1400,019	769,732
-7,804	14,279	1399,151	769,001
-6,790	14,283	1398,203	768,466
-5,775	14,253	1397,141	767,711
-4,760	14,260	1396,244	767,222
-3,746	14,233	1395,754	766,799
-2,731	14,286	1394,641	766,401
-1,717	14,305	1393,699	765,938
-0,702	14,263	1392,007	764,785
0,313	18,094	1310,131	737,548
1,327	34,357	705,816	435,006
2,342	52,827	124,074	83,829
3,356	2,316	16,648	8,493
4,371	-1,061	3,272	1,632
5,386	-14,324	0,475	0,216
6,400	38,480	0,159	0,100
7,415	56,747	-0,207	-0,142
8,429	308,362	-0,211	-0,279
9,444	180,143	-0,316	-0,328
10,459	504,470	-0,180	-0,296
11,473	-13,762	-0,286	-0,130
12,488	24,957	-0,351	-0,205
13,502	-26,686	-0,264	-0,109
14,517	56,462	-0,253	-0,174
15,531	88,546	-0,347	-0,272
16,546	267,529	-0,260	-0,322
17,561	202,169	-0,245	-0,267
18,575	31,368	-0,180	-0,109
19,590	50,588	-0,260	-0,174
20,604	-5,230	-0,287	-0,139
21,619	62,555	-0,422	-0,298
22,634	227,442	-0,315	-0,363
23,648	169,350	-0,321	-0,324
24,663	120,329	-0,409	-0,358
25,677	51,829	-0,325	-0,218
26,692	107,692	-0,279	-0,235
27,707	55,687	-0,387	-0,264
28,721	77,128	-0,399	-0,299
29,736	-11,763	-0,415	-0,191
30,750	74,698	-0,501	-0,372
31,765	68,980	-0,325	-0,236
32,780	188,329	-0,320	-0,338
33,794	63,577	-0,346	-0,245
34,809	227,938	-0,187	-0,215
35,823	133,465	-0,368	-0,336
36,838	68,704	-0,442	-0,319
37,853	28,072	-0,443	-0,263
38,867	78,392	-0,392	-0,295
39,882	294,397	-0,323	-0,417
40,896	-37,200	-0,176	-0,066
41,911	-30,426	-0,224	-0,089
42,926	38,274	-0,284	-0,178
43,940	76,551	-0,374	-0,279
44,955	41,030	-0,394	-0,250
45,969	-23,211	-0,491	-0,207
46,984	112,994	-0,327	-0,280
47,999	-95,985	-0,315	-0,059
49,013	-48,972	-0,399	-0,134
50,028	8,386	-0,260	-0,137
51,042	122,399	-0,333	-0,293
52,057	205,433	-0,178	-0,195
53,071	39,618	-0,432	-0,272
54,086	-14,329	-0,475	-0,215
55,101	101,517	-0,329	-0,270
56,115	32,787	-0,381	-0,232
57,130	360,069	-0,153	-0,217
58,144	-15,509	-0,302	-0,135
59,159	210,000	-0,217	-0,240
60,174	145,220	-0,320	-0,301
61,188	142,965	-0,291	-0,273
62,203	-26,178	-0,276	-0,114
63,217	-15,313	-0,326	-0,146
64,232	315,438	-0,237	-0,316
65,247	84,251	-0,388	-0,298
66,261	-58,612	-0,439	-0,133
67,276	56,603	-0,332	-0,227
68,290	-17,083	-0,283	-0,125
69,305	142,797	-0,329	-0,308
70,320	149,617	-0,112	-0,107
71,334	-6,890	-0,418	-0,199
72,349	77,971	-0,373	-0,280
73,363	111,315	-0,257	-0,218
74,378	-38,580	-0,469	-0,173
75,393	-12,759	-0,406	-0,185
76,407	172,088	-0,225	-0,227
77,422	185,017	-0,207	-0,216
78,436	-18,297	-0,275	-0,121
79,451	86,880	-0,354	-0,275
80,466	220,162	-0,194	-0,218
81,480	50,634	-0,400	-0,265
82,495	44,629	-0,281	-0,181
83,509	-8,210	-0,301	-0,142
84,524	-36,018	-0,284	-0,107
85,539	205,755	-0,237	-0,259
86,553	141,751	-0,241	-0,225
87,568	163,072	-0,239	-0,236
88,582	76,687	-0,382	-0,284
89,597	253,182	-0,220	-0,264
90,611	68,652	-0,215	-0,155
91,626	-1,713	-0,199	-0,098
92,641	-27,584	-0,349	-0,142
93,655	42,157	-0,224	-0,142
94,670	-54,753	-0,296	-0,093
95,684	408,894	-0,193	-0,288
96,699	-11,366	-0,272	-0,125
97,714	-34,073	-0,280	-0,107
98,728	119,497	-0,170	-0,147
99,743	-38,043	-0,226	-0,084
100,757	-151,866	-0,195	-0,010
101,772	-34,398	-0,341	-0,131
102,787	435,770	-0,242	-0,371
103,801	-34,868	-0,331	-0,126
104,816	800,000	-0,078	-0,177
105,830	14,685	-0,375	-0,205
106,845	-52,413	-0,234	-0,076
107,860	89,792	-0,338	-0,264
108,874	183,250	-0,336	-0,349
109,889	-109,280	-0,336	-0,049
110,903	44,823	-0,237	-0,153
111,918	79,638	-0,271	-0,204
112,933	23,203	-0,205	-0,118
113,947	68,386	-0,223	-0,160
114,962	-50,822	-0,298	-0,098
115,976	112,203	-0,369	-0,312
116,991	53,949	-0,201	-0,135
118,006	29,534	-0,339	-0,202
119,020	57,123	-0,201	-0,137
120,035	337,273	-0,219	-0,299
121,049	31,348	-0,234	-0,141
122,064	30,462	-0,277	-0,165
123,079	176,697	-0,197	-0,201
124,093	65,690	-0,290	-0,206
125,108	-29,802	-0,284	-0,113
126,122	-52,084	-0,220	-0,071
127,137	-86,323	-0,232	-0,049
128,151	153,241	-0,187	-0,179
129,166	-108,513	-0,199	-0,030
130,181	54,889	-0,265	-0,179
131,195	230,169	-0,244	-0,280
132,210	280,924	-0,333	-0,418
133,224	247,644	-0,273	-0,323
134,239	65,618	-0,297	-0,210
135,254	182,357	-0,193	-0,199
136,268	206,186	-0,215	-0,234
137,283	278,678	-0,201	-0,251
138,297	-3,119	-0,332	-0,161
139,312	140,071	-0,262	-0,242
140,327	47,063	-0,322	-0,209
141,341	26,365	-0,285	-0,166
142,356	-86,405	-0,221	-0,047
143,370	-118,266	-0,275	-0,034
144,385	250,213	-0,161	-0,192
145,400	-131,459	-0,214	0,020
146,414	-37,320	-0,284	-0,106
147,429	148,126	-0,256	-0,241
148,443	-47,302	-0,119	-0,040
149,458	135,833	-0,218	-0,198
150,473	-73,534	-0,310	-0,078
151,487	-62,497	-0,146	-0,042
152,502	79,180	-0,242	-0,181
153,516	40,704	-0,320	-0,201
154,531	134,105	-0,221	-0,200
155,546	7,741	-0,320	-0,167
156,560	123,372	-0,267	-0,234
157,575	64,093	-0,200	-0,140
158,589	136,831	-0,262	-0,239
159,604	152,682	-0,133	-0,127
160,619	66,506	-0,239	-0,170
161,633	563,126	-0,123	-0,209
162,648	7,469	-0,274	-0,142
163,662	409,170	-0,098	-0,145
164,677	37,761	-0,263	-0,162
165,692	4,387	-0,169	-0,086
166,706	258,042	-0,268	-0,323
167,721	126,159	-0,186	-0,164
168,735	54,739	-0,323	-0,217
169,750	411,077	-0,190	-0,281
170,764	151,970	-0,223	-0,212
171,779	366,319	-0,129	-0,181
172,794	201,408	-0,183	-0,197
173,808	40,539	-0,227	-0,142
174,823	395,638	-0,138	-0,201
175,837	54,870	-0,170	-0,114
176,852	309,797	-0,096	-0,126
177,867	-141,745	-0,202	-0,014
178,881	133,821	-0,166	-0,150
179,896	-62,407	-0,284	-0,082
180,910	67,919	-0,154	-0,110
181,925	198,161	-0,221	-0,235
182,940	186,960	-0,221	-0,229
183,954	585,623	-0,206	-0,354
184,969	256,802	-0,151	-0,180
185,983	272,310	-0,219	-0,269
186,998	449,287	-0,167	-0,257
188,013	-134,086	-0,182	-0,015
189,027	248,666	-0,234	-0,276
190,042	70,263	-0,298	-0,214
191,056	16,342	-0,339	-0,186
192,071	149,031	-0,167	-0,157
193,086	-29,264	-0,299	-0,119
194,100	-108,252	-0,302	-0,045
195,115	-70,680	-0,169	-0,044
196,129	76,718	-0,213	-0,157
197,144	150,540	-0,230	-0,217
198,159	6,717	-0,237	-0,122
199,173	23,220	-0,172	-0,098
200,188	-20,400	-0,304	-0,129
201,202	170,504	-0,120	-0,120
202,217	-19,010	-0,124	-0,053
203,232	129,567	-0,162	-0,144
204,246	87,227	-0,224	-0,172
205,261	341,856	-0,096	-0,131
206,275	34,457	-0,180	-0,109
207,290	223,368	-0,156	-0,175
208,304	167,977	-0,179	-0,177
209,319	680,201	-0,161	-0,293
210,334	231,030	-0,072	-0,082
211,348	13,335	-0,278	-0,149
212,363	562,039	-0,171	-0,288
213,377	60,442	-0,218	-0,150
214,392	156,602	-0,030	-0,029
215,407	-6,427	-0,188	-0,088
216,421	-200,000	-0,055	-0,265
217,436	-132,362	-0,207	-0,018
218,450	294,592	-0,189	-0,241
219,465	220,910	-0,220	-0,246
220,480	184,453	-0,264	-0,272
221,494	26,948	-0,045	0,026
222,509	340,042	-0,076	-0,103
223,523	-26,146	-0,156	-0,063
224,538	391,858	-0,128	-0,185
225,553	800,000	-0,113	-0,226
226,567	18,467	-0,237	-0,131
227,582	40,903	-0,112	-0,070
228,596	76,707	-0,179	-0,131
229,611	99,537	-0,071	-0,057
230,626	-200,000	-0,378	0,001
231,640	-96,843	-0,185	-0,033
232,655	266,161	-0,183	-0,222
233,669	308,045	-0,158	-0,205
234,684	122,020	-0,210	-0,182
235,699	-87,917	-0,145	-0,030
236,713	-23,387	-0,248	-0,103
237,728	361,322	-0,142	-0,198
238,742	-55,844	-0,183	-0,056
239,757	-57,233	-0,215	-0,065
240,772	346,197	-0,147	-0,201
241,786	-200,000	-0,086	-0,373
242,801	144,221	-0,261	-0,241
243,815	800,000	-0,098	-0,235
244,830	590,562	-0,108	-0,186
245,844	-200,000	-0,024	-0,112
246,859	133,620	-0,268	-0,240
247,874	169,473	-0,236	-0,234
248,888	112,907	-0,211	-0,177
249,903	-77,687	-0,280	-0,067
250,917	-115,955	-0,180	0,023
251,932	39,010	-0,159	-0,098
252,947	-88,744	-0,213	-0,043
253,961	168,803	-0,091	-0,090
254,976	129,309	-0,168	-0,149
255,990	388,738	-0,113	-0,163
257,005	-18,379	-0,122	-0,052
258,020	49,687	-0,203	-0,132
259,034	800,000	-0,043	-0,087
260,049	290,836	-0,192	-0,241
261,063	133,959	-0,201	-0,180
262,078	170,045	-0,205	-0,203
263,093	-24,697	-0,278	-0,114
264,107	-200,000	-0,099	-0,324
265,122	274,040	-0,086	-0,106
266,136	800,000	-0,117	-0,290
267,151	400,556	-0,099	-0,144
268,166	-13,989	-0,286	-0,127
269,180	-21,337	-0,285	-0,120
270,195	-11,236	-0,255	-0,116
271,209	14,088	-0,194	-0,104
272,224	508,663	-0,154	-0,248
273,239	-14,517	-0,150	-0,066
274,253	800,000	-0,093	-0,209
275,268	63,498	-0,179	-0,124
276,282	212,177	-0,200	-0,219
277,297	13,438	-0,158	-0,085
278,312	452,940	-0,183	-0,280
279,326	-32,159	-0,171	-0,066
280,341	-19,899	-0,090	-0,038
281,355	173,288	-0,086	-0,086
282,370	391,265	-0,150	-0,216
283,384	89,187	-0,146	-0,113
284,399	529,389	-0,094	-0,155
285,414	-94,857	-0,272	-0,050
286,428	54,121	-0,170	-0,113
287,443	-200,000	-0,026	-0,126
288,457	-143,181	-0,088	-0,006
289,472	29,378	-0,245	-0,143
290,487	800,000	-0,119	-0,338
291,501	-15,423	-0,195	-0,085
292,516	109,450	-0,175	-0,144
293,530	-43,568	-0,093	-0,032
294,545	287,098	-0,198	-0,248
295,560	-37,748	-0,139	-0,051
296,574	101,334	-0,179	-0,144
297,589	104,220	-0,180	-0,146
298,603	406,742	-0,159	-0,233
299,618	800,000	-0,116	-0,229
300,633	245,084	-0,166	-0,193
301,647	-95,828	-0,084	0,015
302,662	21,951	-0,132	-0,074
303,676	-0,528	-0,158	-0,077
304,691	252,231	-0,190	-0,224
305,706	198,007	-0,182	-0,192
306,720	332,399	-0,089	-0,118
307,735	652,143	-0,013	0,024
308,749	800,000	-0,067	-0,141
309,764	12,635	-0,184	-0,098
310,779	-54,121	-0,162	-0,050
311,793	-37,158	-0,101	-0,037
312,808	313,323	-0,094	-0,123
313,822	-118,751	-0,125	0,015
314,837	-95,966	-0,209	0,038
315,852	429,654	-0,079	-0,118
316,866	15,657	-0,134	-0,072
317,881	-48,194	-0,081	-0,027
318,895	73,507	-0,167	-0,120
319,910	551,352	-0,086	-0,142
320,925	800,000	-0,105	-0,269
321,939	270,375	-0,130	-0,158
322,954	-106,530	-0,153	-0,023
323,968	-200,000	-0,006	-0,232
324,983	-101,191	-0,168	0,028
325,997	46,585	-0,062	0,039
327,012	-159,477	-0,237	0,009
328,027	-132,025	-0,152	-0,013
329,041	800,000	-0,118	-0,276
330,056	-107,872	-0,254	-0,038
331,070	117,865	-0,167	-0,141
332,085	92,340	-0,119	-0,092
333,100	-179,339	-0,193	0,003
334,114	146,061	-0,078	-0,072
335,129	37,230	-0,180	-0,110
336,143	234,059	-0,051	-0,058
337,158	502,735	0,032	-0,050
338,173	-127,712	-0,110	-0,011
339,187	-100,093	-0,193	-0,033
340,202	341,727	-0,066	0,089
341,216	800,000	-0,065	-0,145
342,231	-56,332	-0,137	-0,042
343,246	153,940	-0,100	-0,094
344,260	-95,956	-0,081	-0,015
345,275	-38,989	-0,101	0,036
346,289	491,196	-0,039	-0,061
347,304	100,633	-0,131	-0,104
348,319	301,240	-0,149	-0,189
349,333	213,978	-0,228	-0,248
350,348	40,107	-0,195	-0,120
351,362	249,321	-0,163	-0,190
352,377	-17,928	-0,067	-0,029
353,392	-200,000	-0,006	-0,176
354,406	-200,000	-0,016	-0,102
355,421	208,395	1318,621	1416,449
356,435	160,350	1479,819	1416,950
