DTS Sentinel unit serial number:	SN410029Multiplexer serial number:	ORYXHardware model number:	OX2-SRSoftware version number:	ORYX F/W v4,00 Oryx Data Collector v3.7.2.0data status	okinstallation	B3 Nyhavnadifferential loss correction	single-endedforward channel	channel 1reverse channel	N/Adate	2023/12/03time	04:47:30forward acquisition time	300,00reverse acquisition time	0,00gamma	499,1914k internal	0,3201k external	0,3201temperature offset calibration	1,0000default loss term (dB/km)	0,3820temperature slope calibration	1,0000multiplexer offset coefficient	1,0000multiplexer slope coefficient	1,0000fibre end	0,00T internal ref (°C)	13,30T ext. ref 1 (°C)	-1,81T ext. ref 2 (°C)	-1,83length (m)	temperature (°C)	Stokes	anti-Stokes-744,400	605,494	-0,157	-0,286
-743,385	-200,000	-0,031	0,244
-742,371	-91,040	-0,135	-0,028
-741,356	-200,000	0,043	0,321
-740,342	59,327	-0,274	-0,196
-739,327	-200,000	-0,018	0,247
-738,312	292,182	-0,167	-0,222
-737,298	-200,000	-0,059	0,319
-736,283	125,973	-0,212	-0,195
-735,269	-200,000	-0,044	0,261
-734,254	115,227	-0,204	-0,181
-733,239	-179,179	-0,162	-0,003
-732,225	-200,000	-0,039	-0,174
-731,210	523,263	0,131	0,225
-730,196	374,256	-0,086	-0,128
-729,181	69,286	-0,104	-0,078
-728,167	114,018	-0,152	0,134
-727,152	603,790	-0,042	0,076
-726,137	411,709	-0,107	-0,165
-725,123	-200,000	-0,001	-0,060
-724,108	800,000	-0,004	0,011
-723,094	29,840	-0,064	-0,039
-722,079	495,102	-0,023	-0,039
-721,064	461,694	-0,087	-0,142
-720,050	-200,000	0,008	-0,062
-719,035	169,443	-0,091	0,095
-718,021	-200,000	-0,032	-0,110
-717,006	268,223	-0,069	-0,088
-715,991	-67,944	-0,227	-0,064
-714,977	584,844	-0,086	-0,154
-713,962	-162,400	-0,067	0,002
-712,948	800,000	0,046	-0,126
-711,933	800,000	0,052	-0,130
-710,918	50,017	0,124	-0,085
-709,904	776,035	-0,042	-0,083
-708,889	-110,353	-0,051	0,008
-707,875	-58,042	0,091	-0,029
-706,860	355,295	-0,046	-0,066
-705,845	-200,000	-0,008	-0,034
-704,831	-148,314	-0,028	0,002
-703,816	-200,000	0,006	0,059
-702,802	159,654	0,015	0,015
-701,787	34,405	-0,095	-0,060
-700,772	800,000	-0,026	-0,064
-699,758	800,000	0,052	0,164
-698,743	58,841	0,022	0,016
-697,729	569,173	-0,055	0,098
-696,714	-51,890	0,042	-0,014
-695,699	-155,363	-0,042	-0,002
-694,685	320,928	-0,023	-0,031
-693,670	-200,000	-0,048	-0,183
-692,656	-78,024	-0,070	0,017
-691,641	667,158	0,070	-0,132
-690,627	142,887	-0,026	0,025
-689,612	-200,000	0,004	-0,050
-688,597	622,217	0,015	0,027
-687,583	800,000	0,024	-0,056
-686,568	149,289	-0,112	-0,110
-685,554	-123,649	0,050	0,006
-684,539	-153,575	0,011	0,001
-683,524	111,751	0,066	0,058
-682,510	150,305	-0,035	-0,035
-681,495	-131,677	-0,023	0,002
-680,481	-200,000	0,006	0,024
-679,466	73,315	-0,104	-0,079
-678,451	800,000	-0,044	-0,126
-677,437	110,549	0,074	0,064
-676,422	-5,004	0,073	-0,036
-675,408	133,171	-0,074	0,069
-674,393	-134,349	-0,056	-0,005
-673,378	102,672	0,120	-0,102
-672,364	-48,948	-0,161	-0,056
-671,349	800,000	0,032	-0,071
-670,335	137,946	-0,075	0,072
-669,320	800,000	-0,035	0,072
-668,305	-200,000	0,005	0,027
-667,291	-112,515	0,056	-0,008
-666,276	108,016	-0,051	0,044
-665,262	389,993	-0,049	-0,073
-664,247	-95,276	0,045	-0,009
-663,232	73,734	-0,064	0,049
-662,218	-200,000	-0,004	0,014
-661,203	-200,000	-0,013	0,067
-660,189	-28,422	-0,128	-0,053
-659,174	316,132	0,021	0,029
-658,159	121,227	-0,106	-0,096
-657,145	-200,000	-0,009	-0,136
-656,130	64,762	0,023	-0,017
-655,116	-200,000	-0,006	-0,097
-654,101	-45,807	-0,061	-0,022
-653,086	-200,000	-0,018	0,111
-652,072	-200,000	-0,009	-0,059
-651,057	188,596	-0,056	-0,060
-650,043	289,147	0,063	-0,083
-649,028	-200,000	-0,032	-0,159
-648,014	800,000	-0,025	-0,076
-646,999	-200,000	0,020	0,179
-645,984	-60,938	0,070	0,021
-644,970	800,000	-0,062	-0,125
-643,955	-200,000	-0,043	-0,143
-642,941	38,677	-0,194	-0,125
-641,926	-73,183	-0,037	0,010
-640,911	-200,000	-0,034	-0,110
-639,897	-90,628	0,124	0,026
-638,882	86,451	0,106	0,085
-637,868	-75,430	-0,134	0,034
-636,853	21,497	-0,194	-0,114
-635,838	800,000	-0,059	0,127
-634,824	-200,000	0,012	0,096
-633,809	211,664	-0,023	-0,026
-632,795	61,226	-0,030	-0,021
-631,780	-200,000	-0,052	-0,167
-630,765	658,483	-0,075	-0,141
-629,751	76,477	-0,081	-0,062
-628,736	-121,806	-0,050	-0,006
-627,722	142,851	-0,036	0,034
-626,707	-200,000	0,015	-0,049
-625,692	-200,000	0,002	-0,034
-624,678	188,979	-0,048	0,053
-623,663	584,468	-0,075	-0,134
-622,649	-200,000	0,019	-0,102
-621,634	800,000	-0,051	-0,129
-620,619	-13,183	0,056	-0,026
-619,605	647,756	0,019	-0,034
-618,590	-109,105	0,070	0,011
-617,576	-52,135	0,123	0,041
-616,561	-37,122	-0,090	-0,035
-615,546	201,576	-0,025	-0,028
-614,532	-160,710	-0,140	-0,005
-613,517	-200,000	-0,032	-0,151
-612,503	-121,283	-0,048	0,006
-611,488	278,246	0,041	-0,053
-610,474	-173,896	0,061	-0,001
-609,459	800,000	-0,028	0,061
-608,444	506,672	-0,044	0,073
-607,430	-2,153	-0,112	-0,057
-606,415	575,255	-0,022	-0,039
-605,401	-43,727	-0,066	-0,024
-604,386	-95,198	0,088	0,017
-603,371	353,709	0,112	-0,162
-602,357	-200,000	-0,009	-0,075
-601,342	-67,133	0,086	-0,024
-600,328	-200,000	-0,056	-0,243
-599,313	-200,000	0,036	-0,117
-598,298	-200,000	0,001	0,055
-597,284	-27,442	0,027	-0,011
-596,269	-200,000	0,024	0,149
-595,255	-69,595	0,135	0,037
-594,240	304,685	-0,059	-0,079
-593,225	800,000	0,049	-0,120
-592,211	201,787	-0,093	-0,104
-591,196	-176,983	-0,098	0,002
-590,182	-200,000	0,017	-0,056
-589,167	-3,893	0,148	0,074
-588,152	-51,145	-0,055	0,019
-587,138	165,811	-0,081	0,083
-586,123	-200,000	0,014	-0,114
-585,109	800,000	0,089	-0,279
-584,094	485,159	0,030	0,049
-583,079	800,000	-0,008	0,025
-582,065	606,878	0,061	-0,110
-581,050	800,000	-0,042	-0,096
-580,036	-142,869	-0,120	0,008
-579,021	-134,123	-0,052	0,005
-578,006	-68,512	-0,081	0,022
-576,992	126,337	0,064	-0,059
-575,977	-200,000	-0,020	-0,120
-574,963	800,000	-0,036	0,077
-573,948	-100,322	-0,039	-0,007
-572,934	-200,000	0,026	-0,096
-571,919	729,140	-0,024	0,046
-570,904	-200,000	0,003	-0,030
-569,890	800,000	-0,024	0,061
-568,875	360,136	0,097	0,140
-567,861	-200,000	-0,014	0,166
-566,846	10,468	0,097	0,053
-565,831	-131,688	-0,060	0,006
-564,817	147,514	0,034	0,033
-563,802	-82,143	-0,085	0,020
-562,788	-200,000	-0,035	-0,164
-561,773	599,236	0,013	-0,024
-560,758	84,666	0,064	0,051
-559,744	250,914	0,167	0,206
-558,729	596,450	-0,049	0,087
-557,715	405,117	-0,086	-0,131
-556,700	503,771	-0,032	-0,053
-555,685	-200,000	-0,003	-0,052
-554,671	511,342	-0,042	-0,071
-553,656	-200,000	0,017	-0,091
-552,642	-46,345	-0,037	0,013
-551,627	-200,000	0,010	0,070
-550,612	-10,782	-0,072	-0,034
-549,598	261,078	-0,035	-0,044
-548,583	800,000	0,032	-0,089
-547,569	-33,508	0,112	-0,045
-546,554	-200,000	0,016	0,130
-545,539	-200,000	0,003	0,063
-544,525	534,172	-0,047	0,081
-543,510	-200,000	0,016	-0,079
-542,496	111,816	-0,119	-0,104
-541,481	-80,211	0,091	0,022
-540,466	-45,504	0,090	-0,032
-539,452	540,045	0,042	-0,073
-538,437	800,000	0,070	0,159
-537,423	-200,000	-0,022	0,091
-536,408	574,196	-0,068	-0,120
-535,393	373,261	-0,033	-0,049
-534,379	-200,000	-0,034	-0,113
-533,364	-200,000	-0,012	-0,128
-532,350	67,362	0,064	0,047
-531,335	-35,106	0,019	0,008
-530,321	-200,000	-0,006	-0,084
-529,306	29,052	0,074	0,045
-528,291	249,487	-0,124	-0,152
-527,277	-200,000	0,012	0,098
-526,262	-200,000	-0,039	-0,150
-525,248	-1,220	0,151	0,077
-524,233	-39,532	0,013	-0,005
-523,218	-76,422	-0,071	0,018
-522,204	-27,006	0,042	0,018
-521,189	800,000	-0,039	-0,113
-520,175	619,628	0,040	0,073
-519,160	122,173	0,023	0,021
-518,145	711,296	0,057	0,110
-517,131	467,001	0,016	0,026
-516,116	-200,000	0,001	0,018
-515,102	-200,000	0,028	0,120
-514,087	265,865	-0,040	-0,050
-513,072	88,099	0,038	-0,030
-512,058	774,804	-0,040	0,080
-511,043	216,441	-0,067	0,076
-510,029	-123,430	0,058	0,007
-509,014	63,111	0,065	0,047
-507,999	-86,415	0,085	0,019
-506,985	-32,078	-0,138	-0,055
-505,970	179,622	0,048	-0,051
-504,956	193,149	0,027	0,030
-503,941	-99,908	-0,095	0,017
-502,926	-117,995	0,154	-0,020
-501,912	62,606	0,028	-0,020
-500,897	-200,000	0,001	0,012
-499,883	751,268	-0,033	-0,065
-498,868	8,787	0,093	-0,050
-497,853	-148,381	-0,122	-0,007
-496,839	68,044	0,120	0,088
-495,824	-148,043	0,055	-0,003
-494,810	-200,000	-0,030	0,140
-493,795	800,000	0,034	0,076
-492,781	-116,240	0,016	0,002
-491,766	715,376	0,051	-0,098
-490,751	800,000	0,012	-0,028
-489,737	-24,819	0,042	-0,018
-488,722	41,241	0,027	-0,018
-487,708	-200,000	0,000	0,148
-486,693	-200,000	-0,008	-0,069
-485,678	163,866	0,091	-0,093
-484,664	-113,116	-0,105	0,015
-483,649	-200,000	-0,005	-0,125
-482,635	107,345	0,065	0,056
-481,620	-185,212	-0,008	0,000
-480,605	115,831	0,055	-0,048
-479,591	-111,322	0,078	0,011
-478,576	678,633	0,038	0,072
-477,562	800,000	-0,013	-0,041
-476,547	800,000	0,073	-0,190
-475,532	800,000	0,057	0,121
-474,518	-200,000	-0,010	0,065
-473,503	-200,000	-0,031	0,107
-472,489	55,597	0,015	-0,010
-471,474	352,522	-0,053	-0,076
-470,459	28,772	-0,066	-0,040
-469,445	-4,271	-0,060	0,030
-468,430	525,646	-0,065	-0,111
-467,416	-200,000	-0,006	-0,026
-466,401	32,774	-0,092	-0,057
-465,386	-142,578	-0,038	0,003
-464,372	352,366	0,054	0,078
-463,357	-200,000	-0,031	-0,102
-462,343	-200,000	-0,007	-0,067
-461,328	800,000	0,019	0,051
-460,313	-97,469	0,114	-0,021
-459,299	800,000	0,026	0,081
-458,284	442,064	-0,042	0,066
-457,270	88,037	-0,047	-0,038
-456,255	-86,432	0,044	-0,010
-455,241	800,000	-0,075	-0,174
-454,226	-200,000	-0,053	-0,179
-453,211	-168,455	0,119	-0,003
-452,197	319,344	0,042	-0,058
-451,182	-109,010	0,133	0,020
-450,168	-57,234	0,132	0,041
-449,153	800,000	0,019	0,046
-448,138	-121,751	-0,137	0,016
-447,124	230,175	-0,051	-0,060
-446,109	214,015	-0,077	0,088
-445,095	-200,000	-0,001	0,173
-444,080	83,544	-0,039	-0,031
-443,065	349,601	0,022	-0,031
-442,051	13,757	0,091	-0,051
-441,036	-105,722	0,040	-0,006
-440,022	164,373	-0,070	-0,071
-439,007	-200,000	-0,001	-0,081
-437,992	-150,602	0,074	-0,004
-436,978	371,695	-0,047	0,069
-435,963	-200,000	0,011	0,103
-434,949	800,000	-0,022	0,057
-433,934	-36,111	0,100	-0,039
-432,919	36,267	-0,050	-0,031
-431,905	-50,221	-0,022	-0,008
-430,890	-124,982	0,105	0,011
-429,876	-62,597	0,049	0,014
-428,861	93,614	-0,033	0,026
-427,846	-200,000	-0,016	-0,107
-426,832	-76,346	-0,137	0,034
-425,817	-91,474	-0,091	0,019
-424,803	-30,362	0,111	0,045
-423,788	-1,786	0,069	0,035
-422,773	261,519	0,065	0,082
-421,759	-200,000	0,041	0,229
-420,744	221,225	0,099	0,115
-419,730	32,489	-0,118	-0,073
-418,715	-200,000	0,013	-0,086
-417,701	800,000	0,060	0,128
-416,686	-176,539	0,067	0,001
-415,671	96,236	-0,007	-0,005
-414,657	-16,817	0,083	0,037
-413,642	117,457	0,095	0,084
-412,628	800,000	-0,051	0,118
-411,613	-200,000	-0,013	-0,135
-410,598	-200,000	-0,011	-0,058
-409,584	-200,000	0,007	0,047
-408,569	-115,331	0,107	0,014
-407,555	188,756	-0,034	-0,037
-406,540	-110,489	0,035	-0,005
-405,525	-200,000	-0,016	0,060
-404,511	-39,557	-0,065	0,024
-403,496	489,859	0,042	-0,069
-402,482	45,943	-0,111	0,074
-401,467	-48,746	-0,116	-0,040
-400,452	-148,750	0,058	-0,003
-399,438	-200,000	0,002	-0,038
-398,423	168,687	-0,035	0,036
-397,409	-63,392	-0,112	-0,033
-396,394	-78,138	0,047	0,011
-395,379	-200,000	-0,013	0,089
-394,365	-200,000	-0,004	0,087
-393,350	-9,195	0,017	0,008
-392,336	-20,072	0,157	0,069
-391,321	-21,722	0,083	-0,036
-390,306	-200,000	-0,010	0,063
-389,292	535,582	-0,062	-0,107
-388,277	694,223	-0,031	-0,058
-387,263	-44,981	0,035	0,012
-386,248	717,557	-0,018	0,035
-385,233	-70,606	-0,039	-0,010
-384,219	57,885	0,070	-0,049
-383,204	393,798	0,080	-0,120
-382,190	-49,177	-0,062	0,021
-381,175	121,963	0,105	-0,094
-380,160	166,558	-0,048	0,049
-379,146	284,068	0,005	-0,007
-378,131	112,818	0,057	0,049
-377,117	257,356	0,032	-0,040
-376,102	199,802	-0,054	0,059
-375,088	800,000	-0,044	-0,089
-374,073	-200,000	-0,001	0,022
-373,058	-18,522	0,042	-0,019
-372,044	-34,860	-0,043	-0,017
-371,029	-54,700	-0,221	-0,071
-370,015	-200,000	-0,013	0,053
-369,000	548,060	-0,037	-0,064
-367,985	-200,000	-0,030	-0,139
-366,971	-122,866	0,153	0,018
-365,956	-200,000	0,002	-0,088
-364,942	68,472	0,150	0,110
-363,927	-200,000	-0,007	0,057
-362,912	237,379	0,063	0,075
-361,898	-137,380	-0,003	0,000
-360,883	-172,740	-0,103	-0,002
-359,869	-92,303	-0,063	-0,013
-358,854	28,447	0,072	0,044
-357,839	-109,878	0,073	0,011
-356,825	-163,066	-0,095	-0,003
-355,810	-200,000	0,001	0,035
-354,796	243,390	-0,056	-0,067
-353,781	626,184	-0,111	-0,202
-352,766	49,137	0,046	0,031
-351,752	-200,000	0,014	0,139
-350,737	85,244	-0,074	0,058
-349,723	352,102	0,037	0,053
-348,708	-87,846	-0,100	0,021
-347,693	800,000	-0,027	0,056
-346,679	134,759	0,046	0,043
-345,664	-200,000	-0,002	0,010
-344,650	154,217	0,091	0,089
-343,635	-46,722	0,024	0,008
-342,620	176,389	0,080	0,084
-341,606	366,471	0,035	0,050
-340,591	775,926	-0,044	-0,087
-339,577	-143,502	-0,119	-0,008
-338,562	-153,264	0,020	0,001
-337,548	112,292	-0,126	0,109
-336,533	105,470	-0,094	0,080
-335,518	24,592	-0,062	0,036
-334,504	105,452	-0,061	0,052
-333,489	307,921	-0,087	0,116
-332,475	385,625	-0,064	0,095
-331,460	290,878	-0,061	-0,080
-330,445	-121,215	-0,086	0,010
-329,431	-200,000	0,028	0,134
-328,416	-200,000	0,018	0,156
-327,402	-200,000	-0,014	0,173
-326,387	-59,377	0,101	0,031
-325,372	-167,103	0,037	-0,001
-324,358	-200,000	-0,006	-0,093
-323,343	-30,848	-0,076	0,031
-322,329	632,031	0,084	0,153
-321,314	180,380	0,027	0,028
-320,299	-6,255	0,135	-0,066
-319,285	558,918	0,106	-0,184
-318,270	-26,309	0,031	-0,013
-317,256	-84,605	0,124	-0,028
-316,241	-55,836	0,082	0,026
-315,226	324,270	-0,094	0,129
-314,212	23,463	0,115	0,068
-313,197	-119,642	-0,054	-0,007
-312,183	-123,449	0,119	-0,013
-311,168	558,364	0,020	0,034
-310,153	162,082	-0,042	-0,042
-309,139	-144,540	-0,136	0,009
-308,124	141,207	-0,034	0,032
-307,110	90,575	-0,006	-0,005
-306,095	589,710	0,071	0,125
-305,080	305,098	0,049	0,066
-304,066	800,000	0,052	-0,129
-303,051	91,438	-0,047	0,038
-302,037	800,000	-0,029	0,078
-301,022	-200,000	0,002	0,142
-300,008	144,229	0,007	0,007
-298,993	800,000	0,064	0,164
-297,978	112,671	-0,063	0,055
-296,964	800,000	-0,022	-0,047
-295,949	-200,000	0,009	-0,097
-294,935	216,951	-0,011	0,013
-293,920	-98,430	0,056	0,010
-292,905	-200,000	0,000	-0,008
-291,891	-21,516	0,034	0,015
-290,876	37,956	-0,055	-0,035
-289,862	-66,787	-0,036	-0,010
-288,847	20,022	-0,113	-0,065
-287,832	800,000	0,056	-0,137
-286,818	-148,874	-0,171	-0,010
-285,803	-70,434	0,195	0,052
-284,789	105,152	0,046	0,038
-283,774	800,000	0,102	0,216
-282,759	-4,259	-0,021	-0,011
-281,745	433,398	-0,092	-0,143
-280,730	130,633	-0,057	-0,053
-279,716	800,000	-0,042	-0,102
-278,701	165,765	0,121	0,122
-277,686	-200,000	0,023	0,104
-276,672	800,000	-0,038	0,101
-275,657	111,116	-0,074	-0,064
-274,643	157,443	0,033	0,033
-273,628	-146,698	-0,103	0,006
-272,613	-37,740	0,041	-0,015
-271,599	241,721	0,009	0,010
-270,584	3,140	0,049	0,025
-269,570	-200,000	-0,020	0,094
-268,555	-75,739	-0,032	-0,008
-267,540	-200,000	-0,003	-0,103
-266,526	800,000	0,065	-0,151
-265,511	473,598	0,042	0,068
-264,497	800,000	-0,023	-0,051
-263,482	-129,816	-0,081	-0,008
-262,467	-15,045	0,061	0,028
-261,453	-200,000	0,045	0,155
-260,438	-200,000	-0,010	-0,137
-259,424	79,145	-0,108	0,082
-258,409	179,561	-0,055	-0,057
-257,395	-67,769	0,105	0,029
-256,380	383,055	0,022	-0,032
-255,365	27,726	0,118	0,071
-254,351	-133,430	0,023	-0,002
-253,336	20,779	-0,062	0,036
-252,322	362,604	0,040	0,058
-251,307	204,761	0,072	-0,080
-250,292	389,266	0,044	0,066
-249,278	-120,321	0,213	0,026
-248,263	309,601	-0,032	0,043
-247,249	800,000	-0,014	-0,038
-246,234	358,602	0,080	-0,114
-245,219	-5,314	-0,070	-0,034
-244,205	23,357	-0,106	-0,062
-243,190	-105,270	-0,083	0,013
-242,176	24,803	0,101	0,060
-241,161	-200,000	-0,031	0,256
-240,146	147,262	-0,050	0,048
-239,132	339,544	-0,066	0,093
-238,117	452,360	-0,016	0,025
-237,103	566,304	0,080	-0,139
-236,088	-119,347	0,118	0,014
-235,073	-200,000	-0,018	-0,070
-234,059	136,770	-0,081	-0,076
-233,044	-72,912	0,109	0,028
-232,030	-101,568	-0,147	-0,025
-231,015	-122,787	-0,147	0,017
-230,000	211,623	0,071	0,080
-228,986	-132,930	0,015	0,001
-227,971	-46,611	0,186	0,064
-226,957	-72,566	-0,191	-0,050
-225,942	800,000	-0,015	-0,030
-224,927	67,795	0,146	0,107
-223,913	-127,854	0,036	-0,004
-222,898	244,758	-0,065	-0,078
-221,884	-180,229	-0,083	0,001
-220,869	-200,000	-0,021	0,081
-219,855	303,393	-0,080	0,105
-218,840	611,532	0,069	-0,124
-217,825	415,470	-0,030	-0,045
-216,811	-200,000	-0,039	0,136
-215,796	-200,000	-0,003	0,038
-214,782	800,000	-0,048	-0,136
-213,767	-200,000	-0,009	-0,122
-212,752	89,777	-0,016	-0,013
-211,738	143,077	0,038	0,036
-210,723	800,000	-0,035	-0,109
-209,709	142,259	-0,077	-0,073
-208,694	-129,381	-0,086	0,008
-207,679	321,024	0,019	0,025
-206,665	-142,698	-0,077	0,005
-205,650	-95,963	-0,051	-0,010
-204,636	-61,944	0,083	0,024
-203,621	800,000	-0,039	0,089
-202,606	367,777	-0,012	0,017
-201,592	-92,554	-0,065	0,013
-200,577	-200,000	0,013	0,050
-199,563	-200,000	0,012	-0,091
-198,548	-200,000	-0,001	0,119
-197,533	800,000	0,033	0,076
-196,519	499,032	0,021	-0,034
-195,504	-10,522	-0,068	0,032
-194,490	800,000	-0,035	0,091
-193,475	229,236	-0,094	-0,109
-192,460	66,103	-0,162	-0,117
-191,446	-200,000	-0,016	0,144
-190,431	315,392	0,074	0,100
-189,417	136,044	0,106	-0,098
-188,402	800,000	0,022	0,049
-187,387	-48,756	-0,102	0,035
-186,373	44,578	0,026	-0,017
-185,358	-72,891	0,065	-0,017
-184,344	800,000	-0,044	0,111
-183,329	22,482	0,154	-0,089
-182,315	618,162	-0,042	-0,075
-181,300	55,206	0,102	0,070
-180,285	800,000	0,040	-0,117
-179,271	70,758	0,066	0,049
-178,256	-200,000	-0,001	0,020
-177,242	138,317	0,033	0,031
-176,227	-200,000	-0,017	0,058
-175,212	57,594	-0,004	-0,003
-174,198	-200,000	-0,008	-0,034
-173,183	-65,683	-0,081	-0,023
-172,169	223,938	-0,055	-0,063
-171,154	800,000	0,024	-0,069
-170,139	-200,000	-0,025	-0,111
-169,125	31,119	0,107	0,065
-168,110	-47,073	0,144	0,050
-167,096	26,011	-0,057	-0,034
-166,081	-200,000	-0,010	-0,045
-165,066	-200,000	0,013	0,074
-164,052	480,564	-0,039	0,063
-163,037	800,000	0,034	-0,068
-162,023	402,477	-0,066	-0,099
-161,008	-74,689	0,034	-0,009
-159,993	162,559	-0,042	0,042
-158,979	173,453	-0,067	-0,068
-157,964	104,506	0,042	0,036
-156,950	115,255	-0,069	-0,059
-155,935	653,799	0,084	0,153
-154,920	105,215	0,143	0,120
-153,906	-200,000	0,006	0,071
-152,891	800,000	-0,042	0,118
-151,877	-126,176	0,017	0,002
-150,862	296,317	0,042	-0,055
-149,847	283,163	-0,108	-0,138
-148,833	-200,000	-0,007	-0,121
-147,818	800,000	-0,058	0,160
-146,804	429,830	0,073	-0,112
-145,789	218,705	0,021	0,024
-144,775	-200,000	0,009	0,083
-143,760	800,000	0,010	-0,030
-142,745	-200,000	0,005	-0,082
-141,731	48,835	-0,105	0,070
-140,716	800,000	-0,019	-0,044
-139,702	135,935	0,075	-0,069
-138,687	58,529	-0,048	-0,033
-137,672	800,000	0,008	0,019
-136,658	-200,000	-0,000	-0,008
-135,643	-73,296	0,078	0,020
-134,629	15,948	0,147	0,082
-133,614	9,657	0,038	-0,020
-132,599	800,000	-0,074	0,155
-131,585	-200,000	-0,015	0,056
-130,570	-200,000	0,012	-0,161
-129,556	231,333	0,034	-0,040
-128,541	800,000	-0,041	-0,118
-127,526	-65,552	0,036	-0,010
-126,512	-104,559	-0,060	-0,010
-125,497	-78,507	0,143	-0,035
-124,483	-132,597	-0,119	0,011
-123,468	800,000	-0,021	0,048
-122,453	86,503	-0,093	-0,072
-121,439	-140,881	-0,040	-0,003
-120,424	-131,697	-0,165	-0,015
-119,410	800,000	-0,053	-0,136
-118,395	36,794	-0,025	-0,016
-117,380	416,473	-0,077	0,117
-116,366	281,080	0,053	-0,068
-115,351	-129,769	-0,137	0,013
-114,337	386,860	0,043	0,063
-113,322	-43,983	0,118	0,042
-112,307	377,555	-0,050	0,073
-111,293	-168,783	-0,124	0,003
-110,278	-87,371	0,069	0,015
-109,264	210,706	0,126	-0,140
-108,249	-93,616	0,077	-0,015
-107,234	115,779	-0,058	-0,050
-106,220	550,530	-0,023	0,040
-105,205	-24,947	-0,044	0,018
-104,191	214,018	-0,078	0,088
-103,176	210,399	0,113	0,126
-102,162	9,318	-0,063	0,034
-101,147	-200,000	-0,016	-0,136
-100,132	-79,490	-0,121	-0,029
-99,118	80,237	-0,049	0,038
-98,103	-200,000	0,016	0,086
-97,089	-200,000	0,010	-0,049
-96,074	681,340	0,060	0,111
-95,059	-200,000	0,071	0,228
-94,045	226,587	-0,030	-0,034
-93,030	800,000	-0,027	0,072
-92,016	-200,000	-0,009	-0,033
-91,001	-200,000	0,036	0,159
-89,986	-14,377	0,060	0,027
-88,972	-200,000	-0,019	0,113
-87,957	286,291	-0,019	0,024
-86,943	-200,000	-0,016	0,083
-85,928	124,313	0,031	0,028
-84,913	-50,393	-0,038	0,013
-83,899	449,303	0,055	-0,086
-82,884	800,000	0,039	0,099
-81,870	167,276	0,082	0,083
-80,855	-18,970	-0,056	0,025
-79,840	754,331	-0,015	0,030
-78,826	367,903	0,095	-0,136
-77,811	69,709	-0,056	0,041
-76,797	-196,704	-0,069	-0,000
-75,782	-200,000	0,002	-0,017
-74,767	-200,000	0,017	-0,166
-73,753	460,501	0,024	0,037
-72,738	96,116	-0,071	0,058
-71,724	53,429	-0,084	-0,057
-70,709	800,000	-0,091	-0,230
-69,694	800,000	0,040	-0,092
-68,680	153,016	-0,010	-0,010
-67,665	-131,844	0,162	-0,015
-66,651	-64,375	0,089	0,026
-65,636	16,772	-0,069	-0,038
-64,622	-124,658	-0,062	-0,007
-63,607	62,505	-0,057	-0,040
-62,592	197,041	-0,106	-0,115
-61,578	800,000	-0,015	0,036
-60,563	10,122	0,069	0,037
-59,549	-200,000	-0,042	0,197
-58,534	-21,794	-1,574	-0,676
-57,519	320,117	-1,480	-1,995
-56,505	-200,000	-0,543	-4,576
-55,490	189,686	0,919	0,977
-54,476	800,000	4,932	11,426
-53,461	-200,000	19,250	321,014
-52,446	-200,000	740,697	2335,924
-51,432	573,530	1655,728	2870,048
-50,417	78,304	1671,560	1262,424
-49,403	21,329	1544,216	885,985
-48,388	15,160	1466,826	811,570
-47,373	18,040	1456,933	819,990
-46,359	16,706	1446,951	807,938
-45,344	13,453	1441,943	789,527
-44,330	13,351	1440,365	788,139
-43,315	13,337	1438,522	787,034
-42,300	13,359	1436,935	786,242
-41,286	13,391	1435,735	785,705
-40,271	13,366	1434,180	784,701
-39,257	13,321	1432,858	783,735
-38,242	13,378	1431,682	783,330
-37,227	13,363	1430,515	782,589
-36,213	13,396	1429,090	781,938
-35,198	13,378	1428,079	781,264
-34,184	13,431	1427,072	780,935
-33,169	13,357	1425,756	779,834
-32,154	13,432	1424,467	779,452
-31,140	13,441	1423,373	778,865
-30,125	13,416	1422,312	778,138
-29,111	13,426	1421,180	777,533
-28,096	13,416	1419,860	776,734
-27,082	13,329	1418,869	775,750
-26,067	13,274	1417,887	774,925
-25,052	13,302	1416,736	774,396
-24,038	13,344	1415,751	774,025
-23,023	13,275	1414,925	773,218
-22,009	13,308	1413,793	772,724
-20,994	13,299	1412,774	772,095
-19,979	13,336	1412,046	771,840
-18,965	13,264	1411,173	770,991
-17,950	13,303	1410,132	770,577
-16,936	13,274	1409,127	769,862
-15,921	13,269	1408,084	769,235
-14,906	13,252	1407,280	768,688
-13,892	13,238	1406,340	768,078
-12,877	13,245	1405,422	767,578
-11,863	13,282	1404,526	767,234
-10,848	13,268	1403,521	766,588
-9,833	13,196	1402,701	765,774
-8,819	13,168	1401,869	765,158
-7,804	13,151	1401,008	764,581
-6,790	13,149	1399,959	763,965
-5,775	13,163	1398,748	763,340
-4,760	13,148	1397,799	762,721
-3,746	13,146	1397,108	762,308
-2,731	13,066	1396,220	761,422
-1,717	13,081	1395,381	761,001
-0,702	13,115	1393,573	760,141
0,313	16,925	1310,422	732,452
1,327	33,112	704,222	431,065
2,342	51,083	123,379	82,655
3,356	2,123	16,598	8,455
4,371	8,690	3,193	1,697
5,386	-24,260	0,449	0,189
6,400	800,000	-0,078	0,193
7,415	19,274	-0,168	-0,095
8,429	109,423	-0,322	-0,273
9,444	9,871	-0,364	-0,195
10,459	123,498	-0,268	-0,238
11,473	290,719	-0,236	-0,304
12,488	-81,162	-0,372	-0,086
13,502	65,581	-0,313	-0,224
14,517	166,952	-0,294	-0,295
15,531	143,274	-0,335	-0,316
16,546	15,677	-0,377	-0,209
17,561	236,062	-0,383	-0,448
18,575	35,714	-0,278	-0,172
19,590	81,248	-0,236	-0,180
20,604	26,045	-0,261	-0,154
21,619	117,282	-0,436	-0,379
22,634	-9,069	-0,436	-0,205
23,648	73,229	-0,338	-0,250
24,663	-5,532	-0,514	-0,248
25,677	92,593	-0,326	-0,260
26,692	41,392	-0,359	-0,229
27,707	146,747	-0,248	-0,235
28,721	173,236	-0,340	-0,346
29,736	28,394	-0,491	-0,292
30,750	164,993	-0,312	-0,311
31,765	65,941	-0,439	-0,314
32,780	4,880	-0,379	-0,196
33,794	199,459	-0,338	-0,366
34,809	171,258	-0,311	-0,316
35,823	-6,969	-0,443	-0,212
36,838	58,488	-0,364	-0,252
37,853	91,493	-0,377	-0,299
38,867	18,224	-0,330	-0,185
39,882	14,099	-0,372	-0,204
40,896	192,412	-0,254	-0,271
41,911	68,248	-0,287	-0,207
42,926	56,288	-0,384	-0,263
43,940	41,410	-0,392	-0,249
44,955	24,783	-0,399	-0,233
45,969	88,412	-0,264	-0,207
46,984	-64,411	-0,367	-0,105
47,999	129,785	-0,269	-0,242
49,013	14,702	-0,362	-0,199
50,028	50,534	-0,365	-0,243
51,042	336,178	-0,257	-0,353
52,057	52,812	-0,456	-0,306
53,071	-45,243	-0,329	-0,114
54,086	34,101	-0,344	-0,211
55,101	224,967	-0,223	-0,255
56,115	197,052	-0,232	-0,249
57,130	-24,829	-0,496	-0,206
58,144	-15,485	-0,346	-0,155
59,159	39,396	-0,472	-0,297
60,174	89,086	-0,572	-0,448
61,188	41,025	-0,367	-0,233
62,203	191,305	-0,315	-0,334
63,217	-35,882	-0,359	-0,136
64,232	95,647	-0,344	-0,276
65,247	34,674	-0,352	-0,216
66,261	-53,235	-0,582	-0,187
67,276	74,824	-0,357	-0,264
68,290	79,812	-0,415	-0,313
69,305	85,752	-0,257	-0,199
70,320	77,979	-0,264	-0,198
71,334	119,393	-0,219	-0,190
72,349	56,801	-0,403	-0,276
73,363	72,452	-0,309	-0,227
74,378	-0,965	-0,338	-0,168
75,393	624,084	-0,170	-0,302
76,407	18,902	-0,285	-0,160
77,422	94,372	-0,229	-0,182
78,436	-117,236	-0,290	-0,037
79,451	-23,004	-0,271	-0,114
80,466	37,710	-0,471	-0,293
81,480	210,859	-0,271	-0,300
82,495	2,838	-0,332	-0,169
83,509	258,654	-0,208	-0,252
84,524	1,018	-0,177	-0,089
85,539	2,064	-0,271	-0,137
86,553	140,372	-0,212	-0,197
87,568	-39,214	-0,325	-0,119
88,582	56,604	-0,323	-0,221
89,597	141,074	-0,355	-0,330
90,611	152,496	-0,314	-0,301
91,626	-200,000	-0,063	-0,295
92,641	-46,896	-0,233	-0,080
93,655	33,061	-0,280	-0,170
94,670	-49,962	-0,330	-0,109
95,684	202,600	-0,253	-0,274
96,699	10,605	-0,304	-0,162
97,714	63,384	-0,192	-0,135
98,728	224,020	-0,159	-0,180
99,743	-25,668	-0,335	-0,138
100,757	-25,073	-0,392	-0,162
101,772	31,167	-0,284	-0,170
102,787	20,051	-0,317	-0,179
103,801	29,837	-0,306	-0,182
104,816	121,617	-0,250	-0,218
105,830	-43,441	-0,310	-0,109
106,845	28,316	-0,239	-0,141
107,860	81,167	-0,204	-0,154
108,874	23,571	-0,263	-0,151
109,889	418,748	-0,180	-0,271
110,903	214,675	-0,175	-0,195
111,918	-64,622	-0,198	-0,056
112,933	-3,521	-0,250	-0,121
113,947	142,347	-0,176	-0,164
114,962	-157,250	-0,243	-0,010
115,976	209,017	-0,210	-0,231
116,991	75,239	-0,222	-0,164
118,006	-20,827	-0,285	-0,122
119,020	86,911	-0,320	-0,247
120,035	-76,778	-0,289	-0,070
121,049	156,812	-0,264	-0,256
122,064	-35,237	-0,323	-0,123
123,079	67,805	-0,302	-0,216
124,093	205,695	-0,251	-0,273
125,108	-43,755	-0,354	-0,124
126,122	21,973	-0,368	-0,209
127,137	36,985	-0,112	-0,069
128,151	69,985	-0,333	-0,240
129,166	-34,502	-0,230	-0,088
130,181	168,685	-0,262	-0,262
131,195	414,932	-0,202	-0,302
132,210	112,710	-0,318	-0,270
133,224	10,668	-0,356	-0,189
134,239	800,000	-0,094	-0,218
135,254	800,000	-0,095	-0,186
136,268	235,263	-0,168	-0,194
137,283	194,414	-0,194	-0,206
138,297	-147,554	-0,265	0,015
139,312	122,413	-0,263	-0,230
140,327	800,000	-0,126	-0,253
141,341	-24,081	-0,314	-0,131
142,356	792,101	-0,176	-0,341
143,370	418,208	-0,170	-0,255
144,385	-4,487	-0,276	-0,133
145,400	-30,205	-0,282	-0,111
146,414	302,670	-0,270	-0,350
147,429	151,827	-0,324	-0,308
148,443	71,138	-0,230	-0,166
149,458	114,041	-0,207	-0,176
150,473	-156,187	-0,260	0,011
151,487	23,064	-0,290	-0,166
152,502	138,149	-0,196	-0,180
153,516	151,696	-0,143	-0,136
154,531	-36,424	-0,297	-0,111
155,546	48,848	-0,259	-0,170
156,560	255,423	-0,188	-0,225
157,575	337,032	-0,138	-0,188
158,589	-38,589	-0,336	-0,123
159,604	140,735	-0,317	-0,292
160,619	145,269	-0,257	-0,240
161,633	652,322	-0,223	-0,400
162,648	-27,620	-0,240	-0,097
163,662	95,668	-0,237	-0,189
164,677	9,715	-0,263	-0,139
165,692	250,185	-0,181	-0,215
166,706	26,255	-0,309	-0,179
167,721	421,326	-0,201	-0,301
168,735	50,196	-0,238	-0,157
169,750	285,978	-0,135	-0,171
170,764	236,410	-0,167	-0,193
171,779	-80,061	-0,162	-0,038
172,794	84,686	-0,174	-0,132
173,808	42,532	-0,296	-0,188
174,823	75,254	-0,316	-0,232
175,837	800,000	-0,098	-0,201
176,852	-32,999	-0,373	-0,144
177,867	-25,214	-0,295	-0,121
178,881	158,872	-0,194	-0,188
179,896	-75,375	-0,230	-0,057
180,910	-81,706	-0,207	-0,047
181,925	137,593	-0,318	-0,290
182,940	109,913	-0,361	-0,302
183,954	80,190	-0,234	-0,175
184,969	800,000	-0,111	-0,228
185,983	198,538	-0,208	-0,222
186,998	-1,598	-0,322	-0,157
188,013	800,000	-0,125	-0,272
189,027	72,006	-0,232	-0,168
190,042	167,976	-0,221	-0,219
191,056	63,031	-0,294	-0,205
192,071	-5,249	-0,249	-0,119
193,086	124,083	-0,216	-0,189
194,100	194,770	-0,139	-0,147
195,115	443,564	-0,105	-0,160
196,129	-173,094	-0,249	0,005
197,144	228,373	-0,258	-0,293
198,159	220,209	-0,235	-0,263
199,173	-79,263	-0,144	0,034
200,188	-36,411	-0,200	-0,074
201,202	24,118	-0,207	-0,118
202,217	-39,966	-0,362	-0,131
203,232	-67,572	-0,223	-0,060
204,246	755,127	-0,153	-0,288
205,261	-83,022	-0,331	-0,074
206,275	85,167	-0,205	-0,156
207,290	200,932	-0,152	-0,163
208,304	-117,709	-0,072	-0,009
209,319	-200,000	-0,043	-0,169
210,334	92,368	-0,153	-0,120
211,348	79,785	-0,379	-0,282
212,363	483,240	-0,147	-0,234
213,377	-97,116	-0,309	0,056
214,392	300,367	-0,228	-0,293
215,407	800,000	-0,085	-0,222
216,421	168,961	-0,172	-0,170
217,436	70,955	-0,206	-0,148
218,450	147,856	-0,250	-0,234
219,465	800,000	-0,107	-0,243
220,480	294,812	-0,136	-0,173
221,494	160,998	-0,085	-0,083
222,509	109,594	-0,166	-0,138
223,523	-17,612	-0,289	-0,126
224,538	120,636	-0,161	-0,139
225,553	214,611	-0,245	-0,270
226,567	-7,742	-0,280	-0,131
227,582	-86,939	-0,216	-0,045
228,596	-152,699	-0,118	0,006
229,611	261,937	-0,154	-0,185
230,626	82,999	-0,220	-0,166
231,640	191,956	-0,137	-0,143
232,655	62,372	-0,201	-0,139
233,669	-0,425	-0,328	-0,161
234,684	-6,644	-0,163	-0,077
235,699	-149,805	-0,198	0,011
236,713	-35,412	-0,168	-0,063
237,728	144,641	-0,110	-0,102
238,742	731,870	-0,062	-0,116
239,757	276,548	-0,146	-0,180
240,772	347,956	-0,174	-0,239
241,786	503,325	-0,209	-0,337
242,801	-12,640	-0,183	-0,083
243,815	555,232	-0,061	-0,101
244,830	72,545	-0,097	-0,070
245,844	199,317	-0,191	-0,203
246,859	45,736	-0,250	-0,160
247,874	28,405	-0,105	-0,062
248,888	474,134	-0,141	-0,220
249,903	-200,000	-0,182	0,000
250,917	-78,861	-0,215	-0,050
251,932	-200,000	-0,083	-0,292
252,947	-61,661	-0,221	0,064
253,961	404,805	-0,141	-0,207
254,976	252,948	-0,225	-0,267
255,990	753,785	-0,156	-0,293
257,005	-200,000	-0,050	-0,233
258,020	263,979	-0,121	-0,145
259,034	36,939	-0,201	-0,123
260,049	59,174	-0,102	-0,070
261,063	216,843	-0,183	-0,202
262,078	90,478	-0,187	-0,145
263,093	281,510	-0,180	-0,224
264,107	-25,806	-0,144	-0,058
265,122	215,586	-0,144	-0,158
266,136	-161,606	-0,242	-0,008
267,151	57,970	-0,215	-0,146
268,166	250,354	-0,136	-0,159
269,180	-55,828	-0,288	-0,088
270,195	-5,931	-0,400	-0,188
271,209	568,923	-0,095	-0,161
272,224	800,000	-0,121	-0,280
273,239	131,080	-0,161	-0,143
274,253	114,941	-0,201	-0,169
275,268	89,374	-0,109	-0,084
276,282	45,613	-0,232	-0,148
277,297	53,305	-0,191	-0,127
278,312	-0,783	-0,141	-0,069
279,326	-88,134	-0,192	-0,039
280,341	10,666	-0,194	-0,102
281,355	-28,676	-0,137	-0,054
282,370	-98,136	-0,148	0,026
283,384	-45,008	-0,182	-0,062
284,399	-34,128	-0,259	-0,098
285,414	-61,723	-0,184	-0,053
286,428	-27,135	-0,159	-0,064
287,443	9,331	-0,097	-0,051
288,457	-22,960	-0,148	-0,061
289,472	800,000	-0,076	-0,212
290,487	76,526	-0,164	-0,120
291,501	82,862	-0,293	-0,219
292,516	232,211	-0,193	-0,218
293,530	-45,089	-0,180	-0,062
294,545	319,909	-0,030	-0,039
295,560	-116,719	-0,102	-0,013
296,574	243,049	-0,156	-0,181
297,589	387,247	-0,161	-0,231
298,603	44,036	-0,230	-0,145
299,618	-56,886	-0,243	-0,074
300,633	500,188	-0,133	-0,212
301,647	45,954	-0,161	-0,103
302,662	224,953	-0,115	-0,129
303,676	127,077	-0,143	-0,125
304,691	704,148	-0,063	-0,116
305,706	-44,636	-0,192	-0,066
306,720	58,354	-0,201	-0,136
307,735	-90,416	-0,256	-0,051
308,749	-87,008	-0,132	-0,027
309,764	-200,000	-0,019	-0,109
310,779	800,000	-0,089	-0,197
311,793	100,153	-0,131	-0,104
312,808	30,385	-0,184	-0,108
313,822	-125,234	-0,168	-0,017
314,837	-107,774	-0,177	-0,026
315,852	248,508	-0,108	-0,126
316,866	139,606	-0,171	-0,155
317,881	-115,054	-0,165	-0,021
318,895	-110,711	-0,133	0,019
319,910	496,005	-0,106	-0,169
320,925	455,568	-0,128	-0,195
321,939	800,000	-0,100	-0,199
322,954	90,977	-0,122	-0,094
323,968	173,719	-0,087	-0,086
324,983	309,816	-0,103	-0,132
325,997	336,355	-0,098	-0,132
327,012	162,716	-0,205	-0,198
328,027	440,722	-0,110	-0,166
329,041	634,376	-0,080	-0,140
330,056	-49,187	-0,199	-0,065
331,070	-200,000	-0,009	-0,093
332,085	-200,000	-0,036	-0,191
333,100	800,000	-0,123	-0,256
334,114	49,846	-0,221	-0,143
335,129	-160,794	-0,205	-0,007
336,143	189,263	-0,124	-0,128
337,158	227,127	-0,133	-0,149
338,173	249,234	-0,169	-0,198
339,187	194,460	-0,110	-0,115
340,202	126,379	-0,073	-0,063
341,216	421,164	-0,087	-0,128
342,231	0,024	-0,122	-0,059
343,246	-141,962	-0,224	-0,015
344,260	58,171	-0,134	-0,090
345,275	800,000	-0,032	-0,093
346,289	319,640	-0,060	-0,079
347,304	-148,767	-0,183	-0,010
348,319	-42,808	-0,178	-0,062
349,333	-104,235	-0,180	-0,028
350,348	376,414	-0,102	-0,143
351,362	153,230	-0,167	-0,157
352,377	-33,504	-0,095	-0,036
353,392	44,480	-0,137	-0,086
354,406	707,908	0,008	-0,014
355,421	208,944	1313,265	1412,014
356,435	160,796	1473,792	1412,500
