DTS Sentinel unit serial number:	SN410029Multiplexer serial number:	ORYXHardware model number:	OX2-SRSoftware version number:	ORYX F/W v4,00 Oryx Data Collector v3.7.2.0data status	okinstallation	B3 Nyhavnadifferential loss correction	single-endedforward channel	channel 1reverse channel	N/Adate	2023/12/02time	06:32:30forward acquisition time	300,00reverse acquisition time	0,00gamma	499,1914k internal	0,3194k external	0,3194temperature offset calibration	1,0000default loss term (dB/km)	0,3820temperature slope calibration	1,0000multiplexer offset coefficient	1,0000multiplexer slope coefficient	1,0000fibre end	0,00T internal ref (°C)	15,94T ext. ref 1 (°C)	0,59T ext. ref 2 (°C)	0,58length (m)	temperature (°C)	Stokes	anti-Stokes-744,400	188,721	-0,240	-0,262
-743,385	469,937	0,117	0,192
-742,371	327,698	-0,188	-0,263
-741,356	800,000	0,146	0,449
-740,342	410,922	-0,091	-0,141
-739,327	-200,000	-0,034	0,193
-738,312	62,460	-0,304	-0,221
-737,298	800,000	-0,077	0,215
-736,283	-200,000	-0,040	-0,211
-735,269	762,030	0,143	0,285
-734,254	109,115	-0,287	-0,250
-733,239	-126,220	-0,301	0,032
-732,225	-200,000	-0,012	-0,127
-731,210	767,199	0,048	0,095
-730,196	37,788	-0,076	0,049
-729,181	-94,796	-0,120	-0,024
-728,167	800,000	0,067	-0,155
-727,152	-63,440	0,066	0,020
-726,137	88,144	0,031	0,025
-725,123	-36,747	-0,102	0,040
-724,108	124,295	-0,027	0,025
-723,094	-100,230	-0,141	-0,025
-722,079	-200,000	0,007	-0,193
-721,064	-200,000	-0,030	-0,105
-720,050	277,295	-0,071	0,092
-719,035	547,226	0,061	0,106
-718,021	-46,352	0,039	-0,014
-717,006	59,643	-0,025	0,018
-715,991	-155,902	-0,090	-0,004
-714,977	-50,725	-0,133	0,045
-713,962	196,569	-0,081	-0,090
-712,948	-92,234	0,056	0,011
-711,933	800,000	0,042	-0,088
-710,918	-200,000	-0,001	-0,113
-709,904	-152,571	-0,137	-0,007
-708,889	-200,000	-0,009	-0,055
-707,875	-101,673	0,007	-0,001
-706,860	-34,516	-0,106	-0,042
-705,845	-125,818	-0,030	0,003
-704,831	46,862	0,072	0,049
-703,816	800,000	0,049	-0,156
-702,802	2,814	-0,120	-0,063
-701,787	202,199	0,005	-0,005
-700,772	-117,666	0,063	0,008
-699,758	54,830	-0,051	-0,036
-698,743	336,082	-0,057	0,081
-697,729	-120,081	0,214	0,026
-696,714	-200,000	0,009	0,075
-695,699	-200,000	0,001	-0,012
-694,685	-34,642	-0,162	-0,064
-693,670	116,390	-0,070	-0,063
-692,656	-77,500	-0,141	0,035
-691,641	-200,000	0,002	0,046
-690,627	456,657	0,019	0,030
-689,612	-57,788	-0,053	-0,017
-688,597	-200,000	0,022	-0,114
-687,583	177,457	-0,028	-0,030
-686,568	182,052	-0,065	-0,070
-685,554	361,948	0,069	-0,101
-684,539	-200,000	-0,006	0,083
-683,524	86,520	0,019	-0,015
-682,510	-10,963	-0,058	0,028
-681,495	-149,759	-0,033	0,002
-680,481	800,000	0,043	-0,132
-679,466	53,008	-0,189	-0,131
-678,451	-41,163	-0,138	-0,052
-677,437	800,000	0,046	-0,131
-676,422	-200,000	0,000	0,091
-675,408	-194,950	0,079	0,000
-674,393	102,437	0,060	0,051
-673,378	-122,484	-0,172	-0,020
-672,364	106,485	-0,108	-0,093
-671,349	-200,000	-0,009	-0,059
-670,335	-1,906	0,063	0,032
-669,320	-22,582	-0,080	-0,035
-668,305	11,941	-0,035	0,019
-667,291	-170,065	-0,047	-0,001
-666,276	147,824	-0,071	0,069
-665,262	281,325	-0,114	-0,148
-664,247	-114,804	-0,077	0,011
-663,232	-107,908	0,099	-0,016
-662,218	-55,884	-0,042	-0,014
-661,203	37,720	-0,018	-0,012
-660,189	-135,122	-0,141	0,012
-659,174	113,414	-0,133	-0,117
-658,159	-36,531	-0,116	-0,045
-657,145	75,600	-0,095	-0,073
-656,130	197,084	-0,058	-0,064
-655,116	777,921	-0,052	-0,104
-654,101	199,234	0,025	-0,028
-653,086	-158,059	0,173	-0,007
-652,072	78,676	0,112	-0,087
-651,057	-9,525	-0,085	-0,041
-650,043	-77,578	0,034	-0,008
-649,028	-110,031	0,092	-0,014
-648,014	200,843	-0,034	-0,038
-646,999	-29,582	-0,041	0,017
-645,984	-123,123	0,170	-0,020
-644,970	-200,000	0,046	-0,147
-643,955	800,000	-0,059	-0,119
-642,941	36,902	-0,131	-0,084
-641,926	538,251	-0,016	0,028
-640,911	-200,000	0,018	-0,075
-639,897	265,138	0,105	-0,133
-638,882	-200,000	-0,006	-0,080
-637,868	-200,000	-0,012	0,046
-636,853	-200,000	0,010	-0,182
-635,838	-200,000	0,001	-0,020
-634,824	23,917	-0,065	0,039
-633,809	348,190	0,036	-0,052
-632,795	15,794	-0,071	-0,040
-631,780	271,529	-0,025	-0,032
-630,765	-67,795	-0,079	0,022
-629,751	800,000	-0,024	0,074
-628,736	268,614	-0,051	-0,065
-627,722	-49,531	0,036	-0,012
-626,707	-29,250	0,024	0,010
-625,692	-52,164	0,131	0,044
-624,678	-200,000	-0,017	0,070
-623,663	-197,221	-0,055	-0,000
-622,649	656,571	-0,111	-0,209
-621,634	211,668	-0,155	-0,177
-620,619	210,220	0,084	-0,096
-619,605	734,828	0,017	-0,033
-618,590	-200,000	0,032	0,119
-617,576	-151,973	0,024	0,001
-616,561	-200,000	0,025	0,133
-615,546	-153,305	-0,137	-0,007
-614,532	153,774	-0,125	-0,124
-613,517	-33,874	-0,084	0,034
-612,503	-82,349	0,109	-0,025
-611,488	800,000	-0,044	-0,101
-610,474	86,306	0,110	-0,088
-609,459	144,084	0,111	-0,107
-608,444	-200,000	0,020	-0,099
-607,430	237,696	0,089	-0,107
-606,415	800,000	0,039	-0,101
-605,401	-200,000	-0,009	-0,059
-604,386	-78,347	0,109	0,027
-603,371	-200,000	-0,045	0,160
-602,357	165,786	0,087	0,089
-601,342	-200,000	-0,113	0,000
-600,328	707,276	0,022	0,042
-599,313	269,958	0,054	-0,069
-598,298	484,204	0,005	-0,008
-597,284	-200,000	0,025	0,088
-596,269	385,539	0,018	-0,028
-595,255	-63,064	0,097	-0,029
-594,240	-148,088	-0,091	-0,005
-593,225	-108,426	-0,065	-0,010
-592,211	-10,737	-0,082	0,039
-591,196	800,000	-0,023	0,072
-590,182	-64,704	-0,114	0,033
-589,167	285,187	-0,047	0,061
-588,152	233,845	0,023	0,028
-587,138	-144,596	-0,146	-0,010
-586,123	35,542	-0,134	-0,085
-585,109	-200,000	0,011	0,173
-584,094	800,000	-0,012	0,025
-583,079	-188,073	-0,123	-0,001
-582,065	-200,000	-0,031	0,105
-581,050	-33,059	0,166	0,066
-580,036	800,000	0,015	-0,034
-579,021	800,000	-0,040	-0,115
-578,006	-87,140	-0,134	-0,029
-576,992	800,000	-0,052	0,133
-575,977	-200,000	0,032	0,158
-574,963	119,783	-0,054	0,048
-573,948	-70,266	-0,066	0,018
-572,934	107,420	0,119	0,102
-571,919	-128,699	0,065	-0,007
-570,904	151,038	-0,062	-0,061
-569,890	800,000	0,032	-0,081
-568,875	-45,004	0,035	-0,013
-567,861	-170,366	-0,074	0,002
-566,846	-160,436	0,042	0,002
-565,831	560,462	-0,048	0,084
-564,817	-159,354	0,012	-0,000
-563,802	-200,000	-0,032	-0,166
-562,788	-2,207	-0,195	0,099
-561,773	-200,000	-0,006	-0,029
-560,758	-200,000	-0,031	0,132
-559,744	311,553	-0,004	-0,005
-558,729	-200,000	-0,027	0,123
-557,715	206,548	0,077	0,087
-556,700	754,711	0,065	-0,127
-555,685	264,782	0,059	-0,074
-554,671	229,415	-0,035	0,041
-553,656	-200,000	-0,026	0,129
-552,642	-200,000	0,033	0,119
-551,627	-200,000	-0,009	0,098
-550,612	-76,919	0,049	-0,012
-549,598	-108,501	-0,027	-0,004
-548,583	-35,644	-0,108	-0,042
-547,569	-200,000	0,024	-0,086
-546,554	217,553	0,045	-0,052
-545,539	4,639	0,033	0,018
-544,525	48,236	-0,075	-0,050
-543,510	-200,000	0,007	-0,075
-542,496	194,091	-0,082	-0,090
-541,481	-56,128	-0,131	0,042
-540,466	-200,000	-0,022	0,075
-539,452	368,069	-0,055	0,081
-538,437	590,223	0,019	-0,034
-537,423	-18,394	0,084	-0,038
-536,408	53,381	-0,100	-0,069
-535,393	684,415	0,018	0,034
-534,379	-200,000	0,048	-0,167
-533,364	-200,000	0,025	-0,119
-532,350	181,274	-0,011	-0,012
-531,335	800,000	0,060	0,146
-530,321	158,022	-0,081	0,081
-529,306	-200,000	0,037	-0,124
-528,291	-89,091	-0,193	0,041
-527,277	-200,000	0,022	-0,086
-526,262	-200,000	0,013	-0,115
-525,248	335,608	0,115	0,162
-524,233	-200,000	-0,013	0,147
-523,218	800,000	-0,036	-0,079
-522,204	51,576	-0,114	0,078
-521,189	-38,902	-0,073	-0,028
-520,175	62,229	0,029	-0,021
-519,160	283,705	-0,103	0,134
-518,145	41,335	0,127	0,083
-517,131	-46,442	0,041	-0,015
-516,116	-123,585	0,060	-0,007
-515,102	77,449	0,167	0,128
-514,087	25,837	-0,056	0,034
-513,072	-15,505	-0,048	0,022
-512,058	27,710	-0,067	-0,041
-511,043	133,794	-0,017	0,016
-510,029	-200,000	-0,033	0,126
-509,014	800,000	0,080	0,183
-507,999	-110,321	-0,187	0,028
-506,985	-38,448	0,082	-0,031
-505,970	402,259	0,020	-0,030
-504,956	-139,463	-0,138	-0,010
-503,941	228,221	0,065	-0,076
-502,926	-3,648	0,079	0,040
-501,912	-134,839	0,048	-0,004
-500,897	38,116	-0,066	0,042
-499,883	-70,135	0,022	-0,006
-498,868	-131,996	-0,123	-0,011
-497,853	82,810	0,123	-0,097
-496,839	-200,000	-0,042	-0,157
-495,824	-5,307	-0,115	-0,057
-494,810	800,000	-0,029	0,064
-493,795	800,000	0,036	0,113
-492,781	58,716	0,061	-0,043
-491,766	800,000	0,034	0,088
-490,751	-81,064	0,105	0,025
-489,737	-127,844	-0,070	-0,007
-488,722	376,196	-0,069	0,101
-487,708	95,095	0,060	0,049
-486,693	-71,031	0,068	-0,018
-485,678	-200,000	-0,007	-0,171
-484,664	-36,254	-0,144	0,056
-483,649	254,064	0,006	0,007
-482,635	800,000	-0,004	-0,011
-481,620	-60,038	0,090	0,028
-480,605	51,067	0,128	0,087
-479,591	644,835	-0,047	0,087
-478,576	246,514	0,053	0,065
-477,562	325,454	0,043	0,059
-476,547	800,000	-0,017	-0,047
-475,532	-35,557	-0,107	0,042
-474,518	-200,000	0,026	-0,141
-473,503	472,316	-0,034	-0,055
-472,489	3,386	0,124	0,065
-471,474	-200,000	-0,004	0,017
-470,459	20,484	0,023	0,013
-469,445	-140,072	-0,036	0,003
-468,430	-9,432	0,102	-0,049
-467,416	13,137	0,045	-0,025
-466,401	383,838	-0,039	0,059
-465,386	286,763	-0,011	-0,015
-464,372	-200,000	0,000	-0,156
-463,357	74,045	0,146	-0,111
-462,343	-70,466	-0,067	-0,018
-461,328	213,116	0,066	-0,075
-460,313	499,995	0,039	0,066
-459,299	4,453	0,032	0,017
-458,284	-200,000	-0,015	0,054
-457,270	-77,957	0,028	0,007
-456,255	-47,739	-0,121	-0,042
-455,241	-166,288	-0,130	0,004
-454,226	315,438	-0,073	-0,100
-453,211	-44,542	0,008	0,003
-452,197	131,154	-0,050	-0,046
-451,182	173,599	-0,064	0,066
-450,168	-200,000	0,009	-0,041
-449,153	-15,377	-0,046	-0,021
-448,138	68,757	-0,082	0,061
-447,124	-103,566	-0,055	0,009
-446,109	800,000	-0,015	0,042
-445,095	-98,626	0,169	-0,031
-444,080	-79,631	-0,086	0,021
-443,065	-200,000	-0,025	-0,083
-442,051	275,079	0,054	0,069
-441,036	-200,000	0,016	0,077
-440,022	-200,000	0,012	-0,050
-439,007	-75,392	0,043	-0,011
-437,992	205,686	0,041	0,046
-436,978	316,925	-0,072	0,098
-435,963	476,098	0,025	0,042
-434,949	-200,000	-0,006	0,114
-433,934	-200,000	0,001	-0,114
-432,919	-68,295	-0,043	-0,012
-431,905	-106,676	-0,078	-0,012
-430,890	116,788	0,074	0,065
-429,876	-0,660	0,032	0,016
-428,861	748,102	0,043	0,084
-427,846	106,077	0,036	-0,030
-426,832	164,747	-0,050	-0,050
-425,817	-101,730	0,039	0,007
-424,803	800,000	0,025	0,079
-423,788	-158,275	0,160	-0,007
-422,773	703,745	0,015	0,029
-421,759	6,546	0,054	-0,029
-420,744	97,562	-0,083	0,069
-419,730	15,294	-0,065	0,037
-418,715	-122,099	0,072	0,008
-417,701	143,442	0,023	-0,022
-416,686	159,171	0,027	0,027
-415,671	-51,520	0,016	-0,005
-414,657	-26,704	-0,108	0,045
-413,642	20,949	0,018	-0,010
-412,628	215,218	0,050	-0,057
-411,613	64,070	0,058	-0,042
-410,598	263,105	-0,058	-0,073
-409,584	310,043	-0,068	0,092
-408,569	63,776	0,103	-0,074
-407,555	7,983	0,057	0,031
-406,540	164,924	0,135	0,137
-405,525	-200,000	-0,005	-0,077
-404,511	100,065	-0,013	0,011
-403,496	-200,000	0,023	0,101
-402,482	350,200	0,031	0,044
-401,467	730,676	0,045	-0,086
-400,452	-103,850	0,061	-0,010
-399,438	-56,895	0,118	0,037
-398,423	-16,118	-0,087	0,040
-397,409	800,000	-0,006	-0,014
-396,394	220,739	0,083	0,096
-395,379	-167,478	-0,146	0,004
-394,365	-96,677	0,089	-0,017
-393,350	-55,122	0,125	0,040
-392,336	-102,910	-0,037	-0,006
-391,321	800,000	-0,021	0,064
-390,306	178,500	-0,107	-0,113
-389,292	-119,714	-0,135	0,017
-388,277	192,299	-0,017	-0,019
-387,263	-200,000	-0,020	-0,081
-386,248	-200,000	0,021	0,208
-385,233	800,000	0,030	0,071
-384,219	-200,000	0,027	-0,129
-383,204	-200,000	0,030	-0,123
-382,190	548,808	-0,045	-0,078
-381,175	-121,469	0,056	-0,007
-380,160	400,143	0,011	-0,017
-379,146	332,510	0,036	0,050
-378,131	-200,000	-0,011	0,118
-377,117	521,203	0,024	0,041
-376,102	-25,410	0,113	0,048
-375,088	800,000	0,017	-0,045
-374,073	354,480	-0,097	-0,139
-373,058	-200,000	-0,011	-0,184
-372,044	800,000	0,013	0,034
-371,029	14,323	0,093	0,052
-370,015	-64,623	-0,178	-0,052
-369,000	11,167	-0,055	0,030
-367,985	-200,000	-0,020	-0,156
-366,971	37,344	0,050	0,032
-365,956	360,968	-0,057	-0,083
-364,942	25,355	0,089	0,053
-363,927	-61,169	0,106	0,032
-362,912	202,746	-0,094	-0,105
-361,898	-69,329	-0,133	-0,036
-360,883	-200,000	-0,025	-0,101
-359,869	198,397	-0,036	-0,040
-358,854	800,000	0,024	-0,076
-357,839	-200,000	0,035	0,130
-356,825	-200,000	0,025	0,150
-355,810	658,318	-0,047	0,088
-354,796	94,228	0,031	0,025
-353,781	800,000	-0,070	-0,147
-352,766	-101,564	0,059	0,010
-351,752	1,110	0,057	0,029
-350,737	11,734	0,070	-0,039
-349,723	40,169	0,103	0,067
-348,708	498,887	-0,073	-0,121
-347,693	-102,061	-0,053	0,009
-346,679	-200,000	0,041	-0,136
-345,664	800,000	-0,033	-0,072
-344,650	-48,218	-0,077	0,027
-343,635	-200,000	-0,012	-0,056
-342,620	800,000	-0,099	-0,221
-341,606	800,000	0,016	-0,036
-340,591	58,178	0,089	-0,062
-339,577	40,309	-0,101	-0,065
-338,562	-14,265	0,054	-0,025
-337,548	-200,000	-0,071	0,240
-336,533	215,140	0,069	0,079
-335,518	800,000	0,048	0,139
-334,504	-3,285	-0,065	-0,032
-333,489	562,569	0,078	0,136
-332,475	-77,330	0,050	-0,012
-331,460	21,071	-0,015	0,009
-330,445	-73,177	-0,175	-0,046
-329,431	800,000	0,038	-0,096
-328,416	-200,000	-0,003	0,013
-327,402	-200,000	-0,023	0,074
-326,387	-7,770	0,046	0,022
-325,372	-200,000	0,009	-0,044
-324,358	163,815	-0,050	0,051
-323,343	92,266	0,059	-0,048
-322,329	165,336	0,087	0,088
-321,314	6,387	-0,073	0,039
-320,299	-200,000	-0,026	0,118
-319,285	171,837	0,062	-0,064
-318,270	65,808	-0,021	-0,015
-317,256	-31,325	-0,065	-0,026
-316,241	44,496	-0,057	-0,037
-315,226	-200,000	-0,002	0,033
-314,212	288,490	0,108	-0,141
-313,197	130,221	-0,031	0,029
-312,183	-200,000	-0,052	0,167
-311,168	-54,666	-0,105	-0,034
-310,153	377,522	-0,042	-0,061
-309,139	346,016	-0,047	-0,066
-308,124	-200,000	-0,005	0,076
-307,110	103,757	0,050	-0,042
-306,095	-200,000	-0,014	0,146
-305,080	-151,608	0,171	-0,009
-304,066	-200,000	-0,015	-0,050
-303,051	800,000	0,042	-0,097
-302,037	205,478	-0,033	0,036
-301,022	-200,000	-0,020	-0,085
-300,008	800,000	-0,061	0,135
-298,993	378,432	0,057	0,084
-297,978	800,000	0,014	0,042
-296,964	-159,902	-0,026	-0,001
-295,949	164,062	-0,120	-0,121
-294,935	-118,863	0,028	-0,003
-293,920	157,834	0,027	0,027
-292,905	-121,104	-0,028	-0,003
-291,891	-83,875	-0,084	0,019
-290,876	800,000	0,050	0,114
-289,862	-200,000	0,014	0,055
-288,847	-173,464	0,063	-0,001
-287,832	197,621	0,016	-0,018
-286,818	-66,208	-0,065	0,018
-285,803	-200,000	0,029	0,098
-284,789	-200,000	0,008	0,068
-283,774	-70,403	-0,091	0,025
-282,759	-97,525	0,196	0,036
-281,745	36,916	-0,086	-0,055
-280,730	-200,000	0,001	-0,030
-279,716	197,397	0,020	0,022
-278,701	182,600	-0,057	0,060
-277,686	-200,000	0,020	0,161
-276,672	221,840	0,038	0,043
-275,657	-200,000	0,001	-0,040
-274,643	-200,000	0,027	-0,137
-273,628	-200,000	0,018	-0,151
-272,613	800,000	-0,028	-0,071
-271,599	-200,000	-0,009	-0,082
-270,584	800,000	-0,033	-0,088
-269,570	383,915	-0,044	-0,064
-268,555	-200,000	0,012	-0,131
-267,540	800,000	0,031	-0,074
-266,526	-94,059	-0,130	0,025
-265,511	268,462	0,050	0,063
-264,497	-200,000	-0,002	0,012
-263,482	800,000	-0,029	0,075
-262,467	-200,000	-0,016	-0,054
-261,453	800,000	0,026	0,053
-260,438	239,973	-0,063	0,075
-259,424	-63,908	0,134	0,039
-258,409	-44,841	-0,109	0,039
-257,395	-200,000	-0,014	0,061
-256,380	220,144	-0,034	0,040
-255,365	800,000	0,010	-0,030
-254,351	-52,930	-0,162	0,053
-253,336	-200,000	0,007	0,122
-252,322	-200,000	-0,035	0,117
-251,307	-200,000	0,009	-0,037
-250,292	800,000	0,062	-0,133
-249,278	-99,840	0,081	0,014
-248,263	-34,907	0,136	-0,053
-247,249	160,400	-0,073	0,073
-246,234	4,824	-0,115	-0,060
-245,219	63,128	0,128	0,092
-244,205	265,105	0,123	0,153
-243,190	123,649	-0,026	-0,024
-242,176	204,760	0,092	-0,102
-241,161	800,000	-0,047	0,116
-240,146	800,000	0,028	-0,061
-239,132	423,273	-0,075	0,116
-238,117	-200,000	-0,011	-0,055
-237,103	301,888	0,060	-0,079
-236,088	525,049	-0,035	-0,058
-235,073	45,296	0,109	-0,072
-234,059	-16,554	0,148	-0,067
-233,044	39,734	-0,006	-0,004
-232,030	-200,000	0,027	0,093
-231,015	-124,177	-0,100	0,011
-230,000	-190,731	0,069	0,001
-228,986	-200,000	0,003	-0,033
-227,971	-200,000	0,015	-0,075
-226,957	800,000	-0,040	0,100
-225,942	36,229	0,114	0,071
-224,927	480,821	0,057	-0,093
-223,913	-200,000	-0,001	-0,085
-222,898	-200,000	0,002	-0,063
-221,884	800,000	-0,031	-0,083
-220,869	-135,295	-0,040	0,003
-219,855	474,345	-0,017	-0,027
-218,840	7,310	0,094	-0,050
-217,825	739,754	-0,055	0,106
-216,811	-60,834	-0,077	-0,023
-215,796	800,000	0,027	-0,069
-214,782	24,046	-0,021	-0,012
-213,767	211,559	0,020	-0,022
-212,752	-91,657	-0,207	0,042
-211,738	-81,724	0,083	-0,019
-210,723	127,001	0,113	0,102
-209,709	800,000	0,005	0,010
-208,694	-200,000	0,016	-0,063
-207,679	-200,000	0,031	-0,105
-206,665	233,171	-0,063	-0,074
-205,650	85,958	0,044	0,035
-204,636	63,628	0,049	-0,035
-203,621	310,740	0,028	-0,037
-202,606	13,567	-0,083	-0,046
-201,592	137,873	-0,051	-0,047
-200,577	-200,000	0,001	-0,041
-199,563	-200,000	0,118	0,000
-198,548	347,595	-0,053	0,075
-197,533	10,652	-0,071	0,038
-196,519	800,000	0,049	-0,122
-195,504	-2,386	-0,077	0,038
-194,490	759,730	-0,031	-0,061
-193,475	-144,253	-0,129	-0,008
-192,460	38,411	0,123	0,078
-191,446	-30,642	0,154	-0,062
-190,431	-200,000	0,001	-0,022
-189,417	265,029	0,099	0,123
-188,402	5,926	-0,067	0,035
-187,387	-200,000	0,005	-0,040
-186,373	59,399	0,117	-0,082
-185,358	250,357	0,030	0,036
-184,344	800,000	0,002	0,005
-183,329	71,372	0,051	0,038
-182,315	-200,000	0,001	-0,034
-181,300	-200,000	0,002	0,051
-180,285	-200,000	-0,029	0,113
-179,271	-28,001	-0,105	-0,043
-178,256	259,239	0,043	0,053
-177,242	-200,000	0,011	0,159
-176,227	-113,642	0,133	0,018
-175,212	800,000	0,062	0,153
-174,198	-200,000	-0,044	0,174
-173,183	422,044	0,064	-0,098
-172,169	35,518	-0,018	0,011
-171,154	-200,000	-0,013	-0,118
-170,139	121,384	0,024	0,021
-169,125	-200,000	0,010	-0,054
-168,110	-126,116	0,109	0,012
-167,096	202,848	-0,040	0,044
-166,081	-200,000	-0,004	0,062
-165,066	673,378	0,043	-0,080
-164,052	208,267	0,115	-0,129
-163,037	589,924	0,046	-0,081
-162,023	-189,271	-0,026	0,000
-161,008	-200,000	0,001	0,007
-159,993	-57,096	-0,104	-0,032
-158,979	-0,430	0,100	0,050
-157,964	-88,003	-0,100	0,021
-156,950	214,975	0,098	-0,111
-155,935	-67,446	-0,072	0,020
-154,920	800,000	0,027	0,068
-153,906	-200,000	-0,029	0,141
-152,891	-200,000	-0,015	0,084
-151,877	-33,426	-0,071	-0,028
-150,862	-51,858	-0,083	-0,027
-149,847	132,210	0,011	-0,010
-148,833	-101,634	-0,047	-0,008
-147,818	383,660	0,079	0,116
-146,804	-200,000	0,008	0,034
-145,789	-43,138	-0,039	-0,014
-144,775	76,359	0,043	0,032
-143,760	-200,000	0,003	0,051
-142,745	342,509	0,040	0,056
-141,731	255,594	-0,064	0,079
-140,716	-41,855	0,049	0,018
-139,702	-102,952	0,086	0,014
-138,687	800,000	0,021	-0,048
-137,672	800,000	-0,063	-0,133
-136,658	-99,660	-0,098	0,017
-135,643	27,534	-0,091	-0,055
-134,629	219,787	0,071	-0,081
-133,614	151,468	-0,044	0,043
-132,599	800,000	-0,089	0,186
-131,585	-200,000	0,008	0,056
-130,570	800,000	-0,048	0,099
-129,556	171,214	-0,068	-0,070
-128,541	-15,687	-0,124	0,056
-127,526	-97,689	0,129	-0,024
-126,512	-200,000	-0,002	0,049
-125,497	-94,577	0,074	-0,014
-124,483	-40,730	0,107	0,039
-123,468	-100,224	0,007	0,001
-122,453	130,444	-0,053	0,048
-121,439	195,286	-0,090	-0,098
-120,424	-155,392	0,100	0,005
-119,410	358,083	0,093	-0,132
-118,395	-200,000	-0,001	-0,014
-117,380	427,477	-0,127	0,195
-116,366	-102,226	0,117	0,020
-115,351	-200,000	0,006	0,061
-114,337	369,597	0,030	-0,043
-113,322	41,988	-0,126	0,081
-112,307	-0,221	-0,140	0,071
-111,293	126,703	-0,029	-0,026
-110,278	531,788	-0,021	0,036
-109,264	66,328	0,076	-0,055
-108,249	375,069	-0,080	-0,117
-107,234	164,874	-0,042	0,042
-106,220	-74,047	-0,089	0,023
-105,205	35,502	0,022	-0,014
-104,191	-23,365	-0,025	-0,011
-103,176	800,000	0,007	-0,018
-102,162	304,081	-0,068	-0,089
-101,147	-200,000	-0,006	-0,083
-100,132	32,097	0,118	-0,072
-99,118	40,107	0,068	-0,043
-98,103	66,207	-0,091	-0,066
-97,089	-166,339	-0,052	-0,002
-96,074	-200,000	-0,016	0,145
-95,059	-21,666	0,060	0,026
-94,045	220,682	-0,032	-0,036
-93,030	80,612	-0,048	-0,037
-92,016	-142,168	-0,072	-0,005
-91,001	-78,818	-0,060	-0,014
-89,986	-158,367	-0,135	0,005
-88,972	-200,000	0,011	-0,049
-87,957	800,000	-0,029	0,067
-86,943	112,074	0,046	-0,040
-85,928	-75,280	-0,070	0,018
-84,913	-45,591	-0,111	0,039
-83,899	754,713	-0,033	0,064
-82,884	-200,000	0,005	0,184
-81,870	-200,000	0,009	0,057
-80,855	-200,000	-0,054	0,181
-79,840	351,076	-0,071	0,100
-78,826	800,000	-0,032	-0,070
-77,811	-200,000	-0,010	0,061
-76,797	-200,000	0,011	-0,053
-75,782	800,000	0,048	0,104
-74,767	679,651	0,080	0,149
-73,753	-123,049	-0,006	-0,001
-72,738	-200,000	0,013	0,099
-71,724	-22,548	-0,083	0,036
-70,709	152,216	-0,114	-0,111
-69,694	233,727	0,096	-0,112
-68,680	53,051	-0,071	0,048
-67,665	-200,000	0,011	-0,088
-66,651	351,711	0,059	0,083
-65,636	-116,438	-0,024	0,003
-64,622	-8,312	0,098	-0,047
-63,607	394,727	0,063	-0,094
-62,592	16,516	-0,131	-0,073
-61,578	582,687	0,015	0,026
-60,563	800,000	0,064	0,139
-59,549	415,125	0,055	0,083
-58,534	-76,223	-1,380	-0,343
-57,519	327,326	-1,639	-2,236
-56,505	-200,000	-0,364	-4,470
-55,490	129,129	0,871	0,789
-54,476	800,000	4,857	11,183
-53,461	-200,000	17,608	282,802
-52,446	800,000	720,673	2229,503
-51,432	565,199	1635,415	2824,280
-50,417	81,089	1658,948	1269,664
-49,403	23,797	1533,194	894,040
-48,388	17,791	1456,503	820,318
-47,373	18,294	1445,958	816,762
-46,359	17,859	1436,616	809,378
-45,344	16,094	1431,844	798,258
-44,330	16,010	1429,927	796,762
-43,315	15,983	1428,285	795,685
-42,300	16,037	1426,672	795,012
-41,286	16,095	1425,501	794,601
-40,271	16,033	1423,981	793,429
-39,257	16,032	1422,832	792,751
-38,242	16,048	1421,794	792,221
-37,227	16,071	1420,311	791,469
-36,213	16,053	1419,261	790,771
-35,198	15,994	1417,950	789,728
-34,184	16,038	1416,974	789,362
-33,169	16,030	1415,595	788,521
-32,154	16,039	1414,769	788,076
-31,140	16,038	1413,300	787,222
-30,125	16,119	1411,969	786,826
-29,111	16,041	1411,025	785,903
-28,096	16,054	1409,905	785,311
-27,082	15,964	1408,944	784,322
-26,067	15,976	1407,715	783,664
-25,052	15,961	1406,804	783,056
-24,038	15,947	1405,796	782,400
-23,023	15,987	1404,539	781,854
-22,009	15,986	1403,775	781,393
-20,994	15,910	1402,668	780,389
-19,979	15,877	1401,905	779,780
-18,965	15,859	1400,940	779,131
-17,950	15,925	1399,818	778,782
-16,936	15,927	1398,702	778,140
-15,921	15,840	1397,776	777,190
-14,906	15,888	1396,754	776,816
-13,892	15,919	1395,800	776,394
-12,877	15,885	1394,751	775,624
-11,863	15,877	1394,015	775,146
-10,848	15,823	1393,276	774,456
-9,833	15,843	1392,310	773,980
-8,819	15,792	1391,207	773,102
-7,804	15,748	1390,378	772,405
-6,790	15,763	1389,203	771,790
-5,775	15,756	1388,192	771,167
-4,760	15,764	1387,386	770,727
-3,746	15,783	1386,771	770,440
-2,731	15,792	1385,677	769,843
-1,717	15,709	1384,902	768,999
-0,702	15,747	1382,841	768,001
0,313	19,480	1303,567	741,228
1,327	35,754	706,486	439,454
2,342	54,937	125,210	85,595
3,356	5,215	16,484	8,586
4,371	2,052	3,139	1,601
5,386	17,634	0,406	0,228
6,400	216,825	-0,035	0,039
7,415	85,552	-0,195	-0,152
8,429	59,557	-0,236	-0,165
9,444	-31,616	-0,345	-0,137
10,459	149,634	-0,290	-0,279
11,473	68,317	-0,314	-0,228
12,488	-28,693	-0,273	-0,111
13,502	42,556	-0,265	-0,171
14,517	472,363	-0,191	-0,306
15,531	10,701	-0,344	-0,185
16,546	-50,775	-0,399	-0,132
17,561	104,799	-0,314	-0,262
18,575	-139,503	-0,281	0,021
19,590	-30,801	-0,280	-0,111
20,604	-189,354	-0,187	0,002
21,619	86,778	-0,308	-0,241
22,634	43,956	-0,495	-0,321
23,648	89,762	-0,475	-0,375
24,663	443,456	-0,217	-0,338
25,677	78,910	-0,256	-0,194
26,692	14,179	-0,327	-0,180
27,707	53,783	-0,439	-0,298
28,721	245,892	-0,335	-0,400
29,736	127,727	-0,377	-0,339
30,750	263,723	-0,295	-0,363
31,765	64,396	-0,472	-0,335
32,780	21,118	-0,414	-0,237
33,794	52,390	-0,353	-0,238
34,809	-26,618	-0,462	-0,190
35,823	455,440	-0,188	-0,296
36,838	103,979	-0,377	-0,313
37,853	-16,050	-0,390	-0,174
38,867	142,144	-0,395	-0,371
39,882	-0,932	-0,341	-0,170
40,896	34,433	-0,373	-0,230
41,911	14,587	-0,320	-0,176
42,926	170,825	-0,373	-0,377
43,940	187,446	-0,256	-0,270
44,955	81,101	-0,303	-0,231
45,969	82,159	-0,380	-0,291
46,984	233,986	-0,301	-0,351
47,999	21,022	-0,395	-0,226
49,013	258,256	-0,233	-0,284
50,028	-61,834	-0,568	-0,167
51,042	362,190	-0,287	-0,408
52,057	-26,628	-0,376	-0,155
53,071	59,256	-0,357	-0,248
54,086	246,584	-0,288	-0,343
55,101	119,289	-0,380	-0,332
56,115	-19,268	-0,345	-0,151
57,130	133,357	-0,287	-0,262
58,144	800,000	-0,127	-0,297
59,159	68,315	-0,416	-0,300
60,174	42,250	-0,372	-0,238
61,188	321,949	-0,221	-0,298
62,203	72,039	-0,255	-0,187
63,217	45,808	-0,377	-0,245
64,232	74,125	-0,236	-0,175
65,247	5,007	-0,431	-0,223
66,261	4,901	-0,407	-0,210
67,276	194,228	-0,226	-0,241
68,290	25,553	-0,250	-0,146
69,305	73,190	-0,298	-0,219
70,320	0,210	-0,307	-0,154
71,334	118,278	-0,303	-0,263
72,349	53,651	-0,382	-0,258
73,363	24,590	-0,330	-0,192
74,378	-20,217	-0,504	-0,218
75,393	103,707	-0,288	-0,238
76,407	-41,427	-0,315	-0,114
77,422	125,610	-0,206	-0,183
78,436	53,085	-0,259	-0,175
79,451	47,449	-0,307	-0,201
80,466	51,194	-0,442	-0,295
81,480	43,776	-0,337	-0,217
82,495	149,269	-0,334	-0,319
83,509	28,238	-0,347	-0,206
84,524	43,502	-0,339	-0,218
85,539	53,192	-0,308	-0,207
86,553	-52,941	-0,248	-0,080
87,568	-41,189	-0,412	-0,149
88,582	182,964	-0,288	-0,299
89,597	-38,427	-0,328	-0,121
90,611	91,344	-0,161	-0,127
91,626	89,488	-0,258	-0,202
92,641	-65,798	-0,274	-0,077
93,655	10,350	-0,233	-0,125
94,670	159,876	-0,236	-0,231
95,684	183,970	-0,314	-0,327
96,699	-29,211	-0,263	-0,106
97,714	-63,128	-0,299	-0,086
98,728	-10,606	-0,274	-0,127
99,743	-25,135	-0,218	-0,091
100,757	-26,776	-0,214	-0,088
101,772	-45,811	-0,312	-0,108
102,787	73,483	-0,292	-0,215
103,801	-25,101	-0,308	-0,128
104,816	-49,623	-0,187	-0,062
105,830	41,729	-0,227	-0,144
106,845	216,043	-0,158	-0,177
107,860	58,011	-0,350	-0,240
108,874	230,559	-0,261	-0,300
109,889	12,905	-0,301	-0,163
110,903	173,028	-0,292	-0,295
111,918	-30,819	-0,216	-0,085
112,933	-27,718	-0,327	-0,133
113,947	189,384	-0,243	-0,256
114,962	-61,731	-0,247	-0,072
115,976	-102,657	-0,297	0,049
116,991	-24,500	-0,432	-0,180
118,006	116,768	-0,287	-0,247
119,020	355,581	-0,171	-0,239
120,035	-96,394	-0,288	-0,053
121,049	33,734	-0,269	-0,164
122,064	-41,259	-0,235	-0,084
123,079	-21,622	-0,309	-0,132
124,093	800,000	-0,097	-0,199
125,108	117,840	-0,257	-0,222
126,122	5,145	-0,375	-0,193
127,137	-21,703	-0,264	-0,112
128,151	70,463	-0,220	-0,159
129,166	150,601	-0,288	-0,275
130,181	10,137	-0,284	-0,151
131,195	14,502	-0,367	-0,200
132,210	22,430	-0,280	-0,160
133,224	30,535	-0,262	-0,157
134,239	6,308	-0,233	-0,121
135,254	134,865	-0,222	-0,202
136,268	536,865	-0,142	-0,237
137,283	116,891	-0,259	-0,222
138,297	249,021	-0,137	-0,163
139,312	-10,000	-0,238	-0,110
140,327	74,573	-0,300	-0,221
141,341	13,298	-0,381	-0,206
142,356	157,722	-0,219	-0,213
143,370	264,495	-0,121	-0,148
144,385	21,374	-0,135	-0,077
145,400	10,691	-0,159	-0,084
146,414	108,082	-0,282	-0,235
147,429	119,265	-0,326	-0,283
148,443	566,998	-0,124	-0,212
149,458	124,313	-0,188	-0,165
150,473	-30,985	-0,209	-0,082
151,487	-22,197	-0,335	-0,142
152,502	460,998	-0,145	-0,228
153,516	-74,986	-0,325	-0,081
154,531	19,554	-0,404	-0,226
155,546	272,876	-0,042	-0,051
156,560	221,720	-0,226	-0,255
157,575	-37,547	-0,284	-0,106
158,589	-94,139	-0,191	-0,036
159,604	54,069	-0,340	-0,229
160,619	70,586	-0,233	-0,168
161,633	776,664	-0,126	-0,242
162,648	468,123	-0,176	-0,277
163,662	-37,534	-0,233	-0,086
164,677	22,918	-0,134	-0,076
165,692	140,439	-0,253	-0,233
166,706	-145,831	-0,245	0,015
167,721	62,677	-0,230	-0,160
168,735	24,111	-0,345	-0,198
169,750	74,635	-0,129	-0,095
170,764	28,752	-0,142	-0,084
171,779	-180,947	-0,191	-0,003
172,794	-17,186	-0,187	-0,082
173,808	-89,178	-0,142	-0,029
174,823	302,210	-0,195	-0,252
175,837	-87,918	-0,335	-0,070
176,852	-169,021	-0,267	-0,007
177,867	300,236	-0,153	-0,197
178,881	205,192	-0,236	-0,257
179,896	3,065	-0,313	-0,158
180,910	152,296	-0,202	-0,193
181,925	-72,827	-0,304	-0,077
182,940	243,311	-0,210	-0,246
183,954	3,337	-0,243	-0,123
184,969	-65,827	-0,265	-0,073
185,983	-48,867	-0,343	-0,114
186,998	-200,000	-0,026	-0,085
188,013	55,515	-0,204	-0,137
189,027	45,092	-0,242	-0,155
190,042	79,864	-0,239	-0,179
191,056	218,895	-0,197	-0,220
192,071	-153,249	-0,252	0,012
193,086	17,076	-0,283	-0,156
194,100	50,900	-0,220	-0,145
195,115	800,000	-0,081	-0,248
196,129	-110,257	-0,179	-0,026
197,144	-34,853	-0,177	-0,067
198,159	-6,692	-0,242	-0,114
199,173	19,162	-0,275	-0,153
200,188	165,992	-0,219	-0,216
201,202	710,633	-0,106	-0,197
202,217	-69,628	-0,192	-0,051
203,232	200,353	-0,138	-0,148
204,246	339,571	-0,160	-0,218
205,261	800,000	-0,168	-0,333
206,275	642,599	-0,097	-0,172
207,290	104,065	-0,141	-0,115
208,304	-91,579	-0,206	-0,041
209,319	70,311	-0,204	-0,146
210,334	335,966	-0,241	-0,327
211,348	122,159	-0,250	-0,218
212,363	73,008	-0,134	-0,097
213,377	408,844	-0,094	-0,139
214,392	-30,598	-0,271	-0,106
215,407	-55,904	-0,115	-0,035
216,421	-91,918	-0,160	-0,031
217,436	161,536	-0,233	-0,227
218,450	87,249	-0,306	-0,235
219,465	60,834	-0,231	-0,159
220,480	265,097	-0,181	-0,220
221,494	86,554	-0,234	-0,179
222,509	800,000	-0,028	-0,076
223,523	-32,974	-0,208	-0,080
224,538	102,486	-0,174	-0,141
225,553	279,534	-0,198	-0,246
226,567	372,615	-0,180	-0,254
227,582	151,253	-0,155	-0,147
228,596	-67,774	-0,230	-0,062
229,611	300,055	-0,126	-0,162
230,626	-163,336	-0,299	-0,010
231,640	24,375	-0,209	-0,120
232,655	99,292	-0,171	-0,137
233,669	42,155	-0,232	-0,146
234,684	-37,316	-0,263	-0,097
235,699	353,715	-0,124	-0,171
236,713	-111,160	-0,169	-0,024
237,728	139,836	-0,193	-0,177
238,742	-97,495	-0,348	-0,062
239,757	217,929	-0,188	-0,208
240,772	674,843	-0,119	-0,216
241,786	157,767	-0,209	-0,201
242,801	-200,000	0,005	-0,096
243,815	800,000	-0,041	-0,105
244,830	800,000	-0,081	-0,240
245,844	4,142	-0,138	-0,070
246,859	800,000	-0,091	-0,190
247,874	20,539	-0,277	-0,155
248,888	96,054	-0,214	-0,169
249,903	158,917	-0,113	-0,109
250,917	-89,368	-0,229	-0,046
251,932	-180,221	-0,289	-0,004
252,947	71,427	-0,205	-0,147
253,961	800,000	-0,129	-0,292
254,976	13,365	-0,226	-0,121
255,990	-91,059	-0,091	-0,018
257,005	110,929	-0,228	-0,190
258,020	176,478	-0,070	-0,070
259,034	-161,026	-0,132	0,005
260,049	104,642	-0,196	-0,160
261,063	621,853	-0,071	-0,124
262,078	445,394	-0,132	-0,202
263,093	79,467	-0,225	-0,167
264,107	170,921	-0,171	-0,170
265,122	34,515	-0,142	-0,085
266,136	528,385	-0,029	-0,047
267,151	-121,365	-0,318	0,036
268,166	57,240	-0,231	-0,156
269,180	13,685	-0,224	-0,120
270,195	120,612	-0,150	-0,129
271,209	-155,746	-0,229	-0,010
272,224	9,810	-0,186	-0,097
273,239	-100,509	-0,196	0,033
274,253	-35,790	-0,155	0,058
275,268	62,679	-0,242	-0,167
276,282	24,477	-0,228	-0,130
277,297	50,677	-0,310	-0,203
278,312	145,154	-0,162	-0,150
279,326	49,310	-0,223	-0,145
280,341	-69,442	-0,233	-0,061
281,355	80,282	-0,046	-0,034
282,370	15,449	-0,150	-0,081
283,384	618,431	-0,140	-0,244
284,399	32,013	-0,184	-0,110
285,414	-35,432	-0,281	-0,105
286,428	64,874	-0,131	-0,092
287,443	283,651	-0,094	-0,117
288,457	-200,000	-0,041	-0,253
289,472	272,434	-0,145	-0,178
290,487	61,203	-0,142	-0,097
291,501	7,025	-0,129	-0,066
292,516	-200,000	-0,064	-0,236
293,530	237,019	-0,103	-0,118
294,545	-10,457	-0,134	0,061
295,560	291,866	-0,102	-0,129
296,574	508,677	-0,066	-0,106
297,589	153,221	-0,102	-0,096
298,603	-1,928	-0,287	-0,139
299,618	-33,962	-0,222	-0,084
300,633	-35,233	-0,238	-0,089
301,647	800,000	0,042	-0,118
302,662	230,784	-0,133	-0,151
303,676	28,769	-0,032	0,019
304,691	48,410	-0,159	-0,103
305,706	-160,146	-0,174	-0,006
306,720	-200,000	-0,058	-0,203
307,735	107,351	-0,189	-0,155
308,749	-200,000	-0,010	0,041
309,764	76,256	-0,177	-0,129
310,779	98,161	-0,102	-0,081
311,793	44,244	-0,123	-0,078
312,808	-17,653	-0,230	-0,099
313,822	250,912	-0,184	-0,216
314,837	365,531	-0,043	0,060
315,852	-119,351	-0,137	0,016
316,866	-200,000	0,012	-0,090
317,881	-5,063	-0,121	0,057
318,895	800,000	-0,044	-0,103
319,910	357,007	-0,088	-0,121
320,925	-75,757	-0,212	-0,051
321,939	-47,027	-0,245	-0,082
322,954	110,071	-0,123	-0,101
323,968	-121,575	-0,079	0,009
324,983	399,524	-0,155	-0,225
325,997	-115,737	-0,290	-0,037
327,012	-200,000	-0,045	-0,148
328,027	-97,914	-0,163	0,029
329,041	134,929	-0,153	-0,137
330,056	35,650	-0,174	-0,105
331,070	159,283	-0,176	-0,169
332,085	202,397	-0,089	-0,095
333,100	-9,249	-0,074	-0,034
334,114	-51,137	-0,178	-0,057
335,129	-26,922	-0,212	-0,085
336,143	165,104	-0,219	-0,213
337,158	367,579	-0,064	-0,090
338,173	31,821	-0,036	0,021
339,187	800,000	-0,027	-0,064
340,202	84,313	-0,139	-0,104
341,216	-57,003	-0,184	0,056
342,231	246,616	-0,117	-0,137
343,246	291,600	-0,174	-0,218
344,260	19,239	-0,278	-0,153
345,275	800,000	-0,064	-0,178
346,289	-61,392	-0,049	-0,014
347,304	-155,042	-0,146	-0,006
348,319	350,888	-0,022	-0,030
349,333	539,276	-0,125	-0,205
350,348	125,648	-0,160	-0,139
351,362	-200,000	-0,034	-0,159
352,377	800,000	-0,106	-0,214
353,392	-187,731	-0,086	-0,001
354,406	-113,557	-0,052	0,007
355,421	210,005	1312,714	1417,647
356,435	161,658	1473,212	1418,181
