DTS Sentinel unit serial number:	SN410029Multiplexer serial number:	ORYXHardware model number:	OX2-SRSoftware version number:	ORYX F/W v4,00 Oryx Data Collector v3.7.2.0data status	okinstallation	B3 Nyhavnadifferential loss correction	single-endedforward channel	channel 1reverse channel	N/Adate	2023/12/04time	17:27:30forward acquisition time	300,00reverse acquisition time	0,00gamma	499,1914k internal	0,3200k external	0,3200temperature offset calibration	1,0000default loss term (dB/km)	0,3820temperature slope calibration	1,0000multiplexer offset coefficient	1,0000multiplexer slope coefficient	1,0000fibre end	0,00T internal ref (°C)	15,10T ext. ref 1 (°C)	0,00T ext. ref 2 (°C)	-0,01length (m)	temperature (°C)	Stokes	anti-Stokes-744,400	13,933	-0,314	-0,177
-743,385	800,000	0,106	0,240
-742,371	250,435	-0,185	-0,229
-741,356	800,000	0,138	0,359
-740,342	430,924	-0,142	-0,225
-739,327	386,124	0,191	0,287
-738,312	152,794	-0,204	-0,203
-737,298	-200,000	-0,015	0,245
-736,283	800,000	-0,122	-0,268
-735,269	-200,000	0,093	0,319
-734,254	78,571	-0,184	-0,143
-733,239	265,965	-0,134	0,170
-732,225	275,987	0,087	-0,112
-731,210	-39,847	0,089	0,034
-730,196	197,414	-0,110	0,123
-729,181	687,193	0,053	-0,101
-728,167	-200,000	-0,036	-0,175
-727,152	-188,475	0,130	-0,001
-726,137	-15,801	-0,178	0,082
-725,123	800,000	0,025	0,080
-724,108	-187,698	-0,137	0,001
-723,094	-107,914	-0,082	0,013
-722,079	-200,000	-0,006	-0,031
-721,064	-200,000	0,006	0,023
-720,050	-93,092	0,078	0,016
-719,035	-1,254	-0,034	-0,017
-718,021	-111,813	-0,136	0,020
-717,006	-79,537	-0,119	-0,029
-715,991	-179,431	-0,022	-0,000
-714,977	-200,000	0,009	-0,087
-713,962	-43,891	-0,124	-0,045
-712,948	155,971	-0,019	0,019
-711,933	-200,000	-0,005	0,035
-710,918	-131,821	0,027	0,003
-709,904	134,867	-0,019	-0,018
-708,889	-56,095	-0,062	-0,020
-707,875	35,066	-0,017	0,011
-706,860	-200,000	0,009	0,121
-705,845	-200,000	-0,007	-0,064
-704,831	48,818	-0,045	0,031
-703,816	459,123	-0,042	-0,068
-702,802	-4,745	0,101	0,051
-701,787	-200,000	-0,014	-0,111
-700,772	-200,000	-0,049	-0,275
-699,758	-200,000	0,015	-0,053
-698,743	95,102	0,071	-0,058
-697,729	96,086	0,104	-0,087
-696,714	36,575	-0,086	-0,055
-695,699	800,000	0,050	-0,148
-694,685	400,544	-0,063	-0,096
-693,670	800,000	-0,087	-0,179
-692,656	-200,000	-0,022	-0,094
-691,641	11,283	-0,099	-0,055
-690,627	173,922	-0,049	0,051
-689,612	655,369	0,040	0,074
-688,597	196,193	-0,021	0,023
-687,583	-49,448	-0,246	-0,084
-686,568	408,248	0,062	0,096
-685,554	16,202	-0,138	0,079
-684,539	-200,000	0,030	0,168
-683,524	800,000	-0,027	0,080
-682,510	-200,000	-0,022	-0,101
-681,495	679,347	-0,031	0,059
-680,481	-200,000	0,001	-0,084
-679,466	800,000	-0,029	-0,080
-678,451	289,618	0,098	-0,129
-677,437	800,000	0,030	0,065
-676,422	-200,000	0,012	-0,046
-675,408	-200,000	0,036	0,126
-674,393	-71,544	-0,106	0,028
-673,378	-39,511	-0,163	-0,062
-672,364	114,834	0,096	-0,085
-671,349	129,807	-0,042	-0,039
-670,335	-200,000	0,049	-0,174
-669,320	90,761	0,062	0,051
-668,305	171,573	0,040	-0,041
-667,291	-96,609	-0,027	-0,005
-666,276	-200,000	0,029	-0,183
-665,262	-60,295	-0,050	-0,015
-664,247	138,040	-0,087	-0,082
-663,232	-129,472	-0,029	0,003
-662,218	-200,000	-0,013	0,048
-661,203	10,780	-0,050	0,028
-660,189	-27,765	-0,077	-0,032
-659,174	324,939	-0,033	0,046
-658,159	-53,854	-0,068	0,022
-657,145	-200,000	0,013	-0,164
-656,130	800,000	0,031	-0,084
-655,116	800,000	-0,071	0,153
-654,101	-18,394	0,114	0,051
-653,086	727,032	0,032	0,062
-652,072	-123,112	0,090	0,010
-651,057	-131,917	-0,139	0,013
-650,043	-34,979	-0,065	-0,026
-649,028	-200,000	-0,012	0,058
-648,014	-120,681	0,164	-0,020
-646,999	-26,548	0,133	0,056
-645,984	-24,344	0,111	0,048
-644,970	-97,962	-0,112	0,021
-643,955	-17,232	-0,060	-0,027
-642,941	334,745	-0,064	-0,090
-641,926	-168,593	-0,101	0,003
-640,911	215,569	-0,099	0,114
-639,897	5,825	0,093	-0,050
-638,882	-200,000	-0,050	-0,165
-637,868	800,000	0,089	-0,184
-636,853	27,644	-0,068	0,041
-635,838	176,380	-0,013	0,014
-634,824	69,002	0,053	-0,039
-633,809	400,787	-0,024	0,036
-632,795	704,656	-0,065	0,125
-631,780	301,172	0,081	0,108
-630,765	394,031	0,041	0,062
-629,751	-28,346	-0,035	-0,015
-628,736	-13,538	-0,044	-0,021
-627,722	800,000	0,044	-0,107
-626,707	-56,788	0,054	0,017
-625,692	-200,000	0,011	0,086
-624,678	-200,000	0,015	-0,124
-623,663	-200,000	-0,027	-0,140
-622,649	-200,000	-0,021	-0,149
-621,634	-200,000	0,022	-0,181
-620,619	330,643	-0,121	-0,169
-619,605	-175,655	0,081	0,002
-618,590	800,000	-0,020	-0,058
-617,576	800,000	0,023	-0,048
-616,561	-200,000	0,028	0,165
-615,546	-6,926	0,080	-0,039
-614,532	800,000	0,020	0,053
-613,517	26,310	-0,092	-0,055
-612,503	21,114	0,091	-0,053
-611,488	-33,767	0,051	-0,020
-610,474	18,546	0,006	0,004
-609,459	-96,134	0,122	-0,023
-608,444	-27,847	-0,080	-0,033
-607,430	-106,777	-0,115	-0,018
-606,415	234,747	-0,039	-0,047
-605,401	-172,183	-0,074	-0,002
-604,386	-31,118	-0,016	0,007
-603,371	256,051	0,094	0,116
-602,357	61,555	-0,121	0,087
-601,342	-200,000	-0,017	0,061
-600,328	72,700	0,069	0,052
-599,313	-55,291	-0,105	-0,034
-598,298	57,788	0,070	-0,050
-597,284	800,000	0,044	-0,110
-596,269	129,276	-0,057	0,053
-595,255	-45,656	-0,051	0,018
-594,240	-200,000	0,032	-0,123
-593,225	106,846	-0,096	-0,083
-592,211	225,804	0,035	-0,041
-591,196	800,000	0,014	-0,043
-590,182	235,579	0,053	0,064
-589,167	140,458	0,117	0,111
-588,152	800,000	0,067	-0,173
-587,138	175,171	-0,032	0,034
-586,123	800,000	-0,030	0,076
-585,109	-124,786	-0,027	0,003
-584,094	482,597	-0,090	0,148
-583,079	-86,886	0,037	-0,008
-582,065	-130,220	-0,071	-0,007
-581,050	800,000	0,021	-0,043
-580,036	360,323	-0,123	0,178
-579,021	-200,000	-0,003	-0,107
-578,006	701,304	-0,096	-0,183
-576,992	800,000	0,029	0,062
-575,977	4,232	-0,065	-0,034
-574,963	-44,910	0,036	-0,013
-573,948	-23,863	-0,043	0,019
-572,934	800,000	-0,019	-0,050
-571,919	-1,484	-0,144	-0,073
-570,904	50,646	-0,152	-0,104
-569,890	-95,602	-0,129	0,025
-568,875	-147,879	0,049	-0,003
-567,861	-100,237	0,168	-0,030
-566,846	447,196	-0,059	-0,095
-565,831	-200,000	-0,009	-0,040
-564,817	10,339	0,062	-0,034
-563,802	335,637	-0,045	0,063
-562,788	800,000	0,047	-0,100
-561,773	115,589	-0,081	-0,072
-560,758	800,000	0,115	0,235
-559,744	-200,000	0,001	0,139
-558,729	14,238	-0,056	-0,031
-557,715	-45,859	0,084	-0,030
-556,700	-82,891	-0,091	-0,021
-555,685	19,347	-0,060	0,035
-554,671	-200,000	-0,016	0,071
-553,656	-200,000	0,015	-0,168
-552,642	380,572	-0,028	-0,042
-551,627	101,084	-0,014	0,012
-550,612	-200,000	0,010	-0,039
-549,598	37,380	-0,135	0,086
-548,583	-82,128	-0,090	0,021
-547,569	153,126	-0,073	-0,072
-546,554	17,221	0,051	0,029
-545,539	142,306	-0,087	0,083
-544,525	159,991	0,087	0,087
-543,510	-200,000	-0,004	0,073
-542,496	3,765	-0,068	0,036
-541,481	-200,000	0,034	-0,120
-540,466	258,499	0,053	-0,066
-539,452	60,196	0,076	0,054
-538,437	-9,257	0,157	0,075
-537,423	-89,880	0,072	0,015
-536,408	100,602	0,081	-0,068
-535,393	459,576	-0,084	-0,136
-534,379	-25,779	0,041	0,017
-533,364	800,000	0,014	0,033
-532,350	-200,000	0,022	0,093
-531,335	41,196	0,153	-0,099
-530,321	-33,911	0,121	0,048
-529,306	-200,000	-0,021	0,074
-528,291	-200,000	-0,001	-0,034
-527,277	800,000	-0,032	-0,085
-526,262	6,545	-0,129	-0,069
-525,248	-129,066	0,083	0,008
-524,233	4,644	-0,016	-0,008
-523,218	-153,089	-0,033	-0,002
-522,204	-200,000	-0,014	0,065
-521,189	-200,000	-0,002	-0,006
-520,175	-200,000	-0,006	-0,025
-519,160	-55,320	-0,084	0,027
-518,145	449,591	-0,053	-0,084
-517,131	281,298	0,058	-0,075
-516,116	29,684	-0,126	0,077
-515,102	571,270	-0,037	0,065
-514,087	67,815	-0,148	-0,109
-513,072	541,782	-0,059	-0,102
-512,058	-200,000	-0,007	0,042
-511,043	-19,246	0,097	-0,043
-510,029	-200,000	-0,038	-0,159
-509,014	800,000	0,035	-0,104
-507,999	289,416	0,032	-0,042
-506,985	437,744	-0,065	-0,102
-505,970	150,567	-0,061	0,060
-504,956	-24,739	-0,085	-0,036
-503,941	286,523	-0,069	0,090
-502,926	243,710	0,073	0,089
-501,912	422,454	-0,037	0,057
-500,897	-2,106	0,071	0,036
-499,883	-55,648	-0,070	0,022
-498,868	605,279	0,054	-0,097
-497,853	-200,000	0,010	-0,078
-496,839	178,788	0,030	0,032
-495,824	-182,316	-0,061	0,001
-494,810	-200,000	0,014	-0,051
-493,795	-200,000	0,003	0,048
-492,781	-58,998	-0,086	-0,026
-491,766	-167,927	0,060	0,002
-490,751	-200,000	-0,008	-0,059
-489,737	-200,000	0,005	0,087
-488,722	-95,309	-0,155	0,030
-487,708	46,216	0,015	-0,010
-486,693	800,000	0,050	-0,135
-485,678	-48,995	0,101	-0,035
-484,664	77,624	0,029	-0,022
-483,649	-100,840	0,065	-0,011
-482,635	-97,080	-0,105	-0,020
-481,620	-200,000	-0,020	0,132
-480,605	800,000	0,051	-0,140
-479,591	800,000	-0,033	0,081
-478,576	98,528	-0,021	0,017
-477,562	-200,000	-0,020	0,077
-476,547	-0,313	-0,135	-0,069
-475,532	-84,723	0,099	-0,022
-474,518	354,620	0,044	0,063
-473,503	39,738	0,073	0,047
-472,489	26,453	0,059	-0,036
-471,474	75,963	0,057	-0,043
-470,459	-60,849	-0,079	-0,024
-469,445	458,842	-0,063	-0,102
-468,430	-200,000	-0,003	-0,061
-467,416	-102,877	-0,061	0,010
-466,401	269,104	0,118	-0,149
-465,386	-112,460	-0,148	0,021
-464,372	199,525	0,006	0,007
-463,357	-200,000	0,008	-0,043
-462,343	-129,217	-0,124	0,012
-461,328	800,000	0,024	-0,074
-460,313	23,921	-0,112	-0,066
-459,299	800,000	0,041	0,123
-458,284	-200,000	-0,009	0,032
-457,270	-106,571	-0,047	-0,008
-456,255	422,693	-0,030	0,047
-455,241	-200,000	0,034	-0,125
-454,226	-36,353	-0,091	0,035
-453,211	426,560	-0,067	0,104
-452,197	800,000	-0,073	0,202
-451,182	-67,905	0,047	-0,013
-450,168	1,542	0,029	-0,015
-449,153	543,716	-0,024	-0,042
-448,138	-200,000	0,020	-0,078
-447,124	136,470	0,090	-0,085
-446,109	674,426	0,041	0,077
-445,095	120,816	0,056	-0,050
-444,080	-200,000	0,013	0,063
-443,065	-200,000	0,005	-0,036
-442,051	-121,992	0,046	-0,005
-441,036	-52,026	-0,112	-0,037
-440,022	456,257	-0,059	-0,095
-439,007	-200,000	0,024	-0,128
-437,992	-40,661	0,174	-0,065
-436,978	800,000	-0,024	0,077
-435,963	-54,649	0,106	-0,034
-434,949	-6,471	-0,051	0,025
-433,934	-200,000	-0,010	-0,084
-432,919	47,816	0,143	0,096
-431,905	127,442	-0,125	-0,114
-430,890	-57,294	0,100	-0,031
-429,876	-52,360	-0,067	0,022
-428,861	-106,255	-0,082	-0,013
-427,846	444,303	-0,020	-0,031
-426,832	-156,864	0,054	-0,002
-425,817	494,828	0,043	-0,070
-424,803	-200,000	-0,001	-0,051
-423,788	-144,253	0,134	0,009
-422,773	800,000	0,051	0,145
-421,759	71,671	-0,128	0,095
-420,744	-39,822	0,076	0,029
-419,730	84,380	-0,057	-0,045
-418,715	799,303	0,054	-0,108
-417,701	-200,000	0,028	0,094
-416,686	31,376	0,088	0,054
-415,671	800,000	0,002	-0,007
-414,657	74,693	-0,113	0,085
-413,642	-87,016	0,041	-0,009
-412,628	800,000	-0,028	0,087
-411,613	800,000	-0,015	0,046
-410,598	8,158	-0,175	0,094
-409,584	10,086	0,048	-0,026
-408,569	800,000	0,084	0,220
-407,555	157,838	0,072	0,072
-406,540	-200,000	-0,002	0,035
-405,525	250,445	0,078	-0,095
-404,511	102,104	0,076	0,064
-403,496	-134,246	0,075	-0,007
-402,482	423,699	0,031	0,048
-401,467	800,000	0,051	-0,138
-400,452	-74,750	0,070	-0,018
-399,438	-200,000	-0,028	-0,108
-398,423	-200,000	0,011	-0,039
-397,409	800,000	0,036	0,102
-396,394	-200,000	-0,004	-0,053
-395,379	-52,623	-0,090	0,030
-394,365	511,182	0,039	-0,065
-393,350	-200,000	-0,003	0,016
-392,336	-14,101	0,181	-0,083
-391,321	-157,870	-0,078	-0,003
-390,306	113,519	-0,030	-0,026
-389,292	374,061	-0,052	-0,077
-388,277	-118,068	0,159	-0,020
-387,263	-130,944	-0,118	-0,011
-386,248	800,000	-0,019	0,044
-385,233	-133,153	0,143	-0,013
-384,219	-200,000	0,006	-0,051
-383,204	222,827	-0,075	-0,087
-382,190	-32,708	-0,099	0,039
-381,175	280,967	0,022	-0,028
-380,160	203,974	0,070	0,077
-379,146	-66,094	0,040	0,011
-378,131	800,000	-0,059	0,186
-377,117	14,677	0,130	0,073
-376,102	259,289	-0,061	-0,076
-375,088	93,406	-0,073	0,059
-374,073	83,007	0,050	0,039
-373,058	-200,000	-0,001	0,179
-372,044	47,948	0,017	0,011
-371,029	62,763	0,058	-0,042
-370,015	-11,060	-0,066	0,031
-369,000	-78,299	-0,114	-0,028
-367,985	-200,000	-0,011	-0,093
-366,971	-200,000	-0,013	0,078
-365,956	361,634	-0,069	0,100
-364,942	-140,238	-0,087	0,006
-363,927	-73,349	0,078	-0,020
-362,912	-76,153	-0,117	-0,029
-361,898	14,522	0,090	-0,050
-360,883	339,804	0,094	-0,131
-359,869	-11,438	0,033	0,015
-358,854	-200,000	0,001	0,201
-357,839	-200,000	0,008	0,130
-356,825	74,491	0,059	0,044
-355,810	-126,542	-0,055	0,006
-354,796	-200,000	0,019	0,077
-353,781	219,083	-0,038	0,043
-352,766	-200,000	-0,005	0,077
-351,752	-147,872	0,133	0,008
-350,737	247,419	0,087	0,106
-349,723	609,134	0,055	0,099
-348,708	41,463	0,087	0,056
-347,693	244,838	-0,034	0,041
-346,679	-200,000	-0,037	-0,170
-345,664	-200,000	0,046	-0,161
-344,650	67,380	0,116	-0,085
-343,635	137,144	0,080	0,075
-342,620	147,899	-0,043	0,041
-341,606	290,395	0,021	-0,028
-340,591	-17,391	0,134	0,060
-339,577	220,249	-0,014	0,016
-338,562	-200,000	-0,040	-0,136
-337,548	20,760	0,135	0,078
-336,533	-159,864	0,167	0,006
-335,518	614,090	-0,110	0,198
-334,504	-200,000	-0,013	0,075
-333,489	-200,000	0,001	-0,121
-332,475	65,261	-0,155	-0,112
-331,460	-94,492	-0,155	-0,030
-330,445	-85,939	0,109	0,024
-329,431	-0,590	-0,125	-0,063
-328,416	-108,281	0,133	0,020
-327,402	-121,258	-0,025	-0,003
-326,387	800,000	0,043	0,136
-325,372	-56,990	-0,081	0,025
-324,358	361,385	0,061	-0,088
-323,343	43,059	-0,033	0,022
-322,329	-91,544	0,040	0,008
-321,314	169,860	0,142	0,145
-320,299	800,000	-0,027	0,079
-319,285	-200,000	0,015	0,065
-318,270	-200,000	0,007	-0,142
-317,256	376,612	-0,069	-0,101
-316,241	397,371	-0,018	0,027
-315,226	341,886	-0,103	0,144
-314,212	-200,000	0,046	0,149
-313,197	374,619	0,026	0,038
-312,183	32,265	-0,136	-0,084
-311,168	145,612	0,057	0,054
-310,153	-196,279	0,041	0,000
-309,139	-34,055	-0,168	-0,066
-308,124	112,370	0,129	0,111
-307,110	698,653	0,064	0,121
-306,095	-0,104	0,035	0,018
-305,080	-32,684	-0,028	0,011
-304,066	170,513	0,030	0,031
-303,051	-200,000	-0,016	0,114
-302,037	-200,000	0,017	-0,076
-301,022	-200,000	-0,012	0,116
-300,008	-45,360	-0,088	0,031
-298,993	256,859	0,066	0,081
-297,978	145,452	0,123	0,118
-296,964	800,000	-0,029	-0,086
-295,949	800,000	-0,025	0,061
-294,935	-63,736	0,133	0,039
-293,920	-74,285	0,130	-0,033
-292,905	27,614	-0,042	-0,025
-291,891	35,868	-0,066	0,041
-290,876	800,000	-0,005	-0,013
-289,862	205,607	-0,066	0,073
-288,847	113,216	0,040	-0,035
-287,832	-200,000	-0,002	-0,045
-286,818	-52,699	0,116	0,038
-285,803	-105,869	0,107	0,017
-284,789	800,000	0,015	-0,047
-283,774	-59,099	0,023	0,007
-282,759	-200,000	-0,000	-0,103
-281,745	7,257	-0,045	-0,024
-280,730	72,609	-0,105	-0,078
-279,716	-0,897	-0,083	0,042
-278,701	15,096	0,123	-0,069
-277,686	-21,839	0,113	0,049
-276,672	-8,908	-0,062	-0,030
-275,657	800,000	0,060	-0,125
-274,643	-69,234	-0,128	0,035
-273,628	48,970	-0,064	0,043
-272,613	-172,394	-0,070	0,002
-271,599	13,500	0,074	0,041
-270,584	708,234	-0,064	0,121
-269,570	800,000	0,020	0,052
-268,555	-36,128	0,034	0,013
-267,540	-200,000	0,019	0,096
-266,526	800,000	0,015	-0,035
-265,511	-200,000	-0,037	-0,130
-264,497	211,921	0,035	-0,039
-263,482	-200,000	0,035	0,135
-262,467	-200,000	0,021	-0,111
-261,453	56,650	-0,108	0,075
-260,438	788,779	-0,044	-0,086
-259,424	-200,000	0,019	-0,062
-258,409	-200,000	0,012	0,051
-257,395	-112,603	-0,019	-0,003
-256,380	-176,699	0,149	-0,003
-255,365	-46,192	0,096	0,033
-254,351	109,704	-0,055	0,047
-253,336	800,000	-0,024	0,052
-252,322	800,000	-0,049	-0,139
-251,307	-67,081	0,089	0,025
-250,292	800,000	-0,060	-0,130
-249,278	436,674	0,023	-0,035
-248,263	-200,000	-0,008	0,124
-247,249	-200,000	-0,003	0,213
-246,234	177,690	0,038	0,039
-245,219	-75,041	-0,044	-0,011
-244,205	675,802	-0,064	0,120
-243,190	19,228	-0,064	0,037
-242,176	-40,910	-0,107	-0,039
-241,161	91,264	-0,018	-0,014
-240,146	-128,077	0,117	0,012
-239,132	-67,620	0,051	0,014
-238,117	50,464	-0,102	-0,069
-237,103	225,347	-0,051	-0,059
-236,088	-200,000	0,052	-0,196
-235,073	-68,495	-0,062	0,017
-234,059	746,115	0,076	0,147
-233,044	373,844	-0,044	0,063
-232,030	143,649	0,068	-0,065
-231,015	-200,000	0,022	-0,073
-230,000	-200,000	0,003	-0,032
-228,986	800,000	0,075	-0,167
-227,971	-32,428	0,057	0,023
-226,957	-108,470	0,188	0,028
-225,942	-45,833	0,069	0,024
-224,927	245,309	0,077	0,092
-223,913	30,193	-0,062	-0,038
-222,898	229,340	-0,047	0,055
-221,884	604,449	0,023	-0,041
-220,869	-200,000	0,037	0,149
-219,855	-200,000	-0,007	0,069
-218,840	-107,397	-0,092	0,014
-217,825	-200,000	0,038	0,147
-216,811	42,634	-0,135	-0,088
-215,796	-116,769	-0,216	-0,028
-214,782	-200,000	0,002	0,037
-213,767	800,000	0,045	0,112
-212,752	19,269	0,130	0,074
-211,738	-155,504	0,090	-0,004
-210,723	-200,000	0,038	0,193
-209,709	-159,076	-0,097	-0,004
-208,694	483,028	-0,043	-0,070
-207,679	297,285	0,041	-0,054
-206,665	285,413	0,056	-0,072
-205,650	209,166	0,048	-0,053
-204,636	58,955	0,206	0,144
-203,621	-200,000	0,047	0,152
-202,606	90,900	-0,144	0,115
-201,592	-160,117	0,030	-0,001
-200,577	6,287	-0,063	-0,033
-199,563	88,103	-0,099	0,078
-198,548	238,008	-0,077	0,091
-197,533	-125,879	-0,144	-0,015
-196,519	-40,392	0,014	0,005
-195,504	120,682	0,057	0,050
-194,490	143,342	-0,022	0,020
-193,475	-200,000	-0,009	0,040
-192,460	620,809	0,020	-0,036
-191,446	-57,903	-0,060	-0,018
-190,431	800,000	-0,039	0,103
-189,417	-92,265	0,061	-0,012
-188,402	195,320	-0,010	0,011
-187,387	33,123	-0,127	-0,078
-186,373	-43,862	-0,062	-0,022
-185,358	157,129	-0,038	-0,038
-184,344	-105,234	0,084	-0,014
-183,329	60,540	-0,047	0,033
-182,315	-101,208	-0,134	-0,023
-181,300	-12,822	-0,059	-0,027
-180,285	800,000	-0,049	-0,102
-179,271	277,621	-0,091	-0,115
-178,256	-200,000	0,015	-0,122
-177,242	-20,726	-0,123	-0,054
-176,227	800,000	0,038	-0,109
-175,212	367,709	-0,026	-0,038
-174,198	167,400	0,037	0,038
-173,183	362,676	-0,059	-0,084
-172,169	-5,465	0,131	-0,064
-171,154	-200,000	-0,007	0,023
-170,139	800,000	0,025	0,070
-169,125	-65,976	0,046	0,013
-168,110	-200,000	0,003	0,091
-167,096	-47,547	-0,088	-0,030
-166,081	-112,414	0,079	0,011
-165,066	16,743	0,127	-0,071
-164,052	-200,000	0,003	0,045
-163,037	-200,000	-0,026	-0,098
-162,023	72,574	0,034	0,025
-161,008	373,816	-0,031	-0,044
-159,993	-45,125	0,060	0,021
-158,979	-2,654	-0,074	-0,037
-157,964	800,000	-0,041	-0,118
-156,950	66,432	0,065	-0,047
-155,935	-74,040	0,074	-0,019
-154,920	-48,693	-0,052	-0,018
-153,906	-144,216	-0,072	0,005
-152,891	-139,622	-0,027	0,002
-151,877	52,005	-0,036	-0,024
-150,862	800,000	0,019	-0,044
-149,847	464,470	0,068	-0,108
-148,833	106,899	0,038	0,032
-147,818	78,264	0,069	0,052
-146,804	-200,000	0,032	0,124
-145,789	-200,000	0,003	0,193
-144,775	81,306	0,038	0,029
-143,760	-200,000	0,025	-0,098
-142,745	136,118	-0,034	-0,032
-141,731	112,986	-0,037	0,032
-140,716	253,456	0,054	0,066
-139,702	-15,318	-0,088	0,040
-138,687	-8,906	0,097	0,046
-137,672	800,000	0,029	-0,071
-136,658	-111,476	-0,196	-0,028
-135,643	532,601	0,065	-0,110
-134,629	-200,000	-0,028	-0,150
-133,614	-200,000	-0,027	-0,146
-132,599	-200,000	-0,008	0,050
-131,585	-200,000	0,015	0,106
-130,570	-200,000	0,009	0,132
-129,556	55,325	0,045	-0,031
-128,541	800,000	-0,054	-0,108
-127,526	480,692	-0,073	-0,119
-126,512	189,317	-0,063	0,068
-125,497	-50,327	0,172	0,057
-124,483	-200,000	0,010	-0,143
-123,468	800,000	-0,034	0,104
-122,453	464,017	-0,058	0,092
-121,439	312,178	0,014	0,019
-120,424	32,293	-0,018	-0,011
-119,410	-200,000	-0,014	0,086
-118,395	-55,390	0,091	0,029
-117,380	76,638	-0,033	0,025
-116,366	3,155	0,073	0,037
-115,351	30,739	-0,146	-0,088
-114,337	-200,000	-0,018	-0,098
-113,322	-104,275	0,018	-0,003
-112,307	-200,000	0,012	0,139
-111,293	800,000	-0,013	-0,040
-110,278	-62,811	0,150	0,044
-109,264	800,000	-0,025	0,057
-108,249	338,836	-0,039	0,054
-107,234	-126,973	0,047	-0,005
-106,220	122,239	-0,066	-0,058
-105,205	-56,570	0,149	-0,047
-104,191	-200,000	0,016	-0,063
-103,176	62,998	-0,135	0,096
-102,162	205,385	-0,009	-0,010
-101,147	800,000	0,009	-0,024
-100,132	-168,717	-0,105	-0,003
-99,118	-150,794	-0,080	-0,004
-98,103	-66,271	-0,013	-0,004
-97,089	328,581	-0,058	-0,079
-96,074	-80,121	0,091	0,021
-95,059	-98,210	-0,101	0,018
-94,045	-153,860	0,026	-0,001
-93,030	-123,570	-0,083	0,009
-92,016	570,006	0,041	0,070
-91,001	-200,000	0,004	0,047
-89,986	51,148	0,072	0,048
-88,972	-200,000	0,022	0,135
-87,957	179,937	0,095	-0,099
-86,943	800,000	-0,037	0,082
-85,928	221,408	-0,030	0,034
-84,913	-200,000	-0,027	-0,118
-83,899	255,239	-0,083	-0,100
-82,884	-200,000	0,034	-0,128
-81,870	-200,000	0,009	0,051
-80,855	-108,270	-0,088	0,013
-79,840	48,998	0,088	-0,058
-78,826	-44,186	0,031	0,011
-77,811	-144,994	-0,037	-0,002
-76,797	540,081	-0,046	-0,078
-75,782	-200,000	-0,010	-0,063
-74,767	-200,000	-0,016	0,062
-73,753	74,873	0,076	0,057
-72,738	-200,000	-0,017	-0,074
-71,724	-14,093	-0,003	-0,001
-70,709	-200,000	-0,031	-0,106
-69,694	-21,647	-0,154	-0,066
-68,680	40,301	-0,045	0,029
-67,665	-133,052	-0,061	0,005
-66,651	-93,798	-0,083	0,016
-65,636	-200,000	0,015	0,073
-64,622	-45,501	-0,115	-0,040
-63,607	-200,000	-0,021	-0,067
-62,592	-200,000	0,002	0,036
-61,578	-200,000	-0,010	0,036
-60,563	467,585	0,063	-0,101
-59,549	108,887	-0,059	-0,050
-58,534	-42,030	-1,508	-0,544
-57,519	354,546	-1,516	-2,140
-56,505	-200,000	-0,585	-4,507
-55,490	174,072	0,968	0,992
-54,476	800,000	4,900	11,310
-53,461	-200,000	18,371	286,448
-52,446	800,000	727,161	2224,349
-51,432	553,836	1642,958	2808,494
-50,417	79,325	1665,140	1262,889
-49,403	22,936	1539,071	891,284
-48,388	16,940	1462,200	817,738
-47,373	17,843	1452,180	816,451
-46,359	17,312	1442,446	808,405
-45,344	15,260	1437,884	796,023
-44,330	15,113	1436,095	794,299
-43,315	15,141	1434,187	793,345
-42,300	15,197	1432,660	792,736
-41,286	15,187	1431,604	792,074
-40,271	15,194	1430,220	791,310
-39,257	15,163	1429,050	790,485
-38,242	15,209	1427,761	789,957
-37,227	15,251	1426,302	789,317
-36,213	15,201	1425,400	788,551
-35,198	15,278	1423,716	787,952
-34,184	15,262	1422,954	787,425
-33,169	15,169	1421,910	786,377
-32,154	15,205	1420,760	785,877
-31,140	15,213	1419,496	785,183
-30,125	15,236	1418,581	784,756
-29,111	15,205	1417,217	783,823
-28,096	15,163	1416,171	783,016
-27,082	15,123	1415,006	782,154
-26,067	15,178	1413,961	781,805
-25,052	15,160	1412,706	780,993
-24,038	15,106	1411,812	780,215
-23,023	15,087	1410,924	779,603
-22,009	15,095	1409,998	779,101
-20,994	15,093	1409,024	778,522
-19,979	15,103	1407,953	777,945
-18,965	15,039	1407,056	777,118
-17,950	15,022	1406,095	776,480
-16,936	15,090	1404,977	776,149
-15,921	15,008	1404,158	775,285
-14,906	15,006	1403,152	774,685
-13,892	15,026	1402,249	774,249
-12,877	15,058	1401,203	773,791
-11,863	15,000	1400,359	773,026
-10,848	15,015	1399,442	772,559
-9,833	14,992	1398,635	771,975
-8,819	14,945	1397,777	771,250
-7,804	14,958	1396,820	770,753
-6,790	14,959	1395,654	770,087
-5,775	14,927	1394,727	769,394
-4,760	14,935	1393,975	768,985
-3,746	14,918	1392,974	768,324
-2,731	14,935	1392,148	767,920
-1,717	14,897	1391,491	767,350
-0,702	14,918	1389,440	766,284
0,313	18,726	1308,711	739,382
1,327	35,011	707,161	437,278
2,342	53,108	124,955	84,523
3,356	2,959	16,588	8,497
4,371	-4,417	3,117	1,519
5,386	-78,030	0,655	0,158
6,400	-200,000	0,064	0,238
7,415	50,552	-0,263	-0,176
8,429	116,036	-0,344	-0,298
9,444	105,305	-0,332	-0,277
10,459	71,301	-0,273	-0,200
11,473	-33,134	-0,378	-0,148
12,488	-21,996	-0,211	-0,090
13,502	-91,640	-0,374	-0,075
14,517	146,611	-0,304	-0,289
15,531	59,933	-0,401	-0,280
16,546	52,429	-0,211	-0,142
17,561	51,058	-0,370	-0,247
18,575	78,257	-0,223	-0,168
19,590	434,816	-0,067	-0,104
20,604	-88,703	-0,251	-0,052
21,619	72,385	-0,353	-0,260
22,634	67,017	-0,468	-0,336
23,648	92,807	-0,433	-0,345
24,663	113,703	-0,364	-0,313
25,677	70,844	-0,290	-0,212
26,692	33,957	-0,262	-0,161
27,707	-0,481	-0,371	-0,185
28,721	93,260	-0,380	-0,303
29,736	80,908	-0,386	-0,294
30,750	120,147	-0,382	-0,334
31,765	52,732	-0,523	-0,352
32,780	55,193	-0,421	-0,287
33,794	20,250	-0,342	-0,194
34,809	136,642	-0,252	-0,232
35,823	76,076	-0,345	-0,258
36,838	54,879	-0,448	-0,305
37,853	-21,546	-0,407	-0,174
38,867	142,852	-0,322	-0,302
39,882	104,313	-0,394	-0,327
40,896	23,602	-0,383	-0,222
41,911	135,341	-0,340	-0,312
42,926	-28,751	-0,426	-0,172
43,940	69,557	-0,420	-0,304
44,955	27,301	-0,482	-0,285
45,969	159,098	-0,326	-0,320
46,984	148,937	-0,226	-0,216
47,999	97,345	-0,297	-0,240
49,013	72,752	-0,235	-0,173
50,028	48,693	-0,264	-0,174
51,042	61,072	-0,455	-0,318
52,057	88,380	-0,334	-0,261
53,071	33,505	-0,346	-0,211
54,086	-6,439	-0,363	-0,174
55,101	103,681	-0,296	-0,245
56,115	341,745	-0,233	-0,322
57,130	10,842	-0,335	-0,180
58,144	19,554	-0,385	-0,218
59,159	125,583	-0,323	-0,287
60,174	49,605	-0,409	-0,271
61,188	109,580	-0,363	-0,307
62,203	-53,701	-0,368	-0,118
63,217	-10,110	-0,429	-0,200
64,232	24,179	-0,346	-0,201
65,247	88,603	-0,330	-0,258
66,261	40,918	-0,339	-0,215
67,276	129,759	-0,407	-0,366
68,290	43,406	-0,403	-0,258
69,305	15,859	-0,326	-0,180
70,320	38,312	-0,263	-0,165
71,334	192,082	-0,189	-0,200
72,349	-128,416	-0,354	-0,035
73,363	209,317	-0,340	-0,375
74,378	114,433	-0,343	-0,294
75,393	174,381	-0,225	-0,229
76,407	319,272	-0,208	-0,278
77,422	128,547	-0,314	-0,281
78,436	184,197	-0,311	-0,324
79,451	11,992	-0,389	-0,209
80,466	-9,507	-0,168	-0,079
81,480	22,566	-0,236	-0,135
82,495	80,549	-0,312	-0,236
83,509	-25,670	-0,262	-0,108
84,524	-62,174	-0,257	-0,075
85,539	-10,107	-0,392	-0,182
86,553	95,399	-0,285	-0,228
87,568	350,436	-0,271	-0,377
88,582	-70,487	-0,478	-0,126
89,597	40,453	-0,304	-0,192
90,611	-77,963	-0,359	-0,086
91,626	53,586	-0,235	-0,158
92,641	89,826	-0,238	-0,187
93,655	-73,104	-0,289	-0,074
94,670	165,322	-0,292	-0,290
95,684	53,141	-0,438	-0,294
96,699	111,950	-0,225	-0,191
97,714	153,507	-0,188	-0,181
98,728	142,022	-0,236	-0,220
99,743	-87,254	-0,316	-0,067
100,757	-10,456	-0,258	-0,119
101,772	-59,634	-0,301	-0,090
102,787	77,046	-0,334	-0,248
103,801	30,977	-0,306	-0,184
104,816	343,708	-0,160	-0,220
105,830	230,472	-0,194	-0,223
106,845	25,449	-0,133	-0,078
107,860	112,765	-0,242	-0,205
108,874	208,628	-0,272	-0,299
109,889	37,087	-0,354	-0,219
110,903	644,570	-0,160	-0,287
111,918	44,511	-0,282	-0,181
112,933	-52,080	-0,312	-0,101
113,947	-97,186	-0,282	-0,051
114,962	-17,438	-0,276	-0,121
115,976	332,783	-0,193	-0,262
116,991	75,859	-0,262	-0,194
118,006	-12,996	-0,328	-0,149
119,020	553,051	-0,185	-0,312
120,035	-33,613	-0,213	-0,082
121,049	154,494	-0,154	-0,148
122,064	182,533	-0,264	-0,273
123,079	205,506	-0,194	-0,211
124,093	433,748	-0,197	-0,301
125,108	360,218	-0,248	-0,349
126,122	131,722	-0,220	-0,198
127,137	508,368	-0,132	-0,215
128,151	137,132	-0,153	-0,140
129,166	-189,425	-0,226	-0,002
130,181	301,636	-0,144	-0,187
131,195	30,687	-0,290	-0,173
132,210	13,785	-0,269	-0,146
133,224	6,984	-0,273	-0,142
134,239	41,350	-0,189	-0,119
135,254	345,347	-0,162	-0,223
136,268	62,615	-0,209	-0,146
137,283	800,000	-0,086	-0,217
138,297	92,974	-0,346	-0,273
139,312	91,205	-0,272	-0,213
140,327	-9,156	-0,392	-0,183
141,341	127,299	-0,214	-0,190
142,356	115,841	-0,199	-0,170
143,370	-119,570	-0,215	-0,026
144,385	140,058	-0,270	-0,249
145,400	-44,087	-0,272	-0,095
146,414	-89,714	-0,146	0,030
147,429	-0,100	-0,275	-0,136
148,443	109,125	-0,243	-0,203
149,458	384,714	-0,180	-0,260
150,473	152,394	-0,159	-0,152
151,487	63,318	-0,286	-0,200
152,502	-36,484	-0,271	-0,101
153,516	72,080	-0,188	-0,136
154,531	16,441	-0,304	-0,167
155,546	31,081	-0,210	-0,125
156,560	164,883	-0,225	-0,222
157,575	800,000	-0,082	-0,202
158,589	432,978	-0,174	-0,264
159,604	60,579	-0,180	-0,124
160,619	-0,877	-0,338	-0,166
161,633	-74,518	-0,188	-0,047
162,648	-36,501	-0,288	-0,107
163,662	3,921	-0,296	-0,151
164,677	-122,669	-0,356	-0,040
165,692	52,252	-0,164	-0,109
166,706	205,831	-0,149	-0,162
167,721	-10,680	-0,251	-0,115
168,735	156,183	-0,225	-0,216
169,750	180,905	-0,281	-0,288
170,764	-14,691	-0,283	-0,126
171,779	65,290	-0,146	-0,103
172,794	-34,091	-0,090	0,034
173,808	-86,165	-0,167	-0,035
174,823	800,000	-0,140	-0,289
175,837	67,138	-0,343	-0,243
176,852	255,942	-0,201	-0,240
177,867	118,054	-0,148	-0,127
178,881	534,315	-0,149	-0,246
179,896	25,253	-0,269	-0,155
180,910	800,000	-0,135	-0,348
181,925	50,003	-0,218	-0,143
182,940	260,613	-0,239	-0,288
183,954	71,440	-0,198	-0,143
184,969	-200,000	-0,068	-0,241
185,983	151,941	-0,195	-0,186
186,998	30,069	-0,212	-0,126
188,013	-16,475	-0,224	-0,099
189,027	156,485	-0,186	-0,179
190,042	17,439	-0,219	-0,120
191,056	-10,476	-0,294	-0,135
192,071	93,960	-0,152	0,120
193,086	232,786	-0,145	-0,167
194,100	39,278	-0,227	-0,141
195,115	130,745	-0,155	-0,138
196,129	3,825	-0,206	-0,105
197,144	108,315	-0,158	-0,131
198,159	89,515	-0,241	-0,187
199,173	84,215	-0,190	-0,145
200,188	-73,234	-0,116	-0,029
201,202	128,988	-0,139	-0,123
202,217	292,936	-0,201	-0,256
203,232	125,488	-0,214	-0,188
204,246	158,483	-0,232	-0,224
205,261	142,613	-0,217	-0,200
206,275	-3,514	-0,239	-0,115
207,290	60,243	-0,169	-0,116
208,304	199,031	-0,019	-0,021
209,319	-142,707	-0,232	0,016
210,334	28,124	-0,219	-0,128
211,348	213,585	-0,160	-0,176
212,363	-43,892	-0,314	-0,109
213,377	768,797	-0,106	-0,201
214,392	-20,143	-0,199	-0,085
215,407	44,992	-0,288	-0,184
216,421	43,480	-0,240	-0,152
217,436	94,902	-0,126	-0,099
218,450	160,643	-0,203	-0,196
219,465	146,067	-0,198	-0,184
220,480	-24,117	-0,201	-0,083
221,494	380,657	-0,157	-0,224
222,509	120,355	-0,205	-0,176
223,523	103,672	-0,166	-0,135
224,538	18,935	-0,158	-0,088
225,553	50,486	-0,186	-0,122
226,567	-10,608	-0,262	-0,120
227,582	-15,882	-0,269	-0,118
228,596	-200,000	-0,035	-0,148
229,611	189,044	-0,182	-0,189
230,626	291,119	-0,164	-0,207
231,640	51,871	-0,267	-0,176
232,655	799,809	-0,108	-0,207
233,669	83,480	-0,294	-0,222
234,684	479,492	-0,140	-0,220
235,699	-36,472	-0,090	-0,033
236,713	-34,057	-0,292	-0,111
237,728	173,343	-0,138	-0,138
238,742	-88,337	-0,173	-0,035
239,757	5,868	-0,201	-0,103
240,772	123,924	-0,226	-0,196
241,786	-137,793	-0,246	-0,019
242,801	128,256	-0,157	-0,138
243,815	148,824	-0,197	-0,184
244,830	-200,000	0,015	-0,261
245,844	-200,000	0,003	-0,079
246,859	-148,059	-0,156	-0,009
247,874	-34,566	-0,325	-0,123
248,888	160,772	-0,175	-0,170
249,903	14,056	-0,116	-0,062
250,917	-200,000	-0,031	-0,250
251,932	131,066	-0,147	-0,131
252,947	69,557	-0,098	-0,070
253,961	-181,185	-0,184	0,002
254,976	159,993	-0,161	-0,156
255,990	423,920	-0,127	-0,189
257,005	11,736	-0,299	-0,158
258,020	-24,288	-0,109	-0,045
259,034	-117,124	-0,111	-0,014
260,049	-0,446	-0,141	-0,069
261,063	21,765	-0,173	-0,097
262,078	131,659	-0,250	-0,223
263,093	-101,500	-0,207	-0,035
264,107	95,805	-0,278	-0,219
265,122	51,016	-0,143	-0,093
266,136	-112,272	-0,127	0,017
267,151	-90,915	-0,143	-0,028
268,166	676,759	-0,053	-0,095
269,180	268,820	-0,154	-0,187
270,195	-66,181	-0,178	0,049
271,209	-115,293	-0,233	-0,030
272,224	-155,169	-0,115	-0,005
273,239	-158,487	-0,073	0,003
274,253	-15,038	-0,199	-0,088
275,268	-71,031	-0,245	-0,063
276,282	306,453	-0,177	-0,228
277,297	333,612	-0,149	-0,199
278,312	-137,963	-0,174	-0,013
279,326	-57,238	-0,183	-0,055
280,341	-71,054	-0,129	0,033
281,355	220,415	-0,160	-0,178
282,370	18,107	-0,163	-0,090
283,384	539,160	-0,114	-0,188
284,399	346,751	-0,204	-0,278
285,414	800,000	-0,085	-0,170
286,428	-200,000	-0,055	-0,310
287,443	420,467	-0,049	-0,073
288,457	-111,607	-0,062	0,009
289,472	11,943	-0,199	-0,105
290,487	-57,058	-0,118	-0,036
291,501	-34,341	-0,198	-0,074
292,516	-200,000	-0,024	-0,239
293,530	-189,903	-0,205	0,002
294,545	739,812	-0,098	-0,182
295,560	-40,566	-0,203	-0,072
296,574	-35,453	-0,064	0,024
297,589	-13,798	-0,190	-0,084
298,603	599,369	-0,120	-0,206
299,618	543,457	-0,116	-0,191
300,633	87,377	-0,199	-0,152
301,647	-31,116	-0,114	-0,044
302,662	6,577	-0,127	-0,065
303,676	-83,591	-0,137	-0,030
304,691	-169,707	-0,244	-0,006
305,706	-51,088	-0,241	-0,078
306,720	243,908	-0,173	-0,200
307,735	-156,479	-0,147	0,006
308,749	-152,921	-0,116	-0,006
309,764	553,238	-0,046	-0,076
310,779	571,478	-0,093	-0,156
311,793	-90,721	-0,201	-0,040
312,808	53,987	-0,214	-0,142
313,822	141,855	-0,183	-0,167
314,837	-49,100	-0,162	-0,053
315,852	129,783	-0,091	-0,080
316,866	-37,498	-0,106	0,039
317,881	-107,064	-0,208	-0,031
318,895	-10,100	-0,151	-0,069
319,910	191,436	-0,229	-0,237
320,925	21,563	-0,091	-0,051
321,939	85,095	-0,168	-0,127
322,954	229,871	-0,034	0,038
323,968	-105,767	0,077	-0,012
324,983	370,973	-0,032	-0,044
325,997	287,372	-0,081	-0,101
327,012	-182,756	-0,144	-0,002
328,027	11,504	-0,032	-0,017
329,041	-135,126	-0,172	-0,014
330,056	-126,271	-0,172	-0,017
331,070	-158,721	-0,151	-0,006
332,085	-14,724	-0,072	0,032
333,100	674,994	-0,070	-0,126
334,114	423,111	-0,131	-0,194
335,129	66,463	-0,111	-0,077
336,143	-150,115	-0,094	-0,005
337,158	81,309	-0,100	-0,075
338,173	-200,000	-0,043	-0,170
339,187	-137,810	-0,231	-0,018
340,202	800,000	-0,036	-0,102
341,216	337,246	-0,093	-0,125
342,231	-135,882	-0,135	-0,011
343,246	-200,000	-0,027	-0,225
344,260	-86,534	-0,148	-0,031
345,275	800,000	-0,058	-0,126
346,289	136,445	-0,086	-0,077
347,304	76,236	-0,138	-0,100
348,319	800,000	-0,039	-0,099
349,333	800,000	-0,088	-0,187
350,348	146,868	-0,031	-0,028
351,362	-59,306	-0,098	-0,029
352,377	-61,617	-0,038	-0,011
353,392	26,429	-0,085	-0,049
354,406	-103,100	-0,177	-0,028
355,421	208,175	1316,307	1413,090
356,435	160,164	1477,261	1413,595
