DTS Sentinel unit serial number:	SN410029Multiplexer serial number:	ORYXHardware model number:	OX2-SRSoftware version number:	ORYX F/W v4,00 Oryx Data Collector v3.7.2.0data status	okinstallation	B3 Nyhavnadifferential loss correction	single-endedforward channel	channel 1reverse channel	N/Adate	2023/12/02time	01:42:30forward acquisition time	300,00reverse acquisition time	0,00gamma	499,1914k internal	0,3195k external	0,3195temperature offset calibration	1,0000default loss term (dB/km)	0,3820temperature slope calibration	1,0000multiplexer offset coefficient	1,0000multiplexer slope coefficient	1,0000fibre end	0,00T internal ref (°C)	16,55T ext. ref 1 (°C)	1,89T ext. ref 2 (°C)	1,87length (m)	temperature (°C)	Stokes	anti-Stokes-744,400	179,255	-0,163	-0,174
-743,385	-200,000	-0,028	0,513
-742,371	54,611	-0,088	-0,061
-741,356	800,000	-0,073	0,213
-740,342	-21,876	-0,362	-0,160
-739,327	-200,000	0,113	0,489
-738,312	207,953	-0,278	-0,317
-737,298	292,725	0,161	0,214
-736,283	228,619	-0,178	-0,212
-735,269	-200,000	0,030	0,399
-734,254	269,158	-0,134	-0,172
-733,239	483,356	-0,170	0,283
-732,225	800,000	-0,070	-0,205
-731,210	-20,259	0,111	0,050
-730,196	360,680	-0,078	-0,114
-729,181	122,705	0,039	-0,035
-728,167	-59,538	-0,076	0,023
-727,152	-200,000	0,009	-0,088
-726,137	365,408	-0,059	-0,087
-725,123	800,000	-0,044	0,116
-724,108	-49,118	-0,215	0,074
-723,094	-106,596	-0,147	-0,024
-722,079	-200,000	-0,017	-0,158
-721,064	55,093	0,144	0,101
-720,050	-114,538	-0,068	0,009
-719,035	-31,096	-0,170	-0,070
-718,021	-150,989	-0,119	0,006
-717,006	800,000	0,044	-0,092
-715,991	-106,811	-0,104	-0,017
-714,977	-200,000	0,005	-0,021
-713,962	642,395	-0,031	-0,058
-712,948	-200,000	-0,005	-0,079
-711,933	128,174	0,076	0,070
-710,918	-71,352	-0,037	-0,010
-709,904	-7,020	-0,049	0,024
-708,889	-200,000	-0,016	-0,078
-707,875	-151,773	0,069	-0,004
-706,860	-89,058	0,094	-0,020
-705,845	-123,658	0,114	0,013
-704,831	-61,889	0,062	-0,019
-703,816	127,934	-0,054	-0,050
-702,802	122,798	-0,085	-0,077
-701,787	-17,347	-0,118	-0,054
-700,772	80,099	-0,012	0,009
-699,758	-77,203	-0,133	0,034
-698,743	-121,783	-0,024	-0,003
-697,729	266,851	0,068	0,086
-696,714	41,270	-0,070	0,046
-695,699	-200,000	0,010	-0,145
-694,685	-93,205	0,079	-0,016
-693,670	-5,504	0,066	0,033
-692,656	58,801	0,090	0,064
-691,641	-200,000	-0,002	0,151
-690,627	417,081	0,039	-0,060
-689,612	181,625	-0,021	0,022
-688,597	687,665	0,045	-0,086
-687,583	-200,000	-0,001	-0,009
-686,568	-44,013	-0,064	-0,023
-685,554	1,732	-0,054	-0,028
-684,539	-189,462	-0,037	-0,000
-683,524	800,000	-0,032	0,067
-682,510	370,636	0,072	0,107
-681,495	800,000	0,023	0,052
-680,481	10,393	0,097	0,054
-679,466	-79,171	0,062	-0,015
-678,451	-200,000	0,002	-0,101
-677,437	33,945	-0,101	0,064
-676,422	543,534	0,070	0,122
-675,408	-200,000	0,012	-0,124
-674,393	53,691	-0,019	0,013
-673,378	-56,750	-0,095	0,030
-672,364	-200,000	0,025	0,102
-671,349	-30,264	-0,031	0,013
-670,335	137,786	-0,090	0,086
-669,320	346,208	-0,009	0,013
-668,305	800,000	0,033	0,084
-667,291	138,267	0,083	0,079
-666,276	1,744	0,037	-0,019
-665,262	166,639	-0,149	-0,154
-664,247	800,000	-0,017	-0,049
-663,232	-49,945	0,121	-0,042
-662,218	46,129	0,086	0,058
-661,203	10,896	-0,016	0,009
-660,189	307,233	-0,073	-0,099
-659,174	173,595	-0,034	0,036
-658,159	-119,510	0,024	-0,003
-657,145	205,622	-0,079	-0,090
-656,130	-200,000	0,003	0,102
-655,116	-24,573	0,175	0,075
-654,101	-200,000	-0,004	0,085
-653,086	800,000	-0,093	-0,215
-652,072	761,741	0,075	0,148
-651,057	-70,644	-0,073	0,020
-650,043	-60,611	-0,153	0,047
-649,028	-37,167	0,057	-0,022
-648,014	-9,226	-0,041	-0,020
-646,999	-79,589	0,072	0,018
-645,984	253,072	0,058	-0,072
-644,970	-200,000	-0,004	-0,044
-643,955	195,978	-0,076	-0,084
-642,941	-117,622	0,063	0,008
-641,926	-166,932	-0,177	-0,005
-640,911	273,856	-0,108	-0,138
-639,897	27,711	0,096	0,058
-638,882	-10,319	-0,146	0,070
-637,868	369,585	-0,027	0,040
-636,853	-71,515	0,113	0,030
-635,838	118,276	0,064	0,058
-634,824	-200,000	-0,008	-0,055
-633,809	-41,906	-0,111	-0,041
-632,795	-143,616	0,090	0,006
-631,780	-200,000	-0,007	0,042
-630,765	-200,000	-0,002	0,014
-629,751	-111,357	0,036	0,005
-628,736	120,456	-0,047	0,043
-627,722	49,485	-0,008	-0,005
-626,707	161,549	0,023	-0,024
-625,692	800,000	-0,033	0,069
-624,678	-200,000	0,052	0,169
-623,663	-104,185	0,091	0,015
-622,649	800,000	-0,050	-0,106
-621,634	53,717	0,093	-0,065
-620,619	-70,747	0,039	0,011
-619,605	93,496	0,043	0,035
-618,590	220,283	0,006	-0,006
-617,576	-18,193	0,072	0,033
-616,561	-87,226	0,090	-0,020
-615,546	15,979	0,042	0,024
-614,532	193,812	-0,126	-0,138
-613,517	-200,000	0,031	-0,222
-612,503	-200,000	0,014	-0,055
-611,488	340,032	-0,009	0,012
-610,474	-85,195	-0,108	0,024
-609,459	155,917	-0,076	0,076
-608,444	214,568	0,068	-0,078
-607,430	-200,000	-0,003	-0,120
-606,415	196,031	0,069	-0,076
-605,401	34,027	0,141	0,089
-604,386	482,241	-0,065	-0,108
-603,371	-23,181	-0,161	0,070
-602,357	-61,421	-0,164	-0,050
-601,342	800,000	0,009	0,020
-600,328	-44,824	-0,043	-0,015
-599,313	800,000	-0,068	-0,154
-598,298	-200,000	0,015	-0,094
-597,284	743,069	-0,100	0,195
-596,269	641,180	0,051	-0,094
-595,255	800,000	0,013	0,036
-594,240	-200,000	0,029	-0,123
-593,225	-152,122	-0,169	-0,009
-592,211	-200,000	0,012	0,044
-591,196	-200,000	-0,005	-0,050
-590,182	-10,269	-0,008	0,004
-589,167	-121,096	0,019	-0,002
-588,152	283,057	-0,060	0,079
-587,138	-200,000	0,019	-0,212
-586,123	-200,000	0,007	0,025
-585,109	-37,031	-0,074	0,029
-584,094	-200,000	-0,001	0,014
-583,079	-200,000	-0,028	0,141
-582,065	-129,924	-0,077	0,007
-581,050	285,181	-0,017	-0,022
-580,036	279,584	0,044	0,057
-579,021	100,749	-0,052	0,044
-578,006	185,539	0,036	0,038
-576,992	-19,065	0,081	0,036
-575,977	-103,323	-0,081	0,014
-574,963	11,397	-0,079	0,044
-573,948	-200,000	-0,033	-0,107
-572,934	-151,342	-0,079	-0,004
-571,919	-126,819	-0,053	-0,006
-570,904	800,000	-0,040	-0,117
-569,890	542,551	0,073	-0,126
-568,875	116,675	0,065	-0,057
-567,861	800,000	-0,009	-0,023
-566,846	800,000	-0,080	0,174
-565,831	21,641	0,130	-0,076
-564,817	800,000	-0,102	-0,227
-563,802	-200,000	-0,026	-0,140
-562,788	322,896	-0,101	-0,140
-561,773	-200,000	-0,014	0,057
-560,758	-200,000	-0,005	0,054
-559,744	216,169	-0,068	-0,078
-558,729	800,000	-0,055	-0,115
-557,715	49,277	-0,060	-0,041
-556,700	800,000	0,034	-0,091
-555,685	530,231	0,050	-0,087
-554,671	108,053	0,040	0,035
-553,656	-200,000	0,001	-0,103
-552,642	-200,000	-0,005	0,086
-551,627	-137,676	-0,067	0,005
-550,612	-200,000	0,008	0,048
-549,598	222,854	0,022	0,026
-548,583	800,000	0,027	-0,067
-547,569	766,248	-0,079	-0,156
-546,554	436,033	0,016	-0,025
-545,539	85,977	-0,059	0,047
-544,525	258,023	0,047	-0,059
-543,510	-40,259	-0,097	0,036
-542,496	-200,000	-0,012	-0,047
-541,481	14,295	-0,038	-0,021
-540,466	-117,727	-0,096	-0,012
-539,452	-200,000	0,020	0,083
-538,437	264,449	0,084	0,106
-537,423	215,049	-0,034	0,039
-536,408	800,000	0,040	0,101
-535,393	78,384	-0,169	-0,130
-534,379	344,056	-0,084	-0,119
-533,364	-200,000	0,049	-0,166
-532,350	515,800	0,072	-0,122
-531,335	-200,000	0,025	0,093
-530,321	20,010	0,116	-0,067
-529,306	-157,068	-0,121	-0,005
-528,291	98,242	0,012	-0,010
-527,277	800,000	-0,055	0,120
-526,262	-80,778	-0,077	-0,018
-525,248	800,000	-0,046	0,147
-524,233	-200,000	-0,018	0,123
-523,218	329,881	-0,035	0,049
-522,204	800,000	-0,036	-0,078
-521,189	-147,245	-0,122	-0,007
-520,175	45,281	0,210	-0,140
-519,160	-200,000	-0,010	-0,160
-518,145	-68,634	0,069	0,019
-517,131	565,117	0,042	0,074
-516,116	-200,000	-0,010	0,034
-515,102	-90,603	0,060	-0,012
-514,087	-42,130	-0,038	0,014
-513,072	-93,678	-0,106	-0,021
-512,058	151,099	-0,053	-0,052
-511,043	46,350	0,071	-0,047
-510,029	1,397	0,055	-0,029
-509,014	745,434	-0,067	0,131
-507,999	340,231	0,070	-0,099
-506,985	30,937	0,048	0,030
-505,970	457,199	-0,055	-0,088
-504,956	-200,000	0,014	-0,133
-503,941	66,327	0,019	-0,014
-502,926	41,352	0,055	-0,036
-501,912	-200,000	-0,030	-0,103
-500,897	25,355	-0,073	-0,044
-499,883	335,299	0,093	0,131
-498,868	476,325	0,038	0,063
-497,853	353,769	0,078	-0,112
-496,839	76,669	-0,050	-0,038
-495,824	-9,509	-0,058	0,028
-494,810	-200,000	0,002	0,192
-493,795	-59,367	-0,089	0,028
-492,781	-128,671	0,040	0,004
-491,766	-2,319	0,068	0,034
-490,751	208,778	-0,079	-0,089
-489,737	800,000	-0,028	0,074
-488,722	800,000	0,012	0,033
-487,708	-90,002	0,101	-0,021
-486,693	-127,105	0,045	-0,005
-485,678	-45,791	-0,096	-0,034
-484,664	234,075	0,042	0,050
-483,649	42,481	-0,126	-0,082
-482,635	15,056	0,102	-0,058
-481,620	-200,000	0,020	-0,070
-480,605	245,559	0,045	0,055
-479,591	507,607	0,012	-0,020
-478,576	-94,076	-0,189	0,037
-477,562	318,126	-0,090	-0,123
-476,547	800,000	-0,034	-0,101
-475,532	162,058	-0,064	-0,065
-474,518	-62,230	0,084	-0,025
-473,503	-65,914	-0,043	-0,012
-472,489	-167,189	0,149	-0,004
-471,474	189,521	-0,027	-0,029
-470,459	-106,847	0,053	-0,008
-469,445	6,763	-0,118	-0,063
-468,430	24,337	-0,084	-0,050
-467,416	800,000	-0,046	0,103
-466,401	-14,313	0,129	0,060
-465,386	58,955	-0,056	0,040
-464,372	-40,188	-0,092	0,034
-463,357	-200,000	0,033	-0,127
-462,343	-200,000	-0,029	-0,100
-461,328	-200,000	-0,007	-0,070
-460,313	800,000	0,014	0,033
-459,299	800,000	0,039	0,101
-458,284	192,373	0,037	-0,040
-457,270	56,268	-0,047	0,033
-456,255	257,748	0,064	0,080
-455,241	131,796	0,066	0,062
-454,226	355,999	-0,058	0,083
-453,211	52,143	0,113	0,078
-452,197	800,000	-0,028	0,079
-451,182	21,053	-0,094	0,055
-450,168	73,836	0,107	0,081
-449,153	614,251	-0,026	-0,046
-448,138	-200,000	-0,039	-0,171
-447,124	82,870	-0,070	0,054
-446,109	261,988	0,022	0,028
-445,095	800,000	0,033	-0,089
-444,080	-43,301	0,119	0,043
-443,065	-200,000	0,026	0,135
-442,051	71,136	-0,045	0,033
-441,036	216,980	0,055	-0,064
-440,022	114,433	0,056	-0,049
-439,007	92,294	0,029	-0,024
-437,992	317,507	0,020	-0,028
-436,978	32,812	0,105	0,065
-435,963	800,000	-0,043	-0,090
-434,949	-200,000	0,020	-0,165
-433,934	322,526	-0,045	-0,062
-432,919	-200,000	-0,027	-0,127
-431,905	800,000	-0,036	-0,104
-430,890	323,501	0,077	-0,107
-429,876	-200,000	0,013	0,109
-428,861	474,763	-0,036	0,059
-427,846	10,995	0,046	-0,025
-426,832	205,443	0,030	-0,033
-425,817	-112,228	-0,156	-0,022
-424,803	56,663	0,189	0,132
-423,788	-43,025	0,047	0,017
-422,773	-46,619	0,057	0,020
-421,759	496,718	-0,040	0,066
-420,744	115,479	0,010	-0,009
-419,730	151,497	-0,007	-0,007
-418,715	-11,593	-0,071	0,033
-417,701	26,858	0,134	-0,081
-416,686	169,219	-0,089	0,092
-415,671	-29,273	0,131	0,054
-414,657	800,000	-0,027	0,072
-413,642	-4,649	0,024	0,012
-412,628	204,614	-0,044	0,049
-411,613	800,000	-0,029	-0,060
-410,598	-200,000	-0,033	-0,124
-409,584	24,754	0,125	0,074
-408,569	-200,000	0,038	0,131
-407,555	-200,000	-0,012	-0,050
-406,540	-67,676	-0,029	-0,008
-405,525	-200,000	0,007	-0,132
-404,511	-4,971	-0,080	-0,039
-403,496	392,859	0,075	-0,113
-402,482	507,222	-0,034	-0,058
-401,467	-45,732	-0,083	0,029
-400,452	70,676	-0,065	-0,048
-399,438	-200,000	-0,018	0,083
-398,423	-58,336	-0,160	-0,050
-397,409	-14,214	-0,186	-0,086
-396,394	-120,726	-0,096	-0,012
-395,379	91,805	0,059	0,048
-394,365	-200,000	0,005	-0,015
-393,350	-156,101	0,052	-0,002
-392,336	800,000	-0,015	0,038
-391,321	236,862	-0,008	0,010
-390,306	600,104	0,044	-0,079
-389,292	212,740	-0,020	-0,022
-388,277	-29,308	0,054	0,022
-387,263	50,701	0,060	0,041
-386,248	471,091	0,048	0,077
-385,233	-200,000	-0,010	0,039
-384,219	80,831	-0,032	0,025
-383,204	140,046	0,036	-0,035
-382,190	190,302	0,061	0,066
-381,175	-68,279	-0,162	-0,045
-380,160	-99,559	0,089	0,016
-379,146	87,426	0,029	0,023
-378,131	46,499	0,115	-0,076
-377,117	-36,276	-0,191	-0,074
-376,102	197,839	0,034	-0,037
-375,088	-73,377	-0,092	-0,024
-374,073	-200,000	0,008	-0,032
-373,058	800,000	0,041	0,099
-372,044	800,000	-0,039	0,092
-371,029	-200,000	0,017	0,109
-370,015	-200,000	0,020	0,132
-369,000	-200,000	0,002	0,017
-367,985	-118,877	-0,180	0,022
-366,971	55,354	-0,097	0,067
-365,956	310,237	0,036	0,049
-364,942	559,416	0,028	-0,049
-363,927	-79,825	-0,054	-0,013
-362,912	-83,600	-0,146	-0,033
-361,898	67,352	-0,073	-0,053
-360,883	79,582	-0,092	-0,071
-359,869	-23,507	0,101	-0,043
-358,854	288,363	-0,028	0,037
-357,839	800,000	0,057	0,156
-356,825	381,325	0,095	0,140
-355,810	273,319	-0,052	0,066
-354,796	-70,678	-0,112	0,030
-353,781	110,270	-0,106	-0,091
-352,766	800,000	0,049	-0,109
-351,752	36,839	0,033	0,021
-350,737	395,144	-0,016	0,023
-349,723	403,209	-0,080	0,122
-348,708	704,987	-0,050	0,095
-347,693	-35,015	-0,038	0,015
-346,679	-200,000	0,004	-0,061
-345,664	26,057	0,057	-0,034
-344,650	-151,882	0,009	0,000
-343,635	80,396	0,157	-0,121
-342,620	-200,000	-0,034	0,141
-341,606	-200,000	0,002	0,012
-340,591	55,634	-0,096	0,067
-339,577	-83,007	-0,049	-0,011
-338,562	-1,043	-0,172	-0,087
-337,548	-154,034	0,119	-0,006
-336,533	275,582	0,033	0,043
-335,518	-77,592	0,066	-0,016
-334,504	-101,779	-0,116	-0,020
-333,489	58,574	0,164	0,115
-332,475	65,183	-0,096	0,070
-331,460	59,172	-0,059	0,042
-330,445	381,016	0,096	0,141
-329,431	97,516	-0,053	0,043
-328,416	-62,111	0,167	-0,050
-327,402	-200,000	0,018	0,077
-326,387	-200,000	0,018	0,097
-325,372	55,341	-0,088	-0,061
-324,358	-55,037	-0,089	0,028
-323,343	-200,000	-0,006	0,061
-322,329	-89,316	-0,031	0,006
-321,314	-45,383	0,093	0,033
-320,299	103,686	0,101	-0,085
-319,285	-13,637	-0,032	-0,015
-318,270	280,071	-0,046	0,059
-317,256	31,804	-0,091	0,056
-316,241	-138,384	0,031	0,002
-315,226	293,761	-0,077	-0,101
-314,212	144,847	0,129	0,124
-313,197	-53,640	-0,091	0,030
-312,183	336,617	-0,062	0,087
-311,168	-200,000	-0,004	0,135
-310,153	800,000	-0,024	-0,070
-309,139	476,003	-0,059	-0,097
-308,124	739,161	0,008	0,015
-307,110	-200,000	0,000	0,086
-306,095	48,156	0,033	0,022
-305,080	167,129	0,020	0,021
-304,066	-42,926	0,034	-0,012
-303,051	760,370	-0,074	-0,144
-302,037	651,329	0,077	0,142
-301,022	-51,863	0,077	-0,026
-300,008	203,281	0,072	0,079
-298,993	-112,948	0,079	0,011
-297,978	199,225	0,056	0,061
-296,964	-200,000	0,019	-0,099
-295,949	120,572	-0,070	-0,062
-294,935	-200,000	-0,007	-0,056
-293,920	234,733	0,063	-0,074
-292,905	58,745	0,051	-0,036
-291,891	91,396	-0,076	-0,061
-290,876	800,000	-0,044	0,122
-289,862	16,247	0,154	-0,087
-288,847	-200,000	0,003	-0,020
-287,832	-200,000	-0,005	-0,058
-286,818	-200,000	-0,022	-0,088
-285,803	-200,000	-0,012	0,040
-284,789	800,000	0,055	0,115
-283,774	112,082	0,033	0,028
-282,759	-200,000	0,030	0,107
-281,745	-200,000	-0,005	-0,064
-280,730	88,613	0,015	0,012
-279,716	73,846	-0,058	0,043
-278,701	-10,857	-0,026	0,012
-277,686	467,561	-0,043	0,069
-276,672	16,001	0,118	0,066
-275,657	-86,640	-0,150	0,033
-274,643	34,847	0,036	0,023
-273,628	-200,000	0,014	-0,128
-272,613	467,664	0,025	-0,040
-271,599	-115,899	-0,100	-0,013
-270,584	-44,234	-0,114	-0,041
-269,570	-200,000	-0,026	0,097
-268,555	751,585	-0,055	0,106
-267,540	-64,021	-0,124	0,036
-266,526	63,982	0,124	0,089
-265,511	-200,000	-0,004	0,102
-264,497	13,038	0,066	-0,037
-263,482	159,392	-0,086	0,086
-262,467	-98,882	-0,097	0,017
-261,453	-193,844	0,119	0,001
-260,438	20,652	-0,174	-0,100
-259,424	96,231	0,080	-0,065
-258,409	-200,000	0,003	-0,072
-257,395	449,013	0,055	0,086
-256,380	-46,054	0,082	-0,029
-255,365	-62,641	0,041	-0,012
-254,351	3,712	-0,003	0,002
-253,336	-41,245	-0,008	0,003
-252,322	800,000	-0,096	0,195
-251,307	800,000	0,019	-0,040
-250,292	692,859	-0,030	0,056
-249,278	-200,000	0,034	0,122
-248,263	116,176	0,070	0,061
-247,249	55,945	-0,046	0,032
-246,234	-200,000	0,008	0,042
-245,219	-200,000	-0,027	-0,172
-244,205	546,707	0,025	-0,043
-243,190	252,980	0,125	0,153
-242,176	129,484	-0,054	-0,049
-241,161	51,784	0,089	0,060
-240,146	-0,549	0,144	0,073
-239,132	-12,091	0,031	0,014
-238,117	-200,000	-0,014	-0,154
-237,103	800,000	-0,013	-0,034
-236,088	-39,507	-0,139	-0,052
-235,073	70,960	0,136	0,101
-234,059	781,133	-0,013	0,025
-233,044	800,000	0,009	0,025
-232,030	-146,006	0,090	-0,006
-231,015	-200,000	-0,006	-0,154
-230,000	800,000	0,057	-0,157
-228,986	7,806	0,087	-0,046
-227,971	83,584	0,115	-0,090
-226,957	172,392	0,089	0,091
-225,942	17,079	0,084	0,047
-224,927	185,057	-0,053	-0,056
-223,913	-200,000	0,031	0,099
-222,898	245,784	0,049	-0,059
-221,884	-200,000	-0,012	0,104
-220,869	-200,000	0,003	0,189
-219,855	-200,000	0,002	0,018
-218,840	-67,196	0,030	-0,008
-217,825	131,857	-0,071	-0,065
-216,811	-13,565	-0,028	-0,013
-215,796	34,566	-0,021	-0,013
-214,782	-58,631	-0,033	0,010
-213,767	800,000	0,017	0,040
-212,752	134,688	0,072	0,066
-211,738	-86,904	0,079	-0,017
-210,723	0,145	0,080	0,041
-209,709	-172,483	0,107	-0,002
-208,694	557,954	0,048	-0,083
-207,679	-107,999	0,080	0,012
-206,665	-72,282	-0,057	-0,015
-205,650	-200,000	0,012	0,060
-204,636	-200,000	-0,022	0,094
-203,621	737,521	0,047	-0,090
-202,606	800,000	0,054	-0,122
-201,592	-200,000	-0,005	-0,110
-200,577	283,897	0,064	-0,082
-199,563	-200,000	0,008	0,041
-198,548	390,360	-0,060	-0,089
-197,533	-200,000	-0,004	0,050
-196,519	-200,000	0,035	0,195
-195,504	-200,000	-0,035	-0,118
-194,490	589,445	-0,058	-0,103
-193,475	-200,000	-0,002	-0,086
-192,460	793,568	0,049	-0,097
-191,446	243,122	0,089	0,107
-190,431	21,826	0,130	-0,075
-189,417	99,956	-0,090	0,074
-188,402	157,251	0,089	-0,088
-187,387	260,001	0,049	-0,061
-186,373	-200,000	-0,031	0,105
-185,358	-55,991	0,076	0,024
-184,344	289,662	0,059	0,077
-183,329	-42,201	0,158	0,057
-182,315	800,000	-0,029	0,068
-181,300	800,000	0,025	-0,059
-180,285	-109,546	0,117	-0,017
-179,271	-200,000	-0,015	-0,113
-178,256	-72,652	0,069	-0,018
-177,242	-68,403	0,145	-0,040
-176,227	280,536	-0,026	-0,033
-175,212	278,160	0,108	0,137
-174,198	800,000	0,051	0,137
-173,183	125,579	0,030	0,027
-172,169	-200,000	-0,009	0,044
-171,154	236,624	-0,088	0,104
-170,139	-55,144	-0,023	-0,007
-169,125	-200,000	0,030	0,140
-168,110	300,900	-0,020	0,026
-167,096	800,000	-0,020	-0,056
-166,081	800,000	0,035	0,072
-165,066	-29,995	-0,152	0,062
-164,052	42,743	0,049	0,032
-163,037	186,485	0,058	0,062
-162,023	341,809	0,123	0,171
-161,008	800,000	0,003	-0,007
-159,993	329,875	0,041	0,056
-158,979	517,532	-0,051	0,086
-157,964	132,726	-0,127	-0,117
-156,950	240,920	-0,057	0,068
-155,935	-41,278	-0,022	0,008
-154,920	540,637	-0,080	0,136
-153,906	-200,000	0,010	-0,050
-152,891	141,884	0,001	0,001
-151,877	-200,000	-0,011	0,046
-150,862	-29,110	-0,059	-0,024
-149,847	-24,929	0,032	0,014
-148,833	-200,000	-0,013	0,073
-147,818	367,496	0,076	0,110
-146,804	-200,000	-0,006	0,036
-145,789	-200,000	-0,017	-0,089
-144,775	800,000	-0,064	0,130
-143,760	47,278	-0,062	0,041
-142,745	-200,000	-0,024	-0,202
-141,731	347,969	-0,025	-0,035
-140,716	-200,000	-0,000	0,084
-139,702	51,976	0,094	-0,063
-138,687	66,918	0,065	0,047
-137,672	335,340	0,030	-0,042
-136,658	391,548	0,063	0,093
-135,643	-200,000	-0,006	0,023
-134,629	110,051	0,038	-0,032
-133,614	422,987	-0,050	0,077
-132,599	-149,112	0,141	0,008
-131,585	112,432	-0,078	0,067
-130,570	268,845	0,027	0,034
-129,556	-107,197	0,016	0,003
-128,541	-200,000	-0,009	-0,042
-127,526	-135,941	-0,040	-0,003
-126,512	-117,182	0,057	0,007
-125,497	644,312	-0,061	-0,111
-124,483	-200,000	-0,002	0,126
-123,468	43,715	0,058	0,037
-122,453	-154,868	-0,136	0,006
-121,439	226,209	-0,084	-0,097
-120,424	800,000	-0,029	0,080
-119,410	511,843	-0,041	0,069
-118,395	67,901	0,010	0,007
-117,380	-200,000	-0,014	-0,081
-116,366	501,067	0,025	-0,042
-115,351	-124,359	-0,110	-0,012
-114,337	800,000	0,034	0,098
-113,322	-99,842	-0,155	0,027
-112,307	463,984	0,023	0,037
-111,293	65,116	0,095	0,069
-110,278	800,000	0,019	0,058
-109,264	149,504	0,049	0,047
-108,249	659,995	-0,025	0,046
-107,234	322,507	-0,075	-0,102
-106,220	102,986	0,072	-0,060
-105,205	-36,035	0,060	0,023
-104,191	-200,000	-0,007	0,057
-103,176	4,711	-0,011	0,006
-102,162	800,000	-0,037	0,106
-101,147	48,100	0,105	-0,070
-100,132	129,215	0,019	0,018
-99,118	800,000	0,030	0,074
-98,103	-200,000	-0,010	-0,094
-97,089	800,000	0,093	0,183
-96,074	-106,002	-0,031	0,005
-95,059	-127,321	-0,050	-0,005
-94,045	-200,000	-0,022	0,085
-93,030	-40,298	0,040	-0,015
-92,016	381,297	-0,016	-0,023
-91,001	67,396	0,060	0,044
-89,986	-107,065	0,084	0,013
-88,972	20,735	0,077	0,044
-87,957	755,768	-0,027	0,052
-86,943	-25,667	0,031	-0,013
-85,928	320,215	0,047	-0,063
-84,913	-75,760	-0,231	-0,058
-83,899	-64,738	0,059	-0,017
-82,884	165,021	-0,080	0,081
-81,870	34,544	0,038	0,023
-80,855	132,362	-0,035	-0,032
-79,840	-12,758	-0,047	0,022
-78,826	-25,969	-0,141	-0,059
-77,811	-200,000	0,021	0,085
-76,797	-200,000	-0,030	0,000
-75,782	-200,000	0,012	0,054
-74,767	-200,000	0,034	0,130
-73,753	-19,457	0,087	0,038
-72,738	-162,166	-0,011	0,000
-71,724	-200,000	0,005	0,077
-70,709	78,827	-0,059	0,045
-69,694	-200,000	0,005	-0,033
-68,680	-0,276	0,068	0,034
-67,665	-1,826	0,036	0,018
-66,651	479,815	-0,024	0,039
-65,636	396,188	-0,074	-0,110
-64,622	16,432	0,040	-0,023
-63,607	764,842	-0,062	0,120
-62,592	243,972	-0,042	-0,050
-61,578	-2,151	0,033	-0,016
-60,563	-200,000	0,005	-0,087
-59,549	-92,113	-0,079	0,016
-58,534	-99,573	-1,367	-0,241
-57,519	412,371	-1,478	-2,235
-56,505	-200,000	-0,608	-4,332
-55,490	115,848	0,875	0,759
-54,476	800,000	4,774	11,251
-53,461	-200,000	17,318	269,432
-52,446	800,000	715,427	2180,528
-51,432	550,754	1630,028	2784,959
-50,417	81,197	1655,375	1267,116
-49,403	24,329	1529,736	894,459
-48,388	18,369	1453,094	820,956
-47,373	18,484	1442,427	815,450
-46,359	18,214	1433,387	809,022
-45,344	16,710	1428,743	799,230
-44,330	16,658	1426,604	797,759
-43,315	16,633	1425,143	796,790
-42,300	16,635	1423,538	795,869
-41,286	16,647	1422,369	795,242
-40,271	16,633	1420,938	794,344
-39,257	16,628	1419,588	793,536
-38,242	16,663	1418,495	793,059
-37,227	16,710	1417,188	792,516
-36,213	16,669	1415,835	791,535
-35,198	16,674	1414,706	790,897
-34,184	16,674	1413,562	790,226
-33,169	16,606	1412,620	789,350
-32,154	16,650	1411,537	788,917
-31,140	16,648	1410,232	788,149
-30,125	16,679	1409,111	787,635
-29,111	16,668	1407,981	786,923
-28,096	16,626	1406,762	786,012
-27,082	16,582	1405,830	785,254
-26,067	16,562	1404,542	784,414
-25,052	16,630	1403,545	784,143
-24,038	16,558	1402,517	783,200
-23,023	16,501	1401,491	782,332
-22,009	16,500	1400,752	781,882
-20,994	16,498	1399,795	781,306
-19,979	16,556	1398,794	780,989
-18,965	16,493	1398,040	780,244
-17,950	16,491	1396,842	779,533
-16,936	16,521	1395,648	778,976
-15,921	16,455	1394,349	777,913
-14,906	16,499	1393,557	777,643
-13,892	16,510	1392,824	777,258
-12,877	16,483	1391,936	776,604
-11,863	16,519	1390,788	776,102
-10,848	16,502	1390,116	775,617
-9,833	16,478	1389,098	774,906
-8,819	16,447	1388,215	774,238
-7,804	16,386	1387,391	773,467
-6,790	16,385	1386,166	772,750
-5,775	16,387	1385,313	772,252
-4,760	16,372	1384,522	771,712
-3,746	16,331	1383,743	771,058
-2,731	16,345	1382,931	770,641
-1,717	16,343	1381,823	769,982
-0,702	16,340	1380,081	768,970
0,313	20,117	1301,801	742,764
1,327	36,550	707,550	441,824
2,342	56,346	125,610	86,404
3,356	6,054	16,513	8,645
4,371	0,150	3,142	1,583
5,386	-106,702	0,522	0,081
6,400	-95,808	0,050	-0,009
7,415	4,510	-0,263	-0,136
8,429	53,635	-0,287	-0,195
9,444	129,777	-0,357	-0,323
10,459	151,852	-0,225	-0,217
11,473	-103,817	-0,265	0,044
12,488	19,551	-0,177	-0,101
13,502	20,969	-0,291	-0,166
14,517	121,577	-0,337	-0,297
15,531	59,025	-0,402	-0,280
16,546	-28,845	-0,408	-0,165
17,561	189,890	-0,369	-0,393
18,575	135,566	-0,127	-0,117
19,590	134,320	-0,230	-0,211
20,604	56,867	-0,379	-0,261
21,619	105,887	-0,419	-0,351
22,634	271,954	-0,388	-0,485
23,648	91,088	-0,307	-0,243
24,663	182,010	-0,384	-0,400
25,677	184,698	-0,341	-0,358
26,692	84,156	-0,273	-0,211
27,707	-40,922	-0,452	-0,165
28,721	82,889	-0,356	-0,274
29,736	69,646	-0,498	-0,362
30,750	86,029	-0,519	-0,404
31,765	55,636	-0,309	-0,212
32,780	-22,530	-0,412	-0,175
33,794	97,440	-0,310	-0,252
34,809	154,986	-0,305	-0,297
35,823	44,324	-0,433	-0,281
36,838	112,716	-0,463	-0,396
37,853	153,701	-0,252	-0,244
38,867	56,400	-0,499	-0,342
39,882	-3,294	-0,341	-0,167
40,896	37,921	-0,463	-0,290
41,911	-6,147	-0,436	-0,210
42,926	29,282	-0,357	-0,214
43,940	94,627	-0,373	-0,299
44,955	98,156	-0,309	-0,251
45,969	92,540	-0,408	-0,325
46,984	-2,819	-0,419	-0,206
47,999	20,572	-0,390	-0,222
49,013	4,120	-0,406	-0,209
50,028	80,952	-0,286	-0,218
51,042	80,134	-0,311	-0,236
52,057	9,371	-0,397	-0,212
53,071	349,581	-0,233	-0,326
54,086	50,926	-0,298	-0,199
55,101	19,707	-0,306	-0,173
56,115	41,070	-0,344	-0,219
57,130	46,399	-0,350	-0,228
58,144	65,809	-0,407	-0,291
59,159	73,214	-0,344	-0,254
60,174	71,333	-0,422	-0,309
61,188	-44,365	-0,421	-0,148
62,203	-33,641	-0,406	-0,157
63,217	42,117	-0,325	-0,208
64,232	-94,029	-0,333	-0,064
65,247	56,072	-0,313	-0,214
66,261	-1,476	-0,432	-0,214
67,276	155,650	-0,375	-0,364
68,290	127,600	-0,312	-0,279
69,305	76,930	-0,381	-0,285
70,320	800,000	-0,093	-0,209
71,334	35,558	-0,344	-0,213
72,349	-52,204	-0,433	-0,141
73,363	6,774	-0,321	-0,168
74,378	297,876	-0,270	-0,350
75,393	24,698	-0,277	-0,161
76,407	17,650	-0,325	-0,182
77,422	42,981	-0,334	-0,214
78,436	9,822	-0,407	-0,217
79,451	42,153	-0,394	-0,251
80,466	124,467	-0,252	-0,223
81,480	-40,806	-0,369	-0,134
82,495	244,102	-0,246	-0,291
83,509	-26,690	-0,398	-0,163
84,524	-50,150	-0,287	-0,095
85,539	-128,426	-0,340	-0,034
86,553	-38,198	-0,298	-0,110
87,568	9,645	-0,274	-0,146
88,582	27,232	-0,299	-0,177
89,597	-32,162	-0,341	-0,134
90,611	239,463	-0,210	-0,246
91,626	100,578	-0,200	-0,163
92,641	44,537	-0,182	-0,118
93,655	34,857	-0,358	-0,220
94,670	272,709	-0,285	-0,355
95,684	48,342	-0,275	-0,180
96,699	94,553	-0,262	-0,209
97,714	707,221	-0,180	-0,335
98,728	180,423	-0,255	-0,263
99,743	359,528	-0,200	-0,282
100,757	681,593	-0,190	-0,349
101,772	77,224	-0,417	-0,311
102,787	70,659	-0,306	-0,222
103,801	-31,137	-0,219	-0,086
104,816	3,434	-0,359	-0,183
105,830	130,417	-0,126	-0,113
106,845	-22,504	-0,226	0,096
107,860	20,917	-0,254	-0,144
108,874	13,677	-0,260	-0,141
109,889	81,893	-0,268	-0,203
110,903	144,179	-0,254	-0,238
111,918	800,000	-0,110	-0,270
112,933	41,532	-0,201	-0,127
113,947	20,104	-0,232	-0,131
114,962	-30,709	-0,262	-0,103
115,976	-64,646	-0,288	-0,081
116,991	4,803	-0,292	-0,150
118,006	-112,505	-0,226	-0,031
119,020	91,408	-0,166	-0,131
120,035	152,993	-0,235	-0,226
121,049	6,892	-0,173	-0,090
122,064	55,795	-0,152	-0,103
123,079	133,510	-0,171	-0,155
124,093	65,261	-0,257	-0,182
125,108	312,628	-0,239	-0,315
126,122	31,184	-0,264	-0,158
127,137	26,395	-0,232	-0,136
128,151	101,065	-0,253	-0,207
129,166	-104,043	-0,302	-0,049
130,181	110,429	-0,239	-0,202
131,195	800,000	-0,162	-0,322
132,210	252,442	-0,235	-0,282
133,224	55,417	-0,155	-0,105
134,239	114,776	-0,185	-0,158
135,254	-24,485	-0,201	-0,083
136,268	-56,878	-0,234	-0,072
137,283	-41,185	-0,232	-0,083
138,297	72,852	-0,242	-0,177
139,312	34,962	-0,294	-0,180
140,327	-9,989	-0,389	-0,180
141,341	120,961	-0,070	-0,061
142,356	52,759	-0,194	-0,130
143,370	152,081	-0,061	-0,058
144,385	176,820	-0,192	-0,196
145,400	160,389	-0,173	-0,169
146,414	2,775	-0,354	-0,179
147,429	-16,575	-0,263	-0,116
148,443	151,385	-0,143	-0,136
149,458	-68,699	-0,185	-0,050
150,473	364,723	-0,225	-0,318
151,487	263,003	-0,187	-0,227
152,502	-50,278	-0,292	-0,096
153,516	3,541	-0,243	-0,124
154,531	69,740	-0,254	-0,183
155,546	105,019	-0,168	-0,138
156,560	142,345	-0,171	-0,158
157,575	-77,362	-0,227	-0,055
158,589	-13,335	-0,205	-0,092
159,604	-173,895	-0,300	0,006
160,619	56,127	-0,349	-0,236
161,633	143,728	-0,187	-0,175
162,648	-138,352	-0,286	-0,022
163,662	57,165	-0,181	-0,124
164,677	-38,340	-0,316	-0,116
165,692	-99,880	-0,253	-0,044
166,706	-102,761	-0,257	-0,042
167,721	117,355	-0,218	-0,187
168,735	30,815	-0,328	-0,196
169,750	800,000	-0,088	-0,265
170,764	-36,929	-0,217	-0,081
171,779	451,388	-0,142	-0,220
172,794	-28,491	-0,320	-0,128
173,808	212,195	-0,175	-0,193
174,823	231,492	-0,270	-0,310
175,837	479,815	-0,196	-0,311
176,852	800,000	-0,157	-0,341
177,867	61,245	-0,250	-0,173
178,881	750,291	-0,066	-0,125
179,896	169,050	-0,166	-0,165
180,910	70,782	-0,306	-0,221
181,925	304,427	-0,174	-0,226
182,940	141,072	-0,209	-0,193
183,954	508,550	-0,215	-0,350
184,969	193,535	-0,171	-0,181
185,983	-30,878	-0,244	-0,096
186,998	88,145	-0,193	-0,149
188,013	16,910	-0,231	-0,127
189,027	341,397	-0,190	-0,259
190,042	114,818	-0,278	-0,236
191,056	249,655	-0,199	-0,236
192,071	101,449	-0,197	-0,160
193,086	177,487	-0,204	-0,207
194,100	265,228	-0,191	-0,233
195,115	188,086	-0,248	-0,259
196,129	223,630	-0,150	-0,169
197,144	149,308	-0,216	-0,204
198,159	-126,019	-0,323	-0,033
199,173	103,216	-0,104	-0,085
200,188	-135,145	-0,200	-0,017
201,202	41,609	-0,131	0,083
202,217	-200,000	-0,069	-0,287
203,232	12,908	-0,262	-0,141
204,246	4,896	-0,193	-0,099
205,261	-46,650	-0,141	-0,048
206,275	661,855	-0,080	-0,144
207,290	662,134	-0,116	-0,209
208,304	-103,176	-0,168	-0,027
209,319	-31,331	-0,209	-0,082
210,334	-78,048	-0,290	-0,069
211,348	216,950	-0,208	-0,231
212,363	147,349	-0,175	-0,164
213,377	120,038	-0,201	-0,174
214,392	45,351	-0,179	-0,115
215,407	-139,026	-0,223	-0,017
216,421	347,778	-0,100	-0,137
217,436	72,846	-0,190	-0,138
218,450	17,819	-0,182	-0,100
219,465	124,837	-0,222	-0,194
220,480	431,603	-0,102	-0,154
221,494	311,094	-0,166	-0,217
222,509	-56,643	-0,111	-0,034
223,523	-44,348	-0,140	-0,048
224,538	-67,231	-0,269	-0,073
225,553	497,656	-0,152	-0,244
226,567	-35,450	-0,295	-0,111
227,582	-22,702	-0,200	-0,084
228,596	80,601	-0,167	-0,125
229,611	23,959	-0,185	-0,106
230,626	65,940	-0,203	-0,143
231,640	405,139	-0,075	-0,111
232,655	167,904	-0,206	-0,204
233,669	13,042	-0,337	-0,181
234,684	-83,030	-0,114	-0,025
235,699	21,423	-0,176	-0,099
236,713	79,203	-0,180	-0,134
237,728	-17,643	-0,099	-0,043
238,742	46,548	-0,246	-0,158
239,757	86,187	-0,228	-0,174
240,772	-18,688	-0,306	-0,132
241,786	21,424	-0,298	-0,168
242,801	112,328	-0,121	-0,101
243,815	66,903	-0,142	-0,100
244,830	405,204	-0,143	-0,209
245,844	-140,462	-0,221	-0,016
246,859	30,893	-0,062	-0,036
247,874	67,035	-0,086	-0,061
248,888	297,347	-0,110	-0,140
249,903	452,224	-0,111	-0,170
250,917	31,238	-0,103	-0,061
251,932	16,649	-0,235	-0,129
252,947	-48,337	-0,177	-0,059
253,961	-74,598	-0,119	0,029
254,976	-80,612	-0,238	-0,055
255,990	99,193	-0,184	-0,147
257,005	72,202	-0,225	-0,162
258,020	-9,292	-0,150	-0,069
259,034	-41,613	-0,051	-0,018
260,049	35,548	-0,158	-0,096
261,063	-32,900	-0,166	-0,064
262,078	135,550	-0,189	-0,171
263,093	8,547	-0,223	-0,116
264,107	0,951	-0,318	-0,157
265,122	87,245	-0,164	-0,126
266,136	-61,460	-0,201	-0,058
267,151	800,000	-0,073	-0,171
268,166	412,596	-0,141	-0,208
269,180	99,448	-0,186	-0,149
270,195	800,000	-0,067	-0,170
271,209	-200,000	-0,032	-0,185
272,224	548,793	-0,105	-0,175
273,239	110,836	-0,162	-0,135
274,253	-5,635	-0,143	0,068
275,268	-32,053	-0,108	-0,042
276,282	30,885	-0,244	-0,145
277,297	613,395	-0,140	-0,244
278,312	213,240	-0,134	-0,147
279,326	800,000	-0,123	-0,283
280,341	-27,692	-0,152	-0,061
281,355	169,021	-0,175	-0,173
282,370	22,877	-0,140	-0,079
283,384	-15,140	-0,273	-0,121
284,399	93,560	-0,219	-0,171
285,414	272,664	-0,158	-0,193
286,428	7,207	-0,141	-0,072
287,443	-101,013	-0,114	-0,019
288,457	-21,320	-0,194	-0,081
289,472	643,373	-0,044	-0,077
290,487	-165,983	-0,289	-0,008
291,501	81,440	-0,157	-0,117
292,516	90,722	-0,156	-0,120
293,530	-40,755	0,017	-0,006
294,545	-2,415	-0,119	0,057
295,560	-200,000	0,013	-0,134
296,574	-200,000	-0,007	-0,160
297,589	133,968	-0,106	-0,095
298,603	-84,283	-0,169	-0,037
299,618	-68,633	-0,242	-0,064
300,633	-139,730	-0,177	0,013
301,647	8,883	-0,102	-0,053
302,662	-34,376	-0,092	-0,035
303,676	-200,000	-0,001	-0,058
304,691	395,673	-0,079	-0,114
305,706	-64,483	-0,222	-0,062
306,720	227,198	-0,240	-0,270
307,735	745,953	-0,143	-0,267
308,749	-86,617	-0,034	0,007
309,764	-55,518	-0,102	-0,031
310,779	482,450	-0,100	-0,158
311,793	66,044	-0,140	-0,098
312,808	167,331	-0,137	-0,135
313,822	103,678	-0,233	-0,189
314,837	126,871	-0,189	-0,165
315,852	-108,101	-0,126	0,019
316,866	-128,098	-0,165	-0,016
317,881	-102,709	-0,149	-0,024
318,895	-67,339	-0,082	-0,022
319,910	29,743	-0,126	-0,074
320,925	-163,641	-0,256	-0,008
321,939	53,778	-0,188	-0,124
322,954	24,058	-0,138	-0,078
323,968	800,000	-0,067	-0,156
324,983	19,285	-0,170	-0,094
325,997	-24,685	-0,181	0,074
327,012	-37,358	-0,192	-0,070
328,027	490,923	-0,143	-0,227
329,041	58,600	-0,106	-0,072
330,056	-77,580	-0,091	0,022
331,070	-126,870	-0,076	0,008
332,085	-151,122	-0,132	0,007
333,100	573,109	-0,103	-0,173
334,114	240,861	-0,107	-0,124
335,129	-132,127	-0,178	-0,016
336,143	213,235	-0,161	-0,175
337,158	337,870	-0,136	-0,183
338,173	800,000	-0,068	-0,166
339,187	22,676	-0,086	-0,049
340,202	-46,264	-0,236	-0,079
341,216	28,833	-0,300	-0,175
342,231	43,270	-0,196	-0,123
343,246	522,207	-0,133	-0,216
344,260	70,248	-0,193	-0,137
345,275	-21,174	-0,218	-0,091
346,289	-91,880	-0,062	-0,012
347,304	-5,220	-0,137	-0,065
348,319	-69,231	-0,095	-0,025
349,333	-104,200	-0,170	0,027
350,348	-104,692	-0,123	-0,019
351,362	108,215	-0,149	-0,123
352,377	-66,442	-0,045	-0,012
353,392	-9,966	-0,213	-0,097
354,406	255,506	-0,091	-0,108
355,421	209,463	1314,440	1417,467
356,435	161,212	1475,184	1418,007
