DTS Sentinel unit serial number:	SN410029Multiplexer serial number:	ORYXHardware model number:	OX2-SRSoftware version number:	ORYX F/W v4,00 Oryx Data Collector v3.7.2.0data status	okinstallation	B3 Nyhavnadifferential loss correction	single-endedforward channel	channel 1reverse channel	N/Adate	2023/12/03time	10:22:30forward acquisition time	300,00reverse acquisition time	0,00gamma	499,1914k internal	0,3201k external	0,3201temperature offset calibration	1,0000default loss term (dB/km)	0,3820temperature slope calibration	1,0000multiplexer offset coefficient	1,0000multiplexer slope coefficient	1,0000fibre end	0,00T internal ref (°C)	13,38T ext. ref 1 (°C)	-1,50T ext. ref 2 (°C)	-1,50length (m)	temperature (°C)	Stokes	anti-Stokes-744,400	-55,785	-0,317	-0,102
-743,385	800,000	-0,130	0,272
-742,371	269,437	-0,131	-0,167
-741,356	-200,000	0,013	0,271
-740,342	-58,836	-0,260	-0,081
-739,327	-200,000	-0,081	0,354
-738,312	597,838	-0,143	-0,259
-737,298	800,000	0,162	0,427
-736,283	-0,638	-0,284	-0,146
-735,269	-200,000	-0,080	0,315
-734,254	458,166	-0,156	-0,253
-733,239	-45,941	-0,133	0,047
-732,225	-200,000	-0,006	-0,157
-731,210	-200,000	0,019	0,102
-730,196	-153,605	-0,094	-0,005
-729,181	800,000	-0,068	-0,216
-728,167	800,000	-0,073	-0,202
-727,152	-23,845	-0,065	0,028
-726,137	-200,000	-0,002	-0,011
-725,123	-200,000	-0,010	-0,065
-724,108	-16,504	-0,216	-0,099
-723,094	111,912	0,042	0,037
-722,079	800,000	-0,035	-0,110
-721,064	508,221	0,072	0,122
-720,050	-50,436	0,152	-0,052
-719,035	729,760	0,069	-0,135
-718,021	374,458	-0,013	0,019
-717,006	272,609	-0,080	-0,102
-715,991	83,045	-0,055	-0,044
-714,977	386,410	-0,135	-0,204
-713,962	357,561	-0,046	-0,067
-712,948	393,030	-0,088	-0,134
-711,933	128,387	0,060	0,055
-710,918	14,469	-0,045	0,025
-709,904	4,220	-0,032	-0,017
-708,889	-88,248	-0,053	0,011
-707,875	-200,000	0,008	0,049
-706,860	-54,073	-0,063	0,021
-705,845	26,423	-0,165	0,100
-704,831	-3,325	-0,169	-0,085
-703,816	-200,000	-0,004	0,159
-702,802	-80,039	-0,067	-0,016
-701,787	-200,000	-0,002	0,047
-700,772	-200,000	-0,047	-0,198
-699,758	-200,000	0,023	-0,111
-698,743	-200,000	0,007	-0,105
-697,729	-200,000	0,038	-0,149
-696,714	-195,262	-0,128	0,001
-695,699	-200,000	0,002	-0,122
-694,685	-200,000	0,001	-0,120
-693,670	-103,870	-0,186	-0,031
-692,656	800,000	-0,014	-0,037
-691,641	-171,826	0,036	-0,001
-690,627	222,366	0,096	-0,113
-689,612	-200,000	0,003	0,032
-688,597	-200,000	0,002	0,017
-687,583	-65,204	0,026	-0,008
-686,568	1,197	-0,031	0,016
-685,554	672,539	-0,031	-0,059
-684,539	-200,000	-0,006	-0,207
-683,524	228,930	-0,054	0,064
-682,510	-70,801	-0,096	0,026
-681,495	800,000	-0,050	-0,126
-680,481	-184,462	-0,176	-0,002
-679,466	59,769	-0,057	-0,041
-678,451	4,233	-0,053	-0,028
-677,437	91,043	0,152	0,124
-676,422	-170,529	-0,154	0,004
-675,408	268,949	0,059	0,076
-674,393	-200,000	-0,005	-0,024
-673,378	10,752	-0,120	-0,066
-672,364	-200,000	-0,009	-0,188
-671,349	-46,718	-0,063	-0,022
-670,335	-200,000	0,009	0,097
-669,320	28,298	-0,046	0,028
-668,305	-77,118	-0,047	-0,012
-667,291	-64,904	0,164	0,048
-666,276	-200,000	-0,007	-0,064
-665,262	-200,000	-0,006	-0,068
-664,247	-200,000	0,021	-0,209
-663,232	-200,000	0,019	0,120
-662,218	201,732	-0,028	0,031
-661,203	-200,000	-0,015	-0,052
-660,189	-127,819	-0,025	0,003
-659,174	-76,296	-0,083	-0,021
-658,159	-200,000	0,029	-0,331
-657,145	-21,127	-0,154	-0,068
-656,130	-70,990	-0,314	-0,085
-655,116	800,000	-0,020	0,058
-654,101	-200,000	0,012	0,168
-653,086	112,931	0,055	0,049
-652,072	-91,541	0,025	0,005
-651,057	113,269	-0,036	-0,032
-650,043	-68,289	0,111	-0,031
-649,028	199,200	-0,024	-0,027
-648,014	-200,000	0,016	0,097
-646,999	-36,699	0,079	0,031
-645,984	-7,548	0,089	0,044
-644,970	-100,348	-0,099	-0,018
-643,955	-153,017	-0,074	0,004
-642,941	800,000	-0,046	-0,124
-641,926	97,961	0,085	-0,071
-640,911	144,283	0,033	-0,032
-639,897	-95,100	0,248	0,048
-638,882	87,293	-0,102	-0,081
-637,868	800,000	-0,013	-0,028
-636,853	272,606	-0,092	-0,118
-635,838	-193,371	-0,066	-0,000
-634,824	232,412	-0,096	0,114
-633,809	481,636	0,070	0,116
-632,795	15,888	-0,065	0,037
-631,780	-62,302	-0,189	0,057
-630,765	186,184	-0,076	-0,082
-629,751	11,303	-0,068	0,037
-628,736	430,654	-0,049	-0,077
-627,722	800,000	0,041	-0,088
-626,707	125,503	0,046	0,042
-625,692	15,901	0,066	0,038
-624,678	-109,886	0,058	0,009
-623,663	14,957	-0,119	0,068
-622,649	-53,160	-0,047	0,016
-621,634	-200,000	-0,022	-0,125
-620,619	-60,783	0,077	-0,023
-619,605	-200,000	0,013	0,066
-618,590	11,324	-0,038	-0,021
-617,576	51,319	-0,135	0,093
-616,561	-200,000	-0,018	0,057
-615,546	-200,000	0,026	-0,108
-614,532	-200,000	0,001	-0,102
-613,517	-57,898	0,098	0,031
-612,503	0,300	0,069	-0,036
-611,488	-55,079	0,124	0,040
-610,474	234,564	-0,015	0,018
-609,459	-200,000	-0,006	0,059
-608,444	-200,000	0,010	-0,127
-607,430	40,092	-0,116	-0,075
-606,415	29,612	-0,109	0,067
-605,401	-114,498	-0,074	0,010
-604,386	-69,995	0,082	-0,022
-603,371	-34,180	-0,068	0,027
-602,357	800,000	0,019	-0,042
-601,342	-75,096	0,025	0,007
-600,328	88,718	-0,130	-0,105
-599,313	620,397	0,073	-0,133
-598,298	800,000	0,028	0,072
-597,284	127,351	0,091	-0,084
-596,269	-167,301	0,095	0,003
-595,255	51,362	0,105	0,072
-594,240	-200,000	-0,020	0,113
-593,225	800,000	-0,008	-0,026
-592,211	36,518	-0,130	-0,083
-591,196	13,617	-0,074	-0,041
-590,182	-117,982	0,061	0,008
-589,167	114,980	-0,121	-0,106
-588,152	-17,858	0,054	-0,024
-587,138	166,755	-0,072	-0,074
-586,123	19,229	0,042	-0,024
-585,109	651,424	-0,015	-0,029
-584,094	-81,060	0,039	-0,009
-583,079	800,000	-0,063	0,128
-582,065	-200,000	-0,004	-0,063
-581,050	-200,000	0,004	-0,080
-580,036	-200,000	0,011	-0,077
-579,021	-200,000	-0,005	-0,023
-578,006	-10,064	-0,130	0,062
-576,992	28,292	-0,037	-0,023
-575,977	120,581	0,064	0,057
-574,963	32,678	0,079	-0,049
-573,948	-200,000	-0,005	0,020
-572,934	115,252	-0,020	0,018
-571,919	68,317	0,145	-0,107
-570,904	800,000	0,033	-0,081
-569,890	-56,094	0,037	0,012
-568,875	294,123	0,062	-0,081
-567,861	-195,195	0,057	-0,000
-566,846	77,648	-0,021	0,016
-565,831	275,891	0,050	-0,064
-564,817	435,569	0,073	0,115
-563,802	-36,972	-0,039	0,015
-562,788	158,425	-0,086	-0,086
-561,773	-21,866	0,040	0,017
-560,758	199,624	0,042	0,047
-559,744	-200,000	0,007	0,032
-558,729	281,784	0,023	-0,030
-557,715	376,610	0,031	-0,046
-556,700	-92,581	0,122	-0,025
-555,685	35,049	-0,077	0,049
-554,671	-67,298	-0,125	0,035
-553,656	-200,000	-0,013	0,065
-552,642	800,000	-0,094	0,255
-551,627	800,000	-0,055	0,110
-550,612	-200,000	0,007	0,049
-549,598	800,000	0,038	-0,110
-548,583	-77,448	-0,065	0,016
-547,569	-95,693	0,046	0,009
-546,554	97,443	-0,124	-0,103
-545,539	-200,000	-0,010	0,145
-544,525	558,548	-0,074	0,129
-543,510	-200,000	-0,003	0,025
-542,496	800,000	-0,076	-0,232
-541,481	2,944	-0,084	-0,044
-540,466	349,189	0,059	0,085
-539,452	-200,000	0,028	-0,097
-538,437	-200,000	-0,009	0,147
-537,423	-55,431	-0,024	0,008
-536,408	-159,025	-0,085	-0,003
-535,393	-112,958	-0,073	0,010
-534,379	-95,865	0,105	0,020
-533,364	-15,394	-0,016	-0,007
-532,350	575,390	-0,049	0,087
-531,335	-200,000	-0,016	-0,053
-530,321	-200,000	0,018	0,119
-529,306	362,407	-0,046	0,067
-528,291	-135,988	-0,038	-0,003
-527,277	-66,232	-0,088	-0,025
-526,262	25,513	0,038	-0,023
-525,248	-142,077	0,072	0,005
-524,233	-25,847	0,020	0,008
-523,218	-200,000	0,011	-0,078
-522,204	-69,509	0,094	-0,026
-521,189	-200,000	0,013	-0,090
-520,175	-76,854	-0,068	0,017
-519,160	-66,489	0,043	-0,012
-518,145	-69,071	-0,122	-0,034
-517,131	-200,000	-0,043	0,173
-516,116	800,000	0,050	0,138
-515,102	-6,070	-0,090	0,044
-514,087	359,398	0,062	-0,090
-513,072	-200,000	-0,022	0,093
-512,058	23,486	-0,095	-0,056
-511,043	339,657	0,070	0,098
-510,029	43,756	0,055	-0,036
-509,014	29,513	0,086	-0,053
-507,999	-200,000	0,002	0,113
-506,985	-45,653	0,066	0,023
-505,970	17,394	-0,134	-0,076
-504,956	-200,000	0,022	0,161
-503,941	64,693	0,097	-0,070
-502,926	180,692	-0,084	0,089
-501,912	-200,000	0,008	0,050
-500,897	158,494	0,087	0,087
-499,883	-90,352	-0,066	-0,014
-498,868	613,573	-0,032	-0,058
-497,853	83,426	0,092	-0,072
-496,839	-49,224	-0,092	-0,032
-495,824	800,000	-0,044	0,137
-494,810	-200,000	0,018	0,084
-493,795	800,000	-0,053	0,126
-492,781	124,277	-0,030	0,027
-491,766	-171,792	0,090	0,002
-490,751	-200,000	0,030	-0,132
-489,737	-180,220	0,056	-0,001
-488,722	576,417	-0,029	0,051
-487,708	-200,000	-0,014	0,107
-486,693	365,647	-0,061	0,089
-485,678	-92,089	-0,143	0,029
-484,664	178,653	-0,009	-0,009
-483,649	64,645	-0,018	-0,013
-482,635	-200,000	0,016	-0,111
-481,620	-200,000	-0,017	-0,096
-480,605	-200,000	-0,010	0,039
-479,591	-200,000	-0,004	0,045
-478,576	-200,000	0,002	-0,024
-477,562	-200,000	0,019	-0,071
-476,547	-27,139	-0,158	-0,066
-475,532	-200,000	0,003	-0,056
-474,518	800,000	-0,045	0,142
-473,503	-200,000	-0,012	-0,048
-472,489	734,832	0,023	-0,044
-471,474	627,625	-0,017	-0,030
-470,459	-200,000	0,005	0,018
-469,445	800,000	0,051	-0,109
-468,430	25,719	-0,074	0,044
-467,416	220,662	0,030	-0,034
-466,401	359,270	-0,038	0,054
-465,386	-105,605	0,093	0,015
-464,372	-200,000	-0,011	-0,083
-463,357	515,006	-0,029	-0,049
-462,343	-200,000	0,004	-0,054
-461,328	40,754	-0,067	0,044
-460,313	109,238	-0,046	0,040
-459,299	-11,903	0,085	0,040
-458,284	398,596	-0,093	0,141
-457,270	-200,000	0,028	0,098
-456,255	800,000	0,019	0,039
-455,241	-200,000	-0,006	-0,124
-454,226	-57,127	0,016	0,005
-453,211	-70,122	0,178	0,048
-452,197	62,445	-0,057	0,041
-451,182	34,290	-0,009	0,005
-450,168	637,109	-0,079	0,146
-449,153	704,327	0,006	0,011
-448,138	-127,981	-0,097	-0,010
-447,124	121,236	0,150	-0,134
-446,109	-34,393	0,085	-0,033
-445,095	800,000	-0,034	-0,084
-444,080	149,702	0,100	0,098
-443,065	294,498	0,028	-0,037
-442,051	-200,000	-0,023	-0,121
-441,036	269,878	-0,047	-0,059
-440,022	452,987	0,066	0,106
-439,007	-200,000	-0,002	-0,018
-437,992	-200,000	-0,002	0,059
-436,978	47,091	0,106	-0,071
-435,963	212,938	-0,058	-0,066
-434,949	-100,457	-0,098	-0,017
-433,934	-104,063	0,017	-0,003
-432,919	-113,069	-0,111	-0,016
-431,905	88,113	-0,036	0,029
-430,890	-200,000	-0,003	0,042
-429,876	-85,220	0,018	-0,004
-428,861	-147,949	0,212	0,012
-427,846	208,698	0,035	-0,039
-426,832	-87,261	-0,073	-0,016
-425,817	800,000	-0,047	-0,107
-424,803	56,671	0,072	0,051
-423,788	-55,968	-0,072	0,023
-422,773	-200,000	0,029	-0,122
-421,759	800,000	-0,056	0,149
-420,744	-200,000	0,003	-0,057
-419,730	-86,662	-0,160	-0,035
-418,715	173,372	-0,032	0,033
-417,701	219,606	-0,017	0,020
-416,686	4,627	-0,181	-0,095
-415,671	800,000	-0,001	-0,003
-414,657	399,355	0,026	-0,039
-413,642	558,800	0,038	0,066
-412,628	30,920	-0,159	-0,098
-411,613	-200,000	0,004	-0,062
-410,598	64,270	0,201	-0,145
-409,584	126,231	0,053	-0,048
-408,569	800,000	0,052	0,122
-407,555	383,074	0,021	-0,031
-406,540	588,876	-0,042	0,075
-405,525	126,062	-0,057	0,052
-404,511	-200,000	-0,003	0,040
-403,496	558,020	0,037	-0,064
-402,482	-129,221	0,145	-0,014
-401,467	-82,119	-0,097	0,022
-400,452	64,149	-0,062	-0,045
-399,438	190,169	0,068	0,073
-398,423	-106,497	-0,086	-0,014
-397,409	800,000	0,025	-0,069
-396,394	112,600	-0,097	-0,085
-395,379	-69,574	0,207	-0,056
-394,365	24,623	-0,047	-0,028
-393,350	800,000	0,013	0,028
-392,336	-107,162	-0,104	0,016
-391,321	109,753	-0,080	0,068
-390,306	-124,740	-0,104	0,011
-389,292	71,140	0,023	0,017
-388,277	324,944	0,032	-0,044
-387,263	-200,000	0,004	0,017
-386,248	5,387	0,068	0,036
-385,233	-200,000	0,017	0,062
-384,219	800,000	0,020	-0,053
-383,204	74,012	-0,147	-0,111
-382,190	-131,827	-0,104	0,010
-381,175	-0,522	0,108	0,055
-380,160	800,000	-0,050	0,104
-379,146	-200,000	0,026	0,126
-378,131	-121,127	-0,043	0,005
-377,117	-200,000	0,018	-0,093
-376,102	-49,234	-0,156	0,053
-375,088	24,413	0,032	-0,019
-374,073	569,792	0,003	-0,005
-373,058	65,847	0,163	-0,119
-372,044	-119,584	0,083	0,010
-371,029	444,924	-0,041	-0,065
-370,015	-94,558	0,039	-0,008
-369,000	30,343	0,107	-0,065
-367,985	-63,735	-0,082	0,024
-366,971	47,026	-0,016	-0,010
-365,956	255,167	0,068	0,084
-364,942	-200,000	-0,008	0,131
-363,927	-200,000	-0,018	0,118
-362,912	-58,752	-0,066	0,020
-361,898	65,950	-0,034	-0,024
-360,883	111,883	-0,025	0,022
-359,869	-87,115	-0,157	0,034
-358,854	16,806	0,039	-0,022
-357,839	206,383	0,034	0,038
-356,825	-200,000	0,002	0,043
-355,810	-20,293	-0,020	-0,009
-354,796	7,873	-0,064	0,034
-353,781	591,779	-0,071	0,125
-352,766	-50,998	0,039	0,013
-351,752	-46,542	0,050	-0,018
-350,737	707,799	-0,059	0,111
-349,723	51,478	0,145	-0,099
-348,708	123,191	-0,038	-0,034
-347,693	66,989	-0,048	0,035
-346,679	-95,571	0,100	-0,019
-345,664	-62,139	0,166	0,049
-344,650	71,776	0,085	-0,063
-343,635	174,077	0,066	0,068
-342,620	83,099	0,092	0,072
-341,606	-47,457	0,088	-0,031
-340,591	725,923	-0,053	0,103
-339,577	92,136	-0,062	-0,050
-338,562	800,000	0,028	-0,070
-337,548	10,530	0,114	0,062
-336,533	35,989	0,097	-0,061
-335,518	140,604	0,063	0,059
-334,504	138,653	0,039	0,036
-333,489	800,000	-0,023	-0,064
-332,475	66,163	-0,005	0,003
-331,460	20,840	-0,111	0,064
-330,445	-44,485	0,180	0,064
-329,431	5,091	0,074	0,039
-328,416	320,733	-0,055	0,075
-327,402	73,579	0,073	-0,055
-326,387	-7,963	-0,070	-0,034
-325,372	-52,288	-0,069	-0,023
-324,358	-19,457	0,078	-0,034
-323,343	-113,426	0,078	-0,011
-322,329	36,330	-0,106	0,067
-321,314	38,245	0,174	0,111
-320,299	225,146	-0,033	-0,038
-319,285	61,206	0,062	-0,044
-318,270	87,350	-0,092	-0,073
-317,256	216,830	-0,087	-0,099
-316,241	188,715	0,069	0,074
-315,226	800,000	-0,035	0,071
-314,212	-79,213	0,092	-0,022
-313,197	52,794	0,077	0,053
-312,183	-117,589	-0,149	0,019
-311,168	604,353	-0,069	-0,124
-310,153	-200,000	-0,010	-0,070
-309,139	445,799	-0,053	-0,084
-308,124	-200,000	0,002	-0,107
-307,110	176,088	0,123	0,128
-306,095	-91,866	0,085	-0,017
-305,080	150,117	-0,048	0,047
-304,066	504,402	0,048	0,080
-303,051	-80,918	0,032	-0,008
-302,037	-14,492	-0,128	-0,059
-301,022	495,455	-0,031	0,052
-300,008	-5,641	0,056	0,028
-298,993	192,485	-0,090	0,097
-297,978	-95,031	0,104	0,020
-296,964	-16,930	0,159	-0,072
-295,949	800,000	-0,031	-0,091
-294,935	-56,770	-0,113	-0,035
-293,920	-200,000	-0,008	0,151
-292,905	800,000	-0,045	0,103
-291,891	-200,000	-0,006	0,120
-290,876	-114,294	0,037	0,005
-289,862	47,818	-0,032	-0,021
-288,847	-1,879	-0,126	0,063
-287,832	-34,119	-0,078	-0,030
-286,818	-126,538	0,140	0,015
-285,803	197,166	0,088	0,096
-284,789	7,551	0,033	0,017
-283,774	-69,849	-0,008	0,002
-282,759	10,456	-0,051	-0,028
-281,745	-138,897	0,062	0,005
-280,730	800,000	-0,044	-0,087
-279,716	127,306	0,080	-0,072
-278,701	-200,000	0,014	0,067
-277,686	174,684	-0,095	-0,099
-276,672	348,838	0,022	0,031
-275,657	-128,201	-0,141	-0,014
-274,643	-59,885	-0,071	-0,022
-273,628	-200,000	0,008	0,077
-272,613	244,089	-0,035	-0,042
-271,599	800,000	-0,009	0,029
-270,584	679,922	-0,004	0,008
-269,570	-1,208	-0,020	0,010
-268,555	140,430	0,033	0,031
-267,540	-162,160	-0,127	0,004
-266,526	223,632	0,110	-0,127
-265,511	179,740	0,107	0,112
-264,497	61,316	0,031	-0,022
-263,482	-1,031	0,143	0,072
-262,467	445,284	0,065	0,103
-261,453	-132,664	-0,100	0,009
-260,438	-27,559	-0,094	0,039
-259,424	46,402	-0,058	-0,038
-258,409	-200,000	-0,011	-0,188
-257,395	-200,000	-0,033	-0,133
-256,380	-113,106	0,085	0,012
-255,365	72,769	0,138	-0,103
-254,351	206,401	-0,086	0,096
-253,336	-38,827	0,055	0,021
-252,322	-17,023	0,048	-0,021
-251,307	-200,000	0,002	-0,072
-250,292	263,626	0,058	0,073
-249,278	455,703	0,050	0,080
-248,263	-2,616	-0,087	0,043
-247,249	-200,000	0,009	-0,102
-246,234	105,540	0,038	0,032
-245,219	-101,794	-0,066	0,011
-244,205	45,886	-0,047	-0,031
-243,190	-50,664	-0,151	-0,050
-242,176	-200,000	0,014	0,095
-241,161	177,747	-0,050	0,052
-240,146	-200,000	0,007	0,053
-239,132	345,944	-0,022	-0,031
-238,117	800,000	-0,031	-0,091
-237,103	-200,000	-0,003	-0,064
-236,088	68,858	0,022	-0,016
-235,073	189,418	0,056	-0,060
-234,059	800,000	0,024	0,049
-233,044	482,187	-0,034	0,056
-232,030	800,000	0,027	0,054
-231,015	800,000	-0,050	-0,115
-230,000	-95,756	-0,036	-0,007
-228,986	-26,106	0,191	0,080
-227,971	-98,346	0,104	-0,019
-226,957	-15,236	0,193	-0,088
-225,942	40,536	-0,038	-0,025
-224,927	-26,220	-0,107	0,045
-223,913	93,361	-0,158	-0,127
-222,898	-200,000	0,027	-0,221
-221,884	262,102	-0,121	-0,150
-220,869	-200,000	-0,036	0,113
-219,855	-200,000	0,006	0,156
-218,840	-77,594	-0,062	0,015
-217,825	13,793	0,079	0,044
-216,811	335,486	-0,075	0,104
-215,796	291,007	-0,089	-0,116
-214,782	-62,497	0,163	0,048
-213,767	-39,095	0,121	0,045
-212,752	14,414	-0,040	0,022
-211,738	2,496	0,098	-0,050
-210,723	135,337	-0,053	0,049
-209,709	-58,532	-0,031	0,010
-208,694	-200,000	0,021	-0,103
-207,679	-200,000	-0,041	-0,176
-206,665	190,389	0,006	-0,007
-205,650	-200,000	-0,003	0,254
-204,636	69,767	-0,023	-0,017
-203,621	-88,427	-0,029	-0,006
-202,606	280,457	-0,031	0,039
-201,592	-200,000	-0,006	0,022
-200,577	65,067	-0,055	-0,040
-199,563	800,000	0,019	0,057
-198,548	-16,807	-0,046	-0,021
-197,533	337,364	0,073	0,102
-196,519	800,000	-0,025	-0,056
-195,504	-200,000	-0,021	-0,147
-194,490	-127,176	0,071	0,007
-193,475	681,436	0,090	-0,167
-192,460	165,464	-0,173	-0,174
-191,446	99,461	0,055	0,045
-190,431	8,073	0,094	0,050
-189,417	-135,700	0,198	0,016
-188,402	248,640	0,124	0,149
-187,387	-200,000	0,018	-0,111
-186,373	-39,291	0,134	-0,050
-185,358	-46,224	-0,036	-0,012
-184,344	28,548	0,101	-0,061
-183,329	-89,520	-0,077	0,016
-182,315	-17,977	-0,077	-0,034
-181,300	433,358	0,038	0,060
-180,285	800,000	0,011	-0,023
-179,271	-145,491	-0,097	-0,006
-178,256	-73,122	-0,026	0,007
-177,242	36,898	0,070	0,044
-176,227	-200,000	-0,023	0,125
-175,212	-200,000	-0,042	0,161
-174,198	-77,866	0,067	0,016
-173,183	800,000	0,046	-0,098
-172,169	-200,000	-0,061	-0,247
-171,154	268,789	-0,077	-0,096
-170,139	-59,171	0,154	0,047
-169,125	-55,784	0,095	0,030
-168,110	-24,337	0,231	0,098
-167,096	-71,587	-0,156	0,041
-166,081	-184,104	-0,030	0,000
-165,066	-200,000	0,020	-0,075
-164,052	166,328	0,081	-0,082
-163,037	-81,143	0,101	0,023
-162,023	465,705	-0,044	-0,070
-161,008	630,745	-0,035	0,064
-159,993	800,000	-0,019	0,056
-158,979	-80,609	-0,066	0,016
-157,964	-109,984	-0,074	0,011
-156,950	-200,000	0,000	-0,101
-155,935	800,000	0,023	-0,055
-154,920	800,000	0,053	-0,124
-153,906	-127,622	0,151	0,015
-152,891	-106,172	-0,074	-0,012
-151,877	-200,000	-0,014	0,082
-150,862	71,393	-0,158	0,117
-149,847	-126,004	-0,104	0,011
-148,833	268,328	0,156	0,195
-147,818	-71,664	-0,042	-0,011
-146,804	800,000	0,047	-0,123
-145,789	-200,000	-0,003	0,017
-144,775	-82,826	0,059	0,013
-143,760	219,867	-0,144	0,165
-142,745	-140,731	-0,039	0,003
-141,731	-130,789	-0,148	-0,014
-140,716	-69,858	-0,083	0,022
-139,702	-50,982	-0,183	0,061
-138,687	-70,619	0,034	-0,009
-137,672	-200,000	-0,012	0,046
-136,658	800,000	0,059	-0,148
-135,643	758,463	-0,042	-0,081
-134,629	2,595	0,123	-0,063
-133,614	9,528	0,155	-0,083
-132,599	-200,000	-0,008	0,170
-131,585	389,988	0,123	0,182
-130,570	395,927	0,027	0,040
-129,556	316,965	-0,082	-0,110
-128,541	3,071	0,066	-0,034
-127,526	271,715	0,058	0,072
-126,512	-24,839	0,139	0,058
-125,497	-200,000	-0,029	0,098
-124,483	-45,979	0,244	0,085
-123,468	286,268	0,039	0,051
-122,453	-200,000	0,010	-0,082
-121,439	617,197	0,029	-0,052
-120,424	252,400	-0,064	0,078
-119,410	800,000	0,060	-0,121
-118,395	800,000	0,011	0,031
-117,380	211,716	0,094	0,105
-116,366	36,208	0,064	0,040
-115,351	662,269	0,066	-0,122
-114,337	-39,237	-0,095	-0,035
-113,322	-122,936	0,262	-0,030
-112,307	352,444	0,050	-0,070
-111,293	-27,609	0,063	-0,026
-110,278	-115,066	0,134	0,018
-109,264	351,310	0,023	0,032
-108,249	-200,000	0,011	0,035
-107,234	696,755	-0,054	-0,101
-106,220	204,290	-0,045	0,049
-105,205	77,713	-0,107	-0,080
-104,191	-58,649	0,172	-0,053
-103,176	28,617	-0,065	0,039
-102,162	738,559	-0,078	0,149
-101,147	-15,406	0,079	-0,036
-100,132	-200,000	-0,030	-0,113
-99,118	108,822	-0,124	-0,105
-98,103	-200,000	0,017	0,200
-97,089	-200,000	-0,000	-0,049
-96,074	116,210	0,007	-0,006
-95,059	318,458	-0,063	0,084
-94,045	356,472	-0,045	-0,064
-93,030	521,822	-0,054	-0,090
-92,016	-134,101	0,143	0,012
-91,001	800,000	0,049	0,133
-89,986	-200,000	-0,015	-0,069
-88,972	800,000	-0,073	0,184
-87,957	800,000	-0,032	0,094
-86,943	-200,000	0,001	0,154
-85,928	-124,611	-0,111	-0,012
-84,913	-151,631	0,118	0,006
-83,899	43,941	0,063	-0,041
-82,884	242,074	-0,096	-0,114
-81,870	800,000	0,074	0,196
-80,855	-71,588	-0,047	0,012
-79,840	-200,000	-0,017	0,134
-78,826	-200,000	-0,020	-0,106
-77,811	-145,933	-0,060	0,004
-76,797	14,308	-0,011	0,006
-75,782	-119,955	0,123	-0,015
-74,767	-200,000	-0,030	0,252
-73,753	-200,000	0,009	0,057
-72,738	-147,487	-0,067	-0,004
-71,724	-90,673	-0,136	0,028
-70,709	-200,000	0,005	-0,105
-69,694	153,821	-0,037	-0,035
-68,680	800,000	-0,041	-0,097
-67,665	92,359	0,060	-0,048
-66,651	-82,820	-0,023	-0,005
-65,636	322,454	-0,050	-0,068
-64,622	18,023	0,076	0,043
-63,607	-27,506	-0,101	-0,041
-62,592	-200,000	-0,009	0,092
-61,578	-200,000	0,007	-0,036
-60,563	-200,000	0,007	0,054
-59,549	-37,003	0,151	0,057
-58,534	-35,337	-1,542	-0,591
-57,519	411,056	-1,411	-2,126
-56,505	-200,000	-0,478	-4,580
-55,490	283,994	1,044	1,332
-54,476	800,000	4,850	11,028
-53,461	-200,000	19,178	319,252
-52,446	-200,000	740,164	2334,488
-51,432	574,445	1655,181	2870,908
-50,417	78,385	1671,258	1262,600
-49,403	21,370	1544,014	886,073
-48,388	15,234	1466,496	811,743
-47,373	17,943	1456,720	819,397
-46,359	16,733	1446,297	807,698
-45,344	13,505	1442,180	789,898
-44,330	13,412	1440,073	788,267
-43,315	13,403	1438,317	787,235
-42,300	13,460	1436,715	786,594
-41,286	13,456	1435,599	785,935
-40,271	13,364	1434,156	784,676
-39,257	13,399	1432,744	784,040
-38,242	13,476	1431,503	783,697
-37,227	13,434	1430,391	782,854
-36,213	13,453	1428,963	782,133
-35,198	13,453	1427,883	781,510
-34,184	13,509	1426,942	781,232
-33,169	13,475	1425,403	780,196
-32,154	13,542	1424,361	779,914
-31,140	13,529	1422,930	779,037
-30,125	13,508	1421,889	778,335
-29,111	13,464	1420,941	777,578
-28,096	13,471	1419,793	776,954
-27,082	13,422	1418,787	776,138
-26,067	13,456	1417,524	775,576
-25,052	13,397	1416,624	774,776
-24,038	13,388	1415,706	774,200
-23,023	13,414	1414,690	773,738
-22,009	13,362	1413,518	772,822
-20,994	13,380	1412,771	772,466
-19,979	13,365	1411,765	771,817
-18,965	13,377	1410,813	771,322
-17,950	13,349	1409,855	770,637
-16,936	13,345	1408,914	770,070
-15,921	13,343	1407,777	769,409
-14,906	13,346	1406,996	768,969
-13,892	13,299	1406,199	768,284
-12,877	13,262	1405,209	767,538
-11,863	13,287	1404,368	767,161
-10,848	13,333	1403,272	766,749
-9,833	13,256	1402,712	766,055
-8,819	13,191	1402,041	765,356
-7,804	13,259	1400,684	764,900
-6,790	13,210	1399,787	764,152
-5,775	13,252	1398,718	763,732
-4,760	13,237	1397,703	763,077
-3,746	13,193	1396,882	762,396
-2,731	13,157	1396,308	761,885
-1,717	13,181	1395,160	761,343
-0,702	13,170	1393,247	760,214
0,313	16,987	1310,249	732,622
1,327	33,003	704,210	430,802
2,342	50,775	123,426	82,565
3,356	1,780	16,634	8,454
4,371	18,745	3,202	1,808
5,386	-51,475	0,602	0,198
6,400	-200,000	-0,001	0,213
7,415	84,038	-0,197	-0,152
8,429	-79,553	-0,274	-0,065
9,444	-87,376	-0,406	-0,086
10,459	90,592	-0,247	-0,196
11,473	104,123	-0,253	-0,210
12,488	137,579	-0,231	-0,214
13,502	-76,965	-0,356	-0,087
14,517	143,182	-0,321	-0,302
15,531	751,893	-0,211	-0,405
16,546	91,368	-0,373	-0,296
17,561	84,894	-0,405	-0,314
18,575	113,788	-0,218	-0,188
19,590	-76,639	-0,136	-0,034
20,604	110,975	-0,193	-0,164
21,619	90,093	-0,393	-0,310
22,634	150,828	-0,464	-0,445
23,648	45,264	-0,416	-0,270
24,663	47,913	-0,452	-0,297
25,677	543,628	-0,158	-0,267
26,692	80,208	-0,351	-0,266
27,707	98,694	-0,318	-0,259
28,721	142,082	-0,468	-0,438
29,736	53,444	-0,403	-0,272
30,750	169,196	-0,346	-0,349
31,765	255,947	-0,313	-0,380
32,780	-19,505	-0,470	-0,205
33,794	-22,207	-0,516	-0,220
34,809	22,467	-0,435	-0,251
35,823	70,770	-0,234	-0,171
36,838	54,760	-0,275	-0,187
37,853	383,279	-0,265	-0,386
38,867	-13,957	-0,359	-0,163
39,882	85,182	-0,363	-0,281
40,896	80,228	-0,410	-0,311
41,911	157,758	-0,278	-0,272
42,926	103,410	-0,225	-0,186
43,940	57,566	-0,326	-0,225
44,955	121,777	-0,323	-0,284
45,969	-100,374	-0,344	-0,059
46,984	103,838	-0,360	-0,298
47,999	20,383	-0,349	-0,198
49,013	-135,747	-0,363	-0,030
50,028	-4,670	-0,442	-0,214
51,042	243,169	-0,253	-0,299
52,057	-0,523	-0,323	-0,161
53,071	143,942	-0,320	-0,301
54,086	275,123	-0,242	-0,303
55,101	15,819	-0,420	-0,232
56,115	8,929	-0,326	-0,173
57,130	54,431	-0,277	-0,188
58,144	121,625	-0,270	-0,237
59,159	14,894	-0,414	-0,227
60,174	49,617	-0,462	-0,306
61,188	264,389	-0,277	-0,340
62,203	208,581	-0,354	-0,390
63,217	2,671	-0,345	-0,175
64,232	-104,581	-0,361	-0,058
65,247	113,237	-0,311	-0,266
66,261	151,880	-0,400	-0,384
67,276	80,057	-0,324	-0,245
68,290	-7,050	-0,319	-0,152
69,305	53,158	-0,354	-0,238
70,320	-7,049	-0,285	-0,135
71,334	66,459	-0,316	-0,225
72,349	-3,052	-0,337	-0,165
73,363	-6,578	-0,400	-0,191
74,378	-14,179	-0,290	-0,131
75,393	159,901	-0,184	-0,181
76,407	32,632	-0,214	-0,130
77,422	31,773	-0,279	-0,169
78,436	27,927	-0,284	-0,168
79,451	120,823	-0,274	-0,239
80,466	125,109	-0,289	-0,256
81,480	94,436	-0,347	-0,276
82,495	53,327	-0,205	-0,138
83,509	38,759	-0,229	-0,143
84,524	-86,381	-0,326	-0,070
85,539	31,097	-0,374	-0,225
86,553	-92,584	-0,387	-0,076
87,568	118,418	-0,291	-0,252
88,582	64,823	-0,357	-0,252
89,597	61,624	-0,305	-0,213
90,611	-8,739	-0,277	-0,130
91,626	-16,940	-0,255	-0,113
92,641	82,911	-0,160	-0,122
93,655	79,169	-0,185	-0,139
94,670	-42,305	-0,241	-0,086
95,684	240,205	-0,285	-0,334
96,699	123,184	-0,230	-0,202
97,714	-25,674	-0,417	-0,172
98,728	47,085	-0,212	-0,138
99,743	17,437	-0,234	-0,130
100,757	-53,485	-0,300	-0,096
101,772	-40,912	-0,339	-0,122
102,787	-42,978	-0,415	-0,147
103,801	60,322	-0,206	-0,143
104,816	31,535	-0,315	-0,189
105,830	-132,948	-0,195	-0,017
106,845	-2,250	-0,293	-0,144
107,860	-51,801	-0,319	-0,104
108,874	107,283	-0,182	-0,152
109,889	45,770	-0,323	-0,209
110,903	122,582	-0,245	-0,215
111,918	-67,418	-0,344	-0,094
112,933	53,730	-0,264	-0,178
113,947	20,516	-0,336	-0,190
114,962	290,504	-0,199	-0,254
115,976	41,562	-0,390	-0,247
116,991	170,791	-0,309	-0,311
118,006	150,508	-0,206	-0,196
119,020	22,633	-0,243	-0,139
120,035	410,818	-0,191	-0,284
121,049	19,637	-0,215	-0,121
122,064	-112,405	-0,256	-0,036
123,079	-63,602	-0,404	-0,115
124,093	112,912	-0,291	-0,247
125,108	291,007	-0,168	-0,214
126,122	88,176	-0,251	-0,195
127,137	-71,167	-0,389	-0,102
128,151	116,770	-0,204	-0,176
129,166	-149,985	-0,192	0,010
130,181	82,775	-0,222	-0,169
131,195	11,618	-0,303	-0,162
132,210	43,618	-0,351	-0,224
133,224	286,783	-0,205	-0,260
134,239	249,351	-0,246	-0,292
135,254	-80,844	-0,321	-0,074
136,268	-62,020	-0,216	-0,063
137,283	521,063	-0,161	-0,266
138,297	107,572	-0,314	-0,261
139,312	800,000	-0,171	-0,361
140,327	62,569	-0,252	-0,176
141,341	78,786	-0,265	-0,198
142,356	84,371	-0,305	-0,233
143,370	112,269	-0,278	-0,235
144,385	39,458	-0,229	-0,143
145,400	800,000	-0,133	-0,261
146,414	275,766	-0,232	-0,288
147,429	129,988	-0,240	-0,215
148,443	-109,305	-0,268	0,039
149,458	493,526	-0,157	-0,253
150,473	257,018	-0,144	-0,173
151,487	184,572	-0,180	-0,186
152,502	180,319	-0,163	-0,167
153,516	100,207	-0,202	-0,164
154,531	37,991	-0,297	-0,184
155,546	251,136	-0,158	-0,188
156,560	-200,000	-0,076	-0,273
157,575	-14,490	-0,150	-0,067
158,589	-20,733	-0,261	-0,111
159,604	77,090	-0,127	-0,094
160,619	-9,806	-0,284	-0,131
161,633	61,726	-0,225	-0,156
162,648	-55,127	-0,291	-0,091
163,662	-15,766	-0,236	-0,105
164,677	-86,453	-0,148	-0,031
165,692	280,177	-0,147	-0,183
166,706	-83,393	-0,205	-0,046
167,721	-106,990	-0,218	-0,033
168,735	20,440	-0,228	-0,128
169,750	76,798	-0,252	-0,186
170,764	-74,682	-0,239	-0,059
171,779	401,881	-0,133	-0,196
172,794	112,270	-0,242	-0,204
173,808	323,752	-0,203	-0,270
174,823	17,072	-0,321	-0,177
175,837	86,207	-0,282	-0,216
176,852	800,000	-0,141	-0,355
177,867	160,932	-0,139	-0,135
178,881	295,665	-0,119	-0,153
179,896	311,812	-0,212	-0,277
180,910	-9,591	-0,239	-0,110
181,925	-90,037	-0,149	-0,030
182,940	35,702	-0,238	-0,145
183,954	-7,046	-0,177	-0,083
184,969	800,000	-0,106	-0,226
185,983	-86,691	-0,197	-0,042
186,998	-21,231	-0,192	-0,082
188,013	184,146	-0,144	-0,148
189,027	14,448	-0,207	-0,112
190,042	109,285	-0,325	-0,271
191,056	165,816	-0,203	-0,200
192,071	54,125	-0,187	-0,125
193,086	7,825	-0,271	-0,141
194,100	-200,000	-0,034	-0,160
195,115	-30,312	-0,227	-0,089
196,129	79,533	-0,248	-0,185
197,144	268,804	-0,133	-0,163
198,159	-138,647	-0,125	-0,009
199,173	19,733	-0,275	-0,153
200,188	367,839	-0,152	-0,214
201,202	-181,429	-0,055	-0,001
202,217	-87,054	-0,054	-0,011
203,232	-119,831	-0,255	-0,030
204,246	-115,664	-0,304	-0,039
205,261	36,023	-0,204	-0,124
206,275	106,278	-0,204	-0,168
207,290	-57,755	-0,203	-0,061
208,304	37,119	-0,088	-0,054
209,319	-0,756	-0,217	-0,107
210,334	162,185	-0,191	-0,186
211,348	-47,959	-0,286	-0,096
212,363	-87,244	-0,134	0,028
213,377	328,862	-0,126	-0,169
214,392	163,834	-0,159	-0,156
215,407	-5,981	-0,091	-0,043
216,421	-17,982	-0,116	-0,050
217,436	800,000	-0,147	-0,306
218,450	120,997	-0,235	-0,203
219,465	457,550	-0,142	-0,219
220,480	126,809	-0,172	-0,151
221,494	52,427	-0,090	-0,059
222,509	-29,929	-0,243	-0,096
223,523	40,576	-0,211	-0,132
224,538	-101,360	-0,205	-0,034
225,553	-53,333	-0,219	-0,069
226,567	35,914	-0,197	-0,120
227,582	46,793	-0,140	-0,090
228,596	238,241	-0,086	-0,099
229,611	2,099	-0,167	0,083
230,626	-92,769	-0,311	-0,060
231,640	161,207	-0,188	-0,182
232,655	157,167	-0,194	-0,186
233,669	150,369	-0,122	-0,115
234,684	547,384	-0,183	-0,305
235,699	627,981	-0,092	-0,162
236,713	-35,364	-0,180	-0,067
237,728	800,000	-0,057	-0,170
238,742	81,228	-0,123	-0,092
239,757	472,028	-0,160	-0,250
240,772	2,127	-0,237	-0,118
241,786	126,227	-0,145	-0,127
242,801	-20,579	-0,341	-0,145
243,815	-200,000	-0,019	-0,149
244,830	130,691	-0,181	-0,160
245,844	-7,859	-0,228	-0,106
246,859	400,709	-0,163	-0,238
247,874	294,755	-0,181	-0,230
248,888	-97,256	-0,223	-0,040
249,903	800,000	-0,083	-0,240
250,917	33,976	-0,241	-0,145
251,932	-75,057	-0,211	0,052
252,947	146,826	-0,166	-0,155
253,961	100,193	-0,203	-0,162
254,976	8,903	-0,222	-0,115
255,990	118,021	-0,234	-0,200
257,005	167,901	-0,222	-0,219
258,020	148,092	-0,089	-0,083
259,034	-34,555	-0,214	-0,081
260,049	254,894	-0,135	-0,161
261,063	-200,000	-0,048	-0,166
262,078	187,440	-0,202	-0,208
263,093	97,412	-0,208	-0,165
264,107	199,124	-0,154	-0,163
265,122	-200,000	-0,033	-0,239
266,136	-200,000	-0,022	-0,156
267,151	-40,635	-0,184	0,066
268,166	-120,807	-0,169	-0,020
269,180	71,110	-0,205	-0,147
270,195	628,485	-0,109	-0,192
271,209	444,258	-0,104	-0,159
272,224	-100,869	-0,273	-0,046
273,239	145,455	-0,121	-0,112
274,253	319,159	-0,072	-0,095
275,268	-3,032	-0,192	-0,092
276,282	186,510	-0,096	-0,098
277,297	280,198	-0,145	-0,180
278,312	278,971	-0,195	-0,241
279,326	-80,358	-0,071	-0,016
280,341	-26,343	-0,211	-0,085
281,355	21,399	-0,189	-0,106
282,370	800,000	-0,018	-0,050
283,384	188,821	-0,154	-0,159
284,399	800,000	-0,126	-0,270
285,414	136,715	-0,129	-0,116
286,428	28,172	-0,253	-0,147
287,443	800,000	-0,019	-0,044
288,457	751,619	-0,084	-0,158
289,472	722,110	-0,056	-0,103
290,487	151,482	-0,199	-0,187
291,501	649,887	-0,158	-0,279
292,516	456,126	-0,131	-0,202
293,530	-31,812	-0,175	0,068
294,545	-21,348	-0,155	-0,065
295,560	-200,000	-0,040	-0,214
296,574	-200,000	-0,051	-0,184
297,589	-182,633	-0,191	-0,002
298,603	268,735	-0,119	-0,144
299,618	85,455	-0,065	-0,049
300,633	-7,075	-0,052	0,024
301,647	-27,075	-0,190	-0,076
302,662	-140,892	-0,143	-0,010
303,676	-74,485	-0,125	-0,031
304,691	264,901	-0,125	-0,150
305,706	-150,282	-0,233	-0,012
306,720	49,729	-0,096	-0,062
307,735	-54,821	-0,233	-0,072
308,749	436,086	-0,047	-0,071
309,764	-84,150	-0,204	-0,044
310,779	63,797	-0,138	-0,095
311,793	-155,740	-0,169	-0,007
312,808	318,718	-0,142	-0,186
313,822	12,963	-0,175	-0,093
314,837	327,988	-0,141	-0,186
315,852	-8,416	-0,229	-0,105
316,866	-133,042	-0,070	-0,006
317,881	-16,282	-0,172	-0,075
318,895	-60,798	-0,216	-0,063
319,910	737,290	-0,056	-0,103
320,925	411,491	-0,126	-0,185
321,939	166,867	-0,124	-0,121
322,954	127,204	-0,082	-0,072
323,968	-159,325	-0,168	-0,006
324,983	112,066	-0,114	0,095
325,997	800,000	-0,035	-0,089
327,012	353,699	-0,190	-0,260
328,027	221,474	-0,127	-0,140
329,041	-64,314	-0,072	0,020
330,056	-200,000	0,006	-0,175
331,070	136,572	-0,052	0,047
332,085	-107,354	-0,169	-0,025
333,100	-74,173	-0,159	-0,039
334,114	459,814	-0,143	-0,220
335,129	270,551	-0,111	0,134
336,143	223,572	-0,148	-0,164
337,158	102,998	-0,180	-0,145
338,173	-99,855	-0,108	-0,018
339,187	623,905	-0,075	-0,130
340,202	800,000	-0,078	-0,172
341,216	345,992	-0,102	-0,138
342,231	-45,319	-0,140	0,047
343,246	-200,000	-0,001	-0,066
344,260	318,060	-0,155	-0,202
345,275	-61,398	-0,276	0,079
346,289	-16,993	-0,136	-0,058
347,304	-62,946	-0,130	-0,037
348,319	138,524	-0,081	-0,073
349,333	24,682	-0,063	-0,036
350,348	352,175	-0,048	-0,065
351,362	313,894	-0,147	-0,191
352,377	293,668	-0,085	-0,107
353,392	11,680	-0,151	-0,079
354,406	90,539	-0,099	-0,076
355,421	208,618	1313,105	1410,843
356,435	160,525	1473,629	1411,321
