DTS Sentinel unit serial number:	SN410029Multiplexer serial number:	ORYXHardware model number:	OX2-SRSoftware version number:	ORYX F/W v4,00 Oryx Data Collector v3.7.2.0data status	okinstallation	B3 Nyhavnadifferential loss correction	single-endedforward channel	channel 1reverse channel	N/Adate	2023/11/29time	09:02:30forward acquisition time	300,00reverse acquisition time	0,00gamma	499,1914k internal	0,3212k external	0,3212temperature offset calibration	1,0000default loss term (dB/km)	0,3820temperature slope calibration	1,0000multiplexer offset coefficient	1,0000multiplexer slope coefficient	1,0000fibre end	0,00T internal ref (°C)	9,01T ext. ref 1 (°C)	-5,76T ext. ref 2 (°C)	-5,88length (m)	temperature (°C)	Stokes	anti-Stokes-744,400	768,723	-0,148	-0,294
-743,385	-200,000	-0,019	0,286
-742,371	-57,706	-0,074	-0,023
-741,356	-200,000	-0,018	0,407
-740,342	83,996	-0,122	-0,096
-739,327	-200,000	-0,063	0,363
-738,312	-65,522	-0,263	-0,076
-737,298	263,394	-0,172	0,217
-736,283	-200,000	-0,049	-0,267
-735,269	-200,000	-0,074	0,270
-734,254	32,085	-0,247	-0,154
-733,239	-189,346	-0,297	-0,002
-732,225	150,051	-0,080	-0,078
-731,210	234,950	-0,027	0,032
-730,196	-91,544	-0,091	0,019
-729,181	13,895	-0,089	0,050
-728,167	711,696	-0,049	0,095
-727,152	74,388	0,105	0,080
-726,137	199,871	-0,119	-0,133
-725,123	-38,387	-0,051	0,019
-724,108	-77,997	-0,099	-0,024
-723,094	454,709	0,040	-0,064
-722,079	-86,778	-0,204	-0,045
-721,064	367,649	0,028	0,041
-720,050	-200,000	0,018	-0,103
-719,035	-200,000	0,003	0,054
-718,021	-96,757	-0,152	-0,029
-717,006	-16,531	-0,142	-0,065
-715,991	-100,373	-0,063	-0,011
-714,977	654,693	-0,082	-0,152
-713,962	-103,368	0,067	-0,011
-712,948	38,162	-0,026	-0,017
-711,933	198,871	-0,025	0,027
-710,918	-200,000	-0,014	-0,138
-709,904	800,000	-0,079	-0,224
-708,889	-63,315	-0,013	0,004
-707,875	-200,000	0,007	-0,044
-706,860	-46,134	0,037	0,013
-705,845	-200,000	-0,036	-0,156
-704,831	302,825	0,131	-0,175
-703,816	-19,755	0,037	-0,017
-702,802	-63,202	-0,061	-0,018
-701,787	229,827	-0,050	-0,059
-700,772	752,684	-0,071	-0,139
-699,758	164,485	-0,101	-0,103
-698,743	-134,250	-0,076	-0,007
-697,729	63,277	-0,042	0,031
-696,714	-128,317	-0,106	0,011
-695,699	36,678	0,023	-0,015
-694,685	-86,602	-0,155	-0,034
-693,670	81,175	0,118	-0,092
-692,656	-5,499	-0,063	-0,031
-691,641	-159,546	0,059	0,002
-690,627	-200,000	0,010	-0,097
-689,612	-200,000	-0,030	-0,101
-688,597	-200,000	-0,015	-0,091
-687,583	110,513	-0,089	-0,077
-686,568	-118,678	-0,082	0,010
-685,554	-200,000	-0,025	-0,127
-684,539	330,327	0,106	0,148
-683,524	800,000	0,024	-0,075
-682,510	-96,005	0,102	0,019
-681,495	-200,000	0,035	-0,123
-680,481	800,000	-0,056	-0,128
-679,466	800,000	0,043	-0,111
-678,451	-200,000	-0,031	-0,155
-677,437	-200,000	-0,001	0,128
-676,422	56,152	-0,111	0,078
-675,408	136,789	-0,133	-0,125
-674,393	-200,000	0,037	-0,135
-673,378	514,887	-0,075	-0,128
-672,364	-200,000	0,003	0,058
-671,349	-96,915	0,090	0,017
-670,335	263,059	-0,044	0,055
-669,320	-112,407	-0,046	0,007
-668,305	75,746	0,047	0,036
-667,291	800,000	0,071	0,162
-666,276	-124,637	0,023	-0,003
-665,262	-200,000	0,056	0,196
-664,247	194,457	-0,067	0,074
-663,232	213,330	0,074	-0,084
-662,218	-105,226	0,109	0,018
-661,203	11,524	-0,112	-0,062
-660,189	-39,980	-0,023	-0,009
-659,174	-125,446	-0,064	0,007
-658,159	-200,000	0,025	-0,104
-657,145	-26,030	-0,125	-0,053
-656,130	-53,122	-0,067	-0,022
-655,116	-84,500	0,054	0,012
-654,101	-120,287	0,085	-0,010
-653,086	-173,855	0,076	0,002
-652,072	-9,959	0,097	0,046
-651,057	-133,177	-0,053	-0,005
-650,043	32,448	-0,079	-0,049
-649,028	509,084	-0,044	-0,075
-648,014	800,000	0,018	0,039
-646,999	192,526	0,053	0,057
-645,984	-200,000	0,030	-0,097
-644,970	590,319	0,102	-0,182
-643,955	-200,000	-0,012	-0,096
-642,941	800,000	-0,041	-0,114
-641,926	-200,000	-0,029	0,136
-640,911	138,632	0,060	0,057
-639,897	104,991	-0,080	0,068
-638,882	800,000	-0,044	0,104
-637,868	62,035	-0,174	-0,125
-636,853	-135,331	-0,093	-0,008
-635,838	800,000	0,046	-0,104
-634,824	-112,759	0,148	0,021
-633,809	-61,348	-0,014	0,004
-632,795	-74,252	-0,065	-0,017
-631,780	69,291	0,067	-0,050
-630,765	-13,030	-0,123	-0,057
-629,751	1,255	-0,120	-0,062
-628,736	800,000	-0,057	0,144
-627,722	722,413	-0,020	-0,038
-626,707	37,967	0,031	-0,020
-625,692	776,190	0,060	-0,118
-624,678	800,000	0,018	0,046
-623,663	202,738	0,090	-0,101
-622,649	-200,000	-0,001	-0,113
-621,634	-141,377	-0,076	-0,005
-620,619	-200,000	-0,009	-0,051
-619,605	-122,109	0,081	0,009
-618,590	-64,922	0,147	0,043
-617,576	800,000	-0,028	0,075
-616,561	143,546	0,022	-0,021
-615,546	358,015	-0,024	0,035
-614,532	145,147	0,034	-0,033
-613,517	352,578	-0,103	-0,148
-612,503	-200,000	0,021	-0,111
-611,488	-200,000	0,010	0,147
-610,474	446,796	0,035	0,055
-609,459	482,905	0,028	0,046
-608,444	285,727	-0,079	-0,103
-607,430	-67,046	-0,184	-0,052
-606,415	-200,000	-0,029	-0,097
-605,401	-200,000	-0,011	-0,168
-604,386	299,117	0,105	0,140
-603,371	635,371	-0,047	0,086
-602,357	87,497	-0,049	-0,039
-601,342	800,000	-0,027	0,071
-600,328	329,155	-0,062	-0,086
-599,313	-97,207	0,132	0,025
-598,298	159,062	0,061	0,062
-597,284	-200,000	-0,006	0,024
-596,269	219,232	-0,051	-0,059
-595,255	-200,000	-0,035	0,111
-594,240	-200,000	0,001	0,069
-593,225	800,000	0,016	0,046
-592,211	33,139	-0,023	0,014
-591,196	68,790	-0,148	-0,109
-590,182	-26,727	-0,102	-0,043
-589,167	695,509	0,017	0,033
-588,152	264,203	0,038	-0,048
-587,138	-200,000	0,006	0,052
-586,123	-200,000	0,014	-0,067
-585,109	800,000	0,011	0,023
-584,094	-200,000	0,005	0,058
-583,079	495,062	-0,045	-0,074
-582,065	72,400	0,030	0,023
-581,050	31,143	0,035	0,022
-580,036	-200,000	0,024	-0,128
-579,021	-200,000	0,020	0,064
-578,006	800,000	0,023	0,052
-576,992	-200,000	-0,062	-0,240
-575,977	113,878	-0,040	-0,035
-574,963	-93,424	0,020	0,004
-573,948	533,320	-0,077	0,132
-572,934	800,000	-0,055	0,137
-571,919	-200,000	0,016	0,112
-570,904	-141,950	-0,168	-0,012
-569,890	38,586	-0,161	-0,103
-568,875	800,000	-0,006	-0,018
-567,861	-200,000	0,014	-0,049
-566,846	-200,000	0,028	0,187
-565,831	-10,769	0,112	0,053
-564,817	800,000	0,038	-0,097
-563,802	-200,000	0,010	-0,051
-562,788	-118,991	-0,056	-0,007
-561,773	200,462	0,054	0,059
-560,758	175,336	0,079	0,083
-559,744	177,401	0,058	0,061
-558,729	641,768	0,040	0,074
-557,715	138,163	-0,066	-0,062
-556,700	556,774	-0,081	-0,141
-555,685	196,014	-0,048	-0,053
-554,671	-200,000	0,008	0,058
-553,656	-20,630	0,140	0,062
-552,642	219,570	0,016	-0,018
-551,627	410,943	-0,083	-0,127
-550,612	1,465	-0,040	0,020
-549,598	104,620	-0,023	0,020
-548,583	609,868	0,041	-0,073
-547,569	-66,129	-0,111	0,032
-546,554	800,000	0,046	0,098
-545,539	-7,412	-0,048	0,024
-544,525	-47,365	-0,146	-0,051
-543,510	-106,391	-0,068	0,011
-542,496	165,905	-0,099	-0,101
-541,481	97,391	-0,100	-0,082
-540,466	-200,000	-0,014	-0,091
-539,452	-185,012	0,223	0,002
-538,437	59,408	0,117	0,083
-537,423	82,350	0,010	-0,008
-536,408	306,405	-0,050	0,067
-535,393	-200,000	0,005	-0,082
-534,379	536,674	-0,049	-0,083
-533,364	-200,000	0,000	-0,060
-532,350	56,452	-0,113	0,079
-531,335	-37,738	0,143	0,055
-530,321	-33,079	-0,011	-0,004
-529,306	-170,780	0,208	0,005
-528,291	165,172	-0,047	-0,048
-527,277	-103,858	-0,088	-0,015
-526,262	363,546	-0,012	-0,017
-525,248	-200,000	0,000	0,045
-524,233	90,458	-0,059	0,048
-523,218	-200,000	-0,014	-0,080
-522,204	-200,000	-0,024	-0,094
-521,189	150,927	-0,091	0,089
-520,175	310,578	0,035	-0,047
-519,160	34,121	-0,056	0,035
-518,145	800,000	0,009	0,025
-517,131	27,272	-0,036	-0,022
-516,116	-43,080	0,092	0,033
-515,102	100,454	-0,028	-0,023
-514,087	42,512	-0,136	-0,089
-513,072	472,446	0,076	-0,123
-512,058	-25,940	-0,077	-0,032
-511,043	41,407	0,103	0,066
-510,029	247,215	-0,011	0,014
-509,014	-200,000	-0,023	0,090
-507,999	-200,000	-0,004	0,023
-506,985	-200,000	-0,026	-0,198
-505,970	38,128	0,037	-0,024
-504,956	211,791	-0,039	0,044
-503,941	-77,551	0,035	-0,009
-502,926	-200,000	0,016	-0,097
-501,912	-54,994	0,146	-0,047
-500,897	-200,000	-0,030	0,137
-499,883	-200,000	-0,030	-0,128
-498,868	-158,914	0,090	-0,004
-497,853	511,031	-0,036	-0,060
-496,839	102,546	0,040	-0,034
-495,824	800,000	-0,041	0,106
-494,810	-30,542	-0,032	-0,013
-493,795	-101,229	-0,100	0,017
-492,781	-130,490	0,080	0,008
-491,766	-104,618	-0,069	0,011
-490,751	7,110	-0,088	-0,047
-489,737	800,000	0,043	-0,090
-488,722	800,000	0,018	-0,040
-487,708	-95,479	0,106	0,020
-486,693	121,173	0,038	0,034
-485,678	-30,971	0,052	-0,021
-484,664	-200,000	-0,012	0,070
-483,649	-200,000	0,006	-0,056
-482,635	-200,000	-0,003	-0,011
-481,620	-200,000	0,000	0,035
-480,605	-200,000	0,010	0,053
-479,591	29,479	0,101	0,061
-478,576	-200,000	0,006	-0,113
-477,562	5,743	-0,078	-0,041
-476,547	189,632	-0,030	-0,033
-475,532	191,333	-0,023	0,025
-474,518	11,190	0,116	0,063
-473,503	87,418	0,106	0,084
-472,489	-200,000	-0,001	0,004
-471,474	32,444	0,135	0,084
-470,459	-90,742	-0,152	-0,031
-469,445	-95,124	0,047	-0,009
-468,430	800,000	0,056	-0,118
-467,416	-64,013	-0,097	-0,028
-466,401	188,825	0,046	0,049
-465,386	-9,378	0,199	0,095
-464,372	182,194	-0,117	0,123
-463,357	534,108	-0,060	-0,102
-462,343	-46,977	0,048	0,017
-461,328	-200,000	-0,016	0,098
-460,313	297,321	0,077	-0,101
-459,299	254,396	0,019	-0,024
-458,284	800,000	0,045	0,118
-457,270	271,290	-0,051	0,065
-456,255	27,272	-0,121	-0,073
-455,241	378,653	0,057	-0,084
-454,226	181,701	0,062	-0,065
-453,211	149,569	0,056	0,054
-452,197	130,517	0,038	-0,035
-451,182	44,511	-0,099	0,065
-450,168	160,471	0,107	0,108
-449,153	800,000	-0,030	-0,073
-448,138	-56,430	-0,081	-0,026
-447,124	-88,955	0,168	-0,035
-446,109	45,754	-0,042	-0,027
-445,095	-78,278	0,139	0,034
-444,080	20,969	0,091	-0,053
-443,065	11,571	0,044	0,024
-442,051	-200,000	-0,029	0,123
-441,036	-200,000	-0,009	0,061
-440,022	-98,315	-0,067	-0,012
-439,007	-200,000	-0,036	0,165
-437,992	559,865	-0,032	0,055
-436,978	129,028	0,079	0,072
-435,963	392,930	-0,004	-0,006
-434,949	800,000	-0,018	0,049
-433,934	-73,757	-0,068	-0,018
-432,919	-95,767	-0,142	0,027
-431,905	172,310	-0,063	0,065
-430,890	5,845	0,082	-0,043
-429,876	381,383	0,066	0,097
-428,861	196,480	-0,072	-0,078
-427,846	59,783	-0,031	0,022
-426,832	18,454	-0,071	0,040
-425,817	800,000	-0,039	-0,091
-424,803	-123,462	0,034	-0,004
-423,788	103,051	-0,043	0,036
-422,773	-79,479	0,161	0,039
-421,759	800,000	-0,026	-0,057
-420,744	271,475	0,059	-0,075
-419,730	15,221	-0,137	-0,077
-418,715	214,033	-0,046	0,052
-417,701	16,293	-0,037	0,021
-416,686	17,559	0,063	-0,036
-415,671	800,000	-0,038	0,106
-414,657	58,889	-0,115	0,080
-413,642	800,000	0,060	-0,168
-412,628	800,000	0,018	-0,055
-411,613	800,000	-0,008	0,016
-410,598	-93,172	-0,069	0,014
-409,584	800,000	0,058	0,120
-408,569	400,830	0,103	0,155
-407,555	-200,000	0,047	0,189
-406,540	189,770	0,025	0,027
-405,525	-107,842	-0,080	0,012
-404,511	-200,000	0,007	-0,141
-403,496	-200,000	0,028	-0,111
-402,482	26,101	-0,046	-0,027
-401,467	9,747	-0,061	0,033
-400,452	-102,549	-0,135	0,023
-399,438	-200,000	0,017	0,166
-398,423	-187,162	0,059	0,001
-397,409	589,228	-0,010	-0,018
-396,394	166,466	0,097	-0,099
-395,379	271,558	0,023	-0,029
-394,365	325,138	0,121	0,165
-393,350	800,000	0,009	0,028
-392,336	72,437	0,122	-0,091
-391,321	-14,130	-0,015	0,007
-390,306	-200,000	0,009	-0,091
-389,292	318,042	-0,049	-0,066
-388,277	-14,144	0,059	-0,027
-387,263	-109,832	-0,067	0,010
-386,248	-56,466	-0,113	0,036
-385,233	-200,000	0,014	0,091
-384,219	1,828	-0,078	0,040
-383,204	-200,000	0,003	0,031
-382,190	164,961	-0,015	0,015
-381,175	-200,000	0,018	0,061
-380,160	-77,793	0,127	0,031
-379,146	-200,000	0,029	0,161
-378,131	800,000	-0,070	0,205
-377,117	-200,000	-0,002	-0,087
-376,102	281,154	-0,040	0,051
-375,088	-200,000	-0,001	-0,108
-374,073	-200,000	-0,004	0,023
-373,058	-137,649	0,034	-0,003
-372,044	37,353	-0,067	-0,043
-371,029	-200,000	0,023	-0,081
-370,015	-181,827	-0,180	0,002
-369,000	-200,000	0,008	0,075
-367,985	-200,000	-0,009	0,110
-366,971	89,253	-0,033	0,026
-365,956	-200,000	0,019	-0,143
-364,942	-125,516	0,043	0,005
-363,927	-34,769	0,038	0,015
-362,912	558,613	-0,049	0,085
-361,898	418,399	-0,066	0,102
-360,883	-200,000	-0,016	-0,116
-359,869	-44,187	-0,068	-0,024
-358,854	693,850	0,085	-0,159
-357,839	212,723	0,044	-0,050
-356,825	150,493	0,101	-0,098
-355,810	-35,800	0,081	0,031
-354,796	800,000	-0,018	0,047
-353,781	160,853	-0,094	-0,094
-352,766	248,965	0,007	0,008
-351,752	-136,188	-0,050	0,004
-350,737	117,204	0,104	0,091
-349,723	11,198	-0,134	0,073
-348,708	-200,000	0,043	0,146
-347,693	-6,813	0,084	0,041
-346,679	800,000	-0,034	0,076
-345,664	25,875	0,044	-0,026
-344,650	-35,796	0,060	0,023
-343,635	335,658	0,062	0,086
-342,620	712,169	0,073	-0,139
-341,606	-76,746	0,026	-0,006
-340,591	-29,248	0,072	0,029
-339,577	-108,501	-0,069	0,010
-338,562	-200,000	-0,035	-0,148
-337,548	89,001	0,069	-0,055
-336,533	-200,000	-0,004	0,037
-335,518	222,333	-0,043	0,049
-334,504	-200,000	-0,017	0,100
-333,489	-5,789	-0,131	-0,064
-332,475	800,000	0,007	-0,014
-331,460	800,000	-0,018	-0,045
-330,445	198,220	-0,088	0,096
-329,431	86,144	0,067	-0,052
-328,416	146,652	0,097	-0,093
-327,402	-20,795	0,152	0,066
-326,387	275,861	-0,024	-0,030
-325,372	-71,620	-0,107	0,028
-324,358	494,166	-0,048	-0,079
-323,343	800,000	0,068	-0,137
-322,329	-103,157	0,146	-0,024
-321,314	800,000	-0,044	0,118
-320,299	105,064	-0,109	-0,091
-319,285	-146,348	-0,134	0,008
-318,270	371,263	0,076	-0,111
-317,256	-200,000	0,007	-0,035
-316,241	-130,344	0,117	-0,011
-315,226	-200,000	0,037	0,155
-314,212	211,915	-0,085	0,096
-313,197	485,578	-0,012	0,020
-312,183	-44,015	-0,043	0,015
-311,168	610,821	0,044	0,079
-310,153	776,697	-0,056	-0,109
-309,139	146,172	-0,032	-0,031
-308,124	56,092	0,068	0,047
-307,110	406,148	0,038	0,057
-306,095	-3,483	0,099	0,049
-305,080	322,257	-0,055	-0,075
-304,066	-110,476	-0,200	-0,029
-303,051	267,981	0,066	-0,082
-302,037	189,067	-0,131	-0,140
-301,022	530,224	-0,071	-0,120
-300,008	49,503	0,123	-0,083
-298,993	-60,808	0,160	0,048
-297,978	-200,000	-0,032	0,144
-296,964	-200,000	0,011	0,060
-295,949	-200,000	0,006	-0,107
-294,935	400,973	-0,080	-0,120
-293,920	-127,126	0,161	0,017
-292,905	800,000	0,010	0,021
-291,891	-64,057	0,132	-0,038
-290,876	-200,000	-0,005	0,136
-289,862	401,052	0,088	-0,132
-288,847	-200,000	0,011	-0,046
-287,832	-108,622	-0,117	-0,018
-286,818	351,611	-0,008	0,011
-285,803	800,000	-0,075	0,151
-284,789	251,813	0,057	0,070
-283,774	419,331	-0,060	0,091
-282,759	-38,571	0,015	-0,006
-281,745	-109,863	0,034	-0,005
-280,730	18,501	-0,092	-0,052
-279,716	295,824	0,049	0,064
-278,701	-49,015	0,088	0,030
-277,686	136,738	0,069	-0,064
-276,672	-200,000	0,001	0,018
-275,657	185,427	0,049	0,052
-274,643	136,479	-0,145	0,135
-273,628	-200,000	-0,014	-0,175
-272,613	372,497	-0,053	-0,077
-271,599	800,000	-0,044	0,094
-270,584	71,694	0,100	-0,074
-269,570	-18,514	-0,109	-0,048
-268,555	-200,000	0,022	0,093
-267,540	-41,825	0,057	-0,021
-266,526	6,329	0,037	0,020
-265,511	45,856	0,060	0,039
-264,497	-157,620	0,034	0,001
-263,482	-59,673	0,065	0,020
-262,467	-200,000	0,016	0,109
-261,453	317,192	-0,092	0,124
-260,438	800,000	0,010	-0,025
-259,424	-141,994	-0,066	0,005
-258,409	800,000	-0,020	0,041
-257,395	800,000	0,071	0,149
-256,380	-200,000	0,005	0,090
-255,365	617,005	0,022	-0,039
-254,351	-200,000	-0,014	-0,143
-253,336	375,681	0,056	0,082
-252,322	341,129	-0,086	0,119
-251,307	-200,000	-0,017	0,055
-250,292	-7,949	0,082	-0,039
-249,278	800,000	0,042	-0,094
-248,263	-200,000	-0,019	0,063
-247,249	1,129	0,230	0,117
-246,234	235,844	-0,104	0,122
-245,219	290,076	-0,094	-0,122
-244,205	800,000	-0,024	-0,072
-243,190	677,827	-0,048	-0,089
-242,176	-193,328	0,182	0,001
-241,161	-106,484	-0,071	0,011
-240,146	-119,123	-0,039	-0,005
-239,132	-71,713	-0,148	-0,039
-238,117	-53,241	-0,099	-0,032
-237,103	800,000	-0,008	-0,019
-236,088	800,000	0,031	0,073
-235,073	800,000	-0,068	0,147
-234,059	800,000	0,043	-0,113
-233,044	498,934	-0,068	-0,111
-232,030	223,004	0,108	0,124
-231,015	336,222	-0,073	-0,101
-230,000	-115,081	0,113	0,015
-228,986	444,513	0,065	0,102
-227,971	-200,000	-0,001	-0,087
-226,957	-62,922	-0,227	0,066
-225,942	122,521	0,069	0,062
-224,927	-1,730	0,064	0,032
-223,913	-200,000	-0,043	-0,151
-222,898	800,000	-0,021	-0,062
-221,884	764,148	0,026	0,050
-220,869	11,777	0,157	0,085
-219,855	23,576	-0,078	0,045
-218,840	-144,365	-0,078	0,005
-217,825	-52,482	0,112	-0,037
-216,811	360,147	0,028	0,040
-215,796	-200,000	-0,004	-0,045
-214,782	320,728	-0,058	0,078
-213,767	148,664	0,046	-0,045
-212,752	78,602	0,110	-0,083
-211,738	-200,000	-0,020	-0,092
-210,723	-3,203	-0,120	0,059
-209,709	-22,233	-0,127	-0,055
-208,694	-200,000	0,006	-0,187
-207,679	-200,000	0,005	0,151
-206,665	15,031	-0,101	0,056
-205,650	-159,089	0,090	-0,004
-204,636	-200,000	0,054	0,188
-203,621	55,257	0,036	0,024
-202,606	-45,502	-0,054	-0,019
-201,592	-73,705	0,144	-0,037
-200,577	35,984	-0,093	0,058
-199,563	-200,000	-0,011	0,061
-198,548	-53,837	-0,054	0,017
-197,533	-98,722	-0,077	-0,014
-196,519	-74,304	0,018	-0,004
-195,504	297,224	0,058	0,075
-194,490	-200,000	0,010	-0,048
-193,475	-200,000	0,026	-0,174
-192,460	274,747	-0,053	-0,066
-191,446	-2,703	0,075	0,037
-190,431	232,089	0,042	0,049
-189,417	800,000	0,024	-0,068
-188,402	-200,000	0,012	-0,041
-187,387	107,651	-0,093	-0,079
-186,373	-200,000	-0,011	-0,139
-185,358	-43,823	0,118	-0,042
-184,344	-115,307	0,118	0,016
-183,329	104,584	-0,117	-0,098
-182,315	-100,311	-0,044	0,008
-181,300	63,510	0,080	0,057
-180,285	-66,662	-0,176	0,049
-179,271	14,882	-0,043	0,024
-178,256	-200,000	0,017	0,116
-177,242	-200,000	0,011	-0,087
-176,227	137,224	0,077	0,071
-175,212	-200,000	0,012	-0,064
-174,198	199,814	0,019	-0,021
-173,183	163,148	-0,034	-0,034
-172,169	800,000	0,034	0,076
-171,154	102,114	0,034	0,028
-170,139	34,596	0,095	0,059
-169,125	38,513	0,087	-0,055
-168,110	425,434	0,070	0,108
-167,096	-123,353	-0,058	0,006
-166,081	-200,000	-0,010	-0,100
-165,066	-200,000	-0,031	-0,127
-164,052	5,224	0,048	-0,025
-163,037	156,481	-0,009	0,008
-162,023	745,081	0,045	0,086
-161,008	107,200	0,029	0,024
-159,993	-11,155	-0,079	-0,037
-158,979	326,896	-0,062	-0,085
-157,964	28,408	-0,103	-0,062
-156,950	-42,748	0,094	-0,034
-155,935	431,743	0,027	0,042
-154,920	-59,340	0,192	0,058
-153,906	-200,000	-0,007	0,040
-152,891	-40,578	-0,113	0,041
-151,877	800,000	-0,051	0,104
-150,862	72,847	-0,130	-0,096
-149,847	150,481	-0,104	-0,100
-148,833	-33,905	0,078	0,030
-147,818	-177,938	0,175	0,003
-146,804	125,375	-0,082	0,073
-145,789	800,000	-0,065	-0,144
-144,775	199,200	-0,110	0,120
-143,760	123,564	-0,069	-0,061
-142,745	-12,826	0,046	-0,021
-141,731	-85,081	0,129	0,028
-140,716	-200,000	0,026	-0,114
-139,702	-169,591	-0,046	0,001
-138,687	-200,000	0,014	0,071
-137,672	-41,208	-0,116	-0,042
-136,658	800,000	-0,037	-0,081
-135,643	-26,934	-0,048	-0,020
-134,629	800,000	-0,021	0,044
-133,614	637,926	-0,018	-0,033
-132,599	-200,000	-0,009	-0,118
-131,585	-147,196	-0,112	-0,007
-130,570	-200,000	-0,002	0,010
-129,556	-200,000	-0,012	-0,042
-128,541	166,860	-0,070	-0,070
-127,526	109,778	-0,031	0,027
-126,512	228,967	-0,110	0,128
-125,497	-200,000	-0,021	0,073
-124,483	220,176	-0,015	-0,017
-123,468	-135,292	0,051	-0,004
-122,453	67,090	-0,030	-0,022
-121,439	-200,000	0,003	-0,038
-120,424	629,480	0,023	-0,041
-119,410	-200,000	0,008	0,032
-118,395	4,081	0,043	-0,022
-117,380	457,427	-0,049	0,077
-116,366	248,462	0,083	-0,099
-115,351	709,827	-0,054	-0,101
-114,337	800,000	-0,025	-0,061
-113,322	800,000	0,044	0,112
-112,307	-200,000	-0,010	-0,097
-111,293	-200,000	0,009	-0,076
-110,278	124,358	0,013	-0,012
-109,264	41,133	-0,192	-0,123
-108,249	-102,744	0,203	0,034
-107,234	-53,256	-0,094	0,030
-106,220	-140,499	-0,088	-0,006
-105,205	-31,166	0,103	-0,041
-104,191	226,678	-0,057	0,065
-103,176	-105,385	0,053	0,008
-102,162	107,889	-0,043	-0,036
-101,147	-114,382	-0,057	0,008
-100,132	-200,000	-0,011	0,142
-99,118	-178,376	0,042	-0,001
-98,103	-105,850	-0,059	-0,009
-97,089	-200,000	-0,023	0,072
-96,074	656,164	0,038	-0,070
-95,059	-200,000	0,030	-0,174
-94,045	-66,438	-0,054	-0,015
-93,030	7,846	0,107	-0,057
-92,016	-51,899	-0,019	-0,006
-91,001	-7,221	0,128	0,061
-89,986	-119,842	0,097	0,012
-88,972	800,000	-0,013	0,027
-87,957	18,044	0,192	-0,108
-86,943	87,267	-0,126	-0,099
-85,928	-200,000	-0,018	-0,134
-84,913	800,000	0,003	-0,007
-83,899	-200,000	-0,003	-0,098
-82,884	-200,000	0,045	-0,147
-81,870	-38,037	-0,042	0,016
-80,855	800,000	0,044	0,097
-79,840	-112,545	0,038	0,005
-78,826	-127,931	-0,066	-0,007
-77,811	-43,900	-0,111	0,039
-76,797	-152,006	0,095	0,005
-75,782	28,078	0,051	-0,030
-74,767	-193,030	0,136	0,001
-73,753	-95,857	0,078	0,014
-72,738	16,967	-0,127	-0,071
-71,724	-200,000	-0,021	-0,077
-70,709	-9,699	-0,105	0,049
-69,694	-153,209	0,094	0,005
-68,680	-139,934	-0,072	0,005
-67,665	279,273	0,053	0,067
-66,651	-85,179	0,110	0,024
-65,636	-105,033	-0,104	0,017
-64,622	31,276	-0,069	-0,041
-63,607	194,033	0,101	-0,108
-62,592	-200,000	0,014	-0,163
-61,578	-200,000	0,051	0,263
-60,563	800,000	0,024	0,052
-59,549	-200,000	0,004	0,157
-58,534	75,109	-2,010	-1,494
-57,519	602,360	-1,116	-1,965
-56,505	-200,000	-0,339	-4,417
-55,490	632,613	0,878	1,575
-54,476	800,000	5,273	11,359
-53,461	-200,000	21,831	338,195
-52,446	800,000	759,849	2300,168
-51,432	534,438	1654,271	2776,587
-50,417	69,445	1651,584	1197,930
-49,403	16,704	1526,227	849,159
-48,388	10,829	1450,609	778,806
-47,373	19,030	1442,643	813,672
-46,359	14,148	1431,469	784,232
-45,344	9,151	1427,407	758,294
-44,330	9,113	1425,514	757,077
-43,315	9,022	1423,821	755,716
-42,300	9,062	1421,828	754,818
-41,286	9,081	1420,675	754,264
-40,271	9,036	1419,483	753,389
-39,257	9,059	1418,425	752,910
-38,242	9,080	1417,082	752,262
-37,227	9,075	1416,120	751,700
-36,213	9,088	1414,683	750,970
-35,198	9,114	1413,523	750,443
-34,184	9,096	1412,653	749,869
-33,169	9,048	1411,218	748,853
-32,154	9,091	1410,363	748,572
-31,140	9,071	1408,976	747,711
-30,125	9,161	1407,910	747,539
-29,111	9,145	1406,633	746,754
-28,096	9,087	1405,427	745,814
-27,082	9,036	1404,236	744,913
-26,067	9,040	1403,272	744,392
-25,052	9,104	1402,114	744,046
-24,038	9,071	1401,079	743,311
-23,023	9,045	1400,495	742,854
-22,009	9,043	1399,264	742,159
-20,994	9,002	1398,224	741,387
-19,979	9,014	1397,526	741,047
-18,965	8,961	1396,419	740,181
-17,950	8,946	1395,563	739,631
-16,936	8,982	1394,813	739,369
-15,921	8,943	1393,702	738,573
-14,906	8,940	1392,659	737,976
-13,892	8,985	1391,856	737,731
-12,877	8,955	1391,196	737,213
-11,863	8,914	1390,191	736,462
-10,848	8,943	1389,224	736,050
-9,833	8,914	1388,375	735,439
-8,819	8,894	1387,220	734,708
-7,804	8,807	1386,799	734,051
-6,790	8,869	1385,555	733,652
-5,775	8,834	1384,486	732,893
-4,760	8,889	1383,375	732,529
-3,746	8,884	1382,670	732,105
-2,731	8,883	1381,752	731,584
-1,717	8,861	1380,935	731,023
-0,702	8,836	1379,320	730,026
0,313	12,873	1290,905	701,576
1,327	28,974	682,987	407,332
2,342	44,849	117,545	76,124
3,356	2,235	16,499	8,380
4,371	-1,276	3,700	1,836
5,386	2,501	1,160	0,590
6,400	685,126	0,310	0,572
7,415	-145,968	-0,219	-0,013
8,429	90,707	-0,254	-0,201
9,444	85,224	-0,181	-0,139
10,459	129,660	-0,118	-0,106
11,473	1,115	-0,288	-0,145
12,488	-80,798	-0,289	-0,067
13,502	-28,821	-0,373	-0,150
14,517	-66,950	-0,433	-0,120
15,531	109,923	-0,371	-0,313
16,546	115,043	-0,254	-0,218
17,561	30,989	-0,431	-0,259
18,575	-18,819	-0,249	-0,109
19,590	399,712	-0,176	-0,260
20,604	33,055	-0,276	-0,168
21,619	244,771	-0,303	-0,359
22,634	84,165	-0,394	-0,303
23,648	65,194	-0,422	-0,300
24,663	113,456	-0,397	-0,339
25,677	125,913	-0,277	-0,246
26,692	193,218	-0,352	-0,374
27,707	2,670	-0,483	-0,245
28,721	150,309	-0,313	-0,299
29,736	108,325	-0,431	-0,362
30,750	172,217	-0,422	-0,428
31,765	102,834	-0,428	-0,353
32,780	88,389	-0,419	-0,327
33,794	246,365	-0,324	-0,384
34,809	102,657	-0,274	-0,225
35,823	94,407	-0,364	-0,291
36,838	45,374	-0,435	-0,281
37,853	73,361	-0,363	-0,267
38,867	115,154	-0,404	-0,347
39,882	84,540	-0,244	-0,187
40,896	-31,461	-0,316	-0,124
41,911	10,964	-0,271	-0,145
42,926	-17,738	-0,408	-0,179
43,940	113,773	-0,382	-0,326
44,955	31,343	-0,312	-0,188
45,969	-0,834	-0,273	-0,135
46,984	-43,954	-0,494	-0,173
47,999	10,822	-0,388	-0,207
49,013	43,453	-0,278	-0,178
50,028	37,703	-0,254	-0,158
51,042	167,920	-0,334	-0,334
52,057	83,501	-0,383	-0,293
53,071	332,895	-0,242	-0,329
54,086	40,951	-0,220	-0,139
55,101	52,682	-0,308	-0,206
56,115	117,346	-0,267	-0,231
57,130	0,079	-0,443	-0,221
58,144	-49,207	-0,399	-0,133
59,159	199,499	-0,393	-0,423
60,174	-101,176	-0,438	-0,074
61,188	20,970	-0,429	-0,243
62,203	-67,730	-0,282	-0,077
63,217	-144,839	-0,279	-0,018
64,232	60,959	-0,285	-0,198
65,247	2,669	-0,363	-0,184
66,261	62,869	-0,292	-0,204
67,276	-29,359	-0,393	-0,157
68,290	64,709	-0,278	-0,196
69,305	280,045	-0,282	-0,354
70,320	158,627	-0,236	-0,229
71,334	-37,588	-0,331	-0,123
72,349	-0,030	-0,292	-0,145
73,363	-8,110	-0,293	-0,138
74,378	1,964	-0,326	-0,164
75,393	12,797	-0,319	-0,172
76,407	11,970	-0,324	-0,174
77,422	-66,818	-0,313	-0,086
78,436	306,038	-0,154	-0,201
79,451	56,846	-0,349	-0,238
80,466	-98,727	-0,361	-0,064
81,480	11,931	-0,294	-0,158
82,495	-26,382	-0,372	-0,152
83,509	-45,252	-0,276	-0,095
84,524	-25,650	-0,255	-0,105
85,539	28,875	-0,379	-0,224
86,553	-83,775	-0,343	-0,076
87,568	23,884	-0,322	-0,186
88,582	32,502	-0,387	-0,233
89,597	2,355	-0,294	-0,149
90,611	79,492	-0,247	-0,185
91,626	118,570	-0,283	-0,245
92,641	-12,994	-0,242	-0,109
93,655	81,917	-0,325	-0,246
94,670	27,232	-0,287	-0,168
95,684	135,072	-0,338	-0,307
96,699	158,541	-0,277	-0,269
97,714	97,325	-0,249	-0,200
98,728	127,722	-0,168	-0,149
99,743	54,540	-0,315	-0,212
100,757	652,564	-0,176	-0,317
101,772	104,904	-0,350	-0,288
102,787	173,092	-0,242	-0,244
103,801	17,256	-0,368	-0,203
104,816	-5,622	-0,289	-0,138
105,830	374,058	-0,204	-0,290
106,845	41,153	-0,370	-0,233
107,860	13,293	-0,326	-0,176
108,874	-4,711	-0,297	-0,143
109,889	-41,288	-0,300	-0,107
110,903	46,627	-0,167	-0,108
111,918	-18,201	-0,334	-0,145
112,933	302,109	-0,139	-0,180
113,947	-141,545	-0,210	-0,015
114,962	28,314	-0,240	-0,141
115,976	81,090	-0,231	-0,174
116,991	91,981	-0,335	-0,263
118,006	26,331	-0,200	-0,117
119,020	273,815	-0,251	-0,310
120,035	32,274	-0,333	-0,200
121,049	22,482	-0,252	-0,143
122,064	108,335	-0,256	-0,213
123,079	180,103	-0,177	-0,182
124,093	86,989	-0,294	-0,227
125,108	145,683	-0,267	-0,250
126,122	44,109	-0,330	-0,211
127,137	35,233	-0,231	-0,141
128,151	-69,852	-0,260	-0,069
129,166	65,043	-0,237	-0,167
130,181	-135,403	-0,454	-0,037
131,195	134,718	-0,231	-0,209
132,210	82,193	-0,261	-0,197
133,224	266,803	-0,176	-0,215
134,239	144,037	-0,225	-0,209
135,254	-75,566	-0,160	0,039
136,268	-35,223	-0,197	-0,074
137,283	388,968	-0,186	-0,269
138,297	13,572	-0,327	-0,176
139,312	83,175	-0,239	-0,181
140,327	51,877	-0,313	-0,207
141,341	49,339	-0,227	-0,148
142,356	77,308	-0,211	-0,156
143,370	47,192	-0,204	-0,132
144,385	349,342	-0,239	-0,330
145,400	-51,979	-0,284	-0,091
146,414	68,218	-0,315	-0,225
147,429	219,245	-0,228	-0,254
148,443	-13,920	-0,216	-0,097
149,458	283,148	-0,182	-0,228
150,473	319,682	-0,145	-0,192
151,487	0,624	-0,210	-0,104
152,502	-200,000	-0,058	-0,182
153,516	281,310	-0,285	-0,356
154,531	-22,705	-0,266	-0,111
155,546	175,044	-0,226	-0,228
156,560	48,916	-0,264	-0,172
157,575	-106,849	-0,152	0,023
158,589	78,452	-0,243	-0,181
159,604	238,112	-0,139	-0,160
160,619	19,064	-0,261	-0,145
161,633	79,541	-0,328	-0,245
162,648	333,352	-0,143	-0,193
163,662	18,190	-0,139	-0,077
164,677	-200,000	-0,176	0,000
165,692	550,987	-0,094	-0,157
166,706	-27,075	-0,249	-0,101
167,721	49,202	-0,247	-0,161
168,735	78,987	-0,178	-0,132
169,750	283,394	-0,175	-0,219
170,764	-8,577	-0,259	-0,120
171,779	95,162	-0,175	-0,139
172,794	-51,168	-0,221	-0,072
173,808	58,058	-0,198	-0,134
174,823	-39,054	-0,207	-0,075
175,837	290,996	-0,216	-0,273
176,852	171,092	-0,177	-0,176
177,867	-39,173	-0,208	-0,075
178,881	-123,549	-0,235	-0,026
179,896	15,037	-0,287	-0,156
180,910	91,307	-0,143	-0,111
181,925	-27,433	-0,244	-0,098
182,940	261,452	-0,246	-0,296
183,954	-96,301	-0,271	-0,049
184,969	173,906	-0,190	-0,190
185,983	132,498	-0,095	-0,085
186,998	-8,277	-0,321	-0,149
188,013	52,260	-0,206	-0,136
189,027	70,301	-0,235	-0,168
190,042	26,591	-0,224	-0,130
191,056	64,141	-0,240	-0,167
192,071	114,499	-0,162	-0,137
193,086	-146,608	-0,196	-0,012
194,100	-15,680	-0,321	-0,141
195,115	-117,717	-0,240	-0,030
196,129	-16,896	-0,233	-0,101
197,144	118,995	-0,271	-0,232
198,159	94,690	-0,213	-0,167
199,173	300,081	-0,218	-0,279
200,188	-51,122	-0,170	-0,055
201,202	84,097	-0,137	-0,103
202,217	-14,240	-0,122	-0,054
203,232	-167,386	-0,381	-0,010
204,246	133,077	-0,218	-0,195
205,261	16,109	-0,221	-0,120
206,275	4,890	-0,295	-0,150
207,290	129,603	-0,133	-0,118
208,304	20,987	-0,278	-0,156
209,319	-69,453	-0,223	-0,059
210,334	88,150	-0,355	-0,272
211,348	194,394	-0,194	-0,204
212,363	800,000	-0,089	-0,203
213,377	327,925	-0,132	-0,176
214,392	101,730	-0,103	-0,083
215,407	158,789	-0,115	-0,111
216,421	26,824	-0,205	-0,118
217,436	-18,410	-0,338	-0,145
218,450	-200,000	-0,047	-0,193
219,465	393,693	-0,201	-0,291
220,480	-68,464	-0,219	-0,058
221,494	134,423	-0,218	-0,195
222,509	800,000	-0,040	-0,097
223,523	53,745	-0,172	0,114
224,538	-147,795	-0,112	0,006
225,553	40,135	-0,272	-0,169
226,567	85,467	-0,173	-0,131
227,582	-22,944	-0,116	0,048
228,596	144,507	-0,174	-0,161
229,611	-200,000	0,017	-0,119
230,626	-137,666	-0,134	-0,010
231,640	1,160	-0,274	-0,135
232,655	522,317	-0,101	-0,165
233,669	74,625	-0,227	-0,165
234,684	52,933	-0,146	-0,097
235,699	97,128	-0,220	-0,174
236,713	55,176	-0,107	-0,071
237,728	137,448	-0,240	-0,217
238,742	135,342	-0,111	-0,100
239,757	81,681	-0,222	-0,166
240,772	-15,233	-0,149	0,065
241,786	56,389	-0,257	-0,172
242,801	-147,735	-0,067	0,004
243,815	162,535	-0,206	-0,199
244,830	152,878	-0,044	-0,041
245,844	-192,277	-0,158	-0,001
246,859	40,931	-0,214	-0,133
247,874	641,734	-0,120	-0,212
248,888	561,540	-0,045	-0,076
249,903	-126,296	-0,157	0,016
250,917	8,683	-0,165	-0,086
251,932	-30,050	-0,232	-0,091
252,947	-30,936	-0,212	-0,082
253,961	23,528	-0,237	-0,134
254,976	255,419	-0,164	-0,194
255,990	-21,045	-0,130	0,055
257,005	-2,816	-0,152	-0,073
258,020	671,416	-0,051	-0,092
259,034	15,640	-0,131	-0,071
260,049	-33,452	-0,175	-0,066
261,063	146,895	-0,190	-0,176
262,078	89,987	-0,241	-0,185
263,093	173,881	-0,154	-0,153
264,107	-154,202	-0,290	0,013
265,122	245,717	-0,131	-0,152
266,136	170,689	-0,136	-0,134
267,151	-48,648	-0,266	-0,088
268,166	60,467	-0,170	-0,116
269,180	800,000	-0,074	-0,141
270,195	166,838	-0,185	-0,180
271,209	296,304	-0,105	-0,133
272,224	-38,146	-0,094	-0,034
273,239	-15,972	-0,139	0,061
274,253	59,294	-0,180	-0,122
275,268	155,961	-0,106	-0,100
276,282	-200,000	-0,055	-0,297
277,297	70,929	-0,247	-0,176
278,312	26,078	-0,140	-0,080
279,326	-54,592	-0,240	-0,074
280,341	-69,725	-0,203	-0,053
281,355	112,509	-0,200	-0,166
282,370	58,278	-0,244	-0,164
283,384	-10,541	-0,132	-0,060
284,399	800,000	-0,109	-0,225
285,414	107,825	-0,180	-0,148
286,428	56,607	-0,190	-0,127
287,443	216,463	-0,152	-0,167
288,457	-57,862	-0,185	-0,055
289,472	-172,433	-0,247	-0,005
290,487	158,815	-0,163	-0,155
291,501	-126,186	-0,087	-0,009
292,516	205,539	-0,103	-0,110
293,530	607,327	-0,122	-0,209
294,545	-50,713	-0,193	-0,062
295,560	196,298	-0,080	-0,083
296,574	-152,866	-0,195	-0,009
297,589	800,000	-0,079	-0,206
298,603	-82,318	-0,267	-0,059
299,618	-145,809	-0,174	-0,010
300,633	491,021	-0,142	-0,224
301,647	-20,353	-0,179	-0,075
302,662	-200,000	-0,052	-0,213
303,676	-200,000	-0,004	-0,091
304,691	201,822	-0,200	-0,212
305,706	528,380	-0,113	-0,183
306,720	-28,413	-0,205	-0,081
307,735	76,331	-0,114	-0,082
308,749	596,645	-0,069	-0,117
309,764	-55,373	-0,126	-0,039
310,779	277,469	-0,125	-0,153
311,793	-49,078	-0,230	-0,075
312,808	-78,793	-0,107	0,025
313,822	297,503	-0,163	-0,206
314,837	1,402	-0,051	-0,025
315,852	800,000	0,011	-0,025
316,866	-43,575	-0,180	-0,062
317,881	-80,697	-0,180	-0,041
318,895	-200,000	-0,040	-0,123
319,910	53,050	-0,223	-0,146
320,925	-200,000	-0,063	-0,258
321,939	-179,561	-0,058	-0,001
322,954	354,140	0,023	-0,031
323,968	800,000	-0,066	-0,155
324,983	-79,624	-0,152	-0,035
325,997	251,329	-0,190	-0,222
327,012	791,139	-0,102	-0,194
328,027	-45,516	-0,055	-0,018
329,041	800,000	-0,088	-0,199
330,056	-200,000	-0,034	-0,161
331,070	540,094	-0,041	-0,067
332,085	-43,004	-0,229	-0,079
333,100	-148,291	-0,212	0,012
334,114	-33,472	-0,213	0,080
335,129	-27,226	-0,178	-0,071
336,143	45,727	-0,106	-0,067
337,158	680,007	-0,109	-0,195
338,173	486,219	0,015	-0,023
339,187	119,658	-0,133	-0,113
340,202	91,827	-0,160	-0,123
341,216	-108,183	-0,203	-0,030
342,231	101,266	-0,099	-0,079
343,246	615,137	-0,117	-0,202
344,260	38,040	-0,161	-0,098
345,275	-29,233	-0,150	-0,059
346,289	-53,010	-0,120	-0,038
347,304	-200,000	-0,056	-0,175
348,319	428,678	-0,140	-0,208
349,333	54,807	-0,194	-0,128
350,348	-1,066	-0,097	-0,047
351,362	605,405	-0,131	-0,224
352,377	-119,869	-0,100	0,012
353,392	120,789	-0,166	0,141
354,406	-53,653	-0,167	0,052
355,421	208,136	1306,020	1396,626
356,435	160,140	1465,662	1397,101
