DTS Sentinel unit serial number:	SN410029Multiplexer serial number:	ORYXHardware model number:	OX2-SRSoftware version number:	ORYX F/W v4,00 Oryx Data Collector v3.7.2.0data status	okinstallation	B3 Nyhavnadifferential loss correction	single-endedforward channel	channel 1reverse channel	N/Adate	2023/12/04time	13:02:30forward acquisition time	300,00reverse acquisition time	0,00gamma	499,1914k internal	0,3202k external	0,3202temperature offset calibration	1,0000default loss term (dB/km)	0,3820temperature slope calibration	1,0000multiplexer offset coefficient	1,0000multiplexer slope coefficient	1,0000fibre end	0,00T internal ref (°C)	14,73T ext. ref 1 (°C)	0,31T ext. ref 2 (°C)	0,29length (m)	temperature (°C)	Stokes	anti-Stokes-744,400	710,055	-0,213	-0,412
-743,385	-200,000	-0,024	0,153
-742,371	459,751	-0,137	-0,223
-741,356	-200,000	0,007	0,198
-740,342	535,573	-0,145	-0,251
-739,327	-200,000	-0,094	0,389
-738,312	25,256	-0,099	-0,059
-737,298	-200,000	0,029	0,249
-736,283	78,040	-0,253	-0,196
-735,269	657,063	0,136	0,255
-734,254	-45,912	-0,347	-0,124
-733,239	124,209	-0,237	0,217
-732,225	347,092	-0,170	-0,244
-731,210	-89,000	0,233	0,050
-730,196	115,612	-0,113	-0,101
-729,181	-200,000	-0,002	-0,126
-728,167	468,574	-0,089	-0,145
-727,152	-69,878	0,069	-0,019
-726,137	8,672	-0,060	-0,033
-725,123	130,084	0,106	-0,099
-724,108	-94,888	-0,116	0,023
-723,094	-189,676	-0,150	0,001
-722,079	-200,000	0,003	-0,027
-721,064	-58,046	-0,081	0,026
-720,050	-200,000	0,017	0,066
-719,035	39,228	0,020	-0,013
-718,021	160,710	-0,033	0,034
-717,006	800,000	-0,034	0,085
-715,991	39,199	-0,145	-0,094
-714,977	-115,501	0,001	0,000
-713,962	-200,000	0,027	-0,086
-712,948	201,490	0,099	-0,111
-711,933	-164,637	-0,123	-0,004
-710,918	77,078	0,009	-0,007
-709,904	-43,491	-0,159	0,058
-708,889	226,667	-0,086	-0,101
-707,875	-78,004	-0,149	-0,037
-706,860	392,077	0,036	-0,054
-705,845	800,000	-0,030	-0,067
-704,831	76,303	-0,017	0,013
-703,816	-200,000	-0,025	0,112
-702,802	-100,090	-0,151	-0,027
-701,787	223,027	0,056	-0,066
-700,772	628,862	-0,024	-0,044
-699,758	-45,723	-0,069	-0,024
-698,743	-63,765	-0,086	0,025
-697,729	-30,930	0,079	0,032
-696,714	93,994	-0,012	-0,010
-695,699	146,509	-0,143	-0,140
-694,685	-200,000	0,000	-0,003
-693,670	800,000	-0,074	-0,164
-692,656	13,419	0,076	0,043
-691,641	489,629	0,023	0,039
-690,627	433,171	0,064	-0,101
-689,612	-63,438	0,075	-0,022
-688,597	-200,000	-0,012	-0,075
-687,583	41,074	-0,097	-0,063
-686,568	408,674	-0,067	-0,102
-685,554	-200,000	0,144	0,000
-684,539	-200,000	0,024	0,120
-683,524	80,898	-0,027	0,021
-682,510	-155,925	-0,100	-0,005
-681,495	-200,000	-0,003	-0,079
-680,481	137,278	-0,055	-0,053
-679,466	201,811	-0,070	-0,078
-678,451	505,534	0,041	-0,068
-677,437	-87,817	-0,123	-0,027
-676,422	-117,141	0,111	0,014
-675,408	-61,545	0,046	-0,014
-674,393	-22,557	0,064	-0,028
-673,378	-61,388	-0,055	-0,017
-672,364	800,000	-0,051	-0,122
-671,349	-200,000	-0,003	0,035
-670,335	-200,000	0,008	0,049
-669,320	676,648	-0,048	0,091
-668,305	-200,000	0,016	-0,088
-667,291	4,581	0,065	0,035
-666,276	-113,219	-0,075	0,011
-665,262	206,841	-0,085	-0,096
-664,247	800,000	-0,062	-0,132
-663,232	-200,000	0,002	-0,089
-662,218	-200,000	0,018	0,122
-661,203	-47,354	0,093	-0,033
-660,189	-200,000	-0,034	0,127
-659,174	-200,000	0,032	-0,113
-658,159	-129,507	-0,041	0,004
-657,145	-118,835	-0,060	-0,008
-656,130	-200,000	-0,013	0,062
-655,116	-52,309	-0,081	0,027
-654,101	148,839	0,065	0,064
-653,086	125,785	-0,022	0,020
-652,072	800,000	-0,029	-0,071
-651,057	-200,000	-0,005	-0,020
-650,043	-103,485	-0,189	-0,032
-649,028	137,609	0,041	-0,039
-648,014	727,618	0,041	0,080
-646,999	364,356	0,037	0,054
-645,984	342,158	-0,038	-0,054
-644,970	-26,999	-0,042	-0,017
-643,955	-19,979	-0,193	0,086
-642,941	286,890	-0,136	-0,179
-641,926	7,252	-0,059	0,032
-640,911	-200,000	-0,043	-0,143
-639,897	464,478	0,031	-0,050
-638,882	-200,000	-0,041	-0,146
-637,868	256,834	-0,075	-0,093
-636,853	48,639	-0,122	-0,083
-635,838	-123,492	-0,130	0,015
-634,824	-100,938	0,054	0,010
-633,809	-118,021	0,090	-0,012
-632,795	-98,812	0,087	0,016
-631,780	389,697	-0,060	-0,090
-630,765	-200,000	0,041	0,130
-629,751	-156,010	0,055	-0,002
-628,736	800,000	-0,030	-0,063
-627,722	-13,913	0,074	0,034
-626,707	-71,658	0,097	0,026
-625,692	388,306	-0,061	-0,091
-624,678	317,169	-0,040	-0,054
-623,663	800,000	-0,039	-0,098
-622,649	133,200	-0,117	-0,109
-621,634	-200,000	0,018	0,162
-620,619	296,024	0,065	0,087
-619,605	43,814	0,083	-0,055
-618,590	-200,000	-0,022	0,100
-617,576	81,648	0,056	0,043
-616,561	127,658	0,045	-0,041
-615,546	-24,498	-0,030	0,013
-614,532	-75,502	-0,131	0,033
-613,517	156,516	-0,029	-0,029
-612,503	60,689	-0,080	0,058
-611,488	-172,826	0,148	0,003
-610,474	-200,000	-0,041	0,171
-609,459	-200,000	0,001	-0,130
-608,444	23,132	0,055	0,033
-607,430	-35,646	-0,116	-0,045
-606,415	-200,000	-0,029	-0,117
-605,401	-200,000	-0,026	-0,208
-604,386	59,359	0,077	-0,055
-603,371	-23,513	-0,029	0,013
-602,357	-102,134	0,093	-0,016
-601,342	448,861	-0,034	-0,055
-600,328	196,860	-0,112	-0,123
-599,313	-164,908	0,031	0,001
-598,298	-179,761	-0,051	0,001
-597,284	118,773	-0,050	0,045
-596,269	-200,000	-0,015	0,081
-595,255	800,000	0,028	0,075
-594,240	-72,538	0,066	0,018
-593,225	82,363	0,101	-0,079
-592,211	-200,000	0,002	-0,108
-591,196	58,595	-0,025	-0,018
-590,182	115,015	-0,141	-0,124
-589,167	198,320	0,053	0,058
-588,152	-200,000	0,008	0,143
-587,138	115,344	-0,034	0,030
-586,123	-9,053	-0,137	-0,066
-585,109	754,887	-0,041	-0,081
-584,094	20,268	-0,089	0,052
-583,079	-188,322	-0,070	-0,001
-582,065	558,266	0,041	0,071
-581,050	6,341	-0,119	0,064
-580,036	800,000	-0,023	0,067
-579,021	-69,563	-0,014	0,004
-578,006	665,972	-0,055	-0,104
-576,992	-200,000	-0,001	0,135
-575,977	300,060	-0,046	0,061
-574,963	108,914	0,079	0,068
-573,948	182,133	-0,037	0,040
-572,934	46,968	0,032	0,021
-571,919	130,192	-0,148	0,137
-570,904	49,409	0,038	0,026
-569,890	-200,000	0,003	-0,092
-568,875	373,542	-0,027	0,040
-567,861	48,709	0,094	-0,063
-566,846	-123,027	0,148	0,017
-565,831	-200,000	0,004	-0,024
-564,817	-200,000	-0,002	0,020
-563,802	800,000	0,016	-0,035
-562,788	-200,000	0,028	-0,094
-561,773	-166,345	0,033	0,001
-560,758	-200,000	0,005	-0,054
-559,744	-91,134	-0,074	0,015
-558,729	-200,000	-0,006	-0,058
-557,715	-200,000	0,006	-0,096
-556,700	48,517	-0,086	-0,058
-555,685	60,940	-0,080	-0,057
-554,671	523,559	0,018	0,030
-553,656	-200,000	0,011	0,074
-552,642	-200,000	0,051	0,263
-551,627	-119,055	-0,132	0,016
-550,612	-125,159	-0,090	-0,010
-549,598	800,000	0,006	-0,015
-548,583	172,942	-0,071	-0,074
-547,569	-200,000	0,020	-0,079
-546,554	630,795	-0,042	0,077
-545,539	-196,317	0,109	-0,001
-544,525	-200,000	0,036	0,188
-543,510	38,722	-0,057	0,036
-542,496	-200,000	-0,004	0,013
-541,481	324,927	-0,070	-0,097
-540,466	16,818	-0,065	-0,037
-539,452	560,975	0,050	0,088
-538,437	800,000	0,036	-0,091
-537,423	178,909	0,030	-0,032
-536,408	16,572	0,021	0,012
-535,393	800,000	-0,053	0,122
-534,379	-62,259	-0,105	-0,031
-533,364	409,229	0,083	-0,127
-532,350	-89,015	0,121	0,026
-531,335	-200,000	0,010	0,121
-530,321	-200,000	0,004	0,137
-529,306	-200,000	-0,008	0,049
-528,291	-109,733	0,099	0,015
-527,277	-105,290	-0,007	-0,001
-526,262	158,681	-0,073	0,073
-525,248	800,000	0,015	0,045
-524,233	800,000	-0,028	0,083
-523,218	294,520	0,019	-0,025
-522,204	800,000	-0,039	0,117
-521,189	-96,996	0,153	-0,029
-520,175	-139,327	-0,070	-0,005
-519,160	226,278	-0,031	0,037
-518,145	305,180	0,059	-0,079
-517,131	199,259	0,062	0,068
-516,116	240,442	0,139	0,167
-515,102	245,424	0,033	-0,040
-514,087	176,742	-0,048	-0,051
-513,072	218,169	-0,013	0,015
-512,058	-46,067	0,068	0,024
-511,043	800,000	-0,040	-0,127
-510,029	54,719	0,075	0,052
-509,014	800,000	-0,024	-0,059
-507,999	-130,897	0,012	-0,001
-506,985	231,089	0,029	0,034
-505,970	-126,191	0,047	0,005
-504,956	-200,000	-0,001	-0,067
-503,941	-183,133	-0,076	-0,001
-502,926	-116,208	0,146	0,019
-501,912	151,217	-0,038	0,037
-500,897	-87,421	0,073	0,016
-499,883	-123,939	-0,090	0,010
-498,868	87,981	0,121	0,097
-497,853	-44,755	-0,125	0,045
-496,839	291,834	-0,035	0,046
-495,824	249,978	0,036	0,044
-494,810	-200,000	-0,002	0,069
-493,795	-200,000	0,001	0,096
-492,781	157,974	-0,061	-0,061
-491,766	800,000	0,063	-0,134
-490,751	250,711	0,037	0,045
-489,737	-200,000	0,046	-0,175
-488,722	72,797	0,089	-0,067
-487,708	-41,872	0,070	0,026
-486,693	-200,000	0,004	0,111
-485,678	113,183	-0,037	0,032
-484,664	-34,872	-0,042	0,017
-483,649	225,264	-0,115	-0,134
-482,635	-27,541	-0,055	0,023
-481,620	800,000	-0,050	0,111
-480,605	-43,981	0,096	0,035
-479,591	210,986	-0,084	0,095
-478,576	-200,000	-0,012	-0,094
-477,562	336,205	0,041	-0,057
-476,547	-128,076	-0,103	-0,010
-475,532	-200,000	-0,039	-0,157
-474,518	261,313	-0,113	-0,141
-473,503	-9,452	0,092	-0,044
-472,489	-200,000	0,003	0,163
-471,474	-200,000	0,024	0,092
-470,459	670,230	-0,034	-0,063
-469,445	-139,511	-0,118	-0,009
-468,430	-200,000	-0,025	-0,097
-467,416	163,596	0,094	0,095
-466,401	-200,000	0,001	0,015
-465,386	605,391	-0,083	0,150
-464,372	40,936	-0,030	0,020
-463,357	-47,716	-0,149	0,052
-462,343	-200,000	-0,020	-0,076
-461,328	63,929	0,076	-0,055
-460,313	117,926	-0,090	0,080
-459,299	335,266	-0,032	-0,045
-458,284	-51,660	0,061	-0,021
-457,270	-200,000	-0,026	-0,116
-456,255	106,421	-0,063	0,054
-455,241	-200,000	0,002	-0,016
-454,226	-129,727	-0,086	0,008
-453,211	-176,516	-0,067	0,001
-452,197	-158,291	0,118	-0,005
-451,182	-32,229	-0,047	0,019
-450,168	329,130	0,054	-0,075
-449,153	-200,000	0,028	-0,124
-448,138	-118,948	-0,102	-0,013
-447,124	-21,206	0,113	-0,049
-446,109	-146,209	0,083	-0,005
-445,095	-200,000	-0,011	0,079
-444,080	282,578	-0,100	0,129
-443,065	-39,748	0,047	-0,018
-442,051	800,000	-0,049	-0,109
-441,036	800,000	-0,095	-0,236
-440,022	475,240	-0,088	-0,143
-439,007	-98,175	0,027	-0,005
-437,992	-14,953	0,047	-0,022
-436,978	800,000	-0,030	0,072
-435,963	-200,000	-0,012	0,052
-434,949	-88,255	0,029	0,006
-433,934	110,197	-0,053	-0,046
-432,919	12,113	-0,114	0,063
-431,905	-45,108	-0,057	0,020
-430,890	-33,824	-0,050	-0,020
-429,876	800,000	-0,023	0,057
-428,861	-200,000	-0,030	0,114
-427,846	141,471	-0,074	0,071
-426,832	-139,807	0,102	0,008
-425,817	-200,000	-0,043	-0,165
-424,803	-22,314	0,029	-0,013
-423,788	14,716	0,065	0,036
-422,773	21,585	-0,059	-0,034
-421,759	-50,558	0,087	0,029
-420,744	33,012	0,086	-0,054
-419,730	-200,000	-0,016	-0,072
-418,715	166,548	-0,017	-0,017
-417,701	110,325	0,098	0,084
-416,686	800,000	-0,019	0,057
-415,671	-108,922	0,073	0,011
-414,657	800,000	-0,024	0,059
-413,642	394,729	-0,058	-0,088
-412,628	24,568	0,056	0,033
-411,613	166,543	0,008	-0,008
-410,598	107,300	-0,059	0,050
-409,584	18,903	0,030	0,017
-408,569	-200,000	-0,007	0,035
-407,555	-200,000	-0,016	-0,117
-406,540	139,032	-0,067	0,063
-405,525	725,017	-0,084	-0,162
-404,511	-200,000	0,015	-0,133
-403,496	301,871	-0,037	-0,049
-402,482	-116,860	0,153	0,020
-401,467	548,420	0,055	0,094
-400,452	225,365	0,084	0,098
-399,438	155,010	-0,054	0,053
-398,423	101,577	-0,036	-0,030
-397,409	-200,000	0,012	-0,043
-396,394	474,038	-0,062	-0,101
-395,379	293,032	-0,032	0,043
-394,365	-76,279	0,211	0,053
-393,350	7,094	0,069	0,037
-392,336	800,000	-0,001	-0,001
-391,321	289,512	-0,062	0,081
-390,306	331,721	-0,037	0,052
-389,292	-34,651	-0,096	0,037
-388,277	-115,841	0,118	-0,016
-387,263	-101,512	0,079	-0,014
-386,248	211,272	-0,074	0,083
-385,233	-200,000	-0,011	-0,060
-384,219	-25,569	0,065	0,027
-383,204	800,000	-0,057	-0,146
-382,190	236,753	-0,055	-0,066
-381,175	147,479	0,090	0,087
-380,160	-200,000	-0,016	0,100
-379,146	800,000	-0,035	-0,078
-378,131	40,729	0,062	-0,040
-377,117	-200,000	0,018	-0,164
-376,102	800,000	0,044	-0,136
-375,088	634,897	-0,038	-0,070
-374,073	-200,000	-0,013	-0,062
-373,058	-72,200	0,004	0,001
-372,044	-200,000	0,010	0,062
-371,029	800,000	0,018	0,053
-370,015	-124,927	-0,109	0,012
-369,000	-200,000	-0,018	-0,065
-367,985	-123,573	-0,102	-0,011
-366,971	91,892	0,094	0,076
-365,956	145,952	-0,024	0,023
-364,942	-200,000	0,011	0,060
-363,927	800,000	-0,031	-0,072
-362,912	111,618	-0,079	0,068
-361,898	123,190	0,073	0,065
-360,883	-200,000	0,008	0,036
-359,869	800,000	-0,035	-0,080
-358,854	26,475	0,129	0,077
-357,839	563,340	0,024	-0,042
-356,825	387,456	0,019	0,028
-355,810	-141,488	0,085	0,006
-354,796	-112,541	-0,084	0,012
-353,781	800,000	-0,030	-0,063
-352,766	-200,000	-0,006	0,137
-351,752	-51,385	-0,103	0,034
-350,737	-200,000	0,027	-0,091
-349,723	800,000	0,054	-0,130
-348,708	6,111	0,017	-0,009
-347,693	200,208	-0,027	-0,029
-346,679	447,994	-0,035	-0,055
-345,664	-39,331	-0,132	0,049
-344,650	101,716	0,095	-0,079
-343,635	60,864	0,097	-0,069
-342,620	4,726	0,109	-0,057
-341,606	-200,000	-0,018	0,104
-340,591	206,104	-0,063	0,071
-339,577	-80,696	-0,068	-0,016
-338,562	2,723	0,046	0,024
-337,548	800,000	0,003	-0,008
-336,533	252,001	-0,036	0,044
-335,518	-17,214	0,106	-0,048
-334,504	800,000	-0,019	0,044
-333,489	-45,282	0,019	0,007
-332,475	0,712	0,046	0,023
-331,460	-200,000	-0,018	-0,110
-330,445	800,000	0,012	-0,030
-329,431	-200,000	-0,037	0,117
-328,416	800,000	0,016	0,045
-327,402	-200,000	0,016	0,080
-326,387	266,053	-0,017	0,021
-325,372	-61,802	0,100	-0,030
-324,358	-122,490	0,098	-0,011
-323,343	209,731	-0,071	0,080
-322,329	743,994	0,027	0,052
-321,314	-140,106	0,101	0,007
-320,299	331,220	-0,055	-0,076
-319,285	-200,000	-0,039	0,191
-318,270	36,782	-0,123	0,078
-317,256	586,732	0,047	-0,082
-316,241	181,603	0,035	-0,037
-315,226	-200,000	0,014	-0,085
-314,212	184,117	0,045	0,047
-313,197	-22,195	-0,092	0,040
-312,183	487,815	-0,052	-0,085
-311,168	-200,000	0,018	-0,073
-310,153	-200,000	-0,054	-0,189
-309,139	209,053	0,054	-0,061
-308,124	-96,181	0,044	-0,008
-307,110	80,738	0,063	-0,048
-306,095	385,588	0,072	-0,107
-305,080	-200,000	0,012	-0,045
-304,066	-81,440	-0,087	0,020
-303,051	-56,149	0,118	-0,037
-302,037	218,753	0,067	-0,077
-301,022	135,797	0,031	0,029
-300,008	-34,406	-0,121	0,047
-298,993	-43,493	-0,193	-0,069
-297,978	-25,765	0,066	0,028
-296,964	-101,777	0,093	0,016
-295,949	35,072	-0,086	0,054
-294,935	-155,088	0,064	0,003
-293,920	157,029	0,012	0,012
-292,905	435,456	0,077	0,120
-291,891	-200,000	0,024	0,131
-290,876	-200,000	0,002	0,040
-289,862	492,783	0,047	0,077
-288,847	-200,000	0,018	-0,124
-287,832	121,613	-0,086	0,077
-286,818	169,875	-0,016	0,017
-285,803	-6,891	0,122	-0,059
-284,789	122,495	-0,047	0,042
-283,774	-200,000	-0,002	0,110
-282,759	800,000	0,013	0,036
-281,745	224,395	-0,054	-0,063
-280,730	-200,000	-0,005	0,032
-279,716	48,708	-0,028	-0,019
-278,701	-80,412	-0,096	-0,023
-277,686	800,000	-0,024	0,065
-276,672	-200,000	-0,039	0,167
-275,657	5,879	0,068	0,036
-274,643	-200,000	0,000	-0,065
-273,628	232,279	0,043	0,051
-272,613	319,907	-0,088	0,119
-271,599	-8,570	0,101	-0,048
-270,584	578,670	0,027	0,048
-269,570	19,608	-0,121	-0,069
-268,555	-114,985	0,188	0,025
-267,540	800,000	-0,035	-0,072
-266,526	669,181	0,070	-0,129
-265,511	-200,000	-0,031	0,099
-264,497	-200,000	0,002	0,027
-263,482	-2,154	0,068	-0,034
-262,467	24,449	-0,076	-0,045
-261,453	800,000	0,041	-0,117
-260,438	59,322	0,065	-0,046
-259,424	-39,191	-0,071	0,026
-258,409	29,855	-0,048	0,029
-257,395	800,000	0,027	0,072
-256,380	276,705	0,078	-0,099
-255,365	-200,000	-0,004	0,054
-254,351	-200,000	-0,012	-0,064
-253,336	-114,124	-0,148	0,020
-252,322	-8,088	-0,101	-0,048
-251,307	-55,138	-0,100	-0,032
-250,292	-200,000	-0,001	-0,020
-249,278	-134,430	0,134	0,012
-248,263	-79,994	0,063	-0,015
-247,249	126,646	-0,065	0,059
-246,234	-159,108	-0,020	0,001
-245,219	-43,346	0,187	0,067
-244,205	800,000	0,044	-0,117
-243,190	800,000	0,032	-0,085
-242,176	-109,540	-0,123	-0,018
-241,161	-200,000	0,016	0,124
-240,146	-200,000	-0,022	0,116
-239,132	14,563	0,072	-0,040
-238,117	-109,789	0,127	-0,019
-237,103	334,055	0,036	-0,050
-236,088	705,511	-0,045	-0,085
-235,073	-5,322	0,123	0,060
-234,059	-37,709	0,138	0,052
-233,044	16,009	0,055	-0,031
-232,030	313,511	0,066	0,088
-231,015	-200,000	-0,021	-0,086
-230,000	-200,000	-0,042	-0,153
-228,986	302,618	0,040	-0,053
-227,971	459,786	0,030	0,049
-226,957	-44,376	0,128	-0,046
-225,942	55,071	-0,021	0,014
-224,927	136,965	0,062	0,058
-223,913	157,962	-0,093	-0,092
-222,898	615,379	0,063	0,113
-221,884	781,702	-0,056	-0,110
-220,869	47,925	0,074	0,049
-219,855	-194,319	0,062	0,000
-218,840	800,000	-0,077	0,179
-217,825	-200,000	-0,013	0,075
-216,811	7,521	-0,068	-0,036
-215,796	-57,873	0,108	0,033
-214,782	800,000	0,039	-0,103
-213,767	174,814	-0,050	-0,052
-212,752	2,066	0,061	-0,031
-211,738	227,239	0,054	-0,062
-210,723	-158,119	-0,110	-0,005
-209,709	262,772	-0,076	0,094
-208,694	-140,683	0,170	0,012
-207,679	190,540	-0,066	-0,071
-206,665	-200,000	0,010	0,179
-205,650	6,122	0,042	0,022
-204,636	57,503	0,176	0,122
-203,621	-64,232	0,145	0,042
-202,606	65,892	0,045	-0,032
-201,592	-200,000	0,004	-0,121
-200,577	-89,828	-0,100	-0,021
-199,563	-200,000	-0,013	0,073
-198,548	110,202	-0,076	0,065
-197,533	-58,959	0,022	-0,007
-196,519	-200,000	0,004	-0,025
-195,504	-200,000	0,016	0,063
-194,490	109,853	-0,040	-0,034
-193,475	-200,000	0,025	-0,083
-192,460	111,065	-0,108	0,093
-191,446	-200,000	-0,018	0,073
-190,431	800,000	-0,029	0,085
-189,417	500,557	-0,040	0,066
-188,402	0,009	-0,059	0,030
-187,387	800,000	0,059	-0,120
-186,373	-200,000	0,004	-0,014
-185,358	292,176	-0,064	-0,083
-184,344	575,750	0,054	0,094
-183,329	-200,000	0,028	0,130
-182,315	-145,410	0,118	-0,007
-181,300	401,216	0,024	-0,036
-180,285	76,753	-0,058	-0,044
-179,271	-30,772	-0,115	0,046
-178,256	-200,000	0,010	-0,042
-177,242	-35,387	0,033	0,013
-176,227	-200,000	0,027	0,086
-175,212	-134,922	0,103	-0,009
-174,198	800,000	-0,011	0,035
-173,183	119,063	-0,078	-0,069
-172,169	-200,000	-0,015	-0,110
-171,154	-200,000	0,003	-0,034
-170,139	29,091	0,104	0,063
-169,125	-56,974	0,041	0,013
-168,110	338,457	0,017	0,023
-167,096	-200,000	-0,036	0,149
-166,081	800,000	0,068	-0,145
-165,066	-200,000	0,006	-0,085
-164,052	106,663	0,037	0,032
-163,037	-80,484	0,040	-0,009
-162,023	8,395	0,065	0,035
-161,008	100,956	-0,055	0,045
-159,993	-3,097	-0,036	-0,018
-158,979	-45,668	0,069	-0,024
-157,964	164,145	-0,070	-0,070
-156,950	704,803	-0,011	0,020
-155,935	59,818	0,004	-0,003
-154,920	-200,000	-0,005	0,149
-153,906	168,685	-0,036	0,037
-152,891	-200,000	-0,029	-0,122
-151,877	-200,000	-0,002	0,076
-150,862	-77,259	-0,075	0,018
-149,847	800,000	0,021	-0,050
-148,833	-26,688	0,046	-0,019
-147,818	-148,782	0,094	0,005
-146,804	-65,720	-0,058	-0,016
-145,789	-104,003	0,044	0,007
-144,775	-200,000	-0,007	-0,049
-143,760	-107,123	-0,040	-0,006
-142,745	800,000	-0,021	-0,057
-141,731	-200,000	0,014	-0,095
-140,716	-70,254	-0,062	-0,017
-139,702	-45,850	0,098	-0,034
-138,687	-82,395	-0,091	0,021
-137,672	245,285	-0,074	-0,088
-136,658	10,696	-0,064	0,035
-135,643	-118,745	-0,153	0,019
-134,629	800,000	0,016	0,037
-133,614	-101,828	-0,070	-0,012
-132,599	53,829	0,115	-0,078
-131,585	800,000	-0,039	0,113
-130,570	-200,000	0,025	-0,109
-129,556	-200,000	0,003	0,095
-128,541	-200,000	-0,016	-0,133
-127,526	-42,534	-0,042	0,015
-126,512	358,232	0,032	-0,046
-125,497	-200,000	0,002	0,019
-124,483	57,156	0,055	0,038
-123,468	-200,000	0,012	-0,063
-122,453	62,498	-0,068	-0,048
-121,439	800,000	-0,025	-0,061
-120,424	334,891	0,025	-0,035
-119,410	-135,304	-0,044	0,004
-118,395	800,000	-0,038	-0,114
-117,380	-122,454	0,073	-0,008
-116,366	-101,957	-0,070	0,012
-115,351	-77,266	-0,092	-0,023
-114,337	203,283	0,109	-0,120
-113,322	282,683	-0,090	-0,115
-112,307	-49,119	0,085	0,029
-111,293	-116,899	0,098	-0,013
-110,278	800,000	0,050	-0,099
-109,264	-61,537	0,111	0,033
-108,249	66,659	0,028	-0,020
-107,234	800,000	-0,022	-0,063
-106,220	127,114	0,080	0,072
-105,205	61,013	-0,124	0,087
-104,191	38,869	0,155	-0,098
-103,176	-98,561	0,034	0,006
-102,162	235,004	-0,043	-0,050
-101,147	800,000	-0,047	-0,130
-100,132	570,694	0,059	-0,103
-99,118	-200,000	0,012	-0,054
-98,103	55,347	0,076	0,052
-97,089	-149,533	0,110	0,006
-96,074	-200,000	0,034	0,157
-95,059	800,000	0,026	-0,053
-94,045	-200,000	0,002	0,136
-93,030	-200,000	0,013	-0,123
-92,016	169,431	-0,130	-0,132
-91,001	-200,000	0,017	-0,107
-89,986	800,000	0,041	-0,109
-88,972	-200,000	-0,018	0,196
-87,957	337,467	-0,045	0,062
-86,943	800,000	0,012	-0,034
-85,928	-200,000	-0,025	-0,183
-84,913	-150,353	-0,093	0,005
-83,899	138,716	-0,019	-0,018
-82,884	-132,777	0,134	0,012
-81,870	245,751	0,012	0,015
-80,855	800,000	-0,033	-0,089
-79,840	273,842	-0,103	-0,129
-78,826	-200,000	-0,002	-0,141
-77,811	-119,486	0,130	-0,016
-76,797	-44,983	-0,054	-0,019
-75,782	-21,759	0,094	-0,040
-74,767	-158,920	0,032	-0,001
-73,753	-200,000	0,000	-0,062
-72,738	78,110	0,107	0,081
-71,724	-31,982	-0,085	-0,033
-70,709	131,457	0,068	-0,062
-69,694	-12,547	0,071	-0,032
-68,680	53,297	-0,063	0,043
-67,665	-200,000	-0,003	-0,046
-66,651	109,037	-0,143	0,121
-65,636	-57,897	-0,085	-0,026
-64,622	242,218	-0,048	0,057
-63,607	231,237	0,102	-0,118
-62,592	671,339	0,053	0,097
-61,578	-200,000	0,009	0,052
-60,563	8,064	0,087	0,046
-59,549	40,464	0,084	0,053
-58,534	-73,122	-1,604	-0,413
-57,519	444,819	-1,419	-2,213
-56,505	-200,000	-0,552	-4,483
-55,490	149,662	1,011	0,970
-54,476	800,000	4,813	10,971
-53,461	-200,000	18,303	291,349
-52,446	800,000	728,603	2240,448
-51,432	557,244	1644,443	2816,907
-50,417	79,138	1666,046	1262,132
-49,403	22,643	1539,826	889,890
-48,388	16,615	1462,760	816,156
-47,373	17,810	1452,474	816,139
-46,359	17,131	1443,226	807,660
-45,344	14,843	1438,507	794,067
-44,330	14,729	1436,675	792,478
-43,315	14,795	1434,704	791,673
-42,300	14,803	1433,294	790,904
-41,286	14,822	1432,021	790,258
-40,271	14,803	1430,666	789,390
-39,257	14,780	1429,690	788,711
-38,242	14,839	1428,240	788,158
-37,227	14,862	1427,050	787,581
-36,213	14,883	1425,493	786,788
-35,198	14,819	1424,517	785,917
-34,184	14,869	1423,672	785,656
-33,169	14,769	1422,297	784,394
-32,154	14,830	1421,303	784,101
-31,140	14,867	1420,015	783,534
-30,125	14,882	1418,874	782,945
-29,111	14,856	1417,990	782,304
-28,096	14,851	1416,518	781,435
-27,082	14,785	1415,680	780,635
-26,067	14,786	1414,555	779,989
-25,052	14,767	1413,476	779,269
-24,038	14,767	1412,460	778,679
-23,023	14,718	1411,485	777,882
-22,009	14,693	1410,556	777,220
-20,994	14,697	1409,588	776,676
-19,979	14,687	1408,794	776,162
-18,965	14,670	1407,806	775,505
-17,950	14,666	1406,752	774,875
-16,936	14,710	1405,659	774,449
-15,921	14,663	1404,445	773,530
-14,906	14,610	1403,825	772,914
-13,892	14,639	1403,021	772,575
-12,877	14,647	1402,008	772,020
-11,863	14,674	1400,957	771,537
-10,848	14,620	1400,307	770,897
-9,833	14,639	1399,284	770,394
-8,819	14,603	1398,413	769,717
-7,804	14,604	1397,519	769,199
-6,790	14,560	1396,484	768,396
-5,775	14,591	1395,354	767,884
-4,760	14,548	1394,532	767,202
-3,746	14,606	1393,553	766,904
-2,731	14,581	1392,777	766,330
-1,717	14,532	1392,128	765,715
-0,702	14,562	1390,019	764,663
0,313	18,341	1308,913	737,540
1,327	34,541	706,441	435,582
2,342	52,922	124,600	84,177
3,356	3,895	16,685	8,596
4,371	5,240	3,072	1,597
5,386	44,695	0,522	0,339
6,400	-116,924	0,091	-0,012
7,415	14,632	-0,263	-0,145
8,429	40,374	-0,324	-0,205
9,444	283,957	-0,303	-0,385
10,459	-67,079	-0,425	-0,118
11,473	171,231	-0,275	-0,279
12,488	103,066	-0,225	-0,186
13,502	-30,712	-0,434	-0,173
14,517	93,244	-0,286	-0,228
15,531	60,230	-0,421	-0,294
16,546	-29,304	-0,312	-0,126
17,561	152,755	-0,331	-0,320
18,575	116,310	-0,199	-0,173
19,590	157,561	-0,210	-0,205
20,604	119,339	-0,264	-0,231
21,619	90,186	-0,377	-0,297
22,634	129,478	-0,457	-0,412
23,648	110,384	-0,367	-0,312
24,663	94,969	-0,397	-0,319
25,677	14,967	-0,298	-0,164
26,692	50,119	-0,284	-0,189
27,707	295,570	-0,288	-0,374
28,721	-24,616	-0,481	-0,201
29,736	90,838	-0,344	-0,272
30,750	252,621	-0,330	-0,397
31,765	296,206	-0,301	-0,390
32,780	18,264	-0,421	-0,236
33,794	374,294	-0,229	-0,330
34,809	-52,015	-0,426	-0,139
35,823	99,771	-0,353	-0,288
36,838	28,410	-0,469	-0,279
37,853	132,862	-0,433	-0,394
38,867	156,107	-0,311	-0,302
39,882	111,363	-0,359	-0,305
40,896	93,216	-0,329	-0,262
41,911	109,701	-0,335	-0,283
42,926	31,618	-0,402	-0,243
43,940	179,462	-0,362	-0,374
44,955	-4,161	-0,456	-0,222
45,969	186,366	-0,352	-0,370
46,984	86,879	-0,255	-0,198
47,999	139,394	-0,309	-0,287
49,013	80,819	-0,365	-0,277
50,028	-29,521	-0,362	-0,145
51,042	3,790	-0,355	-0,182
52,057	171,894	-0,307	-0,311
53,071	285,968	-0,201	-0,256
54,086	96,789	-0,311	-0,251
55,101	161,680	-0,241	-0,237
56,115	51,293	-0,315	-0,210
57,130	16,261	-0,438	-0,243
58,144	211,909	-0,350	-0,389
59,159	104,977	-0,362	-0,301
60,174	47,655	-0,336	-0,220
61,188	191,948	-0,270	-0,287
62,203	36,356	-0,289	-0,179
63,217	274,540	-0,226	-0,282
64,232	122,980	-0,230	-0,202
65,247	90,225	-0,331	-0,261
66,261	69,286	-0,383	-0,277
67,276	176,026	-0,323	-0,330
68,290	-20,767	-0,383	-0,165
69,305	136,545	-0,237	-0,217
70,320	212,241	-0,237	-0,263
71,334	-13,421	-0,378	-0,171
72,349	110,731	-0,292	-0,247
73,363	295,693	-0,347	-0,448
74,378	44,293	-0,327	-0,211
75,393	16,690	-0,257	-0,142
76,407	28,626	-0,259	-0,153
77,422	-181,992	-0,284	0,004
78,436	195,073	-0,214	-0,229
79,451	103,887	-0,294	-0,243
80,466	323,227	-0,251	-0,337
81,480	13,154	-0,371	-0,201
82,495	24,964	-0,334	-0,194
83,509	96,144	-0,280	-0,224
84,524	159,869	-0,164	-0,161
85,539	-47,786	-0,297	-0,100
86,553	532,937	-0,141	-0,235
87,568	196,481	-0,288	-0,308
88,582	302,217	-0,154	-0,201
89,597	191,914	-0,313	-0,332
90,611	-8,253	-0,291	-0,137
91,626	-8,090	-0,308	-0,145
92,641	-4,325	-0,296	-0,143
93,655	-11,037	-0,444	-0,205
94,670	10,802	-0,337	-0,180
95,684	29,354	-0,248	-0,147
96,699	1,881	-0,323	-0,163
97,714	41,142	-0,269	-0,170
98,728	260,019	-0,150	-0,182
99,743	-32,957	-0,220	-0,085
100,757	49,641	-0,218	-0,144
101,772	230,423	-0,221	-0,254
102,787	225,465	-0,331	-0,376
103,801	46,206	-0,188	-0,122
104,816	7,403	-0,321	-0,168
105,830	122,210	-0,307	-0,269
106,845	-26,918	-0,308	-0,125
107,860	-85,411	-0,312	-0,068
108,874	-50,146	-0,303	-0,100
109,889	232,942	-0,251	-0,289
110,903	-12,377	-0,378	-0,172
111,918	-76,678	-0,287	-0,070
112,933	-84,510	-0,393	-0,086
113,947	-45,854	-0,259	-0,089
114,962	429,256	-0,145	-0,220
115,976	133,653	-0,194	-0,176
116,991	2,791	-0,277	-0,140
118,006	193,110	-0,204	-0,216
119,020	-76,107	-0,142	-0,035
120,035	99,436	-0,211	-0,171
121,049	523,179	-0,090	-0,148
122,064	32,155	-0,331	-0,199
123,079	62,509	-0,267	-0,187
124,093	-64,206	-0,331	-0,094
125,108	117,921	-0,250	-0,216
126,122	19,426	-0,380	-0,213
127,137	570,039	-0,163	-0,279
128,151	376,779	-0,144	-0,206
129,166	-64,406	-0,390	-0,110
130,181	87,671	-0,250	-0,194
131,195	145,930	-0,254	-0,239
132,210	174,256	-0,255	-0,258
133,224	-105,096	-0,374	-0,059
134,239	196,954	-0,155	-0,166
135,254	-3,835	-0,202	-0,098
136,268	2,270	-0,295	-0,148
137,283	321,629	-0,185	-0,247
138,297	-35,876	-0,370	-0,139
139,312	20,375	-0,325	-0,183
140,327	348,510	-0,122	-0,169
141,341	196,534	-0,198	-0,211
142,356	134,515	-0,193	-0,175
143,370	123,755	-0,130	-0,114
144,385	94,326	-0,337	-0,267
145,400	22,405	-0,379	-0,216
146,414	-23,956	-0,330	-0,137
147,429	207,813	-0,224	-0,245
148,443	32,895	-0,249	-0,150
149,458	-107,097	-0,138	0,021
150,473	9,938	-0,173	-0,092
151,487	73,000	-0,236	-0,172
152,502	169,749	-0,211	-0,211
153,516	800,000	-0,138	-0,350
154,531	103,307	-0,270	-0,221
155,546	14,808	-0,302	-0,164
156,560	122,489	-0,177	-0,155
157,575	-175,551	-0,156	-0,003
158,589	800,000	-0,045	-0,089
159,604	109,551	-0,324	-0,271
160,619	-46,330	-0,258	-0,088
161,633	68,079	-0,246	-0,175
162,648	200,622	-0,204	-0,219
163,662	62,687	-0,153	-0,107
164,677	-12,106	-0,131	-0,059
165,692	-17,565	-0,266	-0,116
166,706	35,796	-0,209	-0,128
167,721	151,612	-0,234	-0,222
168,735	49,692	-0,390	-0,256
169,750	-33,562	-0,225	-0,086
170,764	60,110	-0,252	-0,173
171,779	104,231	-0,228	-0,187
172,794	130,396	-0,143	-0,128
173,808	66,944	-0,232	-0,165
174,823	151,142	-0,242	-0,229
175,837	800,000	-0,129	-0,331
176,852	307,636	-0,216	-0,281
177,867	4,050	-0,202	-0,103
178,881	105,667	-0,181	-0,149
179,896	38,993	-0,240	-0,149
180,910	138,321	-0,204	-0,187
181,925	-4,970	-0,278	-0,133
182,940	-55,275	-0,380	-0,118
183,954	764,595	-0,095	-0,181
184,969	161,130	-0,221	-0,216
185,983	70,502	-0,235	-0,169
186,998	151,503	-0,208	-0,197
188,013	397,516	-0,144	-0,211
189,027	6,770	-0,358	-0,185
190,042	-23,521	-0,206	-0,086
191,056	294,454	-0,176	-0,224
192,071	207,708	-0,177	-0,192
193,086	134,229	-0,142	-0,128
194,100	160,411	-0,194	-0,189
195,115	-109,868	-0,374	-0,054
196,129	800,000	-0,119	-0,277
197,144	800,000	-0,113	-0,321
198,159	-118,555	-0,134	-0,016
199,173	30,167	-0,141	-0,083
200,188	-69,238	-0,251	-0,066
201,202	165,095	-0,259	-0,254
202,217	323,896	-0,059	-0,078
203,232	-40,719	-0,304	-0,109
204,246	675,907	-0,112	-0,202
205,261	-24,321	-0,237	-0,098
206,275	800,000	-0,119	-0,280
207,290	800,000	-0,097	-0,192
208,304	670,451	-0,069	-0,124
209,319	289,716	-0,161	-0,204
210,334	235,261	-0,205	-0,236
211,348	281,340	-0,168	-0,209
212,363	64,150	-0,249	-0,174
213,377	66,161	-0,152	-0,107
214,392	107,317	-0,223	-0,184
215,407	379,486	-0,056	-0,081
216,421	800,000	-0,082	-0,170
217,436	97,086	-0,140	-0,111
218,450	660,670	-0,150	-0,270
219,465	168,760	-0,171	-0,170
220,480	-118,483	-0,242	-0,029
221,494	-200,000	-0,040	-0,125
222,509	115,979	-0,191	-0,162
223,523	549,896	-0,178	-0,298
224,538	58,594	-0,239	-0,162
225,553	-6,376	-0,446	-0,210
226,567	60,669	-0,203	-0,139
227,582	78,725	-0,229	-0,170
228,596	96,637	-0,161	-0,128
229,611	399,656	-0,136	-0,198
230,626	20,285	-0,099	-0,055
231,640	332,243	-0,242	-0,324
232,655	800,000	-0,149	-0,328
233,669	82,566	-0,219	-0,164
234,684	16,016	-0,306	-0,167
235,699	-200,000	-0,017	-0,258
236,713	19,594	-0,148	-0,082
237,728	-30,231	-0,138	0,054
238,742	-13,624	-0,231	-0,103
239,757	60,548	-0,222	-0,152
240,772	800,000	-0,101	-0,226
241,786	302,327	-0,237	-0,305
242,801	196,352	-0,149	-0,157
243,815	251,203	-0,133	-0,157
244,830	52,752	-0,126	-0,083
245,844	-59,438	-0,300	-0,089
246,859	221,934	-0,175	-0,195
247,874	0,641	-0,130	0,064
248,888	794,573	-0,121	-0,231
249,903	800,000	-0,127	-0,289
250,917	82,106	-0,162	-0,122
251,932	132,743	-0,149	-0,133
252,947	218,126	-0,144	-0,159
253,961	52,469	-0,314	-0,207
254,976	54,924	-0,191	-0,127
255,990	-70,956	-0,324	-0,084
257,005	-97,011	-0,139	0,025
258,020	-106,987	-0,197	-0,030
259,034	49,841	-0,065	-0,042
260,049	-53,723	-0,201	-0,063
261,063	-21,262	-0,274	-0,115
262,078	28,278	-0,185	-0,108
263,093	244,755	-0,143	-0,167
264,107	32,500	-0,221	-0,132
265,122	84,878	-0,189	-0,143
266,136	-6,761	-0,178	-0,083
267,151	55,720	-0,160	-0,107
268,166	118,008	-0,142	-0,121
269,180	265,342	-0,089	-0,108
270,195	-26,070	-0,277	-0,112
271,209	-1,906	-0,117	-0,057
272,224	-200,000	-0,034	-0,114
273,239	-118,020	-0,251	-0,031
274,253	-29,986	-0,215	-0,084
275,268	-110,617	-0,094	0,013
276,282	-93,160	-0,224	-0,043
277,297	162,390	-0,156	-0,151
278,312	81,663	-0,160	-0,120
279,326	-114,772	-0,167	-0,022
280,341	-183,995	-0,142	-0,002
281,355	197,752	-0,078	-0,083
282,370	86,662	-0,134	-0,102
283,384	46,025	-0,125	-0,080
284,399	-200,000	-0,036	-0,193
285,414	24,769	-0,152	-0,087
286,428	349,231	-0,075	-0,102
287,443	-110,412	-0,216	-0,031
288,457	-158,889	-0,134	-0,005
289,472	220,080	-0,143	-0,158
290,487	53,664	-0,145	-0,096
291,501	-61,730	-0,180	-0,052
292,516	201,691	-0,179	-0,190
293,530	258,372	-0,133	-0,159
294,545	118,969	-0,167	-0,142
295,560	14,959	-0,109	-0,059
296,574	-44,706	-0,257	-0,088
297,589	109,152	-0,165	-0,136
298,603	-178,575	-0,208	-0,003
299,618	32,009	-0,109	-0,064
300,633	181,734	-0,124	-0,126
301,647	-20,585	-0,120	-0,050
302,662	340,618	-0,086	-0,115
303,676	260,267	-0,175	-0,208
304,691	133,228	-0,090	-0,080
305,706	-79,762	-0,134	-0,031
306,720	41,404	-0,156	-0,097
307,735	180,249	-0,104	-0,105
308,749	168,858	-0,082	-0,080
309,764	-45,891	-0,116	0,039
310,779	119,579	-0,179	-0,152
311,793	-28,191	-0,133	-0,053
312,808	638,069	-0,085	-0,149
313,822	83,016	-0,231	-0,173
314,837	241,289	-0,189	-0,217
315,852	239,509	-0,126	-0,145
316,866	800,000	-0,085	-0,205
317,881	398,377	-0,092	-0,133
318,895	73,975	-0,144	-0,104
319,910	126,543	-0,110	-0,095
320,925	176,775	-0,171	-0,171
321,939	70,716	-0,216	-0,154
322,954	-12,996	-0,107	-0,047
323,968	-200,000	0,017	-0,221
324,983	4,152	-0,213	-0,107
325,997	126,624	-0,152	-0,132
327,012	383,383	-0,188	-0,267
328,027	186,447	-0,215	-0,220
329,041	800,000	-0,111	-0,218
330,056	107,253	-0,133	-0,108
331,070	-184,401	-0,176	-0,002
332,085	-200,000	-0,001	-0,035
333,100	112,537	-0,109	-0,091
334,114	83,371	-0,150	-0,112
335,129	-125,426	-0,105	0,011
336,143	800,000	-0,083	-0,179
337,158	-136,695	-0,066	-0,005
338,173	119,741	-0,052	-0,044
339,187	800,000	-0,054	-0,128
340,202	-58,204	-0,125	-0,037
341,216	-35,272	-0,116	-0,043
342,231	701,689	-0,113	-0,205
343,246	326,666	-0,115	-0,152
344,260	45,836	-0,146	-0,093
345,275	128,808	-0,179	-0,157
346,289	15,887	-0,106	-0,057
347,304	396,493	0,077	-0,110
348,319	-83,384	-0,031	-0,007
349,333	-91,157	-0,094	0,018
350,348	-33,113	-0,197	-0,075
351,362	-112,497	-0,241	-0,033
352,377	800,000	-0,061	-0,142
353,392	5,691	-0,121	-0,061
354,406	20,854	-0,148	-0,082
355,421	208,983	1315,360	1413,979
356,435	160,820	1476,180	1414,472
