DTS Sentinel unit serial number:	SN410029Multiplexer serial number:	ORYXHardware model number:	OX2-SRSoftware version number:	ORYX F/W v4,00 Oryx Data Collector v3.7.2.0data status	okinstallation	B3 Nyhavnadifferential loss correction	single-endedforward channel	channel 1reverse channel	N/Adate	2023/12/04time	22:07:30forward acquisition time	300,00reverse acquisition time	0,00gamma	499,1914k internal	0,3200k external	0,3200temperature offset calibration	1,0000default loss term (dB/km)	0,3820temperature slope calibration	1,0000multiplexer offset coefficient	1,0000multiplexer slope coefficient	1,0000fibre end	0,00T internal ref (°C)	14,56T ext. ref 1 (°C)	-0,55T ext. ref 2 (°C)	-0,56length (m)	temperature (°C)	Stokes	anti-Stokes-744,400	592,818	-0,171	-0,309
-743,385	-200,000	-0,012	0,286
-742,371	171,756	-0,192	-0,201
-741,356	-200,000	0,056	0,230
-740,342	800,000	-0,094	-0,199
-739,327	800,000	-0,075	0,216
-738,312	171,896	-0,253	-0,264
-737,298	-200,000	-0,036	0,203
-736,283	4,262	-0,325	-0,173
-735,269	-200,000	0,020	0,311
-734,254	200,651	-0,220	-0,246
-733,239	-61,169	-0,130	0,039
-732,225	317,724	-0,133	-0,184
-731,210	191,961	0,063	0,069
-730,196	-200,000	0,003	-0,012
-729,181	-161,103	-0,086	0,003
-728,167	275,358	0,095	-0,122
-727,152	-151,418	-0,137	0,007
-726,137	-80,905	-0,106	-0,025
-725,123	-41,591	-0,056	-0,021
-724,108	270,867	-0,117	0,150
-723,094	-200,000	0,029	-0,143
-722,079	-14,686	-0,093	0,043
-721,064	-144,489	0,115	-0,008
-720,050	176,411	0,040	0,043
-719,035	259,137	0,052	0,065
-718,021	152,227	-0,075	-0,075
-717,006	-46,716	-0,062	-0,022
-715,991	-193,049	-0,142	-0,001
-714,977	-200,000	-0,010	-0,080
-713,962	-62,470	-0,139	-0,042
-712,948	-200,000	-0,092	0,000
-711,933	485,053	0,035	0,058
-710,918	176,358	-0,022	0,024
-709,904	521,161	-0,024	0,042
-708,889	-200,000	-0,010	-0,131
-707,875	800,000	0,023	-0,071
-706,860	800,000	-0,024	-0,051
-705,845	-200,000	-0,006	0,072
-704,831	496,693	0,033	0,055
-703,816	-92,276	-0,137	0,028
-702,802	-158,970	-0,162	0,007
-701,787	231,928	-0,044	-0,052
-700,772	800,000	-0,061	-0,175
-699,758	-53,952	-0,062	-0,020
-698,743	800,000	0,034	0,098
-697,729	-200,000	-0,018	0,192
-696,714	800,000	-0,015	-0,035
-695,699	-121,002	0,040	-0,005
-694,685	-200,000	0,003	-0,209
-693,670	800,000	-0,074	-0,172
-692,656	-66,690	0,228	0,065
-691,641	272,875	-0,042	-0,054
-690,627	38,361	0,094	0,061
-689,612	424,685	0,051	0,079
-688,597	800,000	-0,031	0,084
-687,583	-55,858	-0,092	0,030
-686,568	-200,000	0,003	-0,016
-685,554	551,871	-0,020	-0,035
-684,539	-200,000	-0,007	-0,038
-683,524	-54,089	-0,086	0,028
-682,510	-99,951	0,109	-0,019
-681,495	-73,502	-0,064	-0,017
-680,481	-200,000	-0,004	-0,077
-679,466	-46,146	-0,166	0,059
-678,451	158,509	0,007	0,007
-677,437	-45,875	0,095	-0,034
-676,422	142,032	0,057	-0,055
-675,408	186,686	-0,009	-0,010
-674,393	-65,119	0,155	0,045
-673,378	88,101	-0,120	0,097
-672,364	800,000	0,030	-0,069
-671,349	481,426	-0,039	-0,065
-670,335	108,771	-0,087	0,075
-669,320	94,421	-0,065	-0,054
-668,305	-48,066	0,163	-0,057
-667,291	8,850	-0,061	-0,033
-666,276	-20,112	-0,067	0,030
-665,262	-18,181	-0,151	-0,068
-664,247	800,000	0,025	0,055
-663,232	73,322	0,053	0,040
-662,218	187,021	-0,046	0,049
-661,203	800,000	0,051	0,143
-660,189	-200,000	-0,016	0,064
-659,174	115,611	0,123	-0,109
-658,159	-83,386	-0,088	0,020
-657,145	-64,740	-0,058	-0,017
-656,130	-153,466	0,111	0,005
-655,116	-200,000	-0,006	-0,076
-654,101	-200,000	0,001	-0,003
-653,086	-48,636	-0,194	0,067
-652,072	-200,000	0,004	-0,210
-651,057	-106,076	-0,143	-0,023
-650,043	-200,000	0,001	-0,042
-649,028	397,397	-0,013	-0,019
-648,014	118,245	-0,094	-0,084
-646,999	-42,426	-0,062	-0,023
-645,984	166,544	0,090	0,093
-644,970	800,000	-0,035	-0,099
-643,955	-200,000	-0,015	-0,236
-642,941	800,000	0,030	0,060
-641,926	-200,000	0,015	-0,061
-640,911	-115,837	0,144	0,019
-639,897	-133,080	-0,041	0,004
-638,882	800,000	-0,051	-0,133
-637,868	48,425	0,117	0,079
-636,853	800,000	0,008	-0,019
-635,838	662,886	0,045	-0,085
-634,824	-200,000	0,016	-0,054
-633,809	-200,000	0,007	0,108
-632,795	800,000	-0,020	0,056
-631,780	690,955	-0,022	0,042
-630,765	66,217	-0,062	-0,046
-629,751	-200,000	0,002	0,045
-628,736	800,000	0,082	0,199
-627,722	-19,440	-0,061	-0,027
-626,707	800,000	-0,069	0,191
-625,692	-70,353	-0,032	0,009
-624,678	-130,864	-0,048	-0,005
-623,663	-200,000	0,021	0,110
-622,649	606,061	-0,033	-0,059
-621,634	800,000	0,089	-0,194
-620,619	-200,000	-0,000	-0,042
-619,605	-200,000	-0,001	-0,065
-618,590	800,000	-0,023	0,056
-617,576	295,023	0,035	0,046
-616,561	1,386	-0,130	-0,067
-615,546	-29,496	-0,176	-0,072
-614,532	132,329	-0,081	-0,076
-613,517	-200,000	0,033	0,138
-612,503	296,356	0,026	0,035
-611,488	-72,786	0,127	0,034
-610,474	402,636	0,041	0,063
-609,459	-200,000	-0,022	0,080
-608,444	800,000	-0,048	0,129
-607,430	4,432	-0,078	-0,041
-606,415	-164,180	-0,065	0,002
-605,401	-200,000	0,004	0,090
-604,386	469,293	-0,042	0,068
-603,371	-0,439	0,096	-0,049
-602,357	-21,018	-0,167	0,074
-601,342	-113,875	-0,059	0,008
-600,328	-200,000	-0,006	-0,089
-599,313	-5,945	0,073	-0,036
-598,298	-79,085	-0,055	-0,013
-597,284	-30,975	0,145	-0,059
-596,269	0,815	0,070	0,036
-595,255	28,165	0,075	-0,045
-594,240	374,993	0,007	-0,010
-593,225	-200,000	-0,008	-0,098
-592,211	-143,560	-0,065	0,004
-591,196	-108,070	0,122	-0,019
-590,182	67,700	-0,031	-0,023
-589,167	113,772	0,081	0,072
-588,152	-200,000	-0,049	-0,180
-587,138	203,334	0,063	-0,071
-586,123	26,007	-0,070	-0,042
-585,109	800,000	0,050	-0,133
-584,094	-0,169	0,077	-0,040
-583,079	-200,000	0,014	0,047
-582,065	800,000	0,023	-0,066
-581,050	-59,596	0,142	0,044
-580,036	800,000	0,052	-0,134
-579,021	-109,491	-0,108	-0,016
-578,006	92,572	0,082	-0,067
-576,992	335,525	-0,040	0,056
-575,977	-29,621	0,188	-0,077
-574,963	-200,000	-0,045	0,150
-573,948	-8,068	-0,063	0,031
-572,934	800,000	-0,078	-0,175
-571,919	800,000	0,006	-0,013
-570,904	53,899	-0,055	0,038
-569,890	-111,709	-0,150	0,022
-568,875	350,736	-0,019	-0,028
-567,861	31,535	0,106	0,066
-566,846	-12,947	0,104	0,049
-565,831	569,931	0,051	0,090
-564,817	-200,000	0,006	-0,112
-563,802	-91,173	-0,154	-0,032
-562,788	-22,207	-0,069	0,030
-561,773	-200,000	0,008	0,156
-560,758	-9,053	-0,096	0,046
-559,744	-11,242	0,089	-0,042
-558,729	-200,000	0,029	-0,200
-557,715	46,407	0,075	-0,050
-556,700	-64,071	-0,131	-0,038
-555,685	-200,000	-0,002	-0,074
-554,671	54,495	0,077	-0,053
-553,656	800,000	0,061	-0,143
-552,642	236,767	0,082	-0,098
-551,627	36,746	-0,084	0,054
-550,612	18,659	-0,023	-0,013
-549,598	745,360	0,042	-0,082
-548,583	800,000	-0,034	-0,096
-547,569	259,257	0,040	-0,049
-546,554	636,070	0,023	0,043
-545,539	800,000	-0,043	-0,112
-544,525	800,000	0,061	0,180
-543,510	-200,000	0,014	0,121
-542,496	28,835	-0,024	-0,015
-541,481	18,240	-0,087	-0,050
-540,466	-111,720	-0,012	0,002
-539,452	170,841	0,046	-0,047
-538,437	594,115	-0,027	0,048
-537,423	-200,000	0,006	0,040
-536,408	800,000	0,029	-0,077
-535,393	67,813	-0,066	0,048
-534,379	133,567	-0,092	0,085
-533,364	-200,000	-0,012	0,038
-532,350	800,000	0,040	0,119
-531,335	77,649	0,012	-0,009
-530,321	-200,000	-0,023	0,106
-529,306	800,000	0,044	0,091
-528,291	36,722	-0,085	-0,054
-527,277	-20,441	-0,121	0,053
-526,262	347,299	-0,044	0,063
-525,248	-18,400	0,124	-0,056
-524,233	-179,848	0,090	0,001
-523,218	218,667	-0,028	-0,032
-522,204	800,000	0,027	-0,060
-521,189	-87,866	-0,092	0,020
-520,175	-200,000	0,019	-0,186
-519,160	-200,000	0,028	-0,124
-518,145	-54,079	0,084	-0,027
-517,131	-200,000	-0,008	-0,131
-516,116	-20,629	-0,079	-0,035
-515,102	800,000	-0,086	-0,195
-514,087	-200,000	-0,012	-0,050
-513,072	363,953	0,057	-0,083
-512,058	-200,000	-0,002	0,096
-511,043	-128,788	0,170	0,017
-510,029	50,596	0,054	0,037
-509,014	275,007	0,052	-0,067
-507,999	800,000	0,020	-0,046
-506,985	-135,016	-0,062	-0,005
-505,970	-200,000	-0,003	0,011
-504,956	0,592	0,071	0,036
-503,941	-200,000	0,007	0,106
-502,926	-8,643	0,057	-0,027
-501,912	175,257	-0,047	-0,049
-500,897	-153,250	-0,116	-0,006
-499,883	-116,468	0,056	0,007
-498,868	-6,538	0,069	0,034
-497,853	487,178	-0,033	-0,054
-496,839	113,597	-0,013	-0,012
-495,824	-200,000	0,022	0,087
-494,810	-125,971	-0,109	-0,012
-493,795	-200,000	0,033	0,123
-492,781	-163,586	0,101	-0,003
-491,766	147,371	-0,078	-0,076
-490,751	800,000	-0,027	-0,075
-489,737	-42,251	-0,049	0,018
-488,722	1,032	0,065	0,034
-487,708	-200,000	-0,005	0,023
-486,693	15,977	0,085	-0,048
-485,678	-147,488	-0,082	0,005
-484,664	170,130	-0,075	-0,078
-483,649	-200,000	0,003	-0,061
-482,635	-63,641	0,060	-0,018
-481,620	347,000	-0,065	-0,093
-480,605	800,000	0,025	0,065
-479,591	-125,093	-0,082	-0,009
-478,576	800,000	-0,009	0,027
-477,562	-68,532	0,033	-0,009
-476,547	800,000	-0,003	0,006
-475,532	471,609	-0,087	0,142
-474,518	52,399	0,079	-0,054
-473,503	800,000	0,042	0,103
-472,489	264,493	-0,074	0,093
-471,474	-138,436	0,095	0,007
-470,459	404,868	0,035	0,054
-469,445	800,000	0,057	-0,134
-468,430	-200,000	0,026	-0,093
-467,416	-53,079	0,039	-0,013
-466,401	-4,467	-0,101	0,050
-465,386	800,000	0,020	-0,043
-464,372	-200,000	0,019	0,060
-463,357	-86,236	-0,093	0,020
-462,343	202,754	-0,045	-0,050
-461,328	258,671	-0,054	-0,067
-460,313	-200,000	0,041	-0,137
-459,299	-117,988	0,064	0,008
-458,284	58,304	-0,061	0,043
-457,270	88,353	0,045	-0,036
-456,255	331,798	-0,053	-0,074
-455,241	-7,469	-0,090	0,043
-454,226	-200,000	-0,004	-0,087
-453,211	-148,249	-0,030	-0,002
-452,197	-96,627	0,127	0,024
-451,182	-200,000	-0,017	-0,090
-450,168	-27,721	0,095	-0,039
-449,153	309,271	-0,067	0,090
-448,138	-61,875	-0,052	-0,016
-447,124	-139,824	0,087	-0,007
-446,109	-75,372	0,058	0,015
-445,095	6,897	-0,010	0,005
-444,080	28,074	0,075	0,046
-443,065	-38,008	-0,105	0,040
-442,051	334,951	-0,071	0,099
-441,036	20,728	-0,096	-0,056
-440,022	159,584	0,068	-0,068
-439,007	620,539	0,072	-0,132
-437,992	197,801	0,030	0,033
-436,978	-200,000	0,001	-0,026
-435,963	-106,760	-0,131	0,021
-434,949	-200,000	-0,011	0,049
-433,934	73,837	-0,050	-0,038
-432,919	-200,000	0,019	0,106
-431,905	800,000	-0,044	0,091
-430,890	800,000	0,029	0,058
-429,876	387,591	0,072	0,107
-428,861	300,883	-0,027	0,036
-427,846	68,706	0,093	-0,068
-426,832	-200,000	0,005	-0,170
-425,817	-16,731	-0,066	-0,030
-424,803	-200,000	0,002	0,059
-423,788	-27,854	0,092	0,038
-422,773	-119,367	0,194	-0,024
-421,759	-200,000	-0,003	0,063
-420,744	190,131	0,137	0,148
-419,730	800,000	0,020	0,058
-418,715	-144,042	-0,051	-0,003
-417,701	585,541	0,041	-0,073
-416,686	316,689	-0,039	-0,054
-415,671	48,883	0,098	-0,066
-414,657	-97,883	-0,050	0,009
-413,642	-44,298	0,039	0,014
-412,628	-14,681	-0,099	-0,045
-411,613	-120,416	0,055	0,007
-410,598	53,087	-0,149	-0,102
-409,584	-16,410	-0,102	-0,046
-408,569	-200,000	-0,036	0,190
-407,555	-200,000	0,009	0,143
-406,540	-43,543	0,059	-0,021
-405,525	-200,000	0,012	0,043
-404,511	12,206	-0,057	-0,031
-403,496	800,000	0,017	-0,050
-402,482	-189,123	-0,083	-0,001
-401,467	86,412	0,056	0,044
-400,452	-200,000	-0,031	0,112
-399,438	294,074	0,005	0,006
-398,423	-30,058	0,042	-0,017
-397,409	-43,957	-0,224	-0,080
-396,394	-53,420	0,073	0,024
-395,379	-18,390	0,062	-0,028
-394,365	-200,000	-0,006	-0,133
-393,350	-90,975	-0,047	-0,010
-392,336	19,641	0,070	-0,040
-391,321	-79,315	0,065	-0,016
-390,306	-78,959	0,023	-0,006
-389,292	800,000	-0,081	-0,206
-388,277	-44,540	-0,084	0,030
-387,263	-82,888	-0,026	-0,006
-386,248	193,141	0,051	0,055
-385,233	261,890	-0,053	0,066
-384,219	79,917	0,024	0,019
-383,204	-8,558	0,021	-0,010
-382,190	643,791	0,042	-0,077
-381,175	-92,039	0,022	0,005
-380,160	-73,064	0,125	0,033
-379,146	-200,000	-0,035	0,125
-378,131	-200,000	-0,018	0,075
-377,117	-34,844	0,085	0,033
-376,102	-200,000	-0,017	-0,094
-375,088	-200,000	-0,011	0,076
-374,073	-14,496	-0,097	0,045
-373,058	-143,849	0,086	-0,006
-372,044	-87,780	0,167	-0,036
-371,029	1,811	-0,074	-0,038
-370,015	-133,252	-0,097	0,009
-369,000	-94,111	-0,054	-0,011
-367,985	27,295	0,066	0,040
-366,971	-200,000	-0,001	0,076
-365,956	-10,659	-0,145	0,068
-364,942	46,915	0,016	0,010
-363,927	21,026	0,051	0,029
-362,912	-200,000	-0,007	0,095
-361,898	49,615	-0,087	-0,058
-360,883	-41,439	-0,105	-0,039
-359,869	-111,525	0,060	0,009
-358,854	53,448	0,104	0,071
-357,839	-200,000	0,010	-0,040
-356,825	-200,000	-0,025	0,129
-355,810	-31,938	0,146	0,058
-354,796	-200,000	0,010	0,113
-353,781	-162,037	-0,109	0,004
-352,766	106,586	0,093	-0,079
-351,752	-200,000	0,002	0,100
-350,737	800,000	0,037	0,080
-349,723	800,000	0,042	0,092
-348,708	-102,431	-0,138	0,024
-347,693	375,853	-0,086	-0,126
-346,679	-200,000	-0,025	-0,080
-345,664	-30,821	-0,072	-0,029
-344,650	-156,164	0,191	-0,008
-343,635	-52,118	0,037	-0,012
-342,620	79,886	0,101	-0,078
-341,606	103,943	-0,091	-0,076
-340,591	-200,000	-0,044	0,182
-339,577	-75,336	0,066	-0,017
-338,562	393,248	0,038	0,057
-337,548	-200,000	0,025	-0,190
-336,533	-200,000	0,008	0,136
-335,518	286,871	0,173	0,224
-334,504	800,000	0,027	0,086
-333,489	-200,000	-0,001	0,010
-332,475	-23,030	0,077	0,033
-331,460	19,319	-0,188	0,108
-330,445	-36,904	-0,139	0,053
-329,431	-200,000	-0,009	0,033
-328,416	128,973	0,055	-0,050
-327,402	800,000	0,034	0,097
-326,387	75,386	0,054	-0,041
-325,372	-114,736	-0,273	0,037
-324,358	-182,157	0,055	0,001
-323,343	784,377	-0,019	0,038
-322,329	4,990	0,067	-0,035
-321,314	-200,000	-0,010	0,055
-320,299	800,000	0,025	0,071
-319,285	-86,441	-0,069	0,015
-318,270	746,778	0,054	0,105
-317,256	-12,183	-0,154	-0,072
-316,241	-47,090	0,070	0,024
-315,226	14,091	-0,091	0,050
-314,212	140,425	0,073	0,069
-313,197	-200,000	-0,004	-0,091
-312,183	800,000	0,066	0,133
-311,168	457,190	-0,072	0,115
-310,153	-121,634	-0,098	-0,011
-309,139	301,672	-0,010	-0,014
-308,124	-55,665	0,074	-0,024
-307,110	119,444	-0,105	0,093
-306,095	-26,510	0,134	0,056
-305,080	-74,329	0,234	-0,060
-304,066	50,499	-0,112	-0,076
-303,051	-200,000	0,011	0,044
-302,037	800,000	-0,022	-0,044
-301,022	-26,383	0,039	0,016
-300,008	-200,000	-0,001	0,073
-298,993	128,216	0,080	0,073
-297,978	-200,000	-0,021	0,128
-296,964	-200,000	-0,000	-0,084
-295,949	62,426	0,050	-0,035
-294,935	-6,699	-0,089	-0,043
-293,920	-0,369	0,026	0,013
-292,905	800,000	0,036	-0,101
-291,891	-29,231	0,172	0,070
-290,876	176,009	0,021	0,022
-289,862	-30,135	-0,049	-0,020
-288,847	212,359	0,105	-0,119
-287,832	800,000	-0,070	-0,160
-286,818	-119,607	0,016	0,002
-285,803	800,000	-0,026	-0,053
-284,789	-200,000	-0,004	0,027
-283,774	-200,000	-0,026	0,095
-282,759	800,000	0,060	-0,133
-281,745	185,853	-0,044	-0,047
-280,730	298,371	-0,046	0,060
-279,716	620,971	-0,033	0,059
-278,701	-74,165	0,197	-0,050
-277,686	-83,359	0,137	-0,031
-276,672	800,000	-0,042	-0,097
-275,657	69,152	-0,059	0,043
-274,643	-200,000	0,044	-0,172
-273,628	129,099	-0,004	0,003
-272,613	800,000	0,021	-0,056
-271,599	-200,000	0,005	0,072
-270,584	79,251	0,128	0,098
-269,570	-66,184	0,104	-0,029
-268,555	233,501	0,061	0,071
-267,540	72,569	-0,063	0,047
-266,526	170,947	-0,029	-0,029
-265,511	28,951	0,056	-0,034
-264,497	24,164	0,028	0,016
-263,482	-41,330	0,074	-0,027
-262,467	800,000	0,054	0,114
-261,453	-4,838	-0,096	-0,047
-260,438	510,236	-0,069	-0,115
-259,424	384,077	-0,098	-0,145
-258,409	-76,144	0,128	0,032
-257,395	361,209	-0,048	-0,069
-256,380	20,150	-0,006	-0,003
-255,365	-200,000	0,018	0,097
-254,351	-42,329	-0,042	-0,015
-253,336	800,000	0,029	-0,084
-252,322	-111,967	-0,051	0,007
-251,307	235,154	-0,075	-0,088
-250,292	-116,531	0,192	-0,025
-249,278	-200,000	0,028	-0,116
-248,263	-140,128	0,120	-0,009
-247,249	800,000	0,030	0,069
-246,234	-200,000	-0,016	0,062
-245,219	-200,000	0,033	-0,110
-244,205	21,503	0,050	0,029
-243,190	-24,189	0,090	-0,038
-242,176	-130,562	0,126	0,012
-241,161	-164,922	0,101	-0,003
-240,146	71,669	0,070	0,052
-239,132	150,537	-0,075	-0,073
-238,117	-140,275	-0,140	0,010
-237,103	-84,122	0,098	-0,022
-236,088	2,775	-0,155	0,080
-235,073	-38,842	-0,054	0,020
-234,059	-10,342	0,148	0,070
-233,044	58,402	-0,060	0,042
-232,030	29,939	-0,028	0,017
-231,015	15,406	-0,114	-0,064
-230,000	-83,739	0,060	-0,014
-228,986	231,149	-0,094	-0,110
-227,971	-200,000	0,001	0,035
-226,957	147,618	-0,094	0,090
-225,942	-117,607	0,154	-0,020
-224,927	800,000	-0,042	-0,114
-223,913	400,782	-0,115	-0,173
-222,898	800,000	0,027	0,068
-221,884	800,000	-0,066	0,134
-220,869	800,000	0,055	0,149
-219,855	22,156	-0,081	-0,047
-218,840	56,120	0,053	-0,037
-217,825	642,296	-0,075	0,137
-216,811	-200,000	0,003	0,078
-215,796	-8,954	-0,047	-0,022
-214,782	205,496	0,023	-0,025
-213,767	194,899	-0,036	-0,039
-212,752	417,631	-0,027	0,041
-211,738	-38,755	0,082	0,031
-210,723	-200,000	0,022	-0,074
-209,709	800,000	0,041	-0,122
-208,694	-200,000	0,001	-0,020
-207,679	-200,000	-0,008	-0,056
-206,665	-70,941	0,068	0,018
-205,650	74,384	-0,103	0,077
-204,636	33,157	-0,186	0,115
-203,621	40,652	0,061	-0,039
-202,606	-200,000	0,008	0,150
-201,592	800,000	-0,059	-0,118
-200,577	-200,000	-0,001	-0,058
-199,563	800,000	-0,043	-0,087
-198,548	-120,118	0,140	-0,017
-197,533	156,707	-0,160	0,158
-196,519	-200,000	-0,013	-0,089
-195,504	-127,931	-0,104	0,011
-194,490	505,797	-0,056	-0,092
-193,475	-200,000	-0,005	0,071
-192,460	800,000	-0,095	0,207
-191,446	-186,155	0,132	-0,001
-190,431	202,784	0,046	0,051
-189,417	281,803	-0,029	0,038
-188,402	-31,663	0,032	-0,013
-187,387	151,464	-0,063	-0,061
-186,373	154,591	-0,091	-0,089
-185,358	4,662	-0,013	-0,007
-184,344	-200,000	-0,009	0,044
-183,329	63,572	-0,044	0,031
-182,315	-200,000	0,011	-0,059
-181,300	-9,719	0,101	0,048
-180,285	-116,070	-0,015	-0,002
-179,271	-97,768	-0,032	0,006
-178,256	-147,994	0,042	0,002
-177,242	-200,000	0,007	-0,082
-176,227	341,414	-0,010	0,014
-175,212	457,368	-0,089	0,141
-174,198	-159,577	-0,126	-0,005
-173,183	-199,623	-0,134	-0,000
-172,169	-60,215	-0,030	0,009
-171,154	210,643	-0,112	-0,125
-170,139	800,000	-0,059	0,120
-169,125	-200,000	0,027	-0,123
-168,110	-121,352	-0,085	-0,010
-167,096	172,570	-0,081	-0,083
-166,081	245,378	-0,070	0,084
-165,066	200,100	0,118	0,129
-164,052	-90,716	0,062	-0,013
-163,037	179,523	-0,032	0,034
-162,023	-200,000	-0,011	-0,132
-161,008	-56,963	0,137	0,043
-159,993	367,637	0,023	-0,034
-158,979	243,743	-0,006	0,007
-157,964	-68,136	-0,203	0,056
-156,950	-200,000	-0,015	0,092
-155,935	800,000	-0,005	0,012
-154,920	-109,904	0,082	-0,012
-153,906	485,101	0,041	0,067
-152,891	-200,000	0,001	0,131
-151,877	624,250	-0,028	0,051
-150,862	372,168	0,018	-0,026
-149,847	-200,000	0,013	-0,198
-148,833	-200,000	-0,005	0,032
-147,818	-73,257	0,042	-0,011
-146,804	27,708	0,128	-0,076
-145,789	-138,744	0,034	-0,003
-144,775	-27,446	0,055	0,023
-143,760	-66,429	-0,147	-0,041
-142,745	-200,000	0,021	0,142
-141,731	800,000	-0,022	-0,048
-140,716	156,027	0,064	-0,063
-139,702	-18,720	-0,148	-0,065
-138,687	-200,000	-0,038	0,131
-137,672	-200,000	-0,026	0,092
-136,658	-200,000	0,038	0,167
-135,643	-200,000	0,001	0,068
-134,629	135,985	0,033	-0,031
-133,614	-6,631	0,042	0,020
-132,599	462,936	0,046	-0,074
-131,585	-200,000	0,006	-0,032
-130,570	-47,192	0,029	0,010
-129,556	23,736	-0,120	-0,070
-128,541	-200,000	0,056	-0,236
-127,526	-97,019	0,122	-0,022
-126,512	-200,000	0,004	-0,075
-125,497	622,959	-0,032	0,058
-124,483	800,000	-0,013	0,033
-123,468	128,751	-0,070	-0,063
-122,453	-200,000	0,020	-0,142
-121,439	-200,000	0,029	-0,094
-120,424	-14,973	-0,085	-0,038
-119,410	725,744	-0,060	0,114
-118,395	800,000	0,028	-0,069
-117,380	581,934	0,024	-0,042
-116,366	-55,993	0,254	0,080
-115,351	453,081	-0,126	-0,198
-114,337	403,223	-0,026	-0,038
-113,322	573,738	-0,016	-0,028
-112,307	-200,000	-0,009	0,127
-111,293	185,560	0,014	0,015
-110,278	53,613	0,061	0,041
-109,264	-200,000	0,022	-0,154
-108,249	462,642	-0,078	0,124
-107,234	-111,989	-0,029	0,004
-106,220	-200,000	-0,050	-0,192
-105,205	162,089	0,057	0,057
-104,191	-138,480	-0,054	0,004
-103,176	-200,000	-0,021	0,131
-102,162	-200,000	0,009	0,075
-101,147	544,064	0,028	-0,047
-100,132	123,573	-0,073	-0,065
-99,118	-46,427	-0,061	-0,021
-98,103	-200,000	-0,005	-0,065
-97,089	250,065	-0,049	0,059
-96,074	-181,547	0,141	0,002
-95,059	282,565	-0,009	0,012
-94,045	-200,000	-0,022	-0,108
-93,030	94,041	0,127	-0,102
-92,016	-200,000	-0,011	0,037
-91,001	-17,897	0,072	-0,032
-89,986	-2,847	0,096	0,047
-88,972	-200,000	-0,007	0,121
-87,957	-200,000	-0,041	-0,191
-86,943	-200,000	0,024	0,123
-85,928	537,498	-0,018	0,031
-84,913	800,000	-0,034	-0,074
-83,899	800,000	0,045	0,135
-82,884	148,122	-0,071	-0,068
-81,870	-57,687	0,063	0,019
-80,855	121,368	-0,115	0,102
-79,840	800,000	-0,040	0,098
-78,826	132,711	0,075	-0,068
-77,811	338,884	0,090	-0,125
-76,797	16,144	-0,111	-0,062
-75,782	12,055	0,164	-0,089
-74,767	360,142	0,112	0,159
-73,753	258,689	-0,084	0,103
-72,738	800,000	-0,030	0,081
-71,724	10,288	0,093	-0,050
-70,709	-140,494	-0,139	0,010
-69,694	800,000	-0,023	-0,049
-68,680	-200,000	0,016	0,107
-67,665	-13,821	0,039	0,018
-66,651	-51,630	0,099	0,033
-65,636	24,815	0,110	0,065
-64,622	-200,000	0,001	0,075
-63,607	790,004	-0,023	-0,045
-62,592	459,250	-0,045	-0,071
-61,578	-6,428	0,153	-0,074
-60,563	345,174	-0,012	-0,017
-59,549	800,000	-0,051	0,131
-58,534	-18,002	-1,588	-0,702
-57,519	342,380	-1,416	-1,968
-56,505	-200,000	-0,556	-4,477
-55,490	145,840	1,038	0,986
-54,476	800,000	4,871	11,424
-53,461	-200,000	18,437	295,840
-52,446	800,000	730,819	2254,508
-51,432	558,370	1647,563	2825,626
-50,417	78,899	1667,827	1262,749
-49,403	22,464	1541,262	890,146
-48,388	16,447	1464,254	816,485
-47,373	17,804	1453,954	817,250
-46,359	17,023	1444,599	808,219
-45,344	14,730	1439,700	794,485
-44,330	14,657	1437,986	793,158
-43,315	14,585	1436,307	791,859
-42,300	14,661	1434,495	791,190
-41,286	14,681	1433,547	790,730
-40,271	14,641	1432,176	789,754
-39,257	14,660	1430,764	789,035
-38,242	14,699	1429,516	788,498
-37,227	14,662	1428,306	787,622
-36,213	14,645	1427,042	786,816
-35,198	14,687	1425,832	786,315
-34,184	14,698	1425,019	785,890
-33,169	14,619	1423,599	784,698
-32,154	14,644	1422,851	784,377
-31,140	14,668	1421,227	783,562
-30,125	14,705	1420,060	783,061
-29,111	14,729	1418,801	782,451
-28,096	14,661	1417,994	781,653
-27,082	14,592	1417,010	780,756
-26,067	14,590	1415,769	780,030
-25,052	14,581	1414,943	779,503
-24,038	14,515	1413,920	778,597
-23,023	14,548	1412,977	778,205
-22,009	14,563	1411,859	777,625
-20,994	14,536	1410,885	776,931
-19,979	14,527	1409,926	776,330
-18,965	14,520	1408,903	775,706
-17,950	14,524	1407,872	775,124
-16,936	14,522	1407,150	774,687
-15,921	14,491	1405,988	773,874
-14,906	14,514	1404,943	773,376
-13,892	14,518	1404,037	772,866
-12,877	14,477	1403,304	772,239
-11,863	14,507	1402,208	771,746
-10,848	14,472	1401,609	771,220
-9,833	14,504	1400,658	770,814
-8,819	14,491	1399,752	770,228
-7,804	14,407	1398,887	769,331
-6,790	14,412	1397,689	768,663
-5,775	14,372	1396,695	767,900
-4,760	14,418	1395,789	767,585
-3,746	14,409	1395,188	767,182
-2,731	14,370	1394,299	766,485
-1,717	14,353	1393,329	765,839
-0,702	14,353	1391,547	764,832
0,313	18,212	1309,926	737,832
1,327	34,600	705,952	435,583
2,342	52,958	124,239	83,979
3,356	-0,277	16,711	8,379
4,371	-0,947	3,296	1,645
5,386	2,399	0,580	0,296
6,400	-200,000	0,022	0,193
7,415	184,004	-0,241	-0,253
8,429	17,134	-0,340	-0,190
9,444	97,456	-0,337	-0,274
10,459	-25,776	-0,272	-0,113
11,473	51,034	-0,357	-0,239
12,488	240,599	-0,229	-0,271
13,502	288,904	-0,284	-0,364
14,517	38,058	-0,261	-0,164
15,531	41,968	-0,328	-0,210
16,546	-20,985	-0,266	-0,115
17,561	57,421	-0,405	-0,279
18,575	-93,934	-0,089	0,017
19,590	-27,966	-0,315	-0,128
20,604	86,490	-0,250	-0,195
21,619	92,262	-0,437	-0,348
22,634	66,485	-0,457	-0,328
23,648	295,613	-0,291	-0,378
24,663	281,729	-0,307	-0,389
25,677	77,026	-0,398	-0,298
26,692	-34,995	-0,362	-0,139
27,707	56,724	-0,334	-0,229
28,721	211,952	-0,293	-0,326
29,736	114,383	-0,419	-0,360
30,750	103,755	-0,364	-0,301
31,765	123,360	-0,387	-0,343
32,780	-80,919	-0,326	-0,076
33,794	82,396	-0,395	-0,303
34,809	140,709	-0,343	-0,320
35,823	193,628	-0,318	-0,340
36,838	25,338	-0,504	-0,295
37,853	67,179	-0,304	-0,218
38,867	-4,748	-0,471	-0,228
39,882	33,756	-0,285	-0,175
40,896	-71,704	-0,329	-0,086
41,911	174,706	-0,271	-0,277
42,926	39,020	-0,331	-0,208
43,940	106,460	-0,352	-0,294
44,955	283,270	-0,309	-0,392
45,969	60,153	-0,383	-0,266
46,984	187,846	-0,239	-0,252
47,999	148,456	-0,280	-0,267
49,013	118,683	-0,334	-0,291
50,028	215,065	-0,303	-0,339
51,042	55,563	-0,393	-0,268
52,057	71,204	-0,341	-0,249
53,071	4,648	-0,358	-0,184
54,086	143,717	-0,326	-0,306
55,101	54,816	-0,348	-0,236
56,115	56,085	-0,368	-0,252
57,130	-49,960	-0,401	-0,133
58,144	184,037	-0,237	-0,248
59,159	46,948	-0,403	-0,263
60,174	148,831	-0,282	-0,269
61,188	46,548	-0,349	-0,228
62,203	491,306	-0,249	-0,402
63,217	44,132	-0,444	-0,286
64,232	31,588	-0,358	-0,216
65,247	21,206	-0,344	-0,196
66,261	171,289	-0,341	-0,345
67,276	2,644	-0,438	-0,223
68,290	155,158	-0,317	-0,307
69,305	-3,282	-0,324	-0,158
70,320	120,444	-0,312	-0,273
71,334	-32,936	-0,360	-0,140
72,349	84,210	-0,306	-0,235
73,363	35,757	-0,327	-0,202
74,378	57,962	-0,379	-0,260
75,393	66,236	-0,294	-0,210
76,407	199,020	-0,272	-0,293
77,422	34,289	-0,311	-0,190
78,436	179,618	-0,209	-0,215
79,451	42,863	-0,341	-0,218
80,466	82,182	-0,441	-0,336
81,480	-19,682	-0,347	-0,150
82,495	515,355	-0,172	-0,284
83,509	40,456	-0,296	-0,187
84,524	-17,467	-0,424	-0,187
85,539	199,593	-0,223	-0,241
86,553	43,875	-0,268	-0,172
87,568	82,470	-0,323	-0,246
88,582	187,412	-0,298	-0,313
89,597	87,189	-0,279	-0,217
90,611	73,932	-0,251	-0,185
91,626	-8,724	-0,201	-0,094
92,641	-79,826	-0,228	-0,053
93,655	-160,318	-0,397	0,015
94,670	-9,050	-0,282	-0,132
95,684	-1,971	-0,292	-0,144
96,699	125,098	-0,248	-0,220
97,714	150,618	-0,298	-0,284
98,728	-30,061	-0,308	-0,122
99,743	56,260	-0,189	-0,129
100,757	127,145	-0,253	-0,225
101,772	324,360	-0,218	-0,293
102,787	120,323	-0,370	-0,322
103,801	154,667	-0,254	-0,245
104,816	67,943	-0,292	-0,210
105,830	-37,507	-0,353	-0,132
106,845	-24,048	-0,244	-0,102
107,860	12,584	-0,158	-0,085
108,874	-6,744	-0,342	-0,162
109,889	66,553	-0,273	-0,194
110,903	154,505	-0,374	-0,360
111,918	426,684	-0,214	-0,324
112,933	33,356	-0,206	-0,125
113,947	-35,102	-0,196	-0,074
114,962	78,834	-0,166	-0,124
115,976	68,104	-0,385	-0,276
116,991	132,794	-0,302	-0,273
118,006	40,174	-0,227	-0,143
119,020	83,275	-0,181	-0,138
120,035	-130,211	-0,295	-0,028
121,049	97,307	-0,127	-0,102
122,064	-50,644	-0,216	-0,071
123,079	10,546	-0,183	-0,097
124,093	275,207	-0,258	-0,321
125,108	-129,330	-0,360	-0,035
126,122	144,664	-0,206	-0,193
127,137	205,080	-0,152	-0,166
128,151	112,031	-0,253	-0,214
129,166	-200,000	-0,046	-0,260
130,181	121,527	-0,294	-0,256
131,195	293,967	-0,234	-0,300
132,210	800,000	-0,132	-0,289
133,224	68,790	-0,243	-0,174
134,239	-92,922	-0,315	-0,061
135,254	63,341	-0,292	-0,205
136,268	-115,047	-0,277	-0,036
137,283	50,480	-0,222	-0,147
138,297	140,529	-0,265	-0,245
139,312	27,730	-0,216	-0,127
140,327	15,475	-0,242	-0,133
141,341	37,531	-0,306	-0,190
142,356	300,275	-0,174	-0,224
143,370	257,581	-0,170	-0,204
144,385	44,201	-0,207	-0,133
145,400	-13,499	-0,360	-0,162
146,414	-63,653	-0,374	-0,106
147,429	243,835	-0,170	-0,200
148,443	4,951	-0,305	-0,156
149,458	22,324	-0,261	-0,149
150,473	437,288	-0,125	-0,192
151,487	-88,280	-0,198	-0,041
152,502	157,566	-0,310	-0,300
153,516	27,407	-0,238	-0,139
154,531	527,648	-0,213	-0,352
155,546	15,636	-0,262	-0,143
156,560	23,108	-0,305	-0,174
157,575	58,985	-0,176	-0,121
158,589	-57,603	-0,369	-0,112
159,604	-31,909	-0,224	-0,087
160,619	-20,994	-0,314	-0,134
161,633	340,345	-0,208	-0,284
162,648	127,895	-0,224	-0,198
163,662	30,471	-0,287	-0,171
164,677	64,027	-0,272	-0,191
165,692	104,756	-0,228	-0,188
166,706	-57,840	-0,272	-0,082
167,721	-10,774	-0,340	-0,156
168,735	-122,472	-0,316	-0,035
169,750	123,438	-0,241	-0,211
170,764	-30,791	-0,250	-0,098
171,779	80,036	-0,147	-0,110
172,794	215,467	-0,171	-0,190
173,808	59,135	-0,204	-0,140
174,823	20,764	-0,279	-0,157
175,837	166,536	-0,222	-0,219
176,852	86,216	-0,238	-0,182
177,867	36,400	-0,157	-0,097
178,881	128,768	-0,259	-0,230
179,896	4,317	-0,172	-0,088
180,910	214,489	-0,162	-0,179
181,925	152,401	-0,167	-0,159
182,940	108,909	-0,251	-0,209
183,954	195,645	-0,181	-0,192
184,969	182,755	-0,253	-0,260
185,983	227,402	-0,160	-0,182
186,998	-48,430	-0,239	-0,080
188,013	3,285	-0,160	-0,081
189,027	72,865	-0,278	-0,202
190,042	-27,703	-0,378	-0,152
191,056	50,210	-0,167	-0,109
192,071	16,379	-0,187	-0,103
193,086	60,474	-0,259	-0,178
194,100	-70,225	-0,223	-0,058
195,115	36,109	-0,226	-0,138
196,129	271,001	-0,239	-0,294
197,144	173,406	-0,296	-0,297
198,159	16,943	-0,362	-0,199
199,173	-68,314	-0,158	-0,042
200,188	105,270	-0,120	-0,099
201,202	51,194	-0,183	-0,120
202,217	3,925	-0,099	-0,050
203,232	-28,850	-0,307	-0,122
204,246	281,319	-0,228	-0,285
205,261	173,495	-0,255	-0,256
206,275	706,140	-0,137	-0,253
207,290	10,928	-0,128	-0,068
208,304	130,607	-0,102	-0,091
209,319	44,214	-0,043	-0,028
210,334	800,000	-0,086	-0,194
211,348	41,583	-0,286	-0,180
212,363	112,261	-0,236	-0,199
213,377	34,400	-0,241	-0,146
214,392	346,883	-0,134	-0,184
215,407	-200,000	-0,064	-0,215
216,421	0,679	-0,174	-0,086
217,436	92,701	-0,186	-0,146
218,450	-58,819	-0,337	-0,101
219,465	64,875	-0,235	-0,165
220,480	162,865	-0,059	-0,057
221,494	164,627	-0,224	-0,220
222,509	91,748	-0,213	-0,167
223,523	-200,000	-0,040	-0,140
224,538	800,000	-0,081	-0,228
225,553	64,109	-0,202	-0,141
226,567	160,539	-0,141	-0,137
227,582	163,657	-0,181	-0,177
228,596	800,000	-0,081	-0,227
229,611	23,149	-0,169	-0,096
230,626	-44,096	-0,209	-0,072
231,640	36,523	-0,249	-0,152
232,655	307,219	-0,201	-0,260
233,669	-17,122	-0,385	-0,168
234,684	-70,968	-0,283	-0,073
235,699	581,056	-0,097	-0,165
236,713	800,000	-0,058	-0,121
237,728	800,000	-0,019	-0,049
238,742	152,803	-0,195	-0,184
239,757	13,723	-0,255	-0,137
240,772	106,974	-0,274	-0,225
241,786	153,484	-0,120	-0,114
242,801	800,000	-0,030	-0,080
243,815	429,611	-0,018	-0,027
244,830	61,304	-0,127	-0,087
245,844	252,320	-0,139	-0,164
246,859	-200,000	-0,067	-0,243
247,874	18,576	-0,276	-0,152
248,888	-47,386	-0,308	-0,103
249,903	81,579	-0,179	-0,134
250,917	-66,223	-0,176	-0,048
251,932	-154,166	-0,268	-0,012
252,947	6,563	-0,208	-0,107
253,961	119,395	-0,191	-0,164
254,976	208,131	-0,179	-0,194
255,990	800,000	-0,145	-0,283
257,005	-54,794	-0,209	-0,065
258,020	406,993	-0,100	-0,146
259,034	245,894	-0,105	-0,123
260,049	273,942	-0,253	-0,310
261,063	337,316	-0,121	-0,164
262,078	54,704	-0,228	-0,152
263,093	187,439	-0,172	-0,178
264,107	526,822	-0,073	-0,120
265,122	51,783	-0,170	-0,111
266,136	149,728	-0,150	-0,141
267,151	-193,304	-0,191	-0,001
268,166	263,029	-0,061	-0,073
269,180	49,134	-0,170	-0,110
270,195	-89,405	-0,225	-0,045
271,209	6,244	-0,241	-0,123
272,224	-72,404	-0,243	-0,062
273,239	257,622	-0,115	-0,137
274,253	14,107	-0,174	-0,094
275,268	56,490	-0,134	-0,090
276,282	-200,000	-0,076	-0,254
277,297	-49,261	-0,056	-0,018
278,312	228,870	-0,138	-0,156
279,326	47,983	-0,182	-0,118
280,341	306,095	-0,105	-0,135
281,355	-77,214	-0,303	-0,072
282,370	-143,126	-0,203	-0,013
283,384	800,000	-0,030	0,076
284,399	-38,943	-0,280	-0,101
285,414	112,333	-0,050	-0,042
286,428	-58,888	-0,149	-0,044
287,443	800,000	-0,080	-0,161
288,457	337,302	-0,053	-0,071
289,472	-84,104	-0,148	0,032
290,487	-32,571	-0,209	-0,080
291,501	-200,000	-0,059	-0,217
292,516	-200,000	-0,015	-0,196
293,530	61,078	-0,084	-0,058
294,545	54,546	-0,200	-0,133
295,560	128,197	-0,180	-0,158
296,574	526,814	-0,152	-0,249
297,589	-3,367	-0,199	-0,095
298,603	-78,111	-0,301	-0,071
299,618	88,834	-0,228	-0,175
300,633	-27,668	-0,135	-0,054
301,647	-177,812	-0,117	0,002
302,662	280,391	-0,056	0,069
303,676	-36,434	-0,162	-0,060
304,691	-12,912	-0,135	-0,060
305,706	515,448	-0,164	-0,265
306,720	-200,000	-0,015	-0,110
307,735	53,407	-0,172	-0,113
308,749	463,402	-0,098	-0,151
309,764	-42,175	-0,134	0,047
310,779	91,284	-0,153	-0,118
311,793	800,000	-0,022	-0,056
312,808	152,033	-0,185	-0,174
313,822	99,787	-0,146	-0,117
314,837	10,006	-0,201	-0,105
315,852	-85,428	-0,200	-0,042
316,866	-7,894	-0,101	0,047
317,881	66,298	-0,111	0,077
318,895	198,851	-0,121	-0,127
319,910	182,142	-0,124	-0,126
320,925	333,582	-0,186	-0,249
321,939	-200,000	-0,058	-0,246
322,954	-200,000	-0,014	-0,102
323,968	81,700	-0,132	-0,098
324,983	-128,080	-0,107	0,010
325,997	-96,705	-0,163	-0,029
327,012	342,589	-0,182	-0,245
328,027	-56,889	-0,228	-0,069
329,041	-139,320	-0,201	0,015
330,056	222,627	-0,196	-0,217
331,070	-39,393	-0,084	-0,030
332,085	76,093	-0,044	-0,032
333,100	800,000	-0,042	-0,085
334,114	21,758	-0,125	-0,070
335,129	364,447	-0,157	-0,218
336,143	180,241	-0,124	-0,125
337,158	787,152	-0,091	-0,173
338,173	-200,000	-0,037	-0,282
339,187	-61,030	-0,170	0,049
340,202	152,887	-0,153	-0,143
341,216	387,750	-0,132	-0,189
342,231	73,047	-0,239	-0,172
343,246	-32,619	-0,150	-0,057
344,260	172,337	-0,195	-0,193
345,275	-200,000	-0,024	0,091
346,289	252,784	-0,091	-0,107
347,304	33,045	-0,155	-0,092
348,319	92,764	-0,149	-0,115
349,333	122,265	-0,213	-0,183
350,348	11,077	-0,141	-0,074
351,362	146,987	-0,108	-0,100
352,377	511,018	0,045	-0,072
353,392	-60,455	-0,173	-0,050
354,406	139,787	-0,175	-0,158
355,421	208,568	1316,647	1414,638
356,435	160,481	1477,631	1415,127
