DTS Sentinel unit serial number:	SN410029Multiplexer serial number:	ORYXHardware model number:	OX2-SRSoftware version number:	ORYX F/W v4,00 Oryx Data Collector v3.7.2.0data status	okinstallation	B3 Nyhavnadifferential loss correction	single-endedforward channel	channel 1reverse channel	N/Adate	2023/12/03time	17:17:30forward acquisition time	300,00reverse acquisition time	0,00gamma	499,1914k internal	0,3198k external	0,3198temperature offset calibration	1,0000default loss term (dB/km)	0,3820temperature slope calibration	1,0000multiplexer offset coefficient	1,0000multiplexer slope coefficient	1,0000fibre end	0,00T internal ref (°C)	15,00T ext. ref 1 (°C)	-0,43T ext. ref 2 (°C)	-0,46length (m)	temperature (°C)	Stokes	anti-Stokes-744,400	122,910	-0,301	-0,275
-743,385	-200,000	0,082	0,263
-742,371	223,888	-0,163	-0,192
-741,356	-200,000	0,098	0,349
-740,342	173,486	-0,220	-0,231
-739,327	-200,000	0,030	0,424
-738,312	800,000	-0,110	-0,251
-737,298	-200,000	0,049	0,210
-736,283	166,294	-0,274	-0,283
-735,269	-200,000	0,071	0,371
-734,254	-48,974	-0,265	-0,092
-733,239	147,190	-0,253	0,248
-732,225	657,678	-0,105	-0,197
-731,210	-200,000	0,011	0,165
-730,196	59,731	-0,038	0,027
-729,181	124,555	0,040	-0,036
-728,167	33,318	-0,182	-0,115
-727,152	800,000	0,038	-0,079
-726,137	34,344	-0,074	0,047
-725,123	156,987	0,033	-0,033
-724,108	98,553	-0,117	-0,098
-723,094	-66,973	-0,139	-0,040
-722,079	229,204	-0,082	-0,097
-721,064	270,008	-0,065	-0,083
-720,050	76,161	-0,077	0,059
-719,035	-118,158	0,041	0,005
-718,021	-37,250	0,134	-0,052
-717,006	-200,000	0,007	-0,066
-715,991	473,328	-0,018	-0,030
-714,977	105,587	-0,126	-0,109
-713,962	800,000	-0,042	0,119
-712,948	-0,926	0,194	0,100
-711,933	107,672	-0,066	0,057
-710,918	800,000	0,046	-0,142
-709,904	333,911	-0,057	-0,081
-708,889	-136,427	-0,088	-0,007
-707,875	-200,000	-0,002	0,070
-706,860	-200,000	0,031	-0,131
-705,845	44,046	0,091	-0,060
-704,831	-200,000	0,012	0,086
-703,816	-200,000	-0,024	0,102
-702,802	362,944	0,013	-0,018
-701,787	-41,355	-0,004	0,002
-700,772	2,780	-0,142	-0,075
-699,758	-200,000	-0,013	-0,069
-698,743	253,308	-0,035	-0,044
-697,729	305,571	-0,024	0,032
-696,714	-200,000	0,029	-0,103
-695,699	45,943	-0,084	-0,056
-694,685	2,196	-0,119	-0,062
-693,670	-85,355	-0,083	-0,019
-692,656	-200,000	-0,005	-0,056
-691,641	800,000	-0,023	0,063
-690,627	-60,652	-0,129	0,040
-689,612	322,719	-0,021	-0,029
-688,597	95,106	0,039	-0,033
-687,583	35,545	-0,033	-0,021
-686,568	22,692	-0,118	-0,070
-685,554	404,304	0,047	-0,072
-684,539	-148,058	0,089	0,005
-683,524	-200,000	0,030	0,114
-682,510	-70,049	0,100	-0,027
-681,495	30,168	0,029	-0,018
-680,481	-7,183	0,010	0,005
-679,466	-200,000	-0,011	-0,189
-678,451	-139,072	0,101	0,008
-677,437	-200,000	0,020	0,068
-676,422	-104,458	-0,014	-0,002
-675,408	-200,000	-0,007	0,030
-674,393	43,947	-0,089	0,059
-673,378	-200,000	-0,001	-0,005
-672,364	800,000	-0,034	0,071
-671,349	35,971	0,044	-0,028
-670,335	800,000	-0,042	-0,105
-669,320	800,000	0,045	-0,103
-668,305	-21,139	-0,206	-0,091
-667,291	-200,000	0,001	0,057
-666,276	-165,441	-0,037	0,001
-665,262	-200,000	0,012	-0,097
-664,247	779,939	0,049	-0,097
-663,232	-113,966	-0,021	0,003
-662,218	-99,679	0,124	0,022
-661,203	-70,180	-0,154	-0,042
-660,189	-200,000	0,005	-0,028
-659,174	-200,000	-0,018	0,101
-658,159	-200,000	-0,028	-0,137
-657,145	-26,530	0,067	0,028
-656,130	-200,000	-0,012	-0,075
-655,116	-200,000	-0,006	-0,061
-654,101	769,162	-0,047	0,092
-653,086	-200,000	-0,014	-0,063
-652,072	456,878	0,075	-0,122
-651,057	102,660	-0,140	-0,119
-650,043	-200,000	-0,030	-0,128
-649,028	-200,000	0,022	-0,137
-648,014	-32,033	0,090	-0,036
-646,999	-200,000	-0,012	0,105
-645,984	138,319	-0,168	0,160
-644,970	-145,743	-0,084	0,005
-643,955	153,766	-0,050	-0,049
-642,941	-20,176	-0,181	-0,081
-641,926	32,181	0,064	-0,040
-640,911	685,524	-0,025	0,048
-639,897	191,463	0,097	0,106
-638,882	350,559	0,041	0,059
-637,868	-200,000	0,011	-0,046
-636,853	-125,629	-0,084	0,009
-635,838	-142,161	-0,144	0,010
-634,824	290,371	-0,037	-0,049
-633,809	6,898	-0,149	0,080
-632,795	288,778	0,018	0,024
-631,780	93,270	0,023	-0,019
-630,765	2,142	0,098	-0,051
-629,751	-200,000	-0,011	-0,132
-628,736	-15,930	-0,216	-0,099
-627,722	-102,679	0,169	-0,029
-626,707	-152,268	0,026	0,001
-625,692	800,000	0,048	0,132
-624,678	132,639	-0,098	0,091
-623,663	210,202	-0,069	0,079
-622,649	244,964	-0,032	-0,039
-621,634	-200,000	0,005	-0,051
-620,619	2,344	0,049	0,026
-619,605	-200,000	0,003	0,021
-618,590	687,139	0,058	-0,110
-617,576	-200,000	0,018	0,097
-616,561	-200,000	-0,057	0,000
-615,546	281,266	-0,083	-0,108
-614,532	637,114	-0,058	-0,107
-613,517	-200,000	-0,039	-0,151
-612,503	800,000	0,043	-0,115
-611,488	152,657	0,061	0,061
-610,474	-69,821	0,097	0,027
-609,459	479,633	0,057	0,094
-608,444	800,000	0,049	-0,099
-607,430	123,942	-0,040	-0,036
-606,415	-63,262	-0,056	0,017
-605,401	-62,979	0,104	-0,031
-604,386	40,193	0,062	0,040
-603,371	-156,179	-0,049	-0,002
-602,357	-200,000	-0,005	-0,098
-601,342	-61,238	-0,086	-0,026
-600,328	-200,000	-0,003	-0,098
-599,313	692,465	0,082	-0,157
-598,298	437,962	0,022	0,035
-597,284	-200,000	-0,013	0,086
-596,269	-80,388	0,145	0,035
-595,255	485,014	-0,084	0,140
-594,240	408,048	-0,058	0,089
-593,225	-177,291	-0,082	-0,001
-592,211	409,500	-0,048	-0,074
-591,196	-200,000	0,005	-0,109
-590,182	34,218	-0,087	0,054
-589,167	-83,063	-0,069	0,016
-588,152	26,605	0,123	-0,074
-587,138	-54,147	-0,068	-0,022
-586,123	800,000	0,020	0,057
-585,109	445,745	-0,056	-0,089
-584,094	800,000	0,022	-0,046
-583,079	-200,000	0,004	0,063
-582,065	391,205	0,046	0,069
-581,050	331,363	0,036	0,051
-580,036	706,304	-0,041	0,079
-579,021	-119,816	0,032	-0,004
-578,006	146,363	-0,068	-0,066
-576,992	-200,000	0,003	-0,058
-575,977	296,643	0,119	0,158
-574,963	251,689	0,045	-0,056
-573,948	-200,000	0,003	0,063
-572,934	-97,702	0,060	-0,011
-571,919	-200,000	-0,004	-0,069
-570,904	-200,000	0,016	-0,088
-569,890	-44,220	0,115	-0,041
-568,875	40,761	0,071	-0,046
-567,861	373,220	-0,080	0,119
-566,846	-200,000	0,043	0,152
-565,831	50,479	0,101	0,069
-564,817	482,977	-0,023	-0,038
-563,802	-64,418	0,105	-0,031
-562,788	187,337	-0,094	0,101
-561,773	2,378	0,044	0,023
-560,758	512,517	-0,047	0,080
-559,744	118,130	0,075	0,066
-558,729	-152,976	-0,095	-0,005
-557,715	-65,424	-0,111	0,032
-556,700	395,597	0,037	-0,055
-555,685	-200,000	0,003	-0,059
-554,671	-154,777	-0,033	-0,002
-553,656	271,321	0,038	0,049
-552,642	-67,719	0,067	-0,019
-551,627	-44,186	-0,044	-0,016
-550,612	-75,005	-0,122	-0,031
-549,598	223,239	0,035	-0,040
-548,583	-25,018	0,127	0,054
-547,569	-115,352	0,063	0,008
-546,554	516,218	-0,041	-0,069
-545,539	800,000	0,045	0,123
-544,525	681,773	0,034	0,063
-543,510	-88,842	-0,125	-0,027
-542,496	-200,000	-0,037	-0,158
-541,481	-200,000	-0,002	-0,153
-540,466	-200,000	-0,005	-0,053
-539,452	36,682	0,083	0,053
-538,437	800,000	-0,027	0,073
-537,423	494,634	0,068	0,114
-536,408	-36,729	-0,038	-0,014
-535,393	-200,000	-0,009	0,036
-534,379	183,050	0,054	0,057
-533,364	-114,147	-0,045	0,006
-532,350	800,000	-0,069	0,148
-531,335	-200,000	0,002	0,028
-530,321	800,000	0,059	0,172
-529,306	-94,446	-0,161	0,031
-528,291	-21,059	-0,088	0,039
-527,277	800,000	-0,034	0,091
-526,262	-200,000	0,023	0,117
-525,248	800,000	0,052	-0,123
-524,233	-8,490	0,145	0,070
-523,218	-167,244	0,040	0,001
-522,204	800,000	-0,053	-0,140
-521,189	-125,673	0,086	0,009
-520,175	-10,581	-0,104	-0,050
-519,160	-76,195	-0,082	0,021
-518,145	587,895	0,081	-0,145
-517,131	37,233	0,131	-0,084
-516,116	-200,000	0,018	0,252
-515,102	-7,928	-0,070	-0,034
-514,087	800,000	-0,035	-0,082
-513,072	800,000	-0,063	-0,150
-512,058	-126,382	-0,270	0,029
-511,043	195,645	0,142	-0,156
-510,029	356,281	-0,022	0,031
-509,014	-200,000	-0,003	0,025
-507,999	262,301	-0,044	-0,055
-506,985	-181,411	-0,081	-0,001
-505,970	-200,000	0,029	-0,118
-504,956	79,107	-0,059	0,045
-503,941	-27,259	0,149	-0,062
-502,926	597,853	-0,018	-0,032
-501,912	-200,000	0,008	0,054
-500,897	182,925	0,080	-0,085
-499,883	65,175	0,143	-0,104
-498,868	-94,969	-0,052	0,010
-497,853	-200,000	-0,001	-0,044
-496,839	116,845	-0,020	0,018
-495,824	40,882	0,076	0,049
-494,810	-118,113	-0,067	-0,008
-493,795	367,188	0,072	-0,105
-492,781	329,278	-0,113	0,157
-491,766	-42,519	0,012	0,005
-490,751	-200,000	-0,006	-0,030
-489,737	24,849	-0,061	-0,036
-488,722	800,000	0,049	0,104
-487,708	-29,365	0,140	0,058
-486,693	-38,563	-0,009	-0,003
-485,678	34,826	-0,096	-0,060
-484,664	7,797	0,132	-0,071
-483,649	-16,904	-0,116	-0,052
-482,635	-127,282	0,082	0,008
-481,620	800,000	-0,028	-0,078
-480,605	800,000	-0,050	0,150
-479,591	117,332	0,012	-0,011
-478,576	200,661	-0,025	0,028
-477,562	800,000	-0,042	-0,093
-476,547	-200,000	-0,007	-0,068
-475,532	46,681	-0,022	0,015
-474,518	-77,711	-0,047	-0,012
-473,503	-200,000	-0,027	0,123
-472,489	-118,204	-0,209	-0,027
-471,474	800,000	0,031	0,062
-470,459	66,762	0,070	-0,051
-469,445	362,721	-0,050	-0,072
-468,430	-200,000	0,011	-0,065
-467,416	-137,810	0,146	-0,012
-466,401	800,000	0,063	0,154
-465,386	-200,000	0,012	0,046
-464,372	-81,413	-0,115	-0,027
-463,357	48,610	0,088	0,059
-462,343	37,526	-0,047	-0,030
-461,328	-162,993	0,032	-0,001
-460,313	-4,257	-0,121	-0,060
-459,299	136,806	0,052	0,049
-458,284	51,481	-0,086	0,059
-457,270	-200,000	0,011	-0,145
-456,255	385,347	-0,023	0,034
-455,241	601,188	0,035	0,063
-454,226	-78,388	0,103	-0,025
-453,211	-115,074	0,092	0,012
-452,197	-200,000	-0,002	0,104
-451,182	361,354	0,047	0,068
-450,168	800,000	-0,040	0,089
-449,153	127,952	-0,097	0,089
-448,138	382,357	-0,040	-0,059
-447,124	81,262	-0,059	-0,046
-446,109	-200,000	-0,004	-0,156
-445,095	127,796	0,100	-0,092
-444,080	-200,000	-0,014	-0,055
-443,065	23,624	0,138	0,082
-442,051	-8,411	0,047	0,023
-441,036	101,830	-0,070	-0,059
-440,022	423,711	-0,051	-0,079
-439,007	-44,581	-0,236	0,084
-437,992	613,414	0,080	0,144
-436,978	-178,965	0,097	-0,002
-435,963	47,894	0,131	0,088
-434,949	128,669	0,029	-0,026
-433,934	191,857	-0,020	-0,022
-432,919	-200,000	0,003	0,023
-431,905	96,771	0,112	-0,092
-430,890	-170,924	0,095	-0,002
-429,876	800,000	0,016	-0,045
-428,861	-200,000	-0,012	0,094
-427,846	800,000	-0,041	0,082
-426,832	-70,424	-0,148	0,040
-425,817	237,171	-0,074	-0,088
-424,803	-117,330	0,102	-0,013
-423,788	631,344	0,113	0,206
-422,773	-119,500	0,101	0,012
-421,759	386,453	0,143	0,213
-420,744	60,505	-0,087	0,062
-419,730	-56,661	-0,050	0,016
-418,715	-200,000	0,009	0,028
-417,701	340,648	-0,005	-0,006
-416,686	-56,557	0,136	0,043
-415,671	59,722	0,061	-0,043
-414,657	47,072	0,065	0,044
-413,642	60,255	-0,045	-0,032
-412,628	-200,000	-0,020	0,222
-411,613	490,621	-0,060	-0,100
-410,598	181,016	-0,069	-0,073
-409,584	-112,101	-0,064	-0,009
-408,569	-172,744	0,036	-0,001
-407,555	53,764	-0,095	0,066
-406,540	-164,587	0,019	0,001
-405,525	-65,264	-0,084	-0,024
-404,511	64,406	-0,118	0,085
-403,496	538,456	0,078	-0,133
-402,482	-31,374	0,114	-0,046
-401,467	110,148	0,068	0,059
-400,452	-9,923	0,101	0,048
-399,438	-200,000	-0,034	-0,170
-398,423	-108,579	-0,124	0,019
-397,409	228,869	-0,081	-0,095
-396,394	-92,232	-0,223	0,045
-395,379	-0,330	0,043	-0,022
-394,365	-200,000	-0,011	-0,064
-393,350	-200,000	0,009	-0,053
-392,336	243,609	0,008	-0,010
-391,321	800,000	-0,010	0,023
-390,306	530,987	0,045	-0,077
-389,292	-93,710	-0,089	0,017
-388,277	-200,000	0,000	-0,114
-387,263	35,689	0,150	0,094
-386,248	754,911	0,045	0,089
-385,233	-200,000	-0,016	0,152
-384,219	-99,347	0,138	-0,025
-383,204	-200,000	-0,017	0,170
-382,190	76,274	-0,070	0,053
-381,175	558,329	0,067	-0,117
-380,160	-96,839	0,100	0,019
-379,146	-112,207	0,027	0,004
-378,131	-110,159	0,226	0,033
-377,117	800,000	0,028	-0,065
-376,102	90,684	-0,029	0,023
-375,088	267,021	0,048	-0,061
-374,073	-200,000	0,026	-0,231
-373,058	-68,676	-0,061	0,017
-372,044	58,179	-0,130	0,091
-371,029	93,133	0,105	-0,085
-370,015	146,575	-0,044	-0,042
-369,000	116,172	-0,048	-0,042
-367,985	-49,189	-0,014	-0,005
-366,971	86,056	0,079	-0,062
-365,956	707,249	-0,022	0,042
-364,942	-182,229	0,063	0,001
-363,927	-115,391	0,108	-0,014
-362,912	444,289	0,070	-0,110
-361,898	193,654	-0,104	-0,113
-360,883	105,707	0,064	-0,054
-359,869	800,000	0,025	-0,051
-358,854	-36,723	-0,150	0,058
-357,839	-72,393	0,120	0,032
-356,825	-200,000	0,026	0,109
-355,810	800,000	0,029	0,089
-354,796	-147,896	0,166	0,010
-353,781	-200,000	-0,019	0,110
-352,766	280,795	-0,035	-0,045
-351,752	-32,253	0,051	-0,020
-350,737	-31,216	0,055	0,022
-349,723	-160,372	0,089	-0,003
-348,708	-173,105	-0,037	-0,001
-347,693	800,000	0,063	-0,141
-346,679	-200,000	-0,008	-0,091
-345,664	-60,117	-0,048	0,015
-344,650	-200,000	-0,012	-0,135
-343,635	800,000	0,029	0,087
-342,620	-200,000	0,000	0,042
-341,606	13,479	0,042	0,023
-340,591	56,489	0,015	0,010
-339,577	251,354	-0,020	-0,024
-338,562	-200,000	0,017	-0,108
-337,548	-169,301	-0,099	0,003
-336,533	73,996	-0,162	0,122
-335,518	-179,878	0,063	0,001
-334,504	-200,000	0,028	-0,089
-333,489	800,000	-0,011	-0,023
-332,475	-89,222	-0,047	0,010
-331,460	580,105	-0,095	-0,167
-330,445	-16,266	-0,065	-0,029
-329,431	229,151	0,059	0,069
-328,416	-200,000	0,042	0,194
-327,402	129,791	0,068	0,062
-326,387	-104,519	-0,056	-0,009
-325,372	-166,592	0,069	0,002
-324,358	220,176	-0,024	0,028
-323,343	143,350	0,066	-0,063
-322,329	-200,000	0,000	0,090
-321,314	-200,000	-0,018	0,161
-320,299	29,929	0,095	0,058
-319,285	-99,209	-0,011	-0,002
-318,270	155,942	0,055	0,054
-317,256	270,793	-0,034	-0,043
-316,241	85,804	-0,087	-0,069
-315,226	36,190	0,047	0,029
-314,212	684,948	0,060	0,112
-313,197	204,371	-0,030	0,033
-312,183	-9,465	-0,023	-0,011
-311,168	341,447	-0,051	-0,072
-310,153	-96,275	0,043	-0,008
-309,139	144,984	-0,100	0,096
-308,124	-96,569	0,095	-0,018
-307,110	-87,916	0,039	0,008
-306,095	-200,000	-0,007	0,031
-305,080	201,295	-0,124	0,137
-304,066	-200,000	0,015	0,072
-303,051	32,724	-0,058	-0,036
-302,037	-200,000	0,009	-0,065
-301,022	-200,000	0,020	0,071
-300,008	141,961	0,073	-0,069
-298,993	13,635	0,070	-0,039
-297,978	-76,750	-0,101	0,025
-296,964	686,877	-0,025	-0,047
-295,949	270,938	-0,043	0,055
-294,935	-76,399	0,046	-0,012
-293,920	160,049	-0,030	0,030
-292,905	157,094	0,091	0,090
-291,891	-200,000	-0,021	0,116
-290,876	311,000	0,053	0,071
-289,862	7,723	0,069	0,037
-288,847	577,462	-0,057	-0,100
-287,832	180,046	0,132	0,139
-286,818	116,561	0,058	0,051
-285,803	-157,850	0,152	-0,006
-284,789	-200,000	-0,011	-0,042
-283,774	49,036	0,048	0,032
-282,759	-200,000	-0,014	0,091
-281,745	267,841	-0,094	-0,118
-280,730	-200,000	0,004	-0,183
-279,716	-200,000	0,002	-0,079
-278,701	-200,000	0,005	0,044
-277,686	-41,970	-0,008	-0,003
-276,672	135,061	0,035	-0,033
-275,657	683,097	-0,061	0,114
-274,643	44,351	-0,056	-0,036
-273,628	-200,000	0,018	0,111
-272,613	-49,419	0,026	0,009
-271,599	41,628	0,035	0,023
-270,584	-67,230	0,037	0,010
-269,570	-45,806	0,154	0,054
-268,555	83,197	0,040	0,031
-267,540	-46,241	0,100	-0,035
-266,526	82,853	-0,096	0,075
-265,511	17,962	-0,056	0,032
-264,497	-200,000	-0,046	-0,000
-263,482	-200,000	0,072	0,256
-262,467	530,507	0,033	-0,057
-261,453	-200,000	0,011	0,056
-260,438	-105,007	-0,113	0,018
-259,424	800,000	0,009	-0,023
-258,409	43,242	-0,109	-0,071
-257,395	800,000	-0,053	-0,108
-256,380	25,553	-0,053	-0,031
-255,365	-50,183	0,031	-0,010
-254,351	62,955	0,087	-0,062
-253,336	800,000	-0,054	-0,157
-252,322	147,760	-0,125	-0,120
-251,307	-200,000	0,000	-0,032
-250,292	-31,858	-0,202	-0,080
-249,278	21,264	-0,078	0,045
-248,263	-40,348	0,134	-0,050
-247,249	147,332	-0,076	-0,073
-246,234	-200,000	-0,024	-0,082
-245,219	-14,918	-0,058	0,026
-244,205	-39,177	-0,113	0,042
-243,190	4,362	0,093	0,049
-242,176	-47,769	-0,129	0,044
-241,161	-27,806	0,110	-0,045
-240,146	10,404	-0,058	0,031
-239,132	-143,767	-0,062	-0,004
-238,117	-74,633	-0,094	-0,024
-237,103	54,477	-0,165	0,114
-236,088	24,743	-0,014	0,008
-235,073	214,527	-0,078	0,088
-234,059	2,668	0,038	-0,020
-233,044	-7,602	0,070	0,033
-232,030	139,982	-0,015	0,014
-231,015	800,000	-0,024	-0,063
-230,000	138,820	-0,058	-0,055
-228,986	93,594	0,083	-0,067
-227,971	172,742	0,042	-0,043
-226,957	-8,476	0,080	-0,038
-225,942	540,024	-0,034	-0,058
-224,927	357,567	-0,059	0,085
-223,913	170,119	-0,068	-0,069
-222,898	-7,294	0,028	0,014
-221,884	-87,766	-0,012	0,002
-220,869	-86,099	0,141	-0,031
-219,855	-24,260	0,132	0,056
-218,840	800,000	-0,054	0,117
-217,825	63,812	0,141	-0,101
-216,811	800,000	0,030	-0,084
-215,796	21,505	-0,104	-0,060
-214,782	491,664	-0,034	-0,056
-213,767	-83,905	-0,038	0,009
-212,752	211,886	0,078	-0,088
-211,738	384,950	0,056	0,082
-210,723	301,628	-0,070	0,093
-209,709	49,567	-0,061	-0,041
-208,694	81,922	-0,108	0,083
-207,679	-200,000	-0,009	-0,049
-206,665	800,000	0,014	-0,036
-205,650	-105,269	0,056	0,009
-204,636	800,000	-0,040	0,110
-203,621	88,146	-0,137	0,108
-202,606	-123,806	-0,118	-0,013
-201,592	-120,167	0,193	0,023
-200,577	180,803	0,049	0,051
-199,563	800,000	-0,032	0,065
-198,548	-200,000	-0,008	-0,077
-197,533	-200,000	-0,005	0,062
-196,519	800,000	-0,047	0,095
-195,504	-171,332	0,094	-0,002
-194,490	-200,000	-0,017	-0,089
-193,475	-133,046	-0,029	-0,003
-192,460	800,000	0,017	-0,049
-191,446	15,596	0,050	-0,028
-190,431	9,633	0,075	0,040
-189,417	-200,000	0,016	-0,111
-188,402	-200,000	0,011	-0,046
-187,387	-47,141	-0,047	-0,016
-186,373	41,528	-0,142	-0,091
-185,358	-200,000	-0,011	-0,151
-184,344	-200,000	-0,007	0,051
-183,329	-12,263	-0,030	0,014
-182,315	-110,835	0,020	-0,003
-181,300	561,051	-0,012	-0,020
-180,285	156,851	-0,084	-0,083
-179,271	-13,811	-0,083	0,038
-178,256	-200,000	-0,001	0,134
-177,242	-27,379	0,152	-0,063
-176,227	183,390	-0,075	-0,079
-175,212	66,338	-0,152	0,110
-174,198	356,974	0,050	0,071
-173,183	-200,000	-0,023	-0,079
-172,169	-98,976	-0,174	0,031
-171,154	-154,067	-0,145	0,007
-170,139	270,416	-0,054	-0,068
-169,125	163,205	0,128	0,129
-168,110	21,554	0,071	0,041
-167,096	-147,303	0,017	-0,001
-166,081	-200,000	-0,009	-0,130
-165,066	94,616	0,023	-0,018
-164,052	-200,000	0,002	-0,098
-163,037	-112,096	0,037	0,005
-162,023	71,590	0,047	0,035
-161,008	-92,195	0,164	0,033
-159,993	-200,000	-0,016	0,125
-158,979	-200,000	-0,036	-0,130
-157,964	-200,000	0,040	-0,165
-156,950	64,733	-0,076	0,055
-155,935	-200,000	-0,018	-0,084
-154,920	-197,277	0,167	0,001
-153,906	-200,000	-0,029	-0,175
-152,891	-200,000	-0,013	0,064
-151,877	-51,147	0,040	0,013
-150,862	-49,555	-0,182	-0,061
-149,847	800,000	0,033	-0,092
-148,833	-37,775	0,051	0,019
-147,818	-24,882	0,232	0,098
-146,804	279,014	-0,108	-0,137
-145,789	-200,000	0,024	-0,094
-144,775	25,855	-0,122	0,072
-143,760	-70,118	-0,074	0,020
-142,745	152,138	-0,072	-0,070
-141,731	-114,857	-0,046	0,006
-140,716	-15,078	0,139	0,063
-139,702	-200,000	0,003	0,103
-138,687	144,402	0,137	0,130
-137,672	-46,962	0,040	-0,014
-136,658	-115,708	-0,064	-0,008
-135,643	-48,340	0,113	-0,039
-134,629	245,239	-0,042	-0,051
-133,614	338,553	0,062	0,086
-132,599	-148,253	0,222	0,013
-131,585	-200,000	0,015	0,163
-130,570	20,238	-0,124	-0,071
-129,556	-200,000	0,040	0,133
-128,541	598,020	-0,036	0,064
-127,526	-65,780	0,094	-0,027
-126,512	800,000	0,030	0,081
-125,497	-148,649	0,350	0,020
-124,483	272,225	0,042	0,052
-123,468	222,956	-0,026	-0,030
-122,453	-12,392	0,131	0,061
-121,439	16,751	-0,273	0,153
-120,424	-200,000	0,001	-0,011
-119,410	74,441	0,084	0,063
-118,395	166,224	-0,061	0,061
-117,380	369,594	0,072	0,104
-116,366	-200,000	-0,014	-0,074
-115,351	-163,354	0,083	0,003
-114,337	164,533	-0,126	0,126
-113,322	417,755	-0,056	0,085
-112,307	112,942	0,083	0,072
-111,293	800,000	-0,109	0,220
-110,278	-24,051	0,049	0,021
-109,264	-83,263	-0,083	0,019
-108,249	652,700	0,046	-0,085
-107,234	234,207	0,013	0,015
-106,220	-76,508	-0,215	-0,053
-105,205	108,055	-0,094	-0,080
-104,191	-67,940	-0,040	-0,011
-103,176	19,101	0,103	0,058
-102,162	267,816	-0,103	0,129
-101,147	-200,000	-0,017	-0,105
-100,132	800,000	-0,030	-0,073
-99,118	566,261	-0,021	0,036
-98,103	130,590	0,102	-0,093
-97,089	251,765	0,026	0,031
-96,074	490,581	0,075	-0,122
-95,059	100,982	-0,099	-0,082
-94,045	190,477	-0,074	-0,079
-93,030	-200,000	0,031	0,126
-92,016	-200,000	-0,012	-0,062
-91,001	-99,661	0,135	0,024
-89,986	619,243	0,021	0,037
-88,972	453,373	0,055	-0,086
-87,957	8,292	0,062	0,033
-86,943	57,710	-0,096	0,067
-85,928	-200,000	0,003	-0,077
-84,913	143,743	-0,062	-0,058
-83,899	39,915	0,004	-0,003
-82,884	-200,000	-0,001	0,035
-81,870	-200,000	-0,000	0,160
-80,855	92,845	-0,031	-0,025
-79,840	800,000	0,054	-0,118
-78,826	-200,000	-0,020	-0,178
-77,811	-4,104	-0,113	-0,055
-76,797	-163,765	-0,058	0,002
-75,782	800,000	0,015	0,031
-74,767	800,000	0,052	0,106
-73,753	-58,501	-0,065	0,020
-72,738	-200,000	0,002	-0,146
-71,724	-200,000	-0,005	-0,138
-70,709	176,389	-0,063	0,065
-69,694	252,634	-0,092	0,111
-68,680	-104,508	0,110	0,018
-67,665	-151,549	0,173	0,009
-66,651	-29,712	-0,183	0,074
-65,636	-51,295	-0,053	-0,018
-64,622	800,000	-0,028	0,058
-63,607	-141,630	-0,102	-0,007
-62,592	44,462	0,084	0,055
-61,578	434,180	0,078	0,121
-60,563	-72,023	-0,038	-0,010
-59,549	-60,196	0,071	-0,021
-58,534	-88,869	-1,574	-0,328
-57,519	315,047	-1,527	-2,045
-56,505	-200,000	-0,545	-4,506
-55,490	196,718	1,057	1,144
-54,476	800,000	4,647	10,879
-53,461	-200,000	18,314	287,602
-52,446	800,000	727,333	2230,964
-51,432	556,447	1643,416	2817,088
-50,417	79,186	1665,318	1263,424
-49,403	22,901	1538,735	891,694
-48,388	16,837	1462,187	817,944
-47,373	17,864	1451,897	817,108
-46,359	17,282	1442,470	808,982
-45,344	15,153	1437,879	796,206
-44,330	15,059	1435,976	794,672
-43,315	15,034	1434,273	793,581
-42,300	15,099	1432,387	792,814
-41,286	15,135	1431,325	792,365
-40,271	15,055	1430,236	791,351
-39,257	15,052	1429,096	790,673
-38,242	15,106	1427,613	790,078
-37,227	15,135	1426,236	789,425
-36,213	15,112	1425,275	788,749
-35,198	15,110	1423,862	787,928
-34,184	15,128	1423,021	787,514
-33,169	15,086	1421,709	786,562
-32,154	15,125	1420,718	786,165
-31,140	15,087	1419,289	785,164
-30,125	15,152	1418,322	784,905
-29,111	15,199	1416,877	784,295
-28,096	15,069	1416,115	783,232
-27,082	15,035	1414,971	782,408
-26,067	15,066	1413,736	781,840
-25,052	15,057	1412,681	781,182
-24,038	14,989	1411,829	780,359
-23,023	14,994	1410,862	779,819
-22,009	15,011	1409,841	779,304
-20,994	14,965	1408,941	778,557
-19,979	14,947	1407,964	777,904
-18,965	14,945	1407,089	777,378
-17,950	14,950	1405,945	776,742
-16,936	14,953	1405,136	776,275
-15,921	14,967	1403,761	775,550
-14,906	14,963	1402,968	775,065
-13,892	14,924	1402,244	774,451
-12,877	14,888	1401,327	773,747
-11,863	14,941	1400,280	773,387
-10,848	14,932	1399,372	772,811
-9,833	14,903	1398,456	772,138
-8,819	14,883	1397,664	771,579
-7,804	14,852	1396,912	770,991
-6,790	14,850	1395,745	770,307
-5,775	14,881	1394,549	769,757
-4,760	14,845	1393,759	769,124
-3,746	14,844	1393,017	768,681
-2,731	14,828	1392,353	768,211
-1,717	14,807	1391,155	767,419
-0,702	14,782	1389,530	766,377
0,313	18,509	1308,689	739,078
1,327	34,605	706,885	436,556
2,342	53,287	124,701	84,496
3,356	1,820	16,728	8,512
4,371	2,180	3,179	1,622
5,386	-70,651	0,526	0,140
6,400	-200,000	0,011	0,065
7,415	178,015	-0,267	-0,276
8,429	71,158	-0,231	-0,170
9,444	32,621	-0,371	-0,227
10,459	-3,179	-0,404	-0,199
11,473	118,218	-0,318	-0,278
12,488	-40,010	-0,434	-0,159
13,502	21,266	-0,404	-0,231
14,517	16,352	-0,398	-0,222
15,531	40,189	-0,372	-0,236
16,546	304,933	-0,192	-0,253
17,561	51,305	-0,362	-0,243
18,575	51,719	-0,100	-0,067
19,590	-6,669	-0,316	-0,151
20,604	-85,497	-0,304	-0,066
21,619	48,046	-0,391	-0,258
22,634	76,644	-0,576	-0,432
23,648	117,809	-0,381	-0,331
24,663	18,490	-0,412	-0,232
25,677	110,797	-0,382	-0,325
26,692	123,100	-0,415	-0,367
27,707	-3,011	-0,439	-0,216
28,721	31,688	-0,333	-0,202
29,736	57,428	-0,431	-0,297
30,750	281,658	-0,270	-0,343
31,765	39,667	-0,405	-0,256
32,780	95,307	-0,318	-0,256
33,794	11,826	-0,383	-0,207
34,809	391,069	-0,242	-0,356
35,823	242,803	-0,254	-0,301
36,838	-3,731	-0,410	-0,200
37,853	109,849	-0,374	-0,316
38,867	187,724	-0,305	-0,321
39,882	17,050	-0,293	-0,163
40,896	25,462	-0,334	-0,196
41,911	110,560	-0,341	-0,289
42,926	392,733	-0,231	-0,341
43,940	379,418	-0,279	-0,404
44,955	-6,830	-0,362	-0,173
45,969	-36,254	-0,340	-0,129
46,984	-36,091	-0,471	-0,179
47,999	8,637	-0,359	-0,190
49,013	400,150	-0,212	-0,314
50,028	6,984	-0,425	-0,223
51,042	413,022	-0,234	-0,352
52,057	636,028	-0,225	-0,405
53,071	114,473	-0,388	-0,333
54,086	-44,746	-0,342	-0,120
55,101	-2,713	-0,292	-0,144
56,115	130,904	-0,229	-0,207
57,130	35,769	-0,348	-0,215
58,144	-19,329	-0,462	-0,201
59,159	-46,901	-0,429	-0,147
60,174	120,159	-0,326	-0,285
61,188	13,700	-0,411	-0,224
62,203	-74,752	-0,498	-0,125
63,217	104,078	-0,166	-0,137
64,232	19,143	-0,410	-0,231
65,247	230,720	-0,275	-0,318
66,261	-76,666	-0,374	-0,092
67,276	20,149	-0,427	-0,242
68,290	259,248	-0,325	-0,396
69,305	361,169	-0,249	-0,352
70,320	-58,525	-0,280	-0,085
71,334	38,968	-0,372	-0,234
72,349	-10,748	-0,382	-0,177
73,363	176,357	-0,306	-0,313
74,378	9,170	-0,428	-0,227
75,393	-184,558	-0,345	-0,004
76,407	293,446	-0,241	-0,311
77,422	8,034	-0,257	-0,135
78,436	-8,182	-0,323	-0,153
79,451	19,723	-0,286	-0,162
80,466	-18,316	-0,406	-0,178
81,480	430,755	-0,244	-0,373
82,495	-71,861	-0,277	-0,072
83,509	201,868	-0,172	-0,187
84,524	25,597	-0,429	-0,250
85,539	-37,666	-0,233	-0,087
86,553	-38,999	-0,287	0,106
87,568	-50,947	-0,292	-0,096
88,582	23,211	-0,314	-0,181
89,597	389,102	-0,248	-0,362
90,611	243,220	-0,215	-0,254
91,626	104,709	-0,283	-0,234
92,641	800,000	-0,075	-0,148
93,655	168,764	-0,276	-0,277
94,670	69,956	-0,273	-0,198
95,684	81,579	-0,344	-0,261
96,699	28,433	-0,245	-0,145
97,714	-4,053	-0,266	-0,129
98,728	-18,600	-0,260	-0,113
99,743	-36,195	-0,323	-0,122
100,757	94,409	-0,319	-0,255
101,772	116,040	-0,125	-0,108
102,787	52,190	-0,305	-0,204
103,801	111,969	-0,262	-0,222
104,816	136,569	-0,225	-0,206
105,830	12,177	-0,287	-0,154
106,845	-68,047	-0,179	-0,049
107,860	-14,676	-0,230	-0,103
108,874	-21,487	-0,243	-0,103
109,889	6,497	-0,409	-0,213
110,903	230,332	-0,201	-0,231
111,918	11,994	-0,402	-0,216
112,933	188,072	-0,170	-0,179
113,947	25,078	-0,266	-0,155
114,962	115,173	-0,199	-0,171
115,976	273,585	-0,156	-0,194
116,991	-48,886	-0,362	-0,121
118,006	25,930	-0,396	-0,231
119,020	20,860	-0,334	-0,189
120,035	-200,000	-0,075	-0,292
121,049	255,267	-0,153	-0,185
122,064	-136,108	-0,362	-0,029
123,079	58,328	-0,240	-0,165
124,093	-103,218	-0,326	-0,053
125,108	133,412	-0,224	-0,203
126,122	73,701	-0,232	-0,170
127,137	13,030	-0,354	-0,192
128,151	97,043	-0,190	-0,153
129,166	41,722	-0,292	-0,185
130,181	18,705	-0,126	-0,070
131,195	78,443	-0,331	-0,247
132,210	374,302	-0,229	-0,328
133,224	66,718	-0,278	-0,198
134,239	60,846	-0,319	-0,221
135,254	115,154	-0,333	-0,285
136,268	222,147	-0,162	-0,183
137,283	132,378	-0,275	-0,248
138,297	-10,449	-0,278	-0,129
139,312	249,824	-0,322	-0,383
140,327	153,037	-0,280	-0,268
141,341	-161,567	-0,304	-0,011
142,356	293,219	-0,177	-0,227
143,370	-58,191	-0,295	-0,089
144,385	-106,708	-0,218	-0,034
145,400	275,397	-0,278	-0,345
146,414	11,718	-0,310	-0,166
147,429	51,086	-0,338	-0,223
148,443	256,797	-0,149	-0,179
149,458	223,868	-0,155	-0,175
150,473	-24,781	-0,159	0,066
151,487	-120,365	-0,273	-0,032
152,502	187,910	-0,131	-0,137
153,516	-18,630	-0,240	-0,104
154,531	10,466	-0,251	-0,133
155,546	98,696	-0,131	-0,105
156,560	-32,644	-0,201	-0,078
157,575	118,081	-0,154	-0,133
158,589	54,194	-0,229	-0,153
159,604	34,464	-0,282	-0,172
160,619	-200,000	-0,298	-0,001
161,633	17,206	-0,303	-0,168
162,648	7,685	-0,242	-0,126
163,662	350,653	-0,177	-0,245
164,677	-118,965	-0,187	-0,023
165,692	50,259	-0,210	-0,138
166,706	800,000	-0,103	-0,233
167,721	193,382	-0,245	-0,259
168,735	237,211	-0,173	-0,200
169,750	56,328	-0,260	-0,176
170,764	-200,000	-0,094	-0,315
171,779	303,946	-0,127	-0,165
172,794	-49,983	-0,263	-0,087
173,808	77,698	-0,312	-0,232
174,823	11,000	-0,335	-0,178
175,837	102,461	-0,241	-0,196
176,852	40,746	-0,228	-0,143
177,867	800,000	-0,120	-0,237
178,881	166,254	-0,192	-0,190
179,896	800,000	-0,117	-0,230
180,910	161,663	-0,281	-0,274
181,925	298,394	-0,185	-0,238
182,940	157,713	-0,209	-0,202
183,954	431,173	-0,160	-0,242
184,969	122,115	-0,116	-0,101
185,983	19,527	-0,269	-0,150
186,998	150,967	-0,198	-0,188
188,013	-101,900	-0,277	-0,046
189,027	-8,111	-0,286	-0,134
190,042	655,376	-0,130	-0,233
191,056	1,318	-0,285	-0,142
192,071	294,450	-0,164	-0,210
193,086	-200,000	-0,008	-0,227
194,100	382,515	-0,207	-0,297
195,115	215,127	-0,267	-0,296
196,129	-63,747	-0,192	-0,054
197,144	91,904	-0,209	-0,164
198,159	-3,859	-0,219	-0,105
199,173	43,385	-0,298	-0,189
200,188	800,000	-0,135	-0,269
201,202	-101,074	-0,129	-0,022
202,217	-10,186	-0,192	-0,088
203,232	800,000	-0,082	-0,158
204,246	4,295	-0,179	-0,091
205,261	-5,584	-0,285	-0,135
206,275	-200,000	-0,004	-0,153
207,290	97,013	-0,123	-0,098
208,304	43,558	-0,096	-0,061
209,319	-116,962	-0,238	-0,030
210,334	-77,847	-0,195	-0,046
211,348	-164,509	-0,231	-0,007
212,363	102,049	-0,257	-0,208
213,377	138,596	-0,176	-0,161
214,392	792,846	-0,117	-0,225
215,407	496,081	-0,071	-0,114
216,421	24,654	-0,249	-0,143
217,436	52,278	-0,159	-0,105
218,450	153,644	-0,225	-0,214
219,465	29,661	-0,243	-0,143
220,480	-76,232	-0,220	-0,053
221,494	800,000	-0,113	-0,234
222,509	312,850	-0,165	-0,216
223,523	-66,548	-0,218	-0,060
224,538	-148,898	-0,255	-0,014
225,553	228,935	-0,201	-0,228
226,567	228,000	-0,163	-0,184
227,582	273,031	-0,138	-0,170
228,596	-182,270	-0,156	-0,002
229,611	327,084	-0,075	-0,100
230,626	-161,682	-0,173	0,006
231,640	153,835	-0,118	-0,113
232,655	52,195	-0,241	-0,159
233,669	-87,568	-0,100	-0,021
234,684	800,000	-0,081	-0,200
235,699	-4,919	-0,191	-0,091
236,713	2,744	-0,142	-0,071
237,728	160,521	-0,123	-0,120
238,742	37,371	-0,209	-0,129
239,757	96,564	-0,300	-0,238
240,772	-108,760	-0,193	-0,028
241,786	107,214	-0,095	-0,078
242,801	46,409	-0,102	-0,066
243,815	-45,162	-0,070	-0,024
244,830	-58,497	-0,174	-0,052
245,844	380,944	-0,072	-0,103
246,859	-184,324	-0,158	-0,002
247,874	800,000	-0,114	-0,225
248,888	800,000	-0,107	-0,300
249,903	800,000	-0,060	-0,145
250,917	185,727	-0,161	-0,166
251,932	-170,763	-0,155	0,004
252,947	800,000	-0,156	-0,358
253,961	62,160	-0,167	-0,115
254,976	247,764	-0,255	-0,300
255,990	800,000	-0,094	-0,248
257,005	70,872	-0,168	-0,120
258,020	280,413	-0,074	-0,092
259,034	800,000	-0,028	0,056
260,049	-165,866	-0,317	0,009
261,063	52,020	-0,303	-0,199
262,078	196,550	-0,155	-0,164
263,093	123,221	-0,258	-0,224
264,107	79,030	-0,214	-0,158
265,122	-118,626	-0,266	-0,032
266,136	493,803	0,013	-0,021
267,151	159,647	-0,143	-0,138
268,166	-1,310	-0,118	-0,058
269,180	-43,375	-0,190	-0,066
270,195	324,338	-0,224	-0,296
271,209	2,738	-0,246	-0,123
272,224	-81,045	-0,117	-0,027
273,239	-116,424	-0,134	-0,017
274,253	-141,457	-0,236	-0,016
275,268	65,620	-0,093	-0,065
276,282	-183,050	-0,112	-0,001
277,297	-69,280	-0,295	-0,078
278,312	-88,363	-0,192	-0,039
279,326	-200,000	-0,059	-0,247
280,341	105,290	-0,124	-0,101
281,355	210,996	-0,146	-0,158
282,370	17,935	-0,237	-0,130
283,384	167,610	-0,201	-0,198
284,399	731,219	-0,210	-0,390
285,414	123,671	-0,241	-0,209
286,428	-200,000	0,007	-0,067
287,443	385,957	-0,070	0,100
288,457	-200,000	-0,063	-0,209
289,472	62,963	-0,153	-0,106
290,487	126,147	-0,127	-0,111
291,501	43,234	-0,138	-0,087
292,516	72,167	-0,116	-0,083
293,530	63,267	-0,192	-0,133
294,545	599,310	-0,125	-0,215
295,560	354,944	-0,121	-0,166
296,574	565,913	-0,137	-0,231
297,589	101,486	-0,159	-0,128
298,603	285,684	-0,244	-0,304
299,618	-46,832	-0,187	-0,063
300,633	800,000	0,021	-0,046
301,647	800,000	-0,051	-0,114
302,662	-38,688	-0,119	-0,043
303,676	87,198	-0,097	-0,074
304,691	84,876	-0,199	-0,150
305,706	290,494	-0,135	-0,170
306,720	-152,130	-0,227	0,011
307,735	6,396	-0,141	-0,072
308,749	800,000	-0,053	-0,102
309,764	72,287	-0,174	-0,125
310,779	-79,867	-0,115	0,026
311,793	216,112	-0,213	-0,234
312,808	800,000	-0,101	-0,205
313,822	-79,279	-0,107	-0,025
314,837	800,000	-0,063	-0,133
315,852	-61,232	-0,133	-0,038
316,866	-117,302	-0,206	0,025
317,881	800,000	-0,068	-0,163
318,895	-57,625	-0,105	-0,031
319,910	800,000	-0,100	-0,255
320,925	120,971	-0,188	-0,161
321,939	-75,012	-0,178	-0,044
322,954	95,904	-0,093	0,073
323,968	-162,851	-0,134	0,004
324,983	96,130	-0,105	-0,083
325,997	-112,656	-0,148	-0,020
327,012	-51,158	-0,196	-0,063
328,027	78,935	-0,152	-0,112
329,041	163,174	-0,083	-0,080
330,056	-160,757	-0,067	-0,002
331,070	85,072	-0,064	-0,048
332,085	752,063	-0,043	-0,080
333,100	139,607	-0,122	-0,111
334,114	-133,228	-0,211	-0,018
335,129	-23,323	-0,173	-0,071
336,143	525,213	-0,071	-0,115
337,158	800,000	-0,084	-0,205
338,173	-100,796	-0,107	0,018
339,187	-87,713	-0,143	-0,029
340,202	-108,021	-0,253	-0,037
341,216	74,504	-0,150	-0,109
342,231	800,000	-0,081	-0,209
343,246	4,429	-0,236	-0,119
344,260	331,612	-0,140	-0,187
345,275	6,748	-0,161	-0,082
346,289	333,478	-0,039	-0,051
347,304	-146,410	-0,233	0,014
348,319	60,727	-0,117	-0,080
349,333	128,542	-0,149	-0,131
350,348	60,085	-0,131	-0,089
351,362	41,692	-0,121	-0,075
352,377	32,810	-0,116	0,069
353,392	-200,000	-0,007	0,029
354,406	179,865	-0,141	-0,142
355,421	209,250	1315,295	1416,512
356,435	161,037	1476,112	1417,012
