DTS Sentinel unit serial number:	SN410029Multiplexer serial number:	ORYXHardware model number:	OX2-SRSoftware version number:	ORYX F/W v4,00 Oryx Data Collector v3.7.2.0data status	okinstallation	B3 Nyhavnadifferential loss correction	single-endedforward channel	channel 1reverse channel	N/Adate	2023/12/05time	06:57:30forward acquisition time	300,00reverse acquisition time	0,00gamma	499,1914k internal	0,3200k external	0,3200temperature offset calibration	1,0000default loss term (dB/km)	0,3820temperature slope calibration	1,0000multiplexer offset coefficient	1,0000multiplexer slope coefficient	1,0000fibre end	0,00T internal ref (°C)	13,94T ext. ref 1 (°C)	-0,87T ext. ref 2 (°C)	-0,91length (m)	temperature (°C)	Stokes	anti-Stokes-744,400	56,461	-0,292	-0,206
-743,385	-200,000	0,060	0,259
-742,371	-26,599	-0,269	-0,114
-741,356	-200,000	0,053	0,301
-740,342	241,799	-0,238	-0,290
-739,327	-200,000	-0,056	0,238
-738,312	455,137	-0,224	-0,363
-737,298	-200,000	0,011	0,359
-736,283	407,648	-0,133	-0,206
-735,269	-200,000	0,047	0,246
-734,254	25,934	-0,245	-0,148
-733,239	-200,000	-0,075	0,256
-732,225	205,145	-0,206	-0,232
-731,210	-33,462	0,047	0,019
-730,196	-45,880	0,011	-0,004
-729,181	0,298	0,091	-0,047
-728,167	-30,494	-0,081	0,033
-727,152	494,296	-0,092	0,153
-726,137	11,961	0,105	0,059
-725,123	5,551	0,047	0,025
-724,108	265,766	-0,033	0,041
-723,094	781,488	0,044	-0,088
-722,079	-57,502	-0,054	-0,017
-721,064	103,410	-0,011	0,009
-720,050	-200,000	0,016	0,096
-719,035	59,129	0,052	0,037
-718,021	56,142	0,096	0,068
-717,006	391,198	0,016	0,025
-715,991	18,507	0,078	-0,045
-714,977	17,944	0,125	-0,072
-713,962	45,809	-0,079	-0,053
-712,948	202,123	-0,023	0,026
-711,933	800,000	-0,061	-0,155
-710,918	-30,083	-0,242	-0,100
-709,904	533,041	0,103	-0,178
-708,889	-105,845	-0,126	0,020
-707,875	9,533	-0,099	-0,055
-706,860	-200,000	0,023	-0,105
-705,845	434,637	-0,030	-0,047
-704,831	-200,000	-0,015	0,086
-703,816	554,160	0,044	-0,078
-702,802	800,000	-0,036	0,087
-701,787	-200,000	0,046	-0,180
-700,772	-200,000	-0,017	-0,143
-699,758	-28,869	-0,103	0,043
-698,743	-200,000	0,011	0,099
-697,729	-200,000	-0,005	0,026
-696,714	-59,026	-0,086	0,027
-695,699	-150,634	-0,038	0,002
-694,685	-200,000	0,003	0,064
-693,670	1,514	-0,038	-0,020
-692,656	-200,000	-0,019	-0,084
-691,641	5,037	-0,051	0,027
-690,627	-200,000	-0,007	0,116
-689,612	181,665	0,052	0,056
-688,597	-200,000	0,028	-0,149
-687,583	174,138	-0,131	-0,138
-686,568	-200,000	0,011	-0,070
-685,554	79,619	-0,117	-0,091
-684,539	-127,329	0,098	0,010
-683,524	800,000	-0,024	-0,058
-682,510	37,128	0,021	-0,014
-681,495	-125,166	-0,161	-0,018
-680,481	53,187	0,012	0,008
-679,466	-187,033	0,023	0,000
-678,451	-106,595	-0,027	-0,004
-677,437	-200,000	0,031	-0,181
-676,422	-77,255	0,208	0,052
-675,408	671,991	0,017	0,031
-674,393	36,499	-0,071	0,045
-673,378	44,607	-0,081	-0,054
-672,364	116,667	-0,063	-0,056
-671,349	-127,478	-0,071	0,007
-670,335	36,307	-0,048	-0,031
-669,320	715,877	-0,052	-0,100
-668,305	46,915	-0,062	0,042
-667,291	49,102	-0,091	0,062
-666,276	-36,946	-0,083	0,032
-665,262	113,590	0,016	0,014
-664,247	-0,623	-0,070	-0,036
-663,232	-76,330	-0,095	-0,024
-662,218	2,233	0,134	-0,070
-661,203	-110,724	0,097	0,014
-660,189	-84,398	0,018	0,004
-659,174	-44,687	-0,109	0,039
-658,159	267,226	0,101	-0,129
-657,145	800,000	-0,062	-0,145
-656,130	800,000	0,090	-0,201
-655,116	-51,277	-0,074	-0,025
-654,101	481,648	-0,037	0,061
-653,086	-200,000	-0,000	0,121
-652,072	800,000	0,013	0,033
-651,057	800,000	-0,105	-0,239
-650,043	-68,965	0,130	-0,036
-649,028	-80,268	-0,222	0,053
-648,014	254,406	-0,060	-0,074
-646,999	447,236	-0,020	-0,032
-645,984	-133,015	0,037	0,003
-644,970	434,984	-0,080	-0,127
-643,955	-200,000	-0,011	-0,150
-642,941	-97,938	0,045	-0,008
-641,926	73,570	-0,050	-0,038
-640,911	800,000	0,011	0,025
-639,897	370,683	-0,063	0,093
-638,882	-67,042	-0,043	0,012
-637,868	-200,000	0,010	0,047
-636,853	221,746	0,042	0,049
-635,838	800,000	0,016	-0,048
-634,824	-44,951	0,058	0,021
-633,809	-200,000	-0,014	0,068
-632,795	123,534	-0,038	0,035
-631,780	800,000	-0,055	0,129
-630,765	-49,561	0,102	-0,035
-629,751	-47,347	-0,072	-0,025
-628,736	13,521	-0,044	-0,025
-627,722	-200,000	0,013	0,131
-626,707	-7,712	0,016	-0,008
-625,692	221,426	0,102	0,119
-624,678	-2,537	0,077	0,039
-623,663	284,874	-0,042	-0,054
-622,649	-155,554	-0,102	0,005
-621,634	53,389	-0,041	-0,028
-620,619	800,000	-0,053	-0,132
-619,605	275,214	0,074	0,095
-618,590	4,803	0,171	-0,090
-617,576	45,006	0,059	0,039
-616,561	65,901	0,029	0,021
-615,546	-117,532	-0,119	0,015
-614,532	800,000	0,020	-0,042
-613,517	56,372	-0,047	-0,033
-612,503	-6,320	0,094	-0,046
-611,488	800,000	0,020	-0,050
-610,474	281,939	-0,100	0,129
-609,459	-200,000	-0,018	-0,073
-608,444	-45,111	0,038	-0,014
-607,430	-108,490	0,036	0,005
-606,415	-74,708	-0,076	-0,020
-605,401	462,021	-0,032	0,051
-604,386	30,644	-0,076	0,047
-603,371	8,036	-0,012	-0,007
-602,357	422,095	-0,058	0,090
-601,342	41,127	-0,111	-0,073
-600,328	800,000	0,034	-0,079
-599,313	800,000	-0,071	-0,142
-598,298	499,573	-0,038	-0,064
-597,284	566,753	0,036	-0,064
-596,269	11,054	0,131	-0,072
-595,255	93,765	0,087	0,072
-594,240	-61,702	-0,076	-0,023
-593,225	597,312	-0,012	-0,022
-592,211	-144,592	0,062	-0,004
-591,196	42,088	-0,101	0,066
-590,182	196,709	-0,055	0,061
-589,167	524,956	-0,035	-0,060
-588,152	-110,856	-0,098	0,014
-587,138	108,805	-0,092	0,079
-586,123	-41,517	0,093	0,034
-585,109	-13,239	-0,103	-0,048
-584,094	153,221	-0,069	-0,069
-583,079	-153,112	-0,045	0,002
-582,065	800,000	0,065	0,181
-581,050	-200,000	0,020	-0,134
-580,036	631,769	-0,069	-0,128
-579,021	203,483	0,100	-0,112
-578,006	-200,000	-0,005	-0,056
-576,992	-33,099	-0,037	-0,015
-575,977	800,000	0,024	0,056
-574,963	-91,955	-0,129	0,026
-573,948	-200,000	0,030	0,144
-572,934	57,281	-0,052	0,036
-571,919	800,000	-0,037	-0,116
-570,904	-44,915	0,097	0,035
-569,890	-8,430	-0,082	0,040
-568,875	800,000	-0,088	0,256
-567,861	-18,404	0,056	-0,025
-566,846	-200,000	-0,009	0,069
-565,831	222,253	-0,036	-0,042
-564,817	197,898	-0,047	-0,051
-563,802	166,466	-0,103	-0,106
-562,788	800,000	-0,038	0,090
-561,773	-96,863	0,192	-0,036
-560,758	249,485	-0,126	-0,154
-559,744	-129,134	-0,038	-0,004
-558,729	800,000	0,055	0,139
-557,715	-74,298	0,095	0,025
-556,700	742,048	-0,055	-0,107
-555,685	-200,000	0,019	-0,097
-554,671	93,245	-0,088	0,072
-553,656	-101,583	0,096	-0,017
-552,642	123,164	0,088	-0,080
-551,627	115,173	-0,084	-0,074
-550,612	800,000	-0,019	-0,051
-549,598	-13,775	-0,065	-0,030
-548,583	234,788	-0,028	-0,033
-547,569	-70,240	-0,028	-0,008
-546,554	-200,000	0,004	0,087
-545,539	-200,000	-0,013	-0,046
-544,525	288,797	-0,058	0,077
-543,510	285,843	-0,040	-0,052
-542,496	21,857	0,103	0,060
-541,481	-85,471	0,029	0,006
-540,466	-20,729	-0,080	-0,035
-539,452	-2,098	0,086	-0,043
-538,437	-12,551	-0,024	-0,011
-537,423	-84,526	0,173	-0,039
-536,408	-200,000	0,022	0,079
-535,393	-24,798	-0,095	0,040
-534,379	-200,000	0,009	0,030
-533,364	64,787	0,084	-0,061
-532,350	641,388	0,039	-0,071
-531,335	80,074	0,081	-0,063
-530,321	-111,548	-0,098	-0,014
-529,306	379,409	-0,029	-0,042
-528,291	-10,818	-0,010	-0,005
-527,277	-78,962	-0,125	-0,031
-526,262	-35,420	0,173	-0,068
-525,248	-106,521	0,152	0,024
-524,233	800,000	0,046	0,115
-523,218	-150,347	0,105	0,006
-522,204	450,080	-0,090	0,143
-521,189	-45,905	0,081	-0,028
-520,175	800,000	-0,060	-0,137
-519,160	87,348	0,090	-0,072
-518,145	-200,000	0,032	0,165
-517,131	274,272	0,091	0,116
-516,116	152,744	0,032	-0,031
-515,102	800,000	0,044	0,108
-514,087	-90,222	0,105	0,022
-513,072	652,951	-0,059	0,109
-512,058	-130,699	-0,120	-0,011
-511,043	-200,000	0,021	0,081
-510,029	52,014	0,096	0,066
-509,014	262,622	-0,064	0,080
-507,999	-141,878	0,032	0,002
-506,985	346,504	-0,052	0,074
-505,970	-141,809	0,044	-0,003
-504,956	-21,880	0,022	0,009
-503,941	71,615	0,041	0,031
-502,926	-149,205	0,025	-0,001
-501,912	92,800	0,052	-0,042
-500,897	800,000	-0,018	0,047
-499,883	121,548	-0,040	0,036
-498,868	249,485	-0,063	0,077
-497,853	441,431	-0,031	0,048
-496,839	-117,220	0,106	0,014
-495,824	-200,000	-0,008	0,025
-494,810	-19,085	0,038	0,017
-493,795	107,505	-0,126	0,108
-492,781	-200,000	0,008	0,060
-491,766	-120,233	0,037	-0,004
-490,751	28,766	0,077	-0,047
-489,737	23,331	-0,120	-0,071
-488,722	-83,785	0,036	-0,008
-487,708	261,134	-0,076	0,095
-486,693	800,000	-0,024	0,074
-485,678	-94,581	0,208	-0,040
-484,664	800,000	0,046	0,118
-483,649	1,426	-0,122	-0,063
-482,635	-89,420	0,111	-0,023
-481,620	248,656	0,086	0,105
-480,605	-200,000	-0,010	0,128
-479,591	-200,000	-0,031	0,163
-478,576	-81,096	0,048	0,011
-477,562	22,701	-0,116	-0,068
-476,547	213,035	-0,104	-0,119
-475,532	555,496	0,060	0,105
-474,518	-200,000	-0,040	0,203
-473,503	-85,847	0,095	0,021
-472,489	-51,624	-0,067	0,022
-471,474	-200,000	0,010	-0,093
-470,459	-200,000	-0,002	-0,034
-469,445	13,079	-0,127	-0,071
-468,430	800,000	-0,065	0,139
-467,416	-8,218	0,108	0,052
-466,401	-46,842	-0,054	0,019
-465,386	800,000	0,022	0,056
-464,372	-200,000	0,028	0,117
-463,357	-117,916	0,092	0,012
-462,343	183,875	-0,091	-0,097
-461,328	-83,621	-0,089	-0,020
-460,313	98,158	0,039	0,032
-459,299	-21,357	0,087	-0,038
-458,284	-200,000	0,003	-0,063
-457,270	350,760	-0,060	0,086
-456,255	-200,000	-0,007	0,038
-455,241	800,000	-0,048	-0,107
-454,226	79,595	0,034	0,026
-453,211	-200,000	-0,029	-0,114
-452,197	-200,000	-0,009	0,039
-451,182	380,282	0,075	0,111
-450,168	-200,000	-0,004	0,061
-449,153	-200,000	-0,036	-0,124
-448,138	-200,000	0,031	0,163
-447,124	-200,000	-0,001	0,057
-446,109	46,725	0,100	0,066
-445,095	800,000	0,049	-0,099
-444,080	-89,043	-0,065	-0,014
-443,065	-200,000	-0,014	0,085
-442,051	-200,000	0,005	-0,075
-441,036	-67,307	-0,137	-0,039
-440,022	467,027	-0,091	-0,147
-439,007	-83,941	0,081	-0,018
-437,992	281,562	-0,084	-0,108
-436,978	24,357	0,169	0,100
-435,963	-200,000	0,036	0,147
-434,949	44,379	0,054	0,036
-433,934	-63,300	0,039	-0,012
-432,919	800,000	-0,045	-0,140
-431,905	395,171	-0,073	-0,110
-430,890	-200,000	-0,003	-0,044
-429,876	800,000	-0,024	-0,050
-428,861	-200,000	0,014	0,116
-427,846	-84,943	-0,028	-0,006
-426,832	-56,110	0,115	-0,037
-425,817	800,000	-0,096	-0,212
-424,803	-184,692	-0,239	0,003
-423,788	209,466	0,025	0,028
-422,773	-35,605	0,055	-0,021
-421,759	711,723	-0,015	0,029
-420,744	-200,000	-0,016	0,248
-419,730	-178,194	0,059	0,001
-418,715	110,443	0,063	-0,055
-417,701	-66,354	-0,035	-0,010
-416,686	36,903	0,079	-0,050
-415,671	150,383	-0,104	-0,102
-414,657	116,240	-0,027	-0,023
-413,642	384,909	0,032	-0,047
-412,628	-200,000	0,012	-0,110
-411,613	-85,265	-0,120	-0,027
-410,598	-109,288	-0,084	0,013
-409,584	-200,000	0,003	0,024
-408,569	694,661	-0,043	-0,081
-407,555	800,000	0,074	0,147
-406,540	-104,370	0,147	-0,024
-405,525	-13,184	-0,153	-0,071
-404,511	589,330	0,032	-0,057
-403,496	267,865	0,069	-0,087
-402,482	328,004	0,010	0,013
-401,467	800,000	0,050	0,107
-400,452	576,370	0,082	0,144
-399,438	-200,000	-0,023	0,092
-398,423	-95,044	0,117	-0,023
-397,409	-23,223	-0,023	-0,010
-396,394	-108,455	-0,036	0,005
-395,379	350,429	-0,124	-0,177
-394,365	-51,358	0,111	-0,037
-393,350	96,061	0,116	0,095
-392,336	-101,461	-0,044	0,008
-391,321	305,287	-0,114	-0,153
-390,306	40,834	-0,136	0,088
-389,292	280,935	0,018	-0,023
-388,277	506,405	0,014	-0,024
-387,263	-15,125	-0,142	0,065
-386,248	-49,439	0,091	-0,031
-385,233	267,494	-0,069	0,087
-384,219	14,091	0,023	-0,013
-383,204	-200,000	-0,035	-0,142
-382,190	-18,568	0,049	-0,022
-381,175	126,341	0,153	0,138
-380,160	-38,260	0,127	-0,048
-379,146	-200,000	0,004	-0,038
-378,131	-200,000	0,013	-0,064
-377,117	-51,924	-0,103	0,034
-376,102	-30,045	-0,126	-0,051
-375,088	-200,000	-0,016	-0,176
-374,073	100,609	-0,051	-0,043
-373,058	-83,463	-0,130	-0,030
-372,044	256,182	0,104	-0,129
-371,029	-114,308	0,092	-0,013
-370,015	79,721	-0,027	-0,021
-369,000	-200,000	-0,003	-0,023
-367,985	-200,000	-0,002	-0,036
-366,971	133,006	0,064	-0,059
-365,956	-200,000	-0,005	-0,061
-364,942	26,310	-0,094	0,056
-363,927	-200,000	-0,021	0,086
-362,912	-141,477	-0,032	0,002
-361,898	287,300	-0,050	0,065
-360,883	218,354	0,059	-0,067
-359,869	30,977	-0,019	-0,012
-358,854	800,000	0,018	-0,046
-357,839	-56,547	0,122	0,038
-356,825	50,894	-0,072	0,049
-355,810	-200,000	0,006	0,037
-354,796	-117,131	-0,077	-0,010
-353,781	66,972	-0,029	-0,021
-352,766	122,768	0,034	-0,031
-351,752	-112,585	0,094	0,013
-350,737	325,750	0,011	0,016
-349,723	-200,000	0,031	0,125
-348,708	-200,000	0,004	-0,026
-347,693	-200,000	-0,007	-0,046
-346,679	706,022	0,078	0,149
-345,664	81,983	-0,067	-0,052
-344,650	22,599	0,007	0,004
-343,635	-200,000	0,009	0,122
-342,620	-115,767	0,138	0,018
-341,606	211,737	-0,022	-0,025
-340,591	800,000	-0,039	0,082
-339,577	-200,000	0,007	-0,151
-338,562	133,934	0,113	-0,105
-337,548	618,322	0,039	-0,071
-336,533	800,000	-0,016	0,038
-335,518	694,716	-0,014	0,026
-334,504	78,251	0,055	0,042
-333,489	319,011	0,045	0,061
-332,475	161,303	-0,092	-0,093
-331,460	58,671	0,110	0,077
-330,445	-102,034	0,072	0,012
-329,431	147,024	0,039	-0,037
-328,416	800,000	0,015	0,041
-327,402	800,000	0,056	0,124
-326,387	40,885	-0,048	-0,031
-325,372	-200,000	0,061	-0,239
-324,358	-91,932	-0,023	-0,005
-323,343	-18,712	0,042	-0,018
-322,329	-84,271	0,083	0,019
-321,314	198,347	0,018	0,019
-320,299	-35,407	-0,027	-0,010
-319,285	800,000	-0,041	0,083
-318,270	144,896	-0,069	-0,066
-317,256	800,000	-0,081	-0,182
-316,241	-200,000	0,005	-0,040
-315,226	-62,059	-0,048	0,014
-314,212	150,294	-0,055	-0,054
-313,197	-200,000	-0,020	0,128
-312,183	-97,545	0,084	-0,015
-311,168	-200,000	0,001	0,052
-310,153	-88,786	0,059	-0,012
-309,139	173,173	0,036	0,037
-308,124	160,643	-0,036	0,036
-307,110	684,927	0,039	0,072
-306,095	-200,000	-0,056	0,180
-305,080	74,606	0,188	0,141
-304,066	800,000	-0,025	-0,075
-303,051	-200,000	-0,005	-0,048
-302,037	-200,000	-0,002	0,065
-301,022	665,344	-0,027	0,050
-300,008	-200,000	-0,001	0,175
-298,993	-21,468	-0,102	0,044
-297,978	-113,950	-0,096	-0,013
-296,964	-104,937	-0,050	-0,008
-295,949	-200,000	-0,030	-0,140
-294,935	-200,000	0,005	-0,104
-293,920	-200,000	0,012	0,076
-292,905	-101,556	-0,062	0,011
-291,891	-77,900	0,119	0,029
-290,876	-112,716	-0,046	-0,006
-289,862	-38,359	-0,062	0,023
-288,847	-200,000	0,042	-0,143
-287,832	736,846	0,052	0,099
-286,818	125,795	-0,020	0,018
-285,803	167,900	-0,073	0,074
-284,789	206,395	-0,078	0,087
-283,774	182,441	0,056	0,060
-282,759	-188,825	0,075	0,001
-281,745	-29,960	0,036	-0,015
-280,730	-44,091	0,058	-0,021
-279,716	623,903	0,036	0,065
-278,701	-78,184	0,166	0,040
-277,686	800,000	0,030	0,092
-276,672	-200,000	-0,010	-0,053
-275,657	75,696	0,047	-0,036
-274,643	-200,000	0,003	0,011
-273,628	510,696	0,068	0,113
-272,613	188,073	0,052	-0,056
-271,599	191,360	0,035	0,037
-270,584	97,189	0,098	0,080
-269,570	-38,868	0,110	0,041
-268,555	-200,000	0,039	-0,133
-267,540	800,000	-0,050	-0,148
-266,526	70,126	0,014	-0,011
-265,511	-200,000	-0,019	-0,092
-264,497	189,814	-0,078	-0,084
-263,482	68,952	-0,051	0,037
-262,467	647,629	-0,038	0,069
-261,453	-77,388	-0,069	0,017
-260,438	800,000	-0,050	-0,140
-259,424	-44,463	-0,047	0,017
-258,409	94,978	-0,094	-0,076
-257,395	-2,482	0,219	-0,109
-256,380	533,093	0,037	-0,064
-255,365	-74,324	0,168	0,043
-254,351	34,913	0,048	0,030
-253,336	763,562	-0,079	-0,154
-252,322	454,812	-0,041	-0,065
-251,307	-117,605	-0,162	-0,021
-250,292	800,000	-0,046	0,113
-249,278	47,314	0,123	0,082
-248,263	239,698	0,081	0,096
-247,249	-36,304	0,135	0,052
-246,234	800,000	0,075	-0,163
-245,219	-200,000	-0,030	-0,106
-244,205	48,130	0,115	-0,076
-243,190	617,413	-0,048	0,086
-242,176	164,685	-0,020	-0,021
-241,161	-2,136	-0,041	-0,021
-240,146	-124,338	-0,040	0,004
-239,132	-45,793	-0,133	-0,047
-238,117	143,428	0,139	-0,132
-237,103	-88,880	-0,116	-0,024
-236,088	-81,200	-0,193	0,045
-235,073	-200,000	-0,019	0,084
-234,059	-151,945	0,222	-0,011
-233,044	-200,000	0,003	0,049
-232,030	182,708	-0,043	0,045
-231,015	-125,498	0,145	0,016
-230,000	89,548	-0,052	-0,042
-228,986	349,555	-0,073	-0,103
-227,971	14,062	-0,154	0,085
-226,957	-51,569	0,089	0,029
-225,942	800,000	-0,040	-0,101
-224,927	72,560	0,109	0,081
-223,913	22,031	0,028	-0,016
-222,898	-79,737	-0,107	-0,026
-221,884	25,361	-0,122	-0,072
-220,869	173,571	0,131	0,135
-219,855	-122,453	0,123	-0,014
-218,840	-200,000	0,005	-0,016
-217,825	-200,000	0,015	0,076
-216,811	-200,000	0,029	-0,142
-215,796	800,000	-0,052	-0,109
-214,782	153,111	-0,059	-0,058
-213,767	-2,204	0,084	0,042
-212,752	508,160	0,015	0,025
-211,738	555,574	0,060	0,104
-210,723	97,789	0,063	-0,052
-209,709	555,355	-0,064	-0,111
-208,694	-200,000	0,007	-0,156
-207,679	-3,911	0,097	0,048
-206,665	-14,759	0,028	-0,013
-205,650	655,261	-0,045	0,082
-204,636	800,000	0,012	0,038
-203,621	-180,967	-0,078	-0,001
-202,606	154,300	0,117	-0,114
-201,592	800,000	-0,109	-0,252
-200,577	-200,000	-0,028	0,093
-199,563	-200,000	-0,014	0,055
-198,548	711,242	-0,023	0,044
-197,533	-128,807	0,148	-0,015
-196,519	350,476	-0,023	0,032
-195,504	-200,000	0,003	0,026
-194,490	123,618	-0,097	-0,086
-193,475	181,580	-0,032	-0,033
-192,460	-120,327	-0,027	-0,003
-191,446	-200,000	0,037	-0,151
-190,431	93,592	-0,078	0,063
-189,417	-120,344	-0,153	0,018
-188,402	322,927	-0,044	0,059
-187,387	-200,000	0,003	0,114
-186,373	800,000	-0,060	-0,152
-185,358	-200,000	0,012	0,079
-184,344	600,538	-0,090	0,160
-183,329	-97,593	0,033	-0,006
-182,315	-36,791	0,089	0,034
-181,300	52,492	0,071	-0,048
-180,285	-2,088	0,052	-0,026
-179,271	14,411	0,039	-0,022
-178,256	164,163	-0,117	-0,117
-177,242	-200,000	0,006	0,074
-176,227	800,000	0,074	0,173
-175,212	-112,791	-0,019	-0,003
-174,198	-200,000	0,008	-0,116
-173,183	-200,000	-0,014	-0,221
-172,169	-41,679	-0,089	-0,032
-171,154	-56,059	-0,120	0,038
-170,139	-200,000	0,009	0,112
-169,125	103,806	-0,014	0,011
-168,110	800,000	-0,021	-0,059
-167,096	-73,049	-0,103	0,027
-166,081	-200,000	0,000	-0,036
-165,066	-45,686	0,023	0,008
-164,052	-200,000	-0,019	-0,073
-163,037	-200,000	-0,015	0,205
-162,023	85,865	0,075	-0,059
-161,008	800,000	0,041	0,089
-159,993	-99,309	0,084	-0,015
-158,979	800,000	-0,040	0,113
-157,964	-139,564	-0,126	0,009
-156,950	-59,023	-0,030	-0,009
-155,935	800,000	-0,041	-0,085
-154,920	49,909	0,069	0,046
-153,906	564,658	0,058	0,100
-152,891	-200,000	0,014	-0,101
-151,877	-45,812	-0,046	-0,016
-150,862	800,000	0,017	0,037
-149,847	256,224	-0,080	-0,098
-148,833	-200,000	-0,009	0,116
-147,818	-129,950	0,156	0,015
-146,804	-200,000	0,002	0,052
-145,789	-200,000	-0,002	-0,085
-144,775	53,187	0,212	0,144
-143,760	-99,550	-0,120	-0,021
-142,745	-84,295	-0,123	-0,027
-141,731	648,912	-0,035	-0,064
-140,716	54,664	0,023	0,016
-139,702	-200,000	0,004	0,112
-138,687	56,846	0,030	0,021
-137,672	800,000	0,032	0,064
-136,658	-100,606	0,015	0,003
-135,643	-91,402	-0,056	0,011
-134,629	-71,683	0,072	0,019
-133,614	-65,110	0,050	0,014
-132,599	-200,000	0,013	0,041
-131,585	159,880	0,049	0,049
-130,570	-56,624	0,043	0,013
-129,556	800,000	0,052	-0,135
-128,541	515,867	0,054	-0,090
-127,526	-111,971	-0,091	-0,013
-126,512	155,134	-0,070	-0,068
-125,497	101,782	-0,065	0,054
-124,483	-61,380	0,077	0,023
-123,468	-200,000	-0,001	0,020
-122,453	104,870	-0,059	-0,050
-121,439	272,715	-0,140	-0,176
-120,424	800,000	-0,036	-0,099
-119,410	530,707	-0,013	0,021
-118,395	252,792	0,079	0,096
-117,380	630,277	-0,047	0,084
-116,366	9,315	0,057	0,031
-115,351	510,326	0,065	-0,108
-114,337	-51,513	0,084	-0,028
-113,322	-101,428	-0,043	-0,007
-112,307	-22,600	0,055	0,023
-111,293	-99,795	0,042	-0,007
-110,278	-107,362	0,018	-0,003
-109,264	-200,000	-0,005	0,130
-108,249	-200,000	-0,013	-0,081
-107,234	-66,530	-0,105	0,029
-106,220	-29,492	0,086	-0,035
-105,205	-12,209	0,074	-0,034
-104,191	-200,000	0,013	0,187
-103,176	-55,419	0,099	-0,031
-102,162	38,062	-0,040	0,025
-101,147	13,028	-0,136	-0,074
-100,132	-75,395	0,124	-0,031
-99,118	256,020	-0,080	-0,097
-98,103	-200,000	-0,000	-0,081
-97,089	-140,209	0,149	0,011
-96,074	800,000	0,028	0,085
-95,059	48,174	-0,053	0,035
-94,045	-200,000	0,001	-0,092
-93,030	-200,000	0,005	-0,079
-92,016	524,014	-0,023	-0,038
-91,001	-112,979	0,145	0,020
-89,986	78,291	-0,064	0,049
-88,972	-160,807	-0,035	-0,001
-87,957	800,000	-0,021	0,046
-86,943	-85,185	-0,072	0,016
-85,928	-66,475	-0,049	0,014
-84,913	-200,000	0,022	-0,130
-83,899	-59,234	-0,134	0,041
-82,884	-78,797	0,043	-0,010
-81,870	44,713	0,177	0,115
-80,855	-24,571	-0,050	0,021
-79,840	679,944	0,031	-0,058
-78,826	128,586	-0,104	0,094
-77,811	646,900	-0,058	-0,106
-76,797	609,959	-0,075	0,133
-75,782	25,361	0,197	0,116
-74,767	-159,408	-0,022	-0,001
-73,753	53,788	0,089	-0,060
-72,738	-200,000	0,065	0,247
-71,724	-88,702	0,119	0,025
-70,709	42,952	-0,076	-0,049
-69,694	-200,000	0,008	-0,050
-68,680	-100,767	0,020	-0,003
-67,665	-80,163	-0,119	-0,028
-66,651	79,098	0,068	0,052
-65,636	100,857	-0,107	0,088
-64,622	-88,407	-0,153	0,032
-63,607	474,352	-0,036	0,057
-62,592	609,655	0,015	0,026
-61,578	800,000	0,050	0,121
-60,563	230,846	0,033	-0,038
-59,549	-74,738	-0,153	0,039
-58,534	-52,767	-1,416	-0,460
-57,519	465,226	-1,297	-2,062
-56,505	-200,000	-0,566	-4,590
-55,490	182,387	0,883	0,923
-54,476	800,000	4,988	11,420
-53,461	-200,000	18,849	309,271
-52,446	-200,000	737,777	2310,927
-51,432	572,671	1654,195	2865,865
-50,417	79,123	1670,910	1266,187
-49,403	21,918	1543,857	888,837
-48,388	15,840	1466,516	814,765
-47,373	17,731	1456,530	818,325
-46,359	16,831	1446,604	808,398
-45,344	14,084	1442,111	792,694
-44,330	13,978	1440,038	791,016
-43,315	13,994	1438,470	790,202
-42,300	14,009	1436,775	789,313
-41,286	14,014	1435,597	788,656
-40,271	14,020	1434,138	787,851
-39,257	13,983	1432,851	786,940
-38,242	14,060	1431,547	786,555
-37,227	14,080	1430,551	786,075
-36,213	14,049	1429,221	785,164
-35,198	14,032	1428,201	784,493
-34,184	14,055	1427,190	784,014
-33,169	13,989	1425,778	782,893
-32,154	14,025	1424,781	782,488
-31,140	14,055	1423,427	781,853
-30,125	14,084	1422,311	781,347
-29,111	14,070	1421,256	780,670
-28,096	14,076	1419,990	779,974
-27,082	13,940	1419,047	778,782
-26,067	13,926	1417,938	778,077
-25,052	14,011	1416,867	777,859
-24,038	13,942	1415,813	776,925
-23,023	13,963	1414,950	776,517
-22,009	13,922	1413,945	775,741
-20,994	13,906	1413,049	775,148
-19,979	13,948	1411,990	774,729
-18,965	13,846	1411,429	773,914
-17,950	13,912	1410,283	773,566
-16,936	13,899	1409,470	773,027
-15,921	13,857	1408,163	772,084
-14,906	13,874	1407,424	771,728
-13,892	13,861	1406,378	771,063
-12,877	13,867	1405,363	770,501
-11,863	13,882	1404,636	770,142
-10,848	13,880	1403,631	769,550
-9,833	13,817	1402,874	768,815
-8,819	13,791	1402,092	768,231
-7,804	13,783	1401,119	767,631
-6,790	13,790	1399,937	766,987
-5,775	13,834	1398,865	766,574
-4,760	13,791	1397,949	765,843
-3,746	13,798	1397,090	765,371
-2,731	13,743	1396,356	764,685
-1,717	13,744	1395,392	764,132
-0,702	13,762	1393,588	763,198
0,313	17,601	1311,382	735,976
1,327	33,872	706,077	433,975
2,342	52,464	123,827	83,504
3,356	0,081	16,717	8,402
4,371	8,271	3,202	1,697
5,386	-4,681	0,610	0,297
6,400	-200,000	0,048	0,167
7,415	209,596	-0,183	-0,203
8,429	84,675	-0,306	-0,237
9,444	23,176	-0,342	-0,198
10,459	2,092	-0,358	-0,182
11,473	20,317	-0,336	-0,192
12,488	-35,834	-0,376	-0,143
13,502	-77,522	-0,394	-0,096
14,517	-135,020	-0,331	-0,028
15,531	22,694	-0,299	-0,173
16,546	136,106	-0,315	-0,290
17,561	53,302	-0,427	-0,289
18,575	45,009	-0,106	-0,069
19,590	291,052	-0,188	-0,242
20,604	79,481	-0,135	-0,102
21,619	6,106	-0,339	-0,177
22,634	167,110	-0,441	-0,443
23,648	43,716	-0,446	-0,288
24,663	-2,683	-0,403	-0,198
25,677	246,402	-0,229	-0,274
26,692	17,583	-0,476	-0,266
27,707	74,244	-0,177	-0,131
28,721	237,654	-0,252	-0,296
29,736	43,356	-0,351	-0,226
30,750	167,847	-0,459	-0,461
31,765	93,705	-0,446	-0,356
32,780	60,190	-0,269	-0,188
33,794	82,888	-0,373	-0,286
34,809	-128,903	-0,414	-0,040
35,823	31,082	-0,344	-0,208
36,838	-34,214	-0,484	-0,186
37,853	99,952	-0,433	-0,354
38,867	196,798	-0,341	-0,367
39,882	82,577	-0,314	-0,241
40,896	44,632	-0,397	-0,257
41,911	274,346	-0,199	-0,248
42,926	35,994	-0,372	-0,231
43,940	43,805	-0,381	-0,245
44,955	214,780	-0,266	-0,298
45,969	104,092	-0,404	-0,334
46,984	-54,915	-0,342	-0,108
47,999	0,119	-0,258	-0,129
49,013	71,494	-0,263	-0,192
50,028	139,902	-0,290	-0,269
51,042	102,946	-0,237	-0,196
52,057	100,444	-0,342	-0,280
53,071	126,265	-0,369	-0,329
54,086	39,426	-0,329	-0,207
55,101	-18,782	-0,312	-0,136
56,115	118,145	-0,340	-0,295
57,130	82,150	-0,397	-0,303
58,144	78,113	-0,264	-0,198
59,159	122,302	-0,283	-0,249
60,174	47,385	-0,378	-0,248
61,188	84,741	-0,416	-0,320
62,203	214,034	-0,224	-0,249
63,217	13,510	-0,394	-0,214
64,232	164,524	-0,220	-0,218
65,247	253,731	-0,363	-0,437
66,261	68,122	-0,339	-0,244
67,276	28,097	-0,384	-0,228
68,290	28,393	-0,320	-0,190
69,305	-30,133	-0,406	-0,162
70,320	-133,837	-0,313	-0,027
71,334	-74,697	-0,378	-0,095
72,349	-11,358	-0,288	-0,133
73,363	78,277	-0,403	-0,302
74,378	98,003	-0,382	-0,309
75,393	612,402	-0,179	-0,315
76,407	152,033	-0,231	-0,222
77,422	-61,404	-0,498	-0,146
78,436	36,870	-0,235	-0,146
79,451	371,218	-0,241	-0,344
80,466	126,185	-0,347	-0,308
81,480	12,495	-0,353	-0,191
82,495	-90,934	-0,346	-0,069
83,509	107,919	-0,326	-0,273
84,524	-150,110	-0,232	-0,012
85,539	49,527	-0,308	-0,203
86,553	77,731	-0,179	-0,134
87,568	127,575	-0,235	-0,209
88,582	431,529	-0,197	-0,301
89,597	-20,003	-0,356	-0,153
90,611	9,412	-0,335	-0,177
91,626	45,657	-0,245	-0,159
92,641	40,862	-0,230	-0,146
93,655	49,482	-0,317	-0,209
94,670	61,743	-0,368	-0,257
95,684	381,440	-0,198	-0,287
96,699	46,286	-0,263	-0,171
97,714	439,932	-0,219	-0,337
98,728	-179,890	-0,205	0,003
99,743	-59,692	-0,270	-0,081
100,757	204,288	-0,317	-0,345
101,772	550,739	-0,249	-0,421
102,787	-66,204	-0,332	-0,092
103,801	81,557	-0,398	-0,301
104,816	-0,975	-0,263	-0,130
105,830	103,532	-0,201	-0,165
106,845	-69,309	-0,347	-0,093
107,860	24,188	-0,288	-0,166
108,874	122,986	-0,349	-0,306
109,889	210,373	-0,190	-0,209
110,903	66,822	-0,322	-0,230
111,918	32,062	-0,259	-0,156
112,933	-69,000	-0,296	-0,079
113,947	-20,482	-0,217	-0,093
114,962	102,447	-0,243	-0,199
115,976	97,676	-0,313	-0,252
116,991	66,595	-0,198	-0,141
118,006	0,456	-0,240	-0,120
119,020	123,588	-0,249	-0,219
120,035	11,010	-0,349	-0,186
121,049	52,175	-0,253	-0,168
122,064	214,900	-0,151	-0,167
123,079	106,114	-0,188	-0,156
124,093	83,135	-0,361	-0,275
125,108	-24,932	-0,213	-0,088
126,122	518,019	-0,218	-0,359
127,137	-4,400	-0,277	-0,134
128,151	-17,835	-0,218	-0,095
129,166	152,281	-0,237	-0,226
130,181	13,853	-0,267	-0,145
131,195	89,195	-0,251	-0,195
132,210	63,904	-0,337	-0,237
133,224	99,129	-0,212	-0,171
134,239	24,247	-0,192	-0,110
135,254	72,192	-0,153	-0,111
136,268	42,516	-0,280	-0,178
137,283	-116,222	-0,307	-0,039
138,297	106,693	-0,214	-0,178
139,312	93,416	-0,294	-0,232
140,327	147,714	-0,217	-0,204
141,341	295,469	-0,126	-0,162
142,356	127,292	-0,265	-0,235
143,370	159,747	-0,186	-0,181
144,385	59,545	-0,204	-0,140
145,400	86,799	-0,231	-0,178
146,414	131,010	-0,335	-0,300
147,429	73,046	-0,244	-0,178
148,443	155,162	-0,188	-0,181
149,458	184,178	-0,216	-0,224
150,473	-57,293	-0,254	-0,077
151,487	212,376	-0,170	-0,187
152,502	800,000	-0,075	-0,185
153,516	145,481	-0,299	-0,279
154,531	-76,715	-0,398	-0,097
155,546	281,553	-0,200	-0,251
156,560	-101,085	-0,210	-0,036
157,575	45,059	-0,214	-0,138
158,589	-23,337	-0,276	-0,115
159,604	50,705	-0,264	-0,174
160,619	19,544	-0,341	-0,191
161,633	800,000	-0,122	-0,313
162,648	-69,953	-0,222	-0,059
163,662	-74,199	-0,175	-0,044
164,677	169,846	-0,142	-0,142
165,692	113,666	-0,296	-0,251
166,706	282,774	-0,218	-0,274
167,721	253,052	-0,213	-0,254
168,735	193,842	-0,198	-0,210
169,750	384,315	-0,092	-0,133
170,764	-32,673	-0,266	-0,103
171,779	242,907	-0,211	-0,247
172,794	-0,589	-0,292	-0,144
173,808	202,141	-0,205	-0,220
174,823	75,760	-0,346	-0,255
175,837	200,249	-0,212	-0,227
176,852	124,743	-0,199	-0,175
177,867	33,828	-0,145	-0,088
178,881	-66,741	-0,291	-0,080
179,896	22,147	-0,206	-0,117
180,910	428,635	-0,155	-0,234
181,925	121,716	-0,290	-0,252
182,940	303,113	-0,136	-0,176
183,954	15,895	-0,201	-0,110
184,969	62,394	-0,116	-0,080
185,983	-31,247	-0,191	-0,075
186,998	-129,264	-0,201	-0,019
188,013	-20,167	-0,232	-0,099
189,027	83,581	-0,219	-0,166
190,042	-21,298	-0,298	-0,126
191,056	136,500	-0,252	-0,229
192,071	211,825	-0,268	-0,294
193,086	70,665	-0,223	-0,160
194,100	155,126	-0,169	-0,162
195,115	317,007	-0,091	-0,120
196,129	478,662	-0,191	-0,303
197,144	199,422	-0,182	-0,194
198,159	-62,154	-0,144	-0,041
199,173	-150,828	-0,231	-0,012
200,188	719,136	-0,129	-0,239
201,202	463,075	-0,133	-0,207
202,217	-115,828	-0,073	-0,009
203,232	168,687	-0,196	-0,194
204,246	69,302	-0,189	-0,135
205,261	800,000	-0,117	-0,279
206,275	374,399	-0,131	-0,186
207,290	63,425	-0,114	-0,079
208,304	96,640	-0,243	-0,193
209,319	800,000	-0,137	-0,288
210,334	142,616	-0,160	-0,148
211,348	-92,571	-0,143	-0,028
212,363	9,316	-0,206	-0,108
213,377	800,000	-0,056	-0,139
214,392	63,787	-0,079	-0,055
215,407	237,243	-0,102	-0,117
216,421	-95,163	-0,222	-0,041
217,436	210,554	-0,212	-0,231
218,450	216,203	-0,170	-0,187
219,465	145,391	-0,196	-0,182
220,480	91,594	-0,195	-0,152
221,494	555,618	-0,090	-0,152
222,509	93,984	-0,123	-0,097
223,523	78,533	-0,098	-0,073
224,538	28,982	-0,270	-0,158
225,553	203,647	-0,194	-0,209
226,567	143,431	-0,258	-0,239
227,582	345,343	-0,182	-0,248
228,596	-94,103	-0,088	-0,017
229,611	-7,679	-0,230	-0,107
230,626	108,588	-0,177	-0,147
231,640	57,524	-0,175	-0,119
232,655	-26,661	-0,256	-0,104
233,669	-119,346	-0,316	-0,038
234,684	94,826	-0,222	-0,175
235,699	247,714	-0,150	-0,176
236,713	724,068	-0,090	-0,167
237,728	146,485	-0,127	-0,118
238,742	32,714	-0,174	-0,104
239,757	189,990	-0,200	-0,208
240,772	452,079	-0,149	-0,229
241,786	-8,366	-0,133	-0,062
242,801	71,659	-0,226	-0,163
243,815	-70,783	-0,174	-0,045
244,830	800,000	-0,047	-0,102
245,844	37,482	-0,177	-0,108
246,859	-200,000	-0,059	-0,221
247,874	371,705	-0,238	-0,335
248,888	79,495	-0,193	-0,143
249,903	148,449	-0,179	-0,168
250,917	-29,348	-0,114	-0,045
251,932	-180,654	-0,204	0,003
252,947	26,268	-0,228	-0,132
253,961	621,241	-0,148	-0,260
254,976	634,460	-0,123	-0,216
255,990	103,215	-0,268	-0,218
257,005	572,980	-0,127	-0,216
258,020	82,685	-0,203	-0,152
259,034	-113,332	-0,165	-0,022
260,049	-53,203	-0,215	-0,068
261,063	793,627	-0,065	-0,125
262,078	50,582	-0,221	-0,144
263,093	49,777	-0,096	-0,063
264,107	-67,564	-0,200	-0,054
265,122	475,891	-0,054	-0,085
266,136	-109,644	-0,181	0,026
267,151	-56,799	-0,197	0,060
268,166	-160,260	-0,185	-0,007
269,180	-200,000	-0,021	-0,175
270,195	579,701	-0,127	-0,216
271,209	-162,558	-0,184	-0,006
272,224	-104,440	-0,253	0,040
273,239	-133,762	-0,260	-0,022
274,253	192,458	-0,138	-0,145
275,268	800,000	-0,099	-0,204
276,282	100,936	-0,141	-0,113
277,297	88,937	-0,212	-0,163
278,312	34,449	-0,249	-0,150
279,326	-188,285	-0,138	0,001
280,341	149,221	-0,180	-0,168
281,355	179,416	-0,094	-0,095
282,370	40,581	-0,154	-0,096
283,384	574,245	-0,185	-0,313
284,399	240,590	-0,172	-0,198
285,414	31,342	-0,196	-0,116
286,428	140,208	-0,069	-0,063
287,443	-74,258	-0,130	-0,032
288,457	-161,073	-0,177	0,006
289,472	482,871	-0,083	-0,131
290,487	-200,000	0,018	-0,268
291,501	-57,786	-0,190	-0,057
292,516	227,661	-0,168	-0,189
293,530	-57,477	-0,086	-0,026
294,545	76,552	-0,131	-0,096
295,560	589,762	-0,128	-0,218
296,574	-37,689	-0,250	-0,091
297,589	142,464	-0,080	-0,073
298,603	56,439	-0,197	-0,132
299,618	-72,970	-0,186	-0,047
300,633	-30,081	-0,091	-0,035
301,647	135,585	-0,151	-0,135
302,662	-39,702	-0,237	-0,085
303,676	-68,030	-0,083	0,022
304,691	-25,007	-0,106	-0,043
305,706	800,000	-0,052	-0,152
306,720	350,122	-0,148	-0,202
307,735	-11,467	-0,259	-0,117
308,749	101,290	-0,059	0,047
309,764	-105,099	-0,023	-0,004
310,779	-200,000	-0,057	-0,228
311,793	5,883	-0,061	0,031
312,808	164,417	-0,157	-0,153
313,822	171,575	-0,258	-0,255
314,837	249,376	-0,128	-0,150
315,852	2,672	-0,043	-0,021
316,866	-23,803	-0,177	-0,073
317,881	718,425	-0,135	-0,249
318,895	62,178	-0,195	-0,134
319,910	800,000	-0,111	-0,264
320,925	118,841	-0,187	-0,159
321,939	-75,690	-0,124	-0,030
322,954	279,546	-0,141	-0,174
323,968	18,391	-0,143	-0,079
324,983	82,457	-0,182	-0,136
325,997	142,058	-0,105	-0,096
327,012	-143,883	-0,154	-0,010
328,027	-15,413	-0,212	-0,093
329,041	800,000	-0,128	-0,243
330,056	-54,847	-0,180	-0,056
331,070	-157,076	-0,142	0,006
332,085	-200,000	-0,036	-0,140
333,100	-200,000	-0,050	-0,172
334,114	-94,945	-0,185	-0,034
335,129	57,774	-0,131	-0,088
336,143	190,521	-0,160	-0,165
337,158	87,198	-0,171	-0,130
338,173	106,623	-0,107	-0,088
339,187	-80,419	-0,182	-0,041
340,202	-62,580	-0,086	0,024
341,216	358,783	-0,086	-0,119
342,231	800,000	-0,080	-0,208
343,246	-141,280	-0,209	-0,014
344,260	-200,000	-0,004	0,032
345,275	800,000	-0,085	-0,179
346,289	172,496	-0,081	-0,080
347,304	-15,733	-0,112	-0,049
348,319	-113,889	-0,244	-0,032
349,333	-133,136	-0,151	-0,013
350,348	132,563	-0,181	-0,160
351,362	-25,562	-0,278	-0,112
352,377	-200,000	0,015	-0,225
353,392	-200,000	0,000	0,075
354,406	277,347	-0,113	-0,138
355,421	208,832	1314,365	1412,950
356,435	160,698	1475,061	1413,442
