DTS Sentinel unit serial number:	SN410029Multiplexer serial number:	ORYXHardware model number:	OX2-SRSoftware version number:	ORYX F/W v4,00 Oryx Data Collector v3.7.2.0data status	okinstallation	B3 Nyhavnadifferential loss correction	single-endedforward channel	channel 1reverse channel	N/Adate	2023/12/03time	07:12:30forward acquisition time	300,00reverse acquisition time	0,00gamma	499,1914k internal	0,3201k external	0,3201temperature offset calibration	1,0000default loss term (dB/km)	0,3820temperature slope calibration	1,0000multiplexer offset coefficient	1,0000multiplexer slope coefficient	1,0000fibre end	0,00T internal ref (°C)	13,30T ext. ref 1 (°C)	-1,71T ext. ref 2 (°C)	-1,72length (m)	temperature (°C)	Stokes	anti-Stokes-744,400	53,438	-0,279	-0,194
-743,385	-200,000	0,013	0,349
-742,371	296,325	-0,186	-0,248
-741,356	-200,000	-0,031	0,305
-740,342	73,660	-0,269	-0,205
-739,327	273,920	-0,119	0,153
-738,312	235,806	-0,212	-0,256
-737,298	-200,000	0,023	0,253
-736,283	488,402	-0,230	-0,383
-735,269	-200,000	-0,033	0,398
-734,254	-200,000	-0,075	-0,280
-733,239	86,444	-0,216	0,173
-732,225	-200,000	0,009	-0,168
-731,210	326,037	0,066	0,092
-730,196	100,152	-0,042	-0,035
-729,181	-200,000	0,002	-0,105
-728,167	-200,000	0,041	-0,151
-727,152	401,394	-0,083	0,128
-726,137	800,000	0,066	-0,154
-725,123	800,000	-0,048	-0,149
-724,108	800,000	-0,048	-0,122
-723,094	-34,416	-0,202	-0,080
-722,079	-200,000	0,014	-0,063
-721,064	46,874	-0,075	0,050
-720,050	-106,254	-0,088	-0,014
-719,035	325,389	-0,064	0,090
-718,021	120,377	-0,084	-0,076
-717,006	-174,075	-0,055	-0,001
-715,991	682,247	-0,028	-0,053
-714,977	-160,908	-0,076	0,003
-713,962	-200,000	0,005	0,039
-712,948	24,995	-0,065	-0,039
-711,933	-127,893	-0,015	0,002
-710,918	52,031	0,104	0,072
-709,904	309,894	-0,123	-0,168
-708,889	-200,000	0,000	-0,080
-707,875	167,677	-0,110	-0,113
-706,860	-188,080	-0,113	0,001
-705,845	-32,436	-0,005	-0,002
-704,831	-200,000	0,018	-0,092
-703,816	42,198	-0,077	-0,051
-702,802	-103,122	0,054	-0,009
-701,787	-200,000	-0,014	-0,157
-700,772	-200,000	-0,004	0,034
-699,758	800,000	-0,057	0,166
-698,743	221,575	0,081	0,094
-697,729	-47,371	-0,117	-0,041
-696,714	-144,654	-0,153	0,010
-695,699	445,659	-0,048	0,078
-694,685	274,748	-0,011	0,014
-693,670	-200,000	0,017	-0,099
-692,656	800,000	-0,079	-0,214
-691,641	-52,597	0,071	-0,024
-690,627	357,165	0,051	-0,074
-689,612	329,199	-0,027	0,038
-688,597	-200,000	-0,003	-0,122
-687,583	93,144	0,054	-0,044
-686,568	-200,000	-0,024	-0,121
-685,554	-200,000	0,009	0,068
-684,539	199,518	-0,053	-0,059
-683,524	140,400	-0,101	-0,097
-682,510	-200,000	0,020	0,192
-681,495	165,774	-0,043	-0,044
-680,481	800,000	-0,067	-0,145
-679,466	-200,000	0,018	0,068
-678,451	-58,086	-0,053	0,017
-677,437	-200,000	0,035	-0,148
-676,422	-200,000	0,020	-0,088
-675,408	15,675	0,039	-0,022
-674,393	800,000	0,072	0,199
-673,378	-200,000	0,004	0,066
-672,364	-168,931	-0,112	-0,003
-671,349	-200,000	0,008	-0,053
-670,335	262,577	0,046	0,058
-669,320	309,821	0,064	0,087
-668,305	-110,524	0,040	-0,006
-667,291	-65,983	-0,048	-0,014
-666,276	112,558	-0,137	-0,120
-665,262	-68,075	0,088	0,025
-664,247	-200,000	-0,003	-0,126
-663,232	800,000	-0,020	-0,043
-662,218	725,503	0,027	0,053
-661,203	-20,593	0,030	-0,013
-660,189	-10,954	-0,015	-0,007
-659,174	-200,000	-0,013	0,091
-658,159	-99,319	-0,061	-0,011
-657,145	-200,000	0,033	0,108
-656,130	-200,000	-0,009	0,054
-655,116	-112,317	-0,079	-0,011
-654,101	-200,000	0,006	-0,065
-653,086	-200,000	-0,013	0,105
-652,072	-90,106	-0,154	0,032
-651,057	13,982	-0,158	-0,089
-650,043	-200,000	-0,015	-0,149
-649,028	74,997	-0,088	-0,067
-648,014	58,876	0,061	0,043
-646,999	50,950	-0,061	0,042
-645,984	-200,000	0,004	0,232
-644,970	171,795	-0,015	-0,016
-643,955	244,074	-0,046	-0,056
-642,941	37,629	-0,049	-0,031
-641,926	92,164	0,086	-0,070
-640,911	800,000	0,027	0,070
-639,897	0,999	0,029	-0,015
-638,882	800,000	0,055	-0,124
-637,868	-200,000	-0,012	-0,059
-636,853	-57,107	-0,171	-0,054
-635,838	491,684	-0,064	-0,107
-634,824	26,373	-0,028	0,017
-633,809	-200,000	0,018	-0,095
-632,795	-138,557	0,071	0,006
-631,780	-200,000	-0,010	0,099
-630,765	800,000	-0,021	-0,050
-629,751	-34,987	-0,162	-0,064
-628,736	-84,073	-0,109	0,025
-627,722	48,007	-0,093	-0,063
-626,707	-23,294	0,079	-0,034
-625,692	-200,000	0,002	0,027
-624,678	-200,000	-0,034	0,147
-623,663	249,105	-0,110	0,135
-622,649	64,568	-0,079	0,058
-621,634	23,786	-0,130	-0,077
-620,619	132,727	0,063	-0,059
-619,605	-84,940	0,077	-0,017
-618,590	-137,965	-0,112	-0,009
-617,576	-200,000	0,006	0,025
-616,561	-12,170	0,063	-0,030
-615,546	-30,676	0,057	0,023
-614,532	-80,310	-0,077	0,019
-613,517	260,545	-0,073	-0,091
-612,503	800,000	-0,020	-0,043
-611,488	-53,645	-0,107	0,035
-610,474	-200,000	-0,007	-0,030
-609,459	-106,184	-0,106	-0,017
-608,444	-50,225	-0,172	-0,058
-607,430	-64,572	-0,012	0,004
-606,415	41,707	-0,060	-0,039
-605,401	6,312	-0,190	-0,101
-604,386	34,892	-0,068	0,043
-603,371	159,640	-0,016	-0,016
-602,357	-200,000	0,018	-0,083
-601,342	-200,000	0,002	0,011
-600,328	-149,163	0,123	-0,007
-599,313	136,009	-0,047	-0,044
-598,298	-73,672	0,148	-0,039
-597,284	769,959	0,054	0,106
-596,269	-200,000	0,012	0,099
-595,255	-200,000	-0,018	-0,157
-594,240	138,571	-0,009	-0,008
-593,225	-109,014	-0,021	0,003
-592,211	-20,112	-0,075	-0,033
-591,196	718,333	-0,028	0,054
-590,182	30,647	-0,074	-0,046
-589,167	-200,000	0,011	-0,038
-588,152	-101,037	-0,144	-0,025
-587,138	407,717	-0,014	0,022
-586,123	-157,634	-0,100	0,004
-585,109	-200,000	-0,004	-0,168
-584,094	-141,750	0,117	0,008
-583,079	-7,091	0,070	-0,034
-582,065	-168,990	-0,076	-0,002
-581,050	569,221	0,070	0,124
-580,036	-4,058	-0,092	-0,046
-579,021	13,785	-0,083	-0,047
-578,006	203,213	-0,151	-0,169
-576,992	526,708	-0,027	-0,046
-575,977	20,151	0,084	0,049
-574,963	-200,000	-0,028	0,104
-573,948	-200,000	0,004	0,020
-572,934	59,556	-0,029	-0,020
-571,919	191,274	-0,083	0,091
-570,904	-193,694	0,100	-0,001
-569,890	-200,000	0,008	0,029
-568,875	-200,000	-0,004	-0,079
-567,861	-50,418	-0,032	-0,011
-566,846	105,474	-0,054	-0,046
-565,831	-200,000	-0,017	-0,136
-564,817	-200,000	-0,019	-0,064
-563,802	-64,383	-0,063	-0,018
-562,788	-200,000	-0,002	-0,103
-561,773	-200,000	-0,015	-0,066
-560,758	800,000	-0,023	0,062
-559,744	512,084	-0,056	-0,095
-558,729	-200,000	-0,014	-0,154
-557,715	-119,595	-0,165	-0,020
-556,700	187,749	0,015	-0,016
-555,685	735,198	0,054	-0,105
-554,671	-200,000	-0,006	0,033
-553,656	-200,000	0,008	-0,102
-552,642	28,357	0,064	-0,039
-551,627	-98,796	0,155	-0,028
-550,612	-22,698	-0,164	0,071
-549,598	-95,184	0,038	-0,007
-548,583	-79,381	-0,062	0,015
-547,569	321,045	0,021	-0,029
-546,554	334,974	0,082	0,115
-545,539	260,315	0,020	-0,025
-544,525	-200,000	0,003	-0,021
-543,510	-200,000	0,009	-0,159
-542,496	20,429	-0,137	-0,080
-541,481	-2,665	-0,060	-0,030
-540,466	50,918	-0,105	0,072
-539,452	-69,935	0,101	-0,028
-538,437	-200,000	-0,010	0,039
-537,423	-89,184	0,142	0,030
-536,408	7,462	-0,044	-0,024
-535,393	-99,447	-0,067	0,012
-534,379	800,000	0,013	-0,037
-533,364	-45,063	-0,092	0,033
-532,350	-95,654	0,149	0,028
-531,335	219,125	0,067	-0,078
-530,321	-200,000	-0,025	-0,105
-529,306	74,172	-0,075	-0,057
-528,291	-200,000	0,005	-0,024
-527,277	140,586	-0,032	-0,031
-526,262	-82,693	-0,185	-0,043
-525,248	-56,081	-0,010	0,003
-524,233	-12,118	-0,053	-0,025
-523,218	351,358	0,073	-0,105
-522,204	70,666	-0,064	0,048
-521,189	86,050	-0,090	-0,072
-520,175	-200,000	-0,008	0,039
-519,160	-200,000	-0,016	0,093
-518,145	0,200	-0,076	0,039
-517,131	114,988	0,091	-0,080
-516,116	86,035	0,091	0,072
-515,102	50,240	-0,105	0,071
-514,087	-200,000	-0,010	-0,076
-513,072	-108,495	0,047	0,007
-512,058	-200,000	-0,015	-0,105
-511,043	200,908	-0,091	0,101
-510,029	-35,743	0,128	0,050
-509,014	49,965	-0,025	0,017
-507,999	800,000	0,048	0,149
-506,985	-200,000	-0,005	0,040
-505,970	-200,000	0,030	-0,097
-504,956	-31,806	0,095	-0,038
-503,941	-12,332	0,047	-0,022
-502,926	98,204	-0,069	-0,057
-501,912	-50,454	-0,099	0,034
-500,897	238,195	-0,021	-0,025
-499,883	800,000	-0,049	-0,131
-498,868	-200,000	0,014	-0,051
-497,853	0,720	-0,076	-0,039
-496,839	800,000	0,044	-0,104
-495,824	234,076	0,055	-0,065
-494,810	279,534	0,113	0,146
-493,795	-114,636	-0,057	-0,008
-492,781	-97,227	-0,171	0,032
-491,766	800,000	0,012	0,029
-490,751	143,557	0,132	-0,127
-489,737	-14,899	0,031	0,014
-488,722	566,014	-0,046	0,081
-487,708	-200,000	0,021	-0,106
-486,693	-77,713	0,061	-0,015
-485,678	-200,000	-0,018	0,062
-484,664	-200,000	0,019	-0,091
-483,649	472,905	-0,033	-0,054
-482,635	1,199	-0,077	0,040
-481,620	-54,002	0,081	-0,027
-480,605	-9,587	0,094	-0,045
-479,591	-200,000	0,002	-0,099
-478,576	81,942	-0,036	0,028
-477,562	357,976	-0,031	-0,045
-476,547	-24,503	-0,071	0,030
-475,532	-200,000	0,013	-0,067
-474,518	168,247	0,030	0,031
-473,503	266,928	0,155	0,196
-472,489	198,298	0,057	0,063
-471,474	116,505	-0,034	-0,030
-470,459	-9,979	0,115	-0,055
-469,445	568,588	0,027	0,048
-468,430	800,000	0,031	0,080
-467,416	274,024	0,037	-0,047
-466,401	-200,000	-0,002	0,046
-465,386	-39,772	0,041	-0,015
-464,372	800,000	-0,011	0,022
-463,357	414,693	-0,042	-0,065
-462,343	800,000	0,047	-0,147
-461,328	-49,275	0,126	0,043
-460,313	-200,000	0,004	0,040
-459,299	0,765	0,067	-0,034
-458,284	800,000	0,017	0,042
-457,270	299,796	0,053	0,070
-456,255	-73,049	-0,116	-0,031
-455,241	429,269	-0,009	-0,014
-454,226	456,318	0,031	-0,050
-453,211	-103,642	-0,089	-0,015
-452,197	149,985	0,100	-0,098
-451,182	-148,508	-0,057	-0,003
-450,168	-36,721	0,111	-0,043
-449,153	-78,343	0,111	-0,027
-448,138	-200,000	-0,041	-0,143
-447,124	-200,000	0,022	-0,097
-446,109	130,588	-0,078	-0,071
-445,095	-81,126	-0,088	-0,021
-444,080	133,376	0,102	0,095
-443,065	-200,000	0,022	0,126
-442,051	126,966	-0,078	-0,071
-441,036	-118,901	0,139	0,017
-440,022	-104,921	-0,041	-0,007
-439,007	-200,000	0,010	0,158
-437,992	457,466	0,031	-0,050
-436,978	-161,343	0,105	-0,004
-435,963	237,917	0,046	-0,055
-434,949	-33,036	-0,055	0,022
-433,934	-200,000	0,012	-0,052
-432,919	800,000	-0,027	-0,063
-431,905	68,429	0,149	0,109
-430,890	-200,000	-0,005	-0,071
-429,876	82,867	0,093	0,072
-428,861	800,000	0,024	0,058
-427,846	-96,560	-0,112	-0,021
-426,832	-43,194	0,011	0,004
-425,817	-200,000	0,017	-0,061
-424,803	34,163	-0,162	0,101
-423,788	-200,000	0,007	-0,054
-422,773	-200,000	0,020	0,118
-421,759	265,624	0,013	0,016
-420,744	-200,000	0,040	0,163
-419,730	290,688	-0,136	-0,178
-418,715	-74,842	0,095	-0,024
-417,701	338,795	0,022	-0,031
-416,686	800,000	0,036	-0,099
-415,671	-39,942	0,043	-0,016
-414,657	275,960	-0,043	-0,055
-413,642	800,000	0,046	0,104
-412,628	-156,217	-0,021	0,001
-411,613	800,000	-0,018	-0,042
-410,598	-200,000	0,009	-0,035
-409,584	122,376	-0,037	-0,033
-408,569	19,137	0,104	-0,060
-407,555	60,646	0,195	0,139
-406,540	-103,837	0,154	-0,026
-405,525	-200,000	-0,020	0,097
-404,511	20,122	-0,092	-0,053
-403,496	-26,943	-0,086	-0,036
-402,482	-137,654	-0,073	-0,006
-401,467	-200,000	-0,041	-0,161
-400,452	11,530	0,068	-0,037
-399,438	-25,773	0,126	-0,053
-398,423	800,000	0,045	-0,138
-397,409	177,276	0,020	-0,021
-396,394	193,706	-0,083	0,090
-395,379	-80,549	0,147	0,035
-394,365	-137,644	-0,113	-0,009
-393,350	467,441	-0,045	0,073
-392,336	-134,674	0,095	0,008
-391,321	-17,881	0,050	0,023
-390,306	800,000	0,025	-0,058
-389,292	-187,620	-0,039	0,000
-388,277	269,808	0,034	0,042
-387,263	7,035	0,143	0,076
-386,248	-200,000	-0,008	0,024
-385,233	-7,777	0,042	0,020
-384,219	800,000	0,029	-0,087
-383,204	-55,859	-0,050	-0,016
-382,190	68,230	-0,076	-0,056
-381,175	-200,000	-0,007	-0,032
-380,160	547,882	-0,052	0,089
-379,146	800,000	0,061	0,148
-378,131	-135,953	0,224	0,019
-377,117	-71,929	-0,010	0,003
-376,102	800,000	0,040	-0,081
-375,088	-73,654	-0,098	0,025
-374,073	-88,717	0,061	-0,013
-373,058	-143,993	0,135	-0,009
-372,044	117,736	-0,033	0,029
-371,029	-200,000	0,029	0,205
-370,015	-82,153	-0,124	0,029
-369,000	-59,873	-0,042	-0,013
-367,985	-200,000	0,003	0,018
-366,971	22,976	-0,109	-0,064
-365,956	-114,631	0,086	-0,012
-364,942	344,606	-0,046	0,065
-363,927	-108,006	0,082	0,013
-362,912	60,229	-0,087	0,062
-361,898	-200,000	-0,012	0,044
-360,883	-149,914	-0,084	-0,005
-359,869	294,811	0,081	-0,107
-358,854	545,115	0,040	-0,068
-357,839	151,830	0,166	0,162
-356,825	117,061	0,096	0,085
-355,810	42,721	-0,140	0,091
-354,796	-44,376	-0,117	0,042
-353,781	303,162	-0,043	-0,057
-352,766	-77,193	-0,046	-0,011
-351,752	-149,740	0,046	-0,003
-350,737	-200,000	0,016	0,073
-349,723	437,854	0,146	0,229
-348,708	590,015	0,072	0,128
-347,693	338,709	0,047	-0,065
-346,679	-38,239	0,058	0,022
-345,664	-200,000	0,003	0,030
-344,650	42,601	0,070	0,045
-343,635	95,975	-0,048	0,039
-342,620	90,225	0,078	-0,062
-341,606	-56,556	-0,054	-0,017
-340,591	358,343	-0,087	-0,124
-339,577	350,419	0,065	-0,092
-338,562	800,000	0,050	0,117
-337,548	-110,591	-0,170	0,025
-336,533	481,878	0,093	0,152
-335,518	69,741	0,033	0,024
-334,504	-200,000	-0,004	0,036
-333,489	-200,000	-0,005	0,139
-332,475	-200,000	-0,000	-0,054
-331,460	-200,000	0,009	-0,096
-330,445	-84,137	-0,133	-0,030
-329,431	800,000	-0,039	-0,088
-328,416	177,239	0,131	0,137
-327,402	128,537	-0,059	0,053
-326,387	435,003	-0,005	0,007
-325,372	-200,000	0,003	0,042
-324,358	135,489	0,042	0,039
-323,343	431,634	-0,029	0,045
-322,329	27,087	-0,081	0,049
-321,314	164,178	0,061	0,061
-320,299	-146,262	0,089	-0,005
-319,285	477,722	-0,097	0,157
-318,270	347,971	0,048	-0,067
-317,256	-200,000	0,003	0,077
-316,241	-200,000	-0,015	0,132
-315,226	148,415	0,090	0,087
-314,212	800,000	-0,026	-0,073
-313,197	-31,392	0,060	-0,024
-312,183	-200,000	0,044	0,143
-311,168	605,153	-0,042	-0,076
-310,153	-150,382	-0,017	0,001
-309,139	214,138	-0,072	0,082
-308,124	60,754	-0,116	0,082
-307,110	94,723	0,057	-0,046
-306,095	-200,000	-0,002	0,033
-305,080	-34,543	0,095	-0,037
-304,066	-79,045	-0,022	-0,005
-303,051	-200,000	-0,015	-0,059
-302,037	-20,404	-0,048	-0,021
-301,022	-200,000	-0,021	-0,072
-300,008	-200,000	0,004	-0,029
-298,993	-28,794	-0,139	0,057
-297,978	-34,895	0,176	0,068
-296,964	-120,221	-0,008	0,001
-295,949	-59,478	0,106	0,032
-294,935	-200,000	-0,028	-0,089
-293,920	274,036	0,079	-0,100
-292,905	-200,000	0,024	0,111
-291,891	291,780	0,025	-0,033
-290,876	-200,000	0,005	-0,040
-289,862	-136,685	-0,180	0,015
-288,847	-200,000	-0,002	0,018
-287,832	-200,000	0,006	-0,147
-286,818	-81,908	0,104	-0,024
-285,803	138,582	0,073	0,069
-284,789	-200,000	-0,030	0,097
-283,774	800,000	-0,041	0,099
-282,759	-103,954	0,083	0,014
-281,745	-133,415	-0,089	0,008
-280,730	95,833	-0,116	0,094
-279,716	-200,000	-0,020	0,116
-278,701	-112,972	0,084	-0,012
-277,686	138,661	0,092	0,087
-276,672	-38,888	0,100	0,037
-275,657	220,614	-0,038	0,043
-274,643	-200,000	0,009	-0,044
-273,628	22,353	-0,116	-0,068
-272,613	228,392	-0,019	-0,022
-271,599	30,915	0,067	0,041
-270,584	-200,000	-0,006	0,035
-269,570	184,369	-0,104	0,110
-268,555	-20,804	-0,074	0,032
-267,540	582,066	0,054	0,095
-266,526	749,180	-0,015	-0,029
-265,511	-200,000	0,008	0,059
-264,497	-200,000	-0,011	-0,092
-263,482	-30,798	0,101	-0,041
-262,467	-119,165	0,184	0,023
-261,453	-17,989	-0,150	0,067
-260,438	345,830	-0,045	-0,064
-259,424	97,755	-0,024	-0,019
-258,409	-200,000	-0,033	-0,126
-257,395	-200,000	0,001	-0,081
-256,380	-200,000	0,010	0,139
-255,365	-121,289	0,036	0,004
-254,351	-200,000	-0,004	-0,025
-253,336	21,469	0,066	-0,038
-252,322	151,716	-0,075	0,073
-251,307	-109,652	-0,062	0,009
-250,292	-200,000	0,006	0,059
-249,278	-161,238	-0,143	0,005
-248,263	-77,642	0,130	-0,032
-247,249	143,605	0,014	-0,013
-246,234	657,214	-0,051	-0,093
-245,219	-63,652	-0,107	-0,031
-244,205	115,168	-0,089	-0,078
-243,190	-10,177	0,072	0,034
-242,176	-124,426	0,081	0,009
-241,161	800,000	-0,009	0,020
-240,146	619,714	-0,037	0,067
-239,132	-200,000	-0,007	0,101
-238,117	432,153	-0,010	-0,016
-237,103	800,000	-0,022	-0,066
-236,088	185,850	0,062	-0,066
-235,073	74,812	0,021	0,015
-234,059	-200,000	0,004	0,030
-233,044	444,254	0,051	0,081
-232,030	-200,000	0,003	0,013
-231,015	408,619	-0,044	-0,066
-230,000	-200,000	0,006	-0,019
-228,986	-200,000	0,013	-0,040
-227,971	800,000	0,032	0,088
-226,957	-200,000	-0,002	0,010
-225,942	-112,501	0,231	-0,032
-224,927	341,777	0,027	0,037
-223,913	-81,608	-0,096	0,022
-222,898	800,000	0,060	-0,124
-221,884	52,119	-0,088	-0,060
-220,869	173,204	-0,007	-0,007
-219,855	525,463	0,028	0,048
-218,840	259,318	0,044	0,054
-217,825	-200,000	0,021	0,117
-216,811	45,660	-0,226	0,149
-215,796	201,796	0,065	0,071
-214,782	-77,984	-0,082	-0,020
-213,767	-200,000	0,017	0,099
-212,752	-29,577	0,103	0,042
-211,738	198,367	0,032	-0,035
-210,723	101,133	0,079	0,066
-209,709	14,426	-0,075	-0,042
-208,694	643,529	0,077	-0,141
-207,679	-162,799	0,014	0,000
-206,665	800,000	0,064	0,131
-205,650	249,042	0,027	-0,032
-204,636	-140,280	0,075	-0,005
-203,621	800,000	0,025	0,055
-202,606	-200,000	-0,028	0,114
-201,592	352,120	-0,051	-0,072
-200,577	387,410	-0,042	-0,062
-199,563	-30,533	0,136	0,055
-198,548	3,288	0,059	-0,031
-197,533	39,111	-0,022	-0,014
-196,519	413,749	0,071	-0,108
-195,504	-37,205	-0,112	-0,042
-194,490	161,308	-0,014	0,014
-193,475	-200,000	-0,031	0,106
-192,460	449,764	-0,019	0,031
-191,446	-59,425	0,084	0,025
-190,431	314,146	0,083	0,111
-189,417	800,000	-0,035	0,086
-188,402	75,288	-0,071	0,053
-187,387	-200,000	-0,033	-0,154
-186,373	800,000	0,030	0,070
-185,358	118,463	-0,049	0,043
-184,344	-105,377	-0,135	-0,022
-183,329	-200,000	-0,011	0,088
-182,315	154,437	0,143	0,139
-181,300	9,782	-0,069	0,037
-180,285	-200,000	-0,006	-0,110
-179,271	-3,196	0,091	0,045
-178,256	35,769	0,079	-0,049
-177,242	800,000	0,019	0,053
-176,227	-200,000	0,020	-0,116
-175,212	97,001	0,060	-0,049
-174,198	-60,401	0,063	-0,019
-173,183	-83,216	0,017	-0,004
-172,169	800,000	-0,053	0,119
-171,154	-52,858	-0,131	0,043
-170,139	-38,468	0,065	0,024
-169,125	-200,000	-0,011	0,141
-168,110	-141,209	-0,088	0,006
-167,096	290,633	0,059	-0,077
-166,081	728,771	-0,032	-0,060
-165,066	-138,794	-0,100	0,008
-164,052	-200,000	-0,001	0,004
-163,037	-200,000	-0,000	0,046
-162,023	46,470	0,053	0,035
-161,008	-140,949	0,035	0,003
-159,993	800,000	0,031	0,090
-158,979	-134,845	-0,053	0,004
-157,964	558,637	-0,077	-0,132
-156,950	-200,000	0,005	-0,135
-155,935	508,777	0,072	-0,119
-154,920	-161,823	0,096	-0,003
-153,906	800,000	0,040	0,090
-152,891	149,769	0,072	-0,069
-151,877	800,000	0,034	0,069
-150,862	350,309	-0,010	-0,013
-149,847	159,725	0,093	-0,092
-148,833	146,161	0,141	-0,134
-147,818	-200,000	0,005	-0,028
-146,804	-108,714	0,165	0,025
-145,789	-50,959	-0,064	0,021
-144,775	125,452	-0,054	-0,049
-143,760	164,260	-0,106	-0,106
-142,745	-125,823	-0,062	-0,007
-141,731	288,963	0,042	0,055
-140,716	124,943	-0,070	0,062
-139,702	-21,172	0,097	0,042
-138,687	-17,392	-0,078	0,035
-137,672	-200,000	-0,007	0,178
-136,658	-200,000	-0,016	-0,062
-135,643	294,977	-0,034	0,044
-134,629	-200,000	-0,014	-0,055
-133,614	17,351	-0,033	-0,019
-132,599	66,466	-0,018	-0,013
-131,585	-200,000	-0,003	0,033
-130,570	800,000	-0,018	0,038
-129,556	200,943	-0,084	-0,092
-128,541	189,327	-0,088	-0,094
-127,526	101,207	-0,036	-0,029
-126,512	-6,955	-0,054	0,026
-125,497	-88,088	0,149	-0,031
-124,483	53,085	-0,075	0,051
-123,468	-33,900	0,057	-0,022
-122,453	12,973	-0,005	0,003
-121,439	443,507	-0,052	-0,082
-120,424	-62,537	-0,060	0,017
-119,410	800,000	0,029	-0,058
-118,395	87,720	-0,122	0,096
-117,380	-132,702	-0,093	0,008
-116,366	-200,000	-0,020	0,106
-115,351	-128,912	0,096	-0,009
-114,337	263,029	-0,060	-0,074
-113,322	-200,000	-0,015	-0,118
-112,307	-122,041	-0,081	-0,009
-111,293	97,166	0,096	-0,078
-110,278	-200,000	0,008	-0,065
-109,264	800,000	-0,022	-0,050
-108,249	452,389	-0,071	-0,112
-107,234	-44,500	0,073	0,026
-106,220	-17,919	-0,090	-0,040
-105,205	61,550	-0,045	-0,031
-104,191	-81,847	0,052	-0,012
-103,176	-40,712	0,083	0,030
-102,162	319,198	-0,090	0,121
-101,147	-73,428	-0,073	0,019
-100,132	15,143	-0,076	-0,042
-99,118	-200,000	0,018	0,081
-98,103	-61,104	-0,094	-0,028
-97,089	-200,000	-0,009	0,038
-96,074	-200,000	-0,018	0,082
-95,059	-200,000	0,072	0,234
-94,045	-78,202	-0,061	0,015
-93,030	-200,000	-0,001	-0,022
-92,016	800,000	0,070	-0,151
-91,001	112,934	0,095	-0,082
-89,986	-107,953	0,066	0,010
-88,972	94,083	0,057	0,045
-87,957	-200,000	-0,073	0,000
-86,943	-55,565	0,045	0,014
-85,928	-200,000	0,013	0,100
-84,913	206,860	-0,149	-0,165
-83,899	800,000	0,047	-0,095
-82,884	-71,424	0,067	0,018
-81,870	529,798	0,046	0,077
-80,855	716,451	-0,015	0,028
-79,840	800,000	0,032	0,097
-78,826	244,849	-0,026	-0,031
-77,811	-200,000	0,005	0,049
-76,797	1,178	-0,050	-0,025
-75,782	148,763	-0,046	-0,044
-74,767	800,000	0,027	0,053
-73,753	141,753	0,077	0,072
-72,738	-0,191	0,028	-0,014
-71,724	-200,000	-0,012	0,108
-70,709	800,000	0,044	0,126
-69,694	-200,000	-0,018	-0,087
-68,680	-200,000	-0,004	-0,149
-67,665	84,874	0,027	0,021
-66,651	-85,005	0,086	0,019
-65,636	-200,000	-0,020	0,073
-64,622	-10,522	-0,055	0,026
-63,607	135,045	-0,038	0,035
-62,592	-200,000	0,002	0,190
-61,578	-45,863	0,025	0,009
-60,563	54,567	0,026	-0,018
-59,549	-73,488	-0,023	0,006
-58,534	-34,694	-1,640	-0,632
-57,519	397,767	-1,372	-2,039
-56,505	-200,000	-0,464	-4,540
-55,490	174,421	0,925	0,948
-54,476	800,000	4,986	11,537
-53,461	-200,000	19,376	320,111
-52,446	-200,000	741,026	2334,465
-51,432	573,146	1655,677	2868,658
-50,417	78,193	1671,197	1261,344
-49,403	21,271	1544,190	885,508
-48,388	15,154	1466,548	811,235
-47,373	17,945	1456,579	819,180
-46,359	16,715	1446,486	807,570
-45,344	13,419	1441,881	789,179
-44,330	13,364	1439,959	787,834
-43,315	13,351	1438,265	786,814
-42,300	13,358	1436,519	785,861
-41,286	13,377	1435,403	785,308
-40,271	13,381	1434,033	784,550
-39,257	13,373	1432,633	783,711
-38,242	13,459	1431,230	783,324
-37,227	13,377	1430,490	782,497
-36,213	13,388	1428,793	781,589
-35,198	13,372	1427,813	780,949
-34,184	13,450	1426,702	780,677
-33,169	13,389	1425,428	779,660
-32,154	13,457	1424,259	779,313
-31,140	13,401	1423,237	778,457
-30,125	13,425	1421,922	777,823
-29,111	13,375	1420,911	777,002
-28,096	13,363	1419,776	776,295
-27,082	13,360	1418,857	775,747
-26,067	13,330	1417,586	774,881
-25,052	13,343	1416,469	774,299
-24,038	13,313	1415,520	773,608
-23,023	13,287	1414,620	772,961
-22,009	13,336	1413,564	772,587
-20,994	13,317	1412,666	771,974
-19,979	13,278	1411,865	771,324
-18,965	13,251	1410,647	770,501
-17,950	13,226	1409,867	769,926
-16,936	13,269	1408,849	769,542
-15,921	13,216	1407,858	768,721
-14,906	13,216	1406,986	768,217
-13,892	13,232	1406,003	767,725
-12,877	13,249	1405,029	767,241
-11,863	13,212	1404,147	766,556
-10,848	13,231	1403,437	766,226
-9,833	13,245	1402,362	765,673
-8,819	13,169	1401,806	764,985
-7,804	13,161	1400,741	764,339
-6,790	13,186	1399,597	763,800
-5,775	13,186	1398,545	763,193
-4,760	13,133	1397,678	762,443
-3,746	13,125	1396,735	761,864
-2,731	13,144	1395,988	761,515
-1,717	13,110	1395,044	760,812
-0,702	13,112	1393,307	759,841
0,313	16,963	1309,978	732,232
1,327	33,152	703,652	430,726
2,342	51,039	123,274	82,552
3,356	2,840	16,612	8,501
4,371	-5,290	3,273	1,585
5,386	-85,152	0,619	0,136
6,400	-200,000	-0,021	0,297
7,415	137,532	-0,221	-0,205
8,429	-2,624	-0,110	-0,054
9,444	13,567	-0,290	-0,159
10,459	5,598	-0,219	-0,114
11,473	-73,472	-0,320	-0,082
12,488	134,228	-0,132	-0,121
13,502	56,026	-0,356	-0,244
14,517	-21,803	-0,506	-0,216
15,531	85,159	-0,319	-0,247
16,546	-23,306	-0,421	-0,178
17,561	14,875	-0,295	-0,163
18,575	-44,612	-0,114	0,040
19,590	15,419	-0,310	-0,171
20,604	-96,911	-0,198	-0,036
21,619	46,249	-0,482	-0,315
22,634	243,195	-0,336	-0,398
23,648	130,445	-0,307	-0,278
24,663	-7,991	-0,386	-0,183
25,677	73,840	-0,291	-0,215
26,692	88,690	-0,440	-0,345
27,707	148,864	-0,432	-0,413
28,721	63,556	-0,474	-0,335
29,736	69,946	-0,393	-0,286
30,750	58,813	-0,440	-0,305
31,765	137,979	-0,344	-0,318
32,780	111,264	-0,348	-0,296
33,794	108,644	-0,319	-0,269
34,809	-47,710	-0,394	-0,134
35,823	94,879	-0,383	-0,308
36,838	119,796	-0,341	-0,298
37,853	40,996	-0,328	-0,208
38,867	275,455	-0,281	-0,352
39,882	800,000	-0,120	-0,350
40,896	20,156	-0,310	-0,176
41,911	-0,480	-0,341	-0,170
42,926	59,238	-0,359	-0,249
43,940	125,417	-0,346	-0,308
44,955	105,141	-0,327	-0,272
45,969	67,759	-0,411	-0,295
46,984	460,052	-0,245	-0,385
47,999	-116,660	-0,390	-0,050
49,013	97,087	-0,206	-0,167
50,028	-54,779	-0,350	-0,111
51,042	82,780	-0,357	-0,273
52,057	91,439	-0,424	-0,335
53,071	157,857	-0,359	-0,350
54,086	90,713	-0,457	-0,360
55,101	44,688	-0,355	-0,229
56,115	51,619	-0,369	-0,246
57,130	321,602	-0,247	-0,332
58,144	-1,658	-0,381	-0,188
59,159	38,847	-0,376	-0,236
60,174	-38,965	-0,415	-0,153
61,188	142,147	-0,290	-0,271
62,203	-31,543	-0,442	-0,174
63,217	-119,319	-0,383	-0,046
64,232	123,741	-0,346	-0,305
65,247	136,247	-0,209	-0,192
66,261	139,727	-0,371	-0,344
67,276	31,725	-0,344	-0,208
68,290	157,621	-0,214	-0,209
69,305	129,042	-0,223	-0,200
70,320	50,173	-0,239	-0,158
71,334	-55,812	-0,358	-0,112
72,349	56,168	-0,447	-0,305
73,363	20,171	-0,297	-0,168
74,378	10,718	-0,368	-0,197
75,393	-90,960	-0,241	-0,048
76,407	57,984	-0,258	-0,177
77,422	127,178	-0,255	-0,228
78,436	-12,406	-0,293	-0,134
79,451	643,522	-0,163	-0,293
80,466	-84,730	-0,236	-0,052
81,480	-11,893	-0,305	-0,140
82,495	411,099	-0,161	-0,240
83,509	8,192	-0,239	-0,126
84,524	36,461	-0,216	-0,134
85,539	82,374	-0,296	-0,225
86,553	100,477	-0,333	-0,271
87,568	124,418	-0,198	-0,175
88,582	272,160	-0,200	-0,249
89,597	252,163	-0,245	-0,294
90,611	-2,596	-0,378	-0,185
91,626	-86,846	-0,154	-0,033
92,641	-54,187	-0,264	-0,084
93,655	-11,716	-0,354	-0,162
94,670	95,111	-0,393	-0,314
95,684	219,156	-0,097	-0,109
96,699	104,550	-0,265	-0,219
97,714	115,130	-0,219	-0,188
98,728	-18,634	-0,267	-0,116
99,743	-45,644	-0,207	-0,071
100,757	95,236	-0,271	-0,217
101,772	80,829	-0,338	-0,255
102,787	-26,650	-0,339	-0,138
103,801	159,147	-0,233	-0,227
104,816	150,485	-0,203	-0,193
105,830	-5,900	-0,325	-0,155
106,845	28,207	-0,266	-0,157
107,860	160,175	-0,229	-0,224
108,874	-20,589	-0,354	-0,152
109,889	211,021	-0,232	-0,256
110,903	31,640	-0,274	-0,165
111,918	137,082	-0,258	-0,236
112,933	160,539	-0,305	-0,298
113,947	-200,000	-0,069	-0,252
114,962	-156,565	-0,269	0,011
115,976	364,373	-0,197	-0,278
116,991	194,190	-0,239	-0,254
118,006	-36,190	-0,276	-0,104
119,020	27,256	-0,293	-0,172
120,035	66,846	-0,192	-0,137
121,049	-170,407	-0,173	-0,004
122,064	159,665	-0,144	-0,141
123,079	161,167	-0,154	-0,151
124,093	800,000	-0,073	-0,192
125,108	158,647	-0,248	-0,241
126,122	-39,368	-0,354	-0,129
127,137	-125,906	-0,263	0,027
128,151	-115,757	-0,242	0,031
129,166	137,531	-0,155	-0,142
130,181	86,075	-0,235	-0,181
131,195	23,234	-0,320	-0,183
132,210	206,890	-0,287	-0,313
133,224	190,267	-0,197	-0,207
134,239	71,897	-0,222	-0,161
135,254	23,062	-0,236	-0,135
136,268	-112,133	-0,211	-0,029
137,283	18,339	-0,321	-0,179
138,297	-0,329	-0,285	-0,141
139,312	7,451	-0,350	-0,183
140,327	298,857	-0,209	-0,270
141,341	72,028	-0,299	-0,217
142,356	-1,039	-0,222	-0,109
143,370	27,057	-0,243	-0,142
144,385	-67,803	-0,118	-0,032
145,400	210,843	-0,217	-0,238
146,414	-81,846	-0,274	-0,062
147,429	-59,650	-0,358	-0,107
148,443	-15,351	-0,252	-0,112
149,458	1,818	-0,253	-0,127
150,473	-134,997	-0,188	-0,016
151,487	46,980	-0,317	-0,205
152,502	84,532	-0,330	-0,252
153,516	44,398	-0,321	-0,205
154,531	70,227	-0,222	-0,160
155,546	121,115	-0,212	-0,184
156,560	18,003	-0,278	-0,154
157,575	-163,883	-0,171	-0,005
158,589	270,358	-0,153	-0,189
159,604	111,293	-0,254	-0,214
160,619	55,713	-0,243	-0,164
161,633	106,604	-0,249	-0,206
162,648	175,539	-0,211	-0,213
163,662	56,619	-0,220	-0,149
164,677	35,024	-0,188	-0,114
165,692	-70,695	-0,245	-0,064
166,706	197,168	-0,214	-0,228
167,721	51,303	-0,258	-0,171
168,735	27,784	-0,391	-0,229
169,750	-77,922	-0,306	-0,073
170,764	-27,141	-0,220	-0,089
171,779	-46,043	-0,234	-0,080
172,794	-3,207	-0,235	-0,114
173,808	733,448	-0,079	-0,149
174,823	-9,712	-0,265	-0,123
175,837	86,242	-0,229	-0,176
176,852	39,675	-0,200	-0,125
177,867	-200,000	-0,034	-0,144
178,881	-20,697	-0,174	-0,074
179,896	-123,084	-0,252	-0,028
180,910	125,510	-0,213	-0,187
181,925	28,651	-0,176	-0,103
182,940	-23,410	-0,273	-0,114
183,954	17,459	-0,319	-0,176
184,969	286,525	-0,100	-0,126
185,983	-36,869	-0,212	-0,079
186,998	-200,000	-0,217	-0,001
188,013	-90,361	-0,208	-0,042
189,027	387,821	-0,139	-0,200
190,042	88,731	-0,296	-0,229
191,056	18,130	-0,236	-0,131
192,071	157,047	-0,225	-0,216
193,086	133,597	-0,173	-0,156
194,100	62,128	-0,208	-0,144
195,115	-24,708	-0,323	-0,133
196,129	-43,085	-0,291	-0,102
197,144	242,738	-0,239	-0,279
198,159	57,591	-0,149	-0,101
199,173	-35,882	-0,161	-0,060
200,188	-99,952	-0,112	0,019
201,202	78,159	-0,166	-0,123
202,217	88,159	-0,162	-0,125
203,232	800,000	-0,129	-0,291
204,246	-200,000	-0,059	-0,193
205,261	-75,365	-0,325	-0,080
206,275	8,957	-0,304	-0,159
207,290	-27,276	-0,157	-0,063
208,304	164,539	-0,125	-0,123
209,319	597,121	-0,079	-0,137
210,334	364,343	-0,070	-0,099
211,348	27,851	-0,076	-0,044
212,363	45,267	-0,124	-0,079
213,377	-78,412	-0,247	0,058
214,392	800,000	-0,063	-0,161
215,407	-51,666	-0,193	-0,062
216,421	-48,713	-0,195	-0,065
217,436	-97,735	-0,304	-0,054
218,450	-81,473	-0,249	-0,056
219,465	245,132	-0,155	-0,182
220,480	1,221	-0,269	-0,134
221,494	119,859	-0,133	-0,114
222,509	5,414	-0,130	-0,066
223,523	-21,782	-0,134	-0,056
224,538	243,558	-0,156	-0,182
225,553	79,494	-0,153	-0,114
226,567	-30,591	-0,240	-0,094
227,582	172,594	-0,134	-0,134
228,596	12,969	-0,257	-0,137
229,611	100,003	-0,166	-0,133
230,626	117,911	-0,150	-0,128
231,640	381,069	-0,120	-0,171
232,655	800,000	-0,106	-0,254
233,669	128,383	-0,135	-0,120
234,684	265,897	-0,144	-0,175
235,699	-178,236	-0,192	0,003
236,713	6,249	-0,143	-0,073
237,728	-184,419	-0,238	0,003
238,742	146,457	-0,125	-0,116
239,757	6,037	-0,307	-0,157
240,772	2,298	-0,187	-0,093
241,786	-93,686	-0,240	0,045
242,801	-126,318	-0,172	0,018
243,815	-20,179	-0,125	0,053
244,830	-2,034	-0,158	-0,077
245,844	-9,008	-0,198	-0,091
246,859	206,765	-0,136	-0,147
247,874	194,783	-0,237	-0,249
248,888	-148,920	-0,199	-0,011
249,903	-68,019	-0,090	-0,024
250,917	-200,000	-0,055	-0,220
251,932	249,103	-0,159	-0,186
252,947	-200,000	-0,002	-0,099
253,961	-200,000	-0,080	-0,299
254,976	-56,444	-0,289	-0,088
255,990	-91,845	-0,200	-0,039
257,005	94,374	-0,147	-0,115
258,020	800,000	-0,053	-0,126
259,034	9,868	-0,185	0,097
260,049	-67,997	-0,178	-0,048
261,063	30,717	-0,182	-0,108
262,078	213,059	-0,218	-0,238
263,093	145,436	-0,234	-0,217
264,107	65,534	-0,176	-0,123
265,122	-200,000	0,019	-0,165
266,136	800,000	-0,054	-0,122
267,151	10,229	-0,176	-0,092
268,166	14,732	-0,268	-0,144
269,180	497,251	-0,134	-0,213
270,195	164,000	-0,248	-0,242
271,209	56,341	-0,133	-0,089
272,224	325,368	-0,083	-0,110
273,239	256,731	-0,226	-0,269
274,253	132,945	-0,155	-0,139
275,268	-62,939	-0,164	-0,046
276,282	18,527	-0,152	-0,084
277,297	370,590	-0,135	-0,190
278,312	13,691	-0,129	-0,069
279,326	-32,336	-0,074	-0,029
280,341	325,332	-0,122	-0,162
281,355	-19,040	-0,219	-0,094
282,370	437,943	-0,097	-0,146
283,384	-6,765	-0,250	-0,117
284,399	40,804	-0,259	-0,161
285,414	274,240	-0,173	-0,212
286,428	5,582	-0,142	0,072
287,443	102,569	-0,194	-0,156
288,457	-72,969	-0,165	-0,042
289,472	128,436	-0,215	-0,189
290,487	91,728	-0,081	-0,062
291,501	-67,861	-0,221	-0,059
292,516	800,000	-0,085	-0,187
293,530	800,000	-0,073	-0,142
294,545	44,667	-0,053	-0,034
295,560	14,213	-0,195	-0,105
296,574	103,289	-0,132	-0,106
297,589	68,483	-0,192	-0,135
298,603	800,000	-0,136	-0,276
299,618	319,411	-0,141	-0,184
300,633	800,000	-0,110	-0,260
301,647	79,685	-0,082	-0,060
302,662	-57,346	-0,133	-0,040
303,676	39,286	-0,082	-0,051
304,691	79,260	-0,208	-0,154
305,706	12,911	-0,126	-0,067
306,720	-157,608	-0,110	0,004
307,735	-122,771	-0,156	0,017
308,749	-200,000	0,022	-0,196
309,764	-200,000	0,010	-0,081
310,779	476,707	-0,070	-0,110
311,793	-81,601	-0,126	0,028
312,808	-25,287	-0,111	-0,045
313,822	208,757	-0,206	-0,222
314,837	291,797	-0,081	-0,101
315,852	439,414	-0,055	-0,083
316,866	373,952	-0,108	-0,151
317,881	99,593	-0,191	-0,152
318,895	-188,152	-0,223	-0,002
319,910	-0,116	-0,246	-0,120
320,925	-72,346	-0,217	-0,055
321,939	-8,523	-0,169	-0,078
322,954	-59,292	-0,158	-0,047
323,968	346,418	-0,106	-0,143
324,983	-11,890	-0,203	-0,091
325,997	-125,682	-0,240	-0,025
327,012	-103,626	-0,255	-0,041
328,027	70,428	-0,124	-0,088
329,041	-127,006	-0,142	0,014
330,056	63,725	-0,093	-0,064
331,070	-114,137	-0,048	0,006
332,085	-147,470	-0,145	0,008
333,100	74,999	-0,172	-0,124
334,114	329,351	-0,131	-0,173
335,129	59,395	-0,200	-0,135
336,143	-1,777	-0,231	-0,111
337,158	-200,000	-0,002	-0,094
338,173	217,290	-0,143	-0,156
339,187	646,561	-0,028	-0,049
340,202	-163,859	-0,173	0,005
341,216	42,175	-0,086	-0,054
342,231	179,321	-0,126	-0,126
343,246	240,951	-0,116	-0,133
344,260	4,923	-0,101	-0,051
345,275	-132,844	-0,186	-0,016
346,289	-100,519	-0,168	-0,028
347,304	-42,918	-0,146	-0,051
348,319	-136,696	-0,207	-0,016
349,333	-85,429	-0,082	0,017
350,348	-159,362	-0,176	-0,007
351,362	-107,620	-0,127	-0,019
352,377	-200,000	0,005	-0,204
353,392	800,000	-0,099	-0,275
354,406	-89,912	-0,032	-0,006
355,421	209,615	1313,538	1414,077
356,435	161,341	1474,098	1414,571
