DTS Sentinel unit serial number:	SN410029Multiplexer serial number:	ORYXHardware model number:	OX2-SRSoftware version number:	ORYX F/W v4,00 Oryx Data Collector v3.7.2.0data status	okinstallation	B3 Nyhavnadifferential loss correction	single-endedforward channel	channel 1reverse channel	N/Adate	2023/11/29time	04:37:30forward acquisition time	300,00reverse acquisition time	0,00gamma	499,1914k internal	0,3211k external	0,3211temperature offset calibration	1,0000default loss term (dB/km)	0,3820temperature slope calibration	1,0000multiplexer offset coefficient	1,0000multiplexer slope coefficient	1,0000fibre end	0,00T internal ref (°C)	9,28T ext. ref 1 (°C)	-6,21T ext. ref 2 (°C)	-6,32length (m)	temperature (°C)	Stokes	anti-Stokes-744,400	119,798	-0,248	-0,223
-743,385	800,000	-0,095	0,223
-742,371	800,000	-0,094	-0,212
-741,356	-200,000	0,015	0,207
-740,342	258,727	-0,144	-0,180
-739,327	580,167	-0,116	0,206
-738,312	593,733	-0,130	-0,233
-737,298	800,000	-0,114	0,314
-736,283	800,000	-0,153	-0,372
-735,269	182,390	-0,222	0,238
-734,254	230,252	-0,141	-0,167
-733,239	4,151	-0,149	0,079
-732,225	800,000	-0,123	-0,285
-731,210	208,374	0,111	0,126
-730,196	-139,691	-0,169	-0,013
-729,181	91,342	0,066	0,053
-728,167	-200,000	-0,021	-0,084
-727,152	-101,042	0,065	-0,011
-726,137	371,273	-0,102	-0,151
-725,123	341,916	-0,036	-0,051
-724,108	443,850	0,049	-0,077
-723,094	654,121	-0,081	-0,151
-722,079	-200,000	-0,047	-0,242
-721,064	133,788	-0,069	-0,065
-720,050	-53,325	-0,133	-0,044
-719,035	96,174	0,093	-0,077
-718,021	800,000	-0,085	-0,228
-717,006	-14,952	-0,150	-0,069
-715,991	45,082	-0,167	-0,112
-714,977	-73,208	0,009	0,002
-713,962	7,332	0,083	0,045
-712,948	-12,627	-0,076	-0,036
-711,933	-200,000	0,020	0,103
-710,918	454,862	-0,066	0,106
-709,904	-96,035	-0,126	-0,024
-708,889	642,908	0,051	-0,094
-707,875	-22,284	0,008	-0,003
-706,860	-200,000	-0,011	-0,132
-705,845	-96,314	0,084	0,016
-704,831	362,192	-0,034	-0,049
-703,816	564,359	-0,007	0,012
-702,802	-200,000	0,003	0,048
-701,787	-160,957	-0,125	0,005
-700,772	-200,000	-0,045	-0,199
-699,758	-38,861	0,039	-0,015
-698,743	-55,364	0,139	0,045
-697,729	-200,000	-0,010	0,095
-696,714	551,172	-0,085	0,148
-695,699	106,026	0,114	-0,098
-694,685	800,000	-0,012	0,029
-693,670	321,261	-0,096	-0,132
-692,656	1,278	0,136	-0,070
-691,641	-70,955	0,051	-0,014
-690,627	143,745	0,081	-0,078
-689,612	238,093	-0,039	-0,047
-688,597	-200,000	-0,007	-0,126
-687,583	458,453	-0,087	-0,140
-686,568	-200,000	0,003	-0,148
-685,554	-118,159	-0,152	-0,019
-684,539	-15,323	0,046	-0,021
-683,524	-200,000	0,010	0,082
-682,510	14,088	0,031	-0,017
-681,495	800,000	-0,082	0,207
-680,481	-140,247	-0,101	-0,008
-679,466	411,634	-0,077	-0,118
-678,451	-200,000	0,030	-0,129
-677,437	321,497	-0,102	-0,141
-676,422	800,000	-0,016	0,044
-675,408	0,986	0,012	0,006
-674,393	-200,000	-0,020	-0,253
-673,378	-200,000	0,012	-0,053
-672,364	800,000	-0,062	-0,134
-671,349	-154,066	-0,038	0,002
-670,335	-36,450	0,140	-0,054
-669,320	228,211	-0,098	-0,116
-668,305	394,441	0,043	-0,065
-667,291	-200,000	-0,013	0,068
-666,276	800,000	-0,009	0,023
-665,262	111,702	-0,184	-0,160
-664,247	422,535	0,049	-0,076
-663,232	800,000	-0,005	-0,012
-662,218	-200,000	0,024	0,176
-661,203	-200,000	-0,015	0,158
-660,189	250,440	0,060	0,074
-659,174	-200,000	-0,038	0,159
-658,159	611,379	-0,047	-0,085
-657,145	139,102	0,104	0,098
-656,130	70,883	-0,054	0,040
-655,116	270,846	-0,040	-0,051
-654,101	-119,304	0,071	-0,009
-653,086	17,743	0,051	0,029
-652,072	127,382	-0,189	-0,173
-651,057	-200,000	0,003	-0,102
-650,043	800,000	-0,043	-0,112
-649,028	-113,873	0,037	-0,005
-648,014	26,886	0,156	-0,094
-646,999	-200,000	-0,018	0,086
-645,984	-35,272	0,082	-0,032
-644,970	-200,000	-0,043	-0,143
-643,955	31,291	0,037	-0,023
-642,941	349,416	-0,088	-0,127
-641,926	738,187	0,022	0,042
-640,911	-200,000	-0,047	-0,240
-639,897	-200,000	0,041	0,131
-638,882	-200,000	-0,010	0,069
-637,868	-200,000	0,004	0,136
-636,853	-200,000	-0,002	0,054
-635,838	-200,000	-0,009	-0,052
-634,824	-200,000	0,016	-0,110
-633,809	136,822	-0,106	-0,100
-632,795	800,000	0,037	-0,103
-631,780	200,212	0,068	-0,076
-630,765	-140,859	-0,149	-0,011
-629,751	516,097	-0,095	-0,161
-628,736	-94,087	-0,083	0,016
-627,722	800,000	-0,044	-0,089
-626,707	800,000	0,043	-0,086
-625,692	51,687	-0,150	-0,103
-624,678	537,998	0,020	-0,034
-623,663	274,339	-0,055	-0,071
-622,649	381,930	-0,114	-0,170
-621,634	800,000	0,034	-0,074
-620,619	-200,000	0,005	-0,087
-619,605	-89,985	0,185	0,039
-618,590	-200,000	-0,014	-0,143
-617,576	-45,784	-0,050	0,018
-616,561	442,389	-0,076	-0,121
-615,546	-200,000	0,007	-0,086
-614,532	-200,000	0,017	0,057
-613,517	-18,359	-0,062	-0,028
-612,503	64,905	0,071	0,051
-611,488	12,733	0,094	-0,052
-610,474	181,366	-0,046	-0,049
-609,459	-115,979	-0,045	-0,006
-608,444	1,864	-0,146	0,076
-607,430	-200,000	-0,039	-0,127
-606,415	-62,872	0,077	0,023
-605,401	236,895	-0,066	-0,079
-604,386	-71,546	-0,106	0,028
-603,371	1,678	0,109	0,056
-602,357	800,000	-0,029	-0,080
-601,342	-62,739	0,097	-0,029
-600,328	-91,269	-0,074	-0,015
-599,313	-26,591	0,002	-0,001
-598,298	-106,472	0,096	-0,015
-597,284	68,514	0,098	0,072
-596,269	800,000	0,010	-0,026
-595,255	298,560	-0,073	0,097
-594,240	800,000	-0,010	-0,024
-593,225	800,000	-0,034	-0,081
-592,211	158,817	-0,079	-0,079
-591,196	800,000	0,066	-0,207
-590,182	-87,493	0,185	0,040
-589,167	-7,913	0,138	-0,067
-588,152	314,020	0,011	-0,015
-587,138	-200,000	-0,023	-0,138
-586,123	800,000	-0,056	-0,144
-585,109	117,323	0,066	-0,058
-584,094	800,000	0,037	-0,087
-583,079	744,689	-0,050	0,098
-582,065	76,192	0,053	-0,040
-581,050	-200,000	-0,018	0,111
-580,036	800,000	0,040	-0,126
-579,021	18,792	-0,144	-0,083
-578,006	-26,160	0,093	-0,039
-576,992	717,591	-0,042	-0,080
-575,977	-19,502	0,122	-0,054
-574,963	800,000	0,051	0,110
-573,948	-200,000	-0,003	0,087
-572,934	-200,000	-0,035	-0,207
-571,919	-104,510	-0,080	0,013
-570,904	800,000	0,008	-0,022
-569,890	-22,439	0,040	0,017
-568,875	-200,000	0,016	0,127
-567,861	357,616	-0,042	-0,061
-566,846	640,819	-0,046	0,085
-565,831	790,009	0,021	-0,041
-564,817	-129,823	0,029	0,003
-563,802	-200,000	-0,012	-0,189
-562,788	-200,000	-0,050	-0,225
-561,773	148,796	-0,088	-0,086
-560,758	-40,321	0,059	-0,022
-559,744	-162,634	0,065	-0,002
-558,729	-200,000	-0,000	0,122
-557,715	57,812	-0,032	0,023
-556,700	-200,000	-0,032	0,111
-555,685	41,752	0,113	-0,073
-554,671	119,784	-0,032	0,028
-553,656	-200,000	-0,005	0,083
-552,642	0,681	-0,062	-0,032
-551,627	-3,564	0,080	-0,040
-550,612	71,003	-0,057	0,042
-549,598	-97,587	-0,085	-0,016
-548,583	-200,000	0,011	-0,110
-547,569	-9,451	0,145	-0,069
-546,554	-180,103	0,087	0,001
-545,539	96,766	-0,029	-0,024
-544,525	301,350	-0,047	-0,062
-543,510	-200,000	-0,002	-0,063
-542,496	-25,412	-0,110	0,047
-541,481	800,000	0,045	-0,115
-540,466	-97,950	0,146	-0,027
-539,452	-63,856	0,080	-0,023
-538,437	-143,216	-0,146	0,010
-537,423	83,676	0,015	-0,012
-536,408	-200,000	0,010	-0,066
-535,393	641,193	-0,032	-0,058
-534,379	290,635	0,053	0,069
-533,364	-32,873	0,117	-0,047
-532,350	-53,095	0,197	-0,065
-531,335	-65,283	0,065	-0,019
-530,321	230,704	-0,035	-0,042
-529,306	800,000	0,054	0,138
-528,291	800,000	0,035	0,110
-527,277	-200,000	-0,012	-0,062
-526,262	-193,084	0,104	0,001
-525,248	89,804	0,038	-0,031
-524,233	-200,000	0,015	0,083
-523,218	31,034	-0,124	-0,076
-522,204	800,000	0,008	-0,024
-521,189	-59,604	-0,108	-0,033
-520,175	-200,000	0,008	-0,045
-519,160	800,000	0,013	0,029
-518,145	-200,000	0,026	-0,117
-517,131	-43,548	0,109	0,039
-516,116	-88,459	-0,028	-0,006
-515,102	139,911	-0,081	-0,077
-514,087	800,000	-0,032	0,090
-513,072	50,233	-0,078	-0,053
-512,058	-48,346	0,025	-0,009
-511,043	-51,012	-0,077	-0,026
-510,029	-200,000	0,002	-0,051
-509,014	800,000	-0,036	0,076
-507,999	507,059	0,018	0,031
-506,985	55,666	-0,110	-0,077
-505,970	-135,290	-0,109	0,009
-504,956	800,000	-0,022	0,057
-503,941	425,487	0,039	0,061
-502,926	650,648	-0,087	0,160
-501,912	800,000	0,034	0,076
-500,897	13,986	-0,041	0,023
-499,883	163,187	-0,026	-0,026
-498,868	-200,000	-0,035	-0,120
-497,853	800,000	-0,070	-0,175
-496,839	1,767	0,065	-0,034
-495,824	-200,000	0,018	0,163
-494,810	-42,848	-0,074	0,027
-493,795	-200,000	-0,029	0,132
-492,781	446,228	-0,091	0,144
-491,766	262,746	-0,066	0,083
-490,751	78,241	-0,080	0,061
-489,737	800,000	0,082	-0,174
-488,722	-200,000	0,012	-0,118
-487,708	-170,521	0,075	0,002
-486,693	800,000	0,038	-0,095
-485,678	800,000	0,032	0,071
-484,664	-26,290	-0,138	0,058
-483,649	49,012	0,059	-0,040
-482,635	377,426	-0,053	-0,078
-481,620	800,000	-0,024	0,056
-480,605	-9,263	0,023	0,011
-479,591	-200,000	0,003	0,051
-478,576	88,809	-0,075	0,060
-477,562	-4,422	-0,054	-0,027
-476,547	-200,000	-0,041	-0,149
-475,532	122,256	-0,142	0,128
-474,518	-44,967	-0,085	0,030
-473,503	-137,209	0,135	0,011
-472,489	632,574	0,069	0,125
-471,474	124,369	-0,027	0,025
-470,459	375,964	-0,050	0,074
-469,445	50,500	-0,053	-0,036
-468,430	-11,333	-0,079	0,037
-467,416	-200,000	-0,017	0,131
-466,401	-200,000	-0,018	0,082
-465,386	-189,614	0,108	0,001
-464,372	39,723	0,135	0,087
-463,357	76,501	0,111	-0,084
-462,343	800,000	-0,085	-0,214
-461,328	99,039	-0,017	-0,014
-460,313	404,585	0,058	-0,088
-459,299	800,000	0,011	0,026
-458,284	735,976	-0,049	0,095
-457,270	-200,000	-0,003	-0,071
-456,255	-53,913	-0,092	0,030
-455,241	800,000	-0,012	0,025
-454,226	800,000	0,072	-0,170
-453,211	-190,543	-0,057	-0,000
-452,197	-67,282	-0,051	0,014
-451,182	528,929	-0,038	-0,065
-450,168	-55,031	0,064	-0,021
-449,153	573,295	0,073	0,127
-448,138	622,396	-0,097	-0,175
-447,124	800,000	-0,055	-0,114
-446,109	221,355	0,070	0,081
-445,095	505,716	0,011	-0,018
-444,080	-200,000	0,020	-0,075
-443,065	-200,000	0,050	-0,199
-442,051	-113,820	0,132	-0,018
-441,036	738,206	0,065	-0,126
-440,022	778,216	-0,016	0,031
-439,007	-20,812	0,138	-0,060
-437,992	-91,404	-0,044	-0,009
-436,978	-200,000	0,010	-0,073
-435,963	-145,383	-0,102	-0,006
-434,949	-167,972	0,153	-0,004
-433,934	416,189	0,041	-0,063
-432,919	-200,000	-0,028	-0,145
-431,905	-200,000	0,001	-0,059
-430,890	-63,165	-0,057	0,017
-429,876	75,353	0,087	0,066
-428,861	30,142	0,028	-0,017
-427,846	259,136	0,054	0,067
-426,832	-82,733	0,053	0,012
-425,817	606,184	-0,059	-0,105
-424,803	227,863	-0,047	-0,055
-423,788	395,282	0,041	0,062
-422,773	-200,000	-0,005	0,131
-421,759	321,079	-0,067	0,091
-420,744	763,105	0,013	0,026
-419,730	-119,598	0,039	0,005
-418,715	800,000	0,054	-0,139
-417,701	298,254	-0,049	-0,065
-416,686	-87,729	0,138	0,029
-415,671	88,013	-0,108	-0,086
-414,657	78,399	-0,030	0,023
-413,642	-29,354	-0,097	0,039
-412,628	69,161	-0,223	-0,164
-411,613	-105,951	0,131	-0,021
-410,598	-200,000	-0,030	-0,109
-409,584	-168,509	0,120	-0,003
-408,569	418,355	-0,079	0,121
-407,555	-84,149	0,114	0,026
-406,540	-72,190	0,055	0,015
-405,525	107,854	0,017	0,015
-404,511	-200,000	-0,018	-0,098
-403,496	-200,000	0,025	-0,133
-402,482	-200,000	0,021	-0,106
-401,467	-11,874	0,093	0,044
-400,452	800,000	-0,047	0,100
-399,438	-200,000	0,039	0,173
-398,423	-74,248	-0,090	-0,023
-397,409	-110,657	-0,101	-0,015
-396,394	213,891	0,200	-0,227
-395,379	-76,897	-0,088	-0,022
-394,365	-112,670	0,031	0,004
-393,350	-176,068	0,128	-0,002
-392,336	256,377	0,073	-0,090
-391,321	13,522	0,024	-0,013
-390,306	178,593	-0,013	-0,013
-389,292	-56,706	-0,048	0,015
-388,277	-200,000	-0,000	-0,018
-387,263	-200,000	0,012	0,069
-386,248	56,259	-0,063	0,043
-385,233	-200,000	0,002	-0,029
-384,219	800,000	-0,011	0,029
-383,204	800,000	0,064	-0,187
-382,190	455,202	0,027	-0,044
-381,175	-99,492	-0,139	0,025
-380,160	800,000	0,038	0,080
-379,146	562,988	-0,030	-0,053
-378,131	800,000	-0,019	0,058
-377,117	-200,000	0,008	-0,028
-376,102	-6,630	-0,063	0,030
-375,088	-36,536	-0,093	0,036
-374,073	316,502	-0,015	-0,021
-373,058	-200,000	-0,006	0,034
-372,044	238,407	0,166	0,197
-371,029	-200,000	-0,011	0,115
-370,015	-117,921	-0,020	-0,002
-369,000	-7,023	-0,080	-0,039
-367,985	-96,073	0,045	-0,008
-366,971	84,354	0,035	-0,027
-365,956	179,097	0,063	0,065
-364,942	-8,457	0,053	0,026
-363,927	800,000	0,041	-0,116
-362,912	61,943	0,033	-0,023
-361,898	46,294	-0,184	-0,121
-360,883	486,507	-0,034	-0,056
-359,869	-40,699	0,124	-0,046
-358,854	521,007	-0,060	0,101
-357,839	-200,000	0,014	0,062
-356,825	-200,000	-0,008	-0,051
-355,810	39,982	-0,074	-0,047
-354,796	-86,715	0,144	-0,031
-353,781	-149,149	-0,084	-0,005
-352,766	129,982	-0,067	0,061
-351,752	-62,938	0,092	0,027
-350,737	800,000	-0,030	0,087
-349,723	86,345	-0,093	0,073
-348,708	800,000	0,019	-0,042
-347,693	-87,098	0,051	-0,011
-346,679	130,041	-0,059	0,054
-345,664	24,290	-0,041	0,024
-344,650	-200,000	0,003	0,119
-343,635	188,343	0,015	-0,016
-342,620	-87,354	0,056	0,012
-341,606	800,000	-0,037	0,105
-340,591	-28,150	-0,165	0,068
-339,577	30,098	-0,153	-0,093
-338,562	800,000	0,085	-0,185
-337,548	-200,000	-0,032	0,145
-336,533	387,225	-0,065	0,097
-335,518	800,000	-0,042	0,106
-334,504	-200,000	0,017	0,162
-333,489	-71,976	-0,123	0,033
-332,475	-25,159	-0,090	0,038
-331,460	800,000	-0,034	-0,083
-330,445	642,148	-0,070	0,127
-329,431	-47,708	0,106	-0,036
-328,416	103,223	0,080	-0,067
-327,402	800,000	0,030	0,075
-326,387	-113,578	-0,054	0,007
-325,372	-1,828	-0,086	-0,043
-324,358	-200,000	-0,023	-0,102
-323,343	-100,893	0,045	-0,008
-322,329	346,739	0,066	0,093
-321,314	-200,000	0,020	0,088
-320,299	-99,788	0,153	0,027
-319,285	72,181	0,073	-0,054
-318,270	84,616	0,046	-0,036
-317,256	197,732	-0,046	-0,050
-316,241	-200,000	0,000	0,146
-315,226	747,494	-0,030	0,057
-314,212	62,341	0,022	0,016
-313,197	284,354	0,096	0,123
-312,183	150,073	0,092	0,089
-311,168	423,932	-0,091	0,140
-310,153	496,102	-0,062	0,102
-309,139	60,361	-0,095	-0,067
-308,124	-153,987	0,188	-0,009
-307,110	800,000	-0,022	0,051
-306,095	20,231	-0,104	0,060
-305,080	-163,047	-0,061	0,002
-304,066	-200,000	0,026	0,148
-303,051	-104,415	0,083	-0,013
-302,037	-123,840	0,041	-0,005
-301,022	-50,144	-0,023	-0,008
-300,008	8,129	0,161	0,086
-298,993	-200,000	0,005	0,094
-297,978	221,162	0,011	-0,013
-296,964	263,352	-0,046	0,057
-295,949	677,090	-0,029	0,054
-294,935	-200,000	0,020	-0,109
-293,920	-22,698	0,115	-0,049
-292,905	-4,481	-0,044	0,021
-291,891	-137,470	-0,150	0,012
-290,876	-14,291	0,016	0,007
-289,862	-83,002	-0,099	-0,023
-288,847	-93,405	-0,146	0,029
-287,832	90,155	-0,137	-0,109
-286,818	-71,816	0,148	0,039
-285,803	491,717	-0,067	0,109
-284,789	-200,000	-0,002	0,072
-283,774	800,000	0,023	0,068
-282,759	-200,000	-0,007	-0,033
-281,745	-200,000	0,005	-0,020
-280,730	-79,685	-0,017	0,004
-279,716	22,794	-0,058	0,034
-278,701	-200,000	0,011	-0,048
-277,686	407,366	0,023	-0,034
-276,672	-200,000	-0,043	0,157
-275,657	-74,209	-0,054	0,014
-274,643	-200,000	0,002	0,032
-273,628	-38,873	0,064	0,024
-272,613	-200,000	0,026	-0,164
-271,599	-197,139	0,028	0,000
-270,584	-200,000	-0,004	0,023
-269,570	-9,344	0,199	0,094
-268,555	800,000	-0,030	0,079
-267,540	65,088	0,067	-0,048
-266,526	-28,706	-0,075	-0,031
-265,511	73,939	-0,080	0,059
-264,497	-200,000	0,014	0,053
-263,482	-51,079	0,098	0,033
-262,467	-148,604	-0,081	0,005
-261,453	-53,464	0,080	0,026
-260,438	800,000	0,030	-0,082
-259,424	-168,664	0,074	0,002
-258,409	-37,752	0,144	0,054
-257,395	800,000	-0,025	0,052
-256,380	19,209	-0,115	0,065
-255,365	-58,885	0,195	0,060
-254,351	524,590	0,011	0,019
-253,336	128,957	-0,081	0,073
-252,322	-200,000	0,001	-0,080
-251,307	133,470	0,046	-0,042
-250,292	800,000	0,035	0,074
-249,278	247,510	0,118	0,142
-248,263	-14,187	-0,074	0,034
-247,249	37,339	0,072	0,045
-246,234	257,616	-0,049	0,060
-245,219	-31,015	-0,044	0,017
-244,205	372,928	-0,048	-0,070
-243,190	-79,152	0,121	-0,029
-242,176	690,159	0,029	0,054
-241,161	67,495	-0,076	0,055
-240,146	91,531	0,121	0,097
-239,132	-122,048	-0,116	0,013
-238,117	125,975	-0,012	-0,011
-237,103	339,068	0,009	-0,013
-236,088	416,471	0,007	0,011
-235,073	41,094	0,067	0,043
-234,059	269,223	0,015	-0,019
-233,044	-30,200	-0,041	0,017
-232,030	36,157	-0,063	-0,039
-231,015	800,000	-0,069	-0,140
-230,000	332,735	0,064	0,088
-228,986	-200,000	0,027	0,151
-227,971	52,427	-0,041	0,028
-226,957	103,028	0,044	-0,037
-225,942	-58,820	-0,059	-0,018
-224,927	-129,529	-0,069	0,007
-223,913	-159,384	-0,161	-0,006
-222,898	392,533	-0,046	-0,068
-221,884	-200,000	-0,011	0,092
-220,869	331,077	0,121	0,166
-219,855	800,000	-0,065	0,175
-218,840	-200,000	0,017	0,083
-217,825	328,092	-0,054	0,074
-216,811	42,318	-0,068	0,044
-215,796	156,909	-0,058	0,057
-214,782	210,674	-0,110	0,123
-213,767	-145,784	-0,076	-0,005
-212,752	-200,000	-0,001	0,077
-211,738	800,000	-0,012	0,026
-210,723	251,349	0,021	0,026
-209,709	129,358	0,167	-0,151
-208,694	800,000	-0,004	-0,012
-207,679	-200,000	0,065	-0,250
-206,665	-93,803	0,135	0,026
-205,650	-200,000	0,072	0,231
-204,636	-92,476	-0,041	-0,008
-203,621	-19,083	-0,103	-0,045
-202,606	800,000	-0,025	-0,068
-201,592	-67,087	-0,064	0,018
-200,577	11,182	-0,112	-0,061
-199,563	-77,841	0,158	-0,038
-198,548	800,000	-0,012	0,024
-197,533	157,004	0,186	0,183
-196,519	-200,000	0,008	0,114
-195,504	-114,503	-0,098	0,013
-194,490	-54,651	-0,060	-0,019
-193,475	272,054	0,080	-0,101
-192,460	486,910	0,069	-0,113
-191,446	77,512	0,029	0,022
-190,431	-65,337	0,080	0,023
-189,417	-200,000	0,002	0,048
-188,402	-113,921	0,104	0,014
-187,387	-124,652	0,045	0,005
-186,373	70,755	0,038	-0,028
-185,358	800,000	0,031	0,077
-184,344	800,000	-0,029	0,080
-183,329	224,010	0,105	0,121
-182,315	-200,000	-0,035	0,137
-181,300	-200,000	0,019	0,146
-180,285	-200,000	0,019	-0,160
-179,271	64,270	-0,045	-0,032
-178,256	800,000	-0,063	0,144
-177,242	400,487	0,036	0,054
-176,227	-95,911	0,065	-0,012
-175,212	-109,091	-0,170	0,025
-174,198	-200,000	0,016	0,061
-173,183	621,352	-0,024	0,044
-172,169	800,000	0,029	0,086
-171,154	-70,329	-0,078	0,021
-170,139	-200,000	-0,006	0,046
-169,125	-32,511	-0,042	-0,017
-168,110	-200,000	-0,026	0,129
-167,096	-25,161	0,033	0,014
-166,081	-23,679	-0,034	0,015
-165,066	736,923	-0,030	0,057
-164,052	-81,719	-0,085	-0,020
-163,037	800,000	-0,061	0,124
-162,023	800,000	-0,017	-0,045
-161,008	800,000	0,035	-0,078
-159,993	-200,000	0,002	-0,026
-158,979	165,072	-0,027	-0,027
-157,964	-98,881	0,167	0,030
-156,950	-200,000	-0,006	-0,046
-155,935	198,110	0,098	0,106
-154,920	-116,703	0,043	0,006
-153,906	-200,000	0,002	0,013
-152,891	-180,956	-0,054	0,001
-151,877	107,457	-0,034	0,029
-150,862	-200,000	-0,006	0,050
-149,847	101,241	0,101	0,083
-148,833	86,287	-0,010	0,008
-147,818	-113,622	-0,119	-0,016
-146,804	-125,959	-0,046	0,005
-145,789	105,711	0,085	0,071
-144,775	-129,715	-0,154	0,015
-143,760	150,894	0,028	0,027
-142,745	266,890	0,032	-0,039
-141,731	290,324	0,029	-0,038
-140,716	-75,821	-0,048	0,012
-139,702	147,465	-0,104	0,099
-138,687	147,713	-0,121	-0,115
-137,672	173,652	0,030	-0,030
-136,658	-200,000	0,013	-0,084
-135,643	187,620	-0,065	0,068
-134,629	-146,448	0,147	0,009
-133,614	148,529	0,081	0,078
-132,599	-98,018	0,105	0,019
-131,585	-200,000	-0,009	0,058
-130,570	759,892	0,026	0,051
-129,556	800,000	0,033	-0,095
-128,541	-130,461	0,032	0,003
-127,526	731,745	0,038	0,073
-126,512	735,884	0,046	0,089
-125,497	-200,000	0,008	0,136
-124,483	533,910	0,050	0,084
-123,468	-77,667	-0,109	-0,027
-122,453	-98,760	0,064	0,011
-121,439	271,040	-0,041	0,051
-120,424	-14,480	-0,115	0,052
-119,410	124,395	0,042	0,037
-118,395	800,000	-0,009	-0,019
-117,380	179,818	0,056	0,058
-116,366	-160,843	-0,068	0,002
-115,351	206,113	-0,067	0,074
-114,337	130,282	-0,157	0,143
-113,322	42,676	0,080	-0,051
-112,307	422,291	-0,056	0,085
-111,293	-200,000	-0,024	0,102
-110,278	94,737	0,035	0,029
-109,264	409,797	-0,039	-0,058
-108,249	23,962	-0,052	-0,030
-107,234	132,492	0,143	0,130
-106,220	-200,000	0,002	-0,111
-105,205	-200,000	0,000	0,032
-104,191	-200,000	0,003	0,083
-103,176	641,258	0,040	-0,073
-102,162	334,586	-0,100	0,138
-101,147	213,165	-0,083	0,093
-100,132	37,795	0,016	0,010
-99,118	-200,000	0,016	0,063
-98,103	119,519	-0,024	0,021
-97,089	-200,000	0,046	0,179
-96,074	-42,077	-0,078	0,028
-95,059	256,455	-0,077	0,094
-94,045	-193,793	-0,056	0,000
-93,030	-64,869	-0,237	0,067
-92,016	204,291	-0,054	0,059
-91,001	186,019	-0,024	-0,025
-89,986	800,000	0,024	0,071
-88,972	-50,044	0,015	0,005
-87,957	-65,149	0,091	0,026
-86,943	-92,864	-0,082	-0,016
-85,928	800,000	0,036	-0,085
-84,913	-200,000	-0,027	-0,097
-83,899	800,000	-0,037	-0,079
-82,884	-200,000	0,025	0,101
-81,870	-70,210	-0,082	0,022
-80,855	66,893	0,054	-0,039
-79,840	-81,147	0,136	0,032
-78,826	800,000	-0,055	0,145
-77,811	103,426	0,100	-0,083
-76,797	800,000	-0,041	0,106
-75,782	800,000	-0,053	0,119
-74,767	117,373	-0,045	0,039
-73,753	-131,076	0,078	0,007
-72,738	-19,030	-0,118	0,052
-71,724	-200,000	-0,015	0,055
-70,709	-200,000	-0,018	0,117
-69,694	6,865	0,090	-0,047
-68,680	-93,940	0,084	0,016
-67,665	-200,000	-0,030	0,096
-66,651	-200,000	0,008	-0,070
-65,636	-200,000	0,031	0,122
-64,622	-21,463	0,096	0,041
-63,607	34,349	-0,111	-0,068
-62,592	-200,000	-0,011	0,078
-61,578	800,000	0,028	-0,057
-60,563	154,680	-0,075	-0,073
-59,549	-36,741	0,028	-0,011
-58,534	64,150	-2,066	-1,466
-57,519	571,588	-1,161	-2,004
-56,505	-200,000	-0,268	-4,408
-55,490	800,000	0,806	1,678
-54,476	800,000	5,113	11,083
-53,461	-200,000	21,804	340,825
-52,446	800,000	762,194	2321,140
-51,432	539,983	1657,594	2795,137
-50,417	70,401	1653,798	1204,935
-49,403	16,962	1527,915	851,775
-48,388	11,118	1451,967	781,271
-47,373	19,181	1443,900	815,454
-46,359	14,567	1432,769	787,281
-45,344	9,364	1428,901	760,431
-44,330	9,348	1426,842	759,229
-43,315	9,313	1425,114	758,114
-42,300	9,370	1423,201	757,334
-41,286	9,364	1422,132	756,712
-40,271	9,328	1420,942	755,876
-39,257	9,288	1419,874	755,088
-38,242	9,430	1418,583	755,045
-37,227	9,343	1417,574	754,063
-36,213	9,343	1416,180	753,293
-35,198	9,404	1414,886	752,860
-34,184	9,420	1413,897	752,383
-33,169	9,316	1412,739	751,244
-32,154	9,366	1411,799	750,952
-31,140	9,321	1410,614	750,079
-30,125	9,379	1409,512	749,738
-29,111	9,404	1408,122	749,083
-28,096	9,351	1406,958	748,187
-27,082	9,309	1405,595	747,239
-26,067	9,239	1404,841	746,481
-25,052	9,299	1403,704	746,125
-24,038	9,286	1402,944	745,631
-23,023	9,311	1401,990	745,210
-22,009	9,288	1400,809	744,447
-20,994	9,300	1399,824	743,949
-19,979	9,326	1399,058	743,636
-18,965	9,316	1397,884	742,933
-17,950	9,266	1397,198	742,308
-16,936	9,254	1396,101	741,641
-15,921	9,217	1395,277	741,003
-14,906	9,212	1394,123	740,337
-13,892	9,295	1393,093	740,145
-12,877	9,206	1392,590	739,434
-11,863	9,207	1391,825	739,003
-10,848	9,183	1390,772	738,304
-9,833	9,178	1389,836	737,756
-8,819	9,118	1389,204	737,113
-7,804	9,123	1387,998	736,469
-6,790	9,163	1387,027	736,106
-5,775	9,136	1386,014	735,416
-4,760	9,162	1384,960	734,947
-3,746	9,153	1384,161	734,454
-2,731	9,163	1383,192	733,954
-1,717	9,156	1382,218	733,378
-0,702	9,088	1380,580	732,167
0,313	13,177	1292,591	704,103
1,327	29,225	684,115	408,743
2,342	45,196	117,941	76,545
3,356	-0,482	16,455	8,212
4,371	11,406	3,541	1,907
5,386	-44,542	1,197	0,420
6,400	800,000	0,220	0,643
7,415	-37,133	-0,184	-0,069
8,429	-137,113	-0,211	-0,017
9,444	342,668	-0,255	-0,353
10,459	84,557	-0,311	-0,239
11,473	-107,053	-0,356	-0,055
12,488	-126,804	-0,222	-0,023
13,502	-72,696	-0,210	-0,054
14,517	-49,708	-0,371	-0,124
15,531	-19,456	-0,483	-0,210
16,546	-12,565	-0,426	-0,195
17,561	-5,511	-0,269	-0,130
18,575	-200,000	-0,017	-0,119
19,590	94,058	-0,204	-0,163
20,604	-132,970	-0,297	-0,026
21,619	42,566	-0,227	-0,145
22,634	73,009	-0,455	-0,334
23,648	82,171	-0,512	-0,390
24,663	84,581	-0,307	-0,236
25,677	53,822	-0,214	-0,144
26,692	337,663	-0,238	-0,326
27,707	142,370	-0,315	-0,294
28,721	-42,218	-0,296	-0,106
29,736	30,070	-0,455	-0,272
30,750	76,201	-0,405	-0,302
31,765	92,366	-0,366	-0,290
32,780	-0,894	-0,412	-0,204
33,794	88,952	-0,389	-0,304
34,809	124,277	-0,297	-0,263
35,823	78,602	-0,344	-0,258
36,838	26,029	-0,497	-0,291
37,853	211,946	-0,347	-0,384
38,867	26,355	-0,278	-0,163
39,882	-43,217	-0,371	-0,131
40,896	79,678	-0,349	-0,263
41,911	42,152	-0,297	-0,189
42,926	-2,588	-0,346	-0,170
43,940	50,017	-0,408	-0,270
44,955	-26,423	-0,549	-0,225
45,969	-24,838	-0,444	-0,184
46,984	2,391	-0,382	-0,193
47,999	199,133	-0,266	-0,287
49,013	97,374	-0,290	-0,234
50,028	143,297	-0,270	-0,252
51,042	84,240	-0,326	-0,250
52,057	59,089	-0,374	-0,258
53,071	270,846	-0,349	-0,432
54,086	34,237	-0,425	-0,260
55,101	205,638	-0,243	-0,265
56,115	51,370	-0,408	-0,271
57,130	-12,018	-0,351	-0,161
58,144	166,490	-0,337	-0,335
59,159	90,924	-0,398	-0,313
60,174	110,528	-0,298	-0,251
61,188	-22,092	-0,271	-0,115
62,203	19,029	-0,300	-0,168
63,217	11,334	-0,402	-0,215
64,232	-24,261	-0,373	-0,156
65,247	181,774	-0,268	-0,277
66,261	-8,501	-0,410	-0,193
67,276	252,556	-0,240	-0,288
68,290	-29,890	-0,269	-0,107
69,305	202,247	-0,201	-0,218
70,320	142,517	-0,258	-0,240
71,334	50,548	-0,366	-0,242
72,349	390,947	-0,151	-0,220
73,363	-38,214	-0,501	-0,185
74,378	172,738	-0,242	-0,245
75,393	76,654	-0,249	-0,185
76,407	-79,718	-0,387	-0,091
77,422	126,188	-0,189	-0,167
78,436	260,330	-0,166	-0,201
79,451	113,962	-0,349	-0,297
80,466	187,643	-0,298	-0,312
81,480	182,585	-0,259	-0,268
82,495	30,287	-0,303	-0,181
83,509	95,165	-0,221	-0,176
84,524	-43,321	-0,207	-0,073
85,539	185,561	-0,210	-0,218
86,553	-69,025	-0,377	-0,101
87,568	2,860	-0,331	-0,168
88,582	-24,748	-0,340	-0,141
89,597	48,847	-0,290	-0,190
90,611	287,698	-0,126	-0,160
91,626	136,380	-0,158	-0,144
92,641	-125,117	-0,355	-0,038
93,655	136,684	-0,167	-0,152
94,670	18,148	-0,204	-0,113
95,684	80,641	-0,259	-0,195
96,699	404,820	-0,178	-0,263
97,714	54,750	-0,208	-0,140
98,728	231,322	-0,180	-0,206
99,743	-143,124	-0,242	-0,016
100,757	193,621	-0,231	-0,245
101,772	-95,031	-0,250	-0,047
102,787	81,945	-0,301	-0,228
103,801	-60,707	-0,316	-0,093
104,816	29,161	-0,351	-0,208
105,830	-6,591	-0,247	-0,117
106,845	-76,060	-0,256	-0,063
107,860	19,212	-0,162	-0,090
108,874	-18,011	-0,277	-0,121
109,889	42,212	-0,425	-0,269
110,903	76,138	-0,264	-0,195
111,918	62,546	-0,269	-0,187
112,933	691,994	-0,167	-0,307
113,947	-5,462	-0,313	-0,150
114,962	33,031	-0,256	-0,154
115,976	-27,981	-0,289	-0,116
116,991	60,699	-0,285	-0,197
118,006	231,407	-0,257	-0,295
119,020	54,309	-0,318	-0,213
120,035	-57,731	-0,271	-0,082
121,049	-154,221	-0,268	0,012
122,064	-79,614	-0,273	-0,064
123,079	108,531	-0,353	-0,294
124,093	127,250	-0,357	-0,316
125,108	132,174	-0,337	-0,303
126,122	-12,514	-0,288	-0,131
127,137	11,222	-0,213	-0,113
128,151	-20,912	-0,305	-0,130
129,166	31,570	-0,350	-0,209
130,181	10,098	-0,217	-0,115
131,195	755,335	-0,113	-0,214
132,210	93,087	-0,208	-0,164
133,224	184,630	-0,266	-0,275
134,239	-138,048	-0,204	0,016
135,254	-15,269	-0,171	-0,076
136,268	-45,587	-0,416	-0,143
137,283	75,469	-0,284	-0,209
138,297	263,124	-0,295	-0,357
139,312	206,843	-0,248	-0,270
140,327	203,218	-0,256	-0,277
141,341	-118,659	-0,159	0,019
142,356	-47,152	-0,252	-0,085
143,370	498,741	-0,061	-0,098
144,385	-119,838	-0,373	-0,044
145,400	10,338	-0,326	-0,172
146,414	27,565	-0,321	-0,188
147,429	167,648	-0,263	-0,260
148,443	-13,382	-0,237	-0,107
149,458	800,000	-0,120	-0,330
150,473	194,871	-0,240	-0,254
151,487	-28,650	-0,302	-0,120
152,502	56,562	-0,254	-0,172
153,516	-0,847	-0,275	-0,135
154,531	-60,519	-0,260	-0,076
155,546	531,132	-0,037	-0,062
156,560	37,876	-0,239	-0,147
157,575	288,054	-0,180	-0,227
158,589	96,583	-0,193	-0,153
159,604	-75,382	-0,247	-0,061
160,619	176,701	-0,225	-0,228
161,633	404,143	-0,185	-0,272
162,648	-37,161	-0,256	-0,095
163,662	-1,216	-0,085	-0,042
164,677	800,000	-0,043	-0,126
165,692	195,556	-0,174	-0,184
166,706	-68,434	-0,244	-0,065
167,721	245,743	-0,159	-0,186
168,735	383,362	-0,192	-0,276
169,750	-19,230	-0,254	-0,109
170,764	60,193	-0,156	-0,107
171,779	-84,796	-0,324	-0,070
172,794	-72,947	-0,257	-0,065
173,808	133,882	-0,209	-0,188
174,823	158,107	-0,238	-0,229
175,837	306,242	-0,176	-0,228
176,852	14,775	-0,322	-0,174
177,867	112,216	-0,062	-0,052
178,881	117,703	-0,137	-0,117
179,896	-57,683	-0,194	-0,059
180,910	98,911	-0,174	-0,139
181,925	-83,530	-0,333	-0,073
182,940	203,786	-0,216	-0,233
183,954	277,214	-0,119	-0,148
184,969	41,095	-0,195	-0,122
185,983	-83,497	-0,265	-0,058
186,998	-9,083	-0,208	-0,096
188,013	63,964	-0,183	-0,128
189,027	-101,876	-0,253	-0,042
190,042	341,008	-0,240	-0,326
191,056	70,575	-0,312	-0,223
192,071	114,633	-0,185	-0,156
193,086	12,528	-0,325	-0,173
194,100	209,966	-0,197	-0,214
195,115	-6,112	-0,271	-0,128
196,129	762,777	-0,152	-0,287
197,144	5,180	-0,255	-0,130
198,159	130,730	-0,145	-0,129
199,173	163,748	-0,121	-0,118
200,188	0,084	-0,086	-0,043
201,202	-7,124	-0,312	-0,146
202,217	-200,000	-0,323	-0,000
203,232	85,539	-0,225	-0,171
204,246	90,958	-0,158	-0,123
205,261	229,057	-0,211	-0,238
206,275	97,210	-0,174	-0,138
207,290	-5,073	-0,149	-0,071
208,304	529,571	-0,134	-0,219
209,319	18,180	-0,220	-0,121
210,334	130,738	-0,214	-0,190
211,348	61,241	-0,232	-0,159
212,363	-47,430	-0,220	-0,074
213,377	-115,404	-0,222	0,029
214,392	298,566	-0,082	-0,105
215,407	800,000	-0,070	-0,152
216,421	135,063	-0,212	-0,190
217,436	138,323	-0,144	-0,131
218,450	201,703	-0,142	-0,151
219,465	80,029	-0,227	-0,169
220,480	231,386	-0,161	-0,183
221,494	-59,841	-0,116	-0,034
222,509	-87,104	-0,204	-0,043
223,523	130,492	-0,077	-0,068
224,538	-127,013	-0,219	0,022
225,553	-82,262	-0,202	-0,045
226,567	382,194	-0,175	-0,249
227,582	149,493	-0,193	-0,181
228,596	264,747	-0,119	-0,144
229,611	89,416	-0,121	-0,093
230,626	83,107	-0,140	-0,105
231,640	-71,561	-0,229	-0,059
232,655	125,929	-0,188	-0,164
233,669	202,023	-0,197	-0,210
234,684	28,913	-0,220	-0,129
235,699	275,859	-0,171	-0,210
236,713	50,018	-0,213	-0,139
237,728	27,733	-0,154	-0,089
238,742	-200,000	-0,004	-0,068
239,757	304,560	-0,144	-0,185
240,772	180,473	-0,205	-0,208
241,786	289,237	-0,206	-0,258
242,801	414,052	-0,158	-0,233
243,815	-107,725	-0,205	-0,031
244,830	259,179	-0,107	-0,128
245,844	-103,369	-0,249	-0,040
246,859	-8,655	-0,213	-0,098
247,874	205,795	-0,130	-0,139
248,888	529,236	-0,084	-0,138
249,903	800,000	-0,029	-0,066
250,917	-122,758	-0,131	-0,014
251,932	800,000	-0,078	-0,169
252,947	36,464	-0,201	-0,122
253,961	-15,101	-0,256	-0,113
254,976	73,643	-0,216	-0,156
255,990	-105,950	-0,234	-0,036
257,005	306,399	-0,112	-0,144
258,020	131,394	-0,134	-0,119
259,034	46,860	-0,109	-0,070
260,049	-135,736	-0,291	-0,023
261,063	-126,092	-0,162	-0,017
262,078	198,875	-0,195	-0,206
263,093	102,691	-0,167	-0,135
264,107	223,689	-0,237	-0,264
265,122	114,700	-0,170	-0,143
266,136	-75,366	-0,116	-0,028
267,151	556,476	-0,109	-0,182
268,166	-70,719	-0,303	-0,078
269,180	-152,077	-0,215	-0,011
270,195	-38,858	-0,227	-0,082
271,209	-28,129	-0,203	-0,081
272,224	107,439	-0,072	-0,059
273,239	214,715	-0,244	-0,267
274,253	-72,967	-0,139	-0,035
275,268	135,124	-0,222	-0,199
276,282	26,915	-0,273	-0,157
277,297	16,641	-0,254	-0,138
278,312	50,154	-0,171	-0,111
279,326	-200,000	-0,012	-0,104
280,341	-200,000	-0,031	-0,143
281,355	-156,582	-0,106	0,004
282,370	-55,713	-0,104	-0,032
283,384	43,620	-0,241	-0,151
284,399	3,197	-0,220	-0,110
285,414	357,437	-0,174	-0,239
286,428	235,719	-0,103	-0,117
287,443	-155,515	-0,146	-0,006
288,457	-156,615	-0,129	-0,005
289,472	422,461	-0,174	-0,257
290,487	221,672	-0,189	-0,209
291,501	800,000	-0,070	-0,171
292,516	-53,223	-0,183	-0,057
293,530	-85,953	-0,157	-0,033
294,545	271,631	-0,099	-0,120
295,560	10,250	-0,105	-0,055
296,574	-48,298	-0,120	-0,039
297,589	92,007	-0,210	-0,163
298,603	73,441	-0,195	-0,140
299,618	221,540	-0,156	-0,172
300,633	-129,796	-0,117	0,011
301,647	800,000	-0,057	-0,128
302,662	109,383	-0,116	-0,096
303,676	9,187	0,109	-0,056
304,691	-4,054	-0,147	-0,070
305,706	541,348	-0,097	-0,160
306,720	320,528	-0,079	-0,103
307,735	800,000	-0,085	-0,207
308,749	-83,413	-0,133	-0,029
309,764	800,000	-0,095	0,197
310,779	-139,361	-0,223	-0,016
311,793	-12,109	-0,099	-0,044
312,808	-59,810	-0,217	-0,063
313,822	53,367	-0,082	-0,054
314,837	182,872	-0,135	-0,137
315,852	-200,000	-0,013	0,063
316,866	-114,013	-0,108	0,014
317,881	800,000	-0,088	-0,183
318,895	12,450	-0,124	-0,066
319,910	93,713	-0,141	-0,110
320,925	22,930	-0,174	-0,098
321,939	-200,000	-0,037	-0,137
322,954	800,000	-0,046	-0,114
323,968	800,000	-0,100	-0,196
324,983	178,443	-0,147	-0,148
325,997	800,000	-0,075	-0,220
327,012	23,901	-0,159	-0,090
328,027	-200,000	-0,021	-0,211
329,041	283,407	-0,172	-0,213
330,056	-22,580	-0,174	0,072
331,070	-6,704	-0,199	-0,093
332,085	-200,000	0,000	0,046
333,100	-138,257	-0,231	-0,017
334,114	800,000	-0,061	-0,164
335,129	-36,897	-0,195	-0,071
336,143	-102,463	-0,150	-0,024
337,158	-87,288	-0,197	-0,041
338,173	44,830	-0,105	-0,066
339,187	-106,729	-0,097	-0,015
340,202	212,270	-0,140	-0,151
341,216	800,000	-0,051	-0,113
342,231	-3,647	-0,179	-0,085
343,246	-54,553	-0,137	0,042
344,260	-58,204	-0,055	0,016
345,275	-70,907	-0,201	-0,051
346,289	176,202	-0,122	-0,121
347,304	67,095	-0,173	-0,121
348,319	-200,000	-0,025	-0,252
349,333	334,560	-0,159	-0,211
350,348	244,642	-0,156	-0,179
351,362	800,000	-0,033	-0,092
352,377	800,000	-0,050	0,128
353,392	-63,125	-0,070	-0,020
354,406	1,680	-0,028	-0,014
355,421	207,299	1307,064	1395,829
356,435	159,463	1466,812	1396,289
