DTS Sentinel unit serial number:	SN410029Multiplexer serial number:	ORYXHardware model number:	OX2-SRSoftware version number:	ORYX F/W v4,00 Oryx Data Collector v3.7.2.0data status	okinstallation	B3 Nyhavnadifferential loss correction	single-endedforward channel	channel 1reverse channel	N/Adate	2023/11/29time	00:37:30forward acquisition time	300,00reverse acquisition time	0,00gamma	499,1914k internal	0,3212k external	0,3212temperature offset calibration	1,0000default loss term (dB/km)	0,3820temperature slope calibration	1,0000multiplexer offset coefficient	1,0000multiplexer slope coefficient	1,0000fibre end	0,00T internal ref (°C)	9,18T ext. ref 1 (°C)	-5,09T ext. ref 2 (°C)	-5,23length (m)	temperature (°C)	Stokes	anti-Stokes-744,400	614,897	-0,082	-0,150
-743,385	-200,000	0,068	0,303
-742,371	78,910	-0,191	-0,148
-741,356	800,000	0,143	0,314
-740,342	800,000	-0,155	-0,312
-739,327	-200,000	-0,081	0,306
-738,312	800,000	-0,092	-0,290
-737,298	-200,000	-0,033	0,140
-736,283	327,948	-0,284	-0,396
-735,269	800,000	0,102	0,206
-734,254	115,182	-0,173	-0,153
-733,239	-8,657	-0,283	0,137
-732,225	800,000	0,065	-0,162
-731,210	-200,000	0,027	0,215
-730,196	61,205	-0,105	0,075
-729,181	6,753	0,062	-0,033
-728,167	38,075	-0,071	-0,045
-727,152	-200,000	-0,002	0,055
-726,137	129,652	0,118	-0,109
-725,123	24,960	-0,081	0,049
-724,108	-200,000	0,005	-0,113
-723,094	86,163	-0,115	-0,091
-722,079	572,130	-0,061	-0,109
-721,064	-130,740	0,016	-0,002
-720,050	-200,000	0,030	-0,112
-719,035	800,000	-0,031	-0,074
-718,021	529,926	-0,081	-0,139
-717,006	800,000	-0,045	-0,101
-715,991	58,572	-0,031	-0,022
-714,977	-200,000	0,018	0,128
-713,962	-94,398	0,082	0,016
-712,948	587,628	0,011	-0,019
-711,933	-1,513	-0,101	-0,051
-710,918	633,673	-0,031	0,056
-709,904	606,195	-0,041	0,074
-708,889	30,657	0,143	-0,088
-707,875	7,104	-0,095	-0,051
-706,860	-22,177	0,020	-0,009
-705,845	-200,000	0,000	-0,105
-704,831	-200,000	0,012	0,094
-703,816	-27,730	0,075	-0,031
-702,802	800,000	-0,053	0,111
-701,787	17,153	-0,059	-0,034
-700,772	-200,000	0,020	-0,075
-699,758	-151,244	-0,130	-0,007
-698,743	-99,974	-0,169	-0,030
-697,729	800,000	-0,031	0,096
-696,714	800,000	0,029	0,071
-695,699	38,070	-0,070	0,045
-694,685	24,669	0,023	0,014
-693,670	11,082	-0,113	0,062
-692,656	710,158	-0,065	0,124
-691,641	-200,000	0,001	0,016
-690,627	-200,000	-0,017	0,178
-689,612	-200,000	-0,018	0,099
-688,597	332,521	-0,039	-0,055
-687,583	-136,267	0,125	0,010
-686,568	-14,036	-0,049	0,023
-685,554	44,892	-0,121	-0,080
-684,539	-79,795	0,079	0,019
-683,524	461,315	0,076	0,123
-682,510	124,492	-0,052	0,048
-681,495	-167,871	-0,082	0,002
-680,481	800,000	-0,024	-0,070
-679,466	-200,000	0,012	-0,062
-678,451	216,295	0,074	-0,085
-677,437	30,029	0,071	-0,044
-676,422	42,857	0,040	-0,027
-675,408	9,534	-0,053	-0,029
-674,393	-185,697	-0,022	-0,000
-673,378	-200,000	0,018	-0,066
-672,364	-200,000	-0,037	-0,144
-671,349	-11,669	-0,034	0,016
-670,335	45,655	0,050	0,033
-669,320	93,178	-0,050	0,041
-668,305	-200,000	-0,004	0,071
-667,291	-56,277	0,042	0,013
-666,276	42,512	0,066	-0,043
-665,262	-200,000	-0,003	-0,104
-664,247	-86,091	-0,121	-0,027
-663,232	98,050	0,120	-0,100
-662,218	210,717	-0,053	-0,060
-661,203	-18,611	0,145	-0,065
-660,189	-152,906	0,121	-0,006
-659,174	167,943	-0,153	-0,157
-658,159	-200,000	-0,004	0,168
-657,145	-200,000	-0,021	-0,070
-656,130	603,167	-0,023	-0,042
-655,116	-91,598	0,082	0,017
-654,101	-200,000	-0,018	0,081
-653,086	-200,000	0,027	0,242
-652,072	-200,000	-0,016	-0,072
-651,057	800,000	-0,075	-0,150
-650,043	28,344	0,039	-0,024
-649,028	-200,000	0,006	-0,096
-648,014	-200,000	0,014	-0,057
-646,999	-200,000	-0,004	-0,055
-645,984	-38,152	0,045	-0,017
-644,970	-198,541	0,024	0,000
-643,955	-102,902	-0,035	-0,006
-642,941	5,461	-0,159	0,084
-641,926	-200,000	-0,023	-0,094
-640,911	2,872	0,090	-0,047
-639,897	-200,000	-0,036	0,141
-638,882	113,716	0,047	0,041
-637,868	73,161	-0,085	-0,064
-636,853	-41,728	-0,129	-0,047
-635,838	117,878	0,026	0,023
-634,824	417,418	0,030	0,046
-633,809	-67,462	0,041	0,012
-632,795	-95,890	-0,087	0,017
-631,780	84,333	0,084	0,067
-630,765	56,209	0,095	-0,066
-629,751	82,043	-0,088	-0,069
-628,736	105,362	-0,154	-0,132
-627,722	800,000	-0,040	-0,098
-626,707	140,555	0,158	0,150
-625,692	-81,046	0,087	0,021
-624,678	-200,000	0,001	0,066
-623,663	-200,000	-0,018	-0,079
-622,649	-35,271	-0,070	-0,027
-621,634	-74,924	-0,149	-0,038
-620,619	-200,000	0,021	-0,083
-619,605	36,622	0,036	0,023
-618,590	254,505	-0,099	0,122
-617,576	180,119	0,051	0,054
-616,561	800,000	-0,028	0,072
-615,546	55,687	0,104	-0,073
-614,532	-43,295	-0,053	-0,019
-613,517	-85,601	0,116	0,026
-612,503	-153,228	-0,133	-0,007
-611,488	-34,410	0,085	-0,033
-610,474	-125,777	-0,128	0,014
-609,459	-61,585	0,054	-0,016
-608,444	-72,719	-0,090	-0,024
-607,430	800,000	-0,048	-0,107
-606,415	800,000	-0,079	-0,160
-605,401	-200,000	-0,010	0,077
-604,386	800,000	0,026	0,072
-603,371	617,136	-0,072	0,130
-602,357	168,296	-0,049	-0,051
-601,342	-21,289	-0,092	-0,040
-600,328	-130,347	0,026	0,002
-599,313	557,708	-0,049	-0,086
-598,298	197,696	0,073	0,081
-597,284	-200,000	-0,033	0,125
-596,269	-73,793	-0,086	0,022
-595,255	-9,256	-0,088	0,042
-594,240	148,958	-0,101	0,098
-593,225	-200,000	-0,025	-0,187
-592,211	800,000	-0,044	-0,098
-591,196	800,000	-0,029	0,072
-590,182	43,468	0,108	0,071
-589,167	55,562	0,047	0,033
-588,152	105,045	0,028	-0,024
-587,138	102,510	-0,085	-0,071
-586,123	-200,000	0,000	-0,068
-585,109	10,082	-0,129	-0,071
-584,094	319,977	0,026	-0,036
-583,079	372,934	-0,045	0,066
-582,065	241,932	0,104	0,125
-581,050	-75,862	0,053	-0,013
-580,036	26,402	0,059	0,035
-579,021	-27,054	0,076	-0,032
-578,006	636,880	0,048	-0,088
-576,992	-200,000	0,005	0,032
-575,977	-200,000	-0,003	0,038
-574,963	-86,952	-0,051	-0,011
-573,948	208,709	0,003	0,003
-572,934	-79,961	-0,075	-0,018
-571,919	29,728	-0,034	0,021
-570,904	197,238	-0,080	0,088
-569,890	-94,191	0,079	0,015
-568,875	303,670	-0,057	0,076
-567,861	184,750	-0,074	0,079
-566,846	-100,376	0,173	0,031
-565,831	-134,582	-0,063	-0,005
-564,817	-39,855	-0,069	0,026
-563,802	23,100	0,069	-0,041
-562,788	-61,237	-0,093	-0,028
-561,773	246,057	-0,061	-0,074
-560,758	636,420	-0,032	0,060
-559,744	213,387	-0,043	0,049
-558,729	-11,822	-0,055	0,026
-557,715	800,000	0,063	-0,162
-556,700	140,440	-0,058	-0,055
-555,685	-42,909	-0,114	-0,041
-554,671	734,021	0,121	0,234
-553,656	-200,000	0,010	0,048
-552,642	551,274	0,065	-0,113
-551,627	7,247	-0,023	-0,013
-550,612	-200,000	-0,027	-0,088
-549,598	703,339	0,027	0,052
-548,583	-200,000	-0,009	-0,063
-547,569	15,290	0,046	-0,026
-546,554	-200,000	0,008	0,110
-545,539	0,818	0,111	0,057
-544,525	60,755	-0,079	0,056
-543,510	800,000	0,026	-0,056
-542,496	-200,000	-0,029	-0,116
-541,481	800,000	-0,032	0,098
-540,466	-200,000	0,001	0,077
-539,452	152,332	0,069	0,068
-538,437	-194,101	0,129	0,001
-537,423	208,498	0,064	-0,072
-536,408	800,000	0,042	-0,128
-535,393	129,724	-0,079	0,073
-534,379	59,772	0,069	-0,049
-533,364	-15,290	0,067	0,031
-532,350	-20,747	0,079	0,035
-531,335	-21,341	0,072	0,032
-530,321	-200,000	0,023	0,127
-529,306	-118,082	0,046	-0,006
-528,291	-128,644	0,046	0,005
-527,277	-165,098	-0,145	-0,005
-526,262	-99,571	-0,148	-0,026
-525,248	25,490	-0,027	0,016
-524,233	-72,431	0,145	-0,038
-523,218	66,406	-0,028	0,021
-522,204	25,249	0,082	-0,049
-521,189	-200,000	-0,045	-0,148
-520,175	-64,254	-0,081	-0,024
-519,160	3,901	-0,063	-0,033
-518,145	302,960	0,052	0,069
-517,131	71,342	0,093	0,069
-516,116	22,652	-0,158	0,093
-515,102	-73,966	-0,078	-0,020
-514,087	708,277	-0,039	0,074
-513,072	213,406	-0,101	-0,115
-512,058	-12,608	0,117	-0,055
-511,043	-200,000	0,029	0,172
-510,029	161,782	0,112	0,113
-509,014	800,000	-0,065	0,131
-507,999	-56,270	0,106	-0,033
-506,985	-109,313	-0,062	0,009
-505,970	-116,355	0,065	0,009
-504,956	-200,000	-0,009	-0,031
-503,941	201,314	0,019	0,021
-502,926	-39,280	0,098	-0,037
-501,912	177,492	0,070	0,073
-500,897	800,000	0,019	-0,051
-499,883	-37,750	-0,118	0,045
-498,868	-200,000	-0,018	-0,125
-497,853	59,982	0,050	0,036
-496,839	-88,892	-0,084	0,018
-495,824	41,080	0,008	-0,005
-494,810	35,000	0,100	-0,063
-493,795	796,038	0,006	0,012
-492,781	-200,000	0,007	-0,118
-491,766	-35,884	0,077	0,030
-490,751	87,876	-0,036	-0,028
-489,737	800,000	0,033	-0,080
-488,722	121,448	0,062	-0,055
-487,708	-136,192	0,105	-0,009
-486,693	179,892	-0,065	-0,068
-485,678	362,524	-0,104	0,150
-484,664	732,228	-0,102	-0,197
-483,649	-200,000	-0,031	-0,111
-482,635	-200,000	-0,002	0,102
-481,620	-47,941	0,192	0,066
-480,605	-130,561	-0,026	-0,002
-479,591	-200,000	-0,027	0,092
-478,576	405,442	-0,049	0,074
-477,562	509,222	-0,039	-0,065
-476,547	-114,092	-0,064	-0,009
-475,532	278,336	-0,092	-0,118
-474,518	800,000	0,018	0,037
-473,503	-200,000	-0,006	0,027
-472,489	154,176	0,143	0,140
-471,474	800,000	0,037	-0,075
-470,459	-200,000	-0,003	-0,027
-469,445	130,007	-0,092	0,084
-468,430	69,956	0,057	0,042
-467,416	-23,772	-0,140	0,060
-466,401	-200,000	-0,004	0,079
-465,386	451,757	0,040	-0,063
-464,372	354,726	0,089	-0,128
-463,357	800,000	-0,062	0,133
-462,343	800,000	-0,018	0,054
-461,328	800,000	-0,012	-0,039
-460,313	-5,069	0,160	-0,079
-459,299	-195,420	-0,108	-0,001
-458,284	123,966	-0,115	-0,104
-457,270	182,944	0,078	0,082
-456,255	133,685	-0,039	0,036
-455,241	284,529	-0,068	-0,087
-454,226	-200,000	-0,001	-0,069
-453,211	50,438	0,029	-0,019
-452,197	95,360	-0,050	-0,041
-451,182	-33,948	-0,110	0,043
-450,168	227,157	0,055	-0,064
-449,153	800,000	0,032	-0,067
-448,138	800,000	0,037	-0,079
-447,124	-40,643	-0,059	-0,022
-446,109	-76,328	0,063	0,016
-445,095	426,149	-0,060	-0,092
-444,080	-200,000	-0,003	0,082
-443,065	-36,356	-0,042	0,016
-442,051	331,524	-0,062	-0,086
-441,036	372,512	-0,053	-0,078
-440,022	420,631	0,026	-0,040
-439,007	-200,000	0,003	-0,016
-437,992	0,114	-0,060	0,030
-436,978	77,582	0,066	-0,050
-435,963	126,620	-0,069	-0,063
-434,949	143,956	-0,042	-0,041
-433,934	-200,000	0,010	-0,069
-432,919	27,473	-0,183	-0,110
-431,905	800,000	0,034	0,080
-430,890	-197,011	0,028	-0,000
-429,876	-200,000	0,019	-0,103
-428,861	-140,636	0,111	-0,008
-427,846	33,853	-0,129	0,080
-426,832	-200,000	0,064	-0,206
-425,817	-146,938	-0,088	0,005
-424,803	-200,000	-0,038	-0,128
-423,788	-32,531	0,131	0,052
-422,773	115,040	0,122	0,107
-421,759	-81,291	-0,141	-0,033
-420,744	28,745	-0,090	-0,054
-419,730	-200,000	0,012	0,100
-418,715	782,517	0,051	-0,100
-417,701	-12,122	-0,136	-0,063
-416,686	-71,021	0,131	-0,035
-415,671	-46,544	-0,069	-0,024
-414,657	82,944	0,029	0,022
-413,642	-46,051	0,066	-0,023
-412,628	800,000	-0,063	0,138
-411,613	-200,000	0,027	-0,117
-410,598	-81,223	-0,051	0,012
-409,584	40,299	0,111	-0,071
-408,569	-72,468	0,149	-0,039
-407,555	-86,484	0,074	-0,016
-406,540	447,625	0,043	-0,068
-405,525	800,000	-0,036	-0,075
-404,511	-59,698	-0,104	-0,032
-403,496	-200,000	0,017	0,099
-402,482	-200,000	-0,016	-0,127
-401,467	-200,000	0,023	0,124
-400,452	450,374	0,097	0,154
-399,438	800,000	0,008	-0,022
-398,423	-150,613	-0,085	-0,005
-397,409	413,705	-0,057	-0,086
-396,394	-5,603	0,107	0,052
-395,379	-200,000	-0,035	0,156
-394,365	429,353	0,018	-0,029
-393,350	800,000	-0,054	-0,116
-392,336	-200,000	0,015	0,253
-391,321	-200,000	-0,011	0,069
-390,306	-141,574	-0,149	-0,011
-389,292	-200,000	-0,005	0,033
-388,277	-112,446	0,111	0,016
-387,263	47,104	-0,016	-0,011
-386,248	286,975	-0,081	-0,104
-385,233	193,785	-0,059	0,064
-384,219	-62,952	0,109	-0,032
-383,204	-200,000	0,007	-0,079
-382,190	-85,184	0,087	-0,019
-381,175	404,688	0,018	0,027
-380,160	52,361	0,123	0,084
-379,146	153,340	0,180	0,176
-378,131	-43,344	-0,088	-0,032
-377,117	-193,322	0,016	0,000
-376,102	395,932	-0,062	-0,093
-375,088	-98,693	-0,058	0,010
-374,073	-73,205	-0,071	0,018
-373,058	-200,000	-0,026	0,105
-372,044	-166,900	0,142	0,004
-371,029	800,000	-0,037	-0,097
-370,015	800,000	-0,023	0,069
-369,000	-200,000	-0,020	0,111
-367,985	243,815	-0,020	-0,024
-366,971	-29,706	0,054	-0,022
-365,956	-200,000	-0,022	0,121
-364,942	-200,000	0,102	0,000
-363,927	-200,000	-0,001	0,067
-362,912	-200,000	-0,015	0,093
-361,898	151,671	0,051	0,049
-360,883	-200,000	-0,027	0,116
-359,869	36,333	-0,111	-0,070
-358,854	-40,401	0,029	-0,011
-357,839	92,066	-0,132	0,106
-356,825	-10,791	0,084	0,039
-355,810	-200,000	-0,008	0,028
-354,796	-128,723	-0,142	-0,014
-353,781	746,242	-0,054	-0,104
-352,766	-140,299	-0,066	0,005
-351,752	-122,545	-0,129	0,015
-350,737	-72,925	0,196	0,051
-349,723	42,116	0,026	-0,017
-348,708	-9,311	0,083	0,039
-347,693	76,031	0,204	-0,154
-346,679	800,000	-0,038	-0,107
-345,664	72,607	0,074	-0,055
-344,650	-128,550	-0,062	0,006
-343,635	-108,226	-0,040	-0,006
-342,620	47,827	0,043	0,028
-341,606	-200,000	-0,008	-0,057
-340,591	-38,865	-0,061	-0,023
-339,577	-200,000	0,010	-0,083
-338,562	-200,000	-0,003	-0,023
-337,548	-150,119	0,099	0,005
-336,533	253,732	0,051	-0,062
-335,518	-200,000	0,004	0,025
-334,504	-200,000	0,016	-0,100
-333,489	800,000	0,089	0,183
-332,475	155,438	-0,046	-0,046
-331,460	-77,617	-0,135	0,033
-330,445	722,555	-0,090	-0,171
-329,431	800,000	0,054	0,139
-328,416	800,000	-0,016	-0,048
-327,402	-200,000	-0,018	-0,119
-326,387	-110,403	0,164	0,024
-325,372	-78,145	-0,185	0,045
-324,358	-49,283	-0,119	-0,040
-323,343	-200,000	-0,016	0,076
-322,329	1,255	0,120	-0,061
-321,314	287,120	0,125	0,161
-320,299	27,813	-0,048	0,029
-319,285	800,000	0,050	-0,130
-318,270	-200,000	-0,008	-0,084
-317,256	5,747	-0,050	-0,026
-316,241	-26,166	0,130	-0,054
-315,226	-57,491	0,020	0,006
-314,212	-200,000	-0,017	0,079
-313,197	-200,000	0,018	0,126
-312,183	800,000	-0,023	-0,051
-311,168	-43,109	-0,105	-0,038
-310,153	800,000	-0,019	0,038
-309,139	-200,000	0,009	0,050
-308,124	-29,031	0,087	0,035
-307,110	114,805	-0,057	0,049
-306,095	63,703	0,107	0,077
-305,080	310,625	0,077	-0,103
-304,066	800,000	0,017	-0,050
-303,051	-118,990	0,035	-0,004
-302,037	-200,000	-0,000	0,012
-301,022	-200,000	-0,001	0,027
-300,008	-6,098	0,099	0,048
-298,993	-200,000	-0,007	0,094
-297,978	-88,023	0,016	-0,003
-296,964	-200,000	0,009	-0,168
-295,949	20,827	-0,095	-0,055
-294,935	-200,000	-0,020	-0,070
-293,920	79,989	0,043	-0,033
-292,905	-125,168	0,074	0,008
-291,891	47,974	-0,068	0,045
-290,876	800,000	0,027	0,084
-289,862	-136,771	0,073	-0,006
-288,847	350,923	0,044	-0,062
-287,832	-20,057	0,133	-0,058
-286,818	194,889	-0,087	0,094
-285,803	-9,908	0,061	-0,029
-284,789	41,825	-0,075	0,048
-283,774	-200,000	0,004	-0,092
-282,759	-90,403	0,093	0,019
-281,745	-5,384	0,031	0,015
-280,730	480,962	-0,054	-0,088
-279,716	-200,000	0,019	0,118
-278,701	491,195	0,061	0,100
-277,686	800,000	0,029	0,078
-276,672	-159,661	0,095	0,004
-275,657	-200,000	-0,002	-0,055
-274,643	800,000	-0,020	-0,046
-273,628	-60,787	-0,046	-0,014
-272,613	-200,000	0,016	-0,171
-271,599	301,441	0,081	0,106
-270,584	188,698	-0,094	0,100
-269,570	-37,517	0,105	-0,040
-268,555	95,974	0,124	0,101
-267,540	-200,000	-0,017	0,108
-266,526	800,000	-0,038	-0,084
-265,511	175,787	-0,064	0,067
-264,497	800,000	0,066	-0,170
-263,482	-39,587	0,026	-0,010
-262,467	544,739	-0,026	0,044
-261,453	-200,000	-0,001	0,068
-260,438	-200,000	0,008	-0,055
-259,424	154,605	-0,036	-0,035
-258,409	-200,000	-0,026	-0,093
-257,395	-140,692	0,090	0,006
-256,380	93,256	0,111	0,090
-255,365	-200,000	0,006	0,115
-254,351	800,000	-0,060	0,179
-253,336	800,000	-0,027	-0,078
-252,322	-78,880	0,120	-0,029
-251,307	-200,000	0,009	-0,180
-250,292	120,804	-0,145	0,128
-249,278	-24,368	0,065	-0,027
-248,263	-54,573	0,061	-0,019
-247,249	286,102	-0,057	0,073
-246,234	-200,000	0,004	-0,033
-245,219	-200,000	0,021	-0,133
-244,205	40,018	-0,007	-0,005
-243,190	-62,039	0,048	0,014
-242,176	-200,000	0,005	0,038
-241,161	-134,718	0,090	0,008
-240,146	293,386	0,115	0,150
-239,132	800,000	-0,026	0,056
-238,117	77,975	0,056	-0,042
-237,103	-123,646	-0,116	0,013
-236,088	-107,897	0,053	0,008
-235,073	17,405	-0,071	-0,040
-234,059	-128,552	0,047	0,005
-233,044	133,776	-0,065	0,060
-232,030	399,155	-0,033	0,049
-231,015	-200,000	0,015	0,086
-230,000	-22,065	-0,080	-0,034
-228,986	-34,222	0,045	-0,018
-227,971	410,787	-0,069	0,104
-226,957	-139,618	0,019	-0,001
-225,942	-24,348	-0,112	0,047
-224,927	-151,311	-0,041	-0,002
-223,913	32,215	-0,047	0,029
-222,898	-110,205	-0,044	0,006
-221,884	-67,777	-0,071	-0,020
-220,869	-200,000	0,039	0,141
-219,855	-4,884	0,147	0,072
-218,840	-200,000	-0,025	0,127
-217,825	353,274	0,022	0,031
-216,811	-66,000	0,094	-0,026
-215,796	-98,233	0,059	0,011
-214,782	105,404	0,079	-0,066
-213,767	7,594	-0,085	-0,045
-212,752	780,144	0,020	0,039
-211,738	-200,000	-0,021	0,103
-210,723	-10,730	0,021	-0,010
-209,709	-117,282	-0,048	-0,006
-208,694	404,156	-0,066	-0,100
-207,679	-108,400	0,100	0,015
-206,665	-200,000	-0,005	0,067
-205,650	329,733	-0,035	-0,048
-204,636	-200,000	-0,009	-0,177
-203,621	305,552	0,051	0,068
-202,606	-200,000	0,015	0,064
-201,592	-200,000	0,007	0,024
-200,577	179,691	-0,066	0,069
-199,563	87,841	-0,070	-0,055
-198,548	15,569	0,108	0,060
-197,533	-65,096	0,086	-0,024
-196,519	-11,412	-0,028	0,013
-195,504	-200,000	-0,004	-0,037
-194,490	-99,777	-0,147	-0,026
-193,475	800,000	0,055	-0,139
-192,460	23,024	0,065	0,038
-191,446	43,354	0,026	0,017
-190,431	6,816	0,059	-0,031
-189,417	615,999	0,005	0,010
-188,402	-74,499	0,137	0,035
-187,387	11,707	-0,154	0,084
-186,373	-200,000	0,017	-0,104
-185,358	800,000	-0,024	-0,054
-184,344	30,462	0,081	0,049
-183,329	-42,488	-0,118	-0,042
-182,315	-200,000	-0,022	0,087
-181,300	-200,000	-0,008	-0,176
-180,285	800,000	0,056	-0,115
-179,271	58,247	-0,129	-0,090
-178,256	329,607	-0,068	-0,093
-177,242	523,258	-0,058	0,097
-176,227	63,152	-0,031	-0,022
-175,212	-29,819	-0,018	0,007
-174,198	207,498	0,049	0,054
-173,183	-79,563	-0,076	0,018
-172,169	-200,000	-0,010	-0,079
-171,154	2,207	0,155	0,079
-170,139	-200,000	-0,010	0,146
-169,125	800,000	0,062	-0,150
-168,110	-45,533	-0,130	0,045
-167,096	127,692	-0,044	-0,040
-166,081	46,347	-0,044	-0,029
-165,066	127,425	0,051	-0,046
-164,052	213,156	0,115	0,129
-163,037	800,000	0,032	0,096
-162,023	419,056	-0,109	0,166
-161,008	335,202	-0,048	-0,066
-159,993	800,000	-0,014	-0,031
-158,979	800,000	0,024	-0,066
-157,964	9,391	-0,071	-0,038
-156,950	800,000	-0,040	-0,115
-155,935	648,297	-0,013	-0,024
-154,920	-77,776	0,118	0,029
-153,906	455,428	0,038	0,060
-152,891	354,213	-0,038	0,053
-151,877	602,755	-0,021	-0,038
-150,862	-195,084	0,018	0,000
-149,847	509,207	0,039	-0,065
-148,833	-186,298	0,196	-0,002
-147,818	149,467	-0,067	0,065
-146,804	306,750	0,092	0,122
-145,789	173,317	-0,003	0,004
-144,775	547,892	0,031	0,052
-143,760	-88,143	-0,066	-0,014
-142,745	-200,000	-0,043	-0,143
-141,731	-200,000	0,006	-0,018
-140,716	53,202	0,062	0,042
-139,702	-200,000	-0,002	0,050
-138,687	800,000	-0,022	0,063
-137,672	224,418	-0,043	0,050
-136,658	2,754	0,101	-0,052
-135,643	-135,065	0,104	0,009
-134,629	491,624	-0,044	0,072
-133,614	294,065	-0,074	0,096
-132,599	800,000	-0,044	0,099
-131,585	309,365	-0,110	-0,146
-130,570	28,759	0,096	-0,057
-129,556	113,437	-0,150	-0,128
-128,541	-48,131	-0,076	-0,026
-127,526	-101,414	0,083	-0,014
-126,512	-84,107	0,037	-0,008
-125,497	-12,753	0,026	0,012
-124,483	374,291	-0,013	-0,019
-123,468	-102,039	-0,192	-0,032
-122,453	426,778	-0,067	-0,103
-121,439	-120,466	0,079	0,009
-120,424	530,063	-0,030	0,051
-119,410	50,786	0,126	-0,085
-118,395	108,543	0,011	0,009
-117,380	-66,506	-0,026	-0,007
-116,366	-200,000	0,001	0,035
-115,351	-112,053	0,067	0,009
-114,337	-200,000	-0,049	0,000
-113,322	-200,000	0,010	-0,060
-112,307	-81,735	-0,046	0,011
-111,293	48,580	0,217	0,143
-110,278	389,402	0,067	-0,098
-109,264	-55,395	0,078	0,025
-108,249	-200,000	0,017	0,063
-107,234	-121,118	-0,147	-0,017
-106,220	800,000	-0,013	-0,027
-105,205	152,970	0,041	0,040
-104,191	-80,211	0,081	-0,019
-103,176	-128,121	-0,015	0,002
-102,162	289,182	0,034	0,044
-101,147	-1,976	-0,131	-0,065
-100,132	75,906	0,085	0,063
-99,118	-200,000	0,022	-0,117
-98,103	800,000	0,012	0,032
-97,089	-200,000	-0,001	-0,097
-96,074	2,164	0,153	0,078
-95,059	227,106	-0,031	0,035
-94,045	800,000	-0,038	-0,085
-93,030	124,225	-0,081	-0,072
-92,016	-15,934	0,076	-0,034
-91,001	-200,000	0,008	0,043
-89,986	-177,039	0,161	0,003
-88,972	234,197	0,054	-0,062
-87,957	-200,000	0,008	0,077
-86,943	666,077	-0,016	-0,030
-85,928	-200,000	-0,013	-0,186
-84,913	-45,063	-0,138	0,048
-83,899	-200,000	-0,023	0,128
-82,884	800,000	0,040	0,085
-81,870	800,000	0,016	-0,049
-80,855	-200,000	-0,011	-0,101
-79,840	-9,703	-0,091	-0,042
-78,826	45,993	0,101	0,066
-77,811	-200,000	-0,008	-0,033
-76,797	-200,000	0,035	0,111
-75,782	-200,000	-0,020	-0,071
-74,767	-200,000	-0,041	0,144
-73,753	-4,194	0,070	0,034
-72,738	455,512	-0,087	-0,136
-71,724	2,786	-0,056	0,029
-70,709	800,000	0,038	-0,077
-69,694	218,380	0,102	0,115
-68,680	-135,724	0,152	-0,013
-67,665	-40,603	-0,042	0,015
-66,651	345,586	-0,041	0,056
-65,636	-200,000	-0,006	-0,021
-64,622	168,656	-0,120	-0,121
-63,607	236,346	-0,072	0,084
-62,592	-200,000	-0,049	-0,156
-61,578	-21,211	0,107	0,046
-60,563	504,962	0,054	0,089
-59,549	-17,773	-0,147	0,065
-58,534	40,551	-1,969	-1,249
-57,519	482,092	-1,208	-1,943
-56,505	-200,000	-0,245	-4,277
-55,490	800,000	0,831	1,740
-54,476	800,000	5,082	11,196
-53,461	-200,000	21,491	337,442
-52,446	800,000	760,221	2313,159
-51,432	540,146	1655,889	2791,625
-50,417	70,260	1653,247	1203,392
-49,403	16,916	1527,202	850,842
-48,388	10,996	1451,219	780,004
-47,373	19,064	1442,866	814,028
-46,359	14,432	1432,042	785,964
-45,344	9,299	1427,834	759,288
-44,330	9,233	1425,837	757,882
-43,315	9,244	1423,953	756,902
-42,300	9,242	1422,211	755,936
-41,286	9,258	1421,228	755,459
-40,271	9,256	1419,890	754,711
-39,257	9,240	1418,647	753,946
-38,242	9,275	1417,697	753,576
-37,227	9,261	1416,574	752,884
-36,213	9,276	1415,348	752,272
-35,198	9,321	1413,980	751,724
-34,184	9,277	1413,072	751,007
-33,169	9,213	1411,625	749,909
-32,154	9,266	1410,916	749,747
-31,140	9,236	1409,599	748,878
-30,125	9,263	1408,495	748,391
-29,111	9,261	1407,249	747,687
-28,096	9,254	1406,139	747,035
-27,082	9,200	1404,725	746,002
-26,067	9,230	1403,783	745,612
-25,052	9,194	1402,822	744,906
-24,038	9,225	1401,850	744,502
-23,023	9,221	1400,976	743,991
-22,009	9,186	1399,866	743,210
-20,994	9,179	1398,888	742,628
-19,979	9,186	1397,761	742,035
-18,965	9,222	1396,710	741,612
-17,950	9,144	1395,926	740,805
-16,936	9,122	1395,374	740,381
-15,921	9,112	1394,275	739,722
-14,906	9,146	1393,383	739,375
-13,892	9,207	1392,151	738,975
-12,877	9,085	1391,703	738,146
-11,863	9,100	1390,837	737,723
-10,848	9,132	1389,879	737,336
-9,833	9,046	1388,885	736,381
-8,819	9,078	1387,980	736,021
-7,804	9,044	1386,969	735,298
-6,790	9,034	1386,009	734,713
-5,775	9,059	1384,910	734,217
-4,760	9,064	1384,052	733,755
-3,746	9,081	1382,962	733,227
-2,731	9,072	1382,210	732,757
-1,717	8,998	1381,495	732,011
-0,702	9,065	1379,635	731,301
0,313	13,038	1292,183	703,038
1,327	29,102	684,514	408,563
2,342	45,244	118,073	76,622
3,356	-0,821	16,519	8,222
4,371	9,987	3,574	1,908
5,386	-24,847	1,225	0,511
6,400	800,000	0,247	0,647
7,415	45,621	-0,306	-0,199
8,429	307,129	-0,054	-0,071
9,444	10,987	-0,311	-0,167
10,459	61,009	-0,237	-0,165
11,473	-101,603	-0,230	-0,039
12,488	-28,561	-0,325	-0,131
13,502	82,843	-0,400	-0,306
14,517	280,016	-0,199	-0,251
15,531	118,590	-0,332	-0,288
16,546	10,225	-0,212	-0,113
17,561	37,213	-0,363	-0,226
18,575	-100,092	-0,146	0,025
19,590	20,012	-0,250	-0,141
20,604	-70,147	-0,250	-0,066
21,619	29,685	-0,492	-0,294
22,634	124,689	-0,533	-0,472
23,648	142,205	-0,402	-0,375
24,663	167,058	-0,402	-0,402
25,677	122,590	-0,259	-0,228
26,692	135,202	-0,270	-0,247
27,707	-7,498	-0,364	-0,173
28,721	41,836	-0,291	-0,185
29,736	130,095	-0,260	-0,234
30,750	42,581	-0,415	-0,265
31,765	6,214	-0,354	-0,184
32,780	197,544	-0,273	-0,293
33,794	160,433	-0,361	-0,355
34,809	227,433	-0,245	-0,280
35,823	40,496	-0,268	-0,169
36,838	95,487	-0,456	-0,365
37,853	156,710	-0,326	-0,317
38,867	-45,954	-0,486	-0,168
39,882	87,067	-0,311	-0,241
40,896	66,784	-0,300	-0,214
41,911	74,484	-0,318	-0,235
42,926	146,790	-0,330	-0,312
43,940	-23,827	-0,418	-0,175
44,955	77,771	-0,365	-0,273
45,969	65,375	-0,317	-0,225
46,984	102,080	-0,318	-0,261
47,999	16,382	-0,255	-0,141
49,013	29,929	-0,381	-0,228
50,028	-70,360	-0,315	-0,083
51,042	275,908	-0,251	-0,314
52,057	110,117	-0,286	-0,241
53,071	96,467	-0,367	-0,295
54,086	65,728	-0,341	-0,242
55,101	111,816	-0,311	-0,264
56,115	80,039	-0,229	-0,172
57,130	-0,991	-0,324	-0,161
58,144	73,642	-0,316	-0,232
59,159	246,579	-0,423	-0,501
60,174	117,730	-0,279	-0,241
61,188	236,486	-0,301	-0,350
62,203	-5,234	-0,323	-0,155
63,217	29,159	-0,286	-0,170
64,232	69,975	-0,235	-0,170
65,247	32,641	-0,331	-0,200
66,261	-21,273	-0,255	-0,109
67,276	74,783	-0,266	-0,196
68,290	163,353	-0,276	-0,273
69,305	43,243	-0,266	-0,170
70,320	159,627	-0,144	-0,140
71,334	4,937	-0,269	-0,138
72,349	49,657	-0,389	-0,256
73,363	58,708	-0,347	-0,239
74,378	156,195	-0,266	-0,257
75,393	-4,350	-0,330	-0,159
76,407	35,945	-0,336	-0,207
77,422	-4,488	-0,296	-0,143
78,436	684,930	-0,180	-0,330
79,451	28,213	-0,286	-0,168
80,466	363,675	-0,221	-0,312
81,480	116,634	-0,346	-0,297
82,495	173,047	-0,307	-0,310
83,509	23,725	-0,327	-0,188
84,524	49,568	-0,228	-0,150
85,539	72,037	-0,315	-0,229
86,553	32,032	-0,304	-0,183
87,568	174,330	-0,380	-0,385
88,582	127,139	-0,246	-0,218
89,597	31,014	-0,321	-0,192
90,611	265,786	-0,188	-0,230
91,626	457,051	-0,159	-0,248
92,641	61,102	-0,274	-0,190
93,655	83,741	-0,222	-0,169
94,670	92,217	-0,264	-0,208
95,684	26,842	-0,247	-0,144
96,699	-147,822	-0,194	-0,011
97,714	106,478	-0,268	-0,222
98,728	-118,133	-0,176	-0,022
99,743	64,114	-0,234	-0,164
100,757	-86,558	-0,298	-0,063
101,772	800,000	-0,128	-0,312
102,787	317,489	-0,155	-0,206
103,801	306,814	-0,236	-0,308
104,816	53,378	-0,310	-0,207
105,830	311,992	-0,104	-0,136
106,845	103,846	-0,302	-0,248
107,860	391,753	-0,099	-0,144
108,874	-148,070	-0,290	0,017
109,889	117,292	-0,258	-0,221
110,903	140,351	-0,268	-0,247
111,918	38,155	-0,254	-0,158
112,933	176,137	-0,216	-0,219
113,947	-0,725	-0,300	-0,148
114,962	408,544	-0,179	-0,265
115,976	224,609	-0,197	-0,223
116,991	-50,905	-0,178	-0,058
118,006	-5,279	-0,321	-0,153
119,020	60,023	-0,347	-0,239
120,035	231,577	-0,147	-0,169
121,049	-13,043	-0,270	-0,122
122,064	-134,799	-0,291	-0,024
123,079	3,922	-0,235	-0,119
124,093	0,170	-0,274	-0,136
125,108	91,532	-0,232	-0,182
126,122	3,007	-0,312	-0,158
127,137	35,325	-0,196	-0,119
128,151	52,407	-0,265	-0,176
129,166	-52,644	-0,122	-0,039
130,181	-40,646	-0,176	-0,063
131,195	13,776	-0,332	-0,179
132,210	-115,015	-0,443	-0,058
133,224	12,268	-0,173	-0,093
134,239	125,624	-0,258	-0,227
135,254	110,972	-0,192	-0,161
136,268	-35,283	-0,228	-0,086
137,283	67,916	-0,278	-0,198
138,297	-39,570	-0,287	-0,104
139,312	-26,501	-0,286	-0,116
140,327	261,762	-0,141	-0,171
141,341	157,702	-0,252	-0,244
142,356	769,801	-0,084	-0,161
143,370	-65,868	-0,312	-0,086
144,385	305,629	-0,126	-0,164
145,400	631,202	-0,172	-0,304
146,414	134,600	-0,177	-0,160
147,429	471,141	-0,121	-0,190
148,443	-1,387	-0,247	-0,121
149,458	-81,082	-0,253	-0,058
150,473	-98,699	-0,186	-0,033
151,487	-13,006	-0,244	-0,110
152,502	28,634	-0,280	-0,165
153,516	66,972	-0,213	-0,150
154,531	82,622	-0,275	-0,208
155,546	89,899	-0,222	-0,172
156,560	290,152	-0,133	-0,169
157,575	204,958	-0,212	-0,229
158,589	-164,487	-0,226	-0,007
159,604	295,114	-0,184	-0,235
160,619	49,198	-0,223	-0,145
161,633	800,000	-0,091	-0,208
162,648	39,637	-0,135	-0,084
163,662	26,752	-0,249	-0,144
164,677	79,297	-0,221	-0,165
165,692	279,973	-0,143	-0,177
166,706	326,278	-0,254	-0,339
167,721	250,867	-0,200	-0,236
168,735	-29,126	-0,204	-0,081
169,750	-28,602	-0,168	-0,067
170,764	193,469	-0,120	-0,126
171,779	-13,346	-0,188	-0,084
172,794	46,305	-0,119	-0,076
173,808	-177,177	-0,186	-0,003
174,823	89,325	-0,309	-0,239
175,837	136,444	-0,233	-0,211
176,852	103,684	-0,252	-0,205
177,867	203,071	-0,218	-0,234
178,881	119,611	-0,158	-0,136
179,896	61,481	-0,167	-0,115
180,910	42,721	-0,326	-0,205
181,925	257,598	-0,224	-0,267
182,940	-200,000	-0,073	-0,225
183,954	95,249	-0,211	-0,167
184,969	-153,050	-0,166	-0,008
185,983	32,200	-0,237	-0,141
186,998	463,174	-0,090	-0,139
188,013	7,451	-0,185	-0,096
189,027	543,750	-0,163	-0,271
190,042	277,940	-0,217	-0,268
191,056	-46,574	-0,176	-0,059
192,071	24,688	-0,319	-0,183
193,086	-25,569	-0,121	-0,049
194,100	139,126	-0,171	-0,156
195,115	800,000	-0,095	-0,219
196,129	-39,119	-0,234	-0,085
197,144	465,182	-0,165	-0,257
198,159	191,441	-0,129	-0,135
199,173	41,495	-0,224	-0,140
200,188	650,956	-0,097	-0,173
201,202	-86,985	-0,290	-0,061
202,217	-123,921	-0,283	-0,030
203,232	91,244	-0,189	-0,147
204,246	106,130	-0,266	-0,218
205,261	81,228	-0,211	-0,158
206,275	800,000	-0,080	-0,202
207,290	-68,099	-0,138	-0,037
208,304	164,757	-0,269	-0,263
209,319	93,061	-0,241	-0,188
210,334	16,169	-0,341	-0,186
211,348	800,000	-0,146	-0,317
212,363	69,411	-0,298	-0,212
213,377	52,841	-0,365	-0,241
214,392	133,010	-0,263	-0,235
215,407	218,293	-0,167	-0,184
216,421	189,441	-0,152	-0,158
217,436	800,000	-0,086	-0,240
218,450	150,409	-0,116	-0,109
219,465	49,363	-0,299	-0,194
220,480	-200,000	-0,055	-0,232
221,494	-64,020	-0,184	-0,051
222,509	78,040	-0,221	-0,163
223,523	253,852	-0,200	-0,237
224,538	141,293	-0,215	-0,197
225,553	130,491	-0,204	-0,181
226,567	-28,632	-0,238	-0,094
227,582	800,000	-0,068	-0,153
228,596	84,127	-0,202	-0,152
229,611	-35,657	-0,121	-0,045
230,626	765,568	-0,091	-0,172
231,640	213,745	-0,128	-0,140
232,655	781,573	-0,060	-0,114
233,669	-2,561	-0,142	-0,069
234,684	800,000	-0,068	-0,171
235,699	154,813	-0,071	-0,067
236,713	-200,000	-0,033	-0,132
237,728	355,597	-0,058	-0,079
238,742	-54,818	-0,072	0,022
239,757	800,000	-0,052	-0,121
240,772	130,714	-0,147	-0,130
241,786	40,006	-0,180	-0,112
242,801	395,825	-0,098	-0,141
243,815	-160,773	-0,274	-0,010
244,830	53,652	-0,129	-0,086
245,844	-40,474	-0,244	-0,087
246,859	-14,746	-0,178	-0,078
247,874	180,418	-0,213	-0,216
248,888	88,773	-0,266	-0,204
249,903	704,808	-0,129	-0,235
250,917	20,958	-0,066	-0,037
251,932	17,228	-0,184	0,100
252,947	227,977	-0,137	-0,154
253,961	280,859	-0,129	-0,160
254,976	-1,398	-0,287	-0,139
255,990	21,333	-0,368	-0,205
257,005	418,410	-0,116	-0,172
258,020	-61,916	-0,170	-0,049
259,034	120,614	-0,199	-0,170
260,049	191,719	0,052	-0,054
261,063	-6,968	-0,169	-0,079
262,078	85,031	-0,272	-0,206
263,093	203,607	-0,145	-0,155
264,107	-50,118	-0,200	-0,065
265,122	171,416	-0,126	-0,124
266,136	313,745	-0,146	-0,190
267,151	3,997	-0,075	-0,037
268,166	104,090	-0,168	-0,136
269,180	-1,924	-0,199	-0,096
270,195	402,289	-0,158	-0,229
271,209	-86,968	-0,227	-0,047
272,224	-145,728	-0,221	-0,013
273,239	-200,000	0,014	-0,128
274,253	-83,880	-0,181	-0,039
275,268	-175,964	-0,199	0,004
276,282	-78,459	-0,225	-0,053
277,297	15,630	-0,224	-0,121
278,312	-71,692	-0,114	0,029
279,326	153,399	-0,145	-0,137
280,341	22,726	-0,149	-0,084
281,355	137,572	-0,127	-0,115
282,370	251,229	-0,169	-0,198
283,384	100,207	-0,124	-0,098
284,399	448,931	-0,123	-0,187
285,414	1,964	-0,173	-0,085
286,428	65,194	-0,130	-0,090
287,443	84,916	-0,184	-0,138
288,457	-23,667	-0,098	-0,040
289,472	-13,935	-0,121	-0,054
290,487	36,367	-0,116	-0,070
291,501	141,070	-0,133	-0,121
292,516	39,735	-0,168	-0,104
293,530	-140,343	-0,173	-0,012
294,545	800,000	0,049	-0,108
295,560	590,271	-0,057	-0,096
296,574	273,275	-0,084	-0,103
297,589	-200,000	-0,025	-0,152
298,603	678,643	-0,090	-0,161
299,618	-120,499	-0,253	-0,029
300,633	-93,379	-0,115	0,022
301,647	-141,154	-0,096	-0,007
302,662	589,561	-0,061	0,103
303,676	-200,000	-0,022	-0,115
304,691	630,116	-0,101	-0,177
305,706	293,534	-0,076	-0,095
306,720	-86,813	-0,144	-0,030
307,735	476,301	-0,095	-0,148
308,749	-200,000	0,002	-0,108
309,764	-200,000	-0,007	-0,148
310,779	179,911	-0,090	-0,090
311,793	-1,729	-0,146	-0,071
312,808	9,941	-0,206	-0,107
313,822	-101,248	-0,036	-0,006
314,837	526,250	-0,152	-0,247
315,852	-200,000	-0,008	-0,234
316,866	-68,631	-0,083	-0,022
317,881	87,849	-0,171	-0,130
318,895	-43,585	-0,189	-0,065
319,910	-147,370	-0,163	-0,009
320,925	149,690	-0,088	-0,082
321,939	800,000	-0,078	-0,214
322,954	800,000	-0,072	-0,165
323,968	-51,423	-0,197	-0,063
324,983	14,895	-0,059	-0,032
325,997	-148,863	-0,123	-0,007
327,012	115,751	-0,118	-0,099
328,027	237,083	-0,088	-0,100
329,041	13,162	-0,148	-0,078
330,056	-154,673	-0,236	0,011
331,070	800,000	-0,051	-0,112
332,085	-200,000	0,004	-0,098
333,100	-129,827	-0,193	-0,018
334,114	425,323	-0,146	-0,216
335,129	386,840	-0,092	-0,131
336,143	253,761	-0,041	-0,048
337,158	800,000	-0,055	-0,160
338,173	43,902	-0,135	-0,085
339,187	90,899	-0,090	-0,069
340,202	-140,191	-0,085	0,006
341,216	429,970	-0,118	-0,175
342,231	128,429	-0,166	-0,144
343,246	592,184	-0,091	-0,155
344,260	-63,060	-0,088	-0,025
345,275	800,000	-0,053	-0,129
346,289	191,888	-0,108	-0,111
347,304	800,000	-0,091	-0,187
348,319	-65,228	-0,205	-0,056
349,333	-97,360	-0,117	-0,021
350,348	135,812	-0,131	-0,116
351,362	232,454	-0,078	-0,088
352,377	-31,811	-0,049	0,019
353,392	146,441	-0,143	-0,131
354,406	42,916	-0,148	-0,092
355,421	206,937	1307,561	1394,777
356,435	159,172	1467,378	1395,252
