DTS Sentinel unit serial number:	SN410029Multiplexer serial number:	ORYXHardware model number:	OX2-SRSoftware version number:	ORYX F/W v4,00 Oryx Data Collector v3.7.2.0data status	okinstallation	B3 Nyhavnadifferential loss correction	single-endedforward channel	channel 1reverse channel	N/Adate	2023/12/01time	18:42:30forward acquisition time	300,00reverse acquisition time	0,00gamma	499,1914k internal	0,3201k external	0,3201temperature offset calibration	1,0000default loss term (dB/km)	0,3820temperature slope calibration	1,0000multiplexer offset coefficient	1,0000multiplexer slope coefficient	1,0000fibre end	0,00T internal ref (°C)	15,01T ext. ref 1 (°C)	1,01T ext. ref 2 (°C)	0,99length (m)	temperature (°C)	Stokes	anti-Stokes-744,400	713,109	-0,185	-0,359
-743,385	-200,000	0,090	0,315
-742,371	203,833	-0,086	-0,097
-741,356	-200,000	0,024	0,251
-740,342	181,971	-0,196	-0,210
-739,327	-200,000	-0,013	0,234
-738,312	205,698	-0,200	-0,227
-737,298	-200,000	0,034	0,468
-736,283	65,451	-0,223	-0,164
-735,269	-200,000	0,050	0,196
-734,254	229,825	-0,225	-0,268
-733,239	382,616	-0,164	0,247
-732,225	299,306	-0,249	-0,334
-731,210	103,405	0,173	0,148
-730,196	-200,000	-0,011	-0,106
-729,181	244,478	-0,054	-0,066
-728,167	-200,000	0,019	-0,140
-727,152	-27,626	-0,083	-0,035
-726,137	-200,000	0,016	-0,076
-725,123	-200,000	-0,016	0,057
-724,108	-89,916	-0,071	-0,015
-723,094	-79,831	0,070	-0,017
-722,079	-73,108	-0,084	0,022
-721,064	-200,000	-0,017	-0,083
-720,050	22,515	-0,091	0,054
-719,035	-95,022	-0,097	-0,019
-718,021	127,488	-0,081	-0,075
-717,006	-51,934	-0,098	-0,033
-715,991	342,856	-0,032	-0,046
-714,977	99,937	0,138	-0,116
-713,962	-34,526	0,017	-0,007
-712,948	330,609	-0,097	0,135
-711,933	-200,000	-0,022	0,071
-710,918	800,000	-0,066	0,155
-709,904	251,409	-0,064	0,080
-708,889	-95,173	-0,139	-0,027
-707,875	124,233	0,047	-0,043
-706,860	48,105	0,033	0,022
-705,845	274,231	0,051	0,066
-704,831	618,304	0,063	-0,115
-703,816	143,424	-0,023	0,022
-702,802	800,000	-0,026	0,058
-701,787	-25,167	-0,151	-0,065
-700,772	800,000	0,001	0,003
-699,758	-200,000	0,028	-0,115
-698,743	-178,547	0,079	-0,001
-697,729	-200,000	-0,022	0,117
-696,714	-200,000	-0,005	0,022
-695,699	800,000	0,027	0,067
-694,685	91,999	-0,084	0,068
-693,670	205,173	-0,054	-0,061
-692,656	800,000	-0,015	-0,030
-691,641	800,000	0,047	0,127
-690,627	-200,000	-0,008	0,126
-689,612	19,395	-0,046	0,027
-688,597	-200,000	0,008	-0,037
-687,583	88,439	-0,080	-0,065
-686,568	105,445	-0,218	-0,187
-685,554	526,578	-0,025	-0,042
-684,539	-200,000	-0,010	0,080
-683,524	234,557	0,020	-0,024
-682,510	-200,000	-0,003	-0,058
-681,495	17,374	0,052	0,030
-680,481	26,077	-0,129	-0,078
-679,466	800,000	-0,070	-0,142
-678,451	149,186	0,092	-0,090
-677,437	-29,101	-0,191	0,079
-676,422	-112,030	-0,117	-0,017
-675,408	220,254	-0,092	-0,107
-674,393	262,006	0,026	-0,032
-673,378	-131,343	-0,136	0,013
-672,364	-200,000	0,005	-0,030
-671,349	800,000	-0,024	-0,049
-670,335	-35,077	0,064	0,025
-669,320	1,101	0,082	0,043
-668,305	358,021	-0,051	0,074
-667,291	800,000	-0,033	0,089
-666,276	-200,000	-0,013	0,044
-665,262	-133,937	-0,061	-0,005
-664,247	-200,000	0,002	-0,122
-663,232	232,367	-0,084	-0,100
-662,218	800,000	-0,027	0,083
-661,203	-200,000	0,007	0,078
-660,189	-200,000	0,007	0,094
-659,174	-21,124	0,054	0,024
-658,159	472,916	-0,037	0,061
-657,145	-33,993	0,076	0,030
-656,130	800,000	0,075	-0,162
-655,116	-200,000	-0,011	-0,036
-654,101	454,431	0,031	-0,051
-653,086	800,000	0,010	-0,022
-652,072	-200,000	0,002	-0,104
-651,057	-54,801	0,058	-0,019
-650,043	-100,042	0,084	-0,015
-649,028	145,427	0,021	0,020
-648,014	-49,984	0,090	-0,031
-646,999	260,955	0,084	0,106
-645,984	218,392	-0,062	0,072
-644,970	394,383	-0,089	-0,134
-643,955	197,847	-0,063	-0,070
-642,941	-38,348	-0,075	0,029
-641,926	-158,480	0,102	-0,004
-640,911	57,526	-0,037	0,026
-639,897	-122,234	-0,106	-0,012
-638,882	419,493	-0,032	0,050
-637,868	-132,301	-0,028	-0,003
-636,853	21,267	-0,157	-0,092
-635,838	-200,000	0,007	0,068
-634,824	561,493	-0,055	-0,096
-633,809	40,324	-0,078	-0,050
-632,795	800,000	-0,064	-0,187
-631,780	-200,000	0,008	0,145
-630,765	446,502	0,044	-0,071
-629,751	130,863	-0,165	-0,153
-628,736	207,226	-0,053	-0,059
-627,722	800,000	0,094	-0,207
-626,707	-93,016	-0,126	-0,025
-625,692	114,856	-0,059	0,052
-624,678	221,250	0,054	0,063
-623,663	306,944	0,024	0,032
-622,649	-200,000	-0,014	-0,080
-621,634	205,241	-0,097	-0,109
-620,619	-200,000	-0,015	-0,129
-619,605	-61,876	0,151	-0,045
-618,590	-200,000	-0,023	0,082
-617,576	-18,863	0,060	-0,027
-616,561	800,000	-0,047	-0,143
-615,546	800,000	0,040	0,105
-614,532	63,934	0,029	0,021
-613,517	-200,000	0,018	-0,122
-612,503	136,904	-0,112	-0,106
-611,488	446,717	0,018	-0,029
-610,474	58,029	-0,093	0,066
-609,459	-146,459	-0,080	0,005
-608,444	84,196	0,066	0,052
-607,430	231,299	0,055	-0,066
-606,415	-200,000	0,025	-0,148
-605,401	116,545	-0,057	0,051
-604,386	-200,000	-0,005	0,120
-603,371	800,000	-0,036	0,072
-602,357	415,519	-0,105	-0,163
-601,342	800,000	-0,062	-0,154
-600,328	402,856	-0,114	-0,174
-599,313	-6,000	-0,135	-0,067
-598,298	-112,380	-0,043	0,006
-597,284	-200,000	0,011	-0,080
-596,269	385,490	-0,052	-0,078
-595,255	128,227	-0,016	-0,015
-594,240	800,000	0,030	0,087
-593,225	15,116	0,047	0,026
-592,211	13,910	-0,023	-0,013
-591,196	-200,000	0,002	-0,157
-590,182	-114,659	0,059	0,008
-589,167	800,000	-0,037	0,093
-588,152	-98,710	0,077	-0,014
-587,138	690,560	0,022	-0,042
-586,123	-200,000	-0,016	-0,104
-585,109	-167,035	-0,101	0,003
-584,094	194,080	0,066	-0,073
-583,079	390,302	0,087	-0,130
-582,065	-127,816	-0,103	0,011
-581,050	-200,000	0,002	0,045
-580,036	731,298	-0,048	-0,094
-579,021	108,344	0,132	-0,114
-578,006	-19,641	0,072	0,032
-576,992	34,900	0,030	-0,019
-575,977	294,012	0,044	0,059
-574,963	31,938	0,065	-0,040
-573,948	49,127	-0,026	0,018
-572,934	-179,820	0,136	0,002
-571,919	-65,360	-0,150	0,043
-570,904	-37,342	-0,061	-0,023
-569,890	141,596	0,080	-0,077
-568,875	-14,699	-0,043	-0,020
-567,861	800,000	0,024	-0,066
-566,846	-200,000	0,006	-0,083
-565,831	-86,116	-0,063	0,014
-564,817	13,695	-0,092	0,051
-563,802	-118,625	0,105	0,013
-562,788	-200,000	0,000	-0,088
-561,773	694,744	-0,054	-0,103
-560,758	-6,785	-0,021	-0,010
-559,744	104,313	0,032	0,027
-558,729	228,721	0,044	0,052
-557,715	-200,000	0,039	-0,141
-556,700	800,000	-0,077	-0,183
-555,685	-200,000	0,032	-0,141
-554,671	110,547	-0,013	0,011
-553,656	800,000	-0,047	0,098
-552,642	369,045	0,132	0,193
-551,627	-119,368	0,068	0,008
-550,612	491,847	0,052	-0,086
-549,598	24,732	0,048	-0,029
-548,583	-200,000	-0,007	0,129
-547,569	388,804	-0,015	0,023
-546,554	302,063	-0,020	0,027
-545,539	113,598	0,063	0,055
-544,525	-139,590	-0,070	0,005
-543,510	-51,264	-0,060	0,020
-542,496	422,853	0,122	-0,189
-541,481	800,000	0,020	-0,051
-540,466	-200,000	-0,060	0,200
-539,452	-37,408	-0,051	0,020
-538,437	800,000	0,060	-0,141
-537,423	800,000	-0,065	0,170
-536,408	-96,725	-0,117	0,022
-535,393	-200,000	0,003	-0,084
-534,379	692,222	0,054	-0,102
-533,364	219,452	0,022	0,025
-532,350	11,323	-0,023	-0,013
-531,335	-58,847	0,176	-0,055
-530,321	355,590	-0,070	0,101
-529,306	-38,015	-0,052	-0,020
-528,291	432,413	-0,076	-0,120
-527,277	-152,281	0,093	0,005
-526,262	-200,000	-0,008	-0,093
-525,248	-200,000	0,012	-0,070
-524,233	-200,000	0,021	0,140
-523,218	800,000	-0,050	0,137
-522,204	-37,904	0,104	0,040
-521,189	364,188	0,021	-0,030
-520,175	66,315	0,018	-0,013
-519,160	8,316	0,060	-0,033
-518,145	38,184	0,070	0,045
-517,131	-8,953	0,180	-0,086
-516,116	-31,395	-0,056	0,023
-515,102	-116,627	0,067	-0,009
-514,087	214,340	-0,029	0,033
-513,072	-172,361	-0,134	-0,003
-512,058	77,203	0,070	0,054
-511,043	29,889	-0,065	0,040
-510,029	-200,000	0,028	0,106
-509,014	40,069	0,034	0,022
-507,999	800,000	0,012	-0,033
-506,985	35,070	-0,031	-0,020
-505,970	800,000	0,023	0,070
-504,956	800,000	0,013	0,038
-503,941	-49,939	-0,140	0,048
-502,926	120,766	-0,002	-0,002
-501,912	-200,000	-0,009	-0,052
-500,897	-200,000	-0,034	0,144
-499,883	-200,000	0,014	0,058
-498,868	-53,140	0,020	0,006
-497,853	226,267	-0,033	0,039
-496,839	299,311	-0,080	0,106
-495,824	-87,272	0,052	0,011
-494,810	-58,496	-0,065	0,020
-493,795	20,529	0,059	-0,034
-492,781	-8,645	-0,134	-0,064
-491,766	259,716	0,037	-0,046
-490,751	-200,000	0,013	-0,135
-489,737	167,990	-0,022	0,022
-488,722	-200,000	-0,022	-0,087
-487,708	-200,000	-0,011	0,058
-486,693	-129,042	0,067	-0,007
-485,678	-200,000	-0,008	0,102
-484,664	114,216	-0,046	0,041
-483,649	-200,000	-0,012	-0,081
-482,635	-29,368	-0,096	-0,040
-481,620	656,618	0,071	0,133
-480,605	-120,097	0,058	-0,007
-479,591	-114,954	-0,032	0,004
-478,576	-91,282	-0,043	0,009
-477,562	-200,000	0,028	0,107
-476,547	800,000	0,108	-0,240
-475,532	-7,305	-0,011	0,005
-474,518	-200,000	-0,031	-0,144
-473,503	-68,953	0,169	-0,047
-472,489	-152,324	0,216	0,011
-471,474	-111,225	-0,122	-0,018
-470,459	71,093	-0,093	-0,070
-469,445	-122,348	0,013	-0,002
-468,430	-91,648	-0,110	-0,022
-467,416	-200,000	-0,009	0,050
-466,401	74,016	0,040	-0,030
-465,386	267,350	0,008	-0,010
-464,372	214,460	-0,075	-0,085
-463,357	708,898	0,084	-0,161
-462,343	-19,068	0,029	0,013
-461,328	800,000	0,002	-0,005
-460,313	-200,000	-0,006	-0,021
-459,299	70,433	0,110	0,082
-458,284	800,000	-0,051	0,152
-457,270	245,949	0,078	-0,094
-456,255	800,000	0,047	-0,126
-455,241	-68,768	-0,036	0,010
-454,226	44,304	-0,178	-0,117
-453,211	800,000	-0,046	-0,135
-452,197	-44,063	0,116	0,042
-451,182	-200,000	-0,008	0,036
-450,168	800,000	0,027	-0,080
-449,153	-156,970	-0,055	0,002
-448,138	-200,000	-0,022	-0,107
-447,124	800,000	-0,064	-0,143
-446,109	-200,000	0,003	-0,143
-445,095	212,898	0,078	0,088
-444,080	-110,419	0,215	0,032
-443,065	-200,000	0,050	-0,174
-442,051	-200,000	0,005	0,056
-441,036	4,548	-0,120	0,063
-440,022	61,234	-0,050	0,035
-439,007	0,150	0,121	0,062
-437,992	-56,733	0,103	0,032
-436,978	241,010	-0,038	0,045
-435,963	-200,000	0,004	0,053
-434,949	647,704	0,014	0,026
-433,934	326,052	-0,027	0,038
-432,919	458,711	-0,048	-0,077
-431,905	-200,000	0,000	0,014
-430,890	20,058	-0,190	-0,110
-429,876	-200,000	0,002	-0,031
-428,861	-200,000	-0,012	0,074
-427,846	448,811	0,009	0,014
-426,832	-21,330	-0,134	0,059
-425,817	-96,731	-0,013	0,002
-424,803	127,160	-0,063	-0,058
-423,788	-200,000	0,003	0,129
-422,773	29,031	0,104	0,063
-421,759	241,358	0,076	0,091
-420,744	46,916	-0,021	-0,014
-419,730	800,000	-0,006	0,014
-418,715	317,614	-0,070	-0,095
-417,701	56,566	-0,107	-0,074
-416,686	800,000	0,036	-0,085
-415,671	-200,000	0,025	0,128
-414,657	-200,000	-0,023	0,189
-413,642	27,743	-0,045	-0,027
-412,628	-200,000	0,001	-0,022
-411,613	-200,000	-0,018	0,075
-410,598	-200,000	-0,000	-0,009
-409,584	164,405	0,111	-0,113
-408,569	-148,814	-0,061	0,003
-407,555	62,595	-0,030	-0,021
-406,540	-105,566	-0,076	-0,012
-405,525	137,061	-0,057	-0,053
-404,511	-66,154	-0,024	-0,007
-403,496	800,000	-0,069	-0,203
-402,482	-200,000	0,006	-0,078
-401,467	70,883	0,085	0,063
-400,452	108,132	0,178	0,152
-399,438	71,107	-0,078	0,058
-398,423	-200,000	0,003	-0,034
-397,409	10,991	-0,052	-0,028
-396,394	231,277	-0,054	-0,063
-395,379	-115,166	-0,077	0,010
-394,365	800,000	0,017	0,052
-393,350	424,691	0,052	0,080
-392,336	-200,000	-0,002	0,012
-391,321	-200,000	-0,003	0,029
-390,306	800,000	-0,004	0,010
-389,292	51,545	-0,047	-0,032
-388,277	800,000	0,005	0,012
-387,263	-200,000	-0,003	-0,024
-386,248	643,798	0,103	0,189
-385,233	191,114	0,030	0,032
-384,219	-200,000	-0,009	0,034
-383,204	-200,000	0,037	-0,129
-382,190	-200,000	-0,015	-0,074
-381,175	52,053	0,084	0,057
-380,160	-21,177	0,223	0,097
-379,146	800,000	0,037	-0,081
-378,131	800,000	-0,083	0,167
-377,117	-29,294	0,127	0,052
-376,102	354,406	-0,056	-0,080
-375,088	800,000	0,055	-0,134
-374,073	47,627	0,108	-0,072
-373,058	-200,000	0,026	0,109
-372,044	576,875	0,075	0,132
-371,029	-200,000	-0,002	-0,083
-370,015	-200,000	-0,010	-0,066
-369,000	-43,188	-0,098	0,035
-367,985	-155,075	-0,180	-0,008
-366,971	-124,097	-0,057	0,006
-365,956	-55,573	-0,037	0,012
-364,942	-200,000	-0,015	0,050
-363,927	-20,882	0,183	-0,080
-362,912	-200,000	0,034	0,128
-361,898	800,000	0,024	0,070
-360,883	-67,171	-0,044	0,012
-359,869	197,244	0,081	-0,089
-358,854	145,645	0,141	0,135
-357,839	-46,906	0,056	0,020
-356,825	175,257	-0,128	0,133
-355,810	800,000	-0,069	0,162
-354,796	364,466	0,057	0,082
-353,781	-135,258	-0,088	-0,007
-352,766	-44,402	-0,041	-0,015
-351,752	206,485	-0,067	0,075
-350,737	-200,000	0,012	0,054
-349,723	-200,000	0,007	0,047
-348,708	-200,000	-0,002	0,106
-347,693	745,090	-0,017	0,032
-346,679	69,421	0,112	0,082
-345,664	-21,994	-0,120	-0,052
-344,650	-125,134	-0,078	-0,008
-343,635	744,566	0,077	-0,150
-342,620	-200,000	-0,011	0,175
-341,606	-122,653	0,141	-0,016
-340,591	-200,000	0,012	0,039
-339,577	196,258	-0,067	-0,074
-338,562	-149,332	0,125	-0,007
-337,548	738,849	-0,067	0,130
-336,533	800,000	0,014	0,040
-335,518	-91,171	0,148	0,030
-334,504	-129,702	-0,124	-0,012
-333,489	-119,662	0,062	-0,008
-332,475	338,424	0,110	-0,154
-331,460	534,881	-0,017	-0,029
-330,445	-200,000	-0,005	-0,041
-329,431	622,201	-0,041	0,073
-328,416	43,031	0,152	0,099
-327,402	-200,000	0,062	0,209
-326,387	608,094	-0,048	0,085
-325,372	212,678	-0,074	-0,083
-324,358	-86,643	0,173	-0,038
-323,343	800,000	-0,049	-0,129
-322,329	-200,000	-0,020	0,128
-321,314	12,975	0,065	0,036
-320,299	-86,931	0,145	0,031
-319,285	-200,000	0,028	0,157
-318,270	-200,000	-0,005	0,052
-317,256	-74,535	0,057	0,015
-316,241	-200,000	-0,029	-0,094
-315,226	81,679	0,050	0,039
-314,212	762,840	0,069	-0,134
-313,197	-200,000	0,019	0,061
-312,183	-182,083	-0,050	0,001
-311,168	12,605	-0,137	-0,076
-310,153	427,338	-0,045	-0,070
-309,139	616,925	0,056	-0,100
-308,124	-200,000	-0,029	0,158
-307,110	800,000	0,027	0,081
-306,095	-65,896	0,065	0,018
-305,080	55,413	0,051	0,035
-304,066	16,089	-0,107	-0,060
-303,051	-41,543	0,076	0,028
-302,037	-200,000	-0,068	-0,223
-301,022	800,000	-0,014	-0,029
-300,008	-124,994	-0,024	0,003
-298,993	-101,599	0,097	0,017
-297,978	800,000	0,020	-0,040
-296,964	800,000	0,023	-0,053
-295,949	29,785	-0,063	0,038
-294,935	-92,791	-0,096	-0,019
-293,920	800,000	0,046	-0,098
-292,905	-200,000	0,014	0,121
-291,891	129,423	0,136	0,124
-290,876	385,614	-0,014	0,021
-289,862	-200,000	0,004	0,109
-288,847	800,000	-0,052	0,165
-287,832	-200,000	-0,003	-0,096
-286,818	273,828	0,028	0,036
-285,803	369,834	-0,084	0,122
-284,789	-151,578	0,096	0,005
-283,774	503,427	0,049	0,082
-282,759	2,723	-0,063	-0,032
-281,745	322,181	-0,078	0,106
-280,730	-200,000	0,026	-0,146
-279,716	800,000	-0,003	-0,005
-278,701	-200,000	-0,028	-0,108
-277,686	800,000	0,033	0,070
-276,672	-200,000	-0,012	0,106
-275,657	-18,773	-0,046	0,021
-274,643	800,000	0,036	0,084
-273,628	-197,623	-0,029	0,000
-272,613	-200,000	-0,045	0,165
-271,599	471,369	-0,019	-0,031
-270,584	167,946	-0,060	0,061
-269,570	419,859	-0,038	0,058
-268,555	-86,745	0,054	-0,012
-267,540	174,810	-0,050	-0,051
-266,526	-72,851	-0,095	-0,025
-265,511	186,846	-0,038	-0,040
-264,497	800,000	-0,022	0,055
-263,482	18,969	0,113	0,064
-262,467	-200,000	0,008	0,074
-261,453	155,335	0,031	-0,030
-260,438	266,471	-0,036	-0,045
-259,424	130,189	-0,040	0,037
-258,409	320,440	0,082	0,112
-257,395	-55,751	-0,115	0,036
-256,380	800,000	-0,021	-0,053
-255,365	191,604	-0,048	0,052
-254,351	-20,308	-0,077	0,033
-253,336	248,121	0,079	-0,096
-252,322	800,000	-0,023	-0,060
-251,307	208,741	-0,027	0,031
-250,292	28,991	0,112	0,067
-249,278	492,859	0,019	0,032
-248,263	-106,196	0,064	0,010
-247,249	337,223	-0,044	0,062
-246,234	112,559	0,008	-0,007
-245,219	203,478	-0,081	0,090
-244,205	-200,000	0,002	0,028
-243,190	-126,468	0,154	0,016
-242,176	800,000	-0,103	0,234
-241,161	-200,000	-0,007	-0,033
-240,146	-200,000	0,010	0,063
-239,132	-126,411	0,071	-0,007
-238,117	-200,000	-0,002	-0,069
-237,103	275,264	0,046	0,058
-236,088	-121,664	-0,090	-0,010
-235,073	127,266	0,093	0,084
-234,059	-200,000	0,026	0,089
-233,044	-200,000	-0,023	0,103
-232,030	800,000	0,010	-0,025
-231,015	594,740	0,030	-0,053
-230,000	-199,353	-0,117	-0,000
-228,986	94,164	-0,036	0,029
-227,971	19,675	0,074	0,042
-226,957	216,456	-0,015	0,017
-225,942	218,694	0,012	-0,014
-224,927	48,114	0,056	0,037
-223,913	-134,469	-0,102	-0,009
-222,898	100,392	-0,073	-0,060
-221,884	-82,997	-0,156	0,035
-220,869	800,000	0,066	0,172
-219,855	800,000	-0,028	0,076
-218,840	-171,852	0,127	-0,003
-217,825	-57,047	0,062	-0,019
-216,811	-200,000	-0,001	-0,024
-215,796	-3,087	-0,044	0,022
-214,782	115,839	-0,083	0,073
-213,767	800,000	0,022	-0,050
-212,752	-33,553	-0,114	0,045
-211,738	102,728	-0,084	-0,070
-210,723	800,000	0,037	0,093
-209,709	-200,000	-0,005	-0,067
-208,694	800,000	0,033	0,082
-207,679	-200,000	0,015	-0,109
-206,665	-110,867	0,119	0,017
-205,650	-94,698	0,056	-0,011
-204,636	800,000	0,014	-0,032
-203,621	-125,614	0,042	-0,005
-202,606	154,743	-0,079	-0,077
-201,592	-167,167	0,061	0,002
-200,577	-200,000	-0,031	-0,128
-199,563	527,446	0,023	-0,038
-198,548	2,096	0,110	0,056
-197,533	136,286	0,085	0,079
-196,519	-95,921	0,008	-0,001
-195,504	800,000	0,023	-0,050
-194,490	-200,000	-0,010	-0,057
-193,475	800,000	-0,052	-0,158
-192,460	-80,756	0,092	-0,022
-191,446	-200,000	-0,003	-0,115
-190,431	-200,000	-0,021	0,119
-189,417	-200,000	0,026	-0,084
-188,402	-200,000	0,022	0,121
-187,387	10,207	0,138	0,074
-186,373	-200,000	-0,013	0,078
-185,358	-200,000	-0,026	-0,148
-184,344	-200,000	0,009	0,059
-183,329	800,000	0,042	0,129
-182,315	147,235	0,036	-0,034
-181,300	-6,032	-0,045	0,022
-180,285	800,000	-0,040	0,082
-179,271	-200,000	-0,031	0,137
-178,256	-200,000	0,006	-0,053
-177,242	198,036	0,102	0,111
-176,227	100,841	-0,118	0,097
-175,212	37,275	0,101	-0,064
-174,198	202,246	-0,050	0,055
-173,183	254,853	-0,160	-0,195
-172,169	800,000	0,036	-0,079
-171,154	528,237	-0,023	-0,039
-170,139	67,223	-0,030	-0,021
-169,125	82,019	-0,043	-0,033
-168,110	107,701	0,083	0,071
-167,096	186,746	0,052	-0,055
-166,081	82,826	-0,099	-0,077
-165,066	10,954	0,075	0,041
-164,052	800,000	-0,023	0,071
-163,037	-200,000	-0,017	-0,159
-162,023	-42,350	0,107	-0,039
-161,008	-145,812	0,023	0,001
-159,993	800,000	-0,011	-0,025
-158,979	-173,487	-0,149	-0,003
-157,964	-200,000	-0,010	-0,038
-156,950	42,564	-0,137	-0,088
-155,935	800,000	0,035	-0,080
-154,920	-200,000	-0,030	0,128
-153,906	-200,000	0,020	0,068
-152,891	800,000	0,022	-0,046
-151,877	800,000	-0,010	0,020
-150,862	460,152	-0,060	-0,095
-149,847	325,891	-0,081	-0,111
-148,833	746,559	0,083	-0,159
-147,818	-2,388	-0,058	0,029
-146,804	-104,042	-0,086	0,014
-145,789	-200,000	0,052	0,240
-144,775	-200,000	-0,067	0,000
-143,760	-200,000	-0,003	-0,014
-142,745	12,007	-0,118	-0,064
-141,731	139,076	-0,097	-0,091
-140,716	-57,308	0,066	-0,021
-139,702	-53,927	-0,092	0,030
-138,687	-200,000	-0,007	0,029
-137,672	800,000	-0,043	-0,098
-136,658	-59,816	-0,079	0,024
-135,643	-72,556	0,025	0,007
-134,629	800,000	0,032	-0,091
-133,614	45,925	0,113	-0,074
-132,599	115,092	0,067	0,058
-131,585	410,293	0,031	0,047
-130,570	-83,697	-0,137	0,031
-129,556	-200,000	-0,005	-0,021
-128,541	-33,447	-0,120	-0,047
-127,526	196,411	0,068	-0,074
-126,512	26,521	0,108	-0,064
-125,497	213,911	0,010	0,011
-124,483	128,108	-0,091	0,083
-123,468	-15,981	0,064	-0,029
-122,453	-200,000	-0,006	0,045
-121,439	-72,830	-0,013	0,003
-120,424	233,098	-0,064	-0,075
-119,410	799,864	0,045	0,089
-118,395	112,583	0,062	-0,053
-117,380	-200,000	0,023	0,112
-116,366	-200,000	0,005	0,024
-115,351	49,711	-0,131	0,087
-114,337	800,000	0,008	0,016
-113,322	-200,000	-0,009	0,029
-112,307	11,500	-0,093	0,051
-111,293	-188,870	-0,063	-0,001
-110,278	-74,806	0,060	0,015
-109,264	800,000	-0,075	0,202
-108,249	195,597	-0,068	-0,073
-107,234	70,302	-0,110	-0,081
-106,220	-42,927	0,058	0,021
-105,205	-18,240	-0,004	-0,002
-104,191	227,236	-0,064	-0,073
-103,176	149,061	0,110	0,105
-102,162	-96,098	-0,080	-0,015
-101,147	213,967	0,023	0,026
-100,132	-108,063	-0,060	0,009
-99,118	-200,000	0,003	-0,149
-98,103	-36,806	-0,110	-0,042
-97,089	-131,983	-0,155	0,014
-96,074	-200,000	-0,002	0,080
-95,059	221,133	-0,062	0,070
-94,045	-200,000	-0,012	-0,130
-93,030	65,233	-0,075	0,053
-92,016	-114,526	-0,084	-0,011
-91,001	-200,000	0,014	0,073
-89,986	-94,642	-0,119	0,023
-88,972	-51,432	0,102	-0,033
-87,957	-20,898	0,192	0,083
-86,943	63,365	-0,084	-0,060
-85,928	149,564	0,091	-0,087
-84,913	746,629	-0,009	-0,016
-83,899	-47,850	-0,150	0,051
-82,884	545,381	0,056	0,095
-81,870	-34,639	0,100	-0,039
-80,855	-24,805	0,027	-0,011
-79,840	148,733	-0,111	-0,106
-78,826	-93,913	-0,192	0,037
-77,811	800,000	-0,055	-0,114
-76,797	132,855	-0,115	0,106
-75,782	-200,000	0,025	-0,099
-74,767	152,363	0,043	-0,042
-73,753	172,216	0,083	0,084
-72,738	-115,768	0,113	-0,015
-71,724	38,482	-0,148	-0,094
-70,709	300,920	-0,054	-0,071
-69,694	-133,816	-0,168	-0,015
-68,680	800,000	-0,029	-0,081
-67,665	118,361	0,086	-0,075
-66,651	800,000	-0,052	0,114
-65,636	525,301	0,043	0,072
-64,622	-51,988	-0,062	-0,020
-63,607	312,094	-0,073	-0,097
-62,592	800,000	-0,080	-0,181
-61,578	-34,974	0,049	0,019
-60,563	-29,454	0,139	-0,056
-59,549	-200,000	0,012	0,095
-58,534	-84,136	-1,481	-0,330
-57,519	463,120	-1,482	-2,352
-56,505	-200,000	-0,453	-4,422
-55,490	168,548	0,856	0,864
-54,476	800,000	4,833	11,216
-53,461	-200,000	18,029	286,405
-52,446	800,000	724,569	2222,958
-51,432	556,244	1639,130	2805,874
-50,417	79,417	1661,668	1260,275
-49,403	22,912	1535,444	888,748
-48,388	16,912	1459,042	815,547
-47,373	17,849	1448,907	814,350
-46,359	17,271	1439,371	806,199
-45,344	15,115	1434,789	793,338
-44,330	15,066	1432,763	791,953
-43,315	15,109	1431,017	791,163
-42,300	15,108	1429,391	790,226
-41,286	15,117	1428,396	789,686
-40,271	15,090	1427,144	788,833
-39,257	15,074	1425,781	787,978
-38,242	15,118	1424,571	787,482
-37,227	15,136	1423,247	786,804
-36,213	15,099	1422,191	786,018
-35,198	15,090	1420,779	785,162
-34,184	15,162	1419,917	784,995
-33,169	15,058	1418,668	783,780
-32,154	15,092	1417,825	783,447
-31,140	15,146	1416,389	782,876
-30,125	15,166	1415,337	782,356
-29,111	15,139	1414,172	781,554
-28,096	15,063	1413,319	780,697
-27,082	15,075	1411,946	779,964
-26,067	15,042	1410,849	779,170
-25,052	15,084	1409,512	778,598
-24,038	14,993	1408,889	777,796
-23,023	15,005	1407,800	777,223
-22,009	15,048	1406,735	776,801
-20,994	14,928	1406,134	775,879
-19,979	14,984	1405,063	775,521
-18,965	14,966	1403,943	774,788
-17,950	15,000	1403,003	774,395
-16,936	14,973	1402,010	773,690
-15,921	14,962	1400,884	772,988
-14,906	14,951	1399,987	772,411
-13,892	14,915	1399,320	771,848
-12,877	14,948	1398,253	771,381
-11,863	14,937	1397,352	770,801
-10,848	14,905	1396,359	770,075
-9,833	14,925	1395,347	769,576
-8,819	14,891	1394,588	768,972
-7,804	14,848	1393,705	768,253
-6,790	14,841	1392,501	767,530
-5,775	14,903	1391,514	767,240
-4,760	14,842	1390,770	766,518
-3,746	14,823	1390,080	766,022
-2,731	14,839	1389,134	765,542
-1,717	14,816	1388,343	764,970
-0,702	14,792	1386,513	763,819
0,313	18,688	1306,287	737,589
1,327	35,071	706,472	436,834
2,342	54,323	124,731	84,822
3,356	1,970	16,683	8,488
4,371	8,403	3,072	1,629
5,386	-54,207	0,578	0,185
6,400	448,619	0,023	0,036
7,415	0,547	-0,237	-0,119
8,429	7,698	-0,332	-0,175
9,444	159,201	-0,271	-0,266
10,459	88,816	-0,207	-0,163
11,473	39,556	-0,296	-0,187
12,488	-6,973	-0,320	-0,153
13,502	-35,618	-0,297	-0,113
14,517	334,427	-0,209	-0,286
15,531	271,874	-0,270	-0,337
16,546	63,905	-0,429	-0,305
17,561	128,505	-0,427	-0,384
18,575	-88,364	-0,235	-0,049
19,590	297,070	-0,156	-0,202
20,604	88,288	-0,175	-0,137
21,619	131,156	-0,332	-0,301
22,634	57,277	-0,497	-0,342
23,648	45,227	-0,416	-0,270
24,663	56,079	-0,413	-0,283
25,677	61,307	-0,215	-0,151
26,692	48,850	-0,354	-0,234
27,707	21,048	-0,380	-0,217
28,721	53,576	-0,385	-0,260
29,736	157,261	-0,312	-0,305
30,750	141,710	-0,367	-0,344
31,765	-14,755	-0,368	-0,166
32,780	19,063	-0,363	-0,205
33,794	126,698	-0,370	-0,331
34,809	-9,960	-0,306	-0,143
35,823	22,944	-0,411	-0,237
36,838	367,333	-0,208	-0,297
37,853	17,414	-0,347	-0,194
38,867	43,994	-0,297	-0,192
39,882	17,505	-0,383	-0,214
40,896	228,074	-0,215	-0,248
41,911	43,558	-0,334	-0,215
42,926	-80,677	-0,443	-0,103
43,940	-0,537	-0,417	-0,208
44,955	234,497	-0,229	-0,267
45,969	20,358	-0,458	-0,260
46,984	4,040	-0,264	-0,135
47,999	52,973	-0,387	-0,261
49,013	265,512	-0,248	-0,305
50,028	29,376	-0,321	-0,192
51,042	72,135	-0,363	-0,266
52,057	-12,059	-0,306	-0,141
53,071	48,125	-0,467	-0,307
54,086	-12,736	-0,349	-0,159
55,101	13,264	-0,353	-0,192
56,115	29,867	-0,297	-0,178
57,130	147,422	-0,360	-0,342
58,144	72,292	-0,448	-0,328
59,159	249,981	-0,328	-0,392
60,174	29,305	-0,484	-0,288
61,188	3,109	-0,295	-0,151
62,203	-31,561	-0,460	-0,181
63,217	70,483	-0,269	-0,195
64,232	-52,893	-0,346	-0,111
65,247	68,103	-0,422	-0,304
66,261	103,858	-0,327	-0,270
67,276	49,452	-0,297	-0,196
68,290	28,280	-0,395	-0,234
69,305	154,116	-0,307	-0,296
70,320	82,042	-0,227	-0,173
71,334	22,482	-0,286	-0,164
72,349	11,416	-0,345	-0,185
73,363	87,626	-0,320	-0,249
74,378	73,221	-0,368	-0,271
75,393	33,020	-0,252	-0,153
76,407	-61,957	-0,329	-0,096
77,422	48,037	-0,313	-0,205
78,436	15,783	-0,277	-0,153
79,451	-12,051	-0,316	-0,145
80,466	-14,684	-0,331	-0,149
81,480	90,142	-0,281	-0,221
82,495	-67,963	-0,384	-0,105
83,509	209,677	-0,272	-0,299
84,524	103,609	-0,304	-0,251
85,539	-28,128	-0,205	-0,083
86,553	-6,994	-0,258	-0,122
87,568	800,000	-0,174	-0,405
88,582	125,052	-0,327	-0,290
89,597	124,516	-0,352	-0,311
90,611	493,451	-0,137	-0,222
91,626	172,304	-0,186	-0,188
92,641	101,594	-0,208	-0,170
93,655	136,087	-0,227	-0,207
94,670	195,612	-0,267	-0,285
95,684	138,610	-0,250	-0,230
96,699	136,446	-0,273	-0,250
97,714	110,782	-0,203	-0,171
98,728	224,815	-0,204	-0,232
99,743	376,125	-0,195	-0,280
100,757	130,088	-0,294	-0,264
101,772	-74,606	-0,151	-0,038
102,787	182,430	-0,204	-0,211
103,801	-74,107	-0,320	-0,081
104,816	105,818	-0,231	-0,191
105,830	-27,577	-0,253	-0,102
106,845	44,464	-0,287	-0,184
107,860	-53,962	-0,308	-0,098
108,874	178,183	-0,160	-0,164
109,889	195,216	-0,247	-0,263
110,903	71,778	-0,254	-0,185
111,918	332,623	-0,179	-0,242
112,933	8,537	-0,190	-0,100
113,947	25,775	-0,220	-0,128
114,962	-67,680	-0,346	-0,094
115,976	179,642	-0,300	-0,308
116,991	-74,229	-0,335	-0,084
118,006	-8,971	-0,330	-0,154
119,020	128,422	-0,277	-0,247
120,035	91,608	-0,276	-0,217
121,049	-73,340	-0,216	-0,055
122,064	36,741	-0,251	-0,155
123,079	494,445	-0,097	-0,156
124,093	168,424	-0,227	-0,227
125,108	129,927	-0,253	-0,226
126,122	-83,286	-0,148	-0,033
127,137	69,054	-0,260	-0,187
128,151	343,998	-0,103	-0,142
129,166	160,787	-0,232	-0,227
130,181	11,719	-0,383	-0,205
131,195	17,091	-0,172	-0,095
132,210	164,594	-0,316	-0,312
133,224	118,854	-0,251	-0,217
134,239	225,114	-0,282	-0,320
135,254	80,296	-0,205	-0,154
136,268	-8,775	-0,166	-0,078
137,283	76,994	-0,198	-0,147
138,297	347,827	-0,230	-0,317
139,312	-21,295	-0,235	-0,100
140,327	-45,806	-0,260	-0,089
141,341	182,581	-0,208	-0,215
142,356	-121,934	-0,108	0,012
143,370	18,284	-0,296	-0,165
144,385	-75,962	-0,143	-0,035
145,400	47,087	-0,186	-0,121
146,414	95,518	-0,282	-0,224
147,429	121,629	-0,283	-0,247
148,443	65,644	-0,240	-0,170
149,458	97,354	-0,277	-0,222
150,473	800,000	-0,150	-0,302
151,487	157,088	-0,393	-0,380
152,502	330,672	-0,163	-0,220
153,516	54,820	-0,273	-0,184
154,531	34,945	-0,278	-0,169
155,546	-45,082	-0,339	-0,117
156,560	370,690	-0,188	-0,267
157,575	-53,646	-0,332	-0,105
158,589	800,000	-0,114	-0,318
159,604	175,156	-0,189	-0,191
160,619	77,634	-0,173	-0,129
161,633	-9,891	-0,263	-0,121
162,648	13,273	-0,333	-0,179
163,662	-60,511	-0,216	-0,064
164,677	-159,384	-0,279	-0,011
165,692	63,430	-0,261	-0,182
166,706	6,025	-0,220	-0,113
167,721	16,290	-0,271	-0,149
168,735	9,825	-0,266	-0,141
169,750	800,000	-0,137	-0,287
170,764	175,760	-0,200	-0,202
171,779	-93,166	-0,271	-0,052
172,794	557,459	-0,141	-0,237
173,808	305,720	-0,137	-0,178
174,823	47,800	-0,269	-0,175
175,837	183,464	-0,274	-0,283
176,852	179,054	-0,270	-0,276
177,867	194,816	-0,115	-0,122
178,881	-112,865	-0,166	0,023
179,896	85,936	-0,188	-0,144
180,910	115,423	-0,163	-0,139
181,925	167,368	-0,239	-0,236
182,940	85,952	-0,264	-0,202
183,954	-76,863	-0,227	-0,055
184,969	7,291	-0,221	-0,114
185,983	104,596	-0,223	-0,183
186,998	246,929	-0,209	-0,246
188,013	-53,582	-0,269	-0,085
189,027	95,318	-0,319	-0,253
190,042	168,131	-0,197	-0,195
191,056	47,495	-0,238	-0,154
192,071	106,515	-0,274	-0,226
193,086	220,519	-0,209	-0,234
194,100	325,609	-0,114	-0,152
195,115	100,764	-0,083	0,067
196,129	111,389	-0,218	-0,183
197,144	116,174	-0,244	-0,208
198,159	126,471	-0,162	-0,143
199,173	104,052	-0,106	-0,086
200,188	37,426	-0,171	-0,105
201,202	-108,038	-0,223	0,033
202,217	403,174	-0,101	-0,148
203,232	-149,645	-0,280	-0,015
204,246	192,038	-0,253	-0,265
205,261	366,450	-0,148	-0,208
206,275	186,388	-0,136	-0,141
207,290	22,103	-0,156	-0,088
208,304	1,437	-0,320	-0,159
209,319	116,799	-0,193	-0,164
210,334	113,257	-0,136	-0,115
211,348	-16,515	-0,255	-0,112
212,363	-32,263	-0,278	-0,107
213,377	631,560	-0,094	-0,165
214,392	11,966	-0,243	-0,129
215,407	-23,624	-0,229	-0,095
216,421	-145,483	-0,160	0,010
217,436	-92,758	-0,248	-0,048
218,450	187,879	-0,216	-0,224
219,465	126,189	-0,237	-0,208
220,480	187,085	-0,214	-0,221
221,494	356,934	-0,100	-0,138
222,509	-71,472	-0,212	-0,055
223,523	270,987	-0,083	-0,102
224,538	42,667	-0,206	-0,130
225,553	101,543	-0,282	-0,228
226,567	149,163	-0,230	-0,216
227,582	86,187	-0,352	-0,268
228,596	43,172	-0,197	-0,124
229,611	79,764	-0,072	-0,053
230,626	45,731	-0,086	-0,055
231,640	-66,955	-0,173	0,047
232,655	-200,000	-0,045	-0,243
233,669	19,231	-0,213	-0,118
234,684	76,003	-0,175	-0,128
235,699	302,002	-0,147	-0,189
236,713	52,843	-0,169	-0,112
237,728	47,495	-0,142	-0,091
238,742	-72,789	-0,147	0,037
239,757	65,989	-0,235	-0,165
240,772	84,858	-0,174	-0,132
241,786	35,976	-0,148	-0,090
242,801	36,961	-0,155	-0,095
243,815	0,531	-0,098	-0,048
244,830	-32,563	-0,174	-0,067
245,844	-71,059	-0,168	-0,043
246,859	491,565	-0,100	-0,159
247,874	526,763	-0,167	-0,273
248,888	-75,408	-0,284	-0,069
249,903	-200,000	-0,013	-0,153
250,917	-65,761	-0,153	-0,042
251,932	800,000	-0,067	-0,160
252,947	800,000	-0,041	-0,104
253,961	38,151	-0,210	-0,129
254,976	55,924	-0,274	-0,183
255,990	-200,000	-0,060	-0,202
257,005	356,857	-0,148	-0,205
258,020	70,661	-0,222	-0,159
259,034	-25,432	-0,146	-0,060
260,049	29,727	-0,182	-0,107
261,063	800,000	-0,107	-0,219
262,078	356,511	-0,152	-0,210
263,093	118,541	-0,252	-0,215
264,107	343,756	-0,115	-0,156
265,122	80,742	-0,203	-0,151
266,136	12,875	-0,111	-0,059
267,151	-106,937	-0,187	-0,028
268,166	112,819	-0,109	-0,091
269,180	-48,208	-0,225	-0,075
270,195	800,000	-0,149	-0,323
271,209	-200,000	-0,006	-0,136
272,224	34,934	-0,144	-0,087
273,239	65,817	-0,047	-0,033
274,253	-150,233	-0,103	0,005
275,268	477,798	-0,146	-0,228
276,282	303,338	-0,161	-0,207
277,297	-106,922	-0,334	-0,051
278,312	140,400	-0,145	-0,133
279,326	-11,824	-0,173	-0,078
280,341	-33,984	-0,173	-0,066
281,355	162,497	-0,101	-0,098
282,370	24,127	-0,188	-0,107
283,384	535,252	-0,135	-0,222
284,399	48,018	-0,206	-0,132
285,414	16,709	-0,191	-0,104
286,428	76,958	-0,119	-0,087
287,443	92,794	-0,228	-0,178
288,457	-78,595	-0,152	0,036
289,472	8,192	-0,193	-0,100
290,487	800,000	-0,048	-0,119
291,501	197,225	-0,138	-0,145
292,516	141,329	-0,123	-0,112
293,530	354,039	-0,086	-0,118
294,545	-33,779	-0,147	0,055
295,560	-91,866	-0,155	0,030
296,574	120,043	-0,161	-0,138
297,589	-200,000	-0,040	-0,145
298,603	800,000	-0,132	-0,265
299,618	80,033	-0,225	-0,167
300,633	175,066	-0,122	-0,122
301,647	45,659	-0,144	-0,091
302,662	562,407	-0,070	-0,118
303,676	134,001	-0,202	-0,180
304,691	800,000	-0,034	-0,085
305,706	800,000	-0,035	-0,089
306,720	-121,558	-0,106	0,012
307,735	-88,052	-0,218	0,045
308,749	-17,675	-0,161	-0,070
309,764	-200,000	-0,011	-0,116
310,779	-0,843	-0,091	0,044
311,793	539,334	-0,101	-0,166
312,808	102,135	-0,124	-0,099
313,822	-150,844	-0,173	0,009
314,837	123,859	-0,181	-0,156
315,852	434,241	-0,132	-0,197
316,866	391,747	-0,160	-0,230
317,881	321,742	-0,123	-0,162
318,895	67,547	-0,151	-0,106
319,910	-8,588	-0,157	-0,072
320,925	-16,128	-0,189	-0,082
321,939	-95,310	-0,228	-0,042
322,954	-70,827	-0,097	0,025
323,968	-200,000	-0,023	-0,094
324,983	800,000	-0,119	-0,231
325,997	212,003	-0,056	-0,061
327,012	0,557	-0,131	-0,064
328,027	65,431	-0,171	-0,119
329,041	54,465	-0,130	-0,086
330,056	96,044	-0,118	-0,093
331,070	159,877	-0,066	0,063
332,085	126,226	-0,053	-0,046
333,100	152,045	-0,063	-0,059
334,114	58,720	-0,171	-0,115
335,129	-25,856	-0,152	-0,061
336,143	-117,391	-0,166	0,020
337,158	-200,000	-0,089	-0,000
338,173	-9,406	-0,079	0,036
339,187	-118,649	-0,085	-0,010
340,202	51,337	-0,137	0,089
341,216	22,373	-0,188	-0,105
342,231	75,281	-0,185	-0,134
343,246	344,020	-0,187	-0,253
344,260	-200,000	-0,000	-0,056
345,275	-200,000	0,009	-0,048
346,289	-86,631	-0,087	0,018
347,304	-46,588	-0,277	-0,093
348,319	-147,477	-0,167	0,010
349,333	800,000	-0,103	-0,199
350,348	800,000	-0,036	-0,096
351,362	-83,470	-0,093	0,020
352,377	800,000	-0,025	0,053
353,392	96,375	-0,150	-0,118
354,406	126,040	-0,074	-0,065
355,421	209,000	1314,055	1412,678
356,435	160,839	1474,717	1413,195
