DTS Sentinel unit serial number:	SN410029Multiplexer serial number:	ORYXHardware model number:	OX2-SRSoftware version number:	ORYX F/W v4,00 Oryx Data Collector v3.7.2.0data status	okinstallation	B3 Nyhavnadifferential loss correction	single-endedforward channel	channel 1reverse channel	N/Adate	2023/12/04time	14:22:30forward acquisition time	300,00reverse acquisition time	0,00gamma	499,1914k internal	0,3201k external	0,3201temperature offset calibration	1,0000default loss term (dB/km)	0,3820temperature slope calibration	1,0000multiplexer offset coefficient	1,0000multiplexer slope coefficient	1,0000fibre end	0,00T internal ref (°C)	15,00T ext. ref 1 (°C)	0,18T ext. ref 2 (°C)	0,17length (m)	temperature (°C)	Stokes	anti-Stokes-744,400	11,277	-0,382	-0,212
-743,385	-200,000	0,091	0,424
-742,371	-200,000	-0,030	-0,166
-741,356	-200,000	-0,030	0,267
-740,342	121,206	-0,129	-0,117
-739,327	-200,000	-0,029	0,210
-738,312	323,433	-0,182	-0,253
-737,298	800,000	-0,079	0,239
-736,283	-200,000	-0,018	-0,273
-735,269	-200,000	0,017	0,339
-734,254	-31,288	-0,191	-0,078
-733,239	-200,000	-0,024	0,135
-732,225	367,708	-0,087	-0,128
-731,210	800,000	0,045	0,096
-730,196	-9,699	-0,086	-0,041
-729,181	-141,283	-0,094	0,007
-728,167	-95,445	-0,113	0,022
-727,152	-92,657	-0,082	-0,017
-726,137	-200,000	-0,030	0,103
-725,123	38,152	-0,177	0,114
-724,108	18,577	-0,102	-0,059
-723,094	683,081	-0,083	-0,158
-722,079	-200,000	-0,015	-0,055
-721,064	-200,000	0,048	0,182
-720,050	800,000	0,045	-0,104
-719,035	3,895	-0,098	0,052
-718,021	-168,803	-0,192	0,005
-717,006	-200,000	0,002	-0,107
-715,991	111,897	-0,063	-0,056
-714,977	138,165	-0,142	-0,136
-713,962	122,101	0,072	-0,065
-712,948	399,071	0,049	-0,075
-711,933	800,000	0,030	-0,096
-710,918	124,601	0,076	0,069
-709,904	800,000	0,021	-0,059
-708,889	-200,000	0,008	-0,040
-707,875	119,003	-0,062	-0,056
-706,860	-200,000	-0,014	0,063
-705,845	-17,256	0,052	-0,024
-704,831	-200,000	0,034	-0,115
-703,816	-200,000	-0,011	0,047
-702,802	800,000	-0,008	0,021
-701,787	-34,234	-0,130	-0,052
-700,772	-44,902	-0,146	-0,053
-699,758	-10,911	0,171	-0,082
-698,743	-0,021	-0,036	0,018
-697,729	-200,000	0,001	0,027
-696,714	569,989	0,060	-0,107
-695,699	474,290	-0,022	0,036
-694,685	706,245	-0,040	-0,078
-693,670	249,623	-0,058	-0,071
-692,656	-21,801	-0,101	-0,044
-691,641	371,547	0,033	-0,049
-690,627	33,070	0,028	0,018
-689,612	28,643	0,029	0,018
-688,597	212,346	-0,063	-0,072
-687,583	-200,000	0,043	-0,215
-686,568	44,331	-0,097	-0,065
-685,554	-200,000	0,053	-0,201
-684,539	451,064	0,048	0,077
-683,524	-22,349	0,064	-0,028
-682,510	-134,545	-0,066	0,006
-681,495	-200,000	-0,000	0,031
-680,481	-200,000	0,003	-0,075
-679,466	215,817	-0,114	-0,131
-678,451	89,627	-0,038	-0,031
-677,437	768,540	-0,058	0,115
-676,422	-18,584	0,039	-0,017
-675,408	-200,000	0,001	-0,095
-674,393	800,000	0,019	-0,059
-673,378	122,741	-0,036	0,032
-672,364	-66,823	-0,130	0,037
-671,349	-169,811	-0,050	0,001
-670,335	-97,242	0,087	0,016
-669,320	29,021	-0,063	0,039
-668,305	253,096	0,076	0,094
-667,291	-61,876	0,147	-0,044
-666,276	31,313	-0,126	0,079
-665,262	37,368	0,041	-0,026
-664,247	127,007	-0,130	0,119
-663,232	221,489	-0,051	-0,060
-662,218	-59,215	0,105	-0,033
-661,203	439,762	0,082	0,130
-660,189	-4,772	0,072	-0,036
-659,174	-48,606	-0,097	-0,034
-658,159	-56,504	-0,100	-0,032
-657,145	6,057	-0,079	0,043
-656,130	136,745	-0,091	-0,086
-655,116	-67,653	0,063	0,018
-654,101	-75,446	-0,146	0,037
-653,086	800,000	0,016	-0,047
-652,072	77,683	-0,057	-0,044
-651,057	191,194	0,057	-0,062
-650,043	99,786	0,027	0,023
-649,028	87,205	-0,050	0,040
-648,014	65,901	0,081	-0,060
-646,999	196,541	0,067	-0,074
-645,984	19,364	0,014	0,008
-644,970	800,000	0,048	-0,135
-643,955	-31,538	0,028	-0,011
-642,941	-47,907	-0,067	-0,023
-641,926	41,393	-0,079	0,052
-640,911	800,000	0,037	0,093
-639,897	4,552	-0,027	0,015
-638,882	800,000	-0,016	0,045
-637,868	800,000	-0,047	-0,136
-636,853	-200,000	-0,023	-0,180
-635,838	-38,148	-0,013	0,005
-634,824	718,637	-0,053	0,102
-633,809	-82,163	0,156	-0,036
-632,795	-87,819	0,128	-0,028
-631,780	-84,164	0,064	-0,015
-630,765	800,000	-0,020	0,044
-629,751	-200,000	0,001	-0,159
-628,736	-114,344	-0,106	0,015
-627,722	539,158	-0,037	-0,064
-626,707	-35,686	-0,064	0,025
-625,692	800,000	-0,036	-0,086
-624,678	800,000	-0,008	-0,020
-623,663	-200,000	0,042	0,141
-622,649	-200,000	0,001	-0,122
-621,634	-200,000	-0,010	-0,049
-620,619	-200,000	-0,020	-0,095
-619,605	115,322	0,056	-0,050
-618,590	800,000	0,050	0,110
-617,576	800,000	-0,099	0,244
-616,561	-13,371	0,151	0,071
-615,546	-200,000	0,014	0,081
-614,532	257,210	-0,010	0,013
-613,517	-47,204	0,066	-0,023
-612,503	-200,000	-0,056	-0,210
-611,488	-200,000	0,009	-0,108
-610,474	-108,342	-0,099	0,015
-609,459	50,961	-0,017	-0,012
-608,444	657,895	-0,091	-0,170
-607,430	-200,000	0,015	-0,215
-606,415	181,964	-0,053	-0,057
-605,401	800,000	0,048	-0,111
-604,386	251,831	0,020	-0,025
-603,371	-17,542	0,054	0,024
-602,357	117,580	-0,035	0,031
-601,342	421,059	-0,043	0,068
-600,328	152,701	-0,118	-0,116
-599,313	-200,000	0,022	-0,155
-598,298	603,169	0,052	0,095
-597,284	800,000	-0,057	0,125
-596,269	-32,055	0,041	0,017
-595,255	9,550	-0,026	-0,014
-594,240	204,412	-0,068	0,077
-593,225	-200,000	-0,017	-0,138
-592,211	105,477	0,039	0,033
-591,196	-137,664	-0,100	-0,008
-590,182	227,604	-0,011	0,012
-589,167	800,000	0,049	-0,129
-588,152	386,343	0,037	0,056
-587,138	213,446	-0,026	-0,030
-586,123	800,000	-0,035	-0,077
-585,109	-68,149	0,062	-0,017
-584,094	461,765	0,078	0,127
-583,079	800,000	0,041	0,101
-582,065	-176,861	-0,171	-0,003
-581,050	-200,000	-0,005	0,027
-580,036	505,976	0,002	-0,004
-579,021	573,341	-0,025	0,044
-578,006	-152,415	0,120	0,006
-576,992	-116,015	-0,076	-0,010
-575,977	154,949	0,083	-0,082
-574,963	119,487	-0,007	0,006
-573,948	33,044	0,077	-0,048
-572,934	540,681	-0,017	-0,030
-571,919	-200,000	-0,028	0,137
-570,904	-200,000	-0,006	0,086
-569,890	382,624	0,090	-0,134
-568,875	-200,000	-0,046	0,153
-567,861	-29,001	0,068	0,028
-566,846	-200,000	0,042	0,141
-565,831	800,000	-0,016	0,044
-564,817	-200,000	-0,035	-0,145
-563,802	-200,000	0,002	-0,092
-562,788	-200,000	-0,010	0,052
-561,773	35,462	-0,077	0,049
-560,758	-200,000	-0,004	0,032
-559,744	800,000	0,056	0,123
-558,729	-70,043	-0,144	0,039
-557,715	513,683	-0,061	-0,103
-556,700	800,000	-0,046	-0,138
-555,685	800,000	-0,014	0,040
-554,671	45,754	-0,020	0,013
-553,656	-200,000	0,040	0,145
-552,642	-176,796	0,143	0,003
-551,627	250,272	0,034	-0,042
-550,612	41,133	-0,081	-0,053
-549,598	334,918	-0,058	-0,082
-548,583	-103,256	0,170	-0,029
-547,569	800,000	-0,069	-0,146
-546,554	-200,000	0,001	0,075
-545,539	-20,542	0,090	-0,040
-544,525	39,638	0,132	-0,085
-543,510	102,983	0,022	0,019
-542,496	-72,474	-0,052	0,014
-541,481	-159,332	0,110	-0,004
-540,466	800,000	-0,069	-0,163
-539,452	800,000	0,031	-0,088
-538,437	650,326	0,113	0,210
-537,423	-38,602	-0,055	0,021
-536,408	800,000	0,009	-0,021
-535,393	-126,142	0,130	0,014
-534,379	69,324	0,090	-0,067
-533,364	-200,000	0,010	-0,146
-532,350	-102,076	0,037	0,006
-531,335	260,440	0,077	0,097
-530,321	800,000	-0,016	-0,040
-529,306	-200,000	0,012	0,082
-528,291	225,022	-0,053	0,062
-527,277	223,739	-0,040	0,047
-526,262	331,708	-0,050	0,070
-525,248	-200,000	0,028	0,150
-524,233	102,614	0,033	0,028
-523,218	-200,000	-0,021	0,092
-522,204	-105,571	-0,076	-0,012
-521,189	72,558	0,036	-0,027
-520,175	-200,000	0,005	-0,112
-519,160	65,060	-0,119	-0,087
-518,145	800,000	0,041	-0,097
-517,131	251,002	0,116	0,142
-516,116	532,087	-0,022	0,037
-515,102	147,569	-0,040	0,039
-514,087	-134,432	-0,079	-0,007
-513,072	216,092	-0,118	-0,135
-512,058	-6,863	-0,003	0,002
-511,043	-157,140	0,019	0,001
-510,029	800,000	-0,062	0,151
-509,014	800,000	-0,005	0,011
-507,999	-200,000	0,032	0,133
-506,985	119,800	-0,081	0,073
-505,970	177,847	-0,055	-0,057
-504,956	-200,000	0,008	-0,083
-503,941	-92,189	-0,137	-0,028
-502,926	-200,000	0,004	-0,039
-501,912	230,099	0,113	0,134
-500,897	36,464	0,078	-0,049
-499,883	19,918	-0,135	-0,078
-498,868	-200,000	0,010	-0,051
-497,853	-200,000	-0,005	-0,030
-496,839	330,712	0,032	0,045
-495,824	-200,000	0,009	0,037
-494,810	372,110	0,041	-0,060
-493,795	158,662	0,090	0,091
-492,781	-109,969	-0,128	0,019
-491,766	-200,000	-0,014	0,065
-490,751	386,362	-0,074	0,110
-489,737	-29,203	0,019	0,008
-488,722	-200,000	0,014	-0,242
-487,708	783,329	0,037	0,074
-486,693	606,492	-0,046	0,084
-485,678	-111,296	-0,112	-0,016
-484,664	381,846	-0,064	0,094
-483,649	450,685	0,037	-0,060
-482,635	-200,000	-0,039	-0,151
-481,620	-200,000	0,049	0,217
-480,605	-200,000	0,028	0,142
-479,591	-117,171	-0,076	-0,010
-478,576	-200,000	0,028	-0,089
-477,562	-38,336	-0,035	0,013
-476,547	-200,000	-0,013	-0,069
-475,532	64,770	0,014	0,010
-474,518	140,537	-0,008	0,007
-473,503	800,000	0,052	-0,129
-472,489	-29,626	0,057	0,023
-471,474	-127,366	0,099	-0,010
-470,459	325,159	0,044	-0,061
-469,445	-164,669	-0,038	-0,001
-468,430	-85,698	0,076	-0,017
-467,416	71,334	0,112	0,083
-466,401	332,154	-0,042	-0,059
-465,386	250,897	0,027	-0,033
-464,372	529,073	-0,054	0,093
-463,357	-200,000	-0,000	-0,042
-462,343	-200,000	0,010	0,053
-461,328	238,028	-0,030	0,036
-460,313	-13,391	-0,081	0,038
-459,299	800,000	0,034	0,086
-458,284	-200,000	0,039	0,132
-457,270	-129,845	-0,056	-0,005
-456,255	640,213	-0,017	-0,031
-455,241	-200,000	0,035	-0,137
-454,226	91,991	-0,027	0,022
-453,211	-200,000	0,010	-0,103
-452,197	-71,736	0,083	-0,022
-451,182	106,434	-0,027	-0,023
-450,168	335,354	0,055	0,077
-449,153	244,876	0,039	0,047
-448,138	-200,000	-0,032	-0,117
-447,124	487,011	-0,063	-0,103
-446,109	-200,000	-0,033	-0,150
-445,095	254,634	0,065	0,081
-444,080	800,000	-0,055	-0,119
-443,065	335,418	-0,083	0,116
-442,051	168,385	0,052	0,054
-441,036	293,115	-0,124	0,163
-440,022	-72,478	0,059	0,016
-439,007	-200,000	0,006	0,101
-437,992	-200,000	-0,004	-0,030
-436,978	212,834	-0,048	0,055
-435,963	-200,000	0,010	0,039
-434,949	-200,000	0,024	-0,161
-433,934	-200,000	0,008	-0,156
-432,919	105,209	0,036	-0,030
-431,905	303,473	0,064	-0,086
-430,890	304,085	-0,087	0,117
-429,876	-166,823	-0,049	-0,001
-428,861	155,115	0,083	-0,082
-427,846	-42,160	-0,104	-0,038
-426,832	-200,000	-0,002	-0,084
-425,817	-101,969	-0,069	-0,012
-424,803	341,084	0,073	0,103
-423,788	99,648	0,064	0,053
-422,773	580,522	-0,050	0,088
-421,759	-200,000	-0,004	0,144
-420,744	292,092	0,056	-0,074
-419,730	133,464	0,107	0,099
-418,715	303,538	-0,056	-0,074
-417,701	-200,000	0,016	0,056
-416,686	313,066	-0,070	-0,095
-415,671	-169,335	0,089	-0,002
-414,657	800,000	0,036	-0,082
-413,642	136,455	0,119	0,111
-412,628	-200,000	-0,022	-0,077
-411,613	-200,000	0,006	-0,065
-410,598	800,000	0,085	-0,223
-409,584	-30,346	0,142	0,058
-408,569	-4,994	-0,165	-0,081
-407,555	555,600	-0,053	-0,092
-406,540	129,529	0,080	0,074
-405,525	2,288	-0,103	-0,053
-404,511	615,633	-0,016	0,029
-403,496	800,000	0,021	-0,063
-402,482	605,384	0,067	-0,120
-401,467	-2,660	-0,025	0,012
-400,452	45,584	-0,119	-0,079
-399,438	-163,646	0,050	-0,002
-398,423	-200,000	-0,041	-0,159
-397,409	208,479	-0,038	0,043
-396,394	187,252	-0,105	-0,112
-395,379	267,789	0,052	-0,065
-394,365	-71,514	0,075	0,020
-393,350	-35,978	0,174	-0,067
-392,336	591,754	0,082	0,147
-391,321	-200,000	0,005	0,064
-390,306	526,859	-0,080	0,135
-389,292	800,000	0,006	0,011
-388,277	169,596	-0,065	0,067
-387,263	-200,000	0,028	-0,217
-386,248	-83,233	-0,056	0,013
-385,233	241,534	-0,030	-0,036
-384,219	-200,000	-0,066	-0,000
-383,204	388,706	-0,109	-0,162
-382,190	800,000	0,043	-0,131
-381,175	800,000	-0,018	0,045
-380,160	623,892	0,061	0,111
-379,146	-200,000	-0,018	0,072
-378,131	800,000	-0,016	0,042
-377,117	-34,590	0,071	0,028
-376,102	-79,407	-0,052	-0,012
-375,088	-200,000	-0,012	-0,058
-374,073	300,826	-0,061	-0,081
-373,058	-148,670	-0,123	-0,007
-372,044	800,000	0,073	0,161
-371,029	-111,975	-0,114	0,016
-370,015	-200,000	0,005	-0,102
-369,000	79,491	-0,037	0,028
-367,985	-200,000	-0,029	-0,127
-366,971	-200,000	-0,028	-0,153
-365,956	-114,239	0,061	0,008
-364,942	-43,721	0,099	0,036
-363,927	615,235	0,035	0,063
-362,912	-200,000	-0,001	0,111
-361,898	-200,000	-0,013	-0,046
-360,883	154,409	-0,083	-0,081
-359,869	76,810	-0,091	-0,069
-358,854	180,442	0,092	-0,096
-357,839	800,000	-0,038	-0,114
-356,825	-200,000	-0,009	-0,036
-355,810	-6,171	0,158	-0,077
-354,796	218,121	-0,049	-0,056
-353,781	-200,000	0,004	0,152
-352,766	-200,000	-0,037	-0,139
-351,752	-200,000	-0,012	0,070
-350,737	-159,956	0,100	0,004
-349,723	-160,610	0,073	-0,003
-348,708	585,324	-0,077	0,136
-347,693	-200,000	0,030	0,174
-346,679	800,000	-0,041	0,110
-345,664	-61,250	-0,062	-0,019
-344,650	-200,000	0,022	0,130
-343,635	83,490	0,073	0,057
-342,620	800,000	0,029	0,067
-341,606	-200,000	0,026	0,140
-340,591	800,000	-0,035	0,069
-339,577	-200,000	-0,029	-0,177
-338,562	-27,279	0,115	0,048
-337,548	-195,017	-0,176	0,001
-336,533	292,214	-0,089	0,117
-335,518	205,245	0,044	-0,049
-334,504	-166,789	-0,081	0,002
-333,489	464,354	-0,031	-0,049
-332,475	800,000	-0,041	-0,111
-331,460	-86,533	-0,036	-0,008
-330,445	270,751	-0,087	-0,109
-329,431	-200,000	0,034	0,163
-328,416	112,270	-0,037	0,032
-327,402	91,681	0,066	-0,053
-326,387	-200,000	0,008	0,134
-325,372	-33,319	-0,047	0,019
-324,358	-24,194	0,041	-0,017
-323,343	-200,000	0,000	0,093
-322,329	203,985	-0,058	-0,065
-321,314	800,000	-0,076	-0,187
-320,299	272,001	-0,083	0,105
-319,285	-120,729	-0,072	-0,009
-318,270	119,693	-0,132	-0,117
-317,256	176,976	0,054	0,056
-316,241	356,166	0,024	-0,034
-315,226	800,000	-0,049	0,126
-314,212	-200,000	-0,004	-0,036
-313,197	170,794	-0,022	-0,022
-312,183	-200,000	0,012	0,081
-311,168	164,607	-0,040	0,041
-310,153	-200,000	-0,003	0,013
-309,139	800,000	-0,047	0,120
-308,124	-200,000	-0,002	-0,008
-307,110	800,000	0,051	-0,109
-306,095	18,162	0,076	-0,043
-305,080	-152,911	0,025	-0,001
-304,066	-200,000	0,024	-0,085
-303,051	800,000	0,031	-0,067
-302,037	1,270	-0,092	0,047
-301,022	403,638	-0,051	0,077
-300,008	-81,312	0,127	0,030
-298,993	81,790	0,066	-0,051
-297,978	-200,000	0,007	0,048
-296,964	181,763	-0,064	0,067
-295,949	46,782	-0,113	-0,075
-294,935	-112,036	0,104	0,015
-293,920	-200,000	-0,008	0,221
-292,905	-200,000	-0,015	-0,047
-291,891	-200,000	0,006	0,168
-290,876	473,117	0,080	-0,130
-289,862	406,152	-0,015	0,023
-288,847	-24,555	0,113	0,048
-287,832	409,688	0,041	0,062
-286,818	-57,335	0,097	0,030
-285,803	666,951	-0,023	-0,043
-284,789	39,872	0,075	0,048
-283,774	-200,000	0,001	-0,005
-282,759	-114,756	0,037	0,005
-281,745	-28,282	-0,077	0,032
-280,730	310,304	0,042	0,057
-279,716	-164,404	0,092	-0,003
-278,701	546,991	0,011	0,018
-277,686	-41,227	0,070	0,026
-276,672	584,472	-0,022	0,040
-275,657	800,000	0,038	-0,079
-274,643	-19,607	0,078	0,034
-273,628	493,289	-0,039	-0,063
-272,613	-73,687	0,134	-0,035
-271,599	180,080	-0,057	0,060
-270,584	133,921	-0,036	-0,033
-269,570	-26,573	0,017	-0,007
-268,555	13,734	0,092	0,051
-267,540	392,770	-0,058	0,087
-266,526	-19,785	0,057	0,025
-265,511	-97,705	0,132	-0,024
-264,497	800,000	0,010	0,028
-263,482	197,918	0,080	0,087
-262,467	233,364	0,089	0,105
-261,453	262,372	-0,045	0,055
-260,438	92,999	-0,127	-0,103
-259,424	158,615	-0,117	-0,116
-258,409	41,082	-0,042	0,027
-257,395	342,257	0,065	0,091
-256,380	3,166	-0,057	-0,030
-255,365	-200,000	-0,014	0,062
-254,351	-200,000	-0,000	0,071
-253,336	33,585	-0,075	-0,046
-252,322	-6,231	-0,184	-0,089
-251,307	-105,653	-0,059	0,009
-250,292	800,000	0,050	-0,119
-249,278	800,000	0,025	0,067
-248,263	-163,614	0,094	0,003
-247,249	21,097	0,057	0,033
-246,234	-40,100	0,024	-0,009
-245,219	-200,000	-0,006	0,057
-244,205	800,000	0,011	0,025
-243,190	800,000	0,075	-0,172
-242,176	388,479	0,040	-0,059
-241,161	800,000	-0,017	0,047
-240,146	-109,573	-0,057	-0,008
-239,132	-200,000	0,124	0,000
-238,117	-62,307	-0,061	-0,018
-237,103	-34,461	0,062	0,024
-236,088	-200,000	-0,018	-0,067
-235,073	-110,389	0,133	-0,019
-234,059	-200,000	0,011	0,095
-233,044	-200,000	-0,013	0,081
-232,030	-200,000	0,007	0,101
-231,015	-111,348	-0,086	0,012
-230,000	-43,074	-0,088	0,032
-228,986	-200,000	0,024	-0,109
-227,971	-20,334	0,110	-0,048
-226,957	395,772	-0,037	0,055
-225,942	-130,819	0,124	0,012
-224,927	-200,000	-0,037	0,132
-223,913	-200,000	-0,012	-0,049
-222,898	-38,539	-0,110	-0,041
-221,884	14,181	0,024	-0,013
-220,869	252,257	0,023	0,028
-219,855	60,140	-0,019	-0,014
-218,840	-200,000	0,027	0,085
-217,825	-19,052	0,031	0,014
-216,811	800,000	-0,044	0,107
-215,796	186,291	0,026	0,028
-214,782	-90,736	-0,164	-0,034
-213,767	-200,000	0,029	-0,100
-212,752	800,000	-0,017	0,041
-211,738	-200,000	-0,006	0,136
-210,723	97,199	-0,057	-0,047
-209,709	19,498	-0,062	0,036
-208,694	-41,250	0,034	0,012
-207,679	-74,417	0,094	0,024
-206,665	-79,597	0,047	0,011
-205,650	36,721	-0,037	-0,023
-204,636	800,000	0,124	-0,289
-203,621	800,000	-0,038	0,077
-202,606	395,558	-0,075	0,112
-201,592	-32,900	-0,152	-0,060
-200,577	497,720	0,031	0,051
-199,563	-85,534	-0,123	-0,027
-198,548	-108,980	0,077	-0,012
-197,533	-110,847	0,123	0,018
-196,519	800,000	0,009	-0,021
-195,504	8,408	0,095	-0,051
-194,490	99,606	-0,174	0,143
-193,475	-171,701	0,077	-0,002
-192,460	-200,000	-0,013	-0,078
-191,446	-179,667	-0,060	-0,001
-190,431	132,073	0,069	0,063
-189,417	327,700	-0,042	0,057
-188,402	800,000	-0,046	-0,128
-187,387	800,000	-0,047	-0,102
-186,373	346,538	0,044	0,062
-185,358	-200,000	0,005	-0,089
-184,344	-130,501	0,152	0,014
-183,329	286,515	-0,029	0,037
-182,315	297,890	0,026	-0,034
-181,300	-200,000	0,024	0,096
-180,285	-40,064	-0,130	-0,048
-179,271	-200,000	-0,009	-0,121
-178,256	800,000	-0,037	-0,102
-177,242	81,702	0,073	-0,056
-176,227	165,742	0,075	0,075
-175,212	13,044	-0,056	-0,031
-174,198	-59,827	0,096	-0,029
-173,183	607,945	0,075	0,134
-172,169	368,235	-0,035	-0,050
-171,154	-22,808	0,059	0,025
-170,139	-200,000	-0,021	0,070
-169,125	800,000	0,034	-0,083
-168,110	-179,273	0,026	0,000
-167,096	-74,179	-0,072	0,018
-166,081	800,000	-0,022	-0,068
-165,066	-105,924	-0,146	0,023
-164,052	-13,511	0,070	0,032
-163,037	26,721	0,104	0,062
-162,023	-49,163	0,065	0,022
-161,008	-200,000	-0,011	0,096
-159,993	761,810	-0,030	-0,058
-158,979	214,390	-0,145	0,163
-157,964	396,570	-0,104	0,156
-156,950	-46,494	-0,023	-0,008
-155,935	-11,301	0,036	0,017
-154,920	-200,000	-0,017	0,106
-153,906	2,809	0,037	0,019
-152,891	38,599	0,010	0,007
-151,877	-30,784	-0,049	0,019
-150,862	-136,512	-0,127	0,010
-149,847	800,000	-0,033	0,103
-148,833	330,868	-0,025	-0,034
-147,818	-112,227	0,065	0,009
-146,804	105,828	0,087	0,074
-145,789	732,910	0,087	0,167
-144,775	436,746	-0,112	-0,173
-143,760	800,000	0,024	0,055
-142,745	-200,000	-0,003	-0,023
-141,731	-200,000	0,011	-0,047
-140,716	309,210	-0,055	-0,073
-139,702	-87,950	0,087	-0,018
-138,687	-200,000	-0,010	0,285
-137,672	638,109	-0,050	-0,091
-136,658	-200,000	0,039	-0,204
-135,643	-200,000	-0,051	-0,167
-134,629	-191,877	0,117	-0,001
-133,614	126,426	0,115	-0,103
-132,599	-92,496	0,045	0,009
-131,585	-200,000	-0,008	0,069
-130,570	-67,112	0,033	-0,009
-129,556	-71,647	0,015	0,004
-128,541	-126,201	-0,125	-0,013
-127,526	-35,266	-0,057	-0,022
-126,512	-200,000	-0,002	-0,042
-125,497	-200,000	-0,014	0,135
-124,483	226,890	-0,036	-0,041
-123,468	64,383	0,072	-0,051
-122,453	-200,000	-0,044	-0,218
-121,439	-200,000	0,039	-0,157
-120,424	-200,000	0,017	-0,120
-119,410	-183,667	0,153	0,002
-118,395	298,984	-0,042	0,055
-117,380	-131,857	-0,059	0,005
-116,366	113,013	0,149	0,128
-115,351	-90,797	0,042	-0,009
-114,337	268,574	-0,097	-0,121
-113,322	411,073	-0,050	0,075
-112,307	-117,116	-0,084	-0,011
-111,293	-200,000	0,035	-0,124
-110,278	144,808	0,017	0,016
-109,264	-1,339	0,094	0,047
-108,249	190,975	-0,049	-0,053
-107,234	-200,000	-0,028	-0,146
-106,220	-200,000	0,004	-0,022
-105,205	-200,000	-0,035	0,128
-104,191	800,000	0,042	0,085
-103,176	-200,000	0,022	0,159
-102,162	-32,906	-0,032	0,013
-101,147	-21,158	0,138	-0,060
-100,132	800,000	0,026	-0,060
-99,118	-112,700	0,145	0,020
-98,103	185,159	0,044	0,046
-97,089	-51,701	0,092	-0,030
-96,074	-84,161	0,002	-0,000
-95,059	-157,268	0,198	-0,008
-94,045	179,676	0,062	0,064
-93,030	-200,000	0,008	-0,113
-92,016	-200,000	0,001	-0,010
-91,001	160,987	0,038	0,038
-89,986	-102,532	0,046	-0,008
-88,972	8,914	0,045	-0,024
-87,957	460,359	0,097	0,154
-86,943	-101,796	-0,039	0,007
-85,928	51,300	-0,019	-0,013
-84,913	104,315	-0,036	-0,030
-83,899	-200,000	-0,017	-0,072
-82,884	378,705	0,068	0,099
-81,870	62,350	0,056	-0,039
-80,855	36,952	0,130	-0,081
-79,840	78,274	-0,063	-0,047
-78,826	375,874	0,040	-0,058
-77,811	800,000	-0,032	-0,066
-76,797	-88,286	-0,088	0,018
-75,782	800,000	-0,012	0,033
-74,767	-71,637	0,102	0,027
-73,753	275,430	-0,041	0,052
-72,738	800,000	0,016	-0,039
-71,724	-100,697	0,082	-0,014
-70,709	104,144	-0,049	0,041
-69,694	-26,108	0,069	0,028
-68,680	-200,000	-0,013	0,101
-67,665	-200,000	0,011	-0,053
-66,651	339,482	0,012	0,017
-65,636	108,341	0,106	-0,090
-64,622	88,899	-0,115	-0,091
-63,607	123,690	-0,039	-0,034
-62,592	281,354	-0,055	0,070
-61,578	208,865	0,090	0,100
-60,563	129,086	0,060	0,054
-59,549	-69,853	-0,141	0,038
-58,534	-53,893	-1,558	-0,500
-57,519	452,695	-1,384	-2,175
-56,505	-200,000	-0,422	-4,494
-55,490	174,542	0,946	0,969
-54,476	800,000	4,775	11,421
-53,461	-200,000	18,230	287,876
-52,446	800,000	727,286	2228,585
-51,432	554,686	1643,341	2810,567
-50,417	79,312	1665,364	1262,848
-49,403	22,880	1539,151	890,945
-48,388	16,869	1462,444	817,434
-47,373	17,822	1452,519	816,443
-46,359	17,320	1442,563	808,415
-45,344	15,108	1438,338	795,458
-44,330	15,045	1436,164	793,921
-43,315	15,060	1434,494	793,037
-42,300	15,057	1433,008	792,174
-41,286	15,102	1431,608	791,580
-40,271	15,089	1430,378	790,806
-39,257	15,083	1429,128	790,053
-38,242	15,103	1427,755	789,362
-37,227	15,138	1426,611	788,861
-36,213	15,107	1425,339	787,981
-35,198	15,092	1424,368	787,342
-34,184	15,113	1423,300	786,821
-33,169	15,063	1422,094	785,884
-32,154	15,149	1420,951	785,627
-31,140	15,118	1419,679	784,748
-30,125	15,172	1418,534	784,336
-29,111	15,120	1417,492	783,488
-28,096	15,047	1416,488	782,559
-27,082	15,024	1415,405	781,820
-26,067	15,051	1414,207	781,254
-25,052	15,056	1413,173	780,673
-24,038	15,008	1412,212	779,890
-23,023	14,963	1411,178	779,074
-22,009	14,960	1410,111	778,439
-20,994	14,946	1409,556	778,037
-19,979	14,990	1408,219	777,473
-18,965	14,960	1407,558	776,940
-17,950	14,974	1406,317	776,286
-16,936	14,950	1405,530	775,710
-15,921	14,944	1404,187	774,913
-14,906	14,930	1403,295	774,325
-13,892	14,982	1402,461	774,074
-12,877	14,958	1401,683	773,502
-11,863	14,960	1400,594	772,879
-10,848	14,897	1399,745	772,090
-9,833	14,882	1398,980	771,567
-8,819	14,852	1398,016	770,864
-7,804	14,886	1397,084	770,477
-6,790	14,846	1395,831	769,571
-5,775	14,829	1395,083	769,049
-4,760	14,839	1394,033	768,485
-3,746	14,816	1393,390	767,996
-2,731	14,832	1392,506	767,551
-1,717	14,816	1391,728	767,016
-0,702	14,853	1389,769	766,079
0,313	18,560	1308,814	738,634
1,327	34,700	706,975	436,396
2,342	53,084	124,782	84,387
3,356	3,808	16,661	8,581
4,371	6,273	3,104	1,624
5,386	-92,914	0,705	0,138
6,400	800,000	-0,032	0,084
7,415	0,692	-0,247	-0,125
8,429	44,450	-0,296	-0,192
9,444	-14,003	-0,422	-0,192
10,459	18,157	-0,299	-0,168
11,473	104,416	-0,214	-0,178
12,488	-107,306	-0,321	-0,049
13,502	100,749	-0,311	-0,255
14,517	39,606	-0,302	-0,191
15,531	54,085	-0,381	-0,258
16,546	124,075	-0,331	-0,294
17,561	368,882	-0,271	-0,388
18,575	-128,992	-0,305	-0,030
19,590	69,213	-0,198	-0,144
20,604	-182,232	-0,271	-0,003
21,619	169,788	-0,360	-0,363
22,634	170,647	-0,304	-0,308
23,648	-2,308	-0,518	-0,256
24,663	371,447	-0,332	-0,477
25,677	157,848	-0,241	-0,236
26,692	75,625	-0,390	-0,290
27,707	94,649	-0,325	-0,261
28,721	-9,185	-0,466	-0,219
29,736	225,163	-0,285	-0,326
30,750	44,468	-0,455	-0,294
31,765	21,548	-0,342	-0,196
32,780	46,283	-0,334	-0,218
33,794	82,216	-0,399	-0,305
34,809	-35,713	-0,466	-0,177
35,823	17,034	-0,383	-0,214
36,838	66,003	-0,413	-0,295
37,853	37,362	-0,432	-0,269
38,867	86,196	-0,357	-0,277
39,882	278,037	-0,271	-0,341
40,896	222,747	-0,247	-0,281
41,911	80,041	-0,397	-0,301
42,926	44,925	-0,407	-0,264
43,940	20,080	-0,398	-0,226
44,955	2,119	-0,492	-0,250
45,969	17,922	-0,394	-0,220
46,984	107,767	-0,353	-0,296
47,999	37,796	-0,365	-0,228
49,013	44,352	-0,377	-0,243
50,028	-14,003	-0,320	-0,145
51,042	32,741	-0,376	-0,229
52,057	82,065	-0,216	-0,165
53,071	165,060	-0,321	-0,319
54,086	92,185	-0,344	-0,273
55,101	47,762	-0,285	-0,187
56,115	72,485	-0,317	-0,233
57,130	-144,252	-0,310	0,020
58,144	21,302	-0,415	-0,237
59,159	267,937	-0,276	-0,342
60,174	-39,728	-0,312	-0,114
61,188	2,202	-0,368	-0,187
62,203	28,845	-0,360	-0,214
63,217	-14,166	-0,254	-0,115
64,232	12,543	-0,316	-0,171
65,247	3,963	-0,351	-0,180
66,261	274,677	-0,283	-0,354
67,276	48,807	-0,329	-0,217
68,290	79,376	-0,334	-0,252
69,305	144,808	-0,354	-0,333
70,320	24,293	-0,297	-0,172
71,334	20,509	-0,390	-0,221
72,349	408,637	-0,177	-0,264
73,363	219,920	-0,272	-0,307
74,378	-29,830	-0,296	-0,118
75,393	64,213	-0,258	-0,182
76,407	172,013	-0,209	-0,211
77,422	-69,565	-0,264	-0,071
78,436	-84,418	-0,280	-0,062
79,451	14,491	-0,226	-0,124
80,466	45,022	-0,301	-0,195
81,480	-7,528	-0,448	-0,212
82,495	16,229	-0,242	-0,134
83,509	18,436	-0,320	-0,179
84,524	141,084	-0,216	-0,201
85,539	502,437	-0,197	-0,321
86,553	-29,328	-0,304	-0,122
87,568	151,600	-0,321	-0,307
88,582	-52,676	-0,261	-0,084
89,597	141,594	-0,305	-0,284
90,611	18,457	-0,393	-0,220
91,626	238,549	-0,205	-0,239
92,641	-11,234	-0,203	-0,093
93,655	215,562	-0,222	-0,248
94,670	-10,047	-0,378	-0,175
95,684	30,532	-0,291	-0,174
96,699	92,229	-0,275	-0,217
97,714	21,191	-0,210	-0,120
98,728	-21,013	-0,235	-0,101
99,743	48,008	-0,128	-0,084
100,757	134,732	-0,310	-0,282
101,772	40,598	-0,316	-0,199
102,787	142,955	-0,311	-0,290
103,801	1,943	-0,285	-0,144
104,816	99,652	-0,229	-0,185
105,830	162,373	-0,228	-0,225
106,845	46,958	-0,232	-0,151
107,860	34,054	-0,200	-0,122
108,874	800,000	-0,129	-0,272
109,889	-60,232	-0,329	-0,098
110,903	30,005	-0,321	-0,192
111,918	120,340	-0,309	-0,269
112,933	9,631	-0,177	-0,094
113,947	-140,074	-0,292	-0,021
114,962	-55,362	-0,207	-0,065
115,976	559,904	-0,210	-0,357
116,991	738,855	-0,171	-0,323
118,006	436,562	-0,173	-0,265
119,020	36,571	-0,274	-0,169
120,035	124,055	-0,218	-0,192
121,049	83,238	-0,141	-0,107
122,064	53,089	-0,346	-0,232
123,079	213,451	-0,132	-0,147
124,093	492,481	-0,209	-0,337
125,108	2,396	-0,318	-0,161
126,122	18,737	-0,259	-0,145
127,137	800,000	-0,054	-0,128
128,151	800,000	-0,073	-0,145
129,166	219,420	-0,243	-0,272
130,181	-23,592	-0,305	-0,127
131,195	61,734	-0,298	-0,207
132,210	25,752	-0,352	-0,204
133,224	334,488	-0,119	-0,161
134,239	109,776	-0,267	-0,224
135,254	259,867	-0,112	-0,136
136,268	373,426	-0,122	-0,174
137,283	83,217	-0,302	-0,229
138,297	25,949	-0,246	-0,143
139,312	142,951	-0,169	-0,157
140,327	34,455	-0,356	-0,217
141,341	115,994	-0,191	-0,163
142,356	11,649	-0,219	-0,117
143,370	210,232	-0,173	-0,190
144,385	-140,986	-0,176	-0,012
145,400	23,631	-0,157	-0,090
146,414	184,852	-0,216	-0,224
147,429	-72,986	-0,271	-0,069
148,443	146,690	-0,181	-0,170
149,458	139,263	-0,202	-0,186
150,473	-26,177	-0,212	-0,087
151,487	-8,412	-0,273	-0,128
152,502	65,687	-0,276	-0,195
153,516	20,908	-0,365	-0,206
154,531	323,043	-0,268	-0,357
155,546	-102,394	-0,283	-0,047
156,560	-41,923	-0,305	-0,108
157,575	15,356	-0,130	-0,071
158,589	800,000	-0,090	-0,270
159,604	44,386	-0,220	-0,141
160,619	208,378	-0,248	-0,271
161,633	126,436	-0,241	-0,213
162,648	-55,031	-0,254	-0,079
163,662	-61,509	-0,175	-0,051
164,677	-14,726	-0,375	-0,168
165,692	42,358	-0,254	-0,161
166,706	173,928	-0,182	-0,184
167,721	35,741	-0,280	-0,171
168,735	-15,458	-0,315	-0,140
169,750	379,727	-0,144	-0,207
170,764	47,826	-0,312	-0,203
171,779	6,039	-0,223	-0,115
172,794	474,556	-0,150	-0,236
173,808	-19,236	-0,238	-0,102
174,823	114,473	-0,211	-0,179
175,837	127,479	-0,217	-0,192
176,852	-113,707	-0,324	-0,044
177,867	-56,929	-0,188	-0,058
178,881	-58,791	-0,171	0,051
179,896	-95,060	-0,179	-0,033
180,910	15,003	-0,247	-0,134
181,925	267,165	-0,170	-0,207
182,940	112,278	-0,234	-0,197
183,954	-200,000	-0,075	-0,273
184,969	42,734	-0,202	-0,128
185,983	727,008	-0,092	-0,173
186,998	-74,126	-0,121	0,030
188,013	-11,646	-0,287	-0,131
189,027	99,143	-0,280	-0,225
190,042	8,910	-0,225	-0,118
191,056	435,748	-0,137	-0,208
192,071	625,746	-0,106	-0,187
193,086	430,733	-0,090	-0,137
194,100	215,512	-0,158	-0,175
195,115	233,642	-0,074	-0,085
196,129	-76,338	-0,284	-0,069
197,144	140,925	-0,210	-0,193
198,159	-80,412	-0,258	-0,060
199,173	365,081	-0,206	-0,289
200,188	107,344	-0,219	-0,181
201,202	19,013	-0,199	-0,111
202,217	204,970	-0,116	-0,125
203,232	140,360	-0,176	-0,162
204,246	37,416	-0,276	-0,170
205,261	132,741	-0,210	-0,189
206,275	800,000	-0,182	-0,411
207,290	-35,615	-0,177	-0,066
208,304	800,000	-0,067	-0,164
209,319	-164,442	-0,145	0,005
210,334	109,450	-0,193	-0,161
211,348	33,794	-0,208	-0,126
212,363	88,524	-0,253	-0,195
213,377	-97,079	-0,262	-0,047
214,392	176,448	-0,143	-0,144
215,407	-188,169	-0,116	-0,001
216,421	-56,523	-0,172	-0,053
217,436	-183,963	-0,235	0,003
218,450	-0,318	-0,190	-0,094
219,465	218,991	-0,234	-0,260
220,480	7,371	-0,137	-0,071
221,494	193,528	-0,205	-0,215
222,509	98,265	-0,133	-0,107
223,523	-84,625	-0,253	0,055
224,538	1,600	-0,190	-0,094
225,553	58,970	-0,279	-0,190
226,567	202,720	-0,163	-0,175
227,582	38,738	-0,114	-0,070
228,596	-200,000	0,001	-0,133
229,611	-170,456	-0,165	-0,004
230,626	273,402	-0,095	-0,117
231,640	88,567	-0,250	-0,193
232,655	150,076	-0,292	-0,275
233,669	295,534	-0,160	-0,204
234,684	121,070	-0,158	-0,136
235,699	-63,287	-0,090	-0,026
236,713	-3,719	-0,159	-0,076
237,728	575,602	-0,120	-0,205
238,742	211,194	-0,122	-0,133
239,757	-12,642	-0,302	-0,136
240,772	238,329	-0,229	-0,264
241,786	244,809	-0,174	-0,203
242,801	88,850	-0,059	0,046
243,815	61,523	-0,074	0,051
244,830	-50,104	-0,250	-0,082
245,844	800,000	-0,098	-0,189
246,859	-13,406	-0,197	-0,088
247,874	705,469	-0,157	-0,288
248,888	238,083	-0,202	-0,233
249,903	57,425	-0,304	-0,205
250,917	-4,673	-0,095	-0,045
251,932	-51,302	-0,272	-0,088
252,947	175,146	-0,118	-0,118
253,961	43,855	-0,178	-0,113
254,976	-200,000	0,026	-0,139
255,990	627,412	-0,184	-0,323
257,005	-140,510	-0,220	-0,016
258,020	-27,150	-0,071	-0,028
259,034	369,300	-0,174	-0,244
260,049	-200,000	0,020	-0,151
261,063	-3,372	-0,249	-0,120
262,078	169,423	-0,190	-0,188
263,093	800,000	-0,081	-0,186
264,107	178,833	-0,245	-0,248
265,122	67,503	-0,167	-0,117
266,136	256,075	-0,110	-0,131
267,151	17,540	-0,093	-0,051
268,166	-38,499	-0,326	-0,118
269,180	135,815	-0,154	-0,138
270,195	323,959	-0,173	-0,229
271,209	-102,112	-0,262	-0,043
272,224	-166,561	-0,162	-0,005
273,239	42,359	-0,153	-0,096
274,253	81,245	-0,113	-0,084
275,268	-65,463	-0,260	-0,072
276,282	117,488	-0,165	-0,141
277,297	180,528	-0,169	-0,172
278,312	215,399	-0,222	-0,244
279,326	15,798	-0,105	0,057
280,341	-200,000	-0,047	-0,149
281,355	38,586	-0,176	-0,108
282,370	47,353	-0,270	-0,173
283,384	139,396	-0,104	-0,095
284,399	-97,793	-0,196	0,035
285,414	165,141	-0,157	-0,153
286,428	737,354	-0,142	-0,264
287,443	347,759	-0,104	-0,142
288,457	287,132	-0,099	-0,123
289,472	132,796	-0,154	-0,137
290,487	63,509	-0,193	-0,133
291,501	-37,255	-0,287	-0,105
292,516	800,000	-0,035	-0,097
293,530	-37,331	-0,128	-0,047
294,545	-57,091	-0,125	-0,038
295,560	-94,159	-0,145	0,027
296,574	-200,000	0,003	-0,161
297,589	64,966	-0,143	-0,099
298,603	-36,547	-0,323	-0,119
299,618	67,139	-0,190	-0,133
300,633	-60,424	-0,111	-0,032
301,647	325,413	-0,103	-0,136
302,662	-10,142	-0,136	-0,062
303,676	283,742	-0,190	-0,236
304,691	688,934	-0,134	-0,242
305,706	-76,637	-0,196	-0,047
306,720	-74,145	-0,244	-0,061
307,735	191,331	-0,186	-0,193
308,749	-145,260	-0,090	-0,006
309,764	-200,000	-0,029	0,180
310,779	210,906	-0,124	-0,134
311,793	-20,285	-0,144	-0,061
312,808	-123,136	-0,263	-0,029
313,822	7,416	-0,245	-0,125
314,837	-29,479	-0,165	-0,065
315,852	-21,256	-0,142	0,059
316,866	-22,867	-0,123	-0,051
317,881	-73,725	-0,095	-0,024
318,895	-8,399	-0,213	-0,098
319,910	-83,973	-0,161	-0,035
320,925	199,337	-0,161	-0,170
321,939	584,716	-0,168	-0,285
322,954	-27,227	-0,127	-0,051
323,968	800,000	-0,034	-0,102
324,983	105,333	-0,115	-0,093
325,997	101,434	-0,151	-0,121
327,012	306,894	-0,099	-0,127
328,027	-128,642	-0,075	0,007
329,041	660,331	-0,076	-0,136
330,056	-200,000	-0,019	-0,060
331,070	800,000	0,059	-0,138
332,085	382,471	-0,026	-0,036
333,100	113,983	-0,103	-0,086
334,114	164,262	-0,221	-0,214
335,129	327,355	-0,179	-0,236
336,143	-75,639	-0,065	-0,016
337,158	131,869	-0,057	0,050
338,173	-10,827	-0,138	0,062
339,187	-104,253	-0,158	-0,025
340,202	-175,529	-0,174	-0,003
341,216	57,065	-0,169	-0,113
342,231	-16,567	-0,266	-0,115
343,246	88,545	-0,105	0,080
344,260	-8,845	-0,076	-0,035
345,275	28,976	-0,068	-0,040
346,289	264,502	-0,153	-0,183
347,304	800,000	-0,012	-0,027
348,319	-27,384	-0,167	-0,066
349,333	800,000	-0,124	-0,256
350,348	46,181	-0,129	-0,082
351,362	-156,606	-0,129	0,005
352,377	-4,600	-0,180	-0,085
353,392	659,764	-0,039	-0,070
354,406	436,057	0,060	-0,090
355,421	209,458	1315,331	1415,779
356,435	161,211	1476,127	1416,275
