DTS Sentinel unit serial number:	SN410029Multiplexer serial number:	ORYXHardware model number:	OX2-SRSoftware version number:	ORYX F/W v4,00 Oryx Data Collector v3.7.2.0data status	okinstallation	B3 Nyhavnadifferential loss correction	single-endedforward channel	channel 1reverse channel	N/Adate	2023/12/05time	03:32:30forward acquisition time	300,00reverse acquisition time	0,00gamma	499,1914k internal	0,3201k external	0,3201temperature offset calibration	1,0000default loss term (dB/km)	0,3820temperature slope calibration	1,0000multiplexer offset coefficient	1,0000multiplexer slope coefficient	1,0000fibre end	0,00T internal ref (°C)	14,12T ext. ref 1 (°C)	-0,62T ext. ref 2 (°C)	-0,67length (m)	temperature (°C)	Stokes	anti-Stokes-744,400	38,399	-0,226	-0,146
-743,385	-200,000	0,061	0,230
-742,371	121,213	-0,168	-0,153
-741,356	443,360	0,085	0,135
-740,342	32,645	-0,205	-0,128
-739,327	-200,000	-0,024	0,315
-738,312	14,696	-0,301	-0,171
-737,298	-200,000	-0,045	0,306
-736,283	13,190	-0,169	-0,095
-735,269	800,000	0,116	0,339
-734,254	77,432	-0,317	-0,245
-733,239	23,712	-0,203	0,121
-732,225	800,000	-0,063	-0,168
-731,210	-49,179	0,213	0,074
-730,196	292,299	-0,074	-0,098
-729,181	-200,000	0,033	-0,154
-728,167	-60,631	0,153	0,047
-727,152	-94,150	-0,178	-0,035
-726,137	485,662	-0,054	-0,090
-725,123	800,000	0,020	-0,045
-724,108	24,657	0,144	-0,086
-723,094	-154,941	-0,143	0,007
-722,079	624,591	-0,075	-0,138
-721,064	-10,111	0,084	-0,040
-720,050	-0,894	0,020	-0,010
-719,035	612,343	-0,035	0,064
-718,021	-200,000	0,021	0,098
-717,006	-40,487	-0,079	-0,030
-715,991	-200,000	-0,000	-0,084
-714,977	2,211	-0,049	-0,026
-713,962	102,095	0,084	0,071
-712,948	-134,358	-0,178	-0,016
-711,933	90,565	0,064	-0,052
-710,918	-200,000	-0,009	0,042
-709,904	-200,000	-0,009	-0,070
-708,889	-180,237	-0,273	-0,004
-707,875	-20,037	0,036	-0,016
-706,860	-71,300	0,161	-0,044
-705,845	430,054	-0,065	0,103
-704,831	130,582	-0,062	-0,058
-703,816	-43,159	-0,052	0,019
-702,802	93,694	0,040	-0,033
-701,787	-92,910	-0,142	-0,028
-700,772	-114,750	-0,170	-0,023
-699,758	164,594	-0,007	-0,007
-698,743	-200,000	0,005	-0,035
-697,729	526,170	0,043	0,074
-696,714	-169,070	0,117	-0,003
-695,699	-200,000	-0,013	-0,082
-694,685	230,504	-0,035	0,042
-693,670	-200,000	0,017	-0,076
-692,656	348,859	-0,047	-0,067
-691,641	-8,522	0,134	0,065
-690,627	-115,253	-0,025	-0,003
-689,612	-121,984	-0,046	0,005
-688,597	-200,000	-0,103	-0,000
-687,583	-200,000	0,019	-0,177
-686,568	-2,612	-0,158	-0,080
-685,554	-123,740	0,061	-0,007
-684,539	-200,000	-0,020	-0,068
-683,524	-200,000	0,018	0,064
-682,510	-200,000	-0,025	0,128
-681,495	152,608	0,035	-0,035
-680,481	800,000	0,018	-0,039
-679,466	264,784	-0,072	-0,091
-678,451	-200,000	-0,006	-0,131
-677,437	108,017	-0,090	0,078
-676,422	-200,000	0,006	0,033
-675,408	-59,003	-0,028	0,009
-674,393	800,000	-0,065	-0,187
-673,378	163,765	-0,044	0,045
-672,364	34,743	-0,052	-0,033
-671,349	98,994	0,058	0,049
-670,335	118,771	-0,088	-0,078
-669,320	-145,956	0,110	0,007
-668,305	-47,666	-0,067	0,024
-667,291	-166,788	0,124	0,004
-666,276	-200,000	-0,000	0,052
-665,262	81,938	-0,063	-0,049
-664,247	49,233	-0,125	0,085
-663,232	-200,000	-0,012	-0,063
-662,218	584,255	-0,028	0,050
-661,203	-41,716	-0,071	0,026
-660,189	-10,715	0,055	-0,026
-659,174	-85,533	-0,100	0,022
-658,159	-200,000	-0,029	-0,143
-657,145	104,797	-0,142	-0,121
-656,130	557,030	0,057	0,100
-655,116	574,986	-0,037	0,066
-654,101	6,301	0,054	-0,029
-653,086	-40,254	-0,070	-0,026
-652,072	-41,153	0,054	0,020
-651,057	-200,000	0,007	-0,052
-650,043	-95,446	-0,058	0,011
-649,028	-122,669	0,052	0,006
-648,014	-200,000	-0,006	-0,039
-646,999	-67,112	0,092	-0,026
-645,984	87,765	0,055	-0,044
-644,970	384,098	-0,107	-0,160
-643,955	50,794	-0,088	-0,060
-642,941	-200,000	0,008	-0,101
-641,926	-46,636	0,051	0,018
-640,911	-127,787	0,063	0,007
-639,897	154,197	0,049	0,049
-638,882	-200,000	-0,009	-0,096
-637,868	-200,000	-0,002	-0,027
-636,853	103,113	0,025	-0,021
-635,838	796,865	-0,028	-0,056
-634,824	178,598	-0,003	-0,003
-633,809	309,756	0,046	0,063
-632,795	-50,036	0,055	-0,019
-631,780	25,964	0,010	0,006
-630,765	-70,536	0,050	0,014
-629,751	38,486	-0,050	0,032
-628,736	253,018	-0,099	-0,122
-627,722	-11,216	-0,052	-0,025
-626,707	76,023	0,048	0,036
-625,692	206,332	0,036	-0,041
-624,678	664,185	-0,035	-0,066
-623,663	147,963	0,063	0,061
-622,649	-43,005	-0,087	-0,032
-621,634	-95,960	-0,116	0,022
-620,619	86,207	0,022	-0,018
-619,605	9,198	0,024	-0,013
-618,590	446,484	0,064	0,102
-617,576	700,352	-0,037	0,071
-616,561	117,638	0,060	0,053
-615,546	-132,372	0,064	0,006
-614,532	179,215	0,011	-0,012
-613,517	-200,000	0,005	-0,075
-612,503	82,131	-0,070	-0,055
-611,488	-116,362	0,080	-0,011
-610,474	-98,485	-0,076	0,014
-609,459	-139,843	-0,028	-0,002
-608,444	800,000	-0,045	-0,109
-607,430	-117,001	-0,128	-0,017
-606,415	158,988	-0,028	-0,028
-605,401	-200,000	0,034	-0,179
-604,386	800,000	0,037	-0,081
-603,371	-40,943	-0,148	-0,055
-602,357	-17,349	0,033	-0,015
-601,342	-121,367	-0,069	0,008
-600,328	35,208	-0,071	-0,045
-599,313	178,639	0,051	0,054
-598,298	-43,947	-0,046	0,016
-597,284	28,898	-0,076	0,046
-596,269	800,000	0,053	0,114
-595,255	-200,000	0,005	-0,036
-594,240	63,519	-0,136	0,098
-593,225	314,587	-0,024	0,033
-592,211	446,744	-0,029	0,046
-591,196	-42,477	0,022	-0,008
-590,182	800,000	-0,064	-0,147
-589,167	800,000	-0,038	-0,086
-588,152	-26,166	0,020	0,009
-587,138	93,036	-0,081	-0,066
-586,123	-200,000	0,005	-0,102
-585,109	-200,000	0,011	0,072
-584,094	120,402	0,065	0,058
-583,079	0,018	-0,056	0,029
-582,065	108,711	-0,082	-0,071
-581,050	347,336	0,059	0,085
-580,036	-200,000	-0,005	0,073
-579,021	-64,008	-0,078	0,023
-578,006	343,579	-0,061	-0,086
-576,992	715,096	-0,035	-0,068
-575,977	21,735	0,034	0,020
-574,963	80,265	0,136	-0,105
-573,948	-122,336	0,058	0,007
-572,934	800,000	-0,058	-0,136
-571,919	-200,000	0,019	0,114
-570,904	112,732	-0,057	0,050
-569,890	-95,142	0,042	0,008
-568,875	133,507	-0,126	0,118
-567,861	168,681	0,055	0,057
-566,846	91,479	0,090	0,073
-565,831	112,842	0,089	-0,078
-564,817	73,932	-0,100	-0,076
-563,802	6,335	-0,182	-0,097
-562,788	-200,000	-0,001	0,201
-561,773	-138,311	0,087	0,007
-560,758	-0,398	0,045	-0,023
-559,744	52,277	-0,057	0,039
-558,729	-200,000	0,009	0,033
-557,715	-145,797	-0,107	-0,007
-556,700	158,830	0,022	-0,023
-555,685	419,839	-0,079	-0,122
-554,671	-12,574	0,177	-0,083
-553,656	105,646	-0,084	0,072
-552,642	800,000	0,012	0,027
-551,627	-200,000	-0,005	0,074
-550,612	540,194	-0,064	-0,111
-549,598	-42,738	0,011	0,004
-548,583	316,489	0,075	-0,103
-547,569	-200,000	-0,012	0,039
-546,554	800,000	-0,035	0,093
-545,539	474,306	0,028	-0,046
-544,525	-200,000	-0,007	0,057
-543,510	315,439	0,029	0,040
-542,496	104,806	-0,078	-0,067
-541,481	-104,970	-0,106	-0,017
-540,466	-200,000	0,000	0,011
-539,452	-13,461	0,077	-0,036
-538,437	98,943	0,078	-0,065
-537,423	800,000	-0,008	-0,016
-536,408	267,686	-0,073	-0,092
-535,393	-111,792	-0,021	0,003
-534,379	43,060	-0,082	-0,054
-533,364	185,338	-0,089	-0,096
-532,350	-114,550	0,123	0,017
-531,335	-135,277	0,104	-0,009
-530,321	225,565	-0,069	-0,081
-529,306	-72,878	-0,120	0,032
-528,291	264,818	0,061	-0,077
-527,277	-104,908	0,111	-0,018
-526,262	-200,000	-0,034	-0,111
-525,248	-200,000	-0,003	0,070
-524,233	-200,000	0,005	0,028
-523,218	800,000	-0,044	0,101
-522,204	215,172	-0,054	-0,062
-521,189	73,869	-0,062	-0,047
-520,175	126,107	0,054	-0,049
-519,160	-110,633	0,052	0,008
-518,145	-200,000	-0,008	-0,100
-517,131	-48,166	0,100	0,035
-516,116	38,029	0,098	0,062
-515,102	-91,105	0,076	0,016
-514,087	359,063	-0,075	0,108
-513,072	245,191	0,042	0,052
-512,058	453,225	-0,059	-0,094
-511,043	179,128	0,057	-0,060
-510,029	-55,729	0,102	0,033
-509,014	-200,000	-0,022	0,125
-507,999	-200,000	0,025	-0,129
-506,985	134,938	0,096	-0,090
-505,970	-44,692	-0,051	-0,018
-504,956	800,000	0,015	0,031
-503,941	52,684	0,068	0,047
-502,926	-26,473	0,135	-0,057
-501,912	-200,000	-0,023	0,160
-500,897	-200,000	0,005	-0,090
-499,883	-200,000	-0,006	0,025
-498,868	-14,611	0,074	0,034
-497,853	181,642	0,028	-0,030
-496,839	-25,676	-0,086	-0,036
-495,824	-19,194	-0,041	-0,018
-494,810	-200,000	0,002	-0,053
-493,795	122,208	-0,145	0,130
-492,781	-200,000	-0,003	0,049
-491,766	3,478	-0,188	0,098
-490,751	0,149	-0,120	0,062
-489,737	70,002	0,098	0,073
-488,722	658,486	0,057	-0,106
-487,708	-151,154	0,198	0,011
-486,693	35,442	0,074	0,047
-485,678	-55,836	0,010	-0,003
-484,664	800,000	0,034	-0,102
-483,649	-84,452	-0,142	0,032
-482,635	99,129	0,050	-0,042
-481,620	63,346	0,076	0,055
-480,605	218,248	-0,082	0,095
-479,591	800,000	0,041	0,127
-478,576	800,000	-0,023	0,049
-477,562	118,242	-0,075	-0,067
-476,547	27,719	-0,086	-0,052
-475,532	-200,000	0,008	-0,033
-474,518	800,000	0,015	-0,033
-473,503	538,558	0,031	0,053
-472,489	-50,702	0,087	0,029
-471,474	-34,095	0,068	0,027
-470,459	745,523	-0,067	-0,130
-469,445	-167,202	0,070	-0,002
-468,430	800,000	0,031	-0,080
-467,416	-3,004	0,042	-0,021
-466,401	174,421	0,074	0,077
-465,386	-200,000	-0,006	0,041
-464,372	42,836	0,136	0,089
-463,357	-38,286	-0,024	0,009
-462,343	800,000	0,022	-0,053
-461,328	153,729	-0,069	0,068
-460,313	-200,000	0,023	0,152
-459,299	-19,998	-0,043	-0,019
-458,284	-128,901	0,075	-0,007
-457,270	800,000	0,025	0,063
-456,255	-200,000	-0,007	-0,025
-455,241	-90,953	-0,090	-0,019
-454,226	800,000	-0,014	-0,035
-453,211	374,407	0,020	-0,029
-452,197	354,942	0,108	0,155
-451,182	55,070	-0,040	0,028
-450,168	800,000	0,020	0,042
-449,153	-75,073	0,013	0,003
-448,138	800,000	-0,030	0,076
-447,124	-200,000	0,016	0,062
-446,109	-55,182	-0,159	0,051
-445,095	800,000	-0,028	0,067
-444,080	686,339	0,039	0,073
-443,065	800,000	0,046	0,135
-442,051	52,645	0,024	0,016
-441,036	-200,000	-0,000	-0,011
-440,022	-200,000	0,028	-0,112
-439,007	-155,820	-0,102	0,005
-437,992	335,972	0,070	0,098
-436,978	16,365	-0,116	0,066
-435,963	800,000	-0,026	0,062
-434,949	-160,089	-0,077	0,003
-433,934	-200,000	0,010	-0,080
-432,919	526,366	-0,017	0,029
-431,905	520,726	-0,039	-0,066
-430,890	-77,688	0,102	0,025
-429,876	146,260	0,027	-0,026
-428,861	596,614	0,009	-0,016
-427,846	-84,046	0,051	-0,011
-426,832	152,047	-0,076	0,074
-425,817	-89,072	-0,049	-0,010
-424,803	800,000	-0,007	-0,018
-423,788	36,715	-0,105	0,067
-422,773	-142,390	0,196	0,014
-421,759	-139,392	-0,062	0,005
-420,744	-200,000	0,017	-0,115
-419,730	-3,678	0,020	0,010
-418,715	-200,000	0,006	-0,034
-417,701	-200,000	-0,017	-0,118
-416,686	800,000	-0,036	-0,111
-415,671	-200,000	0,006	0,028
-414,657	18,462	0,072	0,041
-413,642	-200,000	0,012	-0,073
-412,628	152,933	-0,059	0,058
-411,613	56,286	-0,019	0,013
-410,598	449,665	-0,087	0,138
-409,584	-200,000	-0,026	-0,121
-408,569	27,617	0,067	-0,041
-407,555	40,248	0,112	-0,072
-406,540	800,000	0,025	0,070
-405,525	-142,282	-0,147	-0,010
-404,511	314,100	-0,082	-0,110
-403,496	-159,477	-0,026	0,001
-402,482	620,161	-0,016	-0,030
-401,467	68,168	0,083	0,061
-400,452	-200,000	0,025	0,094
-399,438	-200,000	0,044	0,182
-398,423	800,000	-0,031	0,076
-397,409	74,384	0,052	-0,039
-396,394	676,269	-0,046	0,087
-395,379	800,000	0,029	0,074
-394,365	-65,736	0,116	0,033
-393,350	89,499	0,097	0,078
-392,336	74,481	0,046	0,034
-391,321	186,872	-0,026	0,028
-390,306	63,227	-0,070	-0,050
-389,292	219,467	-0,083	-0,096
-388,277	116,091	-0,047	-0,041
-387,263	-200,000	-0,009	-0,172
-386,248	-52,043	-0,085	0,028
-385,233	-18,630	-0,080	-0,036
-384,219	-13,536	0,040	0,018
-383,204	-96,396	0,104	-0,019
-382,190	165,954	0,088	-0,089
-381,175	-163,150	0,034	0,001
-380,160	-114,027	0,109	0,015
-379,146	95,811	-0,047	-0,039
-378,131	-136,503	-0,064	-0,005
-377,117	-175,862	-0,101	-0,002
-376,102	161,095	0,113	-0,113
-375,088	-163,514	-0,093	0,003
-374,073	-200,000	0,040	0,216
-373,058	120,601	0,043	-0,038
-372,044	-200,000	0,004	-0,020
-371,029	341,330	0,023	0,033
-370,015	220,125	-0,024	-0,028
-369,000	-39,434	0,080	0,030
-367,985	-97,499	0,022	0,004
-366,971	129,402	0,020	-0,018
-365,956	187,075	-0,061	-0,066
-364,942	800,000	0,006	0,017
-363,927	38,909	-0,053	0,034
-362,912	606,155	-0,021	0,039
-361,898	-82,410	0,032	-0,007
-360,883	-165,155	-0,130	-0,004
-359,869	-48,645	-0,035	-0,012
-358,854	-53,940	0,147	0,048
-357,839	218,777	0,129	0,147
-356,825	800,000	0,078	0,157
-355,810	27,352	-0,049	0,029
-354,796	107,525	0,096	0,082
-353,781	-200,000	-0,031	-0,108
-352,766	87,522	-0,049	-0,038
-351,752	-23,084	0,107	-0,046
-350,737	19,848	-0,048	-0,028
-349,723	260,177	0,048	-0,060
-348,708	-200,000	-0,020	0,087
-347,693	800,000	-0,026	-0,058
-346,679	-66,308	-0,060	-0,017
-345,664	69,971	-0,038	-0,028
-344,650	592,874	-0,014	-0,025
-343,635	-20,670	-0,061	0,027
-342,620	800,000	-0,013	-0,038
-341,606	297,542	0,055	0,073
-340,591	638,321	-0,022	-0,040
-339,577	621,222	-0,040	-0,072
-338,562	-200,000	-0,017	-0,057
-337,548	41,363	-0,045	0,029
-336,533	-200,000	0,016	0,069
-335,518	-200,000	-0,017	-0,067
-334,504	338,647	-0,051	0,072
-333,489	74,376	0,059	-0,044
-332,475	-200,000	-0,037	-0,132
-331,460	2,754	-0,050	-0,026
-330,445	-34,779	0,038	-0,015
-329,431	43,383	0,025	-0,016
-328,416	800,000	0,027	0,067
-327,402	-64,563	0,108	-0,031
-326,387	141,323	0,077	0,073
-325,372	800,000	0,040	0,111
-324,358	800,000	0,039	-0,079
-323,343	800,000	0,052	0,103
-322,329	-200,000	-0,018	-0,160
-321,314	-56,086	0,093	0,029
-320,299	384,897	-0,086	0,128
-319,285	62,256	0,091	-0,065
-318,270	-200,000	-0,001	-0,091
-317,256	175,284	0,045	0,046
-316,241	-82,799	-0,070	0,016
-315,226	-200,000	0,009	-0,048
-314,212	148,229	0,078	-0,075
-313,197	558,419	-0,040	0,070
-312,183	800,000	-0,038	0,108
-311,168	-116,553	0,144	-0,019
-310,153	-200,000	0,008	0,090
-309,139	-149,000	-0,041	0,002
-308,124	800,000	-0,078	0,165
-307,110	800,000	-0,040	0,110
-306,095	554,885	-0,061	-0,106
-305,080	173,486	-0,032	-0,033
-304,066	215,059	-0,081	-0,092
-303,051	-97,963	0,086	-0,016
-302,037	-109,228	0,092	0,014
-301,022	73,267	-0,131	-0,098
-300,008	-191,372	0,177	0,001
-298,993	-87,903	0,118	0,025
-297,978	-35,740	-0,185	0,071
-296,964	-64,480	0,060	-0,017
-295,949	481,346	-0,041	0,066
-294,935	26,244	-0,054	-0,032
-293,920	800,000	0,014	0,029
-292,905	217,914	-0,054	0,061
-291,891	-200,000	-0,018	0,058
-290,876	-13,881	-0,105	-0,048
-289,862	61,551	-0,121	0,086
-288,847	136,219	-0,115	0,107
-287,832	-200,000	0,020	-0,076
-286,818	-200,000	-0,015	-0,074
-285,803	-200,000	-0,029	0,101
-284,789	-200,000	0,007	-0,081
-283,774	287,268	0,120	0,156
-282,759	-200,000	0,005	-0,029
-281,745	-200,000	-0,003	-0,024
-280,730	346,633	0,070	-0,099
-279,716	-132,510	0,118	-0,011
-278,701	160,407	-0,090	-0,089
-277,686	-42,794	-0,115	0,042
-276,672	115,251	-0,032	0,028
-275,657	800,000	-0,055	0,126
-274,643	560,044	-0,052	0,091
-273,628	-28,610	-0,088	0,036
-272,613	372,295	-0,017	-0,024
-271,599	-31,991	-0,102	-0,041
-270,584	168,298	0,048	-0,049
-269,570	-200,000	-0,032	0,121
-268,555	-88,534	0,076	0,016
-267,540	-166,381	-0,153	0,004
-266,526	-200,000	-0,014	-0,148
-265,511	-40,447	-0,079	-0,029
-264,497	-156,324	0,093	-0,004
-263,482	-36,999	-0,133	-0,051
-262,467	800,000	-0,051	0,131
-261,453	-200,000	-0,017	0,085
-260,438	-200,000	-0,002	0,056
-259,424	170,709	-0,147	-0,150
-258,409	-193,377	0,119	-0,001
-257,395	664,911	0,027	-0,051
-256,380	189,685	0,055	0,059
-255,365	800,000	0,015	0,034
-254,351	800,000	0,019	0,052
-253,336	63,890	-0,060	0,043
-252,322	800,000	0,031	-0,062
-251,307	-200,000	-0,011	-0,128
-250,292	-200,000	-0,004	0,037
-249,278	-116,786	0,222	0,029
-248,263	372,373	0,025	-0,036
-247,249	499,982	-0,063	-0,103
-246,234	0,773	-0,027	0,014
-245,219	764,411	0,036	-0,070
-244,205	-200,000	-0,003	0,016
-243,190	800,000	-0,023	-0,059
-242,176	-200,000	0,032	-0,146
-241,161	-153,175	-0,021	0,001
-240,146	215,722	-0,017	-0,019
-239,132	18,515	-0,087	-0,050
-238,117	-200,000	-0,003	0,077
-237,103	259,817	0,017	-0,021
-236,088	800,000	0,025	0,075
-235,073	-3,790	-0,057	-0,028
-234,059	745,069	0,027	-0,052
-233,044	24,780	0,031	-0,018
-232,030	-98,751	-0,174	0,031
-231,015	65,466	0,037	-0,027
-230,000	800,000	0,049	-0,110
-228,986	-76,283	0,069	0,017
-227,971	-200,000	0,002	0,040
-226,957	-38,791	0,203	0,076
-225,942	29,321	-0,039	0,024
-224,927	79,982	0,056	-0,043
-223,913	55,047	-0,145	-0,100
-222,898	151,487	-0,009	0,008
-221,884	-8,263	0,099	-0,047
-220,869	-137,529	0,183	0,015
-219,855	800,000	-0,060	-0,125
-218,840	-200,000	-0,020	0,086
-217,825	800,000	0,061	0,145
-216,811	-159,633	-0,138	-0,005
-215,796	-77,237	0,140	-0,034
-214,782	-175,725	0,044	0,001
-213,767	41,620	0,074	0,048
-212,752	333,020	-0,013	0,018
-211,738	-200,000	-0,007	0,148
-210,723	163,008	0,037	0,037
-209,709	-10,820	-0,055	0,026
-208,694	96,723	0,084	0,069
-207,679	171,944	-0,069	-0,070
-206,665	217,652	0,052	0,059
-205,650	-200,000	0,015	0,118
-204,636	-200,000	-0,120	-0,000
-203,621	800,000	-0,035	-0,084
-202,606	-200,000	-0,027	-0,114
-201,592	-200,000	0,014	0,068
-200,577	-60,448	-0,087	-0,026
-199,563	-37,813	-0,042	-0,016
-198,548	-200,000	0,013	0,113
-197,533	-200,000	-0,014	0,132
-196,519	800,000	0,053	0,129
-195,504	33,812	0,087	-0,054
-194,490	23,900	-0,072	0,042
-193,475	-47,716	-0,094	0,032
-192,460	800,000	0,049	-0,132
-191,446	108,612	0,113	0,096
-190,431	119,470	-0,097	0,086
-189,417	-200,000	0,006	0,068
-188,402	334,507	0,087	-0,121
-187,387	118,681	0,092	-0,081
-186,373	223,315	-0,061	0,070
-185,358	-91,092	0,078	0,016
-184,344	-200,000	0,046	0,165
-183,329	69,079	-0,087	0,064
-182,315	-62,973	0,105	-0,031
-181,300	60,507	0,091	-0,064
-180,285	512,246	-0,041	0,068
-179,271	-200,000	0,003	-0,179
-178,256	228,623	0,080	-0,093
-177,242	123,373	0,040	-0,036
-176,227	-200,000	0,013	0,128
-175,212	-200,000	-0,017	0,074
-174,198	264,070	-0,021	0,027
-173,183	138,377	-0,032	-0,030
-172,169	-53,261	0,047	-0,015
-171,154	48,567	-0,032	0,021
-170,139	-200,000	-0,003	-0,063
-169,125	65,694	-0,052	0,038
-168,110	740,769	0,030	0,058
-167,096	-101,315	-0,013	-0,002
-166,081	73,972	0,046	0,034
-165,066	89,429	-0,060	-0,047
-164,052	284,022	-0,081	-0,104
-163,037	98,673	0,019	-0,016
-162,023	-139,666	0,095	0,007
-161,008	-200,000	-0,003	-0,035
-159,993	-200,000	0,003	0,015
-158,979	-200,000	-0,002	0,011
-157,964	-200,000	0,031	-0,099
-156,950	800,000	-0,060	-0,143
-155,935	82,122	0,052	-0,040
-154,920	89,397	0,084	0,067
-153,906	799,843	0,040	-0,078
-152,891	539,096	-0,064	-0,109
-151,877	-200,000	0,029	0,134
-150,862	-200,000	0,013	-0,215
-149,847	-49,646	-0,087	0,029
-148,833	-52,777	0,079	-0,026
-147,818	727,087	0,019	0,036
-146,804	-200,000	-0,016	0,111
-145,789	73,425	-0,053	-0,039
-144,775	-200,000	0,037	-0,219
-143,760	-90,112	0,037	0,008
-142,745	-99,167	0,086	-0,015
-141,731	-200,000	-0,026	0,096
-140,716	234,265	0,021	-0,024
-139,702	-200,000	-0,018	0,157
-138,687	-151,614	0,031	-0,002
-137,672	-4,450	-0,099	0,048
-136,658	211,690	0,018	-0,020
-135,643	-193,629	0,029	0,000
-134,629	800,000	0,052	-0,111
-133,614	800,000	0,034	0,100
-132,599	38,153	0,079	0,050
-131,585	800,000	-0,005	-0,015
-130,570	-200,000	-0,003	0,096
-129,556	-62,423	-0,089	0,026
-128,541	583,545	0,033	-0,058
-127,526	-55,847	-0,099	0,031
-126,512	-39,661	-0,046	0,017
-125,497	112,504	0,026	0,022
-124,483	-200,000	0,010	0,098
-123,468	-200,000	0,019	0,111
-122,453	-200,000	-0,003	-0,088
-121,439	-35,303	0,044	-0,017
-120,424	-14,681	-0,085	0,039
-119,410	-101,685	0,054	-0,009
-118,395	762,499	0,055	0,107
-117,380	6,860	0,122	0,064
-116,366	800,000	0,050	-0,153
-115,351	-51,660	0,073	-0,024
-114,337	-68,495	-0,044	0,012
-113,322	-200,000	0,008	-0,042
-112,307	-200,000	-0,003	-0,028
-111,293	3,573	0,075	0,039
-110,278	-200,000	-0,006	0,042
-109,264	800,000	-0,050	-0,112
-108,249	-7,040	-0,110	-0,053
-107,234	146,462	0,177	0,168
-106,220	-93,168	-0,131	-0,026
-105,205	151,059	0,099	-0,096
-104,191	153,159	-0,036	0,035
-103,176	-200,000	0,019	0,076
-102,162	-57,890	-0,075	0,023
-101,147	-58,323	0,017	0,005
-100,132	-200,000	-0,009	0,094
-99,118	686,901	0,039	-0,072
-98,103	-200,000	0,000	-0,042
-97,089	-200,000	0,006	-0,102
-96,074	471,352	0,040	-0,065
-95,059	161,802	0,093	0,093
-94,045	78,962	-0,068	-0,052
-93,030	111,364	-0,061	-0,052
-92,016	800,000	0,032	0,069
-91,001	-200,000	-0,005	0,042
-89,986	800,000	-0,041	0,105
-88,972	148,805	0,109	0,104
-87,957	127,421	0,077	-0,069
-86,943	-92,926	-0,132	-0,026
-85,928	-200,000	-0,015	-0,077
-84,913	102,389	0,103	-0,085
-83,899	580,583	0,067	-0,118
-82,884	-76,589	-0,031	0,008
-81,870	211,088	0,063	-0,070
-80,855	765,090	0,051	0,098
-79,840	-108,377	0,058	-0,009
-78,826	185,962	-0,092	0,097
-77,811	-200,000	0,008	0,054
-76,797	-142,035	-0,094	-0,007
-75,782	57,274	0,201	0,139
-74,767	125,747	-0,072	0,065
-73,753	-41,624	0,109	0,039
-72,738	466,885	-0,035	0,056
-71,724	45,668	-0,124	-0,081
-70,709	42,824	0,062	0,040
-69,694	-200,000	0,033	0,121
-68,680	-200,000	0,006	-0,073
-67,665	292,788	0,114	-0,148
-66,651	-200,000	-0,004	0,062
-65,636	220,587	0,115	-0,131
-64,622	124,094	0,043	-0,038
-63,607	95,672	-0,048	0,039
-62,592	-53,020	-0,170	0,055
-61,578	36,415	-0,085	-0,053
-60,563	577,242	-0,035	-0,060
-59,549	800,000	0,062	-0,148
-58,534	-22,485	-1,423	-0,607
-57,519	397,509	-1,410	-2,094
-56,505	-200,000	-0,556	-4,652
-55,490	91,683	1,087	0,865
-54,476	800,000	4,905	11,367
-53,461	-200,000	18,887	305,318
-52,446	800,000	736,316	2292,383
-51,432	567,689	1652,477	2852,197
-50,417	79,013	1670,205	1264,786
-49,403	22,112	1543,013	889,126
-48,388	16,016	1465,787	815,018
-47,373	17,771	1455,805	817,911
-46,359	16,867	1445,927	807,992
-45,344	14,212	1441,497	792,779
-44,330	14,179	1439,635	791,564
-43,315	14,184	1437,628	790,455
-42,300	14,209	1436,141	789,723
-41,286	14,255	1434,695	789,118
-40,271	14,186	1433,649	788,182
-39,257	14,155	1432,330	787,277
-38,242	14,199	1431,258	786,868
-37,227	14,217	1429,907	786,178
-36,213	14,204	1428,640	785,387
-35,198	14,238	1427,305	784,784
-34,184	14,254	1426,588	784,433
-33,169	14,136	1425,437	783,213
-32,154	14,211	1424,213	782,865
-31,140	14,240	1422,800	782,191
-30,125	14,269	1421,686	781,688
-29,111	14,255	1420,346	780,852
-28,096	14,234	1419,466	780,237
-27,082	14,163	1418,353	779,260
-26,067	14,107	1417,545	778,525
-25,052	14,146	1416,309	777,997
-24,038	14,147	1415,317	777,425
-23,023	14,132	1414,331	776,785
-22,009	14,103	1413,196	775,992
-20,994	14,120	1412,547	775,686
-19,979	14,149	1411,461	775,196
-18,965	14,059	1410,640	774,290
-17,950	14,081	1409,700	773,847
-16,936	14,116	1408,743	773,456
-15,921	14,049	1407,560	772,462
-14,906	14,008	1406,966	771,913
-13,892	14,041	1405,785	771,390
-12,877	14,045	1404,973	770,930
-11,863	14,059	1404,050	770,457
-10,848	14,010	1403,160	769,711
-9,833	13,981	1402,211	769,024
-8,819	13,982	1401,456	768,586
-7,804	14,014	1400,332	768,085
-6,790	13,978	1399,261	767,304
-5,775	13,980	1398,151	766,672
-4,760	13,967	1397,424	766,185
-3,746	13,936	1396,611	765,564
-2,731	13,908	1395,918	765,021
-1,717	13,942	1394,741	764,507
-0,702	13,930	1393,046	763,490
0,313	17,764	1310,959	736,269
1,327	34,036	706,037	434,221
2,342	52,153	124,056	83,516
3,356	2,950	16,676	8,540
4,371	3,382	3,100	1,592
5,386	-52,262	0,593	0,193
6,400	492,849	0,088	0,143
7,415	255,540	-0,176	-0,214
8,429	29,332	-0,330	-0,198
9,444	53,089	-0,234	-0,158
10,459	15,659	-0,224	-0,124
11,473	30,450	-0,218	-0,131
12,488	94,189	-0,247	-0,198
13,502	77,291	-0,278	-0,209
14,517	137,545	-0,272	-0,252
15,531	66,682	-0,390	-0,280
16,546	159,276	-0,392	-0,385
17,561	117,179	-0,390	-0,339
18,575	-35,960	-0,158	-0,060
19,590	47,199	-0,260	-0,170
20,604	-16,627	-0,356	-0,158
21,619	24,652	-0,478	-0,279
22,634	115,858	-0,443	-0,383
23,648	201,307	-0,447	-0,487
24,663	172,339	-0,318	-0,324
25,677	210,180	-0,334	-0,371
26,692	136,536	-0,324	-0,299
27,707	-9,440	-0,364	-0,171
28,721	240,543	-0,322	-0,379
29,736	52,940	-0,418	-0,282
30,750	368,455	-0,258	-0,369
31,765	3,018	-0,352	-0,180
32,780	62,972	-0,388	-0,273
33,794	532,086	-0,248	-0,415
34,809	141,658	-0,362	-0,338
35,823	-14,179	-0,387	-0,176
36,838	139,448	-0,319	-0,296
37,853	89,574	-0,399	-0,313
38,867	124,023	-0,356	-0,316
39,882	24,592	-0,382	-0,223
40,896	252,236	-0,315	-0,379
41,911	328,405	-0,297	-0,403
42,926	63,061	-0,393	-0,277
43,940	101,146	-0,397	-0,325
44,955	17,107	-0,500	-0,279
45,969	78,678	-0,350	-0,263
46,984	-9,805	-0,446	-0,208
47,999	-20,610	-0,318	-0,137
49,013	40,767	-0,249	-0,158
50,028	171,825	-0,340	-0,344
51,042	332,299	-0,234	-0,320
52,057	-60,630	-0,485	-0,144
53,071	116,249	-0,312	-0,269
54,086	183,825	-0,282	-0,294
55,101	53,660	-0,338	-0,228
56,115	-4,050	-0,464	-0,225
57,130	-50,388	-0,230	-0,076
58,144	29,356	-0,430	-0,257
59,159	71,832	-0,495	-0,362
60,174	-21,576	-0,393	-0,168
61,188	551,471	-0,149	-0,253
62,203	-4,735	-0,369	-0,179
63,217	39,112	-0,359	-0,225
64,232	108,767	-0,333	-0,280
65,247	107,395	-0,337	-0,282
66,261	15,694	-0,379	-0,209
67,276	3,713	-0,367	-0,188
68,290	43,923	-0,219	-0,141
69,305	64,256	-0,324	-0,229
70,320	-111,889	-0,319	-0,045
71,334	14,672	-0,347	-0,190
72,349	412,515	-0,253	-0,379
73,363	112,879	-0,317	-0,270
74,378	378,768	-0,221	-0,320
75,393	255,341	-0,201	-0,243
76,407	5,849	-0,331	-0,172
77,422	197,655	-0,251	-0,270
78,436	70,180	-0,339	-0,246
79,451	-41,601	-0,367	-0,132
80,466	310,723	-0,203	-0,268
81,480	208,179	-0,272	-0,299
82,495	335,509	-0,224	-0,306
83,509	800,000	-0,131	-0,322
84,524	-84,210	-0,379	-0,084
85,539	75,494	-0,259	-0,192
86,553	18,111	-0,306	-0,171
87,568	143,188	-0,317	-0,296
88,582	4,327	-0,393	-0,202
89,597	-126,930	-0,156	-0,016
90,611	210,528	-0,259	-0,286
91,626	15,603	-0,441	-0,243
92,641	152,476	-0,229	-0,220
93,655	-8,731	-0,386	-0,181
94,670	139,783	-0,217	-0,201
95,684	201,712	-0,249	-0,269
96,699	108,806	-0,312	-0,261
97,714	21,005	-0,186	-0,106
98,728	-86,892	-0,226	-0,048
99,743	174,769	-0,228	-0,232
100,757	-46,648	-0,312	-0,107
101,772	62,833	-0,245	-0,172
102,787	135,342	-0,349	-0,318
103,801	763,381	-0,191	-0,365
104,816	-3,264	-0,229	-0,111
105,830	130,480	-0,276	-0,248
106,845	-22,106	-0,150	-0,064
107,860	-95,934	-0,175	-0,032
108,874	163,988	-0,201	-0,199
109,889	-43,259	-0,407	-0,143
110,903	421,454	-0,214	-0,322
111,918	164,620	-0,260	-0,257
112,933	-40,067	-0,206	-0,075
113,947	93,089	-0,271	-0,214
114,962	16,815	-0,202	-0,112
115,976	-90,837	-0,335	-0,067
116,991	40,002	-0,410	-0,258
118,006	99,865	-0,250	-0,203
119,020	351,068	-0,231	-0,321
120,035	320,470	-0,239	-0,319
121,049	30,407	-0,197	-0,117
122,064	-31,696	-0,289	-0,113
123,079	154,583	-0,240	-0,231
124,093	405,823	-0,215	-0,318
125,108	53,773	-0,324	-0,218
126,122	132,774	-0,211	-0,191
127,137	-29,046	-0,244	-0,098
128,151	37,607	-0,182	-0,113
129,166	-6,900	-0,277	-0,131
130,181	101,340	-0,165	-0,134
131,195	71,782	-0,332	-0,241
132,210	244,517	-0,217	-0,255
133,224	-30,798	-0,227	-0,089
134,239	-58,691	-0,263	-0,079
135,254	143,086	-0,184	-0,172
136,268	-5,266	-0,363	-0,174
137,283	199,033	-0,254	-0,272
138,297	76,940	-0,329	-0,244
139,312	260,933	-0,252	-0,306
140,327	-18,171	-0,298	-0,130
141,341	202,646	-0,132	-0,143
142,356	800,000	-0,094	-0,220
143,370	125,713	-0,149	-0,131
144,385	104,455	-0,188	-0,154
145,400	-74,770	-0,184	-0,046
146,414	-102,556	-0,382	-0,063
147,429	-133,761	-0,317	-0,027
148,443	124,350	-0,176	-0,154
149,458	800,000	-0,131	-0,268
150,473	124,652	-0,269	-0,236
151,487	625,549	-0,177	-0,312
152,502	199,067	-0,158	-0,169
153,516	111,267	-0,244	-0,205
154,531	98,921	-0,198	-0,160
155,546	324,794	-0,203	-0,271
156,560	-30,192	-0,247	-0,098
157,575	141,805	-0,207	-0,191
158,589	-45,021	-0,052	-0,018
159,604	41,603	-0,231	-0,146
160,619	216,346	-0,180	-0,200
161,633	197,853	-0,269	-0,287
162,648	702,602	-0,091	-0,169
163,662	240,367	-0,112	-0,130
164,677	212,347	-0,280	-0,309
165,692	606,948	-0,190	-0,331
166,706	30,458	-0,164	-0,097
167,721	290,673	-0,144	-0,182
168,735	164,953	-0,323	-0,318
169,750	248,665	-0,132	-0,156
170,764	35,584	-0,134	-0,082
171,779	-93,158	-0,243	-0,047
172,794	34,754	-0,198	-0,120
173,808	243,525	-0,121	-0,142
174,823	104,004	-0,341	-0,280
175,837	42,885	-0,266	-0,169
176,852	203,062	-0,269	-0,290
177,867	49,952	-0,245	-0,161
178,881	-165,805	-0,219	0,006
179,896	48,075	-0,228	-0,148
180,910	554,534	-0,130	-0,218
181,925	93,531	-0,295	-0,232
182,940	24,552	-0,191	-0,110
183,954	-29,352	-0,243	-0,096
184,969	113,262	-0,073	-0,062
185,983	83,165	-0,192	-0,145
186,998	-28,110	-0,215	-0,086
188,013	119,006	-0,306	-0,263
189,027	38,268	-0,227	-0,140
190,042	275,005	-0,237	-0,292
191,056	11,314	-0,396	-0,210
192,071	331,849	-0,179	-0,240
193,086	-45,694	-0,131	-0,045
194,100	122,215	-0,262	-0,228
195,115	-28,207	-0,259	-0,104
196,129	-77,064	-0,284	-0,068
197,144	82,528	-0,193	-0,146
198,159	-78,350	-0,272	-0,064
199,173	-10,487	-0,261	-0,120
200,188	59,525	-0,125	-0,086
201,202	273,978	-0,162	-0,199
202,217	95,020	-0,217	-0,171
203,232	18,569	-0,282	-0,157
204,246	-4,573	-0,238	-0,114
205,261	454,852	-0,156	-0,242
206,275	39,864	-0,236	-0,147
207,290	-25,813	-0,218	-0,089
208,304	489,450	-0,079	-0,126
209,319	-1,673	-0,167	-0,081
210,334	800,000	-0,031	-0,073
211,348	52,261	-0,293	-0,194
212,363	183,319	-0,230	-0,236
213,377	-123,432	-0,134	-0,015
214,392	654,323	-0,106	-0,190
215,407	800,000	-0,096	-0,194
216,421	40,810	-0,189	-0,118
217,436	800,000	-0,160	-0,354
218,450	-189,301	-0,263	0,002
219,465	103,778	-0,234	-0,191
220,480	32,689	-0,275	-0,165
221,494	408,644	-0,070	-0,103
222,509	96,630	-0,178	-0,141
223,523	168,004	-0,167	-0,165
224,538	77,172	-0,192	-0,142
225,553	-48,985	-0,293	-0,097
226,567	4,530	-0,292	-0,148
227,582	119,792	-0,209	-0,180
228,596	-25,833	-0,253	-0,103
229,611	-4,918	-0,091	-0,043
230,626	354,092	-0,161	-0,223
231,640	198,032	-0,196	-0,208
232,655	-87,365	-0,252	-0,052
233,669	-200,000	-0,005	-0,190
234,684	2,985	-0,092	-0,046
235,699	115,287	-0,096	-0,081
236,713	86,128	-0,194	-0,148
237,728	34,445	-0,199	-0,120
238,742	568,794	-0,148	-0,251
239,757	-200,000	0,040	-0,314
240,772	45,607	-0,186	-0,119
241,786	800,000	-0,134	-0,328
242,801	5,683	-0,156	-0,079
243,815	93,728	-0,041	-0,032
244,830	343,923	-0,117	-0,159
245,844	472,833	-0,089	-0,140
246,859	-45,571	-0,269	-0,092
247,874	98,463	-0,147	-0,118
248,888	257,106	-0,210	-0,251
249,903	221,673	-0,144	-0,161
250,917	135,925	-0,138	-0,125
251,932	197,153	-0,117	-0,123
252,947	-139,268	-0,205	-0,015
253,961	-27,364	-0,281	-0,113
254,976	-90,558	-0,190	-0,038
255,990	485,794	-0,117	-0,185
257,005	-2,347	-0,172	-0,083
258,020	335,503	-0,097	-0,131
259,034	608,450	-0,079	-0,137
260,049	172,156	-0,103	-0,102
261,063	-200,000	-0,048	-0,240
262,078	152,441	-0,181	-0,171
263,093	115,787	-0,183	-0,155
264,107	-26,876	-0,247	-0,099
265,122	-49,387	-0,229	-0,075
266,136	290,106	-0,163	-0,205
267,151	800,000	-0,104	-0,206
268,166	-31,245	-0,178	-0,069
269,180	-39,587	-0,114	-0,041
270,195	138,183	-0,141	-0,128
271,209	247,385	-0,174	-0,204
272,224	75,575	-0,042	0,031
273,239	81,415	-0,047	-0,035
274,253	800,000	-0,104	-0,221
275,268	-35,249	-0,271	-0,101
276,282	-6,058	-0,215	-0,101
277,297	278,063	-0,132	-0,162
278,312	800,000	-0,079	-0,207
279,326	-179,185	-0,199	-0,003
280,341	198,105	-0,076	-0,080
281,355	-40,050	-0,207	-0,074
282,370	371,712	-0,122	-0,172
283,384	63,705	-0,259	-0,179
284,399	116,146	-0,193	-0,163
285,414	-25,202	-0,154	-0,063
286,428	114,476	-0,125	-0,105
287,443	-200,000	-0,033	-0,122
288,457	10,826	-0,170	-0,089
289,472	54,218	-0,116	0,077
290,487	-32,537	-0,211	-0,081
291,501	12,487	-0,176	-0,094
292,516	-49,314	-0,109	-0,036
293,530	-200,000	-0,076	-0,258
294,545	800,000	-0,015	-0,030
295,560	70,179	-0,098	-0,069
296,574	-200,000	-0,007	-0,063
297,589	157,734	-0,128	-0,122
298,603	234,066	-0,167	-0,189
299,618	76,701	-0,195	-0,142
300,633	362,808	-0,094	-0,130
301,647	-116,399	0,039	0,005
302,662	216,814	-0,155	-0,170
303,676	-123,806	-0,084	0,009
304,691	-200,000	-0,034	-0,133
305,706	-200,000	-0,067	-0,255
306,720	135,359	-0,200	-0,179
307,735	35,065	-0,094	-0,057
308,749	-200,000	-0,044	-0,220
309,764	38,516	-0,105	-0,064
310,779	-5,840	-0,201	-0,094
311,793	2,964	-0,159	-0,079
312,808	-114,064	-0,192	-0,025
313,822	168,952	-0,095	-0,094
314,837	-88,970	-0,091	-0,018
315,852	409,701	-0,074	-0,108
316,866	213,369	-0,040	-0,043
317,881	111,806	-0,028	0,023
318,895	365,798	-0,128	-0,179
319,910	113,456	-0,146	-0,122
320,925	527,053	-0,112	-0,182
321,939	-18,609	-0,068	-0,029
322,954	310,689	-0,059	-0,076
323,968	-51,302	-0,192	-0,061
324,983	207,176	-0,152	-0,164
325,997	114,911	-0,179	-0,150
327,012	29,227	-0,194	-0,113
328,027	73,314	-0,175	-0,126
329,041	54,397	-0,188	-0,124
330,056	800,000	-0,054	-0,147
331,070	349,979	-0,119	-0,162
332,085	610,374	-0,082	-0,142
333,100	-68,261	-0,166	-0,044
334,114	241,884	-0,141	-0,162
335,129	-32,311	-0,245	-0,093
336,143	104,383	-0,199	-0,161
337,158	100,125	-0,103	-0,082
338,173	-200,000	0,018	-0,104
339,187	-119,408	-0,075	-0,009
340,202	-168,305	-0,185	0,005
341,216	180,524	-0,175	-0,176
342,231	-11,064	-0,207	-0,094
343,246	541,074	-0,122	-0,199
344,260	800,000	-0,069	-0,160
345,275	229,949	-0,149	-0,167
346,289	514,735	0,005	-0,009
347,304	137,559	-0,068	0,061
348,319	-62,469	-0,199	-0,056
349,333	800,000	-0,049	-0,112
350,348	-19,428	-0,096	-0,041
351,362	800,000	-0,052	-0,136
352,377	76,907	-0,114	-0,083
353,392	421,358	-0,013	0,019
354,406	40,268	-0,075	-0,046
355,421	209,353	1314,038	1413,833
356,435	161,121	1474,675	1414,312
