DTS Sentinel unit serial number:	SN410029Multiplexer serial number:	ORYXHardware model number:	OX2-SRSoftware version number:	ORYX F/W v4,00 Oryx Data Collector v3.7.2.0data status	okinstallation	B3 Nyhavnadifferential loss correction	single-endedforward channel	channel 1reverse channel	N/Adate	2023/12/03time	13:17:30forward acquisition time	300,00reverse acquisition time	0,00gamma	499,1914k internal	0,3200k external	0,3200temperature offset calibration	1,0000default loss term (dB/km)	0,3820temperature slope calibration	1,0000multiplexer offset coefficient	1,0000multiplexer slope coefficient	1,0000fibre end	0,00T internal ref (°C)	14,85T ext. ref 1 (°C)	1,11T ext. ref 2 (°C)	1,10length (m)	temperature (°C)	Stokes	anti-Stokes-744,400	331,734	-0,214	-0,301
-743,385	-200,000	0,074	0,268
-742,371	-18,418	-0,195	-0,088
-741,356	800,000	0,110	0,337
-740,342	800,000	-0,079	-0,236
-739,327	-200,000	0,095	0,345
-738,312	158,252	-0,213	-0,215
-737,298	708,891	-0,134	0,258
-736,283	36,985	-0,176	-0,113
-735,269	-200,000	0,040	0,328
-734,254	800,000	-0,152	-0,389
-733,239	-69,063	-0,265	-0,074
-732,225	800,000	-0,050	-0,111
-731,210	-65,010	0,185	0,054
-730,196	34,976	0,053	-0,034
-729,181	6,431	-0,093	0,050
-728,167	529,790	0,022	0,037
-727,152	-56,126	0,063	-0,020
-726,137	800,000	-0,019	-0,045
-725,123	-200,000	0,030	-0,143
-724,108	652,374	-0,062	-0,116
-723,094	-75,671	-0,072	-0,018
-722,079	262,881	-0,046	-0,058
-721,064	-200,000	0,012	-0,125
-720,050	135,806	0,058	-0,055
-719,035	455,319	-0,081	0,131
-718,021	7,962	0,041	-0,022
-717,006	93,505	-0,084	-0,069
-715,991	-9,727	-0,195	-0,094
-714,977	-107,234	-0,031	0,005
-713,962	130,219	-0,010	-0,009
-712,948	800,000	0,010	-0,030
-711,933	190,650	0,023	-0,025
-710,918	800,000	-0,035	0,079
-709,904	-147,402	-0,095	-0,006
-708,889	-200,000	0,004	-0,049
-707,875	-60,022	0,030	0,009
-706,860	45,298	0,124	-0,083
-705,845	40,741	0,083	0,054
-704,831	-200,000	0,023	0,081
-703,816	800,000	-0,022	-0,050
-702,802	-97,168	0,123	-0,023
-701,787	431,237	-0,031	0,049
-700,772	-200,000	-0,026	-0,093
-699,758	-200,000	-0,005	-0,099
-698,743	-179,929	0,063	-0,001
-697,729	-200,000	0,027	0,228
-696,714	49,538	-0,070	-0,048
-695,699	-110,615	-0,139	-0,021
-694,685	242,873	-0,036	0,044
-693,670	-200,000	-0,021	-0,129
-692,656	73,383	-0,029	0,022
-691,641	59,004	0,050	-0,036
-690,627	800,000	-0,052	0,142
-689,612	86,145	0,063	-0,050
-688,597	232,591	0,038	-0,045
-687,583	32,066	-0,083	-0,052
-686,568	152,267	-0,038	-0,038
-685,554	-200,000	0,000	-0,020
-684,539	217,990	0,137	0,159
-683,524	488,373	0,077	0,128
-682,510	5,022	-0,117	0,062
-681,495	349,246	-0,050	-0,072
-680,481	-19,859	0,107	-0,048
-679,466	-200,000	0,005	-0,054
-678,451	79,017	0,060	-0,047
-677,437	428,481	0,037	0,058
-676,422	26,058	0,057	0,034
-675,408	194,543	-0,143	0,157
-674,393	-200,000	0,008	0,027
-673,378	-200,000	0,002	-0,124
-672,364	132,223	-0,100	-0,093
-671,349	-25,209	-0,050	-0,021
-670,335	-68,041	-0,070	-0,020
-669,320	-6,338	0,063	0,031
-668,305	4,669	0,086	0,045
-667,291	-49,203	-0,137	-0,047
-666,276	-31,852	0,120	-0,049
-665,262	-200,000	-0,018	-0,132
-664,247	-156,976	0,007	-0,000
-663,232	390,080	0,036	-0,054
-662,218	-200,000	0,008	-0,097
-661,203	10,080	0,065	-0,036
-660,189	800,000	-0,023	0,064
-659,174	800,000	-0,040	-0,082
-658,159	-200,000	-0,011	-0,127
-657,145	2,778	-0,134	0,070
-656,130	800,000	0,028	0,060
-655,116	-80,705	0,096	0,023
-654,101	-200,000	-0,013	0,056
-653,086	739,255	0,025	0,048
-652,072	-106,522	0,114	0,018
-651,057	628,331	-0,094	-0,173
-650,043	73,699	-0,076	-0,057
-649,028	38,651	-0,102	0,066
-648,014	-7,250	0,131	-0,064
-646,999	90,830	0,052	0,042
-645,984	50,739	0,101	-0,069
-644,970	39,827	0,049	-0,032
-643,955	220,973	-0,047	-0,055
-642,941	-93,313	0,052	-0,010
-641,926	272,400	0,069	-0,089
-640,911	-200,000	0,002	-0,056
-639,897	-79,301	-0,044	-0,011
-638,882	13,511	-0,053	0,030
-637,868	-111,211	-0,058	-0,009
-636,853	-200,000	0,019	-0,089
-635,838	618,629	0,030	-0,055
-634,824	-200,000	-0,001	0,067
-633,809	-54,947	0,102	0,033
-632,795	-200,000	0,013	0,126
-631,780	109,375	-0,053	-0,046
-630,765	-200,000	0,002	0,126
-629,751	9,455	0,063	-0,035
-628,736	-81,704	-0,019	0,005
-627,722	461,653	-0,080	0,129
-626,707	-8,869	0,047	-0,023
-625,692	248,505	-0,063	0,077
-624,678	-200,000	0,007	0,056
-623,663	-200,000	-0,003	0,020
-622,649	-53,905	-0,039	-0,013
-621,634	152,493	0,042	-0,042
-620,619	380,430	-0,074	-0,110
-619,605	800,000	0,016	0,033
-618,590	-200,000	-0,008	0,025
-617,576	-200,000	-0,006	0,115
-616,561	4,629	-0,058	-0,031
-615,546	-200,000	0,018	-0,120
-614,532	-136,693	-0,241	0,020
-613,517	649,917	0,019	0,036
-612,503	-9,197	0,109	0,052
-611,488	783,506	-0,011	0,022
-610,474	-61,203	0,122	-0,037
-609,459	800,000	-0,040	0,090
-608,444	370,769	-0,062	0,091
-607,430	800,000	0,029	-0,088
-606,415	-117,139	-0,231	-0,030
-605,401	59,153	-0,040	0,028
-604,386	-200,000	0,010	-0,097
-603,371	63,837	-0,045	-0,032
-602,357	126,588	-0,051	0,047
-601,342	193,575	-0,079	-0,086
-600,328	156,493	-0,033	-0,033
-599,313	63,557	-0,208	-0,151
-598,298	614,844	0,013	-0,024
-597,284	-200,000	-0,004	0,074
-596,269	-46,551	0,074	0,026
-595,255	57,748	0,008	0,006
-594,240	92,463	-0,028	0,023
-593,225	637,000	-0,063	-0,116
-592,211	-18,785	-0,094	0,042
-591,196	351,904	-0,071	-0,102
-590,182	-138,847	0,072	0,006
-589,167	205,867	0,118	0,132
-588,152	-200,000	0,012	0,042
-587,138	-200,000	-0,000	-0,052
-586,123	-200,000	0,043	-0,000
-585,109	18,526	-0,021	0,012
-584,094	251,445	0,087	-0,107
-583,079	-140,344	-0,058	-0,004
-582,065	163,279	0,046	0,047
-581,050	46,324	0,052	0,035
-580,036	196,773	-0,102	-0,113
-579,021	412,162	0,063	0,097
-578,006	-200,000	-0,026	-0,110
-576,992	800,000	-0,084	-0,194
-575,977	-200,000	-0,011	0,036
-574,963	474,540	-0,052	0,085
-573,948	142,426	0,056	0,054
-572,934	-82,268	0,068	-0,016
-571,919	800,000	0,018	0,039
-570,904	522,928	-0,084	-0,142
-569,890	342,885	0,038	0,054
-568,875	-121,482	0,030	-0,004
-567,861	-77,130	0,101	0,025
-566,846	-180,820	0,091	0,001
-565,831	70,810	0,131	0,098
-564,817	-56,291	-0,121	0,039
-563,802	-200,000	-0,021	-0,083
-562,788	-178,966	-0,013	-0,000
-561,773	173,512	-0,070	-0,073
-560,758	-12,851	0,082	0,038
-559,744	76,758	0,071	0,055
-558,729	-104,594	-0,066	0,011
-557,715	33,367	0,077	-0,048
-556,700	-200,000	0,009	-0,088
-555,685	-96,868	-0,061	-0,011
-554,671	800,000	0,082	-0,165
-553,656	-52,283	-0,048	0,016
-552,642	197,369	-0,059	0,065
-551,627	-200,000	0,026	0,104
-550,612	-13,345	-0,089	0,041
-549,598	-123,104	0,078	0,009
-548,583	-197,205	-0,124	0,001
-547,569	-139,488	0,104	-0,008
-546,554	-168,843	0,052	-0,001
-545,539	-115,585	-0,142	0,019
-544,525	800,000	0,041	0,100
-543,510	24,654	0,061	0,036
-542,496	29,649	-0,040	0,024
-541,481	-62,679	-0,049	0,015
-540,466	-48,667	0,127	0,044
-539,452	-60,280	0,075	0,023
-538,437	-113,989	-0,021	0,003
-537,423	59,768	0,040	-0,028
-536,408	-127,398	-0,154	-0,016
-535,393	-38,543	-0,071	-0,027
-534,379	800,000	-0,025	-0,061
-533,364	-62,663	0,112	-0,033
-532,350	-103,051	0,163	0,028
-531,335	106,994	-0,097	0,083
-530,321	49,054	0,041	0,028
-529,306	4,843	0,031	-0,017
-528,291	-51,542	-0,205	0,068
-527,277	-200,000	0,004	-0,090
-526,262	90,276	0,083	-0,067
-525,248	-191,541	-0,120	0,001
-524,233	526,050	-0,008	0,014
-523,218	177,275	0,062	-0,066
-522,204	65,134	-0,023	0,016
-521,189	-99,957	0,082	0,015
-520,175	-200,000	-0,005	0,135
-519,160	42,955	-0,154	0,101
-518,145	112,053	-0,045	0,039
-517,131	-200,000	0,021	0,071
-516,116	-123,834	0,144	0,016
-515,102	75,575	-0,033	0,025
-514,087	353,695	-0,054	0,078
-513,072	488,282	0,049	-0,081
-512,058	-13,213	-0,086	0,040
-511,043	263,338	-0,078	-0,098
-510,029	169,946	-0,083	0,085
-509,014	800,000	-0,014	0,045
-507,999	-200,000	0,022	-0,078
-506,985	-181,178	0,145	0,002
-505,970	-200,000	-0,005	-0,077
-504,956	-200,000	0,015	-0,116
-503,941	529,051	0,048	-0,082
-502,926	127,228	0,120	0,109
-501,912	-200,000	-0,033	0,115
-500,897	-57,597	0,112	0,035
-499,883	-160,439	0,162	-0,006
-498,868	59,757	-0,092	-0,066
-497,853	672,947	0,063	-0,119
-496,839	-12,767	0,174	-0,081
-495,824	657,577	0,012	0,022
-494,810	-200,000	0,003	0,010
-493,795	-200,000	0,011	-0,044
-492,781	234,027	0,052	-0,062
-491,766	-155,036	-0,107	0,005
-490,751	800,000	-0,002	-0,007
-489,737	-93,662	0,054	0,011
-488,722	253,688	0,047	0,058
-487,708	800,000	-0,023	-0,068
-486,693	-49,565	-0,132	-0,045
-485,678	421,526	0,047	0,072
-484,664	-113,876	-0,205	-0,028
-483,649	756,410	0,066	0,130
-482,635	340,605	0,051	0,073
-481,620	162,554	0,038	-0,038
-480,605	-44,039	0,110	-0,040
-479,591	272,226	-0,049	-0,063
-478,576	-200,000	0,030	-0,146
-477,562	-114,452	-0,128	0,018
-476,547	-95,420	-0,075	0,014
-475,532	-152,365	0,153	0,008
-474,518	12,219	0,066	0,036
-473,503	-26,432	-0,094	0,039
-472,489	367,536	-0,028	-0,041
-471,474	-125,543	-0,035	-0,004
-470,459	-56,141	-0,133	0,042
-469,445	246,699	-0,128	-0,155
-468,430	-109,494	0,134	-0,020
-467,416	-182,974	0,036	0,000
-466,401	31,911	0,081	0,050
-465,386	-142,700	-0,072	-0,005
-464,372	178,292	-0,075	-0,079
-463,357	800,000	0,056	0,150
-462,343	178,507	-0,039	-0,041
-461,328	376,469	-0,040	-0,059
-460,313	-200,000	0,008	-0,107
-459,299	800,000	0,083	-0,231
-458,284	262,986	-0,035	0,044
-457,270	-200,000	-0,003	0,028
-456,255	216,848	0,018	-0,021
-455,241	-200,000	0,002	0,023
-454,226	211,536	-0,025	0,028
-453,211	11,356	-0,009	0,005
-452,197	-41,701	0,080	0,029
-451,182	-34,901	0,106	-0,041
-450,168	-132,904	-0,041	-0,004
-449,153	173,666	-0,008	-0,008
-448,138	-200,000	-0,024	-0,101
-447,124	-200,000	0,024	0,080
-446,109	77,225	0,066	0,050
-445,095	-68,766	0,147	0,041
-444,080	-159,923	-0,067	0,003
-443,065	129,764	-0,012	-0,011
-442,051	-92,884	-0,033	-0,007
-441,036	92,362	-0,135	-0,110
-440,022	-200,000	0,006	-0,124
-439,007	800,000	0,010	0,026
-437,992	800,000	0,106	0,224
-436,978	670,920	0,010	0,019
-435,963	800,000	0,070	0,210
-434,949	-67,328	0,117	0,033
-433,934	41,554	-0,105	-0,068
-432,919	-200,000	-0,022	-0,101
-431,905	36,537	0,085	-0,054
-430,890	-200,000	-0,014	-0,062
-429,876	-200,000	0,025	0,087
-428,861	64,820	0,035	-0,026
-427,846	43,638	0,092	-0,060
-426,832	-200,000	0,029	-0,098
-425,817	486,789	-0,038	-0,063
-424,803	-200,000	0,024	-0,095
-423,788	142,443	-0,084	0,080
-422,773	70,868	0,058	0,043
-421,759	-200,000	-0,008	0,095
-420,744	182,204	-0,067	-0,071
-419,730	-72,011	-0,075	0,020
-418,715	-85,849	-0,078	-0,017
-417,701	546,466	0,088	-0,152
-416,686	800,000	-0,049	-0,151
-415,671	19,282	-0,089	-0,051
-414,657	-200,000	0,017	-0,138
-413,642	19,083	0,040	-0,023
-412,628	656,961	-0,057	0,105
-411,613	800,000	-0,044	0,102
-410,598	131,042	-0,054	-0,050
-409,584	-12,293	0,066	-0,031
-408,569	349,115	-0,048	0,068
-407,555	800,000	0,026	0,070
-406,540	-200,000	0,021	-0,083
-405,525	-70,181	0,103	-0,028
-404,511	800,000	-0,018	-0,054
-403,496	-88,834	0,066	-0,014
-402,482	229,302	0,107	0,126
-401,467	-48,426	0,103	0,036
-400,452	98,932	-0,107	0,089
-399,438	234,145	-0,051	0,060
-398,423	-22,976	0,035	-0,015
-397,409	-200,000	0,020	-0,086
-396,394	-200,000	0,032	-0,187
-395,379	38,030	-0,099	-0,063
-394,365	415,711	0,081	0,124
-393,350	-112,350	-0,122	-0,017
-392,336	-6,957	0,061	-0,030
-391,321	76,804	-0,079	-0,060
-390,306	-77,095	-0,071	0,018
-389,292	-200,000	0,014	-0,097
-388,277	219,223	-0,080	0,092
-387,263	-32,288	-0,046	-0,018
-386,248	-33,473	-0,053	0,021
-385,233	-200,000	0,006	0,139
-384,219	800,000	-0,040	0,097
-383,204	285,395	-0,032	-0,042
-382,190	175,151	-0,089	-0,093
-381,175	216,562	0,032	-0,037
-380,160	-53,556	-0,021	-0,007
-379,146	-112,160	-0,128	0,018
-378,131	-200,000	0,003	0,027
-377,117	140,139	0,053	-0,050
-376,102	-60,496	0,084	0,026
-375,088	285,665	-0,057	-0,073
-374,073	-59,995	-0,178	-0,054
-373,058	-200,000	-0,031	0,277
-372,044	-200,000	0,007	0,125
-371,029	-12,746	0,042	0,020
-370,015	159,190	0,085	0,085
-369,000	148,631	-0,127	-0,123
-367,985	265,931	-0,084	0,106
-366,971	198,384	0,036	-0,039
-365,956	183,283	0,112	0,118
-364,942	-4,639	-0,078	-0,038
-363,927	-93,716	0,092	0,018
-362,912	-200,000	0,020	-0,072
-361,898	166,893	-0,111	0,113
-360,883	268,933	-0,063	-0,079
-359,869	-99,636	-0,031	0,006
-358,854	-200,000	0,017	0,089
-357,839	7,806	0,108	0,058
-356,825	233,250	-0,074	0,088
-355,810	556,919	0,038	0,065
-354,796	-69,380	-0,057	0,016
-353,781	-0,803	-0,053	-0,027
-352,766	-121,124	-0,023	-0,003
-351,752	797,141	0,040	0,079
-350,737	-46,888	-0,017	0,006
-349,723	-200,000	0,001	-0,043
-348,708	-93,339	0,040	-0,008
-347,693	-200,000	-0,031	-0,149
-346,679	-200,000	-0,026	-0,125
-345,664	-200,000	0,013	-0,061
-344,650	208,925	-0,029	-0,032
-343,635	-200,000	-0,003	-0,066
-342,620	2,336	0,046	0,024
-341,606	-71,846	-0,085	-0,022
-340,591	-152,526	0,137	0,007
-339,577	-105,153	-0,190	-0,031
-338,562	594,045	0,026	-0,046
-337,548	40,411	0,038	0,025
-336,533	-50,193	0,142	-0,048
-335,518	-33,345	0,050	0,020
-334,504	212,768	0,054	0,062
-333,489	259,271	0,102	-0,126
-332,475	133,035	-0,104	-0,096
-331,460	-200,000	-0,030	-0,128
-330,445	-200,000	-0,005	-0,033
-329,431	143,940	-0,076	0,073
-328,416	-200,000	-0,031	-0,136
-327,402	15,379	-0,085	0,047
-326,387	602,139	0,024	0,044
-325,372	349,380	-0,025	-0,035
-324,358	-113,643	-0,218	-0,030
-323,343	447,733	0,036	0,056
-322,329	-12,288	-0,075	0,035
-321,314	800,000	0,035	-0,094
-320,299	80,380	-0,084	0,064
-319,285	208,762	0,082	-0,092
-318,270	-27,396	-0,061	-0,025
-317,256	-8,989	-0,064	0,030
-316,241	-133,836	0,096	0,008
-315,226	153,294	0,086	-0,084
-314,212	-70,615	0,075	0,020
-313,197	-200,000	-0,000	-0,112
-312,183	261,709	-0,041	-0,050
-311,168	-28,516	0,015	-0,006
-310,153	-45,803	-0,076	0,027
-309,139	388,924	-0,040	0,060
-308,124	-76,401	0,083	-0,021
-307,110	800,000	-0,063	0,137
-306,095	-200,000	0,023	0,126
-305,080	-179,094	0,103	-0,002
-304,066	5,214	0,051	-0,027
-303,051	91,151	0,091	-0,073
-302,037	-200,000	0,004	0,050
-301,022	-58,495	0,036	0,011
-300,008	178,063	-0,031	-0,033
-298,993	800,000	-0,015	-0,035
-297,978	-200,000	-0,005	-0,063
-296,964	-30,616	0,106	0,043
-295,949	800,000	-0,043	0,089
-294,935	474,719	0,039	-0,063
-293,920	6,070	0,064	0,034
-292,905	-101,074	0,065	0,011
-291,891	102,919	0,058	-0,049
-290,876	-53,705	0,192	-0,062
-289,862	86,481	0,093	0,074
-288,847	-27,958	0,026	-0,011
-287,832	800,000	0,010	-0,028
-286,818	-200,000	0,023	-0,120
-285,803	-200,000	-0,009	0,138
-284,789	477,618	0,072	0,117
-283,774	-150,709	0,059	-0,003
-282,759	147,794	0,018	-0,018
-281,745	51,874	-0,124	0,084
-280,730	-200,000	-0,012	0,052
-279,716	79,263	-0,041	-0,031
-278,701	800,000	0,009	0,027
-277,686	-165,330	0,046	-0,001
-276,672	800,000	-0,023	0,070
-275,657	-200,000	-0,024	0,133
-274,643	-102,996	-0,105	-0,018
-273,628	-43,195	-0,062	-0,022
-272,613	238,810	0,040	-0,047
-271,599	228,052	-0,068	0,079
-270,584	-85,348	0,114	0,025
-269,570	800,000	0,050	0,137
-268,555	151,196	0,051	-0,050
-267,540	-200,000	0,030	-0,116
-266,526	188,855	0,034	-0,036
-265,511	154,852	0,092	-0,091
-264,497	267,213	-0,070	0,088
-263,482	298,842	-0,053	0,070
-262,467	258,059	0,076	0,093
-261,453	800,000	-0,027	0,078
-260,438	181,808	-0,006	-0,006
-259,424	-130,766	-0,071	0,007
-258,409	720,045	-0,018	0,035
-257,395	-200,000	-0,002	-0,062
-256,380	-18,801	0,152	0,067
-255,365	-13,658	0,110	-0,051
-254,351	-200,000	-0,017	0,068
-253,336	800,000	0,049	-0,111
-252,322	-26,830	-0,082	0,034
-251,307	-75,241	-0,097	-0,024
-250,292	40,116	-0,081	0,052
-249,278	-183,532	0,061	0,001
-248,263	151,758	0,064	0,062
-247,249	785,149	-0,027	-0,053
-246,234	800,000	-0,071	0,142
-245,219	-110,498	-0,115	-0,017
-244,205	62,772	0,095	-0,068
-243,190	-80,182	-0,028	-0,007
-242,176	63,064	0,061	-0,044
-241,161	800,000	0,015	-0,042
-240,146	223,915	0,025	0,029
-239,132	-129,488	0,051	-0,005
-238,117	-200,000	-0,011	0,041
-237,103	-106,029	-0,058	-0,009
-236,088	126,396	0,010	-0,009
-235,073	-200,000	0,001	-0,035
-234,059	-64,390	-0,089	0,026
-233,044	-200,000	-0,031	0,129
-232,030	-200,000	-0,002	-0,024
-231,015	37,011	-0,061	0,038
-230,000	-46,938	-0,119	0,041
-228,986	55,442	0,149	0,102
-227,971	-200,000	-0,015	0,124
-226,957	-71,886	0,106	-0,028
-225,942	131,839	0,132	0,121
-224,927	24,727	0,062	0,037
-223,913	-200,000	-0,009	0,097
-222,898	124,027	-0,023	-0,021
-221,884	-61,049	0,072	-0,021
-220,869	-73,242	0,042	-0,011
-219,855	112,198	0,167	-0,144
-218,840	800,000	0,041	-0,087
-217,825	335,669	-0,007	-0,009
-216,811	121,089	-0,045	-0,040
-215,796	-23,918	-0,037	-0,016
-214,782	-90,452	-0,113	0,023
-213,767	-125,394	-0,050	-0,005
-212,752	158,258	0,067	0,066
-211,738	-194,827	0,179	-0,001
-210,723	-200,000	-0,023	-0,077
-209,709	-200,000	0,010	-0,053
-208,694	-200,000	-0,008	0,037
-207,679	-200,000	-0,026	0,108
-206,665	-66,910	0,015	-0,004
-205,650	-42,723	-0,164	0,059
-204,636	474,350	0,063	0,102
-203,621	164,817	-0,112	0,113
-202,606	249,004	0,055	0,066
-201,592	-200,000	-0,007	-0,127
-200,577	246,756	-0,108	-0,130
-199,563	-58,184	0,071	-0,022
-198,548	286,391	-0,070	-0,090
-197,533	-17,375	0,199	-0,089
-196,519	-21,365	-0,059	0,025
-195,504	102,255	0,089	0,074
-194,490	-173,046	0,019	0,000
-193,475	166,116	-0,132	-0,133
-192,460	-51,602	-0,116	0,038
-191,446	160,658	-0,017	0,017
-190,431	236,798	0,073	-0,086
-189,417	-117,755	-0,009	-0,001
-188,402	-26,785	-0,085	0,035
-187,387	-200,000	-0,021	-0,099
-186,373	-200,000	0,024	-0,142
-185,358	-147,178	-0,159	-0,009
-184,344	213,859	0,067	0,076
-183,329	-20,071	-0,049	0,021
-182,315	77,076	0,059	-0,045
-181,300	800,000	0,007	-0,019
-180,285	117,018	-0,114	0,099
-179,271	-49,784	-0,081	0,027
-178,256	-200,000	0,022	-0,072
-177,242	365,766	0,044	0,064
-176,227	-200,000	0,041	0,136
-175,212	800,000	-0,054	0,125
-174,198	800,000	0,056	0,137
-173,183	637,570	0,049	0,089
-172,169	-153,206	-0,081	0,004
-171,154	800,000	0,015	0,045
-170,139	-58,047	0,081	-0,025
-169,125	115,212	-0,030	-0,026
-168,110	281,989	0,058	0,074
-167,096	800,000	-0,073	-0,156
-166,081	-130,812	-0,150	-0,014
-165,066	-200,000	-0,009	-0,078
-164,052	71,283	-0,005	-0,004
-163,037	-200,000	0,034	0,132
-162,023	-35,468	-0,113	-0,043
-161,008	-134,525	-0,086	0,007
-159,993	-200,000	0,004	0,046
-158,979	-102,369	-0,045	-0,008
-157,964	207,538	0,117	-0,130
-156,950	369,396	0,026	0,037
-155,935	-93,844	0,120	0,023
-154,920	-200,000	-0,008	0,100
-153,906	-79,887	0,132	-0,031
-152,891	800,000	-0,012	-0,029
-151,877	26,073	0,097	-0,057
-150,862	-200,000	0,013	-0,076
-149,847	127,813	0,116	-0,105
-148,833	-200,000	-0,011	0,042
-147,818	-28,951	0,171	-0,069
-146,804	-85,651	-0,069	0,015
-145,789	-200,000	-0,002	0,005
-144,775	-103,725	-0,142	-0,023
-143,760	-200,000	-0,041	-0,158
-142,745	-200,000	-0,012	-0,160
-141,731	537,169	0,078	-0,132
-140,716	800,000	0,037	0,114
-139,702	214,629	0,071	0,081
-138,687	-79,281	0,086	0,021
-137,672	-200,000	-0,013	-0,051
-136,658	-200,000	-0,001	-0,113
-135,643	800,000	0,029	0,062
-134,629	-200,000	-0,003	0,130
-133,614	-5,755	0,036	0,017
-132,599	86,602	-0,093	-0,073
-131,585	108,978	-0,056	0,047
-130,570	-116,511	-0,096	0,012
-129,556	60,454	-0,017	0,012
-128,541	-200,000	0,011	-0,127
-127,526	-200,000	0,001	0,111
-126,512	30,951	-0,100	-0,061
-125,497	173,763	-0,072	0,074
-124,483	-85,210	0,109	0,024
-123,468	-200,000	0,011	-0,090
-122,453	33,516	0,020	0,012
-121,439	185,455	-0,126	-0,133
-120,424	12,034	0,106	0,058
-119,410	-4,561	0,053	-0,026
-118,395	558,981	-0,079	-0,136
-117,380	-23,115	0,043	0,018
-116,366	382,586	-0,061	0,089
-115,351	111,286	-0,031	0,027
-114,337	223,484	-0,090	-0,103
-113,322	506,092	-0,032	0,052
-112,307	-200,000	0,002	0,028
-111,293	-32,627	0,093	0,037
-110,278	183,340	0,091	0,096
-109,264	-21,073	0,103	0,045
-108,249	-25,385	-0,120	-0,050
-107,234	-200,000	0,043	-0,164
-106,220	-200,000	0,008	0,071
-105,205	-200,000	-0,006	0,054
-104,191	557,326	0,071	0,121
-103,176	645,255	-0,033	-0,059
-102,162	619,937	0,023	0,042
-101,147	198,079	0,032	0,034
-100,132	800,000	-0,045	-0,102
-99,118	-124,102	0,076	0,008
-98,103	-20,861	-0,109	0,047
-97,089	-39,588	0,185	0,068
-96,074	169,935	0,116	0,118
-95,059	-200,000	0,005	-0,045
-94,045	-200,000	0,002	-0,027
-93,030	573,716	0,076	0,133
-92,016	-126,371	-0,082	0,009
-91,001	-200,000	0,028	-0,108
-89,986	81,849	0,046	-0,035
-88,972	-56,181	0,095	0,030
-87,957	800,000	0,029	-0,065
-86,943	-17,875	0,084	-0,037
-85,928	93,746	0,026	0,021
-84,913	-200,000	-0,004	0,050
-83,899	-200,000	-0,019	-0,076
-82,884	52,287	-0,041	0,028
-81,870	-95,607	-0,079	-0,015
-80,855	289,890	0,077	0,100
-79,840	264,519	-0,063	-0,078
-78,826	800,000	-0,050	-0,146
-77,811	410,689	0,085	-0,129
-76,797	-200,000	-0,041	-0,159
-75,782	-200,000	0,005	0,080
-74,767	-200,000	-0,003	0,041
-73,753	3,948	0,136	0,070
-72,738	320,152	0,093	0,126
-71,724	165,640	-0,034	-0,034
-70,709	-48,978	0,016	0,005
-69,694	3,227	-0,063	0,033
-68,680	800,000	-0,021	-0,061
-67,665	-29,559	0,061	-0,025
-66,651	355,616	0,009	0,013
-65,636	-11,954	-0,170	0,079
-64,622	695,977	-0,084	-0,157
-63,607	185,875	0,091	-0,096
-62,592	-117,178	-0,085	0,011
-61,578	24,272	-0,058	-0,034
-60,563	-104,050	-0,099	-0,016
-59,549	-200,000	0,000	0,115
-58,534	-34,783	-1,406	-0,542
-57,519	376,102	-1,452	-2,104
-56,505	-200,000	-0,506	-4,426
-55,490	254,207	0,984	1,193
-54,476	800,000	4,675	10,920
-53,461	-200,000	18,222	287,585
-52,446	800,000	726,796	2231,341
-51,432	558,197	1642,659	2816,773
-50,417	79,287	1664,767	1262,361
-49,403	22,715	1538,391	889,733
-48,388	16,752	1461,390	816,337
-47,373	17,816	1451,426	815,863
-46,359	17,184	1441,946	807,480
-45,344	14,972	1437,198	794,235
-44,330	14,886	1435,282	792,737
-43,315	14,890	1433,568	791,774
-42,300	14,915	1431,955	790,971
-41,286	14,964	1430,748	790,505
-40,271	14,897	1429,730	789,595
-39,257	14,907	1428,141	788,732
-38,242	14,932	1426,834	788,097
-37,227	14,991	1425,564	787,644
-36,213	14,954	1424,267	786,721
-35,198	14,954	1423,208	786,107
-34,184	14,999	1422,259	785,762
-33,169	14,914	1421,017	784,645
-32,154	14,977	1419,986	784,344
-31,140	14,967	1418,646	783,523
-30,125	14,997	1417,543	783,022
-29,111	15,023	1416,390	782,479
-28,096	14,954	1415,308	781,524
-27,082	14,863	1414,543	780,644
-26,067	14,842	1413,294	779,827
-25,052	14,907	1411,932	779,349
-24,038	14,831	1411,305	778,614
-23,023	14,863	1410,197	778,124
-22,009	14,880	1408,905	777,459
-20,994	14,830	1408,388	776,910
-19,979	14,812	1407,411	776,256
-18,965	14,826	1406,170	775,605
-17,950	14,788	1405,465	775,009
-16,936	14,817	1404,465	774,559
-15,921	14,768	1403,412	773,718
-14,906	14,762	1402,295	773,047
-13,892	14,790	1401,626	772,777
-12,877	14,768	1400,635	772,095
-11,863	14,760	1399,794	771,565
-10,848	14,761	1398,814	770,998
-9,833	14,710	1397,968	770,264
-8,819	14,699	1397,132	769,722
-7,804	14,715	1396,088	769,190
-6,790	14,693	1395,178	768,560
-5,775	14,685	1394,096	767,895
-4,760	14,696	1393,126	767,381
-3,746	14,667	1392,385	766,808
-2,731	14,683	1391,728	766,490
-1,717	14,640	1390,668	765,676
-0,702	14,668	1388,796	764,743
0,313	18,506	1308,179	738,098
1,327	34,871	706,651	436,622
2,342	53,680	124,717	84,585
3,356	4,323	16,606	8,582
4,371	10,999	3,040	1,639
5,386	-26,067	0,633	0,262
6,400	211,624	0,096	0,107
7,415	179,236	-0,144	-0,149
8,429	11,742	-0,314	-0,170
9,444	-9,042	-0,297	-0,140
10,459	-71,469	-0,297	-0,078
11,473	-6,770	-0,432	-0,207
12,488	60,690	-0,234	-0,164
13,502	-79,959	-0,383	-0,090
14,517	90,063	-0,316	-0,250
15,531	93,795	-0,338	-0,271
16,546	54,409	-0,375	-0,255
17,561	130,280	-0,511	-0,462
18,575	70,018	-0,216	-0,157
19,590	159,080	-0,197	-0,194
20,604	131,732	-0,263	-0,239
21,619	57,446	-0,500	-0,345
22,634	26,509	-0,415	-0,244
23,648	7,298	-0,459	-0,241
24,663	185,243	-0,329	-0,346
25,677	-8,672	-0,303	-0,143
26,692	82,810	-0,257	-0,197
27,707	0,941	-0,471	-0,238
28,721	152,744	-0,298	-0,287
29,736	-18,134	-0,443	-0,195
30,750	76,277	-0,337	-0,251
31,765	45,737	-0,456	-0,297
32,780	106,123	-0,347	-0,290
33,794	3,099	-0,404	-0,207
34,809	31,496	-0,413	-0,250
35,823	205,854	-0,332	-0,364
36,838	154,990	-0,475	-0,461
37,853	142,439	-0,369	-0,346
38,867	64,057	-0,287	-0,203
39,882	124,664	-0,280	-0,249
40,896	25,887	-0,307	-0,180
41,911	105,492	-0,392	-0,327
42,926	207,628	-0,229	-0,253
43,940	427,002	-0,257	-0,392
44,955	160,537	-0,329	-0,324
45,969	-22,616	-0,507	-0,215
46,984	333,942	-0,173	-0,236
47,999	-17,206	-0,293	-0,130
49,013	91,723	-0,363	-0,287
50,028	-13,357	-0,436	-0,199
51,042	104,679	-0,255	-0,212
52,057	122,902	-0,270	-0,238
53,071	0,546	-0,425	-0,213
54,086	2,166	-0,321	-0,163
55,101	34,402	-0,340	-0,208
56,115	60,049	-0,309	-0,215
57,130	98,924	-0,285	-0,232
58,144	91,732	-0,218	-0,172
59,159	9,956	-0,411	-0,219
60,174	115,386	-0,357	-0,307
61,188	-11,382	-0,422	-0,195
62,203	79,992	-0,225	-0,170
63,217	97,417	-0,270	-0,218
64,232	39,119	-0,328	-0,206
65,247	5,562	-0,340	-0,176
66,261	357,740	-0,162	-0,228
67,276	70,166	-0,339	-0,246
68,290	-6,393	-0,276	-0,132
69,305	244,880	-0,264	-0,313
70,320	-31,268	-0,217	-0,086
71,334	-65,644	-0,296	-0,083
72,349	60,367	-0,356	-0,248
73,363	-46,602	-0,255	-0,087
74,378	12,611	-0,358	-0,194
75,393	183,663	-0,274	-0,285
76,407	49,163	-0,249	-0,164
77,422	162,191	-0,246	-0,242
78,436	-50,059	-0,358	-0,118
79,451	1,714	-0,311	-0,157
80,466	24,707	-0,363	-0,211
81,480	48,639	-0,216	-0,142
82,495	207,371	-0,211	-0,232
83,509	11,618	-0,280	-0,150
84,524	-13,385	-0,276	-0,125
85,539	224,612	-0,260	-0,296
86,553	-30,698	-0,184	-0,073
87,568	173,486	-0,324	-0,328
88,582	-29,773	-0,330	-0,132
89,597	99,643	-0,252	-0,205
90,611	43,599	-0,241	-0,154
91,626	-11,161	-0,340	-0,157
92,641	444,953	-0,202	-0,313
93,655	6,870	-0,251	-0,131
94,670	304,925	-0,292	-0,382
95,684	-71,991	-0,321	-0,083
96,699	12,671	-0,258	-0,139
97,714	48,903	-0,282	-0,186
98,728	-136,516	-0,245	-0,020
99,743	-44,746	-0,239	-0,083
100,757	-60,338	-0,220	-0,065
101,772	256,816	-0,212	-0,256
102,787	67,734	-0,224	-0,160
103,801	59,487	-0,229	-0,158
104,816	338,619	-0,251	-0,344
105,830	80,863	-0,291	-0,220
106,845	219,180	-0,133	-0,149
107,860	53,102	-0,229	-0,153
108,874	800,000	-0,094	-0,260
109,889	186,464	-0,240	-0,251
110,903	-130,104	-0,401	-0,038
111,918	-39,285	-0,165	-0,060
112,933	95,437	-0,226	-0,180
113,947	67,738	-0,161	-0,115
114,962	81,160	-0,190	-0,144
115,976	139,192	-0,307	-0,283
116,991	188,015	-0,284	-0,298
118,006	103,974	-0,202	-0,166
119,020	-1,949	-0,267	-0,131
120,035	8,816	-0,174	-0,091
121,049	115,359	-0,178	-0,153
122,064	625,824	-0,149	-0,264
123,079	44,283	-0,141	-0,090
124,093	-14,351	-0,257	-0,116
125,108	-39,257	-0,337	-0,123
126,122	120,763	-0,293	-0,255
127,137	52,634	-0,227	-0,152
128,151	166,687	-0,240	-0,239
129,166	54,930	-0,223	-0,150
130,181	800,000	-0,071	-0,153
131,195	48,043	-0,197	-0,128
132,210	42,012	-0,293	-0,186
133,224	-82,792	-0,213	-0,048
134,239	464,651	-0,122	-0,191
135,254	63,603	-0,223	-0,156
136,268	26,153	-0,274	-0,160
137,283	25,817	-0,298	-0,173
138,297	325,562	-0,202	-0,271
139,312	-14,007	-0,263	-0,118
140,327	-57,285	-0,226	-0,069
141,341	-115,526	-0,299	-0,039
142,356	166,387	-0,175	-0,173
143,370	-166,567	-0,315	0,009
144,385	135,983	-0,160	-0,146
145,400	26,958	-0,355	-0,207
146,414	80,601	-0,374	-0,281
147,429	126,959	-0,282	-0,250
148,443	75,511	-0,264	-0,195
149,458	-33,322	-0,324	-0,125
150,473	-41,236	-0,230	-0,082
151,487	-109,363	-0,128	-0,019
152,502	101,737	-0,237	-0,193
153,516	127,717	-0,306	-0,272
154,531	26,289	-0,269	-0,156
155,546	-51,345	-0,292	-0,095
156,560	-20,621	-0,153	-0,065
157,575	-25,521	-0,156	-0,064
158,589	61,202	-0,262	-0,181
159,604	162,205	-0,133	-0,130
160,619	75,688	-0,249	-0,184
161,633	33,613	-0,262	-0,159
162,648	194,431	-0,252	-0,267
163,662	1,546	-0,219	-0,110
164,677	-53,925	-0,192	-0,061
165,692	800,000	-0,062	-0,129
166,706	32,017	-0,259	-0,155
167,721	-22,520	-0,193	-0,081
168,735	5,216	-0,224	-0,115
169,750	-16,376	-0,233	-0,103
170,764	157,640	-0,181	-0,175
171,779	27,912	-0,170	-0,100
172,794	-78,485	-0,243	-0,058
173,808	-2,831	-0,103	-0,050
174,823	121,824	-0,245	-0,213
175,837	-20,471	-0,220	-0,094
176,852	-15,192	-0,310	-0,138
177,867	-10,565	-0,127	-0,059
178,881	-24,795	-0,227	-0,093
179,896	800,000	-0,063	-0,179
180,910	382,305	-0,094	-0,135
181,925	-103,072	-0,350	-0,057
182,940	98,649	-0,340	-0,273
183,954	34,642	-0,217	-0,132
184,969	-38,410	-0,273	-0,100
185,983	194,587	-0,168	-0,178
186,998	746,510	-0,097	-0,184
188,013	48,587	-0,298	-0,194
189,027	3,639	-0,172	-0,087
190,042	-167,617	-0,188	0,005
191,056	606,096	-0,175	-0,304
192,071	795,036	-0,144	-0,277
193,086	255,818	-0,189	-0,226
194,100	480,523	-0,191	-0,302
195,115	138,657	-0,227	-0,208
196,129	166,481	-0,231	-0,228
197,144	87,328	-0,283	-0,217
198,159	-6,655	-0,269	-0,127
199,173	75,884	-0,206	-0,151
200,188	-131,038	-0,185	-0,017
201,202	6,751	-0,184	-0,095
202,217	508,203	-0,126	-0,205
203,232	314,300	-0,130	-0,170
204,246	-9,946	-0,284	-0,131
205,261	63,506	-0,206	-0,143
206,275	20,372	-0,202	-0,113
207,290	245,035	-0,079	-0,093
208,304	-53,189	-0,263	-0,083
209,319	263,065	-0,146	-0,176
210,334	12,388	-0,272	-0,145
211,348	368,016	-0,128	-0,181
212,363	135,954	-0,220	-0,199
213,377	80,183	-0,248	-0,185
214,392	177,436	-0,153	-0,155
215,407	-59,307	0,046	0,014
216,421	12,922	-0,256	-0,137
217,436	-144,076	-0,172	-0,011
218,450	27,734	-0,293	-0,171
219,465	800,000	-0,136	-0,272
220,480	-65,710	-0,167	-0,046
221,494	540,932	-0,115	-0,191
222,509	292,183	-0,108	-0,137
223,523	45,514	-0,107	-0,068
224,538	-121,434	-0,210	-0,024
225,553	152,365	-0,157	-0,149
226,567	392,076	-0,125	-0,181
227,582	307,054	-0,173	-0,225
228,596	800,000	-0,105	-0,235
229,611	-200,000	-0,052	-0,195
230,626	80,465	-0,041	-0,031
231,640	65,395	-0,251	-0,176
232,655	82,564	-0,183	-0,138
233,669	256,757	-0,164	-0,196
234,684	184,116	-0,189	-0,194
235,699	-29,588	-0,211	-0,083
236,713	16,887	-0,186	-0,102
237,728	-133,045	-0,175	-0,015
238,742	308,093	-0,090	-0,117
239,757	297,943	-0,096	-0,122
240,772	-6,240	-0,225	-0,106
241,786	256,472	-0,136	-0,162
242,801	-79,962	-0,158	-0,036
243,815	-200,000	-0,049	-0,230
244,830	-50,616	-0,189	-0,061
245,844	-81,812	-0,143	-0,032
246,859	-33,940	-0,242	-0,092
247,874	173,754	-0,070	-0,070
248,888	147,272	-0,233	-0,217
249,903	-29,534	-0,296	-0,117
250,917	343,376	-0,158	-0,215
251,932	780,327	-0,107	-0,204
252,947	334,559	-0,185	-0,249
253,961	800,000	-0,135	-0,335
254,976	59,718	-0,206	-0,140
255,990	-15,917	-0,283	-0,124
257,005	290,778	-0,092	-0,116
258,020	41,306	-0,206	-0,129
259,034	376,576	-0,108	-0,153
260,049	81,922	-0,111	-0,083
261,063	-127,376	-0,183	-0,018
262,078	147,969	-0,145	-0,135
263,093	239,039	-0,092	-0,106
264,107	97,621	-0,176	-0,140
265,122	156,130	-0,072	-0,068
266,136	800,000	-0,037	-0,072
267,151	46,945	-0,056	-0,036
268,166	-69,385	-0,253	-0,067
269,180	26,783	-0,111	-0,064
270,195	736,126	-0,097	-0,181
271,209	260,549	-0,103	-0,123
272,224	66,616	-0,154	-0,108
273,239	28,896	-0,240	-0,140
274,253	24,068	-0,148	-0,084
275,268	-10,599	-0,115	0,053
276,282	-118,991	-0,238	-0,029
277,297	753,949	-0,091	-0,170
278,312	17,899	-0,124	-0,068
279,326	-170,006	-0,108	0,003
280,341	310,741	-0,085	-0,111
281,355	-31,205	-0,056	-0,022
282,370	322,735	-0,182	-0,240
283,384	-102,878	-0,118	0,019
284,399	347,084	-0,128	-0,175
285,414	-113,496	-0,192	-0,026
286,428	708,361	-0,082	-0,150
287,443	172,892	-0,130	-0,129
288,457	199,296	-0,184	-0,195
289,472	800,000	-0,042	-0,103
290,487	233,038	-0,098	-0,111
291,501	161,749	-0,192	-0,185
292,516	800,000	-0,071	-0,159
293,530	472,176	-0,045	-0,070
294,545	94,038	-0,150	-0,117
295,560	-200,000	-0,019	-0,081
296,574	-11,541	-0,061	0,028
297,589	184,601	-0,136	-0,139
298,603	108,214	-0,201	-0,165
299,618	-130,528	-0,149	0,014
300,633	-200,000	-0,022	-0,180
301,647	-127,561	-0,082	-0,008
302,662	-146,952	-0,165	0,010
303,676	-77,447	-0,111	-0,026
304,691	-10,931	-0,181	-0,082
305,706	67,987	-0,234	-0,164
306,720	708,661	-0,160	-0,293
307,735	454,094	-0,135	-0,206
308,749	-164,585	-0,233	-0,007
309,764	22,843	-0,159	-0,089
310,779	-58,816	-0,118	-0,035
311,793	-36,492	-0,182	-0,067
312,808	243,992	-0,121	-0,140
313,822	-140,925	-0,192	0,013
314,837	-69,751	-0,222	-0,058
315,852	-162,266	-0,132	0,004
316,866	-200,000	-0,012	0,055
317,881	591,023	-0,073	-0,125
318,895	80,837	-0,153	-0,113
319,910	-86,688	-0,158	0,033
320,925	316,279	-0,130	-0,169
321,939	-121,378	-0,085	-0,010
322,954	-124,365	-0,120	-0,013
323,968	306,575	-0,129	-0,166
324,983	187,412	-0,110	-0,113
325,997	24,685	-0,123	-0,070
327,012	-76,076	-0,199	-0,048
328,027	-101,421	-0,116	-0,019
329,041	400,359	-0,177	-0,256
330,056	121,795	-0,097	-0,083
331,070	431,933	-0,070	-0,105
332,085	-131,659	-0,188	0,017
333,100	-200,000	0,019	-0,136
334,114	-111,848	-0,260	0,036
335,129	-25,405	-0,206	-0,083
336,143	497,664	-0,088	-0,139
337,158	21,932	-0,166	-0,093
338,173	-73,413	-0,073	0,018
339,187	-200,000	-0,045	-0,149
340,202	153,850	-0,021	-0,020
341,216	173,940	-0,154	-0,153
342,231	-107,018	-0,051	0,008
343,246	626,032	-0,037	-0,065
344,260	-34,718	-0,133	-0,050
345,275	-1,688	-0,173	0,083
346,289	-110,585	-0,064	-0,009
347,304	-200,000	-0,024	-0,114
348,319	-65,656	-0,141	-0,039
349,333	143,543	-0,182	-0,167
350,348	544,931	-0,089	-0,147
351,362	255,456	-0,131	-0,154
352,377	800,000	0,044	-0,098
353,392	-56,665	-0,024	0,007
354,406	-102,323	-0,252	0,041
355,421	210,733	1315,362	1419,778
356,435	162,235	1476,211	1420,294
