DTS Sentinel unit serial number:	SN410029Multiplexer serial number:	ORYXHardware model number:	OX2-SRSoftware version number:	ORYX F/W v4,00 Oryx Data Collector v3.7.2.0data status	okinstallation	B3 Nyhavnadifferential loss correction	single-endedforward channel	channel 1reverse channel	N/Adate	2023/12/03time	23:52:30forward acquisition time	300,00reverse acquisition time	0,00gamma	499,1914k internal	0,3202k external	0,3202temperature offset calibration	1,0000default loss term (dB/km)	0,3820temperature slope calibration	1,0000multiplexer offset coefficient	1,0000multiplexer slope coefficient	1,0000fibre end	0,00T internal ref (°C)	12,81T ext. ref 1 (°C)	-2,45T ext. ref 2 (°C)	-2,47length (m)	temperature (°C)	Stokes	anti-Stokes-744,400	20,120	-0,263	-0,154
-743,385	-200,000	0,051	0,356
-742,371	313,029	-0,151	-0,207
-741,356	-200,000	0,074	0,400
-740,342	106,095	-0,080	-0,069
-739,327	-200,000	0,076	0,271
-738,312	136,649	-0,299	-0,284
-737,298	-200,000	0,008	0,231
-736,283	72,341	-0,219	-0,166
-735,269	-200,000	-0,045	0,306
-734,254	190,285	-0,160	-0,175
-733,239	-56,355	-0,161	-0,052
-732,225	85,670	-0,147	-0,118
-731,210	-73,388	0,036	0,010
-730,196	75,721	-0,166	-0,127
-729,181	800,000	0,013	0,029
-728,167	800,000	-0,020	0,049
-727,152	108,894	0,052	-0,045
-726,137	-118,942	-0,158	0,020
-725,123	-200,000	0,003	-0,061
-724,108	-20,023	-0,077	-0,034
-723,094	-34,384	0,028	-0,011
-722,079	56,380	-0,076	-0,054
-721,064	-7,234	-0,037	0,018
-720,050	152,130	-0,028	0,028
-719,035	-91,524	-0,063	-0,013
-718,021	79,307	-0,077	-0,060
-717,006	543,128	-0,070	-0,123
-715,991	327,195	-0,083	-0,116
-714,977	-200,000	-0,001	-0,193
-713,962	800,000	0,027	0,073
-712,948	301,799	-0,121	0,163
-711,933	-200,000	-0,034	-0,112
-710,918	800,000	-0,070	-0,177
-709,904	770,427	-0,031	-0,061
-708,889	-26,187	-0,142	-0,060
-707,875	800,000	-0,050	-0,115
-706,860	252,644	0,043	0,054
-705,845	-200,000	-0,012	0,075
-704,831	-120,079	0,122	-0,015
-703,816	11,341	-0,138	0,077
-702,802	-107,371	0,099	-0,016
-701,787	639,257	-0,012	0,022
-700,772	22,061	-0,057	-0,034
-699,758	545,607	-0,072	0,125
-698,743	800,000	0,033	0,087
-697,729	558,954	-0,052	-0,091
-696,714	800,000	0,059	0,120
-695,699	165,769	-0,019	0,019
-694,685	800,000	0,049	0,122
-693,670	275,036	-0,031	-0,040
-692,656	800,000	0,016	0,051
-691,641	-165,511	-0,089	-0,003
-690,627	423,366	0,095	0,148
-689,612	740,762	0,006	-0,011
-688,597	81,788	-0,050	0,040
-687,583	-200,000	0,003	0,043
-686,568	-26,710	-0,083	-0,035
-685,554	-200,000	-0,004	-0,055
-684,539	800,000	-0,004	-0,010
-683,524	2,087	-0,081	0,042
-682,510	-104,326	0,140	0,023
-681,495	-200,000	0,003	-0,141
-680,481	-28,737	-0,208	-0,086
-679,466	-3,149	-0,047	-0,023
-678,451	-127,301	-0,080	0,008
-677,437	146,036	-0,114	0,111
-676,422	-51,297	0,135	0,046
-675,408	-200,000	0,015	0,070
-674,393	124,259	0,030	-0,028
-673,378	126,129	-0,076	-0,069
-672,364	77,318	-0,116	-0,089
-671,349	-200,000	-0,042	-0,216
-670,335	-200,000	0,003	0,139
-669,320	800,000	-0,037	0,081
-668,305	14,408	-0,070	0,039
-667,291	140,907	-0,042	0,041
-666,276	153,894	-0,046	-0,046
-665,262	-171,936	-0,063	0,001
-664,247	633,231	-0,043	-0,079
-663,232	-200,000	-0,001	0,065
-662,218	50,836	-0,092	0,063
-661,203	129,546	0,077	-0,072
-660,189	-57,045	-0,097	0,031
-659,174	392,897	0,021	0,031
-658,159	-200,000	-0,006	-0,114
-657,145	-200,000	0,032	-0,168
-656,130	412,668	0,050	0,078
-655,116	-60,397	0,114	-0,035
-654,101	494,480	-0,052	-0,087
-653,086	-200,000	-0,008	0,136
-652,072	-64,966	-0,131	0,038
-651,057	800,000	-0,031	-0,084
-650,043	800,000	0,034	-0,089
-649,028	-8,339	0,017	0,008
-648,014	-41,506	0,100	0,037
-646,999	-45,495	-0,167	0,060
-645,984	-200,000	0,004	0,083
-644,970	-5,645	0,078	0,039
-643,955	6,892	-0,130	-0,070
-642,941	422,529	-0,050	-0,077
-641,926	67,159	0,071	0,052
-640,911	-200,000	-0,034	0,189
-639,897	-200,000	-0,009	0,057
-638,882	-151,194	0,132	0,007
-637,868	116,182	-0,116	0,103
-636,853	339,690	0,074	-0,105
-635,838	151,803	-0,081	-0,080
-634,824	-105,641	-0,084	-0,014
-633,809	196,824	0,077	-0,086
-632,795	-200,000	0,034	-0,167
-631,780	111,445	0,040	0,035
-630,765	151,668	0,033	0,032
-629,751	-200,000	0,005	0,035
-628,736	800,000	0,050	0,146
-627,722	707,519	0,051	0,098
-626,707	237,386	0,072	0,086
-625,692	-200,000	-0,021	0,122
-624,678	100,723	-0,066	-0,056
-623,663	-86,406	-0,106	0,023
-622,649	395,846	0,018	-0,027
-621,634	-39,726	-0,137	-0,051
-620,619	-200,000	0,004	-0,070
-619,605	-117,080	-0,099	0,013
-618,590	769,323	0,069	0,136
-617,576	-200,000	-0,018	0,180
-616,561	800,000	0,012	0,028
-615,546	-200,000	0,001	-0,043
-614,532	800,000	-0,050	-0,130
-613,517	-50,485	-0,082	0,028
-612,503	1,824	-0,056	-0,029
-611,488	800,000	-0,010	-0,030
-610,474	800,000	-0,042	0,133
-609,459	42,093	-0,031	-0,021
-608,444	-67,332	-0,100	0,028
-607,430	94,394	-0,131	-0,107
-606,415	-22,817	-0,109	-0,047
-605,401	-72,753	-0,026	0,007
-604,386	-64,481	-0,074	0,022
-603,371	-99,091	0,186	0,034
-602,357	206,073	0,018	-0,020
-601,342	-200,000	-0,007	-0,062
-600,328	-200,000	0,004	0,058
-599,313	-136,554	-0,082	-0,007
-598,298	-35,647	0,026	-0,010
-597,284	800,000	-0,053	-0,111
-596,269	217,104	-0,047	-0,054
-595,255	-132,789	-0,110	0,010
-594,240	-92,770	-0,150	0,030
-593,225	653,668	-0,048	-0,089
-592,211	-200,000	-0,035	-0,167
-591,196	-200,000	-0,002	0,056
-590,182	-200,000	-0,051	-0,197
-589,167	473,873	-0,059	0,096
-588,152	-98,044	0,071	0,013
-587,138	-198,937	-0,056	-0,000
-586,123	357,646	-0,083	-0,120
-585,109	81,788	0,052	-0,040
-584,094	51,412	-0,079	0,054
-583,079	-76,719	0,074	0,018
-582,065	-21,976	0,043	0,019
-581,050	-200,000	0,036	0,122
-580,036	-183,559	-0,226	0,003
-579,021	800,000	-0,054	-0,172
-578,006	800,000	-0,035	-0,096
-576,992	174,604	-0,013	-0,014
-575,977	-72,383	0,023	0,006
-574,963	-56,669	-0,040	0,013
-573,948	683,294	-0,057	0,108
-572,934	244,324	0,052	0,064
-571,919	-97,015	0,138	-0,026
-570,904	-200,000	0,005	-0,144
-569,890	196,437	-0,084	0,092
-568,875	110,288	0,108	0,094
-567,861	-200,000	-0,024	-0,128
-566,846	800,000	-0,025	-0,053
-565,831	800,000	-0,015	-0,030
-564,817	-39,221	-0,104	0,039
-563,802	81,046	0,073	0,057
-562,788	-76,946	-0,042	-0,011
-561,773	800,000	0,002	-0,006
-560,758	-200,000	0,002	-0,032
-559,744	-200,000	0,003	0,031
-558,729	8,739	0,095	-0,051
-557,715	316,033	-0,039	-0,053
-556,700	67,437	-0,096	-0,071
-555,685	-187,249	0,073	0,001
-554,671	-34,577	0,141	-0,056
-553,656	-25,097	-0,022	-0,009
-552,642	-135,329	-0,041	-0,003
-551,627	800,000	-0,013	0,036
-550,612	4,750	0,061	-0,032
-549,598	-79,950	-0,160	-0,039
-548,583	-41,005	0,075	-0,028
-547,569	-200,000	-0,004	-0,049
-546,554	135,745	0,014	-0,013
-545,539	156,093	0,099	0,099
-544,525	336,052	-0,067	0,094
-543,510	-6,060	-0,123	-0,060
-542,496	134,365	-0,081	-0,076
-541,481	800,000	-0,033	-0,072
-540,466	-71,188	0,063	-0,017
-539,452	103,462	-0,060	0,051
-538,437	525,424	0,061	0,104
-537,423	-49,756	-0,106	-0,036
-536,408	254,571	-0,032	-0,039
-535,393	130,999	-0,038	-0,035
-534,379	64,186	0,063	-0,045
-533,364	521,108	-0,030	-0,051
-532,350	610,342	0,057	0,103
-531,335	160,283	0,034	0,035
-530,321	-30,520	0,003	0,001
-529,306	-129,578	-0,022	0,002
-528,291	208,530	-0,106	-0,119
-527,277	-116,097	-0,082	-0,011
-526,262	174,727	-0,055	-0,058
-525,248	-26,601	-0,078	0,033
-524,233	-200,000	0,021	0,232
-523,218	-17,820	0,092	-0,041
-522,204	414,568	-0,054	0,083
-521,189	-154,183	0,062	0,003
-520,175	800,000	0,079	-0,171
-519,160	92,041	0,053	-0,043
-518,145	-9,118	-0,100	0,048
-517,131	615,731	0,052	-0,094
-516,116	-91,330	-0,084	0,017
-515,102	-91,104	0,038	0,008
-514,087	472,819	-0,018	0,029
-513,072	-0,894	0,030	-0,015
-512,058	-32,428	0,075	0,030
-511,043	-200,000	-0,013	0,124
-510,029	136,432	-0,051	-0,048
-509,014	-200,000	0,008	0,121
-507,999	36,981	0,074	0,047
-506,985	-118,025	-0,085	0,011
-505,970	72,046	-0,084	-0,063
-504,956	800,000	-0,045	-0,105
-503,941	-200,000	-0,015	0,070
-502,926	-60,312	0,028	0,008
-501,912	-200,000	-0,006	0,064
-500,897	-0,077	0,028	-0,014
-499,883	-200,000	-0,029	0,123
-498,868	800,000	0,050	-0,101
-497,853	-200,000	-0,043	-0,140
-496,839	97,370	0,088	-0,073
-495,824	27,648	0,081	-0,049
-494,810	-200,000	-0,011	0,122
-493,795	800,000	-0,015	-0,030
-492,781	-102,546	0,063	0,011
-491,766	800,000	0,012	-0,026
-490,751	128,078	-0,116	-0,106
-489,737	-161,501	0,137	-0,005
-488,722	-200,000	-0,007	-0,026
-487,708	171,759	0,088	0,091
-486,693	-130,035	0,177	0,017
-485,678	15,878	-0,099	0,056
-484,664	800,000	0,050	-0,146
-483,649	800,000	-0,007	0,019
-482,635	-45,905	-0,081	-0,029
-481,620	280,214	-0,098	0,126
-480,605	159,600	-0,034	0,034
-479,591	-135,604	0,073	-0,006
-478,576	609,231	-0,046	0,084
-477,562	546,509	-0,031	-0,054
-476,547	285,753	-0,058	-0,075
-475,532	-200,000	0,015	-0,095
-474,518	-87,789	0,165	0,036
-473,503	397,915	0,072	-0,109
-472,489	535,578	0,069	0,118
-471,474	-78,497	-0,085	-0,021
-470,459	-110,254	-0,072	0,011
-469,445	-200,000	-0,002	-0,089
-468,430	34,648	0,139	0,087
-467,416	8,277	0,127	0,068
-466,401	-42,740	0,097	0,035
-465,386	29,748	-0,131	0,080
-464,372	-200,000	-0,038	0,227
-463,357	49,582	-0,055	0,037
-462,343	-149,057	-0,138	-0,008
-461,328	-52,028	-0,043	-0,014
-460,313	596,817	0,104	-0,187
-459,299	-200,000	-0,039	0,183
-458,284	-200,000	0,003	0,121
-457,270	265,768	0,104	0,131
-456,255	-3,870	-0,127	-0,063
-455,241	-119,311	-0,116	0,014
-454,226	-150,479	-0,100	0,005
-453,211	-131,112	0,094	-0,009
-452,197	128,264	-0,042	-0,039
-451,182	-96,432	-0,074	0,014
-450,168	800,000	0,064	0,152
-449,153	238,334	-0,048	-0,058
-448,138	-200,000	0,020	-0,160
-447,124	-45,330	-0,090	-0,032
-446,109	-16,656	0,083	-0,038
-445,095	-200,000	0,006	-0,033
-444,080	-61,015	0,146	0,044
-443,065	-200,000	0,010	0,048
-442,051	-77,032	-0,104	-0,026
-441,036	152,370	-0,090	-0,088
-440,022	527,271	-0,071	-0,121
-439,007	-31,700	0,107	-0,043
-437,992	627,072	-0,051	0,093
-436,978	-144,582	-0,031	-0,002
-435,963	197,035	-0,039	0,042
-434,949	48,388	0,078	-0,053
-433,934	-15,949	-0,065	0,030
-432,919	-108,354	-0,209	-0,032
-431,905	-200,000	0,020	-0,140
-430,890	800,000	-0,014	-0,035
-429,876	800,000	0,055	0,170
-428,861	-70,269	0,007	-0,002
-427,846	-200,000	0,016	-0,108
-426,832	122,565	-0,054	0,049
-425,817	-200,000	0,011	-0,094
-424,803	-58,693	0,116	-0,036
-423,788	82,836	-0,053	-0,041
-422,773	270,237	0,093	0,117
-421,759	-122,004	0,101	0,012
-420,744	-179,393	0,063	-0,001
-419,730	800,000	-0,046	0,123
-418,715	800,000	-0,008	0,025
-417,701	-155,727	0,166	0,007
-416,686	-122,881	0,061	0,007
-415,671	-42,573	0,117	-0,042
-414,657	-200,000	-0,010	0,046
-413,642	175,717	-0,097	0,101
-412,628	-114,746	-0,022	0,003
-411,613	143,550	-0,087	-0,083
-410,598	-200,000	0,012	-0,062
-409,584	-200,000	0,054	-0,194
-408,569	800,000	-0,053	-0,154
-407,555	-154,927	0,187	-0,009
-406,540	168,059	-0,057	-0,058
-405,525	-49,763	0,146	-0,050
-404,511	157,936	-0,053	-0,052
-403,496	209,865	0,034	-0,039
-402,482	441,951	-0,051	0,081
-401,467	63,665	0,193	0,139
-400,452	174,602	-0,058	0,060
-399,438	-200,000	0,023	0,084
-398,423	-200,000	-0,010	0,138
-397,409	270,955	-0,052	0,066
-396,394	250,148	0,008	-0,010
-395,379	-93,529	-0,010	0,002
-394,365	-200,000	0,023	-0,080
-393,350	-200,000	-0,035	0,147
-392,336	624,298	0,056	0,101
-391,321	-38,067	0,030	-0,012
-390,306	-200,000	0,015	-0,175
-389,292	-55,301	-0,184	0,059
-388,277	92,691	0,087	-0,071
-387,263	-200,000	0,002	-0,081
-386,248	327,255	0,086	0,118
-385,233	127,879	-0,110	0,101
-384,219	-131,092	0,093	0,009
-383,204	11,276	-0,076	0,041
-382,190	-200,000	-0,012	0,066
-381,175	39,591	0,159	0,102
-380,160	-200,000	0,024	0,109
-379,146	55,733	-0,048	0,033
-378,131	343,897	0,006	0,008
-377,117	212,658	0,047	-0,053
-376,102	-18,794	0,049	0,022
-375,088	249,313	-0,053	-0,065
-374,073	800,000	-0,033	-0,103
-373,058	244,814	-0,085	0,103
-372,044	-200,000	0,044	-0,160
-371,029	185,564	0,102	0,109
-370,015	52,481	0,147	0,100
-369,000	94,435	-0,052	-0,042
-367,985	-200,000	-0,023	-0,098
-366,971	12,776	-0,114	-0,063
-365,956	-23,799	0,050	-0,021
-364,942	-114,674	0,100	-0,014
-363,927	-113,350	0,060	0,008
-362,912	82,879	0,055	-0,043
-361,898	760,330	-0,030	0,059
-360,883	-1,460	-0,068	-0,034
-359,869	-168,197	-0,052	0,001
-358,854	-76,802	0,152	0,038
-357,839	124,562	-0,051	0,046
-356,825	-200,000	-0,027	0,105
-355,810	-97,438	0,150	0,028
-354,796	304,825	-0,093	-0,124
-353,781	800,000	0,079	-0,206
-352,766	95,675	-0,085	-0,070
-351,752	-200,000	0,015	0,101
-350,737	-149,874	0,118	0,007
-349,723	-200,000	0,003	0,104
-348,708	-141,708	0,088	-0,006
-347,693	800,000	0,060	0,182
-346,679	121,319	-0,111	0,099
-345,664	-200,000	0,021	0,193
-344,650	-200,000	0,011	-0,183
-343,635	-123,273	-0,068	0,008
-342,620	-200,000	0,022	-0,087
-341,606	800,000	0,056	0,132
-340,591	300,507	0,066	-0,088
-339,577	800,000	-0,011	-0,027
-338,562	-200,000	-0,044	0,154
-337,548	-70,011	0,130	-0,035
-336,533	136,452	0,064	0,060
-335,518	31,574	-0,097	0,060
-334,504	800,000	-0,041	0,084
-333,489	-51,239	-0,082	-0,027
-332,475	-64,689	-0,076	-0,022
-331,460	449,694	-0,044	0,070
-330,445	-136,111	-0,067	-0,006
-329,431	-200,000	0,003	-0,092
-328,416	-166,654	0,088	-0,003
-327,402	118,614	0,060	0,053
-326,387	143,333	0,050	-0,047
-325,372	800,000	-0,036	0,073
-324,358	204,819	-0,054	-0,060
-323,343	-200,000	0,002	-0,142
-322,329	-11,970	-0,091	-0,042
-321,314	-200,000	-0,004	-0,087
-320,299	-154,008	0,186	-0,009
-319,285	436,243	-0,085	-0,133
-318,270	-136,488	-0,111	0,009
-317,256	41,357	-0,068	-0,044
-316,241	320,498	0,013	-0,018
-315,226	-34,710	0,086	-0,033
-314,212	-106,650	0,041	0,006
-313,197	90,700	0,084	-0,067
-312,183	5,892	-0,112	0,059
-311,168	116,870	0,018	0,016
-310,153	-145,701	-0,178	-0,011
-309,139	-79,328	0,096	-0,023
-308,124	38,904	-0,029	-0,018
-307,110	300,913	0,056	0,075
-306,095	-61,928	0,119	-0,035
-305,080	-200,000	-0,021	-0,161
-304,066	-126,452	-0,188	-0,020
-303,051	630,771	-0,092	-0,166
-302,037	800,000	-0,023	-0,069
-301,022	-200,000	0,012	-0,079
-300,008	-108,120	0,057	-0,009
-298,993	30,864	-0,092	0,056
-297,978	-200,000	0,026	0,084
-296,964	800,000	0,017	-0,048
-295,949	-200,000	-0,011	-0,082
-294,935	-200,000	-0,004	-0,074
-293,920	-200,000	-0,024	-0,113
-292,905	27,265	-0,168	0,101
-291,891	-74,034	0,264	0,068
-290,876	65,495	0,048	0,035
-289,862	-200,000	-0,017	-0,074
-288,847	800,000	-0,054	0,117
-287,832	-200,000	0,005	-0,042
-286,818	242,365	-0,049	0,059
-285,803	-45,887	0,122	-0,043
-284,789	-17,308	0,073	-0,033
-283,774	43,154	-0,091	-0,059
-282,759	-94,016	0,037	-0,007
-281,745	-105,225	-0,014	0,002
-280,730	260,140	-0,065	-0,081
-279,716	-110,852	-0,095	0,014
-278,701	-88,697	0,081	0,017
-277,686	-200,000	0,008	0,089
-276,672	800,000	0,025	0,062
-275,657	800,000	0,021	0,049
-274,643	800,000	0,034	0,068
-273,628	179,826	-0,073	-0,077
-272,613	-26,223	0,157	0,066
-271,599	-70,494	0,067	-0,018
-270,584	453,554	0,049	-0,077
-269,570	-105,748	-0,031	0,005
-268,555	-24,854	-0,087	0,037
-267,540	165,597	-0,097	-0,097
-266,526	-200,000	-0,048	-0,184
-265,511	-200,000	-0,012	0,118
-264,497	-181,304	-0,118	-0,002
-263,482	111,785	-0,009	-0,007
-262,467	334,852	-0,095	0,132
-261,453	60,875	0,014	-0,010
-260,438	88,249	-0,126	-0,100
-259,424	-200,000	0,017	-0,059
-258,409	658,629	-0,061	-0,112
-257,395	-109,764	0,116	0,017
-256,380	525,420	0,017	0,028
-255,365	40,079	0,077	0,050
-254,351	-200,000	0,033	0,123
-253,336	-15,988	-0,068	0,031
-252,322	800,000	-0,036	-0,093
-251,307	-200,000	0,009	-0,059
-250,292	632,830	0,017	-0,031
-249,278	-200,000	-0,010	-0,055
-248,263	508,469	0,088	0,147
-247,249	-36,521	0,126	0,048
-246,234	-200,000	0,014	-0,244
-245,219	257,409	-0,067	-0,082
-244,205	137,634	0,066	-0,062
-243,190	136,108	0,035	0,033
-242,176	-64,506	0,027	-0,008
-241,161	134,944	0,056	0,052
-240,146	-48,860	0,110	-0,037
-239,132	-45,620	-0,038	0,013
-238,117	303,353	0,061	-0,081
-237,103	175,074	0,078	-0,081
-236,088	-62,308	0,009	-0,003
-235,073	-177,317	0,147	0,003
-234,059	12,819	0,071	0,039
-233,044	64,991	0,115	0,082
-232,030	241,976	-0,028	0,034
-231,015	259,236	-0,090	-0,111
-230,000	311,384	0,107	-0,143
-228,986	95,184	-0,049	0,040
-227,971	429,649	-0,028	0,043
-226,957	-200,000	-0,126	0,000
-225,942	-200,000	-0,011	0,049
-224,927	-200,000	-0,001	-0,016
-223,913	800,000	0,039	-0,088
-222,898	5,355	0,164	-0,086
-221,884	277,916	-0,075	0,095
-220,869	78,752	0,051	0,039
-219,855	800,000	0,012	0,027
-218,840	-200,000	0,030	0,118
-217,825	-91,582	0,064	0,013
-216,811	96,057	-0,101	-0,082
-215,796	-200,000	-0,002	-0,248
-214,782	-187,585	-0,134	0,001
-213,767	473,390	0,035	0,056
-212,752	-200,000	-0,016	0,122
-211,738	360,430	-0,063	0,090
-210,723	-200,000	-0,002	0,049
-209,709	-90,529	-0,052	-0,011
-208,694	-200,000	-0,002	0,014
-207,679	800,000	0,054	-0,133
-206,665	13,295	0,205	0,113
-205,650	-200,000	-0,002	0,068
-204,636	398,992	0,063	-0,094
-203,621	800,000	0,050	0,106
-202,606	238,693	0,008	0,009
-201,592	0,220	0,056	0,028
-200,577	205,671	-0,066	-0,073
-199,563	-200,000	0,031	0,112
-198,548	69,465	0,136	0,099
-197,533	-38,449	0,041	-0,015
-196,519	418,559	0,067	0,103
-195,504	-146,767	0,120	-0,007
-194,490	-109,586	-0,034	-0,005
-193,475	800,000	-0,025	-0,068
-192,460	-47,459	0,040	0,014
-191,446	-200,000	-0,023	0,097
-190,431	-79,625	-0,052	0,012
-189,417	42,219	-0,104	-0,067
-188,402	-5,533	0,033	-0,016
-187,387	143,424	0,111	-0,105
-186,373	0,245	-0,032	-0,016
-185,358	-200,000	-0,003	-0,046
-184,344	534,189	0,061	0,102
-183,329	271,035	-0,046	0,057
-182,315	-200,000	0,001	0,019
-181,300	93,419	0,020	-0,016
-180,285	117,188	-0,090	0,079
-179,271	513,667	0,093	0,155
-178,256	-87,591	0,061	0,013
-177,242	1,192	0,057	0,029
-176,227	-26,479	0,068	0,028
-175,212	-25,754	0,108	0,045
-174,198	16,193	0,113	0,063
-173,183	-200,000	0,004	0,186
-172,169	-127,915	-0,115	-0,012
-171,154	-200,000	0,001	-0,041
-170,139	-140,247	0,082	-0,006
-169,125	-200,000	-0,025	0,205
-168,110	114,113	0,079	0,068
-167,096	800,000	-0,048	-0,105
-166,081	18,974	-0,092	0,052
-165,066	256,287	-0,050	-0,061
-164,052	-200,000	-0,014	0,052
-163,037	-103,825	-0,044	0,007
-162,023	433,996	-0,084	0,129
-161,008	800,000	0,007	0,015
-159,993	-200,000	-0,001	0,072
-158,979	79,609	-0,102	-0,078
-157,964	-200,000	-0,003	-0,146
-156,950	800,000	0,009	-0,025
-155,935	-200,000	-0,008	0,036
-154,920	-200,000	0,033	-0,112
-153,906	-200,000	-0,027	-0,152
-152,891	800,000	-0,009	-0,022
-151,877	753,401	-0,010	0,020
-150,862	-200,000	0,047	-0,221
-149,847	-115,014	-0,087	0,012
-148,833	-128,049	-0,100	0,010
-147,818	-6,012	-0,079	-0,038
-146,804	-200,000	0,000	-0,043
-145,789	-127,738	0,118	0,012
-144,775	150,492	-0,069	-0,067
-143,760	800,000	0,031	0,079
-142,745	800,000	0,020	-0,042
-141,731	-61,956	0,050	-0,015
-140,716	305,555	-0,023	0,030
-139,702	-123,530	0,134	0,015
-138,687	-200,000	0,005	-0,025
-137,672	584,489	0,040	-0,070
-136,658	800,000	0,020	-0,062
-135,643	-144,063	0,126	0,008
-134,629	-200,000	0,001	-0,050
-133,614	-200,000	-0,017	0,075
-132,599	23,032	0,138	0,080
-131,585	800,000	0,010	0,030
-130,570	-200,000	-0,003	0,031
-129,556	-41,486	-0,035	-0,013
-128,541	-68,117	-0,092	-0,025
-127,526	143,808	-0,075	-0,071
-126,512	-37,762	0,035	0,013
-125,497	800,000	0,027	-0,074
-124,483	556,308	0,033	-0,056
-123,468	82,363	-0,045	-0,035
-122,453	-87,038	-0,062	-0,013
-121,439	330,372	-0,097	-0,133
-120,424	800,000	0,040	-0,088
-119,410	-0,601	-0,078	-0,039
-118,395	-200,000	0,029	0,142
-117,380	494,119	0,051	0,083
-116,366	14,988	-0,026	0,014
-115,351	-200,000	-0,013	-0,059
-114,337	-116,502	0,053	-0,007
-113,322	800,000	0,049	-0,115
-112,307	-200,000	-0,013	-0,079
-111,293	800,000	0,066	0,172
-110,278	353,345	-0,062	-0,087
-109,264	-200,000	0,002	0,062
-108,249	-11,581	-0,122	-0,057
-107,234	-200,000	-0,004	-0,065
-106,220	42,360	-0,082	-0,053
-105,205	-0,369	0,113	-0,057
-104,191	800,000	0,045	0,098
-103,176	-200,000	0,015	0,169
-102,162	-200,000	-0,014	-0,092
-101,147	800,000	0,033	-0,065
-100,132	107,666	0,018	-0,015
-99,118	-200,000	-0,019	0,067
-98,103	266,183	0,030	-0,037
-97,089	-200,000	0,007	-0,157
-96,074	188,723	0,094	-0,100
-95,059	-92,560	-0,130	0,026
-94,045	79,439	0,078	-0,059
-93,030	123,341	-0,128	0,114
-92,016	-200,000	-0,013	-0,083
-91,001	-109,359	-0,123	-0,018
-89,986	800,000	-0,057	-0,116
-88,972	-200,000	-0,024	0,086
-87,957	-96,947	-0,050	0,009
-86,943	53,456	-0,125	-0,085
-85,928	-200,000	0,015	-0,062
-84,913	248,445	0,026	0,032
-83,899	-200,000	0,010	-0,099
-82,884	90,045	0,077	0,061
-81,870	-200,000	0,012	0,110
-80,855	411,921	-0,142	0,215
-79,840	-171,392	-0,051	0,001
-78,826	137,637	0,112	-0,104
-77,811	-200,000	-0,032	-0,161
-76,797	-200,000	0,175	0,000
-75,782	164,260	0,068	0,068
-74,767	222,951	0,090	-0,103
-73,753	-34,237	0,045	0,017
-72,738	-200,000	0,020	-0,107
-71,724	518,057	0,044	-0,073
-70,709	-200,000	0,003	0,090
-69,694	-7,975	0,103	-0,049
-68,680	324,516	-0,022	-0,030
-67,665	292,367	0,040	-0,052
-66,651	-200,000	0,016	-0,054
-65,636	178,134	-0,037	0,038
-64,622	15,326	0,112	-0,062
-63,607	-99,980	-0,072	-0,013
-62,592	249,149	0,104	-0,125
-61,578	37,488	0,091	-0,057
-60,563	43,756	-0,079	-0,051
-59,549	-200,000	0,016	0,095
-58,534	1,344	-1,690	-0,857
-57,519	411,165	-1,378	-2,076
-56,505	-200,000	-0,642	-4,609
-55,490	281,849	0,903	1,148
-54,476	800,000	4,965	11,452
-53,461	-200,000	19,543	325,767
-52,446	-200,000	745,448	2333,179
-51,432	565,552	1657,534	2856,004
-50,417	77,082	1671,056	1255,315
-49,403	20,757	1544,357	882,803
-48,388	14,665	1466,803	808,830
-47,373	18,144	1456,935	820,174
-46,359	16,588	1446,572	806,846
-45,344	12,918	1442,209	786,799
-44,330	12,828	1440,221	785,251
-43,315	12,847	1438,369	784,299
-42,300	12,849	1436,896	783,474
-41,286	12,841	1435,784	782,798
-40,271	12,839	1434,161	781,872
-39,257	12,783	1433,222	781,065
-38,242	12,928	1431,665	780,876
-37,227	12,928	1430,342	780,124
-36,213	12,886	1428,921	779,119
-35,198	12,883	1427,833	778,481
-34,184	12,936	1426,963	778,224
-33,169	12,849	1425,778	777,134
-32,154	12,955	1424,555	776,943
-31,140	12,907	1423,082	775,879
-30,125	12,963	1421,983	775,515
-29,111	12,944	1421,093	774,906
-28,096	12,916	1419,958	774,125
-27,082	12,867	1418,730	773,193
-26,067	12,850	1417,763	772,558
-25,052	12,884	1416,618	772,064
-24,038	12,817	1415,685	771,207
-23,023	12,848	1414,572	770,715
-22,009	12,818	1413,665	770,049
-20,994	12,811	1412,873	769,556
-19,979	12,765	1411,982	768,823
-18,965	12,819	1410,838	768,424
-17,950	12,800	1409,897	767,792
-16,936	12,835	1408,883	767,372
-15,921	12,746	1408,009	766,449
-14,906	12,734	1407,102	765,870
-13,892	12,742	1406,276	765,430
-12,877	12,774	1405,232	764,977
-11,863	12,760	1404,430	764,444
-10,848	12,742	1403,603	763,884
-9,833	12,709	1402,781	763,251
-8,819	12,640	1402,061	762,508
-7,804	12,635	1400,983	761,869
-6,790	12,655	1400,051	761,421
-5,775	12,631	1398,991	760,704
-4,760	12,642	1397,837	760,099
-3,746	12,621	1397,088	759,563
-2,731	12,614	1396,353	759,100
-1,717	12,574	1395,337	758,331
-0,702	12,643	1393,196	757,458
0,313	16,447	1309,324	729,482
1,327	32,579	701,399	427,951
2,342	50,567	122,545	81,864
3,356	2,151	16,569	8,439
4,371	-5,131	3,221	1,562
5,386	39,524	0,631	0,399
6,400	-200,000	-0,002	0,262
7,415	-89,799	-0,293	-0,060
8,429	-44,452	-0,249	-0,087
9,444	30,115	-0,300	-0,180
10,459	95,831	-0,328	-0,265
11,473	139,880	-0,318	-0,296
12,488	-109,269	-0,321	-0,048
13,502	15,030	-0,371	-0,205
14,517	48,870	-0,462	-0,306
15,531	73,621	-0,330	-0,244
16,546	298,694	-0,281	-0,367
17,561	245,359	-0,315	-0,375
18,575	66,137	-0,131	-0,094
19,590	25,191	-0,252	-0,147
20,604	-123,376	-0,280	-0,031
21,619	32,158	-0,403	-0,245
22,634	48,071	-0,451	-0,297
23,648	189,462	-0,374	-0,396
24,663	-11,503	-0,516	-0,239
25,677	2,017	-0,284	-0,144
26,692	196,289	-0,329	-0,354
27,707	199,001	-0,300	-0,324
28,721	177,683	-0,289	-0,298
29,736	30,015	-0,579	-0,347
30,750	18,254	-0,517	-0,290
31,765	168,169	-0,258	-0,259
32,780	-82,175	-0,344	-0,079
33,794	43,331	-0,244	-0,157
34,809	70,673	-0,400	-0,292
35,823	-47,687	-0,341	-0,116
36,838	214,106	-0,345	-0,385
37,853	-17,772	-0,285	-0,126
38,867	391,406	-0,329	-0,484
39,882	-17,237	-0,361	-0,160
40,896	85,077	-0,357	-0,276
41,911	19,072	-0,362	-0,204
42,926	216,884	-0,309	-0,347
43,940	85,337	-0,420	-0,325
44,955	131,802	-0,375	-0,340
45,969	429,983	-0,322	-0,493
46,984	313,170	-0,263	-0,349
47,999	148,283	-0,266	-0,253
49,013	47,771	-0,249	-0,163
50,028	56,395	-0,220	-0,150
51,042	129,886	-0,372	-0,335
52,057	148,417	-0,404	-0,384
53,071	-135,575	-0,294	-0,024
54,086	-35,009	-0,317	-0,121
55,101	0,372	-0,285	-0,143
56,115	-29,325	-0,304	-0,122
57,130	4,726	-0,444	-0,229
58,144	101,437	-0,346	-0,283
59,159	96,898	-0,350	-0,283
60,174	6,648	-0,405	-0,211
61,188	24,105	-0,266	-0,154
62,203	-9,458	-0,388	-0,182
63,217	32,767	-0,266	-0,162
64,232	6,402	-0,249	-0,130
65,247	95,704	-0,238	-0,191
66,261	282,964	-0,265	-0,335
67,276	361,972	-0,235	-0,333
68,290	66,906	-0,333	-0,238
69,305	42,600	-0,362	-0,231
70,320	22,815	-0,151	-0,087
71,334	87,997	-0,365	-0,285
72,349	143,652	-0,284	-0,266
73,363	4,470	-0,276	-0,142
74,378	-13,585	-0,434	-0,197
75,393	23,258	-0,282	-0,162
76,407	-89,547	-0,321	-0,066
77,422	-42,278	-0,277	-0,099
78,436	19,687	-0,240	-0,136
79,451	33,375	-0,306	-0,186
80,466	-102,916	-0,354	-0,059
81,480	197,906	-0,238	-0,256
82,495	-77,762	-0,276	-0,067
83,509	19,476	-0,250	-0,141
84,524	0,549	-0,266	-0,133
85,539	144,728	-0,158	-0,148
86,553	-104,756	-0,271	-0,043
87,568	-14,354	-0,431	-0,194
88,582	263,171	-0,214	-0,262
89,597	113,066	-0,316	-0,269
90,611	-21,223	-0,281	-0,120
91,626	0,986	-0,321	-0,161
92,641	131,689	-0,218	-0,197
93,655	-64,796	-0,194	-0,055
94,670	40,494	-0,270	-0,170
95,684	98,109	-0,384	-0,310
96,699	56,435	-0,378	-0,257
97,714	156,881	-0,228	-0,221
98,728	11,393	-0,262	-0,140
99,743	121,144	-0,253	-0,221
100,757	-23,489	-0,303	-0,127
101,772	94,184	-0,179	-0,142
102,787	-14,658	-0,337	-0,151
103,801	81,960	-0,259	-0,196
104,816	86,417	-0,291	-0,225
105,830	-144,798	-0,211	-0,013
106,845	204,012	-0,378	-0,410
107,860	207,093	-0,226	-0,248
108,874	-126,844	-0,217	-0,022
109,889	-24,792	-0,249	-0,103
110,903	147,814	-0,295	-0,279
111,918	800,000	-0,149	-0,308
112,933	-74,898	-0,270	-0,067
113,947	-6,238	-0,270	-0,129
114,962	-152,004	-0,286	0,014
115,976	15,202	-0,202	-0,111
116,991	-16,233	-0,382	-0,169
118,006	15,181	-0,240	-0,131
119,020	215,930	-0,258	-0,287
120,035	265,364	-0,228	-0,278
121,049	84,276	-0,242	-0,185
122,064	67,837	-0,227	-0,162
123,079	473,667	-0,107	-0,170
124,093	111,923	-0,292	-0,247
125,108	205,350	-0,223	-0,243
126,122	89,139	-0,276	-0,215
127,137	-195,724	-0,310	0,002
128,151	98,332	-0,224	-0,180
129,166	384,549	-0,156	-0,225
130,181	106,985	-0,278	-0,231
131,195	154,801	-0,307	-0,295
132,210	217,405	-0,237	-0,264
133,224	131,745	-0,297	-0,267
134,239	725,606	-0,117	-0,219
135,254	-4,193	-0,255	-0,123
136,268	186,973	-0,287	-0,299
137,283	-28,948	-0,245	-0,098
138,297	46,478	-0,148	-0,096
139,312	27,926	-0,264	-0,155
140,327	186,937	-0,218	-0,227
141,341	137,704	-0,250	-0,229
142,356	505,136	-0,124	-0,202
143,370	-200,000	-0,051	-0,241
144,385	64,776	-0,197	-0,139
145,400	237,050	-0,227	-0,264
146,414	156,906	-0,270	-0,261
147,429	-21,233	-0,237	-0,101
148,443	184,867	-0,196	-0,203
149,458	-45,080	-0,294	-0,102
150,473	-19,449	-0,263	-0,113
151,487	224,979	-0,207	-0,234
152,502	37,320	-0,359	-0,222
153,516	37,284	-0,406	-0,251
154,531	98,172	-0,191	-0,153
155,546	133,744	-0,158	-0,143
156,560	244,239	-0,156	-0,183
157,575	21,490	-0,365	-0,207
158,589	116,738	-0,188	-0,161
159,604	-105,383	-0,136	-0,021
160,619	138,747	-0,207	-0,190
161,633	16,611	-0,276	-0,152
162,648	517,954	-0,204	-0,333
163,662	-12,902	-0,278	-0,126
164,677	256,043	-0,136	-0,163
165,692	3,323	-0,139	-0,070
166,706	85,755	-0,271	-0,207
167,721	29,354	-0,275	-0,163
168,735	202,984	-0,234	-0,252
169,750	553,539	-0,143	-0,241
170,764	190,928	-0,176	-0,185
171,779	73,603	-0,320	-0,233
172,794	476,405	-0,127	-0,200
173,808	369,247	-0,144	-0,204
174,823	-30,193	-0,336	-0,132
175,837	800,000	-0,110	-0,220
176,852	435,920	-0,119	-0,181
177,867	-43,748	-0,223	-0,078
178,881	58,284	-0,235	-0,160
179,896	31,609	-0,243	-0,145
180,910	74,039	-0,189	-0,138
181,925	112,280	-0,220	-0,185
182,940	-24,144	-0,294	-0,122
183,954	-130,294	-0,067	0,006
184,969	800,000	-0,085	-0,259
185,983	56,702	-0,141	-0,096
186,998	514,282	-0,117	-0,191
188,013	-75,027	-0,320	-0,079
189,027	-140,797	-0,331	-0,023
190,042	135,486	-0,243	-0,220
191,056	-200,000	-0,079	-0,306
192,071	-39,153	-0,293	-0,106
193,086	49,260	-0,143	-0,093
194,100	-49,781	-0,268	-0,088
195,115	69,707	-0,144	-0,103
196,129	405,947	-0,147	-0,216
197,144	69,088	-0,260	-0,185
198,159	155,686	-0,157	-0,151
199,173	67,314	-0,127	-0,090
200,188	101,774	-0,091	-0,074
201,202	4,604	-0,091	-0,046
202,217	295,344	-0,124	-0,158
203,232	800,000	-0,101	-0,212
204,246	-18,835	-0,234	-0,101
205,261	10,374	-0,187	-0,099
206,275	47,508	-0,229	-0,148
207,290	354,781	-0,117	-0,162
208,304	-164,679	-0,161	-0,005
209,319	322,213	-0,166	-0,220
210,334	1,607	-0,296	-0,147
211,348	173,612	-0,183	-0,183
212,363	92,666	-0,101	-0,079
213,377	37,006	-0,246	-0,150
214,392	-18,374	-0,152	-0,066
215,407	-29,500	-0,162	-0,064
216,421	171,404	-0,262	-0,261
217,436	-0,987	-0,224	-0,109
218,450	-119,059	-0,295	-0,035
219,465	35,305	-0,318	-0,193
220,480	-5,222	-0,145	-0,069
221,494	17,620	-0,103	-0,057
222,509	170,515	-0,146	-0,145
223,523	60,154	-0,205	-0,140
224,538	8,854	-0,305	-0,159
225,553	275,427	-0,185	-0,228
226,567	67,450	-0,158	-0,112
227,582	-3,685	-0,236	-0,113
228,596	-200,000	-0,077	-0,247
229,611	-105,421	-0,135	0,021
230,626	173,571	-0,141	-0,142
231,640	181,605	-0,243	-0,248
232,655	112,804	-0,163	-0,137
233,669	-34,757	-0,282	-0,106
234,684	-23,942	-0,211	-0,087
235,699	201,197	-0,142	-0,152
236,713	-106,958	-0,149	-0,023
237,728	-83,692	-0,111	-0,024
238,742	3,753	-0,141	-0,071
239,757	642,404	-0,142	-0,251
240,772	37,409	-0,296	-0,181
241,786	95,752	-0,202	-0,160
242,801	27,424	-0,292	-0,169
243,815	42,032	-0,195	-0,122
244,830	-200,000	-0,035	-0,144
245,844	800,000	-0,092	-0,195
246,859	34,103	-0,288	-0,173
247,874	121,708	-0,107	-0,093
248,888	32,260	-0,216	-0,129
249,903	800,000	-0,099	-0,270
250,917	73,795	-0,110	0,079
251,932	67,212	-0,115	-0,081
252,947	418,451	-0,090	-0,133
253,961	54,517	-0,166	-0,110
254,976	-41,933	-0,307	-0,108
255,990	78,466	-0,180	-0,133
257,005	20,833	-0,183	-0,102
258,020	-78,932	-0,221	-0,052
259,034	275,591	-0,124	-0,152
260,049	-200,000	0,023	-0,111
261,063	17,349	-0,209	-0,115
262,078	81,935	-0,166	-0,124
263,093	-139,584	-0,120	0,009
264,107	175,503	-0,155	-0,155
265,122	33,817	-0,142	-0,085
266,136	-3,808	-0,254	-0,121
267,151	-167,129	-0,228	-0,006
268,166	597,040	-0,085	-0,147
269,180	133,392	-0,130	-0,116
270,195	-106,850	-0,194	-0,029
271,209	-45,378	-0,121	0,041
272,224	238,759	-0,149	-0,172
273,239	12,501	-0,154	-0,082
274,253	103,530	-0,100	-0,081
275,268	-12,568	-0,138	-0,062
276,282	5,284	-0,201	-0,102
277,297	-60,450	-0,155	-0,045
278,312	101,952	-0,181	-0,146
279,326	21,014	-0,165	-0,092
280,341	-28,089	-0,255	-0,101
281,355	-112,098	-0,130	0,018
282,370	41,679	-0,126	-0,078
283,384	-23,301	-0,175	-0,072
284,399	431,231	-0,109	-0,163
285,414	148,239	-0,156	-0,146
286,428	705,125	-0,067	-0,122
287,443	287,377	-0,113	-0,141
288,457	258,737	-0,196	-0,233
289,472	-200,000	-0,036	-0,137
290,487	154,932	-0,192	-0,182
291,501	-39,708	-0,101	-0,036
292,516	172,204	-0,179	-0,177
293,530	44,958	-0,168	-0,107
294,545	219,187	-0,048	-0,053
295,560	800,000	-0,086	-0,194
296,574	-200,000	-0,064	-0,210
297,589	-106,970	-0,265	-0,040
298,603	-87,783	-0,220	-0,045
299,618	-88,714	-0,237	-0,048
300,633	155,747	-0,120	-0,114
301,647	-110,383	-0,110	-0,016
302,662	-200,000	-0,017	-0,187
303,676	83,860	-0,082	-0,062
304,691	-49,418	-0,161	-0,052
305,706	-169,101	-0,112	0,003
306,720	16,335	-0,248	-0,135
307,735	70,703	-0,067	-0,048
308,749	55,230	-0,022	-0,014
309,764	-124,082	-0,207	-0,022
310,779	154,507	-0,100	-0,095
311,793	-84,246	-0,094	-0,020
312,808	47,019	-0,181	-0,115
313,822	-56,624	-0,110	-0,033
314,837	-76,338	-0,214	-0,051
315,852	-125,585	-0,032	0,003
316,866	250,176	-0,086	-0,101
317,881	5,770	-0,113	-0,058
318,895	800,000	-0,065	-0,140
319,910	-200,000	-0,032	-0,137
320,925	3,637	-0,111	-0,056
321,939	800,000	-0,036	-0,071
322,954	-0,780	-0,021	-0,010
323,968	-103,954	-0,132	0,021
324,983	245,611	-0,121	-0,140
325,997	215,105	-0,049	-0,054
327,012	800,000	-0,090	-0,183
328,027	117,808	-0,231	-0,195
329,041	22,819	-0,154	-0,087
330,056	-2,592	-0,168	-0,081
331,070	-80,116	-0,184	-0,042
332,085	-47,798	-0,149	0,049
333,100	271,897	-0,155	-0,188
334,114	74,996	-0,087	-0,063
335,129	372,877	-0,187	-0,262
336,143	-32,876	-0,217	-0,082
337,158	-89,649	-0,101	-0,020
338,173	-20,588	-0,094	-0,040
339,187	201,996	-0,099	-0,105
340,202	92,036	-0,166	-0,128
341,216	142,367	-0,128	-0,117
342,231	148,014	-0,156	-0,145
343,246	36,901	-0,186	-0,113
344,260	-200,000	-0,033	-0,151
345,275	353,181	-0,127	-0,173
346,289	55,221	-0,121	-0,080
347,304	56,631	-0,101	-0,067
348,319	258,644	-0,075	0,089
349,333	404,224	-0,172	-0,249
350,348	-200,000	-0,018	0,100
351,362	348,606	-0,105	-0,142
352,377	-200,000	-0,026	0,095
353,392	19,800	-0,060	0,033
354,406	-46,219	-0,028	0,010
355,421	208,163	1313,435	1409,279
356,435	160,162	1473,984	1409,761
