DTS Sentinel unit serial number:	SN410029Multiplexer serial number:	ORYXHardware model number:	OX2-SRSoftware version number:	ORYX F/W v4,00 Oryx Data Collector v3.7.2.0data status	okinstallation	B3 Nyhavnadifferential loss correction	single-endedforward channel	channel 1reverse channel	N/Adate	2023/11/29time	15:42:30forward acquisition time	300,00reverse acquisition time	0,00gamma	499,1914k internal	0,3209k external	0,3209temperature offset calibration	1,0000default loss term (dB/km)	0,3820temperature slope calibration	1,0000multiplexer offset coefficient	1,0000multiplexer slope coefficient	1,0000fibre end	0,00T internal ref (°C)	11,32T ext. ref 1 (°C)	-3,21T ext. ref 2 (°C)	-3,37length (m)	temperature (°C)	Stokes	anti-Stokes-744,400	585,091	-0,110	-0,197
-743,385	800,000	-0,127	0,261
-742,371	-200,000	-0,055	-0,229
-741,356	592,774	0,161	0,291
-740,342	-61,186	-0,273	-0,083
-739,327	-200,000	-0,063	0,223
-738,312	159,464	-0,226	-0,228
-737,298	-200,000	-0,019	0,289
-736,283	465,159	-0,202	-0,328
-735,269	800,000	-0,057	0,181
-734,254	166,877	-0,291	-0,300
-733,239	68,062	-0,195	0,144
-732,225	425,972	-0,139	-0,218
-731,210	139,573	-0,011	0,011
-730,196	-106,096	-0,055	0,009
-729,181	-148,354	-0,102	0,006
-728,167	-200,000	-0,010	-0,070
-727,152	-23,439	0,069	-0,030
-726,137	-200,000	0,036	-0,118
-725,123	11,752	-0,135	-0,075
-724,108	-143,178	-0,151	-0,010
-723,094	-25,108	-0,114	-0,049
-722,079	800,000	0,024	0,061
-721,064	-64,432	-0,149	0,044
-720,050	78,684	-0,076	-0,059
-719,035	-199,401	-0,111	-0,000
-718,021	-200,000	0,008	-0,106
-717,006	-24,170	-0,078	-0,034
-715,991	800,000	-0,041	-0,082
-714,977	437,714	-0,103	-0,163
-713,962	-200,000	0,006	0,084
-712,948	-52,566	-0,086	0,029
-711,933	767,886	-0,027	0,053
-710,918	-83,119	-0,088	-0,020
-709,904	-26,131	-0,108	0,046
-708,889	93,929	-0,084	0,069
-707,875	1,307	0,036	-0,019
-706,860	169,492	0,030	-0,031
-705,845	424,470	0,040	0,063
-704,831	617,841	0,046	-0,083
-703,816	-200,000	0,015	0,203
-702,802	-127,552	-0,180	-0,019
-701,787	-200,000	0,024	-0,106
-700,772	246,144	-0,119	-0,146
-699,758	176,968	-0,015	-0,016
-698,743	-200,000	0,005	0,060
-697,729	416,079	-0,056	-0,087
-696,714	579,149	0,018	0,031
-695,699	-53,655	-0,055	0,018
-694,685	-200,000	-0,005	-0,193
-693,670	-96,670	0,024	0,005
-692,656	-30,937	-0,062	-0,025
-691,641	-200,000	0,001	0,049
-690,627	-101,746	0,182	0,032
-689,612	-0,606	-0,109	-0,056
-688,597	800,000	0,047	-0,102
-687,583	82,537	0,039	0,031
-686,568	158,924	-0,038	0,038
-685,554	-200,000	-0,027	0,124
-684,539	124,048	-0,048	0,044
-683,524	20,836	0,024	0,014
-682,510	-32,598	-0,060	-0,024
-681,495	45,562	0,147	0,098
-680,481	-200,000	-0,002	-0,047
-679,466	124,246	-0,026	0,023
-678,451	800,000	-0,028	0,066
-677,437	-200,000	-0,013	-0,078
-676,422	-200,000	-0,013	0,110
-675,408	800,000	-0,050	0,106
-674,393	-79,972	0,067	0,016
-673,378	-1,767	0,034	-0,017
-672,364	800,000	-0,037	0,091
-671,349	-77,957	-0,018	-0,004
-670,335	-200,000	-0,001	0,100
-669,320	-200,000	0,027	0,105
-668,305	800,000	-0,071	-0,144
-667,291	800,000	0,006	-0,017
-666,276	34,277	-0,162	-0,102
-665,262	234,710	-0,080	-0,096
-664,247	-200,000	0,000	0,194
-663,232	453,965	0,102	0,164
-662,218	154,614	0,015	0,015
-661,203	283,059	-0,083	-0,108
-660,189	-56,655	-0,087	-0,028
-659,174	36,097	-0,085	-0,054
-658,159	800,000	-0,038	-0,098
-657,145	94,032	0,094	0,077
-656,130	-200,000	-0,008	-0,180
-655,116	58,824	-0,044	-0,031
-654,101	-200,000	0,022	0,081
-653,086	-11,342	-0,066	0,031
-652,072	41,264	0,035	-0,023
-651,057	-11,147	-0,141	-0,067
-650,043	-200,000	0,035	-0,146
-649,028	425,126	0,058	0,090
-648,014	-200,000	0,002	0,037
-646,999	-200,000	-0,012	-0,084
-645,984	-200,000	-0,003	0,167
-644,970	-200,000	-0,030	0,197
-643,955	-22,653	-0,075	-0,033
-642,941	208,481	-0,107	-0,122
-641,926	518,218	0,046	0,078
-640,911	800,000	-0,053	-0,161
-639,897	132,901	0,150	-0,140
-638,882	-200,000	-0,019	0,078
-637,868	34,893	-0,090	0,057
-636,853	14,391	-0,141	-0,079
-635,838	800,000	0,046	-0,093
-634,824	96,524	-0,046	-0,038
-633,809	99,460	-0,061	0,051
-632,795	64,487	-0,068	0,049
-631,780	210,951	-0,046	-0,052
-630,765	41,899	-0,057	-0,037
-629,751	407,497	-0,062	-0,094
-628,736	-200,000	0,004	-0,174
-627,722	800,000	0,067	0,175
-626,707	-46,207	-0,068	0,024
-625,692	-200,000	-0,005	0,161
-624,678	2,893	0,076	-0,040
-623,663	-200,000	-0,011	0,083
-622,649	-102,608	-0,092	-0,016
-621,634	178,872	0,087	-0,092
-620,619	72,078	-0,107	-0,080
-619,605	-200,000	0,006	-0,090
-618,590	800,000	-0,031	0,068
-617,576	77,213	0,051	0,039
-616,561	-200,000	0,007	0,034
-615,546	-60,551	-0,122	-0,037
-614,532	-200,000	0,036	0,139
-613,517	98,724	-0,039	-0,032
-612,503	25,671	0,128	0,076
-611,488	-96,432	0,010	-0,002
-610,474	800,000	-0,011	-0,027
-609,459	-183,304	0,046	0,001
-608,444	800,000	0,039	-0,117
-607,430	-197,452	0,030	0,000
-606,415	338,210	0,066	-0,093
-605,401	165,971	0,074	0,076
-604,386	-106,168	0,162	-0,026
-603,371	58,068	0,077	-0,054
-602,357	-68,163	0,041	-0,011
-601,342	-56,003	0,028	-0,009
-600,328	-95,378	-0,234	0,045
-599,313	-89,148	0,072	-0,015
-598,298	0,656	0,101	0,052
-597,284	18,851	-0,032	0,018
-596,269	37,938	-0,057	0,036
-595,255	326,834	-0,018	-0,024
-594,240	61,427	-0,119	-0,085
-593,225	-200,000	-0,028	-0,115
-592,211	209,479	-0,156	-0,177
-591,196	98,436	-0,043	-0,036
-590,182	-167,814	-0,088	0,002
-589,167	449,775	-0,030	-0,047
-588,152	13,823	0,140	-0,078
-587,138	800,000	-0,046	-0,095
-586,123	248,136	-0,025	-0,030
-585,109	714,466	-0,031	-0,060
-584,094	139,850	-0,094	-0,089
-583,079	-21,832	-0,017	0,007
-582,065	-200,000	-0,014	0,064
-581,050	-120,111	0,110	-0,013
-580,036	-25,800	-0,102	0,043
-579,021	71,184	-0,151	-0,113
-578,006	-164,041	-0,052	0,002
-576,992	190,924	0,152	0,165
-575,977	800,000	-0,028	-0,073
-574,963	78,700	0,047	-0,036
-573,948	-56,211	-0,017	0,005
-572,934	30,836	0,031	-0,019
-571,919	-200,000	0,027	-0,101
-570,904	-200,000	0,047	-0,187
-569,890	94,775	-0,064	-0,052
-568,875	800,000	0,029	0,088
-567,861	5,354	0,068	-0,036
-566,846	245,024	0,031	0,038
-565,831	-95,313	-0,083	-0,016
-564,817	-200,000	-0,006	0,141
-563,802	-16,980	0,129	-0,059
-562,788	270,107	-0,104	0,132
-561,773	-93,530	0,132	0,026
-560,758	-36,061	-0,161	-0,062
-559,744	-78,040	0,084	-0,021
-558,729	-109,719	-0,093	0,014
-557,715	153,609	-0,052	-0,051
-556,700	800,000	0,039	-0,112
-555,685	-110,869	-0,138	0,020
-554,671	-200,000	-0,009	0,076
-553,656	73,001	0,122	0,091
-552,642	425,158	-0,060	0,094
-551,627	800,000	0,046	0,100
-550,612	-126,151	-0,049	-0,005
-549,598	-200,000	0,002	0,018
-548,583	800,000	0,038	0,078
-547,569	96,230	-0,047	-0,039
-546,554	800,000	0,060	-0,147
-545,539	-200,000	0,024	0,158
-544,525	272,557	-0,012	-0,016
-543,510	-200,000	-0,007	0,046
-542,496	234,246	-0,045	-0,053
-541,481	76,634	0,071	0,054
-540,466	-200,000	0,002	0,007
-539,452	800,000	0,066	-0,140
-538,437	95,417	0,026	0,021
-537,423	-174,561	0,151	-0,003
-536,408	-40,703	-0,171	0,063
-535,393	-100,721	-0,110	-0,019
-534,379	239,834	0,032	0,038
-533,364	800,000	0,047	0,133
-532,350	-107,843	0,214	-0,033
-531,335	-135,799	0,037	0,003
-530,321	82,477	0,077	-0,060
-529,306	199,086	-0,073	-0,080
-528,291	124,176	-0,026	0,023
-527,277	800,000	-0,009	-0,027
-526,262	165,980	0,107	-0,109
-525,248	-200,000	-0,014	0,075
-524,233	8,663	0,077	-0,042
-523,218	563,287	0,081	0,141
-522,204	52,980	-0,061	0,042
-521,189	-91,931	0,111	0,022
-520,175	800,000	-0,027	-0,074
-519,160	-134,215	-0,053	-0,005
-518,145	-200,000	0,035	-0,176
-517,131	164,435	0,056	-0,057
-516,116	195,111	-0,049	0,054
-515,102	-200,000	0,019	-0,061
-514,087	554,228	-0,050	0,087
-513,072	-200,000	-0,048	-0,174
-512,058	7,161	0,130	-0,069
-511,043	-200,000	-0,017	0,106
-510,029	-72,969	0,082	-0,022
-509,014	88,250	0,047	-0,038
-507,999	-98,746	0,090	-0,016
-506,985	-200,000	0,016	0,065
-505,970	800,000	-0,063	-0,181
-504,956	759,692	-0,036	-0,071
-503,941	286,083	0,095	-0,123
-502,926	-161,339	-0,018	-0,001
-501,912	-125,432	-0,091	0,010
-500,897	-69,961	-0,110	0,030
-499,883	81,014	0,098	0,076
-498,868	376,471	-0,033	-0,049
-497,853	-130,476	-0,068	0,007
-496,839	-200,000	0,022	-0,101
-495,824	97,839	0,066	0,054
-494,810	-11,260	0,066	0,031
-493,795	800,000	0,041	0,089
-492,781	213,125	-0,104	0,118
-491,766	-200,000	-0,121	-0,000
-490,751	-200,000	-0,016	-0,063
-489,737	800,000	0,031	0,080
-488,722	21,811	0,099	0,058
-487,708	-200,000	-0,004	0,074
-486,693	800,000	-0,040	0,099
-485,678	44,360	-0,083	-0,055
-484,664	324,250	0,046	-0,063
-483,649	282,563	0,059	-0,076
-482,635	-144,424	-0,143	0,009
-481,620	-62,991	-0,054	-0,016
-480,605	-200,000	0,040	0,154
-479,591	-113,434	0,083	-0,012
-478,576	-12,864	0,055	0,026
-477,562	154,951	-0,141	-0,139
-476,547	293,837	0,047	-0,062
-475,532	800,000	-0,014	0,041
-474,518	-200,000	-0,007	-0,055
-473,503	800,000	0,045	-0,137
-472,489	128,151	-0,053	0,048
-471,474	207,718	0,095	0,106
-470,459	-200,000	-0,038	-0,126
-469,445	-167,287	-0,186	-0,005
-468,430	-74,884	0,059	-0,015
-467,416	239,494	0,084	0,100
-466,401	544,770	0,005	-0,009
-465,386	-200,000	0,018	-0,066
-464,372	35,610	-0,047	0,030
-463,357	800,000	-0,044	-0,122
-462,343	102,932	-0,120	-0,100
-461,328	162,103	-0,068	-0,069
-460,313	-64,044	0,071	0,021
-459,299	-200,000	-0,033	0,147
-458,284	800,000	-0,028	0,079
-457,270	57,001	-0,082	0,057
-456,255	96,262	0,039	0,032
-455,241	-127,374	-0,209	-0,022
-454,226	-19,065	-0,044	-0,020
-453,211	-61,524	0,131	0,039
-452,197	-200,000	0,003	0,051
-451,182	529,246	-0,061	0,104
-450,168	-127,693	-0,059	0,006
-449,153	576,623	0,080	0,141
-448,138	-55,807	-0,128	-0,041
-447,124	-46,495	-0,159	-0,056
-446,109	-72,252	0,052	0,014
-445,095	-200,000	-0,005	-0,018
-444,080	-200,000	-0,009	0,058
-443,065	0,492	-0,083	0,043
-442,051	534,947	0,027	-0,047
-441,036	134,042	-0,135	-0,126
-440,022	191,164	0,045	-0,049
-439,007	157,026	-0,113	0,112
-437,992	45,421	-0,081	-0,054
-436,978	-200,000	0,013	-0,044
-435,963	-39,723	0,116	0,043
-434,949	671,096	-0,065	0,122
-433,934	-200,000	0,012	-0,108
-432,919	-53,032	-0,092	-0,030
-431,905	223,284	-0,058	0,067
-430,890	-200,000	0,011	0,051
-429,876	-15,920	-0,132	0,060
-428,861	144,605	0,071	0,068
-427,846	-48,380	0,123	-0,042
-426,832	-12,257	0,078	0,036
-425,817	141,091	-0,129	-0,122
-424,803	239,443	0,064	-0,077
-423,788	325,389	-0,022	0,031
-422,773	-200,000	0,027	0,109
-421,759	216,074	0,085	0,097
-420,744	-129,784	-0,114	-0,011
-419,730	112,272	0,134	-0,116
-418,715	800,000	-0,066	-0,147
-417,701	8,169	-0,044	0,023
-416,686	1,718	-0,122	0,063
-415,671	23,426	0,067	-0,039
-414,657	583,818	0,026	0,046
-413,642	-155,324	0,026	0,001
-412,628	-87,267	0,094	-0,020
-411,613	-200,000	-0,084	-0,273
-410,598	-153,426	-0,118	0,006
-409,584	-200,000	-0,004	0,102
-408,569	542,355	0,053	0,091
-407,555	166,430	-0,074	0,075
-406,540	-104,709	0,025	0,004
-405,525	375,635	-0,058	0,085
-404,511	-96,131	-0,104	0,020
-403,496	-57,569	0,081	-0,025
-402,482	-47,742	-0,059	-0,020
-401,467	-200,000	0,011	-0,121
-400,452	21,424	-0,053	-0,031
-399,438	800,000	0,060	0,163
-398,423	-86,488	-0,107	-0,023
-397,409	-200,000	0,027	0,110
-396,394	-90,800	-0,091	-0,019
-395,379	-200,000	0,010	-0,131
-394,365	800,000	-0,011	0,022
-393,350	142,158	0,019	0,018
-392,336	538,223	-0,065	0,111
-391,321	-86,905	0,119	-0,026
-390,306	712,003	0,124	-0,236
-389,292	182,373	-0,032	0,034
-388,277	-109,246	0,076	-0,011
-387,263	-21,373	-0,166	-0,072
-386,248	390,238	0,072	0,107
-385,233	319,585	0,086	0,117
-384,219	210,715	-0,152	0,172
-383,204	-101,677	0,183	-0,031
-382,190	581,860	0,023	0,040
-381,175	7,877	-0,029	0,015
-380,160	-157,493	0,061	-0,003
-379,146	800,000	0,009	0,022
-378,131	-200,000	0,036	0,137
-377,117	-7,365	0,078	0,038
-376,102	-200,000	0,021	0,146
-375,088	-13,591	0,065	-0,030
-374,073	-85,576	0,051	0,011
-373,058	-200,000	-0,006	0,062
-372,044	-7,851	0,126	0,061
-371,029	800,000	-0,044	0,131
-370,015	0,474	0,126	0,064
-369,000	25,710	-0,028	0,017
-367,985	800,000	0,011	-0,024
-366,971	-200,000	-0,005	-0,037
-365,956	-125,561	0,043	-0,005
-364,942	-89,025	0,101	-0,021
-363,927	-98,011	0,110	-0,020
-362,912	800,000	-0,043	-0,096
-361,898	-200,000	-0,006	-0,083
-360,883	-200,000	-0,027	-0,119
-359,869	800,000	-0,027	0,066
-358,854	483,140	0,044	0,071
-357,839	245,648	-0,047	0,057
-356,825	193,311	-0,083	-0,090
-355,810	93,249	0,075	-0,060
-354,796	34,041	0,080	-0,049
-353,781	223,213	-0,034	0,039
-352,766	800,000	-0,019	-0,041
-351,752	268,402	0,016	-0,020
-350,737	309,043	0,075	0,100
-349,723	-95,759	-0,218	0,041
-348,708	112,833	-0,077	0,067
-347,693	673,416	0,030	-0,055
-346,679	-73,024	0,131	-0,034
-345,664	24,487	-0,085	-0,050
-344,650	-105,647	-0,172	0,028
-343,635	-22,478	0,104	-0,045
-342,620	-102,862	0,165	0,028
-341,606	205,967	-0,070	0,077
-340,591	65,381	-0,034	0,024
-339,577	174,755	0,048	0,049
-338,562	-200,000	-0,047	0,168
-337,548	4,361	-0,014	0,007
-336,533	-80,858	-0,040	0,009
-335,518	800,000	-0,026	0,058
-334,504	-200,000	-0,020	0,111
-333,489	-200,000	-0,025	-0,109
-332,475	-200,000	0,002	-0,115
-331,460	346,538	-0,051	-0,071
-330,445	29,521	-0,080	-0,048
-329,431	800,000	0,047	0,147
-328,416	800,000	0,027	0,063
-327,402	-91,328	0,138	0,028
-326,387	18,765	-0,036	0,020
-325,372	-200,000	0,014	-0,131
-324,358	205,246	-0,051	-0,057
-323,343	-200,000	-0,002	-0,008
-322,329	-200,000	0,008	0,039
-321,314	-200,000	-0,009	0,058
-320,299	13,811	0,033	-0,018
-319,285	13,290	0,070	-0,039
-318,270	-161,824	-0,060	0,002
-317,256	800,000	-0,078	-0,164
-316,241	-83,482	0,081	-0,018
-315,226	-175,223	0,055	-0,001
-314,212	94,681	0,090	0,073
-313,197	-12,953	0,111	0,052
-312,183	86,260	0,106	-0,084
-311,168	27,338	-0,061	0,037
-310,153	-70,200	-0,041	0,011
-309,139	800,000	0,019	0,044
-308,124	-142,221	-0,036	-0,003
-307,110	-200,000	0,034	0,112
-306,095	233,021	0,051	-0,059
-305,080	-9,130	-0,044	-0,021
-304,066	800,000	-0,021	0,064
-303,051	-200,000	-0,007	0,139
-302,037	14,095	0,045	0,025
-301,022	29,539	0,141	-0,085
-300,008	800,000	0,041	0,121
-298,993	149,692	0,046	-0,045
-297,978	-200,000	-0,045	0,143
-296,964	-200,000	-0,002	0,137
-295,949	-155,574	-0,045	0,002
-294,935	800,000	0,031	-0,063
-293,920	10,605	0,135	-0,073
-292,905	78,172	0,057	-0,043
-291,891	-77,813	0,035	0,009
-290,876	4,561	-0,004	-0,002
-289,862	500,311	-0,042	0,069
-288,847	800,000	-0,024	-0,056
-287,832	800,000	-0,039	-0,084
-286,818	-200,000	0,010	-0,041
-285,803	268,135	0,013	-0,016
-284,789	800,000	-0,018	0,051
-283,774	800,000	-0,048	-0,097
-282,759	-200,000	0,003	0,030
-281,745	333,414	0,092	-0,127
-280,730	117,153	-0,126	-0,110
-279,716	546,020	-0,062	0,106
-278,701	-200,000	-0,011	0,054
-277,686	92,988	0,080	0,064
-276,672	-200,000	0,008	0,122
-275,657	-160,483	0,052	-0,002
-274,643	-200,000	-0,017	-0,079
-273,628	383,118	-0,053	-0,077
-272,613	-128,415	-0,096	0,010
-271,599	-200,000	-0,027	0,136
-270,584	64,774	0,119	0,085
-269,570	-200,000	0,000	0,109
-268,555	168,134	0,130	0,131
-267,540	-200,000	0,010	-0,071
-266,526	190,920	-0,158	-0,170
-265,511	431,960	0,049	-0,076
-264,497	36,944	-0,069	-0,044
-263,482	-200,000	0,012	0,160
-262,467	-63,430	0,059	0,017
-261,453	800,000	0,085	0,227
-260,438	-200,000	-0,017	-0,100
-259,424	45,279	-0,042	-0,027
-258,409	-39,598	0,052	0,019
-257,395	800,000	0,065	-0,134
-256,380	800,000	-0,061	0,135
-255,365	800,000	0,056	0,156
-254,351	397,120	0,025	-0,037
-253,336	-88,993	-0,052	-0,011
-252,322	800,000	-0,045	-0,123
-251,307	-200,000	-0,043	-0,189
-250,292	-200,000	-0,003	0,119
-249,278	8,937	0,105	-0,056
-248,263	-200,000	0,002	0,010
-247,249	-57,333	0,083	-0,026
-246,234	683,191	0,027	-0,051
-245,219	111,466	-0,156	0,134
-244,205	185,303	0,054	-0,057
-243,190	28,547	-0,050	-0,030
-242,176	-123,348	0,173	-0,019
-241,161	800,000	0,044	0,093
-240,146	105,108	0,054	-0,045
-239,132	-25,992	-0,105	0,044
-238,117	-200,000	-0,001	-0,010
-237,103	-32,104	0,136	0,054
-236,088	-200,000	-0,029	-0,164
-235,073	30,973	0,108	-0,066
-234,059	15,708	0,039	-0,022
-233,044	-96,824	-0,092	0,017
-232,030	-200,000	-0,009	-0,110
-231,015	773,871	-0,008	0,016
-230,000	-20,093	-0,151	0,066
-228,986	235,707	0,059	-0,069
-227,971	154,221	-0,048	0,047
-226,957	-200,000	0,008	-0,092
-225,942	-200,000	-0,011	-0,104
-224,927	-116,206	-0,088	0,011
-223,913	24,489	0,056	0,033
-222,898	-105,997	0,030	0,005
-221,884	-132,579	-0,049	-0,004
-220,869	-200,000	0,018	0,160
-219,855	-60,723	0,162	0,049
-218,840	-113,816	0,074	-0,010
-217,825	-41,430	0,118	-0,043
-216,811	143,764	-0,118	-0,111
-215,796	-51,699	0,069	-0,023
-214,782	126,194	-0,011	-0,010
-213,767	108,643	0,059	0,050
-212,752	765,523	0,055	0,106
-211,738	8,413	0,100	0,053
-210,723	532,321	0,050	-0,084
-209,709	-108,225	-0,142	0,022
-208,694	-3,205	-0,050	-0,025
-207,679	132,991	-0,042	-0,039
-206,665	28,871	0,076	0,045
-205,650	-100,866	0,098	0,017
-204,636	348,366	0,115	0,162
-203,621	-113,050	0,152	-0,021
-202,606	363,671	0,107	-0,153
-201,592	-187,372	-0,037	0,000
-200,577	475,818	-0,065	-0,105
-199,563	-200,000	-0,049	-0,156
-198,548	-200,000	0,006	0,099
-197,533	76,231	0,016	0,012
-196,519	689,420	-0,059	0,110
-195,504	-200,000	-0,006	0,076
-194,490	800,000	-0,018	-0,053
-193,475	-200,000	0,001	-0,013
-192,460	-101,144	-0,151	0,026
-191,446	535,514	-0,037	-0,063
-190,431	-200,000	0,020	-0,114
-189,417	20,921	0,056	0,032
-188,402	135,676	-0,059	0,055
-187,387	800,000	-0,056	-0,120
-186,373	800,000	-0,009	-0,024
-185,358	65,338	0,073	-0,052
-184,344	47,984	0,078	0,052
-183,329	121,825	-0,046	0,041
-182,315	31,030	0,040	0,024
-181,300	138,011	-0,082	0,076
-180,285	-200,000	0,039	-0,207
-179,271	84,882	0,022	-0,017
-178,256	-17,099	-0,100	0,044
-177,242	89,435	0,086	-0,068
-176,227	-84,452	-0,083	0,018
-175,212	60,917	-0,060	-0,042
-174,198	-200,000	0,005	-0,046
-173,183	-90,470	0,064	0,013
-172,169	485,314	-0,012	-0,020
-171,154	-23,992	-0,160	0,067
-170,139	-200,000	0,007	0,099
-169,125	498,038	0,035	-0,058
-168,110	155,191	-0,103	0,101
-167,096	-200,000	0,031	0,139
-166,081	322,207	0,070	-0,095
-165,066	-200,000	0,001	0,076
-164,052	-0,154	-0,019	-0,009
-163,037	-32,729	-0,043	0,017
-162,023	-200,000	0,000	0,034
-161,008	11,794	-0,096	0,052
-159,993	-200,000	0,029	0,136
-158,979	-200,000	0,034	-0,138
-157,964	-200,000	0,028	-0,208
-156,950	-200,000	-0,021	-0,082
-155,935	-150,955	-0,076	0,004
-154,920	688,705	-0,021	-0,038
-153,906	397,698	0,047	0,071
-152,891	-200,000	-0,015	0,098
-151,877	-178,251	-0,015	-0,000
-150,862	-48,477	0,075	-0,025
-149,847	-45,903	-0,097	0,034
-148,833	246,315	0,037	0,045
-147,818	800,000	0,034	0,070
-146,804	800,000	0,055	0,168
-145,789	-146,060	-0,054	0,003
-144,775	-200,000	0,005	0,029
-143,760	-86,219	-0,134	0,029
-142,745	800,000	0,034	-0,072
-141,731	-108,038	-0,090	-0,014
-140,716	-200,000	0,000	0,018
-139,702	-200,000	0,035	0,166
-138,687	-200,000	0,016	0,118
-137,672	21,842	0,055	-0,031
-136,658	59,932	-0,068	-0,047
-135,643	335,780	-0,043	-0,059
-134,629	278,624	-0,095	-0,120
-133,614	-79,466	0,076	-0,018
-132,599	-200,000	-0,002	0,165
-131,585	-14,894	0,120	0,054
-130,570	18,724	-0,113	-0,064
-129,556	3,956	0,100	-0,051
-128,541	247,181	0,077	-0,093
-127,526	225,753	-0,049	0,056
-126,512	142,351	-0,078	-0,073
-125,497	800,000	0,057	0,172
-124,483	-83,091	-0,037	0,008
-123,468	-118,374	-0,087	-0,011
-122,453	800,000	-0,053	0,152
-121,439	800,000	0,021	0,065
-120,424	-103,882	-0,071	0,012
-119,410	-81,137	0,101	-0,024
-118,395	73,629	0,027	-0,020
-117,380	-191,684	0,108	0,001
-116,366	-76,207	0,072	-0,018
-115,351	-200,000	0,006	-0,127
-114,337	-99,885	0,089	0,016
-113,322	-200,000	0,005	-0,060
-112,307	14,275	-0,055	0,030
-111,293	800,000	0,038	-0,086
-110,278	-112,901	0,211	0,029
-109,264	800,000	0,056	0,117
-108,249	-200,000	0,044	-0,186
-107,234	-85,036	-0,176	-0,039
-106,220	286,748	0,013	0,016
-105,205	46,809	0,069	-0,045
-104,191	61,273	-0,086	0,061
-103,176	800,000	0,083	-0,175
-102,162	-183,375	-0,065	0,001
-101,147	-200,000	-0,021	-0,095
-100,132	-200,000	0,046	-0,170
-99,118	-4,071	0,057	0,028
-98,103	-98,817	-0,077	-0,014
-97,089	94,789	-0,135	0,108
-96,074	-200,000	-0,005	0,046
-95,059	-44,910	-0,038	-0,013
-94,045	-200,000	0,020	-0,081
-93,030	-115,813	0,084	-0,011
-92,016	-200,000	-0,001	0,051
-91,001	800,000	0,039	-0,093
-89,986	-107,089	0,100	0,015
-88,972	800,000	0,067	0,155
-87,957	-58,969	0,086	0,026
-86,943	-145,834	0,104	0,006
-85,928	-71,154	-0,201	0,053
-84,913	371,695	-0,043	-0,062
-83,899	-37,737	-0,137	-0,051
-82,884	755,607	0,078	-0,150
-81,870	-200,000	0,030	0,176
-80,855	-200,000	-0,013	0,085
-79,840	-130,779	0,037	0,003
-78,826	-66,388	-0,040	-0,011
-77,811	61,569	-0,036	0,025
-76,797	166,219	0,009	0,009
-75,782	-200,000	-0,004	-0,096
-74,767	-135,087	0,139	0,012
-73,753	240,538	-0,053	-0,063
-72,738	-33,062	0,075	-0,029
-71,724	487,344	-0,062	0,101
-70,709	680,562	0,076	-0,140
-69,694	-200,000	-0,005	-0,120
-68,680	219,875	0,048	-0,055
-67,665	-200,000	0,007	-0,051
-66,651	95,021	-0,038	0,030
-65,636	24,380	-0,026	-0,015
-64,622	-54,526	-0,131	-0,041
-63,607	718,594	0,020	-0,038
-62,592	34,062	0,217	0,133
-61,578	-200,000	0,020	-0,065
-60,563	-200,000	0,001	0,066
-59,549	-58,997	0,069	-0,021
-58,534	8,232	-1,839	-0,973
-57,519	386,983	-1,378	-2,017
-56,505	-200,000	-0,404	-4,290
-55,490	437,247	0,784	1,211
-54,476	800,000	5,206	11,495
-53,461	-200,000	20,316	326,926
-52,446	800,000	752,352	2311,529
-51,432	550,823	1657,875	2819,707
-50,417	73,928	1663,477	1230,636
-49,403	19,135	1536,729	868,156
-48,388	13,157	1459,237	795,467
-47,373	18,822	1449,646	817,393
-46,359	16,119	1439,173	798,595
-45,344	11,468	1434,708	773,952
-44,330	11,345	1433,063	772,449
-43,315	11,316	1431,140	771,241
-42,300	11,345	1429,428	770,428
-41,286	11,377	1428,254	769,915
-40,271	11,353	1426,963	769,075
-39,257	11,355	1425,629	768,337
-38,242	11,417	1424,381	767,926
-37,227	11,388	1423,275	767,162
-36,213	11,383	1422,033	766,441
-35,198	11,383	1421,014	765,861
-34,184	11,472	1419,842	765,616
-33,169	11,346	1418,665	764,358
-32,154	11,442	1417,597	764,204
-31,140	11,426	1416,418	763,462
-30,125	11,472	1415,183	762,985
-29,111	11,469	1414,241	762,432
-28,096	11,420	1412,874	761,436
-27,082	11,348	1411,921	760,554
-26,067	11,347	1410,809	759,918
-25,052	11,360	1409,723	759,364
-24,038	11,376	1408,757	758,888
-23,023	11,359	1407,744	758,235
-22,009	11,346	1406,806	757,637
-20,994	11,265	1405,974	756,783
-19,979	11,313	1404,987	756,443
-18,965	11,346	1403,810	755,932
-17,950	11,299	1403,156	755,331
-16,936	11,345	1402,188	754,997
-15,921	11,272	1401,125	754,053
-14,906	11,202	1400,376	753,294
-13,892	11,294	1399,310	753,117
-12,877	11,213	1398,607	752,334
-11,863	11,213	1397,799	751,869
-10,848	11,192	1396,801	751,204
-9,833	11,191	1395,892	750,683
-8,819	11,169	1395,115	750,134
-7,804	11,127	1394,270	749,455
-6,790	11,166	1393,303	749,084
-5,775	11,147	1392,221	748,385
-4,760	11,156	1391,147	747,820
-3,746	11,171	1390,142	747,318
-2,731	11,205	1389,240	746,960
-1,717	11,150	1388,594	746,334
-0,702	11,107	1386,726	745,102
0,313	15,215	1301,436	718,072
1,327	31,428	694,513	420,151
2,342	48,910	120,544	79,702
3,356	1,764	16,566	8,396
4,371	10,988	3,359	1,806
5,386	-11,750	0,760	0,351
6,400	800,000	0,182	0,451
7,415	180,738	-0,253	-0,263
8,429	207,332	-0,181	-0,200
9,444	-83,908	-0,300	-0,067
10,459	-19,276	-0,295	-0,129
11,473	98,162	-0,217	-0,176
12,488	-69,503	-0,282	-0,076
13,502	17,322	-0,205	-0,115
14,517	88,538	-0,328	-0,257
15,531	42,994	-0,369	-0,237
16,546	5,164	-0,243	-0,126
17,561	59,084	-0,391	-0,271
18,575	-46,751	-0,177	-0,061
19,590	80,744	-0,304	-0,231
20,604	-172,913	-0,243	-0,005
21,619	-24,818	-0,537	-0,224
22,634	194,412	-0,391	-0,418
23,648	3,312	-0,476	-0,243
24,663	277,678	-0,255	-0,320
25,677	83,851	-0,392	-0,301
26,692	152,976	-0,317	-0,306
27,707	37,269	-0,316	-0,196
28,721	153,960	-0,354	-0,342
29,736	90,622	-0,379	-0,299
30,750	114,521	-0,377	-0,323
31,765	25,151	-0,498	-0,290
32,780	52,415	-0,333	-0,223
33,794	276,708	-0,303	-0,380
34,809	56,494	-0,381	-0,260
35,823	246,195	-0,257	-0,306
36,838	112,940	-0,384	-0,327
37,853	241,881	-0,392	-0,462
38,867	95,210	-0,374	-0,299
39,882	-17,234	-0,294	-0,130
40,896	-17,780	-0,371	-0,163
41,911	-27,625	-0,321	-0,131
42,926	64,064	-0,332	-0,234
43,940	61,137	-0,346	-0,241
44,955	-38,625	-0,420	-0,155
45,969	-51,755	-0,399	-0,130
46,984	82,985	-0,303	-0,232
47,999	340,926	-0,186	-0,256
49,013	46,548	-0,213	-0,138
50,028	52,180	-0,309	-0,206
51,042	59,392	-0,391	-0,270
52,057	178,368	-0,245	-0,252
53,071	120,573	-0,266	-0,232
54,086	-9,868	-0,316	-0,147
55,101	-5,723	-0,428	-0,205
56,115	-13,039	-0,307	-0,140
57,130	237,908	-0,317	-0,370
58,144	324,013	-0,255	-0,343
59,159	9,843	-0,379	-0,202
60,174	34,926	-0,420	-0,257
61,188	-5,270	-0,348	-0,167
62,203	-30,696	-0,563	-0,222
63,217	242,667	-0,165	-0,194
64,232	34,134	-0,397	-0,242
65,247	15,593	-0,272	-0,150
66,261	-40,434	-0,412	-0,149
67,276	125,092	-0,287	-0,254
68,290	26,080	-0,323	-0,189
69,305	198,231	-0,251	-0,270
70,320	-31,174	-0,325	-0,128
71,334	-44,134	-0,384	-0,135
72,349	34,968	-0,316	-0,193
73,363	-2,692	-0,437	-0,214
74,378	83,568	-0,329	-0,251
75,393	-24,699	-0,350	-0,145
76,407	-9,022	-0,226	-0,106
77,422	55,291	-0,361	-0,245
78,436	144,923	-0,236	-0,222
79,451	-11,906	-0,331	-0,151
80,466	-6,474	-0,227	-0,108
81,480	-35,847	-0,281	-0,106
82,495	20,142	-0,376	-0,212
83,509	40,903	-0,265	-0,167
84,524	158,008	-0,213	-0,207
85,539	13,482	-0,282	-0,153
86,553	-111,508	-0,283	-0,040
87,568	527,864	-0,199	-0,329
88,582	24,155	-0,321	-0,185
89,597	91,262	-0,324	-0,254
90,611	73,594	-0,271	-0,199
91,626	96,781	-0,166	-0,133
92,641	43,047	-0,137	-0,087
93,655	90,187	-0,209	-0,163
94,670	400,690	-0,184	-0,271
95,684	-36,769	-0,383	-0,143
96,699	13,084	-0,214	-0,115
97,714	333,575	-0,203	-0,275
98,728	55,691	-0,294	-0,199
99,743	-12,973	-0,232	-0,105
100,757	446,743	-0,143	-0,220
101,772	58,668	-0,347	-0,238
102,787	113,804	-0,237	-0,201
103,801	93,650	-0,211	-0,167
104,816	203,888	-0,250	-0,271
105,830	65,378	-0,249	-0,176
106,845	-70,090	-0,382	-0,101
107,860	197,301	-0,274	-0,292
108,874	10,942	-0,247	-0,132
109,889	272,637	-0,227	-0,281
110,903	-17,925	-0,279	-0,122
111,918	142,916	-0,334	-0,310
112,933	144,650	-0,289	-0,270
113,947	-68,716	-0,268	-0,072
114,962	-111,919	-0,241	-0,034
115,976	68,031	-0,339	-0,242
116,991	35,821	-0,327	-0,201
118,006	194,618	-0,255	-0,271
119,020	222,027	-0,207	-0,233
120,035	-29,819	-0,315	-0,125
121,049	1,943	-0,242	-0,122
122,064	43,773	-0,236	-0,150
123,079	24,890	-0,348	-0,201
124,093	412,235	-0,190	-0,283
125,108	296,616	-0,223	-0,286
126,122	-45,633	-0,237	-0,081
127,137	-85,394	-0,307	-0,066
128,151	124,889	-0,210	-0,185
129,166	-12,826	-0,169	-0,077
130,181	33,093	-0,321	-0,194
131,195	41,719	-0,215	-0,136
132,210	41,588	-0,185	-0,117
133,224	85,762	-0,178	-0,136
134,239	243,459	-0,238	-0,279
135,254	-21,412	-0,342	-0,145
136,268	264,168	-0,143	-0,173
137,283	-16,466	-0,275	-0,121
138,297	52,860	-0,244	-0,162
139,312	-39,970	-0,273	-0,099
140,327	30,793	-0,255	-0,152
141,341	274,886	-0,161	-0,200
142,356	-3,072	-0,282	-0,137
143,370	72,758	-0,218	-0,158
144,385	165,291	-0,329	-0,325
145,400	331,541	-0,265	-0,357
146,414	46,084	-0,325	-0,209
147,429	551,708	-0,147	-0,247
148,443	637,799	-0,133	-0,237
149,458	195,636	-0,220	-0,233
150,473	-109,967	-0,177	-0,026
151,487	112,414	-0,204	-0,172
152,502	26,462	-0,278	-0,161
153,516	619,016	-0,128	-0,224
154,531	14,566	-0,270	-0,146
155,546	-49,776	-0,206	-0,068
156,560	243,432	-0,138	-0,161
157,575	174,850	-0,070	-0,070
158,589	2,664	-0,370	-0,186
159,604	26,580	-0,293	-0,170
160,619	743,566	-0,124	-0,234
161,633	33,842	-0,307	-0,186
162,648	-18,648	-0,284	-0,123
163,662	79,631	-0,107	-0,080
164,677	67,555	-0,154	-0,109
165,692	-107,514	-0,252	-0,038
166,706	188,906	-0,188	-0,196
167,721	-4,599	-0,289	-0,138
168,735	13,917	-0,317	-0,171
169,750	269,345	-0,158	-0,193
170,764	800,000	-0,095	-0,202
171,779	-117,707	-0,285	-0,035
172,794	-46,500	-0,268	-0,091
173,808	-132,591	-0,184	-0,016
174,823	-25,069	-0,287	-0,118
175,837	84,426	-0,268	-0,204
176,852	-70,756	-0,337	-0,088
177,867	176,699	-0,158	-0,160
178,881	-8,253	-0,152	-0,071
179,896	-42,469	-0,164	-0,058
180,910	48,631	-0,205	-0,133
181,925	61,649	-0,208	-0,144
182,940	187,287	-0,198	-0,206
183,954	206,977	-0,121	-0,131
184,969	-20,426	-0,271	-0,115
185,983	800,000	-0,052	-0,158
186,998	-61,979	-0,145	-0,042
188,013	315,558	-0,196	-0,257
189,027	-200,000	-0,048	-0,232
190,042	51,836	-0,276	-0,182
191,056	11,140	-0,315	-0,167
192,071	173,947	-0,174	-0,175
193,086	389,486	-0,194	-0,280
194,100	519,497	-0,171	-0,279
195,115	2,819	-0,225	-0,113
196,129	330,730	-0,164	-0,220
197,144	74,778	-0,240	-0,175
198,159	-2,442	-0,251	-0,122
199,173	89,550	-0,250	-0,193
200,188	-16,383	-0,182	-0,080
201,202	-69,228	-0,154	-0,041
202,217	-140,591	-0,189	0,013
203,232	21,997	-0,175	-0,099
204,246	320,211	-0,242	-0,319
205,261	42,987	-0,245	-0,155
206,275	-3,352	-0,180	-0,086
207,290	800,000	-0,105	-0,233
208,304	24,255	-0,132	-0,076
209,319	65,065	-0,142	-0,100
210,334	271,609	-0,238	-0,291
211,348	223,455	-0,171	-0,192
212,363	85,150	-0,279	-0,212
213,377	177,302	-0,204	-0,205
214,392	381,942	-0,067	-0,095
215,407	94,954	-0,107	-0,084
216,421	57,684	-0,115	0,078
217,436	66,238	-0,226	-0,159
218,450	112,497	-0,172	-0,144
219,465	800,000	-0,086	-0,214
220,480	77,423	-0,194	-0,142
221,494	20,209	-0,136	-0,076
222,509	147,527	-0,140	-0,131
223,523	34,357	-0,142	-0,086
224,538	78,683	-0,265	-0,196
225,553	45,289	-0,235	-0,150
226,567	-39,421	-0,316	-0,114
227,582	41,171	-0,317	-0,198
228,596	-132,387	-0,033	0,003
229,611	100,727	-0,078	-0,062
230,626	-64,031	-0,150	-0,042
231,640	800,000	-0,097	-0,222
232,655	119,211	-0,170	-0,145
233,669	480,737	-0,115	-0,181
234,684	649,307	-0,101	-0,180
235,699	-121,463	-0,213	-0,024
236,713	100,897	-0,068	-0,055
237,728	324,808	-0,103	-0,137
238,742	-54,026	-0,209	-0,065
239,757	-5,194	-0,236	-0,112
240,772	800,000	-0,118	-0,310
241,786	201,121	-0,145	-0,155
242,801	-74,869	-0,151	-0,037
243,815	-63,432	-0,068	-0,019
244,830	252,097	-0,069	0,081
245,844	-85,238	-0,145	-0,031
246,859	395,826	-0,151	-0,218
247,874	51,558	-0,202	-0,132
248,888	-22,833	-0,240	-0,099
249,903	290,721	-0,179	-0,225
250,917	164,974	-0,156	-0,152
251,932	136,379	-0,117	-0,105
252,947	408,332	-0,141	-0,207
253,961	451,702	-0,231	-0,353
254,976	-107,002	-0,150	-0,023
255,990	287,006	-0,148	-0,185
257,005	800,000	-0,075	-0,185
258,020	116,213	-0,131	-0,111
259,034	113,427	-0,171	-0,143
260,049	-74,514	-0,248	-0,061
261,063	800,000	-0,115	-0,267
262,078	239,787	-0,152	-0,175
263,093	188,821	-0,162	-0,167
264,107	-0,444	-0,149	-0,072
265,122	-110,044	-0,085	-0,012
266,136	39,257	-0,343	-0,211
267,151	194,190	-0,164	-0,172
268,166	183,800	-0,236	-0,241
269,180	-117,129	-0,149	-0,018
270,195	258,819	-0,169	-0,202
271,209	84,086	-0,110	-0,083
272,224	800,000	-0,053	-0,104
273,239	-128,116	-0,221	-0,021
274,253	22,400	-0,214	-0,120
275,268	489,688	-0,066	-0,105
276,282	68,042	-0,278	-0,196
277,297	6,910	-0,168	-0,086
278,312	-200,000	0,012	-0,169
279,326	445,535	-0,181	-0,275
280,341	-74,851	-0,272	-0,067
281,355	-90,346	-0,157	0,031
282,370	-200,000	-0,048	-0,202
283,384	800,000	-0,111	-0,221
284,399	263,382	-0,134	-0,161
285,414	391,576	-0,137	-0,197
286,428	-23,516	-0,232	-0,095
287,443	217,350	-0,123	-0,135
288,457	-35,752	-0,142	-0,053
289,472	-11,672	-0,097	0,044
290,487	46,221	-0,140	-0,089
291,501	800,000	-0,108	-0,220
292,516	139,306	-0,185	-0,168
293,530	343,557	-0,067	-0,090
294,545	167,099	-0,161	-0,157
295,560	-86,214	-0,081	-0,017
296,574	183,992	-0,150	-0,152
297,589	67,397	-0,179	-0,126
298,603	292,017	-0,153	-0,192
299,618	-132,971	-0,089	0,008
300,633	129,187	-0,121	-0,106
301,647	590,303	-0,057	-0,096
302,662	-32,326	-0,155	-0,059
303,676	624,297	-0,052	-0,090
304,691	500,356	-0,089	-0,141
305,706	324,189	-0,206	-0,271
306,720	81,374	-0,260	-0,193
307,735	800,000	-0,033	-0,072
308,749	800,000	-0,041	-0,102
309,764	332,071	-0,088	-0,117
310,779	149,517	-0,152	-0,142
311,793	472,304	-0,088	-0,136
312,808	271,675	-0,163	-0,198
313,822	613,032	-0,049	-0,085
314,837	-200,000	0,014	-0,075
315,852	-194,783	-0,120	-0,001
316,866	16,350	-0,151	-0,081
317,881	-200,000	-0,042	-0,151
318,895	46,273	-0,241	-0,153
319,910	457,177	-0,104	-0,158
320,925	164,397	-0,123	-0,119
321,939	-154,423	-0,108	0,005
322,954	-110,171	-0,166	-0,024
323,968	-97,507	-0,137	-0,024
324,983	790,918	-0,094	-0,177
325,997	51,208	-0,104	-0,068
327,012	800,000	-0,078	-0,152
328,027	739,194	-0,053	-0,099
329,041	-47,567	-0,218	0,072
330,056	-200,000	-0,012	-0,091
331,070	68,535	-0,104	-0,073
332,085	284,551	-0,108	-0,134
333,100	-53,014	-0,122	-0,038
334,114	104,905	-0,129	-0,104
335,129	-6,311	-0,251	-0,117
336,143	-27,512	-0,087	-0,034
337,158	-69,350	-0,129	0,034
338,173	800,000	-0,020	-0,059
339,187	-6,867	-0,075	-0,035
340,202	53,701	-0,101	0,066
341,216	413,161	-0,126	-0,184
342,231	397,151	-0,181	-0,260
343,246	-200,000	-0,200	0,001
344,260	-49,922	-0,062	0,020
345,275	-61,604	-0,132	-0,038
346,289	-200,000	0,029	-0,090
347,304	222,789	-0,052	-0,058
348,319	211,812	-0,155	-0,167
349,333	153,114	-0,201	-0,188
350,348	523,848	-0,078	-0,126
351,362	-156,646	-0,088	0,004
352,377	-200,000	-0,018	0,076
353,392	-97,610	-0,168	-0,030
354,406	-143,374	-0,083	-0,005
355,421	208,246	1307,479	1399,836
356,435	160,232	1467,307	1400,331
