DTS Sentinel unit serial number:	SN410029Multiplexer serial number:	ORYXHardware model number:	OX2-SRSoftware version number:	ORYX F/W v4,00 Oryx Data Collector v3.7.2.0data status	okinstallation	B3 Nyhavnadifferential loss correction	single-endedforward channel	channel 1reverse channel	N/Adate	2023/12/02time	11:12:30forward acquisition time	300,00reverse acquisition time	0,00gamma	499,1914k internal	0,3197k external	0,3197temperature offset calibration	1,0000default loss term (dB/km)	0,3820temperature slope calibration	1,0000multiplexer offset coefficient	1,0000multiplexer slope coefficient	1,0000fibre end	0,00T internal ref (°C)	14,16T ext. ref 1 (°C)	-1,36T ext. ref 2 (°C)	-1,39length (m)	temperature (°C)	Stokes	anti-Stokes-744,400	170,772	-0,229	-0,240
-743,385	-200,000	-0,091	0,319
-742,371	143,763	-0,307	-0,298
-741,356	-200,000	0,038	0,262
-740,342	13,899	-0,135	-0,076
-739,327	-200,000	-0,051	0,475
-738,312	410,619	-0,192	-0,297
-737,298	-200,000	0,006	0,275
-736,283	68,396	-0,195	-0,145
-735,269	-200,000	-0,049	0,268
-734,254	226,146	-0,209	-0,247
-733,239	271,068	-0,205	0,263
-732,225	-200,000	-0,046	-0,173
-731,210	645,292	0,122	0,228
-730,196	800,000	0,037	-0,095
-729,181	-109,950	0,091	-0,014
-728,167	-63,116	-0,158	-0,047
-727,152	137,822	0,068	0,065
-726,137	-10,656	-0,169	0,081
-725,123	278,684	-0,105	-0,136
-724,108	329,647	-0,103	-0,144
-723,094	800,000	-0,063	-0,148
-722,079	56,822	0,110	-0,078
-721,064	-200,000	-0,019	-0,078
-720,050	-200,000	-0,000	-0,101
-719,035	426,883	-0,057	-0,090
-718,021	-99,067	0,074	0,014
-717,006	659,178	-0,027	-0,050
-715,991	-200,000	-0,015	-0,092
-714,977	-68,457	-0,169	0,047
-713,962	533,850	0,011	-0,020
-712,948	377,412	-0,057	0,085
-711,933	2,810	0,069	-0,037
-710,918	64,261	-0,072	0,053
-709,904	-151,688	-0,214	-0,011
-708,889	165,781	-0,093	-0,095
-707,875	-16,185	0,137	0,063
-706,860	-200,000	-0,019	0,180
-705,845	64,689	0,025	-0,019
-704,831	-66,795	0,053	-0,015
-703,816	-200,000	-0,001	-0,101
-702,802	590,983	-0,061	0,110
-701,787	-67,492	-0,100	-0,028
-700,772	-38,639	0,074	0,028
-699,758	800,000	-0,027	-0,085
-698,743	800,000	0,068	-0,145
-697,729	-83,201	-0,109	0,025
-696,714	325,111	0,088	-0,123
-695,699	800,000	-0,048	-0,124
-694,685	-150,623	0,030	-0,002
-693,670	-200,000	-0,004	-0,054
-692,656	-139,681	-0,129	0,010
-691,641	-200,000	-0,004	-0,026
-690,627	800,000	-0,015	0,033
-689,612	110,523	-0,159	0,138
-688,597	703,528	-0,026	-0,051
-687,583	-135,893	-0,146	-0,012
-686,568	422,156	-0,008	0,012
-685,554	-108,841	0,099	0,015
-684,539	800,000	-0,040	-0,085
-683,524	481,764	0,091	0,151
-682,510	-149,137	0,009	0,001
-681,495	-84,716	-0,073	-0,016
-680,481	299,507	-0,106	-0,142
-679,466	40,858	0,070	0,046
-678,451	-200,000	0,009	-0,050
-677,437	-18,951	0,062	-0,028
-676,422	118,927	-0,057	-0,051
-675,408	239,384	-0,062	0,075
-674,393	-87,815	-0,250	-0,054
-673,378	47,149	-0,047	-0,032
-672,364	-69,269	-0,051	-0,014
-671,349	-200,000	-0,012	-0,049
-670,335	-129,072	-0,077	-0,008
-669,320	-179,344	-0,128	-0,002
-668,305	-200,000	-0,061	0,224
-667,291	-85,000	0,050	-0,011
-666,276	3,048	-0,082	-0,043
-665,262	-36,062	-0,137	0,054
-664,247	-200,000	0,008	-0,109
-663,232	-200,000	-0,021	-0,076
-662,218	-200,000	-0,018	-0,074
-661,203	-79,032	-0,039	0,010
-660,189	-200,000	-0,007	-0,055
-659,174	380,527	-0,050	-0,075
-658,159	-200,000	0,001	-0,084
-657,145	-138,387	-0,106	0,008
-656,130	732,277	-0,018	-0,036
-655,116	-174,191	-0,102	-0,002
-654,101	-103,802	0,062	0,010
-653,086	-200,000	-0,011	-0,173
-652,072	-200,000	-0,017	-0,097
-651,057	-71,628	-0,209	-0,056
-650,043	124,768	-0,006	-0,005
-649,028	127,607	-0,057	0,052
-648,014	87,994	0,084	0,068
-646,999	37,569	-0,039	-0,025
-645,984	-172,529	0,042	0,001
-644,970	800,000	-0,060	-0,134
-643,955	-90,826	-0,027	-0,006
-642,941	-160,738	-0,147	-0,006
-641,926	-200,000	-0,004	-0,094
-640,911	34,814	0,021	0,013
-639,897	-200,000	0,005	0,087
-638,882	-117,075	0,051	-0,007
-637,868	-118,900	-0,153	0,019
-636,853	800,000	-0,027	-0,072
-635,838	-200,000	-0,115	0,000
-634,824	-24,178	0,037	-0,016
-633,809	39,343	0,082	-0,053
-632,795	-200,000	0,001	0,004
-631,780	157,128	0,089	0,089
-630,765	37,897	-0,060	-0,039
-629,751	-15,721	-0,080	-0,037
-628,736	-5,049	-0,088	0,044
-627,722	-72,663	-0,094	0,025
-626,707	24,049	-0,090	0,054
-625,692	40,042	-0,089	0,058
-624,678	95,605	-0,038	0,031
-623,663	82,696	0,081	0,064
-622,649	371,916	-0,070	-0,103
-621,634	-200,000	-0,023	-0,112
-620,619	800,000	-0,065	-0,153
-619,605	-117,618	0,073	0,009
-618,590	-27,399	0,105	0,044
-617,576	397,005	0,066	0,101
-616,561	-200,000	-0,061	0,000
-615,546	244,047	-0,062	-0,075
-614,532	497,360	0,086	-0,144
-613,517	-146,932	0,028	0,002
-612,503	62,925	-0,100	0,072
-611,488	-113,406	0,105	-0,015
-610,474	-24,780	0,049	0,021
-609,459	270,676	-0,030	0,038
-608,444	-200,000	0,031	-0,121
-607,430	287,494	-0,062	-0,082
-606,415	-18,588	-0,071	-0,032
-605,401	456,895	0,092	0,149
-604,386	-200,000	-0,009	-0,140
-603,371	448,249	-0,020	0,032
-602,357	-59,445	-0,121	0,037
-601,342	800,000	-0,047	-0,119
-600,328	800,000	0,014	0,034
-599,313	-19,643	-0,125	0,056
-598,298	-200,000	-0,009	-0,078
-597,284	706,153	-0,041	-0,079
-596,269	48,465	0,054	0,037
-595,255	114,348	-0,048	-0,042
-594,240	-118,604	-0,014	0,002
-593,225	800,000	-0,031	-0,075
-592,211	-28,171	0,084	-0,035
-591,196	800,000	0,018	-0,048
-590,182	732,561	-0,033	0,063
-589,167	-200,000	-0,004	-0,029
-588,152	-200,000	0,002	0,115
-587,138	617,545	0,040	0,072
-586,123	134,812	0,056	-0,052
-585,109	800,000	-0,080	-0,201
-584,094	45,345	0,076	-0,051
-583,079	513,602	-0,093	-0,158
-582,065	8,057	0,127	0,069
-581,050	-113,187	-0,025	0,004
-580,036	-200,000	0,010	-0,062
-579,021	43,086	-0,070	0,046
-578,006	-142,958	-0,066	0,005
-576,992	-112,868	-0,038	-0,005
-575,977	-200,000	-0,021	-0,075
-574,963	-161,601	0,110	-0,004
-573,948	-145,668	-0,128	0,008
-572,934	-29,543	-0,095	-0,039
-571,919	-200,000	-0,011	-0,050
-570,904	-52,381	0,045	-0,015
-569,890	485,213	0,011	0,018
-568,875	800,000	-0,019	0,046
-567,861	84,077	-0,056	0,044
-566,846	800,000	-0,024	0,055
-565,831	-200,000	-0,002	-0,019
-564,817	30,933	-0,071	-0,044
-563,802	-200,000	-0,036	-0,196
-562,788	800,000	-0,056	0,114
-561,773	212,151	-0,022	-0,025
-560,758	184,199	0,112	-0,120
-559,744	800,000	-0,039	0,112
-558,729	-200,000	0,001	0,036
-557,715	-200,000	-0,005	-0,073
-556,700	-197,022	-0,115	0,001
-555,685	800,000	-0,023	-0,047
-554,671	466,948	-0,058	-0,095
-553,656	-200,000	-0,018	0,066
-552,642	800,000	0,012	0,034
-551,627	67,697	-0,025	0,019
-550,612	-200,000	-0,003	0,088
-549,598	-200,000	-0,004	-0,081
-548,583	741,395	-0,061	0,119
-547,569	-200,000	0,010	-0,033
-546,554	-200,000	-0,024	0,122
-545,539	-200,000	0,009	-0,112
-544,525	64,271	0,126	0,091
-543,510	-200,000	-0,032	-0,135
-542,496	-121,136	0,205	-0,025
-541,481	-200,000	-0,003	-0,038
-540,466	794,001	-0,041	0,082
-539,452	-1,911	0,099	-0,050
-538,437	100,336	-0,031	-0,026
-537,423	800,000	0,080	0,167
-536,408	105,369	0,044	0,038
-535,393	563,036	-0,105	-0,184
-534,379	237,646	-0,073	-0,087
-533,364	-200,000	0,050	-0,214
-532,350	172,657	-0,085	0,089
-531,335	42,270	0,094	0,061
-530,321	-102,094	-0,029	0,005
-529,306	-147,700	-0,120	-0,007
-528,291	-82,878	-0,054	0,013
-527,277	84,386	-0,042	0,034
-526,262	21,518	0,190	0,112
-525,248	302,267	-0,017	-0,023
-524,233	-38,921	0,077	-0,029
-523,218	-200,000	0,004	-0,019
-522,204	-200,000	0,002	-0,043
-521,189	-154,734	0,054	-0,003
-520,175	800,000	-0,039	0,084
-519,160	211,216	0,059	0,067
-518,145	2,277	0,043	-0,022
-517,131	-200,000	0,015	0,096
-516,116	-82,749	0,093	-0,022
-515,102	-105,624	0,096	0,015
-514,087	-200,000	0,006	0,152
-513,072	800,000	-0,039	0,107
-512,058	510,091	-0,047	0,080
-511,043	-20,810	0,042	-0,019
-510,029	-72,005	0,126	0,034
-509,014	-200,000	0,003	0,109
-507,999	53,385	-0,096	0,066
-506,985	-200,000	-0,007	0,055
-505,970	99,349	-0,062	-0,051
-504,956	-93,969	0,054	-0,011
-503,941	-123,460	0,099	0,011
-502,926	800,000	-0,094	0,189
-501,912	-113,878	0,087	-0,012
-500,897	-78,837	0,060	0,015
-499,883	-99,864	0,096	0,017
-498,868	-80,363	-0,082	-0,020
-497,853	800,000	0,043	-0,101
-496,839	-200,000	0,016	-0,055
-495,824	-164,374	-0,027	-0,001
-494,810	-69,070	-0,041	0,011
-493,795	-152,695	0,084	-0,004
-492,781	17,644	-0,132	0,076
-491,766	-200,000	0,009	0,048
-490,751	-200,000	0,017	0,058
-489,737	-112,407	0,115	-0,016
-488,722	-200,000	0,002	0,092
-487,708	-100,553	0,172	-0,030
-486,693	-74,444	0,112	0,029
-485,678	284,660	-0,041	-0,054
-484,664	-52,007	-0,101	0,034
-483,649	5,722	-0,089	0,047
-482,635	800,000	-0,024	0,052
-481,620	105,134	0,043	-0,036
-480,605	252,710	0,043	-0,053
-479,591	800,000	0,035	0,071
-478,576	800,000	-0,029	0,079
-477,562	143,497	0,036	0,035
-476,547	424,608	-0,070	-0,109
-475,532	-126,110	-0,102	0,011
-474,518	-200,000	0,015	0,139
-473,503	-200,000	0,015	0,053
-472,489	435,548	0,049	-0,078
-471,474	649,130	-0,038	-0,071
-470,459	224,673	-0,046	-0,054
-469,445	123,022	0,057	-0,052
-468,430	-12,420	-0,048	-0,022
-467,416	8,760	-0,043	-0,023
-466,401	298,750	0,019	0,025
-465,386	800,000	0,082	-0,179
-464,372	378,549	-0,098	-0,145
-463,357	-11,427	-0,018	0,008
-462,343	800,000	-0,010	0,028
-461,328	-200,000	0,007	0,097
-460,313	-184,959	-0,132	0,001
-459,299	-9,190	0,138	-0,066
-458,284	624,950	0,069	0,126
-457,270	-134,018	-0,114	-0,010
-456,255	-95,568	0,149	-0,029
-455,241	-189,935	-0,080	0,001
-454,226	-74,128	0,109	0,028
-453,211	370,216	-0,082	-0,120
-452,197	-200,000	0,009	0,041
-451,182	800,000	-0,030	0,069
-450,168	-200,000	-0,031	0,165
-449,153	-77,388	-0,089	-0,022
-448,138	-40,164	-0,062	0,023
-447,124	-200,000	0,001	-0,143
-446,109	-200,000	-0,014	0,079
-445,095	320,214	0,041	0,056
-444,080	-200,000	0,035	0,111
-443,065	-94,959	-0,137	-0,026
-442,051	800,000	-0,022	0,057
-441,036	-200,000	-0,005	-0,149
-440,022	-200,000	0,014	-0,074
-439,007	800,000	-0,038	-0,080
-437,992	64,196	0,087	0,063
-436,978	423,134	-0,052	0,081
-435,963	-30,987	0,124	-0,050
-434,949	109,395	0,039	0,034
-433,934	109,706	-0,129	-0,111
-432,919	13,008	0,086	-0,048
-431,905	-43,561	0,082	-0,030
-430,890	4,855	-0,154	-0,081
-429,876	90,825	0,111	0,090
-428,861	-59,337	0,015	-0,005
-427,846	-168,089	-0,057	0,002
-426,832	584,595	0,017	-0,031
-425,817	-200,000	0,005	-0,069
-424,803	53,096	0,056	0,038
-423,788	-118,682	-0,090	-0,011
-422,773	181,567	0,026	-0,027
-421,759	800,000	0,016	0,034
-420,744	800,000	0,036	-0,081
-419,730	2,428	-0,099	-0,052
-418,715	-102,386	-0,059	0,010
-417,701	168,458	-0,017	0,018
-416,686	87,183	0,048	-0,038
-415,671	269,385	-0,069	0,087
-414,657	-200,000	0,027	0,106
-413,642	-66,581	-0,088	-0,025
-412,628	-200,000	-0,016	0,115
-411,613	39,106	-0,032	0,021
-410,598	-200,000	0,011	0,043
-409,584	-124,584	0,187	0,021
-408,569	113,496	-0,023	-0,020
-407,555	-200,000	0,003	0,039
-406,540	117,685	-0,033	-0,029
-405,525	54,070	-0,084	0,058
-404,511	-200,000	0,003	0,092
-403,496	-200,000	-0,011	-0,047
-402,482	181,468	-0,069	0,073
-401,467	373,183	0,049	0,072
-400,452	-96,264	0,176	-0,033
-399,438	-200,000	0,003	-0,079
-398,423	9,558	-0,030	0,016
-397,409	253,878	0,061	-0,076
-396,394	-83,400	0,031	0,007
-395,379	46,417	0,120	0,080
-394,365	800,000	0,041	0,097
-393,350	106,072	0,043	-0,037
-392,336	-200,000	-0,007	0,070
-391,321	55,401	-0,083	-0,057
-390,306	-200,000	-0,002	-0,114
-389,292	-200,000	0,001	-0,070
-388,277	-200,000	-0,004	-0,083
-387,263	381,357	-0,019	0,028
-386,248	67,155	-0,061	-0,045
-385,233	-112,897	0,170	0,024
-384,219	9,346	-0,107	-0,058
-383,204	191,843	0,052	0,056
-382,190	126,809	0,056	-0,051
-381,175	-90,557	-0,073	-0,015
-380,160	-200,000	-0,003	0,034
-379,146	451,001	0,115	0,182
-378,131	-200,000	0,030	0,195
-377,117	54,901	0,156	0,108
-376,102	146,728	0,072	0,070
-375,088	-200,000	0,007	0,100
-374,073	-28,169	0,031	-0,013
-373,058	800,000	-0,010	0,021
-372,044	-200,000	0,037	0,134
-371,029	-200,000	0,032	0,105
-370,015	-16,607	0,035	0,016
-369,000	-200,000	-0,021	-0,078
-367,985	-200,000	0,017	-0,147
-366,971	-27,994	-0,116	-0,048
-365,956	-36,449	0,056	0,021
-364,942	128,387	-0,044	-0,040
-363,927	16,858	0,100	-0,057
-362,912	-200,000	-0,001	-0,037
-361,898	-200,000	0,000	-0,222
-360,883	-200,000	-0,013	-0,139
-359,869	6,986	-0,066	-0,035
-358,854	47,159	-0,091	0,061
-357,839	343,845	-0,134	0,189
-356,825	-200,000	0,065	0,239
-355,810	-200,000	-0,005	0,064
-354,796	-200,000	-0,009	-0,112
-353,781	15,515	-0,155	-0,087
-352,766	-133,909	0,019	0,002
-351,752	69,083	-0,021	-0,016
-350,737	-12,360	0,082	-0,038
-349,723	800,000	0,017	0,040
-348,708	800,000	0,035	0,076
-347,693	207,369	-0,102	0,114
-346,679	-0,412	-0,124	0,063
-345,664	-13,083	0,053	-0,024
-344,650	-86,393	0,086	-0,019
-343,635	122,316	0,041	0,036
-342,620	-149,324	-0,034	0,002
-341,606	55,582	-0,087	-0,060
-340,591	-124,211	-0,043	-0,005
-339,577	131,080	0,075	0,069
-338,562	-50,081	0,068	-0,023
-337,548	-36,866	0,119	0,046
-336,533	116,423	0,079	0,069
-335,518	800,000	-0,055	-0,133
-334,504	-16,421	0,169	-0,077
-333,489	22,114	-0,096	-0,056
-332,475	-200,000	-0,000	-0,080
-331,460	-16,454	0,009	0,004
-330,445	72,901	0,172	-0,128
-329,431	22,906	0,128	0,075
-328,416	113,132	0,104	0,090
-327,402	653,869	0,089	0,164
-326,387	-200,000	0,008	0,076
-325,372	800,000	0,018	-0,039
-324,358	-200,000	0,007	-0,052
-323,343	426,590	-0,034	-0,052
-322,329	-200,000	0,083	0,000
-321,314	345,699	-0,108	-0,152
-320,299	35,368	0,071	0,045
-319,285	73,255	0,126	-0,094
-318,270	10,782	-0,092	0,050
-317,256	244,530	0,057	0,068
-316,241	4,210	-0,111	-0,058
-315,226	281,383	0,052	-0,067
-314,212	-200,000	-0,011	-0,200
-313,197	304,980	0,026	0,034
-312,183	617,784	0,021	0,038
-311,168	-200,000	-0,018	0,060
-310,153	-200,000	0,006	0,021
-309,139	-200,000	0,006	-0,067
-308,124	593,769	0,023	0,040
-307,110	90,603	-0,047	-0,037
-306,095	-200,000	0,040	-0,134
-305,080	-165,155	-0,074	-0,002
-304,066	-192,531	-0,125	-0,001
-303,051	-63,595	-0,056	0,016
-302,037	60,451	-0,124	0,088
-301,022	-35,918	0,060	0,023
-300,008	-32,408	0,020	-0,008
-298,993	205,396	0,029	-0,032
-297,978	267,150	0,056	-0,070
-296,964	-23,058	0,064	-0,027
-295,949	678,167	0,052	0,098
-294,935	453,322	-0,023	0,036
-293,920	23,765	0,057	-0,034
-292,905	76,919	0,019	-0,014
-291,891	152,219	0,051	0,050
-290,876	429,470	-0,073	0,113
-289,862	-84,097	-0,057	-0,013
-288,847	-200,000	-0,016	-0,095
-287,832	-20,790	0,058	0,025
-286,818	20,292	0,070	-0,040
-285,803	32,354	0,153	0,094
-284,789	195,659	0,130	0,141
-283,774	-200,000	0,003	-0,109
-282,759	800,000	0,049	0,105
-281,745	-200,000	0,032	-0,135
-280,730	-58,167	-0,104	0,032
-279,716	210,743	-0,028	0,032
-278,701	-90,384	0,060	-0,012
-277,686	800,000	0,017	-0,035
-276,672	642,905	0,068	0,124
-275,657	800,000	-0,034	0,071
-274,643	-24,920	-0,110	-0,046
-273,628	90,490	-0,054	0,044
-272,613	408,940	0,020	-0,031
-271,599	99,814	-0,081	-0,067
-270,584	800,000	0,056	0,134
-269,570	749,568	-0,054	0,104
-268,555	-200,000	0,016	0,059
-267,540	-200,000	0,008	-0,115
-266,526	800,000	0,050	0,103
-265,511	-141,617	-0,054	0,004
-264,497	-47,682	0,162	-0,056
-263,482	-200,000	0,012	0,136
-262,467	134,845	0,064	0,059
-261,453	8,090	0,066	0,035
-260,438	75,271	-0,068	-0,051
-259,424	-62,657	-0,164	-0,048
-258,409	-123,633	-0,141	0,016
-257,395	701,003	0,081	0,152
-256,380	75,996	0,096	0,073
-255,365	-200,000	0,022	-0,088
-254,351	306,937	-0,009	0,012
-253,336	64,679	0,058	-0,042
-252,322	613,310	-0,058	0,103
-251,307	-85,826	-0,086	0,019
-250,292	387,435	0,029	-0,043
-249,278	800,000	-0,025	-0,078
-248,263	130,633	-0,033	-0,030
-247,249	800,000	0,004	-0,008
-246,234	-200,000	0,009	0,116
-245,219	46,034	-0,045	0,030
-244,205	-21,794	-0,061	0,026
-243,190	800,000	-0,048	-0,096
-242,176	-35,158	0,107	-0,041
-241,161	-103,839	-0,096	0,016
-240,146	330,767	0,022	0,030
-239,132	-200,000	-0,001	-0,010
-238,117	101,654	-0,031	0,026
-237,103	18,448	-0,102	-0,058
-236,088	-200,000	-0,020	-0,106
-235,073	347,417	-0,024	0,034
-234,059	800,000	0,066	0,155
-233,044	74,144	-0,028	0,021
-232,030	-200,000	-0,011	0,115
-231,015	-200,000	-0,002	-0,007
-230,000	4,944	-0,031	-0,016
-228,986	788,373	0,078	-0,153
-227,971	-56,000	-0,119	-0,037
-226,957	76,552	0,030	-0,023
-225,942	-200,000	-0,002	-0,039
-224,927	-141,446	-0,101	-0,007
-223,913	-157,902	-0,093	0,004
-222,898	481,886	-0,040	0,065
-221,884	195,551	-0,004	0,004
-220,869	154,248	0,074	0,072
-219,855	800,000	0,051	-0,119
-218,840	88,972	-0,018	0,015
-217,825	49,569	-0,147	-0,098
-216,811	-138,004	-0,088	-0,007
-215,796	72,704	0,041	-0,031
-214,782	-106,664	-0,059	-0,009
-213,767	-53,451	0,106	0,034
-212,752	800,000	0,072	0,148
-211,738	112,867	0,029	0,025
-210,723	-200,000	-0,007	0,042
-209,709	-200,000	-0,016	-0,086
-208,694	-200,000	-0,003	-0,119
-207,679	-200,000	-0,021	-0,168
-206,665	-200,000	-0,003	0,044
-205,650	-83,670	-0,046	-0,010
-204,636	243,743	0,058	-0,069
-203,621	-52,188	0,099	-0,032
-202,606	86,143	0,058	-0,045
-201,592	800,000	-0,025	-0,052
-200,577	370,998	-0,100	-0,145
-199,563	-103,193	-0,111	0,018
-198,548	-83,086	0,141	0,032
-197,533	800,000	-0,028	0,063
-196,519	-200,000	0,033	0,190
-195,504	-101,164	-0,021	0,004
-194,490	266,009	-0,106	-0,133
-193,475	390,245	-0,034	0,050
-192,460	20,106	0,049	0,028
-191,446	800,000	-0,037	-0,074
-190,431	78,581	-0,087	-0,066
-189,417	-65,327	-0,067	0,019
-188,402	108,922	0,033	0,028
-187,387	-200,000	0,024	-0,307
-186,373	800,000	-0,039	-0,081
-185,358	800,000	0,050	0,107
-184,344	-200,000	0,007	0,035
-183,329	-134,138	0,043	-0,004
-182,315	173,469	0,057	0,058
-181,300	800,000	-0,036	-0,092
-180,285	544,271	0,051	-0,087
-179,271	13,826	-0,067	-0,037
-178,256	-200,000	0,004	0,041
-177,242	-200,000	0,003	0,072
-176,227	800,000	0,021	-0,061
-175,212	303,019	-0,037	-0,049
-174,198	114,615	-0,068	0,059
-173,183	-200,000	0,007	-0,146
-172,169	43,875	-0,045	0,029
-171,154	800,000	0,047	-0,112
-170,139	158,337	0,066	-0,065
-169,125	-33,533	0,029	-0,011
-168,110	-200,000	-0,011	0,071
-167,096	176,981	0,021	-0,021
-166,081	-24,669	0,130	0,055
-165,066	-75,414	-0,132	0,033
-164,052	12,842	0,067	-0,037
-163,037	-200,000	-0,011	0,124
-162,023	-68,320	0,120	0,033
-161,008	11,366	-0,063	0,034
-159,993	-200,000	0,024	0,159
-158,979	9,976	0,049	0,027
-157,964	-154,884	-0,104	-0,005
-156,950	-59,361	-0,071	-0,022
-155,935	800,000	0,044	-0,087
-154,920	-93,077	0,141	-0,028
-153,906	800,000	-0,027	0,063
-152,891	42,298	0,027	0,017
-151,877	-200,000	-0,011	-0,082
-150,862	800,000	-0,027	-0,062
-149,847	-200,000	-0,007	0,077
-148,833	-33,897	0,112	-0,044
-147,818	237,093	-0,026	0,031
-146,804	-200,000	0,142	0,000
-145,789	440,821	0,022	-0,034
-144,775	142,544	0,040	0,038
-143,760	-200,000	0,040	-0,132
-142,745	-0,967	-0,081	-0,041
-141,731	800,000	0,018	0,041
-140,716	-200,000	-0,018	0,223
-139,702	800,000	0,054	0,161
-138,687	-200,000	0,041	0,129
-137,672	505,241	-0,038	0,062
-136,658	-200,000	0,011	-0,244
-135,643	-200,000	0,003	-0,166
-134,629	72,993	0,064	-0,048
-133,614	-200,000	0,017	-0,057
-132,599	-200,000	-0,014	0,047
-131,585	145,109	-0,051	0,049
-130,570	56,389	0,130	0,089
-129,556	-61,823	-0,162	-0,048
-128,541	722,281	0,106	-0,201
-127,526	-200,000	-0,003	-0,034
-126,512	-11,458	0,025	0,011
-125,497	87,290	0,162	0,127
-124,483	28,217	0,059	0,036
-123,468	160,680	-0,106	-0,105
-122,453	585,832	-0,028	-0,049
-121,439	207,401	-0,095	-0,105
-120,424	54,156	-0,063	0,043
-119,410	206,639	-0,033	0,036
-118,395	157,494	0,105	0,104
-117,380	-80,998	0,061	-0,014
-116,366	-2,098	-0,030	-0,015
-115,351	5,795	-0,127	-0,067
-114,337	188,325	-0,111	-0,118
-113,322	800,000	-0,048	-0,097
-112,307	-32,405	0,098	-0,038
-111,293	83,978	-0,076	0,059
-110,278	-200,000	0,020	0,140
-109,264	-137,700	-0,057	0,004
-108,249	-88,777	-0,033	-0,007
-107,234	77,270	-0,099	-0,075
-106,220	-200,000	0,001	-0,024
-105,205	-93,463	-0,038	-0,007
-104,191	-200,000	0,013	-0,050
-103,176	66,583	0,037	0,027
-102,162	-200,000	0,021	-0,114
-101,147	-71,976	-0,074	-0,019
-100,132	93,818	-0,019	0,015
-99,118	-200,000	0,005	0,182
-98,103	-69,887	-0,032	0,009
-97,089	-49,125	0,025	0,008
-96,074	648,813	0,015	-0,027
-95,059	72,767	0,049	-0,036
-94,045	34,844	0,070	-0,044
-93,030	-72,436	-0,113	0,030
-92,016	-56,501	-0,017	0,005
-91,001	30,054	-0,119	-0,072
-89,986	-24,275	0,078	-0,033
-88,972	683,231	0,079	0,148
-87,957	-18,440	0,020	-0,009
-86,943	-200,000	0,028	0,000
-85,928	-80,408	-0,037	0,009
-84,913	-85,835	-0,085	-0,019
-83,899	82,417	0,047	-0,036
-82,884	708,322	-0,073	-0,137
-81,870	-200,000	0,001	-0,025
-80,855	-20,104	-0,035	0,015
-79,840	-124,229	-0,129	0,014
-78,826	550,452	-0,058	-0,098
-77,811	-44,690	-0,193	0,068
-76,797	-98,209	-0,027	-0,005
-75,782	-135,434	0,061	-0,005
-74,767	-200,000	0,005	0,060
-73,753	81,101	0,036	-0,027
-72,738	-200,000	-0,034	-0,134
-71,724	733,743	0,019	0,037
-70,709	-121,235	-0,090	-0,011
-69,694	-200,000	-0,004	-0,125
-68,680	-200,000	0,001	0,037
-67,665	-58,146	0,030	0,009
-66,651	92,568	-0,074	0,059
-65,636	19,559	0,079	-0,045
-64,622	-200,000	0,019	-0,094
-63,607	-131,044	0,113	0,011
-62,592	800,000	-0,028	-0,072
-61,578	-45,066	-0,133	0,047
-60,563	-200,000	0,011	0,091
-59,549	-200,000	-0,013	0,047
-58,534	-19,037	-1,560	-0,685
-57,519	438,898	-1,303	-2,024
-56,505	-200,000	-0,412	-4,432
-55,490	235,327	0,973	1,141
-54,476	800,000	4,989	11,344
-53,461	-200,000	18,764	303,732
-52,446	800,000	736,454	2290,722
-51,432	566,917	1652,749	2854,470
-50,417	78,882	1669,024	1264,713
-49,403	22,114	1542,005	889,598
-48,388	16,012	1464,738	815,377
-47,373	17,820	1454,927	818,617
-46,359	16,934	1445,125	808,819
-45,344	14,335	1440,333	793,660
-44,330	14,240	1438,460	792,141
-43,315	14,260	1436,618	791,192
-42,300	14,275	1435,097	790,394
-41,286	14,289	1434,080	789,869
-40,271	14,238	1432,677	788,824
-39,257	14,221	1431,258	787,929
-38,242	14,309	1430,082	787,671
-37,227	14,304	1428,942	786,986
-36,213	14,258	1427,631	786,015
-35,198	14,239	1426,643	785,352
-34,184	14,280	1425,392	784,824
-33,169	14,247	1424,107	783,930
-32,154	14,307	1423,058	783,605
-31,140	14,284	1421,778	782,759
-30,125	14,294	1420,499	782,073
-29,111	14,260	1419,583	781,376
-28,096	14,280	1418,367	780,772
-27,082	14,181	1417,674	779,891
-26,067	14,237	1416,150	779,284
-25,052	14,164	1415,396	778,498
-24,038	14,168	1414,537	778,013
-23,023	14,136	1413,301	777,149
-22,009	14,160	1412,332	776,701
-20,994	14,177	1411,339	776,204
-19,979	14,145	1410,680	775,660
-18,965	14,067	1409,720	774,733
-17,950	14,174	1408,576	774,575
-16,936	14,139	1407,819	773,966
-15,921	14,126	1406,306	773,044
-14,906	14,088	1405,746	772,526
-13,892	14,076	1404,830	771,936
-12,877	14,113	1403,667	771,438
-11,863	14,098	1402,978	770,961
-10,848	14,046	1402,265	770,292
-9,833	14,052	1401,254	769,735
-8,819	14,038	1400,392	769,165
-7,804	13,968	1399,571	768,360
-6,790	14,012	1398,279	767,825
-5,775	14,018	1397,301	767,285
-4,760	13,979	1396,413	766,587
-3,746	14,007	1395,414	766,138
-2,731	14,058	1394,688	765,943
-1,717	13,989	1393,869	765,144
-0,702	13,999	1391,855	764,053
0,313	17,791	1310,309	736,885
1,327	34,068	706,019	434,795
2,342	52,448	124,064	83,735
3,356	6,204	16,428	8,602
4,371	13,396	3,173	1,738
5,386	-67,128	0,614	0,170
6,400	204,338	-0,157	0,172
7,415	58,895	-0,179	-0,125
8,429	-169,743	-0,373	-0,009
9,444	20,258	-0,315	-0,180
10,459	-71,003	-0,411	-0,109
11,473	32,050	-0,249	-0,152
12,488	136,195	-0,228	-0,210
13,502	-13,416	-0,291	-0,133
14,517	-70,372	-0,352	-0,094
15,531	113,609	-0,266	-0,229
16,546	120,218	-0,307	-0,269
17,561	126,805	-0,312	-0,280
18,575	-87,196	-0,143	-0,030
19,590	-166,226	-0,240	-0,007
20,604	-129,166	-0,209	0,020
21,619	118,336	-0,373	-0,325
22,634	140,289	-0,443	-0,414
23,648	167,783	-0,353	-0,355
24,663	66,845	-0,397	-0,286
25,677	37,519	-0,365	-0,228
26,692	137,863	-0,225	-0,208
27,707	83,365	-0,244	-0,188
28,721	175,044	-0,304	-0,312
29,736	72,583	-0,392	-0,288
30,750	112,627	-0,500	-0,428
31,765	169,763	-0,297	-0,300
32,780	137,194	-0,265	-0,245
33,794	139,401	-0,294	-0,274
34,809	69,902	-0,432	-0,314
35,823	94,522	-0,442	-0,355
36,838	62,811	-0,362	-0,255
37,853	137,505	-0,357	-0,330
38,867	124,738	-0,378	-0,336
39,882	87,824	-0,329	-0,257
40,896	355,477	-0,223	-0,315
41,911	172,998	-0,329	-0,335
42,926	-38,023	-0,320	-0,119
43,940	83,307	-0,333	-0,256
44,955	71,984	-0,403	-0,295
45,969	-23,384	-0,465	-0,196
46,984	36,034	-0,400	-0,248
47,999	35,961	-0,321	-0,199
49,013	91,050	-0,315	-0,249
50,028	31,491	-0,333	-0,201
51,042	104,563	-0,299	-0,248
52,057	14,709	-0,342	-0,188
53,071	131,294	-0,379	-0,344
54,086	-23,463	-0,390	-0,164
55,101	105,554	-0,295	-0,246
56,115	171,896	-0,237	-0,240
57,130	191,892	-0,242	-0,258
58,144	-75,903	-0,585	-0,145
59,159	30,878	-0,325	-0,196
60,174	-19,251	-0,528	-0,230
61,188	-54,245	-0,351	-0,112
62,203	103,904	-0,330	-0,273
63,217	42,132	-0,304	-0,194
64,232	-34,751	-0,349	-0,134
65,247	58,300	-0,450	-0,310
66,261	7,777	-0,344	-0,181
67,276	254,127	-0,281	-0,339
68,290	208,726	-0,224	-0,247
69,305	114,945	-0,283	-0,243
70,320	-25,647	-0,328	-0,136
71,334	146,520	-0,196	-0,186
72,349	264,394	-0,257	-0,316
73,363	162,884	-0,261	-0,258
74,378	248,576	-0,366	-0,437
75,393	-72,726	-0,292	-0,075
76,407	-46,884	-0,295	-0,101
77,422	182,230	-0,258	-0,267
78,436	182,764	-0,310	-0,322
79,451	-17,388	-0,348	-0,154
80,466	7,794	-0,221	-0,116
81,480	-35,710	-0,388	-0,147
82,495	153,921	-0,280	-0,270
83,509	35,146	-0,261	-0,161
84,524	13,852	-0,261	-0,142
85,539	-98,543	-0,319	-0,057
86,553	47,859	-0,241	-0,158
87,568	2,788	-0,406	-0,207
88,582	59,901	-0,293	-0,203
89,597	17,711	-0,234	-0,130
90,611	45,727	-0,275	-0,178
91,626	13,288	-0,206	-0,112
92,641	-200,000	-0,055	-0,256
93,655	218,037	-0,289	-0,325
94,670	317,388	-0,186	-0,248
95,684	23,696	-0,346	-0,199
96,699	121,519	-0,333	-0,292
97,714	163,094	-0,224	-0,221
98,728	-19,440	-0,285	-0,124
99,743	34,890	-0,295	-0,181
100,757	396,277	-0,189	-0,278
101,772	104,465	-0,323	-0,267
102,787	43,213	-0,231	-0,148
103,801	120,576	-0,196	-0,171
104,816	72,130	-0,216	-0,157
105,830	2,593	-0,253	-0,128
106,845	-87,550	-0,221	-0,047
107,860	-12,936	-0,313	-0,143
108,874	421,828	-0,219	-0,332
109,889	-4,828	-0,373	-0,180
110,903	168,632	-0,244	-0,244
111,918	353,751	-0,210	-0,294
112,933	46,041	-0,199	-0,129
113,947	-49,088	-0,271	-0,090
114,962	-142,813	-0,299	-0,020
115,976	93,896	-0,289	-0,230
116,991	123,033	-0,252	-0,221
118,006	19,954	-0,397	-0,224
119,020	20,409	-0,315	-0,178
120,035	56,312	-0,233	-0,159
121,049	-3,333	-0,321	-0,156
122,064	149,059	-0,264	-0,250
123,079	22,050	-0,310	-0,177
124,093	316,168	-0,201	-0,266
125,108	49,777	-0,339	-0,224
126,122	-46,214	-0,292	-0,100
127,137	393,138	-0,078	-0,114
128,151	-167,014	-0,237	-0,007
129,166	456,680	-0,082	-0,128
130,181	-33,409	-0,300	-0,116
131,195	705,010	-0,133	-0,247
132,210	51,358	-0,305	-0,202
133,224	10,634	-0,353	-0,188
134,239	-34,890	-0,241	-0,092
135,254	146,747	-0,105	-0,099
136,268	16,297	-0,228	-0,125
137,283	-86,690	-0,379	-0,081
138,297	358,229	-0,177	-0,248
139,312	-0,026	-0,224	-0,111
140,327	32,707	-0,310	-0,187
141,341	145,722	-0,231	-0,217
142,356	-122,773	-0,233	-0,026
143,370	-200,000	-0,035	-0,192
144,385	252,854	-0,145	-0,174
145,400	-57,632	-0,369	-0,113
146,414	12,031	-0,388	-0,208
147,429	113,191	-0,336	-0,285
148,443	14,723	-0,271	-0,148
149,458	192,350	-0,135	-0,143
150,473	-127,291	-0,231	-0,023
151,487	19,150	-0,184	-0,103
152,502	40,316	-0,298	-0,187
153,516	209,672	-0,269	-0,295
154,531	31,150	-0,219	-0,131
155,546	157,149	-0,249	-0,241
156,560	73,774	-0,286	-0,209
157,575	-8,888	-0,252	-0,118
158,589	68,046	-0,293	-0,209
159,604	11,104	-0,301	-0,160
160,619	22,495	-0,342	-0,195
161,633	30,510	-0,237	-0,141
162,648	195,279	-0,174	-0,185
163,662	222,525	-0,101	-0,113
164,677	-133,156	-0,189	0,016
165,692	109,173	-0,166	-0,139
166,706	269,791	-0,168	-0,207
167,721	-128,153	-0,275	-0,027
168,735	-21,114	-0,252	-0,107
169,750	-70,672	-0,205	-0,054
170,764	160,275	-0,199	-0,194
171,779	-67,474	-0,265	-0,072
172,794	-107,044	-0,286	-0,044
173,808	152,174	-0,133	-0,127
174,823	185,822	-0,243	-0,252
175,837	800,000	-0,104	-0,228
176,852	55,962	-0,233	-0,157
177,867	-40,121	-0,183	-0,066
178,881	-9,361	-0,256	-0,119
179,896	20,155	-0,166	-0,093
180,910	38,422	-0,172	-0,106
181,925	-200,000	-0,026	-0,169
182,940	207,105	-0,256	-0,279
183,954	-10,116	-0,269	-0,124
184,969	-8,061	-0,175	-0,082
185,983	122,379	-0,096	-0,083
186,998	-200,000	-0,070	-0,280
188,013	523,913	-0,099	-0,163
189,027	-40,022	-0,331	-0,120
190,042	215,106	-0,244	-0,270
191,056	247,375	-0,199	-0,235
192,071	-11,781	-0,290	-0,132
193,086	76,813	-0,162	-0,120
194,100	-48,531	-0,269	-0,090
195,115	452,281	-0,137	-0,212
196,129	68,515	-0,255	-0,182
197,144	85,351	-0,308	-0,235
198,159	190,042	-0,170	-0,177
199,173	73,428	-0,294	-0,214
200,188	53,393	-0,273	-0,182
201,202	204,026	-0,129	-0,139
202,217	175,054	-0,186	-0,188
203,232	90,034	-0,221	-0,172
204,246	264,170	-0,236	-0,287
205,261	392,253	-0,120	-0,174
206,275	77,536	-0,131	-0,097
207,290	-65,506	-0,267	-0,074
208,304	495,871	-0,050	-0,080
209,319	-26,361	-0,247	-0,100
210,334	126,717	-0,122	-0,108
211,348	136,364	-0,205	-0,186
212,363	313,678	-0,197	-0,258
213,377	-12,603	-0,217	-0,098
214,392	130,495	-0,154	-0,137
215,407	-79,495	-0,077	-0,018
216,421	170,960	-0,192	-0,192
217,436	676,560	-0,155	-0,281
218,450	55,881	-0,260	-0,175
219,465	-46,509	-0,105	-0,035
220,480	215,475	-0,212	-0,234
221,494	-73,772	-0,135	-0,034
222,509	-144,809	-0,165	0,010
223,523	18,722	-0,231	-0,128
224,538	-100,279	-0,207	0,035
225,553	29,317	-0,157	-0,092
226,567	200,563	-0,218	-0,233
227,582	71,251	-0,353	-0,254
228,596	270,138	-0,109	-0,133
229,611	273,998	-0,098	-0,121
230,626	-71,884	-0,170	-0,044
231,640	13,502	-0,318	-0,171
232,655	745,316	-0,162	-0,304
233,669	308,718	-0,138	-0,180
234,684	-200,000	-0,067	-0,223
235,699	241,568	-0,096	-0,112
236,713	224,850	0,009	0,010
237,728	-127,093	-0,140	-0,014
238,742	4,677	-0,218	-0,111
239,757	110,576	-0,221	-0,184
240,772	261,932	-0,172	-0,207
241,786	91,169	-0,171	-0,133
242,801	111,526	-0,189	-0,158
243,815	199,776	-0,132	-0,140
244,830	-133,467	-0,172	0,015
245,844	-62,147	-0,197	-0,057
246,859	156,558	-0,191	-0,183
247,874	179,270	-0,225	-0,228
248,888	-47,560	-0,190	-0,064
249,903	26,633	-0,213	-0,123
250,917	-140,095	-0,121	-0,009
251,932	-79,768	-0,149	-0,034
252,947	-57,142	-0,212	-0,064
253,961	-123,777	-0,161	0,017
254,976	-200,000	-0,258	-0,000
255,990	12,017	-0,133	-0,071
257,005	138,267	-0,163	-0,148
258,020	28,912	-0,120	-0,070
259,034	69,957	-0,203	-0,145
260,049	-143,494	-0,243	-0,016
261,063	179,164	-0,133	-0,135
262,078	253,838	-0,189	-0,224
263,093	58,183	-0,226	-0,153
264,107	167,537	-0,185	-0,182
265,122	-59,374	-0,100	-0,030
266,136	-104,551	-0,123	-0,019
267,151	66,816	-0,126	-0,089
268,166	-90,008	-0,220	-0,044
269,180	141,119	-0,177	-0,162
270,195	370,555	-0,171	-0,240
271,209	244,880	-0,170	-0,198
272,224	190,806	-0,105	-0,110
273,239	-78,330	-0,094	-0,022
274,253	-200,000	-0,052	-0,167
275,268	-99,661	-0,155	-0,027
276,282	131,272	-0,183	-0,163
277,297	559,036	-0,174	-0,292
278,312	25,617	-0,142	-0,081
279,326	-200,000	0,009	-0,070
280,341	-60,133	-0,199	-0,058
281,355	68,255	-0,201	-0,142
282,370	-11,866	-0,146	-0,066
283,384	17,767	-0,100	-0,055
284,399	-112,932	-0,131	0,018
285,414	-124,892	-0,120	0,013
286,428	32,511	-0,179	0,107
287,443	340,431	-0,103	-0,140
288,457	-2,131	-0,121	-0,059
289,472	102,790	-0,199	-0,161
290,487	365,355	-0,111	-0,155
291,501	141,240	-0,134	-0,122
292,516	26,089	-0,236	-0,136
293,530	100,255	-0,116	-0,093
294,545	-79,530	-0,152	-0,035
295,560	-92,150	-0,114	0,022
296,574	17,642	-0,119	-0,065
297,589	-81,943	-0,145	-0,033
298,603	-11,247	-0,307	-0,139
299,618	176,747	-0,193	-0,194
300,633	800,000	-0,054	-0,110
301,647	19,505	-0,107	-0,059
302,662	134,751	-0,141	-0,126
303,676	-43,948	-0,193	-0,067
304,691	196,728	-0,140	-0,147
305,706	376,738	-0,113	-0,160
306,720	109,804	-0,241	-0,199
307,735	-108,643	-0,188	-0,028
308,749	193,417	-0,147	-0,153
309,764	-23,679	-0,181	-0,074
310,779	-200,000	0,027	-0,116
311,793	234,090	-0,134	-0,152
312,808	91,372	-0,090	-0,069
313,822	800,000	0,046	-0,110
314,837	531,360	-0,114	-0,187
315,852	-123,615	-0,112	0,012
316,866	-19,311	-0,088	-0,038
317,881	-168,156	-0,100	-0,003
318,895	440,459	-0,079	-0,119
319,910	-184,846	0,052	-0,001
320,925	72,554	-0,169	-0,122
321,939	66,630	-0,128	-0,090
322,954	800,000	-0,088	-0,168
323,968	259,032	-0,115	-0,137
324,983	632,045	-0,148	-0,259
325,997	800,000	-0,038	-0,111
327,012	229,262	-0,207	-0,233
328,027	243,420	-0,203	-0,235
329,041	739,293	-0,126	-0,234
330,056	244,264	-0,080	-0,093
331,070	9,296	-0,049	0,026
332,085	137,308	-0,112	-0,101
333,100	-30,259	-0,154	-0,060
334,114	310,230	-0,115	-0,148
335,129	24,144	-0,171	-0,097
336,143	392,217	-0,137	-0,197
337,158	800,000	0,028	-0,055
338,173	800,000	-0,071	-0,202
339,187	23,088	-0,145	-0,082
340,202	-4,936	-0,171	-0,081
341,216	-128,760	-0,089	0,008
342,231	-84,973	-0,126	-0,027
343,246	67,951	-0,164	-0,115
344,260	330,759	-0,080	-0,106
345,275	-184,148	-0,053	0,001
346,289	450,909	-0,065	-0,100
347,304	46,526	-0,223	-0,142
348,319	196,136	-0,108	-0,113
349,333	245,769	-0,151	-0,175
350,348	330,070	-0,108	-0,143
351,362	11,949	-0,106	-0,056
352,377	800,000	-0,043	-0,106
353,392	228,070	-0,047	0,052
354,406	52,015	-0,156	-0,102
355,421	208,406	1313,228	1411,750
356,435	160,353	1473,797	1412,255
