DTS Sentinel unit serial number:	SN410029Multiplexer serial number:	ORYXHardware model number:	OX2-SRSoftware version number:	ORYX F/W v4,00 Oryx Data Collector v3.7.2.0data status	okinstallation	B3 Nyhavnadifferential loss correction	single-endedforward channel	channel 1reverse channel	N/Adate	2023/12/04time	15:47:30forward acquisition time	300,00reverse acquisition time	0,00gamma	499,1914k internal	0,3200k external	0,3200temperature offset calibration	1,0000default loss term (dB/km)	0,3820temperature slope calibration	1,0000multiplexer offset coefficient	1,0000multiplexer slope coefficient	1,0000fibre end	0,00T internal ref (°C)	15,16T ext. ref 1 (°C)	0,42T ext. ref 2 (°C)	0,41length (m)	temperature (°C)	Stokes	anti-Stokes-744,400	223,266	-0,202	-0,238
-743,385	521,911	0,120	0,206
-742,371	5,142	-0,124	-0,066
-741,356	-200,000	-0,111	0,378
-740,342	141,389	-0,064	-0,062
-739,327	-200,000	0,050	0,273
-738,312	540,108	-0,181	-0,315
-737,298	477,656	0,160	0,264
-736,283	293,719	-0,139	-0,185
-735,269	751,394	0,172	0,339
-734,254	257,301	-0,181	-0,226
-733,239	59,428	-0,175	0,125
-732,225	-200,000	-0,060	-0,247
-731,210	-31,558	0,171	0,070
-730,196	251,630	-0,078	0,096
-729,181	86,612	-0,144	0,115
-728,167	800,000	0,054	-0,144
-727,152	-24,441	-0,123	-0,053
-726,137	177,012	-0,032	-0,033
-725,123	-20,041	-0,048	0,021
-724,108	-200,000	-0,041	-0,144
-723,094	-200,000	-0,011	0,037
-722,079	-200,000	-0,002	-0,038
-721,064	-200,000	0,014	-0,075
-720,050	-200,000	-0,021	-0,226
-719,035	-23,130	-0,204	-0,089
-718,021	764,916	0,024	-0,048
-717,006	79,013	-0,115	-0,090
-715,991	-200,000	0,027	-0,126
-714,977	-37,460	-0,070	-0,027
-713,962	-200,000	0,000	-0,018
-712,948	210,221	-0,053	-0,061
-711,933	533,471	-0,078	-0,135
-710,918	46,911	0,082	-0,055
-709,904	-200,000	0,002	-0,078
-708,889	-200,000	-0,016	-0,140
-707,875	-200,000	-0,037	-0,150
-706,860	-200,000	0,004	-0,074
-705,845	-200,000	0,006	0,040
-704,831	-200,000	-0,145	0,000
-703,816	109,076	0,051	-0,044
-702,802	195,066	-0,139	-0,154
-701,787	-200,000	0,061	-0,201
-700,772	53,301	-0,086	0,060
-699,758	13,021	-0,020	0,011
-698,743	-7,170	-0,048	-0,023
-697,729	-200,000	0,014	-0,062
-696,714	202,963	0,036	0,041
-695,699	52,381	0,025	0,017
-694,685	42,494	-0,117	-0,077
-693,670	97,056	-0,049	-0,041
-692,656	380,866	-0,068	-0,102
-691,641	-200,000	-0,016	-0,126
-690,627	-200,000	0,019	-0,143
-689,612	65,364	0,118	-0,086
-688,597	38,598	-0,114	0,074
-687,583	800,000	-0,052	0,158
-686,568	368,810	0,059	0,087
-685,554	-7,638	-0,185	0,090
-684,539	800,000	-0,030	0,072
-683,524	-35,431	-0,119	-0,047
-682,510	-200,000	0,055	0,196
-681,495	120,010	0,156	0,140
-680,481	553,401	-0,082	0,144
-679,466	-200,000	-0,109	0,000
-678,451	207,994	0,046	-0,052
-677,437	-84,946	-0,107	0,024
-676,422	-200,000	0,019	-0,077
-675,408	121,833	0,067	-0,061
-674,393	-171,113	-0,016	0,000
-673,378	-71,301	0,066	-0,018
-672,364	-144,675	0,081	0,005
-671,349	-20,072	-0,057	-0,025
-670,335	141,857	0,112	-0,108
-669,320	-8,949	0,087	0,042
-668,305	91,248	0,057	0,047
-667,291	-200,000	-0,012	-0,046
-666,276	800,000	-0,047	-0,098
-665,262	53,729	-0,079	-0,055
-664,247	220,306	-0,044	-0,051
-663,232	487,749	-0,044	0,072
-662,218	362,387	-0,075	0,110
-661,203	161,297	0,071	0,072
-660,189	-200,000	0,020	0,097
-659,174	596,392	-0,074	-0,133
-658,159	800,000	0,005	0,012
-657,145	498,264	-0,060	0,101
-656,130	48,912	0,033	0,022
-655,116	-200,000	-0,002	-0,034
-654,101	-148,254	0,032	-0,002
-653,086	-200,000	-0,019	0,134
-652,072	409,540	-0,025	-0,039
-651,057	-200,000	-0,042	-0,186
-650,043	64,435	0,011	-0,008
-649,028	-200,000	0,035	-0,259
-648,014	-80,113	0,081	0,019
-646,999	15,292	-0,125	0,071
-645,984	620,950	-0,027	-0,049
-644,970	457,627	0,052	0,085
-643,955	168,019	-0,136	-0,141
-642,941	-47,963	0,085	-0,030
-641,926	-45,284	0,065	-0,023
-640,911	-200,000	-0,005	0,074
-639,897	274,719	0,057	0,073
-638,882	-200,000	0,017	0,061
-637,868	107,303	0,074	0,063
-636,853	103,493	-0,170	-0,144
-635,838	76,723	0,010	-0,008
-634,824	-200,000	0,016	0,155
-633,809	-80,586	-0,104	0,025
-632,795	-13,628	0,085	0,040
-631,780	-184,841	-0,043	-0,000
-630,765	706,451	-0,078	-0,150
-629,751	-31,924	-0,104	-0,042
-628,736	800,000	0,029	0,081
-627,722	448,753	-0,060	-0,095
-626,707	359,078	0,062	0,090
-625,692	246,696	0,043	0,053
-624,678	201,430	0,087	0,097
-623,663	1,178	-0,166	0,086
-622,649	15,912	-0,091	-0,052
-621,634	229,065	-0,085	-0,100
-620,619	-18,483	-0,138	-0,062
-619,605	-39,848	0,053	-0,020
-618,590	45,305	-0,030	0,020
-617,576	-200,000	0,031	0,152
-616,561	800,000	-0,042	-0,087
-615,546	-105,465	-0,154	0,025
-614,532	-103,264	-0,078	0,013
-613,517	360,715	-0,086	0,125
-612,503	47,955	-0,085	0,057
-611,488	-200,000	-0,003	0,107
-610,474	-200,000	0,018	-0,106
-609,459	800,000	-0,073	0,150
-608,444	78,646	-0,018	0,014
-607,430	132,820	-0,121	-0,113
-606,415	-57,831	-0,191	-0,060
-605,401	305,627	-0,048	-0,065
-604,386	-33,920	0,137	0,054
-603,371	800,000	-0,009	-0,023
-602,357	180,434	-0,132	0,140
-601,342	-18,113	-0,128	0,058
-600,328	800,000	-0,017	-0,039
-599,313	800,000	-0,076	-0,153
-598,298	-179,035	-0,052	0,001
-597,284	168,717	-0,022	-0,022
-596,269	17,587	-0,139	0,080
-595,255	6,661	0,128	-0,068
-594,240	800,000	-0,055	-0,170
-593,225	14,747	-0,068	-0,038
-592,211	-93,113	-0,026	0,005
-591,196	552,866	0,045	0,079
-590,182	525,784	-0,090	-0,154
-589,167	165,423	-0,120	-0,122
-588,152	38,001	0,049	0,031
-587,138	-134,149	-0,071	-0,006
-586,123	800,000	0,018	-0,039
-585,109	715,929	-0,019	0,036
-584,094	800,000	0,019	-0,050
-583,079	252,106	-0,029	-0,036
-582,065	-200,000	-0,006	0,029
-581,050	-200,000	0,008	0,163
-580,036	-42,793	-0,148	-0,054
-579,021	-200,000	-0,001	0,013
-578,006	-200,000	-0,002	-0,143
-576,992	104,205	-0,135	-0,115
-575,977	18,505	-0,123	0,071
-574,963	800,000	0,027	0,067
-573,948	-200,000	-0,013	0,096
-572,934	-200,000	-0,040	0,164
-571,919	106,281	-0,064	0,055
-570,904	-0,794	-0,093	-0,048
-569,890	313,213	-0,046	-0,063
-568,875	-200,000	0,037	0,135
-567,861	-27,886	0,068	0,028
-566,846	-195,824	-0,076	0,000
-565,831	7,261	-0,056	0,030
-564,817	-200,000	-0,021	-0,134
-563,802	2,503	-0,079	-0,041
-562,788	-155,005	0,142	-0,007
-561,773	171,596	-0,134	-0,139
-560,758	199,724	0,040	-0,044
-559,744	-127,537	0,128	-0,013
-558,729	147,959	0,087	-0,085
-557,715	14,078	0,112	0,063
-556,700	-200,000	-0,020	-0,205
-555,685	157,760	-0,023	-0,023
-554,671	800,000	0,033	-0,081
-553,656	-26,583	0,053	0,022
-552,642	-58,347	0,136	0,043
-551,627	35,186	-0,023	-0,014
-550,612	-168,701	-0,131	-0,004
-549,598	241,818	-0,080	0,097
-548,583	469,352	0,009	0,015
-547,569	-200,000	-0,035	0,129
-546,554	-118,687	0,074	-0,009
-545,539	137,923	-0,015	0,014
-544,525	800,000	0,053	0,163
-543,510	139,033	0,041	0,039
-542,496	326,730	0,018	0,025
-541,481	60,823	0,037	-0,026
-540,466	76,499	0,013	-0,010
-539,452	800,000	-0,021	-0,065
-538,437	-200,000	0,007	-0,036
-537,423	-47,133	0,104	0,036
-536,408	408,813	0,034	0,051
-535,393	800,000	0,046	-0,128
-534,379	-5,887	-0,137	0,067
-533,364	-200,000	-0,005	-0,049
-532,350	678,038	-0,064	-0,121
-531,335	-200,000	-0,001	0,087
-530,321	-3,548	-0,023	0,012
-529,306	271,748	0,051	0,065
-528,291	-72,147	-0,051	0,014
-527,277	259,864	-0,056	-0,070
-526,262	190,190	-0,040	0,044
-525,248	800,000	-0,058	0,123
-524,233	-200,000	-0,014	0,185
-523,218	317,068	0,033	-0,046
-522,204	64,121	0,059	-0,043
-521,189	-200,000	0,001	-0,080
-520,175	-185,911	-0,078	0,001
-519,160	95,908	-0,101	-0,083
-518,145	-66,700	0,063	0,018
-517,131	115,265	-0,070	0,062
-516,116	-147,562	0,156	-0,009
-515,102	494,607	0,049	-0,081
-514,087	701,383	0,053	-0,101
-513,072	-78,054	-0,127	-0,031
-512,058	-200,000	-0,001	0,043
-511,043	-200,000	0,011	-0,092
-510,029	-200,000	0,025	0,108
-509,014	80,952	0,116	-0,090
-507,999	41,337	-0,078	0,051
-506,985	800,000	-0,009	0,020
-505,970	-120,529	0,134	-0,016
-504,956	-200,000	0,012	0,111
-503,941	-101,468	0,049	0,008
-502,926	-200,000	-0,019	-0,062
-501,912	150,998	0,081	0,079
-500,897	121,779	0,065	0,059
-499,883	800,000	0,017	-0,043
-498,868	-137,873	0,188	-0,015
-497,853	-200,000	0,022	-0,108
-496,839	119,182	-0,029	0,026
-495,824	-200,000	0,027	0,098
-494,810	145,043	0,031	0,030
-493,795	618,286	0,088	0,159
-492,781	800,000	-0,056	0,128
-491,766	613,801	0,014	-0,025
-490,751	800,000	0,048	-0,098
-489,737	7,852	-0,048	0,026
-488,722	-60,066	0,118	0,036
-487,708	40,387	-0,207	0,134
-486,693	-200,000	-0,028	-0,125
-485,678	281,494	-0,038	0,049
-484,664	146,367	-0,034	0,033
-483,649	-200,000	-0,008	-0,169
-482,635	-127,089	-0,251	0,026
-481,620	-122,534	0,155	0,018
-480,605	56,983	0,029	-0,021
-479,591	800,000	-0,021	-0,052
-478,576	800,000	-0,032	-0,076
-477,562	-105,133	-0,057	0,009
-476,547	502,791	0,039	-0,064
-475,532	316,220	0,049	0,066
-474,518	-130,882	0,033	-0,003
-473,503	-200,000	0,065	0,208
-472,489	720,376	0,069	0,133
-471,474	323,182	-0,038	0,053
-470,459	86,220	-0,036	-0,028
-469,445	-87,847	-0,097	0,021
-468,430	-83,427	-0,102	-0,023
-467,416	-200,000	0,008	-0,052
-466,401	7,890	0,149	0,080
-465,386	-117,149	0,032	-0,004
-464,372	625,380	-0,065	0,118
-463,357	-5,101	-0,156	0,077
-462,343	106,315	-0,028	0,024
-461,328	-137,578	-0,079	0,006
-460,313	224,080	0,096	-0,111
-459,299	207,653	0,058	-0,066
-458,284	-200,000	-0,010	0,082
-457,270	135,615	0,062	-0,058
-456,255	595,027	0,020	0,036
-455,241	-35,174	-0,131	-0,051
-454,226	151,100	-0,064	0,063
-453,211	-4,307	-0,080	0,040
-452,197	-200,000	-0,027	-0,123
-451,182	-155,895	-0,073	0,003
-450,168	468,184	0,039	-0,063
-449,153	-168,631	-0,059	0,002
-448,138	446,101	-0,055	-0,087
-447,124	-28,680	0,028	0,012
-446,109	108,909	-0,041	0,035
-445,095	122,219	0,094	0,084
-444,080	249,489	0,086	0,105
-443,065	800,000	0,052	0,143
-442,051	502,858	0,153	0,255
-441,036	800,000	0,009	-0,028
-440,022	-200,000	-0,008	-0,090
-439,007	82,277	-0,046	0,036
-437,992	-96,406	0,062	-0,012
-436,978	-56,324	0,060	-0,019
-435,963	-144,374	-0,085	0,006
-434,949	-112,622	-0,040	0,006
-433,934	-175,847	-0,102	0,002
-432,919	800,000	0,041	-0,104
-431,905	-112,708	0,110	-0,016
-430,890	800,000	-0,011	0,026
-429,876	800,000	0,023	0,071
-428,861	-41,830	0,082	0,030
-427,846	234,187	-0,073	-0,086
-426,832	-112,308	0,214	0,030
-425,817	61,910	-0,130	-0,093
-424,803	-51,992	0,068	-0,023
-423,788	-200,000	0,004	0,179
-422,773	-65,376	0,244	0,070
-421,759	130,497	0,135	-0,124
-420,744	-200,000	0,020	0,077
-419,730	-200,000	-0,018	-0,133
-418,715	-200,000	0,008	-0,049
-417,701	50,505	0,124	-0,084
-416,686	800,000	0,008	-0,016
-415,671	40,851	0,041	0,027
-414,657	474,972	0,080	0,131
-413,642	-200,000	0,020	0,065
-412,628	-200,000	-0,001	-0,096
-411,613	258,935	0,110	-0,137
-410,598	-200,000	-0,032	-0,130
-409,584	800,000	0,002	-0,005
-408,569	48,890	0,084	-0,057
-407,555	10,437	0,103	0,056
-406,540	-0,649	0,128	-0,065
-405,525	-71,421	0,109	-0,029
-404,511	-200,000	-0,014	-0,076
-403,496	14,978	-0,139	-0,078
-402,482	15,644	0,052	0,029
-401,467	-200,000	-0,011	0,161
-400,452	10,290	-0,036	-0,020
-399,438	-93,118	0,016	-0,003
-398,423	625,775	-0,042	0,076
-397,409	25,201	-0,080	-0,047
-396,394	67,320	0,032	-0,023
-395,379	-200,000	-0,001	-0,102
-394,365	-124,194	0,167	0,019
-393,350	187,209	0,022	0,024
-392,336	-133,912	0,061	-0,005
-391,321	-51,468	0,087	-0,029
-390,306	-151,200	-0,107	0,006
-389,292	42,279	-0,073	0,047
-388,277	800,000	-0,006	0,016
-387,263	-200,000	-0,006	-0,055
-386,248	-137,440	-0,051	0,004
-385,233	-46,913	0,085	0,030
-384,219	-155,643	-0,020	-0,001
-383,204	-6,405	-0,088	-0,043
-382,190	4,451	0,062	0,033
-381,175	-92,072	-0,049	0,010
-380,160	231,305	-0,020	0,024
-379,146	-200,000	0,004	-0,028
-378,131	-124,149	0,043	0,005
-377,117	-200,000	0,034	0,167
-376,102	-68,115	-0,052	-0,014
-375,088	-200,000	-0,021	0,108
-374,073	30,674	0,075	-0,046
-373,058	686,159	0,071	0,134
-372,044	800,000	0,064	0,135
-371,029	464,237	-0,030	-0,048
-370,015	497,587	0,039	0,065
-369,000	-200,000	0,009	-0,050
-367,985	225,362	-0,045	-0,052
-366,971	-1,765	0,102	-0,052
-365,956	-58,355	0,115	0,036
-364,942	-200,000	0,002	0,017
-363,927	-46,374	0,152	-0,053
-362,912	-92,322	-0,051	-0,010
-361,898	-155,047	0,097	0,004
-360,883	-24,427	-0,112	-0,048
-359,869	420,241	-0,055	-0,084
-358,854	71,196	-0,039	-0,029
-357,839	43,969	0,112	-0,073
-356,825	53,990	0,082	0,056
-355,810	68,673	0,179	-0,132
-354,796	483,402	0,029	-0,047
-353,781	41,047	-0,175	-0,113
-352,766	-200,000	-0,005	-0,053
-351,752	54,672	-0,061	-0,042
-350,737	203,873	0,089	0,099
-349,723	625,958	-0,082	0,148
-348,708	209,533	0,027	-0,031
-347,693	800,000	0,037	0,093
-346,679	-97,046	0,049	0,009
-345,664	-200,000	0,043	-0,179
-344,650	-200,000	-0,002	-0,058
-343,635	-75,673	-0,053	-0,013
-342,620	800,000	0,025	-0,062
-341,606	800,000	-0,055	0,137
-340,591	23,013	0,056	-0,033
-339,577	-37,653	0,060	0,023
-338,562	800,000	-0,074	-0,163
-337,548	165,202	0,014	0,014
-336,533	-44,303	0,090	0,032
-335,518	672,972	-0,121	0,226
-334,504	-200,000	0,006	0,055
-333,489	800,000	0,041	-0,109
-332,475	572,780	-0,024	-0,043
-331,460	-200,000	-0,028	-0,104
-330,445	-68,607	0,114	-0,031
-329,431	91,109	0,201	0,162
-328,416	-200,000	0,119	-0,000
-327,402	143,591	-0,151	-0,144
-326,387	-200,000	0,006	-0,057
-325,372	-29,532	0,019	-0,008
-324,358	-133,218	-0,108	-0,010
-323,343	608,976	0,126	-0,227
-322,329	761,245	0,012	-0,024
-321,314	-200,000	-0,014	0,128
-320,299	430,187	-0,081	0,125
-319,285	-200,000	-0,027	-0,100
-318,270	418,009	-0,024	-0,037
-317,256	157,703	0,110	-0,110
-316,241	800,000	-0,031	0,092
-315,226	34,147	-0,063	-0,039
-314,212	800,000	-0,035	0,095
-313,197	-200,000	0,022	0,160
-312,183	95,383	0,018	0,015
-311,168	-13,061	-0,026	0,012
-310,153	190,511	-0,038	0,041
-309,139	118,750	0,024	-0,021
-308,124	273,051	0,116	-0,147
-307,110	336,958	0,100	0,139
-306,095	310,589	-0,022	-0,029
-305,080	-200,000	0,037	0,141
-304,066	236,413	-0,069	-0,082
-303,051	54,261	0,041	0,028
-302,037	760,536	-0,057	0,111
-301,022	-8,647	-0,012	0,006
-300,008	800,000	0,042	0,125
-298,993	303,659	0,064	-0,085
-297,978	48,179	0,045	0,030
-296,964	-5,308	-0,140	-0,069
-295,949	598,594	0,059	-0,106
-294,935	-200,000	0,004	-0,042
-293,920	173,510	-0,046	0,047
-292,905	-200,000	-0,006	0,082
-291,891	-200,000	0,032	0,117
-290,876	356,038	-0,027	-0,038
-289,862	-200,000	0,006	-0,020
-288,847	-200,000	-0,016	0,104
-287,832	-17,101	0,094	0,042
-286,818	-106,466	-0,037	0,006
-285,803	-21,430	-0,059	0,026
-284,789	140,848	-0,069	0,066
-283,774	800,000	0,016	-0,034
-282,759	-200,000	0,024	0,107
-281,745	349,400	-0,047	-0,066
-280,730	-200,000	0,002	-0,114
-279,716	-200,000	-0,032	0,150
-278,701	124,977	0,029	0,026
-277,686	112,983	0,125	0,108
-276,672	95,501	-0,057	0,046
-275,657	-200,000	0,007	-0,139
-274,643	-200,000	-0,002	-0,067
-273,628	-116,684	-0,111	-0,014
-272,613	582,564	0,034	0,060
-271,599	-96,373	0,053	-0,010
-270,584	-200,000	0,002	-0,017
-269,570	-200,000	0,005	0,124
-268,555	800,000	-0,049	0,099
-267,540	-200,000	0,003	-0,182
-266,526	531,859	0,025	-0,043
-265,511	495,429	0,023	0,037
-264,497	-200,000	-0,007	-0,031
-263,482	-1,289	0,157	0,079
-262,467	800,000	0,016	0,040
-261,453	-65,014	-0,065	-0,019
-260,438	159,455	-0,047	-0,047
-259,424	27,886	-0,082	-0,049
-258,409	-103,249	0,056	-0,009
-257,395	-200,000	-0,002	0,103
-256,380	534,113	-0,075	0,127
-255,365	138,981	0,029	-0,027
-254,351	800,000	0,027	-0,066
-253,336	321,008	0,097	0,132
-252,322	-200,000	0,010	-0,135
-251,307	234,040	0,030	-0,035
-250,292	800,000	-0,010	-0,025
-249,278	374,454	0,059	-0,086
-248,263	-68,736	-0,030	-0,008
-247,249	-125,902	-0,094	0,010
-246,234	374,514	0,058	-0,085
-245,219	800,000	-0,037	-0,082
-244,205	799,203	-0,060	0,120
-243,190	-200,000	0,027	0,096
-242,176	-112,083	0,040	0,006
-241,161	51,685	0,182	0,123
-240,146	-6,032	-0,112	0,054
-239,132	-200,000	-0,015	-0,054
-238,117	-113,732	0,088	-0,012
-237,103	-200,000	-0,019	0,000
-236,088	-200,000	0,028	-0,202
-235,073	527,436	0,116	0,195
-234,059	-16,412	-0,067	0,030
-233,044	-161,208	0,045	-0,002
-232,030	-200,000	-0,007	0,092
-231,015	35,300	-0,068	0,042
-230,000	800,000	-0,020	-0,058
-228,986	573,626	0,045	0,079
-227,971	-109,760	0,165	-0,024
-226,957	279,067	0,099	0,127
-225,942	-68,815	0,072	0,020
-224,927	232,683	0,081	0,095
-223,913	624,727	-0,055	-0,099
-222,898	305,503	-0,102	-0,136
-221,884	148,082	-0,121	0,117
-220,869	-200,000	0,032	0,109
-219,855	-42,474	-0,024	0,009
-218,840	-19,947	0,040	-0,018
-217,825	-163,922	-0,111	0,004
-216,811	800,000	-0,042	0,099
-215,796	-200,000	-0,036	-0,136
-214,782	21,335	-0,135	-0,078
-213,767	-49,575	0,164	-0,055
-212,752	-96,437	0,115	-0,022
-211,738	76,271	-0,047	-0,035
-210,723	136,109	0,101	0,094
-209,709	-0,108	-0,107	-0,054
-208,694	-5,842	0,079	-0,038
-207,679	-200,000	-0,005	0,032
-206,665	-200,000	0,001	-0,045
-205,650	800,000	-0,078	-0,173
-204,636	-151,450	0,125	-0,007
-203,621	-28,407	-0,041	-0,017
-202,606	199,972	-0,129	-0,141
-201,592	-2,314	0,052	-0,026
-200,577	130,484	-0,076	0,070
-199,563	-200,000	0,002	0,043
-198,548	43,249	-0,093	-0,060
-197,533	112,342	0,058	-0,050
-196,519	800,000	-0,063	0,150
-195,504	229,439	-0,041	0,048
-194,490	-200,000	0,002	0,083
-193,475	153,307	0,028	-0,028
-192,460	-115,182	-0,107	0,014
-191,446	800,000	0,068	0,189
-190,431	-100,206	0,071	0,012
-189,417	92,679	0,038	-0,031
-188,402	-81,235	-0,064	-0,015
-187,387	800,000	0,055	-0,113
-186,373	-200,000	-0,055	-0,191
-185,358	-41,818	-0,142	0,051
-184,344	162,592	0,048	0,047
-183,329	98,474	-0,082	0,067
-182,315	800,000	-0,039	-0,078
-181,300	800,000	-0,005	-0,016
-180,285	-28,680	-0,068	0,028
-179,271	800,000	-0,023	-0,050
-178,256	8,903	-0,027	0,014
-177,242	-200,000	0,021	0,075
-176,227	800,000	0,038	0,098
-175,212	-95,401	0,082	0,016
-174,198	36,276	0,107	0,067
-173,183	-35,529	-0,070	-0,027
-172,169	342,045	0,061	-0,085
-171,154	800,000	0,020	-0,054
-170,139	20,500	0,086	-0,049
-169,125	-200,000	0,006	-0,076
-168,110	33,420	0,146	0,090
-167,096	84,603	-0,130	-0,101
-166,081	134,368	-0,029	-0,027
-165,066	-93,307	-0,073	-0,014
-164,052	-200,000	-0,047	-0,159
-163,037	-62,677	0,051	-0,015
-162,023	-26,112	0,147	-0,061
-161,008	30,069	-0,005	-0,003
-159,993	-67,586	-0,148	-0,041
-158,979	-200,000	-0,009	-0,089
-157,964	150,033	-0,110	-0,107
-156,950	-200,000	-0,008	-0,124
-155,935	-200,000	-0,011	0,052
-154,920	-200,000	0,024	0,154
-153,906	312,826	-0,086	-0,115
-152,891	800,000	0,060	-0,130
-151,877	-80,155	-0,134	0,032
-150,862	-200,000	-0,010	0,092
-149,847	-200,000	0,020	-0,072
-148,833	314,381	0,057	-0,077
-147,818	-89,533	0,103	-0,021
-146,804	306,772	0,041	-0,055
-145,789	216,207	0,036	-0,040
-144,775	-6,952	0,077	-0,037
-143,760	241,594	-0,021	-0,025
-142,745	-200,000	-0,019	-0,098
-141,731	160,291	-0,083	0,082
-140,716	-121,395	0,088	0,010
-139,702	129,183	0,136	0,124
-138,687	-0,013	0,122	-0,061
-137,672	0,968	-0,151	-0,077
-136,658	800,000	-0,034	0,098
-135,643	-113,534	0,091	-0,013
-134,629	-56,305	-0,017	0,005
-133,614	800,000	0,031	0,069
-132,599	-166,020	-0,024	0,001
-131,585	-96,341	0,111	0,021
-130,570	133,075	-0,141	0,129
-129,556	-200,000	-0,039	-0,148
-128,541	-4,614	0,047	0,023
-127,526	-82,478	-0,079	-0,018
-126,512	88,180	0,121	0,095
-125,497	-45,880	0,141	0,049
-124,483	-79,482	0,082	-0,020
-123,468	-200,000	0,008	0,051
-122,453	-200,000	0,033	0,137
-121,439	-200,000	0,006	0,018
-120,424	800,000	0,007	-0,023
-119,410	-124,413	0,055	-0,006
-118,395	-97,652	0,057	0,010
-117,380	-200,000	-0,006	-0,057
-116,366	573,332	0,055	0,096
-115,351	588,778	-0,055	-0,096
-114,337	203,626	-0,064	0,071
-113,322	174,054	0,026	-0,027
-112,307	100,429	0,076	0,062
-111,293	50,967	-0,014	0,010
-110,278	60,112	-0,072	-0,051
-109,264	16,511	-0,023	0,013
-108,249	428,536	0,019	0,029
-107,234	-200,000	-0,021	0,070
-106,220	800,000	0,037	-0,112
-105,205	446,914	0,079	-0,123
-104,191	522,260	0,035	0,059
-103,176	-200,000	0,020	0,114
-102,162	-200,000	0,004	0,039
-101,147	91,200	-0,083	-0,066
-100,132	109,631	-0,080	0,068
-99,118	800,000	-0,042	-0,087
-98,103	-70,817	0,129	0,034
-97,089	-39,311	0,122	0,045
-96,074	-200,000	-0,002	0,076
-95,059	-200,000	0,022	-0,110
-94,045	346,467	0,029	0,040
-93,030	-200,000	-0,033	-0,136
-92,016	10,034	-0,210	-0,113
-91,001	346,670	-0,031	0,043
-89,986	-71,007	-0,090	-0,024
-88,972	123,540	0,071	0,063
-87,957	800,000	-0,025	-0,050
-86,943	16,615	-0,094	-0,052
-85,928	243,906	0,051	-0,061
-84,913	-19,272	0,040	-0,018
-83,899	8,541	-0,035	0,019
-82,884	396,910	-0,056	-0,084
-81,870	-19,065	0,124	0,055
-80,855	-113,042	-0,067	-0,009
-79,840	98,171	-0,063	-0,051
-78,826	121,329	0,053	0,047
-77,811	213,555	-0,061	0,069
-76,797	-62,413	-0,075	0,022
-75,782	160,418	0,025	0,025
-74,767	800,000	-0,064	-0,160
-73,753	-200,000	-0,002	0,085
-72,738	-91,124	0,077	-0,016
-71,724	800,000	0,052	0,148
-70,709	24,390	0,048	0,028
-69,694	-200,000	-0,000	0,070
-68,680	374,691	0,020	-0,029
-67,665	713,189	-0,041	-0,078
-66,651	-200,000	0,049	0,170
-65,636	-60,232	0,064	-0,019
-64,622	24,103	-0,115	-0,067
-63,607	7,535	-0,046	0,024
-62,592	800,000	0,051	-0,104
-61,578	-55,928	-0,018	0,006
-60,563	-200,000	0,002	0,123
-59,549	-200,000	-0,017	0,207
-58,534	-52,752	-1,504	-0,488
-57,519	385,745	-1,551	-2,274
-56,505	-200,000	-0,640	-4,530
-55,490	134,929	1,005	0,925
-54,476	800,000	4,797	11,356
-53,461	-200,000	18,173	285,848
-52,446	800,000	726,348	2222,321
-51,432	553,933	1642,049	2807,374
-50,417	79,422	1664,605	1263,080
-49,403	23,018	1538,530	891,462
-48,388	16,990	1461,771	817,806
-47,373	17,894	1451,530	816,399
-46,359	17,315	1441,986	808,228
-45,344	15,295	1437,356	795,962
-44,330	15,221	1435,403	794,498
-43,315	15,233	1433,707	793,586
-42,300	15,236	1432,119	792,688
-41,286	15,255	1430,974	792,113
-40,271	15,214	1429,838	791,260
-39,257	15,224	1428,550	790,561
-38,242	15,258	1426,966	789,815
-37,227	15,227	1425,895	789,044
-36,213	15,277	1424,657	788,563
-35,198	15,289	1423,379	787,880
-34,184	15,293	1422,652	787,468
-33,169	15,223	1421,359	786,392
-32,154	15,256	1420,315	785,939
-31,140	15,274	1418,996	785,259
-30,125	15,310	1417,927	784,807
-29,111	15,295	1416,740	784,048
-28,096	15,233	1415,746	783,177
-27,082	15,179	1414,418	782,156
-26,067	15,183	1413,411	781,588
-25,052	15,194	1412,392	781,044
-24,038	15,193	1411,285	780,398
-23,023	15,184	1410,269	779,763
-22,009	15,180	1409,388	779,226
-20,994	15,145	1408,416	778,492
-19,979	15,127	1407,466	777,855
-18,965	15,143	1406,443	777,330
-17,950	15,099	1405,472	776,561
-16,936	15,113	1404,712	776,176
-15,921	15,092	1403,573	775,416
-14,906	15,104	1402,561	774,882
-13,892	15,096	1401,654	774,312
-12,877	15,096	1400,736	773,776
-11,863	15,094	1399,751	773,192
-10,848	15,114	1398,897	772,783
-9,833	15,055	1398,009	771,987
-8,819	15,000	1397,334	771,326
-7,804	15,019	1396,179	770,750
-6,790	14,996	1395,219	770,079
-5,775	14,997	1394,284	769,539
-4,760	15,022	1393,305	769,083
-3,746	14,987	1392,550	768,475
-2,731	14,998	1391,621	767,981
-1,717	15,000	1390,683	767,443
-0,702	15,044	1388,640	766,488
0,313	18,827	1308,395	739,703
1,327	35,173	707,679	438,005
2,342	54,071	125,037	84,967
3,356	6,303	16,534	8,656
4,371	7,835	3,012	1,592
5,386	-20,944	0,603	0,260
6,400	174,633	0,023	0,024
7,415	47,824	-0,249	-0,164
8,429	230,535	-0,282	-0,326
9,444	-4,995	-0,311	-0,151
10,459	-27,800	-0,342	-0,140
11,473	-30,377	-0,215	-0,086
12,488	-42,061	-0,223	-0,080
13,502	-99,023	-0,388	-0,069
14,517	216,348	-0,234	-0,263
15,531	40,620	-0,351	-0,223
16,546	-30,638	-0,310	-0,123
17,561	76,295	-0,282	-0,211
18,575	-18,933	-0,210	-0,092
19,590	84,588	-0,269	-0,208
20,604	-95,745	-0,248	-0,046
21,619	56,867	-0,389	-0,267
22,634	111,037	-0,486	-0,413
23,648	116,208	-0,338	-0,293
24,663	27,075	-0,451	-0,267
25,677	154,858	-0,291	-0,283
26,692	105,227	-0,323	-0,269
27,707	49,372	-0,299	-0,198
28,721	-9,790	-0,567	-0,266
29,736	-26,451	-0,315	-0,130
30,750	69,784	-0,331	-0,241
31,765	115,966	-0,404	-0,349
32,780	34,187	-0,342	-0,210
33,794	7,465	-0,398	-0,209
34,809	35,961	-0,399	-0,247
35,823	91,828	-0,425	-0,337
36,838	187,651	-0,297	-0,313
37,853	158,727	-0,258	-0,253
38,867	800,000	-0,167	-0,424
39,882	130,613	-0,440	-0,398
40,896	204,347	-0,273	-0,299
41,911	75,143	-0,283	-0,210
42,926	75,251	-0,285	-0,212
43,940	9,894	-0,398	-0,212
44,955	161,925	-0,310	-0,307
45,969	48,204	-0,325	-0,214
46,984	226,746	-0,295	-0,338
47,999	33,467	-0,296	-0,181
49,013	226,619	-0,215	-0,246
50,028	35,175	-0,293	-0,181
51,042	-56,913	-0,341	-0,105
52,057	29,633	-0,370	-0,221
53,071	89,354	-0,338	-0,266
54,086	78,682	-0,287	-0,216
55,101	-6,068	-0,362	-0,174
56,115	-28,682	-0,319	-0,129
57,130	64,580	-0,366	-0,259
58,144	-119,692	-0,487	-0,059
59,159	17,474	-0,338	-0,189
60,174	186,265	-0,230	-0,242
61,188	31,855	-0,259	-0,157
62,203	5,941	-0,337	-0,175
63,217	65,109	-0,311	-0,221
64,232	-23,108	-0,476	-0,201
65,247	108,505	-0,392	-0,329
66,261	46,525	-0,442	-0,288
67,276	-12,572	-0,454	-0,208
68,290	20,599	-0,333	-0,189
69,305	82,188	-0,344	-0,262
70,320	-15,480	-0,337	-0,151
71,334	-15,454	-0,323	-0,145
72,349	18,796	-0,334	-0,188
73,363	-79,057	-0,336	-0,080
74,378	-18,237	-0,283	-0,124
75,393	409,135	-0,204	-0,305
76,407	111,224	-0,201	-0,170
77,422	121,372	-0,234	-0,205
78,436	-11,755	-0,381	-0,175
79,451	-85,789	-0,465	-0,100
80,466	154,666	-0,318	-0,307
81,480	63,172	-0,247	-0,174
82,495	36,543	-0,329	-0,203
83,509	-36,826	-0,249	-0,094
84,524	-44,693	-0,361	-0,126
85,539	20,496	-0,232	-0,132
86,553	-30,047	-0,297	-0,118
87,568	-37,278	-0,318	-0,119
88,582	-9,632	-0,334	-0,156
89,597	103,222	-0,230	-0,189
90,611	-131,523	-0,151	-0,014
91,626	-37,048	-0,262	-0,098
92,641	37,525	-0,343	-0,213
93,655	-73,946	-0,257	-0,065
94,670	89,624	-0,231	-0,181
95,684	23,102	-0,327	-0,188
96,699	29,496	-0,230	-0,137
97,714	15,821	-0,316	-0,174
98,728	9,528	-0,352	-0,186
99,743	31,116	-0,183	-0,110
100,757	75,461	-0,206	-0,152
101,772	-2,767	-0,276	-0,135
102,787	72,805	-0,344	-0,252
103,801	7,098	-0,318	-0,166
104,816	-11,973	-0,267	-0,122
105,830	12,798	-0,365	-0,197
106,845	189,457	-0,200	-0,211
107,860	110,991	-0,181	-0,153
108,874	186,417	-0,210	-0,219
109,889	-15,451	-0,340	-0,152
110,903	111,586	-0,279	-0,236
111,918	404,573	-0,235	-0,347
112,933	95,736	-0,219	-0,175
113,947	-47,304	-0,298	-0,101
114,962	-13,148	-0,236	-0,107
115,976	-11,560	-0,364	-0,167
116,991	-71,620	-0,203	-0,053
118,006	65,972	-0,251	-0,178
119,020	-45,921	-0,291	-0,100
120,035	40,278	-0,224	-0,141
121,049	90,307	-0,252	-0,198
122,064	-19,517	-0,219	-0,095
123,079	82,000	-0,291	-0,220
124,093	164,490	-0,192	-0,190
125,108	48,423	-0,204	-0,134
126,122	-83,580	-0,222	-0,049
127,137	-19,233	-0,183	-0,079
128,151	-6,118	-0,225	-0,107
129,166	21,333	-0,138	-0,078
130,181	-65,206	-0,282	-0,079
131,195	44,794	-0,238	-0,153
132,210	-17,276	-0,378	-0,166
133,224	0,067	-0,133	-0,066
134,239	71,763	-0,287	-0,208
135,254	65,939	-0,258	-0,183
136,268	54,924	-0,215	-0,145
137,283	148,867	-0,151	-0,143
138,297	-93,586	-0,364	-0,070
139,312	32,555	-0,346	-0,209
140,327	399,032	-0,214	-0,315
141,341	107,287	-0,223	-0,185
142,356	325,553	-0,164	-0,220
143,370	37,798	-0,231	-0,143
144,385	139,159	-0,166	-0,153
145,400	45,829	-0,233	-0,150
146,414	614,120	-0,163	-0,287
147,429	17,282	-0,293	-0,162
148,443	-153,465	-0,289	-0,014
149,458	-14,810	-0,212	-0,095
150,473	486,306	-0,186	-0,297
151,487	83,986	-0,172	-0,131
152,502	-23,795	-0,246	-0,102
153,516	124,607	-0,155	-0,136
154,531	217,935	-0,158	-0,176
155,546	302,877	-0,191	-0,248
156,560	158,769	-0,116	-0,113
157,575	-163,383	-0,279	-0,009
158,589	-114,950	-0,115	-0,015
159,604	-139,332	-0,255	-0,019
160,619	57,231	-0,312	-0,212
161,633	-57,022	-0,380	-0,116
162,648	9,349	-0,255	-0,134
163,662	47,206	-0,230	-0,149
164,677	333,838	-0,125	-0,169
165,692	6,392	-0,319	-0,165
166,706	-67,718	-0,206	-0,056
167,721	-33,111	-0,270	-0,104
168,735	-21,981	-0,294	-0,124
169,750	-19,798	-0,238	-0,102
170,764	125,464	-0,165	-0,145
171,779	18,343	-0,185	-0,103
172,794	94,704	-0,208	-0,165
173,808	334,786	-0,189	-0,255
174,823	-75,990	-0,256	-0,063
175,837	-25,400	-0,241	-0,099
176,852	-25,030	-0,313	-0,129
177,867	77,267	-0,145	-0,107
178,881	291,459	-0,202	-0,257
179,896	-18,825	-0,307	-0,133
180,910	270,513	-0,173	-0,212
181,925	14,611	-0,128	-0,070
182,940	29,054	-0,306	-0,181
183,954	-83,385	-0,183	-0,040
184,969	59,335	-0,175	-0,120
185,983	-13,817	-0,281	-0,126
186,998	290,690	-0,163	-0,207
188,013	57,094	-0,233	-0,158
189,027	800,000	-0,115	-0,232
190,042	136,958	-0,224	-0,203
191,056	144,895	-0,288	-0,268
192,071	-166,533	-0,184	-0,005
193,086	294,581	-0,127	-0,162
194,100	-83,695	-0,233	-0,051
195,115	-27,490	-0,277	-0,111
196,129	164,216	-0,302	-0,297
197,144	94,165	-0,234	-0,185
198,159	380,423	-0,124	-0,178
199,173	84,898	-0,262	-0,200
200,188	147,469	-0,173	-0,162
201,202	124,847	-0,200	-0,175
202,217	-70,674	-0,280	-0,073
203,232	80,353	-0,244	-0,183
204,246	17,145	-0,193	-0,106
205,261	800,000	-0,068	-0,181
206,275	111,027	-0,193	-0,161
207,290	108,546	-0,111	-0,092
208,304	60,907	-0,132	-0,091
209,319	800,000	-0,126	-0,282
210,334	-101,034	-0,224	-0,038
211,348	97,711	-0,216	-0,172
212,363	128,142	-0,203	-0,180
213,377	8,623	-0,210	-0,110
214,392	1,115	-0,234	-0,116
215,407	94,869	-0,208	-0,164
216,421	100,936	-0,108	-0,087
217,436	106,472	-0,106	-0,087
218,450	-24,144	-0,207	-0,086
219,465	-4,726	-0,351	-0,168
220,480	-3,008	-0,230	-0,111
221,494	-24,777	-0,235	0,096
222,509	-114,378	-0,090	0,012
223,523	-121,729	-0,198	-0,022
224,538	-65,161	-0,235	-0,065
225,553	53,463	-0,096	-0,064
226,567	539,588	-0,155	-0,257
227,582	113,793	-0,260	-0,219
228,596	134,405	-0,148	-0,134
229,611	88,142	-0,192	-0,148
230,626	-26,302	-0,315	-0,128
231,640	800,000	-0,094	-0,203
232,655	296,146	-0,210	-0,268
233,669	144,548	-0,126	-0,117
234,684	223,798	-0,104	-0,117
235,699	53,231	-0,094	-0,063
236,713	-62,819	-0,245	-0,070
237,728	523,839	-0,093	-0,153
238,742	98,699	-0,160	-0,128
239,757	142,258	-0,133	-0,122
240,772	126,736	-0,143	-0,126
241,786	649,756	-0,110	-0,197
242,801	282,430	-0,214	-0,266
243,815	109,623	-0,189	-0,157
244,830	481,990	-0,144	-0,227
245,844	-76,016	-0,051	-0,012
246,859	-135,818	-0,145	-0,012
247,874	293,398	-0,159	-0,202
248,888	72,748	-0,277	-0,200
249,903	-125,581	-0,205	0,021
250,917	435,409	0,040	-0,060
251,932	-101,996	-0,228	-0,038
252,947	509,104	-0,137	-0,221
253,961	11,370	-0,220	-0,116
254,976	-59,808	-0,097	0,028
255,990	-64,687	-0,180	-0,050
257,005	-135,573	-0,227	-0,018
258,020	93,872	-0,139	-0,109
259,034	-91,898	-0,119	-0,023
260,049	87,308	-0,240	-0,184
261,063	800,000	-0,064	-0,180
262,078	-120,115	-0,276	-0,032
263,093	-84,370	-0,194	-0,042
264,107	-118,019	-0,185	-0,023
265,122	-132,351	-0,097	-0,009
266,136	23,300	-0,210	-0,119
267,151	-1,852	-0,178	-0,086
268,166	108,667	-0,129	-0,106
269,180	55,669	-0,186	-0,124
270,195	17,427	-0,307	-0,168
271,209	-24,409	-0,137	-0,056
272,224	-142,897	-0,117	-0,008
273,239	800,000	-0,120	-0,274
274,253	-47,881	-0,239	-0,080
275,268	-7,319	-0,175	-0,081
276,282	30,850	-0,219	-0,129
277,297	-1,194	-0,152	-0,074
278,312	-200,000	-0,045	-0,151
279,326	94,551	-0,130	-0,102
280,341	422,140	-0,108	-0,161
281,355	145,035	-0,150	-0,138
282,370	-171,920	-0,224	0,005
283,384	80,402	-0,214	-0,159
284,399	23,008	-0,310	-0,175
285,414	-200,000	-0,041	-0,127
286,428	-28,982	-0,101	-0,040
287,443	-16,566	-0,194	-0,085
288,457	-200,000	-0,008	-0,043
289,472	248,358	-0,092	-0,107
290,487	621,303	-0,096	-0,167
291,501	186,984	-0,195	-0,201
292,516	800,000	-0,062	-0,119
293,530	584,984	-0,085	-0,144
294,545	35,980	-0,140	-0,085
295,560	-174,042	-0,095	-0,002
296,574	-200,000	-0,028	-0,137
297,589	207,419	-0,175	-0,188
298,603	24,833	-0,265	-0,151
299,618	153,695	-0,133	-0,125
300,633	26,356	-0,066	-0,038
301,647	-200,000	0,005	-0,032
302,662	69,826	-0,140	-0,099
303,676	800,000	-0,058	-0,127
304,691	37,120	-0,162	-0,099
305,706	-68,751	-0,195	-0,052
306,720	-79,365	-0,274	-0,063
307,735	355,869	-0,214	-0,294
308,749	91,947	-0,187	-0,145
309,764	800,000	-0,066	-0,144
310,779	-102,219	-0,106	0,017
311,793	800,000	-0,041	0,111
312,808	101,575	-0,146	-0,117
313,822	462,438	-0,102	-0,158
314,837	-92,106	-0,199	-0,038
315,852	10,817	-0,294	-0,154
316,866	9,292	-0,182	-0,095
317,881	800,000	-0,117	-0,239
318,895	129,513	-0,073	-0,064
319,910	213,557	-0,097	-0,106
320,925	-200,000	-0,016	-0,164
321,939	800,000	-0,097	-0,195
322,954	240,692	-0,106	-0,122
323,968	-56,724	-0,198	-0,060
324,983	800,000	-0,087	-0,169
325,997	-142,742	-0,048	0,003
327,012	-200,000	-0,092	-0,278
328,027	-64,444	-0,307	-0,085
329,041	411,469	-0,140	-0,205
330,056	614,455	-0,059	-0,102
331,070	-200,000	-0,007	-0,069
332,085	42,701	-0,118	-0,074
333,100	311,944	-0,125	-0,161
334,114	40,888	-0,218	-0,135
335,129	253,753	-0,169	-0,198
336,143	-200,000	0,048	-0,157
337,158	661,913	-0,107	-0,190
338,173	99,289	-0,180	-0,143
339,187	-95,235	-0,110	-0,020
340,202	-118,047	-0,079	-0,010
341,216	800,000	-0,098	-0,249
342,231	463,077	-0,157	-0,242
343,246	800,000	-0,068	-0,198
344,260	300,916	-0,067	-0,085
345,275	800,000	-0,051	-0,105
346,289	37,836	-0,182	-0,111
347,304	-53,139	-0,025	0,008
348,319	-13,476	-0,235	-0,104
349,333	46,374	-0,246	-0,156
350,348	209,341	-0,143	-0,154
351,362	94,631	-0,218	-0,170
352,377	287,047	-0,085	-0,106
353,392	-142,097	-0,089	-0,006
354,406	7,414	-0,183	-0,093
355,421	208,064	1317,810	1414,483
356,435	160,078	1478,938	1414,996
