DTS Sentinel unit serial number:	SN410029Multiplexer serial number:	ORYXHardware model number:	OX2-SRSoftware version number:	ORYX F/W v4,00 Oryx Data Collector v3.7.2.0data status	okinstallation	B3 Nyhavnadifferential loss correction	single-endedforward channel	channel 1reverse channel	N/Adate	2023/12/04time	10:47:30forward acquisition time	300,00reverse acquisition time	0,00gamma	499,1914k internal	0,3202k external	0,3202temperature offset calibration	1,0000default loss term (dB/km)	0,3820temperature slope calibration	1,0000multiplexer offset coefficient	1,0000multiplexer slope coefficient	1,0000fibre end	0,00T internal ref (°C)	13,69T ext. ref 1 (°C)	-0,60T ext. ref 2 (°C)	-0,62length (m)	temperature (°C)	Stokes	anti-Stokes-744,400	246,386	-0,102	-0,125
-743,385	-200,000	-0,011	0,323
-742,371	27,794	-0,175	-0,107
-741,356	-200,000	0,010	0,294
-740,342	-33,014	-0,235	-0,094
-739,327	-200,000	-0,027	0,187
-738,312	169,159	-0,254	-0,264
-737,298	-200,000	0,025	0,304
-736,283	30,025	-0,260	-0,161
-735,269	800,000	-0,143	0,300
-734,254	85,701	-0,238	-0,190
-733,239	-12,677	-0,253	0,119
-732,225	-200,000	0,012	-0,223
-731,210	141,078	0,092	0,088
-730,196	202,380	0,025	-0,028
-729,181	-59,945	-0,046	0,014
-728,167	-57,481	0,060	0,019
-727,152	-166,366	-0,092	-0,003
-726,137	-200,000	-0,001	-0,076
-725,123	-200,000	0,003	-0,090
-724,108	51,384	-0,107	-0,074
-723,094	-51,159	-0,070	-0,024
-722,079	-12,368	-0,113	-0,053
-721,064	-200,000	-0,029	0,099
-720,050	103,551	-0,113	-0,097
-719,035	-124,988	0,152	0,017
-718,021	520,232	-0,067	-0,114
-717,006	-200,000	-0,015	-0,226
-715,991	-200,000	-0,024	-0,078
-714,977	302,138	-0,081	-0,109
-713,962	-200,000	-0,001	-0,017
-712,948	24,382	0,115	-0,069
-711,933	-200,000	0,012	-0,076
-710,918	-200,000	0,020	0,102
-709,904	800,000	0,049	-0,129
-708,889	175,960	-0,118	-0,125
-707,875	237,796	-0,100	-0,120
-706,860	289,611	0,059	-0,078
-705,845	-200,000	-0,005	0,021
-704,831	504,805	-0,085	0,143
-703,816	-0,078	-0,038	0,019
-702,802	800,000	-0,018	-0,057
-701,787	98,955	-0,065	-0,055
-700,772	800,000	-0,073	-0,155
-699,758	800,000	-0,022	-0,057
-698,743	187,748	0,033	-0,036
-697,729	301,027	0,063	-0,085
-696,714	-150,825	-0,035	-0,002
-695,699	743,129	0,032	0,062
-694,685	-200,000	0,022	-0,071
-693,670	11,720	-0,123	0,068
-692,656	620,473	0,044	-0,080
-691,641	48,292	-0,044	0,030
-690,627	-200,000	0,000	0,037
-689,612	-200,000	-0,005	-0,017
-688,597	-21,537	-0,065	-0,029
-687,583	120,225	0,080	-0,072
-686,568	305,812	-0,048	-0,065
-685,554	-200,000	0,012	-0,061
-684,539	229,856	0,069	-0,082
-683,524	275,281	-0,060	0,077
-682,510	-4,665	0,023	0,011
-681,495	393,475	0,013	-0,020
-680,481	598,846	-0,079	-0,143
-679,466	-40,418	-0,111	-0,042
-678,451	446,346	-0,033	-0,053
-677,437	-184,446	-0,115	0,001
-676,422	-200,000	0,012	0,117
-675,408	-87,123	0,078	0,017
-674,393	-200,000	0,011	-0,067
-673,378	50,730	-0,033	-0,023
-672,364	142,363	-0,084	-0,081
-671,349	-9,598	-0,069	-0,033
-670,335	800,000	-0,031	-0,092
-669,320	-200,000	0,008	-0,124
-668,305	78,703	-0,077	0,059
-667,291	337,037	0,033	0,046
-666,276	-33,076	-0,195	-0,078
-665,262	783,799	-0,078	-0,156
-664,247	317,345	0,059	0,081
-663,232	-36,340	0,036	0,014
-662,218	-200,000	-0,012	-0,052
-661,203	800,000	0,022	-0,063
-660,189	-10,400	-0,199	0,095
-659,174	42,514	-0,009	0,006
-658,159	-147,023	-0,101	0,006
-657,145	-142,420	0,080	0,006
-656,130	179,179	0,069	-0,074
-655,116	125,485	0,065	0,060
-654,101	227,334	0,008	0,010
-653,086	155,713	0,101	-0,101
-652,072	58,239	-0,075	0,053
-651,057	800,000	0,037	-0,089
-650,043	-89,753	-0,106	-0,022
-649,028	-70,017	-0,073	0,020
-648,014	2,113	-0,054	-0,028
-646,999	-200,000	0,002	0,060
-645,984	101,704	0,036	0,030
-644,970	12,887	-0,076	-0,043
-643,955	-26,559	-0,113	-0,048
-642,941	-18,910	-0,159	-0,071
-641,926	800,000	-0,024	0,076
-640,911	251,907	-0,035	0,044
-639,897	350,704	0,060	-0,086
-638,882	800,000	0,032	0,067
-637,868	564,895	0,032	0,057
-636,853	800,000	-0,027	-0,084
-635,838	-200,000	-0,017	-0,136
-634,824	-38,937	0,107	0,041
-633,809	57,916	0,066	-0,047
-632,795	-23,654	0,111	0,048
-631,780	-200,000	0,007	0,119
-630,765	377,002	-0,081	0,119
-629,751	-200,000	-0,006	0,087
-628,736	800,000	-0,036	-0,110
-627,722	-137,578	-0,244	-0,020
-626,707	103,205	-0,077	0,066
-625,692	111,280	-0,059	-0,052
-624,678	384,692	0,018	0,027
-623,663	-200,000	-0,019	-0,104
-622,649	-176,766	-0,142	-0,003
-621,634	800,000	-0,029	-0,081
-620,619	-200,000	0,002	-0,011
-619,605	800,000	-0,082	-0,168
-618,590	800,000	0,026	0,073
-617,576	-200,000	0,025	0,272
-616,561	-31,336	0,068	-0,028
-615,546	-102,086	-0,076	0,013
-614,532	-200,000	-0,010	0,036
-613,517	384,621	0,021	-0,031
-612,503	-200,000	0,010	0,086
-611,488	-150,402	-0,066	-0,004
-610,474	601,329	0,035	-0,063
-609,459	-16,190	-0,069	0,031
-608,444	-159,016	0,065	0,003
-607,430	-200,000	0,003	0,013
-606,415	800,000	0,006	-0,018
-605,401	70,791	0,071	-0,053
-604,386	337,863	0,038	-0,053
-603,371	-0,429	-0,074	0,038
-602,357	382,514	0,102	0,153
-601,342	513,464	-0,066	0,112
-600,328	800,000	-0,027	-0,083
-599,313	800,000	-0,023	-0,063
-598,298	247,459	-0,082	-0,101
-597,284	-58,671	0,067	0,021
-596,269	178,448	-0,134	0,142
-595,255	-192,515	0,076	-0,000
-594,240	178,374	-0,068	-0,072
-593,225	-200,000	-0,005	-0,138
-592,211	-133,784	0,088	0,008
-591,196	540,084	0,037	0,064
-590,182	-24,556	0,070	0,030
-589,167	-200,000	-0,036	0,129
-588,152	-120,991	0,032	0,004
-587,138	-200,000	0,003	-0,142
-586,123	-200,000	0,020	-0,187
-585,109	-200,000	0,024	-0,121
-584,094	-200,000	-0,027	-0,166
-583,079	163,912	0,031	0,031
-582,065	-33,432	0,284	0,113
-581,050	-200,000	-0,002	-0,067
-580,036	242,572	-0,044	0,053
-579,021	290,704	0,071	-0,094
-578,006	800,000	-0,058	-0,158
-576,992	-101,244	-0,044	0,008
-575,977	192,917	-0,096	-0,105
-574,963	-126,262	0,097	0,010
-573,948	175,084	-0,116	0,121
-572,934	36,293	-0,072	0,046
-571,919	135,947	-0,053	0,050
-570,904	-85,662	-0,153	-0,034
-569,890	10,145	-0,087	0,048
-568,875	223,134	0,069	0,080
-567,861	-81,561	0,059	-0,014
-566,846	627,242	-0,059	0,109
-565,831	-200,000	-0,016	0,080
-564,817	800,000	-0,041	-0,100
-563,802	800,000	-0,044	-0,111
-562,788	-200,000	-0,017	-0,091
-561,773	-38,531	0,114	-0,043
-560,758	800,000	0,010	-0,025
-559,744	-200,000	-0,009	-0,032
-558,729	-43,819	-0,132	0,048
-557,715	571,478	0,039	0,069
-556,700	-135,198	0,037	0,003
-555,685	442,377	0,067	0,106
-554,671	-200,000	0,004	-0,018
-553,656	800,000	0,027	0,064
-552,642	-94,910	0,039	-0,008
-551,627	229,941	0,008	-0,010
-550,612	-66,665	-0,082	0,023
-549,598	-152,191	-0,041	-0,002
-548,583	12,782	-0,036	-0,020
-547,569	-200,000	0,001	0,021
-546,554	-0,434	0,118	0,061
-545,539	58,318	0,128	0,090
-544,525	-2,034	0,130	0,066
-543,510	103,845	-0,122	0,103
-542,496	-8,370	-0,081	0,039
-541,481	-2,315	-0,071	-0,036
-540,466	800,000	0,047	0,110
-539,452	-200,000	0,024	0,149
-538,437	800,000	0,056	0,119
-537,423	643,860	0,068	0,125
-536,408	691,559	-0,024	0,046
-535,393	26,245	-0,130	-0,078
-534,379	800,000	0,032	-0,091
-533,364	214,572	-0,043	-0,049
-532,350	574,627	0,068	-0,119
-531,335	-51,645	0,084	-0,028
-530,321	-133,843	-0,120	-0,011
-529,306	455,479	0,054	-0,087
-528,291	94,850	0,056	-0,046
-527,277	141,844	0,024	0,023
-526,262	800,000	0,011	-0,026
-525,248	166,336	-0,043	-0,044
-524,233	800,000	0,048	0,130
-523,218	-200,000	-0,011	0,161
-522,204	234,676	0,052	-0,062
-521,189	101,712	-0,104	-0,087
-520,175	-46,527	-0,020	-0,007
-519,160	71,276	0,128	-0,095
-518,145	10,927	0,075	-0,041
-517,131	530,677	0,047	0,080
-516,116	-180,203	-0,062	0,001
-515,102	-200,000	0,004	0,170
-514,087	-9,286	-0,062	-0,030
-513,072	-90,354	0,066	0,014
-512,058	171,235	0,041	0,042
-511,043	-2,704	0,110	0,055
-510,029	-200,000	0,010	0,140
-509,014	-200,000	-0,007	-0,035
-507,999	712,694	0,019	0,035
-506,985	-200,000	-0,026	-0,133
-505,970	800,000	-0,023	-0,059
-504,956	-112,020	0,118	-0,017
-503,941	-30,834	0,075	-0,030
-502,926	-145,613	-0,023	0,001
-501,912	-43,992	0,060	-0,022
-500,897	453,880	-0,020	0,031
-499,883	306,263	0,012	-0,016
-498,868	800,000	-0,072	-0,186
-497,853	198,111	0,053	-0,058
-496,839	-200,000	-0,021	0,081
-495,824	205,358	0,090	0,101
-494,810	800,000	-0,005	0,010
-493,795	-200,000	-0,023	0,147
-492,781	183,229	-0,074	0,079
-491,766	-52,414	-0,206	0,068
-490,751	-200,000	-0,021	-0,179
-489,737	-200,000	0,025	-0,092
-488,722	124,105	-0,078	0,070
-487,708	-71,274	0,047	0,013
-486,693	800,000	0,027	0,068
-485,678	12,823	-0,044	0,024
-484,664	778,574	0,024	-0,048
-483,649	61,296	-0,068	-0,049
-482,635	-114,079	-0,133	-0,018
-481,620	4,971	0,104	-0,055
-480,605	16,199	-0,146	0,083
-479,591	-149,917	0,097	-0,005
-478,576	-200,000	0,002	0,066
-477,562	-12,962	-0,075	0,035
-476,547	245,244	-0,052	-0,063
-475,532	11,016	0,117	0,064
-474,518	-200,000	0,007	-0,039
-473,503	615,013	0,021	0,037
-472,489	-154,340	0,040	-0,002
-471,474	52,733	-0,027	0,019
-470,459	800,000	-0,080	-0,165
-469,445	-200,000	0,012	-0,138
-468,430	-127,305	0,020	0,002
-467,416	-200,000	-0,009	-0,046
-466,401	64,653	0,126	0,092
-465,386	800,000	-0,033	0,069
-464,372	800,000	-0,068	0,169
-463,357	800,000	0,034	0,068
-462,343	800,000	0,014	0,042
-461,328	-200,000	-0,008	-0,078
-460,313	800,000	-0,024	0,054
-459,299	-200,000	-0,004	0,119
-458,284	60,930	0,125	-0,089
-457,270	-94,590	0,071	0,014
-456,255	-24,035	-0,201	-0,086
-455,241	-200,000	0,027	0,096
-454,226	800,000	-0,043	0,096
-453,211	88,570	0,056	0,044
-452,197	800,000	-0,082	-0,166
-451,182	65,079	-0,043	0,031
-450,168	-200,000	-0,005	-0,075
-449,153	147,826	0,052	-0,050
-448,138	800,000	-0,028	0,073
-447,124	-31,379	-0,162	-0,065
-446,109	-200,000	-0,004	0,078
-445,095	-200,000	-0,029	0,117
-444,080	296,246	0,074	0,098
-443,065	77,250	0,060	-0,046
-442,051	-74,500	0,096	-0,025
-441,036	-117,542	-0,045	-0,006
-440,022	-200,000	-0,035	-0,154
-439,007	-113,269	-0,092	0,013
-437,992	-200,000	0,010	0,094
-436,978	211,503	0,123	0,140
-435,963	-134,679	-0,038	0,003
-434,949	228,360	0,074	-0,086
-433,934	13,485	-0,033	-0,019
-432,919	-117,317	-0,031	-0,004
-431,905	212,404	-0,013	0,015
-430,890	612,171	0,055	-0,100
-429,876	59,293	-0,113	0,080
-428,861	126,150	0,024	-0,022
-427,846	89,586	0,048	0,038
-426,832	-200,000	0,007	-0,071
-425,817	-200,000	0,023	-0,152
-424,803	-200,000	-0,002	-0,152
-423,788	159,188	-0,087	0,087
-422,773	-200,000	-0,017	-0,123
-421,759	-200,000	-0,020	0,096
-420,744	-200,000	0,013	0,122
-419,730	-200,000	-0,003	0,055
-418,715	592,280	-0,045	-0,079
-417,701	-200,000	-0,026	-0,100
-416,686	140,466	0,091	0,086
-415,671	-105,654	0,064	-0,010
-414,657	-200,000	-0,033	0,110
-413,642	52,152	0,027	-0,018
-412,628	-200,000	-0,022	-0,181
-411,613	800,000	-0,038	-0,119
-410,598	508,225	0,037	-0,062
-409,584	-200,000	-0,007	0,084
-408,569	-200,000	0,022	0,111
-407,555	800,000	-0,010	-0,022
-406,540	-200,000	0,023	-0,177
-405,525	225,931	-0,031	-0,036
-404,511	191,111	0,059	-0,064
-403,496	110,822	-0,066	0,057
-402,482	98,065	0,093	0,077
-401,467	800,000	-0,036	0,089
-400,452	-0,449	0,019	-0,010
-399,438	-200,000	-0,014	0,132
-398,423	121,003	-0,077	-0,069
-397,409	-116,065	-0,100	-0,013
-396,394	198,733	0,124	-0,136
-395,379	-79,613	-0,068	0,016
-394,365	800,000	-0,019	0,039
-393,350	68,189	-0,036	-0,027
-392,336	553,000	0,019	-0,033
-391,321	-157,198	0,171	-0,007
-390,306	118,271	-0,080	0,070
-389,292	246,323	-0,048	-0,059
-388,277	-36,034	0,031	-0,012
-387,263	-200,000	0,008	0,109
-386,248	-91,330	0,038	0,008
-385,233	-12,709	-0,053	-0,024
-384,219	35,495	-0,050	0,032
-383,204	606,682	-0,085	-0,152
-382,190	16,071	-0,149	0,084
-381,175	-200,000	-0,004	-0,014
-380,160	800,000	0,054	-0,156
-379,146	5,369	0,168	0,089
-378,131	415,288	0,033	0,051
-377,117	-61,622	0,120	-0,036
-376,102	800,000	0,045	-0,121
-375,088	530,486	-0,049	-0,083
-374,073	60,466	0,031	0,022
-373,058	-62,639	-0,101	0,030
-372,044	-32,995	0,238	-0,094
-371,029	800,000	-0,021	-0,063
-370,015	9,906	-0,081	0,044
-369,000	22,266	0,110	0,064
-367,985	-174,945	-0,123	0,002
-366,971	800,000	-0,024	0,068
-365,956	-200,000	0,003	0,119
-364,942	82,614	0,153	0,119
-363,927	-200,000	0,018	0,129
-362,912	-148,240	-0,105	-0,006
-361,898	508,490	0,048	-0,080
-360,883	-12,092	0,133	-0,062
-359,869	800,000	0,070	-0,181
-358,854	167,725	0,058	0,059
-357,839	28,729	0,031	0,019
-356,825	-200,000	-0,004	0,074
-355,810	-200,000	0,000	0,019
-354,796	-53,001	0,053	-0,017
-353,781	-115,589	-0,065	0,009
-352,766	800,000	-0,051	-0,153
-351,752	-40,658	0,032	0,012
-350,737	-9,480	-0,064	-0,031
-349,723	13,827	0,141	0,078
-348,708	172,124	0,150	-0,154
-347,693	800,000	-0,075	-0,185
-346,679	-80,637	-0,026	-0,006
-345,664	261,335	0,047	0,058
-344,650	30,638	0,062	0,038
-343,635	263,909	-0,027	0,033
-342,620	524,442	0,047	-0,080
-341,606	381,218	0,015	0,022
-340,591	97,135	-0,048	-0,039
-339,577	-48,990	-0,170	-0,058
-338,562	-25,647	-0,132	-0,055
-337,548	123,771	-0,113	0,101
-336,533	59,542	0,082	0,058
-335,518	-4,525	-0,120	-0,059
-334,504	0,614	0,035	0,018
-333,489	800,000	-0,030	-0,085
-332,475	800,000	-0,042	0,088
-331,460	-200,000	0,021	-0,172
-330,445	-25,603	0,114	0,048
-329,431	-196,899	-0,153	0,001
-328,416	-6,221	0,131	0,064
-327,402	790,454	-0,069	0,136
-326,387	554,663	0,044	0,075
-325,372	-140,288	0,059	0,004
-324,358	-4,331	0,143	-0,071
-323,343	-200,000	0,033	-0,165
-322,329	-166,580	0,094	0,003
-321,314	27,553	-0,100	0,060
-320,299	-200,000	0,007	0,113
-319,285	248,584	0,018	-0,022
-318,270	-200,000	0,002	0,076
-317,256	-200,000	0,005	-0,100
-316,241	-43,836	-0,119	-0,043
-315,226	-140,368	0,083	-0,006
-314,212	131,454	-0,110	-0,101
-313,197	-200,000	0,023	0,078
-312,183	800,000	-0,020	0,054
-311,168	-200,000	0,011	-0,129
-310,153	209,021	-0,180	-0,201
-309,139	-7,378	0,032	0,015
-308,124	-79,440	-0,087	0,021
-307,110	-200,000	-0,030	0,132
-306,095	-200,000	0,043	0,174
-305,080	23,652	-0,074	0,043
-304,066	235,288	0,084	-0,099
-303,051	252,554	0,046	0,056
-302,037	320,736	-0,071	0,096
-301,022	26,595	-0,037	0,022
-300,008	69,628	0,129	-0,095
-298,993	136,737	0,044	0,041
-297,978	85,631	0,041	0,033
-296,964	800,000	-0,052	0,147
-295,949	800,000	0,013	0,033
-294,935	-43,520	-0,087	0,031
-293,920	-200,000	0,004	-0,016
-292,905	800,000	-0,041	0,093
-291,891	375,658	-0,080	0,116
-290,876	-90,918	0,051	0,010
-289,862	-200,000	0,001	0,017
-288,847	9,631	-0,092	-0,050
-287,832	-102,688	-0,132	-0,022
-286,818	162,003	-0,085	-0,085
-285,803	708,627	0,003	-0,006
-284,789	25,562	0,112	-0,066
-283,774	101,501	-0,063	0,053
-282,759	-68,683	-0,004	0,001
-281,745	125,223	0,074	-0,067
-280,730	-19,828	0,079	0,035
-279,716	-200,000	-0,023	-0,131
-278,701	342,723	0,088	0,124
-277,686	156,627	-0,086	0,085
-276,672	204,706	-0,050	0,056
-275,657	107,593	-0,016	-0,014
-274,643	-53,394	-0,135	-0,044
-273,628	-200,000	0,018	0,070
-272,613	-200,000	0,011	-0,069
-271,599	-200,000	0,046	-0,163
-270,584	106,159	0,018	-0,015
-269,570	-200,000	0,000	0,149
-268,555	75,782	0,105	0,079
-267,540	-200,000	0,028	-0,109
-266,526	184,508	-0,120	0,127
-265,511	-48,183	0,044	-0,015
-264,497	-101,773	0,142	0,024
-263,482	800,000	0,025	0,065
-262,467	-200,000	0,006	0,079
-261,453	28,414	0,222	0,133
-260,438	339,737	-0,083	-0,116
-259,424	-33,671	-0,057	0,022
-258,409	-200,000	0,002	-0,022
-257,395	-85,402	-0,012	0,003
-256,380	-200,000	0,012	0,055
-255,365	-95,450	0,081	-0,015
-254,351	-167,355	0,091	-0,003
-253,336	44,944	-0,080	-0,053
-252,322	-200,000	0,032	-0,151
-251,307	204,328	-0,024	-0,027
-250,292	208,402	0,041	-0,046
-249,278	-112,726	0,120	-0,017
-248,263	-140,071	0,039	0,003
-247,249	-185,460	0,079	-0,001
-246,234	23,024	-0,131	-0,076
-245,219	800,000	-0,059	-0,153
-244,205	133,437	-0,036	0,034
-243,190	-142,871	-0,121	0,008
-242,176	98,551	-0,015	-0,012
-241,161	-162,722	0,086	0,003
-240,146	374,073	0,035	-0,051
-239,132	-102,486	-0,109	-0,018
-238,117	20,128	0,121	-0,069
-237,103	800,000	-0,031	-0,063
-236,088	95,700	0,036	-0,029
-235,073	524,560	-0,087	-0,146
-234,059	522,291	0,051	0,085
-233,044	-100,940	0,064	0,011
-232,030	79,726	-0,098	0,075
-231,015	84,110	0,152	-0,118
-230,000	800,000	-0,037	-0,110
-228,986	-200,000	0,017	0,100
-227,971	58,243	0,033	-0,023
-226,957	-200,000	0,015	-0,069
-225,942	800,000	0,081	-0,166
-224,927	-200,000	0,027	-0,132
-223,913	-142,576	-0,031	-0,002
-222,898	-66,602	-0,056	-0,016
-221,884	800,000	-0,020	0,059
-220,869	800,000	0,020	0,046
-219,855	59,043	0,100	0,070
-218,840	56,578	-0,125	0,087
-217,825	-150,670	-0,086	0,005
-216,811	8,284	0,125	-0,066
-215,796	-130,946	-0,138	0,013
-214,782	800,000	0,036	0,077
-213,767	-176,028	-0,056	-0,001
-212,752	-200,000	0,022	-0,069
-211,738	47,890	0,005	0,004
-210,723	-200,000	0,030	0,154
-209,709	786,522	-0,011	-0,021
-208,694	-200,000	-0,004	0,048
-207,679	326,675	0,058	-0,080
-206,665	-200,000	-0,008	0,033
-205,650	800,000	-0,068	0,135
-204,636	-62,914	0,079	0,023
-203,621	-200,000	0,008	0,116
-202,606	86,046	0,067	0,052
-201,592	-200,000	-0,023	0,149
-200,577	800,000	0,013	-0,041
-199,563	800,000	-0,047	-0,098
-198,548	23,929	0,052	-0,031
-197,533	-200,000	0,060	0,197
-196,519	-200,000	0,003	0,113
-195,504	1,030	-0,078	-0,039
-194,490	-125,409	-0,103	-0,011
-193,475	464,685	-0,074	-0,118
-192,460	229,169	-0,074	-0,086
-191,446	-200,000	-0,006	-0,069
-190,431	-63,214	-0,175	0,051
-189,417	-61,081	0,109	-0,032
-188,402	-200,000	-0,031	-0,174
-187,387	51,144	-0,101	0,068
-186,373	-200,000	-0,031	-0,104
-185,358	-200,000	0,005	-0,059
-184,344	-200,000	0,001	-0,023
-183,329	368,573	-0,054	0,077
-182,315	800,000	0,018	-0,042
-181,300	258,581	-0,099	-0,122
-180,285	800,000	-0,042	-0,095
-179,271	800,000	-0,057	-0,127
-178,256	286,695	-0,083	0,107
-177,242	629,114	0,056	0,101
-176,227	219,081	0,076	-0,087
-175,212	800,000	-0,048	0,107
-174,198	2,359	0,163	0,084
-173,183	-200,000	-0,008	-0,052
-172,169	78,896	0,071	-0,054
-171,154	-68,791	0,122	-0,033
-170,139	-173,277	0,063	0,001
-169,125	800,000	0,024	0,050
-168,110	-200,000	0,002	0,051
-167,096	800,000	0,034	-0,103
-166,081	-30,887	0,052	0,021
-165,066	800,000	-0,064	0,129
-164,052	194,916	0,063	-0,068
-163,037	349,690	0,146	0,206
-162,023	800,000	0,014	-0,029
-161,008	-135,554	0,148	-0,012
-159,993	-200,000	-0,007	0,054
-158,979	-200,000	-0,017	0,231
-157,964	713,869	-0,017	-0,033
-156,950	-40,404	0,080	-0,029
-155,935	440,951	-0,024	-0,038
-154,920	1,791	0,030	-0,015
-153,906	223,209	0,050	-0,057
-152,891	-62,337	0,041	-0,012
-151,877	-30,456	0,052	0,021
-150,862	-200,000	0,009	-0,028
-149,847	-200,000	0,034	-0,157
-148,833	-52,301	-0,112	0,037
-147,818	-116,881	-0,203	0,026
-146,804	73,081	-0,039	0,029
-145,789	-83,094	0,149	-0,034
-144,775	-20,232	-0,118	0,051
-143,760	-0,558	0,058	-0,029
-142,745	291,772	0,025	-0,032
-141,731	166,820	0,064	-0,064
-140,716	69,370	-0,031	0,023
-139,702	-55,240	0,053	-0,017
-138,687	170,667	-0,084	-0,085
-137,672	800,000	-0,028	-0,073
-136,658	140,218	0,024	-0,022
-135,643	67,919	-0,075	0,055
-134,629	800,000	0,008	-0,022
-133,614	500,383	0,087	0,142
-132,599	-0,355	-0,160	0,080
-131,585	-200,000	-0,004	0,024
-130,570	323,899	-0,051	-0,069
-129,556	800,000	-0,068	-0,161
-128,541	12,644	-0,032	0,017
-127,526	800,000	0,037	-0,076
-126,512	800,000	0,010	-0,023
-125,497	-85,564	0,102	-0,022
-124,483	-48,627	0,058	-0,020
-123,468	-200,000	0,012	-0,089
-122,453	800,000	0,058	-0,124
-121,439	324,819	-0,054	-0,073
-120,424	87,408	-0,092	-0,072
-119,410	-200,000	0,021	-0,077
-118,395	187,238	-0,060	-0,064
-117,380	15,732	0,025	-0,014
-116,366	67,033	0,079	-0,057
-115,351	800,000	0,033	0,076
-114,337	323,457	-0,136	-0,184
-113,322	231,017	-0,049	-0,057
-112,307	-200,000	0,020	-0,139
-111,293	158,808	0,063	-0,062
-110,278	-151,024	0,145	0,008
-109,264	-200,000	0,027	-0,144
-108,249	263,075	-0,051	-0,063
-107,234	-200,000	-0,012	-0,203
-106,220	193,115	-0,066	-0,071
-105,205	75,901	0,116	-0,087
-104,191	199,857	-0,077	0,084
-103,176	800,000	-0,034	0,073
-102,162	104,663	-0,181	-0,152
-101,147	800,000	-0,036	0,079
-100,132	-200,000	0,043	-0,138
-99,118	11,233	0,015	0,008
-98,103	-200,000	0,006	-0,027
-97,089	59,122	0,114	0,079
-96,074	800,000	0,038	0,077
-95,059	-200,000	-0,012	0,068
-94,045	-103,336	-0,126	-0,021
-93,030	-9,447	-0,172	0,081
-92,016	490,084	-0,051	-0,083
-91,001	-200,000	-0,025	0,106
-89,986	26,598	0,086	-0,051
-88,972	-22,397	0,126	0,054
-87,957	-30,811	-0,061	-0,024
-86,943	313,934	-0,076	-0,101
-85,928	800,000	-0,068	-0,148
-84,913	-38,488	0,149	0,055
-83,899	-200,000	-0,001	0,191
-82,884	151,855	0,041	0,039
-81,870	87,287	0,076	-0,059
-80,855	-200,000	0,009	-0,120
-79,840	171,345	0,100	0,102
-78,826	242,062	-0,042	0,050
-77,811	800,000	-0,033	0,098
-76,797	10,793	0,096	-0,052
-75,782	-200,000	0,009	-0,047
-74,767	-168,968	0,024	-0,001
-73,753	578,103	-0,025	0,044
-72,738	-51,664	-0,080	0,026
-71,724	-200,000	0,002	0,037
-70,709	-110,352	0,034	-0,005
-69,694	-176,171	-0,098	-0,002
-68,680	-73,313	-0,083	-0,021
-67,665	-117,417	0,094	0,012
-66,651	344,095	-0,075	0,105
-65,636	800,000	-0,023	0,068
-64,622	352,732	-0,065	-0,091
-63,607	741,163	-0,060	-0,115
-62,592	-200,000	-0,023	-0,095
-61,578	-184,256	0,081	-0,001
-60,563	-70,607	0,103	0,027
-59,549	84,930	-0,096	0,075
-58,534	-21,168	-1,600	-0,689
-57,519	443,163	-1,342	-2,089
-56,505	-200,000	-0,513	-4,613
-55,490	209,737	1,185	1,317
-54,476	800,000	4,796	10,929
-53,461	-200,000	18,900	313,574
-52,446	-200,000	739,004	2324,341
-51,432	575,561	1654,566	2870,481
-50,417	78,964	1670,724	1264,448
-49,403	21,680	1543,322	886,763
-48,388	15,530	1465,942	812,430
-47,373	17,746	1455,809	817,480
-46,359	16,715	1445,928	806,959
-45,344	13,767	1441,363	790,273
-44,330	13,721	1439,447	788,969
-43,315	13,722	1437,555	787,906
-42,300	13,772	1436,020	787,270
-41,286	13,756	1434,751	786,468
-40,271	13,759	1433,386	785,702
-39,257	13,726	1432,388	784,969
-38,242	13,773	1430,937	784,365
-37,227	13,830	1429,663	783,906
-36,213	13,767	1428,651	783,024
-35,198	13,819	1427,231	782,459
-34,184	13,832	1426,406	782,040
-33,169	13,739	1425,129	780,865
-32,154	13,773	1424,066	780,414
-31,140	13,789	1422,632	779,674
-30,125	13,843	1421,711	779,390
-29,111	13,826	1420,478	778,605
-28,096	13,830	1419,229	777,908
-27,082	13,731	1418,308	776,903
-26,067	13,707	1417,088	776,091
-25,052	13,727	1415,841	775,475
-24,038	13,706	1414,943	774,851
-23,023	13,650	1414,033	774,059
-22,009	13,713	1413,247	773,896
-20,994	13,663	1412,340	773,133
-19,979	13,654	1411,517	772,610
-18,965	13,649	1410,326	771,903
-17,950	13,622	1409,448	771,264
-16,936	13,653	1408,412	770,813
-15,921	13,600	1407,552	770,064
-14,906	13,609	1406,452	769,473
-13,892	13,660	1405,421	769,116
-12,877	13,619	1404,663	768,481
-11,863	13,631	1403,752	768,009
-10,848	13,662	1402,823	767,612
-9,833	13,580	1401,974	766,737
-8,819	13,540	1401,319	766,161
-7,804	13,499	1400,342	765,406
-6,790	13,524	1399,106	764,819
-5,775	13,565	1398,058	764,406
-4,760	13,523	1397,218	763,722
-3,746	13,579	1396,260	763,427
-2,731	13,523	1395,395	762,664
-1,717	13,520	1394,785	762,287
-0,702	13,505	1392,839	761,123
0,313	17,281	1310,527	733,650
1,327	33,526	704,838	432,151
2,342	51,605	123,528	82,913
3,356	1,725	16,669	8,464
4,371	8,378	3,180	1,686
5,386	-57,483	0,623	0,192
6,400	-200,000	0,024	0,110
7,415	30,683	-0,210	-0,127
8,429	36,773	-0,272	-0,170
9,444	248,388	-0,309	-0,371
10,459	48,599	-0,445	-0,295
11,473	17,559	-0,335	-0,188
12,488	121,282	-0,293	-0,258
13,502	-23,845	-0,351	-0,148
14,517	60,625	-0,319	-0,223
15,531	103,906	-0,381	-0,316
16,546	-94,736	-0,348	-0,066
17,561	220,281	-0,299	-0,339
18,575	143,135	-0,256	-0,241
19,590	124,264	-0,227	-0,202
20,604	84,184	-0,196	-0,151
21,619	381,748	-0,299	-0,435
22,634	155,129	-0,237	-0,230
23,648	85,244	-0,417	-0,323
24,663	251,686	-0,307	-0,370
25,677	40,338	-0,336	-0,213
26,692	76,322	-0,310	-0,232
27,707	27,645	-0,300	-0,178
28,721	33,107	-0,424	-0,259
29,736	240,038	-0,318	-0,374
30,750	-2,006	-0,396	-0,196
31,765	83,416	-0,386	-0,297
32,780	76,126	-0,315	-0,235
33,794	222,669	-0,304	-0,345
34,809	110,195	-0,367	-0,311
35,823	-15,269	-0,349	-0,157
36,838	109,969	-0,400	-0,338
37,853	18,672	-0,345	-0,194
38,867	-37,840	-0,355	-0,132
39,882	119,129	-0,269	-0,235
40,896	102,317	-0,301	-0,248
41,911	163,324	-0,383	-0,380
42,926	199,946	-0,240	-0,260
43,940	117,675	-0,408	-0,353
44,955	71,443	-0,446	-0,326
45,969	70,543	-0,383	-0,279
46,984	456,209	-0,118	-0,185
47,999	73,461	-0,328	-0,242
49,013	76,520	-0,182	-0,135
50,028	39,687	-0,326	-0,206
51,042	37,863	-0,418	-0,261
52,057	96,411	-0,348	-0,280
53,071	128,846	-0,345	-0,310
54,086	111,773	-0,297	-0,252
55,101	0,515	-0,329	-0,165
56,115	115,605	-0,387	-0,333
57,130	85,892	-0,387	-0,300
58,144	-22,199	-0,465	-0,198
59,159	127,424	-0,300	-0,268
60,174	80,556	-0,394	-0,299
61,188	44,158	-0,291	-0,187
62,203	72,476	-0,267	-0,196
63,217	35,010	-0,392	-0,241
64,232	209,922	-0,300	-0,332
65,247	76,936	-0,318	-0,237
66,261	84,479	-0,406	-0,312
67,276	210,637	-0,298	-0,330
68,290	69,564	-0,349	-0,252
69,305	204,652	-0,233	-0,254
70,320	30,566	-0,239	-0,143
71,334	-35,398	-0,377	-0,143
72,349	100,216	-0,299	-0,244
73,363	80,764	-0,284	-0,215
74,378	78,458	-0,321	-0,241
75,393	71,145	-0,193	-0,140
76,407	11,079	-0,171	-0,092
77,422	80,462	-0,326	-0,247
78,436	-2,468	-0,394	-0,193
79,451	186,734	-0,188	-0,197
80,466	-43,850	-0,481	-0,169
81,480	111,605	-0,342	-0,290
82,495	-79,584	-0,357	-0,084
83,509	222,288	-0,161	-0,182
84,524	-23,810	-0,289	-0,121
85,539	-128,776	-0,239	-0,023
86,553	76,671	-0,219	-0,163
87,568	229,991	-0,258	-0,296
88,582	42,788	-0,226	-0,144
89,597	14,697	-0,282	-0,154
90,611	-0,576	-0,259	-0,128
91,626	187,380	-0,184	-0,193
92,641	58,738	-0,250	-0,172
93,655	165,495	-0,320	-0,317
94,670	-12,599	-0,349	-0,159
95,684	184,199	-0,181	-0,188
96,699	195,414	-0,271	-0,289
97,714	44,355	-0,389	-0,250
98,728	-5,516	-0,377	-0,181
99,743	7,035	-0,351	-0,183
100,757	-4,482	-0,356	-0,172
101,772	70,479	-0,327	-0,237
102,787	71,643	-0,263	-0,191
103,801	-43,837	-0,383	-0,135
104,816	-0,084	-0,189	-0,094
105,830	240,917	-0,184	-0,216
106,845	45,643	-0,272	-0,176
107,860	84,385	-0,241	-0,185
108,874	-3,481	-0,353	-0,172
109,889	129,994	-0,225	-0,202
110,903	36,456	-0,271	-0,167
111,918	84,817	-0,185	-0,142
112,933	148,494	-0,238	-0,225
113,947	183,228	-0,195	-0,202
114,962	-91,299	-0,244	-0,048
115,976	116,568	-0,285	-0,244
116,991	348,876	-0,208	-0,289
118,006	6,259	-0,327	-0,169
119,020	231,611	-0,242	-0,278
120,035	15,353	-0,157	-0,086
121,049	500,750	-0,184	-0,298
122,064	-13,129	-0,247	-0,112
123,079	145,713	-0,228	-0,213
124,093	218,804	-0,288	-0,322
125,108	-6,835	-0,386	-0,183
126,122	87,039	-0,261	-0,202
127,137	-15,801	-0,325	-0,144
128,151	800,000	-0,085	-0,174
129,166	20,292	-0,313	-0,177
130,181	112,052	-0,260	-0,219
131,195	98,941	-0,290	-0,234
132,210	67,708	-0,349	-0,249
133,224	-39,296	-0,256	-0,093
134,239	57,349	-0,331	-0,226
135,254	800,000	-0,119	-0,269
136,268	-19,565	-0,165	-0,071
137,283	111,762	-0,265	-0,223
138,297	50,862	-0,273	-0,181
139,312	567,677	-0,175	-0,297
140,327	99,746	-0,285	-0,230
141,341	195,240	-0,277	-0,294
142,356	56,644	-0,207	-0,141
143,370	6,201	-0,297	-0,153
144,385	307,047	-0,113	-0,148
145,400	46,645	-0,348	-0,225
146,414	67,643	-0,326	-0,232
147,429	46,364	-0,309	-0,200
148,443	99,336	-0,172	-0,139
149,458	266,608	-0,186	-0,228
150,473	69,588	-0,195	-0,140
151,487	-93,097	-0,341	-0,066
152,502	-88,901	-0,337	-0,069
153,516	38,785	-0,330	-0,205
154,531	455,476	-0,148	-0,229
155,546	-17,830	-0,228	-0,099
156,560	48,864	-0,247	-0,161
157,575	30,978	-0,284	-0,170
158,589	141,109	-0,232	-0,214
159,604	48,495	-0,254	-0,166
160,619	-23,517	-0,221	-0,092
161,633	44,935	-0,315	-0,202
162,648	109,128	-0,238	-0,198
163,662	367,050	-0,192	-0,270
164,677	61,759	-0,218	-0,151
165,692	316,650	-0,191	-0,252
166,706	-9,976	-0,379	-0,175
167,721	122,357	-0,291	-0,253
168,735	102,126	-0,317	-0,258
169,750	69,870	-0,278	-0,199
170,764	-22,828	-0,173	-0,072
171,779	110,165	-0,208	-0,174
172,794	623,860	-0,138	-0,243
173,808	97,377	-0,224	-0,179
174,823	374,582	-0,132	-0,188
175,837	-40,754	-0,224	-0,081
176,852	110,836	-0,176	-0,147
177,867	189,414	-0,176	-0,184
178,881	77,494	-0,234	-0,173
179,896	-122,677	-0,307	0,034
180,910	-78,201	-0,250	0,059
181,925	145,896	-0,292	-0,272
182,940	78,513	-0,274	-0,203
183,954	218,294	-0,177	-0,197
184,969	147,481	-0,191	-0,179
185,983	49,643	-0,200	-0,131
186,998	-38,760	-0,156	-0,057
188,013	-104,572	-0,232	-0,037
189,027	36,930	-0,245	-0,150
190,042	99,296	-0,278	-0,224
191,056	34,449	-0,298	-0,181
192,071	135,789	-0,222	-0,201
193,086	-99,701	-0,163	-0,028
194,100	121,406	-0,154	-0,134
195,115	193,895	-0,228	-0,241
196,129	14,812	-0,321	-0,174
197,144	-88,875	-0,243	0,050
198,159	153,060	-0,124	-0,118
199,173	-34,212	-0,246	-0,093
200,188	91,098	-0,204	-0,159
201,202	-68,988	-0,242	-0,064
202,217	-71,135	-0,259	-0,067
203,232	141,033	-0,222	-0,204
204,246	289,190	-0,184	-0,232
205,261	153,097	-0,198	-0,188
206,275	327,016	-0,099	-0,132
207,290	171,329	-0,202	-0,201
208,304	336,177	-0,117	-0,158
209,319	692,873	-0,085	-0,156
210,334	-8,866	-0,153	-0,071
211,348	269,476	-0,213	-0,260
212,363	-200,000	-0,059	-0,269
213,377	800,000	-0,107	-0,252
214,392	219,074	-0,129	-0,143
215,407	-63,220	-0,127	-0,036
216,421	-127,225	-0,115	-0,012
217,436	274,957	-0,158	-0,195
218,450	100,065	-0,197	-0,159
219,465	92,188	-0,284	-0,222
220,480	212,085	-0,199	-0,218
221,494	9,589	-0,219	-0,115
222,509	800,000	-0,080	-0,171
223,523	334,973	-0,148	-0,199
224,538	86,490	-0,214	-0,164
225,553	330,268	-0,151	-0,203
226,567	800,000	-0,048	-0,128
227,582	350,023	-0,178	-0,244
228,596	693,699	-0,159	-0,291
229,611	-134,910	-0,151	-0,012
230,626	19,766	-0,197	-0,109
231,640	188,487	-0,215	-0,223
232,655	99,529	-0,147	-0,118
233,669	800,000	-0,152	-0,314
234,684	527,168	-0,151	-0,247
235,699	103,929	-0,149	0,122
236,713	-18,713	-0,183	-0,079
237,728	245,808	-0,177	-0,207
238,742	274,372	-0,214	-0,263
239,757	521,439	-0,084	-0,137
240,772	154,080	-0,187	-0,178
241,786	110,329	-0,119	-0,099
242,801	197,041	-0,197	-0,209
243,815	800,000	-0,064	-0,149
244,830	667,233	-0,060	-0,108
245,844	25,320	-0,158	-0,091
246,859	202,191	-0,166	-0,177
247,874	-200,000	-0,039	-0,169
248,888	132,397	-0,153	-0,136
249,903	110,377	-0,175	-0,145
250,917	137,284	-0,145	-0,132
251,932	4,090	-0,205	-0,103
252,947	6,643	-0,133	-0,068
253,961	-200,000	-0,025	-0,109
254,976	55,243	-0,195	-0,130
255,990	59,500	-0,152	-0,103
257,005	44,764	-0,174	-0,110
258,020	-124,399	-0,202	-0,021
259,034	-101,339	-0,220	-0,037
260,049	-22,661	-0,176	-0,073
261,063	66,977	-0,246	-0,173
262,078	149,133	-0,161	-0,151
263,093	385,866	-0,129	-0,185
264,107	-52,965	-0,255	-0,081
265,122	800,000	-0,058	-0,125
266,136	284,445	-0,147	-0,183
267,151	-20,883	-0,115	-0,049
268,166	-78,760	-0,212	0,049
269,180	392,926	-0,134	-0,193
270,195	-126,313	-0,249	-0,025
271,209	-21,435	-0,221	-0,093
272,224	-108,286	-0,127	0,019
273,239	21,179	-0,190	-0,106
274,253	10,010	0,055	-0,029
275,268	274,609	-0,127	-0,156
276,282	-64,291	-0,225	-0,063
277,297	116,086	-0,172	-0,145
278,312	109,211	-0,247	-0,204
279,326	134,473	-0,147	-0,131
280,341	-34,329	-0,119	-0,045
281,355	800,000	-0,076	-0,153
282,370	-65,019	-0,138	-0,038
283,384	8,867	-0,220	-0,114
284,399	20,262	-0,228	-0,127
285,414	-128,239	-0,284	-0,028
286,428	-17,769	-0,160	-0,069
287,443	115,177	-0,134	-0,113
288,457	-46,976	-0,144	-0,048
289,472	-61,568	-0,186	0,054
290,487	147,654	-0,141	-0,131
291,501	80,208	-0,161	-0,119
292,516	128,841	-0,173	-0,152
293,530	389,536	-0,136	-0,195
294,545	302,674	-0,126	-0,162
295,560	279,191	-0,129	-0,158
296,574	234,030	-0,145	-0,165
297,589	-1,904	-0,160	-0,077
298,603	38,001	-0,222	-0,136
299,618	-49,663	-0,257	-0,084
300,633	461,245	-0,084	-0,129
301,647	-155,941	-0,192	-0,008
302,662	141,881	-0,150	-0,137
303,676	-200,000	-0,032	-0,244
304,691	-200,000	-0,036	-0,122
305,706	13,445	-0,308	-0,164
306,720	206,850	-0,050	0,054
307,735	800,000	-0,113	-0,223
308,749	322,638	-0,134	-0,176
309,764	-88,634	-0,226	-0,046
310,779	800,000	-0,078	-0,153
311,793	156,982	-0,140	-0,133
312,808	-53,339	-0,191	-0,060
313,822	4,994	-0,225	-0,114
314,837	136,551	-0,144	-0,129
315,852	279,576	-0,121	-0,149
316,866	149,420	-0,057	-0,053
317,881	506,113	-0,022	0,035
318,895	176,520	-0,194	-0,195
319,910	117,151	-0,157	-0,133
320,925	800,000	-0,083	-0,232
321,939	-63,341	-0,192	-0,054
322,954	-26,862	-0,191	0,076
323,968	87,628	-0,157	-0,120
324,983	800,000	-0,048	-0,121
325,997	355,881	-0,110	-0,151
327,012	-64,930	-0,183	-0,051
328,027	4,245	-0,188	-0,094
329,041	263,291	-0,130	-0,156
330,056	97,075	-0,150	-0,118
331,070	281,965	-0,026	-0,033
332,085	-200,000	-0,019	-0,177
333,100	-49,999	-0,191	-0,062
334,114	-200,000	0,043	-0,142
335,129	127,612	-0,248	-0,217
336,143	135,084	-0,177	-0,158
337,158	-10,545	-0,158	-0,072
338,173	-105,838	-0,064	0,010
339,187	120,926	-0,092	-0,078
340,202	800,000	-0,068	-0,161
341,216	37,418	0,061	-0,037
342,231	800,000	-0,113	-0,276
343,246	3,627	-0,256	-0,128
344,260	245,243	-0,141	-0,164
345,275	-43,384	-0,082	0,028
346,289	-142,191	-0,143	0,010
347,304	127,046	-0,182	-0,158
348,319	-200,000	-0,058	-0,176
349,333	358,532	-0,076	-0,104
350,348	800,000	-0,107	-0,246
351,362	198,440	-0,109	-0,115
352,377	230,728	-0,157	-0,177
353,392	-116,169	-0,167	0,021
354,406	-76,560	-0,168	-0,040
355,421	208,565	1317,822	1414,969
356,435	160,483	1478,923	1415,448
