DTS Sentinel unit serial number:	SN410029Multiplexer serial number:	ORYXHardware model number:	OX2-SRSoftware version number:	ORYX F/W v4,00 Oryx Data Collector v3.7.2.0data status	okinstallation	B3 Nyhavnadifferential loss correction	single-endedforward channel	channel 1reverse channel	N/Adate	2023/12/02time	06:22:30forward acquisition time	300,00reverse acquisition time	0,00gamma	499,1914k internal	0,3194k external	0,3194temperature offset calibration	1,0000default loss term (dB/km)	0,3820temperature slope calibration	1,0000multiplexer offset coefficient	1,0000multiplexer slope coefficient	1,0000fibre end	0,00T internal ref (°C)	16,00T ext. ref 1 (°C)	0,69T ext. ref 2 (°C)	0,68length (m)	temperature (°C)	Stokes	anti-Stokes-744,400	242,719	-0,254	-0,310
-743,385	-200,000	0,028	0,278
-742,371	-16,490	-0,172	-0,079
-741,356	-200,000	0,071	0,411
-740,342	178,903	-0,155	-0,165
-739,327	-200,000	0,012	0,311
-738,312	229,158	-0,303	-0,361
-737,298	800,000	-0,091	0,191
-736,283	800,000	-0,141	-0,330
-735,269	355,958	0,140	0,204
-734,254	335,247	-0,182	-0,258
-733,239	434,866	-0,147	0,234
-732,225	15,192	-0,138	-0,079
-731,210	141,146	0,222	0,214
-730,196	-200,000	0,014	-0,057
-729,181	-200,000	-0,033	-0,116
-728,167	800,000	-0,061	0,147
-727,152	-137,305	-0,048	-0,004
-726,137	-79,460	-0,123	0,030
-725,123	125,331	-0,091	0,084
-724,108	125,208	-0,105	-0,097
-723,094	239,514	0,019	-0,023
-722,079	654,144	-0,042	-0,079
-721,064	800,000	0,002	0,006
-720,050	-200,000	-0,035	0,117
-719,035	-123,548	0,072	-0,008
-718,021	3,738	-0,096	-0,051
-717,006	137,335	0,020	0,019
-715,991	800,000	-0,026	-0,082
-714,977	800,000	-0,019	-0,048
-713,962	-136,004	-0,103	-0,009
-712,948	-200,000	-0,029	0,108
-711,933	236,174	0,042	-0,050
-710,918	701,048	0,060	-0,116
-709,904	800,000	-0,025	-0,067
-708,889	297,730	-0,077	-0,103
-707,875	47,203	-0,111	-0,075
-706,860	800,000	-0,051	0,156
-705,845	800,000	0,015	0,033
-704,831	-200,000	0,003	0,098
-703,816	-156,153	0,145	-0,007
-702,802	167,368	-0,068	-0,070
-701,787	-200,000	0,005	-0,024
-700,772	-147,780	0,055	0,003
-699,758	59,652	0,048	-0,035
-698,743	800,000	0,014	-0,032
-697,729	17,818	0,088	0,051
-696,714	-114,711	-0,070	0,010
-695,699	-200,000	-0,018	-0,153
-694,685	800,000	-0,007	-0,015
-693,670	-42,114	-0,153	-0,057
-692,656	-167,872	0,118	-0,003
-691,641	571,595	0,039	0,070
-690,627	210,527	0,033	-0,037
-689,612	-92,545	-0,121	0,024
-688,597	-49,903	-0,065	-0,022
-687,583	-40,345	-0,017	0,006
-686,568	-197,573	0,065	-0,000
-685,554	-129,040	-0,104	-0,010
-684,539	-77,255	0,056	0,014
-683,524	-200,000	0,036	-0,149
-682,510	-36,007	-0,249	-0,098
-681,495	800,000	-0,019	-0,044
-680,481	-100,112	-0,044	-0,008
-679,466	-104,097	-0,093	-0,016
-678,451	346,283	0,113	-0,162
-677,437	125,345	0,054	-0,049
-676,422	-78,974	0,052	-0,013
-675,408	266,965	-0,073	0,094
-674,393	464,964	0,058	-0,095
-673,378	-62,632	-0,104	-0,031
-672,364	121,500	-0,087	0,078
-671,349	126,876	0,099	-0,091
-670,335	-9,724	-0,115	-0,056
-669,320	112,643	-0,011	0,009
-668,305	800,000	-0,040	-0,125
-667,291	-200,000	-0,012	0,067
-666,276	100,078	-0,168	-0,141
-665,262	145,749	-0,117	-0,114
-664,247	209,363	0,070	-0,080
-663,232	176,987	-0,024	0,026
-662,218	-200,000	0,034	0,114
-661,203	-108,456	0,053	0,008
-660,189	800,000	0,039	0,119
-659,174	800,000	-0,043	-0,101
-658,159	-200,000	-0,021	0,074
-657,145	-167,799	-0,102	-0,003
-656,130	-7,409	0,120	-0,059
-655,116	615,421	0,042	0,078
-654,101	800,000	0,021	-0,053
-653,086	-130,559	-0,070	-0,007
-652,072	-200,000	0,007	0,108
-651,057	282,141	0,071	-0,092
-650,043	238,831	0,084	-0,102
-649,028	-200,000	0,022	-0,079
-648,014	40,371	0,143	-0,093
-646,999	-177,576	0,052	0,001
-645,984	-72,686	-0,164	0,044
-644,970	-87,671	0,106	0,023
-643,955	195,556	0,036	-0,040
-642,941	-128,902	-0,119	0,012
-641,926	86,358	-0,125	-0,100
-640,911	121,240	0,100	0,090
-639,897	-113,745	-0,047	0,007
-638,882	-3,372	-0,087	-0,044
-637,868	174,232	-0,021	-0,022
-636,853	346,725	-0,106	-0,151
-635,838	-200,000	0,022	-0,117
-634,824	289,424	0,103	-0,136
-633,809	-176,665	-0,062	0,001
-632,795	-200,000	0,009	0,036
-631,780	800,000	0,048	0,139
-630,765	202,018	-0,092	-0,103
-629,751	800,000	0,059	-0,151
-628,736	-91,286	-0,066	-0,014
-627,722	-200,000	0,001	0,029
-626,707	-200,000	-0,025	-0,153
-625,692	457,313	-0,086	0,138
-624,678	-200,000	0,002	0,183
-623,663	-61,597	0,019	-0,006
-622,649	-200,000	-0,035	-0,125
-621,634	-102,318	0,181	-0,031
-620,619	-200,000	-0,023	-0,111
-619,605	800,000	0,015	0,039
-618,590	161,911	0,113	0,115
-617,576	800,000	0,017	-0,051
-616,561	620,911	-0,028	0,051
-615,546	11,457	-0,062	0,034
-614,532	800,000	0,028	-0,084
-613,517	-61,317	0,094	-0,029
-612,503	6,389	-0,073	-0,039
-611,488	-200,000	-0,004	-0,028
-610,474	-101,835	0,135	-0,023
-609,459	568,392	-0,014	-0,024
-608,444	-200,000	-0,010	-0,049
-607,430	419,346	0,055	-0,085
-606,415	-16,397	-0,098	0,045
-605,401	458,030	0,094	0,153
-604,386	-126,532	0,189	-0,020
-603,371	800,000	0,008	-0,021
-602,357	553,575	0,059	-0,104
-601,342	203,140	-0,125	-0,141
-600,328	-51,235	-0,069	0,023
-599,313	800,000	0,015	-0,031
-598,298	-200,000	0,000	-0,045
-597,284	-15,428	0,156	-0,072
-596,269	-67,505	-0,113	-0,032
-595,255	392,231	0,047	-0,071
-594,240	-59,997	0,042	0,013
-593,225	800,000	-0,020	-0,050
-592,211	17,974	-0,113	0,065
-591,196	143,696	0,082	0,079
-590,182	441,580	0,031	0,049
-589,167	-116,932	-0,073	0,010
-588,152	356,857	-0,074	0,107
-587,138	-23,701	-0,050	0,021
-586,123	39,389	0,113	-0,073
-585,109	-0,013	-0,035	-0,018
-584,094	26,352	0,062	-0,037
-583,079	96,325	-0,069	-0,057
-582,065	-119,686	0,098	0,012
-581,050	53,123	0,075	0,052
-580,036	-98,100	-0,116	-0,021
-579,021	297,937	0,006	-0,008
-578,006	-200,000	-0,020	-0,108
-576,992	260,266	-0,041	0,051
-575,977	-174,026	-0,060	-0,001
-574,963	-13,720	0,051	0,024
-573,948	9,913	-0,081	-0,044
-572,934	88,731	-0,062	0,050
-571,919	-99,704	-0,027	-0,005
-570,904	-200,000	-0,039	-0,147
-569,890	-136,970	-0,027	0,002
-568,875	800,000	0,046	0,128
-567,861	-39,772	0,117	0,044
-566,846	-124,780	-0,209	0,023
-565,831	394,311	0,012	-0,017
-564,817	-200,000	-0,027	-0,104
-563,802	164,471	-0,062	0,063
-562,788	-153,369	-0,051	-0,003
-561,773	168,116	-0,068	-0,070
-560,758	-71,272	-0,059	0,016
-559,744	-87,793	0,144	-0,031
-558,729	128,217	0,004	0,003
-557,715	257,364	0,135	-0,169
-556,700	-200,000	-0,003	-0,068
-555,685	80,526	0,020	-0,015
-554,671	-9,117	-0,093	-0,045
-553,656	-200,000	-0,006	0,034
-552,642	-200,000	0,010	-0,048
-551,627	65,534	0,026	0,019
-550,612	98,830	-0,097	-0,081
-549,598	56,869	-0,040	-0,028
-548,583	69,377	0,047	-0,035
-547,569	-200,000	-0,000	-0,046
-546,554	81,915	-0,131	0,102
-545,539	-200,000	0,007	-0,103
-544,525	8,858	0,039	-0,021
-543,510	246,594	-0,057	0,070
-542,496	11,840	-0,020	0,011
-541,481	273,953	-0,044	-0,057
-540,466	-156,437	-0,079	0,003
-539,452	-200,000	0,006	0,049
-538,437	-33,613	-0,147	-0,059
-537,423	24,884	0,102	-0,061
-536,408	-200,000	-0,002	-0,070
-535,393	-33,336	0,068	0,027
-534,379	-200,000	0,009	0,048
-533,364	-40,219	-0,212	0,079
-532,350	-200,000	-0,004	-0,050
-531,335	334,077	-0,045	-0,063
-530,321	800,000	0,073	0,147
-529,306	-96,027	0,116	0,022
-528,291	-200,000	0,017	-0,061
-527,277	476,937	-0,019	-0,031
-526,262	-200,000	0,006	-0,104
-525,248	193,569	0,111	0,121
-524,233	109,776	0,117	0,101
-523,218	-200,000	0,021	-0,145
-522,204	-200,000	-0,007	-0,112
-521,189	231,354	-0,070	0,083
-520,175	415,214	0,026	0,040
-519,160	-200,000	0,023	-0,112
-518,145	800,000	-0,016	0,033
-517,131	-33,568	-0,024	-0,010
-516,116	-54,766	0,022	-0,007
-515,102	124,902	-0,069	0,063
-514,087	-65,577	0,079	0,023
-513,072	-200,000	-0,011	-0,103
-512,058	-64,506	-0,192	0,056
-511,043	777,253	0,052	0,103
-510,029	237,386	0,098	-0,118
-509,014	-200,000	0,000	-0,136
-507,999	159,788	0,023	-0,023
-506,985	-136,630	-0,078	0,006
-505,970	800,000	0,039	-0,090
-504,956	6,651	-0,071	0,038
-503,941	-200,000	0,024	-0,115
-502,926	185,025	-0,130	-0,140
-501,912	221,158	0,107	0,124
-500,897	-200,000	0,030	0,115
-499,883	-24,930	-0,046	0,020
-498,868	-200,000	0,015	0,090
-497,853	165,617	-0,153	-0,156
-496,839	800,000	0,084	-0,195
-495,824	14,217	0,032	-0,018
-494,810	271,186	0,115	0,146
-493,795	-200,000	-0,014	-0,105
-492,781	-84,750	-0,092	-0,021
-491,766	-47,679	-0,203	-0,071
-490,751	-200,000	0,036	0,133
-489,737	-200,000	-0,004	-0,124
-488,722	-200,000	0,011	0,066
-487,708	108,051	0,025	0,021
-486,693	-19,699	-0,140	-0,062
-485,678	-171,310	-0,030	-0,001
-484,664	800,000	-0,026	0,066
-483,649	45,755	0,100	0,067
-482,635	178,195	-0,065	-0,068
-481,620	154,045	-0,046	-0,046
-480,605	225,351	-0,061	0,071
-479,591	260,710	-0,090	0,112
-478,576	-39,776	-0,051	-0,019
-477,562	454,822	-0,041	-0,066
-476,547	-10,249	-0,029	0,014
-475,532	617,876	-0,035	-0,064
-474,518	-200,000	-0,018	0,096
-473,503	-200,000	0,015	0,143
-472,489	61,618	-0,087	-0,062
-471,474	-35,004	-0,093	0,036
-470,459	644,567	0,056	0,103
-469,445	188,920	-0,017	-0,018
-468,430	133,992	-0,093	0,087
-467,416	33,413	-0,157	0,098
-466,401	232,132	0,050	0,060
-465,386	800,000	0,019	0,040
-464,372	-95,832	-0,123	0,023
-463,357	800,000	0,018	-0,055
-462,343	30,145	-0,013	0,008
-461,328	-200,000	0,013	-0,043
-460,313	-200,000	0,015	-0,052
-459,299	-200,000	0,005	-0,021
-458,284	210,842	0,114	0,130
-457,270	267,399	-0,028	-0,035
-456,255	194,023	0,053	0,058
-455,241	800,000	0,058	0,154
-454,226	-200,000	0,002	0,052
-453,211	-13,877	0,145	0,067
-452,197	800,000	0,057	0,162
-451,182	-200,000	-0,001	0,080
-450,168	-31,503	0,104	0,042
-449,153	16,288	-0,039	-0,022
-448,138	-14,749	-0,240	-0,111
-447,124	-98,384	-0,073	0,013
-446,109	-200,000	-0,003	-0,102
-445,095	-114,806	-0,108	0,015
-444,080	204,999	0,079	0,088
-443,065	-112,608	-0,146	-0,021
-442,051	800,000	-0,046	0,142
-441,036	-200,000	0,001	0,075
-440,022	-127,458	-0,133	0,014
-439,007	-200,000	0,040	-0,188
-437,992	47,086	0,094	-0,063
-436,978	-111,190	0,130	-0,019
-435,963	342,524	0,097	-0,137
-434,949	-200,000	-0,009	-0,073
-433,934	308,678	-0,076	0,103
-432,919	508,821	-0,045	-0,075
-431,905	-200,000	0,006	-0,065
-430,890	-200,000	0,014	0,096
-429,876	26,340	0,140	0,084
-428,861	-104,422	0,199	0,033
-427,846	187,546	0,018	0,019
-426,832	-200,000	-0,005	0,065
-425,817	485,911	-0,066	0,109
-424,803	-51,331	-0,103	0,034
-423,788	-46,625	0,090	-0,032
-422,773	-200,000	-0,016	0,167
-421,759	-193,990	-0,067	-0,000
-420,744	415,036	-0,031	0,048
-419,730	-162,882	0,055	-0,002
-418,715	-200,000	-0,017	-0,084
-417,701	105,709	0,016	0,013
-416,686	614,984	-0,026	0,047
-415,671	-200,000	-0,000	0,133
-414,657	329,867	0,081	0,112
-413,642	673,318	0,040	0,075
-412,628	-200,000	0,005	-0,028
-411,613	-79,812	-0,113	-0,027
-410,598	-141,814	0,029	0,002
-409,584	-119,390	-0,040	0,005
-408,569	-200,000	-0,012	0,107
-407,555	-200,000	0,015	-0,069
-406,540	800,000	0,071	-0,187
-405,525	-200,000	0,007	-0,050
-404,511	65,070	-0,101	-0,073
-403,496	354,628	-0,066	-0,094
-402,482	-78,422	0,129	0,031
-401,467	208,943	0,132	0,149
-400,452	447,985	0,072	-0,115
-399,438	800,000	-0,050	0,105
-398,423	-200,000	-0,010	-0,070
-397,409	140,168	-0,063	0,060
-396,394	186,948	-0,065	-0,070
-395,379	-119,799	0,079	-0,010
-394,365	-37,224	0,137	0,053
-393,350	108,597	-0,014	-0,012
-392,336	259,335	-0,066	-0,082
-391,321	-200,000	-0,038	-0,129
-390,306	-127,379	0,095	0,010
-389,292	-200,000	-0,015	0,052
-388,277	747,699	-0,042	-0,083
-387,263	493,120	-0,080	-0,132
-386,248	-145,218	0,178	-0,011
-385,233	800,000	-0,062	0,148
-384,219	-139,529	-0,108	-0,008
-383,204	-144,266	-0,219	-0,014
-382,190	800,000	0,041	0,091
-381,175	-73,373	0,072	0,019
-380,160	-200,000	0,022	0,075
-379,146	49,963	0,200	0,135
-378,131	84,469	-0,050	-0,039
-377,117	-200,000	-0,029	0,101
-376,102	517,201	0,043	-0,072
-375,088	-200,000	-0,026	-0,135
-374,073	-200,000	0,015	0,056
-373,058	-63,038	0,032	-0,009
-372,044	148,452	-0,042	0,041
-371,029	-62,417	0,059	-0,018
-370,015	-176,276	0,120	0,002
-369,000	-200,000	-0,055	-0,184
-367,985	-200,000	0,003	-0,146
-366,971	202,717	-0,059	0,065
-365,956	-55,273	0,083	0,027
-364,942	6,952	0,140	0,075
-363,927	110,823	0,057	0,049
-362,912	-137,733	-0,064	0,005
-361,898	125,824	-0,160	-0,145
-360,883	800,000	-0,069	-0,161
-359,869	-12,882	-0,215	-0,100
-358,854	-22,494	0,042	0,018
-357,839	12,744	-0,104	0,057
-356,825	319,526	-0,089	-0,121
-355,810	800,000	0,041	0,099
-354,796	-7,780	0,131	0,064
-353,781	157,747	0,057	-0,057
-352,766	800,000	0,017	-0,046
-351,752	156,699	-0,073	-0,072
-350,737	-200,000	0,012	0,069
-349,723	-79,631	-0,156	0,037
-348,708	-75,426	0,041	0,010
-347,693	-200,000	0,008	-0,068
-346,679	172,282	0,077	-0,080
-345,664	537,794	-0,037	0,064
-344,650	-47,599	-0,082	0,028
-343,635	-200,000	0,016	0,150
-342,620	-120,908	-0,132	0,016
-341,606	800,000	0,011	0,028
-340,591	-200,000	-0,006	0,039
-339,577	-200,000	0,026	-0,098
-338,562	-200,000	-0,008	0,031
-337,548	278,070	-0,056	-0,071
-336,533	800,000	0,005	-0,013
-335,518	57,177	0,192	0,134
-334,504	-61,283	-0,067	0,020
-333,489	608,867	-0,045	-0,081
-332,475	800,000	0,011	0,031
-331,460	-99,890	0,103	-0,018
-330,445	-124,107	-0,071	-0,008
-329,431	312,597	0,055	-0,074
-328,416	-76,664	0,149	0,037
-327,402	-200,000	0,002	0,075
-326,387	-200,000	0,010	0,033
-325,372	-200,000	0,014	-0,096
-324,358	-62,132	-0,129	0,038
-323,343	800,000	0,043	0,090
-322,329	740,532	0,047	0,090
-321,314	107,835	-0,111	0,095
-320,299	-200,000	-0,004	-0,040
-319,285	-200,000	0,012	-0,168
-318,270	744,177	-0,039	-0,076
-317,256	-113,506	0,055	0,008
-316,241	-200,000	0,020	-0,094
-315,226	-200,000	-0,009	-0,031
-314,212	800,000	-0,006	0,014
-313,197	184,396	0,024	0,026
-312,183	-0,524	0,060	0,031
-311,168	24,273	0,094	-0,056
-310,153	-200,000	0,016	0,068
-309,139	147,341	0,042	-0,041
-308,124	14,819	-0,147	-0,082
-307,110	-139,037	0,225	-0,017
-306,095	356,733	-0,032	-0,046
-305,080	800,000	0,016	0,035
-304,066	544,022	-0,013	0,022
-303,051	-46,348	0,098	-0,034
-302,037	-200,000	-0,003	-0,064
-301,022	-70,470	-0,048	0,013
-300,008	50,015	0,075	-0,051
-298,993	179,874	0,043	-0,046
-297,978	-105,240	0,129	-0,021
-296,964	158,727	-0,083	0,083
-295,949	-90,678	0,082	-0,017
-294,935	398,772	-0,033	-0,050
-293,920	338,607	0,048	-0,067
-292,905	800,000	0,029	-0,072
-291,891	255,291	0,132	0,162
-290,876	-14,591	-0,140	-0,064
-289,862	-60,389	0,096	-0,029
-288,847	-200,000	0,002	-0,036
-287,832	-110,453	-0,060	-0,009
-286,818	-8,580	-0,102	-0,049
-285,803	434,200	0,131	-0,205
-284,789	257,901	0,114	0,141
-283,774	-200,000	0,012	-0,067
-282,759	-55,137	0,164	0,053
-281,745	-156,618	-0,088	-0,004
-280,730	-200,000	-0,012	-0,041
-279,716	93,014	-0,060	-0,048
-278,701	-152,345	0,043	0,002
-277,686	220,736	0,120	0,139
-276,672	800,000	-0,063	0,161
-275,657	423,374	-0,034	0,053
-274,643	14,889	-0,195	0,109
-273,628	721,311	-0,017	-0,032
-272,613	667,459	-0,017	-0,031
-271,599	-56,897	0,170	0,053
-270,584	450,751	-0,041	0,065
-269,570	-200,000	-0,021	0,069
-268,555	694,335	0,017	-0,032
-267,540	-24,790	-0,222	-0,094
-266,526	228,190	-0,036	-0,042
-265,511	15,659	0,105	-0,059
-264,497	800,000	0,039	0,091
-263,482	-200,000	-0,031	0,106
-262,467	-75,171	0,118	0,030
-261,453	-23,773	-0,050	-0,021
-260,438	-200,000	0,024	0,131
-259,424	22,728	-0,160	0,093
-258,409	-21,685	-0,127	-0,055
-257,395	485,451	-0,115	0,189
-256,380	-42,078	0,099	-0,036
-255,365	473,273	0,038	0,062
-254,351	-122,959	-0,118	0,013
-253,336	-200,000	-0,003	-0,186
-252,322	37,689	-0,113	0,071
-251,307	-2,076	0,036	-0,018
-250,292	-200,000	0,027	0,097
-249,278	-200,000	-0,020	0,159
-248,263	-75,654	-0,021	-0,005
-247,249	131,946	0,123	-0,113
-246,234	-200,000	0,023	0,081
-245,219	140,389	-0,051	-0,048
-244,205	460,295	0,067	0,107
-243,190	-200,000	0,001	-0,051
-242,176	-200,000	0,017	-0,075
-241,161	-131,333	0,165	-0,015
-240,146	272,625	-0,042	-0,053
-239,132	257,249	0,096	0,118
-238,117	-23,986	-0,121	0,052
-237,103	8,863	0,037	0,020
-236,088	694,271	-0,025	-0,047
-235,073	66,592	0,063	-0,046
-234,059	-200,000	0,005	-0,077
-233,044	800,000	0,016	0,038
-232,030	-175,922	-0,114	-0,002
-231,015	-143,877	-0,058	0,004
-230,000	287,512	0,097	-0,126
-228,986	32,133	-0,135	-0,083
-227,971	-19,559	0,044	-0,019
-226,957	800,000	0,062	0,146
-225,942	800,000	0,009	-0,019
-224,927	682,822	-0,022	-0,040
-223,913	-131,314	-0,086	-0,008
-222,898	80,975	0,060	-0,046
-221,884	-200,000	-0,010	0,104
-220,869	800,000	-0,044	-0,090
-219,855	-200,000	-0,019	0,105
-218,840	800,000	0,021	0,061
-217,825	464,618	0,062	0,099
-216,811	-200,000	0,026	0,094
-215,796	238,278	-0,068	0,080
-214,782	121,434	-0,019	-0,017
-213,767	-79,188	0,055	0,013
-212,752	156,794	0,054	0,053
-211,738	-200,000	0,015	0,143
-210,723	74,022	-0,100	-0,075
-209,709	425,959	-0,021	-0,032
-208,694	408,513	-0,018	0,028
-207,679	377,623	0,024	-0,035
-206,665	-76,989	0,064	0,016
-205,650	549,971	0,079	0,136
-204,636	800,000	0,055	0,159
-203,621	-17,172	-0,057	-0,026
-202,606	486,394	-0,133	-0,217
-201,592	-58,186	-0,110	0,034
-200,577	-200,000	-0,023	0,089
-199,563	75,942	-0,048	0,036
-198,548	92,661	-0,054	0,044
-197,533	240,121	0,135	0,160
-196,519	-200,000	-0,014	-0,086
-195,504	-52,332	-0,072	0,024
-194,490	-74,673	-0,077	0,020
-193,475	334,571	0,163	-0,226
-192,460	3,132	-0,122	0,063
-191,446	-200,000	0,035	0,112
-190,431	368,287	0,065	-0,093
-189,417	-200,000	0,002	-0,017
-188,402	-24,346	-0,052	-0,022
-187,387	-98,108	0,085	0,015
-186,373	120,918	-0,020	-0,017
-185,358	182,901	0,025	0,026
-184,344	-200,000	-0,014	0,137
-183,329	-200,000	-0,021	0,131
-182,315	164,818	0,072	-0,073
-181,300	-200,000	-0,002	0,059
-180,285	-200,000	-0,006	0,026
-179,271	32,558	-0,034	0,021
-178,256	800,000	0,018	0,052
-177,242	800,000	-0,023	0,062
-176,227	49,385	0,030	0,020
-175,212	-113,196	0,102	0,014
-174,198	336,864	0,028	-0,039
-173,183	-200,000	0,026	-0,166
-172,169	800,000	-0,037	-0,080
-171,154	226,885	0,056	0,065
-170,139	-196,500	0,037	-0,000
-169,125	-200,000	-0,012	0,046
-168,110	14,676	0,075	0,042
-167,096	177,472	-0,035	0,036
-166,081	-86,273	-0,076	0,016
-165,066	163,385	0,049	0,049
-164,052	-76,685	0,082	0,020
-163,037	108,158	0,105	0,089
-162,023	-99,910	0,094	0,017
-161,008	52,894	0,012	-0,008
-159,993	-94,372	0,164	0,032
-158,979	800,000	0,043	0,106
-157,964	-200,000	-0,001	-0,062
-156,950	93,509	0,114	-0,092
-155,935	-200,000	-0,010	-0,038
-154,920	134,144	0,077	0,071
-153,906	-164,741	0,095	-0,003
-152,891	-200,000	-0,039	-0,142
-151,877	607,676	-0,024	-0,043
-150,862	-200,000	-0,031	0,102
-149,847	-18,142	-0,058	-0,026
-148,833	688,017	-0,048	-0,089
-147,818	602,506	-0,039	0,069
-146,804	-90,792	0,029	0,006
-145,789	-200,000	0,017	0,117
-144,775	151,848	0,018	0,017
-143,760	391,522	-0,042	0,062
-142,745	280,011	-0,064	0,082
-141,731	557,346	-0,047	0,081
-140,716	-16,831	0,124	0,055
-139,702	-25,318	-0,092	0,039
-138,687	-32,632	0,091	0,036
-137,672	-200,000	-0,003	-0,020
-136,658	-200,000	0,029	-0,105
-135,643	-200,000	0,006	0,052
-134,629	-200,000	-0,012	-0,052
-133,614	84,038	0,092	0,071
-132,599	12,458	0,031	-0,017
-131,585	563,868	0,096	0,165
-130,570	800,000	-0,050	-0,121
-129,556	62,690	-0,019	-0,014
-128,541	280,084	-0,075	-0,096
-127,526	385,372	-0,063	-0,092
-126,512	-200,000	0,007	-0,114
-125,497	367,868	-0,040	-0,058
-124,483	-165,588	-0,059	-0,002
-123,468	-20,767	-0,094	-0,041
-122,453	-34,403	-0,072	0,028
-121,439	-200,000	-0,021	0,073
-120,424	-25,577	0,029	0,012
-119,410	350,376	0,015	-0,021
-118,395	-76,938	0,134	0,033
-117,380	222,788	0,035	0,040
-116,366	-200,000	0,022	0,115
-115,351	603,584	0,055	-0,097
-114,337	800,000	-0,064	-0,145
-113,322	800,000	-0,020	-0,043
-112,307	15,067	0,143	0,079
-111,293	108,731	-0,018	-0,015
-110,278	262,916	-0,014	0,017
-109,264	116,757	-0,052	0,046
-108,249	611,503	0,084	-0,151
-107,234	-200,000	-0,005	-0,143
-106,220	800,000	0,021	-0,047
-105,205	-76,224	-0,198	0,049
-104,191	-6,804	0,050	-0,024
-103,176	618,629	0,043	-0,077
-102,162	615,825	-0,073	-0,130
-101,147	-133,031	-0,132	-0,012
-100,132	-30,510	0,033	0,013
-99,118	532,991	0,033	-0,055
-98,103	800,000	0,023	-0,055
-97,089	-200,000	-0,015	-0,097
-96,074	-200,000	-0,016	0,113
-95,059	800,000	0,018	0,047
-94,045	-95,320	-0,159	0,030
-93,030	638,400	-0,035	0,063
-92,016	94,032	-0,102	0,083
-91,001	-200,000	0,005	-0,154
-89,986	-64,616	0,034	0,010
-88,972	58,808	0,052	0,036
-87,957	-121,021	-0,115	0,014
-86,943	-200,000	-0,015	-0,074
-85,928	800,000	0,017	0,049
-84,913	-200,000	0,045	-0,154
-83,899	-24,747	0,112	-0,047
-82,884	-5,478	-0,131	0,064
-81,870	800,000	0,034	0,104
-80,855	-138,109	0,183	-0,014
-79,840	-200,000	-0,022	-0,115
-78,826	522,326	0,024	0,040
-77,811	327,482	0,110	0,151
-76,797	18,009	-0,159	0,090
-75,782	-200,000	0,019	0,081
-74,767	-74,587	-0,067	-0,017
-73,753	158,621	0,045	-0,044
-72,738	153,592	-0,084	0,082
-71,724	-94,516	0,037	0,007
-70,709	24,267	-0,070	-0,041
-69,694	519,250	0,025	-0,042
-68,680	11,956	0,155	0,084
-67,665	-200,000	-0,013	0,039
-66,651	-6,039	0,089	0,043
-65,636	70,360	0,082	0,060
-64,622	-120,815	0,068	-0,008
-63,607	800,000	0,050	-0,124
-62,592	41,935	0,084	-0,054
-61,578	53,912	-0,044	0,030
-60,563	-200,000	0,025	0,134
-59,549	-58,067	-0,029	0,009
-58,534	-86,177	-1,405	-0,305
-57,519	439,478	-1,455	-2,263
-56,505	-200,000	-0,434	-4,438
-55,490	104,630	0,990	0,828
-54,476	800,000	4,788	11,303
-53,461	-200,000	17,632	282,054
-52,446	800,000	720,492	2226,798
-51,432	564,374	1635,103	2822,037
-50,417	81,098	1658,521	1269,359
-49,403	23,868	1532,715	894,107
-48,388	17,867	1455,910	820,337
-47,373	18,333	1445,505	816,679
-46,359	17,922	1436,237	809,455
-45,344	16,168	1431,535	798,427
-44,330	16,061	1429,588	796,801
-43,315	16,052	1427,873	795,771
-42,300	16,047	1426,468	794,933
-41,286	16,133	1425,076	794,532
-40,271	16,111	1423,603	793,574
-39,257	16,077	1422,372	792,694
-38,242	16,148	1421,138	792,310
-37,227	16,097	1419,998	791,404
-36,213	16,093	1418,779	790,675
-35,198	16,051	1417,606	789,794
-34,184	16,120	1416,536	789,491
-33,169	16,039	1415,232	788,347
-32,154	16,150	1414,126	788,226
-31,140	16,112	1412,806	787,278
-30,125	16,152	1411,691	786,815
-29,111	16,145	1410,632	786,161
-28,096	16,067	1409,502	785,133
-27,082	16,079	1408,447	784,573
-26,067	16,016	1407,328	783,621
-25,052	16,065	1406,149	783,163
-24,038	16,022	1405,422	782,524
-23,023	16,041	1404,174	781,888
-22,009	16,029	1403,223	781,274
-20,994	15,959	1402,457	780,490
-19,979	16,011	1401,397	780,109
-18,965	15,963	1400,436	779,321
-17,950	15,963	1399,476	778,756
-16,936	15,940	1398,524	778,087
-15,921	15,932	1397,246	777,306
-14,906	15,911	1396,404	776,712
-13,892	15,950	1395,482	776,350
-12,877	15,918	1394,642	775,704
-11,863	15,962	1393,607	775,303
-10,848	15,911	1392,843	774,606
-9,833	15,877	1391,762	773,820
-8,819	15,866	1390,852	773,233
-7,804	15,849	1390,008	772,651
-6,790	15,805	1388,980	771,849
-5,775	15,832	1387,766	771,266
-4,760	15,870	1386,933	770,948
-3,746	15,808	1386,346	770,305
-2,731	15,796	1385,477	769,736
-1,717	15,811	1384,520	769,246
-0,702	15,770	1382,682	768,005
0,313	19,565	1303,334	741,449
1,327	36,087	706,291	440,091
2,342	55,915	125,097	85,903
3,356	4,022	16,520	8,538
4,371	4,467	3,110	1,612
5,386	12,710	0,457	0,249
6,400	-200,000	-0,041	0,137
7,415	195,955	-0,228	-0,246
8,429	88,399	-0,401	-0,316
9,444	86,575	-0,215	-0,168
10,459	13,606	-0,343	-0,188
11,473	64,323	-0,371	-0,264
12,488	190,571	-0,266	-0,284
13,502	10,548	-0,399	-0,215
14,517	-24,759	-0,386	-0,162
15,531	57,092	-0,349	-0,241
16,546	47,410	-0,338	-0,223
17,561	137,348	-0,385	-0,357
18,575	101,380	-0,289	-0,238
19,590	74,786	-0,272	-0,203
20,604	-51,256	-0,294	-0,097
21,619	78,695	-0,382	-0,289
22,634	85,953	-0,396	-0,308
23,648	44,010	-0,434	-0,281
24,663	7,935	-0,401	-0,212
25,677	-46,915	-0,426	-0,147
26,692	210,935	-0,269	-0,300
27,707	137,941	-0,235	-0,218
28,721	10,419	-0,394	-0,212
29,736	71,228	-0,403	-0,295
30,750	91,529	-0,395	-0,314
31,765	43,454	-0,292	-0,188
32,780	-7,622	-0,415	-0,198
33,794	14,778	-0,401	-0,221
34,809	149,994	-0,422	-0,405
35,823	76,891	-0,382	-0,287
36,838	381,777	-0,302	-0,439
37,853	117,249	-0,377	-0,328
38,867	44,097	-0,408	-0,264
39,882	103,282	-0,334	-0,277
40,896	188,315	-0,252	-0,267
41,911	125,683	-0,340	-0,304
42,926	93,402	-0,303	-0,242
43,940	32,166	-0,432	-0,263
44,955	70,744	-0,458	-0,335
45,969	33,252	-0,316	-0,193
46,984	111,681	-0,225	-0,192
47,999	121,636	-0,244	-0,215
49,013	22,867	-0,372	-0,215
50,028	135,647	-0,364	-0,335
51,042	262,233	-0,233	-0,286
52,057	6,146	-0,295	-0,154
53,071	190,905	-0,343	-0,365
54,086	67,198	-0,416	-0,299
55,101	87,432	-0,329	-0,257
56,115	-38,138	-0,391	-0,146
57,130	26,584	-0,496	-0,292
58,144	-16,588	-0,438	-0,195
59,159	304,208	-0,274	-0,359
60,174	398,426	-0,230	-0,341
61,188	-23,416	-0,352	-0,148
62,203	28,997	-0,380	-0,227
63,217	204,903	-0,290	-0,318
64,232	50,460	-0,384	-0,256
65,247	113,810	-0,331	-0,284
66,261	107,070	-0,400	-0,335
67,276	-0,562	-0,372	-0,185
68,290	78,426	-0,242	-0,182
69,305	334,333	-0,171	-0,234
70,320	43,222	-0,292	-0,187
71,334	48,706	-0,320	-0,211
72,349	213,162	-0,293	-0,327
73,363	83,735	-0,379	-0,291
74,378	342,137	-0,294	-0,407
75,393	67,958	-0,400	-0,288
76,407	214,158	-0,264	-0,295
77,422	50,787	-0,267	-0,178
78,436	85,190	-0,316	-0,244
79,451	139,538	-0,286	-0,265
80,466	127,181	-0,236	-0,211
81,480	-21,593	-0,344	-0,147
82,495	156,456	-0,321	-0,312
83,509	45,957	-0,275	-0,179
84,524	-115,606	-0,356	-0,046
85,539	174,960	-0,211	-0,215
86,553	34,239	-0,228	-0,139
87,568	216,278	-0,195	-0,218
88,582	318,354	-0,251	-0,335
89,597	-17,464	-0,237	-0,105
90,611	274,102	-0,249	-0,311
91,626	72,672	-0,329	-0,241
92,641	51,410	-0,168	-0,112
93,655	88,941	-0,255	-0,199
94,670	12,924	-0,384	-0,208
95,684	111,632	-0,318	-0,270
96,699	86,079	-0,308	-0,238
97,714	-128,015	-0,279	-0,028
98,728	-51,110	-0,258	-0,084
99,743	368,173	-0,148	-0,211
100,757	-115,541	-0,266	-0,035
101,772	-29,650	-0,372	-0,149
102,787	-26,586	-0,252	-0,103
103,801	3,567	-0,301	-0,154
104,816	-153,138	-0,356	-0,017
105,830	81,667	-0,290	-0,221
106,845	11,142	-0,306	-0,164
107,860	104,367	-0,245	-0,202
108,874	318,042	-0,243	-0,323
109,889	-12,147	-0,365	-0,167
110,903	208,492	-0,230	-0,253
111,918	71,020	-0,344	-0,250
112,933	126,643	-0,217	-0,193
113,947	41,776	-0,241	-0,153
114,962	261,421	-0,202	-0,246
115,976	-0,299	-0,203	-0,101
116,991	10,173	-0,335	-0,178
118,006	96,995	-0,278	-0,224
119,020	141,006	-0,219	-0,203
120,035	24,739	-0,258	-0,150
121,049	-33,831	-0,146	-0,056
122,064	452,038	-0,168	-0,261
123,079	117,627	-0,252	-0,218
124,093	112,281	-0,249	-0,211
125,108	79,351	-0,269	-0,202
126,122	3,758	-0,274	-0,140
127,137	13,740	-0,212	-0,115
128,151	94,830	-0,189	-0,151
129,166	-33,738	-0,430	-0,166
130,181	-6,628	-0,296	-0,141
131,195	40,570	-0,350	-0,221
132,210	132,671	-0,182	-0,165
133,224	43,512	-0,188	-0,120
134,239	-65,411	-0,344	-0,096
135,254	-160,466	-0,163	-0,006
136,268	-38,221	-0,302	-0,112
137,283	160,566	-0,275	-0,269
138,297	228,940	-0,264	-0,302
139,312	158,607	-0,239	-0,233
140,327	28,287	-0,258	-0,153
141,341	-7,678	-0,353	-0,167
142,356	-18,707	-0,330	-0,143
143,370	86,386	-0,162	-0,125
144,385	-42,084	-0,364	-0,130
145,400	74,011	-0,242	-0,178
146,414	23,363	-0,297	-0,171
147,429	11,521	-0,305	-0,163
148,443	125,740	-0,294	-0,260
149,458	256,301	-0,288	-0,347
150,473	165,838	-0,204	-0,202
151,487	-44,353	-0,121	-0,042
152,502	-0,420	-0,232	-0,115
153,516	44,237	-0,282	-0,181
154,531	116,864	-0,158	-0,136
155,546	74,884	-0,218	-0,161
156,560	454,152	-0,140	-0,218
157,575	24,323	-0,310	-0,179
158,589	-7,940	-0,331	-0,156
159,604	75,931	-0,173	-0,128
160,619	116,977	-0,223	-0,192
161,633	800,000	-0,090	-0,229
162,648	109,931	-0,243	-0,203
163,662	115,376	-0,185	-0,158
164,677	-11,814	-0,310	-0,142
165,692	-102,962	-0,286	-0,047
166,706	-36,166	-0,227	-0,085
167,721	94,718	-0,247	-0,196
168,735	348,737	-0,178	-0,246
169,750	-4,120	-0,286	-0,138
170,764	104,893	-0,240	-0,198
171,779	78,276	-0,213	-0,159
172,794	495,406	-0,119	-0,191
173,808	-38,269	-0,249	-0,092
174,823	134,394	-0,273	-0,248
175,837	107,457	-0,158	-0,131
176,852	87,075	-0,221	-0,170
177,867	191,879	-0,218	-0,229
178,881	87,842	-0,134	-0,104
179,896	435,025	-0,182	-0,277
180,910	320,547	-0,208	-0,277
181,925	202,628	-0,123	-0,132
182,940	111,445	-0,256	-0,215
183,954	146,274	-0,150	-0,141
184,969	-51,968	-0,124	-0,040
185,983	-145,848	-0,146	-0,009
186,998	117,613	-0,228	-0,196
188,013	-83,466	-0,224	-0,050
189,027	36,427	-0,239	-0,147
190,042	502,909	-0,168	-0,271
191,056	58,326	-0,297	-0,203
192,071	72,624	-0,162	-0,118
193,086	-102,308	-0,150	-0,025
194,100	25,291	-0,171	-0,099
195,115	-90,312	-0,155	-0,031
196,129	-6,630	-0,220	-0,104
197,144	-1,395	-0,326	-0,160
198,159	148,537	-0,261	-0,245
199,173	-46,952	-0,216	-0,073
200,188	-47,193	-0,173	-0,058
201,202	84,296	-0,098	-0,075
202,217	-11,457	-0,315	-0,144
203,232	492,399	-0,129	-0,207
204,246	123,132	-0,197	-0,172
205,261	499,086	-0,116	-0,187
206,275	617,874	-0,129	-0,226
207,290	105,739	-0,235	-0,194
208,304	108,908	-0,246	-0,205
209,319	248,261	-0,226	-0,266
210,334	800,000	-0,109	-0,290
211,348	123,733	-0,175	-0,153
212,363	151,678	-0,281	-0,267
213,377	182,018	-0,243	-0,250
214,392	316,265	-0,162	-0,214
215,407	-135,416	0,048	-0,004
216,421	-7,052	-0,275	-0,129
217,436	184,440	-0,185	-0,191
218,450	0,310	-0,217	-0,107
219,465	-68,161	-0,282	-0,076
220,480	-40,375	-0,141	-0,051
221,494	800,000	-0,095	-0,219
222,509	-7,301	-0,186	-0,087
223,523	111,934	-0,149	-0,126
224,538	-14,664	-0,207	-0,092
225,553	9,998	-0,231	-0,122
226,567	-40,457	-0,316	-0,114
227,582	800,000	-0,087	-0,230
228,596	21,834	-0,176	-0,099
229,611	-34,880	-0,159	-0,060
230,626	-87,621	-0,260	-0,054
231,640	30,882	-0,237	-0,141
232,655	459,681	-0,121	-0,188
233,669	341,392	-0,167	-0,227
234,684	292,255	-0,151	-0,191
235,699	39,348	-0,222	-0,138
236,713	181,667	-0,153	-0,157
237,728	-86,224	-0,112	0,024
238,742	-106,632	-0,132	-0,020
239,757	-76,182	-0,248	-0,060
240,772	394,171	-0,135	-0,195
241,786	479,609	-0,142	-0,225
242,801	417,090	-0,137	-0,203
243,815	73,259	-0,238	-0,173
244,830	-153,983	-0,197	-0,009
245,844	800,000	-0,082	-0,204
246,859	-50,194	-0,184	-0,060
247,874	234,501	-0,102	-0,117
248,888	-200,000	-0,064	-0,249
249,903	-148,479	-0,171	0,010
250,917	-157,405	-0,173	-0,007
251,932	268,530	-0,090	-0,110
252,947	173,911	-0,147	-0,147
253,961	62,272	-0,208	-0,144
254,976	-57,524	-0,164	-0,050
255,990	62,268	-0,228	-0,158
257,005	-137,873	-0,172	0,013
258,020	40,557	-0,132	-0,082
259,034	420,955	-0,122	-0,182
260,049	-26,026	-0,182	-0,074
261,063	161,622	-0,090	-0,087
262,078	-8,155	-0,191	-0,089
263,093	-200,000	-0,183	-0,000
264,107	144,352	-0,161	-0,149
265,122	100,176	-0,248	-0,199
266,136	800,000	-0,084	-0,174
267,151	-103,253	-0,062	0,010
268,166	18,739	-0,232	-0,128
269,180	-79,958	-0,217	-0,050
270,195	251,563	-0,086	-0,102
271,209	-200,000	-0,072	-0,238
272,224	100,808	0,038	-0,031
273,239	-79,233	-0,129	-0,030
274,253	726,237	-0,072	-0,133
275,268	338,179	-0,102	-0,138
276,282	57,789	-0,249	-0,169
277,297	486,768	-0,115	-0,183
278,312	166,132	-0,127	-0,124
279,326	-21,835	-0,149	-0,062
280,341	9,790	-0,163	-0,085
281,355	-119,884	-0,158	-0,019
282,370	152,081	-0,157	-0,148
283,384	121,913	-0,199	-0,172
284,399	63,184	-0,272	-0,188
285,414	212,577	-0,204	-0,223
286,428	15,010	-0,191	-0,103
287,443	127,027	-0,122	-0,107
288,457	694,104	-0,065	-0,118
289,472	28,577	-0,210	-0,123
290,487	29,457	-0,191	-0,112
291,501	-20,013	-0,198	-0,084
292,516	-55,951	-0,120	-0,037
293,530	-195,526	-0,184	0,001
294,545	-57,154	-0,145	-0,044
295,560	14,881	-0,122	0,066
296,574	-200,000	-0,015	-0,219
297,589	234,170	-0,161	-0,184
298,603	-7,919	-0,200	-0,093
299,618	82,057	-0,184	-0,138
300,633	359,614	-0,127	-0,177
301,647	-108,262	-0,178	-0,026
302,662	-60,525	-0,188	-0,055
303,676	139,991	-0,199	-0,181
304,691	-8,136	-0,250	-0,116
305,706	-200,000	-0,062	-0,241
306,720	800,000	-0,145	-0,285
307,735	800,000	-0,076	-0,172
308,749	-20,427	-0,182	-0,077
309,764	394,144	-0,139	-0,200
310,779	-122,006	-0,179	-0,020
311,793	800,000	-0,065	-0,154
312,808	152,408	-0,133	-0,125
313,822	-5,379	-0,303	-0,143
314,837	59,279	-0,166	-0,113
315,852	81,033	-0,150	-0,112
316,866	-17,895	-0,050	-0,022
317,881	714,840	-0,116	-0,213
318,895	-162,607	-0,219	0,007
319,910	-61,064	-0,289	-0,084
320,925	40,035	-0,231	-0,143
321,939	399,206	-0,081	-0,118
322,954	152,444	-0,102	-0,096
323,968	29,870	-0,126	-0,074
324,983	-84,103	-0,183	-0,040
325,997	141,629	-0,188	-0,172
327,012	-176,302	-0,162	0,003
328,027	144,645	-0,245	-0,226
329,041	114,484	-0,142	-0,119
330,056	800,000	-0,007	0,018
331,070	800,000	0,006	0,015
332,085	-72,036	-0,070	-0,018
333,100	174,544	-0,155	-0,154
334,114	257,638	-0,223	-0,265
335,129	59,032	-0,195	-0,132
336,143	96,644	-0,187	-0,147
337,158	127,484	-0,119	-0,104
338,173	-200,000	-0,022	-0,092
339,187	-31,383	-0,072	-0,028
340,202	-153,053	-0,128	0,006
341,216	122,676	-0,181	-0,156
342,231	-46,630	-0,114	-0,038
343,246	600,559	-0,081	-0,138
344,260	-200,000	-0,047	-0,199
345,275	7,138	-0,150	-0,077
346,289	800,000	-0,043	-0,088
347,304	-200,000	-0,231	0,000
348,319	163,178	-0,177	-0,171
349,333	30,314	-0,127	-0,075
350,348	800,000	-0,038	-0,101
351,362	-81,506	-0,128	-0,029
352,377	-74,907	-0,151	-0,037
353,392	65,906	-0,133	-0,092
354,406	-62,306	-0,065	-0,018
355,421	208,291	1315,071	1414,954
356,435	160,261	1475,879	1415,476
