DTS Sentinel unit serial number:	SN410029Multiplexer serial number:	ORYXHardware model number:	OX2-SRSoftware version number:	ORYX F/W v4,00 Oryx Data Collector v3.7.2.0data status	okinstallation	B3 Nyhavnadifferential loss correction	single-endedforward channel	channel 1reverse channel	N/Adate	2023/11/30time	02:27:30forward acquisition time	300,00reverse acquisition time	0,00gamma	499,1914k internal	0,3210k external	0,3210temperature offset calibration	1,0000default loss term (dB/km)	0,3820temperature slope calibration	1,0000multiplexer offset coefficient	1,0000multiplexer slope coefficient	1,0000fibre end	0,00T internal ref (°C)	10,42T ext. ref 1 (°C)	-5,27T ext. ref 2 (°C)	-5,40length (m)	temperature (°C)	Stokes	anti-Stokes-744,400	280,106	-0,333	-0,433
-743,385	432,883	0,270	0,427
-742,371	800,000	-0,164	-0,330
-741,356	-200,000	-0,045	0,279
-740,342	266,925	-0,183	-0,232
-739,327	-200,000	0,059	0,320
-738,312	136,340	-0,129	-0,122
-737,298	-200,000	-0,043	0,166
-736,283	420,914	-0,159	-0,248
-735,269	800,000	0,126	0,289
-734,254	145,932	-0,291	-0,283
-733,239	-17,618	-0,315	0,143
-732,225	717,208	-0,139	-0,268
-731,210	9,115	0,137	0,075
-730,196	175,069	0,055	-0,058
-729,181	-200,000	0,011	-0,080
-728,167	-159,069	-0,046	-0,002
-727,152	-200,000	-0,007	-0,106
-726,137	53,960	-0,045	-0,031
-725,123	-89,679	-0,084	0,018
-724,108	-200,000	-0,005	-0,105
-723,094	67,034	-0,197	-0,146
-722,079	-200,000	-0,011	-0,103
-721,064	425,666	-0,067	-0,106
-720,050	-129,896	-0,042	-0,004
-719,035	800,000	0,025	0,066
-718,021	31,091	-0,141	-0,088
-717,006	-34,607	-0,143	0,057
-715,991	150,809	-0,116	-0,114
-714,977	-200,000	0,003	-0,061
-713,962	-200,000	0,003	-0,012
-712,948	-46,525	0,109	0,039
-711,933	-200,000	0,001	-0,176
-710,918	319,352	-0,033	-0,045
-709,904	800,000	0,030	-0,094
-708,889	-200,000	-0,005	-0,069
-707,875	18,076	-0,098	-0,056
-706,860	-200,000	-0,006	0,032
-705,845	254,943	0,039	0,048
-704,831	49,810	0,022	-0,015
-703,816	800,000	0,038	-0,094
-702,802	800,000	-0,028	-0,065
-701,787	264,479	-0,020	-0,025
-700,772	-200,000	-0,019	-0,191
-699,758	800,000	-0,025	0,062
-698,743	-200,000	-0,037	0,147
-697,729	-200,000	0,014	-0,062
-696,714	-200,000	-0,004	-0,155
-695,699	354,628	0,044	-0,064
-694,685	74,752	0,038	0,029
-693,670	-131,761	0,096	-0,009
-692,656	193,474	-0,057	-0,063
-691,641	-200,000	-0,016	0,064
-690,627	77,560	-0,071	-0,055
-689,612	-200,000	0,077	-0,000
-688,597	800,000	-0,025	-0,066
-687,583	486,912	-0,089	-0,147
-686,568	129,018	0,022	0,020
-685,554	-57,087	-0,051	-0,016
-684,539	462,074	-0,102	0,166
-683,524	-200,000	-0,020	-0,067
-682,510	-200,000	-0,011	0,056
-681,495	156,728	-0,061	0,061
-680,481	-84,467	-0,070	-0,016
-679,466	10,815	-0,129	-0,071
-678,451	-34,830	-0,081	-0,032
-677,437	99,789	0,047	0,039
-676,422	141,640	0,103	0,098
-675,408	-136,288	-0,118	0,010
-674,393	-200,000	-0,012	0,127
-673,378	-200,000	-0,023	-0,100
-672,364	9,073	-0,153	-0,084
-671,349	-102,724	0,115	-0,020
-670,335	376,052	-0,074	-0,110
-669,320	-41,113	0,049	0,018
-668,305	-31,338	-0,118	0,048
-667,291	-200,000	0,007	0,024
-666,276	-200,000	0,017	-0,058
-665,262	208,372	-0,088	-0,099
-664,247	-200,000	0,007	-0,147
-663,232	132,894	0,122	-0,114
-662,218	376,651	0,049	0,072
-661,203	-84,968	0,104	0,023
-660,189	-30,912	-0,059	-0,024
-659,174	81,623	-0,045	-0,035
-658,159	-160,316	-0,083	-0,003
-657,145	-200,000	-0,021	-0,103
-656,130	800,000	0,016	-0,051
-655,116	-101,845	0,035	-0,006
-654,101	-200,000	0,011	-0,041
-653,086	800,000	0,030	0,074
-652,072	-200,000	0,005	0,035
-651,057	430,427	-0,081	-0,127
-650,043	112,120	0,087	-0,076
-649,028	557,378	-0,023	-0,039
-648,014	-42,497	0,092	0,034
-646,999	165,213	-0,107	-0,110
-645,984	334,558	-0,098	-0,137
-644,970	-57,609	-0,148	0,046
-643,955	-99,856	-0,198	0,035
-642,941	800,000	0,023	-0,065
-641,926	800,000	0,041	-0,125
-640,911	351,028	0,053	0,076
-639,897	-68,928	-0,061	0,017
-638,882	60,164	0,123	0,088
-637,868	751,486	0,068	-0,133
-636,853	-123,426	-0,147	-0,017
-635,838	-200,000	0,001	0,069
-634,824	578,697	-0,079	-0,141
-633,809	581,206	-0,039	0,069
-632,795	-28,431	0,079	0,033
-631,780	408,325	-0,026	-0,040
-630,765	-79,837	0,038	-0,009
-629,751	-65,684	-0,175	0,050
-628,736	-200,000	-0,000	-0,016
-627,722	-139,819	0,036	-0,003
-626,707	-200,000	0,011	0,046
-625,692	-200,000	0,001	0,096
-624,678	-200,000	0,009	0,282
-623,663	6,706	-0,066	0,035
-622,649	-188,735	-0,111	0,001
-621,634	-52,045	-0,079	-0,026
-620,619	-200,000	-0,034	-0,123
-619,605	-83,678	0,021	0,005
-618,590	210,157	0,027	-0,031
-617,576	-81,822	0,142	-0,033
-616,561	144,832	-0,028	0,027
-615,546	36,860	-0,028	0,018
-614,532	576,158	0,088	-0,157
-613,517	-113,900	-0,100	0,014
-612,503	800,000	-0,019	-0,041
-611,488	-200,000	0,047	-0,225
-610,474	-200,000	-0,005	0,037
-609,459	-26,942	0,063	-0,026
-608,444	800,000	0,041	-0,119
-607,430	122,829	-0,149	-0,134
-606,415	-200,000	0,011	0,079
-605,401	193,227	-0,095	-0,104
-604,386	-9,654	-0,075	0,036
-603,371	472,041	-0,047	0,077
-602,357	-106,044	0,071	0,011
-601,342	87,562	-0,053	0,042
-600,328	-200,000	-0,015	-0,146
-599,313	-200,000	-0,011	-0,112
-598,298	-200,000	-0,001	-0,052
-597,284	-200,000	0,014	-0,049
-596,269	-200,000	0,027	0,141
-595,255	420,732	-0,030	0,047
-594,240	63,281	0,038	-0,027
-593,225	91,097	-0,104	0,084
-592,211	-200,000	0,029	-0,128
-591,196	5,916	0,034	0,018
-590,182	88,447	0,020	0,016
-589,167	-100,055	0,067	-0,012
-588,152	-23,079	-0,067	-0,029
-587,138	-13,512	0,071	-0,033
-586,123	521,740	-0,064	-0,109
-585,109	683,587	-0,036	0,069
-584,094	-174,474	0,138	0,003
-583,079	151,079	0,030	0,030
-582,065	-200,000	-0,015	0,165
-581,050	-128,853	-0,105	0,011
-580,036	247,918	0,047	0,057
-579,021	-133,572	-0,112	0,010
-578,006	456,789	-0,053	-0,085
-576,992	-91,885	0,140	-0,028
-575,977	800,000	-0,030	-0,076
-574,963	111,756	0,049	0,043
-573,948	-34,726	0,038	0,015
-572,934	800,000	-0,051	0,133
-571,919	11,298	0,069	-0,038
-570,904	-46,240	-0,051	0,018
-569,890	-200,000	0,010	-0,154
-568,875	800,000	-0,006	0,017
-567,861	-121,372	0,066	-0,008
-566,846	800,000	0,044	0,132
-565,831	87,176	0,042	-0,033
-564,817	65,637	-0,150	-0,109
-563,802	44,827	-0,129	-0,085
-562,788	70,604	-0,139	-0,104
-561,773	286,694	0,034	-0,045
-560,758	-200,000	0,000	0,199
-559,744	33,467	0,032	-0,020
-558,729	-80,080	-0,136	-0,033
-557,715	137,259	0,004	-0,004
-556,700	-8,766	-0,027	-0,013
-555,685	-200,000	0,030	-0,108
-554,671	-190,097	-0,088	-0,001
-553,656	492,194	0,054	0,090
-552,642	-11,261	-0,075	-0,036
-551,627	-21,579	-0,025	-0,011
-550,612	-29,859	-0,104	0,042
-549,598	-200,000	0,010	0,052
-548,583	-200,000	-0,036	-0,114
-547,569	800,000	0,062	0,141
-546,554	-98,784	0,099	0,018
-545,539	-55,359	-0,060	-0,019
-544,525	-84,929	0,082	-0,018
-543,510	-200,000	-0,001	0,050
-542,496	-116,451	0,069	-0,009
-541,481	-200,000	-0,017	0,063
-540,466	32,384	-0,068	0,042
-539,452	-86,010	0,102	-0,023
-538,437	-200,000	0,019	0,116
-537,423	586,639	0,041	0,073
-536,408	-200,000	0,003	0,029
-535,393	-200,000	-0,002	-0,053
-534,379	-200,000	-0,002	-0,028
-533,364	-37,908	-0,071	0,027
-532,350	712,631	0,028	0,054
-531,335	-200,000	0,024	0,090
-530,321	-200,000	-0,010	0,057
-529,306	-112,430	0,171	-0,024
-528,291	800,000	0,027	-0,057
-527,277	-97,603	-0,065	0,012
-526,262	-27,807	-0,046	0,019
-525,248	-200,000	-0,022	-0,111
-524,233	-200,000	0,025	0,118
-523,218	-200,000	0,016	0,098
-522,204	-11,939	-0,122	0,057
-521,189	800,000	-0,031	-0,095
-520,175	800,000	-0,042	-0,114
-519,160	-15,098	-0,094	0,043
-518,145	481,886	0,042	0,069
-517,131	-28,903	0,136	-0,056
-516,116	-69,255	-0,037	0,010
-515,102	-200,000	0,019	0,082
-514,087	242,517	-0,012	0,015
-513,072	94,779	0,092	0,075
-512,058	32,575	0,023	0,014
-511,043	-200,000	-0,014	0,000
-510,029	-200,000	-0,011	0,152
-509,014	-62,153	-0,153	0,046
-507,999	-113,018	-0,095	-0,013
-506,985	800,000	-0,024	0,061
-505,970	310,533	0,040	0,053
-504,956	800,000	-0,064	-0,140
-503,941	65,695	-0,092	0,067
-502,926	647,668	0,094	0,174
-501,912	694,296	-0,012	0,022
-500,897	800,000	0,046	0,115
-499,883	-200,000	0,001	-0,089
-498,868	419,638	0,070	-0,108
-497,853	-200,000	-0,009	-0,109
-496,839	-54,199	0,040	-0,013
-495,824	649,739	0,036	-0,067
-494,810	347,583	-0,049	0,070
-493,795	276,344	-0,039	0,050
-492,781	188,131	-0,112	-0,121
-491,766	800,000	0,045	-0,098
-490,751	800,000	-0,022	0,060
-489,737	-200,000	-0,000	0,027
-488,722	-35,693	-0,090	-0,035
-487,708	328,627	0,080	0,110
-486,693	-95,736	-0,066	-0,013
-485,678	783,902	0,031	-0,061
-484,664	-200,000	0,018	-0,088
-483,649	85,076	0,052	-0,041
-482,635	170,154	-0,085	0,088
-481,620	-95,901	0,120	0,023
-480,605	-200,000	0,007	0,076
-479,591	-194,897	0,053	0,000
-478,576	-122,208	0,091	0,011
-477,562	208,816	-0,082	-0,093
-476,547	66,423	-0,176	-0,128
-475,532	91,695	0,167	0,135
-474,518	-200,000	0,014	0,142
-473,503	-135,741	-0,059	0,005
-472,489	-200,000	0,002	0,084
-471,474	-200,000	0,013	0,078
-470,459	781,077	-0,035	0,069
-469,445	0,140	-0,074	-0,038
-468,430	-90,613	-0,046	-0,009
-467,416	-200,000	-0,007	0,028
-466,401	-200,000	0,021	0,137
-465,386	168,082	0,027	-0,027
-464,372	229,397	-0,061	-0,071
-463,357	-200,000	-0,013	-0,133
-462,343	800,000	-0,055	-0,140
-461,328	-166,188	-0,057	0,002
-460,313	-43,504	0,114	0,041
-459,299	-200,000	0,042	-0,137
-458,284	-98,938	-0,047	-0,009
-457,270	229,048	0,008	-0,009
-456,255	-200,000	0,040	-0,156
-455,241	-200,000	-0,000	-0,055
-454,226	-31,104	-0,068	-0,028
-453,211	84,566	0,119	0,093
-452,197	372,917	-0,073	0,107
-451,182	476,799	0,024	0,040
-450,168	-173,640	0,138	0,003
-449,153	-26,047	0,020	-0,009
-448,138	-170,571	0,107	-0,003
-447,124	119,953	0,114	-0,101
-446,109	-6,750	-0,025	-0,012
-445,095	411,305	0,110	0,167
-444,080	-15,963	-0,072	-0,033
-443,065	41,485	0,066	0,043
-442,051	800,000	0,022	0,059
-441,036	162,196	0,148	-0,149
-440,022	800,000	0,041	-0,102
-439,007	497,755	0,030	-0,049
-437,992	-18,986	0,114	0,051
-436,978	46,335	-0,053	-0,035
-435,963	-61,378	0,110	-0,033
-434,949	-85,124	0,058	0,013
-433,934	-27,742	-0,088	-0,036
-432,919	800,000	-0,039	-0,082
-431,905	796,200	0,017	0,034
-430,890	643,238	-0,008	0,015
-429,876	-113,941	0,206	0,028
-428,861	800,000	0,030	0,084
-427,846	235,525	0,058	-0,068
-426,832	-200,000	-0,012	0,127
-425,817	269,774	-0,051	-0,064
-424,803	604,578	0,042	-0,075
-423,788	25,937	-0,073	0,044
-422,773	-200,000	-0,008	-0,078
-421,759	-200,000	0,027	-0,088
-420,744	-200,000	0,008	-0,041
-419,730	-46,166	-0,118	-0,041
-418,715	117,307	-0,108	-0,095
-417,701	800,000	0,012	0,034
-416,686	-200,000	-0,004	-0,041
-415,671	45,744	0,086	-0,057
-414,657	-181,072	0,028	0,000
-413,642	201,895	-0,161	-0,178
-412,628	800,000	-0,078	-0,199
-411,613	20,341	-0,061	-0,035
-410,598	36,645	0,091	-0,057
-409,584	-110,828	-0,061	0,009
-408,569	-191,646	-0,073	0,001
-407,555	-200,000	0,002	0,086
-406,540	153,377	0,087	-0,085
-405,525	-200,000	-0,033	-0,135
-404,511	591,334	0,053	-0,094
-403,496	-200,000	0,028	-0,091
-402,482	800,000	0,102	0,210
-401,467	34,839	-0,057	0,035
-400,452	583,680	-0,059	0,104
-399,438	-200,000	-0,003	0,022
-398,423	25,981	-0,065	0,039
-397,409	-200,000	0,008	-0,091
-396,394	-153,510	-0,129	-0,006
-395,379	800,000	0,069	0,184
-394,365	350,020	-0,050	-0,071
-393,350	-200,000	0,007	0,102
-392,336	37,796	0,180	0,114
-391,321	-200,000	-0,025	-0,126
-390,306	-200,000	0,000	0,048
-389,292	-200,000	-0,013	-0,042
-388,277	-200,000	0,011	0,097
-387,263	300,657	0,040	-0,053
-386,248	443,822	0,060	0,095
-385,233	46,672	-0,155	0,103
-384,219	800,000	0,014	0,041
-383,204	-200,000	-0,002	-0,034
-382,190	-108,975	-0,073	-0,011
-381,175	-200,000	0,018	0,078
-380,160	-81,905	0,111	0,026
-379,146	43,535	-0,133	0,087
-378,131	-134,889	0,103	-0,009
-377,117	609,869	0,013	0,023
-376,102	-53,014	0,122	0,040
-375,088	-200,000	-0,006	-0,056
-374,073	428,722	-0,028	0,044
-373,058	245,399	-0,073	0,088
-372,044	131,858	0,076	0,070
-371,029	30,171	0,089	0,054
-370,015	102,398	-0,138	0,115
-369,000	800,000	0,009	0,028
-367,985	237,546	0,059	0,070
-366,971	-200,000	0,017	-0,127
-365,956	381,910	0,013	0,019
-364,942	160,550	0,075	0,075
-363,927	800,000	0,045	0,090
-362,912	-200,000	-0,009	0,031
-361,898	572,082	0,040	-0,071
-360,883	508,349	0,079	0,132
-359,869	399,003	-0,082	-0,124
-358,854	-200,000	0,006	0,030
-357,839	-53,580	0,092	-0,030
-356,825	-16,765	0,105	-0,047
-355,810	800,000	0,053	0,140
-354,796	-200,000	0,008	0,035
-353,781	-200,000	-0,002	0,058
-352,766	-49,814	-0,034	0,012
-351,752	-32,997	0,032	-0,013
-350,737	-200,000	-0,016	0,093
-349,723	59,738	0,055	0,039
-348,708	-200,000	0,015	0,116
-347,693	108,646	-0,027	0,023
-346,679	334,347	-0,144	-0,199
-345,664	-73,115	-0,074	-0,019
-344,650	365,245	-0,009	-0,014
-343,635	-200,000	0,007	-0,075
-342,620	-81,821	0,208	0,048
-341,606	800,000	-0,034	-0,069
-340,591	330,745	-0,008	0,011
-339,577	-115,543	-0,150	0,020
-338,562	-175,384	0,056	0,001
-337,548	800,000	0,022	-0,046
-336,533	-200,000	-0,004	0,027
-335,518	-33,509	0,166	0,065
-334,504	408,435	-0,040	-0,060
-333,489	-14,693	-0,052	-0,024
-332,475	800,000	-0,072	-0,177
-331,460	152,191	-0,041	-0,040
-330,445	555,019	0,011	0,019
-329,431	800,000	0,033	-0,070
-328,416	256,978	0,043	0,053
-327,402	-200,000	-0,001	0,082
-326,387	-200,000	-0,005	-0,051
-325,372	-68,903	0,104	-0,028
-324,358	-200,000	-0,013	-0,120
-323,343	800,000	0,033	0,096
-322,329	800,000	0,005	0,012
-321,314	800,000	0,044	0,119
-320,299	-126,764	0,112	-0,012
-319,285	-200,000	-0,014	-0,049
-318,270	800,000	-0,052	-0,159
-317,256	318,066	0,075	-0,101
-316,241	-200,000	-0,043	0,173
-315,226	707,360	0,031	-0,058
-314,212	-155,728	0,077	0,003
-313,197	-16,682	0,100	0,045
-312,183	800,000	-0,039	0,079
-311,168	-200,000	-0,005	0,039
-310,153	221,554	-0,019	-0,021
-309,139	179,215	0,070	0,073
-308,124	-24,724	-0,024	0,010
-307,110	-55,767	-0,089	-0,028
-306,095	380,249	0,023	-0,034
-305,080	800,000	0,015	-0,033
-304,066	-200,000	0,037	-0,173
-303,051	-58,813	-0,142	-0,044
-302,037	56,181	-0,013	0,009
-301,022	99,785	0,015	-0,013
-300,008	203,670	-0,023	-0,026
-298,993	-200,000	0,014	0,075
-297,978	741,208	0,026	0,051
-296,964	244,064	-0,014	0,017
-295,949	-60,994	0,127	-0,038
-294,935	8,698	0,073	-0,039
-293,920	800,000	0,029	0,082
-292,905	-25,644	0,122	0,051
-291,891	-200,000	0,028	0,116
-290,876	261,275	-0,079	0,098
-289,862	413,109	-0,031	0,047
-288,847	-109,143	-0,154	-0,023
-287,832	-200,000	-0,015	-0,056
-286,818	800,000	0,017	0,040
-285,803	-200,000	-0,001	-0,040
-284,789	-84,300	0,057	0,013
-283,774	800,000	-0,005	-0,016
-282,759	-87,869	-0,042	-0,009
-281,745	115,324	-0,123	-0,107
-280,730	-9,405	0,193	0,091
-279,716	-68,030	-0,137	0,038
-278,701	-63,513	0,148	-0,043
-277,686	800,000	0,027	0,058
-276,672	481,300	0,080	0,129
-275,657	267,664	0,025	0,032
-274,643	263,478	0,059	-0,073
-273,628	14,097	-0,064	-0,035
-272,613	108,383	-0,082	-0,069
-271,599	-200,000	-0,010	0,054
-270,584	-71,490	0,156	-0,041
-269,570	-200,000	0,007	0,250
-268,555	-140,655	-0,117	0,008
-267,540	-97,560	0,046	0,008
-266,526	800,000	-0,049	-0,129
-265,511	-200,000	-0,001	0,027
-264,497	340,079	0,030	0,042
-263,482	-6,812	0,058	-0,028
-262,467	-103,593	0,103	-0,017
-261,453	-84,176	0,016	0,004
-260,438	-102,747	0,060	0,010
-259,424	-11,836	-0,087	0,040
-258,409	666,595	-0,070	-0,129
-257,395	301,679	0,100	0,131
-256,380	-69,399	0,131	0,036
-255,365	-93,770	0,049	0,010
-254,351	800,000	0,037	-0,086
-253,336	-125,886	0,062	-0,007
-252,322	44,097	-0,023	-0,015
-251,307	133,227	0,055	-0,051
-250,292	-110,023	-0,103	-0,015
-249,278	-42,952	0,145	-0,052
-248,263	-154,604	-0,154	-0,007
-247,249	500,632	-0,027	-0,045
-246,234	133,676	0,131	0,121
-245,219	240,360	-0,051	0,060
-244,205	184,167	0,083	-0,087
-243,190	-87,581	0,092	0,020
-242,176	800,000	0,028	0,082
-241,161	-6,054	-0,045	0,022
-240,146	95,369	0,033	0,026
-239,132	-92,776	0,116	0,023
-238,117	-23,881	-0,130	0,055
-237,103	290,203	0,116	-0,150
-236,088	526,605	0,056	-0,093
-235,073	-26,735	-0,015	0,006
-234,059	751,660	0,028	0,053
-233,044	-179,687	-0,056	0,001
-232,030	-116,720	0,122	-0,016
-231,015	151,007	-0,105	-0,101
-230,000	-146,115	0,061	0,004
-228,986	-200,000	-0,004	-0,224
-227,971	81,490	-0,019	0,014
-226,957	-200,000	0,004	0,117
-225,942	334,218	0,027	-0,038
-224,927	135,616	-0,053	0,049
-223,913	-96,997	-0,172	0,032
-222,898	5,619	-0,105	-0,055
-221,884	-140,335	0,175	0,013
-220,869	290,591	0,027	0,035
-219,855	-200,000	-0,014	0,058
-218,840	800,000	-0,040	-0,094
-217,825	37,760	0,049	0,031
-216,811	-200,000	0,041	0,133
-215,796	318,650	-0,076	-0,102
-214,782	-116,339	0,070	-0,009
-213,767	-200,000	-0,021	0,079
-212,752	133,068	0,054	0,050
-211,738	-167,554	0,150	0,004
-210,723	47,530	-0,138	0,091
-209,709	-109,809	-0,111	-0,016
-208,694	-12,544	-0,097	-0,045
-207,679	-200,000	-0,023	-0,180
-206,665	800,000	0,015	-0,029
-205,650	383,666	-0,155	0,228
-204,636	-200,000	0,040	0,245
-203,621	31,295	-0,112	-0,068
-202,606	-74,748	0,053	-0,013
-201,592	-153,766	-0,114	-0,005
-200,577	273,365	-0,102	-0,129
-199,563	49,185	-0,170	-0,113
-198,548	-115,281	0,098	-0,013
-197,533	-200,000	-0,002	-0,070
-196,519	-200,000	0,009	0,151
-195,504	786,377	0,036	-0,071
-194,490	75,195	-0,069	-0,051
-193,475	800,000	-0,023	0,053
-192,460	800,000	0,039	0,091
-191,446	-11,279	0,030	-0,014
-190,431	107,028	-0,042	0,035
-189,417	166,544	-0,162	-0,163
-188,402	-200,000	0,001	-0,035
-187,387	73,200	0,142	0,105
-186,373	616,717	-0,031	0,056
-185,358	-13,910	-0,078	-0,036
-184,344	-200,000	-0,041	0,155
-183,329	-200,000	0,056	0,212
-182,315	113,714	0,087	0,075
-181,300	800,000	0,048	-0,131
-180,285	16,273	-0,074	-0,041
-179,271	-200,000	0,003	-0,215
-178,256	332,512	0,037	-0,051
-177,242	11,649	0,073	-0,040
-176,227	36,042	-0,098	0,061
-175,212	132,511	-0,063	0,057
-174,198	800,000	0,008	-0,020
-173,183	-89,195	-0,100	0,021
-172,169	-54,554	-0,138	-0,044
-171,154	12,454	-0,100	-0,054
-170,139	568,055	0,083	-0,143
-169,125	-54,385	0,029	-0,009
-168,110	-200,000	0,008	-0,065
-167,096	284,182	0,077	-0,098
-166,081	573,278	0,042	0,074
-165,066	-110,648	-0,094	-0,014
-164,052	93,665	-0,052	-0,042
-163,037	-200,000	0,011	0,060
-162,023	-54,664	-0,040	-0,013
-161,008	-200,000	-0,007	-0,064
-159,993	800,000	0,006	-0,016
-158,979	-200,000	0,014	0,143
-157,964	-31,094	-0,073	-0,029
-156,950	800,000	0,024	-0,057
-155,935	-90,871	0,059	-0,012
-154,920	552,661	0,028	-0,047
-153,906	-61,846	0,035	0,010
-152,891	37,688	-0,158	0,099
-151,877	800,000	0,063	-0,168
-150,862	391,343	-0,009	0,013
-149,847	-200,000	-0,008	-0,048
-148,833	-87,032	0,183	0,039
-147,818	201,854	-0,015	0,017
-146,804	312,606	-0,039	0,052
-145,789	726,771	-0,070	0,133
-144,775	-200,000	0,003	0,029
-143,760	130,616	-0,067	-0,061
-142,745	-200,000	0,003	0,027
-141,731	-110,302	0,050	0,007
-140,716	63,720	-0,006	0,005
-139,702	-36,474	0,077	-0,029
-138,687	28,389	-0,140	-0,084
-137,672	-111,969	-0,086	-0,012
-136,658	-200,000	-0,008	0,068
-135,643	-80,814	-0,107	0,025
-134,629	-154,849	0,157	0,007
-133,614	51,046	0,106	0,071
-132,599	-200,000	0,002	0,238
-131,585	269,194	-0,026	0,032
-130,570	296,307	0,057	0,074
-129,556	800,000	0,026	0,058
-128,541	319,078	-0,076	-0,102
-127,526	321,097	0,066	-0,089
-126,512	-200,000	0,022	0,201
-125,497	304,012	0,102	0,134
-124,483	-200,000	-0,003	-0,029
-123,468	-200,000	0,011	0,095
-122,453	-10,638	0,027	0,013
-121,439	107,531	-0,088	-0,074
-120,424	21,059	-0,049	-0,028
-119,410	-70,584	0,103	0,027
-118,395	416,553	0,037	0,056
-117,380	24,590	0,050	0,029
-116,366	51,232	-0,101	-0,067
-115,351	800,000	0,015	-0,034
-114,337	260,643	-0,066	-0,081
-113,322	-200,000	-0,002	-0,067
-112,307	-135,129	0,029	0,002
-111,293	-57,425	-0,114	-0,035
-110,278	-131,051	0,075	-0,007
-109,264	-200,000	-0,031	-0,099
-108,249	-41,338	0,162	-0,059
-107,234	62,484	0,079	-0,056
-106,220	23,052	-0,159	0,092
-105,205	-35,553	-0,133	0,051
-104,191	63,120	0,173	0,122
-103,176	-200,000	0,000	-0,032
-102,162	-133,477	0,113	-0,010
-101,147	-200,000	-0,036	-0,169
-100,132	-200,000	-0,003	-0,032
-99,118	462,937	-0,063	-0,100
-98,103	786,975	-0,068	0,132
-97,089	800,000	0,027	0,065
-96,074	-144,678	0,099	0,006
-95,059	-200,000	-0,019	0,060
-94,045	800,000	-0,019	-0,053
-93,030	141,602	-0,056	-0,052
-92,016	800,000	-0,056	-0,144
-91,001	136,014	0,127	0,117
-89,986	-20,032	0,140	-0,061
-88,972	-200,000	-0,011	0,118
-87,957	104,506	-0,035	-0,029
-86,943	-83,785	-0,020	0,004
-85,928	-14,948	-0,181	-0,082
-84,913	109,108	0,099	-0,083
-83,899	800,000	-0,010	0,031
-82,884	-200,000	0,020	-0,131
-81,870	-54,014	0,093	0,030
-80,855	-69,229	0,085	0,023
-79,840	-69,269	-0,067	0,018
-78,826	346,448	-0,060	-0,083
-77,811	205,348	-0,077	-0,084
-76,797	74,712	-0,090	0,067
-75,782	-97,500	0,037	0,007
-74,767	-135,710	0,087	-0,007
-73,753	-200,000	-0,010	-0,144
-72,738	51,051	-0,099	0,066
-71,724	800,000	-0,028	-0,066
-70,709	-33,220	-0,068	0,026
-69,694	16,917	-0,099	0,055
-68,680	220,275	0,162	0,183
-67,665	800,000	0,025	0,059
-66,651	-152,671	0,137	0,007
-65,636	-20,222	-0,152	0,066
-64,622	122,998	0,058	-0,051
-63,607	-200,000	0,000	-0,008
-62,592	100,999	-0,068	0,055
-61,578	800,000	-0,048	-0,123
-60,563	800,000	0,050	0,149
-59,549	-8,096	-0,130	-0,062
-58,534	48,305	-1,935	-1,276
-57,519	502,553	-1,212	-1,986
-56,505	-200,000	-0,253	-4,369
-55,490	483,254	0,863	1,391
-54,476	800,000	5,150	11,198
-53,461	-200,000	21,071	336,243
-52,446	800,000	758,316	2344,578
-51,432	555,980	1661,433	2835,934
-50,417	73,615	1662,239	1227,913
-49,403	18,301	1535,718	863,204
-48,388	12,267	1459,019	790,899
-47,373	19,177	1449,697	818,982
-46,359	15,578	1439,141	795,863
-45,344	10,549	1434,889	769,533
-44,330	10,490	1432,869	768,134
-43,315	10,427	1431,316	766,972
-42,300	10,456	1429,469	766,091
-41,286	10,470	1428,235	765,463
-40,271	10,424	1426,898	764,497
-39,257	10,452	1425,997	764,118
-38,242	10,450	1424,630	763,347
-37,227	10,473	1423,675	762,916
-36,213	10,523	1422,210	762,337
-35,198	10,490	1421,187	761,600
-34,184	10,514	1420,131	761,120
-33,169	10,482	1418,872	760,264
-32,154	10,514	1417,979	759,905
-31,140	10,524	1416,634	759,198
-30,125	10,556	1415,595	758,764
-29,111	10,552	1414,364	758,057
-28,096	10,518	1413,185	757,233
-27,082	10,451	1412,241	756,381
-26,067	10,433	1411,111	755,664
-25,052	10,464	1410,044	755,208
-24,038	10,498	1409,091	754,824
-23,023	10,468	1408,045	754,097
-22,009	10,469	1406,956	753,488
-20,994	10,429	1405,853	752,678
-19,979	10,445	1405,192	752,368
-18,965	10,419	1404,108	751,639
-17,950	10,409	1403,208	751,081
-16,936	10,380	1402,442	750,506
-15,921	10,302	1401,657	749,694
-14,906	10,349	1400,577	749,302
-13,892	10,430	1399,300	748,966
-12,877	10,385	1398,678	748,397
-11,863	10,380	1397,949	747,951
-10,848	10,314	1396,848	747,029
-9,833	10,372	1396,016	746,822
-8,819	10,268	1395,350	745,955
-7,804	10,271	1394,428	745,446
-6,790	10,313	1393,250	744,980
-5,775	10,288	1392,333	744,346
-4,760	10,289	1391,140	743,685
-3,746	10,308	1390,290	743,285
-2,731	10,289	1389,538	742,766
-1,717	10,282	1388,614	742,210
-0,702	10,272	1387,033	741,289
0,313	14,262	1299,671	712,870
1,327	30,317	690,928	415,411
2,342	46,824	119,612	78,278
3,356	0,815	16,454	8,286
4,371	-3,853	3,486	1,701
5,386	-29,588	1,014	0,407
6,400	-200,000	0,077	0,394
7,415	69,817	-0,230	-0,167
8,429	361,639	-0,204	-0,289
9,444	66,709	-0,317	-0,227
10,459	179,982	-0,162	-0,168
11,473	2,725	-0,241	-0,123
12,488	35,765	-0,339	-0,210
13,502	-172,449	-0,260	0,006
14,517	-74,804	-0,458	-0,115
15,531	740,575	-0,158	-0,300
16,546	-0,209	-0,362	-0,181
17,561	80,060	-0,457	-0,346
18,575	-78,999	-0,230	-0,055
19,590	504,999	-0,137	-0,225
20,604	-34,108	-0,263	-0,101
21,619	114,278	-0,357	-0,306
22,634	90,505	-0,420	-0,331
23,648	67,920	-0,406	-0,292
24,663	87,620	-0,390	-0,304
25,677	-14,346	-0,395	-0,178
26,692	112,018	-0,298	-0,253
27,707	69,719	-0,437	-0,317
28,721	402,035	-0,262	-0,388
29,736	64,657	-0,433	-0,307
30,750	86,285	-0,360	-0,279
31,765	256,903	-0,270	-0,327
32,780	28,600	-0,398	-0,236
33,794	60,059	-0,271	-0,188
34,809	137,480	-0,297	-0,273
35,823	115,582	-0,314	-0,270
36,838	81,757	-0,370	-0,281
37,853	30,498	-0,459	-0,275
38,867	67,946	-0,310	-0,223
39,882	-30,372	-0,228	-0,091
40,896	705,386	-0,150	-0,280
41,911	278,246	-0,177	-0,223
42,926	-0,702	-0,402	-0,200
43,940	53,753	-0,347	-0,234
44,955	195,584	-0,397	-0,424
45,969	-6,785	-0,349	-0,166
46,984	77,399	-0,212	-0,158
47,999	132,844	-0,245	-0,222
49,013	-33,571	-0,316	-0,122
50,028	87,860	-0,407	-0,317
51,042	175,175	-0,288	-0,294
52,057	152,373	-0,344	-0,330
53,071	-19,467	-0,400	-0,173
54,086	216,154	-0,276	-0,309
55,101	6,556	-0,347	-0,181
56,115	91,801	-0,370	-0,292
57,130	42,257	-0,311	-0,198
58,144	28,277	-0,320	-0,189
59,159	48,609	-0,329	-0,216
60,174	23,227	-0,395	-0,227
61,188	19,668	-0,487	-0,274
62,203	34,833	-0,366	-0,224
63,217	135,438	-0,256	-0,234
64,232	-44,467	-0,309	-0,108
65,247	-16,646	-0,463	-0,205
66,261	66,218	-0,239	-0,170
67,276	73,223	-0,391	-0,287
68,290	22,376	-0,418	-0,239
69,305	114,947	-0,261	-0,223
70,320	49,872	-0,326	-0,215
71,334	-59,886	-0,391	-0,116
72,349	159,496	-0,210	-0,205
73,363	-137,270	-0,446	-0,035
74,378	450,174	-0,151	-0,234
75,393	94,489	-0,273	-0,218
76,407	32,796	-0,245	-0,148
77,422	405,638	-0,208	-0,309
78,436	47,108	-0,398	-0,259
79,451	-38,810	-0,337	-0,124
80,466	-14,679	-0,396	-0,178
81,480	42,596	-0,385	-0,245
82,495	99,574	-0,263	-0,213
83,509	187,431	-0,282	-0,296
84,524	243,787	-0,194	-0,228
85,539	-144,788	-0,321	0,020
86,553	47,177	-0,320	-0,208
87,568	278,547	-0,185	-0,232
88,582	22,443	-0,194	-0,111
89,597	41,127	-0,267	-0,169
90,611	-0,588	-0,404	-0,200
91,626	124,415	-0,219	-0,193
92,641	-91,797	-0,347	-0,068
93,655	74,364	-0,281	-0,206
94,670	29,114	-0,217	-0,129
95,684	13,401	-0,276	-0,149
96,699	-167,200	-0,134	-0,004
97,714	161,172	-0,315	-0,308
98,728	-32,700	-0,240	-0,093
99,743	105,486	-0,128	-0,105
100,757	74,972	-0,270	-0,199
101,772	176,387	-0,177	-0,180
102,787	-10,861	-0,370	-0,170
103,801	-2,753	-0,250	-0,122
104,816	164,592	-0,152	-0,150
105,830	64,248	-0,297	-0,209
106,845	-56,089	-0,264	-0,082
107,860	295,238	-0,247	-0,316
108,874	194,917	-0,251	-0,267
109,889	196,380	-0,261	-0,278
110,903	331,267	-0,191	-0,258
111,918	-7,775	-0,269	-0,126
112,933	800,000	-0,106	-0,241
113,947	94,440	-0,259	-0,206
114,962	22,345	-0,249	-0,142
115,976	136,068	-0,288	-0,262
116,991	78,495	-0,372	-0,277
118,006	-0,326	-0,234	-0,116
119,020	175,829	-0,168	-0,170
120,035	349,888	-0,132	-0,183
121,049	449,560	-0,083	-0,128
122,064	-20,304	-0,250	-0,107
123,079	37,077	-0,257	-0,159
124,093	121,777	-0,279	-0,243
125,108	50,991	-0,440	-0,290
126,122	-15,969	-0,388	-0,172
127,137	23,140	-0,330	-0,188
128,151	191,785	-0,116	-0,122
129,166	123,382	-0,196	-0,172
130,181	218,005	-0,201	-0,224
131,195	-59,659	-0,371	-0,110
132,210	103,421	-0,311	-0,255
133,224	129,864	-0,212	-0,189
134,239	154,945	-0,270	-0,259
135,254	-79,651	-0,149	-0,035
136,268	54,309	-0,208	-0,139
137,283	-8,171	-0,145	-0,068
138,297	460,997	-0,176	-0,274
139,312	125,372	-0,281	-0,247
140,327	62,047	-0,238	-0,165
141,341	195,117	-0,156	-0,165
142,356	74,108	-0,132	-0,097
143,370	64,378	-0,181	-0,127
144,385	75,442	-0,331	-0,243
145,400	327,454	-0,185	-0,247
146,414	132,458	-0,333	-0,299
147,429	79,535	-0,248	-0,185
148,443	192,603	-0,251	-0,264
149,458	21,881	-0,085	-0,048
150,473	-27,841	-0,152	-0,061
151,487	116,160	-0,205	-0,175
152,502	-1,694	-0,216	-0,105
153,516	11,480	-0,243	-0,129
154,531	628,808	-0,135	-0,239
155,546	-1,906	-0,370	-0,180
156,560	62,999	-0,153	-0,107
157,575	307,076	-0,076	-0,098
158,589	217,217	-0,171	-0,190
159,604	65,798	-0,271	-0,191
160,619	369,829	-0,181	-0,256
161,633	-107,207	-0,243	0,037
162,648	11,716	-0,111	-0,059
163,662	486,362	-0,120	-0,191
164,677	203,697	-0,163	-0,175
165,692	-45,075	-0,330	-0,113
166,706	63,168	-0,318	-0,221
167,721	320,633	-0,168	-0,223
168,735	128,978	-0,215	-0,191
169,750	53,879	-0,178	-0,119
170,764	150,625	-0,176	-0,167
171,779	-1,117	-0,178	-0,087
172,794	-115,442	-0,323	-0,042
173,808	209,146	-0,303	-0,330
174,823	65,283	-0,252	-0,177
175,837	76,978	-0,182	-0,134
176,852	335,689	-0,212	-0,287
177,867	-111,735	-0,249	-0,035
178,881	45,641	-0,190	-0,122
179,896	173,691	-0,093	-0,093
180,910	800,000	-0,074	-0,163
181,925	167,689	-0,153	-0,152
182,940	-15,224	-0,251	-0,111
183,954	65,482	-0,260	-0,182
184,969	8,387	-0,365	-0,190
185,983	151,483	-0,198	-0,187
186,998	96,091	-0,135	-0,107
188,013	84,109	-0,147	-0,111
189,027	45,865	-0,224	-0,143
190,042	191,641	-0,183	-0,192
191,056	800,000	-0,130	-0,300
192,071	114,615	-0,172	-0,146
193,086	182,175	-0,139	-0,142
194,100	490,117	-0,125	-0,200
195,115	193,964	-0,218	-0,229
196,129	194,515	-0,206	-0,217
197,144	99,656	-0,208	-0,167
198,159	-117,685	-0,404	-0,050
199,173	405,077	-0,090	-0,131
200,188	-89,736	-0,138	0,028
201,202	44,958	-0,231	-0,147
202,217	-3,456	-0,146	-0,070
203,232	380,786	-0,201	-0,287
204,246	-17,726	-0,169	-0,073
205,261	-18,998	-0,211	-0,091
206,275	28,834	-0,269	-0,157
207,290	84,854	-0,177	-0,134
208,304	-103,118	-0,276	-0,045
209,319	136,931	-0,105	-0,095
210,334	99,742	-0,197	-0,158
211,348	220,445	-0,118	-0,131
212,363	23,341	-0,195	-0,111
213,377	-6,505	-0,135	-0,064
214,392	-44,692	-0,211	-0,073
215,407	-58,053	-0,267	-0,080
216,421	69,318	-0,111	-0,079
217,436	565,653	-0,178	-0,301
218,450	-21,093	-0,235	-0,099
219,465	-51,399	-0,352	-0,113
220,480	-81,357	-0,227	-0,051
221,494	800,000	-0,079	-0,195
222,509	-200,000	-0,052	-0,184
223,523	36,148	-0,286	-0,174
224,538	196,995	-0,045	-0,048
225,553	84,261	-0,167	-0,126
226,567	-58,967	-0,192	-0,057
227,582	201,219	-0,315	-0,336
228,596	142,803	-0,237	-0,218
229,611	273,316	-0,120	-0,147
230,626	115,143	-0,153	-0,130
231,640	38,415	-0,145	-0,089
232,655	-67,653	-0,120	-0,032
233,669	-7,247	-0,311	-0,145
234,684	10,324	-0,203	-0,106
235,699	8,863	-0,130	-0,068
236,713	87,525	-0,201	-0,154
237,728	800,000	-0,046	-0,113
238,742	-49,992	-0,170	-0,055
239,757	689,719	-0,096	-0,174
240,772	-87,155	-0,104	-0,022
241,786	70,439	-0,248	-0,177
242,801	138,944	-0,118	-0,107
243,815	-75,722	-0,218	-0,053
244,830	184,872	-0,124	-0,127
245,844	235,869	-0,094	-0,107
246,859	-110,399	-0,181	-0,026
247,874	118,051	-0,184	-0,157
248,888	-8,072	-0,275	-0,128
249,903	201,002	-0,150	-0,159
250,917	-7,851	-0,241	-0,112
251,932	800,000	-0,140	-0,300
252,947	-85,620	-0,205	0,044
253,961	-91,058	-0,173	-0,034
254,976	362,445	-0,139	-0,193
255,990	277,887	-0,165	-0,203
257,005	-84,971	-0,183	-0,039
258,020	800,000	-0,090	-0,209
259,034	-17,411	-0,150	0,065
260,049	-55,513	-0,267	-0,082
261,063	513,386	-0,140	-0,226
262,078	-85,421	-0,306	-0,065
263,093	1,939	-0,214	-0,106
264,107	304,071	-0,120	-0,154
265,122	-119,192	-0,126	-0,015
266,136	-34,566	-0,216	-0,081
267,151	70,542	-0,236	-0,168
268,166	90,069	-0,214	-0,165
269,180	800,000	-0,103	-0,279
270,195	20,800	-0,253	-0,141
271,209	-3,907	-0,186	-0,088
272,224	85,229	-0,229	-0,173
273,239	-90,976	-0,202	-0,040
274,253	5,670	-0,240	-0,122
275,268	142,359	-0,185	-0,169
276,282	-14,769	-0,153	-0,067
277,297	32,635	-0,175	-0,104
278,312	414,068	-0,103	-0,151
279,326	-20,738	-0,072	-0,030
280,341	-30,128	-0,155	-0,060
281,355	55,140	-0,096	-0,064
282,370	-81,851	-0,151	-0,034
283,384	76,525	-0,254	-0,185
284,399	166,466	-0,177	-0,173
285,414	-86,602	-0,135	-0,028
286,428	203,116	-0,128	-0,136
287,443	-148,477	-0,112	-0,006
288,457	-44,797	-0,091	-0,031
289,472	51,646	-0,155	-0,101
290,487	268,383	-0,192	-0,232
291,501	-164,226	-0,158	-0,005
292,516	185,799	-0,170	-0,174
293,530	134,485	-0,165	-0,147
294,545	190,049	-0,165	-0,171
295,560	-129,011	-0,081	-0,008
296,574	-31,257	-0,183	-0,071
297,589	-58,932	-0,297	-0,088
298,603	-134,972	-0,199	-0,016
299,618	14,407	-0,297	-0,159
300,633	33,447	-0,106	-0,063
301,647	-200,000	-0,015	-0,086
302,662	-51,818	-0,227	-0,072
303,676	80,735	-0,158	-0,117
304,691	305,907	-0,120	-0,154
305,706	131,591	-0,184	-0,162
306,720	-102,657	-0,130	-0,021
307,735	-35,275	-0,253	-0,094
308,749	-200,000	-0,062	-0,205
309,764	-84,224	-0,240	-0,052
310,779	-14,798	-0,210	-0,092
311,793	98,058	-0,177	-0,140
312,808	101,059	-0,151	-0,120
313,822	110,877	-0,289	-0,238
314,837	-41,237	-0,241	-0,085
315,852	100,395	-0,149	-0,119
316,866	238,011	-0,078	-0,088
317,881	115,253	-0,167	-0,140
318,895	-48,532	-0,249	-0,082
319,910	123,501	-0,215	-0,185
320,925	326,487	-0,136	-0,179
321,939	305,351	-0,162	-0,207
322,954	-153,321	-0,168	-0,008
323,968	119,466	-0,099	-0,084
324,983	246,789	-0,068	-0,079
325,997	71,945	-0,108	-0,077
327,012	504,287	-0,062	-0,098
328,027	-111,561	-0,138	0,019
329,041	800,000	-0,032	-0,073
330,056	606,795	-0,048	-0,083
331,070	-116,746	-0,204	-0,025
332,085	72,155	-0,143	-0,102
333,100	405,710	-0,134	-0,194
334,114	4,875	-0,143	-0,072
335,129	199,487	-0,199	-0,210
336,143	-200,000	-0,044	-0,209
337,158	607,627	-0,077	-0,132
338,173	137,996	-0,105	0,094
339,187	23,988	-0,084	0,047
340,202	52,221	-0,208	-0,135
341,216	-162,969	-0,155	0,005
342,231	150,547	-0,060	-0,056
343,246	32,364	-0,143	-0,084
344,260	-35,863	-0,292	-0,108
345,275	47,740	-0,056	0,036
346,289	321,846	0,024	-0,031
347,304	72,374	-0,096	-0,068
348,319	-39,826	-0,169	-0,060
349,333	157,164	-0,183	-0,173
350,348	32,278	-0,122	-0,072
351,362	260,162	-0,103	-0,122
352,377	70,630	-0,069	-0,049
353,392	-42,726	-0,066	-0,023
354,406	-37,891	-0,124	-0,045
355,421	207,095	1310,550	1399,400
356,435	159,298	1470,751	1399,887
