DTS Sentinel unit serial number:	SN410029Multiplexer serial number:	ORYXHardware model number:	OX2-SRSoftware version number:	ORYX F/W v4,00 Oryx Data Collector v3.7.2.0data status	okinstallation	B3 Nyhavnadifferential loss correction	single-endedforward channel	channel 1reverse channel	N/Adate	2023/12/01time	06:42:30forward acquisition time	300,00reverse acquisition time	0,00gamma	499,1914k internal	0,3213k external	0,3213temperature offset calibration	1,0000default loss term (dB/km)	0,3820temperature slope calibration	1,0000multiplexer offset coefficient	1,0000multiplexer slope coefficient	1,0000fibre end	0,00T internal ref (°C)	7,81T ext. ref 1 (°C)	-6,47T ext. ref 2 (°C)	-6,64length (m)	temperature (°C)	Stokes	anti-Stokes-744,400	104,555	-0,236	-0,201
-743,385	800,000	-0,071	0,174
-742,371	286,695	-0,118	-0,155
-741,356	-200,000	-0,055	0,279
-740,342	144,222	-0,263	-0,254
-739,327	-200,000	-0,013	0,126
-738,312	297,593	-0,173	-0,230
-737,298	-200,000	0,013	0,122
-736,283	-200,000	-0,052	-0,289
-735,269	587,814	-0,128	0,230
-734,254	-200,000	-0,005	-0,072
-733,239	-169,488	-0,311	0,008
-732,225	388,707	-0,131	-0,197
-731,210	75,988	0,208	0,159
-730,196	-77,664	0,037	-0,009
-729,181	-200,000	-0,021	0,113
-728,167	357,749	0,053	0,076
-727,152	154,367	0,037	-0,037
-726,137	-62,402	-0,051	-0,015
-725,123	552,275	0,029	-0,051
-724,108	-200,000	0,005	-0,057
-723,094	463,403	-0,084	-0,137
-722,079	51,162	0,056	-0,038
-721,064	50,567	-0,083	-0,057
-720,050	-200,000	0,038	-0,128
-719,035	61,720	0,098	0,070
-718,021	-200,000	-0,006	-0,150
-717,006	113,108	-0,063	-0,055
-715,991	38,993	-0,124	-0,080
-714,977	800,000	-0,040	0,081
-713,962	-44,158	-0,120	-0,043
-712,948	116,097	0,042	0,038
-711,933	66,173	-0,066	-0,048
-710,918	240,935	-0,043	-0,053
-709,904	308,017	-0,051	0,070
-708,889	21,653	0,036	0,021
-707,875	469,109	0,064	-0,105
-706,860	65,862	-0,131	-0,096
-705,845	-200,000	-0,018	0,090
-704,831	-200,000	0,000	-0,121
-703,816	308,343	-0,126	0,171
-702,802	-100,531	0,086	-0,015
-701,787	300,300	0,037	0,049
-700,772	-200,000	0,004	-0,034
-699,758	159,657	-0,098	0,099
-698,743	418,769	0,032	-0,050
-697,729	-200,000	-0,017	0,152
-696,714	-200,000	-0,021	0,071
-695,699	-200,000	-0,013	-0,080
-694,685	714,595	-0,013	-0,026
-693,670	-123,422	-0,131	-0,015
-692,656	-115,196	-0,073	-0,010
-691,641	83,304	-0,159	-0,126
-690,627	0,524	0,030	-0,016
-689,612	-106,591	0,075	-0,012
-688,597	64,555	-0,037	-0,027
-687,583	49,008	-0,071	-0,048
-686,568	337,578	0,021	-0,029
-685,554	-200,000	0,022	-0,095
-684,539	413,678	0,033	-0,050
-683,524	18,696	0,099	-0,057
-682,510	55,853	0,096	0,067
-681,495	800,000	0,023	-0,065
-680,481	236,211	-0,101	0,122
-679,466	-200,000	0,011	0,058
-678,451	-159,365	0,039	-0,002
-677,437	-200,000	-0,017	0,094
-676,422	800,000	0,017	0,050
-675,408	-200,000	0,012	-0,050
-674,393	631,891	-0,053	-0,097
-673,378	800,000	-0,029	0,065
-672,364	-200,000	-0,054	0,000
-671,349	-200,000	0,017	-0,071
-670,335	-200,000	-0,028	0,105
-669,320	-31,537	0,081	0,033
-668,305	-200,000	0,026	0,117
-667,291	760,705	0,043	0,086
-666,276	157,067	-0,110	-0,110
-665,262	-180,967	-0,115	-0,002
-664,247	-200,000	0,011	-0,204
-663,232	-200,000	-0,039	-0,185
-662,218	800,000	0,021	-0,047
-661,203	-194,643	-0,075	0,000
-660,189	-54,964	-0,070	0,023
-659,174	-19,501	-0,093	-0,041
-658,159	156,016	-0,012	-0,012
-657,145	-200,000	0,005	0,021
-656,130	800,000	-0,032	0,065
-655,116	800,000	0,058	0,125
-654,101	-200,000	0,002	0,102
-653,086	40,440	-0,028	-0,018
-652,072	-200,000	-0,015	-0,154
-651,057	-125,650	-0,190	-0,021
-650,043	-200,000	-0,011	-0,058
-649,028	-200,000	-0,024	-0,076
-648,014	-200,000	0,006	0,104
-646,999	-200,000	-0,016	0,172
-645,984	70,556	-0,044	-0,033
-644,970	239,935	-0,115	-0,139
-643,955	191,190	-0,055	0,060
-642,941	13,159	0,145	0,081
-641,926	-200,000	-0,028	-0,151
-640,911	427,985	-0,021	0,033
-639,897	-58,467	0,048	-0,015
-638,882	-200,000	-0,006	0,166
-637,868	46,586	0,097	0,065
-636,853	-125,018	0,053	0,006
-635,838	207,197	0,049	0,055
-634,824	-200,000	-0,009	-0,080
-633,809	581,862	0,072	0,129
-632,795	-146,485	0,043	0,003
-631,780	100,462	-0,092	-0,077
-630,765	196,024	0,024	-0,026
-629,751	-200,000	0,037	-0,211
-628,736	-61,693	-0,181	-0,054
-627,722	-200,000	0,008	-0,059
-626,707	-10,738	-0,039	0,019
-625,692	-10,804	0,069	0,033
-624,678	-20,298	0,112	-0,050
-623,663	75,355	-0,119	-0,091
-622,649	-200,000	0,001	-0,004
-621,634	485,033	-0,043	0,071
-620,619	-14,209	-0,097	-0,045
-619,605	641,036	0,103	0,190
-618,590	-138,713	0,061	0,005
-617,576	113,954	-0,097	-0,085
-616,561	-126,485	-0,062	0,007
-615,546	-200,000	-0,016	-0,160
-614,532	-127,583	0,069	-0,007
-613,517	-92,321	0,026	-0,005
-612,503	96,510	-0,124	-0,102
-611,488	-192,218	0,123	0,001
-610,474	-200,000	0,027	0,116
-609,459	-11,687	0,017	0,008
-608,444	155,713	0,025	0,025
-607,430	-48,454	-0,154	-0,053
-606,415	-200,000	-0,031	-0,122
-605,401	-17,674	0,095	-0,043
-604,386	164,448	-0,048	-0,049
-603,371	471,211	-0,049	0,080
-602,357	109,915	-0,049	-0,042
-601,342	559,401	0,043	-0,075
-600,328	-138,681	-0,145	-0,011
-599,313	282,704	0,030	-0,038
-598,298	-200,000	0,107	0,000
-597,284	35,429	-0,012	-0,007
-596,269	-84,450	0,118	0,027
-595,255	-8,888	-0,017	-0,008
-594,240	-110,998	-0,076	-0,011
-593,225	-200,000	-0,035	-0,116
-592,211	336,614	-0,036	0,050
-591,196	-192,819	0,142	-0,001
-590,182	-57,922	0,119	-0,037
-589,167	-200,000	-0,009	0,083
-588,152	-200,000	-0,002	0,041
-587,138	-200,000	0,003	-0,127
-586,123	-14,705	0,091	-0,042
-585,109	-124,784	-0,086	-0,009
-584,094	244,297	-0,092	-0,112
-583,079	118,567	-0,023	-0,020
-582,065	-122,662	0,076	0,009
-581,050	246,079	-0,112	-0,136
-580,036	743,730	-0,078	-0,152
-579,021	-200,000	0,010	-0,184
-578,006	-39,824	-0,096	-0,036
-576,992	149,745	-0,088	-0,086
-575,977	646,084	-0,070	-0,129
-574,963	-8,848	0,055	-0,026
-573,948	61,660	0,099	0,071
-572,934	79,180	-0,084	-0,065
-571,919	44,682	-0,042	-0,028
-570,904	401,164	-0,037	0,057
-569,890	-44,943	-0,105	-0,037
-568,875	-200,000	-0,015	-0,072
-567,861	415,264	-0,073	0,113
-566,846	800,000	-0,009	0,025
-565,831	63,816	0,089	-0,064
-564,817	158,389	0,079	0,079
-563,802	203,313	-0,131	-0,146
-562,788	800,000	-0,036	0,100
-561,773	-42,856	-0,077	0,028
-560,758	87,315	-0,082	0,066
-559,744	379,401	0,082	0,121
-558,729	800,000	-0,032	0,079
-557,715	219,241	-0,030	-0,035
-556,700	-89,935	-0,053	0,011
-555,685	-200,000	-0,047	0,181
-554,671	3,033	0,077	0,040
-553,656	-62,367	0,093	0,028
-552,642	-114,905	0,106	-0,014
-551,627	704,678	-0,047	-0,090
-550,612	800,000	-0,041	-0,091
-549,598	-52,016	0,120	0,040
-548,583	-18,401	0,106	-0,048
-547,569	-99,172	-0,101	0,018
-546,554	-24,809	0,049	0,021
-545,539	800,000	0,081	0,174
-544,525	19,636	-0,108	0,062
-543,510	-200,000	-0,028	-0,188
-542,496	63,628	0,124	-0,089
-541,481	-30,154	0,067	-0,027
-540,466	-141,014	0,033	-0,002
-539,452	-200,000	-0,005	0,035
-538,437	-91,467	0,119	-0,024
-537,423	35,321	0,147	0,092
-536,408	-200,000	-0,011	0,063
-535,393	800,000	0,023	0,071
-534,379	-200,000	-0,012	0,071
-533,364	-200,000	0,003	0,043
-532,350	311,519	-0,028	0,038
-531,335	89,216	-0,010	-0,008
-530,321	-200,000	-0,032	0,112
-529,306	459,420	-0,032	-0,051
-528,291	36,576	-0,106	0,067
-527,277	-104,898	-0,104	-0,017
-526,262	-109,119	-0,126	0,019
-525,248	800,000	-0,073	-0,154
-524,233	-80,615	0,068	-0,016
-523,218	1,222	0,061	-0,031
-522,204	165,773	-0,138	0,140
-521,189	356,225	-0,128	-0,183
-520,175	-32,378	-0,067	0,027
-519,160	-200,000	0,005	-0,032
-518,145	113,709	0,066	0,057
-517,131	163,945	0,058	0,059
-516,116	93,966	0,078	-0,064
-515,102	-125,885	-0,092	-0,010
-514,087	195,054	-0,102	-0,111
-513,072	384,807	0,027	-0,040
-512,058	281,972	0,110	-0,142
-511,043	800,000	-0,049	0,111
-510,029	800,000	0,016	-0,041
-509,014	-109,642	0,199	-0,030
-507,999	800,000	-0,054	0,111
-506,985	-141,795	-0,092	-0,006
-505,970	173,895	-0,105	-0,109
-504,956	58,456	-0,087	-0,061
-503,941	56,352	-0,041	-0,029
-502,926	103,125	0,111	0,093
-501,912	-200,000	0,020	0,227
-500,897	-200,000	-0,050	-0,162
-499,883	-69,948	-0,084	-0,023
-498,868	340,355	-0,026	0,036
-497,853	28,310	0,080	0,049
-496,839	195,825	0,022	0,024
-495,824	-200,000	0,019	0,078
-494,810	24,628	0,049	0,029
-493,795	800,000	-0,040	-0,087
-492,781	-27,676	-0,102	0,042
-491,766	-200,000	-0,002	-0,059
-490,751	-200,000	-0,028	0,093
-489,737	-200,000	-0,011	-0,056
-488,722	-124,105	0,142	0,016
-487,708	-200,000	-0,009	-0,076
-486,693	-200,000	0,028	-0,095
-485,678	800,000	-0,026	-0,055
-484,664	215,382	0,109	-0,124
-483,649	-69,576	-0,094	-0,026
-482,635	-200,000	0,011	0,147
-481,620	-200,000	0,030	-0,117
-480,605	-137,137	0,069	-0,006
-479,591	140,677	-0,116	0,110
-478,576	81,642	-0,032	-0,024
-477,562	29,338	-0,114	-0,069
-476,547	197,640	-0,070	0,076
-475,532	-200,000	0,022	-0,071
-474,518	-76,398	0,093	-0,023
-473,503	-200,000	0,011	0,063
-472,489	653,027	0,010	-0,019
-471,474	95,436	0,104	-0,085
-470,459	430,376	-0,123	-0,191
-469,445	211,956	-0,131	-0,148
-468,430	-50,548	-0,076	0,025
-467,416	-200,000	0,005	-0,020
-466,401	114,193	-0,124	0,108
-465,386	-16,347	-0,097	0,044
-464,372	334,089	0,063	-0,087
-463,357	800,000	-0,078	-0,161
-462,343	-147,620	0,019	-0,001
-461,328	104,963	0,010	0,009
-460,313	30,476	-0,021	0,013
-459,299	-153,584	0,099	-0,005
-458,284	-194,359	-0,138	-0,001
-457,270	160,635	-0,094	0,095
-456,255	319,127	0,044	-0,060
-455,241	-136,271	0,081	0,007
-454,226	-200,000	-0,003	-0,133
-453,211	-200,000	-0,004	-0,051
-452,197	800,000	-0,023	0,071
-451,182	-128,830	0,134	0,013
-450,168	62,009	-0,111	0,079
-449,153	99,906	0,061	0,051
-448,138	-99,724	-0,081	0,014
-447,124	-144,832	0,006	-0,000
-446,109	-52,023	-0,046	-0,015
-445,095	131,813	-0,054	0,050
-444,080	-0,950	0,178	0,090
-443,065	315,200	0,027	0,036
-442,051	-200,000	0,026	-0,112
-441,036	165,360	-0,039	-0,039
-440,022	-200,000	0,016	0,079
-439,007	44,844	0,128	-0,084
-437,992	312,086	-0,088	0,118
-436,978	-200,000	-0,000	0,122
-435,963	-200,000	-0,001	0,111
-434,949	710,263	0,002	-0,004
-433,934	-200,000	-0,011	-0,043
-432,919	413,546	0,025	-0,039
-431,905	-200,000	-0,026	-0,099
-430,890	-200,000	-0,013	0,056
-429,876	-92,400	-0,097	0,019
-428,861	154,848	0,047	-0,047
-427,846	-200,000	0,007	-0,033
-426,832	-18,084	0,028	-0,012
-425,817	-46,134	0,044	-0,016
-424,803	415,162	-0,037	-0,056
-423,788	72,149	0,030	-0,022
-422,773	-147,593	0,126	-0,007
-421,759	800,000	0,065	0,162
-420,744	-200,000	0,059	0,218
-419,730	330,252	-0,028	-0,038
-418,715	105,922	-0,245	-0,207
-417,701	614,932	-0,025	-0,045
-416,686	-200,000	-0,015	0,159
-415,671	50,466	0,168	0,114
-414,657	94,176	0,064	0,052
-413,642	-99,866	-0,062	-0,011
-412,628	-151,228	-0,124	0,007
-411,613	162,950	-0,091	-0,092
-410,598	12,235	-0,124	-0,068
-409,584	-200,000	-0,017	0,057
-408,569	-158,030	0,184	-0,008
-407,555	174,247	0,023	0,024
-406,540	51,178	0,055	0,037
-405,525	593,702	-0,025	-0,044
-404,511	98,487	-0,072	0,059
-403,496	-48,275	0,121	-0,041
-402,482	-41,555	-0,046	0,017
-401,467	-157,585	0,131	0,005
-400,452	98,782	0,052	-0,043
-399,438	-32,028	-0,038	0,015
-398,423	-10,263	0,130	0,062
-397,409	-39,850	-0,112	0,042
-396,394	-191,502	0,056	0,000
-395,379	260,131	-0,029	0,036
-394,365	18,806	-0,051	0,029
-393,350	-166,231	-0,030	-0,001
-392,336	-47,662	-0,041	0,014
-391,321	-17,595	-0,115	0,051
-390,306	-200,000	-0,008	-0,083
-389,292	-99,459	0,070	-0,012
-388,277	-200,000	0,020	0,177
-387,263	-200,000	-0,024	0,129
-386,248	800,000	0,011	0,022
-385,233	50,945	-0,103	0,070
-384,219	-200,000	0,010	-0,050
-383,204	-200,000	-0,022	-0,100
-382,190	232,079	0,064	-0,076
-381,175	-200,000	-0,010	-0,100
-380,160	-129,977	0,118	0,011
-379,146	-200,000	0,034	0,161
-378,131	15,543	0,120	0,067
-377,117	-82,770	0,151	-0,035
-376,102	-155,096	-0,067	0,003
-375,088	-104,830	0,066	-0,011
-374,073	-200,000	0,019	0,069
-373,058	-200,000	0,022	0,082
-372,044	5,610	-0,086	0,045
-371,029	36,099	0,021	0,013
-370,015	458,216	-0,040	-0,063
-369,000	35,806	0,043	0,027
-367,985	-200,000	0,003	0,040
-366,971	-72,376	0,080	-0,021
-365,956	116,494	0,040	0,035
-364,942	313,982	0,027	0,036
-363,927	51,603	0,096	0,065
-362,912	-200,000	0,022	0,131
-361,898	56,867	0,134	-0,093
-360,883	-200,000	-0,026	-0,175
-359,869	54,851	-0,061	0,042
-358,854	101,022	0,086	0,071
-357,839	112,831	0,062	0,054
-356,825	557,099	-0,067	0,116
-355,810	-200,000	-0,014	0,095
-354,796	112,567	-0,061	-0,052
-353,781	-200,000	0,045	-0,147
-352,766	58,292	-0,064	0,045
-351,752	-20,342	0,028	-0,012
-350,737	246,566	-0,031	0,037
-349,723	10,080	0,112	0,060
-348,708	-200,000	-0,009	-0,050
-347,693	150,391	0,102	-0,098
-346,679	106,942	-0,066	-0,056
-345,664	-200,000	0,002	0,032
-344,650	214,624	-0,114	0,129
-343,635	97,522	0,057	0,046
-342,620	800,000	0,011	0,033
-341,606	800,000	-0,044	-0,099
-340,591	-29,096	0,129	0,053
-339,577	93,517	-0,148	-0,119
-338,562	222,305	-0,057	-0,066
-337,548	-200,000	0,007	0,046
-336,533	3,728	0,142	-0,074
-335,518	-200,000	0,014	0,090
-334,504	147,356	-0,024	0,023
-333,489	-94,840	0,077	-0,015
-332,475	-85,174	0,060	-0,013
-331,460	102,098	0,109	-0,091
-330,445	103,870	-0,045	0,038
-329,431	-200,000	-0,023	0,158
-328,416	800,000	-0,018	0,045
-327,402	-200,000	0,009	0,155
-326,387	-51,593	0,163	0,054
-325,372	-10,844	-0,093	-0,044
-324,358	-200,000	-0,019	-0,154
-323,343	800,000	-0,039	-0,086
-322,329	800,000	-0,034	0,078
-321,314	154,980	0,087	0,085
-320,299	-200,000	0,013	-0,110
-319,285	-74,840	-0,095	-0,024
-318,270	44,245	-0,104	0,068
-317,256	78,850	0,099	0,076
-316,241	-79,138	0,106	0,025
-315,226	-200,000	-0,009	-0,113
-314,212	552,288	0,061	0,104
-313,197	-200,000	-0,010	0,194
-312,183	-121,196	0,063	-0,007
-311,168	221,439	-0,044	-0,050
-310,153	121,853	0,107	0,095
-309,139	-200,000	0,017	-0,092
-308,124	-200,000	0,008	-0,067
-307,110	-200,000	0,010	-0,070
-306,095	-175,197	0,151	0,003
-305,080	-74,579	0,013	0,003
-304,066	-200,000	0,023	-0,078
-303,051	800,000	0,009	-0,029
-302,037	-9,108	0,116	-0,055
-301,022	-83,281	-0,013	0,003
-300,008	503,357	0,123	0,204
-298,993	127,944	-0,016	-0,015
-297,978	-28,521	0,096	-0,039
-296,964	205,824	-0,027	0,030
-295,949	-115,998	-0,094	0,012
-294,935	-184,412	-0,073	0,001
-293,920	-30,451	0,017	0,007
-292,905	192,255	0,029	-0,031
-291,891	800,000	-0,015	0,038
-290,876	6,016	-0,078	-0,041
-289,862	162,175	-0,060	0,060
-288,847	-200,000	-0,015	-0,076
-287,832	800,000	-0,032	-0,068
-286,818	800,000	0,020	0,043
-285,803	-200,000	0,004	0,070
-284,789	-152,857	0,248	0,012
-283,774	-11,533	-0,005	-0,003
-282,759	-57,040	0,120	-0,037
-281,745	-200,000	0,048	-0,185
-280,730	637,774	-0,020	0,036
-279,716	157,850	-0,153	0,151
-278,701	64,832	-0,038	0,027
-277,686	-200,000	0,013	0,059
-276,672	-89,348	-0,081	0,017
-275,657	800,000	0,026	0,071
-274,643	45,829	-0,144	-0,095
-273,628	60,772	-0,041	-0,029
-272,613	181,747	-0,021	-0,023
-271,599	213,487	0,078	0,088
-270,584	800,000	0,045	0,125
-269,570	606,930	0,031	0,056
-268,555	-200,000	0,024	0,098
-267,540	-64,928	-0,039	-0,011
-266,526	362,458	0,055	-0,079
-265,511	-200,000	0,004	-0,030
-264,497	-54,796	0,054	0,017
-263,482	125,020	-0,024	-0,022
-262,467	-200,000	0,010	-0,058
-261,453	-200,000	-0,036	-0,130
-260,438	-200,000	0,020	-0,136
-259,424	800,000	-0,044	-0,112
-258,409	-200,000	0,013	0,042
-257,395	122,495	-0,019	-0,017
-256,380	-200,000	-0,008	0,048
-255,365	-200,000	-0,028	0,161
-254,351	272,375	0,059	-0,075
-253,336	-21,960	-0,087	-0,037
-252,322	278,168	-0,035	0,044
-251,307	341,897	-0,027	0,037
-250,292	-139,511	-0,081	-0,006
-249,278	-188,062	0,083	0,001
-248,263	-3,095	-0,097	0,048
-247,249	115,631	-0,065	0,056
-246,234	800,000	0,036	0,071
-245,219	-30,763	0,039	-0,016
-244,205	106,427	0,176	0,148
-243,190	-116,091	-0,013	-0,002
-242,176	-107,501	-0,181	-0,028
-241,161	-130,888	-0,103	-0,010
-240,146	214,447	0,064	0,072
-239,132	553,862	0,016	0,028
-238,117	336,433	0,082	0,113
-237,103	-117,240	-0,163	-0,021
-236,088	227,358	0,048	-0,056
-235,073	-90,782	0,102	-0,021
-234,059	-73,328	0,073	0,019
-233,044	799,700	-0,072	0,142
-232,030	-63,263	0,049	0,014
-231,015	-200,000	0,057	-0,218
-230,000	410,561	-0,111	-0,167
-228,986	-68,238	-0,047	-0,013
-227,971	253,550	0,083	0,101
-226,957	800,000	-0,014	0,037
-225,942	-8,795	0,053	0,025
-224,927	-200,000	0,024	-0,125
-223,913	124,970	-0,067	0,060
-222,898	0,529	-0,061	-0,031
-221,884	94,169	-0,116	-0,094
-220,869	-124,842	-0,005	0,001
-219,855	211,066	0,065	0,073
-218,840	-76,408	-0,118	0,029
-217,825	214,734	0,009	-0,010
-216,811	-200,000	0,040	-0,148
-215,796	431,317	-0,043	-0,067
-214,782	800,000	-0,051	-0,102
-213,767	31,395	0,150	-0,091
-212,752	721,863	0,040	0,075
-211,738	-200,000	-0,006	-0,081
-210,723	-200,000	0,011	-0,141
-209,709	-200,000	-0,003	0,045
-208,694	-101,921	-0,071	-0,012
-207,679	14,133	-0,067	0,037
-206,665	-122,905	0,111	0,013
-205,650	-11,346	-0,091	-0,042
-204,636	145,486	-0,037	0,035
-203,621	66,819	-0,074	0,054
-202,606	-200,000	-0,006	-0,024
-201,592	197,934	-0,042	-0,046
-200,577	158,439	-0,077	-0,076
-199,563	-109,151	0,100	-0,015
-198,548	235,261	0,063	0,074
-197,533	13,772	0,122	0,067
-196,519	-54,170	0,106	-0,034
-195,504	800,000	0,037	0,082
-194,490	-37,919	-0,145	0,054
-193,475	-200,000	-0,017	-0,131
-192,460	-200,000	0,010	0,045
-191,446	-7,559	0,098	0,047
-190,431	-200,000	0,014	0,098
-189,417	278,392	0,022	0,028
-188,402	-165,458	-0,042	0,001
-187,387	-19,367	-0,118	0,052
-186,373	227,928	0,153	-0,177
-185,358	50,896	0,068	-0,046
-184,344	-44,261	-0,035	0,013
-183,329	800,000	0,021	0,052
-182,315	-119,316	0,127	0,016
-181,300	-200,000	0,006	-0,060
-180,285	-9,779	-0,013	-0,006
-179,271	-143,063	-0,043	0,003
-178,256	-200,000	0,030	0,115
-177,242	-200,000	-0,003	0,036
-176,227	-200,000	-0,045	0,154
-175,212	-36,137	-0,141	0,054
-174,198	10,236	0,035	-0,019
-173,183	67,875	-0,083	-0,060
-172,169	381,611	-0,034	-0,050
-171,154	-3,901	-0,102	-0,050
-170,139	-88,227	0,005	-0,001
-169,125	-200,000	-0,034	0,122
-168,110	800,000	0,034	0,098
-167,096	-94,697	-0,016	-0,003
-166,081	-200,000	-0,016	-0,092
-165,066	37,948	0,011	0,007
-164,052	-200,000	0,000	-0,087
-163,037	3,335	-0,103	-0,053
-162,023	261,391	0,076	-0,094
-161,008	-139,990	-0,161	0,012
-159,993	-200,000	0,050	0,000
-158,979	-78,531	0,059	0,014
-157,964	154,719	0,076	0,074
-156,950	-4,121	-0,120	0,058
-155,935	-101,004	0,106	-0,018
-154,920	629,637	0,086	0,154
-153,906	41,465	0,026	-0,016
-152,891	800,000	-0,009	0,019
-151,877	-200,000	-0,008	-0,066
-150,862	12,668	-0,153	-0,084
-149,847	-186,285	-0,117	0,001
-148,833	213,989	0,046	-0,052
-147,818	-16,798	-0,023	0,010
-146,804	-200,000	-0,005	-0,087
-145,789	-200,000	-0,025	0,163
-144,775	-200,000	0,012	0,060
-143,760	538,719	0,023	0,039
-142,745	12,748	0,045	-0,024
-141,731	600,907	0,054	-0,095
-140,716	-200,000	0,002	0,028
-139,702	800,000	0,048	0,120
-138,687	218,691	0,069	-0,079
-137,672	-145,246	0,100	-0,006
-136,658	800,000	0,015	-0,038
-135,643	195,502	0,034	0,037
-134,629	104,158	0,032	0,027
-133,614	620,261	-0,039	0,069
-132,599	66,440	0,067	0,048
-131,585	734,179	-0,008	0,016
-130,570	-33,019	-0,018	-0,007
-129,556	-103,192	-0,062	-0,010
-128,541	262,350	-0,053	-0,066
-127,526	291,284	0,062	0,080
-126,512	-200,000	-0,044	0,166
-125,497	-200,000	-0,003	0,044
-124,483	-25,587	0,074	0,031
-123,468	800,000	-0,064	-0,133
-122,453	-42,999	-0,080	-0,029
-121,439	663,227	-0,054	-0,099
-120,424	343,244	0,093	-0,129
-119,410	26,619	0,032	-0,019
-118,395	2,854	-0,009	-0,005
-117,380	-9,218	0,059	0,028
-116,366	-118,404	-0,132	0,016
-115,351	-200,000	-0,029	-0,095
-114,337	-189,057	-0,070	-0,001
-113,322	-200,000	0,023	0,082
-112,307	-188,164	0,103	-0,001
-111,293	-200,000	-0,009	0,078
-110,278	330,988	-0,059	0,081
-109,264	800,000	-0,026	0,070
-108,249	-74,938	-0,086	-0,022
-107,234	800,000	-0,046	0,106
-106,220	312,539	0,054	0,072
-105,205	-200,000	0,013	0,067
-104,191	109,834	0,022	-0,019
-103,176	800,000	0,030	0,088
-102,162	-200,000	0,020	-0,133
-101,147	800,000	0,047	0,129
-100,132	800,000	-0,043	-0,085
-99,118	71,453	-0,055	0,040
-98,103	-80,830	-0,114	0,027
-97,089	-112,701	0,065	0,009
-96,074	174,337	0,055	0,056
-95,059	-36,223	0,107	-0,041
-94,045	-164,227	0,141	0,004
-93,030	-200,000	-0,012	0,039
-92,016	-200,000	0,000	0,086
-91,001	-200,000	0,010	0,112
-89,986	-113,539	0,097	0,013
-88,972	-58,643	0,059	0,018
-87,957	28,617	0,062	0,037
-86,943	424,561	-0,028	0,042
-85,928	716,826	-0,043	0,082
-84,913	-200,000	-0,021	0,093
-83,899	152,325	-0,041	-0,039
-82,884	800,000	0,066	0,153
-81,870	529,526	0,079	0,132
-80,855	271,393	0,062	0,078
-79,840	-121,166	-0,052	-0,006
-78,826	207,362	0,025	0,027
-77,811	92,461	0,039	0,031
-76,797	322,252	0,033	0,045
-75,782	676,481	0,006	-0,010
-74,767	410,028	-0,074	-0,111
-73,753	-200,000	-0,004	-0,022
-72,738	-71,873	0,169	-0,044
-71,724	603,395	-0,035	-0,061
-70,709	-17,476	0,093	-0,041
-69,694	58,974	-0,076	0,053
-68,680	-200,000	0,009	0,058
-67,665	-79,013	0,070	-0,017
-66,651	-75,100	0,147	0,037
-65,636	-160,880	-0,162	0,006
-64,622	-200,000	0,003	-0,049
-63,607	-109,139	-0,109	-0,016
-62,592	800,000	-0,037	0,111
-61,578	248,674	0,063	-0,076
-60,563	800,000	-0,031	0,080
-59,549	-200,000	0,023	0,147
-58,534	67,780	-2,090	-1,506
-57,519	564,318	-1,078	-1,850
-56,505	-200,000	-0,314	-4,399
-55,490	658,758	0,960	1,749
-54,476	800,000	5,210	11,389
-53,461	-200,000	22,487	347,402
-52,446	800,000	757,426	2286,450
-51,432	530,566	1642,291	2747,928
-50,417	67,411	1640,759	1179,616
-49,403	15,417	1518,480	838,275
-48,388	9,707	1444,806	770,200
-47,373	19,266	1437,811	811,957
-46,359	13,189	1425,969	776,588
-45,344	8,002	1421,971	749,867
-44,330	7,935	1420,179	748,580
-43,315	7,853	1418,427	747,236
-42,300	7,872	1416,673	746,371
-41,286	7,989	1415,132	746,080
-40,271	7,893	1414,053	745,034
-39,257	7,907	1412,947	744,486
-38,242	7,926	1411,773	743,928
-37,227	7,935	1410,802	743,426
-36,213	7,899	1409,357	742,468
-35,198	7,928	1408,171	741,951
-34,184	7,931	1407,288	741,470
-33,169	7,848	1405,999	740,374
-32,154	7,875	1405,136	740,016
-31,140	7,880	1403,799	739,303
-30,125	7,942	1402,589	738,929
-29,111	7,895	1401,412	738,058
-28,096	7,897	1400,313	737,459
-27,082	7,846	1399,016	736,512
-26,067	7,831	1398,108	735,933
-25,052	7,890	1396,896	735,541
-24,038	7,829	1396,042	734,777
-23,023	7,814	1395,309	734,292
-22,009	7,804	1394,382	733,731
-20,994	7,805	1393,214	733,091
-19,979	7,777	1392,226	732,411
-18,965	7,838	1390,969	732,003
-17,950	7,779	1390,186	731,292
-16,936	7,811	1389,429	731,011
-15,921	7,691	1388,476	729,925
-14,906	7,720	1387,643	729,592
-13,892	7,796	1386,403	729,264
-12,877	7,760	1385,685	728,692
-11,863	7,763	1384,893	728,260
-10,848	7,708	1383,962	727,488
-9,833	7,713	1382,967	726,956
-8,819	7,670	1382,303	726,382
-7,804	7,648	1381,364	725,760
-6,790	7,676	1380,191	725,244
-5,775	7,720	1379,186	724,886
-4,760	7,641	1378,310	724,037
-3,746	7,707	1377,307	723,785
-2,731	7,665	1376,487	723,130
-1,717	7,655	1375,773	722,679
-0,702	7,654	1373,948	721,692
0,313	11,682	1283,899	692,604
1,327	27,359	676,047	399,576
2,342	42,649	116,095	74,358
3,356	0,932	16,532	8,323
4,371	15,586	3,845	2,123
5,386	-37,060	1,300	0,488
6,400	625,362	0,360	0,643
7,415	-31,647	-0,168	-0,066
8,429	-24,080	-0,278	-0,117
9,444	-86,932	-0,388	-0,083
10,459	-74,085	-0,324	-0,082
11,473	-21,731	-0,349	-0,149
12,488	27,254	-0,283	-0,167
13,502	-51,814	-0,380	-0,124
14,517	-65,626	-0,361	-0,101
15,531	95,102	-0,380	-0,304
16,546	-15,307	-0,324	-0,145
17,561	184,462	-0,315	-0,329
18,575	-114,885	-0,204	-0,027
19,590	139,310	-0,177	-0,164
20,604	22,654	-0,303	-0,174
21,619	49,268	-0,348	-0,230
22,634	106,266	-0,402	-0,335
23,648	62,596	-0,402	-0,282
24,663	24,167	-0,403	-0,234
25,677	29,064	-0,267	-0,159
26,692	102,530	-0,396	-0,326
27,707	211,919	-0,293	-0,325
28,721	98,120	-0,391	-0,317
29,736	169,852	-0,335	-0,337
30,750	75,786	-0,380	-0,282
31,765	45,575	-0,496	-0,321
32,780	-24,958	-0,515	-0,214
33,794	-46,713	-0,354	-0,121
34,809	77,977	-0,378	-0,283
35,823	47,936	-0,419	-0,274
36,838	102,513	-0,220	-0,181
37,853	-24,931	-0,390	-0,162
38,867	-13,215	-0,418	-0,190
39,882	26,325	-0,257	-0,151
40,896	32,588	-0,268	-0,162
41,911	41,795	-0,256	-0,163
42,926	185,211	-0,253	-0,264
43,940	272,454	-0,265	-0,329
44,955	68,701	-0,399	-0,287
45,969	33,012	-0,302	-0,183
46,984	52,300	-0,304	-0,203
47,999	-56,913	-0,313	-0,096
49,013	106,407	-0,280	-0,233
50,028	200,072	-0,286	-0,308
51,042	77,724	-0,248	-0,185
52,057	117,520	-0,325	-0,281
53,071	106,882	-0,316	-0,263
54,086	-12,326	-0,334	-0,152
55,101	37,516	-0,389	-0,241
56,115	54,260	-0,409	-0,276
57,130	266,150	-0,253	-0,310
58,144	158,866	-0,387	-0,378
59,159	50,600	-0,402	-0,266
60,174	56,935	-0,356	-0,243
61,188	329,205	-0,240	-0,325
62,203	192,289	-0,237	-0,251
63,217	222,331	-0,278	-0,314
64,232	-63,615	-0,297	-0,085
65,247	93,498	-0,272	-0,215
66,261	39,280	-0,426	-0,267
67,276	-53,377	-0,249	-0,080
68,290	-12,041	-0,396	-0,181
69,305	20,484	-0,239	-0,135
70,320	42,582	-0,298	-0,190
71,334	78,843	-0,264	-0,198
72,349	23,693	-0,303	-0,174
73,363	60,711	-0,447	-0,310
74,378	65,177	-0,304	-0,215
75,393	26,352	-0,343	-0,200
76,407	33,556	-0,183	-0,111
77,422	61,835	-0,163	-0,114
78,436	-183,063	-0,210	0,003
79,451	207,142	-0,139	-0,152
80,466	230,319	-0,280	-0,322
81,480	-44,714	-0,234	-0,081
82,495	82,922	-0,299	-0,227
83,509	362,772	-0,227	-0,320
84,524	24,865	-0,479	-0,277
85,539	-111,050	-0,377	-0,054
86,553	110,202	-0,190	-0,160
87,568	-16,481	-0,408	-0,180
88,582	74,903	-0,296	-0,218
89,597	0,267	-0,363	-0,181
90,611	206,058	-0,223	-0,243
91,626	560,802	-0,117	-0,199
92,641	-102,856	-0,306	-0,050
93,655	-114,685	-0,418	-0,055
94,670	-21,525	-0,268	-0,114
95,684	-24,614	-0,367	-0,152
96,699	244,534	-0,241	-0,284
97,714	109,584	-0,229	-0,192
98,728	182,850	-0,187	-0,194
99,743	144,356	-0,257	-0,240
100,757	-105,388	-0,366	-0,058
101,772	-115,390	-0,346	0,045
102,787	50,134	-0,208	-0,137
103,801	-38,506	-0,303	-0,111
104,816	-22,034	-0,187	-0,079
105,830	108,479	-0,239	-0,199
106,845	112,461	-0,280	-0,236
107,860	-14,565	-0,222	-0,099
108,874	162,093	-0,177	-0,173
109,889	146,500	-0,163	-0,153
110,903	42,321	-0,253	-0,160
111,918	58,816	-0,230	-0,157
112,933	73,718	-0,138	-0,101
113,947	49,274	-0,200	-0,131
114,962	-4,294	-0,262	-0,126
115,976	-84,320	-0,290	-0,064
116,991	-15,968	-0,356	-0,157
118,006	-7,716	-0,326	-0,153
119,020	24,627	-0,312	-0,180
120,035	-34,291	-0,213	-0,081
121,049	-45,464	-0,185	-0,064
122,064	-47,691	-0,244	-0,082
123,079	181,096	-0,259	-0,266
124,093	173,927	-0,241	-0,243
125,108	372,974	-0,234	-0,333
126,122	-2,392	-0,199	-0,097
127,137	14,047	-0,243	-0,131
128,151	37,261	-0,121	-0,075
129,166	434,569	-0,136	-0,206
130,181	-12,600	-0,345	-0,156
131,195	104,762	-0,164	-0,134
132,210	72,857	-0,230	-0,168
133,224	742,497	-0,158	-0,297
134,239	546,585	-0,121	-0,202
135,254	157,287	-0,271	-0,261
136,268	-43,827	-0,322	-0,112
137,283	134,068	-0,321	-0,289
138,297	284,076	-0,244	-0,306
139,312	117,579	-0,262	-0,225
140,327	134,495	-0,225	-0,203
141,341	37,852	-0,225	-0,139
142,356	-154,378	-0,292	-0,013
143,370	23,607	-0,212	-0,121
144,385	-13,680	-0,236	-0,106
145,400	245,789	-0,143	-0,168
146,414	207,823	-0,271	-0,295
147,429	-19,187	-0,287	-0,124
148,443	28,145	-0,200	-0,117
149,458	227,589	-0,170	-0,193
150,473	-40,659	-0,278	-0,100
151,487	96,682	-0,172	-0,137
152,502	19,688	-0,360	-0,201
153,516	102,801	-0,285	-0,232
154,531	59,216	-0,276	-0,189
155,546	17,895	-0,328	-0,181
156,560	184,021	-0,133	-0,137
157,575	-31,035	-0,092	-0,036
158,589	-96,115	-0,277	-0,051
159,604	58,145	-0,194	-0,132
160,619	76,429	-0,175	-0,129
161,633	104,988	-0,235	-0,193
162,648	-144,097	-0,219	0,014
163,662	174,565	-0,223	-0,224
164,677	-183,279	-0,290	0,003
165,692	214,563	-0,162	-0,178
166,706	-2,316	-0,205	-0,100
167,721	119,961	-0,251	-0,216
168,735	95,359	-0,231	-0,183
169,750	-200,000	-0,031	-0,128
170,764	-40,917	-0,152	-0,054
171,779	-9,323	-0,141	-0,065
172,794	-65,619	-0,251	-0,070
173,808	463,723	-0,110	-0,171
174,823	-1,487	-0,278	-0,136
175,837	172,192	-0,189	-0,189
176,852	117,946	-0,228	-0,195
177,867	35,007	-0,198	-0,120
178,881	-70,071	-0,138	0,036
179,896	44,479	-0,263	-0,168
180,910	522,643	-0,102	-0,168
181,925	117,171	-0,204	-0,174
182,940	279,315	-0,190	-0,236
183,954	32,282	-0,149	-0,089
184,969	-66,953	-0,143	0,039
185,983	-93,567	-0,258	-0,049
186,998	-69,344	-0,293	-0,078
188,013	58,678	-0,141	-0,096
189,027	449,057	-0,146	-0,223
190,042	547,492	-0,166	-0,276
191,056	236,183	-0,157	-0,181
192,071	112,312	-0,296	-0,248
193,086	31,008	-0,145	-0,086
194,100	86,006	-0,176	-0,134
195,115	33,306	-0,195	-0,117
196,129	35,654	-0,179	-0,109
197,144	202,034	-0,222	-0,238
198,159	242,017	-0,128	-0,149
199,173	-61,183	-0,147	-0,043
200,188	-47,190	-0,142	-0,048
201,202	55,374	-0,156	-0,105
202,217	97,829	-0,177	-0,141
203,232	13,151	-0,200	-0,107
204,246	-40,915	-0,230	-0,082
205,261	171,992	-0,149	-0,149
206,275	88,948	-0,251	-0,193
207,290	279,299	-0,139	-0,173
208,304	-133,983	-0,195	0,016
209,319	332,209	-0,139	-0,186
210,334	-2,977	-0,266	-0,128
211,348	152,457	-0,185	-0,175
212,363	220,908	-0,165	-0,183
213,377	322,732	-0,080	-0,106
214,392	800,000	-0,066	-0,186
215,407	800,000	-0,084	-0,190
216,421	-88,602	-0,137	-0,028
217,436	-14,813	-0,162	-0,072
218,450	-32,693	-0,238	-0,091
219,465	32,699	-0,182	-0,109
220,480	757,986	-0,130	-0,244
221,494	-44,426	-0,103	0,035
222,509	-200,000	-0,016	-0,239
223,523	-36,911	-0,132	-0,049
224,538	-44,812	-0,201	-0,069
225,553	107,905	-0,161	-0,133
226,567	341,311	-0,121	-0,164
227,582	166,419	-0,138	-0,135
228,596	65,991	-0,073	-0,051
229,611	-85,725	-0,282	-0,060
230,626	-200,000	-0,047	-0,146
231,640	-74,180	-0,130	-0,032
232,655	23,399	-0,167	-0,095
233,669	59,089	-0,234	-0,159
234,684	12,386	-0,291	-0,154
235,699	135,302	-0,227	-0,204
236,713	408,213	-0,137	-0,200
237,728	-28,117	-0,079	-0,031
238,742	1,341	-0,272	-0,135
239,757	800,000	-0,087	-0,231
240,772	-195,710	-0,304	0,001
241,786	800,000	-0,074	-0,208
242,801	-113,290	-0,137	-0,018
243,815	-53,502	-0,190	0,060
244,830	-5,503	-0,298	-0,141
245,844	-99,287	-0,094	0,016
246,859	4,769	-0,134	-0,068
247,874	73,495	-0,152	-0,110
248,888	42,860	-0,206	-0,129
249,903	-200,000	-0,206	0,000
250,917	84,198	-0,188	-0,142
251,932	119,244	-0,144	-0,123
252,947	49,112	-0,161	-0,104
253,961	-15,396	-0,168	-0,074
254,976	297,313	-0,104	-0,131
255,990	-38,836	-0,275	-0,100
257,005	-8,596	-0,154	-0,071
258,020	-63,898	-0,098	-0,028
259,034	165,815	-0,149	-0,146
260,049	226,639	-0,087	-0,097
261,063	373,544	-0,189	-0,266
262,078	204,650	-0,207	-0,222
263,093	800,000	-0,171	-0,333
264,107	103,377	-0,139	-0,112
265,122	243,832	-0,085	-0,099
266,136	77,932	-0,198	-0,145
267,151	-61,563	-0,148	-0,043
268,166	-107,563	-0,151	0,023
269,180	800,000	-0,065	-0,161
270,195	95,179	-0,179	-0,140
271,209	141,833	-0,120	-0,109
272,224	-86,236	-0,194	-0,041
273,239	181,151	-0,108	-0,109
274,253	58,682	-0,144	0,097
275,268	220,598	-0,168	-0,186
276,282	137,694	-0,223	-0,201
277,297	236,324	-0,216	-0,246
278,312	222,863	-0,088	-0,097
279,326	32,461	-0,173	-0,102
280,341	-149,568	-0,188	-0,010
281,355	-76,061	-0,078	-0,019
282,370	-117,777	-0,127	0,016
283,384	122,967	-0,124	-0,107
284,399	176,389	-0,113	-0,113
285,414	55,121	-0,149	-0,099
286,428	-55,837	-0,181	-0,055
287,443	800,000	-0,083	-0,170
288,457	57,097	-0,046	0,031
289,472	-200,000	-0,048	-0,214
290,487	-14,326	-0,165	-0,073
291,501	426,680	-0,193	-0,287
292,516	208,918	-0,186	-0,200
293,530	330,848	-0,054	-0,072
294,545	38,353	-0,211	-0,129
295,560	73,048	-0,160	-0,115
296,574	1,044	-0,096	-0,047
297,589	-55,305	-0,246	-0,076
298,603	-14,738	-0,176	-0,077
299,618	-74,097	-0,138	-0,034
300,633	-9,894	-0,104	-0,047
301,647	-66,116	-0,162	-0,044
302,662	6,386	-0,111	-0,056
303,676	151,614	-0,042	0,039
304,691	-19,086	-0,185	-0,079
305,706	800,000	-0,047	-0,090
306,720	43,722	-0,194	-0,122
307,735	-130,981	-0,171	-0,015
308,749	336,166	-0,072	-0,096
309,764	-200,000	-0,039	-0,128
310,779	-7,128	-0,156	0,072
311,793	211,339	-0,106	-0,115
312,808	70,314	-0,161	-0,114
313,822	103,837	-0,152	-0,122
314,837	487,956	-0,117	-0,184
315,852	-34,334	-0,122	-0,046
316,866	-29,551	-0,069	-0,027
317,881	116,379	-0,047	0,039
318,895	90,503	-0,108	-0,083
319,910	105,868	-0,160	-0,130
320,925	800,000	-0,051	-0,155
321,939	-76,813	-0,212	-0,050
322,954	524,325	-0,078	-0,126
323,968	38,826	-0,158	-0,096
324,983	-200,000	-0,025	-0,222
325,997	800,000	-0,069	-0,177
327,012	71,955	-0,124	-0,088
328,027	31,462	-0,186	-0,109
329,041	405,632	-0,094	-0,136
330,056	-200,000	-0,031	-0,105
331,070	-200,000	-0,014	-0,067
332,085	-70,424	-0,175	-0,045
333,100	125,668	-0,199	-0,172
334,114	91,501	-0,142	-0,109
335,129	20,395	-0,131	-0,072
336,143	123,917	-0,113	-0,097
337,158	-123,602	-0,163	0,017
338,173	56,926	-0,134	-0,089
339,187	800,000	0,019	-0,047
340,202	800,000	-0,066	-0,134
341,216	740,950	-0,079	-0,146
342,231	450,968	-0,076	-0,115
343,246	-49,714	-0,032	-0,010
344,260	364,314	-0,067	-0,092
345,275	179,467	-0,105	-0,105
346,289	-200,000	0,012	-0,076
347,304	-39,357	-0,097	0,035
348,319	-200,000	-0,042	-0,154
349,333	421,474	-0,159	-0,234
350,348	-200,000	-0,044	-0,139
351,362	496,682	-0,179	-0,282
352,377	-200,000	-0,028	-0,140
353,392	103,413	-0,084	-0,067
354,406	40,121	-0,239	-0,147
355,421	206,860	1309,781	1396,613
356,435	159,101	1469,851	1397,040
