DTS Sentinel unit serial number:	SN410029Multiplexer serial number:	ORYXHardware model number:	OX2-SRSoftware version number:	ORYX F/W v4,00 Oryx Data Collector v3.7.2.0data status	okinstallation	B3 Nyhavnadifferential loss correction	single-endedforward channel	channel 1reverse channel	N/Adate	2023/11/30time	20:27:30forward acquisition time	300,00reverse acquisition time	0,00gamma	499,1914k internal	0,3208k external	0,3208temperature offset calibration	1,0000default loss term (dB/km)	0,3820temperature slope calibration	1,0000multiplexer offset coefficient	1,0000multiplexer slope coefficient	1,0000fibre end	0,00T internal ref (°C)	11,27T ext. ref 1 (°C)	-4,12T ext. ref 2 (°C)	-4,24length (m)	temperature (°C)	Stokes	anti-Stokes-744,400	568,888	-0,117	-0,208
-743,385	800,000	-0,083	0,231
-742,371	751,002	-0,131	-0,257
-741,356	-200,000	0,045	0,281
-740,342	87,947	-0,123	-0,099
-739,327	800,000	-0,141	0,296
-738,312	394,502	-0,161	-0,244
-737,298	-200,000	0,060	0,252
-736,283	800,000	-0,117	-0,365
-735,269	-200,000	-0,018	0,320
-734,254	52,576	-0,209	-0,145
-733,239	224,776	-0,144	0,169
-732,225	103,602	-0,132	-0,112
-731,210	-200,000	-0,000	0,116
-730,196	-26,854	0,080	0,034
-729,181	-134,631	-0,021	0,002
-728,167	-153,712	-0,196	-0,010
-727,152	800,000	0,054	-0,130
-726,137	-200,000	-0,009	0,101
-725,123	208,049	-0,092	-0,105
-724,108	-39,480	-0,131	0,050
-723,094	800,000	0,005	-0,012
-722,079	185,510	0,111	-0,120
-721,064	55,799	0,043	0,030
-720,050	206,109	-0,091	0,103
-719,035	101,106	-0,015	-0,013
-718,021	355,141	-0,068	-0,098
-717,006	-200,000	-0,006	-0,074
-715,991	-200,000	0,038	-0,198
-714,977	-46,360	0,077	-0,027
-713,962	-200,000	-0,002	0,021
-712,948	530,960	-0,135	-0,233
-711,933	143,462	-0,080	-0,077
-710,918	29,077	0,087	-0,053
-709,904	-39,547	-0,029	0,011
-708,889	18,762	-0,151	-0,087
-707,875	795,079	0,039	-0,078
-706,860	127,938	0,040	0,037
-705,845	800,000	0,040	-0,122
-704,831	-200,000	-0,034	0,196
-703,816	468,950	-0,040	-0,065
-702,802	800,000	0,038	0,113
-701,787	-133,813	-0,143	-0,013
-700,772	800,000	-0,031	-0,064
-699,758	-200,000	0,003	-0,086
-698,743	800,000	0,026	0,081
-697,729	145,910	-0,158	0,153
-696,714	-4,976	-0,035	-0,017
-695,699	-4,916	-0,114	-0,057
-694,685	117,932	-0,168	-0,150
-693,670	776,993	0,046	-0,092
-692,656	-174,709	0,031	0,001
-691,641	-200,000	0,016	0,050
-690,627	209,893	-0,078	0,089
-689,612	704,088	0,051	0,099
-688,597	-200,000	-0,021	-0,077
-687,583	-200,000	-0,031	-0,144
-686,568	192,589	-0,079	0,087
-685,554	480,803	-0,047	-0,078
-684,539	98,960	0,065	0,054
-683,524	147,538	0,086	0,084
-682,510	35,966	-0,096	-0,061
-681,495	-200,000	-0,005	0,158
-680,481	201,891	-0,085	-0,095
-679,466	-41,355	0,065	0,024
-678,451	-10,071	-0,065	0,031
-677,437	335,053	-0,019	0,026
-676,422	-200,000	0,002	0,109
-675,408	775,856	0,007	0,014
-674,393	32,174	0,059	-0,037
-673,378	-200,000	-0,040	-0,153
-672,364	-200,000	-0,052	-0,198
-671,349	119,317	-0,077	-0,069
-670,335	9,641	0,032	-0,018
-669,320	187,464	0,023	-0,025
-668,305	-161,393	-0,104	-0,004
-667,291	127,097	-0,055	-0,050
-666,276	-200,000	0,013	-0,066
-665,262	1,078	-0,063	-0,033
-664,247	363,178	-0,065	-0,094
-663,232	-117,416	-0,032	0,004
-662,218	384,108	-0,114	0,171
-661,203	-200,000	-0,014	0,171
-660,189	460,132	0,063	0,102
-659,174	-200,000	0,017	-0,161
-658,159	194,440	-0,141	-0,155
-657,145	-200,000	0,001	-0,058
-656,130	-53,520	-0,028	0,009
-655,116	-7,484	0,067	0,033
-654,101	-200,000	0,012	-0,046
-653,086	24,726	0,051	0,031
-652,072	-7,908	-0,085	-0,041
-651,057	16,110	0,076	0,043
-650,043	-52,164	-0,175	0,059
-649,028	-41,819	0,081	0,030
-648,014	-101,500	0,085	-0,015
-646,999	-51,746	-0,147	-0,049
-645,984	46,910	-0,044	0,029
-644,970	164,982	-0,038	-0,038
-643,955	800,000	0,039	-0,090
-642,941	800,000	0,022	-0,069
-641,926	-144,343	0,048	0,003
-640,911	491,286	0,033	0,054
-639,897	-141,784	0,140	0,010
-638,882	336,200	0,086	-0,122
-637,868	29,843	0,068	0,042
-636,853	-200,000	0,014	0,073
-635,838	158,987	-0,048	0,048
-634,824	-200,000	-0,014	0,118
-633,809	631,329	-0,053	0,098
-632,795	-200,000	0,025	0,147
-631,780	-200,000	-0,012	0,091
-630,765	-25,081	-0,167	0,071
-629,751	59,279	-0,062	-0,044
-628,736	-40,108	0,068	-0,026
-627,722	-59,319	0,116	-0,036
-626,707	0,804	-0,103	0,053
-625,692	273,067	0,051	-0,066
-624,678	129,174	-0,062	-0,057
-623,663	800,000	0,010	0,031
-622,649	-200,000	-0,043	-0,182
-621,634	198,013	-0,030	0,033
-620,619	119,643	-0,072	0,064
-619,605	-50,577	0,130	0,044
-618,590	31,035	-0,027	-0,017
-617,576	649,966	0,019	0,035
-616,561	-105,681	-0,143	0,023
-615,546	800,000	0,031	-0,062
-614,532	-200,000	-0,018	0,123
-613,517	-12,525	-0,113	-0,053
-612,503	-200,000	-0,006	-0,096
-611,488	800,000	0,032	0,080
-610,474	-83,792	0,134	0,031
-609,459	306,358	-0,129	-0,174
-608,444	54,014	-0,106	0,073
-607,430	800,000	0,048	-0,142
-606,415	-18,115	0,143	-0,064
-605,401	703,999	0,034	-0,065
-604,386	17,962	0,099	0,057
-603,371	-200,000	0,006	0,071
-602,357	-126,421	0,030	-0,003
-601,342	-161,373	-0,078	-0,003
-600,328	800,000	-0,033	-0,103
-599,313	24,352	0,048	0,028
-598,298	443,116	-0,108	-0,172
-597,284	176,639	0,059	0,062
-596,269	800,000	-0,027	0,058
-595,255	151,256	0,024	0,023
-594,240	124,342	-0,095	-0,086
-593,225	-200,000	-0,002	0,014
-592,211	-200,000	0,018	-0,130
-591,196	-200,000	0,034	-0,132
-590,182	455,581	-0,097	0,156
-589,167	201,698	-0,093	0,103
-588,152	-200,000	0,005	-0,050
-587,138	60,760	-0,090	-0,064
-586,123	-139,417	0,171	-0,013
-585,109	800,000	-0,051	-0,104
-584,094	-46,854	0,083	0,029
-583,079	615,248	0,015	0,028
-582,065	174,608	0,068	0,071
-581,050	183,950	0,075	0,080
-580,036	-112,120	0,156	-0,022
-579,021	-200,000	-0,043	-0,148
-578,006	193,839	0,100	-0,110
-576,992	-123,461	0,076	-0,009
-575,977	340,226	0,026	-0,036
-574,963	-54,652	-0,033	-0,011
-573,948	-200,000	0,003	0,045
-572,934	-200,000	-0,000	-0,017
-571,919	-181,902	0,146	0,002
-570,904	134,037	-0,061	-0,057
-569,890	-200,000	-0,017	-0,077
-568,875	-98,990	0,194	0,035
-567,861	-40,441	0,077	-0,029
-566,846	402,891	0,042	0,063
-565,831	-200,000	-0,010	0,093
-564,817	-54,026	-0,151	-0,049
-563,802	17,148	-0,068	-0,039
-562,788	-200,000	0,007	-0,029
-561,773	800,000	-0,018	-0,052
-560,758	64,197	0,179	0,130
-559,744	131,565	-0,039	0,036
-558,729	-66,948	-0,154	0,043
-557,715	-200,000	-0,016	0,079
-556,700	233,725	0,019	-0,022
-555,685	-20,265	0,042	-0,018
-554,671	-21,140	0,057	-0,025
-553,656	800,000	-0,032	0,081
-552,642	-42,351	0,051	0,019
-551,627	-200,000	-0,019	-0,063
-550,612	-50,253	-0,159	-0,054
-549,598	-200,000	-0,044	-0,209
-548,583	-115,911	0,012	0,002
-547,569	91,851	-0,030	-0,024
-546,554	-200,000	0,014	-0,095
-545,539	233,169	0,088	0,104
-544,525	16,276	0,069	-0,039
-543,510	-50,912	-0,110	-0,037
-542,496	18,615	-0,015	0,009
-541,481	182,156	-0,064	-0,067
-540,466	424,162	0,020	-0,031
-539,452	178,359	0,142	0,150
-538,437	98,327	0,107	0,088
-537,423	-122,943	-0,091	0,010
-536,408	-99,782	-0,120	0,021
-535,393	1,678	0,118	0,061
-534,379	4,860	-0,112	-0,059
-533,364	-60,698	-0,067	-0,020
-532,350	-200,000	-0,026	0,136
-531,335	115,332	-0,013	0,011
-530,321	389,972	0,067	0,100
-529,306	800,000	-0,060	-0,123
-528,291	-200,000	-0,004	-0,046
-527,277	-200,000	0,031	-0,179
-526,262	-21,143	0,087	-0,038
-525,248	-179,672	0,084	-0,001
-524,233	-200,000	-0,014	0,088
-523,218	-200,000	-0,022	0,156
-522,204	316,104	0,028	-0,038
-521,189	-28,592	0,080	-0,033
-520,175	28,424	-0,077	-0,047
-519,160	-200,000	-0,035	0,222
-518,145	383,833	0,060	0,089
-517,131	0,958	0,038	0,019
-516,116	-200,000	-0,002	0,044
-515,102	7,805	-0,030	0,016
-514,087	-200,000	-0,013	-0,157
-513,072	76,754	-0,079	-0,060
-512,058	-15,373	-0,107	-0,049
-511,043	99,176	-0,051	0,043
-510,029	248,336	0,172	0,209
-509,014	-200,000	-0,036	0,130
-507,999	10,484	0,075	-0,041
-506,985	70,031	-0,039	0,029
-505,970	-177,406	-0,098	0,002
-504,956	507,604	-0,015	-0,025
-503,941	-169,242	-0,035	-0,001
-502,926	6,247	-0,076	0,041
-501,912	77,335	-0,106	0,081
-500,897	-200,000	0,014	0,099
-499,883	800,000	-0,037	-0,105
-498,868	800,000	-0,033	-0,076
-497,853	246,356	0,022	0,027
-496,839	-102,718	-0,063	0,011
-495,824	-18,816	-0,060	0,027
-494,810	800,000	0,031	0,085
-493,795	800,000	-0,040	0,090
-492,781	349,448	0,062	0,088
-491,766	-200,000	-0,007	0,113
-490,751	25,076	-0,122	-0,073
-489,737	-200,000	0,014	0,167
-488,722	-200,000	-0,019	0,179
-487,708	702,958	0,032	0,062
-486,693	800,000	0,019	0,057
-485,678	-108,579	-0,104	-0,016
-484,664	800,000	-0,020	0,043
-483,649	800,000	-0,053	0,125
-482,635	329,044	-0,045	-0,062
-481,620	-16,478	0,095	-0,043
-480,605	-200,000	-0,022	-0,113
-479,591	800,000	0,026	-0,079
-478,576	120,514	-0,089	0,080
-477,562	-91,173	0,117	-0,024
-476,547	201,769	-0,116	-0,129
-475,532	800,000	0,065	-0,139
-474,518	-25,753	-0,010	0,004
-473,503	-171,751	0,123	-0,003
-472,489	800,000	0,031	-0,090
-471,474	-42,400	-0,092	0,034
-470,459	598,090	0,038	-0,068
-469,445	-200,000	0,004	-0,054
-468,430	-64,528	0,048	-0,014
-467,416	800,000	0,033	-0,096
-466,401	-79,568	-0,099	0,024
-465,386	92,177	0,085	0,069
-464,372	-200,000	-0,020	-0,108
-463,357	122,233	-0,092	-0,083
-462,343	800,000	0,094	-0,212
-461,328	-142,675	-0,111	0,008
-460,313	173,749	-0,104	0,108
-459,299	-200,000	-0,008	0,047
-458,284	319,180	0,089	0,122
-457,270	-78,670	-0,083	0,020
-456,255	800,000	-0,021	0,057
-455,241	-200,000	-0,043	-0,169
-454,226	281,203	-0,060	-0,077
-453,211	-200,000	0,024	-0,108
-452,197	356,970	-0,033	-0,048
-451,182	457,363	0,111	0,177
-450,168	-200,000	-0,002	0,031
-449,153	-59,680	-0,050	-0,015
-448,138	432,523	0,050	-0,079
-447,124	9,030	0,047	0,025
-446,109	-200,000	-0,002	0,035
-445,095	800,000	0,044	0,127
-444,080	-52,897	-0,043	0,014
-443,065	-75,292	0,012	-0,003
-442,051	-94,500	-0,108	0,021
-441,036	-109,512	-0,083	-0,012
-440,022	503,043	0,059	-0,099
-439,007	14,842	-0,048	-0,027
-437,992	172,120	-0,134	-0,138
-436,978	188,048	0,056	-0,060
-435,963	800,000	0,075	0,162
-434,949	559,934	0,029	-0,051
-433,934	68,334	-0,109	-0,080
-432,919	-3,029	-0,084	0,042
-431,905	524,509	0,030	-0,051
-430,890	-200,000	-0,022	-0,093
-429,876	-200,000	-0,027	-0,088
-428,861	-200,000	0,032	-0,102
-427,846	59,001	-0,130	-0,091
-426,832	621,167	0,032	-0,058
-425,817	593,519	-0,056	-0,099
-424,803	112,846	0,087	-0,076
-423,788	-108,956	-0,087	-0,013
-422,773	-2,075	0,059	0,030
-421,759	800,000	0,035	-0,106
-420,744	-95,324	-0,153	-0,029
-419,730	653,803	0,047	-0,086
-418,715	-89,359	0,082	-0,017
-417,701	6,819	-0,089	-0,047
-416,686	164,375	0,032	0,032
-415,671	800,000	-0,040	-0,124
-414,657	783,137	-0,022	-0,042
-413,642	399,848	-0,059	0,088
-412,628	-47,933	0,005	0,002
-411,613	-200,000	-0,014	-0,144
-410,598	-35,718	-0,067	0,026
-409,584	18,923	0,057	0,033
-408,569	121,800	-0,018	-0,016
-407,555	484,339	0,048	0,079
-406,540	13,292	0,088	0,049
-405,525	137,183	-0,070	0,066
-404,511	12,971	-0,064	0,035
-403,496	-71,097	0,070	0,019
-402,482	-123,539	0,058	-0,007
-401,467	-60,714	0,068	0,021
-400,452	119,987	0,100	0,089
-399,438	-168,432	-0,161	0,004
-398,423	-104,356	-0,039	0,006
-397,409	-94,251	-0,116	0,022
-396,394	135,057	0,024	-0,022
-395,379	48,521	-0,034	-0,023
-394,365	135,535	0,077	0,072
-393,350	-200,000	-0,035	0,110
-392,336	739,650	0,067	0,130
-391,321	-105,625	0,040	0,006
-390,306	-200,000	0,009	0,038
-389,292	205,893	-0,093	-0,103
-388,277	-200,000	-0,009	0,031
-387,263	4,814	0,083	0,044
-386,248	113,928	-0,048	0,042
-385,233	-200,000	-0,037	0,215
-384,219	485,202	0,062	0,101
-383,204	560,012	-0,025	-0,043
-382,190	173,444	0,130	-0,135
-381,175	377,235	0,078	-0,114
-380,160	11,895	-0,013	0,007
-379,146	360,695	-0,030	0,043
-378,131	-47,885	0,044	0,015
-377,117	410,326	-0,107	-0,163
-376,102	-200,000	-0,035	-0,113
-375,088	-116,374	-0,237	-0,031
-374,073	-15,411	-0,101	0,046
-373,058	255,150	-0,080	-0,098
-372,044	-200,000	0,020	0,095
-371,029	120,868	0,077	-0,068
-370,015	-22,949	-0,027	0,012
-369,000	-139,319	-0,114	-0,009
-367,985	-101,703	-0,127	0,022
-366,971	-81,294	-0,013	0,003
-365,956	-4,601	0,041	0,020
-364,942	-122,666	-0,053	0,006
-363,927	81,634	-0,067	0,052
-362,912	327,671	0,072	-0,099
-361,898	142,004	0,079	0,075
-360,883	-200,000	0,009	-0,068
-359,869	726,800	0,045	0,087
-358,854	-0,849	0,090	0,045
-357,839	-200,000	-0,012	-0,061
-356,825	-200,000	-0,011	-0,036
-355,810	310,392	0,089	0,120
-354,796	-83,882	0,048	0,011
-353,781	-200,000	0,018	-0,143
-352,766	100,831	-0,095	-0,079
-351,752	-200,000	0,015	-0,068
-350,737	-106,683	0,073	-0,012
-349,723	136,042	-0,073	-0,068
-348,708	-127,150	0,076	-0,008
-347,693	-170,196	0,069	0,002
-346,679	-165,292	0,021	-0,001
-345,664	425,128	0,076	0,117
-344,650	84,310	0,022	-0,017
-343,635	161,722	-0,029	0,029
-342,620	252,671	0,106	0,129
-341,606	-200,000	-0,033	0,179
-340,591	800,000	-0,060	0,178
-339,577	-81,097	-0,090	-0,021
-338,562	-173,231	0,056	0,001
-337,548	50,573	0,077	0,052
-336,533	375,500	0,048	0,071
-335,518	613,749	0,086	0,154
-334,504	432,405	0,019	0,029
-333,489	40,574	-0,065	0,041
-332,475	-96,812	0,124	0,023
-331,460	115,911	-0,069	-0,060
-330,445	-146,829	0,062	-0,004
-329,431	-25,456	-0,138	0,058
-328,416	8,237	0,079	0,042
-327,402	800,000	0,047	0,134
-326,387	-200,000	0,002	0,076
-325,372	-95,458	-0,135	0,026
-324,358	18,348	0,017	-0,009
-323,343	-200,000	0,011	-0,045
-322,329	-11,868	0,108	0,050
-321,314	-191,213	0,147	0,001
-320,299	202,492	-0,094	0,103
-319,285	92,673	0,074	0,060
-318,270	-121,857	0,061	-0,007
-317,256	800,000	0,033	-0,092
-316,241	-200,000	-0,087	-0,000
-315,226	428,294	0,039	-0,060
-314,212	220,613	0,155	0,177
-313,197	800,000	0,027	0,082
-312,183	423,139	0,031	-0,048
-311,168	800,000	-0,018	0,039
-310,153	9,326	0,062	0,033
-309,139	-127,246	-0,125	0,013
-308,124	800,000	0,016	-0,035
-307,110	566,572	-0,041	-0,071
-306,095	-200,000	-0,016	0,208
-305,080	-55,793	-0,045	-0,014
-304,066	-158,025	0,076	-0,003
-303,051	-200,000	0,005	0,033
-302,037	179,887	0,060	0,063
-301,022	-200,000	-0,023	0,107
-300,008	365,460	-0,081	0,117
-298,993	800,000	-0,015	0,044
-297,978	317,438	0,100	0,135
-296,964	94,370	-0,045	0,036
-295,949	78,766	-0,027	-0,021
-294,935	308,852	0,056	-0,074
-293,920	-200,000	-0,198	-0,001
-292,905	800,000	0,026	-0,058
-291,891	800,000	-0,059	-0,159
-290,876	590,592	-0,063	0,112
-289,862	128,654	0,090	0,082
-288,847	213,593	-0,151	-0,170
-287,832	80,643	-0,092	0,071
-286,818	-200,000	0,044	0,146
-285,803	-200,000	0,014	0,099
-284,789	-200,000	-0,027	-0,120
-283,774	-200,000	0,015	-0,075
-282,759	334,873	-0,030	-0,042
-281,745	46,492	-0,014	0,009
-280,730	-56,848	0,049	0,015
-279,716	-200,000	-0,024	0,156
-278,701	-19,355	0,113	0,050
-277,686	800,000	0,047	0,144
-276,672	-200,000	0,003	0,109
-275,657	-66,440	0,085	0,024
-274,643	800,000	0,054	-0,158
-273,628	-68,664	-0,081	0,022
-272,613	-89,024	0,057	0,012
-271,599	25,004	0,076	0,045
-270,584	106,792	0,047	0,040
-269,570	-200,000	-0,011	0,049
-268,555	33,834	0,034	-0,021
-267,540	375,234	-0,062	-0,091
-266,526	800,000	-0,026	0,055
-265,511	-19,254	0,120	-0,053
-264,497	-182,237	-0,044	-0,001
-263,482	93,824	0,062	0,050
-262,467	-8,192	0,124	0,059
-261,453	-62,212	0,107	0,032
-260,438	-95,762	-0,092	-0,017
-259,424	800,000	-0,047	-0,107
-258,409	117,193	-0,078	0,069
-257,395	800,000	0,035	-0,079
-256,380	800,000	0,013	0,028
-255,365	580,737	0,057	-0,099
-254,351	800,000	0,073	-0,149
-253,336	107,847	-0,145	-0,123
-252,322	-112,956	-0,084	-0,012
-251,307	-46,664	-0,196	-0,068
-250,292	245,645	0,052	-0,063
-249,278	800,000	0,019	0,054
-248,263	-8,730	-0,124	-0,059
-247,249	-200,000	-0,007	-0,025
-246,234	800,000	0,025	-0,061
-245,219	422,428	0,027	0,042
-244,205	-39,935	0,078	0,029
-243,190	273,330	0,092	-0,116
-242,176	-0,310	0,080	-0,040
-241,161	800,000	0,028	0,080
-240,146	-26,772	0,057	-0,024
-239,132	-200,000	0,019	0,180
-238,117	-98,097	-0,146	0,027
-237,103	359,319	0,110	0,157
-236,088	465,666	-0,016	0,025
-235,073	-64,381	0,043	0,012
-234,059	-42,177	0,065	-0,024
-233,044	-200,000	-0,024	0,105
-232,030	-200,000	-0,014	0,134
-231,015	471,749	0,043	0,070
-230,000	-200,000	-0,003	-0,057
-228,986	-122,385	-0,167	0,019
-227,971	-200,000	0,023	-0,116
-226,957	-50,728	0,062	-0,021
-225,942	-165,149	0,163	0,005
-224,927	-200,000	0,041	0,135
-223,913	98,722	0,077	-0,063
-222,898	-122,315	0,079	0,009
-221,884	-200,000	-0,011	0,053
-220,869	-123,184	0,029	-0,003
-219,855	8,676	0,071	0,038
-218,840	-101,853	0,159	-0,027
-217,825	-200,000	0,002	0,030
-216,811	50,739	0,024	-0,016
-215,796	-200,000	-0,045	-0,173
-214,782	-200,000	0,031	-0,147
-213,767	74,974	-0,145	0,108
-212,752	-200,000	0,019	-0,148
-211,738	800,000	0,024	0,066
-210,723	-104,997	-0,012	0,002
-209,709	39,740	-0,083	-0,053
-208,694	-200,000	-0,018	-0,077
-207,679	-113,569	0,101	0,014
-206,665	383,545	0,027	0,039
-205,650	129,809	0,038	-0,035
-204,636	-29,384	0,075	-0,030
-203,621	-135,060	-0,084	-0,007
-202,606	21,762	0,138	0,079
-201,592	-200,000	-0,001	-0,025
-200,577	-200,000	0,001	-0,165
-199,563	57,856	0,092	-0,064
-198,548	-45,824	0,041	0,014
-197,533	784,701	-0,014	-0,027
-196,519	800,000	0,045	-0,111
-195,504	392,652	-0,035	-0,051
-194,490	-200,000	0,051	-0,165
-193,475	328,886	-0,126	-0,173
-192,460	4,966	0,079	0,041
-191,446	-200,000	-0,003	0,064
-190,431	-200,000	0,004	0,100
-189,417	800,000	-0,085	-0,173
-188,402	-5,683	-0,146	-0,071
-187,387	800,000	-0,001	-0,004
-186,373	-200,000	-0,013	0,061
-185,358	122,032	-0,005	-0,004
-184,344	-33,214	0,061	0,024
-183,329	-200,000	-0,006	0,124
-182,315	-64,910	-0,100	-0,028
-181,300	-145,802	0,076	0,005
-180,285	288,752	-0,060	-0,078
-179,271	143,024	0,039	0,036
-178,256	-141,115	0,142	-0,010
-177,242	-200,000	0,010	0,061
-176,227	800,000	-0,002	0,005
-175,212	56,707	-0,151	-0,104
-174,198	-13,519	0,120	0,055
-173,183	-160,046	0,052	-0,002
-172,169	242,525	-0,074	-0,088
-171,154	-200,000	-0,033	-0,201
-170,139	145,986	0,089	0,085
-169,125	83,482	-0,121	0,093
-168,110	-47,230	0,168	0,058
-167,096	-137,500	-0,110	-0,009
-166,081	-40,056	-0,217	-0,080
-165,066	202,377	-0,056	-0,061
-164,052	46,310	-0,145	-0,095
-163,037	217,450	-0,154	-0,174
-162,023	-73,215	0,113	0,029
-161,008	402,413	0,078	0,117
-159,993	-200,000	0,010	0,037
-158,979	-90,072	-0,062	0,013
-157,964	151,407	-0,111	-0,107
-156,950	13,138	-0,124	-0,068
-155,935	348,877	0,056	-0,079
-154,920	266,768	0,020	0,024
-153,906	800,000	0,062	0,150
-152,891	-200,000	-0,039	-0,126
-151,877	104,090	-0,090	-0,075
-150,862	-200,000	0,025	-0,081
-149,847	-200,000	0,038	-0,120
-148,833	-200,000	-0,007	0,041
-147,818	-52,928	0,060	-0,020
-146,804	419,110	0,091	0,139
-145,789	48,155	-0,107	-0,071
-144,775	800,000	-0,012	0,031
-143,760	223,942	-0,062	0,071
-142,745	-200,000	-0,001	0,008
-141,731	195,236	0,049	-0,053
-140,716	116,854	-0,032	0,028
-139,702	-200,000	0,007	0,041
-138,687	-200,000	0,003	0,017
-137,672	51,528	0,058	0,039
-136,658	25,535	-0,069	-0,041
-135,643	-54,743	-0,112	0,036
-134,629	800,000	-0,031	0,092
-133,614	237,137	0,035	-0,041
-132,599	800,000	0,026	0,063
-131,585	-47,986	0,096	0,033
-130,570	-200,000	-0,006	-0,102
-129,556	3,810	0,103	-0,053
-128,541	800,000	0,029	-0,063
-127,526	301,461	0,038	0,050
-126,512	-200,000	-0,004	-0,043
-125,497	411,948	0,019	-0,028
-124,483	-200,000	-0,005	0,144
-123,468	732,519	0,025	0,047
-122,453	-200,000	0,017	-0,139
-121,439	170,660	0,052	-0,052
-120,424	-94,558	-0,094	0,018
-119,410	409,800	0,037	0,056
-118,395	44,811	0,018	-0,012
-117,380	70,830	0,039	-0,028
-116,366	185,917	-0,057	0,060
-115,351	-200,000	-0,012	0,051
-114,337	-200,000	-0,047	-0,153
-113,322	-48,684	0,148	0,050
-112,307	-35,174	-0,081	0,031
-111,293	-200,000	0,011	-0,105
-110,278	155,752	0,049	0,047
-109,264	83,730	0,045	-0,035
-108,249	65,349	0,128	0,091
-107,234	696,629	-0,046	-0,085
-106,220	800,000	-0,040	0,090
-105,205	324,207	0,079	0,107
-104,191	310,514	-0,066	0,087
-103,176	-200,000	0,004	0,053
-102,162	239,771	-0,030	-0,036
-101,147	800,000	0,010	0,029
-100,132	640,404	-0,032	-0,058
-99,118	223,775	0,050	-0,057
-98,103	-200,000	-0,038	-0,133
-97,089	41,698	0,033	-0,021
-96,074	504,462	-0,051	0,084
-95,059	33,817	0,137	0,084
-94,045	800,000	-0,035	0,083
-93,030	-122,838	0,082	0,009
-92,016	-200,000	0,022	-0,136
-91,001	-200,000	-0,004	-0,030
-89,986	65,439	-0,114	-0,082
-88,972	288,509	0,070	0,090
-87,957	-102,087	-0,108	-0,018
-86,943	-159,804	-0,105	0,004
-85,928	-0,009	0,003	-0,001
-84,913	-134,835	-0,105	-0,009
-83,899	248,847	-0,054	-0,065
-82,884	90,909	0,016	-0,013
-81,870	-154,096	-0,021	-0,001
-80,855	108,172	0,057	0,048
-79,840	155,424	-0,034	-0,033
-78,826	501,033	-0,054	-0,088
-77,811	558,173	0,053	-0,091
-76,797	43,797	-0,061	0,039
-75,782	-178,226	-0,104	0,002
-74,767	800,000	-0,020	0,062
-73,753	2,051	0,067	0,034
-72,738	-200,000	-0,000	0,097
-71,724	-94,616	-0,073	0,014
-70,709	-43,999	-0,143	-0,050
-69,694	390,510	-0,079	-0,116
-68,680	13,299	0,080	0,044
-67,665	-60,145	0,098	0,029
-66,651	131,913	-0,070	-0,064
-65,636	379,426	0,073	-0,106
-64,622	-36,523	0,049	0,019
-63,607	85,121	-0,094	0,073
-62,592	-97,636	-0,227	-0,041
-61,578	-13,060	-0,111	-0,051
-60,563	-17,463	-0,033	0,015
-59,549	58,965	0,061	0,042
-58,534	-5,331	-2,034	-0,984
-57,519	489,076	-1,316	-2,132
-56,505	-200,000	-0,408	-4,460
-55,490	318,316	0,892	1,196
-54,476	800,000	5,190	11,375
-53,461	-200,000	20,815	329,948
-52,446	800,000	755,370	2322,644
-51,432	551,758	1662,208	2829,917
-50,417	73,980	1666,492	1233,528
-49,403	19,111	1539,783	870,035
-48,388	13,092	1462,722	797,305
-47,373	19,036	1453,391	820,798
-46,359	16,148	1442,758	800,979
-45,344	11,407	1438,426	775,913
-44,330	11,327	1436,591	774,508
-43,315	11,313	1434,728	773,406
-42,300	11,301	1433,035	772,407
-41,286	11,360	1431,457	771,807
-40,271	11,302	1430,288	770,869
-39,257	11,313	1429,164	770,287
-38,242	11,295	1428,099	769,596
-37,227	11,346	1426,847	769,133
-36,213	11,342	1425,716	768,474
-35,198	11,327	1424,457	767,695
-34,184	11,410	1423,439	767,508
-33,169	11,307	1422,247	766,345
-32,154	11,364	1421,113	765,974
-31,140	11,364	1420,122	765,413
-30,125	11,438	1418,591	764,902
-29,111	11,406	1417,589	764,181
-28,096	11,398	1416,610	763,585
-27,082	11,322	1415,457	762,578
-26,067	11,306	1414,452	761,933
-25,052	11,318	1413,397	761,390
-24,038	11,320	1412,407	760,834
-23,023	11,310	1411,324	760,175
-22,009	11,298	1410,437	759,608
-20,994	11,283	1409,421	758,960
-19,979	11,316	1408,344	758,504
-18,965	11,259	1407,412	757,709
-17,950	11,260	1406,511	757,196
-16,936	11,248	1405,949	756,810
-15,921	11,221	1404,747	756,003
-14,906	11,219	1403,712	755,411
-13,892	11,241	1402,844	755,014
-12,877	11,194	1402,107	754,370
-11,863	11,206	1401,082	753,845
-10,848	11,241	1400,226	753,514
-9,833	11,153	1399,496	752,685
-8,819	11,120	1398,659	752,052
-7,804	11,105	1397,615	751,388
-6,790	11,120	1396,730	750,956
-5,775	11,122	1395,612	750,331
-4,760	11,152	1394,472	749,826
-3,746	11,128	1393,943	749,401
-2,731	11,130	1392,896	748,821
-1,717	11,079	1392,000	748,073
-0,702	11,076	1390,192	747,055
0,313	15,061	1304,129	719,120
1,327	31,218	695,097	420,163
2,342	48,288	120,860	79,697
3,356	0,877	16,569	8,351
4,371	6,770	3,396	1,778
5,386	3,727	0,821	0,421
6,400	800,000	0,195	0,407
7,415	75,689	-0,184	-0,137
8,429	79,898	-0,249	-0,189
9,444	223,749	-0,222	-0,253
10,459	-91,261	-0,234	-0,047
11,473	30,477	-0,254	-0,153
12,488	231,217	-0,207	-0,240
13,502	152,543	-0,238	-0,229
14,517	150,775	-0,203	-0,195
15,531	6,567	-0,516	-0,270
16,546	53,062	-0,328	-0,221
17,561	98,839	-0,313	-0,254
18,575	-43,231	-0,208	-0,074
19,590	30,641	-0,258	-0,155
20,604	-34,384	-0,290	-0,111
21,619	56,886	-0,386	-0,265
22,634	117,014	-0,316	-0,273
23,648	181,975	-0,396	-0,411
24,663	-22,027	-0,312	-0,133
25,677	39,058	-0,338	-0,212
26,692	4,037	-0,349	-0,179
27,707	85,844	-0,333	-0,258
28,721	145,661	-0,338	-0,319
29,736	62,287	-0,383	-0,269
30,750	145,595	-0,448	-0,423
31,765	152,696	-0,289	-0,278
32,780	-58,473	-0,442	-0,134
33,794	185,527	-0,224	-0,235
34,809	50,110	-0,228	-0,151
35,823	67,308	-0,383	-0,274
36,838	304,283	-0,273	-0,357
37,853	141,144	-0,430	-0,401
38,867	-35,047	-0,391	-0,149
39,882	140,207	-0,424	-0,393
40,896	210,488	-0,266	-0,294
41,911	-28,668	-0,343	-0,138
42,926	-35,658	-0,381	-0,145
43,940	-4,273	-0,445	-0,216
44,955	112,453	-0,291	-0,248
45,969	124,412	-0,277	-0,245
46,984	220,147	-0,348	-0,393
47,999	94,808	-0,390	-0,312
49,013	194,016	-0,251	-0,267
50,028	114,258	-0,254	-0,217
51,042	162,277	-0,319	-0,315
52,057	34,238	-0,415	-0,254
53,071	-27,083	-0,364	-0,148
54,086	87,761	-0,379	-0,295
55,101	8,287	-0,370	-0,195
56,115	-24,340	-0,416	-0,173
57,130	-34,156	-0,395	-0,152
58,144	40,810	-0,391	-0,247
59,159	257,283	-0,258	-0,312
60,174	321,542	-0,183	-0,244
61,188	-22,149	-0,323	-0,137
62,203	69,316	-0,267	-0,193
63,217	34,228	-0,281	-0,172
64,232	52,167	-0,320	-0,214
65,247	-61,573	-0,413	-0,121
66,261	131,003	-0,248	-0,223
67,276	30,704	-0,330	-0,198
68,290	-100,603	-0,393	-0,068
69,305	-35,968	-0,266	-0,100
70,320	425,898	-0,158	-0,240
71,334	21,051	-0,260	-0,148
72,349	-26,616	-0,384	-0,157
73,363	503,873	-0,177	-0,289
74,378	214,613	-0,279	-0,310
75,393	-14,194	-0,455	-0,205
76,407	122,307	-0,207	-0,181
77,422	64,691	-0,300	-0,212
78,436	350,435	-0,146	-0,202
79,451	0,305	-0,252	-0,126
80,466	24,913	-0,241	-0,140
81,480	153,409	-0,228	-0,219
82,495	83,637	-0,288	-0,220
83,509	48,068	-0,192	-0,125
84,524	5,607	-0,321	-0,166
85,539	82,758	-0,309	-0,235
86,553	84,752	-0,237	-0,181
87,568	-1,196	-0,296	-0,146
88,582	-62,056	-0,361	-0,105
89,597	61,114	-0,206	-0,143
90,611	25,232	-0,306	-0,177
91,626	-39,476	-0,350	-0,128
92,641	-160,788	-0,168	0,006
93,655	-65,488	-0,319	-0,089
94,670	30,897	-0,360	-0,215
95,684	74,335	-0,304	-0,223
96,699	-19,548	-0,271	-0,117
97,714	53,124	-0,200	-0,134
98,728	7,565	-0,320	-0,167
99,743	-4,838	-0,188	-0,091
100,757	237,332	-0,238	-0,276
101,772	75,411	-0,234	-0,172
102,787	64,362	-0,266	-0,187
103,801	27,764	-0,256	-0,151
104,816	-74,125	-0,266	-0,067
105,830	350,463	-0,211	-0,293
106,845	19,789	-0,252	-0,141
107,860	-59,955	-0,250	-0,074
108,874	10,719	-0,294	-0,156
109,889	-53,073	-0,304	-0,097
110,903	83,180	-0,277	-0,211
111,918	-38,923	-0,318	-0,116
112,933	136,820	-0,291	-0,266
113,947	257,369	-0,228	-0,274
114,962	39,702	-0,253	-0,158
115,976	2,498	-0,334	-0,169
116,991	-43,938	-0,224	-0,078
118,006	-46,582	-0,234	-0,080
119,020	7,847	-0,291	-0,152
120,035	15,143	-0,198	-0,108
121,049	-28,258	-0,224	-0,090
122,064	-16,474	-0,276	-0,122
123,079	-20,114	-0,195	-0,084
124,093	87,226	-0,191	-0,148
125,108	-16,484	-0,357	-0,157
126,122	22,960	-0,257	-0,147
127,137	55,716	-0,258	-0,174
128,151	112,179	-0,113	-0,095
129,166	24,419	-0,161	-0,092
130,181	42,233	-0,295	-0,187
131,195	22,379	-0,219	-0,125
132,210	496,884	-0,206	-0,332
133,224	58,434	-0,206	-0,141
134,239	0,714	-0,300	-0,149
135,254	98,552	-0,236	-0,190
136,268	111,363	-0,229	-0,193
137,283	36,143	-0,226	-0,138
138,297	339,151	-0,225	-0,306
139,312	85,851	-0,306	-0,235
140,327	87,231	-0,263	-0,202
141,341	-36,998	-0,226	-0,084
142,356	-103,406	-0,195	-0,032
143,370	125,587	-0,223	-0,196
144,385	37,140	-0,188	-0,116
145,400	47,321	-0,365	-0,237
146,414	31,850	-0,318	-0,191
147,429	74,921	-0,327	-0,240
148,443	434,841	-0,137	-0,208
149,458	-40,587	-0,169	-0,061
150,473	-3,709	-0,173	-0,083
151,487	800,000	-0,126	-0,257
152,502	210,912	-0,193	-0,212
153,516	759,493	-0,101	-0,191
154,531	193,328	-0,221	-0,233
155,546	144,236	-0,275	-0,255
156,560	800,000	-0,117	-0,269
157,575	119,649	-0,248	-0,214
158,589	173,630	-0,236	-0,237
159,604	31,699	-0,216	-0,129
160,619	386,107	-0,275	-0,397
161,633	49,846	-0,394	-0,258
162,648	-200,000	-0,056	-0,212
163,662	33,886	-0,255	-0,154
164,677	2,752	-0,306	-0,154
165,692	71,017	-0,158	-0,114
166,706	84,664	-0,253	-0,193
167,721	3,435	-0,389	-0,196
168,735	64,077	-0,265	-0,185
169,750	61,391	-0,229	-0,158
170,764	55,817	-0,272	-0,183
171,779	800,000	-0,075	-0,200
172,794	183,349	-0,139	-0,143
173,808	83,657	-0,250	-0,189
174,823	49,045	-0,182	-0,119
175,837	84,640	-0,243	-0,185
176,852	129,436	-0,185	-0,164
177,867	582,492	-0,163	-0,279
178,881	447,180	-0,097	-0,148
179,896	143,684	-0,181	-0,168
180,910	236,314	-0,219	-0,252
181,925	88,549	-0,249	-0,192
182,940	10,223	-0,197	-0,104
183,954	84,998	-0,288	-0,219
184,969	-26,884	-0,315	-0,127
185,983	119,516	-0,143	-0,123
186,998	332,120	-0,194	-0,261
188,013	59,395	-0,298	-0,204
189,027	124,286	-0,250	-0,219
190,042	72,674	-0,373	-0,270
191,056	769,753	-0,112	-0,213
192,071	287,976	-0,166	-0,209
193,086	7,121	-0,137	-0,071
194,100	645,358	-0,107	-0,191
195,115	-4,055	-0,107	-0,051
196,129	-108,494	-0,184	-0,027
197,144	-54,166	-0,166	-0,052
198,159	-12,842	-0,207	-0,093
199,173	87,162	-0,202	-0,155
200,188	800,000	-0,107	-0,268
201,202	128,488	-0,096	-0,085
202,217	74,843	-0,251	-0,183
203,232	75,382	-0,200	-0,146
204,246	249,646	-0,250	-0,295
205,261	159,849	-0,202	-0,195
206,275	100,868	-0,150	-0,121
207,290	-82,667	-0,182	0,041
208,304	-200,000	-0,015	-0,082
209,319	-143,371	-0,087	-0,006
210,334	-68,519	-0,302	-0,081
211,348	26,242	-0,221	-0,128
212,363	197,683	-0,196	-0,207
213,377	208,244	-0,203	-0,220
214,392	84,167	-0,311	-0,235
215,407	800,000	-0,061	-0,155
216,421	-165,153	-0,258	0,008
217,436	-200,000	-0,077	-0,260
218,450	85,796	-0,181	-0,137
219,465	-200,000	-0,057	-0,252
220,480	49,055	-0,282	-0,183
221,494	82,958	-0,209	-0,157
222,509	-200,000	-0,040	-0,203
223,523	110,930	-0,166	-0,138
224,538	-134,159	-0,327	-0,028
225,553	174,607	-0,228	-0,228
226,567	59,785	-0,153	-0,104
227,582	-105,307	-0,032	-0,005
228,596	-137,499	-0,215	0,017
229,611	-58,277	-0,160	-0,048
230,626	257,584	-0,133	-0,159
231,640	-33,448	-0,124	-0,047
232,655	68,276	-0,195	-0,138
233,669	41,029	-0,077	-0,048
234,684	40,760	-0,193	-0,120
235,699	261,678	-0,211	-0,253
236,713	294,588	-0,104	-0,132
237,728	-84,755	-0,268	-0,058
238,742	194,776	-0,107	-0,112
239,757	258,591	-0,162	-0,193
240,772	201,452	-0,176	-0,187
241,786	105,330	-0,173	-0,141
242,801	-200,000	-0,026	-0,125
243,815	27,875	-0,204	-0,118
244,830	-125,068	-0,265	-0,028
245,844	171,003	-0,160	-0,159
246,859	456,178	-0,136	-0,209
247,874	27,121	-0,350	-0,202
248,888	-42,337	-0,205	-0,072
249,903	800,000	-0,072	-0,137
250,917	317,729	-0,155	-0,204
251,932	70,482	-0,125	-0,089
252,947	156,556	-0,119	-0,113
253,961	622,760	-0,055	-0,095
254,976	58,852	-0,283	-0,192
255,990	139,793	-0,200	-0,182
257,005	800,000	-0,111	-0,215
258,020	22,316	-0,183	-0,103
259,034	-200,000	-0,044	-0,151
260,049	30,186	-0,175	-0,103
261,063	58,291	-0,123	-0,083
262,078	265,457	-0,131	-0,158
263,093	96,337	-0,157	-0,124
264,107	292,033	-0,143	-0,180
265,122	14,225	-0,173	-0,093
266,136	-8,715	-0,163	-0,075
267,151	-109,040	-0,103	-0,015
268,166	521,822	-0,067	-0,108
269,180	238,495	-0,175	-0,200
270,195	628,893	-0,111	-0,195
271,209	-60,226	-0,215	-0,063
272,224	-10,905	-0,130	-0,059
273,239	14,555	-0,084	-0,045
274,253	-24,781	-0,096	-0,039
275,268	697,106	-0,121	-0,220
276,282	-82,297	-0,157	0,035
277,297	110,891	-0,182	-0,151
278,312	-79,436	-0,162	-0,037
279,326	352,952	-0,156	-0,214
280,341	173,611	-0,115	-0,114
281,355	-200,000	-0,037	-0,139
282,370	-59,110	-0,097	0,029
283,384	-71,917	-0,209	-0,053
284,399	218,254	-0,156	-0,172
285,414	118,906	-0,213	-0,181
286,428	-160,917	-0,249	0,009
287,443	800,000	-0,029	0,080
288,457	452,620	-0,103	-0,157
289,472	800,000	-0,109	-0,286
290,487	90,858	-0,168	-0,130
291,501	106,651	-0,135	-0,110
292,516	41,928	-0,209	-0,130
293,530	-200,000	-0,065	-0,205
294,545	187,783	-0,100	0,103
295,560	800,000	-0,090	-0,175
296,574	-60,490	-0,199	-0,058
297,589	19,428	-0,015	-0,008
298,603	70,621	-0,114	-0,081
299,618	145,613	-0,111	-0,102
300,633	290,318	-0,066	-0,083
301,647	166,161	-0,153	-0,149
302,662	4,705	-0,132	0,066
303,676	-47,026	-0,158	-0,053
304,691	365,551	-0,101	-0,140
305,706	-40,995	-0,336	-0,119
306,720	111,388	-0,240	-0,199
307,735	800,000	-0,094	-0,184
308,749	490,021	-0,043	-0,068
309,764	287,724	-0,012	-0,015
310,779	-116,641	-0,124	-0,016
311,793	800,000	-0,074	-0,205
312,808	800,000	-0,069	-0,151
313,822	-200,000	0,025	-0,298
314,837	155,817	-0,181	-0,171
315,852	-200,000	0,028	-0,105
316,866	-53,995	-0,195	-0,061
317,881	-200,000	-0,052	-0,160
318,895	-13,596	-0,140	0,062
319,910	269,501	-0,120	-0,145
320,925	143,622	-0,086	-0,079
321,939	444,639	-0,095	-0,144
322,954	766,795	-0,067	-0,125
323,968	252,498	-0,100	-0,118
324,983	-14,395	-0,087	-0,038
325,997	33,357	-0,220	-0,131
327,012	71,779	-0,159	-0,114
328,027	518,136	-0,151	-0,243
329,041	-26,708	-0,216	-0,086
330,056	-110,352	-0,147	-0,021
331,070	184,385	-0,121	-0,123
332,085	-103,297	-0,165	-0,026
333,100	137,779	-0,075	-0,067
334,114	698,567	-0,106	-0,191
335,129	-46,942	-0,117	-0,039
336,143	-73,049	-0,125	-0,031
337,158	484,471	-0,074	-0,117
338,173	97,479	-0,140	-0,110
339,187	-162,798	-0,188	0,006
340,202	664,843	-0,047	-0,083
341,216	-28,837	-0,170	-0,067
342,231	-53,143	-0,250	-0,078
343,246	42,939	-0,200	-0,124
344,260	-114,547	-0,138	-0,018
345,275	321,451	-0,119	-0,155
346,289	-191,196	-0,163	-0,001
347,304	51,412	-0,197	-0,128
348,319	140,742	-0,187	-0,169
349,333	-47,300	-0,290	-0,096
350,348	244,317	-0,100	-0,115
351,362	-24,790	-0,246	-0,099
352,377	-56,180	-0,092	-0,028
353,392	248,296	-0,076	-0,088
354,406	-31,342	-0,159	-0,061
355,421	207,859	1314,129	1406,229
356,435	159,916	1474,764	1406,712
