DTS Sentinel unit serial number:	SN410029Multiplexer serial number:	ORYXHardware model number:	OX2-SRSoftware version number:	ORYX F/W v4,00 Oryx Data Collector v3.7.2.0data status	okinstallation	B3 Nyhavnadifferential loss correction	single-endedforward channel	channel 1reverse channel	N/Adate	2023/11/29time	00:42:30forward acquisition time	300,00reverse acquisition time	0,00gamma	499,1914k internal	0,3212k external	0,3212temperature offset calibration	1,0000default loss term (dB/km)	0,3820temperature slope calibration	1,0000multiplexer offset coefficient	1,0000multiplexer slope coefficient	1,0000fibre end	0,00T internal ref (°C)	9,20T ext. ref 1 (°C)	-5,02T ext. ref 2 (°C)	-5,16length (m)	temperature (°C)	Stokes	anti-Stokes-744,400	161,614	-0,146	-0,148
-743,385	-200,000	-0,034	0,258
-742,371	-200,000	-0,015	-0,194
-741,356	-200,000	0,009	0,226
-740,342	204,563	-0,137	-0,155
-739,327	-200,000	0,059	0,289
-738,312	59,396	-0,214	-0,152
-737,298	-200,000	-0,075	0,299
-736,283	-44,084	-0,335	-0,121
-735,269	-200,000	0,034	0,196
-734,254	-52,156	-0,244	-0,082
-733,239	-4,343	-0,129	0,065
-732,225	133,838	-0,274	-0,257
-731,210	161,204	0,123	0,125
-730,196	-200,000	-0,004	0,064
-729,181	-148,845	-0,175	-0,010
-728,167	-200,000	0,033	-0,126
-727,152	699,900	0,057	0,109
-726,137	131,041	-0,093	-0,087
-725,123	-46,784	0,203	-0,072
-724,108	219,095	-0,158	-0,183
-723,094	646,737	-0,019	-0,034
-722,079	34,322	-0,071	-0,045
-721,064	-200,000	0,013	-0,060
-720,050	7,018	-0,164	0,088
-719,035	-67,815	-0,024	-0,007
-718,021	-107,830	-0,037	0,006
-717,006	800,000	0,050	-0,131
-715,991	279,175	-0,076	-0,098
-714,977	39,903	-0,042	-0,027
-713,962	47,486	-0,045	-0,030
-712,948	800,000	0,024	0,066
-711,933	362,199	-0,050	-0,073
-710,918	-200,000	0,019	-0,090
-709,904	800,000	-0,082	-0,215
-708,889	208,785	-0,056	-0,063
-707,875	-92,552	-0,076	0,015
-706,860	-200,000	0,018	-0,079
-705,845	-200,000	0,017	0,065
-704,831	19,582	0,026	0,015
-703,816	-200,000	0,010	0,052
-702,802	800,000	0,030	-0,095
-701,787	85,253	-0,073	-0,058
-700,772	800,000	-0,022	0,054
-699,758	290,709	-0,025	0,034
-698,743	-72,521	0,103	0,027
-697,729	370,717	0,068	-0,100
-696,714	-47,705	-0,093	0,033
-695,699	76,167	0,073	0,056
-694,685	-64,766	-0,083	0,024
-693,670	-185,122	-0,096	-0,001
-692,656	123,918	-0,076	-0,069
-691,641	215,326	-0,073	-0,084
-690,627	800,000	-0,011	-0,028
-689,612	315,670	0,039	0,053
-688,597	-200,000	-0,041	0,138
-687,583	261,308	-0,079	-0,099
-686,568	85,183	0,092	0,073
-685,554	-200,000	-0,014	-0,123
-684,539	-200,000	0,004	-0,022
-683,524	-65,311	0,052	-0,015
-682,510	26,162	-0,060	0,036
-681,495	295,146	-0,084	-0,112
-680,481	88,570	0,125	-0,100
-679,466	511,706	-0,047	-0,080
-678,451	400,192	-0,098	0,149
-677,437	93,700	0,081	-0,066
-676,422	606,372	0,034	-0,061
-675,408	-200,000	0,004	0,069
-674,393	-13,159	-0,189	-0,088
-673,378	36,879	0,016	0,010
-672,364	-43,687	-0,117	0,042
-671,349	-91,603	-0,135	-0,028
-670,335	800,000	-0,055	0,115
-669,320	-200,000	0,014	0,055
-668,305	-200,000	-0,017	0,087
-667,291	61,389	-0,069	-0,049
-666,276	-24,267	-0,123	-0,053
-665,262	-158,416	-0,053	0,002
-664,247	-34,754	-0,073	-0,029
-663,232	372,483	0,030	0,044
-662,218	800,000	0,028	-0,071
-661,203	800,000	0,034	0,069
-660,189	178,193	-0,034	-0,036
-659,174	800,000	0,048	-0,129
-658,159	468,624	-0,019	0,031
-657,145	-117,227	-0,165	0,021
-656,130	-200,000	0,036	0,162
-655,116	17,051	0,050	-0,028
-654,101	-200,000	-0,017	0,163
-653,086	354,620	0,080	0,115
-652,072	-101,317	0,100	-0,018
-651,057	-66,431	-0,045	-0,013
-650,043	800,000	-0,058	-0,135
-649,028	800,000	-0,079	-0,189
-648,014	510,551	0,043	-0,072
-646,999	800,000	0,016	0,032
-645,984	800,000	-0,029	0,069
-644,970	-200,000	-0,033	-0,244
-643,955	-200,000	-0,026	-0,294
-642,941	-200,000	-0,008	-0,117
-641,926	-5,294	0,143	0,071
-640,911	800,000	0,040	0,113
-639,897	-200,000	-0,001	-0,076
-638,882	-91,705	-0,084	-0,017
-637,868	685,828	0,036	-0,068
-636,853	800,000	-0,079	-0,158
-635,838	-200,000	-0,019	-0,104
-634,824	800,000	-0,035	-0,096
-633,809	-146,713	-0,022	0,001
-632,795	763,410	-0,028	0,054
-631,780	-200,000	0,011	0,095
-630,765	41,814	-0,030	0,020
-629,751	800,000	0,016	0,036
-628,736	247,868	-0,159	-0,195
-627,722	-99,270	-0,007	-0,001
-626,707	-109,113	-0,112	0,017
-625,692	800,000	-0,022	-0,048
-624,678	75,371	-0,071	-0,054
-623,663	-54,979	0,009	-0,003
-622,649	609,758	-0,047	0,085
-621,634	-200,000	0,017	0,089
-620,619	688,018	0,022	-0,041
-619,605	-117,980	0,102	0,013
-618,590	800,000	0,012	0,035
-617,576	-68,137	0,039	-0,011
-616,561	265,316	0,094	-0,119
-615,546	750,753	-0,028	-0,054
-614,532	-80,643	-0,114	-0,027
-613,517	-56,825	0,061	0,019
-612,503	-102,432	-0,105	-0,018
-611,488	51,926	-0,052	-0,035
-610,474	-200,000	-0,037	-0,149
-609,459	800,000	0,027	0,062
-608,444	40,149	-0,082	0,053
-607,430	-200,000	-0,007	0,080
-606,415	58,366	-0,017	0,012
-605,401	102,294	0,067	-0,056
-604,386	753,764	0,031	-0,060
-603,371	800,000	0,030	-0,066
-602,357	-148,444	-0,157	-0,009
-601,342	8,337	0,171	0,092
-600,328	117,836	-0,119	-0,105
-599,313	-200,000	0,005	-0,047
-598,298	-200,000	-0,004	0,050
-597,284	800,000	0,028	0,081
-596,269	532,580	0,061	0,105
-595,255	800,000	-0,030	0,070
-594,240	800,000	0,012	-0,027
-593,225	800,000	-0,057	-0,114
-592,211	-110,918	0,016	0,002
-591,196	-33,206	-0,051	-0,020
-590,182	-136,928	0,068	0,006
-589,167	45,126	-0,087	0,058
-588,152	800,000	0,013	-0,032
-587,138	214,459	0,047	-0,054
-586,123	-63,861	-0,012	0,003
-585,109	-62,828	-0,055	-0,016
-584,094	800,000	0,037	-0,076
-583,079	-30,362	0,101	-0,041
-582,065	262,329	0,075	-0,094
-581,050	-168,161	-0,103	-0,003
-580,036	-5,139	-0,248	0,123
-579,021	-200,000	0,011	0,063
-578,006	-200,000	-0,009	-0,250
-576,992	20,928	-0,114	-0,066
-575,977	-200,000	-0,011	-0,054
-574,963	-150,813	-0,055	-0,003
-573,948	-24,624	-0,024	-0,010
-572,934	-200,000	0,011	0,058
-571,919	23,066	-0,101	-0,060
-570,904	-132,516	-0,017	-0,002
-569,890	55,926	-0,067	-0,047
-568,875	213,130	0,043	0,049
-567,861	197,438	0,022	-0,025
-566,846	77,626	0,036	-0,028
-565,831	260,900	-0,036	-0,045
-564,817	-110,813	0,036	0,005
-563,802	-200,000	-0,004	0,110
-562,788	272,852	0,020	-0,026
-561,773	-200,000	-0,028	0,102
-560,758	383,630	0,024	-0,036
-559,744	-200,000	-0,011	-0,040
-558,729	-200,000	0,011	0,050
-557,715	144,122	-0,110	-0,106
-556,700	-200,000	-0,033	-0,148
-555,685	-148,037	-0,125	0,007
-554,671	-200,000	-0,009	-0,121
-553,656	-200,000	-0,009	-0,055
-552,642	-200,000	-0,017	-0,067
-551,627	800,000	-0,023	0,056
-550,612	222,646	0,009	0,011
-549,598	-200,000	-0,009	-0,135
-548,583	800,000	0,035	-0,079
-547,569	-200,000	-0,006	0,037
-546,554	-184,098	0,085	-0,001
-545,539	95,166	-0,117	0,096
-544,525	1,223	0,161	0,083
-543,510	-98,597	0,134	0,024
-542,496	145,899	-0,052	0,050
-541,481	541,954	0,059	0,102
-540,466	800,000	-0,041	0,090
-539,452	216,005	0,007	0,008
-538,437	146,325	0,147	0,142
-537,423	408,918	0,042	-0,063
-536,408	-70,019	-0,057	-0,015
-535,393	800,000	-0,032	-0,087
-534,379	-14,846	-0,142	-0,065
-533,364	64,030	0,004	-0,003
-532,350	122,001	0,035	0,032
-531,335	-200,000	-0,004	-0,039
-530,321	-106,687	-0,056	-0,009
-529,306	-200,000	0,008	-0,192
-528,291	-81,338	-0,081	-0,019
-527,277	74,916	0,122	-0,092
-526,262	114,690	0,039	-0,034
-525,248	398,386	0,059	0,090
-524,233	-58,919	-0,050	0,016
-523,218	-29,814	-0,112	0,046
-522,204	454,629	0,104	-0,166
-521,189	800,000	0,055	-0,117
-520,175	800,000	-0,005	0,010
-519,160	-200,000	-0,009	0,056
-518,145	800,000	-0,024	-0,054
-517,131	563,503	-0,066	-0,115
-516,116	-200,000	-0,021	0,101
-515,102	800,000	-0,035	0,095
-514,087	800,000	0,054	-0,109
-513,072	-102,429	-0,075	-0,013
-512,058	100,079	0,090	-0,075
-511,043	-200,000	0,011	0,144
-510,029	-39,920	0,125	0,047
-509,014	-200,000	-0,058	0,217
-507,999	-200,000	-0,009	-0,038
-506,985	80,331	-0,120	-0,093
-505,970	-200,000	-0,021	-0,080
-504,956	-172,236	-0,090	-0,002
-503,941	-200,000	0,003	0,037
-502,926	-67,327	0,123	0,034
-501,912	-200,000	0,011	0,056
-500,897	-119,454	0,066	0,008
-499,883	23,249	-0,134	0,079
-498,868	-150,878	0,127	-0,007
-497,853	-1,491	0,154	0,078
-496,839	-11,533	0,026	-0,012
-495,824	-144,647	-0,096	0,006
-494,810	-200,000	0,001	0,052
-493,795	-200,000	0,001	0,081
-492,781	416,658	0,073	-0,112
-491,766	-52,936	-0,040	0,013
-490,751	-200,000	-0,019	-0,072
-489,737	-200,000	0,072	-0,000
-488,722	171,968	0,081	0,084
-487,708	-31,899	0,049	0,020
-486,693	-71,685	-0,046	0,012
-485,678	-131,577	-0,092	0,009
-484,664	-77,081	-0,085	0,021
-483,649	800,000	-0,082	-0,196
-482,635	113,433	-0,062	-0,054
-481,620	-200,000	0,012	-0,116
-480,605	-63,579	0,264	0,077
-479,591	207,546	-0,055	-0,061
-478,576	-117,542	-0,201	0,026
-477,562	176,669	-0,080	-0,083
-476,547	800,000	-0,058	-0,120
-475,532	-181,779	-0,114	-0,002
-474,518	535,789	0,077	-0,132
-473,503	79,588	-0,062	0,047
-472,489	331,785	0,050	0,069
-471,474	800,000	-0,025	0,055
-470,459	73,465	0,117	-0,088
-469,445	-85,632	-0,165	0,036
-468,430	-200,000	-0,015	-0,143
-467,416	-115,721	-0,045	0,006
-466,401	-200,000	0,023	0,142
-465,386	328,098	0,036	0,049
-464,372	63,671	0,039	0,028
-463,357	89,823	0,023	-0,018
-462,343	-81,065	-0,021	-0,005
-461,328	-200,000	0,009	-0,059
-460,313	-200,000	-0,009	0,032
-459,299	800,000	0,028	-0,080
-458,284	329,772	0,069	-0,095
-457,270	-20,315	0,086	0,038
-456,255	-20,172	-0,065	-0,029
-455,241	-200,000	-0,003	-0,038
-454,226	84,593	-0,051	0,040
-453,211	-200,000	0,011	0,084
-452,197	30,278	0,163	-0,099
-451,182	-82,491	-0,182	0,042
-450,168	-157,374	0,066	-0,003
-449,153	-23,345	0,089	-0,038
-448,138	178,343	0,078	-0,081
-447,124	81,741	-0,070	-0,054
-446,109	-7,306	-0,155	-0,075
-445,095	-145,102	0,085	-0,005
-444,080	-200,000	-0,006	0,107
-443,065	-84,409	-0,152	0,034
-442,051	-200,000	-0,002	-0,014
-441,036	373,228	-0,095	0,139
-440,022	-141,828	0,084	0,006
-439,007	-200,000	0,022	-0,112
-437,992	18,579	-0,029	-0,017
-436,978	11,992	0,162	0,089
-435,963	87,564	-0,126	0,100
-434,949	-104,960	0,016	0,003
-433,934	394,329	-0,014	-0,021
-432,919	-200,000	0,008	0,032
-431,905	-85,083	-0,064	0,014
-430,890	-200,000	-0,024	0,110
-429,876	99,343	0,067	0,055
-428,861	-71,282	0,089	0,024
-427,846	-200,000	0,023	-0,081
-426,832	-89,726	0,094	0,020
-425,817	800,000	-0,022	-0,057
-424,803	144,296	0,101	-0,096
-423,788	91,774	0,084	0,068
-422,773	-98,594	0,051	0,009
-421,759	-200,000	-0,015	0,077
-420,744	-200,000	0,004	0,041
-419,730	-135,334	0,049	0,004
-418,715	275,875	0,083	-0,106
-417,701	532,720	-0,034	0,058
-416,686	80,055	-0,037	0,028
-415,671	-103,030	0,090	0,015
-414,657	9,428	0,071	0,038
-413,642	353,919	-0,057	0,081
-412,628	254,566	0,098	-0,120
-411,613	-126,881	-0,043	-0,005
-410,598	-200,000	0,005	0,052
-409,584	134,896	0,128	0,119
-408,569	800,000	0,058	0,134
-407,555	-39,039	-0,037	0,014
-406,540	-200,000	0,009	0,120
-405,525	-200,000	0,013	0,058
-404,511	190,936	-0,095	0,102
-403,496	-200,000	-0,031	-0,100
-402,482	639,833	-0,069	0,126
-401,467	-200,000	-0,025	0,090
-400,452	800,000	-0,028	0,076
-399,438	-135,452	-0,090	-0,008
-398,423	-200,000	0,010	-0,058
-397,409	5,127	-0,074	0,039
-396,394	-86,684	0,121	0,026
-395,379	146,839	0,074	-0,071
-394,365	800,000	0,063	-0,147
-393,350	71,193	0,005	0,004
-392,336	135,197	0,067	0,062
-391,321	800,000	0,024	-0,058
-390,306	-111,527	0,149	-0,021
-389,292	-85,689	-0,049	-0,011
-388,277	-30,037	0,075	0,031
-387,263	415,396	0,058	-0,089
-386,248	-200,000	-0,006	-0,024
-385,233	79,074	0,107	0,082
-384,219	-94,566	-0,158	-0,030
-383,204	507,034	-0,019	-0,032
-382,190	306,205	0,051	-0,068
-381,175	11,981	0,036	-0,020
-380,160	318,735	-0,016	-0,022
-379,146	-161,000	0,142	0,005
-378,131	301,986	-0,085	0,112
-377,117	-200,000	0,035	0,110
-376,102	114,181	-0,133	-0,115
-375,088	800,000	-0,079	-0,249
-374,073	-200,000	-0,041	-0,164
-373,058	294,465	-0,049	0,064
-372,044	-200,000	0,025	0,135
-371,029	68,094	-0,068	0,050
-370,015	-96,545	0,141	0,026
-369,000	800,000	0,011	-0,028
-367,985	-200,000	-0,015	0,047
-366,971	-65,034	-0,010	0,003
-365,956	-200,000	-0,019	0,078
-364,942	-200,000	0,020	0,114
-363,927	-82,287	0,095	-0,022
-362,912	800,000	0,054	0,112
-361,898	-200,000	-0,012	-0,114
-360,883	-46,051	-0,160	-0,056
-359,869	132,492	0,157	-0,145
-358,854	800,000	0,037	0,106
-357,839	-200,000	0,008	-0,105
-356,825	334,888	-0,089	0,124
-355,810	-200,000	-0,009	-0,055
-354,796	800,000	0,041	-0,123
-353,781	-120,620	-0,102	-0,012
-352,766	-63,103	-0,169	0,049
-351,752	-200,000	0,027	0,100
-350,737	-156,933	0,115	-0,005
-349,723	315,254	0,028	0,038
-348,708	-102,474	-0,068	0,011
-347,693	405,476	-0,091	-0,138
-346,679	228,829	-0,080	-0,093
-345,664	-65,445	0,092	-0,026
-344,650	-51,227	-0,118	0,039
-343,635	553,445	-0,042	0,073
-342,620	-97,549	0,154	-0,028
-341,606	-59,739	-0,036	0,011
-340,591	-42,155	-0,144	-0,052
-339,577	515,217	-0,043	-0,072
-338,562	-69,998	-0,062	-0,017
-337,548	-116,849	-0,042	-0,005
-336,533	183,284	0,097	0,102
-335,518	33,287	0,088	-0,054
-334,504	44,440	0,077	0,051
-333,489	-19,208	0,050	0,022
-332,475	-103,140	-0,134	-0,022
-331,460	-120,669	-0,062	0,007
-330,445	-7,034	0,109	-0,053
-329,431	-18,167	-0,090	0,040
-328,416	-8,788	0,183	-0,087
-327,402	124,182	-0,029	-0,026
-326,387	295,692	-0,079	0,103
-325,372	800,000	0,036	-0,091
-324,358	122,048	-0,148	-0,132
-323,343	92,996	-0,009	-0,007
-322,329	-91,205	0,080	0,016
-321,314	800,000	0,094	0,242
-320,299	800,000	0,045	-0,129
-319,285	800,000	-0,042	-0,101
-318,270	-6,128	-0,021	0,010
-317,256	-200,000	-0,006	-0,099
-316,241	453,052	0,078	0,123
-315,226	189,154	0,048	0,051
-314,212	-200,000	0,007	0,115
-313,197	162,203	0,010	-0,010
-312,183	25,713	0,105	-0,062
-311,168	-156,060	-0,130	-0,006
-310,153	-29,458	0,072	-0,029
-309,139	-74,706	-0,090	0,023
-308,124	-103,211	0,124	-0,021
-307,110	138,906	0,146	0,137
-306,095	512,753	0,040	0,066
-305,080	-50,461	-0,124	0,041
-304,066	-8,946	0,091	0,043
-303,051	229,991	-0,124	-0,144
-302,037	418,216	0,038	-0,058
-301,022	53,030	-0,056	-0,038
-300,008	-200,000	0,009	0,072
-298,993	131,711	-0,129	0,119
-297,978	-200,000	-0,015	0,090
-296,964	-171,287	-0,091	0,002
-295,949	34,958	0,027	0,017
-294,935	-200,000	-0,003	-0,012
-293,920	72,838	0,125	0,093
-292,905	-113,528	0,134	-0,018
-291,891	800,000	0,041	0,084
-290,876	80,415	-0,068	-0,052
-289,862	-200,000	-0,032	0,108
-288,847	135,596	-0,088	-0,082
-287,832	428,083	0,005	0,007
-286,818	800,000	0,043	0,105
-285,803	-6,156	0,044	-0,021
-284,789	-141,622	-0,059	0,004
-283,774	-79,120	0,115	0,028
-282,759	410,928	-0,065	0,098
-281,745	29,354	0,086	-0,052
-280,730	-90,416	-0,109	-0,022
-279,716	-118,018	0,113	0,014
-278,701	800,000	-0,021	0,052
-277,686	139,940	0,096	0,090
-276,672	251,965	0,133	-0,161
-275,657	-46,611	-0,122	-0,042
-274,643	-200,000	0,023	-0,121
-273,628	202,812	0,009	-0,010
-272,613	6,910	-0,067	-0,036
-271,599	-200,000	-0,012	-0,038
-270,584	405,978	0,133	0,200
-269,570	800,000	0,027	0,081
-268,555	38,619	0,119	0,075
-267,540	-11,503	0,108	0,050
-266,526	-200,000	-0,003	-0,113
-265,511	-42,858	-0,062	-0,022
-264,497	609,976	0,024	-0,043
-263,482	199,697	0,091	0,100
-262,467	-200,000	0,015	-0,090
-261,453	-79,656	-0,079	0,019
-260,438	-200,000	0,004	-0,047
-259,424	566,024	-0,058	-0,100
-258,409	57,252	0,100	-0,069
-257,395	800,000	0,019	-0,042
-256,380	-200,000	-0,016	0,055
-255,365	-200,000	-0,012	0,091
-254,351	-4,632	-0,087	-0,042
-253,336	-200,000	-0,028	0,182
-252,322	-15,073	-0,053	-0,024
-251,307	172,274	0,068	-0,070
-250,292	-200,000	-0,054	-0,184
-249,278	-106,032	0,094	0,015
-248,263	-166,989	0,083	0,002
-247,249	-148,160	0,059	-0,003
-246,234	12,185	-0,074	-0,040
-245,219	-200,000	-0,020	-0,084
-244,205	653,144	-0,036	0,065
-243,190	264,222	0,063	0,078
-242,176	341,379	0,024	0,033
-241,161	-75,387	0,096	0,024
-240,146	800,000	0,048	0,105
-239,132	551,979	-0,035	0,059
-238,117	19,302	0,031	-0,018
-237,103	-20,724	-0,081	-0,035
-236,088	800,000	0,022	0,060
-235,073	114,526	0,045	-0,039
-234,059	800,000	0,027	0,078
-233,044	-200,000	-0,014	0,064
-232,030	-82,474	-0,195	0,045
-231,015	800,000	-0,022	-0,058
-230,000	161,140	-0,061	-0,061
-228,986	204,943	0,065	-0,072
-227,971	294,613	0,133	0,173
-226,957	70,668	0,125	0,092
-225,942	-200,000	-0,037	0,171
-224,927	346,953	-0,096	0,134
-223,913	800,000	0,008	-0,022
-222,898	189,142	-0,095	0,101
-221,884	-115,913	0,144	0,019
-220,869	-200,000	0,008	0,033
-219,855	-200,000	0,037	0,143
-218,840	-14,355	-0,025	-0,011
-217,825	-60,721	-0,089	-0,027
-216,811	-200,000	-0,002	-0,135
-215,796	287,577	-0,040	0,052
-214,782	-200,000	-0,015	0,126
-213,767	-106,489	0,074	0,012
-212,752	-102,269	0,104	-0,018
-211,738	-200,000	0,007	-0,024
-210,723	136,286	-0,087	0,081
-209,709	147,442	-0,096	-0,091
-208,694	-128,464	-0,054	-0,005
-207,679	53,979	0,117	0,080
-206,665	413,335	-0,101	0,153
-205,650	800,000	-0,014	-0,043
-204,636	229,613	0,105	-0,121
-203,621	800,000	0,007	0,015
-202,606	163,636	-0,053	-0,053
-201,592	576,589	-0,041	-0,072
-200,577	190,211	-0,053	-0,056
-199,563	-145,830	-0,037	-0,002
-198,548	-65,814	0,114	0,032
-197,533	-200,000	0,051	0,216
-196,519	800,000	-0,018	0,045
-195,504	-157,440	-0,108	0,005
-194,490	-200,000	-0,041	-0,133
-193,475	123,631	-0,018	0,016
-192,460	204,182	-0,051	0,056
-191,446	-200,000	0,020	0,105
-190,431	497,618	0,027	0,044
-189,417	-111,972	0,145	0,020
-188,402	800,000	-0,059	-0,129
-187,387	-200,000	0,021	-0,079
-186,373	-200,000	-0,025	-0,102
-185,358	-50,231	-0,082	0,028
-184,344	-135,749	0,158	0,013
-183,329	-79,262	0,173	-0,041
-182,315	-200,000	0,023	0,112
-181,300	61,571	-0,041	0,029
-180,285	372,816	-0,047	-0,069
-179,271	280,920	-0,078	0,099
-178,256	-176,479	0,047	-0,001
-177,242	-27,884	0,074	-0,030
-176,227	800,000	-0,040	0,082
-175,212	31,300	-0,028	0,017
-174,198	-200,000	0,020	0,084
-173,183	561,305	-0,022	0,038
-172,169	590,084	-0,052	0,091
-171,154	405,821	-0,032	-0,048
-170,139	-74,645	0,165	-0,042
-169,125	64,341	-0,075	0,054
-168,110	-200,000	0,046	0,150
-167,096	-27,830	-0,153	0,062
-166,081	800,000	-0,036	0,095
-165,066	800,000	-0,055	-0,127
-164,052	75,078	0,081	0,060
-163,037	6,217	-0,112	0,059
-162,023	-21,133	0,044	-0,019
-161,008	-200,000	0,015	-0,082
-159,993	195,554	-0,098	0,106
-158,979	-91,323	0,039	0,008
-157,964	-200,000	-0,004	0,076
-156,950	73,892	0,072	-0,054
-155,935	-88,630	0,064	-0,013
-154,920	-200,000	0,012	0,111
-153,906	-200,000	-0,002	-0,044
-152,891	-36,502	-0,065	0,024
-151,877	-2,121	-0,059	-0,029
-150,862	-79,850	0,107	0,025
-149,847	-100,265	0,061	0,011
-148,833	-68,249	0,103	0,028
-147,818	78,991	-0,056	0,042
-146,804	-53,166	0,195	-0,063
-145,789	-200,000	0,012	-0,072
-144,775	112,366	-0,045	0,039
-143,760	124,055	0,027	-0,024
-142,745	-88,038	0,030	-0,006
-141,731	-101,739	-0,080	-0,014
-140,716	87,821	0,067	0,052
-139,702	-63,618	-0,086	-0,025
-138,687	478,783	0,029	-0,046
-137,672	162,864	-0,069	-0,068
-136,658	-112,362	0,026	-0,004
-135,643	9,889	0,077	-0,041
-134,629	-33,119	0,049	-0,019
-133,614	-101,289	0,119	0,020
-132,599	326,760	-0,052	0,071
-131,585	28,814	0,126	0,076
-130,570	388,911	-0,059	0,087
-129,556	157,731	-0,059	-0,058
-128,541	-200,000	-0,018	-0,098
-127,526	574,626	0,074	0,128
-126,512	379,730	0,019	-0,028
-125,497	32,780	-0,059	0,036
-124,483	-161,554	0,104	-0,004
-123,468	-200,000	0,001	-0,081
-122,453	-200,000	-0,021	-0,133
-121,439	-200,000	0,027	-0,152
-120,424	-156,188	0,059	0,003
-119,410	-200,000	-0,006	0,028
-118,395	204,244	-0,076	0,084
-117,380	-131,736	-0,187	0,017
-116,366	24,422	-0,074	0,043
-115,351	-42,559	-0,135	-0,048
-114,337	-17,926	-0,069	-0,030
-113,322	800,000	0,039	-0,080
-112,307	-10,026	0,068	-0,032
-111,293	800,000	0,086	0,177
-110,278	36,234	-0,077	0,048
-109,264	-96,258	-0,088	-0,016
-108,249	456,675	-0,085	-0,133
-107,234	-8,505	-0,097	0,046
-106,220	35,207	-0,138	0,085
-105,205	9,982	-0,031	0,017
-104,191	360,658	-0,108	0,154
-103,176	-200,000	0,004	0,014
-102,162	23,374	0,077	0,045
-101,147	800,000	-0,015	0,042
-100,132	77,453	-0,030	-0,022
-99,118	88,602	-0,068	-0,053
-98,103	-86,365	-0,096	-0,021
-97,089	-25,116	0,138	0,057
-96,074	773,825	-0,046	0,089
-95,059	10,121	0,146	0,078
-94,045	362,407	0,054	0,077
-93,030	-132,901	-0,064	-0,006
-92,016	-200,000	-0,014	0,093
-91,001	-39,037	-0,107	0,040
-89,986	217,461	-0,064	-0,072
-88,972	-144,685	0,070	-0,005
-87,957	800,000	-0,038	-0,076
-86,943	25,403	-0,021	-0,012
-85,928	92,658	0,049	0,039
-84,913	-105,128	0,054	-0,009
-83,899	800,000	-0,056	-0,134
-82,884	238,745	-0,043	0,051
-81,870	-200,000	-0,010	0,123
-80,855	-200,000	-0,009	-0,106
-79,840	-200,000	-0,030	0,115
-78,826	-33,153	-0,138	-0,054
-77,811	53,998	-0,064	-0,044
-76,797	-49,720	0,092	-0,031
-75,782	-35,973	-0,018	-0,007
-74,767	-61,832	0,035	0,010
-73,753	79,269	0,066	-0,050
-72,738	-104,800	0,016	0,003
-71,724	87,499	0,053	0,041
-70,709	122,302	0,054	-0,048
-69,694	243,770	0,118	-0,140
-68,680	-53,902	-0,070	0,022
-67,665	88,514	0,170	0,133
-66,651	-47,949	0,096	0,033
-65,636	138,261	-0,070	0,065
-64,622	-62,804	-0,028	0,008
-63,607	-173,797	0,067	0,001
-62,592	-41,622	-0,190	0,068
-61,578	-63,300	0,111	0,032
-60,563	57,895	0,145	0,100
-59,549	-200,000	-0,031	0,196
-58,534	54,447	-2,145	-1,456
-57,519	519,881	-1,181	-1,962
-56,505	-200,000	-0,383	-4,418
-55,490	800,000	0,834	1,697
-54,476	800,000	5,090	11,282
-53,461	-200,000	21,825	339,258
-52,446	800,000	761,202	2317,580
-51,432	539,924	1656,941	2793,318
-50,417	70,326	1653,636	1204,180
-49,403	16,926	1527,447	851,148
-48,388	11,020	1451,586	780,428
-47,373	19,084	1443,341	814,504
-46,359	14,442	1432,241	786,227
-45,344	9,286	1428,219	759,537
-44,330	9,250	1426,405	758,370
-43,315	9,249	1424,577	757,364
-42,300	9,255	1422,820	756,428
-41,286	9,286	1421,563	755,878
-40,271	9,248	1420,347	755,020
-39,257	9,262	1419,114	754,401
-38,242	9,276	1418,041	753,865
-37,227	9,260	1416,954	753,183
-36,213	9,263	1415,609	752,451
-35,198	9,295	1414,184	751,818
-34,184	9,335	1413,415	751,564
-33,169	9,230	1412,143	750,365
-32,154	9,254	1411,081	749,885
-31,140	9,232	1410,141	749,251
-30,125	9,302	1408,716	748,791
-29,111	9,323	1407,452	748,191
-28,096	9,272	1406,373	747,346
-27,082	9,218	1405,021	746,345
-26,067	9,229	1404,106	745,882
-25,052	9,231	1403,233	745,397
-24,038	9,255	1402,192	744,927
-23,023	9,236	1401,222	744,296
-22,009	9,231	1400,104	743,648
-20,994	9,239	1399,222	743,188
-19,979	9,201	1398,265	742,472
-18,965	9,194	1397,304	741,901
-17,950	9,148	1396,504	741,235
-16,936	9,124	1395,742	740,687
-15,921	9,130	1394,368	739,955
-14,906	9,145	1393,589	739,585
-13,892	9,188	1392,589	739,222
-12,877	9,140	1391,873	738,590
-11,863	9,164	1391,099	738,262
-10,848	9,111	1390,147	737,481
-9,833	9,095	1389,090	736,819
-8,819	9,058	1388,289	736,195
-7,804	9,064	1387,392	735,718
-6,790	9,080	1386,287	735,178
-5,775	9,045	1385,364	734,494
-4,760	9,027	1384,514	733,935
-3,746	9,047	1383,523	733,471
-2,731	9,023	1382,500	732,790
-1,717	9,043	1381,690	732,421
-0,702	9,016	1380,119	731,438
0,313	13,083	1292,173	703,323
1,327	29,147	684,286	408,583
2,342	45,227	118,022	76,593
3,356	2,872	16,444	8,389
4,371	9,743	3,633	1,936
5,386	33,699	1,133	0,693
6,400	800,000	0,219	0,488
7,415	189,439	-0,066	-0,070
8,429	34,769	-0,298	-0,183
9,444	-111,426	-0,297	-0,042
10,459	-24,205	-0,424	-0,177
11,473	-60,166	-0,251	-0,075
12,488	-67,815	-0,357	-0,098
13,502	80,125	-0,170	-0,129
14,517	70,327	-0,292	-0,212
15,531	6,650	-0,451	-0,236
16,546	-36,526	-0,364	-0,137
17,561	326,950	-0,229	-0,310
18,575	-95,829	-0,266	-0,050
19,590	57,240	-0,145	-0,100
20,604	-23,357	-0,147	-0,062
21,619	71,552	-0,436	-0,319
22,634	113,113	-0,354	-0,302
23,648	-37,879	-0,506	-0,188
24,663	-64,040	-0,504	-0,144
25,677	-35,667	-0,269	-0,102
26,692	136,601	-0,339	-0,311
27,707	-28,893	-0,363	-0,146
28,721	2,737	-0,305	-0,155
29,736	46,760	-0,400	-0,261
30,750	41,096	-0,373	-0,237
31,765	68,832	-0,389	-0,281
32,780	152,191	-0,291	-0,279
33,794	41,736	-0,368	-0,234
34,809	-33,553	-0,402	-0,155
35,823	47,021	-0,310	-0,202
36,838	71,322	-0,345	-0,251
37,853	-8,764	-0,352	-0,165
38,867	102,758	-0,352	-0,289
39,882	55,868	-0,408	-0,278
40,896	-35,425	-0,277	-0,105
41,911	-33,544	-0,263	-0,102
42,926	-22,664	-0,327	-0,138
43,940	-0,097	-0,401	-0,200
44,955	201,758	-0,309	-0,335
45,969	46,446	-0,416	-0,270
46,984	37,418	-0,337	-0,209
47,999	-31,119	-0,381	-0,150
49,013	70,101	-0,287	-0,208
50,028	153,136	-0,325	-0,312
51,042	5,359	-0,379	-0,196
52,057	34,479	-0,306	-0,187
53,071	36,545	-0,422	-0,261
54,086	-37,695	-0,358	-0,133
55,101	45,163	-0,313	-0,202
56,115	27,509	-0,335	-0,198
57,130	34,933	-0,295	-0,181
58,144	-88,355	-0,292	-0,061
59,159	107,309	-0,378	-0,315
60,174	-18,906	-0,299	-0,130
61,188	-13,050	-0,322	-0,146
62,203	86,499	-0,202	-0,156
63,217	15,493	-0,351	-0,193
64,232	129,240	-0,221	-0,198
65,247	88,275	-0,343	-0,267
66,261	-2,422	-0,433	-0,212
67,276	258,989	-0,336	-0,407
68,290	-1,884	-0,419	-0,206
69,305	116,082	-0,299	-0,256
70,320	109,596	-0,234	-0,196
71,334	-10,559	-0,306	-0,142
72,349	-65,794	-0,326	-0,091
73,363	39,586	-0,304	-0,190
74,378	-19,822	-0,242	-0,104
75,393	103,386	-0,243	-0,200
76,407	87,181	-0,294	-0,228
77,422	-11,735	-0,225	-0,103
78,436	-100,588	-0,201	-0,034
79,451	-19,423	-0,363	-0,157
80,466	3,256	-0,244	-0,124
81,480	157,198	-0,309	-0,299
82,495	-41,630	-0,400	-0,143
83,509	221,016	-0,140	-0,158
84,524	142,945	-0,178	-0,166
85,539	205,704	-0,254	-0,277
86,553	11,808	-0,255	-0,137
87,568	328,585	-0,230	-0,310
88,582	7,166	-0,354	-0,184
89,597	98,898	-0,295	-0,238
90,611	79,930	-0,300	-0,226
91,626	111,943	-0,238	-0,201
92,641	171,734	-0,182	-0,183
93,655	-15,629	-0,293	-0,130
94,670	38,436	-0,307	-0,191
95,684	574,231	-0,160	-0,274
96,699	82,303	-0,303	-0,230
97,714	79,672	-0,225	-0,169
98,728	-38,623	-0,302	-0,111
99,743	36,919	-0,357	-0,220
100,757	195,085	-0,188	-0,199
101,772	15,208	-0,222	-0,121
102,787	-29,743	-0,268	-0,106
103,801	367,877	-0,188	-0,266
104,816	115,388	-0,171	-0,146
105,830	-129,369	-0,218	-0,021
106,845	13,698	-0,315	-0,170
107,860	103,111	-0,312	-0,255
108,874	168,100	-0,264	-0,262
109,889	71,250	-0,171	-0,124
110,903	108,105	-0,240	-0,200
111,918	41,646	-0,380	-0,240
112,933	155,320	-0,249	-0,239
113,947	-75,873	-0,249	-0,061
114,962	-35,040	-0,383	-0,145
115,976	-24,528	-0,295	-0,122
116,991	17,911	-0,312	-0,173
118,006	82,843	-0,347	-0,263
119,020	-57,716	-0,142	-0,043
120,035	118,490	-0,260	-0,224
121,049	-21,400	-0,199	-0,085
122,064	-174,653	-0,255	-0,005
123,079	-50,025	-0,135	-0,044
124,093	459,999	-0,207	-0,323
125,108	20,748	-0,331	-0,187
126,122	243,964	-0,126	-0,148
127,137	191,530	-0,222	-0,234
128,151	167,698	-0,201	-0,200
129,166	-79,583	-0,160	0,037
130,181	8,362	-0,278	-0,145
131,195	800,000	-0,192	-0,374
132,210	126,435	-0,236	-0,208
133,224	-37,891	-0,322	-0,119
134,239	-77,659	-0,263	-0,063
135,254	-2,607	-0,106	0,051
136,268	-77,957	-0,239	-0,057
137,283	27,975	-0,214	-0,125
138,297	38,231	-0,264	-0,163
139,312	82,505	-0,282	-0,213
140,327	173,992	-0,317	-0,319
141,341	223,881	-0,204	-0,229
142,356	4,119	-0,231	-0,117
143,370	127,507	-0,251	-0,222
144,385	239,874	-0,224	-0,260
145,400	-48,649	-0,230	-0,076
146,414	303,363	-0,193	-0,250
147,429	66,387	-0,309	-0,218
148,443	499,036	-0,123	-0,197
149,458	123,911	-0,120	-0,105
150,473	516,570	-0,164	-0,268
151,487	190,631	-0,254	-0,266
152,502	8,241	-0,350	-0,182
153,516	84,778	-0,206	-0,157
154,531	31,718	-0,286	-0,171
155,546	786,186	-0,098	-0,188
156,560	337,925	-0,173	-0,234
157,575	-95,186	-0,142	-0,026
158,589	104,416	-0,201	-0,165
159,604	-6,085	-0,251	-0,119
160,619	24,942	-0,389	-0,224
161,633	-59,189	-0,302	-0,090
162,648	473,664	-0,191	-0,301
163,662	-100,160	-0,230	-0,039
164,677	57,923	-0,204	-0,139
165,692	86,919	-0,173	-0,133
166,706	55,972	-0,267	-0,180
167,721	40,093	-0,202	-0,126
168,735	55,480	-0,258	-0,173
169,750	499,421	-0,110	-0,177
170,764	-0,811	-0,149	-0,073
171,779	114,558	-0,224	-0,189
172,794	-75,737	-0,245	-0,060
173,808	100,890	-0,199	-0,160
174,823	263,604	-0,160	-0,193
175,837	335,757	-0,138	-0,187
176,852	31,892	-0,266	-0,158
177,867	-33,955	-0,162	-0,061
178,881	306,951	-0,184	-0,239
179,896	-102,077	-0,229	-0,038
180,910	2,212	-0,258	-0,129
181,925	-108,789	-0,276	-0,041
182,940	83,248	-0,187	-0,141
183,954	-138,927	-0,174	0,013
184,969	142,943	-0,188	-0,174
185,983	-59,799	-0,257	-0,076
186,998	228,431	-0,117	-0,132
188,013	-55,417	-0,171	-0,053
189,027	-35,012	-0,292	-0,110
190,042	800,000	-0,092	-0,268
191,056	800,000	-0,062	-0,175
192,071	169,843	-0,180	-0,179
193,086	77,750	-0,148	-0,109
194,100	35,842	-0,157	-0,096
195,115	66,313	-0,213	-0,150
196,129	800,000	-0,098	-0,227
197,144	-114,117	-0,137	-0,018
198,159	150,015	-0,175	-0,164
199,173	298,522	-0,202	-0,259
200,188	609,879	-0,132	-0,230
201,202	-7,992	-0,118	-0,055
202,217	-73,155	-0,110	0,028
203,232	-31,302	-0,194	0,076
204,246	-67,813	-0,267	-0,072
205,261	555,514	-0,191	-0,320
206,275	45,300	-0,222	-0,142
207,290	800,000	-0,047	-0,111
208,304	-8,696	-0,206	-0,095
209,319	107,031	-0,078	-0,064
210,334	155,286	-0,220	-0,209
211,348	69,561	-0,066	-0,047
212,363	-45,714	-0,310	-0,106
213,377	98,582	-0,329	-0,262
214,392	290,239	-0,129	-0,163
215,407	800,000	-0,150	-0,335
216,421	-188,723	-0,193	0,002
217,436	72,060	-0,344	-0,247
218,450	39,877	-0,150	-0,093
219,465	287,910	-0,125	-0,156
220,480	295,584	-0,153	-0,194
221,494	74,233	-0,233	-0,169
222,509	-132,728	-0,151	-0,013
223,523	331,891	-0,137	-0,183
224,538	-21,498	-0,268	-0,113
225,553	800,000	-0,165	-0,349
226,567	633,334	-0,142	-0,249
227,582	800,000	-0,134	-0,273
228,596	278,120	-0,112	-0,138
229,611	-53,526	-0,123	0,039
230,626	40,150	-0,294	-0,182
231,640	800,000	-0,094	-0,221
232,655	-11,587	-0,232	-0,105
233,669	382,098	-0,190	-0,270
234,684	-83,623	-0,210	-0,046
235,699	800,000	-0,093	-0,187
236,713	-200,000	-0,019	-0,121
237,728	215,696	-0,204	-0,225
238,742	-50,192	-0,155	-0,050
239,757	4,404	-0,249	-0,126
240,772	516,903	-0,114	-0,185
241,786	800,000	-0,127	-0,289
242,801	506,634	-0,112	-0,179
243,815	348,478	-0,075	-0,102
244,830	-77,485	-0,105	-0,025
245,844	395,412	-0,103	-0,149
246,859	34,797	-0,189	-0,114
247,874	61,749	-0,198	-0,136
248,888	-36,468	-0,124	-0,046
249,903	-133,257	-0,211	-0,018
250,917	-183,067	-0,242	0,003
251,932	190,515	-0,152	-0,157
252,947	-88,486	-0,137	-0,028
253,961	183,167	-0,145	-0,148
254,976	279,378	-0,094	-0,116
255,990	-11,293	-0,262	-0,119
257,005	-144,138	-0,079	0,005
258,020	-155,973	-0,139	0,006
259,034	-7,210	-0,192	-0,090
260,049	59,441	-0,137	-0,093
261,063	68,683	-0,156	-0,110
262,078	-80,580	-0,198	-0,045
263,093	418,210	-0,099	-0,147
264,107	548,751	-0,090	-0,149
265,122	-200,000	-0,009	-0,128
266,136	73,937	-0,140	-0,101
267,151	30,586	-0,138	0,081
268,166	155,392	-0,176	-0,167
269,180	512,394	-0,138	-0,223
270,195	256,597	-0,093	-0,111
271,209	-83,198	-0,230	-0,050
272,224	-7,963	-0,268	-0,124
273,239	-54,308	-0,153	-0,048
274,253	43,424	-0,150	-0,094
275,268	186,722	-0,115	-0,118
276,282	65,010	-0,232	-0,161
277,297	-73,740	-0,208	-0,052
278,312	-200,000	-0,053	-0,225
279,326	-97,354	-0,280	-0,050
280,341	208,220	-0,141	-0,151
281,355	-161,941	-0,210	-0,007
282,370	187,508	-0,111	-0,114
283,384	129,971	-0,114	-0,101
284,399	10,472	-0,323	-0,169
285,414	-137,152	-0,170	0,013
286,428	-115,661	-0,157	-0,020
287,443	235,367	-0,103	-0,117
288,457	9,676	-0,166	-0,086
289,472	-120,471	-0,218	-0,025
290,487	252,713	-0,090	-0,106
291,501	-136,111	-0,199	0,016
292,516	-84,717	-0,228	-0,049
293,530	34,182	-0,145	-0,087
294,545	-100,843	-0,187	-0,031
295,560	-87,365	-0,150	0,031
296,574	54,024	-0,202	-0,133
297,589	71,494	-0,170	-0,121
298,603	-145,913	-0,144	-0,009
299,618	-108,370	-0,171	0,025
300,633	266,122	-0,106	-0,127
301,647	800,000	-0,021	-0,047
302,662	-91,928	-0,244	-0,047
303,676	-76,420	-0,115	-0,027
304,691	339,350	-0,105	-0,141
305,706	34,472	-0,192	-0,115
306,720	-185,823	-0,214	-0,002
307,735	-65,974	-0,257	-0,070
308,749	-129,182	-0,173	-0,016
309,764	800,000	-0,053	0,149
310,779	-14,011	-0,186	0,082
311,793	597,117	-0,129	-0,220
312,808	72,567	-0,103	-0,073
313,822	-85,037	-0,251	-0,054
314,837	290,054	-0,191	-0,238
315,852	800,000	-0,025	-0,066
316,866	430,530	-0,080	-0,120
317,881	-111,753	-0,112	0,015
318,895	-46,852	-0,274	-0,091
319,910	94,479	-0,128	-0,100
320,925	267,524	-0,188	-0,226
321,939	-148,550	-0,130	-0,007
322,954	-156,444	-0,156	-0,007
323,968	384,541	-0,137	-0,194
324,983	3,537	-0,074	0,037
325,997	-168,870	-0,104	-0,003
327,012	70,191	-0,150	-0,106
328,027	61,627	-0,258	-0,176
329,041	-115,199	-0,149	0,019
330,056	-200,000	-0,014	0,085
331,070	-102,002	-0,096	-0,016
332,085	-129,472	-0,165	0,015
333,100	376,434	-0,107	-0,150
334,114	800,000	-0,088	-0,207
335,129	628,327	-0,137	-0,239
336,143	365,444	-0,165	-0,228
337,158	145,006	-0,127	-0,116
338,173	194,942	-0,152	-0,158
339,187	-23,214	-0,054	0,022
340,202	86,848	-0,030	-0,022
341,216	39,408	-0,131	-0,080
342,231	-50,830	-0,201	-0,064
343,246	353,331	-0,124	-0,169
344,260	72,951	-0,147	-0,105
345,275	-200,000	-0,016	-0,147
346,289	-138,164	-0,109	0,008
347,304	-191,043	-0,074	-0,001
348,319	-44,003	-0,186	-0,064
349,333	8,409	-0,157	-0,081
350,348	-2,949	-0,136	0,065
351,362	535,862	-0,109	-0,178
352,377	-59,072	-0,059	-0,017
353,392	193,754	-0,081	-0,084
354,406	19,847	-0,099	0,054
355,421	206,876	1307,157	1394,355
356,435	159,126	1466,925	1394,848
