DTS Sentinel unit serial number:	SN410029Multiplexer serial number:	ORYXHardware model number:	OX2-SRSoftware version number:	ORYX F/W v4,00 Oryx Data Collector v3.7.2.0data status	okinstallation	B3 Nyhavnadifferential loss correction	single-endedforward channel	channel 1reverse channel	N/Adate	2023/12/02time	07:32:30forward acquisition time	300,00reverse acquisition time	0,00gamma	499,1914k internal	0,3194k external	0,3194temperature offset calibration	1,0000default loss term (dB/km)	0,3820temperature slope calibration	1,0000multiplexer offset coefficient	1,0000multiplexer slope coefficient	1,0000fibre end	0,00T internal ref (°C)	15,63T ext. ref 1 (°C)	0,41T ext. ref 2 (°C)	0,40length (m)	temperature (°C)	Stokes	anti-Stokes-744,400	-15,830	-0,166	-0,077
-743,385	-200,000	-0,001	0,285
-742,371	800,000	-0,115	-0,319
-741,356	800,000	0,125	0,342
-740,342	168,868	-0,185	-0,192
-739,327	800,000	-0,112	0,235
-738,312	-44,663	-0,214	-0,077
-737,298	800,000	0,057	0,131
-736,283	9,831	-0,229	-0,126
-735,269	385,265	0,213	0,320
-734,254	82,951	-0,309	-0,245
-733,239	43,418	-0,249	0,165
-732,225	-9,147	-0,185	-0,090
-731,210	-90,764	0,149	0,031
-730,196	466,491	-0,017	-0,028
-729,181	-200,000	-0,018	-0,137
-728,167	24,704	0,133	-0,080
-727,152	800,000	-0,029	-0,093
-726,137	-200,000	-0,014	-0,068
-725,123	-200,000	0,007	-0,067
-724,108	211,132	-0,044	-0,050
-723,094	-59,086	-0,096	-0,030
-722,079	800,000	-0,042	-0,108
-721,064	322,882	0,080	-0,111
-720,050	28,535	0,016	0,010
-719,035	-200,000	0,003	0,242
-718,021	33,344	-0,119	-0,075
-717,006	800,000	0,052	0,115
-715,991	800,000	0,036	-0,112
-714,977	-200,000	0,065	-0,227
-713,962	-200,000	-0,021	-0,120
-712,948	187,093	-0,067	-0,073
-711,933	-200,000	-0,041	0,205
-710,918	-166,388	-0,044	0,001
-709,904	800,000	-0,042	0,103
-708,889	-35,692	-0,046	-0,018
-707,875	-200,000	0,008	-0,092
-706,860	800,000	-0,011	-0,035
-705,845	93,327	-0,126	0,103
-704,831	-200,000	-0,005	0,040
-703,816	65,905	-0,003	-0,002
-702,802	-200,000	0,009	-0,065
-701,787	-200,000	0,025	0,096
-700,772	569,523	0,091	-0,161
-699,758	800,000	-0,028	-0,076
-698,743	116,889	-0,077	-0,069
-697,729	228,617	0,087	-0,104
-696,714	81,986	0,037	0,029
-695,699	476,278	-0,086	-0,141
-694,685	357,571	-0,098	-0,142
-693,670	-128,336	-0,116	0,012
-692,656	-200,000	0,031	0,186
-691,641	-74,361	0,096	-0,025
-690,627	277,369	-0,085	0,110
-689,612	-88,744	-0,037	-0,008
-688,597	-118,474	-0,110	-0,014
-687,583	103,502	-0,132	-0,113
-686,568	159,454	0,077	-0,078
-685,554	-130,739	-0,096	-0,009
-684,539	800,000	-0,015	-0,046
-683,524	382,827	0,016	-0,024
-682,510	-200,000	0,001	-0,103
-681,495	-137,355	-0,204	0,017
-680,481	800,000	0,030	-0,065
-679,466	800,000	-0,024	-0,075
-678,451	-62,833	0,075	0,022
-677,437	-66,466	-0,006	0,002
-676,422	105,662	0,066	0,057
-675,408	800,000	-0,017	-0,040
-674,393	623,816	-0,044	-0,081
-673,378	85,606	-0,093	-0,074
-672,364	-200,000	0,035	0,133
-671,349	800,000	-0,048	0,097
-670,335	-147,889	0,018	0,001
-669,320	90,439	0,015	0,012
-668,305	47,094	0,056	-0,038
-667,291	-148,805	-0,100	-0,006
-666,276	800,000	-0,023	0,063
-665,262	-171,479	-0,191	-0,005
-664,247	-200,000	0,011	-0,084
-663,232	102,494	0,106	0,090
-662,218	800,000	-0,032	-0,067
-661,203	-200,000	-0,011	-0,038
-660,189	-149,094	0,109	-0,006
-659,174	248,246	0,028	0,034
-658,159	574,385	0,058	-0,103
-657,145	800,000	0,027	-0,059
-656,130	800,000	0,005	-0,014
-655,116	-200,000	0,020	-0,081
-654,101	-55,041	0,078	0,025
-653,086	-200,000	-0,005	0,042
-652,072	108,454	0,034	0,029
-651,057	191,801	-0,047	0,052
-650,043	78,405	-0,075	0,058
-649,028	-63,937	-0,062	-0,018
-648,014	-79,566	-0,143	0,035
-646,999	-200,000	-0,004	-0,082
-645,984	-125,394	-0,117	0,013
-644,970	-200,000	-0,009	-0,083
-643,955	-30,746	-0,106	-0,043
-642,941	149,532	0,017	0,017
-641,926	192,069	0,025	0,027
-640,911	-200,000	-0,000	-0,074
-639,897	-119,518	0,031	-0,004
-638,882	81,985	-0,088	-0,070
-637,868	113,420	-0,080	-0,071
-636,853	-155,592	-0,107	0,005
-635,838	-99,898	-0,159	-0,029
-634,824	-200,000	-0,177	0,000
-633,809	34,020	0,090	0,057
-632,795	-68,317	0,145	0,041
-631,780	-86,488	-0,117	0,026
-630,765	635,432	0,015	0,027
-629,751	61,342	0,113	-0,081
-628,736	97,762	-0,136	-0,113
-627,722	-200,000	-0,010	-0,109
-626,707	-200,000	0,004	0,077
-625,692	-14,990	-0,133	-0,061
-624,678	362,018	-0,063	-0,092
-623,663	273,980	-0,076	0,098
-622,649	-39,370	0,080	0,030
-621,634	-53,047	-0,128	-0,042
-620,619	544,028	0,104	-0,181
-619,605	65,296	-0,038	-0,028
-618,590	439,518	-0,018	-0,028
-617,576	-136,425	-0,188	-0,016
-616,561	-200,000	0,001	0,069
-615,546	-109,283	0,039	-0,006
-614,532	192,200	-0,028	-0,031
-613,517	-5,518	-0,025	0,013
-612,503	116,116	0,027	-0,024
-611,488	34,693	-0,007	-0,004
-610,474	77,999	0,029	0,023
-609,459	-76,860	0,013	-0,003
-608,444	-200,000	-0,044	-0,141
-607,430	21,210	0,177	-0,104
-606,415	-47,383	-0,108	-0,038
-605,401	-200,000	-0,061	0,222
-604,386	-105,603	-0,088	0,014
-603,371	-50,056	0,023	0,008
-602,357	-200,000	-0,019	0,095
-601,342	-120,233	-0,108	0,013
-600,328	-200,000	0,014	-0,087
-599,313	96,682	-0,095	-0,079
-598,298	-16,989	0,101	-0,046
-597,284	78,542	0,097	0,075
-596,269	-42,487	0,078	0,029
-595,255	-200,000	-0,000	0,086
-594,240	-200,000	0,007	-0,052
-593,225	58,118	-0,087	-0,061
-592,211	695,957	0,014	0,027
-591,196	330,063	0,058	-0,081
-590,182	401,597	0,049	0,075
-589,167	783,925	-0,085	0,169
-588,152	103,754	-0,027	0,023
-587,138	-61,947	-0,087	0,026
-586,123	13,170	-0,023	0,013
-585,109	78,038	0,139	-0,107
-584,094	-200,000	0,012	-0,135
-583,079	800,000	-0,009	-0,020
-582,065	800,000	0,006	-0,017
-581,050	245,323	0,114	-0,139
-580,036	7,149	-0,147	-0,079
-579,021	624,484	-0,031	-0,056
-578,006	800,000	-0,075	-0,152
-576,992	-200,000	0,013	0,097
-575,977	428,133	-0,034	-0,053
-574,963	-20,275	-0,032	-0,014
-573,948	63,408	-0,136	0,099
-572,934	-115,061	0,081	0,011
-571,919	-200,000	-0,012	0,122
-570,904	48,211	0,095	-0,064
-569,890	-2,847	0,021	0,011
-568,875	286,910	0,046	-0,060
-567,861	-200,000	-0,007	-0,072
-566,846	-200,000	0,038	0,134
-565,831	-60,651	0,026	0,008
-564,817	-200,000	0,012	-0,105
-563,802	800,000	-0,034	0,094
-562,788	-69,996	-0,122	-0,033
-561,773	-105,609	0,014	0,002
-560,758	25,988	0,085	0,051
-559,744	92,167	0,064	-0,052
-558,729	184,049	0,079	-0,085
-557,715	-59,225	-0,172	0,053
-556,700	-66,287	-0,113	-0,032
-555,685	-0,848	-0,042	-0,021
-554,671	-30,885	-0,019	0,008
-553,656	-200,000	0,000	0,048
-552,642	331,715	-0,040	-0,056
-551,627	-200,000	-0,017	-0,059
-550,612	-126,878	0,034	-0,004
-549,598	499,389	-0,090	-0,150
-548,583	214,470	-0,050	-0,058
-547,569	-102,416	-0,093	0,016
-546,554	-74,590	0,127	-0,033
-545,539	48,451	0,045	0,031
-544,525	156,090	0,052	-0,052
-543,510	-200,000	-0,003	0,043
-542,496	280,890	-0,062	-0,080
-541,481	-200,000	0,011	-0,039
-540,466	-200,000	-0,006	0,190
-539,452	178,571	0,078	0,083
-538,437	-200,000	-0,022	0,127
-537,423	60,248	-0,107	-0,077
-536,408	-73,934	-0,071	-0,018
-535,393	637,482	0,069	0,126
-534,379	-132,997	-0,130	-0,012
-533,364	489,963	-0,025	0,041
-532,350	-77,129	-0,101	0,025
-531,335	217,388	0,091	0,105
-530,321	28,480	-0,117	-0,071
-529,306	795,932	0,013	-0,026
-528,291	175,942	-0,073	-0,077
-527,277	354,524	-0,108	-0,156
-526,262	-75,875	-0,044	-0,011
-525,248	-15,979	0,117	0,054
-524,233	67,443	0,093	0,068
-523,218	-99,434	-0,079	0,014
-522,204	800,000	-0,027	0,074
-521,189	800,000	0,009	-0,020
-520,175	800,000	-0,076	-0,172
-519,160	-11,644	0,009	-0,004
-518,145	80,928	0,109	-0,085
-517,131	800,000	0,071	0,172
-516,116	-82,904	0,163	-0,038
-515,102	-112,174	0,170	-0,024
-514,087	-124,842	0,039	0,004
-513,072	115,761	-0,098	-0,086
-512,058	239,755	-0,046	0,056
-511,043	-18,266	0,062	0,028
-510,029	-200,000	0,011	0,046
-509,014	-150,293	-0,105	0,006
-507,999	-62,245	-0,022	-0,007
-506,985	9,418	-0,060	0,033
-505,970	226,219	0,090	-0,106
-504,956	175,115	-0,054	-0,057
-503,941	-47,304	0,121	-0,042
-502,926	-9,752	0,179	-0,086
-501,912	-117,551	0,051	0,007
-500,897	364,526	0,024	0,035
-499,883	680,380	0,015	-0,029
-498,868	216,573	-0,056	0,065
-497,853	598,373	0,011	-0,020
-496,839	-47,596	0,120	-0,042
-495,824	800,000	-0,019	0,058
-494,810	35,641	0,152	-0,096
-493,795	-16,760	-0,057	0,026
-492,781	322,130	-0,072	0,100
-491,766	168,274	0,034	-0,035
-490,751	548,677	-0,097	-0,169
-489,737	800,000	0,040	-0,098
-488,722	-200,000	-0,000	0,096
-487,708	-200,000	-0,002	0,121
-486,693	-128,222	0,100	-0,010
-485,678	-176,248	0,052	-0,001
-484,664	103,360	-0,039	0,033
-483,649	-28,239	0,018	0,008
-482,635	207,066	0,080	-0,090
-481,620	233,814	-0,090	0,108
-480,605	-13,045	0,095	0,044
-479,591	-200,000	0,015	0,149
-478,576	17,238	0,055	-0,031
-477,562	118,442	-0,046	0,041
-476,547	-15,985	-0,133	0,061
-475,532	-26,242	0,065	0,028
-474,518	-37,304	0,107	0,041
-473,503	436,122	0,076	0,120
-472,489	800,000	0,011	-0,027
-471,474	-200,000	-0,004	0,074
-470,459	-133,008	-0,015	-0,001
-469,445	-97,942	-0,063	-0,012
-468,430	-65,654	0,119	0,034
-467,416	-200,000	-0,034	0,109
-466,401	84,549	0,092	0,073
-465,386	57,435	-0,095	0,067
-464,372	-200,000	-0,008	-0,038
-463,357	-200,000	-0,015	-0,129
-462,343	209,787	-0,075	-0,085
-461,328	186,185	-0,063	-0,067
-460,313	223,089	-0,055	0,064
-459,299	800,000	0,031	-0,087
-458,284	669,855	0,033	0,062
-457,270	-132,471	0,097	-0,009
-456,255	404,672	0,064	0,098
-455,241	-9,700	0,132	-0,063
-454,226	21,759	-0,053	0,031
-453,211	64,004	0,029	0,021
-452,197	-148,244	-0,060	-0,004
-451,182	53,868	0,042	0,029
-450,168	-200,000	0,011	0,058
-449,153	-33,229	-0,113	0,045
-448,138	-144,450	-0,117	0,008
-447,124	254,940	-0,046	-0,057
-446,109	43,294	0,155	-0,102
-445,095	-200,000	-0,010	-0,131
-444,080	10,421	0,027	-0,015
-443,065	-200,000	0,006	0,105
-442,051	-200,000	-0,015	0,052
-441,036	-7,841	0,073	-0,036
-440,022	-56,624	-0,125	0,040
-439,007	11,612	-0,065	-0,036
-437,992	-200,000	-0,010	-0,056
-436,978	800,000	-0,056	0,170
-435,963	-48,481	0,079	0,027
-434,949	-138,365	0,025	-0,002
-433,934	138,578	-0,086	-0,082
-432,919	800,000	0,030	-0,093
-431,905	156,415	0,080	-0,080
-430,890	-200,000	-0,009	0,123
-429,876	540,285	0,020	0,035
-428,861	270,250	-0,026	-0,034
-427,846	-152,229	-0,111	-0,006
-426,832	357,071	0,107	-0,154
-425,817	28,108	0,130	0,079
-424,803	-16,888	0,038	0,017
-423,788	-200,000	-0,006	0,062
-422,773	800,000	0,027	0,061
-421,759	-15,890	0,018	0,008
-420,744	-139,151	-0,080	0,006
-419,730	18,238	-0,127	0,073
-418,715	-29,350	-0,130	-0,053
-417,701	800,000	-0,029	0,059
-416,686	-200,000	0,043	0,157
-415,671	210,785	0,022	0,025
-414,657	202,257	-0,158	0,175
-413,642	-200,000	-0,003	0,207
-412,628	-200,000	-0,001	-0,060
-411,613	-126,165	-0,198	-0,021
-410,598	-200,000	-0,018	-0,129
-409,584	615,793	0,076	0,138
-408,569	71,577	-0,084	0,063
-407,555	47,678	0,168	0,113
-406,540	-89,715	-0,168	0,035
-405,525	-79,104	0,071	0,017
-404,511	-200,000	-0,004	-0,146
-403,496	-200,000	-0,008	-0,051
-402,482	-121,243	0,055	0,006
-401,467	-108,596	0,114	0,017
-400,452	360,113	0,010	0,014
-399,438	112,016	-0,114	0,099
-398,423	152,909	0,166	-0,163
-397,409	-200,000	-0,010	-0,117
-396,394	-200,000	-0,010	-0,124
-395,379	38,306	-0,048	0,031
-394,365	-200,000	0,005	0,061
-393,350	44,995	0,038	0,025
-392,336	-4,785	0,179	0,089
-391,321	800,000	0,050	-0,145
-390,306	475,115	-0,061	-0,099
-389,292	-200,000	0,027	0,144
-388,277	83,940	-0,074	-0,058
-387,263	-64,920	-0,044	0,013
-386,248	-41,456	0,048	0,018
-385,233	-200,000	0,005	0,057
-384,219	-200,000	0,025	0,095
-383,204	-200,000	0,006	-0,106
-382,190	-200,000	-0,045	-0,148
-381,175	-200,000	-0,005	-0,126
-380,160	-200,000	0,007	-0,042
-379,146	-28,243	0,150	0,062
-378,131	-200,000	-0,007	0,199
-377,117	545,106	-0,012	-0,021
-376,102	21,290	-0,069	0,040
-375,088	800,000	-0,072	-0,154
-374,073	799,455	-0,055	-0,110
-373,058	127,039	0,054	-0,049
-372,044	144,541	0,091	0,087
-371,029	-17,894	0,011	0,005
-370,015	1,104	-0,043	0,022
-369,000	308,805	0,046	-0,062
-367,985	-50,776	-0,146	-0,049
-366,971	762,479	-0,049	0,096
-365,956	290,567	0,095	0,125
-364,942	-200,000	-0,024	0,110
-363,927	0,291	0,121	0,062
-362,912	77,630	-0,096	0,073
-361,898	-13,445	0,105	0,049
-360,883	17,231	-0,059	-0,033
-359,869	-126,976	0,050	-0,005
-358,854	-69,457	0,028	-0,008
-357,839	-91,490	-0,032	-0,006
-356,825	497,680	0,061	0,101
-355,810	-200,000	0,012	0,062
-354,796	66,300	-0,070	0,051
-353,781	-64,694	0,045	0,013
-352,766	246,044	0,041	0,050
-351,752	-200,000	-0,009	-0,123
-350,737	-53,708	0,125	0,041
-349,723	800,000	0,029	0,075
-348,708	-70,572	0,099	0,027
-347,693	-200,000	-0,013	-0,044
-346,679	-200,000	0,001	-0,126
-345,664	283,165	0,007	-0,009
-344,650	175,494	-0,077	-0,081
-343,635	-200,000	0,013	-0,080
-342,620	-127,741	0,131	-0,013
-341,606	82,381	-0,099	0,077
-340,591	-97,261	-0,096	0,018
-339,577	-200,000	-0,004	0,044
-338,562	-200,000	0,020	-0,076
-337,548	201,724	0,045	-0,050
-336,533	-111,853	0,150	-0,022
-335,518	483,967	0,072	0,118
-334,504	209,623	0,128	0,144
-333,489	-164,350	-0,030	-0,001
-332,475	106,516	-0,056	-0,047
-331,460	151,764	-0,090	-0,088
-330,445	-126,246	-0,056	-0,006
-329,431	147,999	0,063	0,061
-328,416	-200,000	0,040	0,212
-327,402	800,000	-0,033	0,094
-326,387	800,000	0,015	0,030
-325,372	-200,000	-0,005	0,042
-324,358	231,792	0,023	0,027
-323,343	-19,721	-0,070	0,031
-322,329	31,978	0,124	0,076
-321,314	-200,000	0,001	0,130
-320,299	74,222	0,082	0,061
-319,285	-44,514	0,019	0,007
-318,270	-126,027	-0,033	0,003
-317,256	47,590	-0,116	-0,078
-316,241	104,338	-0,116	-0,098
-315,226	-200,000	-0,012	-0,067
-314,212	-5,506	-0,134	0,066
-313,197	-79,781	-0,122	0,029
-312,183	-52,481	-0,032	0,011
-311,168	541,874	-0,075	-0,128
-310,153	-200,000	-0,015	-0,128
-309,139	-200,000	-0,018	-0,063
-308,124	85,067	-0,050	0,039
-307,110	-129,771	0,077	0,007
-306,095	228,589	0,033	0,039
-305,080	800,000	0,065	-0,139
-304,066	-128,568	-0,021	0,002
-303,051	673,068	0,079	-0,148
-302,037	220,242	0,053	-0,061
-301,022	626,032	0,055	0,101
-300,008	-87,877	0,115	-0,024
-298,993	-73,748	-0,078	0,020
-297,978	-128,837	-0,140	0,014
-296,964	-200,000	-0,019	0,167
-295,949	200,838	-0,038	0,042
-294,935	21,226	0,126	0,073
-293,920	-136,972	0,121	-0,010
-292,905	-13,410	0,108	0,050
-291,891	-47,526	-0,024	0,008
-290,876	-169,666	-0,085	0,002
-289,862	-200,000	0,005	-0,038
-288,847	718,483	-0,074	-0,142
-287,832	-200,000	0,027	0,092
-286,818	51,403	0,012	-0,008
-285,803	800,000	0,022	0,064
-284,789	-200,000	0,002	0,013
-283,774	-200,000	-0,002	0,088
-282,759	800,000	0,016	-0,032
-281,745	166,090	0,078	0,080
-280,730	-200,000	-0,022	-0,073
-279,716	-171,862	0,100	0,002
-278,701	800,000	0,071	0,176
-277,686	800,000	0,040	0,105
-276,672	6,563	0,100	0,053
-275,657	-200,000	-0,032	0,131
-274,643	-200,000	-0,009	-0,065
-273,628	285,785	-0,120	-0,155
-272,613	-200,000	0,002	-0,014
-271,599	-11,243	0,049	-0,023
-270,584	-200,000	0,014	-0,068
-269,570	-16,859	0,117	-0,053
-268,555	12,095	0,088	-0,048
-267,540	-57,408	0,052	0,016
-266,526	547,688	-0,061	-0,105
-265,511	-165,001	-0,016	-0,001
-264,497	-35,679	0,036	-0,014
-263,482	-200,000	0,016	0,060
-262,467	166,869	-0,048	0,049
-261,453	213,549	-0,092	-0,104
-260,438	-77,734	-0,195	0,048
-259,424	-112,676	-0,083	0,012
-258,409	800,000	0,058	-0,131
-257,395	465,376	0,021	-0,034
-256,380	454,847	0,074	0,117
-255,365	-53,243	-0,040	-0,013
-254,351	27,352	0,063	0,037
-253,336	-200,000	-0,020	-0,088
-252,322	800,000	-0,024	-0,049
-251,307	93,515	-0,088	0,071
-250,292	796,810	0,036	-0,072
-249,278	-149,643	0,131	0,007
-248,263	195,791	0,071	0,077
-247,249	535,797	-0,034	-0,059
-246,234	-153,886	0,099	-0,005
-245,219	-47,214	0,087	-0,030
-244,205	-200,000	-0,018	-0,070
-243,190	416,369	-0,058	-0,088
-242,176	-38,256	-0,002	0,001
-241,161	-97,358	0,025	-0,005
-240,146	800,000	0,025	0,055
-239,132	-69,825	-0,070	-0,019
-238,117	129,480	0,030	-0,027
-237,103	800,000	0,036	0,097
-236,088	800,000	0,016	0,040
-235,073	420,836	-0,027	0,041
-234,059	520,857	0,101	0,170
-233,044	-200,000	-0,001	0,053
-232,030	-200,000	-0,003	-0,062
-231,015	-154,380	-0,192	-0,009
-230,000	532,578	0,092	-0,156
-228,986	205,638	0,029	0,033
-227,971	264,355	0,127	0,158
-226,957	46,419	0,047	0,031
-225,942	800,000	-0,058	0,175
-224,927	55,936	0,098	-0,068
-223,913	187,841	-0,008	0,008
-222,898	329,282	-0,039	-0,054
-221,884	-53,506	0,067	0,022
-220,869	-60,686	-0,013	0,004
-219,855	37,878	0,041	0,026
-218,840	800,000	-0,028	-0,065
-217,825	-200,000	0,001	-0,056
-216,811	-200,000	0,005	0,041
-215,796	-107,256	-0,172	0,027
-214,782	-200,000	-0,011	-0,052
-213,767	-200,000	0,017	0,178
-212,752	-200,000	0,020	0,108
-211,738	13,438	0,121	-0,067
-210,723	-200,000	-0,008	-0,062
-209,709	-200,000	0,015	-0,097
-208,694	49,217	0,007	-0,004
-207,679	342,461	-0,089	0,124
-206,665	800,000	-0,045	-0,130
-205,650	-142,032	0,202	0,014
-204,636	-200,000	-0,007	-0,041
-203,621	637,490	0,055	-0,100
-202,606	-200,000	-0,035	0,114
-201,592	800,000	-0,030	-0,091
-200,577	-23,403	-0,038	-0,016
-199,563	2,384	-0,085	0,044
-198,548	800,000	0,045	0,115
-197,533	-200,000	0,032	0,175
-196,519	162,539	-0,040	-0,040
-195,504	-76,952	-0,049	0,012
-194,490	-21,155	0,011	0,005
-193,475	-200,000	0,000	-0,060
-192,460	-200,000	0,013	-0,114
-191,446	-166,443	-0,085	-0,002
-190,431	78,655	-0,035	0,027
-189,417	-200,000	0,017	-0,181
-188,402	-200,000	-0,018	0,123
-187,387	-130,580	-0,158	-0,015
-186,373	-200,000	0,034	-0,185
-185,358	-76,257	0,161	-0,040
-184,344	-75,399	-0,071	0,018
-183,329	778,655	0,036	0,070
-182,315	35,072	0,033	0,021
-181,300	800,000	0,036	-0,088
-180,285	-200,000	0,006	-0,123
-179,271	382,025	-0,018	0,026
-178,256	-200,000	-0,010	-0,033
-177,242	-200,000	0,013	0,072
-176,227	418,801	-0,016	0,025
-175,212	214,198	0,058	0,066
-174,198	-78,764	0,165	0,040
-173,183	-200,000	-0,006	-0,095
-172,169	-200,000	-0,009	0,064
-171,154	194,486	-0,083	-0,089
-170,139	50,670	-0,034	0,023
-169,125	-134,745	0,127	0,011
-168,110	-200,000	0,003	-0,038
-167,096	89,483	-0,057	0,045
-166,081	-200,000	0,013	0,051
-165,066	-82,176	-0,134	0,031
-164,052	800,000	-0,041	-0,119
-163,037	58,995	0,033	0,023
-162,023	-104,883	0,062	-0,010
-161,008	181,791	0,128	0,134
-159,993	-150,984	0,072	0,004
-158,979	204,241	-0,040	-0,044
-157,964	493,517	-0,089	-0,145
-156,950	800,000	0,110	-0,270
-155,935	-61,651	-0,107	-0,032
-154,920	19,859	0,080	-0,046
-153,906	484,399	0,034	-0,056
-152,891	-200,000	-0,062	0,218
-151,877	519,058	-0,004	0,007
-150,862	220,832	-0,041	0,047
-149,847	387,743	-0,062	0,091
-148,833	-200,000	-0,037	0,134
-147,818	-14,263	0,148	-0,068
-146,804	508,318	-0,045	-0,075
-145,789	800,000	-0,040	0,106
-144,775	15,881	0,071	-0,040
-143,760	-115,786	-0,086	-0,011
-142,745	-178,888	-0,110	0,002
-141,731	-51,410	0,119	0,039
-140,716	-109,476	-0,009	-0,001
-139,702	562,204	0,066	0,113
-138,687	800,000	-0,033	0,088
-137,672	-200,000	-0,010	-0,106
-136,658	800,000	-0,037	-0,104
-135,643	-90,436	-0,053	0,011
-134,629	78,430	-0,089	0,068
-133,614	-200,000	0,020	0,104
-132,599	800,000	0,051	0,131
-131,585	106,303	-0,055	0,046
-130,570	800,000	-0,024	-0,069
-129,556	-200,000	-0,004	-0,024
-128,541	-200,000	0,007	-0,119
-127,526	226,021	-0,035	-0,041
-126,512	-56,412	0,125	-0,039
-125,497	476,553	0,082	0,133
-124,483	-176,205	0,124	-0,002
-123,468	154,452	0,089	0,087
-122,453	355,400	-0,091	-0,129
-121,439	-103,584	0,047	0,008
-120,424	346,067	0,083	-0,117
-119,410	745,753	0,019	0,037
-118,395	160,020	0,040	-0,039
-117,380	-200,000	0,007	0,067
-116,366	-200,000	-0,039	-0,131
-115,351	83,835	-0,083	-0,064
-114,337	286,730	-0,053	-0,068
-113,322	-200,000	-0,035	-0,119
-112,307	4,597	0,032	-0,017
-111,293	-122,636	0,108	-0,012
-110,278	-200,000	-0,017	0,057
-109,264	193,366	-0,092	-0,099
-108,249	0,629	0,072	0,037
-107,234	-200,000	0,000	0,105
-106,220	78,435	0,014	0,011
-105,205	67,574	-0,055	0,040
-104,191	36,194	0,088	0,055
-103,176	-200,000	0,028	0,101
-102,162	-200,000	-0,012	0,162
-101,147	-200,000	0,011	0,123
-100,132	59,526	0,052	-0,036
-99,118	90,825	-0,025	0,020
-98,103	123,254	0,002	-0,002
-97,089	172,602	0,052	0,053
-96,074	800,000	0,045	0,118
-95,059	-200,000	-0,019	0,206
-94,045	322,961	0,063	-0,086
-93,030	-21,931	-0,140	-0,060
-92,016	226,479	-0,084	-0,097
-91,001	-200,000	-0,011	-0,122
-89,986	-200,000	0,054	0,190
-88,972	-200,000	0,012	0,039
-87,957	-200,000	0,004	0,053
-86,943	-151,793	-0,192	0,010
-85,928	96,837	0,019	-0,016
-84,913	-200,000	-0,007	-0,044
-83,899	0,402	-0,036	-0,018
-82,884	39,756	0,056	-0,036
-81,870	50,322	0,068	0,046
-80,855	545,555	0,047	0,079
-79,840	800,000	-0,035	0,072
-78,826	28,067	0,042	0,025
-77,811	-200,000	-0,017	-0,058
-76,797	-200,000	0,015	0,047
-75,782	-33,793	0,021	0,008
-74,767	153,186	0,095	0,093
-73,753	-200,000	0,030	-0,097
-72,738	-101,783	-0,127	-0,022
-71,724	-170,343	0,031	0,001
-70,709	519,471	0,024	-0,041
-69,694	-200,000	0,023	0,075
-68,680	315,390	0,051	0,069
-67,665	-200,000	0,022	0,111
-66,651	64,815	0,095	0,068
-65,636	224,115	-0,021	0,024
-64,622	-200,000	0,007	-0,135
-63,607	390,428	-0,097	-0,143
-62,592	-121,175	-0,032	-0,004
-61,578	-200,000	-0,035	-0,149
-60,563	42,455	0,160	-0,103
-59,549	16,489	0,168	0,094
-58,534	-48,211	-1,532	-0,522
-57,519	367,565	-1,484	-2,133
-56,505	-200,000	-0,436	-4,422
-55,490	104,799	0,940	0,786
-54,476	800,000	4,743	11,257
-53,461	-200,000	17,795	285,130
-52,446	800,000	723,491	2231,151
-51,432	562,207	1638,372	2823,028
-50,417	80,385	1661,154	1267,643
-49,403	23,481	1535,003	893,392
-48,388	17,477	1458,416	819,781
-47,373	18,113	1448,231	817,080
-46,359	17,658	1438,781	809,542
-45,344	15,754	1433,868	797,670
-44,330	15,700	1431,934	796,309
-43,315	15,675	1430,329	795,263
-42,300	15,679	1428,563	794,272
-41,286	15,734	1427,538	793,930
-40,271	15,755	1426,178	793,243
-39,257	15,704	1425,020	792,325
-38,242	15,765	1423,692	791,841
-37,227	15,745	1422,510	791,061
-36,213	15,732	1421,163	790,219
-35,198	15,743	1419,930	789,553
-34,184	15,754	1418,973	789,043
-33,169	15,720	1417,767	788,177
-32,154	15,776	1416,798	787,875
-31,140	15,764	1415,280	786,942
-30,125	15,792	1414,068	786,366
-29,111	15,751	1413,124	785,618
-28,096	15,708	1412,019	784,769
-27,082	15,653	1411,008	783,919
-26,067	15,669	1409,673	783,221
-25,052	15,704	1408,772	782,852
-24,038	15,699	1407,766	782,243
-23,023	15,646	1406,821	781,438
-22,009	15,642	1405,700	780,764
-20,994	15,591	1404,823	780,006
-19,979	15,626	1403,855	779,604
-18,965	15,592	1402,855	778,860
-17,950	15,600	1401,932	778,354
-16,936	15,583	1401,017	777,734
-15,921	15,557	1399,707	776,855
-14,906	15,514	1398,934	776,196
-13,892	15,558	1398,135	775,925
-12,877	15,583	1396,988	775,374
-11,863	15,523	1396,223	774,640
-10,848	15,539	1395,353	774,204
-9,833	15,563	1393,952	773,506
-8,819	15,491	1393,393	772,829
-7,804	15,437	1392,495	772,051
-6,790	15,440	1391,490	771,479
-5,775	15,448	1390,460	770,913
-4,760	15,450	1389,714	770,476
-3,746	15,472	1388,780	770,030
-2,731	15,462	1387,924	769,481
-1,717	15,436	1387,044	768,840
-0,702	15,452	1385,129	767,825
0,313	19,180	1305,295	740,827
1,327	35,361	706,757	438,668
2,342	54,260	124,883	85,093
3,356	3,766	16,529	8,528
4,371	15,438	3,106	1,724
5,386	-14,283	0,626	0,285
6,400	-72,864	-0,056	-0,014
7,415	314,910	-0,273	-0,366
8,429	176,517	-0,214	-0,220
9,444	42,555	-0,332	-0,214
10,459	-73,376	-0,301	-0,077
11,473	-4,630	-0,444	-0,216
12,488	196,696	-0,208	-0,225
13,502	97,961	-0,328	-0,267
14,517	80,693	-0,281	-0,214
15,531	118,582	-0,310	-0,271
16,546	-29,790	-0,393	-0,158
17,561	112,482	-0,326	-0,279
18,575	-53,366	-0,202	-0,065
19,590	91,459	-0,243	-0,193
20,604	20,644	-0,264	-0,151
21,619	101,284	-0,378	-0,311
22,634	-15,631	-0,531	-0,239
23,648	275,337	-0,403	-0,507
24,663	55,805	-0,340	-0,233
25,677	15,582	-0,410	-0,227
26,692	-81,912	-0,307	-0,070
27,707	-20,076	-0,304	-0,132
28,721	39,998	-0,285	-0,181
29,736	57,580	-0,349	-0,241
30,750	27,121	-0,412	-0,244
31,765	19,733	-0,471	-0,268
32,780	17,545	-0,512	-0,287
33,794	153,295	-0,353	-0,342
34,809	184,417	-0,350	-0,367
35,823	29,895	-0,387	-0,233
36,838	195,519	-0,350	-0,377
37,853	117,012	-0,405	-0,352
38,867	279,096	-0,309	-0,391
39,882	361,393	-0,230	-0,327
40,896	57,390	-0,384	-0,265
41,911	587,231	-0,153	-0,267
42,926	68,558	-0,343	-0,248
43,940	-2,192	-0,406	-0,201
44,955	23,906	-0,272	-0,158
45,969	-29,265	-0,388	-0,156
46,984	-73,455	-0,319	-0,082
47,999	56,934	-0,345	-0,237
49,013	-10,571	-0,332	-0,155
50,028	-32,919	-0,391	-0,153
51,042	11,709	-0,404	-0,218
52,057	180,928	-0,318	-0,330
53,071	-21,464	-0,374	-0,161
54,086	99,003	-0,330	-0,269
55,101	43,758	-0,254	-0,164
56,115	-27,886	-0,329	-0,134
57,130	461,987	-0,215	-0,339
58,144	55,166	-0,288	-0,196
59,159	207,711	-0,329	-0,363
60,174	97,192	-0,458	-0,370
61,188	15,299	-0,360	-0,199
62,203	-48,965	-0,461	-0,155
63,217	-1,516	-0,285	-0,141
64,232	228,311	-0,265	-0,304
65,247	-41,756	-0,483	-0,174
66,261	29,025	-0,340	-0,203
67,276	84,250	-0,351	-0,271
68,290	89,788	-0,345	-0,271
69,305	-58,150	-0,311	-0,095
70,320	546,560	-0,194	-0,328
71,334	85,026	-0,304	-0,235
72,349	16,414	-0,337	-0,187
73,363	91,484	-0,300	-0,237
74,378	-51,126	-0,458	-0,151
75,393	148,202	-0,296	-0,282
76,407	254,458	-0,250	-0,302
77,422	104,103	-0,197	-0,163
78,436	-60,613	-0,287	-0,085
79,451	14,506	-0,397	-0,218
80,466	132,518	-0,213	-0,193
81,480	196,642	-0,265	-0,285
82,495	357,854	-0,190	-0,268
83,509	-134,770	-0,234	0,020
84,524	-90,490	-0,302	-0,061
85,539	-74,502	-0,330	-0,083
86,553	94,347	-0,367	-0,293
87,568	128,914	-0,306	-0,275
88,582	-14,996	-0,230	-0,103
89,597	133,765	-0,346	-0,315
90,611	179,175	-0,283	-0,292
91,626	39,444	-0,284	-0,178
92,641	-24,669	-0,261	-0,109
93,655	60,773	-0,177	-0,123
94,670	266,950	-0,254	-0,313
95,684	151,504	-0,289	-0,277
96,699	2,343	-0,381	-0,193
97,714	66,823	-0,399	-0,285
98,728	130,873	-0,238	-0,215
99,743	122,198	-0,191	-0,168
100,757	150,737	-0,234	-0,223
101,772	203,509	-0,170	-0,185
102,787	142,596	-0,308	-0,287
103,801	66,369	-0,255	-0,182
104,816	26,171	-0,324	-0,190
105,830	-66,872	-0,190	-0,052
106,845	32,317	-0,220	-0,133
107,860	67,638	-0,320	-0,229
108,874	222,063	-0,159	-0,180
109,889	-43,093	-0,296	-0,105
110,903	150,568	-0,250	-0,239
111,918	-68,659	-0,326	-0,088
112,933	-192,287	-0,202	0,001
113,947	-77,769	-0,335	-0,081
114,962	-80,799	-0,244	-0,056
115,976	10,338	-0,166	-0,089
116,991	-35,438	-0,441	-0,167
118,006	36,032	-0,308	-0,190
119,020	36,398	-0,216	-0,133
120,035	-23,771	-0,292	-0,122
121,049	-49,635	-0,314	-0,104
122,064	108,072	-0,214	-0,179
123,079	129,570	-0,268	-0,241
124,093	194,015	-0,154	-0,164
125,108	277,697	-0,255	-0,319
126,122	458,893	-0,215	-0,336
127,137	23,713	-0,277	-0,160
128,151	37,368	-0,144	-0,089
129,166	-79,845	-0,274	-0,064
130,181	-12,760	-0,281	-0,128
131,195	-44,644	-0,274	-0,096
132,210	174,896	-0,384	-0,390
133,224	283,332	-0,158	-0,199
134,239	39,576	-0,301	-0,189
135,254	284,836	-0,150	-0,190
136,268	32,957	-0,265	-0,161
137,283	-75,743	-0,279	-0,069
138,297	44,501	-0,225	-0,145
139,312	-48,176	-0,350	-0,118
140,327	28,354	-0,355	-0,210
141,341	269,443	-0,163	-0,201
142,356	119,940	-0,136	-0,118
143,370	65,739	-0,252	-0,179
144,385	-49,286	-0,320	-0,106
145,400	110,498	-0,289	-0,243
146,414	175,257	-0,255	-0,259
147,429	79,698	-0,407	-0,306
148,443	187,421	-0,243	-0,254
149,458	23,840	-0,178	-0,103
150,473	81,263	-0,240	-0,181
151,487	800,000	-0,152	-0,295
152,502	116,832	-0,223	-0,192
153,516	75,109	-0,291	-0,214
154,531	-134,909	-0,335	-0,028
155,546	-148,515	-0,347	-0,020
156,560	59,417	-0,202	-0,139
157,575	110,086	-0,249	-0,209
158,589	28,172	-0,319	-0,188
159,604	120,648	-0,181	-0,157
160,619	48,458	-0,341	-0,223
161,633	15,021	-0,175	-0,096
162,648	136,815	-0,260	-0,237
163,662	179,259	-0,204	-0,209
164,677	169,072	-0,142	-0,141
165,692	-17,361	-0,296	-0,130
166,706	-45,475	-0,435	-0,150
167,721	39,996	-0,352	-0,220
168,735	531,838	-0,213	-0,354
169,750	-22,605	-0,271	-0,114
170,764	33,286	-0,259	-0,157
171,779	264,926	-0,169	-0,206
172,794	0,053	-0,343	-0,170
173,808	-57,849	-0,319	-0,097
174,823	95,099	-0,176	-0,140
175,837	9,691	-0,122	-0,064
176,852	-56,347	-0,145	-0,045
177,867	-136,340	-0,312	0,025
178,881	-45,445	-0,277	-0,095
179,896	-130,000	-0,298	-0,028
180,910	55,516	-0,340	-0,229
181,925	80,401	-0,285	-0,214
182,940	20,327	-0,336	-0,189
183,954	-44,050	-0,286	-0,100
184,969	83,594	-0,255	-0,194
185,983	33,842	-0,185	-0,112
186,998	424,410	-0,205	-0,309
188,013	126,975	-0,182	-0,161
189,027	30,434	-0,297	-0,177
190,042	300,198	-0,193	-0,249
191,056	163,895	-0,163	-0,160
192,071	30,041	-0,226	-0,134
193,086	159,325	-0,175	-0,170
194,100	549,177	-0,087	-0,147
195,115	-5,787	-0,249	-0,118
196,129	4,739	-0,295	-0,151
197,144	178,076	-0,203	-0,207
198,159	167,795	-0,143	-0,141
199,173	55,429	-0,261	-0,176
200,188	146,656	-0,178	-0,167
201,202	-22,975	-0,160	-0,067
202,217	369,071	-0,118	-0,167
203,232	147,238	-0,147	-0,138
204,246	474,172	-0,142	-0,223
205,261	26,268	-0,268	-0,156
206,275	-0,887	-0,200	-0,098
207,290	161,155	-0,141	-0,137
208,304	-92,459	-0,125	-0,024
209,319	-116,157	-0,235	-0,030
210,334	455,352	-0,143	-0,222
211,348	66,030	-0,238	-0,168
212,363	145,987	-0,176	-0,165
213,377	-7,685	-0,192	-0,090
214,392	539,455	-0,111	-0,185
215,407	11,763	-0,180	-0,096
216,421	82,551	-0,134	-0,102
217,436	22,569	-0,122	-0,069
218,450	107,195	-0,258	-0,213
219,465	350,034	-0,204	-0,281
220,480	242,581	-0,165	-0,193
221,494	224,718	-0,217	-0,245
222,509	14,384	-0,210	-0,113
223,523	43,003	-0,261	-0,165
224,538	246,260	-0,145	-0,170
225,553	158,242	-0,197	-0,190
226,567	-3,436	-0,189	-0,091
227,582	97,469	-0,196	-0,156
228,596	27,682	-0,218	-0,127
229,611	-200,000	-0,021	-0,156
230,626	264,252	-0,165	-0,200
231,640	-102,077	-0,136	-0,023
232,655	26,776	-0,264	-0,153
233,669	199,294	-0,094	-0,100
234,684	-68,261	-0,317	-0,085
235,699	67,559	-0,133	-0,094
236,713	122,613	-0,210	-0,182
237,728	19,347	-0,113	-0,063
238,742	-32,899	-0,322	-0,124
239,757	-48,924	-0,281	-0,093
240,772	14,120	-0,320	-0,173
241,786	110,297	-0,099	-0,083
242,801	122,601	-0,206	-0,179
243,815	-192,387	-0,209	0,001
244,830	582,278	-0,106	-0,181
245,844	167,253	-0,193	-0,190
246,859	-6,529	-0,246	-0,116
247,874	33,985	-0,353	-0,213
248,888	263,596	-0,154	-0,186
249,903	160,636	-0,163	-0,158
250,917	117,760	-0,065	-0,056
251,932	689,938	-0,033	-0,059
252,947	37,465	-0,198	-0,122
253,961	281,480	-0,126	-0,157
254,976	800,000	-0,102	-0,208
255,990	269,172	-0,161	-0,196
257,005	35,433	-0,098	-0,060
258,020	-18,954	-0,306	-0,132
259,034	27,650	-0,184	-0,107
260,049	169,390	-0,151	-0,149
261,063	-200,000	-0,058	-0,211
262,078	172,796	-0,147	-0,147
263,093	157,708	-0,163	-0,156
264,107	25,251	-0,204	-0,117
265,122	214,616	-0,160	-0,176
266,136	-17,575	-0,107	0,046
267,151	-200,000	0,011	-0,143
268,166	105,741	-0,193	-0,158
269,180	75,876	-0,162	-0,118
270,195	582,554	-0,169	-0,288
271,209	-5,886	-0,424	-0,200
272,224	-155,521	-0,150	-0,007
273,239	215,444	-0,212	-0,233
274,253	2,857	-0,154	-0,077
275,268	-77,005	-0,159	-0,038
276,282	30,889	-0,214	-0,127
277,297	241,302	-0,119	-0,138
278,312	-86,520	-0,192	-0,040
279,326	-133,312	-0,090	0,008
280,341	45,789	-0,270	-0,172
281,355	-104,051	-0,066	-0,011
282,370	-139,400	-0,165	-0,012
283,384	126,526	-0,128	-0,112
284,399	176,488	-0,167	-0,168
285,414	585,682	-0,114	-0,195
286,428	-10,669	-0,228	-0,104
287,443	-20,472	-0,203	0,086
288,457	-180,226	-0,055	0,001
289,472	183,373	-0,142	-0,145
290,487	-47,266	-0,230	-0,077
291,501	75,061	-0,118	-0,086
292,516	-132,995	-0,223	-0,019
293,530	800,000	-0,100	-0,203
294,545	5,716	-0,170	-0,087
295,560	-129,887	-0,253	0,024
296,574	151,251	-0,069	-0,065
297,589	-36,276	-0,121	-0,045
298,603	118,712	-0,181	-0,155
299,618	60,301	-0,179	-0,122
300,633	202,122	-0,140	-0,149
301,647	178,357	-0,089	-0,090
302,662	98,284	-0,066	-0,052
303,676	365,315	-0,072	-0,100
304,691	189,047	-0,142	-0,147
305,706	-200,000	-0,076	-0,240
306,720	-155,282	-0,198	-0,009
307,735	-72,620	-0,121	-0,031
308,749	80,767	-0,121	-0,090
309,764	-58,302	-0,070	-0,021
310,779	532,744	-0,032	-0,052
311,793	-4,123	-0,102	-0,049
312,808	564,239	-0,072	-0,120
313,822	192,604	-0,194	-0,202
314,837	187,714	-0,057	-0,059
315,852	691,628	-0,058	-0,106
316,866	52,493	-0,145	0,096
317,881	53,181	-0,129	-0,085
318,895	-106,741	-0,153	-0,023
319,910	227,889	-0,171	-0,192
320,925	188,581	-0,235	-0,243
321,939	-200,000	-0,025	-0,196
322,954	-25,302	-0,050	0,020
323,968	-118,723	-0,158	-0,019
324,983	-164,029	-0,318	0,010
325,997	82,878	-0,207	-0,155
327,012	280,403	-0,123	-0,152
328,027	-200,000	-0,027	-0,202
329,041	467,040	-0,130	-0,201
330,056	446,703	-0,049	-0,075
331,070	-200,000	-0,051	-0,169
332,085	-200,000	-0,054	-0,184
333,100	-162,891	-0,178	0,006
334,114	426,179	-0,186	-0,277
335,129	-19,963	-0,144	-0,061
336,143	500,941	0,037	-0,059
337,158	-200,000	-0,013	-0,068
338,173	-61,649	-0,171	-0,049
339,187	54,700	-0,212	0,140
340,202	-200,000	-0,144	-0,000
341,216	800,000	-0,058	-0,162
342,231	132,338	-0,138	-0,123
343,246	52,828	-0,134	-0,088
344,260	800,000	-0,050	-0,149
345,275	-131,452	-0,024	-0,002
346,289	175,115	-0,058	-0,058
347,304	800,000	-0,060	-0,158
348,319	249,609	-0,162	-0,190
349,333	800,000	-0,041	-0,093
350,348	47,734	-0,203	-0,130
351,362	800,000	-0,068	-0,143
352,377	-87,355	-0,164	-0,034
353,392	-200,000	0,002	-0,010
354,406	-112,845	-0,145	-0,020
355,421	209,154	1314,065	1416,354
356,435	160,955	1474,754	1416,862
