DTS Sentinel unit serial number:	SN410029Multiplexer serial number:	ORYXHardware model number:	OX2-SRSoftware version number:	ORYX F/W v4,00 Oryx Data Collector v3.7.2.0data status	okinstallation	B3 Nyhavnadifferential loss correction	single-endedforward channel	channel 1reverse channel	N/Adate	2023/12/02time	08:02:30forward acquisition time	300,00reverse acquisition time	0,00gamma	499,1914k internal	0,3195k external	0,3195temperature offset calibration	1,0000default loss term (dB/km)	0,3820temperature slope calibration	1,0000multiplexer offset coefficient	1,0000multiplexer slope coefficient	1,0000fibre end	0,00T internal ref (°C)	15,51T ext. ref 1 (°C)	0,28T ext. ref 2 (°C)	0,27length (m)	temperature (°C)	Stokes	anti-Stokes-744,400	13,736	-0,156	-0,088
-743,385	800,000	0,125	0,378
-742,371	322,461	-0,148	-0,206
-741,356	-200,000	0,036	0,306
-740,342	-75,379	-0,288	-0,074
-739,327	-200,000	0,048	0,377
-738,312	100,488	-0,201	-0,170
-737,298	-200,000	-0,096	0,354
-736,283	253,787	-0,253	-0,316
-735,269	-200,000	0,071	0,249
-734,254	175,444	-0,248	-0,262
-733,239	-57,701	-0,078	0,025
-732,225	16,525	-0,111	-0,064
-731,210	100,063	0,088	0,074
-730,196	-64,224	-0,092	-0,027
-729,181	-157,462	-0,109	0,005
-728,167	800,000	0,027	-0,075
-727,152	-35,870	0,088	-0,035
-726,137	-187,562	-0,145	-0,001
-725,123	31,860	-0,104	-0,065
-724,108	409,792	-0,080	-0,123
-723,094	-55,147	-0,078	-0,025
-722,079	-31,094	-0,119	-0,048
-721,064	-200,000	-0,006	-0,089
-720,050	-200,000	0,003	0,027
-719,035	130,799	0,048	0,045
-718,021	24,200	-0,117	0,070
-717,006	233,790	-0,022	-0,027
-715,991	800,000	-0,061	-0,161
-714,977	-200,000	0,002	0,020
-713,962	-200,000	-0,013	0,046
-712,948	-82,284	0,095	-0,022
-711,933	-94,041	-0,118	-0,023
-710,918	73,152	-0,049	0,037
-709,904	800,000	-0,060	-0,160
-708,889	-200,000	0,007	-0,096
-707,875	-28,427	-0,086	-0,036
-706,860	-78,656	0,139	-0,034
-705,845	-200,000	-0,015	0,098
-704,831	97,615	0,069	-0,058
-703,816	266,665	0,052	0,067
-702,802	-40,215	-0,092	-0,035
-701,787	-200,000	0,006	-0,032
-700,772	-200,000	0,003	0,014
-699,758	-152,675	-0,063	-0,003
-698,743	-70,573	0,107	-0,029
-697,729	-200,000	-0,001	0,066
-696,714	-76,944	-0,046	0,012
-695,699	-83,382	-0,061	-0,014
-694,685	-200,000	0,025	-0,173
-693,670	-163,972	0,053	0,002
-692,656	170,733	-0,055	-0,058
-691,641	47,236	-0,038	-0,026
-690,627	205,146	-0,013	0,015
-689,612	800,000	-0,012	-0,024
-688,597	-3,717	-0,120	-0,061
-687,583	429,955	0,045	-0,072
-686,568	-170,818	0,060	-0,001
-685,554	-200,000	0,008	-0,125
-684,539	-25,271	-0,046	0,020
-683,524	18,833	-0,087	-0,050
-682,510	-152,827	-0,158	0,008
-681,495	800,000	-0,035	-0,092
-680,481	-200,000	-0,004	-0,080
-679,466	800,000	-0,041	0,104
-678,451	-61,298	-0,103	-0,031
-677,437	-81,254	0,073	0,017
-676,422	-200,000	0,022	-0,127
-675,408	-113,767	-0,175	0,025
-674,393	-87,450	0,156	-0,034
-673,378	-200,000	-0,019	-0,141
-672,364	364,552	0,019	0,027
-671,349	172,993	-0,119	-0,125
-670,335	-200,000	0,020	0,067
-669,320	800,000	-0,029	0,062
-668,305	-200,000	0,012	0,053
-667,291	-152,275	-0,119	-0,006
-666,276	-94,077	-0,067	0,013
-665,262	79,993	-0,090	-0,070
-664,247	14,185	-0,134	-0,075
-663,232	-191,509	0,102	-0,001
-662,218	800,000	-0,049	0,140
-661,203	-50,727	-0,046	0,015
-660,189	56,113	-0,068	-0,048
-659,174	-7,149	0,059	0,029
-658,159	141,402	0,067	-0,065
-657,145	-200,000	-0,004	-0,036
-656,130	-200,000	-0,007	-0,042
-655,116	136,521	-0,042	0,040
-654,101	-200,000	0,020	-0,093
-653,086	800,000	-0,059	-0,124
-652,072	-163,572	-0,028	-0,001
-651,057	-196,833	-0,086	-0,000
-650,043	-200,000	-0,013	-0,097
-649,028	102,371	-0,044	0,038
-648,014	-200,000	0,042	-0,135
-646,999	-200,000	-0,006	-0,071
-645,984	47,711	-0,022	0,015
-644,970	-200,000	-0,017	0,059
-643,955	23,203	-0,084	-0,050
-642,941	-200,000	-0,024	-0,113
-641,926	-164,442	0,091	0,003
-640,911	-36,848	0,174	0,068
-639,897	-79,042	-0,027	0,007
-638,882	800,000	0,050	-0,103
-637,868	-200,000	-0,004	0,133
-636,853	-55,119	-0,105	-0,034
-635,838	-174,253	-0,124	-0,003
-634,824	-58,792	-0,065	0,020
-633,809	525,909	0,065	0,112
-632,795	52,336	0,081	0,056
-631,780	178,716	0,054	0,058
-630,765	-66,808	-0,030	-0,009
-629,751	61,549	-0,027	-0,020
-628,736	-200,000	0,010	0,072
-627,722	800,000	-0,033	0,076
-626,707	-200,000	0,002	-0,011
-625,692	210,966	0,059	0,068
-624,678	-200,000	0,009	-0,176
-623,663	653,123	0,062	-0,117
-622,649	-34,916	-0,109	0,043
-621,634	8,628	0,029	0,016
-620,619	-52,241	-0,139	-0,047
-619,605	107,215	-0,055	0,047
-618,590	104,613	0,071	-0,061
-617,576	136,625	-0,047	-0,044
-616,561	17,045	0,096	-0,055
-615,546	-200,000	-0,013	0,114
-614,532	-200,000	0,011	-0,100
-613,517	-50,268	-0,059	0,020
-612,503	750,924	0,050	0,098
-611,488	-200,000	-0,011	0,093
-610,474	-42,268	-0,096	0,035
-609,459	90,548	0,066	-0,054
-608,444	-39,109	-0,057	0,022
-607,430	117,820	-0,072	-0,065
-606,415	336,992	-0,117	0,165
-605,401	-128,108	0,146	-0,015
-604,386	84,349	0,047	-0,037
-603,371	-200,000	0,004	0,014
-602,357	466,766	0,035	-0,058
-601,342	159,557	-0,012	-0,012
-600,328	-162,354	-0,062	0,002
-599,313	113,102	-0,093	-0,082
-598,298	-125,653	-0,173	-0,019
-597,284	60,745	-0,077	0,055
-596,269	215,100	0,068	-0,078
-595,255	15,131	0,083	0,047
-594,240	-200,000	0,030	-0,149
-593,225	800,000	-0,072	-0,153
-592,211	100,359	0,037	0,031
-591,196	-133,162	0,030	0,003
-590,182	132,526	0,069	-0,064
-589,167	800,000	0,020	-0,049
-588,152	-28,584	0,039	0,016
-587,138	668,129	-0,039	-0,073
-586,123	-200,000	-0,011	-0,127
-585,109	380,888	-0,046	0,069
-584,094	800,000	0,012	0,030
-583,079	571,065	0,029	0,051
-582,065	698,747	0,034	0,066
-581,050	29,242	0,034	0,021
-580,036	-200,000	0,006	-0,108
-579,021	-44,479	-0,083	-0,030
-578,006	-200,000	-0,019	-0,066
-576,992	349,584	0,057	-0,082
-575,977	-200,000	0,041	-0,145
-574,963	-200,000	0,022	0,119
-573,948	64,474	0,055	0,040
-572,934	191,333	-0,120	-0,131
-571,919	347,051	0,067	-0,096
-570,904	190,289	-0,115	-0,125
-569,890	-38,465	-0,082	-0,031
-568,875	-178,619	0,177	-0,003
-567,861	694,706	-0,024	0,046
-566,846	-200,000	0,007	0,098
-565,831	-150,467	0,039	-0,002
-564,817	-86,940	-0,149	-0,033
-563,802	-5,648	0,018	0,009
-562,788	-75,416	-0,133	-0,034
-561,773	-200,000	-0,008	0,064
-560,758	213,686	-0,114	0,130
-559,744	250,708	-0,108	0,133
-558,729	-95,153	0,093	0,018
-557,715	504,380	-0,107	0,179
-556,700	68,490	-0,132	-0,098
-555,685	328,317	-0,100	-0,140
-554,671	-200,000	0,005	-0,111
-553,656	-24,846	0,042	0,018
-552,642	118,034	0,066	0,059
-551,627	49,138	0,039	0,027
-550,612	-200,000	-0,016	-0,066
-549,598	117,715	0,089	0,079
-548,583	407,456	-0,072	0,111
-547,569	-182,333	0,085	0,001
-546,554	-200,000	-0,001	-0,033
-545,539	-200,000	0,023	0,153
-544,525	-200,000	-0,030	0,144
-543,510	56,145	0,057	-0,040
-542,496	75,804	0,074	-0,057
-541,481	800,000	-0,045	-0,113
-540,466	15,829	0,012	-0,007
-539,452	-200,000	0,001	-0,017
-538,437	41,293	0,051	-0,033
-537,423	-100,020	0,134	-0,024
-536,408	-114,920	0,116	-0,016
-535,393	4,020	-0,020	0,011
-534,379	200,725	-0,090	-0,100
-533,364	-200,000	0,037	-0,157
-532,350	-183,903	0,160	-0,002
-531,335	35,534	0,118	0,074
-530,321	800,000	-0,022	0,057
-529,306	-48,470	0,147	0,051
-528,291	61,755	-0,100	-0,072
-527,277	34,350	-0,126	-0,079
-526,262	107,875	-0,095	0,082
-525,248	-134,626	0,080	0,007
-524,233	105,315	0,143	0,122
-523,218	458,809	0,052	0,083
-522,204	56,394	0,039	0,027
-521,189	-200,000	-0,015	0,061
-520,175	-124,990	-0,075	0,008
-519,160	26,400	-0,075	-0,045
-518,145	-89,999	0,064	0,013
-517,131	-156,918	0,091	-0,004
-516,116	-36,485	-0,060	0,023
-515,102	800,000	-0,037	-0,099
-514,087	-200,000	0,033	-0,138
-513,072	-200,000	-0,131	-0,000
-512,058	-122,220	0,117	0,014
-511,043	-200,000	-0,018	-0,107
-510,029	-87,520	-0,091	-0,020
-509,014	800,000	0,046	0,102
-507,999	-50,058	0,118	0,040
-506,985	346,826	0,076	0,109
-505,970	38,929	-0,087	-0,056
-504,956	462,132	0,053	0,085
-503,941	288,409	0,051	0,067
-502,926	-200,000	0,011	0,061
-501,912	-17,624	-0,098	-0,044
-500,897	-114,552	-0,067	-0,009
-499,883	247,664	0,069	0,085
-498,868	-61,213	0,078	0,024
-497,853	-5,657	-0,111	-0,055
-496,839	800,000	0,028	-0,082
-495,824	-200,000	-0,022	-0,092
-494,810	618,620	0,076	0,139
-493,795	282,851	-0,089	0,115
-492,781	-200,000	-0,013	0,054
-491,766	12,077	-0,085	-0,047
-490,751	267,419	-0,156	-0,197
-489,737	-200,000	0,037	-0,140
-488,722	-37,401	-0,110	0,042
-487,708	-92,263	0,133	0,027
-486,693	87,723	0,111	-0,089
-485,678	126,028	-0,063	-0,057
-484,664	-200,000	0,022	-0,130
-483,649	485,500	0,051	-0,083
-482,635	-200,000	0,009	-0,100
-481,620	88,631	-0,132	0,106
-480,605	-45,857	0,144	0,051
-479,591	1,241	0,130	0,067
-478,576	95,091	0,059	0,048
-477,562	-142,913	0,051	0,003
-476,547	-200,000	0,040	-0,137
-475,532	-200,000	0,001	-0,029
-474,518	-200,000	0,011	-0,218
-473,503	-200,000	0,017	0,210
-472,489	800,000	0,076	0,189
-471,474	-8,477	-0,070	-0,034
-470,459	121,541	0,033	0,030
-469,445	595,336	0,033	0,060
-468,430	800,000	0,002	0,007
-467,416	-200,000	-0,006	-0,033
-466,401	62,572	0,019	-0,014
-465,386	-200,000	0,005	0,026
-464,372	687,761	0,033	-0,062
-463,357	-68,923	-0,055	-0,015
-462,343	-200,000	-0,008	-0,026
-461,328	-21,217	-0,121	-0,053
-460,313	-200,000	-0,037	0,155
-459,299	54,387	0,071	0,049
-458,284	-55,760	0,089	0,029
-457,270	-200,000	-0,043	0,162
-456,255	-4,438	-0,089	0,044
-455,241	-107,364	0,094	0,015
-454,226	-94,507	-0,063	0,012
-453,211	-26,361	0,115	-0,049
-452,197	800,000	0,026	0,071
-451,182	37,140	0,079	0,050
-450,168	-13,810	-0,045	0,021
-449,153	9,529	-0,125	0,068
-448,138	-138,673	-0,124	0,010
-447,124	86,806	0,047	-0,037
-446,109	26,174	0,066	0,040
-445,095	154,891	-0,061	0,061
-444,080	-11,855	0,004	-0,002
-443,065	69,512	0,123	-0,091
-442,051	376,912	0,037	0,054
-441,036	-38,456	0,015	0,006
-440,022	13,374	0,042	0,023
-439,007	7,190	0,096	-0,052
-437,992	159,698	-0,024	0,024
-436,978	-63,370	-0,079	-0,023
-435,963	800,000	-0,013	0,034
-434,949	-5,444	-0,118	-0,058
-433,934	76,855	0,162	-0,123
-432,919	-116,616	-0,150	-0,020
-431,905	247,502	-0,019	-0,023
-430,890	-117,303	0,116	-0,015
-429,876	800,000	-0,011	-0,023
-428,861	800,000	0,024	0,066
-427,846	-67,341	-0,047	-0,013
-426,832	679,151	-0,063	-0,119
-425,817	-200,000	-0,001	0,085
-424,803	668,270	-0,055	-0,103
-423,788	-87,502	-0,050	0,011
-422,773	-63,276	0,112	-0,033
-421,759	-84,853	-0,054	-0,012
-420,744	339,222	-0,071	-0,100
-419,730	388,269	-0,113	-0,169
-418,715	-200,000	0,020	-0,119
-417,701	-25,938	-0,055	0,023
-416,686	-200,000	0,036	0,154
-415,671	-200,000	0,021	0,069
-414,657	-200,000	-0,020	-0,090
-413,642	-200,000	-0,010	-0,038
-412,628	-82,987	-0,096	0,022
-411,613	537,642	0,050	-0,085
-410,598	37,650	0,034	-0,022
-409,584	153,758	0,014	-0,014
-408,569	283,577	-0,015	0,019
-407,555	-39,773	0,187	0,070
-406,540	-151,543	0,003	-0,000
-405,525	219,481	-0,023	-0,026
-404,511	-67,107	-0,099	-0,028
-403,496	33,634	-0,097	0,060
-402,482	-200,000	0,005	0,050
-401,467	-200,000	-0,003	0,139
-400,452	800,000	-0,024	0,061
-399,438	-192,451	-0,038	0,000
-398,423	-11,637	-0,097	0,046
-397,409	223,665	0,073	-0,085
-396,394	-105,602	-0,211	-0,034
-395,379	-37,111	0,051	0,020
-394,365	800,000	-0,044	0,103
-393,350	69,872	-0,097	-0,072
-392,336	-53,398	-0,022	-0,007
-391,321	235,936	0,066	-0,078
-390,306	-21,026	0,034	-0,015
-389,292	-200,000	0,002	-0,134
-388,277	358,766	0,123	-0,177
-387,263	29,120	-0,102	0,062
-386,248	-70,921	0,165	-0,044
-385,233	-11,414	0,036	-0,017
-384,219	334,973	-0,058	0,081
-383,204	189,092	-0,100	0,108
-382,190	304,499	-0,007	0,010
-381,175	13,593	-0,040	-0,022
-380,160	-96,196	0,114	0,022
-379,146	135,895	0,038	-0,036
-378,131	-151,052	0,040	-0,002
-377,117	800,000	-0,050	0,124
-376,102	707,962	-0,032	-0,061
-375,088	-200,000	-0,013	-0,099
-374,073	392,505	-0,014	-0,021
-373,058	-200,000	0,004	0,014
-372,044	-56,907	0,108	-0,034
-371,029	175,618	-0,059	-0,061
-370,015	60,713	-0,011	0,008
-369,000	-165,627	-0,126	-0,004
-367,985	-100,505	-0,123	-0,022
-366,971	78,324	0,047	-0,036
-365,956	-200,000	-0,029	0,124
-364,942	800,000	-0,030	0,084
-363,927	-200,000	-0,008	0,041
-362,912	3,966	0,005	0,003
-361,898	-200,000	0,023	-0,251
-360,883	-159,018	-0,196	-0,008
-359,869	162,867	0,040	-0,040
-358,854	72,515	0,077	0,057
-357,839	800,000	-0,026	0,080
-356,825	137,330	-0,041	-0,038
-355,810	800,000	-0,016	0,048
-354,796	-200,000	-0,005	0,059
-353,781	-123,165	-0,092	-0,010
-352,766	1,795	-0,034	-0,017
-351,752	-200,000	0,002	0,145
-350,737	-49,633	0,182	0,062
-349,723	210,139	0,067	0,075
-348,708	-68,772	-0,078	0,022
-347,693	-200,000	0,007	-0,047
-346,679	-81,748	0,024	-0,006
-345,664	-200,000	0,005	-0,148
-344,650	-200,000	-0,005	0,139
-343,635	800,000	-0,054	0,120
-342,620	-7,882	-0,102	-0,049
-341,606	79,103	0,085	-0,066
-340,591	81,333	0,042	-0,033
-339,577	96,991	-0,066	0,054
-338,562	-200,000	0,008	0,078
-337,548	-200,000	-0,004	0,028
-336,533	89,187	0,064	-0,051
-335,518	156,165	0,173	0,171
-334,504	-176,448	0,123	-0,002
-333,489	8,069	0,117	0,063
-332,475	-200,000	-0,004	0,030
-331,460	168,506	0,116	-0,119
-330,445	800,000	0,011	-0,022
-329,431	800,000	0,017	0,044
-328,416	-200,000	0,024	0,098
-327,402	330,814	0,018	0,024
-326,387	800,000	-0,024	0,054
-325,372	800,000	0,004	0,008
-324,358	-139,344	-0,109	0,008
-323,343	-80,477	-0,044	-0,011
-322,329	13,455	0,102	0,057
-321,314	202,933	0,066	0,073
-320,299	148,616	-0,084	0,082
-319,285	800,000	0,035	0,096
-318,270	-23,162	-0,082	0,035
-317,256	-119,779	-0,027	0,003
-316,241	3,209	-0,120	-0,062
-315,226	106,367	-0,060	0,051
-314,212	-0,914	0,068	0,034
-313,197	183,096	-0,052	0,055
-312,183	140,852	0,094	-0,089
-311,168	44,645	-0,049	-0,032
-310,153	214,385	0,087	-0,098
-309,139	740,785	0,042	-0,082
-308,124	-14,109	-0,049	0,023
-307,110	-70,890	-0,048	-0,013
-306,095	251,154	0,093	-0,113
-305,080	615,159	0,056	0,100
-304,066	25,218	-0,074	0,044
-303,051	800,000	0,021	-0,059
-302,037	-200,000	0,007	0,030
-301,022	262,648	0,052	-0,065
-300,008	-200,000	0,025	0,174
-298,993	56,447	0,141	0,098
-297,978	-200,000	-0,004	-0,081
-296,964	800,000	0,032	-0,096
-295,949	110,247	-0,060	0,052
-294,935	-18,111	-0,074	0,033
-293,920	-103,369	-0,066	-0,011
-292,905	-7,877	0,119	0,057
-291,891	-200,000	0,018	0,109
-290,876	48,393	-0,040	0,027
-289,862	203,091	-0,149	0,165
-288,847	1,891	0,036	-0,019
-287,832	100,159	-0,036	0,030
-286,818	800,000	-0,049	0,125
-285,803	-200,000	-0,020	-0,078
-284,789	227,962	-0,116	-0,135
-283,774	550,101	0,028	0,049
-282,759	-28,975	0,047	0,019
-281,745	-158,603	-0,086	0,003
-280,730	-148,272	-0,123	0,007
-279,716	800,000	0,023	0,047
-278,701	44,686	-0,112	-0,074
-277,686	-23,496	0,050	-0,021
-276,672	-93,559	-0,063	-0,012
-275,657	-200,000	-0,008	0,065
-274,643	-89,822	0,051	-0,011
-273,628	-200,000	0,007	-0,058
-272,613	-154,841	0,053	-0,002
-271,599	47,031	0,047	0,031
-270,584	-200,000	-0,006	0,068
-269,570	509,291	0,028	0,047
-268,555	629,975	-0,081	0,147
-267,540	-200,000	-0,005	0,092
-266,526	99,744	0,024	-0,020
-265,511	-72,805	-0,035	0,009
-264,497	800,000	-0,035	-0,081
-263,482	16,356	-0,080	-0,045
-262,467	287,205	-0,035	-0,045
-261,453	-115,729	0,107	-0,014
-260,438	-200,000	0,015	-0,100
-259,424	-200,000	0,016	0,095
-258,409	33,359	-0,111	-0,069
-257,395	38,623	0,114	-0,072
-256,380	-200,000	0,001	0,013
-255,365	-200,000	-0,019	-0,118
-254,351	7,989	-0,032	-0,017
-253,336	310,354	-0,025	-0,034
-252,322	800,000	-0,034	-0,102
-251,307	39,867	0,026	0,017
-250,292	800,000	-0,020	-0,050
-249,278	-37,359	0,085	-0,032
-248,263	-101,375	0,117	-0,020
-247,249	-200,000	-0,004	0,059
-246,234	190,611	0,030	0,032
-245,219	-84,161	-0,030	0,007
-244,205	-200,000	0,022	0,104
-243,190	-200,000	0,019	-0,120
-242,176	688,097	-0,081	-0,153
-241,161	-118,524	0,056	0,007
-240,146	-27,677	0,146	0,060
-239,132	-200,000	-0,012	-0,046
-238,117	76,108	0,001	0,001
-237,103	-200,000	0,011	-0,087
-236,088	-108,534	-0,062	0,009
-235,073	276,971	0,099	0,126
-234,059	763,668	0,056	0,109
-233,044	26,906	-0,045	-0,027
-232,030	800,000	0,037	-0,081
-231,015	-110,731	-0,161	0,023
-230,000	-68,743	-0,059	-0,016
-228,986	800,000	-0,050	-0,107
-227,971	-89,335	0,151	0,032
-226,957	-36,736	-0,151	0,057
-225,942	508,318	0,053	0,088
-224,927	53,994	0,052	0,035
-223,913	186,413	-0,032	-0,034
-222,898	-200,000	0,014	-0,149
-221,884	-200,000	0,053	-0,235
-220,869	800,000	-0,032	-0,077
-219,855	298,482	-0,045	-0,060
-218,840	-116,767	-0,134	0,017
-217,825	1,902	0,048	-0,025
-216,811	81,564	0,096	0,074
-215,796	-200,000	-0,036	0,116
-214,782	-200,000	0,012	-0,098
-213,767	-135,003	0,093	0,008
-212,752	205,387	-0,053	-0,059
-211,738	157,717	0,038	-0,038
-210,723	-130,124	0,190	-0,018
-209,709	473,174	-0,022	-0,035
-208,694	-35,708	-0,034	0,013
-207,679	293,334	0,069	-0,090
-206,665	315,621	0,062	0,084
-205,650	210,942	0,155	0,174
-204,636	-101,624	0,072	-0,012
-203,621	316,137	-0,071	0,096
-202,606	5,906	0,031	0,016
-201,592	-177,895	-0,158	0,003
-200,577	800,000	-0,009	-0,022
-199,563	301,038	-0,034	0,045
-198,548	9,138	0,200	0,107
-197,533	282,622	-0,020	-0,026
-196,519	-27,496	0,085	-0,035
-195,504	-27,798	-0,012	0,005
-194,490	299,957	0,070	0,093
-193,475	375,594	0,072	-0,105
-192,460	512,731	0,057	-0,096
-191,446	-59,847	-0,056	-0,017
-190,431	456,752	-0,023	0,037
-189,417	800,000	-0,090	0,210
-188,402	241,565	-0,047	-0,057
-187,387	-156,230	-0,019	-0,001
-186,373	-111,564	-0,146	0,021
-185,358	-30,606	-0,088	-0,035
-184,344	-26,243	-0,098	0,041
-183,329	196,943	0,021	0,022
-182,315	-200,000	0,024	0,078
-181,300	-83,984	0,088	0,020
-180,285	-200,000	-0,036	-0,136
-179,271	414,358	-0,092	-0,140
-178,256	-6,992	-0,113	0,055
-177,242	215,649	0,080	-0,090
-176,227	-200,000	-0,008	-0,117
-175,212	194,735	0,061	0,066
-174,198	491,854	0,054	0,089
-173,183	-73,892	-0,042	0,011
-172,169	-200,000	-0,002	0,032
-171,154	800,000	0,007	0,021
-170,139	-200,000	-0,008	0,044
-169,125	121,581	0,158	0,140
-168,110	104,185	-0,083	0,069
-167,096	-200,000	0,008	-0,115
-166,081	264,315	-0,106	-0,132
-165,066	-200,000	-0,053	0,000
-164,052	40,436	0,082	0,052
-163,037	363,618	0,039	0,057
-162,023	-8,358	-0,067	0,032
-161,008	80,823	0,066	0,051
-159,993	573,195	-0,053	0,093
-158,979	800,000	0,090	-0,182
-157,964	-200,000	0,003	-0,080
-156,950	163,026	-0,069	0,069
-155,935	-16,920	-0,039	-0,017
-154,920	129,055	0,107	0,097
-153,906	10,823	0,048	0,026
-152,891	-200,000	-0,014	-0,101
-151,877	-79,618	-0,032	-0,008
-150,862	-170,342	0,099	0,002
-149,847	800,000	0,044	-0,095
-148,833	38,240	-0,091	-0,058
-147,818	123,579	0,048	0,043
-146,804	-200,000	-0,012	0,061
-145,789	-200,000	-0,014	0,180
-144,775	91,756	-0,110	0,088
-143,760	800,000	0,028	0,067
-142,745	-200,000	-0,009	-0,054
-141,731	274,166	0,082	-0,103
-140,716	545,192	-0,081	-0,138
-139,702	-10,211	-0,069	-0,032
-138,687	16,419	-0,114	-0,064
-137,672	-200,000	-0,006	0,109
-136,658	-96,861	-0,030	-0,005
-135,643	-200,000	-0,031	0,115
-134,629	13,114	0,155	0,085
-133,614	800,000	0,048	0,127
-132,599	266,554	0,101	0,126
-131,585	-200,000	-0,017	0,086
-130,570	-8,365	0,011	0,005
-129,556	-101,759	0,245	-0,042
-128,541	-29,692	0,087	0,035
-127,526	-200,000	0,001	0,179
-126,512	90,404	-0,060	-0,048
-125,497	620,099	-0,035	0,063
-124,483	195,390	0,127	0,138
-123,468	98,818	0,105	-0,086
-122,453	404,084	-0,081	0,121
-121,439	800,000	0,007	0,018
-120,424	800,000	0,050	-0,136
-119,410	-118,557	0,059	-0,007
-118,395	-48,635	0,164	0,056
-117,380	-200,000	0,010	-0,052
-116,366	744,105	0,013	0,025
-115,351	176,056	-0,039	-0,041
-114,337	-93,394	-0,108	-0,021
-113,322	431,239	0,038	-0,059
-112,307	-200,000	-0,008	-0,043
-111,293	-135,638	-0,101	-0,008
-110,278	58,283	0,108	0,075
-109,264	73,329	0,096	-0,071
-108,249	87,999	-0,093	-0,073
-107,234	-84,399	0,074	-0,017
-106,220	554,597	-0,036	-0,061
-105,205	146,716	0,017	0,017
-104,191	800,000	-0,020	0,051
-103,176	-200,000	0,074	0,278
-102,162	461,237	-0,096	0,152
-101,147	-200,000	-0,022	-0,078
-100,132	45,164	-0,192	0,126
-99,118	37,170	0,055	0,034
-98,103	-10,348	0,025	-0,012
-97,089	538,634	-0,038	-0,065
-96,074	-74,738	0,103	-0,026
-95,059	-200,000	-0,010	-0,066
-94,045	-65,607	-0,080	-0,023
-93,030	-200,000	0,019	0,068
-92,016	-26,458	-0,256	-0,106
-91,001	-75,060	-0,031	0,008
-89,986	148,768	-0,025	-0,024
-88,972	-200,000	-0,005	0,094
-87,957	-200,000	-0,022	0,110
-86,943	535,186	-0,034	0,058
-85,928	-8,486	-0,078	-0,037
-84,913	321,054	-0,135	0,182
-83,899	-200,000	0,015	-0,053
-82,884	-200,000	-0,015	0,094
-81,870	-200,000	0,010	0,057
-80,855	-200,000	0,006	-0,089
-79,840	92,575	-0,027	-0,022
-78,826	25,389	-0,107	-0,063
-77,811	316,675	0,051	-0,069
-76,797	-96,573	-0,102	-0,019
-75,782	25,001	0,001	0,000
-74,767	-31,858	0,088	0,035
-73,753	-200,000	-0,013	0,082
-72,738	103,928	-0,128	0,107
-71,724	-53,759	0,007	0,002
-70,709	117,280	0,015	0,013
-69,694	-200,000	-0,019	-0,161
-68,680	800,000	-0,075	-0,149
-67,665	-146,175	0,112	-0,007
-66,651	281,670	0,043	0,055
-65,636	261,335	-0,027	-0,033
-64,622	44,326	0,075	0,049
-63,607	259,665	-0,086	-0,106
-62,592	-13,896	0,022	0,010
-61,578	800,000	0,045	-0,139
-60,563	800,000	0,043	0,084
-59,549	467,255	0,029	-0,047
-58,534	-63,936	-1,486	-0,428
-57,519	359,101	-1,576	-2,241
-56,505	-200,000	-0,350	-4,378
-55,490	127,665	0,933	0,841
-54,476	800,000	4,881	11,265
-53,461	-200,000	17,881	285,968
-52,446	800,000	724,445	2229,543
-51,432	560,359	1639,869	2821,488
-50,417	80,180	1662,403	1267,389
-49,403	23,365	1536,240	893,405
-48,388	17,344	1459,747	819,774
-47,373	18,071	1449,455	817,460
-46,359	17,596	1439,948	809,797
-45,344	15,611	1435,355	797,710
-44,330	15,512	1433,398	796,118
-43,315	15,538	1431,557	795,190
-42,300	15,578	1429,980	794,470
-41,286	15,610	1428,868	793,973
-40,271	15,624	1427,365	793,174
-39,257	15,596	1426,238	792,385
-38,242	15,599	1424,920	791,633
-37,227	15,640	1423,666	791,100
-36,213	15,593	1422,549	790,224
-35,198	15,632	1421,175	789,615
-34,184	15,665	1420,279	789,240
-33,169	15,559	1419,123	788,067
-32,154	15,650	1417,872	787,769
-31,140	15,620	1416,768	786,987
-30,125	15,682	1415,428	786,499
-29,111	15,606	1414,483	785,585
-28,096	15,590	1413,230	784,787
-27,082	15,515	1412,387	783,935
-26,067	15,550	1411,213	783,413
-25,052	15,528	1410,119	782,674
-24,038	15,488	1409,221	781,957
-23,023	15,488	1408,200	781,360
-22,009	15,532	1406,980	780,857
-20,994	15,490	1406,332	780,273
-19,979	15,479	1405,436	779,690
-18,965	15,513	1404,272	779,170
-17,950	15,483	1403,349	778,491
-16,936	15,488	1402,236	777,863
-15,921	15,452	1401,216	777,099
-14,906	15,425	1400,202	776,382
-13,892	15,400	1399,412	775,797
-12,877	15,405	1398,473	775,268
-11,863	15,438	1397,581	774,896
-10,848	15,461	1396,513	774,378
-9,833	15,412	1395,632	773,631
-8,819	15,369	1394,752	772,918
-7,804	15,361	1393,799	772,318
-6,790	15,324	1393,004	771,677
-5,775	15,332	1391,885	771,065
-4,760	15,375	1390,942	770,711
-3,746	15,339	1390,255	770,131
-2,731	15,324	1389,351	769,532
-1,717	15,349	1388,118	768,935
-0,702	15,291	1386,477	767,724
0,313	19,182	1306,531	741,435
1,327	35,584	707,575	439,631
2,342	54,630	124,919	85,252
3,356	1,695	16,747	8,523
4,371	10,379	3,018	1,624
5,386	-5,552	0,490	0,237
6,400	-1,063	-0,064	0,032
7,415	126,116	-0,247	-0,221
8,429	82,381	-0,244	-0,188
9,444	37,238	-0,293	-0,184
10,459	64,848	-0,309	-0,221
11,473	164,793	-0,238	-0,238
12,488	31,272	-0,282	-0,171
13,502	115,373	-0,391	-0,338
14,517	106,758	-0,194	-0,163
15,531	481,854	-0,218	-0,351
16,546	63,338	-0,378	-0,268
17,561	65,156	-0,270	-0,193
18,575	19,366	-0,200	-0,113
19,590	281,611	-0,258	-0,328
20,604	71,438	-0,360	-0,264
21,619	40,531	-0,388	-0,247
22,634	61,900	-0,472	-0,333
23,648	38,914	-0,401	-0,253
24,663	112,763	-0,468	-0,401
25,677	13,171	-0,356	-0,195
26,692	74,308	-0,352	-0,261
27,707	11,419	-0,399	-0,216
28,721	-9,229	-0,340	-0,160
29,736	145,840	-0,340	-0,323
30,750	160,721	-0,271	-0,268
31,765	4,814	-0,329	-0,170
32,780	143,539	-0,367	-0,345
33,794	128,127	-0,340	-0,306
34,809	-55,559	-0,442	-0,139
35,823	170,040	-0,340	-0,344
36,838	171,297	-0,350	-0,356
37,853	259,352	-0,352	-0,430
38,867	54,015	-0,295	-0,200
39,882	53,874	-0,328	-0,222
40,896	160,969	-0,258	-0,255
41,911	23,277	-0,361	-0,209
42,926	116,389	-0,334	-0,289
43,940	142,151	-0,303	-0,284
44,955	316,849	-0,259	-0,346
45,969	62,244	-0,256	-0,180
46,984	-35,343	-0,338	-0,129
47,999	86,039	-0,362	-0,281
49,013	86,467	-0,335	-0,261
50,028	141,055	-0,290	-0,271
51,042	-24,885	-0,381	-0,159
52,057	17,594	-0,442	-0,247
53,071	-16,486	-0,374	-0,167
54,086	23,799	-0,374	-0,217
55,101	77,267	-0,249	-0,187
56,115	49,913	-0,317	-0,211
57,130	106,068	-0,406	-0,339
58,144	-40,745	-0,439	-0,160
59,159	73,653	-0,406	-0,299
60,174	71,924	-0,442	-0,324
61,188	17,888	-0,472	-0,265
62,203	-125,656	-0,259	-0,027
63,217	109,269	-0,325	-0,274
64,232	41,514	-0,319	-0,203
65,247	8,560	-0,416	-0,220
66,261	155,860	-0,397	-0,386
67,276	183,181	-0,403	-0,420
68,290	115,246	-0,371	-0,320
69,305	30,515	-0,364	-0,219
70,320	72,097	-0,217	-0,159
71,334	-7,460	-0,398	-0,189
72,349	13,521	-0,366	-0,199
73,363	13,528	-0,329	-0,180
74,378	24,165	-0,351	-0,204
75,393	14,410	-0,373	-0,205
76,407	11,207	-0,280	-0,150
77,422	27,026	-0,230	-0,135
78,436	-143,225	-0,235	0,016
79,451	104,232	-0,314	-0,260
80,466	37,366	-0,325	-0,202
81,480	42,886	-0,323	-0,207
82,495	54,418	-0,256	-0,173
83,509	30,065	-0,287	-0,172
84,524	101,607	-0,262	-0,215
85,539	71,000	-0,270	-0,197
86,553	232,495	-0,210	-0,243
87,568	109,523	-0,213	-0,180
88,582	27,089	-0,334	-0,197
89,597	113,415	-0,349	-0,298
90,611	-103,228	-0,367	-0,060
91,626	96,502	-0,173	-0,139
92,641	-99,282	-0,208	-0,037
93,655	-50,501	-0,381	-0,126
94,670	239,856	-0,281	-0,330
95,684	92,818	-0,274	-0,217
96,699	117,474	-0,129	-0,111
97,714	-26,557	-0,326	-0,134
98,728	6,571	-0,308	-0,161
99,743	155,236	-0,269	-0,260
100,757	164,218	-0,262	-0,260
101,772	360,623	-0,204	-0,287
102,787	63,688	-0,302	-0,213
103,801	9,338	-0,323	-0,171
104,816	-2,955	-0,212	-0,104
105,830	61,773	-0,326	-0,228
106,845	164,947	-0,202	-0,200
107,860	-105,832	-0,427	-0,067
108,874	116,558	-0,227	-0,195
109,889	364,160	-0,220	-0,312
110,903	125,273	-0,326	-0,289
111,918	64,181	-0,249	-0,176
112,933	507,192	-0,099	-0,162
113,947	-101,914	-0,221	0,037
114,962	282,543	-0,180	-0,227
115,976	438,625	-0,142	-0,218
116,991	40,437	-0,298	-0,188
118,006	55,397	-0,249	-0,169
119,020	122,566	-0,319	-0,280
120,035	148,525	-0,157	-0,149
121,049	-46,584	-0,264	-0,090
122,064	71,670	-0,232	-0,169
123,079	143,374	-0,250	-0,234
124,093	-19,778	-0,234	-0,101
125,108	243,224	-0,263	-0,310
126,122	212,203	-0,223	-0,247
127,137	-41,628	-0,263	-0,094
128,151	-19,129	-0,272	-0,118
129,166	132,977	-0,166	-0,150
130,181	14,605	-0,256	-0,140
131,195	31,375	-0,190	-0,114
132,210	0,214	-0,181	-0,090
133,224	116,644	-0,314	-0,270
134,239	59,885	-0,176	-0,122
135,254	-2,398	-0,198	-0,097
136,268	800,000	-0,083	-0,195
137,283	-13,248	-0,457	-0,207
138,297	99,408	-0,283	-0,229
139,312	-44,356	-0,265	-0,092
140,327	-47,515	-0,363	-0,123
141,341	-61,527	-0,179	-0,052
142,356	128,608	-0,282	-0,251
143,370	198,057	-0,225	-0,241
144,385	120,972	-0,189	-0,165
145,400	6,352	-0,264	-0,137
146,414	-58,074	-0,288	-0,087
147,429	95,948	-0,245	-0,195
148,443	-79,269	-0,271	-0,064
149,458	100,571	-0,177	-0,144
150,473	58,084	-0,335	-0,230
151,487	30,330	-0,244	-0,146
152,502	136,262	-0,281	-0,257
153,516	13,973	-0,326	-0,177
154,531	-5,937	-0,335	-0,160
155,546	4,251	-0,304	-0,155
156,560	-42,538	-0,233	-0,083
157,575	-77,059	-0,291	-0,070
158,589	-54,440	-0,150	-0,047
159,604	-35,092	-0,261	-0,099
160,619	160,547	-0,204	-0,199
161,633	-1,829	-0,309	-0,151
162,648	484,068	-0,139	-0,223
163,662	63,502	-0,236	-0,165
164,677	-15,986	-0,326	-0,144
165,692	3,876	-0,199	-0,101
166,706	-64,090	-0,211	-0,060
167,721	-36,277	-0,261	-0,098
168,735	37,397	-0,359	-0,222
169,750	10,790	-0,352	-0,187
170,764	800,000	-0,076	-0,202
171,779	-177,777	-0,291	0,005
172,794	40,170	-0,263	-0,165
173,808	-19,970	-0,223	-0,096
174,823	269,298	-0,184	-0,226
175,837	181,777	-0,255	-0,262
176,852	162,204	-0,208	-0,204
177,867	93,936	-0,205	-0,162
178,881	94,610	-0,213	-0,169
179,896	-35,058	-0,227	-0,086
180,910	75,038	-0,226	-0,166
181,925	320,902	-0,198	-0,263
182,940	-26,049	-0,339	-0,138
183,954	252,701	-0,246	-0,293
184,969	476,932	-0,161	-0,255
185,983	-45,032	-0,236	-0,081
186,998	362,641	-0,155	-0,218
188,013	138,874	-0,168	-0,154
189,027	-11,510	-0,184	-0,084
190,042	257,517	-0,160	-0,192
191,056	5,967	-0,310	-0,159
192,071	99,028	-0,231	-0,186
193,086	-96,125	-0,155	-0,028
194,100	70,669	-0,166	-0,119
195,115	-149,293	-0,238	-0,013
196,129	151,519	-0,164	-0,156
197,144	460,888	-0,207	-0,322
198,159	54,877	-0,192	-0,129
199,173	66,714	-0,206	-0,146
200,188	-200,000	-0,045	-0,188
201,202	-160,348	-0,215	0,008
202,217	473,607	-0,151	-0,238
203,232	-41,356	-0,262	-0,093
204,246	138,335	-0,231	-0,211
205,261	55,355	-0,196	-0,132
206,275	-76,610	-0,239	-0,058
207,290	800,000	-0,069	-0,161
208,304	86,877	-0,164	-0,126
209,319	-113,105	-0,103	0,014
210,334	118,209	-0,189	-0,162
211,348	722,204	-0,171	-0,317
212,363	354,244	-0,249	-0,346
213,377	242,094	-0,093	-0,109
214,392	101,261	-0,256	-0,207
215,407	381,687	-0,124	-0,177
216,421	-156,241	-0,178	-0,008
217,436	69,831	-0,175	-0,125
218,450	415,004	-0,102	-0,151
219,465	222,341	-0,266	-0,298
220,480	322,149	-0,145	-0,192
221,494	-13,501	-0,242	-0,109
222,509	100,102	-0,157	-0,126
223,523	187,081	-0,143	-0,149
224,538	800,000	-0,100	-0,192
225,553	68,716	-0,165	-0,117
226,567	-3,378	-0,323	-0,156
227,582	39,344	-0,308	-0,191
228,596	800,000	-0,041	-0,088
229,611	-37,029	-0,078	-0,029
230,626	238,614	-0,149	-0,172
231,640	46,470	-0,172	-0,111
232,655	-105,179	-0,245	-0,038
233,669	104,074	-0,201	-0,164
234,684	718,998	-0,139	-0,258
235,699	-77,135	-0,130	-0,031
236,713	7,039	-0,153	-0,079
237,728	353,979	-0,090	-0,124
238,742	113,245	-0,111	-0,093
239,757	175,736	-0,233	-0,235
240,772	189,401	-0,205	-0,214
241,786	484,919	-0,132	-0,209
242,801	545,804	-0,134	-0,223
243,815	-32,225	-0,167	-0,064
244,830	348,514	-0,089	-0,122
245,844	49,443	-0,064	0,042
246,859	16,018	-0,121	-0,066
247,874	56,094	-0,321	-0,216
248,888	139,413	-0,118	-0,108
249,903	15,453	-0,158	-0,086
250,917	-79,646	-0,108	0,025
251,932	530,672	-0,048	-0,080
252,947	-89,002	-0,167	-0,034
253,961	-3,966	-0,217	-0,104
254,976	155,585	-0,185	-0,177
255,990	79,275	-0,145	-0,107
257,005	800,000	-0,053	-0,104
258,020	413,296	-0,105	-0,155
259,034	316,333	-0,201	-0,264
260,049	26,207	-0,182	-0,105
261,063	-200,000	-0,051	-0,159
262,078	297,154	-0,178	-0,227
263,093	407,396	-0,194	-0,285
264,107	73,949	-0,161	-0,117
265,122	147,878	-0,187	-0,174
266,136	108,297	-0,106	-0,088
267,151	162,552	-0,086	-0,084
268,166	274,165	-0,144	-0,177
269,180	300,701	-0,187	-0,240
270,195	142,202	-0,147	-0,135
271,209	71,126	-0,156	-0,112
272,224	-97,764	-0,174	-0,031
273,239	57,371	-0,148	-0,100
274,253	60,869	-0,214	-0,146
275,268	439,085	-0,128	-0,195
276,282	155,926	-0,143	-0,136
277,297	321,401	-0,195	-0,258
278,312	21,403	-0,237	-0,133
279,326	-20,982	-0,221	-0,093
280,341	83,421	-0,188	-0,141
281,355	800,000	-0,067	-0,152
282,370	-200,000	-0,016	-0,249
283,384	-55,837	-0,056	0,017
284,399	6,696	-0,270	-0,138
285,414	14,542	-0,145	-0,078
286,428	800,000	-0,091	-0,230
287,443	800,000	-0,082	-0,210
288,457	4,767	-0,205	-0,104
289,472	66,473	-0,185	-0,130
290,487	538,267	-0,122	-0,201
291,501	110,461	-0,175	-0,146
292,516	20,536	-0,196	-0,109
293,530	102,330	-0,154	-0,125
294,545	-10,593	-0,182	-0,083
295,560	-58,470	-0,138	-0,041
296,574	-106,556	-0,120	-0,018
297,589	94,423	-0,149	-0,117
298,603	162,177	-0,245	-0,237
299,618	547,567	-0,098	-0,162
300,633	91,336	-0,152	-0,118
301,647	-200,000	0,022	-0,081
302,662	37,629	-0,155	-0,095
303,676	-18,142	-0,206	-0,088
304,691	765,392	-0,087	-0,164
305,706	604,093	-0,070	-0,120
306,720	-41,672	-0,237	-0,083
307,735	26,016	-0,179	-0,103
308,749	647,916	-0,066	-0,116
309,764	187,279	-0,146	-0,150
310,779	8,356	-0,140	-0,073
311,793	-154,572	-0,146	0,007
312,808	2,058	-0,041	-0,020
313,822	454,291	-0,080	-0,123
314,837	-200,000	-0,067	-0,226
315,852	800,000	-0,079	-0,219
316,866	800,000	0,027	-0,066
317,881	-171,534	-0,320	0,007
318,895	-127,936	-0,207	-0,020
319,910	104,377	-0,264	-0,214
320,925	45,753	-0,163	-0,104
321,939	342,700	-0,081	-0,110
322,954	583,087	0,026	-0,045
323,968	-119,214	-0,181	-0,022
324,983	-79,142	-0,143	-0,033
325,997	235,644	-0,114	-0,130
327,012	-62,318	-0,172	-0,049
328,027	33,702	-0,189	-0,113
329,041	-71,926	-0,168	-0,043
330,056	242,515	-0,090	-0,104
331,070	-200,000	-0,021	-0,100
332,085	-62,251	-0,126	-0,036
333,100	-16,835	-0,151	-0,066
334,114	27,050	-0,276	-0,159
335,129	322,270	-0,190	-0,250
336,143	-91,395	-0,096	-0,019
337,158	640,546	-0,077	-0,135
338,173	-164,485	-0,142	0,004
339,187	449,749	-0,062	-0,094
340,202	-9,844	-0,197	-0,090
341,216	125,266	-0,114	-0,099
342,231	89,623	-0,214	-0,164
343,246	-139,932	-0,179	-0,013
344,260	-66,056	-0,236	-0,064
345,275	195,127	-0,106	-0,111
346,289	95,982	-0,075	-0,059
347,304	649,869	-0,085	-0,151
348,319	-71,409	-0,136	-0,035
349,333	-31,257	-0,142	-0,055
350,348	148,845	-0,111	-0,103
351,362	555,216	-0,071	-0,118
352,377	800,000	-0,110	-0,238
353,392	-39,206	-0,101	-0,036
354,406	-35,675	-0,220	-0,082
355,421	209,233	1313,759	1416,076
356,435	161,022	1474,411	1416,595
