DTS Sentinel unit serial number:	SN410029Multiplexer serial number:	ORYXHardware model number:	OX2-SRSoftware version number:	ORYX F/W v4,00 Oryx Data Collector v3.7.2.0data status	okinstallation	B3 Nyhavnadifferential loss correction	single-endedforward channel	channel 1reverse channel	N/Adate	2023/12/05time	09:32:30forward acquisition time	300,00reverse acquisition time	0,00gamma	499,1914k internal	0,3196k external	0,3196temperature offset calibration	1,0000default loss term (dB/km)	0,3820temperature slope calibration	1,0000multiplexer offset coefficient	1,0000multiplexer slope coefficient	1,0000fibre end	0,00T internal ref (°C)	11,52T ext. ref 1 (°C)	-4,39T ext. ref 2 (°C)	-4,67length (m)	temperature (°C)	Stokes	anti-Stokes-744,400	43,482	-0,120	-0,080
-743,385	19,972	-0,239	0,140
-742,371	6,553	-0,023	0,012
-741,356	800,000	-0,129	0,264
-740,342	-200,000	-0,008	-0,120
-739,327	-121,138	-0,175	0,021
-738,312	800,000	-0,104	-0,216
-737,298	74,006	-0,143	0,109
-736,283	800,000	0,037	-0,106
-735,269	-200,000	-0,043	0,242
-734,254	730,273	-0,061	-0,120
-733,239	-114,175	-0,361	-0,050
-732,225	571,315	0,136	-0,242
-731,210	36,377	0,079	0,051
-730,196	38,961	-0,153	-0,099
-729,181	71,376	0,048	-0,036
-728,167	-200,000	-0,002	0,051
-727,152	-200,000	-0,015	-0,057
-726,137	-189,416	-0,125	-0,001
-725,123	105,805	0,088	-0,076
-724,108	-200,000	0,010	-0,076
-723,094	-143,970	-0,098	0,007
-722,079	-123,961	-0,089	-0,010
-721,064	-36,479	-0,081	0,031
-720,050	144,412	-0,037	-0,036
-719,035	400,799	-0,122	-0,188
-718,021	199,073	-0,054	0,060
-717,006	-200,000	-0,028	-0,142
-715,991	32,711	-0,159	-0,100
-714,977	800,000	-0,023	-0,060
-713,962	156,016	0,045	-0,045
-712,948	800,000	-0,040	-0,098
-711,933	-28,850	0,060	0,025
-710,918	-38,907	-0,118	0,045
-709,904	-176,764	0,087	-0,002
-708,889	14,453	-0,172	-0,097
-707,875	-37,544	-0,029	-0,011
-706,860	162,418	0,030	0,031
-705,845	-129,158	0,051	-0,005
-704,831	-200,000	-0,004	-0,022
-703,816	247,913	-0,042	0,051
-702,802	84,212	0,063	-0,050
-701,787	800,000	0,019	-0,051
-700,772	0,364	0,038	0,020
-699,758	413,049	0,026	-0,040
-698,743	57,721	0,013	0,010
-697,729	-42,539	0,040	-0,015
-696,714	-200,000	0,008	0,027
-695,699	-170,187	-0,079	0,002
-694,685	-200,000	0,020	-0,170
-693,670	85,457	0,125	-0,100
-692,656	447,868	-0,034	-0,055
-691,641	231,401	0,066	0,079
-690,627	-66,271	-0,116	-0,033
-689,612	39,024	0,142	-0,092
-688,597	-200,000	-0,022	-0,176
-687,583	-200,000	0,003	-0,078
-686,568	32,854	-0,055	-0,035
-685,554	-12,443	0,109	-0,052
-684,539	800,000	0,022	0,061
-683,524	-200,000	-0,028	0,107
-682,510	-200,000	0,007	0,118
-681,495	-200,000	0,042	0,139
-680,481	91,807	-0,102	0,083
-679,466	-200,000	0,003	-0,126
-678,451	800,000	-0,017	0,038
-677,437	110,169	0,110	-0,096
-676,422	-64,231	-0,053	-0,016
-675,408	-62,814	0,059	0,018
-674,393	-200,000	-0,006	-0,034
-673,378	-122,032	-0,128	0,015
-672,364	800,000	0,062	-0,155
-671,349	484,117	-0,044	-0,073
-670,335	800,000	-0,045	0,108
-669,320	-80,132	-0,113	0,027
-668,305	-200,000	-0,004	0,049
-667,291	-119,626	-0,223	-0,028
-666,276	175,695	0,047	0,050
-665,262	557,869	-0,045	0,079
-664,247	-160,555	-0,203	-0,008
-663,232	-200,000	-0,015	-0,166
-662,218	-200,000	0,013	-0,069
-661,203	-55,200	-0,090	0,029
-660,189	-200,000	-0,002	-0,085
-659,174	78,095	-0,021	-0,016
-658,159	-113,400	-0,166	0,023
-657,145	-60,401	0,094	-0,029
-656,130	-42,188	-0,116	-0,043
-655,116	214,665	-0,051	0,059
-654,101	-38,079	-0,040	-0,016
-653,086	783,753	0,025	-0,049
-652,072	-143,732	-0,050	0,003
-651,057	800,000	-0,070	-0,183
-650,043	-2,836	0,025	-0,013
-649,028	-26,495	0,099	-0,042
-648,014	-102,303	0,133	0,023
-646,999	-200,000	0,007	-0,045
-645,984	310,300	0,091	0,124
-644,970	-54,835	-0,074	0,024
-643,955	800,000	-0,044	-0,123
-642,941	269,801	-0,036	-0,046
-641,926	-200,000	0,033	0,139
-640,911	-55,950	-0,121	0,039
-639,897	-200,000	-0,016	-0,063
-638,882	3,478	-0,128	-0,067
-637,868	741,898	0,043	-0,085
-636,853	603,007	-0,040	-0,072
-635,838	-200,000	-0,012	-0,104
-634,824	-200,000	-0,034	-0,138
-633,809	17,774	0,052	0,030
-632,795	395,309	-0,017	0,026
-631,780	135,438	-0,110	0,103
-630,765	-153,156	-0,087	0,004
-629,751	16,499	-0,065	-0,037
-628,736	800,000	-0,049	-0,118
-627,722	-99,655	-0,117	-0,021
-626,707	-21,919	0,078	0,034
-625,692	-126,433	0,070	0,008
-624,678	800,000	-0,030	-0,077
-623,663	-107,136	-0,073	-0,012
-622,649	-200,000	0,035	-0,134
-621,634	440,401	-0,145	-0,230
-620,619	-200,000	-0,063	-0,234
-619,605	83,993	-0,054	-0,043
-618,590	243,274	0,033	0,041
-617,576	73,825	0,109	-0,083
-616,561	494,827	0,043	-0,073
-615,546	-35,404	-0,124	0,049
-614,532	-200,000	0,001	-0,081
-613,517	307,453	-0,041	-0,055
-612,503	-42,224	0,053	-0,020
-611,488	12,203	0,090	0,050
-610,474	123,757	0,102	0,093
-609,459	261,363	-0,085	0,107
-608,444	800,000	-0,065	0,177
-607,430	85,777	-0,052	-0,042
-606,415	70,563	-0,197	-0,147
-605,401	-68,840	-0,033	0,009
-604,386	581,595	0,082	0,146
-603,371	103,416	-0,055	0,047
-602,357	202,691	0,079	-0,088
-601,342	786,445	0,057	0,114
-600,328	-200,000	-0,005	-0,074
-599,313	432,390	0,038	0,061
-598,298	800,000	-0,021	0,065
-597,284	-90,694	0,183	-0,038
-596,269	-200,000	-0,014	0,124
-595,255	-23,813	-0,073	0,032
-594,240	48,773	-0,102	-0,069
-593,225	451,970	0,029	-0,046
-592,211	57,853	0,081	-0,057
-591,196	800,000	0,035	0,095
-590,182	-106,666	-0,110	-0,018
-589,167	-200,000	-0,017	-0,171
-588,152	301,769	-0,091	0,122
-587,138	-78,406	-0,115	0,028
-586,123	-200,000	0,004	0,068
-585,109	29,693	0,109	-0,067
-584,094	645,522	0,051	-0,094
-583,079	-157,940	-0,125	0,005
-582,065	-84,950	-0,175	0,039
-581,050	-94,996	-0,096	-0,019
-580,036	612,976	-0,049	-0,089
-579,021	52,701	-0,052	0,036
-578,006	627,150	0,079	0,144
-576,992	-200,000	0,016	-0,142
-575,977	-87,550	0,061	0,013
-574,963	800,000	0,016	0,033
-573,948	-63,433	0,087	0,026
-572,934	340,458	0,015	-0,021
-571,919	-200,000	-0,004	-0,125
-570,904	-200,000	-0,018	0,085
-569,890	-200,000	0,034	-0,110
-568,875	188,893	0,061	0,066
-567,861	-200,000	-0,038	0,173
-566,846	-200,000	0,008	-0,058
-565,831	-15,146	-0,064	-0,030
-564,817	-200,000	-0,006	0,097
-563,802	553,814	-0,044	-0,076
-562,788	35,631	-0,086	-0,054
-561,773	800,000	-0,028	0,084
-560,758	-200,000	-0,004	-0,028
-559,744	4,844	0,085	-0,045
-558,729	800,000	-0,025	-0,068
-557,715	21,742	-0,054	0,032
-556,700	85,466	-0,081	0,064
-555,685	-56,663	-0,095	0,030
-554,671	596,841	-0,059	-0,107
-553,656	137,506	0,030	0,028
-552,642	-19,587	0,043	0,019
-551,627	668,092	0,041	-0,077
-550,612	-200,000	-0,010	0,088
-549,598	-200,000	0,007	0,069
-548,583	800,000	-0,047	-0,106
-547,569	-200,000	0,011	0,062
-546,554	-164,981	0,029	-0,001
-545,539	237,718	0,102	0,123
-544,525	224,573	-0,014	-0,016
-543,510	90,437	0,045	0,037
-542,496	17,790	0,036	-0,021
-541,481	25,756	-0,026	0,016
-540,466	-200,000	0,006	-0,079
-539,452	-53,623	0,124	-0,041
-538,437	-9,142	0,048	-0,023
-537,423	-5,391	0,047	-0,023
-536,408	144,456	-0,034	0,033
-535,393	83,635	-0,120	-0,095
-534,379	302,818	-0,101	0,136
-533,364	720,229	-0,009	0,017
-532,350	155,182	-0,040	0,040
-531,335	303,981	-0,022	0,030
-530,321	-200,000	0,018	0,115
-529,306	800,000	-0,015	-0,033
-528,291	800,000	0,062	-0,135
-527,277	58,048	-0,063	-0,045
-526,262	-1,782	0,117	-0,059
-525,248	-64,108	0,016	-0,005
-524,233	-200,000	0,004	-0,059
-523,218	185,978	0,061	-0,066
-522,204	-63,779	0,078	0,023
-521,189	25,820	-0,157	-0,094
-520,175	800,000	-0,077	-0,162
-519,160	527,977	-0,048	-0,082
-518,145	-23,388	0,100	0,043
-517,131	146,333	0,102	0,099
-516,116	-158,430	-0,033	-0,001
-515,102	190,140	0,064	0,069
-514,087	800,000	0,058	0,144
-513,072	132,948	-0,055	-0,051
-512,058	85,225	-0,117	0,093
-511,043	-200,000	-0,004	-0,071
-510,029	451,904	-0,053	0,085
-509,014	-73,779	0,083	-0,022
-507,999	-106,779	0,064	0,010
-506,985	-200,000	0,009	-0,071
-505,970	42,027	0,049	-0,032
-504,956	800,000	-0,063	-0,184
-503,941	205,474	0,016	-0,018
-502,926	114,459	0,079	0,069
-501,912	35,158	-0,093	-0,059
-500,897	47,996	0,125	-0,084
-499,883	-200,000	-0,050	-0,170
-498,868	62,020	-0,164	-0,118
-497,853	800,000	-0,005	-0,013
-496,839	127,471	-0,065	0,060
-495,824	329,783	0,185	0,257
-494,810	222,326	0,092	0,107
-493,795	104,595	0,015	-0,013
-492,781	-200,000	-0,012	0,151
-491,766	-200,000	-0,023	0,079
-490,751	270,676	-0,013	0,016
-489,737	-78,267	0,037	0,009
-488,722	86,192	0,094	-0,075
-487,708	800,000	0,039	0,115
-486,693	333,007	-0,054	0,076
-485,678	-17,531	-0,140	0,063
-484,664	-200,000	0,001	-0,041
-483,649	-81,400	0,019	-0,005
-482,635	-200,000	-0,026	-0,085
-481,620	800,000	0,035	-0,100
-480,605	-200,000	0,019	-0,064
-479,591	90,819	0,075	-0,060
-478,576	-200,000	-0,007	-0,079
-477,562	386,770	-0,029	-0,044
-476,547	701,476	-0,071	-0,136
-475,532	116,900	0,100	0,088
-474,518	-75,334	0,096	-0,025
-473,503	31,674	0,033	-0,021
-472,489	85,347	0,124	0,098
-471,474	800,000	-0,026	-0,083
-470,459	-92,199	-0,066	-0,013
-469,445	-200,000	-0,002	-0,106
-468,430	-200,000	-0,011	-0,084
-467,416	52,864	0,050	-0,034
-466,401	800,000	-0,036	0,100
-465,386	411,425	0,062	-0,095
-464,372	-114,689	-0,112	-0,015
-463,357	-200,000	-0,015	-0,087
-462,343	-61,601	0,123	-0,037
-461,328	1,920	-0,076	-0,040
-460,313	800,000	0,049	0,104
-459,299	189,372	0,128	-0,138
-458,284	-200,000	-0,014	-0,046
-457,270	800,000	-0,075	0,167
-456,255	-43,821	-0,094	-0,034
-455,241	-119,300	-0,067	-0,008
-454,226	-68,352	-0,091	0,025
-453,211	-200,000	-0,024	-0,093
-452,197	-58,262	0,092	0,029
-451,182	125,365	0,122	0,111
-450,168	800,000	0,039	0,087
-449,153	-49,629	0,077	0,026
-448,138	-4,655	-0,073	0,036
-447,124	21,218	-0,098	0,057
-446,109	83,753	0,072	0,057
-445,095	28,382	0,024	-0,015
-444,080	-32,319	-0,044	-0,017
-443,065	-200,000	0,016	0,092
-442,051	-46,368	-0,064	-0,023
-441,036	-200,000	0,024	-0,090
-440,022	-130,590	-0,183	-0,018
-439,007	90,930	0,066	-0,053
-437,992	-200,000	-0,008	0,098
-436,978	-200,000	0,014	0,048
-435,963	800,000	0,048	0,127
-434,949	432,240	-0,049	-0,077
-433,934	92,842	-0,082	-0,067
-432,919	-1,637	-0,077	-0,039
-431,905	264,211	0,036	-0,045
-430,890	161,483	0,027	0,028
-429,876	-47,180	0,007	-0,002
-428,861	28,705	0,133	0,081
-427,846	227,371	-0,032	0,037
-426,832	-142,757	0,030	0,002
-425,817	465,605	-0,014	-0,023
-424,803	-47,760	-0,048	0,017
-423,788	12,761	0,174	0,096
-422,773	729,927	-0,043	0,083
-421,759	473,808	-0,078	0,127
-420,744	-119,834	-0,120	-0,015
-419,730	-41,031	-0,072	-0,027
-418,715	-21,742	-0,070	0,030
-417,701	-46,750	-0,113	-0,040
-416,686	47,662	0,058	0,039
-415,671	91,066	0,021	-0,017
-414,657	161,359	-0,066	0,066
-413,642	22,342	-0,041	0,024
-412,628	800,000	0,061	-0,131
-411,613	-94,967	0,029	-0,006
-410,598	394,612	0,037	0,055
-409,584	-115,144	-0,083	0,011
-408,569	-46,298	0,032	-0,011
-407,555	800,000	0,003	-0,009
-406,540	-194,703	-0,068	0,000
-405,525	143,320	-0,077	-0,074
-404,511	800,000	0,054	-0,153
-403,496	800,000	-0,047	-0,118
-402,482	800,000	0,015	0,043
-401,467	-200,000	0,007	0,058
-400,452	177,549	0,065	-0,068
-399,438	-86,961	-0,127	0,028
-398,423	-97,078	-0,217	-0,040
-397,409	125,660	-0,072	0,065
-396,394	-200,000	0,015	0,068
-395,379	3,730	-0,056	0,029
-394,365	-68,281	0,015	-0,004
-393,350	-141,825	0,105	-0,007
-392,336	-52,593	0,127	-0,042
-391,321	249,401	0,074	-0,091
-390,306	128,748	-0,071	-0,065
-389,292	-200,000	-0,001	-0,152
-388,277	-89,787	0,078	0,016
-387,263	278,051	-0,080	0,103
-386,248	-200,000	0,019	-0,062
-385,233	800,000	0,038	0,083
-384,219	-107,407	-0,113	0,018
-383,204	235,331	0,128	-0,152
-382,190	52,333	-0,191	-0,131
-381,175	44,647	0,062	0,041
-380,160	-124,709	0,126	0,014
-379,146	-200,000	-0,026	0,115
-378,131	-185,680	-0,108	-0,001
-377,117	-40,818	0,049	0,018
-376,102	-71,644	-0,141	-0,038
-375,088	254,217	0,029	-0,036
-374,073	231,584	0,011	-0,013
-373,058	191,654	0,172	0,186
-372,044	-200,000	0,024	0,186
-371,029	404,542	-0,024	0,036
-370,015	217,156	0,073	0,083
-369,000	40,171	0,021	-0,014
-367,985	123,581	-0,095	0,085
-366,971	-114,995	-0,068	-0,009
-365,956	800,000	0,071	-0,162
-364,942	-28,057	-0,093	-0,039
-363,927	-200,000	0,016	0,083
-362,912	-200,000	0,002	0,008
-361,898	800,000	-0,021	-0,062
-360,883	136,706	-0,017	0,016
-359,869	-61,279	0,092	0,028
-358,854	492,234	0,075	0,123
-357,839	29,737	0,152	0,093
-356,825	-35,692	-0,053	-0,021
-355,810	237,662	-0,057	0,068
-354,796	-159,191	0,121	0,005
-353,781	-116,125	-0,150	-0,020
-352,766	-127,104	0,020	-0,002
-351,752	390,806	0,054	-0,080
-350,737	3,466	0,090	-0,047
-349,723	304,976	0,034	0,046
-348,708	-20,314	-0,102	0,045
-347,693	-151,928	-0,068	0,004
-346,679	469,585	-0,069	0,112
-345,664	800,000	0,028	0,079
-344,650	429,021	-0,078	0,121
-343,635	-200,000	0,008	0,083
-342,620	58,279	0,045	0,031
-341,606	658,463	0,046	0,085
-340,591	800,000	-0,029	0,059
-339,577	208,927	0,065	-0,073
-338,562	10,862	-0,072	-0,039
-337,548	91,258	-0,099	-0,080
-336,533	201,741	0,079	0,087
-335,518	-200,000	0,013	-0,088
-334,504	487,625	-0,061	0,100
-333,489	-200,000	0,033	-0,118
-332,475	570,093	-0,087	-0,153
-331,460	800,000	0,050	-0,120
-330,445	-156,306	0,114	-0,005
-329,431	-200,000	-0,016	0,155
-328,416	72,894	0,068	0,051
-327,402	160,772	-0,068	0,068
-326,387	-200,000	-0,016	0,070
-325,372	-73,967	0,031	0,008
-324,358	800,000	0,062	0,131
-323,343	800,000	0,046	-0,103
-322,329	-76,302	0,025	-0,006
-321,314	613,458	-0,066	0,118
-320,299	-200,000	0,015	-0,115
-319,285	148,103	0,053	-0,051
-318,270	800,000	0,072	-0,218
-317,256	502,785	-0,073	-0,121
-316,241	800,000	0,027	-0,053
-315,226	-200,000	-0,002	0,053
-314,212	94,599	-0,048	0,039
-313,197	800,000	0,016	0,038
-312,183	-97,402	0,072	0,013
-311,168	800,000	0,030	0,073
-310,153	642,777	-0,085	-0,155
-309,139	683,654	0,041	-0,077
-308,124	36,220	0,059	0,037
-307,110	281,502	0,068	0,087
-306,095	220,716	0,131	0,151
-305,080	135,467	0,111	-0,103
-304,066	147,517	0,057	-0,055
-303,051	-155,095	0,083	-0,004
-302,037	-200,000	-0,004	0,072
-301,022	800,000	0,039	0,111
-300,008	46,875	0,001	-0,001
-298,993	551,972	0,063	0,109
-297,978	-200,000	-0,041	-0,166
-296,964	800,000	-0,037	-0,103
-295,949	-200,000	0,041	-0,149
-294,935	800,000	-0,063	-0,189
-293,920	-53,309	-0,052	-0,017
-292,905	800,000	-0,044	-0,135
-291,891	128,579	0,063	0,058
-290,876	-200,000	0,011	0,097
-289,862	800,000	-0,010	0,020
-288,847	-175,988	-0,049	0,001
-287,832	-123,974	0,049	-0,005
-286,818	511,915	-0,025	-0,042
-285,803	158,482	-0,113	-0,112
-284,789	578,842	0,027	-0,048
-283,774	140,618	0,042	-0,040
-282,759	800,000	0,019	-0,056
-281,745	101,648	0,048	0,040
-280,730	800,000	-0,021	-0,047
-279,716	-200,000	0,042	0,139
-278,701	465,878	0,020	0,033
-277,686	289,590	-0,048	0,062
-276,672	-200,000	0,015	0,078
-275,657	-55,378	-0,055	0,018
-274,643	211,820	-0,074	0,084
-273,628	800,000	0,025	0,062
-272,613	109,127	0,102	-0,087
-271,599	181,720	0,082	-0,086
-270,584	154,499	-0,062	-0,061
-269,570	184,806	-0,017	-0,018
-268,555	28,824	-0,045	-0,027
-267,540	-129,482	-0,063	-0,006
-266,526	-123,907	-0,080	-0,009
-265,511	17,579	-0,012	0,007
-264,497	800,000	0,044	0,131
-263,482	21,366	0,077	0,045
-262,467	-200,000	-0,003	0,026
-261,453	-200,000	-0,006	-0,032
-260,438	800,000	0,006	0,013
-259,424	-200,000	-0,016	0,099
-258,409	-200,000	0,009	-0,051
-257,395	193,925	0,053	0,058
-256,380	164,978	-0,054	0,055
-255,365	183,868	-0,067	0,071
-254,351	-75,069	0,103	-0,026
-253,336	97,588	0,089	0,073
-252,322	-68,009	0,068	-0,019
-251,307	98,774	-0,056	0,046
-250,292	-28,355	-0,066	0,027
-249,278	422,091	0,017	0,025
-248,263	-63,072	0,073	0,022
-247,249	-200,000	-0,003	-0,011
-246,234	-200,000	-0,004	-0,039
-245,219	86,597	-0,030	0,023
-244,205	-200,000	-0,015	-0,047
-243,190	-83,832	0,052	0,012
-242,176	-32,722	0,119	0,047
-241,161	800,000	-0,007	0,013
-240,146	27,497	-0,114	0,069
-239,132	171,834	-0,065	0,067
-238,117	111,029	-0,068	0,058
-237,103	800,000	-0,036	-0,089
-236,088	-200,000	-0,007	-0,040
-235,073	73,154	0,076	0,057
-234,059	-176,348	0,116	-0,002
-233,044	-200,000	-0,002	-0,089
-232,030	-200,000	0,027	-0,086
-231,015	424,409	0,034	-0,053
-230,000	279,152	-0,040	-0,051
-228,986	-200,000	0,014	0,066
-227,971	67,217	0,070	0,051
-226,957	-200,000	-0,005	-0,063
-225,942	-200,000	0,014	0,065
-224,927	73,175	0,085	-0,063
-223,913	44,817	-0,015	0,010
-222,898	800,000	0,073	0,149
-221,884	-200,000	-0,011	0,084
-220,869	144,235	-0,040	-0,038
-219,855	31,024	-0,067	0,041
-218,840	-200,000	0,002	-0,022
-217,825	-119,345	0,048	-0,006
-216,811	-153,083	-0,104	-0,005
-215,796	97,825	-0,044	0,036
-214,782	-200,000	-0,023	-0,086
-213,767	-200,000	0,023	0,209
-212,752	228,334	0,079	0,091
-211,738	-200,000	-0,002	0,063
-210,723	800,000	0,033	0,084
-209,709	287,219	0,090	0,116
-208,694	-68,091	-0,129	0,036
-207,679	-79,586	-0,052	-0,012
-206,665	-200,000	-0,016	-0,135
-205,650	-121,470	-0,033	0,004
-204,636	-200,000	-0,017	0,192
-203,621	28,534	0,182	0,109
-202,606	-107,839	-0,134	-0,021
-201,592	316,628	0,046	-0,063
-200,577	193,676	0,082	-0,089
-199,563	180,315	-0,023	0,024
-198,548	9,900	0,028	-0,015
-197,533	54,617	0,082	0,056
-196,519	-200,000	0,032	0,127
-195,504	-174,769	-0,085	-0,002
-194,490	-200,000	0,002	0,061
-193,475	-33,245	-0,013	-0,005
-192,460	-109,664	0,198	-0,029
-191,446	2,808	-0,033	-0,017
-190,431	-84,483	0,072	0,016
-189,417	-200,000	-0,014	-0,104
-188,402	-22,365	0,037	-0,016
-187,387	416,538	-0,078	-0,119
-186,373	401,200	0,040	0,060
-185,358	-200,000	-0,019	-0,137
-184,344	714,159	-0,033	-0,063
-183,329	-57,069	0,016	0,005
-182,315	214,528	0,037	-0,042
-181,300	-80,558	0,115	-0,027
-180,285	367,986	-0,063	-0,091
-179,271	-200,000	0,012	0,111
-178,256	328,935	0,054	-0,075
-177,242	-111,465	0,101	-0,015
-176,227	143,025	0,065	-0,062
-175,212	14,393	0,133	-0,074
-174,198	-71,400	0,048	-0,013
-173,183	800,000	-0,057	-0,126
-172,169	-63,291	-0,122	0,036
-171,154	3,274	-0,027	0,014
-170,139	-166,270	-0,126	0,004
-169,125	-200,000	-0,007	0,080
-168,110	800,000	0,068	0,146
-167,096	242,854	-0,079	0,094
-166,081	299,272	-0,039	0,051
-165,066	-122,949	-0,053	0,006
-164,052	-34,835	0,060	0,023
-163,037	11,730	-0,117	0,064
-162,023	-89,965	0,121	0,025
-161,008	-200,000	-0,016	0,062
-159,993	161,008	0,034	-0,034
-158,979	-200,000	-0,023	0,088
-157,964	-32,772	-0,119	-0,047
-156,950	-200,000	-0,022	-0,123
-155,935	390,179	0,096	-0,142
-154,920	-200,000	-0,011	0,067
-153,906	800,000	0,076	0,157
-152,891	44,865	-0,073	0,048
-151,877	190,140	-0,090	0,096
-150,862	-200,000	-0,105	0,000
-149,847	-200,000	-0,005	0,060
-148,833	239,341	0,066	-0,078
-147,818	315,190	0,024	-0,033
-146,804	-200,000	0,020	-0,075
-145,789	33,763	0,170	-0,105
-144,775	244,566	-0,043	-0,051
-143,760	800,000	-0,047	-0,103
-142,745	-200,000	0,001	-0,074
-141,731	105,107	0,080	0,068
-140,716	-84,671	-0,027	0,006
-139,702	-66,507	0,046	-0,013
-138,687	61,164	-0,073	-0,051
-137,672	-96,304	0,119	0,022
-136,658	-76,989	-0,145	0,036
-135,643	800,000	0,036	0,109
-134,629	267,501	0,042	0,052
-133,614	2,017	0,060	-0,031
-132,599	-200,000	0,011	0,052
-131,585	-77,171	-0,109	0,027
-130,570	-200,000	0,012	-0,091
-129,556	-200,000	0,000	-0,075
-128,541	800,000	0,020	-0,044
-127,526	69,044	-0,021	0,015
-126,512	-38,977	0,118	0,044
-125,497	-60,379	0,016	0,005
-124,483	60,764	0,080	-0,056
-123,468	800,000	-0,024	-0,049
-122,453	110,856	-0,087	-0,075
-121,439	471,887	-0,086	-0,138
-120,424	453,253	0,077	-0,122
-119,410	352,529	-0,049	0,070
-118,395	-3,451	0,083	0,041
-117,380	-111,778	0,076	-0,011
-116,366	93,558	-0,093	0,075
-115,351	98,560	-0,119	0,098
-114,337	-60,224	-0,091	0,027
-113,322	34,595	0,010	0,006
-112,307	-200,000	0,015	0,053
-111,293	-65,473	0,129	-0,037
-110,278	294,028	-0,071	-0,092
-109,264	-40,660	0,153	-0,056
-108,249	86,216	-0,065	0,051
-107,234	-78,517	-0,108	-0,026
-106,220	536,936	-0,066	0,111
-105,205	-30,767	-0,042	-0,017
-104,191	-20,424	0,034	0,015
-103,176	726,499	-0,027	0,051
-102,162	-192,644	0,093	0,001
-101,147	10,857	0,045	-0,024
-100,132	-184,585	-0,102	-0,001
-99,118	-51,852	-0,030	0,010
-98,103	87,467	-0,143	-0,112
-97,089	25,739	0,046	-0,027
-96,074	290,561	-0,076	-0,099
-95,059	-117,977	-0,120	-0,015
-94,045	-93,272	-0,051	-0,010
-93,030	559,993	0,092	-0,158
-92,016	-200,000	0,023	-0,158
-91,001	800,000	-0,047	-0,120
-89,986	428,705	-0,013	0,020
-88,972	209,402	0,056	0,063
-87,957	-154,266	0,019	0,001
-86,943	800,000	-0,056	-0,140
-85,928	-200,000	-0,006	-0,058
-84,913	483,789	0,059	-0,096
-83,899	-16,825	0,155	0,069
-82,884	-46,656	0,152	0,053
-81,870	-200,000	0,000	0,112
-80,855	-99,532	0,076	-0,013
-79,840	800,000	-0,050	0,117
-78,826	352,788	0,095	-0,134
-77,811	715,801	0,016	-0,031
-76,797	800,000	0,009	0,020
-75,782	67,064	-0,123	0,089
-74,767	243,003	0,047	0,055
-73,753	483,197	-0,025	0,041
-72,738	247,626	0,035	-0,042
-71,724	745,738	0,017	-0,032
-70,709	800,000	-0,026	-0,070
-69,694	33,351	0,161	-0,099
-68,680	-114,250	-0,082	-0,011
-67,665	61,151	0,037	0,026
-66,651	-67,458	0,040	-0,011
-65,636	-200,000	-0,017	0,064
-64,622	-200,000	0,006	-0,106
-63,607	112,210	-0,046	-0,040
-62,592	333,510	0,068	-0,094
-61,578	800,000	-0,016	0,045
-60,563	800,000	-0,038	0,096
-59,549	-200,000	-0,011	-0,091
-58,534	9,624	-1,962	-1,051
-57,519	800,000	-0,522	-1,228
-56,505	-200,000	-0,944	-4,786
-55,490	132,032	0,958	0,875
-54,476	800,000	5,133	11,905
-53,461	-200,000	20,274	329,217
-52,446	800,000	754,213	2324,108
-51,432	549,583	1661,938	2836,088
-50,417	74,019	1669,365	1240,733
-49,403	19,365	1543,352	876,795
-48,388	13,381	1466,544	803,954
-47,373	18,239	1456,849	822,146
-46,359	15,815	1446,550	804,654
-45,344	11,635	1442,499	782,281
-44,330	11,620	1440,356	781,014
-43,315	11,576	1438,511	779,771
-42,300	11,626	1436,756	779,028
-41,286	11,548	1435,451	777,915
-40,271	11,573	1434,194	777,326
-39,257	11,567	1432,981	776,605
-38,242	11,570	1431,756	775,925
-37,227	11,610	1430,579	775,450
-36,213	11,575	1429,393	774,610
-35,198	11,588	1428,244	774,018
-34,184	11,625	1427,130	773,558
-33,169	11,567	1425,906	772,588
-32,154	11,627	1424,697	772,187
-31,140	11,584	1423,668	771,397
-30,125	11,669	1422,574	771,178
-29,111	11,647	1421,204	770,298
-28,096	11,624	1419,965	769,488
-27,082	11,559	1419,091	768,673
-26,067	11,533	1418,029	767,948
-25,052	11,535	1416,886	767,306
-24,038	11,561	1415,868	766,848
-23,023	11,556	1414,942	766,291
-22,009	11,587	1413,659	765,711
-20,994	11,532	1412,793	764,955
-19,979	11,515	1412,084	764,460
-18,965	11,507	1411,122	763,871
-17,950	11,512	1410,166	763,348
-16,936	11,511	1409,396	762,894
-15,921	11,465	1408,274	762,041
-14,906	11,479	1407,353	761,579
-13,892	11,483	1406,420	761,061
-12,877	11,488	1405,431	760,519
-11,863	11,445	1404,772	759,930
-10,848	11,427	1403,881	759,337
-9,833	11,383	1402,883	758,562
-8,819	11,372	1401,986	757,995
-7,804	11,399	1400,950	757,529
-6,790	11,423	1400,081	757,141
-5,775	11,364	1399,163	756,338
-4,760	11,382	1398,179	755,863
-3,746	11,371	1397,308	755,310
-2,731	11,388	1396,377	754,857
-1,717	11,347	1395,578	754,202
-0,702	11,315	1393,830	753,081
0,313	15,498	1307,759	725,871
1,327	32,043	696,988	424,849
2,342	49,313	120,989	80,493
3,356	3,044	16,447	8,442
4,371	4,565	3,424	1,775
5,386	-51,117	0,787	0,260
6,400	-200,000	0,097	0,314
7,415	-32,253	-0,229	-0,090
8,429	226,256	-0,263	-0,303
9,444	-12,411	-0,319	-0,147
10,459	165,829	-0,299	-0,300
11,473	139,224	-0,326	-0,304
12,488	43,287	-0,313	-0,202
13,502	55,814	-0,275	-0,189
14,517	260,010	-0,246	-0,302
15,531	116,783	-0,293	-0,254
16,546	-75,648	-0,425	-0,106
17,561	61,877	-0,289	-0,204
18,575	27,657	-0,298	-0,177
19,590	222,010	-0,196	-0,223
20,604	157,666	-0,178	-0,175
21,619	260,270	-0,361	-0,442
22,634	84,733	-0,437	-0,338
23,648	10,879	-0,428	-0,231
24,663	36,722	-0,343	-0,214
25,677	245,340	-0,346	-0,412
26,692	148,962	-0,359	-0,343
27,707	199,437	-0,294	-0,320
28,721	-59,289	-0,386	-0,117
29,736	91,437	-0,411	-0,327
30,750	46,264	-0,265	-0,173
31,765	65,790	-0,428	-0,306
32,780	177,450	-0,369	-0,381
33,794	291,715	-0,242	-0,312
34,809	20,968	-0,318	-0,182
35,823	40,123	-0,379	-0,241
36,838	252,602	-0,407	-0,491
37,853	246,895	-0,339	-0,405
38,867	88,153	-0,361	-0,283
39,882	103,001	-0,401	-0,332
40,896	800,000	-0,139	-0,361
41,911	-44,767	-0,488	-0,171
42,926	43,798	-0,342	-0,221
43,940	182,299	-0,385	-0,401
44,955	84,832	-0,356	-0,275
45,969	-5,351	-0,485	-0,234
46,984	-21,679	-0,270	-0,116
47,999	-34,876	-0,319	-0,122
49,013	-32,164	-0,342	-0,134
50,028	206,401	-0,171	-0,188
51,042	22,565	-0,364	-0,209
52,057	178,669	-0,310	-0,320
53,071	21,466	-0,370	-0,212
54,086	274,646	-0,246	-0,307
55,101	8,192	-0,409	-0,216
56,115	186,147	-0,318	-0,334
57,130	-6,077	-0,347	-0,167
58,144	44,986	-0,331	-0,215
59,159	42,369	-0,368	-0,236
60,174	46,985	-0,353	-0,231
61,188	69,101	-0,436	-0,316
62,203	63,959	-0,301	-0,213
63,217	37,220	-0,280	-0,175
64,232	210,797	-0,221	-0,246
65,247	-17,716	-0,317	-0,140
66,261	-35,338	-0,335	-0,128
67,276	83,352	-0,289	-0,222
68,290	187,297	-0,229	-0,240
69,305	21,384	-0,288	-0,165
70,320	-16,082	-0,371	-0,166
71,334	179,185	-0,220	-0,227
72,349	-0,604	-0,460	-0,229
73,363	29,665	-0,389	-0,233
74,378	-21,661	-0,365	-0,156
75,393	32,432	-0,329	-0,200
76,407	67,522	-0,332	-0,238
77,422	-37,410	-0,344	-0,128
78,436	154,843	-0,225	-0,218
79,451	41,881	-0,193	-0,123
80,466	-26,679	-0,351	-0,144
81,480	35,038	-0,310	-0,191
82,495	110,109	-0,345	-0,291
83,509	160,032	-0,207	-0,203
84,524	59,807	-0,257	-0,178
85,539	93,669	-0,188	-0,149
86,553	-47,736	-0,223	-0,076
87,568	-59,532	-0,270	-0,081
88,582	-6,402	-0,410	-0,196
89,597	129,788	-0,269	-0,242
90,611	148,052	-0,319	-0,302
91,626	92,691	-0,348	-0,276
92,641	32,434	-0,240	-0,145
93,655	-55,265	-0,383	-0,120
94,670	-19,545	-0,321	-0,139
95,684	67,242	-0,209	-0,149
96,699	320,949	-0,246	-0,329
97,714	140,929	-0,255	-0,237
98,728	54,376	-0,326	-0,220
99,743	157,659	-0,275	-0,268
100,757	14,411	-0,344	-0,188
101,772	-27,164	-0,352	-0,143
102,787	58,279	-0,355	-0,244
103,801	204,155	-0,241	-0,262
104,816	-70,473	-0,205	0,054
105,830	-159,664	-0,274	-0,010
106,845	90,411	-0,209	-0,164
107,860	17,959	-0,275	-0,153
108,874	33,944	-0,301	-0,184
109,889	-39,233	-0,173	-0,063
110,903	158,690	-0,296	-0,288
111,918	-45,052	-0,357	-0,124
112,933	1,377	-0,309	-0,155
113,947	33,117	-0,186	-0,113
114,962	275,041	-0,200	-0,249
115,976	143,650	-0,303	-0,283
116,991	107,972	-0,349	-0,292
118,006	372,297	-0,251	-0,359
119,020	120,589	-0,216	-0,188
120,035	21,622	-0,308	-0,175
121,049	31,540	-0,220	-0,133
122,064	111,646	-0,211	-0,179
123,079	32,818	-0,320	-0,194
124,093	137,059	-0,203	-0,186
125,108	25,455	-0,385	-0,224
126,122	26,393	-0,320	-0,187
127,137	-1,627	-0,222	-0,109
128,151	235,655	-0,183	-0,212
129,166	25,422	-0,244	-0,142
130,181	-95,216	-0,308	-0,058
131,195	62,997	-0,264	-0,185
132,210	69,442	-0,362	-0,261
133,224	-44,045	-0,302	-0,106
134,239	462,510	-0,197	-0,310
135,254	40,987	-0,250	-0,158
136,268	-95,256	-0,349	-0,065
137,283	134,300	-0,190	-0,173
138,297	235,593	-0,150	-0,173
139,312	414,514	-0,228	-0,341
140,327	-23,553	-0,198	-0,083
141,341	118,846	-0,268	-0,231
142,356	172,345	-0,166	-0,167
143,370	70,966	-0,239	-0,173
144,385	-12,319	-0,387	-0,176
145,400	95,248	-0,248	-0,198
146,414	297,543	-0,317	-0,408
147,429	-15,856	-0,365	-0,162
148,443	66,267	-0,326	-0,231
149,458	17,888	-0,169	-0,094
150,473	800,000	-0,147	-0,289
151,487	30,651	-0,261	-0,156
152,502	-30,393	-0,236	-0,093
153,516	379,621	-0,165	-0,238
154,531	644,306	-0,184	-0,329
155,546	66,526	-0,281	-0,200
156,560	120,958	-0,172	-0,149
157,575	-126,759	-0,135	-0,014
158,589	356,787	-0,202	-0,282
159,604	19,502	-0,235	-0,132
160,619	164,159	-0,193	-0,191
161,633	196,007	-0,304	-0,324
162,648	211,279	-0,180	-0,198
163,662	537,642	-0,161	-0,269
164,677	464,990	-0,113	-0,177
165,692	-61,500	-0,168	-0,049
166,706	70,460	-0,295	-0,213
167,721	102,688	-0,275	-0,224
168,735	247,626	-0,250	-0,295
169,750	60,313	-0,246	-0,170
170,764	142,571	-0,233	-0,216
171,779	53,624	-0,227	-0,152
172,794	-31,593	-0,266	-0,104
173,808	199,567	-0,260	-0,278
174,823	19,151	-0,184	-0,103
175,837	30,806	-0,149	-0,089
176,852	800,000	-0,130	-0,272
177,867	52,892	-0,260	-0,173
178,881	486,097	-0,191	-0,305
179,896	26,313	-0,142	-0,083
180,910	76,754	-0,265	-0,196
181,925	495,825	-0,156	-0,251
182,940	515,179	-0,164	-0,269
183,954	147,040	-0,211	-0,198
184,969	60,988	-0,175	-0,121
185,983	52,719	-0,229	-0,152
186,998	-47,791	-0,236	-0,079
188,013	60,483	-0,173	-0,119
189,027	230,164	-0,158	-0,180
190,042	70,670	-0,328	-0,236
191,056	602,583	-0,147	-0,256
192,071	127,391	-0,150	-0,132
193,086	260,822	-0,259	-0,313
194,100	-71,127	-0,205	-0,053
195,115	-6,113	-0,207	-0,098
196,129	221,917	-0,208	-0,234
197,144	401,907	-0,198	-0,291
198,159	180,967	-0,144	-0,148
199,173	432,421	-0,116	-0,175
200,188	373,077	-0,138	-0,196
201,202	-37,170	-0,226	-0,084
202,217	129,300	-0,202	-0,180
203,232	-0,913	-0,292	-0,143
204,246	16,415	-0,256	-0,141
205,261	41,121	-0,318	-0,199
206,275	249,823	-0,162	-0,192
207,290	-148,544	-0,192	-0,011
208,304	459,773	-0,148	-0,230
209,319	16,523	-0,190	-0,104
210,334	3,246	-0,213	-0,108
211,348	204,807	-0,149	-0,161
212,363	-6,208	-0,178	-0,084
213,377	342,061	-0,102	-0,139
214,392	-136,944	-0,203	-0,016
215,407	-19,637	-0,170	-0,073
216,421	431,463	-0,135	-0,204
217,436	214,196	-0,151	-0,166
218,450	25,509	-0,223	-0,128
219,465	123,179	-0,225	-0,196
220,480	-57,878	-0,185	-0,056
221,494	-200,000	-0,026	-0,133
222,509	71,534	-0,289	-0,208
223,523	111,615	-0,107	-0,089
224,538	588,003	-0,113	-0,194
225,553	432,171	-0,128	-0,193
226,567	-2,618	-0,196	-0,095
227,582	192,630	-0,234	-0,246
228,596	800,000	-0,050	-0,105
229,611	97,860	-0,197	-0,157
230,626	117,429	-0,164	-0,140
231,640	235,867	-0,144	-0,166
232,655	-33,756	-0,344	-0,131
233,669	-15,379	-0,178	-0,078
234,684	61,512	-0,101	-0,070
235,699	-26,485	-0,052	0,021
236,713	31,618	-0,220	-0,131
237,728	219,332	-0,117	-0,130
238,742	31,294	-0,272	-0,162
239,757	-3,848	-0,170	-0,082
240,772	262,901	-0,195	-0,235
241,786	208,576	-0,175	-0,190
242,801	800,000	-0,080	-0,218
243,815	-185,918	-0,144	0,001
244,830	254,421	-0,221	-0,263
245,844	577,831	-0,138	-0,235
246,859	98,723	-0,231	-0,185
247,874	525,247	-0,148	-0,243
248,888	57,733	-0,257	-0,174
249,903	624,339	-0,085	-0,149
250,917	-52,963	-0,281	-0,089
251,932	434,342	-0,115	-0,174
252,947	267,406	-0,079	-0,096
253,961	205,672	-0,153	-0,165
254,976	29,349	-0,175	-0,103
255,990	-47,744	-0,366	-0,122
257,005	40,552	-0,153	-0,095
258,020	238,767	-0,059	-0,069
259,034	0,583	-0,060	0,029
260,049	251,384	-0,191	-0,226
261,063	-149,700	-0,176	-0,009
262,078	41,055	-0,167	-0,104
263,093	141,375	-0,175	-0,160
264,107	-164,203	-0,153	0,005
265,122	-200,000	-0,017	-0,139
266,136	-38,607	-0,182	-0,066
267,151	-70,646	-0,296	-0,077
268,166	485,200	-0,126	-0,199
269,180	48,220	-0,266	-0,172
270,195	24,437	-0,187	-0,107
271,209	-54,799	-0,127	-0,039
272,224	800,000	-0,041	-0,087
273,239	250,881	-0,111	-0,131
274,253	-200,000	-0,037	-0,142
275,268	651,777	-0,077	-0,138
276,282	152,050	-0,182	-0,172
277,297	-165,418	-0,253	0,008
278,312	428,030	-0,154	-0,231
279,326	800,000	-0,063	-0,180
280,341	-57,450	-0,210	-0,063
281,355	-56,200	-0,116	0,036
282,370	-31,770	-0,260	-0,101
283,384	-14,103	-0,181	-0,080
284,399	628,723	-0,112	-0,196
285,414	-32,683	-0,248	-0,095
286,428	92,786	-0,121	-0,094
287,443	-200,000	-0,002	-0,165
288,457	800,000	-0,073	-0,155
289,472	-102,844	-0,174	-0,028
290,487	36,043	-0,171	-0,104
291,501	-200,000	-0,016	-0,170
292,516	800,000	-0,101	-0,266
293,530	242,800	-0,157	-0,182
294,545	28,495	-0,191	-0,111
295,560	-96,089	-0,236	0,043
296,574	-200,000	-0,034	-0,159
297,589	58,719	-0,157	-0,106
298,603	294,965	-0,181	-0,229
299,618	18,852	-0,141	-0,078
300,633	800,000	-0,078	-0,165
301,647	487,385	-0,053	-0,084
302,662	76,539	-0,129	-0,094
303,676	-129,510	-0,140	-0,013
304,691	39,217	-0,254	-0,157
305,706	-45,708	-0,193	-0,066
306,720	-5,636	-0,140	-0,066
307,735	188,797	-0,206	-0,213
308,749	13,980	-0,060	-0,032
309,764	422,033	-0,051	-0,076
310,779	-45,707	-0,117	-0,040
311,793	78,129	-0,191	-0,140
312,808	-109,123	-0,222	-0,032
313,822	41,938	-0,159	-0,099
314,837	265,227	-0,161	-0,193
315,852	-158,793	-0,105	0,004
316,866	274,749	-0,056	-0,068
317,881	-200,000	-0,032	-0,130
318,895	800,000	-0,035	-0,071
319,910	14,515	-0,280	-0,150
320,925	124,049	-0,124	-0,107
321,939	-85,535	-0,124	-0,026
322,954	279,801	-0,051	-0,063
323,968	-82,595	-0,103	-0,023
324,983	-177,968	-0,157	0,003
325,997	800,000	-0,035	-0,104
327,012	-87,452	-0,213	-0,044
328,027	-51,082	-0,200	-0,064
329,041	800,000	-0,062	-0,142
330,056	-200,000	-0,014	-0,089
331,070	32,303	-0,078	-0,047
332,085	132,473	-0,072	0,064
333,100	34,132	-0,068	-0,041
334,114	445,128	-0,038	-0,058
335,129	192,071	-0,155	-0,161
336,143	212,694	-0,222	-0,241
337,158	249,257	-0,099	-0,115
338,173	-200,000	-0,003	-0,122
339,187	-78,689	-0,162	-0,038
340,202	371,165	-0,114	-0,160
341,216	84,427	-0,121	-0,091
342,231	593,565	-0,146	-0,249
343,246	83,770	-0,139	-0,104
344,260	108,707	-0,064	-0,053
345,275	-102,217	-0,151	-0,025
346,289	211,672	-0,175	-0,189
347,304	-72,395	-0,157	-0,040
348,319	493,295	-0,110	-0,173
349,333	-92,700	-0,167	0,032
350,348	-24,386	-0,059	-0,024
351,362	-200,000	-0,031	-0,121
352,377	-27,066	-0,083	-0,033
353,392	-193,583	-0,120	0,001
354,406	-50,177	-0,149	0,048
355,421	207,242	1314,768	1410,585
356,435	159,410	1475,238	1410,816
