DTS Sentinel unit serial number:	SN410029Multiplexer serial number:	ORYXHardware model number:	OX2-SRSoftware version number:	ORYX F/W v4,00 Oryx Data Collector v3.7.2.0data status	okinstallation	B3 Nyhavnadifferential loss correction	single-endedforward channel	channel 1reverse channel	N/Adate	2023/12/01time	14:17:30forward acquisition time	300,00reverse acquisition time	0,00gamma	499,1914k internal	0,3213k external	0,3213temperature offset calibration	1,0000default loss term (dB/km)	0,3820temperature slope calibration	1,0000multiplexer offset coefficient	1,0000multiplexer slope coefficient	1,0000fibre end	0,00T internal ref (°C)	10,50T ext. ref 1 (°C)	-2,84T ext. ref 2 (°C)	-2,90length (m)	temperature (°C)	Stokes	anti-Stokes-744,400	79,256	-0,147	-0,114
-743,385	-200,000	-0,073	0,365
-742,371	315,969	-0,159	-0,218
-741,356	-200,000	0,033	0,292
-740,342	69,020	-0,159	-0,118
-739,327	-200,000	0,007	0,333
-738,312	143,443	-0,329	-0,317
-737,298	230,046	-0,113	0,134
-736,283	362,248	-0,222	-0,323
-735,269	-200,000	0,003	0,304
-734,254	-200,000	-0,058	-0,317
-733,239	-101,088	-0,255	0,045
-732,225	192,005	-0,137	-0,150
-731,210	-67,013	-0,068	0,019
-730,196	800,000	0,002	0,004
-729,181	-184,413	-0,101	0,001
-728,167	-200,000	-0,005	0,094
-727,152	130,480	0,076	-0,070
-726,137	-200,000	0,019	-0,085
-725,123	-200,000	-0,025	-0,085
-724,108	-200,000	0,035	0,118
-723,094	478,450	0,034	-0,055
-722,079	-200,000	0,035	-0,190
-721,064	368,585	-0,053	-0,078
-720,050	-103,930	0,080	0,013
-719,035	222,094	0,043	0,051
-718,021	-200,000	-0,007	0,049
-717,006	10,642	-0,119	-0,066
-715,991	786,508	-0,042	-0,085
-714,977	311,695	-0,068	-0,092
-713,962	535,805	-0,011	-0,019
-712,948	6,051	0,061	0,032
-711,933	-168,455	0,061	0,002
-710,918	-58,848	-0,102	0,032
-709,904	222,799	-0,088	0,102
-708,889	-99,824	-0,097	-0,017
-707,875	-200,000	-0,044	-0,158
-706,860	-200,000	0,038	-0,138
-705,845	-200,000	-0,003	-0,042
-704,831	-25,653	0,089	-0,038
-703,816	49,277	-0,016	0,011
-702,802	-200,000	0,004	-0,062
-701,787	384,261	0,023	0,035
-700,772	161,909	-0,082	0,083
-699,758	-139,896	0,044	-0,003
-698,743	-90,426	-0,067	0,014
-697,729	96,543	0,050	0,042
-696,714	125,309	-0,111	0,102
-695,699	79,792	0,024	0,019
-694,685	-46,206	-0,016	0,006
-693,670	-7,904	-0,172	-0,084
-692,656	-200,000	-0,020	-0,152
-691,641	184,114	0,033	-0,035
-690,627	-23,390	0,071	-0,031
-689,612	232,062	-0,107	0,127
-688,597	432,124	0,011	0,017
-687,583	136,877	-0,035	0,033
-686,568	6,804	-0,068	-0,037
-685,554	800,000	0,081	-0,179
-684,539	800,000	-0,046	0,142
-683,524	16,373	0,099	0,056
-682,510	-200,000	0,024	0,158
-681,495	800,000	-0,041	-0,093
-680,481	45,871	-0,169	-0,113
-679,466	800,000	-0,095	-0,196
-678,451	522,715	-0,038	-0,065
-677,437	-200,000	-0,006	0,086
-676,422	767,418	-0,020	0,040
-675,408	137,590	-0,078	-0,074
-674,393	-200,000	-0,004	-0,112
-673,378	196,678	-0,088	0,097
-672,364	800,000	-0,031	-0,074
-671,349	800,000	-0,019	0,043
-670,335	-200,000	0,006	0,067
-669,320	56,758	0,036	0,025
-668,305	800,000	-0,051	0,146
-667,291	800,000	0,034	-0,073
-666,276	-200,000	-0,033	-0,112
-665,262	229,755	-0,106	-0,125
-664,247	141,647	0,049	-0,047
-663,232	-200,000	0,011	-0,111
-662,218	764,482	0,055	0,108
-661,203	-200,000	-0,031	0,161
-660,189	-59,854	-0,126	0,039
-659,174	-20,981	-0,073	-0,032
-658,159	800,000	-0,053	0,164
-657,145	33,917	-0,097	0,061
-656,130	168,817	-0,045	0,046
-655,116	720,243	0,021	0,041
-654,101	-143,679	-0,056	0,004
-653,086	-92,579	-0,120	-0,024
-652,072	72,594	0,044	0,033
-651,057	800,000	-0,065	-0,136
-650,043	405,579	0,012	-0,019
-649,028	269,649	-0,024	0,030
-648,014	-27,156	0,107	-0,045
-646,999	-200,000	0,004	0,060
-645,984	-200,000	0,004	0,032
-644,970	53,030	-0,150	-0,104
-643,955	800,000	-0,039	-0,104
-642,941	161,882	0,044	0,045
-641,926	29,934	-0,050	0,031
-640,911	102,890	-0,062	-0,052
-639,897	-134,069	-0,067	0,006
-638,882	680,346	0,051	0,096
-637,868	257,733	0,103	0,128
-636,853	740,838	-0,020	-0,040
-635,838	-200,000	0,015	0,089
-634,824	-200,000	0,009	-0,181
-633,809	-200,000	0,004	-0,032
-632,795	-141,722	-0,081	0,006
-631,780	-200,000	-0,030	0,125
-630,765	59,599	-0,051	0,036
-629,751	127,271	-0,064	0,059
-628,736	-78,377	-0,065	-0,016
-627,722	-51,659	0,087	0,029
-626,707	800,000	0,018	0,041
-625,692	169,310	0,110	0,113
-624,678	-92,669	0,014	-0,003
-623,663	800,000	0,026	-0,080
-622,649	-197,877	-0,088	0,000
-621,634	-200,000	-0,013	-0,144
-620,619	110,043	0,049	-0,042
-619,605	-18,854	-0,061	-0,027
-618,590	126,292	0,066	0,060
-617,576	38,511	-0,064	-0,041
-616,561	30,581	-0,112	-0,069
-615,546	-200,000	-0,011	-0,037
-614,532	-79,993	-0,024	0,006
-613,517	-45,901	-0,032	0,011
-612,503	269,187	0,021	-0,027
-611,488	-200,000	0,041	-0,143
-610,474	-50,899	-0,111	-0,037
-609,459	66,574	0,016	-0,011
-608,444	552,806	0,026	-0,044
-607,430	800,000	-0,023	-0,072
-606,415	-19,232	0,076	0,034
-605,401	163,841	-0,139	0,141
-604,386	32,842	0,128	-0,080
-603,371	-200,000	-0,024	0,086
-602,357	461,708	0,031	-0,049
-601,342	102,774	0,009	-0,007
-600,328	-55,337	0,033	-0,011
-599,313	-7,142	-0,053	-0,026
-598,298	-170,635	-0,055	0,001
-597,284	195,493	0,022	0,025
-596,269	-200,000	0,018	0,188
-595,255	-200,000	-0,015	0,073
-594,240	-11,152	-0,069	0,033
-593,225	28,297	-0,020	-0,012
-592,211	419,557	-0,053	-0,083
-591,196	-44,888	-0,076	0,027
-590,182	208,557	-0,045	-0,051
-589,167	74,462	-0,018	0,014
-588,152	301,250	0,120	-0,160
-587,138	800,000	-0,030	-0,075
-586,123	-200,000	0,022	-0,134
-585,109	-139,242	0,067	0,005
-584,094	-200,000	0,024	0,092
-583,079	226,580	-0,044	0,051
-582,065	-200,000	0,022	0,084
-581,050	110,046	0,120	0,104
-580,036	-200,000	-0,020	0,139
-579,021	800,000	-0,030	-0,067
-578,006	95,192	-0,123	0,101
-576,992	240,944	0,020	0,024
-575,977	-200,000	0,016	0,075
-574,963	-200,000	0,006	-0,080
-573,948	800,000	0,058	-0,142
-572,934	269,932	-0,090	0,114
-571,919	-27,384	0,019	0,008
-570,904	28,361	-0,024	-0,014
-569,890	108,221	-0,062	0,053
-568,875	40,431	-0,165	-0,107
-567,861	-60,229	0,127	0,039
-566,846	203,309	0,081	0,091
-565,831	318,400	-0,064	-0,088
-564,817	17,080	-0,090	-0,051
-563,802	-200,000	0,004	-0,035
-562,788	0,462	-0,014	0,007
-561,773	125,504	0,097	0,088
-560,758	-23,115	0,111	0,048
-559,744	-33,083	-0,018	0,007
-558,729	-200,000	-0,022	0,144
-557,715	800,000	0,009	0,026
-556,700	4,303	-0,199	0,104
-555,685	248,251	-0,042	0,052
-554,671	90,166	0,054	-0,044
-553,656	-73,350	0,060	-0,016
-552,642	-200,000	-0,003	0,066
-551,627	271,086	0,029	0,037
-550,612	104,151	-0,011	0,009
-549,598	-200,000	-0,016	-0,089
-548,583	87,928	-0,092	0,073
-547,569	263,143	0,069	-0,086
-546,554	-200,000	0,034	0,146
-545,539	-200,000	0,036	0,207
-544,525	-73,693	-0,054	0,014
-543,510	800,000	-0,038	0,115
-542,496	308,264	0,075	0,101
-541,481	800,000	0,024	-0,073
-540,466	-93,144	0,073	0,014
-539,452	-69,124	0,070	0,019
-538,437	447,346	0,044	0,070
-537,423	101,861	-0,041	-0,034
-536,408	-200,000	-0,012	-0,201
-535,393	-200,000	0,002	-0,031
-534,379	-118,362	-0,080	-0,010
-533,364	185,336	0,071	-0,076
-532,350	-83,699	0,065	-0,015
-531,335	-116,533	-0,042	-0,005
-530,321	233,641	0,067	0,080
-529,306	18,934	-0,103	-0,059
-528,291	800,000	0,065	-0,186
-527,277	800,000	0,042	-0,133
-526,262	-157,771	-0,086	-0,004
-525,248	-180,158	-0,091	0,001
-524,233	800,000	0,030	0,083
-523,218	800,000	-0,040	0,100
-522,204	800,000	0,063	-0,139
-521,189	277,334	-0,031	-0,040
-520,175	218,887	-0,124	0,143
-519,160	-55,420	-0,117	-0,037
-518,145	112,348	0,090	0,078
-517,131	116,730	-0,046	0,041
-516,116	122,788	-0,100	0,089
-515,102	-200,000	0,000	-0,014
-514,087	-8,997	-0,108	-0,052
-513,072	-113,106	-0,109	0,015
-512,058	137,723	0,153	0,144
-511,043	29,945	-0,092	-0,056
-510,029	36,786	0,030	-0,019
-509,014	800,000	0,026	0,070
-507,999	-200,000	-0,002	0,038
-506,985	365,500	-0,073	-0,105
-505,970	-80,473	-0,126	-0,030
-504,956	-154,214	0,078	-0,004
-503,941	800,000	-0,035	-0,083
-502,926	-55,006	-0,055	0,018
-501,912	-27,829	-0,112	0,046
-500,897	232,013	0,086	-0,101
-499,883	539,168	-0,041	-0,070
-498,868	-200,000	-0,010	-0,064
-497,853	-200,000	-0,010	-0,094
-496,839	-111,474	0,116	-0,017
-495,824	519,461	0,046	0,077
-494,810	-5,380	0,132	0,065
-493,795	-200,000	-0,013	-0,088
-492,781	-163,946	0,071	-0,002
-491,766	341,193	-0,053	-0,075
-490,751	-116,673	-0,116	-0,015
-489,737	-74,694	-0,035	0,009
-488,722	-79,128	0,147	0,035
-487,708	22,947	0,099	0,058
-486,693	196,876	-0,047	0,051
-485,678	451,754	0,043	-0,068
-484,664	100,907	-0,054	-0,045
-483,649	-200,000	0,016	-0,092
-482,635	-59,792	0,059	-0,018
-481,620	-78,127	-0,043	0,011
-480,605	-200,000	-0,002	-0,044
-479,591	-24,589	0,127	0,054
-478,576	421,933	-0,037	-0,058
-477,562	-34,612	-0,144	-0,056
-476,547	-101,030	-0,092	-0,016
-475,532	-80,711	-0,079	-0,019
-474,518	627,544	0,029	0,052
-473,503	223,557	0,060	0,069
-472,489	-200,000	0,007	-0,054
-471,474	-100,495	-0,060	-0,011
-470,459	-163,729	0,054	0,002
-469,445	-153,535	0,037	0,002
-468,430	800,000	0,029	-0,060
-467,416	3,315	0,147	-0,076
-466,401	794,923	-0,044	-0,087
-465,386	800,000	0,105	0,228
-464,372	800,000	0,006	0,018
-463,357	-131,384	-0,125	-0,012
-462,343	170,629	0,090	-0,093
-461,328	-43,271	0,135	0,049
-460,313	87,706	0,070	-0,056
-459,299	-200,000	-0,004	0,021
-458,284	800,000	0,010	0,030
-457,270	404,268	-0,123	-0,187
-456,255	-29,995	-0,045	0,018
-455,241	268,618	0,056	0,071
-454,226	-144,562	-0,054	0,004
-453,211	800,000	-0,004	0,010
-452,197	800,000	-0,025	0,071
-451,182	-15,687	0,105	0,048
-450,168	-64,332	-0,050	-0,014
-449,153	800,000	0,015	-0,036
-448,138	76,013	-0,056	-0,043
-447,124	-200,000	0,003	0,043
-446,109	800,000	0,026	-0,080
-445,095	-200,000	0,012	0,120
-444,080	768,847	0,023	-0,045
-443,065	-101,194	-0,091	-0,016
-442,051	65,605	-0,035	0,025
-441,036	800,000	-0,017	-0,035
-440,022	-77,108	0,028	-0,007
-439,007	800,000	-0,028	-0,081
-437,992	-39,029	0,060	0,023
-436,978	-200,000	0,009	-0,119
-435,963	-200,000	0,000	0,027
-434,949	-121,687	-0,104	0,012
-433,934	-200,000	-0,018	0,136
-432,919	-200,000	-0,005	-0,126
-431,905	254,065	0,068	-0,083
-430,890	-55,819	0,037	-0,012
-429,876	800,000	0,053	0,159
-428,861	-12,926	0,116	-0,054
-427,846	-93,832	-0,174	0,034
-426,832	230,413	0,044	-0,052
-425,817	-28,071	0,113	-0,047
-424,803	-200,000	-0,003	-0,118
-423,788	-131,482	-0,144	-0,013
-422,773	800,000	0,034	-0,104
-421,759	-200,000	0,024	-0,081
-420,744	-142,848	0,045	0,003
-419,730	-44,546	-0,062	-0,022
-418,715	-150,856	-0,071	-0,004
-417,701	119,364	0,074	-0,065
-416,686	-200,000	0,005	-0,144
-415,671	800,000	-0,051	0,106
-414,657	36,592	-0,059	-0,037
-413,642	-142,133	-0,106	0,007
-412,628	-72,039	0,047	-0,012
-411,613	-114,179	-0,087	-0,012
-410,598	-59,879	-0,183	0,055
-409,584	97,338	0,080	0,065
-408,569	3,812	0,020	0,011
-407,555	-5,560	-0,116	-0,057
-406,540	-101,866	0,047	0,008
-405,525	-200,000	0,013	-0,044
-404,511	-91,619	0,036	0,007
-403,496	800,000	0,055	-0,130
-402,482	800,000	-0,032	0,082
-401,467	-69,808	0,085	0,023
-400,452	42,764	0,051	-0,033
-399,438	-200,000	-0,002	-0,027
-398,423	-26,111	0,043	-0,018
-397,409	60,298	-0,102	-0,072
-396,394	-200,000	0,013	-0,079
-395,379	800,000	0,029	0,076
-394,365	548,996	0,080	0,137
-393,350	183,588	0,095	0,100
-392,336	-24,983	-0,062	-0,026
-391,321	-200,000	0,011	-0,119
-390,306	135,679	0,132	0,123
-389,292	-200,000	0,017	0,105
-388,277	800,000	0,034	-0,078
-387,263	89,566	0,051	-0,040
-386,248	732,051	0,068	0,131
-385,233	18,814	-0,059	-0,034
-384,219	-200,000	-0,002	0,075
-383,204	193,029	0,005	-0,006
-382,190	-144,653	0,105	-0,007
-381,175	734,291	-0,046	0,088
-380,160	270,820	0,056	0,071
-379,146	800,000	0,022	0,067
-378,131	-147,177	0,163	0,010
-377,117	225,365	0,078	0,091
-376,102	-200,000	0,002	0,078
-375,088	-4,639	0,109	-0,053
-374,073	-82,622	-0,037	-0,009
-373,058	-129,275	0,127	-0,012
-372,044	-148,777	0,050	-0,003
-371,029	311,584	0,060	0,081
-370,015	-60,120	-0,032	0,010
-369,000	233,539	-0,083	0,098
-367,985	790,331	-0,037	0,072
-366,971	-62,934	-0,072	0,021
-365,956	-112,165	-0,077	0,011
-364,942	-200,000	0,038	0,127
-363,927	222,861	-0,017	0,020
-362,912	-48,741	0,083	-0,028
-361,898	663,827	-0,033	-0,060
-360,883	-14,931	-0,162	-0,074
-359,869	102,842	0,032	-0,027
-358,854	-65,741	-0,081	-0,023
-357,839	-75,813	-0,019	0,005
-356,825	681,136	-0,051	0,096
-355,810	-55,807	-0,139	-0,044
-354,796	273,356	0,078	0,099
-353,781	-81,829	0,172	0,040
-352,766	52,018	-0,017	0,012
-351,752	-17,550	-0,031	-0,014
-350,737	295,860	0,062	0,081
-349,723	-200,000	-0,037	0,127
-348,708	-36,869	0,056	0,021
-347,693	-12,341	0,060	-0,028
-346,679	325,098	-0,046	-0,063
-345,664	800,000	0,039	-0,106
-344,650	-33,309	0,038	0,015
-343,635	193,523	0,090	0,097
-342,620	0,742	0,021	-0,011
-341,606	18,881	-0,053	-0,030
-340,591	-200,000	-0,077	0,000
-339,577	-200,000	-0,005	-0,137
-338,562	-114,088	-0,073	-0,010
-337,548	562,500	-0,024	0,042
-336,533	-154,304	-0,092	0,004
-335,518	-23,225	-0,061	0,026
-334,504	800,000	-0,070	0,214
-333,489	110,043	-0,087	-0,074
-332,475	-40,576	0,085	0,031
-331,460	-200,000	0,026	-0,088
-330,445	735,747	0,065	-0,125
-329,431	800,000	0,051	0,153
-328,416	-173,448	0,089	0,002
-327,402	137,386	0,023	0,021
-326,387	800,000	-0,043	0,094
-325,372	29,573	-0,080	-0,049
-324,358	148,876	0,046	0,045
-323,343	-15,875	0,045	0,020
-322,329	-177,655	-0,150	0,003
-321,314	-21,687	0,089	0,039
-320,299	-111,409	-0,142	0,020
-319,285	434,065	0,056	0,087
-318,270	-200,000	0,021	0,092
-317,256	800,000	0,023	-0,056
-316,241	-200,000	-0,008	-0,050
-315,226	340,790	0,018	-0,025
-314,212	-200,000	0,023	0,110
-313,197	-200,000	-0,004	0,163
-312,183	126,446	0,121	0,109
-311,168	10,333	0,034	-0,018
-310,153	328,403	-0,063	0,087
-309,139	800,000	0,009	-0,021
-308,124	-174,656	0,084	0,002
-307,110	263,456	-0,099	0,123
-306,095	-200,000	0,019	-0,125
-305,080	-95,096	-0,018	-0,003
-304,066	-101,020	0,053	0,009
-303,051	-200,000	0,025	-0,137
-302,037	-152,030	-0,094	-0,005
-301,022	-200,000	-0,002	0,016
-300,008	-7,195	0,106	0,051
-298,993	-200,000	0,005	0,165
-297,978	-129,654	-0,044	-0,004
-296,964	-160,035	-0,043	-0,002
-295,949	82,742	-0,099	-0,076
-294,935	-68,121	0,115	-0,032
-293,920	800,000	-0,045	-0,121
-292,905	-200,000	-0,003	-0,021
-291,891	123,622	0,034	0,030
-290,876	362,776	0,078	0,111
-289,862	-200,000	0,021	0,141
-288,847	-163,634	-0,017	-0,001
-287,832	15,133	-0,055	-0,030
-286,818	800,000	-0,029	0,067
-285,803	60,847	0,119	0,084
-284,789	-14,420	0,093	-0,042
-283,774	-11,397	0,116	-0,054
-282,759	786,840	-0,008	0,015
-281,745	488,271	-0,085	-0,139
-280,730	-200,000	0,002	0,041
-279,716	130,556	0,032	0,030
-278,701	363,614	0,068	-0,098
-277,686	93,148	-0,082	0,066
-276,672	-200,000	-0,010	0,039
-275,657	-200,000	0,012	0,038
-274,643	10,667	0,096	-0,052
-273,628	88,326	-0,039	-0,031
-272,613	217,137	-0,062	0,071
-271,599	140,888	0,100	-0,094
-270,584	475,380	0,035	-0,056
-269,570	40,649	0,083	0,053
-268,555	-200,000	-0,002	-0,017
-267,540	220,934	0,015	-0,017
-266,526	-200,000	-0,004	-0,101
-265,511	68,699	0,057	-0,042
-264,497	-200,000	-0,007	0,084
-263,482	-200,000	0,008	0,030
-262,467	63,911	-0,035	0,025
-261,453	214,221	-0,027	-0,030
-260,438	247,679	-0,131	-0,158
-259,424	68,946	-0,110	-0,080
-258,409	-65,494	-0,035	-0,010
-257,395	134,263	0,039	0,036
-256,380	800,000	0,009	-0,019
-255,365	-151,053	0,176	-0,009
-254,351	468,240	0,029	0,046
-253,336	-94,494	0,080	0,015
-252,322	-200,000	-0,006	-0,090
-251,307	346,709	0,027	0,038
-250,292	165,643	0,046	-0,046
-249,278	-4,244	-0,014	0,007
-248,263	-200,000	-0,039	0,164
-247,249	-77,415	-0,100	-0,024
-246,234	800,000	0,020	-0,051
-245,219	-200,000	0,003	-0,029
-244,205	474,361	-0,077	-0,124
-243,190	-200,000	0,023	0,092
-242,176	800,000	0,037	-0,094
-241,161	800,000	0,047	0,134
-240,146	162,663	0,070	-0,070
-239,132	321,952	-0,069	-0,094
-238,117	800,000	0,023	-0,050
-237,103	257,827	0,020	-0,024
-236,088	-200,000	0,016	-0,116
-235,073	113,359	0,080	0,069
-234,059	293,531	0,108	0,141
-233,044	-200,000	0,002	-0,020
-232,030	800,000	0,008	0,021
-231,015	800,000	-0,026	0,074
-230,000	478,343	-0,036	-0,057
-228,986	-62,178	-0,046	-0,014
-227,971	69,255	-0,050	-0,036
-226,957	-134,184	0,112	0,010
-225,942	-21,820	-0,025	0,011
-224,927	-200,000	-0,001	0,106
-223,913	800,000	-0,026	-0,055
-222,898	-30,734	0,053	-0,021
-221,884	-90,756	-0,064	-0,013
-220,869	800,000	0,018	-0,052
-219,855	-200,000	-0,005	0,099
-218,840	581,296	0,026	-0,046
-217,825	800,000	-0,068	-0,171
-216,811	-163,152	-0,043	0,001
-215,796	753,195	-0,087	-0,168
-214,782	-67,669	0,171	-0,047
-213,767	222,334	-0,043	0,049
-212,752	-200,000	0,016	-0,078
-211,738	184,086	-0,068	0,072
-210,723	-137,414	0,071	0,006
-209,709	800,000	0,036	-0,078
-208,694	36,387	-0,095	-0,060
-207,679	-58,890	-0,127	-0,039
-206,665	-200,000	-0,055	0,000
-205,650	-200,000	-0,026	-0,112
-204,636	306,882	0,048	0,063
-203,621	684,264	-0,048	0,090
-202,606	800,000	-0,019	-0,050
-201,592	106,933	-0,054	0,045
-200,577	-10,466	-0,106	-0,049
-199,563	-200,000	0,033	0,197
-198,548	-200,000	0,012	0,046
-197,533	-43,010	-0,046	-0,017
-196,519	421,137	-0,034	0,051
-195,504	800,000	-0,051	-0,150
-194,490	129,935	0,112	-0,102
-193,475	-34,333	-0,182	-0,070
-192,460	-200,000	0,005	0,047
-191,446	337,712	-0,022	-0,030
-190,431	-83,671	0,034	-0,008
-189,417	209,038	-0,053	0,059
-188,402	180,896	-0,069	-0,072
-187,387	167,108	-0,135	-0,136
-186,373	-200,000	-0,001	-0,108
-185,358	13,842	-0,025	0,014
-184,344	60,879	0,127	-0,089
-183,329	100,893	0,090	0,074
-182,315	296,558	0,020	-0,026
-181,300	800,000	0,007	-0,014
-180,285	-6,932	-0,068	0,033
-179,271	-100,689	0,049	-0,009
-178,256	-76,286	-0,132	0,033
-177,242	-102,144	0,119	-0,020
-176,227	-200,000	0,027	0,212
-175,212	98,565	0,081	0,066
-174,198	-178,007	0,050	-0,001
-173,183	800,000	0,007	0,019
-172,169	-200,000	-0,017	-0,084
-171,154	136,103	0,134	-0,124
-170,139	13,125	0,086	0,047
-169,125	-1,114	0,088	-0,044
-168,110	265,314	-0,087	0,107
-167,096	-60,022	-0,033	0,010
-166,081	-200,000	0,006	-0,158
-165,066	314,842	-0,037	-0,049
-164,052	-142,404	-0,095	0,007
-163,037	-59,899	0,182	-0,055
-162,023	-200,000	-0,029	-0,159
-161,008	120,919	0,115	0,101
-159,993	-200,000	0,012	0,066
-158,979	-55,506	-0,120	-0,038
-157,964	511,610	-0,039	-0,064
-156,950	-200,000	-0,014	0,054
-155,935	-66,823	-0,083	0,023
-154,920	-3,698	0,068	-0,033
-153,906	-200,000	-0,005	0,045
-152,891	-200,000	-0,005	0,122
-151,877	-200,000	-0,005	0,026
-150,862	7,452	-0,067	-0,035
-149,847	298,022	0,066	-0,086
-148,833	195,660	-0,086	-0,093
-147,818	-200,000	0,024	0,092
-146,804	-137,041	0,076	-0,006
-145,789	800,000	0,044	0,089
-144,775	-100,892	0,082	-0,014
-143,760	-200,000	0,025	0,126
-142,745	1,738	-0,067	0,034
-141,731	-43,837	-0,087	-0,031
-140,716	-137,043	0,073	0,006
-139,702	-68,116	0,031	-0,009
-138,687	-119,426	0,106	0,013
-137,672	86,346	-0,041	0,032
-136,658	163,145	-0,106	-0,105
-135,643	-149,942	0,060	0,003
-134,629	-154,878	0,111	-0,005
-133,614	800,000	0,035	-0,071
-132,599	509,120	0,026	-0,043
-131,585	80,860	-0,102	0,078
-130,570	-200,000	0,019	0,084
-129,556	-200,000	0,026	0,132
-128,541	392,225	-0,080	-0,117
-127,526	-200,000	-0,002	-0,010
-126,512	402,315	0,036	-0,053
-125,497	-16,227	0,018	-0,008
-124,483	-200,000	-0,036	0,154
-123,468	29,660	-0,097	0,058
-122,453	356,466	-0,053	-0,075
-121,439	800,000	-0,017	0,036
-120,424	-129,669	-0,083	0,008
-119,410	-200,000	0,001	-0,139
-118,395	173,109	0,049	0,050
-117,380	-200,000	0,011	-0,056
-116,366	314,977	-0,042	-0,056
-115,351	778,304	-0,039	-0,075
-114,337	-200,000	0,013	-0,088
-113,322	741,063	-0,077	-0,147
-112,307	-200,000	0,023	-0,131
-111,293	33,301	-0,034	-0,021
-110,278	-9,307	-0,131	0,062
-109,264	-49,342	0,088	-0,030
-108,249	2,381	-0,090	-0,046
-107,234	334,063	-0,064	-0,088
-106,220	-92,987	0,044	-0,009
-105,205	-0,723	0,041	-0,021
-104,191	-200,000	0,004	-0,021
-103,176	136,890	0,017	0,016
-102,162	92,503	0,138	0,110
-101,147	-200,000	0,011	-0,101
-100,132	-89,118	-0,104	-0,022
-99,118	-200,000	0,004	-0,013
-98,103	-95,255	-0,055	0,010
-97,089	-68,428	0,059	0,016
-96,074	-79,097	0,077	-0,018
-95,059	-200,000	0,022	0,105
-94,045	-81,472	0,125	-0,029
-93,030	-178,006	-0,062	0,001
-92,016	-146,051	-0,224	-0,014
-91,001	22,608	-0,012	-0,007
-89,986	264,331	-0,049	0,061
-88,972	273,702	0,200	0,250
-87,957	-66,207	0,054	0,015
-86,943	-39,519	-0,017	0,006
-85,928	160,171	-0,145	-0,143
-84,913	800,000	-0,077	-0,236
-83,899	-200,000	0,015	-0,095
-82,884	220,538	0,059	0,067
-81,870	242,512	0,025	0,030
-80,855	-77,789	0,046	-0,011
-79,840	131,582	-0,070	0,063
-78,826	119,113	-0,059	0,051
-77,811	-200,000	-0,001	-0,095
-76,797	-200,000	-0,020	-0,124
-75,782	20,150	0,134	-0,076
-74,767	-200,000	-0,007	-0,024
-73,753	64,646	-0,045	0,032
-72,738	-200,000	0,005	-0,133
-71,724	32,851	-0,030	-0,018
-70,709	-110,083	0,148	0,022
-69,694	83,469	-0,046	-0,035
-68,680	-12,232	-0,076	0,035
-67,665	-17,788	0,069	0,030
-66,651	800,000	0,059	0,122
-65,636	-42,907	0,099	0,035
-64,622	-17,365	-0,039	0,017
-63,607	-200,000	-0,034	-0,164
-62,592	800,000	-0,068	-0,181
-61,578	693,597	0,045	-0,084
-60,563	-200,000	-0,001	0,078
-59,549	323,884	-0,049	0,066
-58,534	29,839	-1,928	-1,156
-57,519	488,908	-1,205	-1,949
-56,505	-200,000	-0,467	-4,556
-55,490	540,648	0,870	1,467
-54,476	800,000	5,067	11,357
-53,461	-200,000	20,999	333,670
-52,446	800,000	758,035	2331,053
-51,432	552,126	1662,487	2826,805
-50,417	73,278	1664,826	1226,819
-49,403	18,362	1537,786	863,769
-48,388	12,329	1460,807	791,340
-47,373	19,190	1451,526	819,219
-46,359	15,685	1440,979	796,557
-45,344	10,628	1436,570	770,001
-44,330	10,552	1434,712	768,615
-43,315	10,548	1432,961	767,625
-42,300	10,574	1431,246	766,800
-41,286	10,576	1429,884	766,050
-40,271	10,537	1428,655	765,177
-39,257	10,523	1427,444	764,431
-38,242	10,571	1426,229	763,980
-37,227	10,553	1425,383	763,408
-36,213	10,567	1423,900	762,652
-35,198	10,559	1423,077	762,141
-34,184	10,588	1421,907	761,621
-33,169	10,529	1420,517	760,570
-32,154	10,635	1419,480	760,485
-31,140	10,628	1418,380	759,828
-30,125	10,653	1417,045	759,205
-29,111	10,628	1415,938	758,461
-28,096	10,545	1415,066	757,573
-27,082	10,581	1413,660	756,961
-26,067	10,514	1412,870	756,193
-25,052	10,568	1411,553	755,714
-24,038	10,545	1410,660	755,098
-23,023	10,552	1409,560	754,510
-22,009	10,511	1408,617	753,781
-20,994	10,502	1407,576	753,153
-19,979	10,516	1406,676	752,708
-18,965	10,499	1405,834	752,150
-17,950	10,479	1404,890	751,520
-16,936	10,461	1403,964	750,913
-15,921	10,413	1403,114	750,203
-14,906	10,436	1402,018	749,695
-13,892	10,430	1401,139	749,169
-12,877	10,458	1400,368	748,854
-11,863	10,441	1399,455	748,258
-10,848	10,483	1398,586	747,961
-9,833	10,360	1397,768	746,919
-8,819	10,341	1396,972	746,378
-7,804	10,342	1395,886	745,772
-6,790	10,377	1395,021	745,444
-5,775	10,352	1394,019	744,762
-4,760	10,386	1393,003	744,347
-3,746	10,357	1391,984	743,640
-2,731	10,369	1391,132	743,212
-1,717	10,300	1390,449	742,496
-0,702	10,316	1388,519	741,510
0,313	14,479	1301,721	714,181
1,327	30,884	692,434	417,157
2,342	47,972	120,113	78,962
3,356	1,945	16,504	8,364
4,371	-0,167	3,453	1,726
5,386	13,792	0,905	0,494
6,400	800,000	0,185	0,482
7,415	61,531	-0,148	-0,103
8,429	1,559	-0,354	-0,179
9,444	147,253	-0,258	-0,245
10,459	180,871	-0,263	-0,272
11,473	85,272	-0,257	-0,198
12,488	-59,735	-0,347	-0,104
13,502	-128,067	-0,480	-0,048
14,517	-64,173	-0,377	-0,107
15,531	105,016	-0,271	-0,225
16,546	-15,070	-0,472	-0,212
17,561	124,265	-0,371	-0,328
18,575	129,009	-0,138	-0,124
19,590	-10,658	-0,121	-0,056
20,604	75,325	-0,223	-0,165
21,619	-5,288	-0,353	-0,170
22,634	163,313	-0,367	-0,364
23,648	186,379	-0,259	-0,272
24,663	41,757	-0,421	-0,268
25,677	-22,947	-0,409	-0,173
26,692	-2,541	-0,320	-0,157
27,707	-40,922	-0,439	-0,159
28,721	127,470	-0,344	-0,307
29,736	25,737	-0,496	-0,290
30,750	89,664	-0,359	-0,281
31,765	149,459	-0,359	-0,342
32,780	-33,190	-0,409	-0,159
33,794	60,426	-0,335	-0,233
34,809	39,274	-0,383	-0,240
35,823	-20,517	-0,323	-0,139
36,838	-24,638	-0,510	-0,212
37,853	77,154	-0,297	-0,221
38,867	90,296	-0,328	-0,257
39,882	117,754	-0,233	-0,202
40,896	-40,957	-0,347	-0,125
41,911	128,786	-0,335	-0,300
42,926	212,409	-0,294	-0,326
43,940	184,779	-0,346	-0,360
44,955	74,383	-0,356	-0,262
45,969	61,603	-0,333	-0,232
46,984	412,167	-0,244	-0,365
47,999	-42,614	-0,322	-0,114
49,013	-38,353	-0,354	-0,131
50,028	-43,672	-0,327	-0,115
51,042	21,054	-0,359	-0,204
52,057	327,070	-0,280	-0,378
53,071	75,981	-0,394	-0,292
54,086	181,448	-0,242	-0,249
55,101	92,845	-0,415	-0,328
56,115	158,005	-0,245	-0,238
57,130	228,634	-0,266	-0,305
58,144	198,168	-0,274	-0,295
59,159	199,300	-0,330	-0,355
60,174	98,518	-0,379	-0,306
61,188	-50,934	-0,354	-0,116
62,203	-120,295	-0,263	-0,031
63,217	-94,071	-0,296	-0,056
64,232	-56,716	-0,380	-0,117
65,247	53,471	-0,310	-0,208
66,261	70,729	-0,344	-0,250
67,276	114,253	-0,335	-0,285
68,290	-94,701	-0,325	-0,061
69,305	146,906	-0,194	-0,183
70,320	-54,525	-0,274	-0,086
71,334	183,605	-0,244	-0,253
72,349	85,109	-0,239	-0,184
73,363	122,969	-0,371	-0,325
74,378	469,184	-0,250	-0,395
75,393	-178,746	-0,440	-0,007
76,407	-14,039	-0,320	-0,144
77,422	54,403	-0,277	-0,187
78,436	204,196	-0,168	-0,182
79,451	-109,959	-0,263	-0,038
80,466	74,628	-0,358	-0,263
81,480	53,459	-0,357	-0,239
82,495	80,488	-0,285	-0,215
83,509	158,363	-0,281	-0,273
84,524	30,990	-0,363	-0,217
85,539	228,334	-0,239	-0,273
86,553	-14,682	-0,300	-0,134
87,568	111,257	-0,330	-0,278
88,582	-98,676	-0,350	-0,062
89,597	-41,910	-0,299	-0,106
90,611	-91,026	-0,226	-0,045
91,626	88,215	-0,289	-0,224
92,641	-140,137	-0,339	-0,025
93,655	397,559	-0,169	-0,248
94,670	162,510	-0,298	-0,292
95,684	-78,411	-0,264	-0,063
96,699	264,715	-0,271	-0,330
97,714	10,489	-0,341	-0,181
98,728	-80,354	-0,323	-0,075
99,743	332,252	-0,167	-0,226
100,757	8,494	-0,345	-0,181
101,772	228,276	-0,207	-0,236
102,787	64,119	-0,343	-0,241
103,801	-114,057	-0,387	-0,052
104,816	10,745	-0,277	-0,147
105,830	65,660	-0,289	-0,204
106,845	112,878	-0,225	-0,190
107,860	26,048	-0,350	-0,203
108,874	-58,490	-0,289	-0,087
109,889	-70,777	-0,257	-0,067
110,903	223,625	-0,188	-0,212
111,918	173,142	-0,222	-0,224
112,933	168,558	-0,237	-0,236
113,947	207,428	-0,207	-0,226
114,962	39,165	-0,164	-0,102
115,976	17,973	-0,396	-0,219
116,991	30,087	-0,254	-0,151
118,006	26,738	-0,259	-0,151
119,020	44,870	-0,279	-0,179
120,035	-59,423	-0,236	-0,070
121,049	108,592	-0,272	-0,227
122,064	-6,872	-0,222	-0,105
123,079	28,752	-0,309	-0,182
124,093	-58,533	-0,332	-0,100
125,108	137,748	-0,247	-0,225
126,122	-105,761	-0,296	-0,046
127,137	-134,395	-0,234	0,020
128,151	-4,411	-0,225	-0,108
129,166	-10,527	-0,229	-0,106
130,181	5,852	-0,276	-0,142
131,195	1,472	-0,245	-0,122
132,210	44,757	-0,147	-0,094
133,224	-200,000	-0,069	-0,268
134,239	-11,320	-0,297	-0,136
135,254	-14,415	-0,272	-0,122
136,268	-2,304	-0,201	-0,098
137,283	168,560	-0,194	-0,193
138,297	47,329	-0,377	-0,244
139,312	-158,110	-0,239	0,010
140,327	132,035	-0,231	-0,208
141,341	421,555	-0,206	-0,309
142,356	-65,862	-0,245	0,068
143,370	85,411	-0,217	-0,166
144,385	800,000	-0,119	-0,273
145,400	88,637	-0,232	-0,179
146,414	114,515	-0,239	-0,203
147,429	-101,119	-0,272	-0,046
148,443	185,369	-0,206	-0,213
149,458	22,089	-0,235	-0,133
150,473	35,712	-0,233	-0,142
151,487	-51,513	-0,210	-0,068
152,502	115,911	-0,260	-0,222
153,516	259,826	-0,189	-0,227
154,531	104,007	-0,373	-0,305
155,546	-9,014	-0,278	-0,129
156,560	-40,435	-0,194	-0,070
157,575	254,571	-0,117	-0,139
158,589	235,034	-0,183	-0,210
159,604	-75,073	-0,253	-0,062
160,619	-143,230	-0,306	-0,020
161,633	-98,736	-0,242	-0,042
162,648	-110,181	-0,281	-0,040
163,662	-8,418	-0,313	-0,145
164,677	631,633	-0,109	-0,192
165,692	190,508	-0,271	-0,283
166,706	140,476	-0,149	-0,137
167,721	26,790	-0,401	-0,233
168,735	31,443	-0,209	-0,124
169,750	-33,795	-0,223	-0,085
170,764	186,965	-0,127	-0,132
171,779	46,704	-0,132	-0,085
172,794	257,612	-0,180	-0,215
173,808	-62,361	-0,383	-0,110
174,823	173,724	-0,273	-0,274
175,837	181,475	-0,303	-0,310
176,852	800,000	-0,083	-0,206
177,867	17,494	-0,270	-0,148
178,881	-101,877	-0,280	-0,046
179,896	-92,917	-0,194	-0,037
180,910	7,212	-0,295	-0,152
181,925	232,879	-0,128	-0,146
182,940	532,104	-0,172	-0,283
183,954	115,736	-0,201	-0,171
184,969	303,365	-0,117	-0,151
185,983	-200,000	-0,085	-0,267
186,998	271,059	-0,133	-0,163
188,013	-6,320	-0,230	-0,109
189,027	19,903	-0,367	-0,204
190,042	325,053	-0,171	-0,227
191,056	148,928	-0,159	-0,150
192,071	-54,499	-0,290	-0,091
193,086	-28,759	-0,206	-0,082
194,100	178,815	-0,222	-0,225
195,115	800,000	-0,128	-0,268
196,129	-11,955	-0,303	-0,137
197,144	69,848	-0,178	-0,127
198,159	78,650	-0,217	-0,161
199,173	-0,069	-0,088	-0,043
200,188	31,121	-0,239	-0,142
201,202	-130,915	-0,219	-0,020
202,217	-9,683	-0,139	-0,064
203,232	28,240	-0,240	-0,140
204,246	13,004	-0,197	-0,105
205,261	-200,000	-0,105	-0,330
206,275	15,762	-0,283	-0,153
207,290	37,468	-0,159	-0,098
208,304	173,982	-0,134	-0,134
209,319	-200,000	-0,035	-0,172
210,334	62,327	-0,189	-0,131
211,348	163,208	-0,286	-0,278
212,363	272,259	-0,168	-0,205
213,377	240,041	-0,228	-0,264
214,392	172,078	-0,118	-0,117
215,407	-86,001	-0,206	-0,044
216,421	-131,743	-0,205	-0,018
217,436	800,000	-0,147	-0,332
218,450	-2,210	-0,164	-0,079
219,465	-14,962	-0,267	-0,118
220,480	207,235	-0,167	-0,181
221,494	50,108	-0,114	-0,074
222,509	-89,887	-0,170	-0,034
223,523	-161,294	-0,109	-0,004
224,538	800,000	-0,054	-0,151
225,553	-76,473	-0,268	-0,065
226,567	72,542	-0,191	-0,137
227,582	9,220	-0,220	-0,115
228,596	400,195	-0,077	-0,112
229,611	130,070	-0,168	-0,148
230,626	800,000	-0,076	-0,176
231,640	174,538	-0,117	-0,117
232,655	446,978	-0,092	-0,141
233,669	-4,555	-0,298	-0,142
234,684	-16,402	-0,156	-0,068
235,699	-200,000	-0,045	-0,145
236,713	800,000	-0,114	-0,230
237,728	77,262	-0,151	-0,111
238,742	-10,554	-0,293	-0,133
239,757	112,982	-0,275	-0,230
240,772	214,058	-0,182	-0,199
241,786	67,834	-0,233	-0,164
242,801	-7,324	-0,132	-0,061
243,815	194,109	-0,116	-0,122
244,830	-108,784	-0,285	-0,042
245,844	-9,687	-0,127	-0,058
246,859	-141,813	-0,318	-0,022
247,874	-59,907	-0,299	-0,088
248,888	800,000	-0,092	-0,177
249,903	192,135	-0,160	-0,166
250,917	800,000	-0,084	-0,250
251,932	-54,146	-0,236	-0,073
252,947	29,053	-0,226	-0,132
253,961	131,826	-0,187	-0,166
254,976	173,539	-0,229	-0,227
255,990	319,739	-0,184	-0,241
257,005	-63,543	-0,186	-0,052
258,020	67,400	-0,180	-0,126
259,034	4,027	-0,112	-0,056
260,049	198,812	-0,176	-0,186
261,063	77,378	-0,252	-0,184
262,078	51,763	-0,262	-0,172
263,093	-200,000	-0,027	-0,198
264,107	17,506	-0,172	-0,094
265,122	-0,595	-0,159	-0,078
266,136	-190,564	-0,351	0,003
267,151	-90,354	-0,193	-0,038
268,166	98,333	-0,203	-0,161
269,180	98,091	-0,221	-0,175
270,195	182,296	-0,200	-0,203
271,209	465,797	-0,229	-0,354
272,224	-66,226	-0,036	0,010
273,239	-115,315	-0,221	-0,028
274,253	-200,000	-0,090	-0,278
275,268	-44,649	-0,232	-0,079
276,282	13,192	-0,243	-0,129
277,297	33,212	-0,317	-0,189
278,312	800,000	-0,067	-0,201
279,326	-200,000	-0,070	-0,230
280,341	285,609	-0,114	-0,142
281,355	144,028	-0,161	-0,148
282,370	160,048	-0,172	-0,165
283,384	115,271	-0,241	-0,202
284,399	265,483	-0,135	-0,162
285,414	33,668	-0,250	-0,149
286,428	138,190	-0,073	0,066
287,443	114,086	-0,102	-0,085
288,457	-100,218	-0,159	0,027
289,472	-96,497	-0,149	-0,027
290,487	-27,849	-0,136	-0,054
291,501	213,818	-0,080	-0,087
292,516	-11,867	-0,190	-0,085
293,530	76,896	-0,194	-0,141
294,545	24,697	-0,129	0,073
295,560	396,269	-0,107	-0,153
296,574	800,000	-0,048	-0,095
297,589	-150,441	-0,208	0,011
298,603	488,902	-0,140	-0,221
299,618	-63,077	-0,165	-0,047
300,633	-167,206	-0,244	-0,007
301,647	247,258	-0,141	-0,164
302,662	-94,798	-0,066	-0,012
303,676	52,826	-0,122	-0,080
304,691	800,000	-0,069	-0,188
305,706	7,664	-0,117	-0,060
306,720	800,000	-0,103	-0,202
307,735	-200,000	0,001	-0,042
308,749	253,985	-0,181	-0,213
309,764	118,129	-0,147	-0,124
310,779	-133,812	-0,100	-0,008
311,793	-186,423	-0,161	-0,002
312,808	-4,743	-0,221	-0,104
313,822	446,435	-0,101	-0,153
314,837	800,000	-0,066	-0,145
315,852	-13,217	-0,176	-0,078
316,866	800,000	-0,042	-0,097
317,881	-67,236	-0,181	-0,049
318,895	2,429	-0,148	-0,073
319,910	158,125	-0,126	-0,120
320,925	-106,612	-0,103	-0,016
321,939	303,051	-0,117	-0,149
322,954	255,038	-0,140	-0,164
323,968	-82,977	-0,168	-0,037
324,983	-56,349	-0,178	-0,054
325,997	-174,279	-0,090	-0,002
327,012	-200,000	-0,016	-0,125
328,027	-179,379	-0,152	0,002
329,041	176,998	-0,117	-0,116
330,056	800,000	-0,059	-0,148
331,070	-200,000	0,051	-0,160
332,085	-27,112	-0,062	-0,025
333,100	-60,232	-0,269	-0,078
334,114	-40,782	-0,192	-0,068
335,129	84,697	-0,199	-0,149
336,143	127,566	-0,179	-0,156
337,158	279,894	-0,117	-0,143
338,173	542,499	-0,067	-0,110
339,187	-200,000	0,008	-0,140
340,202	55,671	-0,081	0,054
341,216	86,207	-0,230	-0,173
342,231	225,352	-0,180	-0,200
343,246	774,953	-0,081	-0,152
344,260	-78,784	-0,233	-0,054
345,275	154,642	-0,142	-0,133
346,289	-101,868	-0,165	0,027
347,304	80,458	-0,163	0,120
348,319	51,157	-0,113	-0,073
349,333	798,766	-0,075	-0,142
350,348	-91,826	-0,167	-0,032
351,362	-200,000	-0,085	-0,283
352,377	-99,462	-0,043	0,007
353,392	-152,243	-0,130	0,006
354,406	533,514	-0,134	-0,217
355,421	207,925	1313,900	1404,023
356,435	159,973	1474,488	1404,501
