DTS Sentinel unit serial number:	SN410029Multiplexer serial number:	ORYXHardware model number:	OX2-SRSoftware version number:	ORYX F/W v4,00 Oryx Data Collector v3.7.2.0data status	okinstallation	B3 Nyhavnadifferential loss correction	single-endedforward channel	channel 1reverse channel	N/Adate	2023/12/01time	16:47:30forward acquisition time	300,00reverse acquisition time	0,00gamma	499,1914k internal	0,3206k external	0,3206temperature offset calibration	1,0000default loss term (dB/km)	0,3820temperature slope calibration	1,0000multiplexer offset coefficient	1,0000multiplexer slope coefficient	1,0000fibre end	0,00T internal ref (°C)	13,54T ext. ref 1 (°C)	-0,13T ext. ref 2 (°C)	-0,15length (m)	temperature (°C)	Stokes	anti-Stokes-744,400	253,160	-0,161	-0,200
-743,385	-200,000	0,016	0,235
-742,371	57,551	-0,301	-0,213
-741,356	800,000	0,147	0,420
-740,342	71,262	-0,269	-0,203
-739,327	-200,000	0,011	0,271
-738,312	199,047	-0,194	-0,216
-737,298	800,000	-0,097	0,279
-736,283	20,950	-0,265	-0,156
-735,269	800,000	0,116	0,298
-734,254	34,868	-0,312	-0,198
-733,239	800,000	-0,062	0,180
-732,225	298,640	-0,146	-0,195
-731,210	124,348	0,109	0,099
-730,196	-161,966	-0,128	0,005
-729,181	-100,490	-0,084	-0,015
-728,167	795,099	0,040	-0,080
-727,152	648,018	-0,048	0,090
-726,137	23,686	0,082	-0,049
-725,123	23,743	-0,073	0,043
-724,108	276,871	-0,143	-0,185
-723,094	138,679	-0,154	-0,147
-722,079	-200,000	-0,026	-0,088
-721,064	-127,059	0,169	0,018
-720,050	2,429	-0,116	0,061
-719,035	-200,000	-0,004	0,033
-718,021	800,000	0,047	-0,114
-717,006	40,710	-0,074	-0,049
-715,991	800,000	-0,060	-0,125
-714,977	182,853	-0,075	0,080
-713,962	-71,804	0,036	0,010
-712,948	-200,000	0,020	-0,076
-711,933	-61,176	-0,086	-0,026
-710,918	-114,469	-0,098	-0,014
-709,904	53,766	-0,110	0,077
-708,889	-33,146	-0,064	-0,026
-707,875	-2,809	-0,102	-0,052
-706,860	800,000	-0,035	-0,088
-705,845	417,711	0,019	-0,030
-704,831	-51,318	-0,046	0,015
-703,816	73,949	0,074	0,056
-702,802	-200,000	-0,040	0,000
-701,787	241,152	-0,077	-0,094
-700,772	108,778	-0,078	0,068
-699,758	-86,592	0,110	0,024
-698,743	-54,955	-0,199	0,065
-697,729	480,093	-0,046	0,075
-696,714	-200,000	-0,004	-0,032
-695,699	276,950	-0,102	0,132
-694,685	217,448	-0,027	0,032
-693,670	118,185	-0,154	-0,138
-692,656	-85,426	0,053	-0,012
-691,641	-146,844	0,015	0,001
-690,627	216,496	0,083	-0,095
-689,612	17,969	0,095	-0,055
-688,597	60,847	-0,042	-0,030
-687,583	-18,203	-0,073	-0,033
-686,568	-65,061	-0,048	-0,014
-685,554	800,000	0,036	-0,083
-684,539	66,362	-0,035	-0,026
-683,524	119,937	0,029	0,026
-682,510	287,042	-0,038	0,050
-681,495	-33,859	-0,151	-0,060
-680,481	193,470	-0,083	-0,091
-679,466	-61,505	0,127	-0,038
-678,451	-162,294	-0,093	0,003
-677,437	-155,690	-0,046	-0,002
-676,422	800,000	-0,042	0,093
-675,408	464,225	0,022	-0,036
-674,393	-149,889	-0,166	0,009
-673,378	800,000	-0,009	-0,022
-672,364	580,037	0,029	-0,051
-671,349	-181,878	-0,085	0,001
-670,335	300,826	-0,070	-0,094
-669,320	-58,670	0,092	-0,029
-668,305	-200,000	0,005	0,069
-667,291	-0,870	0,110	-0,056
-666,276	-18,044	0,053	0,024
-665,262	-200,000	0,044	-0,152
-664,247	-126,497	0,043	0,005
-663,232	-40,885	0,110	-0,041
-662,218	-45,931	0,202	-0,072
-661,203	800,000	0,037	0,078
-660,189	-163,852	-0,125	-0,004
-659,174	-200,000	-0,031	-0,179
-658,159	-146,682	-0,153	-0,009
-657,145	-119,652	0,092	0,011
-656,130	61,415	0,089	0,064
-655,116	43,511	-0,062	-0,041
-654,101	-132,320	-0,094	0,009
-653,086	-200,000	0,005	0,021
-652,072	59,738	-0,109	0,078
-651,057	117,822	-0,052	0,046
-650,043	-37,630	-0,253	-0,097
-649,028	-200,000	0,016	-0,077
-648,014	-1,651	0,101	0,051
-646,999	800,000	0,018	0,043
-645,984	-200,000	-0,010	0,092
-644,970	800,000	0,034	0,088
-643,955	695,634	0,016	-0,031
-642,941	800,000	-0,058	-0,146
-641,926	-118,921	-0,058	-0,007
-640,911	-44,081	0,117	0,042
-639,897	197,898	0,028	0,031
-638,882	49,907	-0,070	0,048
-637,868	105,738	0,059	-0,050
-636,853	-61,491	-0,079	-0,024
-635,838	171,876	-0,113	0,117
-634,824	800,000	0,034	-0,107
-633,809	561,459	-0,034	0,059
-632,795	-13,929	0,013	-0,006
-631,780	2,273	-0,052	0,027
-630,765	-86,690	-0,190	0,042
-629,751	224,878	0,127	-0,148
-628,736	-63,939	-0,104	0,031
-627,722	219,810	-0,074	-0,086
-626,707	-200,000	0,009	0,040
-625,692	16,354	0,167	0,095
-624,678	-96,441	-0,163	-0,031
-623,663	-200,000	0,031	-0,131
-622,649	-89,270	0,068	-0,014
-621,634	-200,000	0,007	-0,086
-620,619	-200,000	-0,001	-0,162
-619,605	800,000	0,058	0,121
-618,590	-74,755	0,106	-0,027
-617,576	-200,000	0,000	-0,025
-616,561	232,814	0,079	-0,094
-615,546	193,919	0,059	-0,065
-614,532	-200,000	0,025	0,099
-613,517	-185,461	0,064	-0,001
-612,503	-72,368	-0,135	0,036
-611,488	-200,000	0,001	0,056
-610,474	-200,000	-0,000	0,030
-609,459	-39,348	-0,219	-0,083
-608,444	-200,000	0,024	-0,079
-607,430	-5,542	-0,097	-0,048
-606,415	619,026	-0,034	-0,061
-605,401	3,119	0,086	-0,045
-604,386	800,000	0,044	-0,116
-603,371	-200,000	0,017	0,058
-602,357	-25,073	-0,036	0,015
-601,342	-144,284	0,066	-0,004
-600,328	-92,453	-0,021	0,004
-599,313	261,192	-0,074	-0,092
-598,298	627,025	0,033	0,061
-597,284	55,485	-0,083	0,058
-596,269	535,667	0,007	0,012
-595,255	-112,580	0,079	-0,011
-594,240	-109,688	0,058	-0,009
-593,225	800,000	-0,053	-0,129
-592,211	-200,000	-0,025	0,083
-591,196	-5,267	0,087	0,043
-590,182	295,320	-0,074	-0,099
-589,167	-62,051	-0,069	0,021
-588,152	-191,013	-0,050	-0,000
-587,138	800,000	-0,033	0,083
-586,123	800,000	-0,028	0,072
-585,109	-200,000	0,007	0,117
-584,094	-157,468	0,054	-0,002
-583,079	-152,324	0,051	-0,003
-582,065	137,916	0,052	-0,049
-581,050	112,520	0,019	-0,016
-580,036	-200,000	0,022	0,119
-579,021	232,976	-0,053	-0,063
-578,006	581,158	-0,014	-0,025
-576,992	800,000	-0,017	0,050
-575,977	775,170	0,039	0,077
-574,963	89,875	0,221	0,178
-573,948	800,000	0,037	0,080
-572,934	800,000	-0,088	0,196
-571,919	342,739	0,039	0,055
-570,904	-18,908	-0,084	0,038
-569,890	-200,000	0,022	-0,077
-568,875	-22,092	0,076	-0,033
-567,861	659,511	0,064	0,120
-566,846	-200,000	-0,000	0,094
-565,831	-112,964	-0,064	-0,009
-564,817	694,555	-0,028	-0,052
-563,802	-200,000	0,012	-0,097
-562,788	-68,008	-0,216	-0,060
-561,773	-103,036	0,120	-0,020
-560,758	225,885	0,077	-0,090
-559,744	-161,913	0,110	-0,004
-558,729	-200,000	-0,019	0,073
-557,715	-60,361	-0,102	0,031
-556,700	800,000	0,053	-0,111
-555,685	469,360	-0,046	-0,075
-554,671	37,653	0,075	-0,048
-553,656	-100,307	0,051	-0,009
-552,642	-200,000	0,023	0,173
-551,627	-200,000	0,045	0,160
-550,612	-200,000	-0,019	-0,075
-549,598	-200,000	-0,010	0,058
-548,583	-100,239	-0,006	-0,001
-547,569	800,000	-0,005	-0,014
-546,554	560,603	0,102	0,179
-545,539	99,864	0,144	0,120
-544,525	222,481	0,061	0,071
-543,510	134,047	-0,136	0,127
-542,496	319,790	-0,071	0,097
-541,481	-200,000	0,007	0,046
-540,466	-200,000	-0,023	-0,134
-539,452	-25,242	0,084	0,036
-538,437	741,433	-0,021	0,042
-537,423	-45,758	-0,096	-0,034
-536,408	347,689	-0,025	-0,036
-535,393	-200,000	0,006	-0,143
-534,379	132,146	-0,107	-0,099
-533,364	107,393	-0,063	-0,054
-532,350	329,649	0,057	-0,080
-531,335	-200,000	-0,021	-0,092
-530,321	213,000	-0,053	-0,061
-529,306	-200,000	-0,011	0,037
-528,291	-102,120	-0,104	0,018
-527,277	211,452	-0,030	0,034
-526,262	-27,244	0,077	0,032
-525,248	67,273	0,074	-0,054
-524,233	-200,000	0,016	0,072
-523,218	-68,751	-0,120	-0,033
-522,204	800,000	0,020	0,046
-521,189	-200,000	-0,051	-0,206
-520,175	-72,041	-0,093	-0,025
-519,160	290,956	0,060	0,079
-518,145	800,000	-0,038	0,120
-517,131	591,683	-0,009	0,016
-516,116	-200,000	0,022	0,100
-515,102	-82,783	-0,054	0,012
-514,087	-113,676	-0,122	-0,017
-513,072	-60,633	-0,135	-0,041
-512,058	455,710	-0,063	0,101
-511,043	-44,190	0,089	-0,032
-510,029	-200,000	-0,019	-0,081
-509,014	71,500	0,069	0,051
-507,999	-101,560	0,069	-0,012
-506,985	-200,000	-0,009	0,066
-505,970	255,209	-0,062	-0,077
-504,956	-200,000	-0,025	-0,089
-503,941	248,735	-0,108	0,131
-502,926	95,425	-0,013	0,010
-501,912	278,737	0,032	0,042
-500,897	52,248	0,113	0,078
-499,883	429,805	-0,080	-0,124
-498,868	-200,000	-0,034	-0,157
-497,853	-200,000	0,009	0,036
-496,839	800,000	0,029	-0,064
-495,824	59,742	-0,079	0,056
-494,810	-34,573	0,069	0,027
-493,795	-49,027	-0,040	0,014
-492,781	353,965	-0,053	-0,076
-491,766	-200,000	-0,003	-0,060
-490,751	-200,000	0,001	-0,119
-489,737	-68,866	-0,048	-0,013
-488,722	127,105	0,072	0,066
-487,708	-9,073	-0,067	0,032
-486,693	398,679	0,031	0,047
-485,678	9,819	-0,124	0,067
-484,664	-3,518	-0,070	-0,035
-483,649	497,019	-0,066	0,110
-482,635	-200,000	-0,011	-0,054
-481,620	-73,213	0,162	-0,042
-480,605	-158,508	-0,174	0,007
-479,591	-109,714	0,049	-0,007
-478,576	-200,000	-0,019	0,104
-477,562	800,000	0,026	0,057
-476,547	-200,000	0,022	-0,208
-475,532	57,719	-0,057	0,040
-474,518	-14,110	-0,046	0,021
-473,503	800,000	0,010	0,024
-472,489	-109,028	-0,167	-0,025
-471,474	-80,088	0,108	-0,026
-470,459	32,801	0,060	0,038
-469,445	508,473	0,039	0,065
-468,430	59,379	0,075	0,053
-467,416	-51,709	0,090	-0,030
-466,401	-7,791	0,050	-0,024
-465,386	800,000	0,029	-0,083
-464,372	-137,056	-0,085	-0,007
-463,357	182,458	-0,098	-0,104
-462,343	78,423	0,092	-0,071
-461,328	800,000	-0,059	-0,137
-460,313	-46,395	-0,097	0,034
-459,299	-52,671	0,107	0,035
-458,284	-200,000	0,008	0,078
-457,270	264,262	0,094	-0,118
-456,255	-200,000	0,007	-0,141
-455,241	520,247	0,026	-0,045
-454,226	800,000	0,045	-0,096
-453,211	-102,454	0,121	-0,021
-452,197	-72,494	-0,046	-0,012
-451,182	551,459	0,051	0,088
-450,168	338,807	-0,083	-0,116
-449,153	372,769	-0,023	-0,034
-448,138	800,000	0,023	0,061
-447,124	-145,781	-0,145	0,009
-446,109	-88,345	0,074	0,016
-445,095	-200,000	-0,038	-0,140
-444,080	-68,335	-0,055	-0,015
-443,065	432,421	-0,048	0,075
-442,051	-200,000	-0,017	0,057
-441,036	-200,000	-0,012	-0,110
-440,022	153,386	-0,116	0,115
-439,007	-99,638	-0,097	0,017
-437,992	52,324	0,111	-0,076
-436,978	800,000	0,031	0,072
-435,963	-200,000	0,051	0,257
-434,949	-200,000	-0,005	-0,058
-433,934	-60,177	0,108	0,033
-432,919	3,859	0,107	-0,056
-431,905	52,569	0,053	-0,036
-430,890	127,039	-0,024	-0,022
-429,876	239,441	-0,038	0,046
-428,861	328,619	-0,022	-0,031
-427,846	-138,835	0,078	0,006
-426,832	-192,464	-0,139	-0,001
-425,817	32,199	-0,099	-0,061
-424,803	17,000	-0,092	-0,052
-423,788	-105,902	0,042	0,007
-422,773	-200,000	-0,002	-0,101
-421,759	-200,000	-0,021	0,145
-420,744	51,279	0,101	0,069
-419,730	-200,000	-0,010	-0,037
-418,715	149,660	0,089	-0,086
-417,701	-200,000	0,000	-0,172
-416,686	-200,000	-0,009	-0,091
-415,671	122,530	-0,075	0,068
-414,657	695,125	0,028	0,054
-413,642	335,025	0,044	-0,061
-412,628	800,000	-0,006	-0,015
-411,613	-59,597	-0,135	-0,041
-410,598	223,870	-0,089	-0,103
-409,584	-152,025	0,121	0,006
-408,569	56,944	0,153	0,107
-407,555	719,071	0,015	0,028
-406,540	426,660	0,037	-0,058
-405,525	59,115	-0,075	0,053
-404,511	337,178	-0,049	-0,068
-403,496	-200,000	-0,006	-0,106
-402,482	-119,742	0,077	0,009
-401,467	-200,000	-0,009	0,062
-400,452	-200,000	-0,029	-0,116
-399,438	-200,000	0,015	0,079
-398,423	-42,104	-0,107	0,039
-397,409	207,497	0,027	0,030
-396,394	-152,986	-0,128	0,006
-395,379	-200,000	-0,008	0,078
-394,365	-89,726	0,080	-0,017
-393,350	-200,000	-0,003	-0,072
-392,336	-200,000	-0,017	0,131
-391,321	-200,000	-0,016	0,141
-390,306	375,473	-0,044	-0,065
-389,292	-200,000	0,000	-0,128
-388,277	-200,000	0,010	0,113
-387,263	-200,000	0,028	0,092
-386,248	800,000	-0,038	0,083
-385,233	-184,406	-0,044	0,000
-384,219	-67,085	-0,050	0,014
-383,204	-200,000	-0,015	-0,114
-382,190	-200,000	0,023	-0,096
-381,175	124,750	0,132	0,119
-380,160	301,263	-0,024	-0,032
-379,146	-61,902	0,023	0,007
-378,131	2,762	0,061	0,032
-377,117	800,000	-0,035	0,072
-376,102	-57,485	-0,058	0,018
-375,088	321,126	0,058	-0,080
-374,073	800,000	0,013	0,041
-373,058	758,170	0,034	0,067
-372,044	230,906	0,046	0,054
-371,029	-17,970	0,167	-0,075
-370,015	-65,865	0,055	0,016
-369,000	-79,417	-0,106	-0,025
-367,985	32,524	0,131	-0,081
-366,971	190,668	-0,019	-0,020
-365,956	129,681	0,063	0,058
-364,942	98,837	-0,092	0,076
-363,927	122,261	0,043	0,039
-362,912	163,012	0,139	0,140
-361,898	299,601	-0,085	0,113
-360,883	-114,223	-0,112	0,015
-359,869	-109,539	0,144	-0,022
-358,854	-200,000	0,025	-0,111
-357,839	-193,638	-0,066	0,000
-356,825	800,000	-0,035	0,074
-355,810	800,000	-0,057	0,126
-354,796	-98,708	0,126	-0,023
-353,781	220,491	-0,125	0,144
-352,766	-118,952	0,028	-0,003
-351,752	-38,162	0,048	0,018
-350,737	800,000	-0,031	-0,089
-349,723	-146,058	0,126	-0,008
-348,708	174,437	0,097	0,100
-347,693	800,000	-0,036	0,110
-346,679	-200,000	0,001	0,005
-345,664	-11,073	-0,041	-0,019
-344,650	116,068	0,024	0,021
-343,635	624,740	0,025	-0,045
-342,620	769,948	-0,047	0,092
-341,606	-71,444	0,150	0,040
-340,591	75,929	0,046	0,035
-339,577	7,300	-0,122	-0,065
-338,562	-200,000	0,016	0,083
-337,548	180,088	0,071	0,075
-336,533	-79,410	-0,036	-0,009
-335,518	99,047	0,164	0,135
-334,504	800,000	-0,017	0,041
-333,489	-29,153	-0,033	-0,014
-332,475	9,771	-0,079	0,043
-331,460	187,395	0,016	-0,017
-330,445	-200,000	-0,005	-0,076
-329,431	86,780	0,037	-0,029
-328,416	456,353	0,046	-0,074
-327,402	130,086	-0,020	0,019
-326,387	-91,907	-0,220	0,044
-325,372	797,619	-0,073	-0,145
-324,358	-151,206	-0,036	0,002
-323,343	-133,764	-0,088	0,008
-322,329	258,922	0,086	0,107
-321,314	-44,684	-0,056	0,020
-320,299	62,758	-0,041	0,029
-319,285	716,960	-0,028	-0,052
-318,270	132,168	-0,048	-0,044
-317,256	37,836	-0,153	-0,097
-316,241	-56,862	-0,183	0,057
-315,226	454,335	0,040	-0,063
-314,212	-200,000	-0,013	0,047
-313,197	175,134	0,068	0,071
-312,183	-167,547	-0,067	-0,002
-311,168	-52,787	0,201	-0,066
-310,153	-96,371	-0,126	0,024
-309,139	342,823	-0,050	-0,070
-308,124	126,743	0,114	-0,103
-307,110	-150,356	0,093	0,005
-306,095	-65,224	0,099	0,028
-305,080	-60,635	0,228	-0,069
-304,066	-18,512	0,056	0,025
-303,051	147,772	-0,048	-0,046
-302,037	129,714	0,117	-0,107
-301,022	-6,730	0,057	0,027
-300,008	-169,936	0,092	-0,002
-298,993	566,669	0,032	0,055
-297,978	-200,000	0,028	0,139
-296,964	257,236	0,083	0,102
-295,949	-62,974	-0,175	-0,051
-294,935	800,000	-0,029	-0,068
-293,920	426,337	0,036	0,055
-292,905	727,547	0,032	-0,062
-291,891	800,000	0,057	0,139
-290,876	-45,911	0,130	0,045
-289,862	-37,435	-0,159	0,060
-288,847	-180,523	-0,170	0,002
-287,832	-120,672	0,064	0,008
-286,818	4,514	0,035	0,018
-285,803	632,898	0,068	0,124
-284,789	32,807	-0,149	0,092
-283,774	156,353	0,027	-0,027
-282,759	-100,396	0,011	-0,002
-281,745	507,834	-0,010	0,017
-280,730	-27,279	-0,110	0,046
-279,716	118,895	0,038	0,033
-278,701	800,000	0,038	-0,116
-277,686	63,031	-0,057	0,041
-276,672	-115,883	0,074	0,010
-275,657	-200,000	0,033	0,109
-274,643	8,765	-0,071	0,038
-273,628	300,697	-0,089	-0,117
-272,613	143,801	-0,071	-0,068
-271,599	-3,954	0,093	-0,046
-270,584	800,000	-0,021	-0,054
-269,570	-200,000	0,015	0,058
-268,555	-38,888	0,109	0,041
-267,540	83,373	-0,077	-0,060
-266,526	-47,579	0,056	-0,019
-265,511	-36,531	-0,124	0,047
-264,497	-200,000	0,018	0,066
-263,482	468,782	-0,032	0,051
-262,467	98,904	0,089	0,073
-261,453	-200,000	-0,002	0,028
-260,438	-200,000	0,008	-0,045
-259,424	677,457	-0,083	-0,155
-258,409	-200,000	-0,004	0,097
-257,395	-59,824	-0,072	-0,022
-256,380	50,710	-0,097	-0,066
-255,365	84,919	0,082	-0,064
-254,351	800,000	-0,021	-0,062
-253,336	-127,748	0,158	-0,016
-252,322	445,060	-0,048	-0,076
-251,307	-153,906	0,023	-0,001
-250,292	50,205	-0,046	-0,031
-249,278	-89,453	0,143	0,030
-248,263	534,055	-0,048	0,081
-247,249	-200,000	-0,017	-0,175
-246,234	20,200	0,043	-0,025
-245,219	104,256	-0,055	0,046
-244,205	145,966	0,155	-0,148
-243,190	784,881	0,003	-0,005
-242,176	-24,318	-0,060	-0,025
-241,161	179,858	0,112	-0,117
-240,146	73,747	-0,166	0,123
-239,132	-91,723	0,061	0,012
-238,117	800,000	0,021	-0,044
-237,103	42,489	-0,125	0,081
-236,088	1,316	-0,095	0,048
-235,073	-200,000	-0,012	-0,091
-234,059	260,396	0,002	-0,003
-233,044	460,443	0,082	0,131
-232,030	800,000	0,048	-0,108
-231,015	-119,033	-0,097	0,012
-230,000	-200,000	0,001	-0,194
-228,986	-200,000	0,034	-0,114
-227,971	-200,000	0,006	-0,114
-226,957	-46,488	-0,150	-0,052
-225,942	800,000	0,019	0,056
-224,927	-132,964	-0,108	0,010
-223,913	-71,651	-0,070	-0,018
-222,898	87,632	0,017	0,013
-221,884	237,003	0,016	0,019
-220,869	-126,628	0,065	-0,007
-219,855	56,010	0,059	0,041
-218,840	-200,000	-0,002	-0,040
-217,825	-200,000	0,026	0,088
-216,811	-109,448	-0,104	0,016
-215,796	-200,000	-0,004	0,039
-214,782	451,488	-0,072	-0,113
-213,767	65,199	0,072	-0,052
-212,752	800,000	0,041	0,084
-211,738	112,036	0,066	0,056
-210,723	-148,767	0,030	0,002
-209,709	-200,000	-0,035	0,117
-208,694	-200,000	0,014	0,078
-207,679	338,450	-0,056	-0,078
-206,665	363,056	0,075	0,107
-205,650	800,000	-0,035	-0,103
-204,636	275,835	0,075	-0,095
-203,621	-200,000	0,003	0,022
-202,606	-200,000	0,028	-0,129
-201,592	208,776	-0,063	-0,070
-200,577	77,690	0,029	0,022
-199,563	-125,769	0,210	0,022
-198,548	-200,000	-0,020	0,103
-197,533	461,615	0,088	0,140
-196,519	612,236	0,079	-0,141
-195,504	208,863	-0,036	-0,041
-194,490	12,754	-0,010	-0,006
-193,475	800,000	-0,012	-0,025
-192,460	-117,592	-0,093	0,012
-191,446	800,000	0,019	-0,039
-190,431	-174,267	0,045	-0,001
-189,417	-45,816	0,146	-0,051
-188,402	-87,496	0,067	-0,014
-187,387	-128,720	-0,096	-0,010
-186,373	-160,051	0,019	0,001
-185,358	800,000	-0,034	-0,072
-184,344	-131,877	0,149	0,014
-183,329	800,000	0,006	-0,017
-182,315	-61,086	-0,071	0,021
-181,300	-200,000	0,013	-0,113
-180,285	800,000	0,026	-0,066
-179,271	-200,000	-0,002	0,042
-178,256	132,822	-0,118	-0,108
-177,242	800,000	0,005	-0,013
-176,227	800,000	-0,037	-0,092
-175,212	800,000	0,041	-0,111
-174,198	-157,818	0,064	0,003
-173,183	800,000	-0,033	0,078
-172,169	-200,000	-0,015	-0,056
-171,154	-134,181	0,030	-0,003
-170,139	330,512	-0,038	0,053
-169,125	10,143	0,066	-0,035
-168,110	68,776	0,104	-0,075
-167,096	190,795	-0,053	0,057
-166,081	-22,936	-0,117	-0,050
-165,066	-140,710	-0,113	0,008
-164,052	487,566	-0,022	-0,036
-163,037	-200,000	-0,013	0,114
-162,023	-16,666	0,148	0,066
-161,008	800,000	-0,025	0,076
-159,993	-4,629	0,167	0,081
-158,979	31,069	-0,089	-0,054
-157,964	121,759	-0,045	-0,040
-156,950	-2,075	-0,062	0,031
-155,935	27,340	0,076	0,045
-154,920	800,000	-0,036	0,081
-153,906	13,486	-0,085	0,047
-152,891	-1,447	0,049	0,024
-151,877	-33,106	-0,071	-0,028
-150,862	-200,000	-0,056	-0,229
-149,847	-79,922	-0,085	-0,020
-148,833	-13,562	0,106	-0,048
-147,818	236,679	-0,120	0,141
-146,804	199,391	0,059	0,064
-145,789	236,148	0,125	0,146
-144,775	137,569	0,063	0,059
-143,760	262,371	0,069	-0,085
-142,745	183,587	-0,086	0,090
-141,731	-200,000	-0,002	0,034
-140,716	-200,000	0,011	-0,099
-139,702	-120,899	0,041	0,005
-138,687	-200,000	-0,005	-0,074
-137,672	-200,000	0,012	0,069
-136,658	-200,000	-0,037	0,120
-135,643	-2,922	-0,031	0,015
-134,629	-76,429	-0,124	-0,031
-133,614	-79,505	0,142	-0,034
-132,599	-75,884	0,170	-0,042
-131,585	-16,613	0,068	-0,030
-130,570	-2,948	-0,141	-0,070
-129,556	408,019	-0,054	-0,081
-128,541	-200,000	0,012	0,042
-127,526	800,000	0,076	-0,173
-126,512	170,148	-0,056	0,057
-125,497	-142,315	0,033	-0,002
-124,483	-88,575	0,098	-0,021
-123,468	79,912	-0,151	-0,115
-122,453	-200,000	-0,039	-0,191
-121,439	380,695	-0,011	0,016
-120,424	-200,000	0,000	0,023
-119,410	800,000	-0,055	0,128
-118,395	800,000	-0,030	-0,072
-117,380	-111,803	-0,082	0,012
-116,366	-200,000	0,025	0,081
-115,351	800,000	-0,081	0,159
-114,337	174,164	0,049	-0,050
-113,322	-200,000	-0,011	-0,112
-112,307	-200,000	0,034	-0,177
-111,293	-63,167	-0,059	0,017
-110,278	800,000	-0,020	-0,053
-109,264	-200,000	0,021	0,114
-108,249	-107,539	0,168	-0,026
-107,234	-200,000	0,011	0,074
-106,220	-39,917	-0,076	-0,028
-105,205	-55,127	0,110	0,035
-104,191	234,847	-0,090	-0,106
-103,176	-200,000	0,027	-0,118
-102,162	-24,023	0,097	-0,041
-101,147	-200,000	-0,002	-0,029
-100,132	-200,000	0,027	0,111
-99,118	157,478	0,055	-0,054
-98,103	147,358	-0,060	-0,057
-97,089	151,718	-0,055	-0,053
-96,074	-86,741	0,035	0,008
-95,059	-57,185	-0,118	-0,036
-94,045	-200,000	0,035	0,124
-93,030	-114,830	-0,019	0,003
-92,016	69,800	0,066	-0,048
-91,001	-200,000	0,000	0,090
-89,986	800,000	0,048	0,098
-88,972	-61,392	0,111	0,033
-87,957	-34,861	0,136	-0,052
-86,943	313,068	-0,083	-0,111
-85,928	23,680	-0,132	-0,077
-84,913	-200,000	0,071	0,223
-83,899	-200,000	0,036	-0,183
-82,884	800,000	0,063	0,124
-81,870	-200,000	-0,014	0,131
-80,855	348,040	-0,071	0,099
-79,840	-16,043	-0,058	0,026
-78,826	13,668	0,108	-0,059
-77,811	13,847	0,073	-0,040
-76,797	328,034	-0,033	-0,045
-75,782	209,848	0,027	-0,030
-74,767	-200,000	0,026	0,095
-73,753	180,962	0,087	0,090
-72,738	-25,394	-0,039	0,016
-71,724	800,000	-0,065	-0,168
-70,709	800,000	0,062	-0,172
-69,694	-200,000	0,044	-0,189
-68,680	-200,000	0,008	0,036
-67,665	-200,000	0,014	0,054
-66,651	121,146	0,042	-0,037
-65,636	-200,000	0,010	-0,040
-64,622	347,860	0,047	-0,065
-63,607	238,190	-0,080	-0,094
-62,592	-125,272	0,062	0,007
-61,578	-59,067	0,104	-0,032
-60,563	800,000	0,070	0,138
-59,549	-183,827	0,114	-0,001
-58,534	-26,928	-1,720	-0,707
-57,519	473,425	-1,379	-2,205
-56,505	-200,000	-0,473	-4,329
-55,490	203,904	0,964	1,056
-54,476	800,000	5,000	11,183
-53,461	-200,000	18,972	313,132
-52,446	-200,000	737,225	2311,189
-51,432	571,710	1650,811	2853,360
-50,417	78,482	1666,651	1257,621
-49,403	21,514	1539,749	882,957
-48,388	15,399	1462,405	809,003
-47,373	17,991	1452,610	816,025
-46,359	16,817	1442,464	804,685
-45,344	13,635	1437,917	786,940
-44,330	13,589	1435,964	785,624
-43,315	13,567	1434,480	784,675
-42,300	13,604	1432,662	783,824
-41,286	13,637	1431,428	783,277
-40,271	13,590	1430,173	782,333
-39,257	13,581	1428,760	781,486
-38,242	13,590	1427,676	780,904
-37,227	13,635	1426,548	780,469
-36,213	13,661	1425,036	779,738
-35,198	13,626	1424,013	778,977
-34,184	13,672	1423,066	778,646
-33,169	13,633	1421,567	777,615
-32,154	13,684	1420,627	777,306
-31,140	13,692	1419,030	776,442
-30,125	13,638	1418,245	775,727
-29,111	13,712	1417,000	775,364
-28,096	13,635	1415,926	774,383
-27,082	13,581	1415,110	773,652
-26,067	13,556	1413,792	772,783
-25,052	13,558	1412,885	772,264
-24,038	13,541	1411,746	771,534
-23,023	13,530	1410,758	770,913
-22,009	13,547	1409,925	770,504
-20,994	13,529	1408,900	769,832
-19,979	13,511	1408,234	769,351
-18,965	13,462	1407,249	768,556
-17,950	13,521	1406,168	768,208
-16,936	13,545	1405,141	767,727
-15,921	13,463	1404,149	766,776
-14,906	13,469	1403,333	766,328
-13,892	13,483	1402,487	765,899
-12,877	13,484	1401,484	765,327
-11,863	13,463	1400,447	764,634
-10,848	13,447	1399,619	764,075
-9,833	13,428	1398,781	763,498
-8,819	13,428	1397,718	762,889
-7,804	13,381	1396,913	762,203
-6,790	13,371	1396,138	761,703
-5,775	13,359	1394,886	760,932
-4,760	13,416	1393,832	760,593
-3,746	13,355	1393,116	759,889
-2,731	13,367	1392,330	759,485
-1,717	13,314	1391,484	758,747
-0,702	13,343	1389,660	757,857
0,313	17,292	1307,298	731,136
1,327	33,656	702,706	430,697
2,342	51,628	123,301	82,685
3,356	4,760	16,536	8,556
4,371	7,611	3,170	1,670
5,386	11,318	0,567	0,306
6,400	214,757	0,172	0,193
7,415	661,389	-0,144	-0,263
8,429	-2,131	-0,400	-0,198
9,444	79,912	-0,337	-0,256
10,459	-44,369	-0,272	-0,096
11,473	12,513	-0,324	-0,176
12,488	129,262	-0,221	-0,199
13,502	63,552	-0,331	-0,234
14,517	132,484	-0,206	-0,188
15,531	167,267	-0,299	-0,300
16,546	106,306	-0,265	-0,222
17,561	92,934	-0,387	-0,308
18,575	75,067	-0,139	-0,103
19,590	248,560	-0,220	-0,264
20,604	9,014	-0,357	-0,189
21,619	159,314	-0,301	-0,296
22,634	87,581	-0,427	-0,333
23,648	102,993	-0,427	-0,353
24,663	65,518	-0,356	-0,254
25,677	177,176	-0,175	-0,180
26,692	407,344	-0,174	-0,260
27,707	52,808	-0,407	-0,274
28,721	107,733	-0,371	-0,312
29,736	93,906	-0,371	-0,296
30,750	105,981	-0,420	-0,350
31,765	95,469	-0,385	-0,309
32,780	197,099	-0,364	-0,392
33,794	209,823	-0,316	-0,349
34,809	46,048	-0,407	-0,265
35,823	83,186	-0,388	-0,297
36,838	229,278	-0,341	-0,392
37,853	-45,195	-0,429	-0,149
38,867	-1,526	-0,399	-0,198
39,882	19,641	-0,366	-0,207
40,896	68,004	-0,367	-0,264
41,911	114,766	-0,186	-0,160
42,926	94,268	-0,281	-0,225
43,940	267,653	-0,304	-0,375
44,955	125,995	-0,366	-0,326
45,969	335,240	-0,248	-0,340
46,984	22,765	-0,384	-0,221
47,999	24,491	-0,285	-0,166
49,013	411,627	-0,204	-0,306
50,028	-77,311	-0,325	-0,079
51,042	13,872	-0,391	-0,213
52,057	269,165	-0,214	-0,265
53,071	134,816	-0,273	-0,250
54,086	104,781	-0,241	-0,200
55,101	151,275	-0,249	-0,239
56,115	117,986	-0,315	-0,273
57,130	167,459	-0,287	-0,287
58,144	119,406	-0,249	-0,217
59,159	1,894	-0,370	-0,187
60,174	95,581	-0,290	-0,232
61,188	144,312	-0,308	-0,289
62,203	78,568	-0,308	-0,231
63,217	64,578	-0,344	-0,244
64,232	32,626	-0,433	-0,262
65,247	182,933	-0,244	-0,254
66,261	138,797	-0,394	-0,364
67,276	-41,035	-0,325	-0,117
68,290	53,231	-0,216	-0,145
69,305	21,181	-0,314	-0,179
70,320	185,645	-0,297	-0,310
71,334	-126,189	-0,237	-0,025
72,349	161,633	-0,307	-0,301
73,363	112,208	-0,235	-0,199
74,378	150,905	-0,313	-0,299
75,393	141,392	-0,275	-0,256
76,407	151,883	-0,295	-0,282
77,422	11,808	-0,218	-0,117
78,436	18,167	-0,291	-0,162
79,451	93,419	-0,332	-0,264
80,466	102,837	-0,348	-0,286
81,480	3,668	-0,311	-0,159
82,495	53,961	-0,308	-0,207
83,509	32,325	-0,354	-0,214
84,524	-41,425	-0,272	-0,098
85,539	36,705	-0,172	-0,106
86,553	-22,168	-0,334	-0,142
87,568	192,291	-0,320	-0,339
88,582	59,152	-0,391	-0,269
89,597	222,982	-0,267	-0,302
90,611	53,325	-0,201	-0,135
91,626	217,299	-0,142	-0,159
92,641	4,595	-0,386	-0,198
93,655	36,718	-0,358	-0,221
94,670	-22,800	-0,335	-0,141
95,684	262,005	-0,236	-0,287
96,699	125,296	-0,230	-0,203
97,714	119,601	-0,285	-0,247
98,728	103,171	-0,200	-0,164
99,743	-200,000	-0,362	0,000
100,757	10,360	-0,381	-0,203
101,772	-49,410	-0,221	-0,073
102,787	214,435	-0,233	-0,259
103,801	-45,211	-0,319	-0,110
104,816	-83,200	-0,229	-0,051
105,830	167,181	-0,283	-0,281
106,845	160,630	-0,195	-0,191
107,860	28,443	-0,258	-0,152
108,874	401,946	-0,223	-0,329
109,889	105,783	-0,309	-0,255
110,903	-17,227	-0,379	-0,167
111,918	69,576	-0,227	-0,164
112,933	570,706	-0,165	-0,281
113,947	-168,078	-0,131	-0,003
114,962	71,207	-0,214	-0,155
115,976	-42,686	-0,294	-0,104
116,991	98,822	-0,332	-0,268
118,006	34,969	-0,314	-0,192
119,020	800,000	-0,158	-0,315
120,035	273,833	-0,272	-0,337
121,049	75,242	-0,318	-0,234
122,064	800,000	-0,158	-0,332
123,079	236,425	-0,264	-0,306
124,093	233,346	-0,281	-0,324
125,108	255,622	-0,226	-0,271
126,122	288,654	-0,140	-0,178
127,137	-111,314	-0,425	-0,060
128,151	240,015	-0,254	-0,296
129,166	127,264	-0,304	-0,270
130,181	109,123	-0,243	-0,203
131,195	93,660	-0,198	-0,157
132,210	-9,705	-0,313	-0,145
133,224	-200,000	-0,080	-0,250
134,239	18,919	-0,270	-0,151
135,254	169,303	-0,118	-0,118
136,268	24,741	-0,264	-0,152
137,283	46,733	-0,173	-0,112
138,297	-7,286	-0,280	-0,132
139,312	63,626	-0,208	-0,146
140,327	166,784	-0,168	-0,167
141,341	106,182	-0,241	-0,199
142,356	-64,359	-0,205	0,058
143,370	167,836	-0,148	-0,147
144,385	97,627	-0,294	-0,235
145,400	11,113	-0,294	-0,156
146,414	125,804	-0,225	-0,198
147,429	180,410	-0,300	-0,308
148,443	244,754	-0,225	-0,265
149,458	97,403	-0,276	-0,221
150,473	428,150	-0,162	-0,244
151,487	-16,826	-0,180	-0,079
152,502	158,402	-0,245	-0,237
153,516	157,584	-0,222	-0,215
154,531	38,303	-0,181	-0,112
155,546	332,340	-0,127	-0,172
156,560	104,140	-0,146	-0,119
157,575	-200,000	0,018	-0,111
158,589	-200,000	-0,067	-0,239
159,604	73,051	-0,189	-0,137
160,619	285,622	-0,183	-0,231
161,633	107,056	-0,192	-0,159
162,648	105,267	-0,315	-0,259
163,662	126,911	-0,250	-0,220
164,677	800,000	-0,058	-0,174
165,692	47,281	-0,195	-0,126
166,706	80,092	-0,193	-0,145
167,721	-63,924	-0,313	-0,088
168,735	6,460	-0,134	-0,069
169,750	31,958	-0,277	-0,166
170,764	274,837	-0,186	-0,230
171,779	47,040	-0,209	-0,135
172,794	12,938	-0,276	-0,148
173,808	136,082	-0,150	-0,136
174,823	82,985	-0,241	-0,182
175,837	-200,000	-0,062	-0,255
176,852	169,074	-0,243	-0,241
177,867	171,732	-0,203	-0,203
178,881	-44,757	-0,297	-0,102
179,896	177,956	-0,170	-0,173
180,910	-200,000	-0,051	-0,181
181,925	-5,755	-0,215	-0,102
182,940	-73,276	-0,194	-0,049
183,954	510,444	-0,136	-0,221
184,969	58,953	-0,205	-0,140
185,983	180,464	-0,192	-0,196
186,998	-86,579	-0,150	-0,032
188,013	74,294	-0,114	-0,083
189,027	-124,479	-0,325	-0,035
190,042	92,224	-0,154	-0,120
191,056	145,118	-0,191	-0,178
192,071	135,568	-0,289	-0,261
193,086	285,102	-0,156	-0,196
194,100	-138,365	-0,290	0,022
195,115	21,731	-0,307	-0,173
196,129	80,159	-0,244	-0,182
197,144	108,012	-0,194	-0,161
198,159	169,165	-0,297	-0,295
199,173	311,374	-0,186	-0,243
200,188	402,511	-0,162	-0,237
201,202	75,072	-0,181	-0,132
202,217	786,210	-0,083	-0,159
203,232	101,652	-0,241	-0,195
204,246	57,331	-0,226	-0,153
205,261	150,193	-0,266	-0,251
206,275	800,000	-0,075	-0,228
207,290	-62,325	-0,163	-0,047
208,304	145,979	-0,214	-0,199
209,319	406,655	-0,157	-0,230
210,334	549,535	-0,160	-0,267
211,348	177,947	-0,174	-0,176
212,363	484,662	-0,166	-0,263
213,377	35,188	-0,097	-0,059
214,392	45,530	-0,214	-0,137
215,407	67,180	-0,110	-0,078
216,421	211,354	-0,186	-0,203
217,436	535,930	-0,100	-0,165
218,450	308,479	-0,244	-0,316
219,465	-22,921	-0,207	-0,086
220,480	-87,486	-0,152	-0,032
221,494	-47,286	-0,236	-0,079
222,509	231,656	-0,116	-0,132
223,523	-1,571	-0,287	-0,140
224,538	74,536	-0,210	-0,153
225,553	404,023	-0,170	-0,248
226,567	-72,667	-0,268	-0,068
227,582	166,563	-0,103	-0,101
228,596	800,000	-0,079	-0,182
229,611	8,476	-0,203	-0,105
230,626	-62,000	-0,229	-0,066
231,640	-6,133	-0,205	-0,096
232,655	800,000	-0,057	-0,137
233,669	12,481	-0,267	-0,142
234,684	800,000	-0,074	-0,190
235,699	-42,528	-0,182	-0,064
236,713	-74,871	-0,151	0,037
237,728	9,550	-0,219	-0,114
238,742	161,003	-0,147	-0,142
239,757	379,841	-0,088	-0,125
240,772	-4,638	-0,193	-0,092
241,786	522,297	-0,200	-0,327
242,801	56,183	-0,225	-0,151
243,815	-156,697	-0,215	0,009
244,830	-157,949	-0,088	0,004
245,844	-171,440	-0,161	0,004
246,859	66,925	-0,146	-0,103
247,874	380,062	-0,132	-0,188
248,888	-200,000	-0,045	-0,174
249,903	62,786	-0,189	-0,131
250,917	-154,865	-0,160	0,007
251,932	39,244	-0,191	-0,118
252,947	392,948	-0,119	-0,172
253,961	0,113	-0,170	-0,083
254,976	75,259	-0,210	-0,153
255,990	77,202	-0,234	-0,171
257,005	101,011	-0,170	-0,136
258,020	485,509	-0,081	-0,129
259,034	-86,500	-0,253	0,053
260,049	35,807	-0,247	-0,150
261,063	67,034	-0,187	-0,131
262,078	250,944	-0,180	-0,212
263,093	10,641	-0,244	-0,128
264,107	132,121	-0,065	-0,058
265,122	-200,000	-0,016	-0,150
266,136	5,506	-0,166	-0,084
267,151	41,661	-0,165	-0,103
268,166	-45,866	-0,204	-0,069
269,180	47,056	-0,214	-0,137
270,195	45,554	-0,192	-0,122
271,209	504,830	-0,051	-0,081
272,224	45,911	-0,194	-0,124
273,239	-122,629	-0,122	0,013
274,253	68,649	-0,074	0,053
275,268	146,802	-0,236	-0,219
276,282	157,121	-0,203	-0,194
277,297	224,017	-0,145	-0,162
278,312	-60,245	-0,149	-0,043
279,326	287,285	-0,167	-0,209
280,341	346,547	-0,061	-0,082
281,355	169,902	-0,105	-0,104
282,370	245,217	-0,139	-0,162
283,384	68,117	-0,223	-0,157
284,399	395,711	-0,116	-0,168
285,414	-8,930	-0,187	-0,086
286,428	211,945	-0,126	-0,137
287,443	57,464	-0,180	-0,121
288,457	131,806	-0,147	-0,130
289,472	-200,000	-0,038	-0,149
290,487	800,000	-0,069	-0,179
291,501	470,350	-0,192	-0,299
292,516	-52,041	-0,222	-0,070
293,530	166,905	-0,064	-0,063
294,545	304,589	-0,129	-0,165
295,560	-6,583	-0,131	-0,061
296,574	-200,000	-0,005	-0,022
297,589	-45,225	-0,184	-0,063
298,603	-45,906	-0,125	-0,042
299,618	-14,919	-0,172	-0,076
300,633	232,014	-0,135	-0,152
301,647	515,667	-0,100	-0,162
302,662	-200,000	-0,042	-0,247
303,676	120,806	-0,032	-0,028
304,691	331,761	-0,201	-0,268
305,706	12,392	-0,201	-0,106
306,720	254,256	-0,074	-0,088
307,735	273,918	-0,088	-0,107
308,749	-200,000	-0,053	-0,197
309,764	-41,417	-0,018	0,006
310,779	142,739	-0,060	-0,055
311,793	113,244	-0,064	0,054
312,808	-66,432	-0,138	-0,038
313,822	195,995	-0,150	-0,157
314,837	213,468	-0,041	-0,045
315,852	-200,000	0,020	-0,092
316,866	-129,669	-0,285	0,027
317,881	180,190	0,025	-0,025
318,895	800,000	-0,099	-0,233
319,910	272,773	-0,143	-0,174
320,925	-200,000	-0,032	-0,124
321,939	98,734	-0,130	-0,103
322,954	345,450	-0,140	-0,189
323,968	205,814	-0,085	-0,091
324,983	11,841	-0,204	-0,107
325,997	800,000	-0,052	-0,134
327,012	402,776	-0,145	-0,210
328,027	-1,820	-0,160	-0,077
329,041	-12,949	-0,158	-0,070
330,056	-7,212	-0,136	-0,063
331,070	39,229	-0,130	-0,080
332,085	800,000	-0,073	-0,179
333,100	-32,476	-0,099	-0,038
334,114	111,246	-0,071	0,059
335,129	-165,595	-0,194	0,006
336,143	-20,028	-0,235	-0,099
337,158	-68,321	-0,043	0,011
338,173	-200,000	-0,006	-0,174
339,187	23,168	-0,118	-0,066
340,202	126,020	-0,126	-0,109
341,216	192,421	-0,116	-0,121
342,231	118,634	-0,110	-0,093
343,246	-200,000	-0,013	-0,049
344,260	-76,349	-0,082	0,020
345,275	246,028	-0,024	-0,028
346,289	-82,442	-0,205	0,045
347,304	-12,885	-0,178	-0,079
348,319	-95,886	-0,161	-0,029
349,333	14,105	-0,149	-0,079
350,348	28,525	-0,219	-0,127
351,362	11,059	-0,202	-0,105
352,377	273,310	-0,117	-0,142
353,392	163,219	-0,143	-0,137
354,406	-144,208	-0,209	0,013
355,421	209,953	1312,592	1412,101
356,435	161,606	1473,083	1412,605
