DTS Sentinel unit serial number:	SN410029Multiplexer serial number:	ORYXHardware model number:	OX2-SRSoftware version number:	ORYX F/W v4,00 Oryx Data Collector v3.7.2.0data status	okinstallation	B3 Nyhavnadifferential loss correction	single-endedforward channel	channel 1reverse channel	N/Adate	2023/12/04time	15:37:30forward acquisition time	300,00reverse acquisition time	0,00gamma	499,1914k internal	0,3200k external	0,3200temperature offset calibration	1,0000default loss term (dB/km)	0,3820temperature slope calibration	1,0000multiplexer offset coefficient	1,0000multiplexer slope coefficient	1,0000fibre end	0,00T internal ref (°C)	15,13T ext. ref 1 (°C)	0,39T ext. ref 2 (°C)	0,38length (m)	temperature (°C)	Stokes	anti-Stokes-744,400	194,241	-0,187	-0,207
-743,385	-200,000	-0,003	0,307
-742,371	-200,000	-0,087	-0,293
-741,356	-200,000	-0,000	0,301
-740,342	161,996	-0,214	-0,218
-739,327	-200,000	-0,072	0,260
-738,312	293,295	-0,199	-0,265
-737,298	-200,000	0,043	0,293
-736,283	8,061	-0,286	-0,155
-735,269	-200,000	0,003	0,288
-734,254	41,761	-0,199	-0,131
-733,239	544,626	-0,083	0,145
-732,225	69,367	-0,199	-0,149
-731,210	-200,000	0,006	0,061
-730,196	800,000	-0,015	-0,034
-729,181	-200,000	0,023	0,144
-728,167	176,504	-0,016	0,017
-727,152	-200,000	-0,007	0,113
-726,137	-200,000	-0,009	-0,082
-725,123	-109,642	-0,060	-0,009
-724,108	-200,000	-0,047	-0,176
-723,094	-109,157	-0,093	-0,014
-722,079	-85,248	-0,113	0,025
-721,064	-200,000	0,000	-0,008
-720,050	800,000	-0,028	-0,086
-719,035	225,455	0,041	0,049
-718,021	293,037	0,023	0,031
-717,006	-45,480	-0,094	0,034
-715,991	800,000	0,083	-0,195
-714,977	532,957	-0,056	-0,098
-713,962	648,994	0,044	0,082
-712,948	165,241	0,047	-0,048
-711,933	-200,000	-0,008	0,049
-710,918	800,000	-0,028	-0,081
-709,904	162,052	-0,041	-0,042
-708,889	-25,412	-0,047	-0,020
-707,875	16,056	-0,041	0,024
-706,860	46,838	-0,057	-0,039
-705,845	-200,000	0,012	0,072
-704,831	-121,900	-0,151	0,018
-703,816	-15,051	0,062	-0,029
-702,802	-112,361	-0,066	0,009
-701,787	-124,243	-0,049	0,005
-700,772	-200,000	0,025	-0,093
-699,758	362,880	-0,018	-0,026
-698,743	680,231	0,057	0,108
-697,729	800,000	-0,093	0,227
-696,714	20,775	0,136	-0,080
-695,699	-200,000	-0,023	-0,130
-694,685	-200,000	-0,040	-0,216
-693,670	-200,000	-0,027	-0,125
-692,656	-200,000	-0,003	0,012
-691,641	-200,000	0,001	0,044
-690,627	-200,000	-0,019	0,064
-689,612	-89,781	0,068	0,014
-688,597	800,000	-0,025	0,059
-687,583	325,054	-0,081	-0,113
-686,568	-26,538	-0,090	0,038
-685,554	17,605	0,057	-0,033
-684,539	-5,903	-0,073	-0,036
-683,524	30,169	-0,093	0,057
-682,510	800,000	-0,042	-0,108
-681,495	800,000	-0,049	-0,134
-680,481	315,326	-0,100	0,137
-679,466	-163,890	0,009	0,000
-678,451	800,000	-0,023	-0,072
-677,437	127,274	-0,141	-0,129
-676,422	33,563	0,060	-0,038
-675,408	-200,000	-0,007	-0,087
-674,393	-109,455	-0,070	-0,011
-673,378	599,877	-0,075	-0,136
-672,364	54,035	-0,092	-0,064
-671,349	-160,398	0,039	0,001
-670,335	-200,000	0,010	-0,069
-669,320	-111,776	0,005	-0,001
-668,305	44,614	0,051	-0,034
-667,291	229,941	0,110	0,131
-666,276	47,109	-0,008	0,005
-665,262	182,594	-0,013	0,014
-664,247	-77,431	-0,101	-0,025
-663,232	800,000	-0,046	0,120
-662,218	-16,998	-0,172	-0,078
-661,203	-113,262	-0,110	-0,016
-660,189	-200,000	-0,023	0,075
-659,174	196,250	0,046	0,051
-658,159	-34,344	0,052	-0,021
-657,145	330,667	0,037	-0,051
-656,130	800,000	0,010	-0,026
-655,116	118,541	0,049	-0,044
-654,101	-99,263	-0,040	0,007
-653,086	800,000	-0,044	-0,105
-652,072	800,000	-0,033	-0,088
-651,057	186,887	-0,107	0,115
-650,043	-200,000	0,001	0,177
-649,028	415,469	-0,057	-0,089
-648,014	-69,022	0,053	-0,015
-646,999	-82,219	0,114	-0,027
-645,984	5,660	0,062	0,033
-644,970	-44,750	0,004	0,002
-643,955	36,276	0,056	0,036
-642,941	-200,000	0,005	0,043
-641,926	-71,589	-0,063	0,017
-640,911	-200,000	0,002	-0,084
-639,897	27,152	0,055	0,033
-638,882	-200,000	-0,029	0,170
-637,868	-200,000	-0,029	0,104
-636,853	-200,000	-0,000	0,040
-635,838	59,608	0,083	-0,059
-634,824	107,667	-0,027	0,023
-633,809	9,340	-0,035	0,019
-632,795	87,741	0,070	0,056
-631,780	2,197	-0,122	0,064
-630,765	301,630	0,026	0,035
-629,751	136,985	-0,125	-0,118
-628,736	448,526	-0,065	0,104
-627,722	-200,000	-0,014	-0,116
-626,707	-200,000	0,003	-0,079
-625,692	-72,809	0,024	-0,006
-624,678	6,042	0,098	-0,052
-623,663	63,632	0,022	-0,016
-622,649	145,358	-0,132	-0,128
-621,634	97,676	-0,037	-0,031
-620,619	470,124	-0,053	-0,086
-619,605	-96,007	-0,104	-0,020
-618,590	-144,782	-0,067	0,004
-617,576	-165,068	0,087	0,003
-616,561	100,866	0,064	-0,054
-615,546	211,225	-0,030	-0,034
-614,532	181,385	-0,117	-0,125
-613,517	248,510	-0,110	-0,135
-612,503	-200,000	-0,026	-0,115
-611,488	684,480	0,039	-0,073
-610,474	800,000	-0,030	0,065
-609,459	127,453	-0,052	0,048
-608,444	-6,685	-0,085	-0,042
-607,430	303,555	-0,115	-0,154
-606,415	-189,055	-0,107	-0,001
-605,401	-200,000	0,015	0,081
-604,386	800,000	0,054	0,148
-603,371	566,426	-0,030	-0,054
-602,357	-200,000	0,011	-0,108
-601,342	163,268	0,065	0,066
-600,328	207,771	-0,058	-0,065
-599,313	-200,000	-0,044	-0,174
-598,298	-200,000	-0,006	-0,051
-597,284	800,000	-0,024	-0,067
-596,269	0,386	0,155	0,080
-595,255	-43,607	-0,149	0,054
-594,240	-200,000	-0,020	-0,119
-593,225	66,204	-0,106	0,078
-592,211	-100,826	0,032	0,006
-591,196	72,500	0,057	0,043
-590,182	9,256	-0,021	-0,011
-589,167	800,000	0,051	0,125
-588,152	512,294	-0,031	0,052
-587,138	-200,000	-0,005	-0,118
-586,123	-200,000	0,028	-0,169
-585,109	-200,000	-0,046	-0,157
-584,094	155,296	-0,111	0,110
-583,079	136,041	-0,082	-0,077
-582,065	-80,402	0,082	0,020
-581,050	211,373	0,024	0,028
-580,036	270,418	0,082	0,105
-579,021	-22,502	-0,053	-0,023
-578,006	80,376	-0,032	-0,025
-576,992	47,570	-0,130	-0,088
-575,977	-200,000	0,009	-0,051
-574,963	8,316	-0,063	0,034
-573,948	-116,605	-0,049	-0,006
-572,934	-184,211	-0,049	0,001
-571,919	800,000	0,023	-0,071
-570,904	-200,000	0,035	-0,122
-569,890	-200,000	0,009	-0,191
-568,875	180,436	-0,087	-0,093
-567,861	184,292	0,077	-0,082
-566,846	148,840	0,059	0,058
-565,831	278,578	-0,025	-0,033
-564,817	386,949	-0,064	-0,096
-563,802	219,481	-0,058	-0,067
-562,788	402,230	-0,035	-0,053
-561,773	800,000	-0,034	-0,076
-560,758	163,129	0,045	0,046
-559,744	-200,000	0,001	0,010
-558,729	50,775	0,081	0,055
-557,715	-131,895	-0,107	-0,010
-556,700	64,373	0,090	-0,066
-555,685	800,000	-0,036	-0,089
-554,671	-200,000	0,003	-0,080
-553,656	-34,599	0,062	0,024
-552,642	-93,850	-0,047	0,009
-551,627	-200,000	0,040	0,186
-550,612	-110,606	-0,040	0,006
-549,598	-200,000	0,024	0,108
-548,583	-200,000	-0,011	0,125
-547,569	167,448	0,011	-0,011
-546,554	141,428	-0,031	-0,029
-545,539	800,000	0,060	0,157
-544,525	-200,000	0,013	0,071
-543,510	-200,000	-0,020	0,084
-542,496	-200,000	-0,006	-0,068
-541,481	-136,301	-0,152	0,013
-540,466	-61,305	0,031	-0,009
-539,452	-134,865	0,066	0,006
-538,437	243,302	0,202	0,245
-537,423	-200,000	-0,005	0,198
-536,408	-200,000	-0,004	0,034
-535,393	13,421	-0,026	0,015
-534,379	-200,000	-0,017	-0,053
-533,364	33,390	-0,118	0,074
-532,350	-116,881	0,050	-0,007
-531,335	-200,000	0,003	0,100
-530,321	-49,551	0,179	-0,061
-529,306	800,000	0,037	-0,087
-528,291	163,989	-0,049	-0,049
-527,277	525,998	-0,041	-0,069
-526,262	-200,000	-0,002	0,016
-525,248	10,572	0,128	0,070
-524,233	-200,000	-0,012	0,069
-523,218	-200,000	-0,009	-0,046
-522,204	-116,974	0,130	-0,017
-521,189	-111,594	-0,070	-0,010
-520,175	171,483	-0,039	0,041
-519,160	92,292	0,032	0,026
-518,145	211,595	-0,038	-0,043
-517,131	38,402	0,076	0,049
-516,116	-11,184	-0,062	0,030
-515,102	87,535	-0,099	0,079
-514,087	-7,205	0,047	0,023
-513,072	800,000	-0,032	-0,071
-512,058	30,308	-0,046	-0,028
-511,043	800,000	-0,028	-0,068
-510,029	-200,000	0,002	0,124
-509,014	83,806	0,055	0,043
-507,999	55,857	0,090	0,063
-506,985	-200,000	0,005	-0,065
-505,970	-200,000	0,041	-0,132
-504,956	529,820	-0,079	-0,135
-503,941	147,280	0,077	-0,075
-502,926	408,939	0,078	0,120
-501,912	-19,227	0,057	-0,025
-500,897	341,053	0,107	-0,151
-499,883	800,000	-0,046	-0,108
-498,868	-97,188	-0,141	-0,026
-497,853	635,170	-0,061	0,111
-496,839	-98,626	0,154	0,028
-495,824	-200,000	-0,026	0,087
-494,810	404,058	0,032	0,049
-493,795	520,685	0,064	0,109
-492,781	-130,824	-0,043	-0,004
-491,766	-58,614	-0,059	0,018
-490,751	-200,000	-0,004	0,125
-489,737	-72,509	-0,104	-0,027
-488,722	48,515	-0,033	0,022
-487,708	42,113	0,146	0,095
-486,693	800,000	-0,061	0,133
-485,678	-41,969	0,040	-0,015
-484,664	-78,241	-0,154	0,038
-483,649	229,490	-0,091	-0,107
-482,635	-200,000	-0,028	0,093
-481,620	202,204	0,060	0,067
-480,605	-200,000	0,016	-0,088
-479,591	623,366	-0,043	-0,079
-478,576	-200,000	-0,004	-0,088
-477,562	-12,578	0,114	-0,053
-476,547	12,177	0,044	0,024
-475,532	-200,000	-0,002	0,070
-474,518	-167,150	0,073	-0,002
-473,503	-51,916	0,060	0,020
-472,489	800,000	-0,039	-0,085
-471,474	-191,336	0,081	0,001
-470,459	800,000	0,028	-0,076
-469,445	800,000	-0,093	-0,237
-468,430	83,331	-0,070	-0,055
-467,416	172,374	0,139	0,144
-466,401	476,097	0,071	-0,116
-465,386	800,000	-0,047	0,133
-464,372	-119,288	-0,073	0,009
-463,357	-200,000	0,022	-0,092
-462,343	20,740	0,045	-0,026
-461,328	225,394	-0,014	0,016
-460,313	581,083	0,020	0,036
-459,299	-200,000	0,029	0,099
-458,284	34,052	-0,073	-0,046
-457,270	729,396	-0,014	0,027
-456,255	-97,625	-0,074	0,014
-455,241	-75,945	-0,158	-0,040
-454,226	-200,000	0,031	-0,114
-453,211	-14,829	0,104	-0,048
-452,197	800,000	-0,018	0,038
-451,182	280,960	0,070	-0,091
-450,168	-169,674	0,049	0,001
-449,153	-200,000	0,001	0,035
-448,138	443,400	-0,043	-0,069
-447,124	34,216	0,087	0,054
-446,109	74,382	0,096	0,073
-445,095	-69,406	0,182	0,050
-444,080	63,387	-0,102	0,073
-443,065	-200,000	0,006	0,040
-442,051	800,000	-0,021	0,046
-441,036	-200,000	-0,012	0,090
-440,022	-160,908	0,152	-0,006
-439,007	-145,039	-0,119	0,008
-437,992	10,091	0,097	-0,053
-436,978	-123,737	0,069	0,008
-435,963	-200,000	-0,021	0,117
-434,949	-179,368	-0,072	0,001
-433,934	118,782	-0,070	-0,062
-432,919	342,107	0,045	-0,063
-431,905	800,000	0,023	0,057
-430,890	-164,555	0,060	-0,002
-429,876	15,674	-0,024	-0,014
-428,861	-200,000	-0,004	-0,089
-427,846	5,870	0,089	-0,047
-426,832	786,639	-0,060	-0,119
-425,817	49,825	-0,062	-0,042
-424,803	-200,000	0,006	-0,040
-423,788	800,000	0,072	0,151
-422,773	-33,117	0,215	-0,085
-421,759	285,133	0,026	-0,033
-420,744	96,867	0,111	0,091
-419,730	-200,000	-0,003	-0,065
-418,715	6,801	0,066	-0,035
-417,701	-66,402	0,056	0,016
-416,686	562,701	-0,063	0,110
-415,671	65,674	0,108	0,079
-414,657	800,000	-0,028	0,064
-413,642	-200,000	-0,009	0,108
-412,628	56,710	0,085	0,060
-411,613	-111,847	-0,156	0,022
-410,598	-82,227	-0,048	0,011
-409,584	-176,872	0,120	0,002
-408,569	-85,113	0,022	0,005
-407,555	-153,245	0,029	-0,001
-406,540	31,855	0,079	-0,049
-405,525	-111,263	0,073	0,011
-404,511	-36,553	-0,110	0,042
-403,496	800,000	0,024	-0,067
-402,482	-200,000	-0,027	-0,121
-401,467	-108,661	0,120	0,018
-400,452	-64,757	0,091	-0,026
-399,438	58,009	-0,114	-0,080
-398,423	-97,357	-0,099	0,018
-397,409	-106,082	0,074	0,012
-396,394	-117,159	0,120	0,015
-395,379	-99,937	0,042	0,007
-394,365	-144,595	0,062	-0,004
-393,350	-36,645	-0,050	-0,019
-392,336	1,308	-0,008	-0,004
-391,321	212,628	0,051	0,058
-390,306	-139,843	0,097	0,007
-389,292	-200,000	-0,029	-0,137
-388,277	112,002	-0,037	0,032
-387,263	76,983	0,010	-0,008
-386,248	125,138	0,089	0,080
-385,233	419,551	0,054	-0,083
-384,219	-200,000	0,001	-0,060
-383,204	-200,000	-0,014	-0,059
-382,190	795,217	0,062	-0,124
-381,175	-132,016	-0,046	0,004
-380,160	-200,000	0,006	-0,059
-379,146	-196,346	-0,015	0,000
-378,131	253,854	0,030	0,037
-377,117	329,247	0,037	0,051
-376,102	-67,736	0,050	-0,014
-375,088	-116,953	-0,190	-0,025
-374,073	601,462	-0,040	0,072
-373,058	52,225	0,015	0,010
-372,044	-14,001	0,060	0,028
-371,029	304,058	-0,014	0,019
-370,015	-200,000	-0,005	0,046
-369,000	230,994	-0,026	-0,030
-367,985	-200,000	-0,004	0,110
-366,971	-115,161	-0,140	0,019
-365,956	-16,002	0,010	-0,005
-364,942	46,306	0,090	0,060
-363,927	-199,429	-0,110	-0,000
-362,912	206,987	0,082	-0,092
-361,898	800,000	-0,053	-0,111
-360,883	49,486	0,067	-0,045
-359,869	-73,152	-0,199	-0,052
-358,854	-200,000	0,011	0,076
-357,839	5,262	0,058	-0,031
-356,825	152,492	0,088	0,087
-355,810	-200,000	0,020	0,126
-354,796	-14,895	0,107	0,049
-353,781	-200,000	0,029	-0,122
-352,766	-126,592	-0,053	0,006
-351,752	-62,584	-0,054	-0,016
-350,737	224,314	0,013	-0,015
-349,723	800,000	-0,023	0,049
-348,708	-200,000	-0,005	-0,096
-347,693	800,000	0,046	-0,129
-346,679	-200,000	0,004	-0,051
-345,664	800,000	0,030	-0,093
-344,650	-55,501	0,111	0,035
-343,635	-51,878	0,100	-0,033
-342,620	800,000	0,041	0,125
-341,606	800,000	0,021	0,053
-340,591	800,000	0,013	-0,030
-339,577	65,674	-0,022	-0,016
-338,562	800,000	-0,023	-0,068
-337,548	-200,000	-0,012	0,043
-336,533	31,217	0,142	0,087
-335,518	750,992	0,056	0,108
-334,504	428,899	0,085	0,131
-333,489	146,530	-0,078	-0,075
-332,475	800,000	-0,090	-0,214
-331,460	317,386	-0,100	-0,136
-330,445	-200,000	0,003	-0,063
-329,431	72,552	-0,124	0,092
-328,416	-200,000	0,020	0,107
-327,402	-200,000	-0,016	0,090
-326,387	-200,000	0,018	0,144
-325,372	308,506	-0,019	-0,025
-324,358	144,900	-0,167	-0,160
-323,343	742,884	-0,053	-0,102
-322,329	-154,670	-0,099	0,005
-321,314	-98,999	0,043	-0,008
-320,299	-200,000	-0,007	0,217
-319,285	800,000	0,044	0,130
-318,270	-133,817	-0,210	0,018
-317,256	78,835	-0,029	-0,022
-316,241	56,553	0,076	-0,053
-315,226	-200,000	0,014	-0,087
-314,212	692,984	0,071	0,135
-313,197	-200,000	0,052	0,170
-312,183	-57,993	0,103	0,032
-311,168	77,425	-0,076	-0,058
-310,153	800,000	0,062	-0,148
-309,139	-123,755	0,135	0,015
-308,124	-200,000	0,010	0,085
-307,110	800,000	0,066	-0,174
-306,095	65,261	0,033	0,024
-305,080	165,479	0,079	0,080
-304,066	-43,558	-0,080	-0,029
-303,051	300,388	-0,087	0,114
-302,037	800,000	-0,026	-0,073
-301,022	800,000	0,038	-0,118
-300,008	-200,000	0,020	-0,130
-298,993	93,556	-0,075	0,061
-297,978	-163,235	0,081	-0,003
-296,964	-9,944	-0,057	-0,027
-295,949	496,793	-0,034	-0,056
-294,935	-200,000	-0,025	-0,154
-293,920	161,364	-0,022	-0,022
-292,905	-82,220	0,062	0,014
-291,891	351,441	0,095	0,134
-290,876	166,303	0,037	0,037
-289,862	-200,000	-0,001	-0,013
-288,847	13,129	-0,056	-0,031
-287,832	-142,075	0,020	0,001
-286,818	-146,365	0,061	-0,004
-285,803	187,213	0,074	-0,079
-284,789	-200,000	-0,036	0,113
-283,774	-89,036	-0,109	-0,023
-282,759	133,539	0,074	-0,069
-281,745	279,656	-0,067	-0,086
-280,730	609,332	0,060	-0,108
-279,716	-71,932	-0,177	-0,047
-278,701	4,466	-0,066	-0,034
-277,686	-200,000	-0,004	0,075
-276,672	-200,000	0,003	0,032
-275,657	-107,615	0,102	0,016
-274,643	800,000	-0,029	-0,067
-273,628	-18,623	-0,100	-0,044
-272,613	-110,634	0,071	-0,010
-271,599	800,000	0,062	-0,128
-270,584	122,632	-0,118	-0,105
-269,570	-200,000	0,015	0,089
-268,555	341,780	-0,008	0,011
-267,540	-36,270	0,060	-0,023
-266,526	-155,475	-0,198	0,009
-265,511	-123,888	-0,176	0,020
-264,497	-200,000	0,009	0,101
-263,482	148,314	0,098	-0,094
-262,467	588,121	0,077	-0,136
-261,453	54,125	0,050	-0,034
-260,438	800,000	-0,026	-0,061
-259,424	2,371	0,031	0,016
-258,409	-162,207	-0,047	0,002
-257,395	-200,000	-0,006	-0,029
-256,380	684,131	-0,056	0,105
-255,365	800,000	-0,062	0,164
-254,351	515,445	0,045	0,075
-253,336	53,483	0,074	0,051
-252,322	800,000	-0,023	-0,050
-251,307	-145,499	0,122	-0,008
-250,292	800,000	-0,008	-0,024
-249,278	195,108	0,061	0,066
-248,263	-200,000	-0,006	0,042
-247,249	113,655	0,078	-0,068
-246,234	40,732	-0,138	-0,089
-245,219	-200,000	-0,076	0,000
-244,205	800,000	0,056	0,168
-243,190	-147,612	0,112	-0,007
-242,176	263,444	-0,055	0,069
-241,161	-22,573	0,051	-0,022
-240,146	800,000	-0,025	0,059
-239,132	800,000	-0,039	0,089
-238,117	79,446	-0,050	0,038
-237,103	-200,000	-0,023	0,094
-236,088	270,495	-0,025	-0,032
-235,073	-200,000	0,006	0,161
-234,059	800,000	0,043	0,093
-233,044	260,454	0,072	0,089
-232,030	-176,889	-0,045	0,001
-231,015	91,659	-0,098	-0,078
-230,000	-82,326	-0,109	-0,025
-228,986	-79,396	0,039	-0,009
-227,971	-200,000	-0,004	0,013
-226,957	-200,000	-0,025	-0,149
-225,942	81,758	0,064	0,049
-224,927	443,796	-0,060	-0,095
-223,913	800,000	-0,029	0,071
-222,898	-29,174	0,110	-0,045
-221,884	-56,139	0,086	0,027
-220,869	73,970	-0,136	0,102
-219,855	800,000	-0,043	-0,097
-218,840	-6,856	0,089	0,043
-217,825	-55,568	-0,095	-0,030
-216,811	800,000	-0,009	0,022
-215,796	-114,126	-0,134	0,018
-214,782	-110,993	-0,159	-0,023
-213,767	697,850	-0,078	0,148
-212,752	-151,571	0,128	-0,007
-211,738	-200,000	0,009	0,229
-210,723	400,518	0,068	0,101
-209,709	-135,043	0,105	0,009
-208,694	775,608	0,035	0,068
-207,679	25,161	0,106	0,063
-206,665	16,926	-0,038	0,021
-205,650	-200,000	0,018	0,077
-204,636	-47,533	0,121	0,042
-203,621	-67,351	-0,095	0,026
-202,606	800,000	-0,035	0,102
-201,592	-104,998	0,143	0,023
-200,577	800,000	-0,006	0,013
-199,563	115,807	-0,090	0,078
-198,548	-87,845	0,064	0,014
-197,533	-88,918	-0,050	0,010
-196,519	46,814	0,067	-0,044
-195,504	-93,381	-0,197	-0,039
-194,490	-31,565	-0,067	-0,027
-193,475	36,522	0,056	0,035
-192,460	-200,000	-0,023	-0,120
-191,446	16,620	-0,068	0,038
-190,431	-32,723	0,016	0,006
-189,417	-200,000	-0,013	-0,042
-188,402	112,708	-0,087	-0,075
-187,387	-200,000	0,024	-0,194
-186,373	28,269	-0,074	0,044
-185,358	-200,000	-0,000	0,060
-184,344	-91,656	-0,027	0,005
-183,329	57,343	0,099	0,068
-182,315	-68,342	-0,085	-0,023
-181,300	240,859	0,069	-0,083
-180,285	1,740	-0,097	0,050
-179,271	-200,000	-0,005	0,144
-178,256	-200,000	0,012	-0,060
-177,242	225,329	-0,034	0,039
-176,227	146,382	-0,024	-0,023
-175,212	60,469	0,064	0,045
-174,198	-36,592	0,144	0,055
-173,183	171,260	-0,121	0,124
-172,169	-200,000	-0,003	0,058
-171,154	26,571	-0,068	-0,040
-170,139	262,054	-0,032	0,039
-169,125	-106,496	0,037	-0,006
-168,110	89,042	-0,031	-0,025
-167,096	110,834	-0,040	-0,034
-166,081	-154,911	-0,116	-0,005
-165,066	198,121	-0,058	-0,063
-164,052	432,960	-0,018	-0,027
-163,037	182,869	0,031	0,033
-162,023	-53,089	0,114	0,037
-161,008	78,104	0,085	0,064
-159,993	149,745	-0,048	-0,046
-158,979	758,374	-0,015	0,029
-157,964	-40,806	-0,042	0,016
-156,950	-200,000	-0,015	-0,118
-155,935	36,349	-0,156	0,097
-154,920	30,929	0,116	-0,070
-153,906	155,208	-0,025	-0,024
-152,891	-24,991	0,186	0,078
-151,877	270,026	-0,057	-0,072
-150,862	-200,000	-0,039	-0,164
-149,847	-81,701	-0,110	0,025
-148,833	-58,638	0,090	-0,028
-147,818	49,861	0,083	0,055
-146,804	-182,170	-0,130	-0,002
-145,789	634,360	0,050	-0,090
-144,775	198,114	0,072	0,078
-143,760	-124,392	-0,116	-0,013
-142,745	-200,000	0,034	-0,148
-141,731	-200,000	-0,008	-0,028
-140,716	186,459	0,068	-0,072
-139,702	800,000	0,016	0,050
-138,687	240,393	-0,017	0,021
-137,672	-200,000	-0,002	-0,037
-136,658	239,664	0,075	-0,089
-135,643	99,613	-0,161	-0,133
-134,629	-200,000	0,003	0,018
-133,614	114,532	0,100	0,087
-132,599	387,250	0,057	-0,084
-131,585	-35,128	-0,004	-0,002
-130,570	-27,805	-0,089	-0,037
-129,556	15,650	-0,108	0,060
-128,541	444,178	-0,032	-0,050
-127,526	-157,638	-0,120	-0,005
-126,512	800,000	-0,012	-0,029
-125,497	523,232	0,079	0,132
-124,483	54,124	0,076	0,052
-123,468	-82,241	0,163	-0,037
-122,453	-95,565	-0,113	-0,021
-121,439	-200,000	-0,007	0,090
-120,424	-200,000	0,040	-0,125
-119,410	157,700	0,063	-0,062
-118,395	-200,000	0,008	0,059
-117,380	800,000	0,022	0,064
-116,366	-200,000	-0,012	0,095
-115,351	-41,421	-0,152	0,055
-114,337	314,333	0,083	0,111
-113,322	-200,000	-0,039	-0,153
-112,307	800,000	0,046	0,104
-111,293	-43,632	0,139	-0,049
-110,278	-76,024	-0,108	0,027
-109,264	-99,701	0,134	-0,024
-108,249	35,332	0,088	0,055
-107,234	128,821	-0,143	-0,129
-106,220	800,000	-0,045	-0,092
-105,205	-96,157	0,068	-0,013
-104,191	86,508	0,028	0,022
-103,176	-148,816	-0,083	0,005
-102,162	-200,000	0,012	-0,057
-101,147	-140,502	0,063	0,005
-100,132	305,507	0,016	-0,021
-99,118	90,845	-0,119	-0,095
-98,103	-164,075	-0,051	0,002
-97,089	59,728	0,073	0,051
-96,074	-140,972	-0,066	-0,005
-95,059	-21,920	-0,035	0,015
-94,045	95,317	0,067	0,054
-93,030	-103,655	-0,067	0,011
-92,016	-86,023	-0,114	-0,025
-91,001	-11,019	0,108	0,050
-89,986	800,000	-0,026	-0,060
-88,972	344,086	0,054	0,075
-87,957	-200,000	0,021	0,083
-86,943	161,862	-0,016	-0,015
-85,928	-25,835	0,048	0,020
-84,913	-200,000	-0,022	-0,103
-83,899	-12,870	-0,080	-0,037
-82,884	11,265	-0,008	-0,005
-81,870	-200,000	0,000	-0,152
-80,855	13,801	-0,088	-0,048
-79,840	-200,000	-0,031	0,000
-78,826	-200,000	0,002	-0,121
-77,811	-200,000	-0,008	-0,095
-76,797	-86,044	0,051	0,011
-75,782	-4,638	-0,082	-0,040
-74,767	-29,885	0,080	-0,032
-73,753	51,326	-0,032	-0,022
-72,738	-200,000	-0,005	0,058
-71,724	800,000	-0,041	-0,115
-70,709	800,000	0,033	-0,081
-69,694	-200,000	0,001	0,103
-68,680	800,000	0,062	0,136
-67,665	-200,000	0,004	0,018
-66,651	800,000	-0,027	0,057
-65,636	-150,035	-0,034	0,002
-64,622	23,615	-0,118	-0,069
-63,607	122,405	-0,094	-0,083
-62,592	662,878	0,118	-0,217
-61,578	800,000	0,020	-0,059
-60,563	-200,000	0,026	0,091
-59,549	-200,000	0,012	0,132
-58,534	-69,852	-1,596	-0,428
-57,519	411,551	-1,475	-2,225
-56,505	-200,000	-0,558	-4,560
-55,490	104,081	0,953	0,793
-54,476	800,000	4,889	11,187
-53,461	-200,000	18,199	287,143
-52,446	800,000	726,938	2224,824
-51,432	553,874	1642,684	2808,051
-50,417	79,422	1665,128	1263,346
-49,403	23,006	1538,931	891,541
-48,388	17,018	1462,345	818,180
-47,373	17,945	1452,127	816,894
-46,359	17,366	1442,461	808,657
-45,344	15,247	1438,052	796,040
-44,330	15,177	1435,981	794,527
-43,315	15,202	1434,273	793,669
-42,300	15,247	1432,556	792,902
-41,286	15,270	1431,362	792,319
-40,271	15,192	1430,275	791,314
-39,257	15,211	1428,935	790,633
-38,242	15,235	1427,676	790,020
-37,227	15,258	1426,400	789,390
-36,213	15,249	1424,981	788,529
-35,198	15,247	1423,976	787,934
-34,184	15,232	1423,140	787,371
-33,169	15,221	1421,782	786,533
-32,154	15,210	1420,954	785,994
-31,140	15,251	1419,436	785,316
-30,125	15,317	1418,252	784,942
-29,111	15,260	1417,252	784,086
-28,096	15,170	1416,165	783,034
-27,082	15,151	1415,013	782,273
-26,067	15,175	1413,866	781,721
-25,052	15,165	1412,858	781,085
-24,038	15,153	1411,880	780,458
-23,023	15,149	1410,637	779,721
-22,009	15,144	1409,750	779,178
-20,994	15,125	1409,031	778,662
-19,979	15,121	1407,988	778,035
-18,965	15,115	1406,906	777,378
-17,950	15,071	1406,127	776,713
-16,936	15,075	1405,154	776,163
-15,921	15,082	1403,795	775,411
-14,906	15,059	1403,035	774,856
-13,892	15,051	1402,271	774,367
-12,877	15,071	1401,189	773,828
-11,863	15,072	1400,253	773,286
-10,848	15,046	1399,374	772,648
-9,833	15,052	1398,539	772,186
-8,819	15,010	1397,617	771,453
-7,804	14,975	1396,722	770,765
-6,790	14,998	1395,763	770,310
-5,775	14,997	1394,670	769,673
-4,760	15,008	1393,646	769,127
-3,746	14,983	1393,155	768,712
-2,731	14,958	1392,282	768,084
-1,717	14,959	1391,149	767,431
-0,702	15,001	1389,253	766,548
0,313	18,766	1308,812	739,601
1,327	35,084	707,569	437,689
2,342	54,020	125,119	84,994
3,356	2,249	16,558	8,443
4,371	-3,460	3,172	1,556
5,386	-4,420	0,538	0,262
6,400	800,000	0,098	0,222
7,415	800,000	-0,131	-0,287
8,429	79,221	-0,263	-0,199
9,444	221,225	-0,307	-0,350
10,459	-17,934	-0,413	-0,183
11,473	-165,152	-0,330	-0,010
12,488	-64,226	-0,166	-0,048
13,502	43,990	-0,294	-0,190
14,517	18,458	-0,301	-0,170
15,531	-11,262	-0,418	-0,194
16,546	96,422	-0,311	-0,252
17,561	172,982	-0,317	-0,323
18,575	-40,267	-0,160	-0,058
19,590	182,062	-0,292	-0,304
20,604	3,059	-0,324	-0,166
21,619	17,301	-0,555	-0,310
22,634	104,354	-0,392	-0,325
23,648	300,147	-0,313	-0,409
24,663	86,062	-0,419	-0,325
25,677	51,974	-0,441	-0,296
26,692	266,279	-0,235	-0,290
27,707	1,457	-0,399	-0,202
28,721	-47,161	-0,329	-0,113
29,736	226,416	-0,379	-0,435
30,750	83,187	-0,477	-0,366
31,765	-59,118	-0,452	-0,137
32,780	126,447	-0,392	-0,351
33,794	-57,041	-0,360	-0,111
34,809	11,574	-0,481	-0,259
35,823	173,110	-0,362	-0,369
36,838	46,950	-0,463	-0,303
37,853	201,203	-0,435	-0,473
38,867	403,276	-0,209	-0,311
39,882	45,210	-0,405	-0,263
40,896	131,196	-0,397	-0,360
41,911	-29,149	-0,322	-0,130
42,926	216,389	-0,229	-0,257
43,940	249,876	-0,303	-0,363
44,955	308,078	-0,325	-0,429
45,969	149,106	-0,347	-0,331
46,984	51,536	-0,312	-0,208
47,999	60,628	-0,278	-0,194
49,013	192,423	-0,250	-0,266
50,028	-7,087	-0,303	-0,144
51,042	72,115	-0,242	-0,178
52,057	-10,468	-0,426	-0,198
53,071	218,564	-0,334	-0,376
54,086	30,049	-0,349	-0,209
55,101	34,258	-0,343	-0,210
56,115	-88,688	-0,259	-0,054
57,130	18,161	-0,291	-0,163
58,144	22,841	-0,397	-0,228
59,159	69,516	-0,234	-0,170
60,174	137,484	-0,426	-0,392
61,188	-16,169	-0,437	-0,195
62,203	343,196	-0,244	-0,337
63,217	112,256	-0,290	-0,247
64,232	-44,492	-0,391	-0,137
65,247	105,351	-0,352	-0,293
66,261	138,507	-0,264	-0,244
67,276	132,903	-0,281	-0,255
68,290	-74,466	-0,393	-0,099
69,305	-45,673	-0,298	-0,103
70,320	106,532	-0,282	-0,235
71,334	164,647	-0,204	-0,203
72,349	-9,503	-0,378	-0,177
73,363	35,474	-0,472	-0,291
74,378	133,966	-0,322	-0,294
75,393	26,515	-0,430	-0,252
76,407	54,964	-0,251	-0,170
77,422	-36,838	-0,327	-0,123
78,436	-40,963	-0,265	-0,096
79,451	-11,461	-0,292	-0,135
80,466	49,225	-0,389	-0,257
81,480	676,164	-0,121	-0,222
82,495	-8,739	-0,370	-0,174
83,509	46,837	-0,262	-0,171
84,524	267,086	-0,229	-0,282
85,539	-130,207	-0,269	-0,025
86,553	-111,080	-0,263	-0,038
87,568	-16,702	-0,438	-0,194
88,582	797,469	-0,134	-0,261
89,597	130,644	-0,302	-0,272
90,611	75,782	-0,327	-0,243
91,626	385,365	-0,222	-0,323
92,641	143,986	-0,219	-0,205
93,655	-114,826	-0,184	0,024
94,670	92,446	-0,267	-0,211
95,684	-35,048	-0,331	-0,126
96,699	7,842	-0,322	-0,169
97,714	-81,246	-0,235	-0,054
98,728	127,501	-0,259	-0,230
99,743	58,110	-0,282	-0,194
100,757	44,211	-0,281	-0,181
101,772	-12,764	-0,297	-0,135
102,787	9,588	-0,296	-0,157
103,801	-57,786	-0,406	-0,124
104,816	-73,458	-0,316	-0,080
105,830	81,133	-0,275	-0,208
106,845	63,583	-0,222	-0,156
107,860	143,660	-0,272	-0,254
108,874	-44,479	-0,199	-0,069
109,889	157,850	-0,242	-0,236
110,903	109,987	-0,239	-0,201
111,918	34,319	-0,299	-0,182
112,933	-115,622	-0,253	-0,033
113,947	-122,109	-0,233	0,026
114,962	-9,010	-0,224	-0,105
115,976	-42,407	-0,365	-0,130
116,991	323,448	-0,177	-0,237
118,006	43,383	-0,268	-0,171
119,020	258,031	-0,197	-0,238
120,035	114,758	-0,205	-0,175
121,049	243,688	-0,099	-0,116
122,064	14,272	-0,332	-0,180
123,079	93,056	-0,275	-0,217
124,093	132,474	-0,156	-0,141
125,108	219,733	-0,235	-0,264
126,122	81,216	-0,255	-0,192
127,137	-106,855	-0,385	-0,059
128,151	-126,845	-0,137	-0,014
129,166	-54,624	-0,270	-0,085
130,181	238,376	-0,193	-0,224
131,195	2,503	-0,215	-0,109
132,210	110,256	-0,277	-0,233
133,224	-3,007	-0,301	-0,146
134,239	156,461	-0,196	-0,189
135,254	5,494	-0,329	-0,169
136,268	258,097	-0,165	-0,199
137,283	16,789	-0,281	-0,155
138,297	-189,138	-0,262	0,002
139,312	-32,299	-0,280	-0,109
140,327	192,361	-0,228	-0,241
141,341	350,480	-0,227	-0,314
142,356	239,051	-0,127	-0,148
143,370	134,963	-0,144	-0,130
144,385	406,314	-0,121	-0,179
145,400	133,575	-0,217	-0,196
146,414	88,775	-0,245	-0,190
147,429	55,115	-0,296	-0,199
148,443	-42,527	-0,354	-0,125
149,458	84,273	-0,177	-0,135
150,473	-65,349	-0,184	-0,051
151,487	800,000	-0,101	-0,220
152,502	141,357	-0,263	-0,243
153,516	199,138	-0,203	-0,218
154,531	-31,645	-0,318	-0,124
155,546	396,578	-0,199	-0,291
156,560	-51,975	-0,288	-0,093
157,575	140,885	-0,223	-0,206
158,589	111,648	-0,143	-0,120
159,604	178,895	-0,204	-0,209
160,619	51,220	-0,337	-0,223
161,633	-2,679	-0,305	-0,148
162,648	83,014	-0,341	-0,259
163,662	65,014	-0,212	-0,149
164,677	111,326	-0,186	-0,156
165,692	100,317	-0,274	-0,222
166,706	73,689	-0,244	-0,178
167,721	137,371	-0,247	-0,225
168,735	65,849	-0,227	-0,161
169,750	30,828	-0,265	-0,158
170,764	304,647	-0,244	-0,317
171,779	148,549	-0,332	-0,313
172,794	112,416	-0,197	-0,166
173,808	15,876	-0,229	-0,125
174,823	33,922	-0,272	-0,165
175,837	92,113	-0,299	-0,235
176,852	192,581	-0,169	-0,178
177,867	800,000	-0,135	-0,295
178,881	-200,000	-0,028	-0,277
179,896	-129,214	-0,234	-0,022
180,910	66,442	-0,277	-0,196
181,925	261,105	-0,257	-0,311
182,940	24,968	-0,127	-0,073
183,954	-17,430	-0,219	-0,096
184,969	14,041	-0,289	-0,156
185,983	-100,212	-0,197	0,034
186,998	738,530	-0,119	-0,222
188,013	82,049	-0,147	-0,111
189,027	-1,837	-0,179	-0,088
190,042	172,754	-0,228	-0,229
191,056	180,229	-0,151	-0,154
192,071	139,708	-0,239	-0,219
193,086	169,301	-0,183	-0,182
194,100	-200,000	-0,067	-0,241
195,115	-44,334	-0,256	-0,089
196,129	267,712	-0,207	-0,253
197,144	517,171	-0,129	-0,211
198,159	5,540	-0,234	-0,120
199,173	134,470	-0,257	-0,232
200,188	-108,081	-0,129	-0,019
201,202	27,436	-0,153	-0,089
202,217	800,000	-0,094	-0,196
203,232	800,000	-0,081	-0,181
204,246	228,272	-0,244	-0,276
205,261	527,678	-0,122	-0,201
206,275	-73,561	-0,175	-0,044
207,290	-65,346	-0,162	-0,045
208,304	253,756	-0,130	-0,155
209,319	71,291	-0,116	-0,083
210,334	53,890	-0,234	-0,156
211,348	177,705	-0,170	-0,173
212,363	47,089	-0,257	-0,166
213,377	345,299	-0,192	-0,262
214,392	800,000	-0,072	-0,142
215,407	447,497	-0,125	-0,192
216,421	258,371	-0,108	-0,130
217,436	-70,285	-0,230	-0,060
218,450	-28,499	-0,282	0,112
219,465	391,935	-0,195	-0,282
220,480	198,082	-0,187	-0,199
221,494	-134,298	-0,184	-0,015
222,509	65,902	-0,232	-0,163
223,523	80,326	-0,212	-0,159
224,538	52,496	-0,116	-0,077
225,553	178,285	-0,216	-0,219
226,567	29,988	-0,280	-0,165
227,582	119,591	-0,130	-0,112
228,596	109,510	-0,127	-0,106
229,611	800,000	-0,071	-0,197
230,626	6,044	-0,208	-0,106
231,640	-56,616	-0,225	-0,069
232,655	136,015	-0,192	-0,174
233,669	24,926	-0,222	-0,127
234,684	164,360	-0,131	-0,129
235,699	-105,513	-0,219	-0,034
236,713	351,636	-0,105	-0,144
237,728	800,000	-0,069	-0,210
238,742	66,318	-0,154	-0,108
239,757	149,320	-0,222	-0,209
240,772	408,994	-0,136	-0,201
241,786	115,284	-0,157	-0,133
242,801	57,500	-0,170	-0,115
243,815	20,962	-0,077	-0,043
244,830	-65,029	-0,194	-0,054
245,844	-91,159	-0,245	-0,048
246,859	-61,901	-0,298	-0,086
247,874	119,307	-0,161	-0,138
248,888	555,975	-0,137	-0,229
249,903	585,904	-0,122	-0,209
250,917	-200,000	-0,042	-0,133
251,932	-130,091	-0,118	-0,011
252,947	264,692	-0,151	-0,183
253,961	0,909	-0,262	-0,129
254,976	-66,188	-0,193	-0,053
255,990	311,501	-0,171	-0,223
257,005	192,967	-0,128	-0,134
258,020	109,938	-0,202	-0,168
259,034	302,790	-0,234	-0,300
260,049	362,845	-0,151	-0,210
261,063	-111,991	-0,301	-0,042
262,078	328,660	-0,207	-0,275
263,093	800,000	-0,076	-0,212
264,107	800,000	-0,041	-0,085
265,122	0,676	-0,121	-0,060
266,136	136,091	-0,185	-0,167
267,151	-177,613	-0,182	-0,003
268,166	313,444	-0,123	-0,160
269,180	580,884	-0,111	-0,189
270,195	63,766	-0,240	-0,167
271,209	3,483	-0,242	-0,122
272,224	218,456	-0,129	-0,143
273,239	128,612	-0,091	-0,080
274,253	99,778	-0,196	-0,157
275,268	406,041	-0,065	-0,095
276,282	-200,000	-0,094	-0,313
277,297	800,000	-0,080	-0,176
278,312	800,000	-0,051	-0,145
279,326	-200,000	-0,077	-0,261
280,341	98,776	-0,198	-0,158
281,355	19,474	-0,110	0,061
282,370	-42,253	-0,104	-0,036
283,384	-24,902	-0,173	-0,071
284,399	800,000	-0,084	-0,209
285,414	-44,797	-0,165	-0,057
286,428	800,000	-0,088	-0,173
287,443	-54,645	-0,146	-0,045
288,457	171,692	-0,138	-0,137
289,472	39,957	-0,178	-0,110
290,487	-149,055	-0,058	-0,003
291,501	273,334	-0,138	-0,168
292,516	1,765	-0,217	-0,107
293,530	48,762	-0,132	-0,085
294,545	-69,510	-0,167	-0,044
295,560	481,888	-0,071	-0,112
296,574	120,647	-0,071	-0,061
297,589	-71,264	-0,210	-0,054
298,603	-9,799	-0,225	-0,103
299,618	737,604	-0,110	-0,204
300,633	29,889	-0,228	-0,133
301,647	53,490	-0,161	-0,106
302,662	48,095	-0,151	-0,097
303,676	800,000	-0,016	-0,049
304,691	156,641	-0,125	-0,119
305,706	-11,021	-0,150	-0,068
306,720	558,337	-0,056	-0,094
307,735	56,665	-0,116	-0,078
308,749	112,584	-0,110	0,091
309,764	800,000	-0,031	-0,069
310,779	94,669	-0,133	-0,104
311,793	-200,000	-0,045	-0,164
312,808	153,063	-0,163	-0,154
313,822	800,000	-0,064	-0,159
314,837	39,417	-0,132	-0,081
315,852	-94,613	-0,137	0,025
316,866	-88,741	-0,213	-0,043
317,881	16,871	-0,039	-0,021
318,895	-86,661	-0,126	-0,026
319,910	728,103	-0,139	-0,256
320,925	31,363	-0,079	-0,047
321,939	721,682	-0,063	-0,116
322,954	601,901	-0,115	-0,197
323,968	-126,472	-0,089	-0,009
324,983	-89,969	-0,210	0,042
325,997	-19,690	-0,236	-0,100
327,012	105,049	-0,147	-0,119
328,027	-110,346	-0,175	-0,025
329,041	272,674	-0,092	-0,111
330,056	-55,546	-0,142	-0,043
331,070	182,891	-0,091	-0,092
332,085	103,920	-0,115	-0,093
333,100	149,940	-0,145	-0,136
334,114	-200,000	-0,060	-0,226
335,129	200,435	-0,091	-0,096
336,143	76,612	-0,115	-0,084
337,158	-0,232	-0,153	-0,074
338,173	-166,969	-0,187	-0,005
339,187	-200,000	-0,109	0,000
340,202	299,226	-0,135	-0,171
341,216	-94,075	-0,137	-0,026
342,231	-187,427	-0,184	0,002
343,246	-182,041	-0,233	-0,003
344,260	-117,903	-0,169	-0,021
345,275	800,000	-0,060	0,119
346,289	154,831	-0,066	-0,063
347,304	579,825	-0,065	-0,110
348,319	-96,741	-0,065	-0,012
349,333	77,989	-0,054	-0,039
350,348	321,987	-0,158	-0,206
351,362	134,080	-0,114	-0,102
352,377	46,368	-0,159	-0,101
353,392	87,932	-0,081	-0,061
354,406	466,134	-0,121	-0,186
355,421	208,268	1318,196	1415,373
356,435	160,243	1479,358	1415,874
