DTS Sentinel unit serial number:	SN410029Multiplexer serial number:	ORYXHardware model number:	OX2-SRSoftware version number:	ORYX F/W v4,00 Oryx Data Collector v3.7.2.0data status	okinstallation	B3 Nyhavnadifferential loss correction	single-endedforward channel	channel 1reverse channel	N/Adate	2023/12/02time	19:52:30forward acquisition time	300,00reverse acquisition time	0,00gamma	499,1914k internal	0,3200k external	0,3200temperature offset calibration	1,0000default loss term (dB/km)	0,3820temperature slope calibration	1,0000multiplexer offset coefficient	1,0000multiplexer slope coefficient	1,0000fibre end	0,00T internal ref (°C)	13,31T ext. ref 1 (°C)	-1,82T ext. ref 2 (°C)	-1,84length (m)	temperature (°C)	Stokes	anti-Stokes-744,400	408,044	-0,153	-0,237
-743,385	-200,000	-0,043	0,200
-742,371	-200,000	-0,005	-0,138
-741,356	383,018	0,178	0,268
-740,342	148,507	-0,237	-0,233
-739,327	-200,000	0,050	0,344
-738,312	33,036	-0,323	-0,203
-737,298	-200,000	-0,022	0,268
-736,283	800,000	-0,170	-0,391
-735,269	794,672	0,098	0,197
-734,254	138,021	-0,226	-0,216
-733,239	-13,871	-0,411	0,192
-732,225	297,606	-0,089	-0,119
-731,210	273,077	0,054	0,069
-730,196	-21,213	0,156	0,069
-729,181	107,707	-0,061	-0,053
-728,167	-200,000	0,030	0,207
-727,152	800,000	-0,035	0,101
-726,137	800,000	0,026	-0,068
-725,123	-23,181	-0,140	-0,061
-724,108	405,172	-0,013	0,020
-723,094	800,000	0,047	-0,141
-722,079	362,324	-0,146	-0,214
-721,064	33,598	-0,168	-0,106
-720,050	694,782	-0,014	-0,026
-719,035	-200,000	0,006	0,065
-718,021	-200,000	-0,143	0,000
-717,006	-58,120	-0,228	-0,072
-715,991	800,000	0,030	-0,068
-714,977	160,951	-0,032	0,033
-713,962	474,767	0,040	-0,065
-712,948	189,834	0,112	-0,123
-711,933	25,453	-0,090	-0,054
-710,918	567,694	0,073	-0,130
-709,904	-17,194	-0,169	-0,077
-708,889	77,861	-0,020	0,016
-707,875	-48,831	-0,124	-0,043
-706,860	-200,000	0,009	-0,083
-705,845	-200,000	0,001	0,055
-704,831	8,141	-0,066	-0,036
-703,816	-176,867	-0,050	-0,001
-702,802	-200,000	-0,010	-0,170
-701,787	-200,000	0,017	0,109
-700,772	-57,012	-0,177	0,056
-699,758	63,176	0,026	0,019
-698,743	-22,953	0,017	0,008
-697,729	81,995	-0,091	-0,071
-696,714	-30,156	-0,010	0,004
-695,699	-68,132	-0,080	-0,022
-694,685	203,084	-0,124	-0,140
-693,670	-200,000	0,018	-0,100
-692,656	548,969	-0,059	0,103
-691,641	379,065	-0,012	-0,017
-690,627	-90,377	-0,071	-0,015
-689,612	-88,740	0,079	-0,017
-688,597	-200,000	0,012	-0,078
-687,583	-200,000	0,039	-0,129
-686,568	-200,000	0,030	-0,180
-685,554	-200,000	0,001	-0,065
-684,539	-200,000	-0,033	0,173
-683,524	252,798	0,053	0,065
-682,510	-49,353	-0,003	-0,001
-681,495	428,494	0,086	-0,135
-680,481	28,843	-0,146	-0,090
-679,466	-118,905	-0,182	-0,023
-678,451	-124,063	0,053	-0,006
-677,437	-98,054	0,118	-0,022
-676,422	17,443	0,111	0,064
-675,408	800,000	-0,043	-0,098
-674,393	-200,000	0,043	0,171
-673,378	-115,953	-0,060	0,008
-672,364	651,312	-0,080	-0,150
-671,349	350,144	-0,079	-0,114
-670,335	-200,000	0,024	0,090
-669,320	-200,000	0,002	0,080
-668,305	145,040	0,065	-0,064
-667,291	-61,999	0,059	-0,018
-666,276	-8,135	-0,110	0,054
-665,262	188,405	-0,069	-0,075
-664,247	-200,000	0,013	-0,198
-663,232	-137,083	0,070	0,006
-662,218	229,019	0,045	0,053
-661,203	3,102	-0,068	0,035
-660,189	267,378	0,084	-0,107
-659,174	562,124	-0,009	-0,016
-658,159	166,029	-0,114	-0,117
-657,145	-200,000	0,047	-0,163
-656,130	165,942	0,093	-0,096
-655,116	-126,708	-0,110	-0,012
-654,101	-200,000	0,005	0,076
-653,086	-200,000	0,006	0,044
-652,072	17,720	-0,135	-0,078
-651,057	-132,854	-0,158	0,014
-650,043	375,745	0,043	-0,064
-649,028	-4,628	-0,124	0,062
-648,014	194,820	0,053	-0,058
-646,999	92,833	0,131	-0,107
-645,984	311,558	-0,024	0,033
-644,970	800,000	-0,026	-0,077
-643,955	515,648	0,093	-0,158
-642,941	502,606	-0,023	-0,039
-641,926	800,000	-0,056	0,136
-640,911	-61,120	0,103	-0,031
-639,897	-37,701	-0,067	-0,026
-638,882	686,060	0,035	0,067
-637,868	223,020	-0,068	-0,080
-636,853	-200,000	0,005	-0,155
-635,838	483,143	0,032	0,053
-634,824	-130,596	-0,106	0,010
-633,809	-112,326	0,106	-0,015
-632,795	-200,000	-0,003	0,022
-631,780	369,350	0,037	0,054
-630,765	15,217	-0,097	-0,055
-629,751	350,187	-0,073	-0,105
-628,736	-200,000	0,000	-0,043
-627,722	58,903	-0,047	-0,034
-626,707	20,058	0,097	-0,057
-625,692	667,561	0,087	-0,164
-624,678	306,006	0,091	-0,122
-623,663	-47,791	-0,041	-0,014
-622,649	-43,197	-0,119	0,043
-621,634	17,850	-0,144	-0,083
-620,619	-200,000	0,026	-0,098
-619,605	-106,146	-0,056	0,009
-618,590	24,139	-0,108	0,065
-617,576	270,581	0,025	0,032
-616,561	-200,000	0,024	-0,136
-615,546	437,922	-0,062	0,099
-614,532	89,161	-0,057	-0,046
-613,517	-79,172	-0,033	-0,008
-612,503	100,536	-0,097	-0,081
-611,488	10,940	0,155	-0,086
-610,474	-111,837	0,093	-0,014
-609,459	312,595	-0,130	-0,177
-608,444	70,456	-0,056	-0,042
-607,430	618,978	-0,050	-0,090
-606,415	-200,000	-0,035	-0,131
-605,401	800,000	0,026	-0,057
-604,386	94,807	0,073	-0,060
-603,371	762,176	0,095	0,187
-602,357	-200,000	0,003	0,089
-601,342	-35,349	-0,030	-0,012
-600,328	-105,426	-0,145	-0,024
-599,313	121,033	0,039	-0,035
-598,298	-123,755	-0,038	-0,004
-597,284	-58,567	0,023	0,007
-596,269	588,034	0,059	0,106
-595,255	13,411	-0,033	0,018
-594,240	31,003	-0,100	0,062
-593,225	746,657	-0,078	-0,153
-592,211	-90,269	-0,008	0,002
-591,196	-200,000	-0,045	0,000
-590,182	34,849	-0,153	0,097
-589,167	145,558	0,045	-0,043
-588,152	220,173	-0,005	-0,006
-587,138	800,000	0,036	0,094
-586,123	-104,580	-0,162	0,027
-585,109	-143,505	0,068	0,005
-584,094	-52,451	0,056	0,019
-583,079	386,177	0,111	0,166
-582,065	9,288	0,133	0,072
-581,050	93,708	-0,106	0,087
-580,036	401,516	0,047	0,071
-579,021	117,032	-0,046	-0,041
-578,006	-149,243	-0,129	0,007
-576,992	-92,050	-0,200	-0,041
-575,977	321,829	-0,006	-0,009
-574,963	-35,156	0,117	-0,046
-573,948	619,670	-0,020	0,036
-572,934	17,990	0,031	0,018
-571,919	800,000	-0,022	0,055
-570,904	800,000	-0,046	0,116
-569,890	-200,000	-0,019	-0,084
-568,875	317,560	-0,033	-0,045
-567,861	16,744	0,096	-0,054
-566,846	-200,000	0,018	0,168
-565,831	800,000	-0,081	0,165
-564,817	-200,000	0,017	-0,127
-563,802	221,024	0,042	-0,049
-562,788	-23,870	-0,075	-0,032
-561,773	203,252	-0,038	0,043
-560,758	-200,000	-0,004	-0,048
-559,744	569,427	0,011	0,019
-558,729	381,036	0,102	0,152
-557,715	151,746	-0,059	-0,058
-556,700	478,024	0,110	-0,181
-555,685	-33,033	-0,164	0,065
-554,671	-147,715	-0,050	0,003
-553,656	-200,000	-0,002	-0,034
-552,642	-200,000	0,003	0,015
-551,627	195,104	0,052	0,057
-550,612	-147,293	0,085	-0,005
-549,598	49,594	-0,030	0,020
-548,583	800,000	0,019	-0,052
-547,569	-200,000	0,018	0,169
-546,554	800,000	0,009	0,027
-545,539	-110,676	0,122	-0,018
-544,525	-200,000	-0,007	0,032
-543,510	-200,000	-0,013	-0,101
-542,496	-200,000	-0,001	0,085
-541,481	100,190	-0,067	-0,056
-540,466	-146,436	0,118	-0,007
-539,452	-117,386	-0,037	-0,005
-538,437	-200,000	0,024	0,077
-537,423	-12,473	0,039	0,018
-536,408	-122,547	-0,087	-0,010
-535,393	800,000	0,020	0,057
-534,379	-96,845	-0,032	0,006
-533,364	42,500	0,010	-0,007
-532,350	40,624	-0,030	-0,020
-531,335	-38,717	0,093	0,035
-530,321	0,817	0,125	-0,064
-529,306	36,707	0,019	0,012
-528,291	-200,000	0,003	-0,092
-527,277	800,000	-0,097	-0,215
-526,262	800,000	0,009	-0,024
-525,248	198,609	0,033	0,036
-524,233	-17,416	0,065	-0,029
-523,218	-141,135	0,178	0,013
-522,204	273,119	-0,085	0,108
-521,189	590,663	-0,031	-0,055
-520,175	800,000	-0,041	-0,120
-519,160	-21,603	-0,133	-0,058
-518,145	621,503	0,075	-0,137
-517,131	364,929	0,031	0,045
-516,116	169,051	-0,050	0,052
-515,102	800,000	0,035	0,105
-514,087	-200,000	0,028	0,097
-513,072	-200,000	0,011	-0,059
-512,058	7,880	-0,077	-0,042
-511,043	419,741	-0,042	0,065
-510,029	799,560	0,009	0,019
-509,014	294,152	0,057	0,076
-507,999	-45,830	0,113	0,040
-506,985	10,747	-0,086	-0,047
-505,970	-200,000	0,007	-0,035
-504,956	-200,000	-0,036	-0,114
-503,941	146,998	0,046	-0,044
-502,926	333,598	0,030	-0,041
-501,912	800,000	0,020	0,058
-500,897	-22,139	0,077	0,034
-499,883	-135,649	-0,107	-0,009
-498,868	-15,423	-0,081	0,037
-497,853	800,000	0,026	0,072
-496,839	-154,595	-0,089	0,004
-495,824	-84,995	0,030	0,007
-494,810	-42,960	-0,007	0,002
-493,795	-60,187	-0,128	-0,039
-492,781	189,703	0,107	-0,115
-491,766	218,419	-0,069	-0,079
-490,751	-85,500	0,088	-0,019
-489,737	-111,590	0,094	-0,014
-488,722	261,525	0,040	0,050
-487,708	490,695	0,047	0,078
-486,693	-37,633	0,118	0,045
-485,678	289,513	-0,028	-0,036
-484,664	360,875	-0,106	-0,153
-483,649	580,123	0,029	-0,052
-482,635	602,740	-0,057	0,103
-481,620	-86,398	0,104	0,023
-480,605	65,147	0,109	0,080
-479,591	275,204	-0,068	-0,087
-478,576	224,612	-0,068	0,080
-477,562	-185,980	0,079	-0,001
-476,547	153,222	0,070	-0,069
-475,532	227,879	-0,029	-0,034
-474,518	270,941	-0,037	0,047
-473,503	300,040	-0,067	0,089
-472,489	-200,000	0,016	0,095
-471,474	-200,000	-0,005	0,059
-470,459	800,000	0,014	-0,038
-469,445	-97,791	-0,047	-0,009
-468,430	-58,226	-0,202	-0,063
-467,416	800,000	-0,019	-0,049
-466,401	780,594	0,032	0,063
-465,386	312,972	0,033	-0,045
-464,372	-200,000	-0,002	0,102
-463,357	-200,000	0,045	0,179
-462,343	170,378	-0,064	0,066
-461,328	-105,378	0,089	0,014
-460,313	50,605	0,113	0,077
-459,299	75,293	-0,033	-0,025
-458,284	-44,897	0,117	-0,042
-457,270	-62,473	-0,010	-0,003
-456,255	-200,000	-0,014	-0,165
-455,241	-139,459	-0,136	-0,010
-454,226	800,000	-0,027	-0,075
-453,211	-31,173	0,164	-0,066
-452,197	-200,000	-0,003	0,052
-451,182	36,835	0,085	0,054
-450,168	-200,000	-0,015	0,056
-449,153	800,000	-0,026	-0,056
-448,138	-34,642	-0,053	-0,021
-447,124	-200,000	0,011	0,100
-446,109	-191,512	0,112	-0,001
-445,095	61,935	0,106	0,076
-444,080	-200,000	0,015	0,063
-443,065	-200,000	-0,034	0,127
-442,051	226,194	-0,063	-0,073
-441,036	-200,000	0,009	0,052
-440,022	734,166	0,034	-0,065
-439,007	-200,000	0,007	0,025
-437,992	-200,000	-0,015	0,184
-436,978	-200,000	0,003	0,141
-435,963	-4,771	0,090	-0,045
-434,949	48,010	-0,090	0,060
-433,934	643,026	-0,023	0,043
-432,919	-75,468	0,114	-0,029
-431,905	5,580	-0,039	-0,021
-430,890	94,005	0,038	0,031
-429,876	37,581	0,048	-0,030
-428,861	385,669	-0,043	0,064
-427,846	545,469	0,051	-0,088
-426,832	-67,255	-0,141	-0,040
-425,817	72,819	-0,173	-0,130
-424,803	-200,000	-0,012	0,042
-423,788	-200,000	-0,026	-0,121
-422,773	164,471	0,135	-0,137
-421,759	211,919	0,016	0,019
-420,744	23,486	-0,035	0,020
-419,730	-170,493	-0,036	-0,001
-418,715	-39,970	0,077	0,029
-417,701	-40,037	0,049	0,018
-416,686	19,552	0,064	-0,037
-415,671	-200,000	0,027	0,098
-414,657	800,000	0,034	0,079
-413,642	800,000	-0,052	-0,126
-412,628	-200,000	-0,017	-0,102
-411,613	-200,000	0,003	-0,090
-410,598	-200,000	-0,006	-0,182
-409,584	59,675	0,072	-0,051
-408,569	121,572	0,130	0,116
-407,555	-200,000	0,004	-0,028
-406,540	137,597	-0,093	-0,087
-405,525	-19,162	-0,086	-0,038
-404,511	800,000	0,046	-0,097
-403,496	-200,000	-0,005	-0,128
-402,482	-124,145	-0,030	-0,003
-401,467	276,220	-0,060	0,077
-400,452	125,568	0,139	0,126
-399,438	-200,000	-0,006	0,032
-398,423	42,932	-0,101	-0,066
-397,409	-111,607	0,054	0,008
-396,394	800,000	-0,034	0,084
-395,379	392,423	0,051	0,077
-394,365	-87,804	0,131	0,028
-393,350	48,983	0,143	0,097
-392,336	-10,388	0,080	0,038
-391,321	-22,967	0,058	-0,025
-390,306	579,872	0,021	-0,036
-389,292	800,000	-0,031	-0,098
-388,277	24,080	-0,074	0,044
-387,263	100,758	-0,083	0,069
-386,248	-200,000	0,014	0,111
-385,233	800,000	0,020	0,041
-384,219	64,025	-0,116	0,084
-383,204	800,000	-0,023	0,066
-382,190	403,939	0,076	-0,114
-381,175	-200,000	0,008	-0,052
-380,160	24,041	0,183	0,108
-379,146	-117,750	0,149	-0,019
-378,131	-200,000	0,005	-0,044
-377,117	-49,468	-0,146	0,050
-376,102	-143,116	-0,001	0,000
-375,088	-34,573	0,048	-0,019
-374,073	-109,823	0,074	-0,011
-373,058	-118,523	0,070	0,009
-372,044	93,138	0,107	-0,087
-371,029	520,620	0,069	0,116
-370,015	-118,304	-0,090	-0,011
-369,000	-37,674	-0,077	0,029
-367,985	172,585	-0,045	0,047
-366,971	-200,000	-0,004	-0,171
-365,956	-67,412	0,132	-0,037
-364,942	-20,359	0,076	0,033
-363,927	211,694	-0,103	0,116
-362,912	44,457	0,106	0,070
-361,898	-130,312	0,057	0,005
-360,883	297,492	-0,036	-0,048
-359,869	-92,298	0,040	-0,008
-358,854	92,893	-0,118	-0,095
-357,839	-99,629	-0,071	-0,013
-356,825	56,852	0,126	0,088
-355,810	800,000	-0,017	-0,041
-354,796	22,197	0,033	0,019
-353,781	293,424	-0,029	0,039
-352,766	-144,752	-0,053	0,003
-351,752	-98,271	0,071	0,013
-350,737	-200,000	-0,002	0,107
-349,723	-40,855	0,066	0,024
-348,708	-155,703	0,104	-0,005
-347,693	-150,390	0,045	0,002
-346,679	-200,000	-0,030	-0,149
-345,664	-35,887	-0,121	0,047
-344,650	141,843	-0,096	0,091
-343,635	-81,046	-0,005	0,001
-342,620	513,055	0,061	0,103
-341,606	161,263	0,112	0,112
-340,591	-140,946	-0,080	0,006
-339,577	47,445	-0,087	-0,058
-338,562	-191,380	-0,088	0,001
-337,548	800,000	-0,045	-0,138
-336,533	73,083	0,031	0,023
-335,518	800,000	-0,009	-0,025
-334,504	-3,945	0,075	0,037
-333,489	-200,000	0,047	0,173
-332,475	297,572	-0,099	-0,131
-331,460	621,127	-0,016	-0,028
-330,445	83,490	0,025	-0,020
-329,431	340,387	0,091	-0,128
-328,416	-83,696	0,079	0,018
-327,402	-143,030	-0,055	-0,004
-326,387	-200,000	-0,003	-0,083
-325,372	180,665	0,084	0,088
-324,358	211,279	-0,013	0,015
-323,343	800,000	0,016	-0,046
-322,329	-200,000	-0,005	0,125
-321,314	-117,389	0,040	0,005
-320,299	255,420	-0,045	-0,055
-319,285	106,038	-0,100	-0,085
-318,270	-200,000	-0,025	-0,114
-317,256	-28,613	-0,051	-0,021
-316,241	800,000	0,020	-0,056
-315,226	391,993	0,106	0,157
-314,212	-1,266	0,075	-0,038
-313,197	-200,000	0,016	0,105
-312,183	106,744	0,066	0,056
-311,168	-67,407	-0,096	0,027
-310,153	350,751	-0,098	-0,140
-309,139	384,047	0,107	-0,159
-308,124	82,791	-0,073	-0,057
-307,110	800,000	-0,055	0,117
-306,095	62,830	0,058	-0,041
-305,080	341,106	-0,068	-0,095
-304,066	-126,773	-0,104	-0,011
-303,051	-200,000	0,001	-0,100
-302,037	98,626	-0,061	0,050
-301,022	158,075	-0,031	0,030
-300,008	61,838	-0,065	0,046
-298,993	442,492	0,042	0,067
-297,978	-200,000	0,002	-0,085
-296,964	-200,000	-0,034	0,113
-295,949	293,759	-0,067	-0,087
-294,935	83,827	-0,093	-0,073
-293,920	124,477	-0,067	0,061
-292,905	73,561	0,052	0,039
-291,891	-193,338	0,112	-0,001
-290,876	800,000	-0,034	0,080
-289,862	800,000	0,005	0,011
-288,847	-9,154	-0,159	0,076
-287,832	-200,000	0,021	0,089
-286,818	800,000	0,025	-0,063
-285,803	48,576	0,078	0,052
-284,789	368,037	0,111	-0,160
-283,774	142,813	0,030	0,028
-282,759	-200,000	0,003	-0,023
-281,745	757,929	-0,048	-0,092
-280,730	-200,000	0,021	-0,079
-279,716	800,000	-0,036	-0,089
-278,701	-200,000	-0,010	-0,049
-277,686	800,000	0,034	0,069
-276,672	800,000	-0,034	-0,092
-275,657	800,000	0,036	-0,099
-274,643	119,835	-0,044	-0,039
-273,628	16,805	0,052	0,030
-272,613	343,808	-0,057	-0,080
-271,599	270,680	0,024	0,031
-270,584	133,005	0,053	0,049
-269,570	53,708	-0,012	-0,008
-268,555	-113,997	-0,119	0,016
-267,540	-100,290	-0,088	0,016
-266,526	-111,684	0,106	-0,015
-265,511	-200,000	-0,027	-0,123
-264,497	442,991	0,045	0,071
-263,482	-67,708	0,131	-0,036
-262,467	-200,000	0,006	-0,038
-261,453	-200,000	-0,015	0,085
-260,438	-94,797	-0,082	-0,016
-259,424	-30,979	-0,044	-0,018
-258,409	60,100	-0,033	-0,023
-257,395	-200,000	0,012	0,115
-256,380	-62,433	0,151	0,044
-255,365	98,531	0,056	0,046
-254,351	-16,558	0,154	0,069
-253,336	120,472	0,079	0,070
-252,322	800,000	-0,085	-0,185
-251,307	-200,000	-0,012	-0,059
-250,292	152,851	-0,010	-0,010
-249,278	144,435	0,136	0,130
-248,263	800,000	-0,056	0,176
-247,249	-101,894	-0,131	0,022
-246,234	-200,000	0,007	0,191
-245,219	-115,746	-0,041	-0,005
-244,205	800,000	0,022	0,046
-243,190	-134,455	0,096	-0,008
-242,176	800,000	0,024	0,064
-241,161	-107,256	0,169	0,026
-240,146	800,000	0,058	-0,136
-239,132	-200,000	0,026	-0,101
-238,117	168,794	-0,041	0,042
-237,103	552,933	-0,092	0,159
-236,088	4,042	-0,089	0,046
-235,073	-200,000	0,018	0,079
-234,059	-200,000	-0,006	0,056
-233,044	769,191	0,046	0,090
-232,030	-117,509	-0,033	0,004
-231,015	800,000	-0,021	-0,062
-230,000	-200,000	0,006	-0,080
-228,986	-90,006	-0,042	0,009
-227,971	800,000	0,056	-0,134
-226,957	-149,012	0,200	0,011
-225,942	667,009	0,040	-0,074
-224,927	461,235	0,024	0,038
-223,913	122,694	-0,063	0,056
-222,898	63,721	-0,141	0,101
-221,884	-104,417	0,133	0,022
-220,869	199,468	-0,025	0,028
-219,855	411,703	-0,062	0,094
-218,840	31,113	-0,117	0,071
-217,825	-34,778	-0,116	-0,045
-216,811	165,481	0,107	0,108
-215,796	800,000	-0,052	0,126
-214,782	-136,418	-0,106	-0,009
-213,767	800,000	0,052	0,145
-212,752	-8,696	0,085	-0,040
-211,738	-84,973	-0,090	0,020
-210,723	-200,000	0,026	-0,179
-209,709	-111,373	-0,070	-0,010
-208,694	36,618	0,032	-0,020
-207,679	-136,585	-0,059	0,005
-206,665	30,749	0,083	-0,051
-205,650	128,854	-0,039	0,036
-204,636	207,132	0,101	-0,112
-203,621	-69,288	0,079	-0,022
-202,606	745,616	-0,031	0,060
-201,592	397,803	0,038	0,057
-200,577	-200,000	-0,019	0,074
-199,563	-82,777	-0,078	-0,018
-198,548	243,969	0,041	-0,050
-197,533	800,000	-0,040	-0,096
-196,519	297,803	-0,020	-0,026
-195,504	-27,655	-0,030	0,012
-194,490	-116,158	-0,053	-0,007
-193,475	-114,960	0,130	0,017
-192,460	800,000	0,009	0,019
-191,446	0,519	0,073	-0,037
-190,431	-120,565	-0,068	0,008
-189,417	250,173	0,042	-0,050
-188,402	171,522	-0,023	-0,023
-187,387	134,516	-0,033	-0,030
-186,373	-92,249	0,086	0,017
-185,358	216,451	-0,116	-0,132
-184,344	339,434	0,064	0,088
-183,329	81,108	-0,069	0,053
-182,315	-200,000	0,002	0,071
-181,300	503,162	-0,036	-0,060
-180,285	367,806	-0,029	0,042
-179,271	-31,719	-0,081	-0,032
-178,256	-200,000	0,017	0,072
-177,242	-200,000	-0,029	0,154
-176,227	-113,743	0,009	0,001
-175,212	800,000	-0,083	0,166
-174,198	416,092	-0,022	0,033
-173,183	139,765	0,071	0,066
-172,169	-200,000	-0,004	-0,033
-171,154	-52,688	-0,073	-0,024
-170,139	292,114	-0,034	0,044
-169,125	421,647	-0,029	-0,045
-168,110	-200,000	0,004	0,050
-167,096	-64,402	-0,110	0,032
-166,081	60,911	0,080	0,056
-165,066	-59,218	-0,085	-0,026
-164,052	-93,903	-0,053	-0,010
-163,037	800,000	0,062	-0,155
-162,023	-43,293	0,077	-0,027
-161,008	-170,399	-0,087	-0,002
-159,993	-86,368	-0,104	0,023
-158,979	-36,694	-0,110	-0,042
-157,964	-39,171	-0,101	-0,038
-156,950	493,101	-0,050	-0,082
-155,935	-109,142	0,123	0,018
-154,920	-88,019	0,103	0,022
-153,906	-57,904	-0,102	-0,031
-152,891	-200,000	-0,001	-0,052
-151,877	-26,574	-0,061	0,025
-150,862	600,036	-0,074	-0,132
-149,847	205,563	-0,047	0,052
-148,833	800,000	0,051	-0,114
-147,818	-26,837	0,087	-0,036
-146,804	33,470	-0,055	0,034
-145,789	-136,328	0,119	0,010
-144,775	283,240	0,040	-0,052
-143,760	-200,000	-0,023	0,089
-142,745	-200,000	0,005	-0,031
-141,731	-200,000	-0,033	0,134
-140,716	-200,000	-0,026	0,088
-139,702	-164,866	0,141	0,004
-138,687	466,074	0,073	0,117
-137,672	66,444	0,074	-0,053
-136,658	-108,380	-0,054	0,008
-135,643	-200,000	-0,008	0,026
-134,629	-200,000	-0,014	0,063
-133,614	461,278	0,042	-0,067
-132,599	800,000	0,066	0,181
-131,585	784,386	0,015	0,030
-130,570	-200,000	0,001	0,026
-129,556	-148,775	-0,111	-0,006
-128,541	-200,000	-0,008	0,137
-127,526	-200,000	-0,006	-0,028
-126,512	-112,669	0,117	-0,016
-125,497	800,000	-0,016	0,034
-124,483	-200,000	-0,001	0,208
-123,468	42,150	-0,108	-0,070
-122,453	-200,000	-0,002	-0,157
-121,439	-200,000	-0,009	-0,058
-120,424	-171,880	0,017	-0,000
-119,410	-173,277	0,065	0,001
-118,395	-87,103	0,222	0,047
-117,380	191,654	0,020	0,022
-116,366	-44,921	-0,096	-0,034
-115,351	91,448	0,114	0,091
-114,337	277,775	-0,114	0,144
-113,322	-200,000	0,014	0,043
-112,307	-51,451	0,107	-0,035
-111,293	32,785	0,104	0,064
-110,278	-38,772	-0,055	0,020
-109,264	-200,000	-0,005	-0,110
-108,249	-71,353	-0,156	0,041
-107,234	3,751	0,171	-0,088
-106,220	571,702	-0,118	-0,205
-105,205	172,821	0,067	0,069
-104,191	-98,077	0,030	-0,005
-103,176	90,389	0,046	-0,036
-102,162	343,676	0,021	-0,029
-101,147	-200,000	-0,011	-0,213
-100,132	0,994	-0,101	0,051
-99,118	-85,650	0,044	0,010
-98,103	258,534	-0,056	-0,069
-97,089	-25,975	0,077	0,032
-96,074	-200,000	0,004	-0,031
-95,059	-200,000	-0,024	0,137
-94,045	-44,867	-0,041	0,014
-93,030	452,809	0,023	-0,035
-92,016	-200,000	0,009	-0,041
-91,001	-200,000	0,004	-0,057
-89,986	-33,458	0,108	0,042
-88,972	-200,000	-0,030	0,114
-87,957	-43,207	0,021	0,008
-86,943	-200,000	0,034	-0,114
-85,928	207,956	-0,024	0,027
-84,913	79,662	0,052	0,040
-83,899	78,559	-0,080	-0,060
-82,884	-200,000	0,010	-0,066
-81,870	77,057	0,109	0,082
-80,855	800,000	-0,010	0,021
-79,840	800,000	-0,056	-0,113
-78,826	800,000	0,031	-0,069
-77,811	613,001	-0,048	-0,085
-76,797	-171,694	0,034	-0,001
-75,782	800,000	-0,017	-0,035
-74,767	-43,424	0,180	-0,064
-73,753	174,456	-0,050	-0,051
-72,738	25,826	-0,096	0,056
-71,724	-200,000	-0,006	-0,129
-70,709	-200,000	0,005	-0,194
-69,694	56,957	0,063	-0,043
-68,680	-200,000	0,021	0,067
-67,665	-200,000	0,033	0,127
-66,651	-200,000	-0,020	0,074
-65,636	87,512	-0,121	-0,095
-64,622	-200,000	0,004	-0,061
-63,607	800,000	-0,036	0,080
-62,592	-181,841	-0,047	0,001
-61,578	-200,000	0,001	-0,067
-60,563	-200,000	-0,007	0,048
-59,549	800,000	-0,063	0,138
-58,534	-24,767	-1,649	-0,691
-57,519	387,541	-1,455	-2,138
-56,505	-200,000	-0,455	-4,643
-55,490	215,762	0,926	1,043
-54,476	800,000	5,007	11,466
-53,461	-200,000	19,097	319,635
-52,446	-200,000	740,501	2334,082
-51,432	573,018	1655,665	2869,393
-50,417	78,334	1671,120	1262,451
-49,403	21,296	1544,295	886,009
-48,388	15,157	1466,553	811,540
-47,373	17,947	1456,635	819,507
-46,359	16,715	1446,509	807,871
-45,344	13,479	1441,957	789,790
-44,330	13,314	1440,225	788,018
-43,315	13,337	1438,423	787,112
-42,300	13,375	1436,520	786,218
-41,286	13,406	1435,249	785,642
-40,271	13,313	1434,100	784,539
-39,257	13,302	1432,737	783,709
-38,242	13,395	1431,358	783,364
-37,227	13,390	1430,290	782,724
-36,213	13,404	1428,889	781,997
-35,198	13,351	1427,826	781,131
-34,184	13,428	1426,846	780,927
-33,169	13,394	1425,262	779,871
-32,154	13,417	1424,423	779,486
-31,140	13,449	1423,175	778,926
-30,125	13,451	1421,998	778,258
-29,111	13,438	1420,901	777,566
-28,096	13,393	1419,795	776,718
-27,082	13,353	1418,681	775,891
-26,067	13,369	1417,447	775,261
-25,052	13,327	1416,495	774,511
-24,038	13,316	1415,551	773,914
-23,023	13,343	1414,365	773,358
-22,009	13,292	1413,465	772,599
-20,994	13,315	1412,605	772,203
-19,979	13,285	1411,806	771,598
-18,965	13,300	1410,780	771,077
-17,950	13,317	1409,850	770,617
-16,936	13,308	1408,876	770,012
-15,921	13,240	1407,786	769,064
-14,906	13,252	1406,717	768,509
-13,892	13,251	1406,069	768,118
-12,877	13,259	1405,202	767,652
-11,863	13,280	1403,985	767,056
-10,848	13,242	1403,379	766,514
-9,833	13,171	1402,473	765,659
-8,819	13,201	1401,453	765,214
-7,804	13,181	1400,602	764,624
-6,790	13,174	1399,585	764,004
-5,775	13,172	1398,526	763,389
-4,760	13,151	1397,804	762,864
-3,746	13,110	1396,874	762,137
-2,731	13,135	1395,752	761,614
-1,717	13,082	1395,063	760,960
-0,702	13,105	1393,111	759,970
0,313	16,905	1310,147	732,334
1,327	33,185	703,935	431,127
2,342	51,076	123,425	82,697
3,356	0,644	16,630	8,390
4,371	12,459	3,232	1,758
5,386	88,354	0,433	0,340
6,400	800,000	0,102	0,261
7,415	34,662	-0,347	-0,214
8,429	189,927	-0,290	-0,308
9,444	5,347	-0,281	-0,146
10,459	54,277	-0,353	-0,240
11,473	84,752	-0,322	-0,249
12,488	-10,375	-0,397	-0,185
13,502	-22,853	-0,424	-0,180
14,517	26,036	-0,376	-0,221
15,531	35,581	-0,379	-0,235
16,546	50,496	-0,304	-0,203
17,561	70,131	-0,388	-0,283
18,575	2,229	-0,294	-0,150
19,590	372,364	-0,126	-0,182
20,604	32,383	-0,271	-0,165
21,619	121,601	-0,376	-0,331
22,634	108,892	-0,520	-0,439
23,648	121,333	-0,442	-0,388
24,663	153,395	-0,316	-0,306
25,677	148,593	-0,333	-0,318
26,692	90,089	-0,340	-0,268
27,707	137,230	-0,299	-0,276
28,721	68,368	-0,373	-0,270
29,736	-32,246	-0,443	-0,174
30,750	-41,185	-0,383	-0,139
31,765	77,870	-0,335	-0,252
32,780	54,060	-0,521	-0,353
33,794	-7,252	-0,318	-0,152
34,809	16,968	-0,377	-0,210
35,823	58,208	-0,379	-0,262
36,838	106,835	-0,468	-0,392
37,853	134,917	-0,387	-0,354
38,867	105,840	-0,292	-0,244
39,882	0,548	-0,352	-0,177
40,896	74,057	-0,267	-0,197
41,911	31,122	-0,440	-0,266
42,926	-13,152	-0,412	-0,188
43,940	41,652	-0,479	-0,306
44,955	103,567	-0,333	-0,275
45,969	8,107	-0,342	-0,181
46,984	218,440	-0,283	-0,319
47,999	10,509	-0,465	-0,249
49,013	78,960	-0,257	-0,194
50,028	-30,601	-0,411	-0,163
51,042	94,968	-0,404	-0,324
52,057	-88,529	-0,300	-0,062
53,071	-54,869	-0,377	-0,119
54,086	172,412	-0,188	-0,191
55,101	84,717	-0,281	-0,216
56,115	67,555	-0,317	-0,228
57,130	277,574	-0,218	-0,273
58,144	71,417	-0,298	-0,218
59,159	219,109	-0,352	-0,397
60,174	178,275	-0,269	-0,277
61,188	48,840	-0,255	-0,168
62,203	-97,236	-0,279	-0,051
63,217	75,088	-0,330	-0,245
64,232	33,432	-0,270	-0,165
65,247	85,797	-0,315	-0,244
66,261	15,240	-0,410	-0,226
67,276	406,225	-0,231	-0,344
68,290	-43,877	-0,351	-0,124
69,305	200,943	-0,274	-0,297
70,320	105,593	-0,212	-0,177
71,334	-59,179	-0,359	-0,108
72,349	2,770	-0,272	-0,138
73,363	194,280	-0,244	-0,260
74,378	21,274	-0,344	-0,196
75,393	-48,648	-0,312	-0,105
76,407	39,172	-0,385	-0,241
77,422	399,768	-0,185	-0,273
78,436	-16,869	-0,298	-0,132
79,451	113,432	-0,244	-0,208
80,466	-88,016	-0,354	-0,074
81,480	206,941	-0,298	-0,326
82,495	-60,491	-0,371	-0,110
83,509	107,259	-0,266	-0,222
84,524	54,666	-0,296	-0,200
85,539	-83,833	-0,369	-0,082
86,553	-20,601	-0,331	-0,142
87,568	-0,286	-0,337	-0,168
88,582	-110,005	-0,356	-0,052
89,597	18,878	-0,258	-0,145
90,611	305,445	-0,224	-0,293
91,626	-131,057	-0,236	-0,022
92,641	-99,372	-0,209	-0,037
93,655	-21,072	-0,322	-0,138
94,670	-57,759	-0,234	-0,071
95,684	105,885	-0,331	-0,275
96,699	114,092	-0,299	-0,255
97,714	283,902	-0,226	-0,286
98,728	800,000	-0,079	-0,156
99,743	-16,416	-0,278	-0,123
100,757	36,975	-0,277	-0,171
101,772	111,024	-0,259	-0,218
102,787	270,704	-0,221	-0,273
103,801	349,893	-0,262	-0,364
104,816	409,075	-0,212	-0,316
105,830	-39,076	-0,192	-0,070
106,845	49,644	-0,176	-0,116
107,860	87,497	-0,207	-0,160
108,874	8,559	-0,334	-0,176
109,889	32,098	-0,200	-0,121
110,903	47,365	-0,306	-0,199
111,918	238,731	-0,249	-0,290
112,933	-68,257	-0,268	-0,072
113,947	12,613	-0,187	-0,101
114,962	-200,000	-0,081	-0,289
115,976	153,267	-0,231	-0,222
116,991	-25,439	-0,202	-0,083
118,006	128,147	-0,298	-0,265
119,020	87,370	-0,097	-0,075
120,035	-130,219	-0,348	-0,033
121,049	-20,030	-0,285	-0,123
122,064	36,941	-0,302	-0,187
123,079	113,969	-0,286	-0,244
124,093	110,435	-0,195	-0,164
125,108	-11,070	-0,349	-0,160
126,122	17,148	-0,132	-0,073
127,137	56,093	-0,177	-0,120
128,151	212,314	-0,179	-0,198
129,166	-77,760	-0,190	-0,046
130,181	10,194	-0,184	-0,098
131,195	141,921	-0,333	-0,309
132,210	50,156	-0,303	-0,200
133,224	53,933	-0,187	-0,126
134,239	171,666	-0,209	-0,210
135,254	141,476	-0,223	-0,207
136,268	156,715	-0,199	-0,192
137,283	17,358	-0,247	-0,137
138,297	33,952	-0,266	-0,161
139,312	26,839	-0,265	-0,155
140,327	287,165	-0,159	-0,202
141,341	67,722	-0,209	-0,149
142,356	105,370	-0,172	-0,142
143,370	-32,460	-0,323	-0,125
144,385	268,491	-0,160	-0,197
145,400	242,292	-0,150	-0,176
146,414	80,745	-0,251	-0,189
147,429	-93,921	-0,164	-0,031
148,443	370,325	-0,082	-0,117
149,458	48,722	-0,093	-0,061
150,473	-30,219	-0,257	-0,102
151,487	528,591	-0,188	-0,312
152,502	84,640	-0,295	-0,225
153,516	10,945	-0,213	-0,113
154,531	331,878	-0,204	-0,275
155,546	414,723	-0,133	-0,198
156,560	246,816	-0,244	-0,288
157,575	48,731	-0,349	-0,228
158,589	105,970	-0,272	-0,224
159,604	-66,014	-0,237	-0,066
160,619	188,692	-0,251	-0,262
161,633	213,291	-0,240	-0,265
162,648	252,611	-0,211	-0,251
163,662	93,562	-0,256	-0,202
164,677	800,000	-0,069	-0,197
165,692	285,389	-0,167	-0,211
166,706	-32,854	-0,323	-0,125
167,721	342,569	-0,138	-0,189
168,735	399,311	-0,245	-0,359
169,750	-28,283	-0,187	-0,075
170,764	-76,511	-0,228	-0,055
171,779	74,011	-0,210	-0,154
172,794	144,240	-0,133	-0,124
173,808	-131,739	-0,185	-0,017
174,823	-18,395	-0,291	-0,126
175,837	86,609	-0,311	-0,239
176,852	48,305	-0,217	-0,141
177,867	51,447	-0,183	-0,121
178,881	-32,829	-0,276	-0,106
179,896	44,077	-0,173	-0,110
180,910	371,687	-0,144	-0,205
181,925	43,423	-0,306	-0,195
182,940	158,885	-0,212	-0,206
183,954	112,132	-0,182	-0,154
184,969	255,277	-0,091	-0,109
185,983	-37,780	-0,214	-0,079
186,998	31,489	-0,209	-0,125
188,013	219,512	-0,147	-0,165
189,027	257,681	-0,159	-0,191
190,042	224,749	-0,237	-0,267
191,056	109,120	-0,187	-0,156
192,071	95,940	-0,307	-0,244
193,086	636,786	-0,095	-0,169
194,100	84,902	-0,208	-0,158
195,115	626,183	-0,171	-0,302
196,129	173,687	-0,224	-0,225
197,144	304,998	-0,237	-0,307
198,159	306,253	-0,220	-0,285
199,173	136,445	-0,167	-0,151
200,188	-17,028	-0,169	-0,074
201,202	42,279	-0,092	-0,058
202,217	-16,446	-0,289	-0,127
203,232	70,275	-0,234	-0,168
204,246	127,337	-0,144	-0,127
205,261	47,880	-0,282	-0,183
206,275	282,092	-0,176	-0,219
207,290	122,199	-0,175	-0,152
208,304	-148,587	-0,255	0,014
209,319	20,362	-0,204	-0,114
210,334	33,651	-0,240	-0,144
211,348	296,000	-0,185	-0,236
212,363	91,796	-0,313	-0,244
213,377	98,190	-0,217	-0,174
214,392	-1,711	-0,246	-0,120
215,407	114,044	-0,166	-0,140
216,421	266,773	-0,166	-0,202
217,436	-3,232	-0,214	-0,103
218,450	352,909	-0,115	-0,158
219,465	121,772	-0,144	-0,124
220,480	-35,592	-0,196	-0,073
221,494	343,818	-0,162	-0,221
222,509	64,225	-0,111	-0,077
223,523	88,773	-0,204	-0,158
224,538	123,326	-0,180	-0,157
225,553	-95,295	-0,253	-0,047
226,567	8,289	-0,240	-0,125
227,582	164,845	-0,116	-0,114
228,596	-200,000	-0,065	-0,207
229,611	64,672	-0,079	-0,055
230,626	225,977	-0,099	-0,112
231,640	800,000	-0,106	-0,215
232,655	317,974	-0,120	-0,157
233,669	49,443	-0,165	-0,108
234,684	64,119	-0,251	-0,175
235,699	800,000	-0,080	-0,215
236,713	-200,000	-0,062	-0,209
237,728	36,014	-0,211	-0,128
238,742	-200,000	-0,104	-0,317
239,757	343,890	-0,153	-0,208
240,772	190,151	-0,180	-0,187
241,786	222,849	-0,150	-0,167
242,801	243,679	-0,201	-0,234
243,815	-101,553	-0,231	0,039
244,830	97,841	-0,055	-0,044
245,844	-56,028	-0,279	-0,086
246,859	17,056	-0,141	-0,077
247,874	118,883	-0,182	-0,156
248,888	121,246	-0,181	-0,156
249,903	17,283	-0,178	-0,098
250,917	-42,793	-0,180	-0,063
251,932	-123,944	-0,281	0,030
252,947	40,778	-0,131	-0,082
253,961	-14,047	-0,322	-0,143
254,976	78,063	-0,091	-0,067
255,990	16,822	-0,118	-0,065
257,005	70,694	-0,087	-0,062
258,020	1,381	-0,158	-0,079
259,034	18,850	-0,218	-0,120
260,049	-87,535	-0,167	0,035
261,063	38,675	-0,275	-0,169
262,078	52,547	-0,197	-0,130
263,093	615,025	-0,167	-0,291
264,107	324,130	-0,094	-0,125
265,122	23,804	-0,200	-0,114
266,136	-37,580	-0,133	-0,049
267,151	162,670	-0,079	-0,077
268,166	72,396	-0,224	-0,161
269,180	9,596	-0,298	-0,155
270,195	-9,184	-0,150	-0,069
271,209	86,007	-0,185	-0,141
272,224	378,463	-0,066	-0,093
273,239	-49,054	-0,121	-0,040
274,253	258,537	-0,111	-0,132
275,268	-110,292	-0,185	-0,026
276,282	-200,000	-0,065	-0,209
277,297	255,217	-0,219	-0,260
278,312	124,965	-0,145	-0,126
279,326	117,557	-0,072	-0,061
280,341	494,906	-0,131	-0,209
281,355	87,781	-0,162	-0,124
282,370	-200,000	-0,033	-0,162
283,384	294,855	-0,240	-0,304
284,399	209,707	-0,194	-0,210
285,414	800,000	-0,047	-0,107
286,428	-88,028	-0,206	-0,042
287,443	-83,835	-0,162	-0,035
288,457	-51,885	-0,253	-0,081
289,472	29,116	-0,150	-0,088
290,487	-91,980	-0,220	-0,043
291,501	229,210	-0,161	-0,181
292,516	81,933	-0,226	-0,169
293,530	-63,922	-0,077	-0,022
294,545	-75,023	-0,196	-0,048
295,560	129,132	-0,098	-0,086
296,574	199,924	-0,081	-0,086
297,589	285,556	-0,157	-0,196
298,603	-200,000	-0,042	-0,316
299,618	116,408	-0,201	-0,169
300,633	579,897	-0,114	-0,192
301,647	-119,047	-0,077	-0,009
302,662	-149,161	-0,130	-0,007
303,676	330,706	-0,143	-0,191
304,691	185,791	-0,149	-0,153
305,706	413,194	-0,135	-0,198
306,720	-2,483	-0,204	-0,098
307,735	-154,985	-0,290	0,013
308,749	56,940	-0,162	-0,109
309,764	507,637	-0,105	-0,169
310,779	233,082	-0,123	-0,139
311,793	-167,867	-0,095	0,003
312,808	-166,456	-0,120	-0,003
313,822	-143,533	-0,245	0,016
314,837	800,000	-0,023	-0,059
315,852	-200,000	-0,215	0,000
316,866	-142,914	-0,202	-0,013
317,881	107,928	-0,225	-0,184
318,895	-45,534	-0,192	-0,065
319,910	200,420	-0,090	-0,095
320,925	-200,000	-0,037	-0,121
321,939	-182,290	-0,143	-0,002
322,954	800,000	-0,034	-0,094
323,968	100,011	-0,096	-0,076
324,983	-67,607	-0,159	-0,042
325,997	-93,224	-0,156	-0,030
327,012	147,611	-0,128	-0,118
328,027	101,556	-0,149	-0,119
329,041	-106,297	-0,135	0,021
330,056	88,906	-0,165	-0,126
331,070	241,144	-0,093	-0,106
332,085	233,853	-0,155	-0,176
333,100	-40,195	-0,158	0,056
334,114	286,415	-0,221	-0,275
335,129	195,285	-0,211	-0,221
336,143	-142,897	-0,045	-0,003
337,158	800,000	-0,085	-0,250
338,173	800,000	-0,077	-0,195
339,187	-31,225	-0,164	-0,063
340,202	-184,279	-0,181	0,002
341,216	474,982	-0,127	-0,198
342,231	739,412	-0,104	-0,193
343,246	85,594	-0,177	-0,134
344,260	15,019	-0,117	0,063
345,275	-12,630	-0,157	0,070
346,289	113,579	-0,076	-0,064
347,304	-42,493	-0,196	-0,068
348,319	-78,376	-0,228	-0,053
349,333	610,984	-0,119	-0,205
350,348	37,744	-0,187	-0,114
351,362	800,000	0,012	-0,030
352,377	689,197	-0,033	-0,060
353,392	219,995	-0,077	0,085
354,406	27,497	-0,184	0,106
355,421	208,703	1312,658	1410,865
356,435	160,596	1473,133	1411,355
