DTS Sentinel unit serial number:	SN410029Multiplexer serial number:	ORYXHardware model number:	OX2-SRSoftware version number:	ORYX F/W v4,00 Oryx Data Collector v3.7.2.0data status	okinstallation	B3 Nyhavnadifferential loss correction	single-endedforward channel	channel 1reverse channel	N/Adate	2023/12/02time	07:57:30forward acquisition time	300,00reverse acquisition time	0,00gamma	499,1914k internal	0,3195k external	0,3195temperature offset calibration	1,0000default loss term (dB/km)	0,3820temperature slope calibration	1,0000multiplexer offset coefficient	1,0000multiplexer slope coefficient	1,0000fibre end	0,00T internal ref (°C)	15,53T ext. ref 1 (°C)	0,32T ext. ref 2 (°C)	0,31length (m)	temperature (°C)	Stokes	anti-Stokes-744,400	336,113	-0,192	-0,272
-743,385	-200,000	0,002	0,129
-742,371	100,375	-0,113	-0,096
-741,356	-200,000	0,010	0,263
-740,342	546,151	-0,179	-0,314
-739,327	-200,000	-0,057	0,287
-738,312	90,303	-0,315	-0,257
-737,298	-200,000	-0,016	0,514
-736,283	800,000	-0,152	-0,382
-735,269	-200,000	0,049	0,380
-734,254	-200,000	-0,099	-0,376
-733,239	800,000	-0,054	0,133
-732,225	149,752	-0,197	-0,194
-731,210	800,000	0,040	-0,083
-730,196	-193,893	0,042	-0,000
-729,181	42,298	0,025	0,016
-728,167	-124,818	-0,055	0,006
-727,152	97,681	-0,019	0,016
-726,137	84,634	-0,029	0,023
-725,123	-90,325	-0,128	-0,027
-724,108	-92,289	-0,075	0,015
-723,094	800,000	-0,027	-0,058
-722,079	57,928	-0,136	-0,097
-721,064	415,242	0,081	-0,126
-720,050	43,564	-0,034	0,022
-719,035	800,000	-0,058	0,157
-718,021	212,262	-0,066	-0,076
-717,006	79,425	0,075	-0,058
-715,991	-200,000	-0,041	-0,154
-714,977	593,727	-0,104	-0,187
-713,962	-127,771	-0,057	-0,006
-712,948	4,918	0,105	0,056
-711,933	-87,139	-0,042	-0,009
-710,918	-58,253	-0,105	0,033
-709,904	800,000	0,038	-0,086
-708,889	185,687	-0,090	0,097
-707,875	143,171	-0,058	0,056
-706,860	-200,000	-0,002	-0,083
-705,845	648,024	0,065	-0,121
-704,831	181,168	0,151	0,162
-703,816	-14,360	-0,083	0,039
-702,802	-33,784	-0,060	-0,024
-701,787	800,000	0,041	-0,094
-700,772	-200,000	-0,003	-0,046
-699,758	-107,453	-0,037	0,006
-698,743	-200,000	0,012	-0,087
-697,729	476,879	0,039	-0,065
-696,714	87,083	-0,053	-0,042
-695,699	129,175	-0,056	-0,052
-694,685	269,887	-0,054	-0,069
-693,670	337,498	-0,128	-0,182
-692,656	-0,991	-0,084	-0,043
-691,641	-26,171	-0,042	0,018
-690,627	-71,189	0,027	0,007
-689,612	112,439	0,093	0,082
-688,597	800,000	-0,045	-0,112
-687,583	19,623	-0,134	-0,078
-686,568	-119,709	-0,113	0,014
-685,554	-200,000	-0,016	-0,052
-684,539	144,729	0,041	-0,040
-683,524	-200,000	-0,003	-0,014
-682,510	660,128	0,038	0,071
-681,495	385,362	0,057	-0,086
-680,481	63,705	-0,053	-0,039
-679,466	-29,437	-0,113	-0,047
-678,451	740,021	-0,013	0,025
-677,437	30,545	0,063	0,039
-676,422	58,769	0,059	0,042
-675,408	318,018	-0,032	0,044
-674,393	800,000	0,020	-0,054
-673,378	138,700	-0,074	0,070
-672,364	-165,809	-0,096	-0,003
-671,349	407,194	0,048	0,074
-670,335	308,866	-0,073	0,099
-669,320	800,000	-0,067	0,140
-668,305	118,746	0,127	0,114
-667,291	-200,000	-0,012	-0,061
-666,276	-200,000	-0,001	0,050
-665,262	-39,909	-0,099	-0,037
-664,247	-26,074	-0,024	0,010
-663,232	35,029	-0,151	-0,096
-662,218	800,000	0,083	-0,168
-661,203	59,806	-0,037	0,027
-660,189	206,101	0,077	-0,087
-659,174	-190,783	-0,033	-0,000
-658,159	233,559	-0,067	-0,080
-657,145	3,058	0,045	0,024
-656,130	800,000	0,047	0,129
-655,116	800,000	-0,038	0,117
-654,101	100,562	0,123	-0,104
-653,086	800,000	-0,066	-0,146
-652,072	173,037	-0,087	-0,091
-651,057	-30,560	-0,103	-0,042
-650,043	107,416	-0,110	-0,095
-649,028	-200,000	0,000	-0,055
-648,014	800,000	0,038	-0,105
-646,999	-200,000	0,021	0,100
-645,984	64,520	-0,013	0,010
-644,970	-200,000	-0,007	-0,089
-643,955	800,000	0,003	0,008
-642,941	-200,000	-0,001	0,020
-641,926	800,000	-0,022	-0,065
-640,911	-200,000	-0,002	-0,018
-639,897	-126,995	0,066	-0,007
-638,882	413,854	0,045	0,070
-637,868	-50,989	-0,034	0,012
-636,853	-200,000	0,032	-0,174
-635,838	-125,082	-0,078	0,009
-634,824	486,111	0,055	0,092
-633,809	502,279	0,072	0,122
-632,795	-103,245	-0,154	0,026
-631,780	-148,666	-0,101	-0,006
-630,765	-200,000	0,006	-0,035
-629,751	701,375	-0,037	0,071
-628,736	50,902	-0,180	0,123
-627,722	-48,841	-0,052	0,018
-626,707	-200,000	0,008	0,084
-625,692	-84,275	0,073	-0,017
-624,678	746,374	0,053	0,103
-623,663	-43,853	-0,055	0,020
-622,649	-200,000	-0,009	-0,074
-621,634	800,000	0,030	0,096
-620,619	-113,868	-0,074	0,010
-619,605	800,000	-0,052	-0,131
-618,590	-74,414	0,135	-0,035
-617,576	431,742	-0,014	0,022
-616,561	-79,588	0,063	0,015
-615,546	-95,890	-0,054	-0,010
-614,532	-200,000	0,023	-0,148
-613,517	-200,000	0,006	-0,033
-612,503	-200,000	-0,013	0,077
-611,488	-200,000	0,007	0,062
-610,474	800,000	-0,042	0,103
-609,459	98,667	-0,075	0,062
-608,444	-200,000	-0,023	0,177
-607,430	257,469	-0,137	-0,172
-606,415	50,819	0,170	-0,117
-605,401	749,125	0,007	-0,014
-604,386	-191,184	0,100	0,001
-603,371	315,508	0,058	0,079
-602,357	-56,093	-0,091	-0,029
-601,342	-73,015	-0,085	-0,022
-600,328	136,461	-0,136	-0,129
-599,313	800,000	0,025	-0,071
-598,298	-200,000	-0,027	-0,132
-597,284	800,000	-0,057	-0,149
-596,269	-75,711	0,033	0,008
-595,255	-116,375	0,079	-0,010
-594,240	225,918	0,031	0,037
-593,225	800,000	0,007	0,016
-592,211	800,000	-0,028	0,064
-591,196	243,371	-0,010	0,012
-590,182	-200,000	0,033	0,185
-589,167	85,721	0,031	0,024
-588,152	-8,954	0,035	-0,017
-587,138	196,707	-0,057	0,063
-586,123	-200,000	0,028	-0,098
-585,109	208,896	-0,027	0,030
-584,094	-73,169	-0,015	-0,004
-583,079	800,000	0,032	-0,067
-582,065	-28,223	0,099	-0,041
-581,050	-200,000	0,017	-0,055
-580,036	58,030	-0,121	-0,086
-579,021	-200,000	0,015	-0,125
-578,006	113,289	-0,083	-0,073
-576,992	135,621	-0,031	0,029
-575,977	785,242	0,090	-0,179
-574,963	-200,000	-0,004	-0,024
-573,948	800,000	-0,029	0,062
-572,934	800,000	0,024	0,057
-571,919	-8,424	0,104	0,050
-570,904	-103,377	-0,016	-0,003
-569,890	0,143	-0,139	-0,072
-568,875	-97,445	-0,148	0,028
-567,861	800,000	0,032	0,089
-566,846	-81,498	-0,024	-0,006
-565,831	44,453	0,183	0,121
-564,817	-9,897	0,089	-0,042
-563,802	379,769	-0,052	0,077
-562,788	-22,612	0,029	-0,013
-561,773	89,191	0,003	0,002
-560,758	-99,251	0,101	-0,018
-559,744	100,952	-0,035	-0,029
-558,729	161,442	-0,067	-0,068
-557,715	354,099	-0,049	0,070
-556,700	317,943	-0,051	-0,070
-555,685	-6,425	0,019	0,009
-554,671	-5,857	-0,054	0,027
-553,656	-200,000	0,004	-0,041
-552,642	-159,747	0,053	-0,002
-551,627	68,772	0,008	0,006
-550,612	132,721	-0,079	-0,074
-549,598	-200,000	0,004	-0,113
-548,583	800,000	0,062	-0,168
-547,569	136,579	-0,080	-0,075
-546,554	298,283	0,027	-0,037
-545,539	13,678	0,171	0,096
-544,525	-99,780	-0,160	0,029
-543,510	-200,000	0,020	0,128
-542,496	111,372	-0,079	0,068
-541,481	145,178	-0,063	0,061
-540,466	-103,817	0,061	-0,010
-539,452	-14,200	0,100	0,046
-538,437	-79,511	0,030	0,007
-537,423	800,000	-0,029	0,066
-536,408	57,511	0,123	-0,087
-535,393	800,000	-0,048	-0,122
-534,379	-200,000	-0,016	-0,109
-533,364	111,331	0,034	-0,030
-532,350	-200,000	-0,020	-0,184
-531,335	165,924	-0,033	0,034
-530,321	89,615	0,059	0,047
-529,306	122,900	0,098	-0,088
-528,291	-53,821	-0,092	-0,030
-527,277	77,537	-0,053	0,041
-526,262	-19,309	-0,068	0,030
-525,248	473,618	-0,062	0,101
-524,233	70,632	0,165	0,123
-523,218	-200,000	0,004	0,028
-522,204	-59,873	0,071	-0,022
-521,189	-184,279	-0,118	0,001
-520,175	-30,916	0,149	-0,060
-519,160	372,516	0,054	-0,079
-518,145	-49,135	-0,062	-0,021
-517,131	51,087	0,073	0,050
-516,116	415,078	0,052	0,080
-515,102	-126,264	-0,045	-0,005
-514,087	-200,000	0,004	0,031
-513,072	-200,000	0,027	0,154
-512,058	90,502	0,040	0,033
-511,043	-5,376	0,055	-0,027
-510,029	244,964	0,043	-0,052
-509,014	102,008	0,044	0,037
-507,999	-200,000	0,024	0,085
-506,985	219,721	-0,042	-0,049
-505,970	325,622	-0,056	-0,078
-504,956	-200,000	-0,001	0,073
-503,941	321,514	0,025	-0,035
-502,926	212,020	0,114	-0,130
-501,912	14,806	-0,129	0,073
-500,897	-200,000	0,004	0,025
-499,883	3,774	-0,077	-0,040
-498,868	586,760	0,022	-0,039
-497,853	-96,551	-0,052	0,010
-496,839	-200,000	0,023	-0,135
-495,824	-200,000	-0,003	0,098
-494,810	258,969	-0,069	0,086
-493,795	37,125	-0,066	0,042
-492,781	-29,814	-0,065	0,026
-491,766	-6,095	0,096	-0,047
-490,751	800,000	-0,010	0,023
-489,737	5,394	-0,079	-0,042
-488,722	50,444	0,052	-0,036
-487,708	-25,195	0,107	-0,045
-486,693	-79,512	0,120	-0,029
-485,678	16,343	-0,088	0,050
-484,664	800,000	-0,032	-0,070
-483,649	6,320	-0,141	-0,075
-482,635	-200,000	0,006	-0,128
-481,620	40,052	0,177	-0,114
-480,605	-88,294	-0,074	-0,016
-479,591	685,095	-0,074	0,140
-478,576	800,000	-0,015	0,039
-477,562	307,152	-0,043	0,058
-476,547	800,000	-0,020	-0,053
-475,532	-200,000	0,015	-0,110
-474,518	149,645	-0,038	0,037
-473,503	611,311	-0,014	0,025
-472,489	33,098	0,048	0,030
-471,474	-71,714	-0,164	-0,044
-470,459	387,697	-0,074	0,111
-469,445	-4,625	-0,063	0,031
-468,430	158,721	0,103	-0,103
-467,416	800,000	-0,008	-0,017
-466,401	24,459	0,061	0,036
-465,386	800,000	0,054	-0,122
-464,372	-141,185	0,166	-0,012
-463,357	-200,000	-0,000	0,053
-462,343	77,890	-0,086	0,066
-461,328	2,948	-0,053	0,028
-460,313	-200,000	0,018	0,063
-459,299	-200,000	0,013	0,058
-458,284	-200,000	-0,018	-0,084
-457,270	-197,288	0,029	-0,000
-456,255	-158,432	0,024	-0,001
-455,241	-200,000	0,003	-0,065
-454,226	-200,000	-0,010	-0,042
-453,211	18,732	0,166	0,096
-452,197	-200,000	-0,019	-0,107
-451,182	172,654	0,095	-0,098
-450,168	-59,614	0,048	0,015
-449,153	-200,000	0,005	0,109
-448,138	80,249	-0,121	-0,094
-447,124	109,126	-0,102	-0,088
-446,109	-61,887	0,059	0,018
-445,095	595,544	-0,031	0,055
-444,080	82,202	-0,004	-0,003
-443,065	18,731	-0,164	0,095
-442,051	-200,000	-0,014	-0,052
-441,036	-127,575	0,138	0,014
-440,022	78,208	-0,079	-0,061
-439,007	323,891	-0,076	-0,104
-437,992	-152,345	0,084	0,004
-436,978	-200,000	0,030	0,153
-435,963	-200,000	0,039	0,132
-434,949	422,086	0,061	-0,095
-433,934	-24,714	-0,210	-0,089
-432,919	212,339	-0,032	-0,036
-431,905	-129,511	0,082	0,008
-430,890	518,929	0,033	-0,057
-429,876	266,340	-0,165	0,208
-428,861	-22,360	-0,079	-0,034
-427,846	84,031	-0,077	0,060
-426,832	800,000	0,069	-0,179
-425,817	-58,520	-0,116	-0,036
-424,803	-200,000	0,040	0,141
-423,788	-21,109	-0,021	-0,009
-422,773	156,383	0,105	0,104
-421,759	-200,000	0,016	0,108
-420,744	-200,000	-0,009	-0,108
-419,730	86,833	-0,098	-0,077
-418,715	-200,000	0,021	-0,140
-417,701	-200,000	0,019	-0,151
-416,686	-86,756	-0,109	-0,024
-415,671	130,174	-0,040	-0,037
-414,657	-200,000	0,008	-0,146
-413,642	-122,359	0,078	-0,009
-412,628	156,982	-0,045	-0,044
-411,613	-26,406	0,022	0,009
-410,598	426,108	-0,047	0,073
-409,584	-66,478	-0,130	-0,037
-408,569	-25,838	-0,076	0,032
-407,555	88,721	0,101	-0,080
-406,540	621,843	-0,070	0,128
-405,525	-99,349	-0,188	-0,034
-404,511	-200,000	0,004	0,121
-403,496	241,849	-0,066	-0,079
-402,482	-20,160	-0,070	-0,031
-401,467	-52,729	-0,146	-0,048
-400,452	366,361	0,017	0,025
-399,438	111,557	0,036	0,031
-398,423	-94,273	0,087	-0,017
-397,409	-17,214	0,067	0,030
-396,394	-131,942	0,094	-0,009
-395,379	-126,949	-0,082	0,009
-394,365	-137,895	-0,041	0,003
-393,350	255,558	0,049	-0,061
-392,336	560,247	0,033	0,058
-391,321	-200,000	-0,016	0,152
-390,306	383,635	0,050	-0,074
-389,292	567,558	-0,017	-0,030
-388,277	244,750	-0,056	0,068
-387,263	108,850	0,120	0,103
-386,248	-124,177	0,048	0,005
-385,233	267,375	0,062	0,078
-384,219	186,599	0,037	-0,040
-383,204	-200,000	0,002	0,131
-382,190	-34,912	-0,125	0,049
-381,175	192,324	-0,046	-0,050
-380,160	-20,192	0,132	0,058
-379,146	800,000	-0,037	0,095
-378,131	-105,305	0,025	-0,004
-377,117	647,950	-0,023	0,043
-376,102	635,502	-0,025	-0,046
-375,088	-200,000	-0,001	-0,035
-374,073	-200,000	-0,011	0,125
-373,058	-31,310	0,127	0,051
-372,044	-151,105	0,109	0,006
-371,029	588,640	0,086	0,152
-370,015	-109,734	-0,134	-0,020
-369,000	424,590	-0,052	0,081
-367,985	322,164	-0,069	-0,095
-366,971	-200,000	0,002	0,009
-365,956	167,134	0,077	-0,079
-364,942	505,287	0,033	-0,055
-363,927	235,588	0,106	0,125
-362,912	402,215	-0,098	0,149
-361,898	800,000	-0,039	-0,118
-360,883	0,542	-0,103	0,052
-359,869	-200,000	0,010	0,034
-358,854	800,000	0,058	0,137
-357,839	113,734	0,028	0,024
-356,825	800,000	-0,033	0,078
-355,810	164,214	-0,068	0,068
-354,796	-200,000	-0,018	0,080
-353,781	-117,430	-0,159	-0,020
-352,766	-56,731	-0,129	-0,041
-351,752	316,588	-0,023	0,031
-350,737	182,519	0,102	0,108
-349,723	-34,451	-0,131	0,051
-348,708	-200,000	-0,000	-0,054
-347,693	-103,673	-0,167	-0,028
-346,679	-61,802	0,099	-0,030
-345,664	161,885	0,028	-0,028
-344,650	-84,930	-0,215	0,048
-343,635	-12,562	0,061	0,029
-342,620	233,664	0,078	-0,093
-341,606	-78,041	-0,090	0,022
-340,591	800,000	-0,023	0,073
-339,577	136,514	-0,028	0,026
-338,562	53,851	-0,033	-0,023
-337,548	-36,744	0,197	-0,076
-336,533	-63,424	0,009	-0,003
-335,518	370,755	0,053	0,077
-334,504	-200,000	0,006	0,088
-333,489	-38,348	0,075	-0,028
-332,475	800,000	-0,070	-0,155
-331,460	-49,158	-0,091	0,031
-330,445	800,000	0,038	-0,081
-329,431	-200,000	0,010	-0,052
-328,416	-200,000	0,006	-0,102
-327,402	11,692	0,005	-0,003
-326,387	0,832	-0,046	-0,023
-325,372	-43,091	-0,050	0,018
-324,358	800,000	-0,031	-0,071
-323,343	800,000	0,033	-0,085
-322,329	-128,281	0,142	0,014
-321,314	186,429	0,067	0,071
-320,299	-155,983	-0,138	-0,006
-319,285	-200,000	-0,015	0,054
-318,270	190,652	-0,074	-0,080
-317,256	-23,397	0,098	-0,042
-316,241	-200,000	-0,013	-0,054
-315,226	57,243	-0,093	0,065
-314,212	87,584	0,141	0,112
-313,197	-94,974	-0,074	0,014
-312,183	-162,317	-0,084	-0,003
-311,168	-200,000	-0,019	-0,097
-310,153	-126,692	-0,075	-0,008
-309,139	85,036	-0,026	0,020
-308,124	242,932	-0,068	-0,082
-307,110	-200,000	-0,008	-0,028
-306,095	216,645	0,050	-0,057
-305,080	800,000	0,006	0,014
-304,066	-200,000	0,009	0,039
-303,051	261,499	-0,016	0,020
-302,037	128,687	-0,080	-0,073
-301,022	-200,000	-0,006	0,067
-300,008	-98,170	0,091	-0,017
-298,993	800,000	0,057	0,117
-297,978	-200,000	0,002	0,062
-296,964	1,318	0,103	-0,053
-295,949	-55,740	-0,111	-0,035
-294,935	-200,000	-0,012	0,140
-293,920	215,883	0,060	-0,068
-292,905	183,739	0,020	0,021
-291,891	355,251	0,102	0,145
-290,876	-26,000	0,045	-0,019
-289,862	-200,000	-0,032	-0,169
-288,847	-200,000	0,021	0,078
-287,832	-8,625	0,051	0,024
-286,818	-200,000	-0,006	0,087
-285,803	-103,903	0,125	0,021
-284,789	163,794	-0,052	-0,053
-283,774	18,297	-0,052	0,030
-282,759	53,471	0,137	0,094
-281,745	-108,742	0,036	-0,005
-280,730	-61,791	-0,053	0,016
-279,716	-200,000	0,000	-0,066
-278,701	284,097	0,054	-0,070
-277,686	-200,000	-0,005	0,096
-276,672	-200,000	-0,013	0,200
-275,657	-200,000	0,011	0,079
-274,643	-33,062	-0,118	0,046
-273,628	-71,590	-0,088	0,023
-272,613	-73,789	0,062	-0,016
-271,599	51,720	0,099	0,067
-270,584	-45,910	0,082	0,029
-269,570	-105,675	0,146	-0,023
-268,555	38,003	0,030	0,019
-267,540	800,000	-0,035	-0,084
-266,526	-39,586	-0,144	-0,053
-265,511	800,000	0,022	-0,051
-264,497	193,357	0,064	0,069
-263,482	-75,665	0,083	0,021
-262,467	78,482	0,067	-0,051
-261,453	-200,000	0,003	0,016
-260,438	-9,074	-0,081	0,038
-259,424	-200,000	-0,014	0,067
-258,409	-134,684	0,050	0,004
-257,395	-200,000	-0,024	0,142
-256,380	228,123	0,063	-0,073
-255,365	800,000	0,025	-0,055
-254,351	185,172	-0,071	0,075
-253,336	217,578	0,084	-0,096
-252,322	78,199	-0,106	-0,081
-251,307	-35,050	-0,164	0,063
-250,292	-60,984	0,063	0,019
-249,278	800,000	-0,035	0,099
-248,263	-55,539	0,144	-0,046
-247,249	112,815	0,047	0,041
-246,234	-200,000	0,028	0,133
-245,219	81,264	0,015	-0,011
-244,205	-200,000	0,000	-0,027
-243,190	602,623	-0,026	0,047
-242,176	-10,459	0,087	-0,041
-241,161	-120,580	0,060	0,007
-240,146	27,652	-0,076	-0,045
-239,132	-76,589	-0,057	-0,014
-238,117	800,000	-0,036	-0,103
-237,103	-2,441	-0,048	-0,024
-236,088	-79,442	0,054	0,013
-235,073	-93,320	-0,111	-0,022
-234,059	27,294	-0,030	0,018
-233,044	29,811	0,046	-0,028
-232,030	317,249	0,083	-0,113
-231,015	-200,000	-0,023	-0,093
-230,000	201,444	-0,085	-0,094
-228,986	276,672	-0,018	0,022
-227,971	157,120	0,101	0,100
-226,957	-200,000	0,032	0,172
-225,942	103,785	-0,067	0,056
-224,927	800,000	0,010	-0,025
-223,913	157,588	0,117	-0,116
-222,898	800,000	-0,092	-0,186
-221,884	12,867	-0,052	-0,028
-220,869	-118,216	0,093	-0,012
-219,855	28,260	0,010	-0,006
-218,840	-55,370	0,079	-0,025
-217,825	215,311	0,015	0,017
-216,811	-200,000	-0,021	-0,069
-215,796	55,388	-0,059	0,041
-214,782	368,854	0,043	0,062
-213,767	191,292	-0,083	0,090
-212,752	-46,876	0,077	-0,027
-211,738	143,038	0,077	0,073
-210,723	323,844	-0,031	0,043
-209,709	800,000	-0,031	0,087
-208,694	800,000	-0,019	-0,048
-207,679	-56,824	-0,083	-0,026
-206,665	-78,771	-0,137	0,033
-205,650	-53,557	0,082	0,027
-204,636	-56,510	0,085	-0,027
-203,621	15,274	0,034	-0,019
-202,606	-200,000	0,003	0,065
-201,592	-200,000	-0,001	-0,136
-200,577	-184,209	-0,059	-0,001
-199,563	128,074	-0,072	0,065
-198,548	149,189	0,124	-0,120
-197,533	-3,037	0,128	0,064
-196,519	-200,000	0,014	0,148
-195,504	-200,000	0,013	-0,074
-194,490	27,391	0,175	-0,105
-193,475	88,017	0,106	-0,084
-192,460	731,609	0,070	-0,134
-191,446	-19,348	-0,011	0,005
-190,431	-156,510	0,127	-0,006
-189,417	800,000	0,070	0,149
-188,402	-200,000	0,012	-0,077
-187,387	-3,708	-0,041	-0,020
-186,373	-43,949	0,032	0,011
-185,358	103,900	0,047	0,039
-184,344	-200,000	-0,033	0,194
-183,329	-200,000	0,035	0,140
-182,315	-200,000	0,002	-0,037
-181,300	-200,000	-0,008	-0,035
-180,285	-120,932	0,226	-0,027
-179,271	132,620	-0,030	-0,027
-178,256	-200,000	0,006	-0,199
-177,242	-77,288	0,072	0,018
-176,227	-200,000	-0,037	-0,134
-175,212	52,028	0,054	0,037
-174,198	800,000	0,038	-0,080
-173,183	417,989	0,050	-0,077
-172,169	-156,975	-0,158	0,007
-171,154	800,000	-0,020	-0,041
-170,139	170,503	0,073	0,074
-169,125	115,078	0,062	0,054
-168,110	-8,531	-0,098	-0,047
-167,096	291,179	0,052	0,067
-166,081	-0,603	0,071	0,036
-165,066	114,722	-0,049	-0,043
-164,052	-200,000	-0,001	-0,038
-163,037	-89,354	0,095	-0,020
-162,023	800,000	-0,064	-0,141
-161,008	719,059	0,018	0,035
-159,993	535,847	-0,083	0,142
-158,979	-33,574	0,019	0,007
-157,964	-200,000	0,015	0,122
-156,950	-200,000	0,005	0,119
-155,935	261,790	-0,061	-0,076
-154,920	800,000	-0,062	-0,125
-153,906	-200,000	-0,005	-0,016
-152,891	-56,591	-0,065	0,020
-151,877	-200,000	-0,001	-0,156
-150,862	14,283	-0,045	-0,025
-149,847	125,088	0,061	-0,055
-148,833	-200,000	-0,030	0,115
-147,818	-110,264	0,135	-0,020
-146,804	-200,000	-0,012	0,142
-145,789	800,000	-0,024	-0,061
-144,775	646,943	0,064	-0,117
-143,760	289,086	0,036	-0,047
-142,745	555,318	0,019	0,033
-141,731	-65,029	0,063	0,018
-140,716	-130,950	0,118	0,011
-139,702	297,107	-0,061	0,081
-138,687	458,327	-0,063	0,099
-137,672	-200,000	0,000	-0,116
-136,658	-93,784	0,045	-0,009
-135,643	214,159	-0,049	-0,055
-134,629	86,696	-0,049	-0,039
-133,614	-4,042	-0,007	0,003
-132,599	599,182	-0,040	0,071
-131,585	800,000	0,011	-0,033
-130,570	114,134	-0,059	0,051
-129,556	-200,000	-0,012	-0,054
-128,541	-83,272	0,091	-0,021
-127,526	238,754	0,067	-0,080
-126,512	-200,000	0,000	0,061
-125,497	-186,595	0,129	0,001
-124,483	741,155	-0,039	0,074
-123,468	-200,000	0,024	-0,134
-122,453	-101,973	-0,100	0,017
-121,439	800,000	-0,027	0,070
-120,424	173,453	0,058	-0,060
-119,410	123,928	0,047	0,042
-118,395	195,182	-0,092	0,100
-117,380	157,705	-0,066	0,065
-116,366	-200,000	0,005	0,025
-115,351	-200,000	0,003	0,040
-114,337	-57,851	-0,050	0,015
-113,322	-117,418	-0,151	0,019
-112,307	-200,000	0,009	-0,037
-111,293	-10,497	-0,118	0,055
-110,278	122,133	-0,052	-0,046
-109,264	-99,408	-0,051	-0,009
-108,249	10,316	-0,109	-0,059
-107,234	119,197	-0,016	0,014
-106,220	-200,000	0,023	-0,105
-105,205	242,480	0,040	0,048
-104,191	-200,000	-0,008	-0,042
-103,176	-177,232	0,011	0,000
-102,162	-200,000	-0,001	-0,057
-101,147	800,000	-0,037	0,108
-100,132	388,649	-0,060	0,089
-99,118	-200,000	0,034	-0,118
-98,103	-123,057	0,030	-0,003
-97,089	-1,724	-0,043	0,022
-96,074	800,000	-0,057	0,158
-95,059	800,000	-0,040	0,086
-94,045	699,178	0,078	-0,147
-93,030	-32,373	0,037	-0,015
-92,016	-200,000	0,044	0,212
-91,001	-120,647	-0,017	0,002
-89,986	-200,000	0,017	0,061
-88,972	240,962	0,079	0,094
-87,957	-200,000	0,030	-0,118
-86,943	800,000	-0,031	0,088
-85,928	-126,105	-0,120	-0,013
-84,913	224,053	-0,064	-0,073
-83,899	-200,000	0,028	-0,152
-82,884	87,060	-0,063	0,050
-81,870	244,260	0,055	0,066
-80,855	228,534	-0,055	0,064
-79,840	5,387	-0,125	0,065
-78,826	-58,912	-0,090	-0,027
-77,811	-170,109	-0,067	-0,002
-76,797	-46,095	0,076	-0,026
-75,782	800,000	-0,076	0,211
-74,767	800,000	0,035	0,106
-73,753	800,000	0,024	0,053
-72,738	213,488	0,093	-0,105
-71,724	-69,048	0,047	0,013
-70,709	-46,914	0,066	-0,023
-69,694	-163,833	-0,049	0,002
-68,680	-111,452	0,065	0,009
-67,665	-200,000	0,020	0,132
-66,651	-9,287	-0,135	0,064
-65,636	25,031	-0,109	0,064
-64,622	384,972	-0,063	0,093
-63,607	800,000	-0,017	-0,051
-62,592	57,958	-0,145	-0,101
-61,578	10,598	0,057	0,031
-60,563	-90,133	-0,067	-0,014
-59,549	-200,000	-0,008	-0,045
-58,534	-73,556	-1,501	-0,386
-57,519	346,665	-1,602	-2,242
-56,505	-200,000	-0,514	-4,677
-55,490	131,117	0,945	0,861
-54,476	800,000	4,776	11,153
-53,461	-200,000	17,912	285,534
-52,446	800,000	724,455	2229,123
-51,432	560,528	1639,419	2820,803
-50,417	80,169	1661,884	1266,819
-49,403	23,407	1535,773	893,266
-48,388	17,424	1458,831	819,573
-47,373	18,064	1449,045	817,121
-46,359	17,632	1439,402	809,587
-45,344	15,679	1434,656	797,577
-44,330	15,610	1432,584	796,061
-43,315	15,608	1431,082	795,187
-42,300	15,620	1429,323	794,232
-41,286	15,619	1428,326	793,642
-40,271	15,610	1426,992	792,827
-39,257	15,592	1425,830	792,067
-38,242	15,609	1424,639	791,452
-37,227	15,693	1423,305	791,079
-36,213	15,690	1421,850	790,224
-35,198	15,601	1420,781	789,177
-34,184	15,682	1419,845	789,012
-33,169	15,613	1418,640	787,984
-32,154	15,615	1417,659	787,416
-31,140	15,646	1416,110	786,671
-30,125	15,701	1414,923	786,239
-29,111	15,642	1413,938	785,383
-28,096	15,618	1412,992	784,714
-27,082	15,586	1411,809	783,876
-26,067	15,590	1410,536	783,155
-25,052	15,592	1409,538	782,582
-24,038	15,576	1408,705	782,014
-23,023	15,546	1407,590	781,222
-22,009	15,507	1406,731	780,531
-20,994	15,505	1405,793	779,969
-19,979	15,462	1404,864	779,224
-18,965	15,526	1403,816	778,908
-17,950	15,500	1402,770	778,177
-16,936	15,488	1401,794	777,547
-15,921	15,477	1400,668	776,843
-14,906	15,455	1399,815	776,235
-13,892	15,470	1398,802	775,715
-12,877	15,456	1397,931	775,134
-11,863	15,453	1397,081	774,619
-10,848	15,439	1396,129	773,993
-9,833	15,413	1395,376	773,428
-8,819	15,396	1394,275	772,709
-7,804	15,389	1393,373	772,145
-6,790	15,408	1392,216	771,559
-5,775	15,376	1391,218	770,830
-4,760	15,393	1390,416	770,434
-3,746	15,384	1389,503	769,856
-2,731	15,329	1389,031	769,306
-1,717	15,362	1387,909	768,808
-0,702	15,353	1386,153	767,762
0,313	19,165	1306,153	741,080
1,327	35,450	707,204	439,051
2,342	54,535	125,102	85,332
3,356	3,321	16,616	8,546
4,371	8,828	3,033	1,616
5,386	56,708	0,495	0,341
6,400	-38,529	0,085	0,032
7,415	-4,570	-0,210	-0,103
8,429	88,148	-0,393	-0,309
9,444	80,648	-0,338	-0,258
10,459	-21,393	-0,413	-0,178
11,473	86,891	-0,273	-0,213
12,488	-61,439	-0,354	-0,105
13,502	-102,682	-0,339	-0,057
14,517	-69,956	-0,287	-0,077
15,531	112,133	-0,274	-0,234
16,546	-20,333	-0,506	-0,220
17,561	53,963	-0,398	-0,270
18,575	-117,646	-0,234	-0,030
19,590	62,827	-0,390	-0,276
20,604	353,658	-0,171	-0,241
21,619	70,936	-0,460	-0,337
22,634	-55,637	-0,550	-0,173
23,648	197,142	-0,403	-0,435
24,663	71,475	-0,349	-0,256
25,677	117,278	-0,427	-0,372
26,692	25,097	-0,257	-0,151
27,707	1,820	-0,400	-0,203
28,721	25,616	-0,410	-0,241
29,736	609,323	-0,233	-0,413
30,750	255,279	-0,329	-0,400
31,765	162,726	-0,272	-0,270
32,780	60,369	-0,350	-0,244
33,794	131,725	-0,281	-0,255
34,809	324,605	-0,286	-0,387
35,823	70,464	-0,433	-0,316
36,838	79,147	-0,396	-0,300
37,853	24,682	-0,381	-0,223
38,867	30,784	-0,538	-0,325
39,882	-31,631	-0,418	-0,165
40,896	252,809	-0,343	-0,414
41,911	39,100	-0,444	-0,280
42,926	34,790	-0,434	-0,267
43,940	43,543	-0,334	-0,215
44,955	128,376	-0,336	-0,303
45,969	170,853	-0,320	-0,324
46,984	42,777	-0,340	-0,219
47,999	86,890	-0,306	-0,239
49,013	266,675	-0,246	-0,304
50,028	78,695	-0,284	-0,214
51,042	800,000	-0,175	-0,383
52,057	-64,405	-0,345	-0,098
53,071	116,961	-0,325	-0,282
54,086	-4,222	-0,341	-0,166
55,101	-35,665	-0,377	-0,144
56,115	-75,890	-0,338	-0,084
57,130	178,189	-0,334	-0,344
58,144	167,271	-0,437	-0,438
59,159	149,932	-0,341	-0,327
60,174	250,081	-0,320	-0,384
61,188	264,499	-0,250	-0,308
62,203	564,768	-0,202	-0,346
63,217	67,941	-0,177	-0,128
64,232	-82,516	-0,447	-0,102
65,247	152,939	-0,268	-0,259
66,261	124,595	-0,325	-0,288
67,276	96,055	-0,336	-0,270
68,290	61,439	-0,276	-0,193
69,305	28,819	-0,268	-0,160
70,320	233,447	-0,212	-0,246
71,334	53,451	-0,428	-0,289
72,349	92,320	-0,233	-0,185
73,363	56,050	-0,338	-0,231
74,378	46,250	-0,319	-0,208
75,393	-49,896	-0,337	-0,112
76,407	-13,124	-0,338	-0,154
77,422	36,752	-0,268	-0,167
78,436	60,754	-0,149	-0,104
79,451	48,587	-0,185	-0,122
80,466	20,398	-0,359	-0,204
81,480	149,678	-0,211	-0,202
82,495	-29,130	-0,397	-0,160
83,509	72,787	-0,300	-0,221
84,524	14,600	-0,348	-0,191
85,539	-114,741	-0,225	-0,030
86,553	-15,710	-0,241	-0,108
87,568	86,973	-0,247	-0,192
88,582	10,375	-0,355	-0,189
89,597	88,095	-0,215	-0,168
90,611	-28,302	-0,302	-0,122
91,626	341,715	-0,185	-0,255
92,641	-24,093	-0,177	-0,074
93,655	459,655	-0,117	-0,184
94,670	35,727	-0,339	-0,209
95,684	181,910	-0,245	-0,254
96,699	71,460	-0,355	-0,259
97,714	201,864	-0,224	-0,243
98,728	-108,195	-0,231	0,035
99,743	60,790	-0,273	-0,190
100,757	-19,865	-0,221	-0,095
101,772	-44,068	-0,318	-0,111
102,787	-33,145	-0,366	-0,142
103,801	159,019	-0,327	-0,320
104,816	-50,486	-0,345	-0,114
105,830	68,485	-0,251	-0,180
106,845	27,403	-0,254	-0,150
107,860	67,802	-0,196	-0,140
108,874	-32,350	-0,392	-0,153
109,889	447,592	-0,137	-0,212
110,903	176,724	-0,213	-0,218
111,918	184,213	-0,210	-0,218
112,933	-123,386	-0,233	-0,026
113,947	126,023	-0,090	-0,080
114,962	-118,483	-0,328	-0,040
115,976	-111,777	-0,393	-0,055
116,991	98,262	-0,340	-0,275
118,006	103,931	-0,295	-0,244
119,020	61,470	-0,283	-0,197
120,035	-149,905	-0,163	-0,009
121,049	-50,680	-0,157	-0,052
122,064	457,903	-0,105	-0,164
123,079	-23,464	-0,227	-0,095
124,093	101,880	-0,316	-0,259
125,108	131,149	-0,184	-0,165
126,122	161,415	-0,304	-0,298
127,137	47,512	-0,262	-0,171
128,151	-88,223	-0,266	-0,055
129,166	27,803	-0,325	-0,192
130,181	272,915	-0,155	-0,193
131,195	-4,808	-0,407	-0,196
132,210	52,910	-0,321	-0,215
133,224	339,761	-0,205	-0,281
134,239	-200,000	-0,074	-0,260
135,254	155,534	-0,228	-0,220
136,268	-200,000	-0,011	-0,204
137,283	33,201	-0,368	-0,223
138,297	86,112	-0,320	-0,247
139,312	61,992	-0,252	-0,176
140,327	65,125	-0,169	-0,120
141,341	30,360	-0,268	-0,160
142,356	36,086	-0,214	-0,132
143,370	-12,574	-0,240	-0,109
144,385	-49,466	-0,326	-0,108
145,400	-130,536	-0,185	-0,017
146,414	218,332	-0,221	-0,247
147,429	77,037	-0,262	-0,195
148,443	158,282	-0,182	-0,177
149,458	29,984	-0,217	-0,129
150,473	273,037	-0,181	-0,225
151,487	30,456	-0,249	-0,148
152,502	34,796	-0,347	-0,212
153,516	80,866	-0,304	-0,229
154,531	108,364	-0,214	-0,178
155,546	800,000	-0,104	-0,293
156,560	62,165	-0,211	-0,147
157,575	127,766	-0,174	-0,155
158,589	36,478	-0,215	-0,132
159,604	32,914	-0,161	-0,097
160,619	-7,868	-0,397	-0,186
161,633	110,542	-0,197	-0,165
162,648	32,430	-0,214	-0,129
163,662	148,836	-0,236	-0,223
164,677	478,231	-0,164	-0,260
165,692	-114,424	-0,247	-0,033
166,706	-125,032	-0,244	0,026
167,721	107,052	-0,188	-0,156
168,735	-41,485	-0,268	-0,096
169,750	102,051	-0,184	-0,150
170,764	800,000	-0,080	-0,187
171,779	-187,960	-0,292	0,003
172,794	47,598	-0,302	-0,196
173,808	156,441	-0,160	-0,155
174,823	39,403	-0,381	-0,238
175,837	116,628	-0,282	-0,241
176,852	504,896	-0,173	-0,281
177,867	-73,444	-0,286	-0,072
178,881	-157,195	-0,302	-0,013
179,896	-78,140	-0,187	-0,045
180,910	-34,932	-0,244	-0,092
181,925	42,069	-0,314	-0,198
182,940	264,258	-0,162	-0,197
183,954	178,957	-0,148	-0,151
184,969	-56,731	-0,094	0,029
185,983	-31,107	-0,233	-0,091
186,998	286,772	-0,106	-0,134
188,013	-23,348	-0,238	-0,099
189,027	36,255	-0,310	-0,190
190,042	12,590	-0,298	-0,160
191,056	565,165	-0,193	-0,328
192,071	-149,752	-0,239	-0,013
193,086	272,138	-0,101	-0,124
194,100	-32,806	-0,323	-0,125
195,115	2,293	-0,234	-0,118
196,129	268,433	-0,169	-0,206
197,144	-8,379	-0,368	-0,172
198,159	61,281	-0,099	-0,068
199,173	62,412	-0,228	-0,158
200,188	-94,520	-0,238	-0,045
201,202	127,802	-0,197	-0,175
202,217	165,348	-0,162	-0,160
203,232	302,759	-0,185	-0,238
204,246	128,543	-0,286	-0,253
205,261	52,396	-0,222	-0,147
206,275	-158,126	-0,185	0,007
207,290	337,158	-0,191	-0,259
208,304	184,326	-0,146	-0,150
209,319	-8,401	-0,258	-0,120
210,334	78,980	-0,300	-0,223
211,348	228,263	-0,232	-0,263
212,363	41,317	-0,249	-0,157
213,377	32,673	-0,213	-0,128
214,392	609,335	-0,092	-0,160
215,407	6,588	-0,191	-0,099
216,421	-132,163	-0,214	0,019
217,436	-73,418	-0,249	-0,063
218,450	548,096	-0,166	-0,278
219,465	234,937	-0,249	-0,286
220,480	-109,840	-0,310	-0,045
221,494	731,514	-0,075	-0,139
222,509	-36,050	-0,152	-0,057
223,523	-138,139	-0,149	-0,011
224,538	800,000	-0,047	-0,125
225,553	148,752	-0,282	-0,265
226,567	16,767	-0,132	0,072
227,582	74,228	-0,160	-0,117
228,596	-10,859	-0,277	-0,127
229,611	85,507	-0,208	-0,159
230,626	-56,157	-0,091	-0,028
231,640	88,904	-0,233	-0,180
232,655	-131,730	-0,205	0,018
233,669	800,000	-0,089	-0,219
234,684	302,299	-0,150	-0,193
235,699	61,436	-0,124	-0,086
236,713	77,932	-0,243	-0,180
237,728	-138,368	-0,123	0,009
238,742	155,859	-0,177	-0,170
239,757	199,724	-0,132	-0,141
240,772	435,389	-0,116	-0,175
241,786	-165,501	-0,259	-0,008
242,801	134,087	-0,156	-0,140
243,815	46,434	-0,136	-0,087
244,830	93,353	-0,167	-0,131
245,844	240,155	-0,218	-0,253
246,859	800,000	-0,129	-0,281
247,874	228,410	-0,152	-0,172
248,888	200,815	-0,154	-0,165
249,903	180,340	-0,090	-0,092
250,917	35,314	-0,123	-0,075
251,932	7,403	-0,119	-0,061
252,947	-37,408	-0,335	-0,123
253,961	730,280	-0,126	-0,234
254,976	220,908	-0,185	-0,206
255,990	-4,972	-0,139	0,066
257,005	-76,408	-0,208	-0,050
258,020	236,861	-0,082	-0,094
259,034	352,648	-0,156	-0,215
260,049	-110,705	-0,297	-0,042
261,063	800,000	-0,124	-0,300
262,078	88,587	-0,248	-0,191
263,093	197,256	-0,131	-0,139
264,107	800,000	-0,100	-0,218
265,122	-116,333	-0,108	-0,014
266,136	100,519	-0,102	-0,082
267,151	-133,159	-0,143	-0,012
268,166	7,983	-0,233	-0,120
269,180	146,963	-0,133	-0,124
270,195	272,303	-0,274	-0,336
271,209	334,904	-0,080	-0,108
272,224	800,000	-0,079	-0,157
273,239	-50,218	-0,140	-0,046
274,253	800,000	-0,056	-0,133
275,268	-200,000	-0,043	-0,188
276,282	63,362	-0,165	-0,114
277,297	-70,835	-0,120	-0,031
278,312	-30,299	-0,185	-0,072
279,326	617,746	-0,103	-0,179
280,341	-200,000	0,013	0,052
281,355	-200,000	-0,010	0,091
282,370	282,682	-0,083	-0,103
283,384	357,763	-0,161	-0,222
284,399	387,418	-0,126	-0,181
285,414	-4,533	-0,175	-0,083
286,428	-200,000	0,014	-0,112
287,443	208,499	0,038	0,042
288,457	-75,520	-0,041	-0,010
289,472	-30,649	-0,226	0,088
290,487	148,617	-0,165	-0,154
291,501	-47,840	-0,141	-0,047
292,516	-84,504	-0,183	0,040
293,530	358,332	-0,078	-0,107
294,545	-77,516	-0,258	-0,061
295,560	232,396	-0,063	-0,072
296,574	37,245	-0,116	-0,071
297,589	-104,260	-0,109	0,017
298,603	-12,891	-0,161	-0,072
299,618	35,072	-0,206	-0,124
300,633	-40,787	-0,139	-0,049
301,647	-200,000	0,002	-0,044
302,662	-109,521	-0,067	-0,010
303,676	65,639	-0,055	-0,038
304,691	684,424	-0,155	-0,280
305,706	582,621	-0,102	-0,174
306,720	452,868	-0,135	-0,207
307,735	-76,335	-0,190	-0,046
308,749	33,921	-0,111	-0,066
309,764	-39,596	-0,066	0,024
310,779	800,000	-0,104	-0,199
311,793	390,210	-0,112	-0,161
312,808	197,593	-0,072	-0,076
313,822	187,337	-0,123	-0,127
314,837	27,616	-0,102	-0,059
315,852	611,949	-0,099	-0,171
316,866	157,579	-0,139	-0,133
317,881	116,627	-0,142	-0,120
318,895	-40,826	-0,189	-0,067
319,910	265,873	-0,169	-0,203
320,925	-200,000	-0,027	-0,156
321,939	128,612	-0,185	-0,162
322,954	-65,792	-0,153	0,042
323,968	-34,582	-0,155	0,058
324,983	475,032	0,049	0,076
325,997	-200,000	0,012	-0,085
327,012	185,183	-0,157	-0,161
328,027	-40,886	-0,134	-0,048
329,041	800,000	-0,068	-0,195
330,056	-200,000	-0,045	-0,212
331,070	-168,092	-0,102	0,003
332,085	-200,000	-0,054	-0,225
333,100	-131,610	-0,153	0,014
334,114	-6,322	-0,088	-0,041
335,129	-200,000	0,018	-0,106
336,143	211,289	-0,190	-0,206
337,158	-169,282	-0,236	-0,006
338,173	263,037	-0,070	-0,083
339,187	-200,000	-0,024	-0,099
340,202	29,774	-0,112	-0,065
341,216	-49,817	-0,175	-0,057
342,231	10,860	-0,156	-0,082
343,246	331,065	-0,148	-0,196
344,260	-5,919	-0,100	-0,047
345,275	306,860	-0,120	0,154
346,289	75,467	-0,162	-0,117
347,304	-37,708	-0,229	0,083
348,319	368,896	-0,189	-0,263
349,333	534,244	-0,124	-0,202
350,348	-147,709	-0,172	-0,010
351,362	-81,778	-0,143	0,032
352,377	-35,478	-0,194	-0,072
353,392	-1,422	-0,177	-0,086
354,406	633,036	-0,093	-0,163
355,421	209,260	1313,350	1415,588
356,435	161,051	1473,926	1416,111
