DTS Sentinel unit serial number:	SN410029Multiplexer serial number:	ORYXHardware model number:	OX2-SRSoftware version number:	ORYX F/W v4,00 Oryx Data Collector v3.7.2.0data status	okinstallation	B3 Nyhavnadifferential loss correction	single-endedforward channel	channel 1reverse channel	N/Adate	2023/12/02time	03:47:30forward acquisition time	300,00reverse acquisition time	0,00gamma	499,1914k internal	0,3194k external	0,3194temperature offset calibration	1,0000default loss term (dB/km)	0,3820temperature slope calibration	1,0000multiplexer offset coefficient	1,0000multiplexer slope coefficient	1,0000fibre end	0,00T internal ref (°C)	16,62T ext. ref 1 (°C)	1,56T ext. ref 2 (°C)	1,56length (m)	temperature (°C)	Stokes	anti-Stokes-744,400	219,185	-0,190	-0,221
-743,385	800,000	0,058	0,185
-742,371	-8,999	-0,231	-0,112
-741,356	-200,000	0,079	0,335
-740,342	-18,804	-0,276	-0,125
-739,327	-200,000	0,012	0,195
-738,312	66,235	-0,265	-0,196
-737,298	800,000	-0,102	0,314
-736,283	283,158	-0,162	-0,212
-735,269	-200,000	0,037	0,190
-734,254	93,498	-0,184	-0,152
-733,239	-87,189	-0,109	-0,024
-732,225	171,519	-0,180	-0,189
-731,210	-45,962	0,161	0,057
-730,196	-17,548	-0,059	-0,027
-729,181	761,164	-0,063	-0,124
-728,167	226,907	-0,029	-0,034
-727,152	-85,130	-0,047	-0,011
-726,137	-1,478	0,057	-0,029
-725,123	416,102	-0,072	-0,112
-724,108	800,000	-0,024	0,053
-723,094	143,260	-0,083	-0,081
-722,079	279,644	-0,115	-0,150
-721,064	-200,000	-0,060	-0,246
-720,050	708,361	-0,012	0,023
-719,035	115,274	0,057	-0,050
-718,021	-200,000	0,006	-0,079
-717,006	-45,398	-0,129	-0,046
-715,991	800,000	-0,035	-0,110
-714,977	369,519	-0,031	0,046
-713,962	-200,000	-0,016	-0,101
-712,948	800,000	0,015	0,040
-711,933	71,028	0,044	-0,033
-710,918	800,000	0,028	0,068
-709,904	-61,101	-0,106	-0,032
-708,889	28,481	-0,035	0,022
-707,875	140,853	-0,108	-0,104
-706,860	-24,355	0,071	0,031
-705,845	162,332	0,034	-0,035
-704,831	32,566	-0,142	0,089
-703,816	553,411	0,011	-0,019
-702,802	-200,000	-0,006	0,034
-701,787	-200,000	0,007	-0,043
-700,772	-123,167	-0,142	-0,016
-699,758	-200,000	0,023	0,104
-698,743	132,557	0,052	0,049
-697,729	4,780	0,108	0,058
-696,714	226,312	0,060	-0,071
-695,699	340,815	0,069	0,098
-694,685	37,541	-0,118	-0,076
-693,670	-200,000	0,021	-0,159
-692,656	42,259	0,001	0,001
-691,641	-112,404	0,236	-0,034
-690,627	-200,000	-0,021	-0,154
-689,612	-172,596	0,101	-0,002
-688,597	52,784	-0,038	-0,026
-687,583	800,000	0,016	0,039
-686,568	140,362	-0,034	-0,032
-685,554	800,000	-0,029	-0,073
-684,539	800,000	0,038	-0,081
-683,524	-200,000	-0,018	-0,112
-682,510	306,324	0,114	-0,155
-681,495	-112,167	-0,102	0,015
-680,481	32,684	-0,147	-0,092
-679,466	-200,000	0,009	-0,101
-678,451	-200,000	-0,005	0,167
-677,437	642,907	-0,025	-0,047
-676,422	-42,415	0,112	-0,041
-675,408	-138,754	-0,041	0,003
-674,393	-54,695	-0,064	0,021
-673,378	-97,543	0,015	-0,003
-672,364	729,479	0,045	0,088
-671,349	323,442	-0,096	-0,134
-670,335	-79,166	-0,103	-0,025
-669,320	800,000	0,045	0,126
-668,305	93,330	0,033	-0,027
-667,291	161,329	-0,078	-0,080
-666,276	800,000	-0,064	-0,134
-665,262	-200,000	-0,056	-0,207
-664,247	51,162	0,046	-0,032
-663,232	-62,295	0,134	-0,040
-662,218	-160,400	-0,079	0,003
-661,203	600,667	-0,034	0,062
-660,189	5,068	-0,088	-0,047
-659,174	-32,722	-0,115	-0,046
-658,159	-45,724	-0,086	-0,031
-657,145	-200,000	-0,037	-0,121
-656,130	669,905	0,063	0,119
-655,116	0,061	0,073	-0,038
-654,101	-74,944	0,038	0,010
-653,086	88,520	-0,067	-0,054
-652,072	-200,000	-0,018	-0,096
-651,057	616,943	0,057	-0,104
-650,043	-96,447	-0,052	0,010
-649,028	66,870	-0,024	0,018
-648,014	282,394	-0,037	-0,048
-646,999	-137,484	0,080	-0,006
-645,984	800,000	0,040	0,105
-644,970	691,799	0,035	0,067
-643,955	282,975	-0,129	-0,169
-642,941	800,000	-0,044	-0,129
-641,926	800,000	0,074	-0,161
-640,911	-200,000	-0,001	0,006
-639,897	-113,720	0,074	0,010
-638,882	-200,000	0,000	0,034
-637,868	-105,910	0,031	0,005
-636,853	-2,342	-0,039	0,020
-635,838	800,000	0,015	0,030
-634,824	630,305	-0,067	-0,124
-633,809	-44,012	0,124	-0,045
-632,795	-60,889	0,103	0,031
-631,780	40,850	0,074	-0,049
-630,765	-200,000	0,026	-0,148
-629,751	-21,284	-0,124	-0,055
-628,736	0,533	-0,065	-0,033
-627,722	800,000	0,032	0,064
-626,707	-64,678	0,094	-0,027
-625,692	-185,178	0,119	0,001
-624,678	370,969	0,050	0,074
-623,663	-88,291	-0,112	-0,024
-622,649	166,885	-0,091	-0,094
-621,634	-200,000	-0,012	0,063
-620,619	38,093	0,005	0,003
-619,605	-107,968	-0,096	-0,015
-618,590	253,309	-0,061	0,075
-617,576	97,075	0,161	0,134
-616,561	-200,000	-0,021	0,086
-615,546	-200,000	-0,017	0,092
-614,532	-150,931	-0,112	0,006
-613,517	-38,204	-0,084	-0,032
-612,503	-83,923	-0,133	-0,030
-611,488	-200,000	0,009	0,033
-610,474	-81,312	0,144	0,034
-609,459	10,136	-0,080	-0,044
-608,444	800,000	-0,017	-0,034
-607,430	-149,839	-0,137	-0,008
-606,415	217,155	0,075	-0,087
-605,401	800,000	0,022	-0,067
-604,386	657,597	0,029	-0,055
-603,371	800,000	-0,038	-0,084
-602,357	-87,909	-0,104	0,022
-601,342	-17,380	-0,097	0,044
-600,328	-182,930	-0,188	-0,002
-599,313	-200,000	0,011	-0,059
-598,298	319,449	0,063	-0,087
-597,284	405,513	-0,045	-0,069
-596,269	-51,694	0,161	0,054
-595,255	-200,000	-0,002	0,084
-594,240	-179,553	-0,042	-0,001
-593,225	-131,073	0,030	-0,003
-592,211	-200,000	0,008	-0,034
-591,196	240,221	-0,053	0,064
-590,182	52,459	0,115	-0,079
-589,167	-93,948	0,033	0,007
-588,152	-200,000	-0,007	-0,116
-587,138	-86,855	-0,046	-0,010
-586,123	800,000	-0,109	-0,224
-585,109	800,000	0,023	-0,052
-584,094	-200,000	-0,015	0,054
-583,079	205,098	0,034	0,038
-582,065	-200,000	0,015	-0,102
-581,050	94,370	0,068	0,056
-580,036	89,122	-0,042	0,034
-579,021	-200,000	-0,013	-0,140
-578,006	800,000	0,057	-0,115
-576,992	556,982	0,063	-0,110
-575,977	-200,000	0,004	-0,037
-574,963	-200,000	0,006	-0,063
-573,948	482,147	0,080	0,133
-572,934	-200,000	0,008	-0,117
-571,919	-200,000	-0,003	-0,030
-570,904	800,000	0,057	-0,143
-569,890	-129,839	-0,043	0,004
-568,875	398,774	-0,046	0,070
-567,861	-102,606	-0,040	0,007
-566,846	-200,000	0,020	-0,110
-565,831	68,288	0,095	0,070
-564,817	-200,000	0,018	0,067
-563,802	-57,677	-0,038	-0,012
-562,788	207,790	-0,014	-0,015
-561,773	86,654	-0,002	-0,002
-560,758	-200,000	-0,021	-0,082
-559,744	216,162	0,045	-0,051
-558,729	58,563	0,013	-0,009
-557,715	27,927	-0,060	-0,037
-556,700	800,000	0,058	-0,141
-555,685	95,735	-0,071	0,059
-554,671	-128,039	0,016	0,002
-553,656	-200,000	0,013	-0,086
-552,642	-47,877	-0,099	0,034
-551,627	64,305	-0,037	-0,027
-550,612	365,984	-0,079	0,115
-549,598	-195,036	-0,120	0,001
-548,583	-200,000	0,026	-0,108
-547,569	-57,473	0,074	0,023
-546,554	-200,000	0,021	0,153
-545,539	-34,187	-0,121	0,048
-544,525	23,822	0,097	-0,058
-543,510	246,650	0,052	0,063
-542,496	475,659	-0,030	-0,049
-541,481	-200,000	-0,023	-0,094
-540,466	-200,000	-0,018	0,128
-539,452	25,891	0,076	-0,046
-538,437	-200,000	0,114	0,000
-537,423	272,278	0,044	-0,056
-536,408	-41,264	-0,042	-0,015
-535,393	-200,000	0,002	-0,017
-534,379	-200,000	0,009	-0,116
-533,364	139,460	0,030	-0,029
-532,350	2,021	-0,030	0,015
-531,335	47,507	0,133	0,090
-530,321	-200,000	-0,002	0,033
-529,306	-200,000	0,010	0,068
-528,291	-200,000	0,008	-0,171
-527,277	-200,000	0,001	-0,055
-526,262	-102,638	0,165	0,028
-525,248	-200,000	-0,016	-0,099
-524,233	-170,585	0,008	-0,000
-523,218	454,748	0,115	-0,185
-522,204	-200,000	-0,010	-0,072
-521,189	-51,349	-0,107	0,036
-520,175	-200,000	-0,161	-0,000
-519,160	-200,000	-0,003	-0,082
-518,145	349,184	-0,024	-0,034
-517,131	-2,227	0,076	0,038
-516,116	324,637	0,044	0,061
-515,102	134,095	-0,055	0,052
-514,087	29,279	-0,017	-0,010
-513,072	624,128	0,048	-0,088
-512,058	-107,937	-0,242	-0,038
-511,043	-200,000	0,053	0,196
-510,029	130,381	0,056	0,052
-509,014	-39,677	0,035	-0,013
-507,999	309,371	0,061	0,082
-506,985	-105,153	-0,132	-0,022
-505,970	90,305	-0,042	-0,034
-504,956	-90,478	0,141	0,029
-503,941	-101,151	0,061	-0,011
-502,926	242,268	0,129	0,156
-501,912	79,571	0,101	0,078
-500,897	800,000	0,040	0,088
-499,883	48,727	-0,020	-0,013
-498,868	679,996	0,013	0,025
-497,853	-69,169	-0,141	-0,039
-496,839	215,784	0,047	0,054
-495,824	-200,000	0,019	-0,068
-494,810	-33,034	0,037	-0,015
-493,795	89,915	-0,108	-0,087
-492,781	-200,000	-0,020	0,077
-491,766	800,000	0,029	-0,088
-490,751	-200,000	-0,035	-0,148
-489,737	254,633	0,055	-0,069
-488,722	-200,000	0,011	-0,066
-487,708	-91,434	-0,038	0,008
-486,693	-200,000	-0,014	-0,071
-485,678	-149,214	-0,106	-0,006
-484,664	157,084	-0,188	-0,187
-483,649	-180,202	-0,074	0,001
-482,635	800,000	-0,063	-0,135
-481,620	63,405	0,022	-0,016
-480,605	-116,498	-0,172	-0,023
-479,591	-9,092	0,073	0,035
-478,576	36,493	0,022	0,014
-477,562	-200,000	-0,029	-0,159
-476,547	73,981	0,085	-0,064
-475,532	6,235	-0,152	0,081
-474,518	-133,197	-0,055	0,005
-473,503	-200,000	0,001	0,089
-472,489	-200,000	0,026	0,099
-471,474	-24,423	0,086	-0,037
-470,459	800,000	-0,018	-0,039
-469,445	-200,000	-0,004	0,063
-468,430	-200,000	0,037	-0,158
-467,416	505,316	-0,058	0,098
-466,401	-200,000	0,014	0,057
-465,386	171,259	-0,097	0,101
-464,372	56,049	-0,044	-0,030
-463,357	490,487	-0,074	-0,123
-462,343	800,000	-0,021	-0,067
-461,328	118,336	-0,063	0,056
-460,313	-144,483	-0,123	-0,008
-459,299	800,000	-0,039	0,103
-458,284	-200,000	-0,014	0,136
-457,270	-200,000	-0,007	0,112
-456,255	158,446	-0,043	-0,043
-455,241	-200,000	-0,090	-0,000
-454,226	0,847	-0,019	0,010
-453,211	140,757	-0,101	-0,096
-452,197	-200,000	-0,002	-0,081
-451,182	-149,987	0,109	-0,006
-450,168	-200,000	0,006	0,087
-449,153	-87,078	-0,056	-0,012
-448,138	-200,000	0,009	-0,052
-447,124	634,301	0,028	0,052
-446,109	800,000	-0,031	-0,082
-445,095	-200,000	0,016	0,194
-444,080	-108,815	-0,158	0,024
-443,065	346,940	0,088	0,125
-442,051	227,789	-0,076	0,090
-441,036	-11,362	-0,063	0,030
-440,022	-200,000	0,021	-0,129
-439,007	436,120	-0,094	-0,148
-437,992	82,140	0,051	0,040
-436,978	71,184	0,069	0,052
-435,963	125,280	0,068	0,062
-434,949	-200,000	-0,028	-0,124
-433,934	-80,420	-0,150	0,036
-432,919	800,000	-0,051	-0,113
-431,905	-200,000	0,004	0,062
-430,890	-200,000	0,001	0,029
-429,876	800,000	0,077	0,155
-428,861	-200,000	0,009	0,046
-427,846	-200,000	-0,007	0,202
-426,832	386,252	-0,014	0,021
-425,817	44,682	-0,038	-0,025
-424,803	-153,065	0,013	-0,001
-423,788	-23,267	0,026	-0,011
-422,773	23,720	-0,081	0,048
-421,759	-56,621	0,043	0,014
-420,744	145,009	0,037	0,036
-419,730	188,338	-0,068	-0,073
-418,715	-46,599	-0,105	-0,037
-417,701	-71,352	0,093	0,025
-416,686	293,358	0,049	0,064
-415,671	-200,000	0,018	0,149
-414,657	-53,545	0,096	-0,031
-413,642	252,799	0,045	-0,055
-412,628	-85,887	0,070	0,015
-411,613	-200,000	-0,007	-0,183
-410,598	-14,057	-0,037	-0,017
-409,584	-19,241	0,069	0,031
-408,569	800,000	-0,053	0,128
-407,555	-200,000	0,015	-0,105
-406,540	414,862	0,032	-0,049
-405,525	193,465	-0,159	-0,174
-404,511	350,004	0,025	-0,036
-403,496	164,590	-0,072	0,074
-402,482	85,482	-0,081	0,064
-401,467	128,887	-0,041	-0,038
-400,452	47,503	0,065	-0,043
-399,438	-19,839	-0,101	-0,045
-398,423	673,827	0,020	-0,038
-397,409	-200,000	-0,025	-0,111
-396,394	127,274	0,050	0,046
-395,379	59,449	0,049	-0,034
-394,365	50,478	0,085	-0,058
-393,350	35,269	-0,024	0,015
-392,336	-57,785	-0,055	0,017
-391,321	116,484	-0,070	-0,062
-390,306	-200,000	0,029	-0,196
-389,292	-200,000	0,001	-0,065
-388,277	136,617	-0,087	0,081
-387,263	-200,000	-0,004	0,090
-386,248	198,035	0,036	0,040
-385,233	56,270	0,172	0,120
-384,219	-96,887	-0,143	-0,027
-383,204	-200,000	-0,016	0,053
-382,190	77,549	-0,093	-0,071
-381,175	-32,936	0,034	-0,013
-380,160	31,239	0,085	0,052
-379,146	-28,235	0,079	0,033
-378,131	-200,000	-0,005	-0,059
-377,117	800,000	0,023	-0,056
-376,102	-24,969	0,005	-0,002
-375,088	68,230	-0,057	-0,042
-374,073	718,527	0,043	0,082
-373,058	-102,234	0,067	-0,011
-372,044	89,267	0,030	-0,024
-371,029	-200,000	0,007	0,174
-370,015	379,621	-0,073	-0,108
-369,000	276,335	-0,066	-0,084
-367,985	-93,944	0,082	-0,016
-366,971	-142,408	-0,204	0,014
-365,956	-200,000	-0,013	-0,054
-364,942	-23,362	0,176	0,076
-363,927	-4,241	-0,070	0,035
-362,912	-200,000	0,011	0,179
-361,898	-200,000	0,012	-0,085
-360,883	142,807	-0,126	-0,120
-359,869	-200,000	-0,010	-0,057
-358,854	-200,000	-0,000	-0,063
-357,839	375,428	0,108	0,158
-356,825	-10,483	0,100	0,048
-355,810	166,898	0,034	-0,034
-354,796	800,000	0,022	-0,059
-353,781	255,371	0,060	-0,074
-352,766	-57,787	0,034	-0,011
-351,752	13,948	-0,202	-0,113
-350,737	248,348	0,078	-0,095
-349,723	-200,000	0,002	-0,063
-348,708	-200,000	0,009	0,088
-347,693	-74,104	-0,141	0,037
-346,679	-200,000	-0,005	-0,095
-345,664	294,224	-0,024	-0,031
-344,650	621,261	-0,042	0,076
-343,635	232,374	-0,029	-0,034
-342,620	-113,846	-0,023	0,003
-341,606	-18,111	-0,041	0,018
-340,591	153,324	-0,022	-0,022
-339,577	385,106	0,065	0,096
-338,562	-200,000	0,020	-0,066
-337,548	191,730	0,078	0,084
-336,533	154,504	0,034	0,033
-335,518	211,950	0,012	0,013
-334,504	161,170	0,078	0,078
-333,489	-200,000	-0,019	-0,063
-332,475	245,150	0,079	0,095
-331,460	29,290	-0,013	-0,008
-330,445	369,912	-0,042	0,061
-329,431	-78,319	-0,065	-0,016
-328,416	800,000	0,043	0,103
-327,402	-200,000	0,037	-0,123
-326,387	-68,767	0,122	0,034
-325,372	6,615	-0,166	-0,088
-324,358	-200,000	0,005	0,044
-323,343	-200,000	0,020	0,082
-322,329	800,000	0,074	0,165
-321,314	-123,202	0,067	-0,008
-320,299	-200,000	0,016	0,137
-319,285	800,000	0,020	0,054
-318,270	182,740	-0,059	0,063
-317,256	314,679	0,039	0,053
-316,241	79,537	0,037	-0,028
-315,226	-200,000	0,031	0,099
-314,212	-200,000	-0,016	0,068
-313,197	-108,313	0,057	0,009
-312,183	214,226	-0,053	0,061
-311,168	15,177	-0,088	-0,049
-310,153	204,733	-0,027	0,030
-309,139	-78,570	0,146	-0,036
-308,124	800,000	-0,039	0,091
-307,110	800,000	-0,030	0,080
-306,095	5,888	0,014	0,007
-305,080	-200,000	0,013	0,079
-304,066	-120,001	-0,163	-0,020
-303,051	-200,000	-0,001	-0,011
-302,037	-200,000	0,032	-0,143
-301,022	769,583	-0,030	0,060
-300,008	-8,130	0,120	0,058
-298,993	800,000	0,045	0,128
-297,978	-200,000	0,025	-0,133
-296,964	164,726	-0,103	0,104
-295,949	-58,728	-0,085	-0,026
-294,935	349,301	0,013	0,019
-293,920	80,166	-0,020	-0,015
-292,905	-123,718	-0,075	-0,008
-291,891	634,917	0,082	0,149
-290,876	-56,353	0,063	-0,020
-289,862	462,179	-0,085	0,137
-288,847	285,356	0,010	0,013
-287,832	800,000	0,062	-0,146
-286,818	-112,331	-0,033	-0,005
-285,803	800,000	-0,101	0,229
-284,789	-26,092	0,156	0,065
-283,774	-8,939	0,018	-0,008
-282,759	-200,000	0,019	-0,092
-281,745	-90,493	-0,162	-0,033
-280,730	95,147	0,057	0,046
-279,716	-46,285	-0,064	-0,022
-278,701	-51,839	0,145	0,048
-277,686	-200,000	0,000	0,086
-276,672	1,581	0,043	-0,022
-275,657	13,251	-0,008	0,005
-274,643	-200,000	-0,003	-0,040
-273,628	35,358	-0,091	-0,057
-272,613	-200,000	0,006	-0,022
-271,599	-200,000	0,004	-0,115
-270,584	208,072	0,024	-0,026
-269,570	68,170	0,039	0,029
-268,555	341,136	-0,028	0,039
-267,540	800,000	0,073	0,174
-266,526	-37,814	-0,034	0,013
-265,511	-40,850	0,074	0,027
-264,497	-171,439	0,101	-0,002
-263,482	-200,000	0,009	0,149
-262,467	-59,916	0,132	-0,040
-261,453	-200,000	-0,006	-0,040
-260,438	73,932	0,060	-0,045
-259,424	-50,629	-0,053	-0,018
-258,409	-200,000	0,002	0,006
-257,395	78,496	-0,049	0,038
-256,380	714,779	-0,033	-0,062
-255,365	138,244	-0,071	0,067
-254,351	80,996	0,076	-0,059
-253,336	-200,000	0,014	-0,050
-252,322	610,302	-0,058	0,105
-251,307	-200,000	0,005	-0,060
-250,292	-104,581	0,196	0,032
-249,278	541,389	0,027	0,046
-248,263	-171,233	0,137	-0,003
-247,249	-104,213	0,127	-0,021
-246,234	64,166	-0,085	-0,061
-245,219	-200,000	-0,012	0,069
-244,205	-13,471	0,111	-0,051
-243,190	-200,000	-0,005	0,133
-242,176	-41,081	0,091	0,033
-241,161	112,161	0,138	0,119
-240,146	-200,000	0,028	0,094
-239,132	5,926	-0,067	0,035
-238,117	-37,831	-0,096	-0,036
-237,103	-33,161	-0,026	-0,010
-236,088	10,963	-0,107	0,058
-235,073	-200,000	-0,039	-0,129
-234,059	-200,000	-0,011	0,059
-233,044	-200,000	0,003	0,079
-232,030	-130,514	0,035	0,003
-231,015	45,799	-0,071	-0,047
-230,000	368,793	0,021	0,031
-228,986	-200,000	0,040	-0,134
-227,971	241,371	-0,014	-0,017
-226,957	-85,995	0,114	0,025
-225,942	800,000	0,020	0,060
-224,927	84,106	-0,029	0,022
-223,913	-200,000	-0,156	0,000
-222,898	-200,000	-0,015	-0,139
-221,884	-145,567	0,031	0,002
-220,869	29,217	-0,076	0,046
-219,855	-200,000	0,035	0,197
-218,840	-4,525	-0,016	-0,008
-217,825	181,688	0,061	0,064
-216,811	127,637	0,059	0,053
-215,796	-73,133	0,086	-0,022
-214,782	-200,000	-0,027	0,142
-213,767	55,146	-0,056	-0,039
-212,752	-127,688	0,064	-0,006
-211,738	-200,000	0,004	0,033
-210,723	-39,733	-0,113	-0,042
-209,709	-25,491	-0,069	-0,029
-208,694	46,647	0,134	-0,089
-207,679	147,039	-0,103	-0,099
-206,665	-200,000	0,008	-0,083
-205,650	95,157	0,167	0,136
-204,636	89,477	0,044	-0,035
-203,621	178,210	0,056	-0,058
-202,606	-180,292	-0,141	-0,002
-201,592	104,833	-0,019	-0,016
-200,577	-200,000	-0,001	-0,114
-199,563	70,163	-0,086	0,063
-198,548	-53,650	0,041	0,013
-197,533	800,000	0,029	0,070
-196,519	-200,000	-0,058	0,187
-195,504	138,108	0,099	0,092
-194,490	3,779	0,089	-0,046
-193,475	26,539	0,071	0,042
-192,460	-107,319	0,069	0,011
-191,446	213,764	0,061	0,069
-190,431	-158,464	0,048	0,002
-189,417	18,486	-0,083	-0,047
-188,402	79,493	0,066	0,050
-187,387	90,604	0,025	-0,020
-186,373	-112,243	-0,024	0,003
-185,358	650,815	-0,022	0,040
-184,344	-200,000	-0,011	-0,157
-183,329	800,000	0,028	-0,083
-182,315	-139,965	0,052	0,004
-181,300	213,981	0,035	-0,040
-180,285	-200,000	-0,010	0,090
-179,271	61,563	-0,105	0,074
-178,256	-80,109	0,109	-0,026
-177,242	366,306	-0,075	0,108
-176,227	-77,426	0,072	0,018
-175,212	-15,490	0,052	0,023
-174,198	350,684	0,003	0,005
-173,183	-104,009	-0,137	0,023
-172,169	-35,130	-0,137	-0,053
-171,154	-200,000	0,003	0,038
-170,139	-200,000	0,012	0,117
-169,125	61,501	0,163	0,116
-168,110	800,000	-0,033	0,067
-167,096	-38,106	-0,069	0,026
-166,081	800,000	0,053	-0,107
-165,066	83,010	-0,009	0,007
-164,052	78,555	0,084	-0,064
-163,037	800,000	0,088	-0,185
-162,023	472,860	-0,027	-0,044
-161,008	800,000	-0,019	0,040
-159,993	-200,000	0,020	0,065
-158,979	800,000	-0,047	-0,094
-157,964	282,438	-0,017	-0,021
-156,950	307,536	0,070	-0,094
-155,935	112,537	0,060	-0,052
-154,920	-200,000	0,019	0,134
-153,906	-200,000	-0,039	0,166
-152,891	-55,677	-0,043	0,014
-151,877	-200,000	-0,027	-0,127
-150,862	686,692	-0,067	-0,125
-149,847	-133,836	-0,036	-0,003
-148,833	-5,904	0,130	0,063
-147,818	-28,255	0,162	-0,067
-146,804	137,438	-0,049	0,046
-145,789	800,000	-0,057	0,148
-144,775	13,152	0,017	-0,009
-143,760	-200,000	0,017	-0,118
-142,745	-26,261	-0,118	-0,049
-141,731	41,317	-0,148	0,095
-140,716	800,000	-0,015	0,040
-139,702	67,223	0,159	0,116
-138,687	-200,000	0,008	-0,083
-137,672	158,337	-0,099	0,098
-136,658	-19,848	-0,051	0,022
-135,643	92,692	0,077	-0,062
-134,629	800,000	-0,011	-0,032
-133,614	207,131	-0,068	0,076
-132,599	179,413	0,084	0,088
-131,585	-200,000	-0,016	0,086
-130,570	-127,140	-0,087	-0,009
-129,556	3,331	-0,051	-0,026
-128,541	-24,796	-0,123	-0,052
-127,526	-120,006	0,102	-0,012
-126,512	616,767	-0,020	-0,036
-125,497	12,435	0,084	-0,046
-124,483	343,848	0,107	0,150
-123,468	10,488	-0,102	0,055
-122,453	800,000	-0,050	-0,124
-121,439	103,858	0,035	-0,029
-120,424	104,346	0,086	0,072
-119,410	131,260	-0,061	0,056
-118,395	474,817	-0,089	-0,143
-117,380	574,985	0,036	0,063
-116,366	-175,369	-0,073	-0,001
-115,351	339,782	0,011	0,016
-114,337	-200,000	-0,003	0,071
-113,322	93,129	-0,117	-0,094
-112,307	-200,000	0,006	0,065
-111,293	800,000	0,029	0,075
-110,278	235,449	-0,018	-0,021
-109,264	-200,000	0,013	0,090
-108,249	-200,000	-0,035	-0,119
-107,234	-200,000	-0,044	-0,171
-106,220	800,000	0,022	-0,049
-105,205	104,368	0,053	0,044
-104,191	124,402	0,105	0,094
-103,176	404,500	-0,102	0,153
-102,162	-33,469	-0,097	-0,038
-101,147	422,221	0,087	0,133
-100,132	800,000	0,034	-0,087
-99,118	183,811	0,084	-0,088
-98,103	-86,763	0,041	-0,009
-97,089	800,000	0,042	0,093
-96,074	-200,000	0,028	0,105
-95,059	106,503	0,087	0,074
-94,045	-106,267	0,075	-0,012
-93,030	-133,563	0,071	-0,006
-92,016	-148,701	-0,025	0,001
-91,001	275,493	-0,052	-0,066
-89,986	37,052	0,047	-0,029
-88,972	706,665	0,049	0,093
-87,957	42,812	-0,035	-0,023
-86,943	424,459	0,059	0,090
-85,928	160,929	-0,113	0,112
-84,913	-146,001	-0,133	-0,008
-83,899	-111,088	-0,034	0,005
-82,884	449,255	-0,061	-0,095
-81,870	106,169	0,071	0,060
-80,855	-74,636	0,134	0,034
-79,840	-1,857	-0,026	0,013
-78,826	-44,013	-0,069	-0,025
-77,811	134,642	-0,054	-0,050
-76,797	35,885	0,090	0,056
-75,782	688,509	-0,041	0,077
-74,767	-109,215	0,068	-0,010
-73,753	128,384	0,026	-0,023
-72,738	-137,020	0,035	-0,003
-71,724	-200,000	-0,009	-0,065
-70,709	354,805	0,013	-0,019
-69,694	-200,000	-0,011	-0,049
-68,680	800,000	-0,062	0,153
-67,665	-165,381	-0,081	-0,002
-66,651	292,276	-0,045	0,058
-65,636	-200,000	0,014	0,046
-64,622	-200,000	-0,010	-0,088
-63,607	800,000	0,007	-0,015
-62,592	-26,684	-0,083	-0,034
-61,578	800,000	-0,056	-0,126
-60,563	800,000	-0,045	0,120
-59,549	-200,000	-0,027	0,105
-58,534	-89,025	-1,377	-0,287
-57,519	389,401	-1,508	-2,224
-56,505	-200,000	-0,418	-4,353
-55,490	100,055	0,897	0,738
-54,476	800,000	4,611	11,363
-53,461	-200,000	17,350	268,272
-52,446	800,000	714,678	2180,497
-51,432	552,415	1629,276	2787,961
-50,417	81,433	1655,093	1268,495
-49,403	24,421	1529,453	895,045
-48,388	18,434	1452,842	821,391
-47,373	18,576	1442,283	816,071
-46,359	18,305	1433,165	809,587
-45,344	16,746	1428,642	799,603
-44,330	16,651	1426,804	798,093
-43,315	16,747	1424,712	797,347
-42,300	16,728	1423,473	796,530
-41,286	16,776	1422,070	795,940
-40,271	16,741	1420,814	795,040
-39,257	16,721	1419,573	794,221
-38,242	16,730	1418,379	793,564
-37,227	16,738	1416,895	792,740
-36,213	16,734	1415,780	792,064
-35,198	16,720	1414,579	791,294
-34,184	16,733	1413,779	790,879
-33,169	16,700	1412,607	790,034
-32,154	16,728	1411,591	789,569
-31,140	16,770	1409,947	788,814
-30,125	16,775	1408,993	788,270
-29,111	16,727	1407,880	787,394
-28,096	16,736	1406,645	786,711
-27,082	16,635	1405,558	785,604
-26,067	16,699	1404,245	785,135
-25,052	16,691	1403,038	784,394
-24,038	16,628	1402,670	783,862
-23,023	16,598	1401,466	783,017
-22,009	16,593	1400,681	782,525
-20,994	16,608	1399,492	781,898
-19,979	16,587	1398,589	781,267
-18,965	16,612	1397,582	780,791
-17,950	16,614	1396,458	780,138
-16,936	16,583	1395,558	779,462
-15,921	16,572	1394,405	778,738
-14,906	16,598	1393,484	778,312
-13,892	16,539	1392,785	777,618
-12,877	16,544	1391,983	777,163
-11,863	16,578	1390,899	776,683
-10,848	16,546	1390,031	776,019
-9,833	16,537	1389,015	775,381
-8,819	16,462	1387,988	774,432
-7,804	16,480	1387,233	774,063
-6,790	16,428	1386,255	773,245
-5,775	16,456	1385,147	772,724
-4,760	16,455	1384,345	772,241
-3,746	16,466	1383,362	771,713
-2,731	16,419	1382,745	771,122
-1,717	16,422	1381,784	770,573
-0,702	16,406	1379,929	769,431
0,313	20,219	1301,610	743,329
1,327	36,731	707,629	442,431
2,342	56,588	125,795	86,655
3,356	2,930	16,520	8,479
4,371	-2,452	3,192	1,580
5,386	-25,616	0,566	0,236
6,400	800,000	0,013	0,036
7,415	149,503	-0,294	-0,282
8,429	40,250	-0,338	-0,215
9,444	79,076	-0,328	-0,249
10,459	201,954	-0,207	-0,227
11,473	120,249	-0,228	-0,201
12,488	-162,665	-0,329	0,011
13,502	85,656	-0,216	-0,168
14,517	170,245	-0,243	-0,246
15,531	20,989	-0,396	-0,227
16,546	-65,372	-0,321	-0,091
17,561	3,290	-0,357	-0,183
18,575	-45,821	-0,339	-0,118
19,590	800,000	-0,150	-0,349
20,604	784,955	-0,140	-0,272
21,619	60,049	-0,462	-0,322
22,634	69,064	-0,481	-0,350
23,648	152,356	-0,457	-0,442
24,663	89,155	-0,336	-0,265
25,677	45,181	-0,305	-0,198
26,692	86,600	-0,311	-0,242
27,707	111,976	-0,318	-0,272
28,721	-75,647	-0,365	-0,091
29,736	92,000	-0,360	-0,287
30,750	171,703	-0,257	-0,261
31,765	85,318	-0,396	-0,307
32,780	131,410	-0,330	-0,300
33,794	175,178	-0,308	-0,316
34,809	61,828	-0,350	-0,246
35,823	-32,747	-0,399	-0,156
36,838	62,573	-0,334	-0,236
37,853	207,054	-0,406	-0,448
38,867	76,750	-0,419	-0,314
39,882	46,063	-0,324	-0,212
40,896	50,707	-0,404	-0,270
41,911	17,431	-0,410	-0,230
42,926	-11,204	-0,331	-0,154
43,940	191,206	-0,323	-0,344
44,955	187,472	-0,366	-0,386
45,969	87,377	-0,410	-0,320
46,984	107,277	-0,417	-0,350
47,999	-34,540	-0,397	-0,153
49,013	144,381	-0,322	-0,304
50,028	54,660	-0,363	-0,247
51,042	61,855	-0,233	-0,164
52,057	35,144	-0,377	-0,233
53,071	110,544	-0,310	-0,263
54,086	-41,473	-0,432	-0,156
55,101	79,428	-0,427	-0,323
56,115	61,689	-0,314	-0,220
57,130	7,521	-0,370	-0,195
58,144	-49,144	-0,506	-0,170
59,159	-11,074	-0,404	-0,187
60,174	278,425	-0,329	-0,414
61,188	1,912	-0,308	-0,156
62,203	-20,623	-0,280	-0,121
63,217	54,792	-0,307	-0,209
64,232	137,135	-0,394	-0,363
65,247	5,574	-0,200	-0,104
66,261	168,486	-0,343	-0,344
67,276	190,738	-0,266	-0,282
68,290	-32,429	-0,357	-0,140
69,305	138,718	-0,240	-0,222
70,320	432,086	-0,171	-0,262
71,334	55,962	-0,385	-0,263
72,349	201,253	-0,174	-0,189
73,363	118,696	-0,270	-0,235
74,378	190,895	-0,300	-0,319
75,393	104,515	-0,359	-0,298
76,407	-50,634	-0,257	-0,085
77,422	-65,030	-0,418	-0,118
78,436	11,918	-0,340	-0,184
79,451	15,227	-0,242	-0,133
80,466	-42,695	-0,384	-0,137
81,480	6,004	-0,371	-0,193
82,495	30,981	-0,251	-0,151
83,509	-72,695	-0,336	-0,087
84,524	81,065	-0,270	-0,205
85,539	24,010	-0,228	-0,132
86,553	-27,190	-0,309	-0,126
87,568	137,807	-0,298	-0,275
88,582	100,622	-0,318	-0,260
89,597	5,850	-0,407	-0,211
90,611	-20,294	-0,304	-0,131
91,626	96,986	-0,245	-0,197
92,641	119,542	-0,297	-0,259
93,655	160,918	-0,216	-0,213
94,670	23,653	-0,429	-0,248
95,684	711,933	-0,198	-0,370
96,699	0,578	-0,278	-0,139
97,714	800,000	-0,092	-0,219
98,728	140,621	-0,262	-0,243
99,743	68,946	-0,308	-0,222
100,757	24,554	-0,212	-0,123
101,772	-39,157	-0,264	-0,097
102,787	7,547	-0,384	-0,201
103,801	-4,737	-0,405	-0,196
104,816	126,682	-0,181	-0,161
105,830	148,647	-0,214	-0,203
106,845	26,767	-0,282	-0,166
107,860	217,941	-0,226	-0,253
108,874	244,431	-0,242	-0,286
109,889	58,552	-0,337	-0,232
110,903	88,119	-0,310	-0,241
111,918	-72,656	-0,281	-0,072
112,933	43,891	-0,359	-0,230
113,947	-88,117	-0,301	-0,063
114,962	20,736	-0,180	-0,102
115,976	459,121	-0,167	-0,262
116,991	92,125	-0,258	-0,204
118,006	465,851	-0,162	-0,255
119,020	311,492	-0,255	-0,337
120,035	363,175	-0,144	-0,203
121,049	126,044	-0,319	-0,283
122,064	24,832	-0,326	-0,189
123,079	-27,339	-0,355	-0,144
124,093	152,250	-0,315	-0,302
125,108	82,054	-0,364	-0,276
126,122	-5,923	-0,314	-0,150
127,137	5,779	-0,347	-0,179
128,151	330,686	-0,104	-0,141
129,166	224,016	-0,177	-0,201
130,181	92,590	-0,249	-0,197
131,195	41,855	-0,265	-0,168
132,210	152,827	-0,298	-0,286
133,224	297,043	-0,203	-0,262
134,239	-23,544	-0,205	-0,086
135,254	-62,958	-0,250	-0,072
136,268	-124,663	-0,216	-0,023
137,283	24,795	-0,271	-0,157
138,297	-120,516	-0,206	0,024
139,312	22,971	-0,354	-0,203
140,327	252,900	-0,214	-0,256
141,341	397,739	-0,145	-0,213
142,356	-161,991	-0,327	-0,011
143,370	-8,323	-0,257	-0,121
144,385	-19,107	-0,321	-0,139
145,400	-117,662	-0,271	-0,034
146,414	162,032	-0,172	-0,169
147,429	0,659	-0,253	-0,126
148,443	137,360	-0,252	-0,231
149,458	-140,949	-0,206	0,015
150,473	-72,305	-0,249	-0,064
151,487	212,745	-0,202	-0,223
152,502	126,101	-0,303	-0,268
153,516	4,471	-0,237	-0,121
154,531	-5,148	-0,341	-0,164
155,546	-108,084	-0,311	-0,047
156,560	21,661	-0,293	-0,166
157,575	73,297	-0,233	-0,170
158,589	73,917	-0,196	-0,144
159,604	-96,751	-0,292	-0,053
160,619	-12,551	-0,253	-0,115
161,633	7,992	-0,283	-0,148
162,648	-1,938	-0,258	-0,126
163,662	242,793	-0,176	-0,206
164,677	39,777	-0,189	-0,119
165,692	279,918	-0,146	-0,183
166,706	68,986	-0,254	-0,182
167,721	118,864	-0,224	-0,193
168,735	-19,455	-0,277	-0,120
169,750	-135,665	-0,217	0,018
170,764	-200,000	-0,072	-0,259
171,779	380,165	-0,103	-0,147
172,794	5,984	-0,162	-0,084
173,808	137,994	-0,238	-0,218
174,823	61,654	-0,218	-0,151
175,837	256,082	-0,221	-0,266
176,852	800,000	-0,108	-0,280
177,867	800,000	-0,153	-0,321
178,881	15,679	-0,143	-0,078
179,896	142,530	-0,254	-0,236
180,910	44,039	-0,214	-0,137
181,925	-8,577	-0,276	-0,129
182,940	113,417	-0,283	-0,240
183,954	315,338	-0,204	-0,269
184,969	-39,155	-0,181	-0,066
185,983	243,504	-0,137	-0,160
186,998	-132,750	-0,221	-0,019
188,013	169,153	-0,175	-0,175
189,027	76,303	-0,178	-0,131
190,042	13,324	-0,233	-0,126
191,056	135,313	-0,273	-0,247
192,071	198,851	-0,204	-0,218
193,086	187,543	-0,182	-0,190
194,100	39,179	-0,091	-0,057
195,115	424,857	-0,168	-0,252
196,129	21,732	-0,245	-0,139
197,144	800,000	-0,167	-0,375
198,159	55,134	-0,173	-0,116
199,173	134,330	-0,170	-0,154
200,188	356,918	-0,128	-0,179
201,202	61,895	-0,228	-0,158
202,217	-18,936	-0,260	-0,112
203,232	-35,837	-0,242	-0,091
204,246	257,410	-0,149	-0,179
205,261	103,564	-0,144	-0,118
206,275	52,493	-0,310	-0,206
207,290	390,898	-0,174	-0,253
208,304	1,070	-0,131	-0,065
209,319	-200,000	0,021	-0,239
210,334	55,239	-0,142	-0,095
211,348	-10,474	-0,336	-0,155
212,363	7,885	-0,191	-0,099
213,377	800,000	-0,102	-0,208
214,392	12,292	-0,244	-0,130
215,407	-101,228	-0,178	-0,030
216,421	-19,756	-0,206	-0,088
217,436	120,953	-0,164	-0,142
218,450	-7,505	-0,298	-0,140
219,465	800,000	-0,096	-0,205
220,480	800,000	-0,086	-0,186
221,494	-200,000	-0,032	-0,213
222,509	57,641	-0,220	-0,149
223,523	-200,000	-0,016	-0,148
224,538	-15,988	-0,100	-0,044
225,553	-31,846	-0,293	-0,114
226,567	-90,885	-0,234	-0,046
227,582	-14,766	-0,325	-0,145
228,596	-128,831	-0,215	0,021
229,611	-88,665	-0,107	-0,022
230,626	-2,886	-0,053	-0,026
231,640	800,000	-0,056	-0,114
232,655	74,436	-0,225	-0,164
233,669	137,162	-0,273	-0,248
234,684	72,705	-0,230	-0,167
235,699	20,308	-0,140	-0,079
236,713	9,541	-0,186	-0,098
237,728	658,247	-0,101	-0,182
238,742	-116,147	-0,257	0,033
239,757	800,000	-0,062	-0,175
240,772	261,259	-0,193	-0,232
241,786	60,609	-0,226	-0,155
242,801	195,619	-0,137	-0,144
243,815	800,000	-0,050	-0,120
244,830	58,165	-0,134	-0,091
245,844	800,000	-0,062	-0,136
246,859	134,256	-0,274	-0,247
247,874	352,863	-0,134	-0,184
248,888	-3,108	-0,227	-0,109
249,903	85,768	-0,142	-0,108
250,917	12,649	-0,119	0,064
251,932	-12,991	-0,230	-0,104
252,947	-60,332	-0,258	-0,076
253,961	13,975	-0,181	-0,098
254,976	156,893	-0,213	-0,204
255,990	-26,973	-0,204	-0,082
257,005	-22,264	-0,252	-0,105
258,020	-132,527	-0,157	-0,014
259,034	99,400	-0,196	-0,157
260,049	146,552	-0,213	-0,198
261,063	-101,184	-0,324	-0,054
262,078	163,103	-0,243	-0,237
263,093	109,964	-0,170	-0,141
264,107	-89,353	-0,160	-0,032
265,122	2,231	-0,164	-0,082
266,136	-31,058	-0,186	-0,072
267,151	-54,471	-0,200	0,062
268,166	473,209	-0,151	-0,236
269,180	59,394	-0,227	-0,155
270,195	94,914	-0,116	-0,092
271,209	613,692	-0,114	-0,199
272,224	-96,408	-0,160	-0,029
273,239	7,991	-0,207	0,107
274,253	-181,632	-0,182	-0,002
275,268	245,248	-0,206	-0,240
276,282	800,000	-0,026	-0,052
277,297	-7,780	-0,219	-0,102
278,312	-39,556	-0,190	-0,068
279,326	800,000	-0,061	-0,155
280,341	62,368	-0,076	-0,053
281,355	292,435	-0,087	-0,109
282,370	-52,442	-0,162	-0,052
283,384	130,075	-0,178	-0,157
284,399	222,562	-0,157	-0,175
285,414	-48,933	-0,166	-0,055
286,428	167,506	0,011	0,011
287,443	800,000	-0,102	-0,243
288,457	-116,232	-0,104	0,013
289,472	153,070	-0,160	-0,152
290,487	114,097	-0,131	-0,110
291,501	18,279	-0,178	-0,098
292,516	-152,182	-0,158	0,008
293,530	-148,030	-0,104	0,006
294,545	-8,862	-0,097	0,045
295,560	800,000	-0,078	-0,166
296,574	-200,000	-0,059	-0,189
297,589	-71,596	-0,239	-0,061
298,603	-58,059	-0,231	-0,069
299,618	-48,338	-0,218	-0,072
300,633	-35,672	-0,171	-0,064
301,647	47,310	-0,174	-0,111
302,662	142,293	-0,177	-0,163
303,676	710,319	-0,145	-0,266
304,691	-13,001	-0,245	-0,110
305,706	175,847	-0,092	-0,092
306,720	-200,000	0,004	-0,154
307,735	-119,776	-0,192	0,023
308,749	-81,776	-0,063	0,014
309,764	-59,084	-0,266	-0,079
310,779	-2,073	-0,213	-0,103
311,793	189,842	-0,187	-0,193
312,808	84,992	-0,151	-0,114
313,822	318,075	-0,105	-0,138
314,837	166,297	-0,129	-0,126
315,852	800,000	-0,036	-0,100
316,866	134,011	-0,194	-0,174
317,881	-158,115	-0,169	0,007
318,895	232,247	-0,119	-0,135
319,910	82,839	-0,204	-0,153
320,925	15,422	-0,225	-0,121
321,939	85,044	-0,157	-0,118
322,954	-34,698	-0,108	-0,040
323,968	259,120	-0,129	-0,154
324,983	-70,144	-0,226	0,059
325,997	335,648	-0,021	0,028
327,012	13,808	-0,071	-0,038
328,027	535,291	-0,082	-0,134
329,041	196,773	-0,102	-0,107
330,056	-13,840	-0,172	-0,076
331,070	-15,014	-0,155	-0,068
332,085	-0,030	-0,118	-0,058
333,100	-3,325	-0,146	-0,070
334,114	43,633	-0,218	-0,137
335,129	284,631	-0,106	-0,132
336,143	70,702	-0,161	-0,114
337,158	81,789	-0,068	-0,051
338,173	680,631	-0,042	0,076
339,187	-59,322	-0,208	-0,061
340,202	800,000	-0,061	-0,148
341,216	126,671	-0,102	-0,089
342,231	-200,000	-0,038	-0,207
343,246	84,030	-0,118	-0,089
344,260	69,374	-0,071	-0,050
345,275	-200,000	-0,054	-0,184
346,289	111,053	-0,065	0,054
347,304	-55,537	-0,091	-0,028
348,319	139,486	-0,164	-0,148
349,333	159,139	-0,133	-0,127
350,348	137,310	-0,131	-0,118
351,362	72,819	-0,138	-0,099
352,377	235,897	-0,046	-0,052
353,392	800,000	-0,036	-0,071
354,406	-0,251	-0,254	-0,124
355,421	210,022	1314,344	1419,512
356,435	161,660	1475,070	1420,031
