DTS Sentinel unit serial number:	SN410029Multiplexer serial number:	ORYXHardware model number:	OX2-SRSoftware version number:	ORYX F/W v4,00 Oryx Data Collector v3.7.2.0data status	okinstallation	B3 Nyhavnadifferential loss correction	single-endedforward channel	channel 1reverse channel	N/Adate	2023/12/01time	05:32:30forward acquisition time	300,00reverse acquisition time	0,00gamma	499,1914k internal	0,3213k external	0,3213temperature offset calibration	1,0000default loss term (dB/km)	0,3820temperature slope calibration	1,0000multiplexer offset coefficient	1,0000multiplexer slope coefficient	1,0000fibre end	0,00T internal ref (°C)	7,87T ext. ref 1 (°C)	-7,09T ext. ref 2 (°C)	-7,22length (m)	temperature (°C)	Stokes	anti-Stokes-744,400	-19,894	-0,299	-0,133
-743,385	-200,000	-0,054	0,249
-742,371	-200,000	-0,088	-0,375
-741,356	-200,000	0,073	0,325
-740,342	22,020	-0,258	-0,152
-739,327	-200,000	-0,069	0,324
-738,312	321,742	-0,192	-0,265
-737,298	212,383	0,185	0,212
-736,283	196,206	-0,213	-0,235
-735,269	-200,000	0,012	0,265
-734,254	-200,000	-0,057	-0,231
-733,239	-16,977	-0,263	0,120
-732,225	800,000	-0,100	-0,236
-731,210	-18,480	0,245	0,111
-730,196	68,751	-0,015	-0,012
-729,181	800,000	0,025	0,068
-728,167	800,000	-0,039	-0,115
-727,152	800,000	-0,027	-0,087
-726,137	-14,803	-0,170	0,079
-725,123	-61,813	-0,138	-0,042
-724,108	271,574	0,033	-0,042
-723,094	112,282	-0,113	-0,099
-722,079	185,695	-0,145	-0,156
-721,064	94,417	-0,053	0,044
-720,050	57,231	-0,064	-0,045
-719,035	-47,628	-0,007	-0,002
-718,021	800,000	0,036	-0,073
-717,006	800,000	0,031	-0,068
-715,991	49,692	-0,141	-0,096
-714,977	84,888	-0,037	0,029
-713,962	800,000	-0,067	-0,155
-712,948	416,377	0,032	0,050
-711,933	220,101	-0,049	0,057
-710,918	-94,480	0,014	-0,003
-709,904	-200,000	-0,019	-0,095
-708,889	-123,045	0,178	0,020
-707,875	-200,000	-0,023	-0,106
-706,860	-141,911	-0,069	0,005
-705,845	-200,000	-0,005	0,031
-704,831	-9,595	0,133	0,064
-703,816	176,522	-0,094	0,099
-702,802	174,565	-0,087	-0,091
-701,787	143,668	0,036	-0,035
-700,772	495,808	-0,050	0,084
-699,758	800,000	-0,043	-0,094
-698,743	800,000	0,032	0,088
-697,729	-166,956	0,042	0,001
-696,714	-200,000	0,001	0,030
-695,699	277,738	-0,131	-0,169
-694,685	-50,853	-0,100	-0,034
-693,670	-84,976	0,096	0,022
-692,656	-96,522	-0,037	-0,007
-691,641	210,477	-0,085	-0,097
-690,627	-200,000	0,005	0,126
-689,612	70,600	0,060	-0,045
-688,597	-136,792	0,014	0,001
-687,583	-58,022	-0,044	0,014
-686,568	253,079	0,035	0,043
-685,554	364,453	-0,064	-0,093
-684,539	-72,777	0,091	0,024
-683,524	-163,718	-0,069	0,002
-682,510	53,652	-0,040	0,028
-681,495	-200,000	-0,021	0,201
-680,481	336,890	-0,057	-0,080
-679,466	132,623	0,032	0,030
-678,451	-73,158	0,119	0,031
-677,437	800,000	0,022	0,049
-676,422	141,751	0,124	0,118
-675,408	325,751	-0,032	-0,044
-674,393	-200,000	0,006	-0,078
-673,378	800,000	0,044	-0,102
-672,364	-200,000	0,006	-0,073
-671,349	-143,916	-0,094	0,006
-670,335	48,213	0,038	-0,026
-669,320	16,922	0,103	-0,059
-668,305	-200,000	0,002	0,052
-667,291	302,143	-0,027	-0,037
-666,276	426,076	-0,013	0,021
-665,262	667,847	-0,062	-0,117
-664,247	-34,140	-0,062	-0,025
-663,232	107,702	0,106	0,091
-662,218	-150,791	-0,019	0,001
-661,203	261,869	-0,077	-0,097
-660,189	203,725	-0,081	-0,091
-659,174	-200,000	0,011	-0,072
-658,159	154,879	-0,081	-0,080
-657,145	-200,000	-0,007	-0,098
-656,130	-30,798	-0,042	-0,017
-655,116	81,590	0,152	0,119
-654,101	800,000	-0,049	-0,098
-653,086	800,000	0,031	-0,080
-652,072	-104,221	-0,035	-0,006
-651,057	-107,236	-0,146	0,023
-650,043	5,063	-0,165	-0,088
-649,028	-56,748	-0,122	-0,039
-648,014	224,985	-0,081	0,094
-646,999	-200,000	-0,006	-0,030
-645,984	-200,000	0,006	0,128
-644,970	120,146	0,084	-0,075
-643,955	130,262	-0,125	-0,115
-642,941	-200,000	-0,008	-0,135
-641,926	-152,189	0,110	0,006
-640,911	27,777	-0,103	0,063
-639,897	90,149	0,018	0,014
-638,882	-9,750	0,035	0,017
-637,868	-200,000	-0,020	0,096
-636,853	800,000	0,022	-0,065
-635,838	-200,000	0,014	-0,055
-634,824	-200,000	0,010	-0,051
-633,809	409,231	0,022	-0,034
-632,795	-200,000	0,022	0,076
-631,780	-118,491	-0,096	0,012
-630,765	-200,000	-0,036	0,143
-629,751	-122,781	0,072	-0,008
-628,736	-92,197	0,089	0,018
-627,722	147,287	-0,076	-0,073
-626,707	800,000	0,048	0,143
-625,692	566,645	-0,067	-0,118
-624,678	-200,000	0,018	-0,066
-623,663	55,425	-0,014	0,009
-622,649	-52,157	-0,014	0,005
-621,634	-56,942	-0,127	-0,040
-620,619	102,277	-0,119	-0,100
-619,605	590,109	-0,077	-0,137
-618,590	-200,000	-0,048	0,169
-617,576	69,619	0,059	-0,044
-616,561	1,978	-0,028	-0,014
-615,546	336,848	-0,056	-0,078
-614,532	-200,000	0,034	-0,140
-613,517	20,634	-0,072	0,042
-612,503	-43,155	0,112	0,041
-611,488	-200,000	-0,046	0,197
-610,474	-68,605	-0,119	0,033
-609,459	394,223	0,081	-0,122
-608,444	800,000	-0,031	-0,074
-607,430	800,000	-0,032	-0,077
-606,415	-200,000	-0,003	-0,047
-605,401	-79,244	0,105	-0,026
-604,386	107,275	0,029	0,025
-603,371	398,652	0,006	0,009
-602,357	-42,368	0,129	0,047
-601,342	-66,540	0,043	0,012
-600,328	54,205	-0,063	0,044
-599,313	-200,000	-0,002	0,090
-598,298	-200,000	0,021	0,148
-597,284	-107,854	0,143	0,022
-596,269	309,600	-0,063	0,085
-595,255	-200,000	-0,049	-0,175
-594,240	800,000	-0,021	0,056
-593,225	-48,558	-0,090	-0,031
-592,211	242,757	0,089	-0,107
-591,196	314,496	0,029	-0,040
-590,182	1,482	0,086	0,045
-589,167	-200,000	-0,038	0,188
-588,152	-95,529	0,019	-0,004
-587,138	-46,659	-0,078	-0,027
-586,123	800,000	0,027	-0,083
-585,109	-165,697	-0,026	0,001
-584,094	800,000	0,030	-0,064
-583,079	498,424	0,021	0,036
-582,065	-200,000	0,005	-0,054
-581,050	267,321	0,023	0,029
-580,036	45,886	-0,047	-0,031
-579,021	-77,929	-0,140	-0,035
-578,006	-56,756	-0,125	0,039
-576,992	52,547	-0,050	0,034
-575,977	-200,000	0,009	0,073
-574,963	-200,000	0,010	-0,044
-573,948	3,564	0,050	0,026
-572,934	-146,759	0,121	-0,007
-571,919	1,717	-0,101	-0,052
-570,904	-103,604	-0,127	0,021
-569,890	-200,000	-0,020	0,106
-568,875	169,763	-0,092	0,094
-567,861	232,647	0,034	0,040
-566,846	217,168	0,082	-0,094
-565,831	27,519	0,107	-0,065
-564,817	-56,142	-0,048	-0,015
-563,802	-200,000	-0,029	-0,133
-562,788	-25,684	-0,114	0,048
-561,773	136,563	0,061	0,057
-560,758	-200,000	-0,033	0,162
-559,744	-200,000	0,012	-0,082
-558,729	11,355	0,148	-0,081
-557,715	-90,342	0,069	-0,014
-556,700	-200,000	0,032	0,162
-555,685	-77,900	-0,124	0,030
-554,671	483,658	0,059	0,096
-553,656	-89,873	-0,116	-0,024
-552,642	-81,977	-0,120	-0,028
-551,627	-159,938	-0,066	-0,003
-550,612	243,313	-0,119	0,144
-549,598	800,000	-0,006	0,015
-548,583	-48,899	-0,100	-0,034
-547,569	-152,607	0,089	-0,004
-546,554	15,299	0,120	0,068
-545,539	-200,000	-0,008	-0,027
-544,525	-14,896	0,055	-0,025
-543,510	34,428	0,073	-0,046
-542,496	211,460	0,022	0,025
-541,481	151,108	-0,111	-0,109
-540,466	513,278	-0,053	-0,089
-539,452	-115,790	0,081	0,011
-538,437	-96,430	-0,113	0,021
-537,423	-64,519	-0,144	-0,042
-536,408	169,796	-0,080	0,082
-535,393	-15,621	0,075	-0,034
-534,379	190,361	-0,065	0,071
-533,364	-200,000	0,047	-0,185
-532,350	30,131	0,023	0,014
-531,335	-200,000	-0,007	-0,041
-530,321	-200,000	0,029	-0,101
-529,306	94,022	0,049	0,040
-528,291	43,935	0,055	0,036
-527,277	-110,183	-0,101	0,015
-526,262	-86,880	-0,110	-0,024
-525,248	87,535	0,024	0,019
-524,233	-200,000	0,000	0,111
-523,218	-91,862	0,007	0,001
-522,204	800,000	0,062	-0,172
-521,189	795,277	0,030	-0,059
-520,175	-200,000	-0,009	-0,035
-519,160	26,085	-0,108	-0,064
-518,145	158,680	0,060	0,060
-517,131	-90,584	0,100	-0,021
-516,116	-27,983	0,072	-0,030
-515,102	-128,238	0,079	0,008
-514,087	226,170	-0,079	0,092
-513,072	-200,000	0,033	-0,118
-512,058	-38,891	-0,103	-0,039
-511,043	-200,000	0,004	0,153
-510,029	-200,000	0,082	0,000
-509,014	169,290	-0,083	0,085
-507,999	800,000	0,018	0,055
-506,985	-103,732	-0,107	-0,018
-505,970	-6,383	-0,100	-0,049
-504,956	-200,000	-0,043	-0,240
-503,941	-200,000	0,019	0,130
-502,926	-1,307	0,014	0,007
-501,912	800,000	0,025	-0,061
-500,897	669,387	-0,028	0,052
-499,883	548,242	-0,034	0,059
-498,868	-200,000	0,029	0,121
-497,853	19,561	0,090	0,052
-496,839	-200,000	-0,013	-0,103
-495,824	11,020	0,166	0,091
-494,810	-52,710	-0,199	0,065
-493,795	166,125	0,083	0,084
-492,781	458,925	0,045	-0,072
-491,766	-135,446	0,149	-0,013
-490,751	-200,000	-0,039	-0,183
-489,737	128,542	-0,083	0,076
-488,722	800,000	0,020	0,055
-487,708	147,497	0,084	-0,082
-486,693	610,081	-0,088	0,158
-485,678	-35,542	0,134	0,052
-484,664	315,365	-0,099	-0,134
-483,649	-196,166	-0,077	0,000
-482,635	-38,594	-0,027	-0,010
-481,620	153,856	-0,040	0,039
-480,605	-59,591	-0,178	0,054
-479,591	49,696	0,042	0,029
-478,576	-200,000	-0,015	-0,060
-477,562	-200,000	-0,002	0,060
-476,547	155,691	-0,065	-0,065
-475,532	-200,000	-0,011	0,054
-474,518	16,910	0,018	-0,010
-473,503	54,940	0,081	0,056
-472,489	-32,457	0,031	-0,012
-471,474	4,792	0,040	-0,021
-470,459	-200,000	0,020	-0,114
-469,445	-104,356	0,022	0,004
-468,430	-16,164	-0,096	-0,044
-467,416	-94,089	0,078	-0,015
-466,401	107,007	-0,019	0,016
-465,386	135,377	0,010	0,009
-464,372	-65,062	-0,017	0,005
-463,357	295,190	0,030	-0,039
-462,343	-200,000	-0,004	-0,035
-461,328	324,675	-0,063	-0,087
-460,313	41,728	0,113	0,073
-459,299	800,000	0,035	-0,089
-458,284	744,797	0,101	-0,195
-457,270	-200,000	0,002	-0,025
-456,255	-49,696	-0,143	0,048
-455,241	-18,212	-0,155	-0,069
-454,226	275,079	0,079	0,101
-453,211	-98,588	-0,175	0,032
-452,197	-200,000	0,030	0,126
-451,182	800,000	0,036	0,112
-450,168	800,000	0,026	0,055
-449,153	88,907	0,037	0,029
-448,138	489,959	0,073	-0,120
-447,124	342,516	0,057	-0,081
-446,109	800,000	0,013	0,034
-445,095	331,587	0,064	0,089
-444,080	-200,000	-0,038	0,130
-443,065	-200,000	0,006	0,050
-442,051	-42,774	-0,108	0,039
-441,036	22,768	-0,116	-0,068
-440,022	-200,000	0,002	0,100
-439,007	225,012	0,102	-0,119
-437,992	-15,994	-0,089	-0,040
-436,978	74,551	0,057	-0,043
-435,963	58,560	0,049	-0,034
-434,949	157,127	0,082	0,081
-433,934	-200,000	-0,013	-0,062
-432,919	800,000	-0,051	-0,107
-431,905	332,594	-0,029	0,041
-430,890	-89,115	0,237	-0,050
-429,876	-200,000	-0,053	0,173
-428,861	150,191	-0,061	0,060
-427,846	-105,974	0,061	0,010
-426,832	448,475	0,032	-0,050
-425,817	143,141	0,095	-0,091
-424,803	-99,532	0,038	0,007
-423,788	8,130	0,153	-0,082
-422,773	568,029	0,015	0,027
-421,759	-200,000	0,022	0,135
-420,744	-95,877	0,116	-0,022
-419,730	358,155	-0,082	-0,118
-418,715	-200,000	-0,005	-0,034
-417,701	-168,857	-0,116	0,003
-416,686	728,897	-0,041	-0,078
-415,671	673,951	0,062	0,115
-414,657	-149,157	0,104	-0,006
-413,642	-200,000	-0,028	-0,107
-412,628	-74,056	0,056	0,015
-411,613	-200,000	-0,012	-0,068
-410,598	61,356	0,116	-0,082
-409,584	436,342	0,061	0,095
-408,569	219,903	0,064	0,073
-407,555	-200,000	-0,018	0,075
-406,540	-169,625	0,108	-0,003
-405,525	-200,000	-0,024	-0,084
-404,511	-29,954	-0,047	-0,019
-403,496	55,425	0,100	0,069
-402,482	136,668	-0,124	0,116
-401,467	-200,000	-0,006	0,020
-400,452	-200,000	0,004	0,144
-399,438	-83,017	0,131	0,030
-398,423	91,935	-0,048	0,039
-397,409	-81,101	-0,054	0,013
-396,394	156,674	-0,117	-0,116
-395,379	800,000	-0,012	0,037
-394,365	-67,381	-0,020	0,006
-393,350	-200,000	-0,027	0,158
-392,336	133,445	0,036	0,033
-391,321	788,871	-0,083	-0,164
-390,306	800,000	-0,033	-0,080
-389,292	-52,269	-0,152	0,050
-388,277	-117,354	0,097	0,012
-387,263	84,932	0,147	0,115
-386,248	423,922	0,047	0,073
-385,233	-200,000	0,027	0,122
-384,219	147,639	-0,079	-0,076
-383,204	-200,000	-0,026	-0,116
-382,190	-31,127	0,036	-0,014
-381,175	800,000	-0,031	0,090
-380,160	800,000	0,008	0,024
-379,146	-200,000	-0,059	0,199
-378,131	-73,977	0,114	-0,029
-377,117	800,000	0,040	0,098
-376,102	1,770	0,146	-0,075
-375,088	800,000	-0,045	-0,128
-374,073	200,270	0,056	-0,061
-373,058	800,000	-0,041	0,101
-372,044	800,000	0,010	0,026
-371,029	-34,118	-0,062	0,024
-370,015	112,131	0,123	-0,106
-369,000	307,493	-0,143	-0,190
-367,985	-122,796	-0,224	-0,026
-366,971	611,769	-0,035	-0,063
-365,956	-200,000	0,006	-0,102
-364,942	-52,737	0,098	0,032
-363,927	143,228	-0,074	-0,070
-362,912	350,033	-0,044	-0,062
-361,898	146,929	0,065	-0,063
-360,883	-107,040	0,043	-0,007
-359,869	-33,100	-0,133	-0,052
-358,854	-200,000	-0,012	-0,058
-357,839	-200,000	0,005	0,117
-356,825	800,000	0,049	0,126
-355,810	-200,000	-0,002	0,082
-354,796	-77,759	0,051	0,013
-353,781	222,257	-0,055	-0,064
-352,766	92,465	0,020	-0,016
-351,752	16,536	-0,043	-0,024
-350,737	9,118	0,023	-0,012
-349,723	-200,000	0,006	0,039
-348,708	-86,911	-0,082	0,018
-347,693	-200,000	-0,002	0,018
-346,679	-200,000	-0,039	-0,124
-345,664	-155,220	0,143	-0,007
-344,650	800,000	0,026	-0,053
-343,635	-200,000	0,009	-0,061
-342,620	-41,215	0,167	0,061
-341,606	33,784	0,210	0,130
-340,591	-200,000	-0,013	-0,174
-339,577	-103,619	0,140	-0,023
-338,562	31,133	-0,034	-0,020
-337,548	-200,000	-0,007	0,025
-336,533	-67,241	-0,065	-0,018
-335,518	15,761	0,077	0,043
-334,504	-64,502	0,076	-0,022
-333,489	-71,621	-0,068	0,018
-332,475	719,501	0,053	-0,101
-331,460	114,039	0,032	-0,027
-330,445	93,086	0,082	-0,066
-329,431	467,147	0,035	0,056
-328,416	-200,000	0,003	0,071
-327,402	-54,624	-0,068	0,022
-326,387	-200,000	0,012	0,101
-325,372	11,447	-0,052	0,029
-324,358	-200,000	-0,019	-0,063
-323,343	544,957	-0,085	-0,145
-322,329	-149,399	0,111	0,006
-321,314	-137,215	0,140	0,011
-320,299	-200,000	0,018	0,097
-319,285	38,321	-0,150	0,095
-318,270	-200,000	-0,017	-0,173
-317,256	54,653	-0,088	-0,060
-316,241	-39,670	0,020	0,007
-315,226	217,406	-0,096	-0,109
-314,212	68,938	0,083	0,061
-313,197	344,188	-0,090	0,126
-312,183	600,204	0,036	0,065
-311,168	106,352	-0,036	-0,030
-310,153	-200,000	0,051	-0,198
-309,139	800,000	-0,014	-0,040
-308,124	195,210	-0,034	-0,037
-307,110	67,735	0,025	-0,018
-306,095	-49,618	-0,103	0,035
-305,080	800,000	-0,043	-0,086
-304,066	800,000	-0,029	-0,081
-303,051	-160,567	0,143	0,005
-302,037	364,373	0,056	0,081
-301,022	-143,264	-0,078	0,005
-300,008	95,471	0,071	0,057
-298,993	584,565	0,080	0,140
-297,978	800,000	-0,049	0,102
-296,964	-200,000	0,000	0,054
-295,949	528,356	0,028	-0,047
-294,935	-54,750	0,085	0,027
-293,920	-200,000	0,005	-0,036
-292,905	162,753	-0,039	-0,039
-291,891	-200,000	0,018	0,089
-290,876	-200,000	0,009	0,085
-289,862	10,450	-0,091	-0,049
-288,847	-45,798	-0,081	-0,028
-287,832	464,913	-0,023	0,036
-286,818	249,837	0,091	-0,110
-285,803	-71,606	0,045	0,012
-284,789	455,405	-0,022	-0,034
-283,774	-200,000	-0,011	0,042
-282,759	-175,341	-0,133	0,003
-281,745	531,558	-0,010	-0,016
-280,730	134,793	-0,068	-0,063
-279,716	104,486	0,046	-0,038
-278,701	800,000	0,035	0,108
-277,686	166,291	0,159	0,161
-276,672	123,309	0,098	0,087
-275,657	-126,658	-0,014	-0,001
-274,643	306,929	0,025	-0,034
-273,628	-200,000	0,007	-0,208
-272,613	-188,731	0,032	-0,000
-271,599	-75,176	-0,021	-0,005
-270,584	51,852	0,125	0,084
-269,570	-200,000	0,006	0,052
-268,555	-77,060	-0,111	-0,027
-267,540	800,000	0,031	-0,077
-266,526	-200,000	-0,006	0,096
-265,511	800,000	0,057	-0,116
-264,497	-89,823	-0,058	0,012
-263,482	800,000	0,121	0,251
-262,467	766,570	0,007	-0,013
-261,453	573,994	0,079	0,138
-260,438	25,753	0,117	0,069
-259,424	-26,665	0,080	-0,033
-258,409	272,898	-0,064	-0,080
-257,395	48,458	0,052	0,034
-256,380	377,355	-0,057	0,084
-255,365	-87,563	0,095	0,020
-254,351	-200,000	-0,009	-0,058
-253,336	-200,000	-0,003	-0,141
-252,322	148,978	-0,099	-0,095
-251,307	-162,439	0,092	0,003
-250,292	-75,917	-0,037	-0,009
-249,278	177,893	0,057	0,060
-248,263	237,738	-0,032	0,037
-247,249	193,639	0,077	-0,083
-246,234	-113,851	-0,125	0,017
-245,219	89,983	0,019	0,015
-244,205	-200,000	0,025	0,090
-243,190	97,016	-0,075	0,061
-242,176	-13,759	0,066	-0,030
-241,161	-200,000	-0,049	0,180
-240,146	-149,588	-0,116	-0,006
-239,132	137,192	-0,054	0,050
-238,117	-53,804	0,038	-0,012
-237,103	-200,000	-0,017	-0,114
-236,088	-141,984	-0,125	0,009
-235,073	550,678	-0,049	0,084
-234,059	-130,987	0,046	0,004
-233,044	92,573	0,098	0,079
-232,030	103,094	0,024	0,020
-231,015	-79,860	0,052	-0,012
-230,000	800,000	-0,036	0,100
-228,986	106,462	-0,180	0,152
-227,971	-73,906	0,038	0,010
-226,957	145,587	-0,041	0,039
-225,942	414,469	0,037	-0,056
-224,927	-7,371	0,035	-0,017
-223,913	-200,000	-0,018	-0,064
-222,898	800,000	-0,043	-0,093
-221,884	79,482	0,136	0,103
-220,869	742,583	0,012	0,024
-219,855	337,958	0,074	0,103
-218,840	-200,000	0,002	-0,055
-217,825	-2,369	-0,019	-0,010
-216,811	131,705	-0,047	0,043
-215,796	384,180	-0,033	0,049
-214,782	36,601	-0,099	-0,062
-213,767	57,553	-0,095	-0,066
-212,752	396,960	0,038	0,056
-211,738	-138,231	0,038	0,003
-210,723	1,619	-0,062	-0,031
-209,709	182,583	-0,070	-0,073
-208,694	800,000	0,061	0,123
-207,679	-200,000	-0,001	-0,018
-206,665	-114,311	0,104	0,014
-205,650	800,000	0,046	0,130
-204,636	800,000	-0,046	-0,122
-203,621	-117,992	-0,185	-0,023
-202,606	24,895	0,078	-0,046
-201,592	-200,000	0,021	-0,075
-200,577	-62,058	-0,007	-0,002
-199,563	-108,693	-0,045	-0,007
-198,548	-115,587	0,133	0,018
-197,533	-200,000	-0,014	0,141
-196,519	89,170	0,041	0,032
-195,504	-135,157	0,049	0,004
-194,490	201,004	-0,112	0,122
-193,475	710,808	0,008	0,015
-192,460	-200,000	-0,002	0,045
-191,446	4,508	0,106	-0,055
-190,431	-59,037	0,018	0,005
-189,417	133,847	0,033	-0,030
-188,402	-200,000	0,010	-0,044
-187,387	-107,067	-0,126	0,019
-186,373	456,990	0,057	-0,090
-185,358	148,208	0,015	0,015
-184,344	-133,651	-0,203	0,018
-183,329	-200,000	0,007	-0,157
-182,315	389,886	-0,039	0,058
-181,300	-200,000	0,008	-0,086
-180,285	13,353	-0,055	-0,030
-179,271	-56,124	-0,079	-0,025
-178,256	-200,000	-0,026	-0,089
-177,242	46,849	0,029	-0,019
-176,227	346,713	0,050	-0,069
-175,212	-90,296	0,042	0,008
-174,198	427,291	0,069	-0,106
-173,183	194,686	-0,059	-0,064
-172,169	-46,863	0,038	0,013
-171,154	416,962	0,102	-0,155
-170,139	57,768	-0,012	0,008
-169,125	16,063	0,139	-0,078
-168,110	678,095	0,025	0,046
-167,096	614,049	0,091	-0,162
-166,081	317,156	-0,072	-0,096
-165,066	-70,781	-0,104	0,028
-164,052	359,916	-0,034	0,048
-163,037	-96,950	-0,087	0,016
-162,023	127,070	-0,045	0,040
-161,008	-200,000	-0,007	0,044
-159,993	-200,000	0,030	0,110
-158,979	277,586	-0,038	-0,048
-157,964	119,116	-0,043	0,037
-156,950	512,044	0,072	-0,119
-155,935	-200,000	0,005	0,091
-154,920	-2,226	0,018	0,009
-153,906	-200,000	-0,013	-0,048
-152,891	51,509	-0,136	0,091
-151,877	-78,492	-0,054	0,013
-150,862	198,539	0,136	-0,148
-149,847	-6,530	0,071	-0,034
-148,833	789,786	-0,058	0,113
-147,818	240,832	-0,009	-0,011
-146,804	52,266	0,076	-0,051
-145,789	-166,653	0,055	-0,002
-144,775	-159,287	-0,107	-0,004
-143,760	30,764	-0,067	0,041
-142,745	800,000	-0,005	-0,016
-141,731	-200,000	0,049	-0,157
-140,716	305,803	0,076	0,100
-139,702	-200,000	-0,026	0,212
-138,687	269,588	0,194	0,242
-137,672	346,210	0,030	0,042
-136,658	283,616	-0,059	-0,075
-135,643	79,521	0,050	-0,038
-134,629	39,854	-0,015	-0,009
-133,614	-96,726	-0,028	0,005
-132,599	25,840	0,153	0,090
-131,585	325,372	-0,067	0,091
-130,570	5,238	0,028	0,015
-129,556	-20,826	-0,070	0,030
-128,541	-200,000	-0,002	-0,031
-127,526	-38,919	0,044	0,016
-126,512	-200,000	0,002	0,098
-125,497	-200,000	0,013	-0,052
-124,483	456,805	0,045	-0,071
-123,468	-40,812	-0,193	-0,070
-122,453	443,995	0,019	-0,029
-121,439	-42,115	-0,090	-0,032
-120,424	23,985	0,107	-0,062
-119,410	253,819	-0,082	-0,099
-118,395	-200,000	-0,011	-0,037
-117,380	-13,613	0,160	-0,073
-116,366	-72,289	0,131	-0,034
-115,351	-200,000	-0,015	-0,077
-114,337	-16,649	-0,042	-0,019
-113,322	89,634	-0,064	-0,050
-112,307	-44,527	-0,209	-0,073
-111,293	-51,266	-0,061	0,020
-110,278	-4,195	0,122	0,059
-109,264	-200,000	-0,035	0,215
-108,249	217,532	-0,034	0,038
-107,234	403,451	0,057	-0,085
-106,220	-200,000	0,006	-0,032
-105,205	483,287	-0,118	-0,191
-104,191	126,587	-0,033	-0,029
-103,176	-200,000	0,013	0,096
-102,162	28,579	-0,093	-0,055
-101,147	566,199	-0,061	0,105
-100,132	800,000	-0,025	-0,060
-99,118	89,225	0,109	0,086
-98,103	800,000	0,017	0,040
-97,089	-27,944	0,109	-0,044
-96,074	101,938	0,052	-0,043
-95,059	-200,000	-0,022	0,078
-94,045	-200,000	-0,009	-0,187
-93,030	452,856	0,011	0,017
-92,016	267,660	0,054	0,067
-91,001	-13,665	-0,008	-0,004
-89,986	748,400	0,028	-0,053
-88,972	61,149	0,072	-0,050
-87,957	-200,000	-0,008	-0,044
-86,943	-200,000	0,006	-0,020
-85,928	800,000	-0,012	0,027
-84,913	-200,000	-0,007	-0,102
-83,899	630,436	-0,008	0,015
-82,884	226,302	-0,042	-0,049
-81,870	800,000	-0,077	0,180
-80,855	200,790	0,074	0,081
-79,840	240,064	-0,046	0,054
-78,826	2,226	0,072	-0,037
-77,811	-48,264	-0,108	0,037
-76,797	-200,000	0,019	0,062
-75,782	-97,709	-0,087	-0,016
-74,767	148,860	0,096	0,092
-73,753	236,712	-0,037	0,043
-72,738	-200,000	0,015	0,134
-71,724	-200,000	0,002	-0,101
-70,709	681,947	-0,021	-0,039
-69,694	165,460	-0,071	0,071
-68,680	-98,694	0,083	-0,015
-67,665	-200,000	-0,006	0,061
-66,651	122,124	0,100	0,088
-65,636	-200,000	0,003	-0,086
-64,622	15,949	-0,113	-0,063
-63,607	-200,000	-0,034	-0,139
-62,592	-200,000	-0,009	-0,116
-61,578	-21,951	0,066	-0,028
-60,563	-200,000	0,006	0,116
-59,549	6,624	0,085	0,045
-58,534	91,626	-2,022	-1,603
-57,519	516,882	-1,096	-1,814
-56,505	-200,000	-0,514	-4,536
-55,490	800,000	0,816	1,596
-54,476	800,000	5,290	11,606
-53,461	-200,000	22,403	348,377
-52,446	800,000	757,332	2287,616
-51,432	530,651	1641,896	2747,421
-50,417	67,458	1640,474	1179,638
-49,403	15,503	1518,217	838,556
-48,388	9,719	1444,597	770,138
-47,373	19,281	1437,798	812,015
-46,359	13,265	1425,925	776,915
-45,344	8,051	1421,969	750,093
-44,330	8,001	1419,991	748,781
-43,315	7,933	1418,223	747,498
-42,300	7,935	1416,535	746,592
-41,286	8,017	1415,053	746,168
-40,271	7,970	1414,092	745,408
-39,257	7,953	1412,821	744,627
-38,242	7,979	1411,718	744,139
-37,227	7,981	1410,534	743,497
-36,213	7,989	1409,339	742,872
-35,198	7,987	1408,080	742,172
-34,184	7,974	1407,165	741,598
-33,169	7,885	1405,984	740,530
-32,154	7,940	1405,001	740,241
-31,140	7,926	1403,716	739,468
-30,125	7,977	1402,500	739,038
-29,111	7,933	1401,378	738,210
-28,096	7,934	1400,130	737,528
-27,082	7,893	1398,976	736,702
-26,067	7,870	1397,952	736,025
-25,052	7,936	1396,695	735,642
-24,038	7,893	1395,904	734,993
-23,023	7,950	1395,132	734,824
-22,009	7,844	1394,052	733,733
-20,994	7,857	1392,880	733,147
-19,979	7,851	1392,133	732,699
-18,965	7,847	1390,972	732,038
-17,950	7,825	1390,288	731,550
-16,936	7,828	1389,095	730,909
-15,921	7,775	1388,273	730,202
-14,906	7,800	1387,505	729,883
-13,892	7,877	1386,159	729,499
-12,877	7,782	1385,639	728,758
-11,863	7,796	1384,809	728,360
-10,848	7,831	1383,793	727,957
-9,833	7,712	1383,027	726,976
-8,819	7,736	1381,907	726,471
-7,804	7,718	1381,184	725,978
-6,790	7,742	1380,182	725,532
-5,775	7,755	1379,100	724,997
-4,760	7,716	1378,213	724,321
-3,746	7,749	1377,287	723,956
-2,731	7,749	1376,401	723,461
-1,717	7,711	1375,833	722,962
-0,702	7,753	1373,684	721,996
0,313	11,666	1283,959	692,561
1,327	27,361	675,500	399,252
2,342	42,867	116,007	74,382
3,356	-2,225	16,510	8,138
4,371	6,520	3,891	2,031
5,386	19,972	1,421	0,805
6,400	800,000	0,295	0,722
7,415	-200,000	-0,037	-0,204
8,429	487,807	-0,131	-0,211
9,444	-94,783	-0,349	-0,066
10,459	85,559	-0,192	-0,149
11,473	-117,838	-0,292	-0,036
12,488	800,000	-0,162	-0,357
13,502	77,563	-0,245	-0,184
14,517	-28,258	-0,355	-0,144
15,531	74,120	-0,411	-0,304
16,546	38,522	-0,380	-0,238
17,561	143,930	-0,404	-0,380
18,575	-131,212	-0,246	0,023
19,590	94,321	-0,273	-0,218
20,604	-119,874	-0,281	-0,034
21,619	-52,530	-0,422	-0,136
22,634	102,739	-0,429	-0,353
23,648	8,834	-0,426	-0,225
24,663	321,777	-0,243	-0,326
25,677	45,374	-0,316	-0,205
26,692	172,009	-0,257	-0,260
27,707	-41,640	-0,466	-0,167
28,721	60,581	-0,473	-0,329
29,736	270,819	-0,252	-0,313
30,750	126,025	-0,428	-0,381
31,765	93,449	-0,428	-0,340
32,780	208,978	-0,292	-0,322
33,794	-200,000	-0,108	-0,352
34,809	-24,706	-0,474	-0,197
35,823	-95,925	-0,402	-0,075
36,838	30,963	-0,394	-0,237
37,853	79,823	-0,327	-0,246
38,867	90,295	-0,293	-0,230
39,882	57,065	-0,368	-0,252
40,896	514,202	-0,231	-0,380
41,911	2,984	-0,287	-0,146
42,926	37,066	-0,367	-0,228
43,940	106,631	-0,405	-0,337
44,955	158,713	-0,323	-0,316
45,969	-4,587	-0,395	-0,191
46,984	92,543	-0,397	-0,314
47,999	158,398	-0,275	-0,268
49,013	223,826	-0,258	-0,293
50,028	47,178	-0,296	-0,193
51,042	223,350	-0,345	-0,391
52,057	93,857	-0,314	-0,250
53,071	158,856	-0,198	-0,193
54,086	142,520	-0,310	-0,289
55,101	78,388	-0,346	-0,259
56,115	118,123	-0,326	-0,282
57,130	-170,862	-0,278	-0,007
58,144	46,927	-0,299	-0,195
59,159	53,482	-0,329	-0,221
60,174	-2,157	-0,315	-0,155
61,188	-70,789	-0,325	-0,085
62,203	66,886	-0,397	-0,283
63,217	283,245	-0,283	-0,357
64,232	-172,652	-0,348	-0,008
65,247	318,232	-0,203	-0,270
66,261	115,960	-0,401	-0,344
67,276	256,877	-0,277	-0,334
68,290	22,601	-0,265	-0,152
69,305	127,317	-0,196	-0,174
70,320	-1,770	-0,302	-0,148
71,334	-62,209	-0,282	-0,082
72,349	53,614	-0,217	-0,145
73,363	247,582	-0,243	-0,288
74,378	51,117	-0,365	-0,242
75,393	79,185	-0,369	-0,277
76,407	125,248	-0,301	-0,266
77,422	25,317	-0,296	-0,172
78,436	247,047	-0,180	-0,213
79,451	26,054	-0,355	-0,207
80,466	7,573	-0,298	-0,156
81,480	92,237	-0,341	-0,269
82,495	37,954	-0,285	-0,177
83,509	259,651	-0,216	-0,262
84,524	651,552	-0,075	-0,135
85,539	194,240	-0,159	-0,168
86,553	-149,952	-0,252	-0,014
87,568	91,499	-0,363	-0,285
88,582	-43,596	-0,234	-0,082
89,597	-43,092	-0,314	-0,111
90,611	9,218	-0,292	-0,154
91,626	68,769	-0,316	-0,226
92,641	-6,868	-0,207	-0,098
93,655	-32,426	-0,250	-0,097
94,670	69,347	-0,292	-0,210
95,684	-35,636	-0,281	-0,106
96,699	42,283	-0,150	-0,095
97,714	176,952	-0,221	-0,225
98,728	88,436	-0,266	-0,206
99,743	-92,062	-0,294	-0,058
100,757	-21,997	-0,353	-0,149
101,772	283,431	-0,246	-0,310
102,787	167,668	-0,214	-0,213
103,801	39,734	-0,331	-0,207
104,816	-99,532	-0,364	-0,063
105,830	-13,473	-0,300	-0,135
106,845	305,028	-0,250	-0,325
107,860	-75,071	-0,221	-0,055
108,874	419,598	-0,139	-0,208
109,889	177,444	-0,253	-0,257
110,903	-7,023	-0,316	-0,149
111,918	-99,025	-0,342	-0,060
112,933	247,317	-0,203	-0,240
113,947	95,787	-0,274	-0,218
114,962	182,463	-0,158	-0,162
115,976	-66,153	-0,330	-0,091
116,991	-200,000	0,019	-0,266
118,006	107,705	-0,370	-0,307
119,020	52,612	-0,201	-0,134
120,035	156,090	-0,139	-0,134
121,049	71,514	-0,189	-0,136
122,064	-47,104	-0,218	-0,074
123,079	9,446	-0,244	-0,128
124,093	-79,832	-0,248	-0,058
125,108	60,560	-0,297	-0,205
126,122	21,006	-0,248	-0,140
127,137	-42,679	-0,315	-0,111
128,151	56,496	-0,147	-0,100
129,166	9,865	-0,286	-0,151
130,181	211,926	-0,221	-0,243
131,195	36,059	-0,247	-0,151
132,210	151,157	-0,250	-0,237
133,224	800,000	-0,083	-0,235
134,239	311,280	-0,230	-0,301
135,254	10,852	-0,331	-0,175
136,268	-10,672	-0,224	-0,103
137,283	31,701	-0,147	-0,088
138,297	19,574	-0,291	-0,162
139,312	51,043	-0,329	-0,217
140,327	-81,611	-0,305	-0,069
141,341	246,387	-0,195	-0,229
142,356	-200,000	-0,288	-0,001
143,370	-132,898	-0,156	-0,014
144,385	-142,995	-0,297	-0,020
145,400	20,994	-0,301	-0,170
146,414	58,116	-0,236	-0,161
147,429	8,981	-0,329	-0,172
148,443	229,831	-0,166	-0,190
149,458	-23,910	-0,317	-0,131
150,473	60,553	-0,224	-0,154
151,487	4,858	-0,253	-0,129
152,502	65,316	-0,280	-0,197
153,516	11,591	-0,263	-0,140
154,531	110,974	-0,209	-0,175
155,546	199,008	-0,098	0,105
156,560	180,688	-0,117	-0,120
157,575	481,657	-0,149	-0,236
158,589	-30,061	-0,303	-0,119
159,604	212,564	-0,178	-0,195
160,619	119,111	-0,263	-0,226
161,633	291,192	-0,192	-0,243
162,648	241,556	-0,208	-0,242
163,662	15,388	-0,248	-0,135
164,677	-18,843	-0,221	-0,095
165,692	156,489	-0,200	-0,192
166,706	75,648	-0,197	-0,145
167,721	241,223	-0,228	-0,264
168,735	162,686	-0,213	-0,208
169,750	63,832	-0,316	-0,220
170,764	-3,577	-0,270	-0,130
171,779	61,615	-0,297	-0,205
172,794	162,599	-0,256	-0,249
173,808	-48,644	-0,295	0,098
174,823	255,097	-0,307	-0,365
175,837	237,944	-0,250	-0,289
176,852	31,832	-0,236	-0,141
177,867	94,334	-0,158	-0,125
178,881	-9,917	-0,253	-0,117
179,896	296,342	-0,096	0,122
180,910	83,631	-0,254	-0,192
181,925	142,888	-0,249	-0,229
182,940	78,098	-0,254	-0,188
183,954	-0,727	-0,223	-0,109
184,969	119,774	-0,188	-0,162
185,983	458,599	-0,130	-0,201
186,998	29,983	-0,119	-0,070
188,013	-102,784	-0,214	0,035
189,027	249,785	-0,222	-0,262
190,042	48,089	-0,219	-0,142
191,056	98,512	-0,320	-0,256
192,071	143,969	-0,134	-0,124
193,086	-13,601	-0,088	-0,039
194,100	-109,331	-0,237	-0,034
195,115	-97,294	-0,231	-0,041
196,129	93,004	-0,260	-0,204
197,144	91,397	-0,166	-0,129
198,159	112,911	-0,182	-0,153
199,173	159,257	-0,214	-0,207
200,188	417,163	-0,103	-0,153
201,202	-32,197	-0,113	0,044
202,217	-151,102	-0,202	-0,010
203,232	272,401	-0,156	-0,191
204,246	-25,576	-0,252	-0,103
205,261	211,842	-0,123	-0,135
206,275	31,577	-0,214	-0,127
207,290	89,965	-0,252	-0,195
208,304	-2,867	-0,258	-0,124
209,319	800,000	0,043	-0,122
210,334	105,869	-0,297	-0,243
211,348	117,739	-0,181	-0,155
212,363	173,051	-0,199	-0,199
213,377	-1,078	-0,184	-0,090
214,392	-54,264	-0,221	-0,069
215,407	326,190	-0,198	-0,263
216,421	165,554	-0,057	-0,056
217,436	-50,084	-0,241	-0,079
218,450	65,593	-0,229	-0,160
219,465	800,000	-0,133	-0,308
220,480	87,556	-0,181	-0,138
221,494	800,000	-0,085	-0,240
222,509	90,431	-0,058	-0,045
223,523	744,831	-0,065	-0,121
224,538	77,884	-0,195	-0,143
225,553	211,362	-0,143	-0,156
226,567	172,311	-0,169	-0,168
227,582	252,835	-0,180	-0,212
228,596	125,345	-0,144	-0,125
229,611	24,536	-0,290	-0,165
230,626	-50,052	-0,176	-0,057
231,640	-200,000	-0,013	-0,177
232,655	484,321	-0,152	-0,240
233,669	90,395	-0,207	-0,160
234,684	68,505	-0,197	-0,139
235,699	632,084	-0,133	-0,233
236,713	9,727	-0,142	-0,074
237,728	-127,555	-0,237	-0,023
238,742	73,198	-0,210	-0,152
239,757	282,685	-0,241	-0,299
240,772	248,139	-0,175	-0,205
241,786	52,226	-0,220	-0,144
242,801	37,671	-0,132	-0,081
243,815	-44,449	-0,178	-0,061
244,830	-16,264	-0,221	-0,096
245,844	-106,128	-0,251	-0,039
246,859	512,739	-0,161	-0,260
247,874	-67,624	-0,166	-0,045
248,888	97,163	-0,180	-0,142
249,903	-48,703	-0,173	-0,057
250,917	11,062	-0,127	-0,067
251,932	-41,623	-0,214	-0,075
252,947	-8,946	-0,131	-0,060
253,961	56,307	-0,115	-0,077
254,976	101,603	-0,198	-0,159
255,990	800,000	-0,139	-0,270
257,005	299,691	-0,196	-0,249
258,020	-9,956	-0,176	-0,080
259,034	-58,734	-0,245	-0,073
260,049	212,195	-0,119	-0,129
261,063	97,683	-0,131	-0,104
262,078	139,987	-0,265	-0,241
263,093	-61,970	-0,229	-0,065
264,107	-200,000	-0,079	-0,290
265,122	-200,000	0,005	-0,018
266,136	800,000	-0,066	-0,188
267,151	-56,329	-0,110	-0,034
268,166	423,818	-0,112	-0,166
269,180	-56,166	-0,219	-0,067
270,195	-200,000	-0,004	-0,125
271,209	84,430	-0,186	-0,140
272,224	27,648	-0,182	-0,105
273,239	95,933	-0,120	-0,094
274,253	302,964	-0,078	-0,100
275,268	800,000	-0,114	-0,247
276,282	-200,000	-0,054	-0,194
277,297	-162,509	-0,228	0,008
278,312	117,110	-0,226	-0,191
279,326	-131,808	-0,097	-0,009
280,341	-141,018	-0,100	-0,007
281,355	34,869	-0,081	0,048
282,370	143,848	-0,241	-0,221
283,384	-61,991	-0,194	-0,055
284,399	800,000	-0,094	-0,206
285,414	-143,958	-0,198	-0,013
286,428	-64,016	-0,109	-0,031
287,443	-168,732	-0,163	-0,004
288,457	303,452	-0,104	-0,132
289,472	800,000	-0,111	-0,258
290,487	-200,000	-0,040	-0,152
291,501	254,610	-0,118	-0,138
292,516	53,155	-0,150	-0,099
293,530	-200,000	-0,006	-0,090
294,545	-42,405	-0,246	-0,086
295,560	-200,000	-0,029	-0,087
296,574	94,960	-0,142	-0,111
297,589	-84,205	-0,167	-0,036
298,603	-35,753	-0,192	-0,071
299,618	-200,000	0,009	-0,223
300,633	156,263	-0,104	-0,099
301,647	-69,813	-0,023	-0,006
302,662	-123,284	-0,144	-0,016
303,676	16,188	-0,122	-0,066
304,691	-200,000	-0,080	-0,259
305,706	299,448	-0,142	-0,180
306,720	-72,037	-0,078	-0,020
307,735	28,536	-0,096	-0,056
308,749	233,261	-0,109	-0,124
309,764	-150,813	-0,050	-0,003
310,779	-84,230	-0,061	-0,013
311,793	-45,931	-0,241	-0,081
312,808	-33,973	-0,159	0,060
313,822	60,038	-0,209	-0,142
314,837	80,193	-0,125	-0,092
315,852	322,073	-0,076	-0,099
316,866	800,000	-0,029	0,077
317,881	308,958	-0,059	-0,076
318,895	-103,095	-0,205	0,033
319,910	-46,022	-0,248	-0,083
320,925	347,106	-0,143	-0,194
321,939	634,873	-0,087	-0,152
322,954	336,410	-0,152	-0,203
323,968	12,102	-0,114	0,060
324,983	12,750	-0,226	-0,119
325,997	371,089	-0,125	-0,175
327,012	313,257	-0,154	-0,198
328,027	227,107	-0,153	-0,170
329,041	-144,725	-0,100	0,006
330,056	800,000	-0,123	-0,252
331,070	23,824	-0,120	-0,067
332,085	28,488	-0,028	0,016
333,100	-49,779	-0,160	-0,052
334,114	-30,806	-0,227	-0,088
335,129	-81,406	-0,123	-0,027
336,143	185,997	-0,204	-0,208
337,158	800,000	-0,092	-0,188
338,173	229,631	-0,086	-0,097
339,187	40,221	-0,146	-0,090
340,202	-74,900	-0,106	0,026
341,216	-144,782	-0,258	-0,016
342,231	-200,000	-0,192	0,000
343,246	-106,807	-0,138	-0,021
344,260	-62,529	-0,209	-0,059
345,275	-106,487	-0,183	0,028
346,289	-131,661	-0,146	0,013
347,304	-92,160	-0,124	0,024
348,319	800,000	-0,095	-0,193
349,333	252,965	-0,134	-0,156
350,348	-200,000	-0,062	-0,191
351,362	95,199	-0,097	-0,075
352,377	158,210	-0,058	-0,055
353,392	0,844	-0,109	-0,053
354,406	584,309	0,023	-0,038
355,421	206,829	1309,333	1396,027
356,435	159,088	1469,317	1396,471
