DTS Sentinel unit serial number:	SN410029Multiplexer serial number:	ORYXHardware model number:	OX2-SRSoftware version number:	ORYX F/W v4,00 Oryx Data Collector v3.7.2.0data status	okinstallation	B3 Nyhavnadifferential loss correction	single-endedforward channel	channel 1reverse channel	N/Adate	2023/12/04time	10:32:30forward acquisition time	300,00reverse acquisition time	0,00gamma	499,1914k internal	0,3202k external	0,3202temperature offset calibration	1,0000default loss term (dB/km)	0,3820temperature slope calibration	1,0000multiplexer offset coefficient	1,0000multiplexer slope coefficient	1,0000fibre end	0,00T internal ref (°C)	13,58T ext. ref 1 (°C)	-0,78T ext. ref 2 (°C)	-0,82length (m)	temperature (°C)	Stokes	anti-Stokes-744,400	51,941	-0,315	-0,218
-743,385	-200,000	-0,037	0,195
-742,371	129,717	-0,130	-0,121
-741,356	800,000	0,101	0,245
-740,342	67,335	-0,150	-0,111
-739,327	-200,000	0,016	0,270
-738,312	800,000	-0,177	-0,359
-737,298	160,081	-0,078	0,079
-736,283	268,286	-0,240	-0,307
-735,269	-200,000	0,063	0,298
-734,254	200,105	-0,268	-0,299
-733,239	54,143	-0,161	0,112
-732,225	525,355	-0,124	-0,213
-731,210	-106,596	0,120	0,019
-730,196	-200,000	0,028	0,095
-729,181	-200,000	0,024	0,197
-728,167	410,894	-0,016	0,025
-727,152	-200,000	0,009	-0,075
-726,137	320,776	-0,060	0,082
-725,123	-200,000	-0,022	-0,110
-724,108	355,551	-0,093	-0,135
-723,094	800,000	0,038	-0,102
-722,079	-157,290	0,020	0,001
-721,064	174,460	0,139	-0,146
-720,050	800,000	-0,025	0,062
-719,035	51,708	0,066	-0,046
-718,021	144,815	0,117	-0,113
-717,006	327,181	-0,127	-0,177
-715,991	-2,765	-0,061	0,031
-714,977	-128,551	-0,064	-0,007
-713,962	-200,000	0,003	-0,018
-712,948	800,000	0,053	0,118
-711,933	800,000	-0,016	0,040
-710,918	530,998	-0,092	-0,159
-709,904	-50,200	-0,090	-0,031
-708,889	800,000	0,048	-0,098
-707,875	512,037	-0,100	-0,169
-706,860	800,000	-0,098	-0,205
-705,845	-63,187	0,082	-0,024
-704,831	-200,000	0,034	0,162
-703,816	173,715	-0,087	-0,091
-702,802	-78,710	-0,084	-0,021
-701,787	48,010	-0,231	-0,156
-700,772	10,402	-0,093	0,051
-699,758	-200,000	-0,019	0,081
-698,743	67,323	-0,014	0,010
-697,729	-59,046	-0,080	0,025
-696,714	-32,009	-0,053	-0,021
-695,699	222,231	0,088	0,103
-694,685	-86,096	0,045	0,010
-693,670	454,222	-0,060	-0,097
-692,656	-76,089	-0,084	0,021
-691,641	-38,505	0,030	-0,011
-690,627	-200,000	-0,040	0,138
-689,612	-115,340	-0,085	0,012
-688,597	479,626	-0,033	-0,055
-687,583	52,265	0,026	0,018
-686,568	614,575	-0,048	-0,087
-685,554	-200,000	0,003	0,040
-684,539	-33,262	-0,120	-0,048
-683,524	-200,000	-0,003	0,158
-682,510	-200,000	-0,019	0,086
-681,495	206,024	0,040	-0,045
-680,481	5,950	-0,057	-0,031
-679,466	-4,046	-0,141	-0,071
-678,451	-144,451	-0,113	-0,008
-677,437	-142,735	0,083	0,006
-676,422	-90,325	-0,072	-0,015
-675,408	-200,000	-0,031	0,109
-674,393	800,000	0,077	-0,219
-673,378	-200,000	-0,006	-0,187
-672,364	251,327	-0,082	-0,102
-671,349	-33,743	-0,030	-0,012
-670,335	800,000	0,031	-0,095
-669,320	177,721	0,045	-0,048
-668,305	-51,363	-0,057	-0,019
-667,291	23,230	0,108	-0,064
-666,276	30,302	-0,014	0,008
-665,262	138,482	-0,082	-0,078
-664,247	605,751	0,065	-0,118
-663,232	-200,000	-0,026	-0,102
-662,218	-76,960	0,123	0,031
-661,203	186,092	0,141	0,152
-660,189	-74,782	-0,076	-0,020
-659,174	84,232	0,057	-0,045
-658,159	99,972	-0,086	-0,072
-657,145	300,733	-0,081	-0,108
-656,130	-200,000	0,036	-0,175
-655,116	-27,169	0,080	0,033
-654,101	11,134	0,039	0,021
-653,086	383,834	-0,033	-0,049
-652,072	-200,000	-0,024	0,081
-651,057	800,000	0,025	-0,077
-650,043	-200,000	-0,014	0,045
-649,028	370,388	0,036	0,053
-648,014	221,748	0,056	0,065
-646,999	-200,000	0,000	0,096
-645,984	-200,000	0,046	0,186
-644,970	517,287	-0,050	0,086
-643,955	-200,000	-0,011	-0,080
-642,941	-54,111	0,046	-0,015
-641,926	262,479	0,005	0,006
-640,911	-200,000	0,004	0,062
-639,897	342,156	0,046	-0,065
-638,882	-2,765	0,174	0,088
-637,868	-98,325	-0,100	-0,018
-636,853	800,000	-0,058	-0,158
-635,838	800,000	-0,044	-0,135
-634,824	-200,000	0,000	0,010
-633,809	62,696	0,086	0,062
-632,795	566,136	0,020	0,035
-631,780	-52,534	-0,052	-0,017
-630,765	753,993	-0,068	-0,133
-629,751	311,175	-0,063	-0,085
-628,736	-200,000	-0,026	-0,091
-627,722	-200,000	0,046	-0,159
-626,707	-161,623	0,029	0,001
-625,692	-69,595	-0,108	-0,030
-624,678	-139,421	0,051	0,004
-623,663	35,048	0,054	0,034
-622,649	153,098	-0,098	-0,097
-621,634	-117,004	-0,091	0,012
-620,619	-130,615	-0,093	0,009
-619,605	800,000	-0,101	0,203
-618,590	-19,808	-0,121	0,054
-617,576	-200,000	0,004	-0,014
-616,561	-0,408	-0,105	0,054
-615,546	800,000	0,014	-0,045
-614,532	-200,000	0,024	0,079
-613,517	-200,000	0,008	0,042
-612,503	667,094	0,014	0,027
-611,488	-200,000	0,012	0,042
-610,474	-131,516	-0,097	0,009
-609,459	-38,460	0,081	-0,031
-608,444	-143,057	-0,150	0,010
-607,430	561,883	-0,056	0,098
-606,415	288,300	0,029	-0,038
-605,401	-200,000	0,001	-0,051
-604,386	75,679	0,046	-0,035
-603,371	-9,291	-0,117	-0,057
-602,357	72,624	-0,076	-0,057
-601,342	-75,100	-0,074	-0,019
-600,328	269,516	-0,017	0,022
-599,313	800,000	-0,074	-0,174
-598,298	-200,000	0,004	0,100
-597,284	659,381	0,023	0,044
-596,269	186,774	0,124	0,134
-595,255	800,000	0,032	-0,072
-594,240	800,000	-0,047	-0,138
-593,225	182,593	-0,053	0,057
-592,211	-80,304	0,112	-0,027
-591,196	377,464	0,068	0,101
-590,182	-200,000	0,008	0,031
-589,167	-97,378	0,067	-0,012
-588,152	-115,842	-0,035	0,005
-587,138	-200,000	0,006	0,048
-586,123	-155,088	0,042	-0,002
-585,109	30,817	-0,071	-0,044
-584,094	-9,102	0,035	-0,017
-583,079	-200,000	-0,000	-0,003
-582,065	-53,051	0,086	0,028
-581,050	800,000	-0,031	0,069
-580,036	800,000	0,010	0,033
-579,021	181,153	-0,072	-0,077
-578,006	-200,000	0,012	-0,099
-576,992	-168,698	-0,079	0,002
-575,977	-84,163	-0,086	0,020
-574,963	800,000	0,015	-0,037
-573,948	717,872	-0,013	-0,025
-572,934	40,925	-0,106	0,069
-571,919	154,820	-0,121	-0,120
-570,904	135,118	-0,143	0,134
-569,890	800,000	-0,048	0,106
-568,875	-90,052	-0,053	0,011
-567,861	24,384	0,095	0,057
-566,846	-44,838	0,077	0,028
-565,831	18,790	0,137	0,079
-564,817	-128,073	-0,060	0,006
-563,802	97,686	0,086	0,072
-562,788	7,682	-0,161	-0,087
-561,773	105,252	-0,110	-0,094
-560,758	-124,404	0,083	0,009
-559,744	-46,382	-0,037	0,013
-558,729	304,236	-0,070	0,094
-557,715	-200,000	-0,010	-0,078
-556,700	112,174	0,038	-0,033
-555,685	-86,291	-0,022	-0,005
-554,671	-103,740	0,018	0,003
-553,656	-137,843	0,099	0,008
-552,642	556,931	0,079	-0,138
-551,627	-68,026	-0,133	-0,037
-550,612	-47,500	-0,021	0,007
-549,598	-89,704	-0,121	-0,025
-548,583	86,367	0,057	0,046
-547,569	800,000	-0,032	0,098
-546,554	-200,000	-0,011	-0,106
-545,539	61,256	0,114	0,081
-544,525	627,885	0,035	0,065
-543,510	-200,000	0,004	0,054
-542,496	-112,190	-0,104	-0,015
-541,481	394,610	0,057	0,086
-540,466	-194,467	0,087	0,000
-539,452	62,133	-0,046	0,033
-538,437	-195,396	-0,093	-0,000
-537,423	56,774	0,102	0,072
-536,408	800,000	0,040	-0,087
-535,393	-162,771	-0,075	0,003
-534,379	177,006	0,056	-0,059
-533,364	-28,424	0,100	0,041
-532,350	-122,541	-0,023	-0,003
-531,335	-200,000	-0,032	0,132
-530,321	181,332	0,039	0,041
-529,306	308,830	0,043	-0,058
-528,291	68,096	-0,116	-0,086
-527,277	-200,000	0,008	-0,146
-526,262	-200,000	0,010	-0,057
-525,248	800,000	-0,032	-0,094
-524,233	800,000	0,051	-0,102
-523,218	72,232	-0,055	-0,041
-522,204	258,592	0,032	-0,040
-521,189	-200,000	0,013	-0,065
-520,175	800,000	0,043	0,122
-519,160	223,681	-0,011	0,013
-518,145	484,958	0,027	-0,045
-517,131	-114,597	0,074	-0,010
-516,116	92,277	0,091	0,073
-515,102	291,623	0,017	-0,023
-514,087	176,114	-0,027	0,029
-513,072	-200,000	0,013	-0,063
-512,058	-66,143	0,091	-0,026
-511,043	-49,191	-0,062	0,021
-510,029	-159,546	-0,087	0,003
-509,014	-93,846	0,148	0,029
-507,999	-149,835	-0,135	-0,008
-506,985	-112,650	0,046	-0,006
-505,970	-200,000	0,002	-0,013
-504,956	800,000	0,041	0,088
-503,941	79,423	0,090	0,069
-502,926	-200,000	0,010	-0,065
-501,912	-12,765	0,117	0,055
-500,897	-53,696	-0,064	0,021
-499,883	188,227	-0,096	0,104
-498,868	59,076	-0,045	-0,032
-497,853	800,000	0,016	-0,046
-496,839	-123,833	-0,069	0,008
-495,824	51,009	0,093	-0,064
-494,810	-200,000	-0,011	0,106
-493,795	311,051	-0,096	-0,131
-492,781	188,458	0,135	-0,145
-491,766	-145,090	-0,230	0,015
-490,751	-108,698	-0,204	0,031
-489,737	800,000	0,046	0,134
-488,722	111,589	0,086	0,075
-487,708	175,637	0,089	0,093
-486,693	138,588	-0,059	-0,056
-485,678	-52,393	-0,068	-0,022
-484,664	800,000	-0,051	-0,109
-483,649	87,205	-0,079	-0,062
-482,635	45,665	0,060	-0,040
-481,620	-73,844	-0,081	0,021
-480,605	-200,000	-0,002	0,065
-479,591	-92,716	0,073	0,015
-478,576	-101,958	-0,024	0,004
-477,562	-33,324	-0,131	-0,052
-476,547	-13,416	0,088	0,041
-475,532	-133,941	0,084	0,007
-474,518	-200,000	0,015	-0,113
-473,503	-105,155	0,085	-0,014
-472,489	-65,818	-0,098	-0,028
-471,474	-200,000	-0,008	0,037
-470,459	-9,840	-0,067	-0,032
-469,445	-200,000	0,002	-0,011
-468,430	63,291	-0,046	-0,033
-467,416	-200,000	0,001	-0,036
-466,401	13,387	0,068	0,038
-465,386	247,769	0,052	-0,063
-464,372	55,578	-0,046	0,032
-463,357	72,667	-0,028	0,021
-462,343	243,065	0,049	-0,059
-461,328	-81,078	-0,078	-0,019
-460,313	-200,000	0,019	-0,060
-459,299	51,970	-0,048	0,033
-458,284	662,787	-0,036	0,067
-457,270	351,722	0,024	0,035
-456,255	211,797	0,043	0,048
-455,241	800,000	0,030	-0,095
-454,226	-200,000	-0,012	-0,039
-453,211	-51,731	-0,098	0,033
-452,197	761,332	0,017	0,033
-451,182	800,000	-0,028	0,089
-450,168	-36,806	-0,026	0,010
-449,153	-36,112	0,118	0,046
-448,138	96,216	-0,054	0,045
-447,124	105,023	0,106	-0,089
-446,109	-200,000	0,000	-0,116
-445,095	71,266	0,149	-0,111
-444,080	7,622	0,073	0,039
-443,065	-79,511	-0,064	-0,015
-442,051	-200,000	-0,013	0,093
-441,036	659,350	0,025	-0,047
-440,022	398,872	-0,057	-0,086
-439,007	-180,400	0,130	0,002
-437,992	331,515	0,130	0,181
-436,978	-200,000	0,004	0,054
-435,963	548,849	0,056	-0,097
-434,949	122,792	0,081	-0,073
-433,934	800,000	0,027	0,058
-432,919	61,210	0,069	0,049
-431,905	800,000	0,090	-0,225
-430,890	-56,137	-0,028	0,009
-429,876	273,244	-0,092	0,117
-428,861	404,192	-0,029	-0,045
-427,846	-200,000	0,025	-0,136
-426,832	-79,087	-0,093	0,023
-425,817	-79,326	0,126	-0,030
-424,803	267,230	0,031	0,038
-423,788	-200,000	0,020	-0,203
-422,773	190,483	-0,059	-0,064
-421,759	-200,000	0,020	-0,112
-420,744	-200,000	-0,040	-0,200
-419,730	-2,649	-0,120	-0,060
-418,715	-59,022	-0,128	-0,039
-417,701	55,612	-0,078	0,054
-416,686	-7,253	0,080	0,039
-415,671	136,990	0,063	0,059
-414,657	38,439	-0,103	-0,066
-413,642	232,925	0,051	-0,060
-412,628	-115,205	-0,022	-0,003
-411,613	255,152	-0,066	-0,081
-410,598	-200,000	-0,011	0,131
-409,584	-77,136	0,144	0,036
-408,569	19,689	0,089	0,051
-407,555	-200,000	0,020	0,131
-406,540	5,972	0,094	0,050
-405,525	800,000	-0,062	-0,153
-404,511	115,414	-0,046	-0,040
-403,496	103,736	-0,032	0,027
-402,482	332,719	-0,087	-0,121
-401,467	-20,414	0,138	0,060
-400,452	44,009	0,050	0,033
-399,438	156,294	-0,076	-0,075
-398,423	-48,750	-0,044	0,015
-397,409	-37,734	-0,080	0,030
-396,394	584,641	-0,049	-0,087
-395,379	-200,000	0,033	0,165
-394,365	446,398	-0,035	0,055
-393,350	45,177	0,036	-0,024
-392,336	106,759	-0,067	0,057
-391,321	-200,000	0,001	0,148
-390,306	-149,700	-0,108	-0,006
-389,292	29,897	-0,159	-0,097
-388,277	390,358	0,088	-0,132
-387,263	-22,510	0,057	0,025
-386,248	187,326	0,060	0,064
-385,233	257,962	-0,036	-0,044
-384,219	137,731	-0,023	0,022
-383,204	800,000	-0,049	-0,113
-382,190	800,000	-0,047	-0,123
-381,175	-200,000	-0,002	0,053
-380,160	-33,061	-0,022	0,009
-379,146	-200,000	0,001	-0,144
-378,131	-200,000	-0,003	0,061
-377,117	56,011	0,099	0,069
-376,102	-121,244	0,030	-0,004
-375,088	800,000	-0,012	-0,032
-374,073	-200,000	-0,007	0,123
-373,058	59,908	0,069	0,048
-372,044	-200,000	0,004	-0,042
-371,029	-91,718	-0,071	0,014
-370,015	-200,000	0,030	-0,116
-369,000	-200,000	-0,010	-0,064
-367,985	156,556	-0,064	-0,064
-366,971	597,593	0,066	-0,117
-365,956	3,324	0,135	0,070
-364,942	-86,235	0,106	0,023
-363,927	233,004	0,075	0,089
-362,912	-200,000	-0,011	0,087
-361,898	-0,766	0,087	-0,044
-360,883	20,930	0,077	-0,045
-359,869	-50,441	0,078	0,026
-358,854	800,000	0,036	-0,098
-357,839	-200,000	0,005	0,036
-356,825	800,000	-0,046	0,094
-355,810	6,216	0,058	-0,031
-354,796	-13,277	0,052	0,024
-353,781	-27,924	0,086	-0,036
-352,766	796,632	-0,067	0,132
-351,752	357,746	-0,086	0,123
-350,737	117,204	0,101	-0,089
-349,723	800,000	-0,047	0,106
-348,708	694,280	0,037	0,071
-347,693	-106,448	-0,027	-0,004
-346,679	-78,285	-0,196	-0,048
-345,664	-200,000	0,005	-0,091
-344,650	474,800	0,024	0,039
-343,635	-67,372	0,089	-0,025
-342,620	323,370	-0,043	0,059
-341,606	-36,596	0,135	0,052
-340,591	41,144	-0,090	-0,058
-339,577	-158,759	-0,031	0,001
-338,562	364,849	0,032	-0,047
-337,548	800,000	0,020	-0,046
-336,533	-156,308	0,049	-0,002
-335,518	-70,884	0,114	0,030
-334,504	135,412	0,048	-0,045
-333,489	800,000	-0,036	-0,090
-332,475	126,146	-0,033	0,030
-331,460	800,000	-0,048	-0,109
-330,445	-200,000	-0,015	0,077
-329,431	-200,000	0,015	0,069
-328,416	-44,160	-0,080	0,029
-327,402	800,000	-0,025	0,050
-326,387	500,902	-0,022	-0,037
-325,372	-105,012	-0,066	0,011
-324,358	-200,000	0,002	0,022
-323,343	-200,000	0,012	-0,052
-322,329	8,420	-0,099	-0,053
-321,314	800,000	-0,031	0,088
-320,299	-28,596	0,113	-0,046
-319,285	187,031	0,047	0,050
-318,270	-25,503	-0,171	0,072
-317,256	201,123	0,067	-0,074
-316,241	800,000	-0,061	-0,143
-315,226	800,000	0,011	0,026
-314,212	-200,000	-0,005	-0,064
-313,197	179,956	0,040	0,042
-312,183	-200,000	-0,030	0,118
-311,168	800,000	0,028	-0,080
-310,153	800,000	0,030	0,089
-309,139	-46,553	-0,118	0,041
-308,124	-1,607	-0,065	-0,033
-307,110	223,075	-0,011	0,012
-306,095	-43,302	0,117	0,042
-305,080	800,000	-0,009	0,022
-304,066	12,363	-0,025	-0,014
-303,051	800,000	0,033	-0,104
-302,037	59,507	-0,013	0,009
-301,022	-200,000	-0,002	0,015
-300,008	-62,070	0,140	0,041
-298,993	-199,140	0,073	0,000
-297,978	-200,000	-0,033	0,201
-296,964	-200,000	-0,019	-0,063
-295,949	368,925	0,024	0,035
-294,935	-98,713	-0,057	-0,010
-293,920	-154,575	0,189	0,009
-292,905	-200,000	0,023	0,271
-291,891	-82,193	-0,074	0,017
-290,876	800,000	0,066	0,154
-289,862	48,420	-0,062	0,041
-288,847	252,664	0,058	0,071
-287,832	-200,000	0,004	-0,042
-286,818	-104,426	0,043	0,007
-285,803	104,970	0,082	0,069
-284,789	314,569	0,061	0,083
-283,774	-169,655	-0,089	0,002
-282,759	457,435	-0,028	-0,045
-281,745	16,109	0,095	-0,053
-280,730	-48,830	-0,095	0,032
-279,716	55,222	-0,052	-0,036
-278,701	-6,906	0,037	0,018
-277,686	196,850	0,015	0,017
-276,672	-200,000	-0,012	0,055
-275,657	-200,000	0,015	0,076
-274,643	-45,323	-0,032	0,011
-273,628	-200,000	-0,043	-0,210
-272,613	-200,000	-0,004	-0,042
-271,599	-114,480	0,026	-0,003
-270,584	232,742	0,012	-0,015
-269,570	-70,189	-0,055	0,015
-268,555	800,000	0,050	0,141
-267,540	-200,000	0,008	-0,041
-266,526	346,478	-0,076	-0,107
-265,511	118,639	0,065	-0,058
-264,497	17,368	0,071	0,040
-263,482	800,000	-0,013	0,040
-262,467	323,723	0,028	0,038
-261,453	170,700	0,046	0,047
-260,438	-200,000	-0,019	0,108
-259,424	-200,000	0,009	0,067
-258,409	-200,000	0,017	-0,054
-257,395	52,973	-0,063	0,043
-256,380	131,452	0,062	-0,057
-255,365	225,581	0,103	-0,119
-254,351	-200,000	-0,016	-0,078
-253,336	620,865	-0,087	0,157
-252,322	-57,380	-0,140	-0,044
-251,307	-136,721	0,185	0,015
-250,292	-200,000	-0,022	0,092
-249,278	516,056	-0,099	0,165
-248,263	64,472	0,031	-0,023
-247,249	-4,480	0,087	0,043
-246,234	-200,000	0,045	0,158
-245,219	800,000	0,027	-0,080
-244,205	183,572	-0,065	0,068
-243,190	-200,000	-0,012	0,043
-242,176	156,320	0,014	-0,014
-241,161	54,709	0,122	0,084
-240,146	3,921	0,077	-0,040
-239,132	5,514	-0,144	0,075
-238,117	532,481	0,028	0,048
-237,103	135,314	-0,049	0,045
-236,088	-89,136	-0,078	-0,016
-235,073	0,383	0,071	0,036
-234,059	800,000	0,022	-0,060
-233,044	800,000	-0,024	0,054
-232,030	-73,335	-0,091	-0,024
-231,015	76,421	0,019	0,014
-230,000	18,264	0,058	-0,033
-228,986	800,000	0,056	-0,129
-227,971	-99,941	0,087	-0,015
-226,957	-200,000	0,019	-0,095
-225,942	-34,512	-0,067	0,026
-224,927	-49,962	-0,076	-0,025
-223,913	-200,000	-0,030	0,000
-222,898	800,000	-0,039	-0,117
-221,884	318,718	0,081	0,110
-220,869	107,797	-0,132	0,112
-219,855	311,299	0,115	0,153
-218,840	388,734	0,056	0,083
-217,825	-200,000	-0,000	0,035
-216,811	800,000	-0,033	-0,102
-215,796	757,678	-0,044	-0,085
-214,782	-200,000	-0,017	0,061
-213,767	29,719	0,054	0,033
-212,752	-84,495	0,125	-0,028
-211,738	40,361	0,057	-0,036
-210,723	515,654	-0,064	-0,107
-209,709	-77,267	0,056	-0,014
-208,694	-200,000	-0,010	0,049
-207,679	146,711	0,048	-0,046
-206,665	-103,282	0,078	-0,013
-205,650	28,814	0,116	0,070
-204,636	180,622	-0,061	0,064
-203,621	800,000	-0,023	0,060
-202,606	-37,301	-0,044	-0,017
-201,592	-60,795	0,014	-0,004
-200,577	-126,450	0,140	0,015
-199,563	135,584	-0,098	-0,091
-198,548	128,396	0,031	-0,028
-197,533	-25,712	-0,050	0,021
-196,519	-200,000	0,023	0,108
-195,504	-132,949	0,050	-0,004
-194,490	171,758	-0,034	-0,035
-193,475	26,553	-0,119	-0,070
-192,460	434,774	0,069	0,107
-191,446	-57,167	0,110	-0,034
-190,431	800,000	0,039	-0,081
-189,417	-66,211	-0,057	-0,016
-188,402	-200,000	0,018	-0,061
-187,387	231,486	-0,018	-0,021
-186,373	107,409	0,123	-0,104
-185,358	323,371	0,104	-0,142
-184,344	273,057	-0,060	-0,075
-183,329	-200,000	-0,017	-0,135
-182,315	217,930	-0,012	0,013
-181,300	-200,000	-0,016	-0,174
-180,285	-80,889	-0,092	-0,022
-179,271	165,604	-0,016	-0,016
-178,256	-200,000	0,006	-0,112
-177,242	-78,222	0,084	0,020
-176,227	57,233	0,013	-0,009
-175,212	87,893	-0,018	0,014
-174,198	800,000	-0,053	0,136
-173,183	1,446	-0,109	0,056
-172,169	-110,467	-0,111	-0,016
-171,154	464,088	0,038	0,061
-170,139	145,999	0,063	-0,060
-169,125	-44,425	0,067	0,024
-168,110	-200,000	-0,013	0,222
-167,096	181,974	0,005	0,005
-166,081	-70,356	-0,047	-0,013
-165,066	74,170	-0,183	0,136
-164,052	800,000	0,045	-0,114
-163,037	800,000	0,012	-0,032
-162,023	-200,000	0,011	-0,062
-161,008	275,947	0,094	0,118
-159,993	191,863	-0,079	-0,085
-158,979	236,786	-0,045	-0,053
-157,964	-126,249	-0,092	-0,010
-156,950	7,338	0,012	0,006
-155,935	38,353	-0,003	-0,002
-154,920	117,672	0,096	-0,084
-153,906	273,962	-0,048	0,061
-152,891	-169,651	-0,126	0,003
-151,877	81,144	-0,046	-0,035
-150,862	-132,596	-0,074	-0,007
-149,847	111,989	-0,175	-0,151
-148,833	222,798	0,106	-0,121
-147,818	131,287	-0,115	-0,105
-146,804	-62,823	0,098	0,029
-145,789	-200,000	0,015	0,112
-144,775	256,124	-0,031	-0,038
-143,760	-84,964	-0,103	0,023
-142,745	668,289	0,034	0,062
-141,731	43,100	-0,066	-0,042
-140,716	-86,373	0,127	0,027
-139,702	-200,000	0,105	0,000
-138,687	-25,287	0,061	-0,025
-137,672	-200,000	-0,002	0,030
-136,658	-200,000	0,015	0,054
-135,643	602,382	-0,026	-0,046
-134,629	157,653	-0,033	0,033
-133,614	54,929	0,098	-0,067
-132,599	72,254	0,070	0,052
-131,585	800,000	-0,022	-0,051
-130,570	-139,925	-0,024	0,002
-129,556	468,897	-0,045	0,071
-128,541	-200,000	-0,023	0,154
-127,526	41,615	0,018	-0,012
-126,512	-157,066	0,065	0,003
-125,497	-34,664	0,082	0,032
-124,483	2,732	-0,077	-0,039
-123,468	-200,000	0,009	0,093
-122,453	87,053	-0,081	-0,063
-121,439	318,802	-0,086	-0,116
-120,424	800,000	0,038	-0,079
-119,410	-200,000	-0,008	0,131
-118,395	-139,865	0,182	0,013
-117,380	-37,754	0,034	-0,013
-116,366	-200,000	0,029	0,098
-115,351	563,706	-0,069	0,120
-114,337	-200,000	-0,005	-0,175
-113,322	-200,000	-0,008	-0,045
-112,307	224,236	-0,023	0,027
-111,293	433,358	0,023	0,036
-110,278	-200,000	0,016	0,088
-109,264	-125,143	0,237	-0,026
-108,249	358,132	0,060	-0,085
-107,234	61,901	-0,160	0,113
-106,220	800,000	0,011	0,029
-105,205	56,695	0,106	-0,073
-104,191	-200,000	-0,002	0,132
-103,176	800,000	0,044	-0,102
-102,162	46,253	-0,032	-0,021
-101,147	82,998	-0,060	-0,046
-100,132	161,222	-0,013	0,013
-99,118	308,396	-0,065	-0,086
-98,103	544,467	0,030	0,050
-97,089	800,000	0,027	0,076
-96,074	800,000	0,054	0,114
-95,059	118,501	-0,094	0,082
-94,045	-69,370	-0,050	-0,014
-93,030	-50,109	-0,047	-0,016
-92,016	-200,000	0,021	-0,143
-91,001	392,322	-0,028	-0,041
-89,986	-200,000	-0,003	-0,022
-88,972	-67,032	-0,124	0,035
-87,957	-89,697	0,129	0,027
-86,943	-200,000	-0,000	-0,108
-85,928	-119,460	0,100	-0,012
-84,913	-200,000	0,001	0,020
-83,899	-200,000	-0,024	0,178
-82,884	800,000	-0,032	0,068
-81,870	360,320	-0,014	-0,020
-80,855	800,000	0,021	0,046
-79,840	800,000	-0,060	-0,124
-78,826	800,000	0,013	-0,029
-77,811	-140,826	-0,013	0,001
-76,797	33,474	-0,058	-0,035
-75,782	-200,000	0,000	0,055
-74,767	757,865	0,018	-0,034
-73,753	-72,654	0,074	0,019
-72,738	152,456	-0,097	0,094
-71,724	98,478	-0,083	-0,068
-70,709	-33,533	0,056	-0,022
-69,694	178,054	-0,057	-0,059
-68,680	-200,000	0,017	0,119
-67,665	210,140	0,042	0,047
-66,651	129,857	0,109	0,099
-65,636	192,492	0,063	0,068
-64,622	-200,000	-0,006	-0,104
-63,607	800,000	0,040	-0,107
-62,592	-17,022	-0,013	-0,006
-61,578	-200,000	0,031	-0,099
-60,563	53,886	0,107	-0,073
-59,549	214,001	-0,131	0,147
-58,534	-31,250	-1,647	-0,654
-57,519	441,148	-1,315	-2,042
-56,505	-200,000	-0,552	-4,463
-55,490	336,746	0,907	1,251
-54,476	800,000	4,829	10,864
-53,461	-200,000	18,873	315,489
-52,446	-200,000	738,878	2329,996
-51,432	576,727	1654,349	2872,442
-50,417	78,939	1670,447	1264,121
-49,403	21,616	1543,220	886,387
-48,388	15,439	1466,018	812,035
-47,373	17,809	1455,860	817,822
-46,359	16,710	1445,999	806,982
-45,344	13,710	1441,453	790,052
-44,330	13,628	1439,404	788,505
-43,315	13,664	1437,573	787,644
-42,300	13,669	1436,053	786,803
-41,286	13,665	1434,981	786,166
-40,271	13,669	1433,144	785,150
-39,257	13,597	1432,373	784,352
-38,242	13,665	1431,074	783,935
-37,227	13,691	1429,795	783,325
-36,213	13,697	1428,573	782,655
-35,198	13,665	1427,311	781,780
-34,184	13,688	1426,459	781,388
-33,169	13,605	1425,112	780,228
-32,154	13,688	1423,838	779,891
-31,140	13,706	1422,623	779,281
-30,125	13,683	1421,662	778,615
-29,111	13,722	1420,368	778,058
-28,096	13,707	1419,111	777,267
-27,082	13,633	1418,181	776,380
-26,067	13,614	1417,148	775,693
-25,052	13,608	1416,016	775,017
-24,038	13,550	1415,178	774,253
-23,023	13,566	1414,274	773,804
-22,009	13,612	1413,007	773,296
-20,994	13,590	1412,374	772,817
-19,979	13,572	1411,313	772,120
-18,965	13,569	1410,400	771,573
-17,950	13,541	1409,564	770,954
-16,936	13,542	1408,548	770,376
-15,921	13,505	1407,457	769,575
-14,906	13,497	1406,516	768,992
-13,892	13,533	1405,608	768,635
-12,877	13,537	1404,633	768,086
-11,863	13,521	1403,713	767,480
-10,848	13,527	1402,777	766,966
-9,833	13,523	1401,940	766,458
-8,819	13,460	1401,224	765,746
-7,804	13,414	1400,214	764,949
-6,790	13,450	1399,121	764,486
-5,775	13,424	1398,276	763,874
-4,760	13,446	1397,140	763,325
-3,746	13,391	1396,470	762,676
-2,731	13,387	1395,641	762,172
-1,717	13,399	1394,685	761,677
-0,702	13,371	1392,935	760,561
0,313	17,214	1310,404	733,294
1,327	33,497	704,220	431,707
2,342	51,381	123,455	82,777
3,356	2,488	16,543	8,443
4,371	11,798	3,020	1,635
5,386	11,684	0,499	0,270
6,400	800,000	0,053	0,166
7,415	-31,246	-0,364	-0,144
8,429	143,727	-0,288	-0,272
9,444	330,453	-0,195	-0,266
10,459	-47,583	-0,280	-0,096
11,473	70,361	-0,217	-0,158
12,488	-86,602	-0,230	-0,049
13,502	-101,936	-0,413	-0,070
14,517	119,361	-0,218	-0,191
15,531	159,576	-0,255	-0,251
16,546	54,141	-0,388	-0,263
17,561	130,577	-0,270	-0,244
18,575	255,061	-0,191	-0,231
19,590	0,772	-0,263	-0,133
20,604	72,111	-0,146	-0,107
21,619	143,071	-0,409	-0,384
22,634	209,742	-0,393	-0,435
23,648	93,294	-0,548	-0,437
24,663	172,661	-0,342	-0,348
25,677	-6,247	-0,383	-0,184
26,692	193,960	-0,354	-0,378
27,707	-16,138	-0,381	-0,170
28,721	85,527	-0,259	-0,200
29,736	54,222	-0,355	-0,241
30,750	125,631	-0,300	-0,267
31,765	210,378	-0,367	-0,407
32,780	36,036	-0,389	-0,241
33,794	289,512	-0,282	-0,362
34,809	27,586	-0,499	-0,296
35,823	81,745	-0,439	-0,335
36,838	438,638	-0,216	-0,333
37,853	29,060	-0,322	-0,192
38,867	73,710	-0,305	-0,225
39,882	113,321	-0,396	-0,339
40,896	310,837	-0,245	-0,325
41,911	62,660	-0,336	-0,236
42,926	64,588	-0,363	-0,258
43,940	74,438	-0,512	-0,379
44,955	270,067	-0,286	-0,355
45,969	266,529	-0,297	-0,366
46,984	-1,987	-0,371	-0,183
47,999	-68,503	-0,325	-0,088
49,013	101,278	-0,361	-0,296
50,028	125,691	-0,271	-0,241
51,042	-1,077	-0,347	-0,172
52,057	115,893	-0,326	-0,281
53,071	-23,577	-0,432	-0,182
54,086	9,500	-0,375	-0,199
55,101	18,642	-0,367	-0,206
56,115	84,622	-0,232	-0,179
57,130	-72,569	-0,347	-0,089
58,144	-26,893	-0,386	-0,158
59,159	98,743	-0,384	-0,312
60,174	39,197	-0,342	-0,215
61,188	53,604	-0,251	-0,169
62,203	-87,545	-0,278	-0,059
63,217	300,696	-0,173	-0,225
64,232	53,933	-0,300	-0,202
65,247	45,334	-0,330	-0,214
66,261	51,329	-0,449	-0,299
67,276	132,654	-0,300	-0,272
68,290	-44,846	-0,338	-0,118
69,305	-38,186	-0,428	-0,159
70,320	124,756	-0,373	-0,330
71,334	-99,443	-0,374	-0,066
72,349	-46,886	-0,371	-0,127
73,363	144,596	-0,278	-0,261
74,378	-7,186	-0,391	-0,185
75,393	155,369	-0,238	-0,230
76,407	18,102	-0,341	-0,191
77,422	45,465	-0,247	-0,160
78,436	-49,088	-0,329	-0,110
79,451	9,210	-0,265	-0,141
80,466	40,077	-0,260	-0,164
81,480	24,442	-0,316	-0,183
82,495	-41,519	-0,330	-0,119
83,509	53,988	-0,283	-0,191
84,524	144,179	-0,166	-0,155
85,539	-30,751	-0,265	-0,105
86,553	-121,568	-0,290	0,033
87,568	612,831	-0,154	-0,272
88,582	4,382	-0,366	-0,188
89,597	800,000	-0,156	-0,355
90,611	203,966	-0,225	-0,244
91,626	6,319	-0,180	-0,094
92,641	-39,450	-0,436	-0,160
93,655	61,648	-0,366	-0,255
94,670	155,274	-0,298	-0,288
95,684	205,834	-0,324	-0,353
96,699	660,187	-0,216	-0,392
97,714	-4,050	-0,206	-0,100
98,728	49,877	-0,330	-0,218
99,743	83,807	-0,228	-0,174
100,757	-12,077	-0,376	-0,172
101,772	148,378	-0,289	-0,274
102,787	260,172	-0,243	-0,294
103,801	-22,642	-0,337	-0,142
104,816	73,520	-0,217	-0,159
105,830	-111,981	-0,302	-0,042
106,845	103,475	-0,347	-0,286
107,860	14,620	-0,228	-0,124
108,874	5,939	-0,291	-0,150
109,889	255,909	-0,210	-0,253
110,903	-74,835	-0,285	-0,071
111,918	-60,168	-0,310	-0,092
112,933	154,568	-0,150	-0,144
113,947	112,506	-0,314	-0,266
114,962	139,246	-0,188	-0,173
115,976	245,146	-0,155	-0,182
116,991	156,855	-0,273	-0,264
118,006	56,245	-0,373	-0,253
119,020	50,849	-0,220	-0,146
120,035	331,718	-0,227	-0,307
121,049	129,633	-0,177	-0,158
122,064	-26,235	-0,238	-0,097
123,079	65,693	-0,248	-0,176
124,093	191,889	-0,209	-0,221
125,108	24,140	-0,352	-0,203
126,122	426,394	-0,230	-0,347
127,137	45,299	-0,318	-0,205
128,151	-126,728	-0,159	0,016
129,166	34,141	-0,364	-0,221
130,181	188,362	-0,198	-0,207
131,195	4,286	-0,366	-0,187
132,210	316,000	-0,142	-0,188
133,224	171,984	-0,326	-0,328
134,239	171,504	-0,195	-0,196
135,254	-9,422	-0,195	-0,091
136,268	139,611	-0,274	-0,252
137,283	71,571	-0,227	-0,164
138,297	94,922	-0,346	-0,275
139,312	206,943	-0,194	-0,212
140,327	6,915	-0,425	-0,221
141,341	431,554	-0,148	-0,225
142,356	610,010	-0,082	-0,144
143,370	12,623	-0,211	-0,113
144,385	15,522	-0,256	-0,140
145,400	27,229	-0,388	-0,227
146,414	142,176	-0,258	-0,239
147,429	244,434	-0,147	-0,173
148,443	313,654	-0,137	-0,180
149,458	-100,951	-0,252	-0,043
150,473	67,303	-0,330	-0,235
151,487	105,770	-0,195	-0,161
152,502	-44,150	-0,189	-0,066
153,516	13,793	-0,345	-0,187
154,531	0,831	-0,208	-0,103
155,546	121,339	-0,174	-0,151
156,560	-11,941	-0,234	-0,106
157,575	800,000	-0,079	-0,182
158,589	44,530	-0,255	-0,163
159,604	162,157	-0,281	-0,275
160,619	-36,663	-0,340	-0,127
161,633	800,000	-0,179	-0,366
162,648	219,298	-0,269	-0,300
163,662	-26,594	-0,171	-0,069
164,677	156,636	-0,225	-0,217
165,692	37,315	-0,109	-0,067
166,706	3,220	-0,175	-0,089
167,721	101,381	-0,211	-0,171
168,735	800,000	-0,155	-0,335
169,750	274,873	-0,196	-0,242
170,764	5,628	-0,220	-0,113
171,779	-2,279	-0,241	-0,117
172,794	800,000	-0,134	-0,284
173,808	141,051	-0,113	-0,104
174,823	-44,730	-0,245	-0,085
175,837	-31,463	-0,148	-0,058
176,852	271,534	-0,190	-0,234
177,867	43,265	-0,152	-0,096
178,881	364,054	-0,114	-0,160
179,896	-118,843	-0,241	-0,029
180,910	800,000	-0,088	-0,228
181,925	81,787	-0,251	-0,189
182,940	49,427	-0,324	-0,212
183,954	69,442	-0,250	-0,179
184,969	410,348	-0,112	-0,166
185,983	107,525	-0,219	-0,181
186,998	358,507	-0,125	-0,174
188,013	-14,531	-0,266	-0,119
189,027	36,156	-0,233	-0,142
190,042	105,723	-0,223	-0,183
191,056	66,535	-0,148	-0,104
192,071	-118,258	-0,339	-0,041
193,086	50,024	-0,108	-0,071
194,100	51,430	-0,205	-0,135
195,115	73,032	-0,241	-0,175
196,129	23,947	-0,215	-0,123
197,144	258,148	-0,246	-0,295
198,159	32,877	-0,147	-0,088
199,173	192,535	-0,256	-0,269
200,188	636,464	-0,115	-0,203
201,202	112,992	-0,139	-0,117
202,217	331,597	-0,189	-0,254
203,232	-17,764	-0,176	-0,077
204,246	-3,447	-0,304	-0,147
205,261	40,812	-0,174	-0,109
206,275	77,623	-0,205	-0,152
207,290	66,496	-0,336	-0,237
208,304	-56,467	-0,208	-0,064
209,319	-106,142	-0,126	-0,019
210,334	86,953	-0,129	-0,099
211,348	386,200	-0,132	-0,189
212,363	51,912	-0,233	-0,154
213,377	24,101	-0,207	-0,118
214,392	-135,290	-0,206	-0,017
215,407	119,583	-0,243	-0,209
216,421	70,156	-0,163	-0,117
217,436	800,000	-0,096	-0,201
218,450	43,602	-0,237	-0,150
219,465	53,193	-0,216	-0,143
220,480	237,399	-0,176	-0,203
221,494	191,236	-0,159	-0,166
222,509	57,842	-0,196	-0,133
223,523	-105,209	-0,234	-0,037
224,538	190,278	-0,239	-0,250
225,553	26,945	-0,255	-0,148
226,567	37,221	-0,307	-0,188
227,582	-75,388	-0,212	-0,052
228,596	5,255	-0,209	-0,107
229,611	302,553	-0,199	-0,256
230,626	-5,417	-0,193	-0,092
231,640	82,611	-0,273	-0,205
232,655	50,960	-0,194	-0,127
233,669	170,613	-0,179	-0,178
234,684	800,000	-0,106	-0,286
235,699	-97,563	-0,109	-0,019
236,713	21,976	-0,190	-0,107
237,728	46,257	-0,179	-0,115
238,742	-185,168	-0,139	0,001
239,757	-32,830	-0,174	-0,067
240,772	800,000	-0,124	-0,262
241,786	176,467	-0,163	-0,164
242,801	197,865	-0,197	-0,209
243,815	-45,547	-0,158	-0,054
244,830	284,759	-0,166	-0,207
245,844	357,836	-0,159	-0,221
246,859	800,000	-0,050	-0,135
247,874	156,239	-0,124	-0,118
248,888	143,782	-0,232	-0,214
249,903	217,519	-0,197	-0,218
250,917	677,665	-0,160	-0,289
251,932	-83,048	-0,158	0,035
252,947	-57,170	-0,196	0,059
253,961	69,700	-0,250	-0,178
254,976	128,524	-0,163	-0,143
255,990	748,184	-0,036	-0,067
257,005	51,555	-0,071	-0,047
258,020	164,142	-0,203	-0,197
259,034	-39,062	-0,224	-0,081
260,049	-47,568	-0,146	-0,049
261,063	-100,471	-0,115	0,019
262,078	-85,992	-0,263	-0,056
263,093	278,631	-0,139	-0,172
264,107	111,929	-0,157	-0,131
265,122	180,906	-0,087	0,088
266,136	421,618	-0,130	-0,193
267,151	-68,420	-0,180	-0,048
268,166	374,360	-0,147	-0,207
269,180	394,753	-0,073	-0,105
270,195	686,693	-0,142	-0,257
271,209	4,038	-0,299	-0,150
272,224	-134,893	-0,138	-0,011
273,239	764,756	-0,019	-0,037
274,253	130,089	-0,134	-0,118
275,268	-96,058	-0,144	-0,026
276,282	-65,561	-0,181	-0,050
277,297	-40,542	-0,167	-0,060
278,312	35,020	-0,147	-0,089
279,326	-61,441	-0,154	0,044
280,341	-200,000	-0,026	-0,143
281,355	-135,506	-0,146	0,012
282,370	-97,125	-0,177	-0,032
283,384	17,694	-0,149	-0,082
284,399	8,985	-0,213	-0,110
285,414	158,216	-0,164	-0,157
286,428	-34,149	-0,263	-0,099
287,443	-76,190	-0,163	-0,039
288,457	156,422	-0,079	-0,075
289,472	151,829	-0,127	-0,119
290,487	176,310	-0,271	-0,271
291,501	71,796	-0,151	-0,108
292,516	43,730	-0,191	-0,120
293,530	-200,000	-0,046	-0,141
294,545	261,821	-0,117	-0,140
295,560	288,039	-0,122	-0,152
296,574	19,803	-0,143	-0,079
297,589	2,191	-0,100	-0,049
298,603	147,818	-0,185	-0,172
299,618	32,461	-0,226	-0,134
300,633	-34,370	-0,141	-0,053
301,647	-112,318	-0,110	-0,015
302,662	570,596	-0,052	0,087
303,676	-12,316	-0,128	-0,058
304,691	-14,946	-0,186	-0,082
305,706	14,569	-0,128	-0,068
306,720	13,973	-0,167	0,089
307,735	720,471	-0,072	-0,132
308,749	-141,956	-0,093	-0,006
309,764	267,892	-0,145	-0,176
310,779	-200,000	-0,038	-0,157
311,793	22,325	-0,214	-0,120
312,808	74,685	-0,198	-0,143
313,822	379,559	-0,172	-0,244
314,837	25,149	-0,119	-0,068
315,852	-200,000	0,032	-0,178
316,866	473,711	-0,178	-0,277
317,881	-139,247	-0,211	0,015
318,895	-64,698	-0,176	-0,049
319,910	-18,231	-0,282	-0,121
320,925	118,048	-0,148	-0,125
321,939	510,923	-0,074	-0,119
322,954	-200,000	-0,003	-0,058
323,968	457,776	-0,108	-0,165
324,983	-200,000	0,012	-0,069
325,997	-92,792	-0,245	-0,047
327,012	-77,057	-0,129	-0,031
328,027	-200,000	-0,071	-0,305
329,041	800,000	-0,076	-0,149
330,056	212,126	-0,097	-0,105
331,070	-200,000	-0,009	-0,156
332,085	-57,683	-0,211	-0,063
333,100	-147,344	-0,169	0,010
334,114	42,855	-0,208	-0,130
335,129	349,808	-0,200	-0,272
336,143	-164,522	-0,217	0,007
337,158	-115,467	-0,121	-0,015
338,173	175,335	-0,052	-0,052
339,187	-95,767	-0,184	-0,033
340,202	-2,195	-0,190	-0,091
341,216	-200,000	-0,042	-0,182
342,231	595,531	-0,137	-0,234
343,246	113,432	-0,069	-0,057
344,260	-9,919	-0,140	-0,064
345,275	81,805	-0,097	-0,072
346,289	-8,467	-0,179	-0,082
347,304	78,458	-0,215	-0,158
348,319	29,106	-0,236	-0,137
349,333	236,606	-0,159	-0,181
350,348	800,000	-0,152	-0,291
351,362	-8,400	-0,195	-0,090
352,377	15,546	-0,148	-0,079
353,392	-51,000	-0,092	-0,029
354,406	133,522	-0,080	-0,071
355,421	207,515	1317,442	1411,372
356,435	159,635	1478,491	1411,860
