DTS Sentinel unit serial number:	SN410029Multiplexer serial number:	ORYXHardware model number:	OX2-SRSoftware version number:	ORYX F/W v4,00 Oryx Data Collector v3.7.2.0data status	okinstallation	B3 Nyhavnadifferential loss correction	single-endedforward channel	channel 1reverse channel	N/Adate	2023/11/29time	16:02:30forward acquisition time	300,00reverse acquisition time	0,00gamma	499,1914k internal	0,3209k external	0,3209temperature offset calibration	1,0000default loss term (dB/km)	0,3820temperature slope calibration	1,0000multiplexer offset coefficient	1,0000multiplexer slope coefficient	1,0000fibre end	0,00T internal ref (°C)	11,41T ext. ref 1 (°C)	-3,39T ext. ref 2 (°C)	-3,53length (m)	temperature (°C)	Stokes	anti-Stokes-744,400	89,296	-0,217	-0,176
-743,385	-200,000	0,093	0,389
-742,371	11,578	-0,249	-0,138
-741,356	-200,000	0,079	0,361
-740,342	48,226	-0,251	-0,170
-739,327	800,000	-0,092	0,214
-738,312	800,000	-0,108	-0,242
-737,298	-200,000	-0,006	0,318
-736,283	119,982	-0,325	-0,292
-735,269	-200,000	0,062	0,356
-734,254	113,802	-0,215	-0,190
-733,239	-1,887	-0,240	0,122
-732,225	416,086	-0,133	-0,207
-731,210	183,798	0,154	0,166
-730,196	15,571	-0,085	-0,048
-729,181	-138,936	0,052	-0,004
-728,167	800,000	-0,139	-0,291
-727,152	800,000	-0,033	0,069
-726,137	48,195	-0,046	-0,031
-725,123	-50,091	-0,081	-0,028
-724,108	-200,000	-0,003	-0,048
-723,094	-0,498	-0,155	-0,079
-722,079	0,658	-0,095	-0,049
-721,064	800,000	0,060	-0,146
-720,050	58,589	0,049	-0,035
-719,035	134,387	-0,155	-0,146
-718,021	-200,000	-0,027	-0,114
-717,006	127,075	0,049	-0,045
-715,991	411,215	-0,070	-0,108
-714,977	121,704	-0,161	-0,145
-713,962	-200,000	-0,029	0,164
-712,948	-200,000	-0,025	0,140
-711,933	94,098	0,078	-0,064
-710,918	83,093	-0,048	0,038
-709,904	125,663	-0,141	0,129
-708,889	112,932	-0,043	0,038
-707,875	-24,499	-0,128	-0,055
-706,860	-200,000	0,000	-0,064
-705,845	494,529	0,023	-0,039
-704,831	-62,416	-0,087	0,026
-703,816	-200,000	-0,000	0,040
-702,802	-66,482	-0,080	-0,023
-701,787	800,000	0,052	0,111
-700,772	53,178	-0,190	-0,132
-699,758	361,772	0,066	-0,096
-698,743	122,010	0,059	0,054
-697,729	214,838	0,074	0,085
-696,714	-8,374	-0,095	-0,046
-695,699	620,777	-0,061	-0,111
-694,685	-91,168	-0,141	-0,029
-693,670	168,312	-0,090	-0,093
-692,656	-75,957	-0,073	-0,018
-691,641	-63,350	-0,130	-0,039
-690,627	0,631	0,140	-0,072
-689,612	97,120	0,027	-0,022
-688,597	-51,257	0,087	0,029
-687,583	229,969	-0,028	-0,034
-686,568	511,523	-0,053	-0,089
-685,554	485,452	-0,060	-0,099
-684,539	-200,000	-0,011	0,059
-683,524	-91,176	0,128	-0,026
-682,510	800,000	-0,021	0,068
-681,495	183,387	-0,060	0,064
-680,481	800,000	0,022	0,047
-679,466	268,566	-0,019	-0,024
-678,451	562,402	-0,069	-0,120
-677,437	-108,260	0,189	-0,029
-676,422	-200,000	0,018	0,094
-675,408	-160,939	0,011	0,000
-674,393	171,134	-0,040	0,042
-673,378	-200,000	0,008	-0,108
-672,364	-26,259	-0,171	0,072
-671,349	800,000	-0,020	0,061
-670,335	-200,000	-0,010	-0,056
-669,320	-136,425	0,140	0,012
-668,305	-2,590	-0,025	0,012
-667,291	50,189	-0,071	0,049
-666,276	800,000	0,045	-0,126
-665,262	-47,380	-0,108	-0,038
-664,247	109,887	0,085	-0,074
-663,232	71,928	-0,034	-0,025
-662,218	46,270	-0,098	0,066
-661,203	-200,000	0,000	0,002
-660,189	-136,833	-0,008	0,001
-659,174	111,077	-0,065	0,057
-658,159	800,000	-0,084	-0,186
-657,145	-92,093	-0,126	-0,026
-656,130	45,045	0,134	0,089
-655,116	-200,000	-0,001	0,018
-654,101	49,422	-0,068	0,046
-653,086	800,000	-0,034	0,068
-652,072	-29,759	0,087	-0,036
-651,057	60,319	-0,102	0,073
-650,043	-31,931	0,112	-0,045
-649,028	-98,783	0,080	0,015
-648,014	-16,849	-0,085	0,039
-646,999	192,280	0,056	0,061
-645,984	-35,920	-0,101	0,039
-644,970	-200,000	-0,004	0,098
-643,955	-200,000	-0,004	-0,166
-642,941	-200,000	0,037	-0,145
-641,926	-106,986	0,065	0,010
-640,911	175,234	0,081	-0,085
-639,897	366,144	0,040	0,059
-638,882	-200,000	0,011	-0,079
-637,868	-200,000	-0,059	0,221
-636,853	41,308	0,082	-0,053
-635,838	800,000	0,014	0,041
-634,824	-101,564	-0,048	0,008
-633,809	237,505	0,068	0,081
-632,795	368,424	-0,037	0,054
-631,780	-200,000	0,026	0,129
-630,765	-30,533	0,120	-0,049
-629,751	-200,000	-0,022	0,094
-628,736	22,682	-0,062	-0,036
-627,722	17,987	0,032	-0,018
-626,707	16,664	0,038	0,022
-625,692	133,139	0,112	-0,104
-624,678	61,207	-0,084	-0,060
-623,663	457,783	-0,035	-0,056
-622,649	800,000	-0,032	-0,084
-621,634	335,167	-0,077	-0,109
-620,619	-200,000	-0,011	-0,151
-619,605	662,554	0,028	0,052
-618,590	-30,414	0,026	-0,010
-617,576	648,419	-0,038	-0,070
-616,561	800,000	0,048	-0,098
-615,546	-144,487	0,146	-0,010
-614,532	604,976	-0,028	-0,050
-613,517	-200,000	0,004	-0,060
-612,503	779,900	0,037	-0,073
-611,488	179,193	0,053	-0,056
-610,474	-200,000	0,011	0,195
-609,459	63,640	-0,129	-0,093
-608,444	-91,848	0,150	0,030
-607,430	503,515	0,046	-0,076
-606,415	43,015	-0,065	-0,043
-605,401	737,990	0,043	-0,083
-604,386	428,645	-0,070	-0,110
-603,371	-87,571	0,096	-0,021
-602,357	351,188	-0,066	-0,095
-601,342	-9,149	-0,087	-0,042
-600,328	473,934	-0,036	-0,058
-599,313	62,308	0,037	-0,027
-598,298	-142,885	-0,092	0,006
-597,284	-200,000	0,012	0,047
-596,269	80,008	0,072	0,056
-595,255	-57,010	0,132	-0,042
-594,240	800,000	-0,048	-0,098
-593,225	28,393	-0,075	0,046
-592,211	-200,000	0,027	-0,135
-591,196	182,591	-0,048	-0,051
-590,182	237,857	0,069	-0,083
-589,167	260,931	-0,101	0,126
-588,152	-167,292	0,117	0,003
-587,138	-8,274	-0,101	-0,049
-586,123	87,995	-0,052	0,042
-585,109	-29,337	0,014	-0,006
-584,094	190,142	-0,033	-0,036
-583,079	104,943	-0,117	0,100
-582,065	-200,000	0,003	-0,060
-581,050	-79,126	-0,035	0,009
-580,036	18,357	-0,080	0,046
-579,021	-200,000	-0,032	-0,111
-578,006	800,000	-0,050	0,135
-576,992	754,920	-0,046	-0,089
-575,977	209,639	-0,054	0,062
-574,963	272,553	0,090	0,115
-573,948	77,745	0,095	0,073
-572,934	-200,000	0,017	0,055
-571,919	-200,000	0,000	-0,116
-570,904	-200,000	-0,010	-0,064
-569,890	-45,126	-0,080	-0,028
-568,875	26,030	-0,106	0,063
-567,861	217,794	-0,041	0,047
-566,846	-158,782	0,104	0,004
-565,831	7,351	0,050	-0,027
-564,817	-104,347	-0,194	-0,032
-563,802	-200,000	-0,032	-0,126
-562,788	-75,379	-0,081	-0,021
-561,773	-200,000	0,000	0,045
-560,758	-109,816	0,147	-0,022
-559,744	364,545	0,053	0,077
-558,729	-25,323	0,115	0,049
-557,715	-108,601	-0,095	-0,014
-556,700	-71,634	-0,136	-0,036
-555,685	-200,000	-0,011	-0,056
-554,671	800,000	-0,052	-0,134
-553,656	-200,000	0,029	0,238
-552,642	-200,000	0,017	0,102
-551,627	800,000	0,039	0,095
-550,612	724,746	-0,031	0,061
-549,598	-200,000	0,025	-0,197
-548,583	83,029	0,055	-0,043
-547,569	202,317	0,075	-0,083
-546,554	198,182	-0,030	0,033
-545,539	0,591	0,075	0,039
-544,525	70,232	0,091	0,067
-543,510	5,186	-0,062	-0,033
-542,496	278,982	0,041	-0,053
-541,481	-200,000	-0,023	-0,080
-540,466	116,166	-0,108	0,095
-539,452	101,503	-0,032	-0,027
-538,437	346,190	-0,086	-0,122
-537,423	800,000	0,011	0,032
-536,408	800,000	-0,030	0,095
-535,393	123,778	-0,115	0,104
-534,379	800,000	-0,024	-0,057
-533,364	374,910	0,054	-0,080
-532,350	-200,000	0,019	0,067
-531,335	-200,000	0,003	-0,071
-530,321	-200,000	-0,003	-0,014
-529,306	800,000	0,015	-0,037
-528,291	-85,264	-0,213	-0,048
-527,277	183,122	-0,009	-0,010
-526,262	-55,819	0,021	0,007
-525,248	261,354	-0,024	0,031
-524,233	-200,000	0,006	0,148
-523,218	800,000	-0,044	0,117
-522,204	-200,000	-0,013	-0,132
-521,189	-85,438	-0,139	0,031
-520,175	-172,164	-0,128	0,003
-519,160	279,393	-0,064	-0,082
-518,145	-13,844	0,177	-0,082
-517,131	123,873	0,096	0,087
-516,116	-200,000	0,005	-0,094
-515,102	800,000	-0,023	0,048
-514,087	800,000	-0,003	-0,008
-513,072	-181,661	0,102	0,001
-512,058	11,171	-0,093	-0,051
-511,043	-18,289	-0,048	0,022
-510,029	-133,374	0,053	0,005
-509,014	800,000	0,055	-0,138
-507,999	-200,000	0,022	-0,123
-506,985	228,229	-0,042	-0,050
-505,970	-200,000	0,021	-0,075
-504,956	-200,000	-0,019	0,141
-503,941	-200,000	0,015	0,137
-502,926	-200,000	0,021	0,191
-501,912	-200,000	0,004	0,039
-500,897	26,390	-0,148	0,089
-499,883	-101,143	-0,093	-0,016
-498,868	547,381	-0,048	-0,083
-497,853	-31,086	0,038	-0,015
-496,839	-6,359	-0,088	0,043
-495,824	-200,000	-0,002	0,054
-494,810	-112,448	0,082	0,012
-493,795	-200,000	-0,004	-0,050
-492,781	336,434	-0,016	0,022
-491,766	-178,922	-0,083	-0,001
-490,751	-69,821	-0,104	0,028
-489,737	-200,000	0,023	0,155
-488,722	350,410	0,055	0,078
-487,708	800,000	0,088	-0,208
-486,693	-71,704	-0,025	0,007
-485,678	58,633	0,017	0,012
-484,664	800,000	-0,050	-0,144
-483,649	-200,000	-0,019	-0,145
-482,635	188,558	0,027	-0,029
-481,620	606,184	-0,044	0,078
-480,605	-129,434	0,112	-0,011
-479,591	-179,057	0,060	0,001
-478,576	-200,000	-0,036	0,145
-477,562	-33,048	-0,107	0,042
-476,547	-189,216	-0,063	0,001
-475,532	-200,000	-0,004	0,094
-474,518	-200,000	0,002	0,026
-473,503	197,389	-0,044	0,048
-472,489	17,129	-0,133	0,076
-471,474	-200,000	-0,059	0,000
-470,459	243,874	-0,053	-0,063
-469,445	394,964	-0,064	0,096
-468,430	800,000	0,014	0,029
-467,416	-200,000	0,023	-0,091
-466,401	-126,939	0,129	0,013
-465,386	-163,910	0,070	-0,002
-464,372	-200,000	0,000	-0,047
-463,357	297,128	-0,023	0,030
-462,343	375,388	0,058	0,086
-461,328	800,000	-0,035	-0,089
-460,313	-81,533	0,090	0,021
-459,299	13,484	-0,031	0,017
-458,284	-200,000	0,011	0,078
-457,270	-11,359	-0,024	0,011
-456,255	336,704	-0,015	0,021
-455,241	163,859	0,038	-0,038
-454,226	-200,000	0,012	-0,044
-453,211	567,879	0,064	-0,111
-452,197	-200,000	0,028	0,169
-451,182	-200,000	0,005	0,124
-450,168	51,194	-0,083	-0,056
-449,153	800,000	0,037	0,098
-448,138	-200,000	-0,007	0,081
-447,124	-194,817	-0,064	-0,000
-446,109	92,573	0,082	-0,066
-445,095	-200,000	0,016	0,063
-444,080	-200,000	0,011	0,099
-443,065	-119,084	-0,047	-0,006
-442,051	-159,061	0,025	-0,001
-441,036	-37,692	-0,120	-0,046
-440,022	-98,292	-0,070	-0,013
-439,007	211,634	0,120	0,135
-437,992	87,552	-0,023	0,018
-436,978	114,744	0,145	0,127
-435,963	7,065	-0,041	0,022
-434,949	-72,781	-0,039	-0,010
-433,934	-96,007	-0,054	-0,010
-432,919	72,358	0,067	-0,050
-431,905	19,667	0,055	-0,032
-430,890	-200,000	-0,036	-0,128
-429,876	283,451	0,013	-0,016
-428,861	-150,763	0,026	0,001
-427,846	212,891	0,086	0,097
-426,832	209,292	0,031	-0,035
-425,817	800,000	-0,024	-0,071
-424,803	351,243	0,033	0,047
-423,788	419,457	0,047	0,072
-422,773	-65,055	0,143	0,041
-421,759	297,138	0,035	-0,046
-420,744	-29,158	-0,118	0,048
-419,730	800,000	0,020	-0,045
-418,715	-18,786	0,134	-0,060
-417,701	222,615	0,042	-0,049
-416,686	-158,328	0,065	0,003
-415,671	-21,090	-0,055	0,024
-414,657	800,000	0,030	-0,084
-413,642	-200,000	-0,034	0,112
-412,628	-25,724	-0,077	-0,033
-411,613	-170,017	0,129	0,003
-410,598	-47,890	-0,124	-0,043
-409,584	-200,000	-0,003	-0,044
-408,569	-200,000	0,009	0,083
-407,555	-32,846	-0,013	-0,005
-406,540	518,777	0,081	0,137
-405,525	37,573	-0,100	0,063
-404,511	-56,464	-0,085	-0,027
-403,496	22,800	-0,018	0,011
-402,482	-200,000	-0,016	0,083
-401,467	60,716	-0,087	0,062
-400,452	220,052	0,063	-0,072
-399,438	-25,911	-0,022	-0,009
-398,423	-200,000	0,014	-0,044
-397,409	-34,924	-0,046	0,018
-396,394	-200,000	0,039	-0,137
-395,379	800,000	0,047	0,132
-394,365	202,609	-0,022	0,024
-393,350	21,367	0,051	-0,030
-392,336	-200,000	-0,013	0,101
-391,321	-71,948	0,033	-0,009
-390,306	-200,000	0,027	-0,090
-389,292	0,686	0,026	-0,013
-388,277	-154,230	0,152	0,007
-387,263	33,151	0,037	-0,023
-386,248	770,476	0,029	0,057
-385,233	376,399	0,046	0,068
-384,219	-3,216	0,123	0,061
-383,204	-165,868	-0,112	-0,003
-382,190	-82,919	0,035	-0,008
-381,175	329,429	0,064	0,088
-380,160	698,889	0,057	0,108
-379,146	-51,311	-0,126	0,042
-378,131	605,925	-0,033	0,059
-377,117	726,322	-0,046	0,087
-376,102	39,529	0,053	-0,034
-375,088	224,014	-0,071	-0,082
-374,073	-25,849	-0,021	-0,009
-373,058	-13,217	-0,048	0,022
-372,044	43,411	-0,044	0,028
-371,029	96,975	-0,121	-0,099
-370,015	800,000	0,071	0,149
-369,000	-33,389	-0,014	0,005
-367,985	59,951	-0,113	0,080
-366,971	167,891	-0,063	0,064
-365,956	209,321	-0,060	0,067
-364,942	55,935	0,073	0,050
-363,927	-200,000	0,015	0,051
-362,912	-22,060	0,181	-0,078
-361,898	53,960	0,038	0,026
-360,883	166,554	-0,064	0,065
-359,869	-67,518	0,029	0,008
-358,854	77,279	0,052	-0,039
-357,839	-91,749	0,092	-0,018
-356,825	31,961	0,159	-0,098
-355,810	-130,714	0,095	0,009
-354,796	-200,000	-0,020	-0,127
-353,781	656,470	0,025	0,046
-352,766	168,508	-0,125	-0,127
-351,752	449,884	0,018	-0,028
-350,737	-200,000	0,035	0,178
-349,723	-200,000	-0,005	-0,052
-348,708	30,496	-0,010	0,006
-347,693	-200,000	-0,001	-0,085
-346,679	64,788	-0,066	-0,048
-345,664	-200,000	-0,034	-0,179
-344,650	275,196	-0,037	-0,047
-343,635	800,000	0,033	-0,099
-342,620	-15,042	-0,062	0,028
-341,606	-187,421	0,095	-0,001
-340,591	-134,891	-0,083	-0,007
-339,577	-77,321	0,035	-0,009
-338,562	452,557	0,062	0,098
-337,548	67,766	0,087	0,063
-336,533	-10,362	0,129	0,061
-335,518	106,183	0,175	0,148
-334,504	101,375	0,017	0,014
-333,489	-143,222	-0,015	-0,001
-332,475	-119,127	-0,089	-0,011
-331,460	-200,000	0,005	-0,040
-330,445	-118,190	-0,091	0,011
-329,431	233,905	0,040	0,047
-328,416	563,366	-0,047	0,082
-327,402	-200,000	-0,009	0,145
-326,387	-116,905	0,113	0,015
-325,372	-121,199	-0,062	-0,007
-324,358	68,915	-0,020	-0,015
-323,343	-200,000	0,016	-0,130
-322,329	137,722	0,082	0,077
-321,314	179,419	0,016	-0,017
-320,299	-84,397	-0,136	-0,030
-319,285	-200,000	0,012	0,112
-318,270	-135,665	0,055	-0,005
-317,256	-200,000	-0,042	-0,135
-316,241	797,456	0,013	0,026
-315,226	129,183	0,104	-0,095
-314,212	407,881	0,010	0,015
-313,197	-174,116	0,107	-0,002
-312,183	330,913	-0,046	0,063
-311,168	-200,000	-0,002	-0,119
-310,153	-34,935	-0,074	-0,029
-309,139	-76,763	0,057	0,014
-308,124	-43,828	0,165	-0,059
-307,110	-103,418	0,056	-0,009
-306,095	584,819	-0,050	0,089
-305,080	800,000	0,029	-0,084
-304,066	-102,488	-0,043	-0,007
-303,051	11,835	0,030	0,017
-302,037	217,989	0,046	-0,053
-301,022	3,303	0,112	-0,058
-300,008	-39,403	0,145	0,054
-298,993	-84,256	-0,041	0,009
-297,978	705,557	0,077	0,146
-296,964	486,791	0,027	-0,044
-295,949	244,335	0,058	-0,069
-294,935	393,885	-0,063	-0,094
-293,920	235,100	-0,042	-0,050
-292,905	-200,000	-0,018	0,156
-291,891	544,478	0,051	0,087
-290,876	643,084	0,046	-0,084
-289,862	-82,343	-0,126	-0,029
-288,847	800,000	0,021	-0,052
-287,832	229,911	0,101	-0,118
-286,818	-78,501	-0,182	0,044
-285,803	-200,000	-0,022	-0,096
-284,789	283,239	0,033	0,042
-283,774	800,000	-0,026	0,058
-282,759	-200,000	0,015	-0,078
-281,745	238,640	-0,049	-0,058
-280,730	-200,000	-0,017	-0,069
-279,716	13,587	-0,059	0,032
-278,701	-200,000	0,013	0,068
-277,686	-9,770	0,218	0,103
-276,672	-200,000	0,011	0,052
-275,657	71,481	-0,020	-0,014
-274,643	-48,460	-0,075	0,026
-273,628	46,813	-0,071	0,047
-272,613	286,501	0,029	-0,037
-271,599	22,002	0,138	0,080
-270,584	-200,000	-0,043	0,163
-269,570	800,000	-0,015	-0,047
-268,555	377,004	-0,042	-0,061
-267,540	309,287	-0,043	-0,058
-266,526	-112,058	-0,130	0,018
-265,511	800,000	-0,050	-0,146
-264,497	233,004	0,087	0,102
-263,482	-158,609	0,059	0,002
-262,467	800,000	-0,054	0,137
-261,453	529,360	0,079	0,134
-260,438	-200,000	-0,006	-0,030
-259,424	800,000	0,019	0,045
-258,409	-29,214	-0,083	-0,034
-257,395	16,995	0,139	0,078
-256,380	-119,480	-0,019	0,002
-255,365	-142,169	0,016	-0,001
-254,351	148,266	0,047	0,045
-253,336	33,504	-0,110	-0,068
-252,322	-38,209	0,046	-0,017
-251,307	-38,929	0,037	-0,014
-250,292	-31,860	0,062	-0,025
-249,278	266,369	0,086	0,107
-248,263	86,604	0,044	-0,035
-247,249	53,895	-0,021	-0,014
-246,234	186,741	-0,063	-0,067
-245,219	399,798	-0,060	-0,089
-244,205	-42,970	-0,102	0,037
-243,190	475,999	-0,070	-0,112
-242,176	800,000	0,011	0,032
-241,161	-142,629	0,061	0,004
-240,146	-130,262	-0,072	-0,007
-239,132	-200,000	0,015	-0,053
-238,117	156,128	-0,077	-0,076
-237,103	255,065	0,063	-0,077
-236,088	-200,000	0,007	-0,031
-235,073	12,919	0,071	0,039
-234,059	-43,801	-0,008	-0,003
-233,044	136,569	0,100	0,093
-232,030	-200,000	-0,007	0,041
-231,015	741,163	-0,015	-0,028
-230,000	81,877	0,105	-0,080
-228,986	800,000	0,033	-0,093
-227,971	279,825	0,054	0,069
-226,957	-200,000	0,010	0,032
-225,942	800,000	-0,015	0,033
-224,927	-31,142	-0,048	-0,019
-223,913	241,074	0,072	0,086
-222,898	800,000	-0,083	-0,184
-221,884	-200,000	0,001	0,063
-220,869	64,212	0,050	0,036
-219,855	14,033	-0,129	-0,071
-218,840	13,976	-0,148	0,082
-217,825	-200,000	-0,005	-0,110
-216,811	455,661	0,029	0,047
-215,796	122,991	-0,097	-0,087
-214,782	-200,000	-0,002	0,011
-213,767	800,000	-0,027	0,070
-212,752	-200,000	0,022	0,086
-211,738	800,000	-0,042	0,100
-210,723	277,864	0,076	-0,096
-209,709	-118,221	0,049	-0,006
-208,694	-200,000	0,003	-0,030
-207,679	24,929	0,080	0,047
-206,665	129,749	0,114	-0,103
-205,650	-200,000	0,013	-0,105
-204,636	-200,000	0,008	-0,052
-203,621	800,000	-0,019	0,049
-202,606	-12,352	-0,179	-0,083
-201,592	60,984	0,082	-0,058
-200,577	-89,118	-0,121	0,025
-199,563	65,051	-0,075	0,054
-198,548	46,374	0,105	0,069
-197,533	-200,000	0,015	-0,060
-196,519	55,596	-0,065	0,045
-195,504	-71,551	-0,061	-0,016
-194,490	800,000	-0,019	-0,049
-193,475	-120,202	0,107	-0,013
-192,460	-102,291	-0,063	-0,011
-191,446	97,053	-0,094	0,076
-190,431	161,810	-0,078	0,077
-189,417	-70,620	-0,006	0,002
-188,402	346,259	-0,095	-0,133
-187,387	800,000	-0,054	0,165
-186,373	-59,369	0,118	-0,036
-185,358	87,011	-0,022	0,017
-184,344	353,120	-0,101	0,143
-183,329	800,000	0,032	-0,078
-182,315	800,000	0,070	0,146
-181,300	-131,676	0,093	-0,009
-180,285	24,492	-0,067	-0,039
-179,271	86,885	0,030	0,023
-178,256	133,937	0,021	0,019
-177,242	40,067	0,093	0,059
-176,227	-200,000	0,021	0,078
-175,212	-51,997	-0,102	-0,034
-174,198	574,667	0,079	-0,137
-173,183	800,000	-0,035	-0,095
-172,169	800,000	-0,024	-0,056
-171,154	133,677	-0,072	-0,066
-170,139	-87,718	0,111	-0,024
-169,125	-97,276	-0,099	0,018
-168,110	800,000	-0,030	0,061
-167,096	-200,000	0,011	0,059
-166,081	-166,288	-0,139	0,004
-165,066	-18,038	-0,072	0,032
-164,052	484,838	-0,032	-0,053
-163,037	-200,000	0,005	-0,022
-162,023	90,815	0,040	0,032
-161,008	-200,000	-0,007	0,068
-159,993	800,000	-0,026	-0,067
-158,979	-160,736	-0,071	-0,003
-157,964	-200,000	-0,026	-0,091
-156,950	227,181	-0,034	-0,039
-155,935	-118,726	0,106	0,013
-154,920	544,068	-0,059	-0,100
-153,906	-76,442	0,049	-0,012
-152,891	-200,000	0,005	-0,065
-151,877	-93,884	-0,050	-0,010
-150,862	-200,000	0,014	-0,109
-149,847	-200,000	-0,002	-0,059
-148,833	-200,000	0,004	-0,088
-147,818	-142,947	0,153	-0,010
-146,804	800,000	-0,024	0,076
-145,789	-25,226	-0,056	0,023
-144,775	11,103	0,088	-0,048
-143,760	286,465	-0,105	-0,135
-142,745	28,178	-0,044	0,026
-141,731	12,766	-0,085	-0,046
-140,716	-93,643	-0,044	-0,008
-139,702	-200,000	0,024	0,107
-138,687	-30,843	0,066	0,026
-137,672	14,681	0,026	0,014
-136,658	269,381	0,043	-0,053
-135,643	800,000	-0,089	-0,221
-134,629	512,314	-0,062	-0,102
-133,614	159,604	-0,063	0,063
-132,599	-200,000	-0,011	0,108
-131,585	-86,415	0,061	-0,013
-130,570	95,656	-0,045	0,036
-129,556	316,202	0,015	-0,020
-128,541	300,000	-0,030	0,039
-127,526	-191,206	-0,064	-0,000
-126,512	-104,246	0,120	-0,020
-125,497	27,907	-0,052	0,031
-124,483	-192,850	0,100	0,001
-123,468	-200,000	0,013	-0,043
-122,453	14,861	-0,092	0,051
-121,439	800,000	0,076	0,185
-120,424	229,191	0,032	0,038
-119,410	-159,638	0,168	0,006
-118,395	-86,777	0,119	0,025
-117,380	-13,112	-0,010	0,005
-116,366	187,313	-0,058	-0,062
-115,351	-121,121	-0,057	0,007
-114,337	-73,417	-0,131	-0,034
-113,322	-200,000	0,016	-0,086
-112,307	-200,000	0,015	-0,071
-111,293	19,974	0,022	-0,012
-110,278	-200,000	0,029	0,121
-109,264	-200,000	-0,008	0,074
-108,249	306,438	0,039	0,051
-107,234	-200,000	-0,003	-0,067
-106,220	430,209	-0,081	-0,124
-105,205	800,000	0,015	0,043
-104,191	132,932	-0,098	0,090
-103,176	-200,000	-0,027	-0,090
-102,162	-200,000	0,032	0,133
-101,147	-131,387	-0,058	-0,005
-100,132	175,438	-0,038	0,039
-99,118	800,000	-0,032	-0,087
-98,103	-68,698	0,073	0,020
-97,089	-200,000	0,062	0,247
-96,074	671,335	-0,029	0,053
-95,059	396,762	0,029	0,043
-94,045	69,808	-0,070	0,051
-93,030	68,987	0,082	-0,060
-92,016	61,911	0,025	0,018
-91,001	-101,670	-0,124	0,021
-89,986	226,545	-0,093	0,106
-88,972	105,368	-0,055	-0,046
-87,957	-14,325	0,097	0,044
-86,943	102,466	0,023	0,019
-85,928	-5,848	0,034	-0,016
-84,913	101,781	0,082	0,068
-83,899	-69,290	0,027	-0,007
-82,884	-65,362	-0,062	-0,017
-81,870	477,580	0,073	0,118
-80,855	-200,000	0,063	0,225
-79,840	-200,000	0,017	-0,106
-78,826	27,217	0,106	-0,063
-77,811	800,000	-0,035	-0,079
-76,797	-100,750	-0,069	0,012
-75,782	-2,451	0,042	0,021
-74,767	76,833	0,039	0,030
-73,753	234,467	0,043	0,050
-72,738	800,000	-0,020	-0,060
-71,724	-200,000	-0,000	-0,058
-70,709	272,788	-0,070	-0,087
-69,694	-14,326	0,087	-0,039
-68,680	-114,799	-0,068	0,009
-67,665	431,671	0,123	0,190
-66,651	-200,000	-0,005	-0,060
-65,636	800,000	-0,034	-0,104
-64,622	-46,172	-0,127	-0,044
-63,607	438,395	0,035	-0,054
-62,592	-117,730	-0,170	-0,021
-61,578	134,234	-0,035	0,032
-60,563	62,772	0,078	0,055
-59,549	757,274	0,058	0,111
-58,534	31,281	-1,835	-1,110
-57,519	413,483	-1,349	-2,033
-56,505	-200,000	-0,332	-4,440
-55,490	381,810	0,909	1,323
-54,476	800,000	5,081	11,197
-53,461	-200,000	20,406	326,166
-52,446	800,000	751,657	2309,501
-51,432	550,126	1657,746	2818,111
-50,417	74,066	1663,680	1231,523
-49,403	19,287	1536,709	868,936
-48,388	13,264	1459,411	796,098
-47,373	18,735	1449,909	817,146
-46,359	16,135	1439,342	798,785
-45,344	11,535	1434,947	774,421
-44,330	11,431	1433,245	772,975
-43,315	11,481	1431,305	772,136
-42,300	11,467	1429,571	771,104
-41,286	11,437	1428,438	770,321
-40,271	11,409	1427,154	769,464
-39,257	11,426	1425,715	768,738
-38,242	11,456	1424,635	768,265
-37,227	11,474	1423,452	767,684
-36,213	11,477	1422,280	767,033
-35,198	11,446	1421,355	766,360
-34,184	11,574	1420,142	766,278
-33,169	11,449	1418,771	764,919
-32,154	11,498	1417,626	764,501
-31,140	11,524	1416,608	764,043
-30,125	11,565	1415,494	763,609
-29,111	11,550	1414,299	762,860
-28,096	11,510	1413,307	762,109
-27,082	11,469	1412,079	761,224
-26,067	11,455	1410,932	760,511
-25,052	11,500	1409,985	760,177
-24,038	11,459	1408,837	759,339
-23,023	11,390	1407,992	758,528
-22,009	11,440	1406,916	758,155
-20,994	11,417	1405,959	757,502
-19,979	11,446	1405,105	757,148
-18,965	11,415	1404,095	756,429
-17,950	11,421	1403,229	755,957
-16,936	11,426	1402,406	755,510
-15,921	11,323	1401,563	754,546
-14,906	11,354	1400,407	754,036
-13,892	11,381	1399,384	753,581
-12,877	11,355	1398,875	753,157
-11,863	11,345	1397,843	752,524
-10,848	11,328	1396,881	751,899
-9,833	11,291	1396,104	751,280
-8,819	11,255	1395,237	750,613
-7,804	11,242	1394,248	749,993
-6,790	11,236	1393,345	749,453
-5,775	11,269	1392,194	748,954
-4,760	11,295	1391,239	748,533
-3,746	11,256	1390,244	747,785
-2,731	11,228	1389,672	747,319
-1,717	11,225	1388,563	746,680
-0,702	11,228	1386,976	745,809
0,313	15,278	1301,842	718,584
1,327	31,584	695,120	420,882
2,342	48,822	121,053	80,007
3,356	0,135	16,448	8,247
4,371	-6,794	3,492	1,669
5,386	49,287	0,682	0,451
6,400	342,592	0,288	0,398
7,415	-24,101	-0,353	-0,148
8,429	241,846	-0,237	-0,280
9,444	-19,149	-0,297	-0,129
10,459	167,321	-0,281	-0,282
11,473	280,294	-0,196	-0,248
12,488	68,636	-0,284	-0,205
13,502	41,467	-0,337	-0,215
14,517	15,537	-0,306	-0,169
15,531	283,026	-0,228	-0,289
16,546	123,070	-0,320	-0,282
17,561	371,907	-0,211	-0,303
18,575	-46,808	-0,304	-0,104
19,590	-31,313	-0,215	-0,085
20,604	-21,436	-0,358	-0,153
21,619	70,247	-0,556	-0,404
22,634	79,373	-0,446	-0,337
23,648	364,621	-0,254	-0,361
24,663	107,463	-0,358	-0,300
25,677	144,706	-0,327	-0,308
26,692	83,127	-0,219	-0,168
27,707	-42,062	-0,464	-0,166
28,721	128,154	-0,240	-0,215
29,736	86,084	-0,404	-0,313
30,750	14,920	-0,394	-0,216
31,765	-8,805	-0,368	-0,173
32,780	102,774	-0,291	-0,239
33,794	65,666	-0,419	-0,298
34,809	55,192	-0,255	-0,173
35,823	218,988	-0,255	-0,288
36,838	10,832	-0,417	-0,223
37,853	66,912	-0,414	-0,296
38,867	90,626	-0,333	-0,262
39,882	-45,402	-0,528	-0,183
40,896	231,833	-0,137	-0,158
41,911	89,702	-0,261	-0,205
42,926	47,650	-0,384	-0,251
43,940	12,902	-0,256	-0,139
44,955	478,163	-0,298	-0,476
45,969	34,167	-0,442	-0,270
46,984	133,336	-0,189	-0,171
47,999	14,156	-0,300	-0,164
49,013	41,259	-0,339	-0,215
50,028	16,533	-0,269	-0,149
51,042	22,379	-0,298	-0,171
52,057	63,545	-0,389	-0,274
53,071	102,451	-0,371	-0,305
54,086	171,912	-0,241	-0,244
55,101	157,066	-0,188	-0,182
56,115	126,495	-0,285	-0,254
57,130	298,561	-0,272	-0,353
58,144	144,374	-0,380	-0,356
59,159	102,075	-0,257	-0,210
60,174	66,582	-0,338	-0,241
61,188	164,691	-0,346	-0,343
62,203	134,308	-0,299	-0,272
63,217	143,920	-0,261	-0,244
64,232	35,183	-0,279	-0,171
65,247	159,448	-0,325	-0,317
66,261	99,022	-0,311	-0,252
67,276	24,046	-0,349	-0,201
68,290	66,922	-0,253	-0,181
69,305	-33,393	-0,267	-0,103
70,320	173,626	-0,266	-0,269
71,334	228,779	-0,303	-0,347
72,349	-76,475	-0,306	-0,075
73,363	20,606	-0,369	-0,209
74,378	-5,255	-0,185	-0,089
75,393	109,651	-0,320	-0,269
76,407	128,700	-0,288	-0,257
77,422	-200,000	-0,050	-0,209
78,436	-4,723	-0,344	-0,166
79,451	6,653	-0,333	-0,173
80,466	-144,491	-0,283	-0,018
81,480	26,435	-0,300	-0,175
82,495	-145,098	-0,309	-0,019
83,509	-2,337	-0,314	-0,154
84,524	187,904	-0,140	-0,147
85,539	-0,656	-0,294	-0,146
86,553	-3,323	-0,328	-0,160
87,568	36,653	-0,182	-0,113
88,582	398,328	-0,238	-0,349
89,597	172,050	-0,185	-0,187
90,611	23,860	-0,200	-0,115
91,626	46,714	-0,147	-0,095
92,641	-56,491	-0,301	-0,093
93,655	-85,689	-0,253	-0,055
94,670	-23,793	-0,358	-0,149
95,684	21,678	-0,258	-0,146
96,699	210,311	-0,216	-0,238
97,714	722,436	-0,104	-0,195
98,728	163,402	-0,193	-0,190
99,743	-168,977	-0,273	0,007
100,757	109,019	-0,181	-0,152
101,772	66,538	-0,232	-0,165
102,787	4,832	-0,263	-0,135
103,801	66,140	-0,260	-0,185
104,816	38,128	-0,295	-0,184
105,830	81,553	-0,174	-0,132
106,845	-50,309	-0,234	-0,077
107,860	155,790	-0,216	-0,208
108,874	-131,451	-0,285	-0,026
109,889	112,670	-0,220	-0,186
110,903	480,552	-0,187	-0,297
111,918	16,002	-0,311	-0,171
112,933	114,088	-0,236	-0,201
113,947	-127,760	-0,241	0,024
114,962	-21,605	-0,298	-0,126
115,976	141,246	-0,142	-0,132
116,991	-33,298	-0,294	-0,113
118,006	29,423	-0,411	-0,244
119,020	-31,932	-0,313	-0,122
120,035	13,871	-0,261	-0,141
121,049	82,103	-0,163	-0,123
122,064	118,112	-0,288	-0,248
123,079	778,871	-0,132	-0,253
124,093	53,198	-0,235	-0,157
125,108	0,314	-0,266	-0,132
126,122	22,223	-0,389	-0,221
127,137	35,028	-0,252	-0,154
128,151	110,532	-0,199	-0,167
129,166	5,660	-0,208	0,107
130,181	114,372	-0,287	-0,244
131,195	1,347	-0,214	-0,107
132,210	74,198	-0,325	-0,238
133,224	103,806	-0,254	-0,208
134,239	50,938	-0,190	-0,125
135,254	555,309	-0,126	-0,212
136,268	46,187	-0,316	-0,204
137,283	-10,075	-0,227	-0,105
138,297	-142,246	-0,266	-0,018
139,312	133,130	-0,173	-0,156
140,327	59,428	-0,273	-0,187
141,341	-85,407	-0,253	0,055
142,356	-111,015	-0,192	-0,027
143,370	262,651	-0,076	-0,092
144,385	19,869	-0,234	-0,131
145,400	89,754	-0,295	-0,229
146,414	32,417	-0,301	-0,180
147,429	570,127	-0,139	-0,236
148,443	87,505	-0,204	-0,157
149,458	-131,883	-0,213	-0,019
150,473	77,136	-0,189	-0,140
151,487	130,324	-0,270	-0,241
152,502	-5,378	-0,209	-0,099
153,516	31,501	-0,261	-0,156
154,531	164,890	-0,265	-0,261
155,546	518,110	-0,165	-0,270
156,560	18,678	-0,192	-0,107
157,575	440,801	-0,173	-0,264
158,589	15,610	-0,342	-0,187
159,604	44,367	-0,332	-0,212
160,619	5,199	-0,361	-0,185
161,633	196,290	-0,199	-0,211
162,648	-40,322	-0,266	-0,096
163,662	7,212	-0,265	-0,137
164,677	-8,433	-0,321	-0,150
165,692	-35,909	-0,302	-0,113
166,706	67,567	-0,277	-0,197
167,721	-13,618	-0,295	-0,132
168,735	105,376	-0,250	-0,205
169,750	63,635	-0,247	-0,172
170,764	72,554	-0,248	-0,179
171,779	58,255	-0,189	-0,129
172,794	-60,118	-0,203	-0,060
173,808	23,340	-0,259	-0,148
174,823	79,035	-0,247	-0,184
175,837	47,857	-0,297	-0,192
176,852	20,480	-0,292	-0,164
177,867	-200,000	-0,062	-0,227
178,881	-79,313	-0,158	-0,037
179,896	460,873	-0,102	-0,159
180,910	-22,160	-0,219	-0,092
181,925	19,697	-0,132	-0,073
182,940	214,465	-0,219	-0,241
183,954	441,596	-0,172	-0,263
184,969	274,473	-0,100	-0,124
185,983	140,479	-0,109	-0,100
186,998	18,955	-0,177	-0,098
188,013	-84,798	-0,278	-0,060
189,027	138,434	-0,263	-0,240
190,042	155,552	-0,189	-0,181
191,056	143,799	-0,229	-0,212
192,071	-178,185	-0,282	0,005
193,086	78,356	-0,142	-0,105
194,100	41,927	-0,262	-0,164
195,115	13,558	-0,280	-0,151
196,129	-65,301	-0,255	-0,071
197,144	800,000	-0,076	-0,209
198,159	-124,918	-0,244	-0,026
199,173	378,357	-0,121	-0,172
200,188	-46,203	-0,186	0,063
201,202	65,375	-0,242	-0,170
202,217	9,553	-0,176	0,092
203,232	172,302	-0,172	-0,172
204,246	115,478	-0,227	-0,193
205,261	164,753	-0,203	-0,199
206,275	218,927	-0,168	-0,186
207,290	83,050	-0,184	-0,138
208,304	141,345	-0,139	-0,127
209,319	116,140	-0,167	-0,142
210,334	202,146	-0,174	-0,186
211,348	260,232	-0,169	-0,202
212,363	116,770	-0,223	-0,190
213,377	347,683	-0,191	-0,261
214,392	163,828	-0,162	-0,158
215,407	-183,432	-0,173	0,002
216,421	559,205	-0,097	-0,162
217,436	31,948	-0,169	-0,101
218,450	54,466	-0,225	-0,150
219,465	246,712	-0,119	-0,139
220,480	-200,000	0,070	-0,271
221,494	800,000	-0,074	-0,222
222,509	418,662	-0,154	-0,229
223,523	-30,878	-0,097	-0,038
224,538	-139,749	-0,247	0,018
225,553	-5,240	-0,207	-0,098
226,567	-6,524	-0,084	0,039
227,582	27,403	-0,308	-0,179
228,596	465,672	-0,201	-0,312
229,611	365,881	-0,128	-0,180
230,626	-69,934	-0,250	-0,065
231,640	244,858	-0,204	-0,237
232,655	-100,116	-0,290	-0,049
233,669	-15,400	-0,255	-0,112
234,684	-5,737	-0,256	-0,121
235,699	-77,814	-0,107	-0,025
236,713	163,705	0,054	-0,052
237,728	-133,038	-0,186	0,016
238,742	-155,574	-0,261	0,011
239,757	2,668	-0,146	0,073
240,772	321,405	-0,119	-0,157
241,786	558,711	-0,101	-0,168
242,801	251,902	-0,142	-0,167
243,815	190,696	-0,182	-0,190
244,830	-70,790	-0,126	-0,033
245,844	9,657	-0,048	-0,025
246,859	-72,707	-0,257	-0,065
247,874	-15,641	-0,319	-0,140
248,888	800,000	-0,060	-0,152
249,903	91,700	-0,140	-0,109
250,917	-147,169	-0,249	0,014
251,932	-139,541	-0,186	-0,014
252,947	800,000	-0,064	-0,168
253,961	491,468	-0,153	-0,243
254,976	310,952	-0,266	-0,345
255,990	346,089	-0,127	-0,173
257,005	290,032	-0,085	-0,106
258,020	288,241	-0,136	-0,171
259,034	-193,619	-0,231	-0,001
260,049	-165,791	-0,188	0,005
261,063	180,366	-0,113	-0,114
262,078	125,594	-0,194	-0,169
263,093	120,351	-0,244	-0,209
264,107	-42,189	-0,152	-0,053
265,122	64,859	-0,132	-0,092
266,136	78,674	-0,131	0,097
267,151	441,205	-0,121	-0,183
268,166	-39,539	-0,303	-0,109
269,180	666,007	-0,131	-0,234
270,195	-13,929	-0,203	-0,090
271,209	54,786	-0,082	0,054
272,224	-92,835	-0,071	-0,014
273,239	-39,525	-0,143	-0,051
274,253	-17,854	-0,099	-0,043
275,268	800,000	-0,066	-0,144
276,282	800,000	-0,102	-0,230
277,297	144,998	-0,273	-0,251
278,312	-200,000	0,040	-0,242
279,326	-32,893	-0,048	0,018
280,341	85,031	-0,061	-0,046
281,355	294,625	-0,141	-0,178
282,370	37,641	-0,251	-0,153
283,384	190,648	-0,153	-0,159
284,399	54,689	-0,101	-0,067
285,414	-9,992	-0,099	-0,045
286,428	169,635	-0,159	-0,156
287,443	85,057	-0,108	-0,081
288,457	133,874	-0,093	-0,083
289,472	-41,227	-0,155	-0,055
290,487	71,960	-0,224	-0,160
291,501	87,376	-0,116	-0,088
292,516	107,435	-0,197	-0,161
293,530	-200,000	0,044	-0,240
294,545	-167,504	-0,144	0,004
295,560	69,542	-0,078	-0,055
296,574	165,327	-0,065	-0,063
297,589	-38,754	-0,133	-0,048
298,603	-53,314	-0,180	-0,056
299,618	46,945	-0,172	-0,110
300,633	30,240	-0,145	-0,085
301,647	13,810	-0,139	-0,074
302,662	47,692	-0,103	-0,066
303,676	342,578	-0,028	-0,038
304,691	41,262	-0,170	-0,105
305,706	800,000	-0,085	-0,193
306,720	-36,388	-0,240	-0,088
307,735	-26,545	-0,203	-0,081
308,749	56,172	-0,200	-0,133
309,764	2,727	-0,169	-0,084
310,779	284,288	-0,149	-0,185
311,793	-192,933	-0,122	0,001
312,808	-41,314	-0,189	-0,066
313,822	-111,409	-0,173	-0,024
314,837	130,982	-0,202	-0,178
315,852	153,794	-0,176	0,166
316,866	-116,571	-0,177	0,022
317,881	301,586	-0,061	-0,078
318,895	-142,778	-0,162	0,011
319,910	25,633	-0,146	-0,083
320,925	13,329	-0,146	-0,077
321,939	-200,000	-0,050	-0,188
322,954	193,182	-0,093	-0,097
323,968	-59,176	-0,116	0,034
324,983	-146,480	-0,116	-0,007
325,997	-116,699	-0,125	0,016
327,012	-137,968	-0,152	0,011
328,027	800,000	-0,072	-0,165
329,041	142,482	-0,178	-0,162
330,056	-200,000	-0,001	-0,004
331,070	202,880	-0,049	-0,052
332,085	-200,000	-0,035	-0,185
333,100	466,979	-0,132	-0,203
334,114	651,062	-0,072	-0,127
335,129	128,732	-0,162	-0,142
336,143	78,661	-0,133	-0,098
337,158	-138,625	-0,161	-0,012
338,173	441,979	-0,057	-0,085
339,187	800,000	-0,103	-0,289
340,202	-47,824	-0,099	-0,033
341,216	66,294	-0,112	-0,078
342,231	-200,000	-0,005	-0,089
343,246	-24,480	-0,234	-0,095
344,260	-100,067	-0,138	-0,023
345,275	101,816	-0,057	-0,046
346,289	-160,608	-0,097	-0,003
347,304	10,719	-0,080	-0,042
348,319	81,950	-0,066	-0,049
349,333	26,267	-0,212	-0,121
350,348	-119,374	-0,305	-0,036
351,362	-99,094	-0,111	-0,019
352,377	800,000	-0,035	0,080
353,392	800,000	0,016	0,046
354,406	800,000	-0,089	-0,188
355,421	207,791	1309,230	1400,373
356,435	159,868	1469,272	1400,886
