DTS Sentinel unit serial number:	SN410029Multiplexer serial number:	ORYXHardware model number:	OX2-SRSoftware version number:	ORYX F/W v4,00 Oryx Data Collector v3.7.2.0data status	okinstallation	B3 Nyhavnadifferential loss correction	single-endedforward channel	channel 1reverse channel	N/Adate	2023/12/03time	17:32:30forward acquisition time	300,00reverse acquisition time	0,00gamma	499,1914k internal	0,3198k external	0,3198temperature offset calibration	1,0000default loss term (dB/km)	0,3820temperature slope calibration	1,0000multiplexer offset coefficient	1,0000multiplexer slope coefficient	1,0000fibre end	0,00T internal ref (°C)	14,91T ext. ref 1 (°C)	-0,54T ext. ref 2 (°C)	-0,55length (m)	temperature (°C)	Stokes	anti-Stokes-744,400	-9,338	-0,251	-0,122
-743,385	-200,000	0,000	0,288
-742,371	793,109	-0,200	-0,403
-741,356	-200,000	-0,036	0,185
-740,342	207,427	-0,168	-0,192
-739,327	-200,000	-0,025	0,367
-738,312	800,000	-0,123	-0,272
-737,298	800,000	-0,131	0,274
-736,283	59,131	-0,176	-0,126
-735,269	-200,000	-0,079	0,406
-734,254	256,825	-0,242	-0,303
-733,239	-58,062	-0,229	0,072
-732,225	41,886	-0,285	-0,188
-731,210	124,801	0,099	0,091
-730,196	-84,936	-0,183	0,041
-729,181	28,574	0,098	-0,060
-728,167	-200,000	0,006	-0,122
-727,152	800,000	-0,042	-0,100
-726,137	-19,807	-0,171	0,077
-725,123	-82,929	-0,125	-0,029
-724,108	123,429	-0,030	-0,028
-723,094	232,774	-0,028	0,033
-722,079	800,000	-0,021	0,046
-721,064	126,195	-0,022	0,020
-720,050	800,000	0,015	0,033
-719,035	-200,000	-0,020	0,125
-718,021	-200,000	0,001	-0,137
-717,006	179,208	0,014	-0,014
-715,991	122,203	0,052	-0,047
-714,977	312,758	-0,031	0,042
-713,962	-200,000	0,012	0,053
-712,948	-200,000	-0,018	0,138
-711,933	-200,000	0,021	0,100
-710,918	-100,634	0,050	-0,009
-709,904	-73,291	-0,161	-0,043
-708,889	-200,000	0,007	-0,083
-707,875	-67,867	-0,121	0,034
-706,860	-87,453	0,059	-0,013
-705,845	543,663	-0,027	0,047
-704,831	-7,485	-0,083	-0,041
-703,816	666,129	0,059	0,111
-702,802	-200,000	0,003	-0,148
-701,787	800,000	-0,029	-0,079
-700,772	211,311	-0,078	0,089
-699,758	549,518	0,024	-0,041
-698,743	800,000	-0,057	-0,159
-697,729	800,000	-0,036	-0,073
-696,714	-46,319	-0,051	0,018
-695,699	491,833	0,019	-0,032
-694,685	800,000	-0,035	-0,111
-693,670	-200,000	-0,021	-0,156
-692,656	-45,688	-0,105	-0,038
-691,641	800,000	-0,017	0,051
-690,627	-200,000	0,014	0,089
-689,612	800,000	-0,021	0,066
-688,597	-151,911	-0,034	-0,002
-687,583	270,057	0,075	-0,096
-686,568	-136,795	-0,079	0,007
-685,554	70,747	-0,063	-0,047
-684,539	800,000	0,051	0,113
-683,524	-200,000	0,035	0,174
-682,510	-174,809	0,090	0,002
-681,495	578,615	0,054	-0,096
-680,481	-200,000	-0,004	-0,204
-679,466	76,041	-0,040	0,031
-678,451	800,000	-0,026	-0,064
-677,437	289,100	0,039	-0,052
-676,422	8,771	-0,069	0,038
-675,408	-200,000	-0,015	0,091
-674,393	-200,000	-0,008	0,055
-673,378	256,078	-0,076	0,095
-672,364	-91,593	-0,123	0,025
-671,349	230,684	-0,084	-0,100
-670,335	800,000	0,025	0,069
-669,320	-24,223	-0,050	-0,021
-668,305	106,177	0,087	0,075
-667,291	-200,000	0,011	-0,097
-666,276	-148,990	-0,118	0,007
-665,262	-200,000	0,038	-0,132
-664,247	83,178	-0,042	-0,033
-663,232	-200,000	-0,048	-0,183
-662,218	-131,571	-0,067	-0,006
-661,203	14,956	0,084	-0,048
-660,189	212,857	0,093	0,107
-659,174	-200,000	-0,009	-0,066
-658,159	-27,243	-0,153	-0,065
-657,145	-74,492	-0,097	0,025
-656,130	9,122	0,066	-0,036
-655,116	-200,000	-0,029	-0,136
-654,101	-142,418	0,078	0,005
-653,086	-98,830	-0,196	-0,036
-652,072	-73,396	0,193	-0,051
-651,057	-131,236	-0,260	-0,025
-650,043	-200,000	0,029	-0,114
-649,028	-108,062	-0,062	-0,010
-648,014	597,105	0,014	-0,026
-646,999	-62,438	0,048	0,015
-645,984	-200,000	-0,012	0,053
-644,970	800,000	-0,032	-0,074
-643,955	-200,000	0,000	-0,032
-642,941	-200,000	-0,015	-0,093
-641,926	-61,866	-0,082	0,025
-640,911	209,889	-0,111	0,126
-639,897	-66,383	0,087	0,025
-638,882	132,910	0,048	-0,045
-637,868	-200,000	0,002	-0,141
-636,853	800,000	0,039	-0,106
-635,838	800,000	-0,061	-0,146
-634,824	800,000	-0,029	-0,074
-633,809	-26,331	0,037	-0,016
-632,795	330,942	-0,091	0,127
-631,780	115,332	0,066	-0,058
-630,765	-32,554	0,125	0,050
-629,751	242,050	-0,065	-0,079
-628,736	52,701	-0,063	-0,043
-627,722	800,000	-0,036	0,078
-626,707	103,616	0,084	0,071
-625,692	265,942	0,062	0,078
-624,678	-94,980	-0,009	-0,002
-623,663	-27,903	0,031	-0,013
-622,649	-0,510	-0,170	-0,087
-621,634	-109,550	-0,108	0,016
-620,619	800,000	-0,065	0,156
-619,605	219,890	0,049	0,057
-618,590	800,000	-0,040	0,093
-617,576	-47,440	0,055	0,019
-616,561	-200,000	-0,033	0,246
-615,546	-136,961	-0,114	0,009
-614,532	48,353	-0,067	-0,045
-613,517	-200,000	-0,006	-0,039
-612,503	49,711	0,081	0,055
-611,488	115,045	0,077	0,068
-610,474	-164,037	0,028	-0,001
-609,459	800,000	-0,050	-0,115
-608,444	719,479	-0,049	-0,094
-607,430	-200,000	0,007	-0,065
-606,415	-200,000	-0,041	-0,133
-605,401	93,673	0,116	-0,095
-604,386	61,554	0,109	-0,079
-603,371	800,000	-0,010	0,024
-602,357	130,354	-0,003	0,003
-601,342	137,736	0,047	0,045
-600,328	-31,324	-0,047	-0,019
-599,313	-200,000	-0,008	0,084
-598,298	18,775	-0,021	-0,012
-597,284	-122,009	-0,021	0,002
-596,269	-112,833	0,032	-0,005
-595,255	133,353	-0,073	0,068
-594,240	-159,470	-0,064	0,003
-593,225	800,000	-0,020	-0,058
-592,211	-200,000	-0,005	-0,024
-591,196	139,073	0,062	-0,059
-590,182	429,476	0,032	0,050
-589,167	69,144	0,060	-0,045
-588,152	-200,000	0,002	-0,123
-587,138	133,542	-0,144	-0,135
-586,123	462,616	-0,048	-0,078
-585,109	-31,166	-0,102	-0,042
-584,094	-200,000	-0,046	0,162
-583,079	259,789	0,054	0,068
-582,065	-200,000	-0,001	-0,065
-581,050	-27,552	0,047	0,020
-580,036	800,000	-0,048	-0,131
-579,021	-2,062	-0,113	0,057
-578,006	74,930	-0,103	0,078
-576,992	-164,176	0,252	-0,008
-575,977	-200,000	0,000	0,022
-574,963	-200,000	0,000	-0,004
-573,948	234,355	0,133	0,159
-572,934	9,342	-0,108	0,059
-571,919	-28,368	-0,250	0,104
-570,904	800,000	-0,015	-0,046
-569,890	-200,000	-0,007	-0,050
-568,875	34,432	0,106	0,067
-567,861	-86,194	0,085	-0,019
-566,846	-197,629	0,117	0,001
-565,831	800,000	-0,029	0,061
-564,817	800,000	-0,061	-0,153
-563,802	7,857	-0,086	-0,046
-562,788	520,951	-0,047	0,080
-561,773	301,012	-0,026	0,035
-560,758	276,097	0,045	0,058
-559,744	-9,221	0,093	0,045
-558,729	401,472	0,017	-0,026
-557,715	8,518	0,007	-0,004
-556,700	698,989	-0,042	-0,080
-555,685	-200,000	-0,010	-0,085
-554,671	228,359	-0,117	0,139
-553,656	-200,000	0,006	-0,066
-552,642	583,179	-0,050	-0,090
-551,627	233,949	0,029	-0,034
-550,612	-200,000	-0,012	-0,082
-549,598	119,089	-0,055	-0,050
-548,583	-200,000	-0,001	0,053
-547,569	27,256	-0,076	-0,046
-546,554	-67,759	-0,098	0,027
-545,539	800,000	-0,045	0,109
-544,525	-90,163	-0,227	0,047
-543,510	73,745	0,141	-0,107
-542,496	424,666	-0,127	-0,197
-541,481	129,151	-0,004	0,004
-540,466	800,000	-0,026	0,055
-539,452	-1,480	0,029	0,015
-538,437	-200,000	0,007	0,075
-537,423	681,012	0,011	0,020
-536,408	59,933	0,057	0,041
-535,393	-69,920	-0,136	0,037
-534,379	-91,454	-0,059	-0,012
-533,364	800,000	0,055	-0,158
-532,350	800,000	-0,047	0,126
-531,335	-89,884	-0,103	0,022
-530,321	-111,748	0,074	0,011
-529,306	-200,000	0,026	-0,109
-528,291	800,000	-0,019	0,052
-527,277	800,000	-0,018	-0,049
-526,262	35,668	-0,038	0,024
-525,248	382,161	-0,047	-0,070
-524,233	-200,000	-0,034	0,115
-523,218	118,847	-0,033	-0,029
-522,204	90,195	0,052	-0,042
-521,189	63,694	0,023	0,017
-520,175	81,918	0,126	0,098
-519,160	800,000	0,060	-0,141
-518,145	800,000	-0,044	0,117
-517,131	-200,000	0,002	0,009
-516,116	16,518	0,054	0,031
-515,102	571,623	0,104	0,183
-514,087	-200,000	-0,023	-0,089
-513,072	239,573	-0,063	-0,076
-512,058	-18,340	0,081	-0,036
-511,043	-167,487	-0,017	-0,000
-510,029	153,198	0,031	0,031
-509,014	-129,635	0,096	0,009
-507,999	-91,731	-0,123	0,025
-506,985	248,047	-0,062	0,076
-505,970	800,000	0,015	-0,048
-504,956	-35,179	-0,075	-0,029
-503,941	74,116	0,129	0,097
-502,926	470,774	-0,057	0,093
-501,912	-200,000	-0,007	-0,025
-500,897	216,996	-0,069	0,079
-499,883	269,463	0,021	0,027
-498,868	-66,954	-0,056	0,016
-497,853	800,000	-0,050	-0,122
-496,839	800,000	-0,021	-0,055
-495,824	-81,538	-0,059	0,014
-494,810	22,194	0,140	0,082
-493,795	488,025	0,051	0,085
-492,781	800,000	-0,052	0,115
-491,766	-75,272	0,146	-0,037
-490,751	-59,807	0,020	-0,006
-489,737	225,032	0,006	0,007
-488,722	800,000	0,012	0,038
-487,708	248,149	-0,052	0,064
-486,693	-140,933	-0,115	-0,008
-485,678	-109,060	-0,093	-0,014
-484,664	185,070	-0,053	-0,056
-483,649	-200,000	0,003	0,104
-482,635	-125,863	0,025	0,003
-481,620	-200,000	-0,029	0,123
-480,605	-119,760	0,032	0,004
-479,591	748,818	-0,054	0,105
-478,576	95,748	0,078	0,064
-477,562	800,000	-0,072	-0,179
-476,547	800,000	0,021	-0,061
-475,532	406,618	0,030	0,047
-474,518	461,389	0,088	0,141
-473,503	800,000	-0,020	-0,057
-472,489	408,700	0,038	0,058
-471,474	47,913	-0,102	0,069
-470,459	-90,415	-0,192	-0,040
-469,445	-108,171	-0,152	0,024
-468,430	307,077	-0,042	-0,056
-467,416	800,000	-0,058	0,148
-466,401	800,000	-0,026	-0,064
-465,386	800,000	-0,030	0,093
-464,372	-66,920	-0,027	-0,008
-463,357	-94,675	0,062	-0,012
-462,343	315,637	-0,080	-0,108
-461,328	-170,732	-0,101	0,002
-460,313	37,599	0,059	0,037
-459,299	-7,422	0,079	0,038
-458,284	-13,291	0,073	-0,034
-457,270	145,248	-0,094	-0,091
-456,255	19,549	0,095	-0,055
-455,241	203,385	-0,128	-0,143
-454,226	210,557	-0,047	0,053
-453,211	141,840	0,047	-0,045
-452,197	102,930	-0,087	-0,073
-451,182	-200,000	0,007	0,046
-450,168	-199,726	-0,078	-0,000
-449,153	800,000	-0,023	0,051
-448,138	20,139	-0,114	-0,066
-447,124	18,564	-0,109	0,062
-446,109	-200,000	0,008	0,046
-445,095	-146,963	-0,109	-0,007
-444,080	-25,152	-0,073	0,031
-443,065	40,341	0,082	-0,053
-442,051	16,385	-0,090	0,051
-441,036	-200,000	0,026	-0,103
-440,022	389,831	-0,035	-0,053
-439,007	171,972	0,025	-0,026
-437,992	-101,452	0,094	-0,016
-436,978	-200,000	0,031	0,000
-435,963	215,800	-0,077	0,088
-434,949	83,285	-0,057	0,045
-433,934	660,565	-0,036	0,066
-432,919	159,656	-0,029	-0,029
-431,905	-182,318	0,070	0,001
-430,890	-200,000	0,028	0,088
-429,876	170,106	0,079	0,082
-428,861	800,000	-0,020	0,045
-427,846	-23,382	0,072	-0,031
-426,832	-200,000	0,003	-0,039
-425,817	173,446	0,022	-0,023
-424,803	108,604	0,069	-0,060
-423,788	-78,910	0,099	0,024
-422,773	119,728	0,058	0,052
-421,759	-200,000	0,006	0,077
-420,744	-200,000	-0,000	0,124
-419,730	-200,000	-0,005	-0,050
-418,715	329,984	0,007	0,009
-417,701	800,000	-0,038	-0,081
-416,686	-149,580	0,138	-0,008
-415,671	-200,000	0,002	-0,041
-414,657	51,062	0,172	0,117
-413,642	-115,274	0,056	-0,008
-412,628	473,914	0,038	-0,063
-411,613	-61,955	-0,079	-0,024
-410,598	264,560	0,038	-0,048
-409,584	-200,000	0,005	-0,118
-408,569	800,000	0,029	0,064
-407,555	87,986	-0,036	-0,029
-406,540	-100,447	0,081	0,014
-405,525	471,206	0,082	-0,133
-404,511	389,662	-0,006	-0,009
-403,496	18,753	-0,022	0,012
-402,482	151,320	0,073	0,071
-401,467	-96,799	-0,041	-0,008
-400,452	-200,000	-0,032	0,136
-399,438	800,000	0,043	-0,104
-398,423	-112,861	-0,056	-0,008
-397,409	38,025	-0,104	0,066
-396,394	-200,000	-0,016	-0,139
-395,379	-52,566	0,093	-0,031
-394,365	-200,000	-0,003	0,117
-393,350	-200,000	0,026	0,157
-392,336	-105,506	-0,081	-0,013
-391,321	172,729	-0,081	0,084
-390,306	322,234	0,095	-0,130
-389,292	354,830	0,045	0,065
-388,277	-200,000	0,030	-0,126
-387,263	77,484	0,105	-0,081
-386,248	-26,273	0,141	-0,059
-385,233	-8,159	0,074	0,035
-384,219	278,126	-0,027	0,035
-383,204	800,000	0,057	-0,130
-382,190	800,000	0,037	0,099
-381,175	-200,000	0,020	0,067
-380,160	159,920	0,077	0,077
-379,146	95,584	0,118	-0,096
-378,131	800,000	-0,011	-0,029
-377,117	-200,000	-0,003	0,060
-376,102	-43,583	-0,010	-0,003
-375,088	-153,394	-0,142	0,007
-374,073	-73,824	0,095	0,025
-373,058	-29,870	0,107	0,043
-372,044	800,000	0,034	0,076
-371,029	121,730	0,035	-0,031
-370,015	800,000	-0,055	-0,135
-369,000	800,000	0,008	-0,018
-367,985	800,000	-0,036	0,073
-366,971	-61,796	-0,145	0,043
-365,956	-200,000	0,010	-0,060
-364,942	-115,235	-0,100	0,013
-363,927	-200,000	0,023	0,146
-362,912	-56,290	-0,151	0,048
-361,898	-92,162	-0,069	0,014
-360,883	-22,610	0,134	-0,058
-359,869	-200,000	-0,006	-0,115
-358,854	-33,812	-0,040	0,016
-357,839	-186,704	-0,062	0,001
-356,825	4,944	0,055	0,029
-355,810	117,948	-0,092	-0,081
-354,796	77,830	-0,069	-0,053
-353,781	148,340	-0,042	0,040
-352,766	283,086	-0,080	-0,104
-351,752	130,955	-0,081	-0,074
-350,737	92,654	0,028	0,023
-349,723	-59,760	0,100	-0,030
-348,708	-200,000	-0,001	0,022
-347,693	54,830	-0,159	0,110
-346,679	-200,000	-0,004	-0,077
-345,664	152,988	-0,126	-0,123
-344,650	71,320	-0,053	0,040
-343,635	709,693	0,090	0,171
-342,620	689,929	-0,077	0,144
-341,606	90,650	0,063	0,050
-340,591	-200,000	0,002	-0,033
-339,577	93,972	-0,091	-0,074
-338,562	-87,598	0,058	0,012
-337,548	-200,000	-0,009	-0,032
-336,533	800,000	0,045	0,134
-335,518	89,398	0,118	0,094
-334,504	-200,000	-0,002	-0,018
-333,489	-72,536	0,065	0,017
-332,475	293,038	-0,057	-0,075
-331,460	-192,565	0,145	0,001
-330,445	240,428	0,071	-0,085
-329,431	388,537	0,029	-0,044
-328,416	800,000	0,049	0,103
-327,402	-200,000	0,007	-0,097
-326,387	-70,810	-0,052	-0,014
-325,372	-200,000	0,053	0,177
-324,358	-146,125	0,065	0,004
-323,343	136,807	-0,009	0,008
-322,329	-200,000	0,055	0,205
-321,314	800,000	0,024	0,057
-320,299	-134,339	0,100	0,009
-319,285	429,959	-0,019	-0,030
-318,270	45,144	0,081	-0,053
-317,256	-200,000	0,013	-0,227
-316,241	-28,721	-0,087	0,036
-315,226	272,968	0,072	0,091
-314,212	413,266	0,026	-0,039
-313,197	-150,111	-0,052	-0,003
-312,183	389,858	0,033	-0,049
-311,168	214,531	-0,094	-0,106
-310,153	-200,000	0,001	-0,162
-309,139	800,000	0,038	-0,083
-308,124	90,144	0,047	0,037
-307,110	-200,000	0,006	0,141
-306,095	104,532	0,093	0,079
-305,080	102,000	-0,073	0,061
-304,066	-200,000	0,022	0,117
-303,051	-200,000	-0,006	-0,103
-302,037	-139,013	-0,078	0,006
-301,022	800,000	-0,020	-0,047
-300,008	800,000	-0,044	0,114
-298,993	-2,891	0,129	-0,064
-297,978	20,075	-0,088	-0,050
-296,964	37,482	0,080	-0,051
-295,949	-105,793	-0,158	0,025
-294,935	-114,916	0,062	-0,008
-293,920	-200,000	-0,009	-0,141
-292,905	-27,370	0,142	0,059
-291,891	182,730	-0,027	0,029
-290,876	-153,673	-0,094	-0,005
-289,862	254,499	0,058	-0,071
-288,847	-79,645	0,080	0,019
-287,832	55,326	-0,077	0,054
-286,818	-200,000	0,002	0,011
-285,803	-126,893	0,048	-0,005
-284,789	800,000	0,047	-0,123
-283,774	-200,000	0,001	0,141
-282,759	94,971	-0,060	-0,049
-281,745	-200,000	-0,018	-0,064
-280,730	512,623	-0,058	0,097
-279,716	-37,487	-0,032	0,012
-278,701	-162,276	-0,023	-0,001
-277,686	-9,427	-0,033	-0,016
-276,672	-9,691	0,067	-0,032
-275,657	321,647	0,032	-0,044
-274,643	-200,000	0,041	-0,132
-273,628	-200,000	0,005	-0,131
-272,613	156,395	0,105	0,103
-271,599	-98,588	0,172	0,031
-270,584	800,000	0,055	0,123
-269,570	-174,728	-0,112	-0,002
-268,555	12,588	-0,068	0,037
-267,540	-25,710	-0,044	-0,019
-266,526	-53,064	-0,047	0,015
-265,511	-160,263	0,167	-0,006
-264,497	-74,992	-0,091	-0,023
-263,482	-200,000	0,007	0,077
-262,467	-80,565	0,052	-0,012
-261,453	-200,000	0,004	-0,076
-260,438	348,038	-0,059	-0,084
-259,424	800,000	0,003	-0,010
-258,409	800,000	0,030	0,068
-257,395	-200,000	-0,016	0,071
-256,380	-200,000	-0,005	0,086
-255,365	-116,661	0,133	0,017
-254,351	122,238	0,046	0,041
-253,336	195,310	-0,039	0,042
-252,322	103,586	0,039	-0,032
-251,307	-88,276	0,128	-0,027
-250,292	21,908	-0,032	0,019
-249,278	4,326	0,058	0,030
-248,263	-200,000	-0,006	-0,083
-247,249	-200,000	-0,012	-0,067
-246,234	-200,000	-0,000	0,047
-245,219	17,923	0,052	-0,029
-244,205	777,677	-0,039	-0,076
-243,190	-200,000	-0,007	-0,076
-242,176	72,296	0,034	0,025
-241,161	250,225	0,026	0,031
-240,146	32,575	-0,075	-0,046
-239,132	800,000	0,049	-0,127
-238,117	9,071	-0,102	-0,055
-237,103	135,070	-0,038	-0,036
-236,088	-110,950	-0,073	0,011
-235,073	407,792	0,027	-0,041
-234,059	37,099	0,106	0,067
-233,044	151,447	0,071	0,069
-232,030	-72,158	0,070	-0,018
-231,015	-200,000	0,024	-0,160
-230,000	224,998	-0,071	-0,083
-228,986	-151,314	0,042	-0,002
-227,971	471,812	-0,039	0,062
-226,957	7,281	0,015	-0,008
-225,942	800,000	0,039	0,092
-224,927	800,000	0,018	-0,039
-223,913	-4,774	-0,102	0,050
-222,898	-25,059	-0,069	0,029
-221,884	16,389	-0,057	0,032
-220,869	800,000	0,019	0,058
-219,855	-8,698	0,095	0,045
-218,840	-200,000	0,003	-0,054
-217,825	-200,000	-0,018	-0,095
-216,811	47,785	-0,051	-0,034
-215,796	637,122	-0,051	0,093
-214,782	-16,222	-0,023	-0,011
-213,767	800,000	-0,004	0,009
-212,752	194,507	0,098	0,106
-211,738	67,875	-0,119	-0,087
-210,723	-200,000	0,007	0,051
-209,709	800,000	-0,006	-0,013
-208,694	-4,633	0,054	-0,027
-207,679	-200,000	-0,004	0,052
-206,665	800,000	0,043	0,084
-205,650	-55,511	-0,016	0,005
-204,636	88,125	0,049	0,038
-203,621	45,196	-0,046	-0,030
-202,606	-200,000	0,042	-0,167
-201,592	-12,954	-0,029	-0,013
-200,577	-81,283	-0,059	0,014
-199,563	113,905	0,039	0,034
-198,548	11,753	0,040	0,022
-197,533	-79,545	0,172	0,041
-196,519	-52,175	0,094	0,031
-195,504	336,093	-0,010	0,014
-194,490	173,609	0,070	-0,072
-193,475	416,926	-0,063	-0,096
-192,460	311,814	0,051	0,069
-191,446	154,767	0,095	-0,093
-190,431	107,249	0,083	0,071
-189,417	19,433	0,087	0,050
-188,402	-177,733	0,049	-0,001
-187,387	-55,838	-0,115	-0,036
-186,373	-200,000	-0,030	-0,104
-185,358	-61,350	-0,090	-0,027
-184,344	175,816	-0,010	0,010
-183,329	179,039	0,041	-0,043
-182,315	-200,000	0,003	0,017
-181,300	-200,000	0,005	-0,048
-180,285	107,890	0,029	-0,024
-179,271	-9,385	-0,126	-0,060
-178,256	300,592	-0,059	0,078
-177,242	685,331	0,042	-0,078
-176,227	187,187	-0,030	0,031
-175,212	38,251	0,131	-0,083
-174,198	-200,000	-0,009	0,029
-173,183	-79,494	0,026	-0,006
-172,169	800,000	-0,056	0,131
-171,154	42,438	-0,135	-0,087
-170,139	-200,000	-0,007	-0,035
-169,125	63,044	0,116	-0,082
-168,110	-200,000	-0,026	0,098
-167,096	358,410	0,033	0,047
-166,081	-152,992	0,194	-0,010
-165,066	329,650	0,056	-0,077
-164,052	300,487	-0,080	-0,105
-163,037	-27,190	0,155	0,064
-162,023	-154,371	0,130	-0,006
-161,008	133,166	-0,040	0,037
-159,993	57,337	-0,069	0,048
-158,979	-22,329	0,042	0,018
-157,964	286,290	-0,079	0,102
-156,950	-200,000	0,002	-0,151
-155,935	-64,087	0,037	0,011
-154,920	-200,000	0,009	0,104
-153,906	7,219	0,052	0,027
-152,891	-200,000	-0,014	-0,055
-151,877	582,942	-0,059	-0,103
-150,862	-1,657	-0,102	-0,051
-149,847	800,000	0,024	-0,051
-148,833	133,089	-0,044	0,041
-147,818	800,000	0,065	-0,139
-146,804	116,272	-0,042	0,037
-145,789	-16,260	-0,027	-0,012
-144,775	-200,000	0,014	0,060
-143,760	-51,361	-0,201	0,066
-142,745	-200,000	0,012	-0,074
-141,731	800,000	-0,062	0,131
-140,716	-99,958	0,177	0,031
-139,702	800,000	-0,038	0,110
-138,687	-200,000	0,030	0,143
-137,672	121,109	-0,102	0,090
-136,658	-171,195	-0,071	-0,002
-135,643	-200,000	-0,032	-0,122
-134,629	-10,281	-0,015	-0,007
-133,614	81,234	-0,157	-0,121
-132,599	-200,000	-0,009	0,134
-131,585	571,703	-0,032	0,055
-130,570	-200,000	-0,022	0,123
-129,556	101,281	0,038	0,032
-128,541	800,000	-0,028	-0,058
-127,526	-160,807	0,145	-0,005
-126,512	77,366	-0,017	0,013
-125,497	110,480	0,031	0,026
-124,483	-42,277	-0,044	0,016
-123,468	502,432	-0,029	0,048
-122,453	359,633	-0,101	-0,144
-121,439	400,913	0,090	-0,135
-120,424	-50,742	0,168	0,056
-119,410	-5,253	-0,057	-0,028
-118,395	-131,502	0,032	0,003
-117,380	-180,556	0,125	-0,002
-116,366	202,000	-0,130	-0,143
-115,351	800,000	0,020	-0,041
-114,337	247,523	-0,063	0,076
-113,322	800,000	-0,026	0,063
-112,307	-200,000	-0,009	0,082
-111,293	164,177	-0,094	0,094
-110,278	100,538	-0,087	0,072
-109,264	800,000	-0,039	0,099
-108,249	-77,449	0,089	-0,022
-107,234	-108,404	-0,048	0,007
-106,220	-162,665	-0,039	-0,001
-105,205	271,516	0,016	0,020
-104,191	312,912	0,010	0,014
-103,176	13,816	0,116	-0,064
-102,162	418,025	-0,059	-0,090
-101,147	16,997	0,087	-0,049
-100,132	257,402	-0,076	-0,093
-99,118	16,669	-0,049	-0,028
-98,103	800,000	0,033	0,087
-97,089	10,334	0,067	0,036
-96,074	216,189	-0,115	0,130
-95,059	-94,018	0,047	-0,009
-94,045	-22,128	0,081	-0,035
-93,030	800,000	0,033	-0,073
-92,016	63,093	-0,155	-0,110
-91,001	-0,266	-0,048	0,024
-89,986	-200,000	-0,016	0,062
-88,972	800,000	0,034	0,088
-87,957	10,619	-0,121	0,065
-86,943	203,361	-0,096	-0,106
-85,928	137,898	0,057	-0,053
-84,913	57,332	-0,080	0,056
-83,899	-81,923	-0,103	0,024
-82,884	-200,000	0,001	0,005
-81,870	465,037	0,079	-0,126
-80,855	-200,000	-0,004	0,072
-79,840	800,000	0,002	-0,006
-78,826	-200,000	0,016	0,059
-77,811	800,000	-0,061	-0,126
-76,797	58,895	0,140	-0,097
-75,782	-200,000	0,014	0,079
-74,767	-25,961	0,052	0,022
-73,753	-125,256	-0,170	-0,018
-72,738	-82,505	0,124	-0,028
-71,724	-173,212	-0,141	0,003
-70,709	800,000	-0,025	0,072
-69,694	31,389	0,064	-0,039
-68,680	-32,662	-0,077	-0,030
-67,665	149,523	-0,017	0,016
-66,651	548,853	0,020	0,034
-65,636	-60,665	-0,126	-0,038
-64,622	-89,658	-0,069	-0,014
-63,607	-200,000	-0,007	0,118
-62,592	-200,000	-0,009	0,071
-61,578	71,096	0,105	0,077
-60,563	-8,322	0,086	-0,041
-59,549	800,000	-0,062	0,174
-58,534	-56,495	-1,503	-0,470
-57,519	386,315	-1,458	-2,140
-56,505	-200,000	-0,549	-4,496
-55,490	179,577	1,095	1,137
-54,476	800,000	4,809	10,951
-53,461	-200,000	18,241	290,545
-52,446	800,000	728,441	2238,981
-51,432	557,419	1644,673	2820,681
-50,417	79,177	1665,991	1263,645
-49,403	22,802	1539,540	891,487
-48,388	16,757	1462,898	817,797
-47,373	17,890	1452,765	817,564
-46,359	17,208	1443,228	808,900
-45,344	15,039	1438,466	795,831
-44,330	14,969	1436,489	794,373
-43,315	14,971	1434,801	793,419
-42,300	14,963	1433,287	792,511
-41,286	14,992	1432,249	792,044
-40,271	14,974	1430,928	791,196
-39,257	14,962	1429,558	790,347
-38,242	14,983	1428,406	789,781
-37,227	14,991	1426,981	789,000
-36,213	14,982	1425,839	788,295
-35,198	15,018	1424,569	787,731
-34,184	15,021	1423,660	787,213
-33,169	14,946	1422,380	786,118
-32,154	15,012	1421,241	785,770
-31,140	15,053	1419,874	785,177
-30,125	15,006	1418,860	784,364
-29,111	15,038	1417,623	783,799
-28,096	15,041	1416,496	783,157
-27,082	14,958	1415,606	782,245
-26,067	14,929	1414,501	781,465
-25,052	14,916	1413,467	780,802
-24,038	14,930	1412,476	780,288
-23,023	14,917	1411,337	779,566
-22,009	14,923	1410,367	779,029
-20,994	14,932	1409,482	778,553
-19,979	14,871	1408,695	777,799
-18,965	14,915	1407,509	777,322
-17,950	14,865	1406,649	776,582
-16,936	14,874	1405,844	776,149
-15,921	14,819	1404,544	775,143
-14,906	14,838	1403,754	774,767
-13,892	14,893	1402,750	774,435
-12,877	14,850	1401,903	773,738
-11,863	14,850	1401,001	773,210
-10,848	14,813	1400,308	772,625
-9,833	14,789	1399,340	771,947
-8,819	14,793	1398,210	771,313
-7,804	14,729	1397,515	770,603
-6,790	14,768	1396,251	770,056
-5,775	14,731	1395,283	769,319
-4,760	14,742	1394,348	768,826
-3,746	14,751	1393,750	768,504
-2,731	14,743	1392,891	767,964
-1,717	14,731	1391,807	767,281
-0,702	14,763	1389,936	766,365
0,313	18,467	1308,830	738,833
1,327	34,697	706,304	436,325
2,342	53,087	124,461	84,239
3,356	3,535	16,643	8,564
4,371	14,506	3,161	1,742
5,386	-87,598	0,601	0,128
6,400	-200,000	0,001	0,159
7,415	-2,973	-0,239	-0,118
8,429	42,010	-0,274	-0,176
9,444	2,799	-0,351	-0,180
10,459	-111,541	-0,268	-0,038
11,473	-13,454	-0,274	-0,125
12,488	250,287	-0,219	-0,263
13,502	38,930	-0,273	-0,172
14,517	-14,500	-0,211	-0,096
15,531	81,205	-0,392	-0,299
16,546	109,715	-0,346	-0,293
17,561	40,908	-0,414	-0,264
18,575	115,575	-0,160	-0,139
19,590	120,734	-0,305	-0,268
20,604	7,107	-0,247	-0,130
21,619	45,576	-0,423	-0,276
22,634	234,731	-0,297	-0,347
23,648	111,828	-0,340	-0,290
24,663	2,471	-0,395	-0,201
25,677	5,245	-0,325	-0,169
26,692	70,020	-0,316	-0,230
27,707	-12,921	-0,377	-0,173
28,721	-83,461	-0,429	-0,096
29,736	17,680	-0,352	-0,197
30,750	0,622	-0,455	-0,229
31,765	168,015	-0,298	-0,300
32,780	257,074	-0,303	-0,368
33,794	122,217	-0,357	-0,315
34,809	75,768	-0,248	-0,185
35,823	62,239	-0,267	-0,188
36,838	178,761	-0,402	-0,415
37,853	25,126	-0,352	-0,206
38,867	-45,426	-0,398	-0,139
39,882	123,681	-0,351	-0,311
40,896	129,916	-0,402	-0,363
41,911	120,889	-0,368	-0,323
42,926	38,619	-0,424	-0,266
43,940	74,075	-0,429	-0,317
44,955	101,388	-0,425	-0,349
45,969	240,846	-0,335	-0,395
46,984	30,038	-0,354	-0,213
47,999	-0,790	-0,311	-0,155
49,013	127,601	-0,258	-0,231
50,028	58,351	-0,322	-0,222
51,042	47,848	-0,335	-0,220
52,057	56,111	-0,295	-0,201
53,071	-22,134	-0,283	-0,121
54,086	50,441	-0,306	-0,204
55,101	72,451	-0,310	-0,228
56,115	140,043	-0,372	-0,345
57,130	43,155	-0,268	-0,172
58,144	10,430	-0,333	-0,178
59,159	1,131	-0,368	-0,186
60,174	242,589	-0,282	-0,333
61,188	77,716	-0,386	-0,289
62,203	-48,686	-0,298	-0,100
63,217	49,685	-0,328	-0,217
64,232	86,140	-0,303	-0,235
65,247	98,551	-0,390	-0,317
66,261	30,990	-0,390	-0,235
67,276	361,181	-0,223	-0,316
68,290	-21,347	-0,359	-0,153
69,305	105,731	-0,304	-0,253
70,320	98,084	-0,300	-0,243
71,334	312,734	-0,151	-0,200
72,349	1,466	-0,373	-0,188
73,363	61,436	-0,395	-0,276
74,378	24,352	-0,353	-0,205
75,393	45,716	-0,412	-0,267
76,407	44,299	-0,295	-0,190
77,422	-135,128	-0,424	0,035
78,436	-122,587	-0,318	0,036
79,451	-73,109	-0,219	-0,056
80,466	204,944	-0,295	-0,322
81,480	74,447	-0,311	-0,230
82,495	-12,096	-0,279	-0,128
83,509	161,628	-0,195	-0,192
84,524	-3,960	-0,323	-0,157
85,539	-18,814	-0,292	-0,127
86,553	-62,491	-0,445	-0,129
87,568	31,228	-0,359	-0,216
88,582	63,675	-0,289	-0,203
89,597	-53,436	-0,364	-0,116
90,611	75,294	-0,129	-0,095
91,626	27,152	-0,201	-0,118
92,641	126,990	-0,252	-0,224
93,655	197,025	-0,182	-0,195
94,670	56,233	-0,361	-0,246
95,684	531,016	-0,139	-0,232
96,699	204,456	-0,356	-0,388
97,714	-86,723	-0,185	-0,039
98,728	-26,168	-0,159	-0,065
99,743	3,715	-0,257	-0,131
100,757	-42,440	-0,288	-0,102
101,772	-50,098	-0,410	-0,135
102,787	211,084	-0,251	-0,278
103,801	59,391	-0,308	-0,213
104,816	35,703	-0,313	-0,193
105,830	-82,298	-0,278	-0,063
106,845	-2,078	-0,257	-0,126
107,860	-18,460	-0,328	-0,143
108,874	25,267	-0,349	-0,203
109,889	18,472	-0,339	-0,190
110,903	32,126	-0,297	-0,179
111,918	49,457	-0,320	-0,211
112,933	56,016	-0,362	-0,246
113,947	-46,589	-0,202	-0,069
114,962	-77,981	-0,291	-0,070
115,976	99,771	-0,292	-0,237
116,991	45,527	-0,270	-0,174
118,006	38,574	-0,345	-0,215
119,020	268,489	-0,240	-0,295
120,035	34,525	-0,273	-0,167
121,049	686,037	-0,094	-0,173
122,064	40,934	-0,238	-0,150
123,079	-63,200	-0,250	-0,072
124,093	-94,256	-0,289	-0,055
125,108	-64,908	-0,246	-0,069
126,122	92,982	-0,207	-0,164
127,137	-6,838	-0,163	-0,077
128,151	-76,219	-0,179	-0,044
129,166	51,628	-0,175	-0,116
130,181	108,254	-0,273	-0,228
131,195	119,862	-0,273	-0,237
132,210	435,044	-0,242	-0,370
133,224	790,570	-0,125	-0,242
134,239	141,525	-0,199	-0,184
135,254	-6,186	-0,284	-0,135
136,268	116,513	-0,152	-0,130
137,283	52,177	-0,266	-0,177
138,297	58,365	-0,223	-0,153
139,312	238,006	-0,266	-0,310
140,327	217,476	-0,266	-0,297
141,341	58,162	-0,269	-0,184
142,356	63,593	-0,201	-0,141
143,370	115,903	-0,145	-0,124
144,385	-29,967	-0,379	-0,150
145,400	45,853	-0,310	-0,200
146,414	636,377	-0,179	-0,320
147,429	55,310	-0,289	-0,195
148,443	272,594	-0,202	-0,250
149,458	84,493	-0,220	-0,168
150,473	-64,121	-0,263	-0,075
151,487	-42,933	-0,371	-0,131
152,502	72,862	-0,161	-0,118
153,516	189,777	-0,266	-0,279
154,531	39,577	-0,381	-0,238
155,546	260,321	-0,220	-0,266
156,560	259,416	-0,205	-0,248
157,575	226,985	-0,045	-0,051
158,589	-163,310	-0,176	0,006
159,604	63,299	-0,271	-0,189
160,619	12,130	-0,273	-0,146
161,633	36,121	-0,418	-0,256
162,648	295,833	-0,228	-0,292
163,662	134,304	-0,167	-0,151
164,677	72,593	-0,209	-0,152
165,692	-107,375	-0,239	-0,036
166,706	104,178	-0,190	-0,156
167,721	108,886	-0,150	-0,125
168,735	648,008	-0,121	-0,216
169,750	80,936	-0,328	-0,246
170,764	176,890	-0,215	-0,219
171,779	68,407	-0,205	-0,146
172,794	183,041	-0,181	-0,186
173,808	103,727	-0,184	-0,151
174,823	143,974	-0,325	-0,303
175,837	316,321	-0,153	-0,201
176,852	101,876	-0,207	-0,168
177,867	259,657	-0,194	-0,234
178,881	84,487	-0,265	-0,202
179,896	33,969	-0,120	-0,073
180,910	129,340	-0,289	-0,257
181,925	177,231	-0,193	-0,196
182,940	59,330	-0,244	-0,167
183,954	348,749	-0,186	-0,257
184,969	135,812	-0,164	-0,149
185,983	53,890	-0,225	-0,150
186,998	-105,745	-0,251	-0,039
188,013	23,672	-0,217	-0,124
189,027	314,260	-0,146	-0,192
190,042	53,753	-0,267	-0,178
191,056	791,508	-0,163	-0,314
192,071	559,276	-0,197	-0,333
193,086	-20,267	-0,304	-0,130
194,100	17,931	-0,210	-0,116
195,115	-46,551	-0,235	-0,080
196,129	170,055	-0,179	-0,178
197,144	91,723	-0,189	-0,148
198,159	101,653	-0,256	-0,208
199,173	800,000	-0,101	-0,230
200,188	149,445	-0,196	-0,185
201,202	-200,000	-0,218	-0,001
202,217	176,651	-0,156	-0,158
203,232	45,104	-0,312	-0,199
204,246	-31,814	-0,246	-0,096
205,261	145,945	-0,178	-0,166
206,275	283,075	-0,224	-0,280
207,290	-99,231	-0,138	-0,024
208,304	317,893	-0,142	-0,187
209,319	304,640	-0,100	-0,130
210,334	325,215	-0,162	-0,216
211,348	-23,409	-0,294	-0,122
212,363	178,381	-0,242	-0,246
213,377	299,035	-0,106	-0,137
214,392	6,719	-0,220	-0,113
215,407	301,801	-0,213	-0,274
216,421	-99,093	-0,127	-0,022
217,436	154,143	-0,145	-0,138
218,450	608,158	-0,100	-0,174
219,465	326,548	-0,191	-0,254
220,480	167,335	-0,171	-0,169
221,494	-34,657	-0,224	-0,085
222,509	800,000	-0,066	-0,133
223,523	-105,278	-0,240	0,038
224,538	5,734	-0,095	-0,049
225,553	94,853	-0,224	-0,177
226,567	662,689	-0,116	-0,209
227,582	192,236	-0,175	-0,184
228,596	299,973	-0,159	-0,204
229,611	103,774	-0,087	-0,071
230,626	26,186	-0,196	-0,113
231,640	315,967	-0,161	-0,211
232,655	120,013	-0,213	-0,184
233,669	604,864	-0,101	-0,175
234,684	-50,611	-0,236	-0,077
235,699	800,000	-0,115	-0,254
236,713	-128,147	-0,299	-0,029
237,728	800,000	-0,101	-0,195
238,742	181,911	-0,088	-0,090
239,757	-7,815	-0,264	-0,123
240,772	322,796	-0,099	-0,131
241,786	139,819	-0,206	-0,189
242,801	241,389	-0,182	-0,211
243,815	60,574	-0,146	-0,100
244,830	-166,531	-0,199	-0,006
245,844	4,744	-0,174	-0,088
246,859	-125,674	-0,252	-0,026
247,874	-83,466	-0,256	-0,056
248,888	336,301	-0,214	-0,289
249,903	-200,000	-0,019	-0,064
250,917	440,350	-0,119	-0,180
251,932	-108,031	-0,300	-0,045
252,947	26,036	-0,127	-0,073
253,961	151,954	-0,208	-0,197
254,976	140,875	-0,134	-0,122
255,990	29,492	-0,137	-0,080
257,005	97,958	-0,289	-0,230
258,020	-66,107	-0,085	0,023
259,034	62,864	-0,183	-0,127
260,049	13,740	-0,218	-0,117
261,063	800,000	-0,117	-0,251
262,078	800,000	-0,127	-0,266
263,093	-99,977	-0,256	-0,044
264,107	-3,053	-0,200	-0,096
265,122	0,470	-0,141	-0,069
266,136	-28,560	-0,100	-0,040
267,151	-114,237	-0,268	-0,035
268,166	204,767	-0,076	-0,082
269,180	289,070	-0,096	-0,120
270,195	171,968	-0,162	-0,161
271,209	795,323	-0,105	-0,201
272,224	800,000	-0,110	-0,221
273,239	219,465	-0,143	-0,159
274,253	-70,258	-0,205	0,053
275,268	228,584	-0,132	-0,149
276,282	63,582	-0,214	-0,148
277,297	-41,049	-0,221	-0,078
278,312	-144,997	-0,198	-0,012
279,326	174,625	-0,111	-0,111
280,341	-53,278	-0,112	-0,035
281,355	-25,757	-0,179	-0,072
282,370	-33,145	-0,244	-0,093
283,384	-68,226	-0,135	-0,036
284,399	309,033	-0,172	-0,223
285,414	-73,440	-0,234	-0,059
286,428	-200,000	-0,052	-0,222
287,443	-9,536	-0,117	-0,054
288,457	73,156	-0,104	-0,075
289,472	187,373	-0,145	-0,150
290,487	-155,987	-0,109	-0,005
291,501	197,280	-0,200	-0,211
292,516	-99,588	-0,161	0,028
293,530	785,928	-0,032	-0,062
294,545	216,623	-0,063	-0,069
295,560	307,690	-0,052	-0,067
296,574	580,465	-0,116	-0,196
297,589	27,764	-0,115	-0,067
298,603	-200,000	0,014	-0,152
299,618	-200,000	-0,008	-0,207
300,633	358,960	-0,097	-0,134
301,647	-32,251	-0,103	0,039
302,662	-110,128	-0,122	-0,017
303,676	282,239	-0,070	-0,087
304,691	72,150	-0,117	-0,084
305,706	223,205	-0,166	-0,185
306,720	251,735	-0,180	-0,212
307,735	98,237	-0,155	-0,123
308,749	-120,622	-0,033	-0,004
309,764	139,028	-0,084	-0,076
310,779	523,920	-0,114	-0,186
311,793	245,415	-0,096	-0,112
312,808	45,521	-0,185	-0,118
313,822	304,921	-0,083	-0,107
314,837	-53,862	-0,215	-0,067
315,852	-173,747	-0,196	-0,004
316,866	-24,679	-0,201	-0,082
317,881	773,244	-0,091	-0,171
318,895	123,646	-0,096	-0,083
319,910	-196,846	-0,263	0,001
320,925	59,381	-0,159	-0,108
321,939	161,941	-0,205	-0,198
322,954	287,983	-0,002	0,003
323,968	800,000	-0,065	-0,150
324,983	-110,720	-0,146	0,021
325,997	-200,000	-0,005	0,069
327,012	759,104	-0,116	-0,217
328,027	126,529	-0,259	-0,226
329,041	-200,000	-0,042	-0,260
330,056	-64,460	-0,187	-0,052
331,070	-2,461	-0,175	0,084
332,085	-55,418	-0,127	-0,039
333,100	-24,190	-0,062	-0,026
334,114	183,664	-0,072	-0,073
335,129	79,680	-0,163	-0,121
336,143	12,200	-0,208	-0,110
337,158	-178,107	-0,221	-0,004
338,173	-143,970	-0,126	-0,008
339,187	175,869	-0,164	-0,164
340,202	60,218	-0,149	-0,101
341,216	332,839	-0,114	-0,152
342,231	167,761	-0,158	-0,155
343,246	800,000	-0,070	-0,208
344,260	-29,053	-0,156	-0,061
345,275	-200,000	-0,037	-0,164
346,289	-78,038	-0,079	-0,019
347,304	18,985	-0,128	-0,070
348,319	728,934	-0,081	-0,149
349,333	465,424	-0,128	-0,198
350,348	774,709	-0,051	-0,096
351,362	115,595	-0,183	-0,154
352,377	42,249	-0,087	-0,054
353,392	251,018	-0,113	-0,133
354,406	-80,198	-0,156	-0,036
355,421	209,455	1316,194	1417,829
356,435	161,203	1477,125	1418,333
