DTS Sentinel unit serial number:	SN410029Multiplexer serial number:	ORYXHardware model number:	OX2-SRSoftware version number:	ORYX F/W v4,00 Oryx Data Collector v3.7.2.0data status	okinstallation	B3 Nyhavnadifferential loss correction	single-endedforward channel	channel 1reverse channel	N/Adate	2023/12/01time	15:27:30forward acquisition time	300,00reverse acquisition time	0,00gamma	499,1914k internal	0,3209k external	0,3209temperature offset calibration	1,0000default loss term (dB/km)	0,3820temperature slope calibration	1,0000multiplexer offset coefficient	1,0000multiplexer slope coefficient	1,0000fibre end	0,00T internal ref (°C)	12,00T ext. ref 1 (°C)	-1,43T ext. ref 2 (°C)	-1,48length (m)	temperature (°C)	Stokes	anti-Stokes-744,400	276,103	-0,190	-0,245
-743,385	-200,000	0,044	0,210
-742,371	-200,000	0,003	-0,207
-741,356	800,000	0,096	0,251
-740,342	800,000	-0,108	-0,238
-739,327	800,000	-0,155	0,343
-738,312	800,000	-0,103	-0,263
-737,298	-200,000	-0,013	0,280
-736,283	293,337	-0,127	-0,169
-735,269	-200,000	-0,063	0,358
-734,254	232,431	-0,241	-0,287
-733,239	-41,709	-0,128	0,047
-732,225	13,466	-0,154	-0,087
-731,210	800,000	0,079	0,224
-730,196	-121,774	-0,113	-0,013
-729,181	800,000	-0,041	-0,127
-728,167	253,965	-0,048	0,059
-727,152	-37,956	0,064	0,025
-726,137	35,346	-0,121	0,077
-725,123	-46,246	-0,174	0,062
-724,108	-200,000	-0,001	-0,016
-723,094	-40,644	-0,152	-0,057
-722,079	77,235	-0,043	0,033
-721,064	-200,000	0,033	-0,115
-720,050	-49,393	-0,093	-0,032
-719,035	178,877	-0,020	0,021
-718,021	800,000	-0,036	-0,074
-717,006	77,743	0,031	-0,024
-715,991	249,575	-0,041	-0,050
-714,977	93,991	0,091	-0,075
-713,962	585,847	-0,066	-0,118
-712,948	-113,448	0,120	-0,017
-711,933	-200,000	0,031	0,123
-710,918	-96,452	0,046	-0,009
-709,904	-2,001	0,057	-0,029
-708,889	-200,000	0,027	-0,120
-707,875	-200,000	0,028	-0,183
-706,860	465,294	-0,060	0,097
-705,845	-200,000	0,015	-0,155
-704,831	-115,837	0,079	-0,011
-703,816	44,440	-0,125	0,083
-702,802	-200,000	0,020	0,103
-701,787	127,863	-0,063	-0,058
-700,772	254,364	0,093	-0,116
-699,758	1,080	0,144	-0,075
-698,743	-68,891	-0,112	0,031
-697,729	-200,000	0,023	0,108
-696,714	-200,000	0,002	-0,066
-695,699	-52,399	0,031	0,010
-694,685	-91,984	-0,137	0,028
-693,670	-200,000	0,041	-0,133
-692,656	47,996	0,042	0,029
-691,641	800,000	0,032	-0,082
-690,627	-94,031	-0,022	-0,004
-689,612	268,063	0,041	0,053
-688,597	-81,804	0,069	0,016
-687,583	27,861	-0,056	-0,034
-686,568	135,589	-0,070	-0,066
-685,554	-117,377	0,057	0,007
-684,539	-67,558	0,036	0,010
-683,524	97,344	0,087	-0,072
-682,510	-200,000	-0,016	0,075
-681,495	54,035	-0,123	-0,086
-680,481	-200,000	-0,002	-0,026
-679,466	800,000	-0,079	-0,190
-678,451	86,355	-0,019	-0,015
-677,437	800,000	-0,023	0,061
-676,422	85,771	0,073	0,058
-675,408	-143,972	-0,136	0,009
-674,393	-200,000	0,006	0,098
-673,378	-102,873	-0,190	-0,032
-672,364	-200,000	-0,013	-0,099
-671,349	-159,601	-0,092	0,004
-670,335	-200,000	0,021	0,148
-669,320	630,483	0,029	0,053
-668,305	-81,661	-0,097	-0,023
-667,291	-140,752	0,071	-0,005
-666,276	23,269	-0,152	0,090
-665,262	800,000	-0,024	-0,055
-664,247	261,279	-0,053	-0,067
-663,232	789,915	-0,056	0,111
-662,218	233,356	-0,055	0,066
-661,203	681,613	-0,036	-0,068
-660,189	-41,405	0,214	-0,079
-659,174	-22,981	-0,060	-0,026
-658,159	800,000	-0,056	-0,126
-657,145	800,000	-0,041	-0,116
-656,130	15,438	0,148	-0,084
-655,116	-119,921	-0,046	0,006
-654,101	-14,173	-0,020	0,009
-653,086	399,852	-0,025	-0,038
-652,072	56,955	-0,051	-0,036
-651,057	800,000	-0,064	-0,194
-650,043	-200,000	-0,009	-0,040
-649,028	800,000	-0,012	0,031
-648,014	-42,063	0,135	0,050
-646,999	678,423	-0,050	0,095
-645,984	800,000	-0,045	-0,138
-644,970	18,209	-0,079	0,045
-643,955	314,441	-0,027	-0,037
-642,941	224,492	0,135	-0,159
-641,926	2,254	0,005	0,003
-640,911	28,647	-0,064	0,039
-639,897	-13,842	0,083	0,038
-638,882	22,982	-0,065	0,039
-637,868	151,084	0,029	0,029
-636,853	-145,241	-0,130	-0,008
-635,838	-36,514	0,067	-0,026
-634,824	262,668	0,029	0,037
-633,809	343,620	0,044	0,062
-632,795	-200,000	0,017	-0,062
-631,780	-34,352	-0,153	-0,060
-630,765	-200,000	-0,006	-0,051
-629,751	800,000	0,017	-0,043
-628,736	141,038	-0,077	-0,074
-627,722	-38,078	-0,072	-0,028
-626,707	67,222	0,053	0,039
-625,692	-78,404	0,146	0,036
-624,678	-200,000	-0,008	0,081
-623,663	154,772	-0,089	0,088
-622,649	108,422	-0,094	-0,081
-621,634	478,045	-0,065	0,107
-620,619	-200,000	-0,005	-0,048
-619,605	800,000	0,026	0,061
-618,590	-200,000	0,010	0,153
-617,576	511,195	0,023	0,039
-616,561	-3,304	-0,030	-0,015
-615,546	77,780	0,042	-0,032
-614,532	282,373	-0,091	-0,118
-613,517	-200,000	-0,022	-0,072
-612,503	-200,000	0,039	0,168
-611,488	433,514	0,015	-0,023
-610,474	-200,000	0,038	0,150
-609,459	-48,399	-0,075	-0,026
-608,444	-49,683	-0,037	-0,012
-607,430	-13,012	-0,169	0,079
-606,415	765,158	-0,017	0,033
-605,401	-200,000	0,013	0,102
-604,386	54,578	-0,066	0,046
-603,371	-68,508	0,182	-0,050
-602,357	799,468	-0,048	-0,097
-601,342	-112,218	-0,145	0,021
-600,328	-130,446	0,050	-0,005
-599,313	800,000	-0,019	-0,051
-598,298	-200,000	0,019	0,087
-597,284	10,494	-0,067	-0,037
-596,269	800,000	0,068	-0,172
-595,255	-34,042	0,107	-0,042
-594,240	378,168	-0,019	0,029
-593,225	260,842	0,013	-0,016
-592,211	-18,445	-0,101	-0,045
-591,196	-200,000	0,027	-0,143
-590,182	-106,262	0,070	-0,011
-589,167	301,661	-0,081	-0,109
-588,152	-8,546	0,083	0,040
-587,138	253,854	0,109	-0,135
-586,123	391,179	-0,054	0,081
-585,109	134,387	-0,094	-0,088
-584,094	330,668	-0,056	0,079
-583,079	-71,430	-0,125	0,034
-582,065	800,000	0,020	-0,043
-581,050	144,198	0,108	0,104
-580,036	28,053	0,052	0,031
-579,021	37,429	-0,072	-0,046
-578,006	-10,280	-0,046	0,022
-576,992	-55,167	0,149	0,048
-575,977	-136,693	-0,091	-0,007
-574,963	-200,000	0,005	0,093
-573,948	133,311	0,058	-0,054
-572,934	-200,000	0,006	-0,060
-571,919	107,097	-0,046	-0,039
-570,904	466,756	-0,071	-0,115
-569,890	91,941	-0,126	-0,103
-568,875	-71,574	0,097	-0,026
-567,861	403,686	0,083	-0,126
-566,846	590,454	-0,012	-0,021
-565,831	-108,760	0,203	-0,031
-564,817	-200,000	0,007	-0,036
-563,802	37,286	-0,060	0,038
-562,788	-200,000	-0,053	0,202
-561,773	696,374	-0,023	-0,043
-560,758	-200,000	0,002	0,062
-559,744	-153,111	0,171	0,008
-558,729	-200,000	-0,009	0,077
-557,715	-59,073	-0,070	-0,022
-556,700	579,617	0,079	-0,140
-555,685	548,632	-0,095	-0,164
-554,671	67,585	0,115	0,084
-553,656	-90,823	0,098	0,020
-552,642	458,413	0,053	0,085
-551,627	-200,000	0,003	0,078
-550,612	800,000	0,043	0,117
-549,598	36,839	-0,146	-0,092
-548,583	10,793	0,103	-0,056
-547,569	47,951	-0,105	0,071
-546,554	-189,918	0,156	0,001
-545,539	276,866	0,028	-0,037
-544,525	-40,944	-0,197	0,073
-543,510	109,207	0,133	-0,114
-542,496	-200,000	0,017	-0,126
-541,481	-200,000	0,015	-0,051
-540,466	-181,497	0,154	-0,002
-539,452	-200,000	0,001	-0,058
-538,437	291,197	0,111	0,145
-537,423	74,958	-0,080	0,061
-536,408	-200,000	0,020	-0,153
-535,393	91,230	-0,013	0,010
-534,379	279,765	0,074	-0,096
-533,364	-68,184	-0,042	-0,012
-532,350	212,080	0,103	-0,117
-531,335	208,359	0,085	0,096
-530,321	800,000	-0,027	0,066
-529,306	74,792	-0,115	-0,087
-528,291	13,272	-0,079	-0,044
-527,277	3,708	0,053	-0,028
-526,262	273,798	-0,056	-0,071
-525,248	-99,701	0,109	0,019
-524,233	-200,000	0,046	0,200
-523,218	-200,000	0,006	0,268
-522,204	-200,000	-0,007	0,030
-521,189	52,430	-0,113	-0,078
-520,175	10,940	-0,083	-0,046
-519,160	-117,453	-0,102	0,013
-518,145	800,000	-0,026	0,072
-517,131	-200,000	-0,003	0,095
-516,116	269,470	-0,028	0,035
-515,102	-175,103	0,118	-0,002
-514,087	-174,522	0,072	0,001
-513,072	385,151	0,010	0,015
-512,058	662,879	-0,049	0,092
-511,043	-147,818	0,205	-0,012
-510,029	263,767	-0,067	0,084
-509,014	-75,016	0,134	0,034
-507,999	-104,425	0,059	0,010
-506,985	556,247	-0,056	0,097
-505,970	-153,826	0,059	-0,003
-504,956	367,587	-0,045	-0,066
-503,941	444,954	-0,065	0,103
-502,926	-200,000	-0,010	0,098
-501,912	-200,000	0,002	-0,013
-500,897	-0,466	0,213	0,109
-499,883	800,000	0,044	-0,127
-498,868	78,246	-0,033	-0,025
-497,853	800,000	-0,049	-0,102
-496,839	236,952	-0,025	-0,030
-495,824	-156,476	-0,110	-0,005
-494,810	39,170	0,033	0,021
-493,795	-200,000	-0,014	-0,115
-492,781	800,000	0,063	-0,149
-491,766	-17,950	-0,099	-0,044
-490,751	-200,000	0,019	-0,106
-489,737	-200,000	0,008	0,077
-488,722	800,000	0,051	0,121
-487,708	154,888	0,158	0,156
-486,693	-200,000	-0,021	0,000
-485,678	-119,863	0,071	-0,009
-484,664	-200,000	-0,013	-0,047
-483,649	3,028	-0,141	-0,074
-482,635	-161,403	-0,097	0,004
-481,620	77,996	0,112	-0,086
-480,605	-200,000	-0,006	-0,116
-479,591	800,000	0,020	0,045
-478,576	231,680	0,023	0,027
-477,562	-11,539	-0,165	-0,078
-476,547	-200,000	0,006	0,062
-475,532	311,353	-0,059	-0,079
-474,518	-200,000	-0,018	-0,082
-473,503	19,105	0,038	0,022
-472,489	-74,596	-0,068	-0,018
-471,474	-34,494	0,099	-0,039
-470,459	146,822	0,023	0,022
-469,445	533,858	-0,070	-0,119
-468,430	-102,047	0,102	-0,018
-467,416	800,000	0,036	0,087
-466,401	8,990	-0,038	0,020
-465,386	-35,468	0,030	0,012
-464,372	-64,215	-0,082	-0,024
-463,357	274,579	-0,016	-0,020
-462,343	-62,689	-0,112	-0,033
-461,328	77,653	-0,116	-0,088
-460,313	-200,000	0,013	-0,151
-459,299	591,912	0,042	0,074
-458,284	169,931	0,176	0,181
-457,270	-200,000	0,003	-0,035
-456,255	-63,221	-0,049	-0,014
-455,241	-200,000	-0,044	-0,210
-454,226	-17,641	0,026	0,012
-453,211	-200,000	-0,014	0,059
-452,197	-109,202	-0,072	0,011
-451,182	800,000	0,033	0,075
-450,168	-9,425	-0,156	-0,074
-449,153	800,000	0,032	0,099
-448,138	-200,000	0,017	-0,123
-447,124	19,136	-0,044	0,025
-446,109	57,184	-0,127	-0,089
-445,095	800,000	0,046	0,123
-444,080	-200,000	0,009	0,124
-443,065	-200,000	0,017	0,122
-442,051	-200,000	-0,019	-0,102
-441,036	50,261	-0,069	-0,047
-440,022	-5,983	-0,085	0,042
-439,007	185,142	-0,062	0,066
-437,992	800,000	-0,031	-0,095
-436,978	253,072	-0,056	-0,069
-435,963	-200,000	-0,033	-0,121
-434,949	-56,101	0,101	0,032
-433,934	6,301	0,153	-0,081
-432,919	800,000	-0,038	-0,106
-431,905	127,395	-0,043	-0,039
-430,890	-45,655	0,078	-0,028
-429,876	-200,000	-0,006	0,096
-428,861	800,000	0,061	0,144
-427,846	688,423	0,043	0,082
-426,832	6,243	-0,031	-0,016
-425,817	23,714	-0,121	-0,072
-424,803	21,071	0,122	-0,071
-423,788	-87,069	0,118	-0,026
-422,773	-124,635	-0,155	0,017
-421,759	-141,830	0,112	-0,008
-420,744	-40,435	-0,056	-0,021
-419,730	-200,000	0,006	-0,078
-418,715	800,000	0,059	-0,133
-417,701	157,785	0,114	0,113
-416,686	-2,983	0,090	-0,045
-415,671	-200,000	0,018	0,158
-414,657	5,909	0,094	0,050
-413,642	800,000	-0,057	0,147
-412,628	-95,828	-0,064	0,012
-411,613	-137,959	0,106	-0,008
-410,598	-133,245	-0,125	0,011
-409,584	800,000	0,041	-0,109
-408,569	-200,000	-0,009	0,079
-407,555	800,000	0,019	-0,058
-406,540	-43,938	-0,029	0,010
-405,525	-25,944	-0,073	-0,031
-404,511	-115,894	-0,179	-0,024
-403,496	-46,165	-0,168	-0,059
-402,482	-200,000	0,018	-0,148
-401,467	128,888	0,122	0,112
-400,452	-10,472	-0,115	0,054
-399,438	-30,704	0,135	0,054
-398,423	800,000	-0,051	-0,120
-397,409	415,072	-0,031	-0,048
-396,394	-57,611	-0,156	-0,049
-395,379	-200,000	0,012	0,041
-394,365	800,000	0,018	-0,057
-393,350	264,042	0,041	-0,051
-392,336	-200,000	0,011	-0,048
-391,321	-188,012	0,149	-0,001
-390,306	800,000	-0,060	-0,123
-389,292	27,420	-0,066	-0,040
-388,277	797,487	0,042	-0,084
-387,263	242,604	-0,067	-0,080
-386,248	202,749	0,021	0,023
-385,233	800,000	0,023	0,063
-384,219	318,168	-0,054	-0,074
-383,204	-136,703	0,064	0,005
-382,190	-2,425	0,099	-0,049
-381,175	624,802	0,039	-0,070
-380,160	89,670	-0,046	-0,036
-379,146	-193,803	0,100	-0,001
-378,131	-24,955	-0,113	0,048
-377,117	583,533	-0,041	0,073
-376,102	-200,000	-0,001	0,043
-375,088	-171,152	0,103	0,002
-374,073	-200,000	-0,014	-0,177
-373,058	7,451	-0,037	-0,020
-372,044	404,538	-0,058	0,088
-371,029	-152,241	0,003	-0,000
-370,015	445,358	0,115	0,182
-369,000	-200,000	0,003	-0,032
-367,985	-4,087	-0,120	-0,059
-366,971	335,922	-0,028	-0,039
-365,956	770,027	-0,010	0,019
-364,942	49,886	0,048	-0,032
-363,927	-100,401	0,083	-0,015
-362,912	-200,000	-0,060	-0,211
-361,898	167,143	0,047	-0,047
-360,883	-60,384	-0,081	-0,024
-359,869	453,854	0,056	0,089
-358,854	387,911	-0,039	0,058
-357,839	2,687	0,011	-0,006
-356,825	-11,073	0,049	0,023
-355,810	-200,000	-0,017	-0,111
-354,796	-200,000	0,036	0,146
-353,781	149,808	-0,080	0,077
-352,766	-200,000	-0,020	0,089
-351,752	-200,000	-0,006	0,066
-350,737	-75,184	0,038	-0,010
-349,723	-92,120	0,027	-0,005
-348,708	174,165	0,063	-0,065
-347,693	-200,000	0,011	0,099
-346,679	24,332	0,115	0,068
-345,664	-154,400	-0,056	-0,003
-344,650	-200,000	0,013	0,073
-343,635	518,113	0,100	0,168
-342,620	800,000	0,058	-0,127
-341,606	-89,118	-0,069	0,015
-340,591	-200,000	0,003	0,034
-339,577	505,824	-0,040	-0,066
-338,562	137,655	-0,076	0,071
-337,548	-200,000	-0,004	0,048
-336,533	-200,000	0,034	0,144
-335,518	-83,459	0,097	-0,022
-334,504	15,674	-0,033	0,018
-333,489	176,434	-0,096	0,100
-332,475	71,718	0,063	0,046
-331,460	800,000	0,037	-0,076
-330,445	43,537	0,057	0,037
-329,431	-139,210	0,046	-0,004
-328,416	800,000	0,021	0,061
-327,402	102,454	0,092	0,077
-326,387	800,000	-0,079	-0,217
-325,372	-69,764	-0,140	0,038
-324,358	-200,000	-0,011	-0,067
-323,343	-45,616	0,114	-0,040
-322,329	800,000	0,019	0,040
-321,314	-22,437	0,080	-0,035
-320,299	-200,000	0,029	0,122
-319,285	90,118	0,074	0,059
-318,270	-123,015	-0,017	0,002
-317,256	-111,331	-0,076	-0,011
-316,241	697,396	-0,035	-0,066
-315,226	-51,991	0,020	-0,007
-314,212	140,253	-0,021	0,020
-313,197	237,102	0,070	-0,082
-312,183	59,583	-0,173	0,121
-311,168	800,000	-0,034	-0,069
-310,153	-83,454	-0,125	-0,028
-309,139	655,420	0,028	0,052
-308,124	-128,159	0,099	-0,010
-307,110	-200,000	-0,004	0,101
-306,095	800,000	0,064	0,132
-305,080	-144,910	0,102	-0,007
-304,066	-154,350	-0,114	0,005
-303,051	296,368	-0,024	0,032
-302,037	-200,000	0,016	-0,094
-301,022	-125,284	-0,099	-0,011
-300,008	-200,000	0,194	0,000
-298,993	148,038	0,081	-0,078
-297,978	-78,916	-0,106	-0,025
-296,964	-200,000	-0,049	0,229
-295,949	-200,000	-0,036	0,152
-294,935	116,369	-0,112	0,098
-293,920	-86,450	-0,023	-0,005
-292,905	203,714	0,127	-0,141
-291,891	-103,344	-0,047	-0,008
-290,876	-200,000	-0,007	0,044
-289,862	-161,659	-0,104	0,004
-288,847	25,541	-0,118	0,070
-287,832	-200,000	-0,010	0,034
-286,818	-103,998	0,085	-0,014
-285,803	-44,391	-0,068	0,024
-284,789	800,000	-0,022	0,045
-283,774	-164,737	-0,095	0,003
-282,759	-50,597	0,021	0,007
-281,745	-24,452	0,070	0,029
-280,730	-24,889	-0,164	-0,069
-279,716	84,641	0,037	0,029
-278,701	-79,257	0,089	0,021
-277,686	69,091	-0,035	0,026
-276,672	79,663	0,032	-0,025
-275,657	381,514	-0,083	0,122
-274,643	-200,000	0,004	-0,029
-273,628	102,757	-0,095	-0,079
-272,613	-200,000	-0,009	-0,123
-271,599	-65,660	-0,016	0,005
-270,584	-200,000	-0,025	0,116
-269,570	800,000	0,013	0,033
-268,555	800,000	0,055	0,147
-267,540	27,928	-0,075	-0,045
-266,526	-200,000	-0,024	-0,082
-265,511	267,923	-0,126	0,157
-264,497	800,000	-0,037	-0,078
-263,482	-200,000	0,020	-0,098
-262,467	-4,381	-0,081	-0,040
-261,453	220,807	-0,044	0,050
-260,438	800,000	-0,006	0,017
-259,424	-200,000	0,022	0,127
-258,409	-94,045	-0,044	-0,009
-257,395	21,703	0,065	-0,038
-256,380	225,491	-0,044	0,051
-255,365	-200,000	0,038	0,136
-254,351	-200,000	0,010	-0,037
-253,336	-200,000	-0,013	-0,071
-252,322	-178,940	-0,094	-0,001
-251,307	-200,000	0,009	0,036
-250,292	21,131	0,042	-0,024
-249,278	-12,139	0,111	-0,052
-248,263	379,955	0,046	0,068
-247,249	56,783	0,124	0,086
-246,234	-119,493	0,089	-0,011
-245,219	277,431	-0,026	-0,033
-244,205	-95,107	-0,092	-0,017
-243,190	800,000	0,032	-0,073
-242,176	58,937	-0,057	0,040
-241,161	-200,000	-0,032	-0,123
-240,146	-88,552	-0,125	-0,026
-239,132	800,000	0,048	-0,102
-238,117	102,562	-0,059	-0,049
-237,103	15,418	-0,085	-0,047
-236,088	800,000	-0,021	-0,058
-235,073	177,403	0,107	0,111
-234,059	-200,000	-0,002	0,205
-233,044	107,136	-0,120	0,102
-232,030	-103,811	0,111	-0,018
-231,015	-200,000	0,002	-0,058
-230,000	24,229	-0,061	0,036
-228,986	309,715	0,091	-0,121
-227,971	55,937	0,059	0,041
-226,957	-119,457	-0,033	0,004
-225,942	-200,000	-0,007	-0,071
-224,927	800,000	0,054	-0,155
-223,913	800,000	-0,075	-0,159
-222,898	-200,000	-0,015	-0,050
-221,884	-200,000	-0,006	-0,087
-220,869	-200,000	-0,010	-0,079
-219,855	-95,843	-0,129	-0,024
-218,840	109,120	-0,080	0,068
-217,825	-77,976	0,068	0,017
-216,811	-46,509	-0,050	0,017
-215,796	145,291	0,061	-0,058
-214,782	-200,000	0,035	-0,126
-213,767	-200,000	0,008	0,058
-212,752	-116,801	0,102	0,013
-211,738	461,762	0,071	0,113
-210,723	110,979	0,020	-0,017
-209,709	-82,629	-0,036	0,008
-208,694	-200,000	0,005	0,060
-207,679	-52,095	-0,122	-0,040
-206,665	389,446	0,032	-0,047
-205,650	800,000	-0,032	0,099
-204,636	800,000	-0,009	-0,018
-203,621	35,135	0,067	0,042
-202,606	-200,000	-0,019	-0,116
-201,592	-42,261	-0,076	-0,028
-200,577	-27,743	-0,135	-0,056
-199,563	800,000	0,033	-0,074
-198,548	-200,000	-0,007	0,053
-197,533	-200,000	-0,028	0,162
-196,519	-96,991	0,154	0,028
-195,504	-200,000	-0,007	-0,099
-194,490	-54,987	-0,042	-0,013
-193,475	352,878	-0,035	-0,049
-192,460	-82,292	0,149	0,034
-191,446	-200,000	-0,003	-0,022
-190,431	202,108	0,061	-0,067
-189,417	349,871	-0,051	0,071
-188,402	-139,138	0,045	0,003
-187,387	287,952	0,063	-0,081
-186,373	-47,243	-0,014	-0,005
-185,358	-200,000	-0,003	0,035
-184,344	-200,000	-0,018	0,069
-183,329	338,777	-0,045	0,063
-182,315	665,176	0,065	0,119
-181,300	-200,000	0,024	0,136
-180,285	75,589	-0,094	0,070
-179,271	-200,000	-0,004	-0,052
-178,256	-200,000	-0,002	-0,156
-177,242	-135,139	0,075	0,006
-176,227	-101,508	0,091	0,016
-175,212	-76,239	0,083	0,021
-174,198	800,000	-0,013	0,036
-173,183	-200,000	-0,026	-0,093
-172,169	268,737	-0,038	0,047
-171,154	206,181	0,067	-0,074
-170,139	8,040	-0,149	-0,079
-169,125	118,679	0,101	0,089
-168,110	800,000	-0,023	0,068
-167,096	251,187	0,032	0,038
-166,081	-123,192	-0,093	-0,010
-165,066	-79,010	-0,062	0,015
-164,052	-200,000	0,034	0,149
-163,037	26,659	0,087	0,052
-162,023	-200,000	0,035	0,141
-161,008	-200,000	0,016	-0,076
-159,993	-200,000	0,020	-0,127
-158,979	3,789	-0,059	0,030
-157,964	-67,800	0,074	-0,020
-156,950	-158,076	0,049	0,002
-155,935	-130,152	0,065	-0,006
-154,920	-8,855	0,096	0,045
-153,906	48,328	-0,066	0,044
-152,891	-103,104	0,174	0,029
-151,877	-200,000	-0,020	0,069
-150,862	-200,000	-0,003	0,125
-149,847	339,860	-0,049	0,068
-148,833	-84,999	0,161	0,035
-147,818	-200,000	-0,009	0,077
-146,804	145,628	0,085	0,081
-145,789	-200,000	-0,021	0,200
-144,775	-37,312	-0,090	-0,034
-143,760	168,928	-0,049	-0,050
-142,745	-9,820	0,061	-0,028
-141,731	-0,805	-0,086	-0,043
-140,716	3,404	-0,111	-0,057
-139,702	365,874	-0,082	0,117
-138,687	190,232	0,108	0,115
-137,672	800,000	-0,020	-0,042
-136,658	-14,889	-0,019	0,008
-135,643	-200,000	0,009	-0,131
-134,629	82,667	-0,040	-0,030
-133,614	-96,407	0,082	-0,015
-132,599	133,415	-0,019	0,017
-131,585	-47,766	0,099	-0,034
-130,570	-200,000	0,004	-0,051
-129,556	685,303	0,025	0,047
-128,541	48,711	-0,137	-0,091
-127,526	-200,000	0,033	-0,110
-126,512	-200,000	-0,008	-0,039
-125,497	800,000	0,023	-0,051
-124,483	-87,631	-0,080	0,017
-123,468	800,000	0,013	0,040
-122,453	143,780	0,109	0,103
-121,439	-200,000	-0,010	0,088
-120,424	-145,961	-0,121	0,007
-119,410	195,037	0,147	0,158
-118,395	669,694	-0,070	-0,130
-117,380	-200,000	0,024	0,146
-116,366	800,000	-0,084	-0,242
-115,351	-140,500	-0,081	-0,006
-114,337	-200,000	-0,000	-0,053
-113,322	-25,769	0,017	0,007
-112,307	55,304	-0,056	-0,038
-111,293	21,726	0,046	0,027
-110,278	212,786	-0,097	0,108
-109,264	-104,624	0,069	0,011
-108,249	-15,674	-0,058	0,026
-107,234	-91,431	-0,187	-0,037
-106,220	4,690	0,102	-0,053
-105,205	190,464	0,122	0,130
-104,191	54,335	-0,110	0,075
-103,176	458,557	0,053	0,084
-102,162	-66,073	-0,076	-0,021
-101,147	594,849	-0,031	-0,054
-100,132	-12,138	-0,108	0,050
-99,118	106,260	-0,084	0,070
-98,103	800,000	0,053	0,113
-97,089	-66,853	0,062	-0,017
-96,074	-200,000	0,013	-0,091
-95,059	377,330	0,101	0,147
-94,045	-200,000	-0,000	-0,057
-93,030	23,867	-0,037	-0,021
-92,016	800,000	0,049	-0,102
-91,001	91,535	0,041	0,032
-89,986	800,000	0,063	0,130
-88,972	-200,000	0,036	0,174
-87,957	-11,124	0,087	0,040
-86,943	800,000	-0,051	0,136
-85,928	6,712	0,038	-0,020
-84,913	262,063	-0,078	-0,095
-83,899	-15,391	0,074	-0,033
-82,884	423,644	0,032	0,048
-81,870	10,510	0,042	0,023
-80,855	537,402	0,099	0,167
-79,840	-111,596	-0,130	-0,018
-78,826	800,000	0,010	-0,029
-77,811	800,000	-0,056	-0,138
-76,797	564,457	-0,038	-0,065
-75,782	-14,521	-0,057	0,026
-74,767	-200,000	0,011	0,090
-73,753	48,863	0,116	0,077
-72,738	51,673	0,078	-0,052
-71,724	673,765	0,054	-0,099
-70,709	-172,979	-0,053	0,001
-69,694	800,000	-0,063	-0,155
-68,680	-46,566	-0,077	-0,026
-67,665	-200,000	-0,001	0,062
-66,651	-159,252	0,101	0,004
-65,636	800,000	0,019	-0,054
-64,622	-200,000	0,017	-0,077
-63,607	13,363	-0,071	-0,039
-62,592	-200,000	0,003	0,048
-61,578	3,990	0,113	-0,058
-60,563	-200,000	-0,017	0,202
-59,549	800,000	0,036	0,088
-58,534	-12,462	-1,834	-0,843
-57,519	401,480	-1,397	-2,078
-56,505	-200,000	-0,474	-4,439
-55,490	356,409	0,939	1,325
-54,476	800,000	4,860	11,075
-53,461	-200,000	20,009	329,794
-52,446	800,000	748,294	2322,610
-51,432	557,168	1656,449	2830,898
-50,417	75,412	1665,787	1240,154
-49,403	19,879	1538,665	873,196
-48,388	13,838	1461,200	799,994
-47,373	18,680	1451,670	818,014
-46,359	16,505	1440,980	801,596
-45,344	12,129	1436,359	778,146
-44,330	12,043	1434,527	776,714
-43,315	12,067	1432,861	775,895
-42,300	12,058	1431,067	774,850
-41,286	12,029	1429,930	774,068
-40,271	12,010	1428,672	773,265
-39,257	12,004	1427,470	772,556
-38,242	12,063	1426,194	772,112
-37,227	12,042	1425,181	771,433
-36,213	12,094	1423,652	770,822
-35,198	12,092	1422,502	770,160
-34,184	12,129	1421,499	769,759
-33,169	12,055	1420,403	768,788
-32,154	12,144	1419,038	768,435
-31,140	12,103	1417,854	767,572
-30,125	12,112	1416,735	766,981
-29,111	12,091	1415,674	766,275
-28,096	12,114	1414,403	765,666
-27,082	12,065	1413,480	764,905
-26,067	12,043	1412,457	764,216
-25,052	12,059	1411,255	763,614
-24,038	12,048	1410,267	762,995
-23,023	12,025	1409,404	762,391
-22,009	12,006	1408,164	761,602
-20,994	11,997	1407,339	761,082
-19,979	12,032	1406,450	760,734
-18,965	11,953	1405,568	759,860
-17,950	12,007	1404,649	759,585
-16,936	12,002	1403,769	759,056
-15,921	11,940	1402,714	758,166
-14,906	11,933	1401,950	757,688
-13,892	11,960	1400,794	757,160
-12,877	11,932	1400,057	756,599
-11,863	11,931	1399,125	756,064
-10,848	11,918	1398,203	755,476
-9,833	11,943	1397,253	755,049
-8,819	11,839	1396,572	754,169
-7,804	11,827	1395,795	753,664
-6,790	11,821	1394,648	752,985
-5,775	11,816	1393,518	752,323
-4,760	11,832	1392,666	751,905
-3,746	11,838	1391,642	751,352
-2,731	11,827	1390,978	750,911
-1,717	11,818	1390,000	750,315
-0,702	11,809	1388,144	749,241
0,313	15,843	1303,760	722,204
1,327	32,184	697,095	423,510
2,342	49,328	121,747	80,675
3,356	1,057	16,482	8,316
4,371	1,969	3,200	1,624
5,386	23,728	0,724	0,419
6,400	800,000	0,151	0,359
7,415	82,409	-0,207	-0,158
8,429	146,224	-0,293	-0,277
9,444	43,971	-0,357	-0,231
10,459	-74,290	-0,293	-0,074
11,473	-32,123	-0,299	-0,117
12,488	-58,243	-0,274	-0,084
13,502	81,044	-0,341	-0,259
14,517	174,984	-0,235	-0,240
15,531	14,771	-0,456	-0,250
16,546	229,888	-0,212	-0,244
17,561	25,772	-0,449	-0,263
18,575	-76,347	-0,203	-0,050
19,590	75,517	-0,364	-0,271
20,604	-102,521	-0,317	-0,053
21,619	4,244	-0,429	-0,220
22,634	149,975	-0,369	-0,352
23,648	34,154	-0,510	-0,313
24,663	142,674	-0,283	-0,265
25,677	-22,748	-0,452	-0,191
26,692	128,497	-0,299	-0,268
27,707	135,582	-0,332	-0,304
28,721	11,338	-0,486	-0,262
29,736	53,007	-0,456	-0,307
30,750	49,501	-0,480	-0,318
31,765	357,265	-0,281	-0,396
32,780	134,238	-0,267	-0,243
33,794	156,739	-0,312	-0,304
34,809	66,792	-0,421	-0,301
35,823	-2,489	-0,331	-0,162
36,838	47,176	-0,411	-0,269
37,853	-47,177	-0,542	-0,185
38,867	164,541	-0,274	-0,272
39,882	166,254	-0,284	-0,283
40,896	128,439	-0,290	-0,260
41,911	168,449	-0,269	-0,270
42,926	14,326	-0,378	-0,207
43,940	76,988	-0,321	-0,239
44,955	-44,613	-0,469	-0,164
45,969	144,491	-0,373	-0,350
46,984	-45,715	-0,398	-0,138
47,999	-24,718	-0,318	-0,132
49,013	510,698	-0,143	-0,235
50,028	337,586	-0,279	-0,383
51,042	77,021	-0,314	-0,234
52,057	87,152	-0,463	-0,360
53,071	1,962	-0,288	-0,146
54,086	256,695	-0,222	-0,269
55,101	48,670	-0,369	-0,242
56,115	-36,694	-0,427	-0,160
57,130	224,149	-0,266	-0,302
58,144	59,424	-0,373	-0,258
59,159	-31,258	-0,348	-0,137
60,174	139,778	-0,404	-0,374
61,188	154,248	-0,355	-0,342
62,203	101,796	-0,314	-0,257
63,217	-63,755	-0,294	-0,084
64,232	-14,103	-0,314	-0,142
65,247	-2,772	-0,339	-0,166
66,261	2,437	-0,463	-0,235
67,276	-63,230	-0,399	-0,115
68,290	75,551	-0,365	-0,270
69,305	44,783	-0,375	-0,241
70,320	-159,949	-0,217	-0,008
71,334	187,902	-0,202	-0,211
72,349	59,929	-0,345	-0,238
73,363	110,394	-0,316	-0,267
74,378	42,970	-0,375	-0,239
75,393	-53,828	-0,383	-0,122
76,407	-29,884	-0,322	-0,128
77,422	275,766	-0,197	-0,245
78,436	-35,617	-0,227	-0,086
79,451	17,331	-0,246	-0,137
80,466	58,977	-0,393	-0,271
81,480	59,731	-0,297	-0,205
82,495	-200,000	-0,097	-0,337
83,509	260,614	-0,267	-0,324
84,524	-22,896	-0,218	-0,092
85,539	-16,671	-0,300	-0,133
86,553	-78,148	-0,350	-0,084
87,568	22,939	-0,284	-0,163
88,582	652,544	-0,175	-0,316
89,597	219,886	-0,279	-0,313
90,611	-4,446	-0,347	-0,167
91,626	-102,394	-0,128	-0,021
92,641	20,763	-0,328	-0,186
93,655	4,596	-0,378	-0,193
94,670	62,818	-0,335	-0,234
95,684	96,565	-0,357	-0,286
96,699	800,000	-0,189	-0,385
97,714	16,642	-0,250	-0,138
98,728	663,571	-0,120	-0,218
99,743	118,319	-0,358	-0,309
100,757	48,759	-0,300	-0,196
101,772	106,171	-0,326	-0,270
102,787	350,016	-0,201	-0,279
103,801	279,201	-0,189	-0,237
104,816	195,896	-0,190	-0,203
105,830	-34,912	-0,229	-0,087
106,845	-31,633	-0,250	-0,098
107,860	58,945	-0,261	-0,179
108,874	156,294	-0,218	-0,210
109,889	174,242	-0,251	-0,254
110,903	21,173	-0,279	-0,158
111,918	102,091	-0,288	-0,235
112,933	205,316	-0,173	-0,188
113,947	83,536	-0,251	-0,191
114,962	-176,615	-0,293	-0,005
115,976	12,432	-0,322	-0,173
116,991	286,058	-0,247	-0,312
118,006	65,585	-0,263	-0,186
119,020	26,571	-0,194	-0,113
120,035	-127,267	-0,189	0,019
121,049	-29,860	-0,274	-0,109
122,064	69,493	-0,307	-0,221
123,079	-40,921	-0,325	-0,117
124,093	162,430	-0,230	-0,225
125,108	-24,766	-0,243	-0,100
126,122	147,028	-0,271	-0,255
127,137	-49,172	-0,268	-0,089
128,151	118,502	-0,228	-0,197
129,166	9,331	-0,269	-0,142
130,181	-9,974	-0,216	-0,100
131,195	-90,831	-0,296	-0,059
132,210	81,281	-0,274	-0,207
133,224	-12,003	-0,365	-0,166
134,239	-9,133	-0,251	-0,117
135,254	126,718	-0,163	-0,144
136,268	800,000	-0,119	-0,257
137,283	-41,601	-0,198	-0,070
138,297	2,512	-0,315	-0,159
139,312	20,648	-0,264	-0,149
140,327	9,927	-0,302	-0,159
141,341	119,883	-0,292	-0,253
142,356	22,153	-0,228	-0,129
143,370	-13,736	-0,142	-0,064
144,385	147,793	-0,081	-0,076
145,400	-60,703	-0,348	-0,102
146,414	19,671	-0,221	-0,124
147,429	192,372	-0,202	-0,213
148,443	-52,293	-0,291	-0,093
149,458	-27,389	-0,256	-0,103
150,473	-46,859	-0,288	-0,098
151,487	6,596	-0,240	-0,124
152,502	156,343	-0,169	-0,163
153,516	-9,278	-0,230	-0,107
154,531	211,175	-0,230	-0,252
155,546	-138,970	-0,285	-0,021
156,560	81,995	-0,194	-0,146
157,575	-96,990	-0,199	-0,036
158,589	-93,576	-0,262	-0,050
159,604	-100,903	-0,244	-0,041
160,619	154,421	-0,177	-0,169
161,633	-63,324	-0,279	-0,079
162,648	112,598	-0,264	-0,223
163,662	108,878	-0,276	-0,230
164,677	-18,037	-0,215	-0,093
165,692	364,416	-0,171	-0,241
166,706	20,210	-0,213	-0,119
167,721	-76,406	-0,315	-0,076
168,735	85,469	-0,256	-0,196
169,750	-44,399	-0,149	0,051
170,764	108,453	-0,333	-0,276
171,779	-17,710	-0,217	-0,095
172,794	-1,546	-0,184	-0,090
173,808	-43,091	-0,277	-0,097
174,823	62,204	-0,233	-0,162
175,837	-23,400	-0,202	-0,084
176,852	141,211	-0,203	-0,187
177,867	349,817	-0,120	-0,165
178,881	308,661	-0,151	-0,196
179,896	45,606	-0,204	-0,130
180,910	98,289	-0,207	-0,165
181,925	51,191	-0,288	-0,189
182,940	137,796	-0,243	-0,221
183,954	271,417	-0,141	-0,173
184,969	58,088	-0,207	-0,141
185,983	41,572	-0,227	-0,142
186,998	-21,726	-0,175	-0,074
188,013	65,204	-0,240	-0,168
189,027	169,306	-0,189	-0,187
190,042	379,447	-0,093	-0,133
191,056	159,481	-0,211	-0,204
192,071	264,119	-0,212	-0,257
193,086	-84,502	-0,266	-0,058
194,100	-55,125	-0,265	-0,082
195,115	37,278	-0,251	-0,154
196,129	110,718	-0,227	-0,189
197,144	67,902	-0,283	-0,200
198,159	44,938	-0,224	-0,143
199,173	64,269	-0,143	-0,100
200,188	-200,000	-0,148	-0,000
201,202	-194,188	-0,227	0,001
202,217	300,866	-0,158	-0,202
203,232	532,265	-0,094	-0,154
204,246	230,794	-0,232	-0,263
205,261	257,068	-0,164	-0,195
206,275	57,095	-0,252	-0,170
207,290	164,300	-0,158	-0,154
208,304	184,348	-0,178	-0,182
209,319	215,185	-0,220	-0,242
210,334	129,982	-0,143	-0,127
211,348	82,648	-0,206	-0,155
212,363	9,546	-0,200	-0,105
213,377	-200,000	-0,088	-0,278
214,392	184,323	-0,164	-0,169
215,407	-87,365	-0,126	-0,026
216,421	-8,591	-0,287	-0,133
217,436	-23,649	-0,175	-0,072
218,450	83,740	-0,162	-0,122
219,465	82,872	-0,255	-0,191
220,480	800,000	-0,091	-0,252
221,494	282,649	-0,074	-0,093
222,509	-200,000	-0,021	-0,108
223,523	-200,000	-0,039	-0,241
224,538	89,407	-0,104	-0,080
225,553	90,297	-0,216	-0,167
226,567	22,735	-0,242	-0,137
227,582	-200,000	-0,039	-0,219
228,596	36,590	-0,222	-0,135
229,611	34,582	-0,157	-0,095
230,626	138,513	-0,084	-0,077
231,640	284,093	-0,181	-0,226
232,655	-35,025	-0,244	-0,092
233,669	185,296	-0,237	-0,244
234,684	113,168	-0,192	-0,161
235,699	411,449	-0,090	-0,133
236,713	55,055	-0,193	-0,129
237,728	-119,838	-0,164	-0,019
238,742	305,986	-0,114	-0,146
239,757	44,625	-0,295	-0,187
240,772	147,021	-0,161	-0,149
241,786	-38,272	-0,206	-0,075
242,801	179,531	-0,141	-0,143
243,815	800,000	-0,067	-0,172
244,830	-55,749	-0,179	-0,055
245,844	-83,731	-0,261	-0,057
246,859	-62,611	-0,177	-0,050
247,874	-77,900	-0,202	-0,048
248,888	480,624	-0,119	-0,188
249,903	-200,000	-0,007	-0,074
250,917	-87,936	-0,108	-0,022
251,932	-133,238	-0,159	-0,014
252,947	43,608	-0,239	-0,151
253,961	640,325	-0,110	-0,194
254,976	17,128	-0,294	-0,160
255,990	148,510	-0,192	-0,179
257,005	800,000	-0,096	-0,197
258,020	8,394	-0,095	-0,049
259,034	359,782	-0,148	-0,205
260,049	761,304	-0,077	-0,145
261,063	-200,000	0,005	-0,142
262,078	-200,000	-0,015	-0,169
263,093	183,583	-0,069	-0,071
264,107	800,000	-0,075	-0,150
265,122	-14,053	-0,245	-0,109
266,136	44,662	-0,215	-0,136
267,151	-49,838	-0,080	-0,026
268,166	-196,803	-0,210	0,001
269,180	-70,148	-0,265	-0,069
270,195	242,200	-0,177	-0,205
271,209	142,307	-0,193	-0,176
272,224	7,571	-0,175	-0,090
273,239	-200,000	-0,016	-0,140
274,253	800,000	-0,080	-0,169
275,268	-185,111	-0,181	-0,002
276,282	256,715	-0,141	-0,167
277,297	586,156	-0,125	-0,212
278,312	418,241	-0,109	-0,161
279,326	2,456	-0,098	-0,049
280,341	-35,356	-0,139	-0,052
281,355	-200,000	0,028	0,128
282,370	452,195	-0,117	-0,179
283,384	89,986	-0,194	-0,149
284,399	-114,146	-0,141	-0,019
285,414	-120,131	-0,152	0,018
286,428	-36,120	-0,084	-0,031
287,443	103,090	-0,191	-0,154
288,457	408,543	-0,097	-0,141
289,472	-200,000	-0,078	-0,312
290,487	86,465	-0,169	-0,128
291,501	514,810	-0,094	-0,152
292,516	-98,486	-0,132	-0,023
293,530	-200,000	-0,046	-0,155
294,545	150,586	-0,036	-0,034
295,560	16,890	-0,071	0,039
296,574	-115,626	-0,218	-0,028
297,589	378,907	-0,159	-0,224
298,603	45,776	-0,105	-0,066
299,618	323,816	-0,144	-0,190
300,633	549,368	-0,159	-0,263
301,647	60,631	-0,113	-0,077
302,662	-25,328	-0,139	-0,056
303,676	347,073	-0,075	-0,101
304,691	479,044	-0,102	-0,160
305,706	800,000	-0,163	-0,368
306,720	-21,308	-0,140	-0,059
307,735	146,450	-0,164	-0,151
308,749	120,046	-0,070	-0,060
309,764	433,586	-0,038	-0,057
310,779	-2,747	-0,178	-0,085
311,793	445,879	-0,090	-0,137
312,808	28,834	-0,219	-0,127
313,822	-149,995	-0,153	-0,008
314,837	-177,242	-0,113	-0,002
315,852	249,678	-0,048	0,056
316,866	501,635	-0,044	-0,071
317,881	-26,022	-0,073	-0,029
318,895	-104,313	-0,222	-0,035
319,910	120,551	-0,178	-0,152
320,925	800,000	-0,089	-0,250
321,939	136,754	-0,148	-0,133
322,954	-81,684	-0,166	-0,037
323,968	34,036	-0,258	-0,154
324,983	481,922	-0,044	-0,069
325,997	-112,686	-0,056	0,008
327,012	764,972	-0,098	-0,183
328,027	97,129	-0,216	-0,170
329,041	-19,534	-0,175	-0,074
330,056	-200,000	-0,045	-0,249
331,070	-99,638	-0,101	0,017
332,085	-18,313	-0,077	-0,033
333,100	-149,413	-0,122	0,007
334,114	-200,000	-0,008	-0,143
335,129	36,895	-0,212	-0,128
336,143	71,572	-0,162	-0,115
337,158	-200,000	-0,055	-0,231
338,173	800,000	0,035	-0,070
339,187	246,528	-0,128	-0,148
340,202	-48,361	-0,373	-0,122
341,216	-20,444	-0,186	0,078
342,231	32,081	-0,118	-0,070
343,246	356,033	-0,120	-0,164
344,260	578,415	-0,067	-0,113
345,275	50,837	-0,102	0,066
346,289	-77,681	-0,071	0,017
347,304	120,181	-0,124	-0,106
348,319	292,516	-0,132	-0,165
349,333	116,765	-0,149	-0,125
350,348	217,649	-0,198	-0,217
351,362	-15,426	-0,146	-0,064
352,377	48,540	-0,116	-0,075
353,392	-122,386	-0,177	-0,019
354,406	-17,697	-0,113	-0,048
355,421	209,673	1312,913	1410,239
356,435	161,388	1473,395	1410,729
