DTS Sentinel unit serial number:	SN410029Multiplexer serial number:	ORYXHardware model number:	OX2-SRSoftware version number:	ORYX F/W v4,00 Oryx Data Collector v3.7.2.0data status	okinstallation	B3 Nyhavnadifferential loss correction	single-endedforward channel	channel 1reverse channel	N/Adate	2023/12/03time	14:42:30forward acquisition time	300,00reverse acquisition time	0,00gamma	499,1914k internal	0,3197k external	0,3197temperature offset calibration	1,0000default loss term (dB/km)	0,3820temperature slope calibration	1,0000multiplexer offset coefficient	1,0000multiplexer slope coefficient	1,0000fibre end	0,00T internal ref (°C)	15,89T ext. ref 1 (°C)	1,05T ext. ref 2 (°C)	1,08length (m)	temperature (°C)	Stokes	anti-Stokes-744,400	28,005	-0,211	-0,129
-743,385	-200,000	-0,010	0,323
-742,371	252,253	-0,262	-0,326
-741,356	489,521	0,159	0,265
-740,342	-62,913	-0,253	-0,076
-739,327	-200,000	-0,032	0,417
-738,312	-200,000	-0,087	-0,333
-737,298	-200,000	-0,071	0,301
-736,283	458,969	-0,136	-0,221
-735,269	800,000	0,186	0,456
-734,254	33,932	-0,337	-0,213
-733,239	-200,000	-0,031	0,189
-732,225	256,474	-0,195	-0,245
-731,210	67,418	0,078	0,058
-730,196	431,771	-0,075	0,119
-729,181	-39,113	-0,055	0,021
-728,167	-200,000	0,002	-0,105
-727,152	-38,909	-0,107	-0,041
-726,137	7,947	-0,057	0,031
-725,123	96,480	0,114	0,095
-724,108	-126,632	-0,130	-0,014
-723,094	-132,398	0,039	0,004
-722,079	-134,887	-0,058	-0,005
-721,064	76,470	0,052	-0,040
-720,050	-88,393	0,123	-0,027
-719,035	-161,725	-0,034	-0,001
-718,021	-48,165	-0,098	0,034
-717,006	423,036	-0,028	-0,044
-715,991	139,353	-0,100	-0,096
-714,977	-200,000	0,001	0,029
-713,962	222,113	-0,087	0,103
-712,948	98,540	0,093	0,078
-711,933	-132,287	-0,088	0,008
-710,918	-15,195	-0,013	-0,006
-709,904	-131,260	-0,025	-0,002
-708,889	800,000	0,047	-0,137
-707,875	192,850	-0,125	-0,137
-706,860	394,193	0,023	0,035
-705,845	-99,588	0,141	0,026
-704,831	308,529	0,028	-0,038
-703,816	-12,826	0,057	0,027
-702,802	157,452	0,009	0,009
-701,787	-105,759	-0,160	-0,026
-700,772	-116,621	0,155	0,020
-699,758	-99,997	0,094	0,017
-698,743	226,391	0,024	0,028
-697,729	-153,766	0,123	-0,006
-696,714	154,247	0,086	0,086
-695,699	800,000	-0,043	-0,099
-694,685	-200,000	0,029	-0,119
-693,670	-126,053	-0,071	0,008
-692,656	462,768	-0,062	-0,100
-691,641	88,501	0,037	0,030
-690,627	-200,000	0,025	0,191
-689,612	-86,547	0,059	0,013
-688,597	-81,087	-0,102	0,024
-687,583	800,000	-0,020	-0,056
-686,568	-200,000	-0,003	-0,017
-685,554	188,076	-0,045	-0,049
-684,539	248,286	0,055	0,068
-683,524	-92,704	-0,059	-0,012
-682,510	552,743	-0,030	-0,053
-681,495	309,200	0,049	0,067
-680,481	-135,558	0,025	0,002
-679,466	-89,839	-0,233	-0,049
-678,451	800,000	-0,049	-0,140
-677,437	-49,974	-0,085	-0,029
-676,422	124,259	-0,016	-0,014
-675,408	800,000	0,028	0,083
-674,393	-27,705	-0,056	0,023
-673,378	401,668	0,030	-0,047
-672,364	-200,000	-0,010	-0,189
-671,349	-12,728	-0,099	-0,047
-670,335	800,000	-0,044	-0,089
-669,320	156,839	-0,093	0,093
-668,305	-118,514	0,101	0,013
-667,291	-200,000	-0,031	0,114
-666,276	-179,239	0,023	0,000
-665,262	2,959	-0,174	-0,091
-664,247	-200,000	-0,054	-0,202
-663,232	-22,706	0,094	0,041
-662,218	-21,737	0,110	0,048
-661,203	688,598	0,031	-0,058
-660,189	25,967	-0,109	-0,066
-659,174	-16,674	0,029	-0,013
-658,159	11,793	0,041	-0,023
-657,145	-29,842	-0,059	-0,024
-656,130	28,898	-0,099	-0,061
-655,116	-58,243	0,089	0,028
-654,101	-200,000	0,014	0,219
-653,086	-200,000	-0,017	-0,157
-652,072	800,000	-0,014	-0,035
-651,057	313,923	-0,091	0,125
-650,043	409,825	0,016	-0,025
-649,028	-200,000	-0,002	-0,067
-648,014	361,844	0,078	-0,114
-646,999	-200,000	0,070	0,235
-645,984	438,969	0,051	0,081
-644,970	354,841	-0,115	-0,167
-643,955	479,728	0,074	-0,123
-642,941	230,679	-0,100	-0,119
-641,926	-200,000	0,015	0,078
-640,911	-90,364	0,061	-0,013
-639,897	-149,484	0,131	0,007
-638,882	130,343	0,134	-0,124
-637,868	234,408	0,074	0,088
-636,853	-54,039	-0,078	-0,025
-635,838	60,603	0,022	0,016
-634,824	800,000	-0,012	0,026
-633,809	-200,000	-0,051	0,217
-632,795	-96,576	-0,126	0,024
-631,780	-119,379	0,072	-0,009
-630,765	-21,033	-0,110	-0,049
-629,751	75,751	-0,037	0,028
-628,736	800,000	0,042	0,094
-627,722	-200,000	0,000	-0,081
-626,707	800,000	0,012	0,031
-625,692	40,206	0,033	0,021
-624,678	159,614	-0,018	-0,018
-623,663	-167,127	0,080	0,002
-622,649	-39,196	-0,155	-0,059
-621,634	-111,242	0,227	-0,033
-620,619	37,794	-0,163	0,105
-619,605	125,314	0,016	0,014
-618,590	322,077	0,065	-0,090
-617,576	-68,477	0,061	0,017
-616,561	800,000	-0,022	-0,052
-615,546	-200,000	-0,003	-0,096
-614,532	-200,000	0,007	-0,030
-613,517	-166,248	-0,042	-0,001
-612,503	-200,000	-0,000	0,057
-611,488	76,376	0,105	-0,080
-610,474	674,778	0,067	-0,126
-609,459	800,000	-0,023	-0,065
-608,444	642,971	0,022	-0,040
-607,430	289,331	-0,048	-0,063
-606,415	-200,000	-0,012	0,147
-605,401	800,000	-0,055	-0,168
-604,386	-200,000	0,001	0,046
-603,371	-200,000	0,026	0,130
-602,357	800,000	-0,015	-0,045
-601,342	800,000	0,022	-0,055
-600,328	-200,000	0,033	-0,144
-599,313	141,884	-0,086	-0,083
-598,298	-200,000	-0,038	-0,153
-597,284	-124,174	0,055	-0,006
-596,269	641,654	0,031	-0,057
-595,255	800,000	0,028	-0,064
-594,240	317,820	-0,141	-0,193
-593,225	-170,796	-0,175	-0,004
-592,211	-158,245	-0,081	0,003
-591,196	57,530	-0,123	-0,087
-590,182	150,581	0,100	0,098
-589,167	800,000	-0,072	0,169
-588,152	34,881	0,037	0,023
-587,138	220,546	0,020	-0,023
-586,123	800,000	-0,016	-0,038
-585,109	-136,932	-0,086	0,007
-584,094	-200,000	-0,008	0,082
-583,079	-18,848	0,171	-0,077
-582,065	715,026	0,085	0,163
-581,050	800,000	0,059	-0,124
-580,036	-23,086	-0,037	-0,016
-579,021	0,699	-0,073	-0,038
-578,006	-200,000	-0,017	-0,090
-576,992	-113,594	-0,093	-0,013
-575,977	275,005	0,071	0,091
-574,963	20,250	0,077	0,045
-573,948	-200,000	0,001	-0,077
-572,934	7,385	-0,051	0,027
-571,919	-120,776	-0,151	0,018
-570,904	-64,176	0,054	-0,016
-569,890	-52,428	0,033	-0,011
-568,875	136,892	0,104	0,098
-567,861	-107,266	0,036	-0,006
-566,846	80,702	-0,028	-0,022
-565,831	266,215	0,018	0,023
-564,817	0,182	-0,214	-0,110
-563,802	800,000	0,016	-0,040
-562,788	77,124	-0,091	0,070
-561,773	-22,136	-0,085	0,037
-560,758	-159,958	0,243	0,009
-559,744	299,564	-0,082	-0,109
-558,729	-120,137	-0,019	0,002
-557,715	-200,000	0,019	0,078
-556,700	348,246	0,042	-0,061
-555,685	-25,937	-0,115	-0,049
-554,671	-36,388	0,020	0,008
-553,656	-200,000	-0,001	-0,015
-552,642	-200,000	-0,017	0,061
-551,627	-143,255	0,066	0,005
-550,612	-155,428	-0,039	0,002
-549,598	252,967	-0,097	-0,120
-548,583	111,922	-0,048	-0,042
-547,569	142,526	-0,026	0,025
-546,554	37,727	-0,061	-0,039
-545,539	119,439	0,153	0,137
-544,525	10,679	-0,051	0,028
-543,510	-68,407	-0,026	0,007
-542,496	389,131	0,051	0,076
-541,481	518,322	0,017	0,029
-540,466	26,306	0,097	0,058
-539,452	-200,000	0,027	-0,121
-538,437	-93,109	0,093	0,019
-537,423	-200,000	0,005	0,076
-536,408	155,215	0,088	0,088
-535,393	173,660	-0,051	-0,053
-534,379	218,086	-0,078	-0,090
-533,364	800,000	-0,029	0,063
-532,350	-34,773	0,159	-0,062
-531,335	-200,000	0,019	-0,092
-530,321	-54,612	0,137	0,045
-529,306	254,746	-0,094	-0,117
-528,291	-144,764	-0,108	-0,007
-527,277	800,000	0,036	-0,114
-526,262	85,907	0,115	-0,092
-525,248	74,575	-0,036	0,028
-524,233	-200,000	-0,013	0,086
-523,218	11,776	-0,208	0,115
-522,204	721,876	-0,045	0,087
-521,189	-200,000	0,005	-0,135
-520,175	-200,000	0,000	0,068
-519,160	76,732	0,086	0,066
-518,145	81,444	0,039	0,030
-517,131	177,216	0,117	0,123
-516,116	-200,000	-0,032	-0,108
-515,102	-16,171	-0,068	0,031
-514,087	-200,000	-0,011	0,087
-513,072	232,701	-0,080	-0,095
-512,058	112,948	0,081	-0,071
-511,043	408,692	-0,028	0,043
-510,029	-200,000	-0,011	-0,097
-509,014	-96,428	0,157	0,030
-507,999	347,884	-0,090	0,128
-506,985	-12,013	0,033	0,016
-505,970	-117,354	-0,038	0,005
-504,956	168,016	0,033	-0,034
-503,941	-200,000	-0,014	0,061
-502,926	-200,000	0,019	0,104
-501,912	23,178	0,039	0,023
-500,897	-110,829	-0,054	-0,008
-499,883	296,312	-0,051	-0,068
-498,868	-200,000	-0,026	-0,088
-497,853	287,752	-0,088	0,116
-496,839	-200,000	0,003	0,013
-495,824	37,592	-0,053	0,034
-494,810	-106,579	-0,105	0,017
-493,795	-80,001	0,130	0,031
-492,781	-200,000	-0,008	-0,028
-491,766	74,051	0,083	-0,063
-490,751	25,926	-0,061	0,037
-489,737	-99,415	-0,135	-0,024
-488,722	-200,000	0,004	0,042
-487,708	76,690	-0,042	0,032
-486,693	538,659	0,022	0,038
-485,678	-200,000	0,010	-0,088
-484,664	-144,214	-0,112	-0,007
-483,649	420,676	0,042	0,066
-482,635	159,877	-0,099	0,099
-481,620	786,415	-0,049	0,098
-480,605	800,000	0,042	0,114
-479,591	35,562	0,117	0,074
-478,576	248,494	0,060	-0,074
-477,562	9,146	-0,168	0,091
-476,547	800,000	-0,032	0,081
-475,532	800,000	0,029	-0,067
-474,518	22,422	-0,045	0,026
-473,503	-200,000	-0,018	0,098
-472,489	-72,864	0,093	0,024
-471,474	61,350	0,056	-0,040
-470,459	-110,324	-0,011	-0,002
-469,445	-84,278	0,086	-0,019
-468,430	212,687	0,034	0,038
-467,416	800,000	0,045	0,120
-466,401	-200,000	0,041	0,137
-465,386	-16,469	0,065	0,029
-464,372	402,911	-0,024	-0,037
-463,357	63,277	-0,100	-0,072
-462,343	-104,420	-0,069	-0,011
-461,328	-85,766	-0,149	-0,033
-460,313	530,594	0,056	-0,096
-459,299	-38,049	0,019	0,007
-458,284	777,631	0,025	0,050
-457,270	2,475	0,050	-0,026
-456,255	65,301	0,053	-0,038
-455,241	-42,006	0,034	-0,013
-454,226	-108,883	-0,084	0,013
-453,211	-66,917	0,033	0,009
-452,197	106,002	-0,122	0,104
-451,182	-200,000	0,026	0,099
-450,168	-200,000	0,003	-0,094
-449,153	145,285	0,025	0,024
-448,138	123,905	-0,128	-0,115
-447,124	251,792	-0,041	-0,051
-446,109	-11,591	0,093	-0,044
-445,095	95,874	0,064	0,053
-444,080	-132,847	0,261	0,024
-443,065	-85,518	-0,038	-0,008
-442,051	606,482	-0,071	0,127
-441,036	-160,953	-0,080	0,003
-440,022	-200,000	-0,003	-0,034
-439,007	800,000	0,027	0,086
-437,992	497,177	0,057	0,095
-436,978	558,728	-0,057	0,100
-435,963	-200,000	0,006	0,103
-434,949	700,748	-0,037	0,070
-433,934	-200,000	0,031	-0,136
-432,919	-26,837	-0,092	0,039
-431,905	800,000	-0,069	0,160
-430,890	-149,905	0,110	-0,006
-429,876	192,509	0,061	0,066
-428,861	-200,000	-0,032	-0,135
-427,846	60,538	-0,048	-0,034
-426,832	800,000	-0,014	-0,042
-425,817	146,313	-0,049	-0,047
-424,803	325,029	-0,075	-0,103
-423,788	304,355	0,043	-0,058
-422,773	-200,000	0,016	-0,114
-421,759	-200,000	0,034	0,112
-420,744	-200,000	-0,006	0,122
-419,730	-111,091	-0,132	-0,019
-418,715	-132,103	-0,118	0,011
-417,701	251,741	-0,032	0,040
-416,686	800,000	-0,015	-0,030
-415,671	55,618	0,065	-0,045
-414,657	-200,000	0,009	0,066
-413,642	-200,000	0,004	0,054
-412,628	-200,000	-0,003	-0,089
-411,613	469,276	-0,124	-0,201
-410,598	800,000	-0,034	-0,097
-409,584	-200,000	0,003	-0,045
-408,569	47,761	-0,060	-0,040
-407,555	-24,769	0,127	-0,054
-406,540	-200,000	0,009	0,159
-405,525	-111,603	-0,115	0,017
-404,511	-88,621	-0,117	-0,025
-403,496	-200,000	0,023	-0,089
-402,482	800,000	0,055	0,125
-401,467	-200,000	0,011	0,058
-400,452	-113,632	-0,027	-0,004
-399,438	800,000	0,031	0,089
-398,423	-56,126	-0,094	0,030
-397,409	800,000	-0,053	0,126
-396,394	512,719	-0,116	0,195
-395,379	-43,306	0,101	0,037
-394,365	138,246	0,097	0,091
-393,350	-113,706	0,188	-0,026
-392,336	-111,569	0,071	0,010
-391,321	800,000	0,069	-0,139
-390,306	-200,000	-0,050	0,000
-389,292	800,000	-0,042	-0,131
-388,277	-200,000	-0,007	-0,044
-387,263	-162,174	0,098	-0,003
-386,248	-90,720	0,134	-0,027
-385,233	-39,453	-0,128	0,048
-384,219	-171,059	-0,129	-0,003
-383,204	-62,679	-0,130	-0,038
-382,190	-44,202	0,035	-0,012
-381,175	-200,000	0,006	-0,039
-380,160	-96,103	0,091	-0,017
-379,146	196,393	0,116	0,128
-378,131	800,000	-0,012	-0,025
-377,117	-200,000	-0,029	-0,133
-376,102	-200,000	0,014	-0,105
-375,088	-122,930	-0,105	0,012
-374,073	-200,000	0,001	0,090
-373,058	780,965	0,034	0,068
-372,044	-19,587	-0,075	0,033
-371,029	324,856	0,028	0,038
-370,015	-38,583	-0,081	0,031
-369,000	800,000	-0,011	0,025
-367,985	103,269	-0,013	0,011
-366,971	520,288	-0,039	-0,066
-365,956	-200,000	-0,015	-0,060
-364,942	-200,000	0,018	0,107
-363,927	263,213	-0,017	-0,021
-362,912	-125,108	0,017	-0,002
-361,898	-148,194	-0,014	0,001
-360,883	6,400	-0,176	0,093
-359,869	35,922	0,132	-0,083
-358,854	22,111	0,165	-0,097
-357,839	-200,000	0,031	0,112
-356,825	-56,345	0,069	-0,022
-355,810	57,516	-0,047	-0,033
-354,796	326,897	-0,041	-0,057
-353,781	800,000	0,037	-0,088
-352,766	-166,488	-0,026	-0,001
-351,752	-60,389	0,029	-0,009
-350,737	108,949	0,045	0,039
-349,723	-200,000	0,056	0,212
-348,708	-108,203	-0,058	0,009
-347,693	546,459	-0,048	-0,083
-346,679	-200,000	-0,000	-0,022
-345,664	-109,725	-0,110	0,016
-344,650	-150,611	-0,106	0,006
-343,635	-172,218	0,060	-0,001
-342,620	-22,570	0,081	0,035
-341,606	800,000	-0,030	-0,092
-340,591	-200,000	0,009	0,160
-339,577	358,747	-0,039	-0,057
-338,562	261,859	0,054	-0,068
-337,548	510,406	0,013	-0,022
-336,533	-152,772	0,112	-0,006
-335,518	-200,000	0,011	-0,077
-334,504	-200,000	-0,005	0,058
-333,489	-200,000	-0,009	0,036
-332,475	295,708	-0,074	-0,098
-331,460	3,103	0,095	0,049
-330,445	-85,364	-0,033	-0,007
-329,431	-144,857	0,113	-0,007
-328,416	-153,999	0,144	-0,007
-327,402	-52,053	-0,064	-0,021
-326,387	-200,000	0,004	0,197
-325,372	-129,628	-0,043	-0,004
-324,358	184,448	0,090	0,096
-323,343	-27,860	-0,145	-0,060
-322,329	-32,669	0,021	-0,008
-321,314	-48,812	0,021	-0,007
-320,299	-180,644	0,120	0,002
-319,285	-24,964	0,038	-0,016
-318,270	-74,751	-0,186	0,047
-317,256	290,571	0,017	-0,022
-316,241	-142,458	-0,104	0,007
-315,226	262,560	-0,036	0,045
-314,212	115,383	0,078	-0,068
-313,197	-200,000	0,003	-0,051
-312,183	800,000	0,041	0,108
-311,168	800,000	0,015	0,043
-310,153	139,745	-0,097	0,091
-309,139	-159,246	-0,127	0,005
-308,124	800,000	-0,051	-0,130
-307,110	-200,000	-0,014	0,052
-306,095	95,345	0,067	0,054
-305,080	-87,617	0,082	-0,018
-304,066	-200,000	-0,023	0,091
-303,051	24,375	-0,066	-0,039
-302,037	800,000	0,067	-0,140
-301,022	-200,000	-0,048	-0,176
-300,008	115,859	0,068	0,059
-298,993	0,648	0,031	0,016
-297,978	-14,140	-0,049	0,023
-296,964	-100,308	0,114	0,020
-295,949	-200,000	0,016	-0,104
-294,935	104,519	-0,038	0,032
-293,920	-200,000	-0,022	0,085
-292,905	800,000	-0,038	0,101
-291,891	800,000	0,019	-0,041
-290,876	-200,000	-0,003	-0,026
-289,862	239,889	0,045	-0,054
-288,847	456,558	0,017	-0,026
-287,832	800,000	0,036	0,086
-286,818	11,688	-0,055	0,030
-285,803	595,748	-0,026	0,047
-284,789	-55,075	0,149	0,048
-283,774	29,687	0,078	-0,047
-282,759	138,869	-0,091	-0,086
-281,745	-128,477	0,036	-0,004
-280,730	800,000	-0,020	-0,046
-279,716	-112,146	0,102	-0,014
-278,701	-13,230	-0,069	-0,032
-277,686	-25,230	-0,039	-0,017
-276,672	-200,000	0,003	0,032
-275,657	219,688	-0,022	-0,025
-274,643	16,281	-0,119	0,067
-273,628	-200,000	0,009	0,101
-272,613	800,000	0,011	-0,024
-271,599	-200,000	-0,008	0,184
-270,584	-94,852	0,138	-0,026
-269,570	-200,000	-0,010	0,189
-268,555	138,386	0,079	-0,074
-267,540	186,143	-0,024	0,026
-266,526	-200,000	-0,000	-0,003
-265,511	-200,000	-0,030	-0,109
-264,497	185,162	-0,039	0,041
-263,482	289,093	0,017	-0,022
-262,467	223,389	0,056	0,065
-261,453	800,000	0,004	-0,012
-260,438	31,126	0,110	0,067
-259,424	157,142	0,026	0,026
-258,409	-200,000	-0,025	0,105
-257,395	800,000	0,022	0,057
-256,380	-82,498	0,094	-0,022
-255,365	399,151	0,038	0,057
-254,351	-128,382	-0,066	0,007
-253,336	-51,168	-0,037	0,012
-252,322	-200,000	0,027	0,117
-251,307	91,221	-0,062	0,050
-250,292	-87,162	0,051	0,011
-249,278	-200,000	-0,039	0,127
-248,263	55,778	0,143	-0,099
-247,249	-82,338	0,075	-0,017
-246,234	-170,457	-0,086	0,002
-245,219	800,000	-0,048	-0,141
-244,205	800,000	-0,009	-0,026
-243,190	69,095	-0,174	0,128
-242,176	309,195	-0,035	0,047
-241,161	-149,754	0,182	0,010
-240,146	165,559	0,139	0,141
-239,132	26,438	-0,086	-0,051
-238,117	800,000	-0,002	-0,006
-237,103	-95,782	0,067	-0,013
-236,088	77,054	-0,028	0,021
-235,073	-200,000	-0,010	0,051
-234,059	-200,000	-0,007	0,073
-233,044	29,017	-0,042	-0,026
-232,030	-158,341	-0,160	0,007
-231,015	111,526	-0,114	-0,098
-230,000	-200,000	-0,003	-0,087
-228,986	-134,205	0,121	-0,010
-227,971	32,824	-0,109	-0,067
-226,957	-86,175	0,024	-0,005
-225,942	-200,000	-0,011	0,077
-224,927	769,486	-0,031	-0,060
-223,913	-58,193	-0,105	-0,033
-222,898	44,323	0,094	0,062
-221,884	-63,116	-0,085	-0,025
-220,869	-200,000	0,024	-0,125
-219,855	38,929	0,080	0,051
-218,840	26,774	0,094	-0,056
-217,825	-110,694	-0,119	-0,017
-216,811	178,042	-0,025	0,026
-215,796	270,849	0,092	-0,116
-214,782	800,000	0,036	-0,079
-213,767	-17,220	0,269	0,121
-212,752	150,051	-0,045	0,044
-211,738	21,005	0,073	0,042
-210,723	-200,000	0,027	0,090
-209,709	-200,000	0,005	-0,018
-208,694	256,604	-0,055	-0,068
-207,679	340,576	-0,046	-0,064
-206,665	800,000	-0,037	-0,113
-205,650	-172,251	-0,079	0,002
-204,636	-200,000	0,001	0,021
-203,621	-200,000	0,007	-0,030
-202,606	-1,087	-0,098	-0,049
-201,592	-134,445	-0,194	-0,017
-200,577	-200,000	-0,003	-0,021
-199,563	233,404	0,068	-0,080
-198,548	141,932	0,152	0,144
-197,533	387,215	0,039	0,057
-196,519	-39,059	0,163	-0,061
-195,504	11,504	0,029	-0,016
-194,490	140,387	-0,116	-0,109
-193,475	50,013	0,034	0,023
-192,460	265,185	-0,076	0,095
-191,446	-70,012	-0,059	0,016
-190,431	-111,373	0,083	0,012
-189,417	800,000	0,027	-0,057
-188,402	635,715	0,052	-0,094
-187,387	800,000	0,059	-0,172
-186,373	800,000	0,059	-0,131
-185,358	69,913	-0,062	-0,046
-184,344	284,625	-0,042	0,054
-183,329	644,289	0,061	0,111
-182,315	-27,831	0,042	0,017
-181,300	685,153	-0,038	0,070
-180,285	-200,000	-0,019	-0,186
-179,271	-123,096	0,088	-0,010
-178,256	99,876	0,061	-0,050
-177,242	800,000	0,020	-0,040
-176,227	100,868	0,073	-0,061
-175,212	-200,000	0,003	-0,026
-174,198	80,593	0,070	0,054
-173,183	-200,000	-0,004	-0,016
-172,169	-155,779	-0,051	-0,002
-171,154	-27,799	-0,114	-0,047
-170,139	-200,000	0,039	0,202
-169,125	65,649	-0,115	0,083
-168,110	305,427	-0,035	-0,046
-167,096	-200,000	0,012	-0,107
-166,081	248,005	0,049	-0,059
-165,066	-200,000	-0,037	-0,119
-164,052	800,000	0,071	-0,210
-163,037	139,074	-0,105	-0,098
-162,023	554,398	0,079	0,137
-161,008	483,358	0,006	-0,010
-159,993	800,000	0,017	-0,050
-158,979	162,312	-0,053	-0,053
-157,964	-68,137	-0,123	0,034
-156,950	-15,379	0,061	0,028
-155,935	39,308	0,054	-0,034
-154,920	77,940	0,043	0,033
-153,906	-200,000	-0,007	0,046
-152,891	551,641	-0,026	-0,045
-151,877	-16,273	-0,064	-0,029
-150,862	370,529	-0,105	-0,152
-149,847	155,506	0,025	-0,025
-148,833	113,949	0,010	-0,008
-147,818	-182,323	0,117	0,002
-146,804	-134,769	-0,091	0,008
-145,789	41,642	0,046	-0,030
-144,775	191,775	-0,161	-0,173
-143,760	-200,000	0,005	-0,050
-142,745	-200,000	-0,042	0,147
-141,731	80,707	-0,064	0,049
-140,716	84,279	0,180	0,140
-139,702	-123,333	0,135	0,015
-138,687	618,524	0,039	-0,070
-137,672	-184,302	-0,086	-0,001
-136,658	-66,245	-0,071	0,020
-135,643	800,000	-0,053	-0,136
-134,629	254,195	0,024	0,029
-133,614	-20,440	-0,048	0,021
-132,599	66,644	0,181	0,131
-131,585	73,857	0,048	0,036
-130,570	-200,000	-0,027	0,121
-129,556	-200,000	0,010	-0,036
-128,541	-124,115	0,014	0,002
-127,526	800,000	0,019	0,059
-126,512	-200,000	0,029	0,137
-125,497	-76,534	-0,043	0,011
-124,483	800,000	0,023	-0,051
-123,468	-139,357	0,166	0,013
-122,453	800,000	-0,033	-0,086
-121,439	800,000	0,051	-0,142
-120,424	-138,786	0,053	-0,004
-119,410	800,000	0,046	-0,107
-118,395	-102,927	0,066	0,011
-117,380	41,079	0,082	-0,053
-116,366	225,804	-0,082	-0,094
-115,351	800,000	-0,058	-0,121
-114,337	800,000	-0,045	-0,126
-113,322	-82,127	-0,036	0,008
-112,307	193,601	0,083	-0,089
-111,293	-18,042	0,051	0,023
-110,278	139,466	0,032	-0,030
-109,264	-200,000	0,028	-0,122
-108,249	-200,000	-0,025	-0,092
-107,234	246,659	0,012	-0,014
-106,220	363,584	-0,095	-0,136
-105,205	331,630	0,101	0,138
-104,191	204,506	-0,095	0,104
-103,176	-4,784	0,012	-0,006
-102,162	53,733	-0,076	-0,052
-101,147	85,815	-0,044	0,034
-100,132	-127,134	0,068	-0,007
-99,118	-95,329	-0,092	0,017
-98,103	-130,212	-0,149	-0,014
-97,089	800,000	0,069	0,149
-96,074	107,666	0,085	-0,072
-95,059	421,865	-0,024	-0,037
-94,045	-200,000	-0,007	-0,127
-93,030	800,000	0,010	-0,023
-92,016	800,000	-0,064	-0,134
-91,001	-117,534	0,100	0,013
-89,986	-67,139	0,031	-0,008
-88,972	49,689	-0,112	-0,075
-87,957	-200,000	0,002	0,040
-86,943	800,000	-0,042	0,082
-85,928	-200,000	0,009	0,051
-84,913	275,998	-0,082	-0,103
-83,899	800,000	0,057	-0,120
-82,884	800,000	-0,043	0,111
-81,870	-145,721	0,060	-0,004
-80,855	38,702	0,107	0,067
-79,840	800,000	0,063	-0,130
-78,826	800,000	-0,022	-0,061
-77,811	-200,000	-0,010	-0,083
-76,797	-200,000	0,021	-0,156
-75,782	7,605	-0,040	0,021
-74,767	86,225	0,027	0,021
-73,753	800,000	-0,025	0,051
-72,738	138,903	-0,116	0,108
-71,724	-200,000	-0,010	-0,084
-70,709	-48,762	0,106	-0,036
-69,694	251,118	-0,060	-0,072
-68,680	800,000	-0,030	0,087
-67,665	434,019	0,009	0,013
-66,651	94,448	0,013	0,011
-65,636	424,603	-0,023	0,035
-64,622	-200,000	0,002	0,009
-63,607	619,418	0,027	-0,048
-62,592	674,355	-0,043	-0,080
-61,578	800,000	0,042	0,109
-60,563	-14,367	0,153	0,070
-59,549	-200,000	-0,012	0,049
-58,534	-68,010	-1,579	-0,434
-57,519	426,627	-1,486	-2,279
-56,505	-200,000	-0,401	-4,396
-55,490	139,486	1,042	0,973
-54,476	800,000	4,647	10,922
-53,461	-200,000	17,882	283,529
-52,446	800,000	720,907	2229,911
-51,432	562,866	1635,656	2817,596
-50,417	81,137	1659,444	1269,203
-49,403	23,749	1533,634	893,292
-48,388	17,719	1456,762	819,416
-47,373	18,269	1446,116	816,033
-46,359	17,793	1437,058	808,620
-45,344	16,033	1432,304	797,546
-44,330	15,942	1430,402	796,018
-43,315	15,980	1428,489	795,106
-42,300	16,000	1426,917	794,292
-41,286	16,020	1425,783	793,727
-40,271	15,999	1424,658	792,968
-39,257	15,957	1423,211	791,933
-38,242	16,003	1421,907	791,394
-37,227	15,980	1420,942	790,713
-36,213	16,023	1419,389	790,025
-35,198	16,023	1418,136	789,294
-34,184	16,018	1417,380	788,818
-33,169	15,934	1416,061	787,659
-32,154	15,978	1415,049	787,270
-31,140	16,011	1413,666	786,626
-30,125	16,055	1412,512	786,158
-29,111	16,040	1411,206	785,328
-28,096	15,982	1410,336	784,544
-27,082	15,958	1409,139	783,733
-26,067	15,912	1408,046	782,878
-25,052	15,918	1407,109	782,354
-24,038	15,939	1406,128	781,878
-23,023	15,881	1405,104	781,006
-22,009	15,913	1403,900	780,455
-20,994	15,816	1403,325	779,652
-19,979	15,849	1402,217	779,160
-18,965	15,825	1401,267	778,487
-17,950	15,880	1400,138	778,086
-16,936	15,905	1399,246	777,674
-15,921	15,858	1397,899	776,676
-14,906	15,808	1397,173	776,012
-13,892	15,829	1396,144	775,508
-12,877	15,818	1395,283	774,948
-11,863	15,858	1394,265	774,534
-10,848	15,782	1393,569	773,765
-9,833	15,806	1392,517	773,263
-8,819	15,805	1391,548	772,690
-7,804	15,734	1390,736	771,882
-6,790	15,722	1389,628	771,177
-5,775	15,715	1388,702	770,600
-4,760	15,741	1387,730	770,151
-3,746	15,717	1387,016	769,616
-2,731	15,707	1386,145	769,055
-1,717	15,697	1385,242	768,479
-0,702	15,677	1383,409	767,339
0,313	19,481	1303,836	740,751
1,327	35,828	706,630	439,339
2,342	55,453	125,185	85,708
3,356	4,571	16,563	8,584
4,371	19,471	3,099	1,760
5,386	-44,325	0,580	0,205
6,400	-200,000	0,023	0,247
7,415	115,661	-0,281	-0,243
8,429	401,635	-0,174	-0,259
9,444	75,855	-0,341	-0,255
10,459	66,634	-0,187	-0,134
11,473	51,053	-0,350	-0,235
12,488	139,969	-0,265	-0,248
13,502	31,026	-0,410	-0,248
14,517	208,034	-0,270	-0,299
15,531	198,815	-0,328	-0,356
16,546	114,041	-0,191	-0,164
17,561	528,279	-0,213	-0,357
18,575	222,475	-0,137	-0,157
19,590	30,564	-0,287	-0,173
20,604	-116,790	-0,296	-0,038
21,619	123,003	-0,381	-0,337
22,634	57,761	-0,409	-0,283
23,648	50,344	-0,524	-0,350
24,663	-2,176	-0,357	-0,177
25,677	-2,556	-0,389	-0,192
26,692	-44,199	-0,302	-0,106
27,707	96,470	-0,277	-0,224
28,721	168,984	-0,377	-0,381
29,736	110,641	-0,425	-0,362
30,750	44,395	-0,479	-0,310
31,765	27,863	-0,401	-0,238
32,780	46,523	-0,370	-0,242
33,794	134,619	-0,235	-0,216
34,809	13,920	-0,402	-0,220
35,823	112,780	-0,396	-0,339
36,838	210,708	-0,398	-0,442
37,853	197,345	-0,407	-0,440
38,867	235,594	-0,325	-0,380
39,882	141,757	-0,345	-0,323
40,896	117,226	-0,374	-0,324
41,911	49,163	-0,290	-0,192
42,926	262,930	-0,213	-0,261
43,940	-17,939	-0,503	-0,222
44,955	-55,916	-0,579	-0,181
45,969	67,754	-0,428	-0,309
46,984	432,885	-0,246	-0,378
47,999	166,744	-0,212	-0,212
49,013	13,487	-0,381	-0,208
50,028	68,046	-0,260	-0,187
51,042	119,458	-0,324	-0,283
52,057	96,822	-0,386	-0,312
53,071	113,310	-0,361	-0,309
54,086	81,399	-0,237	-0,180
55,101	-142,844	-0,302	-0,020
56,115	219,926	-0,302	-0,342
57,130	145,111	-0,247	-0,233
58,144	-17,496	-0,443	-0,195
59,159	-1,821	-0,421	-0,208
60,174	37,986	-0,405	-0,253
61,188	20,625	-0,400	-0,228
62,203	108,379	-0,318	-0,267
63,217	9,495	-0,413	-0,220
64,232	11,539	-0,411	-0,221
65,247	-42,763	-0,487	-0,174
66,261	602,784	-0,213	-0,375
67,276	55,307	-0,320	-0,218
68,290	161,465	-0,319	-0,314
69,305	70,657	-0,213	-0,155
70,320	24,625	-0,366	-0,213
71,334	-32,016	-0,198	-0,078
72,349	33,943	-0,333	-0,204
73,363	58,616	-0,347	-0,240
74,378	149,126	-0,206	-0,196
75,393	54,851	-0,352	-0,239
76,407	-6,177	-0,278	-0,133
77,422	178,469	-0,271	-0,279
78,436	-47,814	-0,322	-0,109
79,451	153,824	-0,297	-0,287
80,466	-0,842	-0,348	-0,173
81,480	80,418	-0,282	-0,214
82,495	68,603	-0,325	-0,234
83,509	-22,100	-0,272	-0,116
84,524	-35,934	-0,289	-0,109
85,539	20,752	-0,280	-0,159
86,553	-66,642	-0,258	-0,071
87,568	-85,407	-0,335	-0,073
88,582	-27,263	-0,404	-0,165
89,597	-49,528	-0,280	-0,093
90,611	224,151	-0,200	-0,227
91,626	-10,001	-0,255	-0,119
92,641	180,604	-0,223	-0,230
93,655	113,740	-0,159	-0,136
94,670	649,687	-0,187	-0,337
95,684	411,986	-0,292	-0,437
96,699	-58,746	-0,387	-0,117
97,714	-135,355	-0,288	-0,024
98,728	-46,179	-0,215	-0,074
99,743	391,511	-0,181	-0,266
100,757	-77,823	-0,226	-0,054
101,772	75,312	-0,280	-0,207
102,787	88,096	-0,299	-0,233
103,801	66,439	-0,315	-0,225
104,816	49,879	-0,306	-0,202
105,830	-70,463	-0,286	-0,075
106,845	-113,206	-0,288	-0,039
107,860	123,671	-0,244	-0,215
108,874	218,455	-0,288	-0,323
109,889	435,874	-0,162	-0,248
110,903	81,118	-0,276	-0,209
111,918	-3,956	-0,346	-0,168
112,933	-42,350	-0,257	-0,092
113,947	160,454	-0,177	-0,174
114,962	161,079	-0,165	-0,162
115,976	44,352	-0,395	-0,254
116,991	20,282	-0,269	-0,152
118,006	136,619	-0,242	-0,222
119,020	-79,818	-0,250	-0,058
120,035	120,217	-0,301	-0,262
121,049	205,616	-0,210	-0,229
122,064	-57,802	-0,239	-0,073
123,079	-108,699	-0,205	-0,031
124,093	142,861	-0,243	-0,227
125,108	-110,391	-0,311	0,045
126,122	300,584	-0,208	-0,269
127,137	188,487	-0,165	-0,173
128,151	55,189	-0,204	-0,138
129,166	50,837	-0,235	-0,156
130,181	292,298	-0,201	-0,257
131,195	199,906	-0,214	-0,231
132,210	148,689	-0,353	-0,334
133,224	-184,094	-0,224	-0,003
134,239	40,002	-0,289	-0,182
135,254	230,790	-0,109	-0,125
136,268	-27,931	-0,098	-0,039
137,283	228,421	-0,171	-0,195
138,297	29,031	-0,345	-0,204
139,312	211,413	-0,221	-0,244
140,327	20,639	-0,391	-0,221
141,341	-14,538	-0,181	-0,081
142,356	-69,639	-0,200	-0,053
143,370	84,211	-0,391	-0,299
144,385	3,376	-0,233	-0,118
145,400	198,954	-0,202	-0,217
146,414	158,352	-0,290	-0,281
147,429	120,053	-0,187	-0,162
148,443	374,698	-0,170	-0,242
149,458	184,482	-0,244	-0,254
150,473	125,484	-0,207	-0,183
151,487	-47,448	-0,248	-0,084
152,502	166,965	-0,220	-0,218
153,516	800,000	-0,094	-0,220
154,531	103,052	-0,356	-0,291
155,546	-34,450	-0,258	-0,098
156,560	71,872	-0,303	-0,220
157,575	70,644	-0,133	-0,096
158,589	211,555	-0,173	-0,190
159,604	343,547	-0,202	-0,278
160,619	61,415	-0,297	-0,206
161,633	104,230	-0,325	-0,267
162,648	51,124	-0,229	-0,152
163,662	246,123	-0,208	-0,245
164,677	-120,515	-0,278	-0,033
165,692	800,000	-0,071	-0,158
166,706	219,410	-0,143	-0,160
167,721	76,773	-0,191	-0,141
168,735	150,482	-0,266	-0,252
169,750	-56,928	-0,274	-0,084
170,764	120,221	-0,095	-0,083
171,779	100,381	-0,081	-0,066
172,794	-1,657	-0,295	-0,144
173,808	27,585	-0,319	-0,187
174,823	800,000	-0,101	-0,228
175,837	443,790	-0,149	-0,229
176,852	48,461	-0,285	-0,186
177,867	32,510	-0,180	-0,108
178,881	129,933	-0,220	-0,196
179,896	-134,902	-0,230	0,019
180,910	18,704	-0,221	-0,123
181,925	-21,039	-0,190	-0,081
182,940	101,953	-0,218	-0,178
183,954	20,816	-0,322	-0,182
184,969	81,056	-0,220	-0,166
185,983	-82,682	-0,183	-0,041
186,998	117,914	-0,271	-0,232
188,013	133,111	-0,213	-0,192
189,027	-19,561	-0,243	-0,105
190,042	77,555	-0,194	-0,143
191,056	203,851	-0,215	-0,233
192,071	-0,441	-0,214	-0,106
193,086	-77,120	-0,169	-0,041
194,100	409,870	-0,159	-0,235
195,115	264,041	-0,135	-0,164
196,129	51,761	-0,203	-0,135
197,144	-52,984	-0,199	-0,063
198,159	33,367	-0,227	-0,137
199,173	146,276	-0,152	-0,142
200,188	29,487	-0,203	-0,120
201,202	-104,414	-0,205	-0,033
202,217	-50,626	-0,234	-0,076
203,232	56,726	-0,302	-0,205
204,246	139,073	-0,278	-0,255
205,261	318,817	-0,225	-0,298
206,275	259,364	-0,133	-0,159
207,290	169,180	-0,151	-0,150
208,304	-200,000	-0,008	-0,196
209,319	374,388	-0,119	-0,169
210,334	-9,523	-0,342	-0,158
211,348	-11,413	-0,153	-0,070
212,363	55,395	-0,173	-0,116
213,377	13,713	-0,293	-0,158
214,392	263,020	-0,202	-0,244
215,407	585,180	-0,093	-0,159
216,421	246,308	-0,222	-0,260
217,436	93,195	-0,215	-0,169
218,450	161,285	-0,186	-0,181
219,465	20,938	-0,265	-0,149
220,480	146,183	-0,154	-0,143
221,494	-46,260	-0,193	-0,066
222,509	800,000	-0,061	-0,177
223,523	72,268	-0,164	-0,119
224,538	73,385	-0,185	-0,135
225,553	88,332	-0,194	-0,149
226,567	51,059	-0,202	-0,133
227,582	181,741	-0,252	-0,258
228,596	-45,796	-0,188	0,064
229,611	198,548	-0,111	-0,119
230,626	284,867	-0,181	-0,227
231,640	51,680	-0,145	-0,096
232,655	-94,861	-0,346	-0,064
233,669	114,189	-0,231	-0,195
234,684	800,000	-0,092	-0,240
235,699	6,165	-0,285	-0,146
236,713	15,871	-0,156	-0,085
237,728	464,991	-0,105	-0,163
238,742	74,904	-0,100	-0,073
239,757	94,383	-0,225	-0,177
240,772	419,622	-0,145	-0,216
241,786	-36,753	-0,276	-0,102
242,801	546,173	-0,077	-0,128
243,815	292,506	-0,180	-0,228
244,830	756,775	-0,053	-0,101
245,844	149,445	-0,097	-0,092
246,859	109,397	-0,197	-0,164
247,874	381,072	-0,123	-0,176
248,888	150,739	-0,231	-0,218
249,903	149,961	-0,117	-0,110
250,917	-200,000	-0,030	-0,094
251,932	61,726	-0,255	-0,176
252,947	-89,855	-0,109	0,022
253,961	40,379	-0,214	-0,133
254,976	92,672	-0,379	-0,296
255,990	100,733	-0,175	-0,141
257,005	22,460	-0,226	-0,128
258,020	493,729	-0,133	-0,213
259,034	-57,098	-0,084	0,026
260,049	-4,841	-0,204	0,097
261,063	-163,699	-0,160	0,005
262,078	1,913	-0,186	-0,093
263,093	-38,627	-0,203	-0,074
264,107	-14,543	-0,314	-0,139
265,122	445,775	-0,069	-0,105
266,136	352,358	-0,112	-0,154
267,151	-74,006	-0,123	-0,031
268,166	-8,653	-0,186	-0,086
269,180	-31,612	-0,156	-0,060
270,195	271,859	-0,153	-0,187
271,209	-47,896	-0,122	-0,041
272,224	36,541	-0,127	-0,077
273,239	800,000	-0,083	-0,203
274,253	-16,048	-0,134	-0,059
275,268	-134,322	-0,217	-0,018
276,282	335,024	-0,151	-0,203
277,297	208,940	-0,112	-0,121
278,312	141,857	-0,136	-0,125
279,326	-200,000	-0,025	-0,147
280,341	-151,479	-0,154	-0,008
281,355	-135,274	-0,080	-0,007
282,370	11,808	-0,225	-0,119
283,384	196,818	-0,155	-0,164
284,399	-127,937	-0,189	-0,019
285,414	800,000	-0,094	-0,250
286,428	-70,904	-0,110	-0,029
287,443	119,039	-0,202	-0,173
288,457	628,056	-0,029	-0,051
289,472	60,925	-0,235	-0,161
290,487	800,000	-0,170	-0,327
291,501	116,244	-0,099	-0,084
292,516	179,377	-0,217	-0,220
293,530	215,566	-0,113	-0,124
294,545	177,739	-0,180	-0,181
295,560	-146,310	-0,166	0,010
296,574	120,741	-0,181	-0,156
297,589	-52,284	-0,296	-0,094
298,603	510,146	-0,102	-0,165
299,618	229,900	-0,177	-0,200
300,633	306,243	-0,152	-0,195
301,647	800,000	-0,087	-0,201
302,662	800,000	0,041	-0,107
303,676	-81,283	-0,085	-0,019
304,691	800,000	-0,104	-0,215
305,706	187,608	-0,193	-0,199
306,720	383,405	-0,146	-0,208
307,735	164,838	-0,269	-0,262
308,749	783,396	-0,067	-0,128
309,764	-200,000	-0,028	-0,094
310,779	-88,316	-0,073	-0,015
311,793	298,703	-0,073	-0,093
312,808	-200,000	-0,040	-0,208
313,822	58,237	-0,136	-0,092
314,837	-121,392	-0,165	0,019
315,852	-32,293	-0,065	0,025
316,866	277,844	-0,087	-0,107
317,881	-38,186	-0,139	-0,050
318,895	800,000	-0,073	-0,145
319,910	-32,932	-0,134	-0,051
320,925	154,444	-0,096	-0,091
321,939	57,647	-0,199	-0,134
322,954	510,465	-0,059	-0,094
323,968	-200,000	0,008	-0,210
324,983	706,531	-0,081	-0,148
325,997	-37,773	-0,225	-0,082
327,012	244,933	-0,154	-0,178
328,027	389,019	-0,152	-0,218
329,041	-23,644	-0,129	-0,053
330,056	251,849	-0,133	-0,157
331,070	178,155	-0,143	-0,144
332,085	75,676	-0,117	-0,085
333,100	-4,884	-0,083	0,039
334,114	-200,000	0,044	-0,151
335,129	130,849	-0,115	-0,102
336,143	800,000	-0,116	-0,295
337,158	550,782	-0,118	-0,195
338,173	-200,000	-0,033	-0,154
339,187	-200,000	-0,024	-0,076
340,202	88,060	-0,107	-0,081
341,216	-64,240	-0,243	0,068
342,231	19,006	-0,148	-0,081
343,246	-200,000	0,014	-0,118
344,260	63,898	-0,170	-0,117
345,275	232,951	-0,157	-0,178
346,289	-29,623	-0,138	-0,054
347,304	303,626	-0,080	-0,103
348,319	175,926	-0,184	-0,184
349,333	441,079	-0,092	-0,139
350,348	78,676	-0,183	-0,134
351,362	800,000	-0,041	-0,087
352,377	18,935	-0,116	-0,064
353,392	84,828	-0,064	-0,048
354,406	50,728	-0,100	-0,065
355,421	210,055	1314,301	1418,301
356,435	161,691	1475,002	1418,815
