DTS Sentinel unit serial number:	SN410029Multiplexer serial number:	ORYXHardware model number:	OX2-SRSoftware version number:	ORYX F/W v4,00 Oryx Data Collector v3.7.2.0data status	okinstallation	B3 Nyhavnadifferential loss correction	single-endedforward channel	channel 1reverse channel	N/Adate	2023/12/01time	18:32:30forward acquisition time	300,00reverse acquisition time	0,00gamma	499,1914k internal	0,3202k external	0,3202temperature offset calibration	1,0000default loss term (dB/km)	0,3820temperature slope calibration	1,0000multiplexer offset coefficient	1,0000multiplexer slope coefficient	1,0000fibre end	0,00T internal ref (°C)	14,90T ext. ref 1 (°C)	0,90T ext. ref 2 (°C)	0,89length (m)	temperature (°C)	Stokes	anti-Stokes-744,400	105,921	-0,380	-0,327
-743,385	-200,000	0,078	0,343
-742,371	-37,616	-0,102	-0,039
-741,356	-200,000	-0,011	0,374
-740,342	678,142	-0,164	-0,312
-739,327	-200,000	0,035	0,375
-738,312	-200,000	-0,041	-0,204
-737,298	-200,000	0,045	0,179
-736,283	334,141	-0,122	-0,172
-735,269	800,000	0,151	0,341
-734,254	42,582	-0,207	-0,136
-733,239	177,816	-0,187	0,199
-732,225	426,090	-0,141	-0,222
-731,210	800,000	0,069	0,154
-730,196	800,000	0,023	0,054
-729,181	-200,000	-0,014	0,047
-728,167	-185,783	0,018	-0,000
-727,152	-172,336	-0,038	-0,001
-726,137	800,000	0,031	-0,078
-725,123	22,701	-0,080	-0,048
-724,108	132,483	-0,132	-0,124
-723,094	559,062	-0,065	0,115
-722,079	33,783	-0,035	-0,022
-721,064	-48,530	0,101	0,035
-720,050	800,000	0,030	-0,072
-719,035	800,000	-0,062	-0,137
-718,021	-32,309	0,159	-0,064
-717,006	800,000	-0,090	-0,210
-715,991	-200,000	-0,012	-0,091
-714,977	-200,000	0,021	-0,099
-713,962	62,023	0,064	-0,046
-712,948	-190,379	-0,015	0,000
-711,933	-200,000	0,039	-0,135
-710,918	45,307	-0,065	-0,043
-709,904	-189,816	-0,104	-0,001
-708,889	30,604	-0,035	0,022
-707,875	-68,746	-0,088	-0,025
-706,860	88,292	0,068	0,055
-705,845	27,655	0,079	0,048
-704,831	117,751	0,156	0,140
-703,816	-42,457	-0,163	0,060
-702,802	-200,000	0,017	-0,061
-701,787	-200,000	0,010	-0,120
-700,772	117,342	-0,045	-0,040
-699,758	-200,000	-0,002	-0,066
-698,743	81,162	-0,022	0,017
-697,729	409,907	0,093	0,143
-696,714	-200,000	-0,008	0,056
-695,699	-19,660	-0,060	0,027
-694,685	-8,594	-0,126	-0,061
-693,670	107,784	-0,097	-0,084
-692,656	412,789	-0,078	0,120
-691,641	60,950	0,095	-0,069
-690,627	129,909	0,078	-0,072
-689,612	605,297	0,009	0,016
-688,597	-200,000	-0,017	-0,085
-687,583	301,773	-0,087	-0,118
-686,568	156,483	-0,065	-0,065
-685,554	-200,000	-0,036	-0,170
-684,539	-200,000	0,025	0,088
-683,524	-70,167	-0,042	-0,012
-682,510	-50,729	-0,103	0,035
-681,495	-200,000	0,004	0,116
-680,481	56,395	-0,133	-0,094
-679,466	-84,661	0,089	-0,020
-678,451	-200,000	0,006	0,110
-677,437	800,000	0,059	-0,172
-676,422	34,930	-0,066	-0,042
-675,408	-95,400	0,120	-0,023
-674,393	49,907	-0,064	-0,044
-673,378	800,000	0,027	-0,069
-672,364	-200,000	-0,036	-0,212
-671,349	201,388	-0,095	-0,106
-670,335	67,054	0,116	-0,085
-669,320	269,446	0,076	0,097
-668,305	-104,207	-0,177	0,029
-667,291	-97,118	-0,097	0,018
-666,276	150,699	0,033	0,032
-665,262	-128,815	-0,243	0,024
-664,247	-35,096	0,132	-0,052
-663,232	-200,000	-0,001	-0,006
-662,218	800,000	0,033	-0,075
-661,203	-200,000	0,003	0,085
-660,189	366,239	0,060	-0,089
-659,174	-49,256	-0,089	0,031
-658,159	800,000	-0,018	0,055
-657,145	285,502	0,053	0,070
-656,130	-49,591	-0,079	-0,027
-655,116	-101,752	0,076	0,013
-654,101	-21,131	-0,175	-0,077
-653,086	-118,306	-0,059	-0,008
-652,072	-39,539	-0,035	0,013
-651,057	444,978	0,022	0,035
-650,043	108,698	-0,080	0,069
-649,028	241,490	-0,050	0,061
-648,014	-64,628	0,061	0,018
-646,999	34,171	-0,062	-0,039
-645,984	48,871	0,103	0,070
-644,970	-48,445	-0,103	-0,036
-643,955	174,995	-0,114	-0,119
-642,941	-91,909	-0,085	-0,017
-641,926	224,693	-0,121	-0,141
-640,911	-148,834	-0,075	0,004
-639,897	-149,729	0,125	0,007
-638,882	-106,386	0,119	-0,019
-637,868	679,397	0,045	0,086
-636,853	-119,600	-0,056	-0,007
-635,838	800,000	0,078	-0,190
-634,824	72,148	-0,038	0,029
-633,809	229,468	0,073	0,087
-632,795	471,882	0,036	0,059
-631,780	-73,815	-0,141	0,037
-630,765	-50,546	-0,135	0,046
-629,751	39,023	-0,066	-0,043
-628,736	29,078	0,044	0,027
-627,722	-200,000	0,009	-0,082
-626,707	800,000	0,016	-0,039
-625,692	800,000	-0,004	-0,013
-624,678	360,282	0,011	-0,016
-623,663	800,000	-0,064	-0,155
-622,649	-49,826	-0,136	0,046
-621,634	75,208	-0,077	-0,058
-620,619	800,000	-0,050	-0,119
-619,605	-200,000	-0,006	-0,036
-618,590	800,000	0,055	0,118
-617,576	-200,000	0,007	0,132
-616,561	-103,192	0,076	-0,013
-615,546	44,732	0,148	0,098
-614,532	-85,601	0,051	-0,011
-613,517	278,902	-0,026	-0,033
-612,503	800,000	0,011	-0,028
-611,488	-111,274	0,029	-0,004
-610,474	-200,000	-0,014	-0,055
-609,459	-132,677	-0,038	0,003
-608,444	-177,571	0,093	-0,002
-607,430	84,690	0,077	-0,061
-606,415	136,050	-0,059	-0,055
-605,401	-200,000	-0,003	-0,028
-604,386	-68,794	-0,074	0,020
-603,371	729,152	-0,031	0,060
-602,357	98,959	-0,144	0,120
-601,342	66,851	0,025	-0,018
-600,328	-18,416	-0,033	0,015
-599,313	-76,294	-0,098	-0,025
-598,298	365,372	-0,033	0,048
-597,284	-29,192	0,057	-0,024
-596,269	35,092	-0,082	0,052
-595,255	-200,000	0,027	0,128
-594,240	194,283	0,127	0,139
-593,225	-200,000	-0,005	-0,097
-592,211	367,888	0,049	-0,072
-591,196	-200,000	0,004	-0,033
-590,182	-152,272	0,209	0,011
-589,167	-200,000	-0,010	-0,063
-588,152	-200,000	-0,007	-0,068
-587,138	-1,014	0,042	-0,021
-586,123	-200,000	0,003	-0,204
-585,109	-200,000	0,016	-0,093
-584,094	-56,634	-0,075	-0,024
-583,079	-194,534	0,115	-0,001
-582,065	139,026	-0,015	-0,015
-581,050	208,357	-0,037	-0,042
-580,036	13,240	0,066	0,037
-579,021	27,900	-0,037	-0,022
-578,006	-20,688	-0,099	-0,044
-576,992	-200,000	0,010	-0,076
-575,977	-181,831	0,166	-0,002
-574,963	60,091	-0,084	0,060
-573,948	-200,000	0,000	0,019
-572,934	127,530	0,014	0,012
-571,919	-1,639	-0,065	-0,033
-570,904	-138,057	-0,057	-0,005
-569,890	400,876	0,043	-0,065
-568,875	-90,978	0,084	0,017
-567,861	435,874	0,012	0,019
-566,846	800,000	0,019	-0,046
-565,831	-200,000	-0,007	-0,048
-564,817	-173,989	-0,104	0,002
-563,802	29,370	-0,155	-0,095
-562,788	77,921	-0,067	0,052
-561,773	220,055	-0,087	0,101
-560,758	-200,000	0,022	0,117
-559,744	306,588	-0,071	-0,096
-558,729	189,665	0,070	-0,076
-557,715	800,000	0,016	-0,035
-556,700	-28,138	-0,072	-0,030
-555,685	-121,119	-0,049	-0,006
-554,671	-200,000	-0,008	-0,082
-553,656	-200,000	-0,022	0,201
-552,642	-200,000	-0,009	0,127
-551,627	-152,587	-0,098	0,005
-550,612	-200,000	0,007	0,166
-549,598	800,000	0,009	0,022
-548,583	-48,227	0,133	0,046
-547,569	-200,000	-0,024	-0,145
-546,554	506,712	-0,052	-0,088
-545,539	357,109	0,036	-0,052
-544,525	-200,000	0,030	0,172
-543,510	95,405	-0,019	-0,016
-542,496	80,649	-0,011	0,009
-541,481	349,489	0,061	0,087
-540,466	71,143	0,095	0,071
-539,452	480,753	0,016	0,027
-538,437	508,943	-0,037	0,063
-537,423	800,000	0,018	0,039
-536,408	513,482	-0,095	0,161
-535,393	131,988	0,082	-0,077
-534,379	22,216	-0,102	-0,060
-533,364	500,447	-0,025	0,042
-532,350	-131,012	0,147	0,014
-531,335	-64,405	0,088	-0,026
-530,321	-8,559	-0,036	-0,017
-529,306	-200,000	-0,016	-0,060
-528,291	172,836	0,018	-0,019
-527,277	157,806	0,097	-0,097
-526,262	-200,000	-0,006	-0,067
-525,248	282,719	0,063	0,081
-524,233	-65,274	0,155	0,045
-523,218	-200,000	0,003	-0,039
-522,204	-200,000	-0,010	-0,076
-521,189	55,612	-0,143	-0,100
-520,175	800,000	-0,009	0,023
-519,160	-200,000	0,010	-0,081
-518,145	-114,745	-0,075	0,010
-517,131	146,440	0,105	0,102
-516,116	-188,356	-0,074	0,001
-515,102	-30,970	0,123	-0,050
-514,087	800,000	0,022	0,060
-513,072	-200,000	-0,008	-0,164
-512,058	-200,000	0,009	-0,034
-511,043	785,501	0,048	-0,095
-510,029	-200,000	0,045	0,178
-509,014	-127,655	0,123	0,013
-507,999	800,000	0,035	0,097
-506,985	-200,000	0,012	0,042
-505,970	204,224	-0,064	-0,071
-504,956	-51,795	0,032	-0,011
-503,941	-156,389	0,054	0,002
-502,926	800,000	-0,048	0,136
-501,912	56,456	0,091	0,063
-500,897	191,176	0,035	-0,038
-499,883	-35,871	-0,120	0,046
-498,868	-200,000	-0,016	0,089
-497,853	247,433	0,010	-0,012
-496,839	-200,000	0,016	0,121
-495,824	-200,000	0,001	0,058
-494,810	800,000	0,040	0,088
-493,795	663,894	-0,008	-0,015
-492,781	-200,000	0,049	-0,158
-491,766	-22,403	-0,071	-0,031
-490,751	62,070	-0,041	0,030
-489,737	800,000	-0,025	-0,053
-488,722	-200,000	-0,017	-0,149
-487,708	394,366	-0,062	0,093
-486,693	800,000	-0,063	0,127
-485,678	416,719	-0,021	0,033
-484,664	-18,181	-0,131	-0,059
-483,649	5,379	-0,059	-0,031
-482,635	657,385	0,037	0,068
-481,620	-200,000	-0,001	0,023
-480,605	-200,000	0,025	0,095
-479,591	93,878	0,111	-0,090
-478,576	800,000	-0,036	-0,104
-477,562	-145,222	-0,162	0,010
-476,547	-143,103	0,124	0,008
-475,532	651,251	-0,066	-0,123
-474,518	250,710	0,094	0,115
-473,503	18,144	0,121	0,069
-472,489	800,000	0,032	-0,095
-471,474	-72,472	-0,153	0,040
-470,459	-200,000	0,011	-0,190
-469,445	-67,736	0,128	-0,036
-468,430	5,799	-0,152	-0,080
-467,416	-0,995	0,057	0,029
-466,401	-200,000	-0,002	0,064
-465,386	-102,686	0,073	0,012
-464,372	-43,996	-0,026	0,009
-463,357	800,000	-0,012	-0,029
-462,343	-200,000	-0,020	-0,062
-461,328	800,000	-0,030	0,065
-460,313	-25,051	-0,066	-0,028
-459,299	90,733	0,019	0,015
-458,284	-200,000	0,017	0,130
-457,270	-124,755	0,066	0,007
-456,255	-63,157	0,080	0,024
-455,241	-200,000	-0,009	-0,052
-454,226	-200,000	-0,028	0,121
-453,211	-200,000	0,023	0,159
-452,197	37,742	-0,031	0,019
-451,182	800,000	-0,043	0,101
-450,168	241,844	0,112	0,135
-449,153	-200,000	-0,003	0,030
-448,138	514,729	0,094	-0,159
-447,124	3,335	-0,168	-0,087
-446,109	-200,000	-0,010	-0,056
-445,095	-200,000	0,010	0,119
-444,080	800,000	0,020	-0,047
-443,065	5,875	0,071	0,038
-442,051	-200,000	0,029	0,102
-441,036	-200,000	0,040	0,133
-440,022	161,895	-0,029	-0,029
-439,007	-37,899	-0,072	-0,027
-437,992	387,718	0,056	0,083
-436,978	211,075	0,098	0,111
-435,963	-55,433	0,071	-0,023
-434,949	-28,458	0,070	0,029
-433,934	260,257	-0,034	0,042
-432,919	15,809	0,030	0,017
-431,905	71,967	-0,076	0,057
-430,890	-168,786	0,016	0,000
-429,876	800,000	0,042	0,109
-428,861	-76,197	-0,141	0,035
-427,846	348,415	0,083	-0,117
-426,832	482,066	0,073	-0,120
-425,817	-77,329	-0,047	0,012
-424,803	-60,505	-0,054	-0,017
-423,788	800,000	-0,050	0,126
-422,773	393,631	-0,088	0,133
-421,759	800,000	-0,049	-0,147
-420,744	278,170	-0,095	-0,121
-419,730	-49,830	0,098	0,033
-418,715	-81,714	-0,120	-0,028
-417,701	48,741	-0,120	-0,081
-416,686	-200,000	-0,004	0,040
-415,671	-200,000	0,007	0,061
-414,657	118,512	-0,072	-0,063
-413,642	669,403	0,065	0,122
-412,628	-173,983	0,026	0,001
-411,613	339,526	-0,070	-0,098
-410,598	-200,000	-0,027	-0,113
-409,584	-130,735	0,022	0,002
-408,569	37,606	0,031	-0,020
-407,555	107,718	0,068	-0,058
-406,540	391,278	0,011	0,017
-405,525	199,894	-0,083	0,092
-404,511	-27,838	-0,094	0,039
-403,496	-21,840	-0,092	0,040
-402,482	162,796	0,129	-0,130
-401,467	247,602	0,109	0,132
-400,452	-200,000	-0,018	0,063
-399,438	800,000	0,041	-0,092
-398,423	353,926	-0,050	-0,071
-397,409	75,179	0,037	0,028
-396,394	-94,089	0,045	-0,009
-395,379	410,708	-0,047	-0,072
-394,365	15,422	0,080	0,045
-393,350	140,039	-0,103	0,098
-392,336	144,633	-0,030	0,029
-391,321	-200,000	0,005	0,050
-390,306	800,000	0,057	-0,143
-389,292	800,000	0,026	-0,069
-388,277	347,034	0,010	0,015
-387,263	143,341	0,098	0,094
-386,248	-110,708	-0,049	0,007
-385,233	95,218	-0,069	0,056
-384,219	188,611	-0,062	0,067
-383,204	-200,000	0,015	-0,149
-382,190	-200,000	-0,004	-0,164
-381,175	156,499	-0,091	-0,090
-380,160	-5,554	0,142	0,070
-379,146	36,589	0,035	0,022
-378,131	-200,000	0,051	0,173
-377,117	47,946	0,076	-0,051
-376,102	37,548	-0,039	-0,025
-375,088	107,594	-0,079	-0,068
-374,073	139,537	0,066	-0,063
-373,058	-200,000	0,018	-0,070
-372,044	3,083	0,178	-0,092
-371,029	284,279	0,082	-0,106
-370,015	-83,799	-0,059	-0,013
-369,000	-200,000	0,036	0,128
-367,985	-82,428	-0,090	-0,021
-366,971	-91,897	-0,076	-0,015
-365,956	117,245	-0,101	-0,089
-364,942	-107,434	0,111	0,017
-363,927	-200,000	0,021	0,103
-362,912	-200,000	0,006	0,048
-361,898	-200,000	0,015	-0,106
-360,883	621,316	-0,032	-0,059
-359,869	140,931	-0,058	0,055
-358,854	-105,902	-0,048	-0,008
-357,839	447,142	0,026	0,042
-356,825	-200,000	-0,016	-0,060
-355,810	-200,000	0,001	-0,136
-354,796	-104,038	-0,090	0,015
-353,781	681,910	-0,064	-0,120
-352,766	800,000	0,072	-0,153
-351,752	48,746	0,019	-0,013
-350,737	-200,000	-0,011	0,040
-349,723	285,764	-0,068	-0,089
-348,708	217,929	-0,027	0,030
-347,693	151,241	0,040	0,039
-346,679	-200,000	0,014	-0,110
-345,664	-200,000	0,020	-0,077
-344,650	689,733	-0,013	0,025
-343,635	-97,537	0,202	0,037
-342,620	252,467	-0,086	0,105
-341,606	-200,000	-0,164	0,000
-340,591	168,303	-0,078	0,079
-339,577	602,561	-0,015	0,027
-338,562	-130,082	-0,200	0,019
-337,548	171,475	-0,047	-0,049
-336,533	-200,000	0,006	-0,068
-335,518	-17,142	0,176	-0,079
-334,504	-200,000	0,001	0,242
-333,489	140,218	-0,054	-0,051
-332,475	800,000	0,032	0,068
-331,460	54,621	-0,108	-0,074
-330,445	-54,657	-0,071	0,023
-329,431	142,139	0,026	0,025
-328,416	-187,814	0,163	-0,001
-327,402	168,871	0,075	0,077
-326,387	-40,362	-0,101	-0,037
-325,372	-200,000	-0,046	-0,215
-324,358	800,000	0,010	-0,024
-323,343	-29,747	0,080	-0,033
-322,329	6,823	-0,104	-0,055
-321,314	800,000	-0,010	0,026
-320,299	54,115	0,161	0,110
-319,285	29,691	-0,185	0,113
-318,270	90,978	-0,024	0,019
-317,256	-200,000	0,021	0,083
-316,241	62,153	-0,131	-0,093
-315,226	315,984	0,068	-0,093
-314,212	-75,285	0,057	-0,014
-313,197	602,209	0,044	-0,078
-312,183	-200,000	0,025	0,160
-311,168	-200,000	0,020	-0,120
-310,153	-2,702	0,054	-0,027
-309,139	758,302	0,035	0,068
-308,124	-56,560	-0,116	-0,037
-307,110	159,281	-0,033	0,033
-306,095	374,887	0,120	0,175
-305,080	562,160	0,064	-0,111
-304,066	53,764	-0,031	0,021
-303,051	-27,713	0,036	0,015
-302,037	-8,408	-0,077	-0,037
-301,022	652,150	0,025	0,047
-300,008	-125,259	0,099	-0,011
-298,993	-127,989	-0,076	-0,008
-297,978	4,989	0,007	0,004
-296,964	-200,000	0,013	0,100
-295,949	-80,164	-0,058	0,014
-294,935	19,924	0,121	-0,069
-293,920	-135,711	0,066	-0,005
-292,905	-92,681	0,153	0,030
-291,891	-24,684	0,089	-0,038
-290,876	331,515	-0,073	0,101
-289,862	800,000	0,041	0,100
-288,847	-86,334	0,059	-0,013
-287,832	-200,000	-0,003	-0,068
-286,818	-200,000	0,020	0,108
-285,803	774,965	0,048	-0,094
-284,789	-200,000	0,013	0,142
-283,774	167,329	0,143	0,145
-282,759	-49,930	-0,076	0,026
-281,745	-95,526	0,137	0,026
-280,730	-112,245	0,027	0,004
-279,716	-123,113	-0,124	0,014
-278,701	-200,000	0,021	0,092
-277,686	-90,938	0,090	0,018
-276,672	-200,000	0,009	-0,096
-275,657	-169,594	0,080	-0,002
-274,643	87,432	-0,038	-0,030
-273,628	582,081	-0,095	-0,167
-272,613	226,413	-0,072	-0,084
-271,599	230,183	-0,072	0,085
-270,584	-181,413	0,072	0,001
-269,570	-200,000	0,029	0,142
-268,555	800,000	-0,047	-0,098
-267,540	-13,912	-0,028	-0,013
-266,526	-100,585	-0,062	0,011
-265,511	-50,603	0,072	-0,024
-264,497	-125,445	0,047	0,005
-263,482	-200,000	0,021	-0,108
-262,467	-200,000	-0,004	0,116
-261,453	58,516	-0,146	0,102
-260,438	-4,559	0,075	0,037
-259,424	234,917	0,032	-0,038
-258,409	151,001	0,054	-0,052
-257,395	-106,775	-0,106	-0,017
-256,380	-200,000	0,015	-0,089
-255,365	681,761	-0,078	0,145
-254,351	-83,996	0,051	0,011
-253,336	-200,000	0,000	0,019
-252,322	10,510	-0,058	-0,032
-251,307	-200,000	-0,017	-0,058
-250,292	-200,000	0,002	0,142
-249,278	-67,128	0,056	-0,016
-248,263	52,675	-0,086	0,059
-247,249	-200,000	0,002	-0,109
-246,234	157,375	0,038	-0,038
-245,219	87,143	-0,066	-0,052
-244,205	68,105	-0,052	0,038
-243,190	-200,000	-0,007	0,042
-242,176	-200,000	-0,007	0,075
-241,161	-3,912	-0,026	0,013
-240,146	93,381	-0,046	-0,037
-239,132	800,000	0,061	0,172
-238,117	41,565	-0,047	-0,030
-237,103	-200,000	-0,039	-0,124
-236,088	75,434	-0,023	0,017
-235,073	176,969	-0,039	-0,041
-234,059	800,000	0,039	0,111
-233,044	800,000	0,017	-0,045
-232,030	-200,000	-0,001	-0,116
-231,015	2,611	-0,039	-0,020
-230,000	-80,451	-0,069	-0,016
-228,986	-200,000	-0,013	-0,067
-227,971	-42,640	0,167	0,060
-226,957	-149,382	-0,060	-0,003
-225,942	15,352	0,157	0,088
-224,927	800,000	0,021	0,046
-223,913	669,615	-0,027	-0,051
-222,898	800,000	-0,057	-0,130
-221,884	-200,000	0,004	0,087
-220,869	-200,000	0,005	0,027
-219,855	622,990	-0,032	0,057
-218,840	-71,227	0,141	0,037
-217,825	458,883	0,021	-0,033
-216,811	488,427	0,035	0,057
-215,796	176,622	0,084	-0,088
-214,782	27,925	-0,010	0,006
-213,767	65,934	0,045	-0,032
-212,752	657,894	-0,015	-0,027
-211,738	347,129	-0,046	0,065
-210,723	-123,367	0,054	0,006
-209,709	340,114	-0,023	-0,032
-208,694	800,000	-0,025	-0,072
-207,679	-72,148	-0,113	0,030
-206,665	-25,317	-0,096	0,040
-205,650	-200,000	0,004	-0,021
-204,636	212,365	0,023	0,026
-203,621	-117,883	-0,164	0,021
-202,606	-107,357	0,217	-0,034
-201,592	320,763	-0,064	-0,086
-200,577	-50,631	-0,116	-0,039
-199,563	585,842	-0,039	0,068
-198,548	-200,000	-0,018	0,078
-197,533	-64,169	-0,021	-0,006
-196,519	555,266	-0,024	-0,040
-195,504	54,201	-0,043	-0,030
-194,490	51,710	0,055	-0,037
-193,475	-89,984	0,080	0,017
-192,460	296,379	0,079	-0,104
-191,446	-149,488	-0,095	-0,005
-190,431	541,245	-0,042	0,072
-189,417	-146,427	0,011	-0,001
-188,402	-200,000	-0,010	0,093
-187,387	-32,685	-0,094	0,037
-186,373	39,004	-0,122	-0,078
-185,358	-49,796	0,072	-0,024
-184,344	153,676	-0,097	-0,094
-183,329	210,715	0,079	-0,089
-182,315	-125,115	0,127	-0,014
-181,300	143,387	0,009	-0,009
-180,285	-31,087	0,083	-0,033
-179,271	651,553	-0,029	-0,053
-178,256	-124,091	0,062	-0,007
-177,242	98,240	0,092	-0,075
-176,227	262,587	-0,055	-0,068
-175,212	-200,000	0,004	0,095
-174,198	-77,062	0,115	0,028
-173,183	-74,522	-0,026	-0,007
-172,169	82,657	0,072	0,056
-171,154	-97,517	-0,127	-0,023
-170,139	608,310	-0,030	-0,053
-169,125	800,000	0,030	0,086
-168,110	800,000	0,031	0,071
-167,096	-180,098	0,117	-0,002
-166,081	-200,000	-0,002	0,064
-165,066	-120,685	-0,089	-0,011
-164,052	191,561	0,023	-0,025
-163,037	-200,000	-0,015	-0,104
-162,023	800,000	0,056	0,113
-161,008	-200,000	0,020	0,071
-159,993	0,870	-0,126	0,064
-158,979	-200,000	0,019	-0,092
-157,964	-40,019	-0,110	-0,041
-156,950	146,312	-0,106	-0,101
-155,935	106,247	0,127	-0,107
-154,920	223,017	0,062	0,071
-153,906	800,000	-0,039	0,114
-152,891	259,078	0,105	0,129
-151,877	226,621	0,039	-0,045
-150,862	-111,858	0,057	0,008
-149,847	725,174	0,022	0,042
-148,833	-133,868	-0,031	0,003
-147,818	71,813	-0,081	0,060
-146,804	-200,000	-0,006	-0,065
-145,789	10,409	0,071	0,038
-144,775	86,318	0,069	-0,054
-143,760	634,723	0,022	-0,039
-142,745	-98,599	-0,118	-0,021
-141,731	-55,546	0,057	-0,018
-140,716	9,722	0,076	0,041
-139,702	-144,575	0,109	0,007
-138,687	19,952	-0,070	0,040
-137,672	-37,159	-0,063	0,024
-136,658	505,145	0,000	-0,000
-135,643	238,848	0,120	0,142
-134,629	-63,611	-0,039	-0,011
-133,614	-200,000	0,033	0,140
-132,599	-151,938	0,025	-0,001
-131,585	-161,451	-0,065	-0,002
-130,570	586,516	-0,026	-0,046
-129,556	-20,036	-0,175	-0,076
-128,541	-22,171	-0,106	-0,045
-127,526	-150,920	0,012	-0,001
-126,512	646,534	-0,062	-0,112
-125,497	186,577	0,092	-0,098
-124,483	96,648	0,065	-0,053
-123,468	93,025	-0,037	0,030
-122,453	800,000	-0,054	-0,118
-121,439	64,416	-0,049	0,035
-120,424	-98,123	0,176	-0,032
-119,410	800,000	-0,020	-0,054
-118,395	800,000	0,051	0,140
-117,380	-105,649	0,068	0,011
-116,366	222,029	-0,057	-0,065
-115,351	-147,359	0,078	-0,005
-114,337	335,910	-0,027	-0,037
-113,322	-65,815	-0,079	0,022
-112,307	146,643	0,029	-0,028
-111,293	800,000	-0,022	0,044
-110,278	800,000	-0,035	0,083
-109,264	17,595	0,214	0,120
-108,249	-200,000	0,018	-0,086
-107,234	-54,760	-0,086	-0,027
-106,220	-117,921	-0,129	-0,016
-105,205	-200,000	-0,001	-0,020
-104,191	353,672	0,042	0,060
-103,176	290,711	0,078	0,100
-102,162	662,693	0,034	0,062
-101,147	-54,810	0,079	0,025
-100,132	82,542	-0,032	-0,025
-99,118	251,590	0,080	0,096
-98,103	313,991	-0,089	0,120
-97,089	448,303	0,079	0,124
-96,074	37,332	-0,044	-0,028
-95,059	-200,000	0,013	-0,058
-94,045	-200,000	0,028	-0,097
-93,030	-200,000	0,028	-0,155
-92,016	68,431	-0,132	0,096
-91,001	-96,709	-0,139	-0,026
-89,986	-200,000	-0,011	0,171
-88,972	63,768	0,118	0,084
-87,957	119,840	-0,086	-0,075
-86,943	345,753	0,031	0,043
-85,928	203,455	-0,043	-0,048
-84,913	800,000	-0,050	-0,142
-83,899	-200,000	0,046	-0,182
-82,884	380,286	0,016	0,024
-81,870	60,305	-0,141	0,099
-80,855	48,589	-0,091	-0,060
-79,840	-4,395	0,111	0,054
-78,826	97,196	-0,069	-0,056
-77,811	-16,858	-0,086	-0,038
-76,797	94,375	0,118	0,095
-75,782	-100,242	0,239	0,042
-74,767	-39,380	-0,085	-0,031
-73,753	13,323	-0,071	0,039
-72,738	-42,596	-0,095	0,034
-71,724	246,399	-0,094	-0,112
-70,709	-157,023	-0,068	-0,003
-69,694	-104,519	0,133	-0,022
-68,680	-200,000	0,037	0,132
-67,665	-14,700	0,045	0,021
-66,651	737,469	0,061	0,116
-65,636	294,848	-0,008	0,011
-64,622	-200,000	-0,023	-0,186
-63,607	-145,413	-0,041	-0,003
-62,592	-200,000	0,011	-0,093
-61,578	208,913	0,095	0,105
-60,563	-104,577	0,058	0,009
-59,549	513,554	-0,049	0,080
-58,534	-25,632	-1,547	-0,644
-57,519	357,981	-1,601	-2,268
-56,505	-200,000	-0,469	-4,388
-55,490	245,142	0,862	1,028
-54,476	800,000	4,911	11,265
-53,461	-200,000	18,201	287,029
-52,446	800,000	725,531	2223,860
-51,432	555,538	1639,688	2805,027
-50,417	79,162	1661,904	1259,000
-49,403	22,752	1536,058	888,180
-48,388	16,743	1459,377	814,808
-47,373	17,803	1449,111	814,138
-46,359	17,192	1439,694	805,899
-45,344	15,044	1434,993	793,009
-44,330	14,965	1433,023	791,511
-43,315	14,961	1431,399	790,568
-42,300	14,971	1429,729	789,657
-41,286	14,993	1428,731	789,180
-40,271	14,966	1427,355	788,259
-39,257	14,945	1426,259	787,524
-38,242	15,068	1424,704	787,219
-37,227	15,068	1423,264	786,392
-36,213	15,000	1422,356	785,538
-35,198	15,019	1421,094	784,899
-34,184	15,017	1420,422	784,486
-33,169	14,972	1419,169	783,550
-32,154	15,055	1417,933	783,229
-31,140	15,008	1416,825	782,364
-30,125	15,089	1415,484	781,972
-29,111	15,016	1414,385	780,991
-28,096	14,994	1413,446	780,340
-27,082	14,928	1412,260	779,344
-26,067	14,941	1410,925	778,638
-25,052	14,947	1409,908	778,076
-24,038	14,904	1409,132	777,413
-23,023	14,869	1408,213	776,711
-22,009	14,908	1406,942	776,162
-20,994	14,896	1406,070	775,595
-19,979	14,858	1405,295	774,958
-18,965	14,870	1404,246	774,407
-17,950	14,860	1403,256	773,783
-16,936	14,858	1402,532	773,342
-15,921	14,819	1401,237	772,419
-14,906	14,765	1400,617	771,795
-13,892	14,847	1399,291	771,415
-12,877	14,835	1398,478	770,877
-11,863	14,842	1397,415	770,294
-10,848	14,833	1396,603	769,776
-9,833	14,790	1395,798	769,103
-8,819	14,812	1394,833	768,640
-7,804	14,741	1393,979	767,812
-6,790	14,762	1392,792	767,226
-5,775	14,712	1391,945	766,496
-4,760	14,722	1390,994	765,989
-3,746	14,703	1390,264	765,469
-2,731	14,695	1389,679	765,078
-1,717	14,713	1388,460	764,462
-0,702	14,743	1386,632	763,560
0,313	18,564	1305,917	736,746
1,327	34,843	705,527	435,672
2,342	53,542	124,384	84,267
3,356	4,026	16,583	8,550
4,371	2,215	3,193	1,627
5,386	50,636	0,447	0,299
6,400	800,000	0,076	0,158
7,415	104,769	-0,283	-0,236
8,429	158,532	-0,310	-0,304
9,444	113,629	-0,277	-0,238
10,459	-3,517	-0,381	-0,187
11,473	4,151	-0,239	-0,123
12,488	55,853	-0,246	-0,169
13,502	173,154	-0,337	-0,343
14,517	101,310	-0,312	-0,257
15,531	183,270	-0,230	-0,241
16,546	45,388	-0,364	-0,237
17,561	502,657	-0,197	-0,323
18,575	187,695	-0,195	-0,206
19,590	105,403	-0,243	-0,203
20,604	4,003	-0,289	-0,149
21,619	439,611	-0,284	-0,440
22,634	35,877	-0,487	-0,302
23,648	137,461	-0,329	-0,304
24,663	-54,726	-0,507	-0,161
25,677	10,670	-0,374	-0,201
26,692	290,455	-0,268	-0,345
27,707	197,293	-0,285	-0,307
28,721	16,989	-0,356	-0,198
29,736	105,445	-0,385	-0,321
30,750	153,299	-0,298	-0,288
31,765	314,582	-0,293	-0,390
32,780	196,657	-0,316	-0,340
33,794	182,926	-0,216	-0,225
34,809	48,872	-0,420	-0,278
35,823	126,076	-0,327	-0,292
36,838	198,438	-0,243	-0,263
37,853	85,828	-0,433	-0,335
38,867	28,184	-0,361	-0,215
39,882	8,279	-0,402	-0,212
40,896	49,833	-0,320	-0,212
41,911	162,844	-0,372	-0,369
42,926	-33,177	-0,508	-0,197
43,940	213,183	-0,299	-0,333
44,955	34,684	-0,381	-0,234
45,969	71,272	-0,459	-0,335
46,984	-95,741	-0,354	-0,066
47,999	95,787	-0,239	-0,192
49,013	101,809	-0,321	-0,263
50,028	34,652	-0,382	-0,235
51,042	4,314	-0,195	-0,101
52,057	29,113	-0,330	-0,197
53,071	153,637	-0,340	-0,328
54,086	128,225	-0,293	-0,262
55,101	-54,109	-0,365	-0,116
56,115	44,682	-0,294	-0,190
57,130	56,221	-0,391	-0,267
58,144	143,994	-0,261	-0,245
59,159	-34,871	-0,357	-0,137
60,174	111,897	-0,381	-0,324
61,188	23,883	-0,333	-0,192
62,203	121,115	-0,257	-0,225
63,217	122,873	-0,236	-0,208
64,232	-46,350	-0,484	-0,166
65,247	81,184	-0,414	-0,314
66,261	252,571	-0,322	-0,387
67,276	-7,269	-0,464	-0,220
68,290	204,472	-0,289	-0,315
69,305	291,305	-0,206	-0,264
70,320	660,815	-0,189	-0,344
71,334	-43,833	-0,402	-0,142
72,349	52,115	-0,294	-0,196
73,363	74,581	-0,294	-0,217
74,378	-20,159	-0,281	-0,121
75,393	12,419	-0,328	-0,177
76,407	161,218	-0,282	-0,277
77,422	353,079	-0,154	-0,215
78,436	95,238	-0,247	-0,198
79,451	-43,480	-0,355	-0,125
80,466	80,347	-0,413	-0,312
81,480	-56,891	-0,458	-0,141
82,495	74,254	-0,274	-0,202
83,509	-7,101	-0,345	-0,164
84,524	-23,565	-0,213	-0,090
85,539	131,972	-0,184	-0,166
86,553	66,587	-0,244	-0,174
87,568	720,739	-0,207	-0,389
88,582	-18,451	-0,403	-0,176
89,597	107,018	-0,221	-0,184
90,611	200,335	-0,295	-0,318
91,626	-16,959	-0,160	-0,071
92,641	-168,243	-0,098	0,003
93,655	-1,892	-0,198	-0,097
94,670	142,813	-0,274	-0,255
95,684	-45,474	-0,408	-0,141
96,699	27,992	-0,339	-0,200
97,714	205,536	-0,275	-0,300
98,728	46,643	-0,260	-0,169
99,743	5,931	-0,212	-0,110
100,757	246,463	-0,193	-0,229
101,772	-61,908	-0,201	-0,058
102,787	102,401	-0,265	-0,217
103,801	-24,040	-0,203	-0,085
104,816	-54,726	-0,360	-0,113
105,830	39,246	-0,285	-0,178
106,845	-1,923	-0,176	-0,086
107,860	-24,096	-0,254	-0,106
108,874	148,201	-0,309	-0,292
109,889	59,361	-0,325	-0,224
110,903	85,976	-0,386	-0,297
111,918	-53,303	-0,276	-0,088
112,933	-31,125	-0,229	-0,090
113,947	-200,000	-0,225	-0,000
114,962	-105,576	-0,377	-0,059
115,976	79,007	-0,306	-0,230
116,991	-34,306	-0,287	-0,110
118,006	-66,383	-0,290	-0,080
119,020	-62,325	-0,309	-0,089
120,035	102,626	-0,251	-0,205
121,049	39,598	-0,248	-0,155
122,064	49,617	-0,155	-0,102
123,079	53,109	-0,264	-0,177
124,093	-51,849	-0,283	-0,092
125,108	346,544	-0,129	-0,178
126,122	207,356	-0,264	-0,288
127,137	11,656	-0,232	-0,124
128,151	-59,901	-0,175	-0,052
129,166	164,997	-0,147	-0,145
130,181	141,155	-0,238	-0,220
131,195	-106,634	-0,240	-0,037
132,210	18,666	-0,175	-0,097
133,224	100,187	-0,171	-0,139
134,239	11,452	-0,146	-0,078
135,254	49,897	-0,301	-0,198
136,268	333,945	-0,158	-0,214
137,283	-49,608	-0,375	-0,124
138,297	151,460	-0,192	-0,183
139,312	-75,713	-0,354	-0,087
140,327	56,617	-0,277	-0,188
141,341	255,964	-0,147	-0,176
142,356	-8,662	-0,235	-0,110
143,370	30,802	-0,283	-0,169
144,385	32,595	-0,252	-0,152
145,400	106,432	-0,210	-0,174
146,414	76,211	-0,369	-0,273
147,429	101,735	-0,312	-0,254
148,443	39,903	-0,320	-0,200
149,458	47,682	-0,252	-0,164
150,473	-188,832	-0,349	-0,003
151,487	491,225	-0,222	-0,357
152,502	232,866	-0,182	-0,209
153,516	-11,029	-0,190	-0,087
154,531	800,000	-0,097	-0,239
155,546	266,887	-0,201	-0,246
156,560	106,987	-0,153	-0,127
157,575	31,791	-0,201	-0,120
158,589	264,750	-0,127	-0,155
159,604	10,236	-0,218	-0,115
160,619	715,185	-0,183	-0,339
161,633	285,274	-0,167	-0,210
162,648	85,087	-0,158	-0,121
163,662	-106,970	-0,182	-0,028
164,677	319,815	-0,137	-0,182
165,692	-75,468	-0,170	-0,042
166,706	592,488	-0,122	-0,211
167,721	73,093	-0,282	-0,205
168,735	-88,072	-0,408	-0,085
169,750	-7,807	-0,281	-0,132
170,764	-200,000	-0,064	0,000
171,779	268,685	-0,076	-0,093
172,794	309,727	-0,225	-0,295
173,808	-18,664	-0,097	-0,042
174,823	456,690	-0,180	-0,280
175,837	76,888	-0,247	-0,182
176,852	82,893	-0,266	-0,201
177,867	214,706	-0,193	-0,213
178,881	-132,268	-0,163	0,014
179,896	800,000	-0,099	-0,247
180,910	-64,666	-0,164	-0,046
181,925	-35,070	-0,234	-0,088
182,940	31,161	-0,218	-0,130
183,954	49,876	-0,262	-0,172
184,969	80,026	-0,156	-0,116
185,983	82,311	-0,173	-0,131
186,998	-74,994	-0,168	-0,042
188,013	-40,008	-0,231	-0,083
189,027	-30,812	-0,198	-0,077
190,042	-148,942	-0,219	-0,012
191,056	8,823	-0,212	-0,111
192,071	135,893	-0,225	-0,204
193,086	219,600	-0,170	-0,189
194,100	800,000	-0,058	-0,159
195,115	88,752	-0,170	-0,131
196,129	162,357	-0,154	-0,150
197,144	415,278	-0,176	-0,262
198,159	446,010	-0,139	-0,213
199,173	448,199	-0,153	-0,235
200,188	90,489	-0,188	-0,146
201,202	-200,000	-0,023	-0,165
202,217	231,159	-0,232	-0,265
203,232	63,080	-0,236	-0,164
204,246	-200,000	-0,058	-0,252
205,261	217,250	-0,218	-0,242
206,275	206,668	-0,156	-0,169
207,290	-53,564	-0,257	-0,081
208,304	730,506	-0,144	-0,269
209,319	218,987	-0,099	-0,110
210,334	71,485	-0,208	-0,150
211,348	-59,516	-0,184	-0,055
212,363	132,576	-0,161	-0,144
213,377	-51,167	-0,159	-0,052
214,392	-137,569	-0,235	0,018
215,407	476,363	-0,107	-0,169
216,421	-55,767	-0,199	-0,061
217,436	310,936	-0,198	-0,258
218,450	76,855	-0,256	-0,188
219,465	261,318	-0,188	-0,226
220,480	323,339	-0,208	-0,276
221,494	223,640	-0,082	-0,092
222,509	800,000	-0,100	-0,254
223,523	-26,213	-0,230	-0,093
224,538	87,179	-0,193	-0,148
225,553	54,618	-0,242	-0,162
226,567	-17,256	-0,248	-0,108
227,582	249,524	-0,079	-0,093
228,596	-200,000	-0,021	-0,103
229,611	103,566	-0,134	-0,109
230,626	-71,789	-0,261	0,067
231,640	194,558	-0,154	-0,162
232,655	-92,168	-0,181	-0,035
233,669	800,000	-0,101	-0,238
234,684	800,000	-0,097	-0,244
235,699	7,008	-0,170	-0,088
236,713	-153,948	-0,235	0,011
237,728	137,041	-0,155	-0,140
238,742	-10,942	-0,200	-0,091
239,757	49,118	-0,151	-0,098
240,772	-57,892	-0,249	-0,075
241,786	-6,065	-0,254	-0,120
242,801	-56,241	-0,226	-0,069
243,815	800,000	-0,075	-0,164
244,830	-53,439	-0,142	0,045
245,844	84,530	-0,192	-0,145
246,859	800,000	-0,062	-0,159
247,874	100,408	-0,242	-0,194
248,888	510,142	-0,130	-0,209
249,903	21,418	-0,198	-0,111
250,917	167,582	-0,192	-0,189
251,932	-1,422	-0,273	-0,133
252,947	274,952	-0,137	-0,168
253,961	800,000	-0,041	-0,113
254,976	-71,537	-0,088	-0,023
255,990	-111,587	-0,252	0,035
257,005	260,230	-0,159	-0,190
258,020	152,458	-0,104	-0,098
259,034	89,968	-0,091	0,070
260,049	77,735	-0,106	-0,078
261,063	71,912	-0,248	-0,178
262,078	367,357	-0,156	-0,219
263,093	-32,037	-0,128	0,049
264,107	0,642	-0,163	-0,080
265,122	21,095	-0,089	-0,050
266,136	14,894	-0,131	-0,071
267,151	-188,381	-0,166	-0,001
268,166	123,163	-0,206	-0,178
269,180	800,000	-0,085	-0,170
270,195	95,859	-0,222	-0,175
271,209	432,664	-0,119	-0,179
272,224	302,694	-0,094	-0,121
273,239	315,359	-0,112	-0,146
274,253	-114,721	-0,169	-0,022
275,268	-92,537	-0,074	0,014
276,282	213,321	-0,164	-0,179
277,297	119,486	-0,173	-0,148
278,312	-200,000	-0,076	-0,271
279,326	40,799	-0,145	-0,090
280,341	-124,150	-0,193	-0,021
281,355	-93,815	-0,187	-0,035
282,370	0,583	-0,214	-0,105
283,384	67,485	-0,228	-0,160
284,399	218,422	-0,183	-0,202
285,414	269,326	-0,100	-0,122
286,428	46,227	-0,149	-0,095
287,443	-47,611	-0,191	-0,064
288,457	-200,000	-0,023	-0,174
289,472	-0,390	-0,155	-0,076
290,487	800,000	-0,048	-0,099
291,501	43,597	-0,186	-0,117
292,516	-17,065	-0,110	-0,048
293,530	-9,676	-0,163	-0,074
294,545	-20,984	-0,138	-0,058
295,560	148,379	-0,109	-0,102
296,574	214,230	-0,228	-0,250
297,589	90,389	-0,122	-0,094
298,603	566,100	-0,146	-0,244
299,618	78,715	-0,170	-0,125
300,633	-176,106	-0,172	0,003
301,647	83,974	-0,093	-0,070
302,662	332,080	-0,078	-0,104
303,676	-15,849	-0,141	-0,061
304,691	-81,638	-0,192	-0,043
305,706	-61,042	-0,210	-0,061
306,720	-26,324	-0,225	-0,091
307,735	800,000	-0,048	-0,116
308,749	800,000	-0,108	-0,237
309,764	181,018	-0,099	-0,100
310,779	-200,000	0,016	-0,147
311,793	800,000	-0,079	-0,153
312,808	189,534	-0,193	-0,199
313,822	99,451	-0,196	-0,156
314,837	180,675	-0,180	-0,182
315,852	800,000	-0,045	-0,115
316,866	800,000	-0,127	-0,247
317,881	800,000	-0,083	-0,171
318,895	-137,081	-0,132	-0,010
319,910	65,335	-0,139	-0,097
320,925	297,660	-0,128	-0,162
321,939	-180,065	-0,137	0,002
322,954	-149,647	-0,140	0,007
323,968	-95,095	-0,101	0,019
324,983	-143,412	-0,151	0,010
325,997	-38,883	-0,282	-0,101
327,012	34,527	-0,137	-0,082
328,027	-200,000	-0,028	-0,192
329,041	268,341	-0,123	-0,149
330,056	146,821	-0,233	-0,215
331,070	38,215	-0,066	-0,041
332,085	305,264	-0,119	-0,152
333,100	792,125	-0,095	-0,181
334,114	-32,258	-0,109	-0,042
335,129	79,091	-0,147	-0,108
336,143	1,782	-0,045	-0,022
337,158	-46,476	0,076	0,026
338,173	-133,944	-0,224	0,019
339,187	800,000	-0,055	-0,112
340,202	161,681	-0,104	-0,100
341,216	272,802	-0,140	-0,170
342,231	-20,106	-0,269	-0,113
343,246	-107,700	-0,255	-0,038
344,260	-95,855	-0,069	-0,013
345,275	-192,008	-0,063	-0,000
346,289	93,077	0,031	-0,024
347,304	202,594	-0,161	-0,171
348,319	150,961	-0,154	-0,144
349,333	-200,000	-0,101	-0,305
350,348	-174,386	-0,140	0,003
351,362	-79,505	-0,232	-0,053
352,377	-200,000	-0,261	-0,001
353,392	-101,148	-0,190	-0,032
354,406	-26,385	-0,046	0,018
355,421	209,491	1311,842	1411,603
356,435	161,236	1472,235	1412,116
