DTS Sentinel unit serial number:	SN410029Multiplexer serial number:	ORYXHardware model number:	OX2-SRSoftware version number:	ORYX F/W v4,00 Oryx Data Collector v3.7.2.0data status	okinstallation	B3 Nyhavnadifferential loss correction	single-endedforward channel	channel 1reverse channel	N/Adate	2023/12/04time	14:17:30forward acquisition time	300,00reverse acquisition time	0,00gamma	499,1914k internal	0,3201k external	0,3201temperature offset calibration	1,0000default loss term (dB/km)	0,3820temperature slope calibration	1,0000multiplexer offset coefficient	1,0000multiplexer slope coefficient	1,0000fibre end	0,00T internal ref (°C)	15,00T ext. ref 1 (°C)	0,15T ext. ref 2 (°C)	0,14length (m)	temperature (°C)	Stokes	anti-Stokes-744,400	39,823	-0,185	-0,120
-743,385	-200,000	0,034	0,235
-742,371	84,679	-0,271	-0,216
-741,356	350,114	0,153	0,220
-740,342	-50,014	-0,171	-0,059
-739,327	-200,000	-0,066	0,228
-738,312	177,935	-0,236	-0,251
-737,298	-200,000	-0,041	0,365
-736,283	369,595	-0,198	-0,292
-735,269	284,296	0,191	0,251
-734,254	209,177	-0,247	-0,281
-733,239	240,959	-0,149	0,181
-732,225	800,000	-0,057	-0,125
-731,210	800,000	0,075	0,153
-730,196	81,305	-0,019	0,015
-729,181	149,839	-0,082	-0,081
-728,167	21,855	0,060	-0,036
-727,152	-107,716	0,118	-0,019
-726,137	-200,000	-0,009	0,034
-725,123	-42,246	-0,034	-0,012
-724,108	-152,965	-0,088	0,004
-723,094	421,313	0,025	-0,039
-722,079	-80,070	-0,125	-0,030
-721,064	-200,000	0,002	-0,069
-720,050	697,015	-0,033	0,064
-719,035	-30,867	-0,108	0,044
-718,021	-162,235	0,113	-0,004
-717,006	-200,000	0,021	-0,082
-715,991	217,164	-0,168	-0,194
-714,977	267,108	0,035	0,044
-713,962	35,079	-0,004	-0,003
-712,948	800,000	0,049	-0,132
-711,933	-165,904	0,123	0,004
-710,918	2,018	-0,024	0,012
-709,904	-133,350	-0,145	-0,013
-708,889	771,443	-0,003	-0,005
-707,875	108,361	0,038	-0,033
-706,860	15,129	-0,129	-0,073
-705,845	-200,000	-0,016	-0,100
-704,831	60,322	-0,052	0,037
-703,816	800,000	0,034	-0,107
-702,802	-137,392	-0,038	0,003
-701,787	111,667	0,060	-0,053
-700,772	-200,000	-0,009	-0,102
-699,758	743,669	-0,055	-0,107
-698,743	21,446	0,155	0,091
-697,729	-8,529	0,151	0,074
-696,714	-200,000	-0,005	-0,114
-695,699	-200,000	0,001	-0,104
-694,685	42,650	-0,047	-0,031
-693,670	-9,019	-0,085	-0,041
-692,656	-6,108	-0,114	0,056
-691,641	96,557	0,048	0,040
-690,627	-64,262	0,118	-0,035
-689,612	-91,630	0,047	0,010
-688,597	61,076	0,022	-0,016
-687,583	800,000	0,010	-0,032
-686,568	800,000	-0,011	0,028
-685,554	14,853	0,075	0,042
-684,539	-108,462	0,119	-0,018
-683,524	156,030	0,018	-0,018
-682,510	-140,793	0,152	0,011
-681,495	-200,000	-0,033	-0,129
-680,481	180,992	0,042	-0,044
-679,466	-200,000	-0,007	0,054
-678,451	800,000	0,053	0,131
-677,437	-134,498	0,023	0,002
-676,422	-200,000	0,029	-0,137
-675,408	0,930	-0,027	-0,014
-674,393	117,935	0,127	0,114
-673,378	-200,000	-0,001	-0,029
-672,364	319,218	0,076	-0,105
-671,349	-9,295	0,049	-0,024
-670,335	44,652	0,001	0,001
-669,320	15,159	0,056	0,032
-668,305	80,405	-0,074	-0,057
-667,291	6,146	0,123	0,066
-666,276	-20,979	0,065	-0,029
-665,262	-67,836	-0,117	0,033
-664,247	111,386	0,084	0,073
-663,232	24,666	-0,060	0,036
-662,218	-78,909	-0,072	0,018
-661,203	186,547	0,155	0,168
-660,189	-200,000	0,007	0,122
-659,174	625,876	0,061	-0,112
-658,159	223,400	0,116	-0,136
-657,145	-200,000	-0,044	-0,153
-656,130	-134,097	-0,119	-0,010
-655,116	-133,348	0,195	0,018
-654,101	-200,000	0,006	0,033
-653,086	-44,084	-0,106	-0,038
-652,072	-167,789	0,042	0,001
-651,057	-5,064	-0,111	-0,055
-650,043	360,692	-0,050	-0,073
-649,028	-200,000	-0,006	0,083
-648,014	-16,770	-0,029	0,013
-646,999	322,810	0,065	-0,090
-645,984	8,275	-0,206	0,112
-644,970	80,177	0,019	-0,015
-643,955	800,000	0,016	-0,035
-642,941	-200,000	-0,004	-0,026
-641,926	-200,000	0,010	0,033
-640,911	393,997	-0,045	0,069
-639,897	800,000	0,049	0,124
-638,882	-200,000	0,001	0,003
-637,868	800,000	-0,046	-0,111
-636,853	391,599	-0,063	-0,095
-635,838	-44,682	-0,076	-0,027
-634,824	-123,824	0,052	-0,006
-633,809	-24,000	-0,063	0,027
-632,795	173,754	-0,072	0,075
-631,780	-81,119	-0,123	0,029
-630,765	-19,365	0,057	0,026
-629,751	-100,680	-0,048	-0,008
-628,736	-76,549	-0,140	-0,035
-627,722	800,000	0,031	-0,098
-626,707	-200,000	0,002	0,044
-625,692	-67,996	0,046	-0,013
-624,678	800,000	-0,012	0,037
-623,663	290,737	-0,098	-0,130
-622,649	-200,000	-0,023	-0,097
-621,634	-200,000	0,019	0,111
-620,619	-170,955	-0,067	0,002
-619,605	-135,004	-0,116	0,010
-618,590	-200,000	-0,010	0,079
-617,576	-143,075	-0,068	-0,005
-616,561	-200,000	0,005	0,071
-615,546	800,000	-0,008	0,025
-614,532	583,099	-0,029	-0,051
-613,517	48,625	0,061	-0,041
-612,503	275,934	0,118	-0,152
-611,488	-88,065	0,080	0,017
-610,474	-0,056	-0,084	-0,043
-609,459	-200,000	-0,012	0,077
-608,444	118,812	0,075	0,067
-607,430	-137,908	-0,097	0,008
-606,415	798,871	0,023	0,046
-605,401	-200,000	-0,008	-0,053
-604,386	800,000	-0,036	0,097
-603,371	-111,202	0,033	-0,005
-602,357	-200,000	0,048	0,162
-601,342	160,734	0,046	0,046
-600,328	-84,063	-0,164	0,037
-599,313	-37,662	-0,146	0,056
-598,298	-36,497	-0,116	-0,045
-597,284	-4,997	-0,021	-0,010
-596,269	-200,000	-0,051	0,165
-595,255	12,344	0,109	0,061
-594,240	-200,000	0,021	-0,096
-593,225	221,418	-0,052	0,061
-592,211	-78,394	-0,065	0,016
-591,196	498,556	0,014	-0,023
-590,182	800,000	0,029	-0,069
-589,167	-80,543	0,051	-0,012
-588,152	-185,054	0,109	-0,001
-587,138	-200,000	0,027	-0,136
-586,123	-167,424	0,034	0,001
-585,109	29,551	-0,052	-0,032
-584,094	-132,313	0,072	-0,007
-583,079	-170,076	0,078	-0,002
-582,065	-200,000	0,010	0,110
-581,050	800,000	-0,034	-0,077
-580,036	28,655	-0,085	0,052
-579,021	800,000	-0,014	0,036
-578,006	205,572	-0,054	-0,060
-576,992	-200,000	-0,038	0,155
-575,977	-107,114	-0,107	0,017
-574,963	423,556	0,036	0,056
-573,948	290,280	-0,085	-0,111
-572,934	160,071	0,104	0,105
-571,919	800,000	-0,040	-0,081
-570,904	777,862	-0,075	-0,150
-569,890	-200,000	0,037	0,177
-568,875	-110,878	0,128	0,019
-567,861	245,224	-0,029	-0,036
-566,846	-67,459	-0,093	-0,026
-565,831	-17,033	-0,102	0,046
-564,817	800,000	-0,027	0,061
-563,802	85,511	0,021	-0,017
-562,788	800,000	-0,067	-0,201
-561,773	117,471	-0,023	0,021
-560,758	232,169	0,103	0,123
-559,744	-41,152	-0,114	-0,042
-558,729	-200,000	0,004	-0,068
-557,715	-73,737	-0,051	0,013
-556,700	140,243	0,079	-0,075
-555,685	225,994	0,085	-0,099
-554,671	-144,165	0,060	0,004
-553,656	11,443	0,045	-0,025
-552,642	28,180	-0,011	0,007
-551,627	366,931	0,023	-0,034
-550,612	-200,000	0,017	-0,118
-549,598	-200,000	0,010	-0,071
-548,583	319,635	0,021	-0,029
-547,569	800,000	-0,012	-0,036
-546,554	-103,887	0,055	0,009
-545,539	-187,586	0,080	0,001
-544,525	-200,000	0,043	0,194
-543,510	-200,000	-0,002	0,141
-542,496	536,011	-0,056	-0,096
-541,481	-108,566	-0,083	0,013
-540,466	-28,341	0,084	-0,035
-539,452	-200,000	0,003	-0,071
-538,437	545,114	0,061	0,105
-537,423	251,701	0,099	0,122
-536,408	-200,000	0,001	0,005
-535,393	800,000	0,036	-0,107
-534,379	462,585	-0,080	-0,129
-533,364	-85,000	0,132	0,030
-532,350	75,392	-0,058	-0,044
-531,335	-200,000	-0,012	-0,089
-530,321	389,617	0,027	0,041
-529,306	-82,907	0,036	-0,008
-528,291	800,000	0,032	-0,082
-527,277	-200,000	0,001	0,021
-526,262	463,050	-0,043	0,069
-525,248	219,524	0,038	-0,044
-524,233	-200,000	-0,008	-0,035
-523,218	488,148	-0,002	0,004
-522,204	45,490	0,054	0,036
-521,189	-87,995	-0,047	-0,010
-520,175	-89,781	-0,100	0,021
-519,160	-102,469	0,037	-0,006
-518,145	-162,658	-0,015	0,001
-517,131	-200,000	-0,035	0,155
-516,116	800,000	-0,092	0,247
-515,102	-62,667	-0,053	0,016
-514,087	415,010	-0,016	-0,025
-513,072	238,316	-0,098	-0,118
-512,058	375,373	-0,037	-0,055
-511,043	740,633	0,041	0,080
-510,029	-76,504	0,126	-0,032
-509,014	-44,779	0,098	0,035
-507,999	-200,000	0,012	0,055
-506,985	-167,759	0,074	-0,002
-505,970	57,696	-0,089	0,062
-504,956	474,521	-0,042	-0,068
-503,941	-78,069	-0,165	-0,041
-502,926	-60,600	0,063	-0,019
-501,912	-51,790	-0,113	0,038
-500,897	800,000	0,024	0,063
-499,883	-200,000	-0,029	0,140
-498,868	-14,717	-0,104	0,048
-497,853	-121,323	0,149	-0,018
-496,839	83,201	0,139	0,109
-495,824	236,729	-0,038	0,045
-494,810	54,691	0,054	-0,037
-493,795	-200,000	0,029	0,096
-492,781	-200,000	0,002	0,019
-491,766	179,145	0,061	-0,064
-490,751	-200,000	-0,000	0,007
-489,737	-73,851	0,174	0,045
-488,722	-68,958	-0,017	0,005
-487,708	103,363	0,108	0,091
-486,693	-200,000	0,004	0,069
-485,678	-179,541	0,055	0,001
-484,664	137,200	0,017	0,016
-483,649	-80,445	-0,079	-0,019
-482,635	-200,000	0,015	-0,099
-481,620	141,299	0,072	-0,068
-480,605	800,000	-0,047	0,139
-479,591	-95,197	0,070	0,013
-478,576	328,273	-0,046	-0,064
-477,562	800,000	0,051	-0,141
-476,547	164,168	0,007	0,007
-475,532	372,124	-0,051	-0,075
-474,518	-200,000	0,007	-0,076
-473,503	-200,000	0,009	-0,079
-472,489	17,977	0,128	-0,073
-471,474	-122,110	0,074	-0,009
-470,459	-43,114	0,066	0,024
-469,445	-84,444	-0,070	0,016
-468,430	-120,855	-0,107	-0,013
-467,416	-21,282	-0,077	-0,034
-466,401	110,254	0,081	-0,070
-465,386	52,439	0,051	0,035
-464,372	13,775	0,054	-0,030
-463,357	-200,000	-0,002	0,015
-462,343	-65,266	0,082	-0,024
-461,328	-37,838	-0,036	-0,014
-460,313	19,730	0,052	-0,030
-459,299	25,485	0,132	0,079
-458,284	763,239	0,025	-0,048
-457,270	-136,031	0,061	0,005
-456,255	-200,000	-0,004	0,048
-455,241	-166,181	-0,066	-0,002
-454,226	724,332	0,057	-0,110
-453,211	-14,615	0,086	0,039
-452,197	392,780	0,069	-0,103
-451,182	800,000	0,042	0,083
-450,168	-133,560	-0,083	0,007
-449,153	800,000	-0,036	-0,077
-448,138	542,047	-0,052	-0,090
-447,124	-200,000	-0,040	-0,170
-446,109	111,930	0,031	-0,027
-445,095	800,000	-0,039	-0,084
-444,080	795,432	-0,055	0,109
-443,065	-148,150	0,057	0,003
-442,051	-47,168	0,122	-0,042
-441,036	-79,921	-0,113	-0,027
-440,022	-52,223	0,094	0,031
-439,007	-200,000	0,010	-0,123
-437,992	-200,000	0,018	0,088
-436,978	800,000	0,037	0,103
-435,963	800,000	-0,041	0,097
-434,949	-200,000	-0,002	0,114
-433,934	-200,000	-0,035	0,114
-432,919	209,881	0,043	0,049
-431,905	-176,584	-0,089	0,002
-430,890	-136,758	0,008	-0,001
-429,876	315,245	-0,011	-0,016
-428,861	-200,000	-0,029	-0,119
-427,846	8,774	-0,104	0,056
-426,832	39,416	-0,075	0,048
-425,817	244,396	-0,021	0,025
-424,803	-200,000	-0,016	-0,070
-423,788	800,000	0,008	-0,025
-422,773	-200,000	0,006	0,134
-421,759	800,000	-0,045	0,123
-420,744	-200,000	-0,020	0,191
-419,730	63,155	-0,073	-0,053
-418,715	530,716	-0,085	0,144
-417,701	-200,000	0,005	-0,090
-416,686	-48,065	0,040	-0,014
-415,671	-110,296	0,009	-0,001
-414,657	-68,603	-0,038	-0,010
-413,642	-200,000	-0,013	-0,065
-412,628	-200,000	0,002	-0,129
-411,613	-200,000	-0,007	-0,052
-410,598	-138,730	0,124	0,010
-409,584	800,000	0,066	-0,201
-408,569	-40,751	0,120	-0,044
-407,555	420,899	-0,041	0,063
-406,540	-38,312	-0,106	0,040
-405,525	-58,229	-0,028	-0,009
-404,511	-82,650	0,049	0,011
-403,496	-200,000	0,022	0,120
-402,482	179,386	-0,111	0,117
-401,467	404,632	0,047	0,072
-400,452	800,000	-0,017	0,052
-399,438	-17,412	0,174	0,078
-398,423	-142,360	0,064	-0,004
-397,409	-200,000	-0,015	-0,065
-396,394	82,058	-0,120	-0,093
-395,379	70,831	0,133	-0,099
-394,365	474,702	0,030	-0,049
-393,350	-131,770	0,092	-0,009
-392,336	199,427	0,114	0,126
-391,321	-57,452	-0,114	0,036
-390,306	-96,259	0,033	-0,006
-389,292	800,000	0,020	0,059
-388,277	-65,325	-0,068	-0,020
-387,263	92,228	0,005	-0,004
-386,248	800,000	0,052	-0,130
-385,233	253,234	0,037	-0,046
-384,219	-200,000	-0,056	-0,212
-383,204	-200,000	-0,003	0,074
-382,190	-78,650	-0,160	0,039
-381,175	800,000	-0,074	-0,231
-380,160	597,723	0,057	-0,102
-379,146	284,098	0,054	0,070
-378,131	800,000	0,027	0,078
-377,117	-80,197	0,122	0,029
-376,102	-200,000	-0,003	0,055
-375,088	69,825	-0,056	0,041
-374,073	800,000	0,003	0,008
-373,058	800,000	-0,039	-0,100
-372,044	549,435	0,030	0,052
-371,029	-5,043	0,034	0,017
-370,015	285,692	-0,018	0,024
-369,000	-145,836	-0,105	-0,007
-367,985	-200,000	-0,006	-0,173
-366,971	-150,253	-0,141	0,008
-365,956	-200,000	0,016	-0,054
-364,942	-59,471	-0,068	-0,021
-363,927	45,197	0,152	0,101
-362,912	-42,478	0,124	0,045
-361,898	-64,335	-0,102	0,029
-360,883	-200,000	0,005	-0,046
-359,869	-11,591	-0,095	-0,045
-358,854	66,679	0,100	-0,073
-357,839	-200,000	0,019	-0,163
-356,825	-74,625	0,044	-0,011
-355,810	-200,000	0,004	0,037
-354,796	800,000	0,005	0,017
-353,781	141,153	0,034	0,032
-352,766	-200,000	-0,017	-0,058
-351,752	235,950	-0,126	-0,149
-350,737	-200,000	-0,006	0,050
-349,723	176,639	-0,067	0,069
-348,708	-30,941	-0,026	0,011
-347,693	165,377	-0,059	0,060
-346,679	27,934	-0,010	0,006
-345,664	-73,571	-0,160	-0,042
-344,650	30,916	0,109	0,067
-343,635	-92,560	-0,072	0,014
-342,620	-200,000	0,022	0,119
-341,606	-148,148	-0,097	-0,006
-340,591	743,878	-0,002	-0,004
-339,577	-93,124	0,061	0,012
-338,562	338,192	-0,031	-0,043
-337,548	-62,303	-0,133	-0,039
-336,533	-30,291	0,095	0,039
-335,518	436,781	0,010	-0,015
-334,504	-48,846	-0,132	0,045
-333,489	800,000	-0,016	0,041
-332,475	800,000	-0,048	0,107
-331,460	12,901	0,058	0,032
-330,445	-200,000	-0,046	-0,204
-329,431	122,009	-0,065	-0,058
-328,416	129,533	-0,060	-0,054
-327,402	-99,243	0,019	0,003
-326,387	-68,809	-0,108	0,030
-325,372	306,903	0,094	0,125
-324,358	800,000	-0,025	0,076
-323,343	461,049	0,063	0,101
-322,329	110,912	-0,045	0,038
-321,314	142,361	-0,101	0,096
-320,299	-200,000	0,009	0,092
-319,285	286,343	0,170	0,220
-318,270	626,258	-0,029	0,052
-317,256	-200,000	0,001	-0,073
-316,241	-39,077	0,016	-0,006
-315,226	-16,430	-0,097	0,044
-314,212	22,388	0,106	-0,062
-313,197	18,200	-0,055	-0,031
-312,183	-200,000	0,004	0,035
-311,168	98,416	0,020	-0,017
-310,153	56,049	-0,130	-0,090
-309,139	482,162	0,020	0,032
-308,124	-191,614	-0,126	-0,001
-307,110	-200,000	-0,006	-0,064
-306,095	-200,000	0,014	-0,056
-305,080	49,395	0,007	0,005
-304,066	212,841	-0,073	0,082
-303,051	8,853	-0,115	0,062
-302,037	-16,971	-0,153	-0,069
-301,022	60,074	0,088	-0,062
-300,008	17,781	0,121	0,068
-298,993	-200,000	-0,001	0,084
-297,978	510,408	-0,072	-0,121
-296,964	-51,746	-0,082	0,027
-295,949	-32,906	-0,074	-0,029
-294,935	-15,404	0,098	-0,045
-293,920	-200,000	-0,010	0,035
-292,905	73,244	-0,030	-0,022
-291,891	-73,198	-0,083	-0,022
-290,876	473,011	-0,023	-0,037
-289,862	106,599	-0,059	-0,050
-288,847	-54,352	-0,033	-0,011
-287,832	145,091	0,032	-0,030
-286,818	33,715	0,029	0,018
-285,803	-89,756	0,139	-0,029
-284,789	151,926	0,053	0,052
-283,774	69,354	0,139	0,102
-282,759	130,842	0,098	0,090
-281,745	800,000	-0,031	0,086
-280,730	-60,286	-0,059	0,018
-279,716	89,030	-0,037	-0,029
-278,701	800,000	0,011	-0,033
-277,686	222,877	-0,017	-0,020
-276,672	-81,499	0,093	0,022
-275,657	800,000	-0,040	0,116
-274,643	-200,000	-0,006	0,054
-273,628	26,030	-0,042	-0,025
-272,613	506,153	-0,035	0,059
-271,599	27,027	-0,101	-0,060
-270,584	-105,935	-0,148	0,024
-269,570	800,000	-0,026	0,061
-268,555	203,349	0,028	-0,031
-267,540	51,738	0,017	-0,012
-266,526	349,683	-0,072	-0,102
-265,511	-49,320	-0,086	-0,029
-264,497	120,821	0,007	0,006
-263,482	-200,000	0,012	0,107
-262,467	221,874	-0,023	0,027
-261,453	800,000	0,063	0,166
-260,438	-82,192	0,016	-0,004
-259,424	-31,175	-0,107	0,043
-258,409	-200,000	0,024	-0,086
-257,395	52,507	-0,034	-0,023
-256,380	-71,568	0,162	0,043
-255,365	800,000	0,025	0,060
-254,351	-176,689	0,055	-0,001
-253,336	-200,000	-0,025	-0,099
-252,322	-200,000	-0,037	-0,141
-251,307	158,819	-0,107	-0,106
-250,292	350,724	-0,034	-0,048
-249,278	-110,546	-0,076	-0,011
-248,263	-200,000	0,019	-0,066
-247,249	-200,000	0,007	0,125
-246,234	-95,929	-0,036	0,007
-245,219	-30,563	0,100	-0,040
-244,205	-200,000	-0,017	0,075
-243,190	124,502	0,068	-0,061
-242,176	-200,000	0,036	0,217
-241,161	37,800	0,081	-0,051
-240,146	-33,065	-0,055	0,022
-239,132	37,170	0,056	0,035
-238,117	-3,846	0,032	-0,016
-237,103	567,868	-0,043	-0,075
-236,088	58,902	0,093	-0,065
-235,073	-200,000	0,009	-0,056
-234,059	92,596	-0,018	0,015
-233,044	275,758	-0,042	0,054
-232,030	-200,000	-0,004	0,037
-231,015	-200,000	-0,000	-0,067
-230,000	141,235	-0,095	-0,090
-228,986	-151,801	0,111	0,006
-227,971	-74,994	0,081	-0,020
-226,957	226,290	0,059	0,068
-225,942	195,455	-0,025	-0,027
-224,927	57,755	0,060	-0,042
-223,913	341,243	0,045	-0,062
-222,898	-164,392	-0,199	0,006
-221,884	671,455	0,035	-0,064
-220,869	-73,937	0,106	-0,027
-219,855	-113,272	0,019	0,003
-218,840	-200,000	0,011	-0,080
-217,825	-159,067	0,041	0,002
-216,811	-200,000	0,054	-0,170
-215,796	-200,000	0,002	0,025
-214,782	-47,555	-0,132	0,045
-213,767	800,000	0,026	0,067
-212,752	-16,692	0,065	-0,029
-211,738	-200,000	0,031	0,165
-210,723	166,364	0,064	0,064
-209,709	592,483	0,055	-0,098
-208,694	217,472	-0,023	0,026
-207,679	-200,000	-0,022	-0,122
-206,665	48,490	0,075	0,050
-205,650	-32,839	0,081	-0,032
-204,636	-200,000	-0,001	0,124
-203,621	86,542	-0,055	-0,043
-202,606	457,977	0,041	0,065
-201,592	-200,000	0,005	-0,152
-200,577	-200,000	0,021	-0,141
-199,563	-107,916	0,151	-0,023
-198,548	-200,000	0,002	-0,018
-197,533	800,000	0,052	0,115
-196,519	82,320	-0,058	0,045
-195,504	-69,659	0,073	-0,020
-194,490	-36,172	-0,054	-0,021
-193,475	-141,477	-0,105	-0,007
-192,460	-200,000	0,001	-0,048
-191,446	-74,274	0,145	0,037
-190,431	124,168	0,004	-0,003
-189,417	-93,278	-0,076	0,015
-188,402	-200,000	-0,009	-0,087
-187,387	-32,321	-0,046	-0,018
-186,373	290,699	-0,053	-0,068
-185,358	-72,119	0,031	-0,008
-184,344	-77,990	0,165	0,040
-183,329	-3,589	0,172	-0,085
-182,315	-31,177	0,066	0,026
-181,300	-158,994	-0,051	0,002
-180,285	36,064	0,027	-0,017
-179,271	289,635	-0,103	-0,133
-178,256	-82,056	0,059	0,013
-177,242	-200,000	-0,001	0,024
-176,227	-200,000	0,021	0,095
-175,212	-200,000	0,001	0,012
-174,198	800,000	-0,018	0,042
-173,183	-116,758	-0,095	-0,012
-172,169	664,669	0,041	-0,075
-171,154	-105,970	-0,082	-0,013
-170,139	602,742	0,079	0,140
-169,125	800,000	0,039	0,105
-168,110	-52,406	-0,152	-0,050
-167,096	2,877	0,033	-0,017
-166,081	620,314	0,018	-0,032
-165,066	800,000	-0,030	-0,069
-164,052	-200,000	0,031	-0,122
-163,037	-67,972	0,192	-0,053
-162,023	310,239	0,046	0,061
-161,008	149,311	0,069	0,066
-159,993	-200,000	0,017	0,075
-158,979	-69,282	-0,096	-0,026
-157,964	-200,000	0,009	0,108
-156,950	248,648	0,037	-0,045
-155,935	-200,000	0,023	-0,097
-154,920	573,114	0,009	-0,016
-153,906	180,145	0,108	-0,112
-152,891	-114,889	0,102	0,014
-151,877	8,237	-0,041	0,022
-150,862	254,426	-0,079	-0,096
-149,847	651,540	-0,042	-0,077
-148,833	800,000	0,011	-0,029
-147,818	-78,972	-0,034	0,008
-146,804	-46,189	0,062	-0,022
-145,789	-200,000	-0,017	0,141
-144,775	-88,649	0,072	0,015
-143,760	800,000	0,029	0,064
-142,745	800,000	-0,036	0,099
-141,731	-200,000	-0,002	0,028
-140,716	550,057	-0,035	0,059
-139,702	3,714	-0,066	0,034
-138,687	45,473	0,084	-0,055
-137,672	800,000	-0,032	0,097
-136,658	108,357	-0,050	-0,042
-135,643	147,566	0,081	0,078
-134,629	343,973	-0,014	-0,020
-133,614	93,782	0,134	0,108
-132,599	336,263	0,030	-0,041
-131,585	231,238	-0,096	0,112
-130,570	139,502	0,077	0,072
-129,556	231,368	-0,098	0,115
-128,541	-71,223	-0,094	-0,025
-127,526	-200,000	-0,005	0,020
-126,512	-157,716	0,052	0,002
-125,497	37,998	0,051	0,032
-124,483	800,000	-0,076	0,154
-123,468	-74,247	-0,025	0,006
-122,453	-200,000	-0,015	-0,142
-121,439	-200,000	0,034	-0,107
-120,424	-98,089	0,076	0,014
-119,410	203,924	-0,068	0,075
-118,395	767,278	0,042	0,082
-117,380	660,692	0,078	0,144
-116,366	-61,487	-0,023	-0,007
-115,351	225,095	-0,146	0,168
-114,337	35,362	-0,093	-0,058
-113,322	800,000	0,033	-0,093
-112,307	72,215	-0,080	0,059
-111,293	-146,332	0,104	0,006
-110,278	655,745	-0,074	0,135
-109,264	-200,000	-0,008	0,044
-108,249	-41,237	0,112	0,041
-107,234	4,018	-0,057	-0,029
-106,220	-31,893	-0,016	0,006
-105,205	140,031	-0,041	0,038
-104,191	796,615	0,029	0,058
-103,176	-200,000	0,003	0,096
-102,162	-46,579	-0,071	0,025
-101,147	48,103	-0,084	0,056
-100,132	163,168	-0,067	-0,067
-99,118	-200,000	-0,001	0,064
-98,103	800,000	-0,015	-0,033
-97,089	800,000	0,044	0,118
-96,074	800,000	-0,047	-0,105
-95,059	91,928	0,058	-0,046
-94,045	-200,000	0,008	-0,072
-93,030	122,027	-0,042	-0,037
-92,016	239,594	-0,082	-0,098
-91,001	-200,000	0,020	-0,109
-89,986	-97,995	-0,024	-0,004
-88,972	800,000	0,021	-0,061
-87,957	-85,824	0,073	-0,016
-86,943	793,891	-0,028	0,056
-85,928	97,921	-0,083	-0,068
-84,913	-200,000	0,039	-0,132
-83,899	-200,000	0,024	0,144
-82,884	440,409	0,084	-0,131
-81,870	-200,000	-0,059	0,208
-80,855	-200,000	0,031	0,129
-79,840	-11,404	-0,147	0,068
-78,826	137,954	-0,072	-0,067
-77,811	800,000	0,036	0,099
-76,797	491,582	-0,054	0,088
-75,782	352,659	-0,073	-0,103
-74,767	384,206	0,038	-0,056
-73,753	167,157	-0,034	0,034
-72,738	800,000	-0,029	0,088
-71,724	-81,388	0,099	-0,023
-70,709	-113,023	0,083	0,012
-69,694	407,663	-0,088	-0,133
-68,680	800,000	0,010	-0,021
-67,665	15,117	-0,023	0,013
-66,651	-73,097	-0,042	-0,011
-65,636	800,000	0,035	0,078
-64,622	-200,000	-0,016	-0,065
-63,607	85,269	-0,103	-0,080
-62,592	-82,633	0,056	-0,013
-61,578	151,956	-0,099	0,096
-60,563	-200,000	0,006	-0,032
-59,549	492,479	-0,055	0,090
-58,534	-30,954	-1,412	-0,562
-57,519	437,421	-1,399	-2,167
-56,505	-200,000	-0,536	-4,603
-55,490	250,144	0,926	1,116
-54,476	800,000	4,870	11,098
-53,461	-200,000	18,371	288,468
-52,446	800,000	727,566	2229,819
-51,432	554,570	1643,525	2810,698
-50,417	79,228	1665,747	1262,736
-49,403	22,849	1539,263	890,869
-48,388	16,849	1462,504	817,386
-47,373	17,911	1452,652	816,964
-46,359	17,328	1442,997	808,714
-45,344	15,140	1438,384	795,651
-44,330	15,057	1436,344	794,095
-43,315	15,095	1434,621	793,292
-42,300	15,074	1432,875	792,195
-41,286	15,088	1431,929	791,704
-40,271	15,059	1430,689	790,850
-39,257	15,046	1429,376	790,032
-38,242	15,103	1428,108	789,571
-37,227	15,102	1426,878	788,854
-36,213	15,087	1425,694	788,099
-35,198	15,103	1424,571	787,522
-34,184	15,154	1423,378	787,071
-33,169	15,061	1422,223	785,962
-32,154	15,089	1421,359	785,584
-31,140	15,120	1419,979	784,939
-30,125	15,151	1418,684	784,336
-29,111	15,114	1417,806	783,647
-28,096	15,064	1416,598	782,710
-27,082	15,062	1415,398	782,008
-26,067	15,076	1414,251	781,410
-25,052	15,052	1413,248	780,710
-24,038	14,993	1412,226	779,839
-23,023	15,009	1411,339	779,392
-22,009	14,944	1410,585	778,640
-20,994	14,956	1409,589	778,118
-19,979	14,979	1408,386	777,530
-18,965	14,975	1407,459	776,968
-17,950	14,943	1406,359	776,182
-16,936	14,943	1405,715	775,796
-15,921	14,894	1404,548	774,891
-14,906	14,912	1403,471	774,353
-13,892	14,973	1402,327	773,975
-12,877	14,932	1401,674	773,389
-11,863	14,950	1400,906	773,022
-10,848	14,938	1399,893	772,373
-9,833	14,924	1398,975	771,772
-8,819	14,886	1397,989	771,021
-7,804	14,864	1397,312	770,514
-6,790	14,811	1396,271	769,664
-5,775	14,836	1395,184	769,151
-4,760	14,825	1394,492	768,690
-3,746	14,890	1393,436	768,377
-2,731	14,856	1392,477	767,661
-1,717	14,842	1391,582	767,071
-0,702	14,822	1389,861	766,002
0,313	18,529	1308,992	738,616
1,327	34,607	706,915	436,154
2,342	53,195	124,654	84,346
3,356	0,260	16,761	8,433
4,371	-2,167	3,194	1,581
5,386	-104,549	0,534	0,086
6,400	-200,000	-0,022	0,159
7,415	279,890	-0,223	-0,282
8,429	35,139	-0,325	-0,201
9,444	-21,632	-0,391	-0,168
10,459	644,045	-0,176	-0,319
11,473	-43,410	-0,335	-0,119
12,488	-155,647	-0,315	-0,014
13,502	10,123	-0,437	-0,234
14,517	6,160	-0,462	-0,242
15,531	235,986	-0,245	-0,286
16,546	73,657	-0,312	-0,231
17,561	151,475	-0,330	-0,318
18,575	18,755	-0,120	0,067
19,590	265,663	-0,199	-0,246
20,604	-105,115	-0,194	0,031
21,619	-46,307	-0,510	-0,176
22,634	283,901	-0,311	-0,396
23,648	273,895	-0,393	-0,492
24,663	724,581	-0,188	-0,355
25,677	24,622	-0,216	-0,126
26,692	249,400	-0,324	-0,389
27,707	-76,156	-0,419	-0,104
28,721	113,153	-0,444	-0,380
29,736	-1,387	-0,456	-0,226
30,750	-19,154	-0,421	-0,184
31,765	133,146	-0,367	-0,334
32,780	32,553	-0,391	-0,238
33,794	35,375	-0,346	-0,214
34,809	72,650	-0,336	-0,247
35,823	124,834	-0,382	-0,339
36,838	247,584	-0,319	-0,380
37,853	45,496	-0,514	-0,334
38,867	62,066	-0,389	-0,273
39,882	243,712	-0,388	-0,460
40,896	47,848	-0,353	-0,232
41,911	180,463	-0,321	-0,333
42,926	19,496	-0,473	-0,267
43,940	169,357	-0,396	-0,399
44,955	41,712	-0,373	-0,238
45,969	9,138	-0,514	-0,273
46,984	224,436	-0,296	-0,337
47,999	161,331	-0,390	-0,385
49,013	130,871	-0,260	-0,235
50,028	179,457	-0,295	-0,305
51,042	13,824	-0,258	-0,141
52,057	256,309	-0,196	-0,238
53,071	-39,339	-0,454	-0,167
54,086	135,787	-0,292	-0,268
55,101	50,285	-0,284	-0,189
56,115	-28,095	-0,378	-0,153
57,130	272,580	-0,275	-0,342
58,144	160,010	-0,347	-0,341
59,159	66,766	-0,351	-0,252
60,174	46,883	-0,451	-0,295
61,188	176,721	-0,328	-0,336
62,203	13,436	-0,364	-0,198
63,217	-8,218	-0,218	-0,103
64,232	13,212	-0,482	-0,262
65,247	62,556	-0,368	-0,258
66,261	216,100	-0,376	-0,421
67,276	47,150	-0,380	-0,249
68,290	-49,026	-0,340	-0,114
69,305	59,452	-0,302	-0,209
70,320	91,475	-0,216	-0,171
71,334	-11,674	-0,233	-0,107
72,349	486,946	-0,120	-0,192
73,363	126,314	-0,316	-0,281
74,378	146,164	-0,317	-0,299
75,393	106,826	-0,386	-0,322
76,407	295,889	-0,111	-0,144
77,422	-47,688	-0,227	-0,077
78,436	-15,377	-0,248	-0,111
79,451	-12,686	-0,384	-0,175
80,466	54,567	-0,466	-0,315
81,480	51,093	-0,327	-0,218
82,495	104,517	-0,351	-0,290
83,509	-29,278	-0,258	-0,103
84,524	192,529	-0,319	-0,338
85,539	65,777	-0,231	-0,164
86,553	25,365	-0,220	-0,128
87,568	-35,487	-0,300	-0,114
88,582	132,681	-0,220	-0,199
89,597	85,332	-0,286	-0,221
90,611	82,544	-0,216	-0,165
91,626	-8,289	-0,299	-0,141
92,641	141,383	-0,284	-0,264
93,655	-52,348	-0,303	-0,098
94,670	121,526	-0,336	-0,294
95,684	140,145	-0,375	-0,348
96,699	181,898	-0,290	-0,300
97,714	115,268	-0,252	-0,216
98,728	-29,790	-0,342	-0,136
99,743	160,588	-0,172	-0,168
100,757	800,000	-0,096	-0,257
101,772	-53,471	-0,373	-0,119
102,787	345,912	-0,181	-0,250
103,801	-53,639	-0,281	-0,090
104,816	82,901	-0,268	-0,204
105,830	198,589	-0,181	-0,195
106,845	109,708	-0,229	-0,192
107,860	21,112	-0,273	-0,155
108,874	184,354	-0,092	-0,096
109,889	-165,007	-0,321	-0,010
110,903	130,215	-0,249	-0,224
111,918	-55,448	-0,416	-0,130
112,933	24,611	-0,324	-0,188
113,947	13,274	-0,388	-0,210
114,962	46,441	-0,363	-0,235
115,976	216,221	-0,196	-0,218
116,991	28,826	-0,244	-0,145
118,006	-46,323	-0,434	-0,149
119,020	80,860	-0,281	-0,212
120,035	48,867	-0,301	-0,197
121,049	-156,009	-0,231	-0,010
122,064	-132,294	-0,250	-0,022
123,079	-47,450	-0,329	-0,111
124,093	185,738	-0,295	-0,308
125,108	-33,440	-0,268	-0,103
126,122	92,564	-0,305	-0,241
127,137	244,132	-0,227	-0,267
128,151	-127,109	-0,175	0,018
129,166	25,828	-0,170	0,099
130,181	56,667	-0,349	-0,238
131,195	-9,142	-0,284	-0,133
132,210	450,915	-0,157	-0,243
133,224	183,396	-0,186	-0,193
134,239	71,293	-0,258	-0,187
135,254	75,961	-0,366	-0,270
136,268	152,594	-0,188	-0,180
137,283	-106,814	-0,367	-0,056
138,297	286,196	-0,224	-0,284
139,312	452,409	-0,145	-0,224
140,327	326,953	-0,188	-0,252
141,341	137,223	-0,229	-0,210
142,356	195,773	-0,123	-0,131
143,370	121,399	-0,266	-0,232
144,385	800,000	-0,136	-0,290
145,400	283,614	-0,205	-0,258
146,414	-78,317	-0,311	-0,074
147,429	178,574	-0,185	-0,189
148,443	472,613	-0,164	-0,260
149,458	267,139	-0,171	-0,209
150,473	262,977	-0,106	-0,128
151,487	384,336	-0,204	-0,294
152,502	83,468	-0,213	-0,162
153,516	126,538	-0,166	-0,147
154,531	122,077	-0,254	-0,221
155,546	800,000	-0,107	-0,226
156,560	54,607	-0,144	-0,096
157,575	12,397	-0,338	-0,181
158,589	396,070	-0,184	-0,269
159,604	-132,957	-0,446	-0,039
160,619	339,017	-0,165	-0,224
161,633	-95,545	-0,326	-0,060
162,648	44,466	-0,135	-0,086
163,662	-40,252	-0,212	-0,076
164,677	74,468	-0,108	-0,079
165,692	-86,116	-0,156	-0,033
166,706	80,280	-0,365	-0,273
167,721	270,311	-0,207	-0,254
168,735	252,810	-0,162	-0,193
169,750	160,299	-0,255	-0,248
170,764	438,360	-0,065	-0,099
171,779	113,188	-0,164	-0,139
172,794	-104,815	-0,270	-0,043
173,808	-2,393	-0,223	-0,108
174,823	32,184	-0,230	-0,138
175,837	27,384	-0,395	-0,231
176,852	46,037	-0,316	-0,203
177,867	-200,000	-0,033	-0,181
178,881	-113,782	-0,208	0,028
179,896	46,326	-0,140	-0,090
180,910	-200,000	0,000	-0,120
181,925	159,724	-0,077	-0,075
182,940	86,483	-0,247	-0,190
183,954	312,020	-0,157	-0,206
184,969	-14,674	-0,144	-0,064
185,983	-145,887	-0,305	0,019
186,998	-20,089	-0,209	-0,090
188,013	374,359	-0,144	-0,205
189,027	149,910	-0,202	-0,191
190,042	-32,473	-0,243	-0,094
191,056	126,017	-0,317	-0,279
192,071	94,599	-0,120	-0,095
193,086	800,000	-0,119	-0,287
194,100	374,461	-0,205	-0,292
195,115	62,479	-0,134	-0,093
196,129	124,785	-0,123	-0,108
197,144	268,533	-0,121	-0,147
198,159	-166,043	-0,137	0,004
199,173	218,844	-0,168	-0,187
200,188	-35,613	-0,170	-0,064
201,202	-35,655	-0,307	-0,115
202,217	172,166	-0,098	-0,098
203,232	125,334	-0,273	-0,239
204,246	199,077	-0,189	-0,202
205,261	104,038	-0,230	-0,188
206,275	314,777	-0,141	-0,185
207,290	67,371	-0,231	-0,163
208,304	256,689	-0,179	-0,214
209,319	62,552	-0,191	-0,133
210,334	60,675	-0,189	-0,130
211,348	5,849	-0,288	-0,147
212,363	185,043	-0,122	-0,126
213,377	13,818	-0,187	-0,101
214,392	88,298	-0,181	-0,139
215,407	40,642	-0,161	-0,101
216,421	800,000	-0,080	-0,162
217,436	-48,320	-0,253	-0,084
218,450	671,437	-0,128	-0,230
219,465	254,325	-0,230	-0,273
220,480	-86,656	-0,186	-0,039
221,494	149,949	-0,138	-0,130
222,509	-17,308	-0,159	-0,069
223,523	41,323	-0,179	-0,112
224,538	99,114	-0,159	-0,127
225,553	50,128	-0,322	-0,211
226,567	47,242	-0,226	-0,146
227,582	357,297	-0,172	-0,239
228,596	126,047	-0,267	-0,234
229,611	61,428	-0,174	-0,120
230,626	104,262	-0,114	-0,093
231,640	262,747	-0,087	-0,105
232,655	109,805	-0,109	-0,091
233,669	250,527	-0,231	-0,272
234,684	169,383	-0,252	-0,250
235,699	297,194	-0,131	-0,167
236,713	213,096	-0,172	-0,189
237,728	800,000	-0,060	-0,143
238,742	-2,377	-0,205	-0,099
239,757	-85,943	-0,260	-0,055
240,772	351,684	-0,198	-0,273
241,786	76,080	-0,217	-0,159
242,801	-52,739	-0,239	-0,076
243,815	-2,043	-0,260	-0,126
244,830	134,590	-0,172	-0,155
245,844	-5,683	-0,254	-0,120
246,859	-73,901	-0,166	-0,041
247,874	800,000	-0,114	-0,254
248,888	37,173	-0,272	-0,167
249,903	23,898	-0,310	-0,176
250,917	335,385	-0,097	-0,131
251,932	-200,000	-0,076	-0,000
252,947	-87,379	-0,223	-0,046
253,961	-56,461	-0,184	-0,056
254,976	-24,521	-0,299	-0,122
255,990	-4,977	-0,213	-0,101
257,005	-8,906	-0,076	-0,035
258,020	800,000	-0,021	-0,049
259,034	312,930	-0,144	-0,187
260,049	79,545	-0,193	-0,143
261,063	80,797	-0,171	-0,128
262,078	-42,795	-0,084	-0,029
263,093	126,631	-0,079	-0,069
264,107	-91,438	-0,193	-0,038
265,122	536,957	-0,073	-0,121
266,136	492,880	-0,084	-0,133
267,151	102,189	-0,126	-0,101
268,166	30,014	-0,136	-0,080
269,180	-79,594	-0,179	-0,041
270,195	-105,614	-0,122	-0,019
271,209	87,572	-0,235	-0,180
272,224	-28,456	-0,075	-0,030
273,239	-200,000	-0,005	-0,079
274,253	-200,000	-0,029	-0,117
275,268	55,031	-0,196	-0,131
276,282	-120,670	-0,267	-0,031
277,297	224,182	-0,069	-0,078
278,312	309,495	-0,110	-0,142
279,326	293,353	-0,123	-0,155
280,341	-200,000	-0,008	-0,129
281,355	-64,183	-0,110	-0,031
282,370	-91,003	-0,150	-0,029
283,384	564,891	-0,135	-0,227
284,399	96,960	-0,252	-0,199
285,414	195,418	-0,095	-0,099
286,428	371,918	-0,124	-0,174
287,443	20,642	-0,165	-0,092
288,457	800,000	-0,060	-0,159
289,472	15,034	-0,136	-0,073
290,487	-200,000	-0,022	-0,258
291,501	-53,743	-0,149	-0,047
292,516	159,838	-0,062	-0,060
293,530	-48,191	-0,217	-0,072
294,545	800,000	-0,072	-0,167
295,560	-200,000	-0,034	-0,121
296,574	149,634	-0,086	-0,080
297,589	-80,882	-0,259	-0,059
298,603	241,450	-0,093	-0,107
299,618	51,733	-0,193	-0,126
300,633	-158,185	-0,099	-0,004
301,647	-166,964	-0,215	-0,006
302,662	164,464	-0,203	-0,197
303,676	42,635	-0,178	-0,111
304,691	-200,000	-0,009	-0,197
305,706	46,890	-0,198	-0,126
306,720	9,244	-0,173	-0,090
307,735	241,489	-0,143	-0,165
308,749	119,787	-0,141	-0,121
309,764	-200,000	-0,030	-0,146
310,779	263,196	-0,099	-0,118
311,793	-70,800	-0,161	-0,041
312,808	103,916	-0,080	-0,065
313,822	800,000	-0,052	-0,153
314,837	320,683	-0,124	-0,163
315,852	800,000	-0,077	-0,154
316,866	-189,996	-0,099	0,001
317,881	800,000	-0,076	-0,201
318,895	-170,448	-0,201	0,005
319,910	504,725	-0,086	-0,137
320,925	41,968	-0,212	-0,132
321,939	154,780	-0,123	-0,116
322,954	229,390	-0,158	-0,177
323,968	343,370	-0,069	-0,093
324,983	64,014	-0,163	-0,113
325,997	255,463	-0,100	-0,118
327,012	66,750	-0,166	-0,116
328,027	69,782	-0,129	-0,091
329,041	58,921	-0,172	-0,116
330,056	157,180	-0,062	-0,059
331,070	-94,400	-0,083	-0,015
332,085	-181,720	-0,074	0,001
333,100	-93,715	-0,212	-0,040
334,114	-125,762	-0,214	-0,022
335,129	-28,224	-0,127	-0,050
336,143	124,850	-0,166	-0,143
337,158	-125,574	-0,157	0,016
338,173	229,775	-0,083	-0,093
339,187	-65,284	-0,193	-0,053
340,202	33,180	-0,172	-0,102
341,216	421,142	-0,076	-0,112
342,231	128,996	-0,151	-0,133
343,246	-45,659	-0,249	-0,084
344,260	-74,503	-0,127	-0,031
345,275	692,201	-0,089	-0,160
346,289	-200,000	-0,048	-0,180
347,304	98,103	-0,079	-0,062
348,319	-27,205	-0,130	-0,052
349,333	-45,471	-0,221	-0,075
350,348	50,350	-0,129	-0,084
351,362	-12,528	-0,217	-0,097
352,377	-101,792	-0,076	-0,012
353,392	-21,637	-0,161	-0,067
354,406	-63,331	-0,180	-0,050
355,421	209,425	1314,787	1415,119
356,435	161,175	1475,550	1415,614
