DTS Sentinel unit serial number:	SN410029Multiplexer serial number:	ORYXHardware model number:	OX2-SRSoftware version number:	ORYX F/W v4,00 Oryx Data Collector v3.7.2.0data status	okinstallation	B3 Nyhavnadifferential loss correction	single-endedforward channel	channel 1reverse channel	N/Adate	2023/11/29time	12:02:30forward acquisition time	300,00reverse acquisition time	0,00gamma	499,1914k internal	0,3212k external	0,3212temperature offset calibration	1,0000default loss term (dB/km)	0,3820temperature slope calibration	1,0000multiplexer offset coefficient	1,0000multiplexer slope coefficient	1,0000fibre end	0,00T internal ref (°C)	9,69T ext. ref 1 (°C)	-4,86T ext. ref 2 (°C)	-4,98length (m)	temperature (°C)	Stokes	anti-Stokes-744,400	800,000	-0,057	-0,155
-743,385	-200,000	-0,092	0,328
-742,371	240,116	-0,159	-0,193
-741,356	-200,000	0,088	0,293
-740,342	800,000	-0,113	-0,237
-739,327	800,000	-0,071	0,225
-738,312	284,657	-0,265	-0,346
-737,298	800,000	0,094	0,230
-736,283	43,136	-0,238	-0,157
-735,269	-200,000	0,069	0,413
-734,254	336,476	-0,171	-0,242
-733,239	-21,872	-0,126	-0,055
-732,225	-200,000	-0,053	-0,282
-731,210	57,387	0,132	0,093
-730,196	199,506	0,045	-0,051
-729,181	220,845	-0,075	0,088
-728,167	-200,000	-0,010	0,056
-727,152	467,268	0,060	0,098
-726,137	-200,000	0,009	-0,167
-725,123	0,230	-0,073	0,038
-724,108	-33,576	0,065	-0,026
-723,094	-200,000	-0,057	-0,234
-722,079	72,514	-0,111	0,084
-721,064	-156,129	-0,106	-0,005
-720,050	800,000	0,035	-0,090
-719,035	-18,555	0,152	-0,068
-718,021	346,764	-0,060	0,086
-717,006	461,839	-0,036	0,058
-715,991	800,000	0,046	-0,107
-714,977	233,716	-0,047	0,056
-713,962	-54,069	-0,054	-0,018
-712,948	-200,000	-0,012	0,051
-711,933	624,307	-0,076	-0,138
-710,918	-116,278	0,030	0,004
-709,904	141,802	-0,061	-0,058
-708,889	800,000	-0,025	-0,074
-707,875	499,654	-0,108	-0,180
-706,860	-200,000	-0,019	0,099
-705,845	230,223	0,044	-0,053
-704,831	800,000	-0,031	0,062
-703,816	-90,187	-0,164	0,034
-702,802	-200,000	-0,052	-0,190
-701,787	-200,000	-0,037	-0,119
-700,772	-104,029	-0,076	0,013
-699,758	800,000	0,040	0,082
-698,743	313,270	-0,005	0,006
-697,729	-58,483	-0,072	-0,022
-696,714	-22,596	0,146	0,064
-695,699	-200,000	0,005	-0,025
-694,685	800,000	0,031	-0,098
-693,670	84,635	0,055	-0,044
-692,656	-101,389	-0,153	-0,027
-691,641	-142,554	0,317	0,022
-690,627	-200,000	-0,017	0,058
-689,612	562,977	0,041	0,071
-688,597	33,983	-0,041	-0,026
-687,583	134,335	-0,107	-0,101
-686,568	-200,000	0,010	-0,097
-685,554	-127,166	-0,096	0,010
-684,539	800,000	-0,027	0,086
-683,524	299,100	-0,053	0,070
-682,510	14,874	0,108	0,061
-681,495	371,506	-0,028	-0,041
-680,481	412,110	-0,094	-0,144
-679,466	101,266	-0,101	-0,085
-678,451	253,418	0,046	-0,057
-677,437	138,925	0,047	-0,045
-676,422	-13,393	-0,090	0,042
-675,408	-43,962	-0,151	0,055
-674,393	-127,532	0,088	0,009
-673,378	800,000	-0,012	-0,033
-672,364	-183,131	-0,051	0,001
-671,349	-200,000	-0,004	-0,029
-670,335	-200,000	0,003	-0,060
-669,320	-11,142	0,021	-0,010
-668,305	-200,000	0,014	-0,096
-667,291	-43,855	-0,293	-0,106
-666,276	-172,829	-0,122	0,003
-665,262	800,000	-0,062	-0,194
-664,247	418,647	0,091	-0,140
-663,232	-117,326	-0,097	0,013
-662,218	-145,975	-0,110	0,007
-661,203	-126,226	0,082	-0,009
-660,189	-200,000	-0,019	-0,096
-659,174	10,310	-0,115	0,063
-658,159	-122,998	-0,049	0,006
-657,145	134,820	-0,081	0,076
-656,130	-200,000	-0,003	0,042
-655,116	306,999	-0,050	0,068
-654,101	8,444	0,076	0,041
-653,086	800,000	0,024	-0,070
-652,072	94,109	0,067	-0,055
-651,057	158,592	-0,055	0,055
-650,043	-164,588	0,084	-0,003
-649,028	104,226	0,072	-0,061
-648,014	-200,000	-0,010	0,034
-646,999	-200,000	0,024	0,096
-645,984	-200,000	0,023	-0,115
-644,970	-39,609	-0,165	-0,062
-643,955	387,933	-0,096	-0,144
-642,941	104,022	0,065	-0,055
-641,926	-200,000	0,012	-0,142
-640,911	104,954	0,054	-0,046
-639,897	800,000	0,058	0,144
-638,882	97,139	-0,050	0,041
-637,868	4,052	-0,173	0,091
-636,853	37,642	-0,143	-0,092
-635,838	111,534	-0,024	0,021
-634,824	800,000	0,045	-0,114
-633,809	724,409	-0,046	0,089
-632,795	-200,000	0,029	0,142
-631,780	800,000	-0,018	0,042
-630,765	800,000	0,033	0,093
-629,751	-84,815	0,102	0,023
-628,736	-33,408	-0,114	0,045
-627,722	36,741	-0,089	0,057
-626,707	88,222	-0,026	-0,021
-625,692	475,051	-0,042	0,069
-624,678	-170,984	0,086	0,002
-623,663	101,961	0,024	0,020
-622,649	-19,395	-0,083	-0,037
-621,634	800,000	-0,026	0,077
-620,619	-200,000	-0,008	-0,078
-619,605	-200,000	-0,005	0,040
-618,590	760,992	0,040	0,079
-617,576	-57,178	-0,093	0,029
-616,561	440,367	-0,036	0,056
-615,546	-200,000	0,009	-0,088
-614,532	-200,000	-0,024	0,121
-613,517	-200,000	-0,010	-0,081
-612,503	40,948	0,061	0,040
-611,488	-200,000	-0,004	-0,118
-610,474	345,966	0,039	-0,055
-609,459	-200,000	-0,007	0,044
-608,444	277,084	0,041	-0,052
-607,430	72,944	-0,109	-0,082
-606,415	142,022	0,036	0,034
-605,401	487,782	0,009	0,015
-604,386	482,294	-0,025	0,041
-603,371	800,000	-0,077	0,160
-602,357	247,419	0,014	0,017
-601,342	352,563	-0,073	-0,105
-600,328	-135,559	-0,063	0,005
-599,313	-41,566	-0,021	-0,008
-598,298	800,000	0,049	0,120
-597,284	113,719	0,086	-0,076
-596,269	-20,737	0,089	-0,039
-595,255	-42,779	0,046	-0,017
-594,240	356,751	-0,071	-0,103
-593,225	-141,369	-0,060	0,004
-592,211	-82,897	-0,242	0,056
-591,196	498,768	0,064	0,107
-590,182	800,000	0,060	-0,130
-589,167	800,000	0,006	-0,013
-588,152	-93,176	0,012	0,002
-587,138	66,564	0,115	0,084
-586,123	615,687	-0,058	-0,105
-585,109	-200,000	-0,004	-0,119
-584,094	-24,451	-0,030	-0,013
-583,079	-200,000	-0,006	-0,029
-582,065	51,375	-0,072	-0,049
-581,050	-146,657	0,132	-0,008
-580,036	356,772	-0,065	-0,093
-579,021	-99,743	-0,112	-0,020
-578,006	800,000	-0,055	-0,131
-576,992	-200,000	0,031	-0,267
-575,977	51,440	-0,127	-0,087
-574,963	310,071	0,059	0,080
-573,948	308,096	-0,082	0,110
-572,934	-200,000	-0,006	-0,091
-571,919	172,932	0,010	0,011
-570,904	354,352	0,067	0,096
-569,890	-200,000	-0,006	-0,160
-568,875	800,000	0,025	-0,056
-567,861	211,305	0,042	0,047
-566,846	-115,421	-0,137	0,018
-565,831	130,878	0,073	-0,068
-564,817	348,461	0,030	-0,043
-563,802	258,359	-0,098	-0,122
-562,788	-18,840	0,106	0,047
-561,773	-200,000	0,026	-0,093
-560,758	-54,116	0,008	0,002
-559,744	17,408	0,083	-0,047
-558,729	-88,476	0,094	0,020
-557,715	-7,608	-0,113	-0,055
-556,700	-58,075	-0,083	-0,026
-555,685	-72,031	-0,202	-0,054
-554,671	-8,289	-0,100	0,048
-553,656	-200,000	-0,025	-0,115
-552,642	800,000	-0,056	-0,115
-551,627	387,457	-0,047	0,070
-550,612	-200,000	-0,000	-0,051
-549,598	-200,000	0,002	-0,059
-548,583	30,780	-0,127	0,078
-547,569	-200,000	-0,017	-0,079
-546,554	-200,000	-0,014	-0,071
-545,539	42,743	0,047	0,031
-544,525	288,675	-0,071	0,093
-543,510	-6,277	-0,088	-0,043
-542,496	-53,047	-0,142	-0,047
-541,481	-200,000	-0,028	-0,143
-540,466	598,039	-0,042	-0,075
-539,452	123,069	0,028	0,025
-538,437	-200,000	-0,002	-0,033
-537,423	-27,781	0,060	-0,025
-536,408	103,074	0,089	0,075
-535,393	-78,728	-0,130	-0,032
-534,379	-50,627	-0,149	0,050
-533,364	24,415	0,077	0,045
-532,350	-160,815	-0,064	-0,002
-531,335	598,227	0,086	0,154
-530,321	43,959	-0,034	-0,023
-529,306	25,935	0,026	-0,016
-528,291	457,551	-0,048	0,077
-527,277	-19,344	-0,128	0,057
-526,262	728,448	0,018	-0,034
-525,248	245,198	-0,038	-0,045
-524,233	-93,601	-0,086	0,017
-523,218	-183,114	0,173	-0,002
-522,204	-179,319	0,042	-0,001
-521,189	-200,000	0,004	-0,051
-520,175	800,000	0,042	-0,089
-519,160	-36,864	-0,082	-0,032
-518,145	-100,329	0,098	0,017
-517,131	765,581	0,039	0,077
-516,116	-50,536	0,088	-0,030
-515,102	-200,000	-0,035	-0,121
-514,087	-47,258	-0,110	-0,038
-513,072	-185,972	-0,082	-0,001
-512,058	-200,000	-0,016	-0,080
-511,043	800,000	0,066	-0,164
-510,029	-94,417	0,079	-0,015
-509,014	233,219	0,022	-0,026
-507,999	-200,000	0,018	-0,078
-506,985	800,000	-0,008	0,022
-505,970	-155,198	-0,124	-0,006
-504,956	-99,768	-0,119	-0,021
-503,941	32,846	0,041	0,025
-502,926	-194,666	-0,102	0,001
-501,912	153,172	0,042	0,041
-500,897	-200,000	0,009	0,124
-499,883	-59,324	-0,208	-0,064
-498,868	299,397	0,099	-0,132
-497,853	-200,000	0,000	-0,029
-496,839	-19,264	0,028	0,012
-495,824	564,101	0,032	0,056
-494,810	-200,000	0,010	0,052
-493,795	-26,075	0,030	0,012
-492,781	-200,000	-0,002	0,041
-491,766	-74,844	0,113	-0,029
-490,751	-76,345	-0,168	-0,042
-489,737	1,228	0,151	0,078
-488,722	-200,000	-0,055	0,210
-487,708	436,615	-0,013	0,020
-486,693	385,767	0,015	-0,022
-485,678	-113,834	0,058	-0,008
-484,664	800,000	0,062	-0,138
-483,649	217,256	-0,055	-0,063
-482,635	-29,892	0,117	0,048
-481,620	-200,000	-0,017	0,121
-480,605	81,319	-0,048	-0,037
-479,591	800,000	0,024	-0,076
-478,576	800,000	-0,058	-0,134
-477,562	-159,146	-0,169	-0,007
-476,547	-200,000	-0,014	-0,052
-475,532	132,688	-0,098	-0,091
-474,518	-16,825	0,072	0,032
-473,503	-124,369	-0,060	-0,007
-472,489	-200,000	0,008	0,086
-471,474	800,000	-0,022	0,051
-470,459	-16,777	-0,108	0,049
-469,445	-90,156	-0,047	0,010
-468,430	-173,182	0,212	0,005
-467,416	118,999	-0,026	-0,023
-466,401	475,070	0,039	-0,064
-465,386	186,304	-0,074	0,079
-464,372	-13,900	0,124	0,057
-463,357	282,282	-0,066	-0,085
-462,343	748,303	-0,022	-0,043
-461,328	-200,000	-0,044	-0,140
-460,313	-200,000	0,023	0,106
-459,299	-200,000	0,015	0,066
-458,284	20,733	0,063	0,037
-457,270	-200,000	-0,026	-0,114
-456,255	800,000	0,013	-0,031
-455,241	-200,000	-0,026	-0,115
-454,226	-23,301	-0,139	0,060
-453,211	129,617	-0,048	-0,044
-452,197	-200,000	-0,011	0,075
-451,182	800,000	0,034	0,084
-450,168	116,505	-0,182	0,160
-449,153	653,620	0,065	-0,119
-448,138	22,104	-0,013	-0,008
-447,124	458,531	-0,034	-0,054
-446,109	2,043	0,108	-0,055
-445,095	152,783	0,099	0,097
-444,080	305,026	-0,045	-0,061
-443,065	800,000	-0,014	0,030
-442,051	-200,000	0,002	0,018
-441,036	800,000	0,045	-0,139
-440,022	384,320	0,042	0,061
-439,007	77,195	-0,034	0,026
-437,992	-73,166	0,041	0,011
-436,978	-77,040	0,133	0,033
-435,963	584,454	0,081	0,142
-434,949	800,000	-0,020	0,055
-433,934	-145,451	-0,088	-0,006
-432,919	41,292	0,047	-0,031
-431,905	136,425	0,037	-0,035
-430,890	8,850	0,038	0,021
-429,876	-200,000	-0,022	0,120
-428,861	80,998	0,078	0,061
-427,846	-94,149	0,061	0,012
-426,832	800,000	0,055	-0,122
-425,817	216,816	-0,023	-0,027
-424,803	-19,913	-0,104	0,046
-423,788	-21,018	-0,122	0,053
-422,773	584,707	0,081	0,143
-421,759	-200,000	-0,007	0,044
-420,744	294,559	0,054	0,070
-419,730	-82,202	0,045	-0,010
-418,715	-200,000	-0,010	-0,096
-417,701	-30,118	-0,060	-0,024
-416,686	800,000	0,069	-0,143
-415,671	13,378	-0,068	-0,038
-414,657	-200,000	0,012	0,098
-413,642	800,000	0,043	0,106
-412,628	136,675	0,050	0,047
-411,613	94,539	-0,132	-0,107
-410,598	-171,424	0,125	0,003
-409,584	-200,000	-0,000	0,112
-408,569	-120,194	0,090	-0,011
-407,555	800,000	-0,043	0,122
-406,540	-200,000	0,011	-0,100
-405,525	-97,227	0,046	0,008
-404,511	8,613	-0,053	0,029
-403,496	-21,809	-0,063	-0,027
-402,482	-200,000	0,016	0,071
-401,467	43,336	-0,033	0,022
-400,452	800,000	-0,028	0,057
-399,438	155,402	-0,081	0,080
-398,423	56,605	-0,114	-0,079
-397,409	800,000	-0,074	-0,177
-396,394	209,658	-0,034	0,038
-395,379	-160,929	0,047	0,002
-394,365	128,957	-0,021	-0,020
-393,350	-200,000	0,036	0,189
-392,336	800,000	0,031	0,086
-391,321	-200,000	0,000	0,051
-390,306	-112,105	-0,075	-0,011
-389,292	-200,000	-0,029	0,093
-388,277	717,675	0,076	0,144
-387,263	-56,725	-0,074	-0,023
-386,248	494,350	0,034	0,056
-385,233	-200,000	-0,003	0,097
-384,219	-200,000	-0,023	0,135
-383,204	800,000	-0,044	-0,127
-382,190	-200,000	0,014	0,061
-381,175	-200,000	0,002	-0,114
-380,160	-97,916	0,060	-0,011
-379,146	-112,411	0,128	-0,018
-378,131	38,977	-0,042	-0,026
-377,117	-154,715	0,081	-0,004
-376,102	442,290	-0,042	0,066
-375,088	97,470	0,034	-0,028
-374,073	-200,000	0,011	0,076
-373,058	-200,000	-0,025	-0,082
-372,044	800,000	-0,032	0,083
-371,029	118,949	0,079	0,070
-370,015	10,002	0,073	-0,040
-369,000	454,268	-0,024	-0,037
-367,985	165,700	-0,034	0,034
-366,971	48,746	0,074	0,050
-365,956	35,812	0,062	0,039
-364,942	-92,996	0,198	0,039
-363,927	-115,740	0,169	0,022
-362,912	-200,000	0,000	-0,021
-361,898	-127,545	-0,081	-0,008
-360,883	800,000	0,016	-0,044
-359,869	-200,000	0,029	0,118
-358,854	40,874	0,080	0,052
-357,839	-200,000	-0,003	0,012
-356,825	-67,151	0,117	-0,033
-355,810	-120,543	-0,038	-0,005
-354,796	-200,000	0,011	-0,117
-353,781	-200,000	-0,013	-0,118
-352,766	609,436	0,072	-0,129
-351,752	413,076	-0,034	0,052
-350,737	-200,000	-0,007	0,035
-349,723	-200,000	0,005	-0,045
-348,708	29,596	0,045	0,027
-347,693	-49,545	-0,052	-0,018
-346,679	-200,000	0,020	-0,113
-345,664	138,171	-0,031	0,029
-344,650	117,987	0,146	0,129
-343,635	-49,137	0,112	-0,038
-342,620	-104,643	0,078	0,013
-341,606	-200,000	0,002	-0,042
-340,591	-200,000	0,001	0,072
-339,577	-200,000	-0,034	-0,161
-338,562	800,000	0,047	-0,143
-337,548	298,514	0,027	0,035
-336,533	-81,455	0,185	0,043
-335,518	39,350	-0,016	0,010
-334,504	-200,000	-0,016	0,095
-333,489	800,000	0,048	-0,144
-332,475	-41,072	-0,126	-0,046
-331,460	-63,143	0,062	-0,018
-330,445	16,774	0,148	0,083
-329,431	-103,776	0,078	-0,013
-328,416	800,000	0,032	0,064
-327,402	-200,000	0,016	0,133
-326,387	32,092	0,052	-0,032
-325,372	-200,000	0,012	0,084
-324,358	-125,622	-0,086	0,009
-323,343	-143,508	-0,211	-0,014
-322,329	246,534	0,114	0,138
-321,314	800,000	-0,020	-0,060
-320,299	503,299	0,053	0,087
-319,285	479,860	-0,059	0,095
-318,270	66,113	-0,045	-0,033
-317,256	-200,000	0,045	-0,206
-316,241	-132,036	0,120	-0,011
-315,226	466,649	0,029	0,046
-314,212	-200,000	0,023	0,083
-313,197	800,000	0,029	0,085
-312,183	351,227	0,024	0,033
-311,168	82,468	0,025	-0,020
-310,153	-104,535	-0,046	-0,007
-309,139	-126,684	-0,039	-0,004
-308,124	-200,000	-0,015	0,104
-307,110	53,698	0,019	0,013
-306,095	6,249	-0,038	0,020
-305,080	49,041	0,095	0,063
-304,066	117,361	-0,039	0,034
-303,051	-200,000	0,006	-0,051
-302,037	202,845	-0,024	0,026
-301,022	-4,717	0,129	-0,063
-300,008	-122,388	0,030	-0,003
-298,993	-200,000	-0,024	0,134
-297,978	180,882	-0,038	0,040
-296,964	636,883	0,048	-0,087
-295,949	800,000	-0,082	-0,181
-294,935	-7,619	0,044	-0,021
-293,920	78,204	0,077	0,058
-292,905	-200,000	-0,008	-0,145
-291,891	198,240	0,119	0,130
-290,876	163,938	0,017	-0,017
-289,862	205,714	-0,092	-0,102
-288,847	-130,979	-0,067	-0,006
-287,832	119,873	0,052	-0,046
-286,818	645,491	-0,065	0,119
-285,803	800,000	0,019	-0,043
-284,789	75,494	-0,135	0,102
-283,774	125,865	-0,037	0,033
-282,759	130,468	0,018	0,016
-281,745	-94,970	0,093	0,018
-280,730	290,020	-0,102	-0,132
-279,716	410,603	0,055	0,083
-278,701	-36,435	-0,036	-0,014
-277,686	52,053	-0,051	0,034
-276,672	800,000	-0,099	0,207
-275,657	-200,000	-0,012	0,109
-274,643	64,489	0,075	0,054
-273,628	-200,000	-0,028	-0,111
-272,613	-118,324	-0,029	-0,004
-271,599	31,786	0,041	0,025
-270,584	391,928	0,120	0,178
-269,570	-200,000	-0,006	0,076
-268,555	-200,000	-0,005	0,045
-267,540	-200,000	0,020	-0,069
-266,526	2,567	-0,112	-0,058
-265,511	-14,073	0,084	0,038
-264,497	-200,000	0,005	0,089
-263,482	-97,721	-0,035	-0,006
-262,467	-43,009	0,116	0,042
-261,453	264,747	-0,050	0,061
-260,438	-200,000	-0,094	-0,000
-259,424	-200,000	0,006	-0,034
-258,409	-200,000	-0,021	-0,133
-257,395	-200,000	0,002	0,006
-256,380	-200,000	-0,007	0,062
-255,365	420,720	0,055	0,084
-254,351	64,769	0,117	-0,084
-253,336	-2,354	-0,037	0,018
-252,322	-135,361	0,085	0,007
-251,307	141,897	0,013	-0,012
-250,292	-200,000	-0,011	0,065
-249,278	268,868	-0,052	0,065
-248,263	-200,000	0,020	0,150
-247,249	-200,000	-0,014	0,102
-246,234	-7,051	-0,105	-0,051
-245,219	174,678	0,107	-0,111
-244,205	-6,280	0,028	0,014
-243,190	26,224	-0,082	0,049
-242,176	1,312	0,145	0,074
-241,161	-200,000	0,001	-0,023
-240,146	392,646	-0,069	-0,102
-239,132	-42,096	0,067	0,024
-238,117	-112,582	0,157	-0,022
-237,103	-200,000	-0,028	-0,138
-236,088	15,392	-0,061	-0,034
-235,073	-6,269	-0,143	0,069
-234,059	82,003	0,143	0,110
-233,044	224,183	-0,028	-0,032
-232,030	-200,000	0,014	0,084
-231,015	189,714	-0,058	0,062
-230,000	-200,000	-0,003	-0,073
-228,986	-95,264	0,102	-0,019
-227,971	-4,783	0,015	-0,008
-226,957	537,773	0,018	-0,030
-225,942	438,261	0,052	0,080
-224,927	267,885	-0,022	-0,027
-223,913	45,492	-0,074	-0,048
-222,898	800,000	-0,074	-0,168
-221,884	273,473	0,037	0,047
-220,869	-200,000	-0,004	-0,090
-219,855	223,654	0,050	-0,057
-218,840	213,759	-0,086	-0,097
-217,825	523,829	-0,037	0,062
-216,811	-200,000	0,014	0,057
-215,796	-200,000	-0,006	0,124
-214,782	-11,371	0,120	0,056
-213,767	-55,229	-0,106	-0,033
-212,752	75,616	0,070	-0,052
-211,738	402,359	0,047	0,070
-210,723	89,218	0,090	-0,071
-209,709	-200,000	-0,035	-0,147
-208,694	-70,425	-0,010	0,003
-207,679	86,067	-0,032	0,025
-206,665	10,636	0,099	0,053
-205,650	800,000	0,017	-0,050
-204,636	671,052	-0,044	0,082
-203,621	380,322	0,033	0,048
-202,606	105,829	-0,041	-0,035
-201,592	-200,000	0,005	-0,107
-200,577	-200,000	0,028	-0,170
-199,563	282,295	0,027	0,034
-198,548	800,000	0,131	0,280
-197,533	-49,983	0,169	-0,057
-196,519	-182,701	-0,096	0,001
-195,504	-200,000	-0,006	0,086
-194,490	-99,704	-0,096	0,017
-193,475	-31,511	-0,073	-0,029
-192,460	-200,000	-0,014	-0,075
-191,446	82,828	-0,035	0,027
-190,431	-77,949	-0,130	0,031
-189,417	-18,559	-0,057	-0,025
-188,402	626,556	0,072	-0,129
-187,387	144,902	0,117	-0,111
-186,373	-7,768	-0,159	-0,076
-185,358	800,000	-0,017	-0,037
-184,344	800,000	0,030	0,082
-183,329	83,014	0,037	0,028
-182,315	85,859	-0,046	0,036
-181,300	-200,000	-0,021	0,123
-180,285	185,469	-0,099	0,105
-179,271	-96,433	-0,073	-0,014
-178,256	24,891	-0,018	-0,010
-177,242	323,566	0,062	0,084
-176,227	-48,631	0,033	-0,011
-175,212	-110,415	0,082	-0,012
-174,198	74,959	-0,085	0,064
-173,183	-139,558	-0,104	0,008
-172,169	146,664	-0,082	-0,078
-171,154	160,227	0,073	-0,072
-170,139	-19,411	0,078	-0,034
-169,125	-100,799	0,074	0,013
-168,110	-104,977	-0,115	0,018
-167,096	36,061	-0,057	0,036
-166,081	-69,144	0,056	0,015
-165,066	800,000	0,039	-0,100
-164,052	-9,521	0,179	0,084
-163,037	434,199	0,060	-0,093
-162,023	258,981	0,043	-0,053
-161,008	800,000	0,011	0,023
-159,993	56,954	-0,085	0,058
-158,979	-30,762	0,166	-0,066
-157,964	108,015	0,086	-0,073
-156,950	61,488	-0,119	-0,084
-155,935	-97,054	0,053	-0,010
-154,920	190,372	0,042	0,045
-153,906	-55,539	0,068	-0,022
-152,891	-4,534	-0,089	-0,043
-151,877	41,619	-0,057	0,036
-150,862	288,356	0,046	-0,060
-149,847	-200,000	0,011	-0,054
-148,833	19,534	-0,083	0,047
-147,818	-62,588	0,083	0,024
-146,804	221,183	-0,021	0,023
-145,789	-117,398	0,066	0,008
-144,775	-200,000	-0,031	-0,127
-143,760	-4,877	-0,038	-0,019
-142,745	-200,000	-0,002	-0,053
-141,731	157,181	0,120	0,118
-140,716	-200,000	0,072	0,238
-139,702	192,035	-0,043	-0,046
-138,687	-200,000	0,028	-0,094
-137,672	-200,000	-0,034	0,145
-136,658	-11,295	0,070	-0,033
-135,643	-200,000	-0,033	-0,172
-134,629	-200,000	0,026	0,088
-133,614	-105,917	0,069	-0,011
-132,599	397,885	-0,056	0,083
-131,585	800,000	0,018	-0,038
-130,570	98,772	0,068	-0,055
-129,556	-200,000	0,045	-0,149
-128,541	104,099	-0,074	-0,062
-127,526	136,865	-0,090	-0,083
-126,512	336,968	0,088	-0,121
-125,497	-70,669	-0,084	-0,022
-124,483	292,860	-0,061	0,079
-123,468	-94,281	0,120	-0,023
-122,453	383,894	0,103	-0,151
-121,439	-30,966	-0,105	-0,042
-120,424	135,237	-0,025	0,023
-119,410	-155,833	0,143	-0,006
-118,395	-76,796	0,125	0,031
-117,380	800,000	0,029	-0,059
-116,366	-149,873	0,077	-0,004
-115,351	-117,386	-0,075	-0,009
-114,337	122,327	0,064	-0,056
-113,322	-125,685	-0,036	0,004
-112,307	-151,610	0,105	-0,005
-111,293	51,675	-0,073	-0,049
-110,278	800,000	-0,046	0,124
-109,264	414,391	0,021	-0,032
-108,249	800,000	-0,036	-0,098
-107,234	294,978	-0,063	-0,081
-106,220	800,000	-0,065	-0,182
-105,205	-200,000	0,017	0,060
-104,191	-78,455	-0,115	-0,028
-103,176	-14,151	0,042	-0,019
-102,162	-2,116	0,086	-0,043
-101,147	-80,930	0,088	-0,021
-100,132	5,134	-0,089	0,046
-99,118	800,000	0,114	-0,243
-98,103	-51,426	0,090	-0,030
-97,089	-103,054	-0,011	0,002
-96,074	-200,000	0,010	-0,057
-95,059	-200,000	-0,023	0,080
-94,045	-150,385	-0,083	0,004
-93,030	-17,769	-0,046	-0,020
-92,016	398,052	-0,080	-0,119
-91,001	364,406	-0,075	-0,106
-89,986	81,367	0,174	0,133
-88,972	135,535	0,146	0,134
-87,957	599,713	-0,029	0,051
-86,943	-200,000	-0,005	-0,149
-85,928	60,116	-0,037	-0,025
-84,913	229,995	0,061	-0,070
-83,899	800,000	0,022	0,050
-82,884	319,730	0,151	0,203
-81,870	77,111	-0,040	-0,030
-80,855	800,000	0,039	0,093
-79,840	-200,000	0,007	0,054
-78,826	-200,000	-0,018	-0,103
-77,811	-200,000	-0,004	0,035
-76,797	184,640	-0,042	0,044
-75,782	800,000	-0,005	-0,011
-74,767	60,957	0,058	-0,041
-73,753	-200,000	-0,011	-0,083
-72,738	-80,945	0,161	0,037
-71,724	280,025	0,109	-0,138
-70,709	31,429	-0,126	-0,076
-69,694	192,538	0,086	-0,092
-68,680	23,098	0,111	0,064
-67,665	225,001	-0,090	0,103
-66,651	-200,000	-0,003	0,048
-65,636	-41,393	0,098	-0,035
-64,622	82,907	-0,158	-0,121
-63,607	603,447	0,036	-0,064
-62,592	576,702	-0,092	-0,159
-61,578	800,000	-0,030	-0,083
-60,563	349,125	-0,137	0,191
-59,549	664,544	0,082	0,150
-58,534	40,413	-1,986	-1,259
-57,519	444,079	-1,190	-1,849
-56,505	-200,000	-0,267	-4,357
-55,490	459,511	0,849	1,338
-54,476	800,000	5,313	11,232
-53,461	-200,000	21,596	344,134
-52,446	800,000	763,198	2361,283
-51,432	554,745	1663,872	2835,778
-50,417	72,574	1659,964	1220,169
-49,403	17,560	1533,383	857,601
-48,388	11,473	1457,295	785,627
-47,373	19,439	1448,817	819,225
-46,359	15,105	1437,726	792,332
-45,344	9,802	1433,546	764,772
-44,330	9,777	1431,938	763,761
-43,315	9,719	1429,902	762,372
-42,300	9,713	1428,162	761,384
-41,286	9,724	1427,219	760,906
-40,271	9,693	1425,743	759,939
-39,257	9,736	1424,596	759,501
-38,242	9,774	1423,409	759,019
-37,227	9,746	1422,480	758,361
-36,213	9,784	1420,931	757,687
-35,198	9,825	1419,666	757,173
-34,184	9,825	1418,963	756,768
-33,169	9,767	1417,491	755,679
-32,154	9,762	1416,537	755,118
-31,140	9,757	1415,353	754,434
-30,125	9,812	1414,187	754,040
-29,111	9,779	1412,961	753,200
-28,096	9,748	1411,840	752,428
-27,082	9,729	1410,558	751,626
-26,067	9,698	1409,451	750,862
-25,052	9,736	1408,574	750,542
-24,038	9,726	1407,806	750,059
-23,023	9,739	1406,797	749,548
-22,009	9,737	1405,516	748,828
-20,994	9,702	1404,667	748,183
-19,979	9,722	1403,719	747,739
-18,965	9,705	1402,746	747,114
-17,950	9,673	1401,771	746,416
-16,936	9,639	1400,910	745,768
-15,921	9,623	1400,248	745,316
-14,906	9,620	1399,154	744,687
-13,892	9,672	1398,075	744,324
-12,877	9,654	1397,286	743,791
-11,863	9,636	1396,652	743,342
-10,848	9,580	1395,676	742,533
-9,833	9,568	1394,837	742,000
-8,819	9,528	1393,862	741,268
-7,804	9,545	1393,085	740,902
-6,790	9,552	1391,783	740,213
-5,775	9,516	1390,827	739,511
-4,760	9,530	1389,894	739,049
-3,746	9,539	1388,902	738,536
-2,731	9,568	1387,993	738,153
-1,717	9,558	1387,342	737,732
-0,702	9,554	1385,512	736,714
0,313	13,677	1297,648	708,801
1,327	29,909	688,263	412,637
2,342	46,213	118,969	77,576
3,356	-0,373	16,522	8,249
4,371	-0,728	3,479	1,732
5,386	-33,363	1,170	0,454
6,400	800,000	0,226	0,543
7,415	800,000	-0,061	-0,129
8,429	18,164	-0,268	-0,150
9,444	-42,614	-0,353	-0,126
10,459	10,699	-0,259	-0,139
11,473	-48,205	-0,369	-0,125
12,488	-44,251	-0,247	-0,087
13,502	-28,232	-0,369	-0,149
14,517	67,797	-0,295	-0,212
15,531	87,672	-0,263	-0,205
16,546	37,227	-0,297	-0,185
17,561	-21,097	-0,296	-0,127
18,575	55,107	-0,165	-0,112
19,590	277,542	-0,218	-0,274
20,604	162,479	-0,237	-0,234
21,619	62,550	-0,396	-0,278
22,634	12,777	-0,495	-0,268
23,648	28,139	-0,485	-0,288
24,663	89,120	-0,442	-0,346
25,677	31,086	-0,388	-0,233
26,692	100,721	-0,244	-0,199
27,707	-17,512	-0,232	-0,102
28,721	20,325	-0,335	-0,190
29,736	59,044	-0,438	-0,303
30,750	53,661	-0,346	-0,233
31,765	-5,265	-0,518	-0,250
32,780	-41,533	-0,457	-0,164
33,794	96,868	-0,374	-0,301
34,809	-91,868	-0,407	-0,080
35,823	25,895	-0,430	-0,252
36,838	272,647	-0,322	-0,400
37,853	36,729	-0,377	-0,234
38,867	56,362	-0,351	-0,239
39,882	-37,848	-0,392	-0,146
40,896	-29,331	-0,356	-0,143
41,911	-10,211	-0,430	-0,200
42,926	64,680	-0,352	-0,249
43,940	61,339	-0,380	-0,265
44,955	67,581	-0,374	-0,268
45,969	54,016	-0,365	-0,246
46,984	-49,757	-0,382	-0,127
47,999	-36,413	-0,419	-0,158
49,013	120,194	-0,262	-0,228
50,028	-112,000	-0,362	-0,051
51,042	62,446	-0,279	-0,195
52,057	46,977	-0,360	-0,235
53,071	90,025	-0,322	-0,253
54,086	299,726	-0,330	-0,428
55,101	75,816	-0,360	-0,267
56,115	48,905	-0,329	-0,216
57,130	228,507	-0,254	-0,291
58,144	77,391	-0,345	-0,257
59,159	71,375	-0,294	-0,214
60,174	96,253	-0,356	-0,286
61,188	325,464	-0,211	-0,284
62,203	44,981	-0,239	-0,154
63,217	8,179	-0,405	-0,213
64,232	179,098	-0,340	-0,349
65,247	22,667	-0,323	-0,185
66,261	148,060	-0,390	-0,369
67,276	6,314	-0,458	-0,237
68,290	80,133	-0,274	-0,207
69,305	21,209	-0,300	-0,170
70,320	-12,455	-0,368	-0,168
71,334	26,585	-0,267	-0,156
72,349	30,175	-0,296	-0,177
73,363	97,989	-0,207	-0,167
74,378	-34,908	-0,316	-0,120
75,393	-35,455	-0,298	-0,113
76,407	-54,307	-0,164	-0,052
77,422	247,977	-0,279	-0,331
78,436	363,544	-0,199	-0,281
79,451	82,114	-0,221	-0,168
80,466	120,970	-0,291	-0,253
81,480	231,349	-0,220	-0,253
82,495	73,252	-0,329	-0,240
83,509	79,524	-0,348	-0,261
84,524	-24,926	-0,310	-0,128
85,539	-32,560	-0,285	-0,110
86,553	350,274	-0,242	-0,336
87,568	281,807	-0,259	-0,326
88,582	138,176	-0,253	-0,233
89,597	66,823	-0,372	-0,265
90,611	91,478	-0,225	-0,177
91,626	-128,142	-0,139	-0,014
92,641	-8,000	-0,282	-0,132
93,655	-69,760	-0,329	-0,087
94,670	-46,273	-0,259	-0,088
95,684	301,014	-0,189	-0,244
96,699	172,454	-0,243	-0,245
97,714	800,000	-0,149	-0,298
98,728	-26,176	-0,273	-0,112
99,743	129,932	-0,241	-0,215
100,757	6,434	-0,298	-0,154
101,772	338,896	-0,130	-0,177
102,787	-3,446	-0,176	-0,085
103,801	-12,372	-0,416	-0,189
104,816	144,326	-0,227	-0,212
105,830	185,519	-0,201	-0,209
106,845	10,167	-0,222	-0,117
107,860	-56,487	-0,183	-0,056
108,874	86,956	-0,326	-0,251
109,889	36,897	-0,280	-0,172
110,903	229,301	-0,192	-0,219
111,918	2,753	-0,271	-0,137
112,933	-97,473	-0,288	-0,052
113,947	17,850	-0,221	-0,123
114,962	56,600	-0,119	-0,080
115,976	72,078	-0,191	-0,139
116,991	-114,792	-0,289	-0,038
118,006	56,179	-0,292	-0,197
119,020	0,642	-0,269	-0,134
120,035	60,368	-0,364	-0,251
121,049	247,996	-0,158	-0,186
122,064	87,528	-0,247	-0,191
123,079	28,392	-0,317	-0,186
124,093	147,753	-0,278	-0,262
125,108	61,063	-0,288	-0,199
126,122	-85,931	-0,291	-0,062
127,137	116,902	-0,233	-0,200
128,151	-48,209	-0,247	-0,082
129,166	135,268	-0,103	-0,094
130,181	362,529	-0,166	-0,233
131,195	357,687	-0,175	-0,244
132,210	516,020	-0,160	-0,261
133,224	69,678	-0,267	-0,192
134,239	45,758	-0,279	-0,179
135,254	224,562	-0,199	-0,224
136,268	-26,438	-0,223	-0,091
137,283	-55,443	-0,305	-0,095
138,297	-69,062	-0,373	-0,099
139,312	128,680	-0,191	-0,170
140,327	65,449	-0,249	-0,176
141,341	55,769	-0,208	-0,140
142,356	-64,658	-0,269	-0,075
143,370	-16,390	-0,260	-0,114
144,385	-0,005	-0,266	-0,132
145,400	129,571	-0,274	-0,243
146,414	-12,816	-0,299	-0,135
147,429	121,789	-0,203	-0,176
148,443	1,729	-0,217	-0,108
149,458	79,853	-0,254	-0,190
150,473	13,742	-0,181	-0,097
151,487	-1,410	-0,239	-0,117
152,502	24,561	-0,236	-0,135
153,516	-38,652	-0,308	-0,112
154,531	34,311	-0,214	-0,129
155,546	-13,122	-0,315	-0,142
156,560	4,414	-0,167	0,085
157,575	421,521	-0,060	-0,090
158,589	12,644	-0,172	-0,092
159,604	54,557	-0,263	-0,176
160,619	-26,610	-0,375	-0,152
161,633	252,384	-0,219	-0,260
162,648	167,852	-0,291	-0,288
163,662	147,572	-0,242	-0,226
164,677	55,368	-0,252	-0,169
165,692	28,858	-0,289	-0,170
166,706	9,483	-0,316	-0,166
167,721	33,319	-0,230	-0,138
168,735	316,603	-0,171	-0,225
169,750	62,655	-0,158	-0,110
170,764	328,559	-0,140	-0,188
171,779	-15,564	-0,169	-0,075
172,794	-159,970	-0,238	0,009
173,808	11,263	-0,173	-0,092
174,823	166,563	-0,106	-0,104
175,837	25,347	-0,313	-0,180
176,852	159,133	-0,275	-0,266
177,867	79,337	-0,136	-0,101
178,881	110,895	-0,147	-0,123
179,896	-150,674	-0,149	0,008
180,910	-98,639	-0,171	-0,030
181,925	129,274	-0,200	-0,177
182,940	100,179	-0,284	-0,229
183,954	122,059	-0,140	-0,121
184,969	66,169	-0,272	-0,191
185,983	102,392	-0,119	-0,096
186,998	132,253	-0,087	-0,078
188,013	-136,744	-0,225	-0,018
189,027	130,286	-0,230	-0,205
190,042	80,233	-0,248	-0,185
191,056	-134,675	-0,320	-0,027
192,071	-41,203	-0,202	-0,072
193,086	424,327	-0,123	-0,185
194,100	36,427	-0,156	-0,095
195,115	21,630	-0,164	-0,092
196,129	269,005	-0,190	-0,232
197,144	166,780	-0,239	-0,235
198,159	262,572	-0,188	-0,227
199,173	173,793	-0,245	-0,245
200,188	-56,509	-0,289	-0,088
201,202	-25,319	-0,173	-0,070
202,217	-79,564	-0,115	-0,027
203,232	12,253	-0,280	-0,149
204,246	-200,000	-0,061	-0,387
205,261	366,640	-0,141	-0,198
206,275	153,592	-0,133	-0,127
207,290	39,445	-0,197	-0,122
208,304	4,025	-0,198	-0,100
209,319	115,584	-0,172	-0,146
210,334	301,669	-0,142	-0,182
211,348	20,300	-0,216	-0,121
212,363	109,008	-0,241	-0,200
213,377	601,764	-0,115	-0,199
214,392	-138,263	-0,066	0,005
215,407	800,000	-0,078	-0,218
216,421	-66,291	-0,184	-0,050
217,436	165,155	-0,238	-0,233
218,450	-4,522	-0,205	-0,098
219,465	314,284	-0,250	-0,327
220,480	3,649	-0,228	-0,115
221,494	-35,164	-0,192	-0,072
222,509	49,372	-0,155	-0,101
223,523	104,138	-0,186	-0,151
224,538	46,846	-0,111	-0,071
225,553	395,049	-0,205	-0,297
226,567	334,775	-0,215	-0,289
227,582	800,000	-0,093	-0,256
228,596	329,281	-0,079	-0,106
229,611	-152,874	-0,171	0,008
230,626	253,619	-0,139	-0,164
231,640	-26,415	-0,220	-0,089
232,655	-11,057	-0,198	-0,090
233,669	87,634	-0,215	-0,164
234,684	-33,008	-0,164	-0,063
235,699	230,018	-0,143	-0,162
236,713	4,533	-0,173	-0,087
237,728	-95,792	-0,223	-0,041
238,742	133,404	-0,153	-0,136
239,757	431,713	-0,140	-0,210
240,772	76,950	-0,183	-0,134
241,786	800,000	-0,078	-0,206
242,801	429,699	-0,099	-0,148
243,815	-26,681	-0,181	-0,073
244,830	-115,311	-0,183	-0,024
245,844	27,508	-0,216	-0,125
246,859	146,504	-0,106	-0,099
247,874	119,830	-0,265	-0,226
248,888	59,491	-0,253	-0,171
249,903	142,712	-0,148	-0,136
250,917	-30,960	-0,146	-0,057
251,932	109,985	-0,085	-0,070
252,947	800,000	-0,048	-0,096
253,961	-53,173	-0,338	-0,106
254,976	-12,250	-0,191	-0,086
255,990	6,423	-0,265	-0,135
257,005	282,345	-0,109	-0,136
258,020	-200,000	-0,051	-0,291
259,034	-51,934	-0,210	-0,067
260,049	-3,267	-0,251	-0,120
261,063	270,050	-0,193	-0,234
262,078	54,332	-0,241	-0,160
263,093	-58,096	-0,188	-0,056
264,107	75,723	-0,151	-0,110
265,122	719,895	-0,080	-0,148
266,136	694,178	-0,079	-0,143
267,151	-200,000	-0,081	-0,272
268,166	392,307	-0,141	-0,202
269,180	128,588	-0,085	-0,074
270,195	800,000	-0,064	-0,136
271,209	-174,057	-0,192	-0,004
272,224	368,655	-0,116	-0,162
273,239	-200,000	-0,019	-0,067
274,253	93,367	-0,207	-0,161
275,268	800,000	-0,109	-0,236
276,282	272,065	-0,199	-0,242
277,297	9,704	-0,234	-0,122
278,312	-5,999	-0,272	-0,128
279,326	-31,929	-0,187	-0,072
280,341	-200,000	0,000	-0,134
281,355	8,500	-0,147	-0,076
282,370	-94,851	-0,237	-0,044
283,384	800,000	-0,079	-0,169
284,399	237,515	-0,119	-0,136
285,414	32,749	-0,185	-0,110
286,428	25,372	-0,151	-0,086
287,443	800,000	-0,067	-0,165
288,457	136,421	0,066	0,059
289,472	84,920	-0,125	-0,094
290,487	-200,000	-0,057	-0,257
291,501	27,426	-0,204	-0,118
292,516	800,000	-0,086	-0,206
293,530	69,933	-0,129	-0,091
294,545	800,000	-0,051	-0,149
295,560	-44,070	-0,257	0,088
296,574	333,141	-0,033	-0,044
297,589	-98,074	-0,221	-0,039
298,603	269,334	-0,111	-0,135
299,618	498,202	-0,081	-0,129
300,633	-200,000	-0,027	-0,127
301,647	433,903	-0,092	-0,138
302,662	-140,362	-0,133	0,009
303,676	27,966	-0,186	-0,108
304,691	-200,000	0,001	-0,072
305,706	189,070	-0,153	-0,157
306,720	170,958	-0,200	-0,197
307,735	576,620	-0,075	-0,127
308,749	-36,996	-0,230	-0,084
309,764	100,487	-0,137	-0,109
310,779	318,135	-0,100	-0,131
311,793	800,000	-0,062	-0,145
312,808	-200,000	-0,048	-0,163
313,822	30,226	-0,208	-0,121
314,837	272,580	-0,141	-0,171
315,852	-114,579	-0,154	-0,020
316,866	-200,000	-0,048	-0,202
317,881	800,000	-0,068	-0,173
318,895	-70,595	-0,195	-0,050
319,910	-200,000	-0,021	-0,072
320,925	126,823	-0,086	-0,074
321,939	-23,143	-0,179	-0,074
322,954	-167,143	-0,170	-0,005
323,968	-8,344	-0,130	0,060
324,983	8,933	-0,173	-0,089
325,997	73,132	-0,132	-0,094
327,012	170,584	-0,205	-0,201
328,027	732,592	-0,068	-0,125
329,041	800,000	-0,052	-0,146
330,056	365,144	-0,111	-0,153
331,070	12,374	-0,197	-0,104
332,085	-200,000	-0,042	-0,157
333,100	35,915	-0,117	-0,070
334,114	-200,000	-0,027	-0,196
335,129	19,794	-0,237	-0,130
336,143	-122,122	-0,129	-0,014
337,158	-200,000	-0,050	-0,156
338,173	54,953	-0,190	-0,125
339,187	210,844	-0,097	-0,104
340,202	540,579	-0,016	-0,026
341,216	-200,000	-0,034	-0,172
342,231	-52,545	-0,132	-0,041
343,246	182,622	-0,155	-0,157
344,260	17,157	-0,141	-0,076
345,275	40,418	-0,085	-0,052
346,289	400,574	-0,038	-0,055
347,304	124,535	-0,140	-0,120
348,319	800,000	-0,078	-0,149
349,333	164,979	-0,198	-0,191
350,348	-112,758	-0,127	-0,017
351,362	-2,309	-0,178	-0,085
352,377	-200,000	-0,014	-0,101
353,392	-140,283	-0,184	0,013
354,406	-84,290	-0,100	-0,021
355,421	207,313	1307,320	1395,737
356,435	159,480	1467,106	1396,226
