DTS Sentinel unit serial number:	SN410029Multiplexer serial number:	ORYXHardware model number:	OX2-SRSoftware version number:	ORYX F/W v4,00 Oryx Data Collector v3.7.2.0data status	okinstallation	B3 Nyhavnadifferential loss correction	single-endedforward channel	channel 1reverse channel	N/Adate	2023/12/04time	06:32:30forward acquisition time	300,00reverse acquisition time	0,00gamma	499,1914k internal	0,3206k external	0,3206temperature offset calibration	1,0000default loss term (dB/km)	0,3820temperature slope calibration	1,0000multiplexer offset coefficient	1,0000multiplexer slope coefficient	1,0000fibre end	0,00T internal ref (°C)	12,05T ext. ref 1 (°C)	-2,84T ext. ref 2 (°C)	-2,86length (m)	temperature (°C)	Stokes	anti-Stokes-744,400	114,565	-0,209	-0,185
-743,385	-200,000	-0,049	0,336
-742,371	-200,000	-0,080	-0,274
-741,356	800,000	0,147	0,340
-740,342	380,356	-0,129	-0,193
-739,327	-200,000	-0,050	0,386
-738,312	800,000	-0,120	-0,260
-737,298	144,525	-0,074	0,072
-736,283	171,659	-0,230	-0,240
-735,269	-200,000	-0,004	0,288
-734,254	16,167	-0,161	-0,092
-733,239	-135,287	-0,141	0,012
-732,225	800,000	-0,096	-0,280
-731,210	-63,675	0,075	0,022
-730,196	-183,050	-0,090	-0,001
-729,181	46,664	-0,060	-0,040
-728,167	144,377	0,021	-0,020
-727,152	157,483	0,059	0,059
-726,137	-163,179	-0,068	-0,002
-725,123	2,059	-0,126	-0,066
-724,108	223,614	-0,035	0,042
-723,094	-200,000	0,026	-0,133
-722,079	800,000	-0,030	-0,081
-721,064	-200,000	-0,006	0,131
-720,050	250,226	-0,082	-0,101
-719,035	273,475	-0,086	-0,111
-718,021	7,519	0,085	0,046
-717,006	800,000	-0,029	-0,072
-715,991	298,309	-0,098	-0,131
-714,977	606,889	-0,073	0,132
-713,962	-200,000	-0,001	0,099
-712,948	-4,560	0,099	0,050
-711,933	304,132	0,073	0,098
-710,918	800,000	-0,060	0,122
-709,904	78,501	0,040	-0,031
-708,889	17,602	-0,134	-0,077
-707,875	-73,383	0,022	-0,006
-706,860	296,677	0,015	0,019
-705,845	-200,000	0,014	0,143
-704,831	432,899	0,093	0,146
-703,816	-200,000	0,027	-0,088
-702,802	-200,000	-0,000	-0,203
-701,787	563,017	-0,019	0,033
-700,772	61,157	0,023	0,017
-699,758	-200,000	-0,008	-0,061
-698,743	152,297	-0,109	-0,108
-697,729	-119,323	0,138	0,017
-696,714	-36,281	0,015	-0,006
-695,699	73,658	-0,091	-0,069
-694,685	171,906	-0,041	-0,042
-693,670	759,926	-0,032	0,064
-692,656	-200,000	0,016	0,071
-691,641	-48,112	-0,053	-0,018
-690,627	-200,000	-0,007	-0,030
-689,612	-200,000	0,002	0,076
-688,597	-200,000	0,003	0,010
-687,583	28,917	-0,069	-0,042
-686,568	95,655	-0,172	0,142
-685,554	-129,360	-0,021	-0,002
-684,539	30,786	0,077	0,048
-683,524	709,961	-0,026	0,050
-682,510	-200,000	-0,033	-0,160
-681,495	-57,014	0,112	-0,036
-680,481	92,118	-0,097	0,079
-679,466	-73,561	-0,108	-0,028
-678,451	699,021	-0,032	-0,060
-677,437	-200,000	0,018	-0,059
-676,422	675,609	-0,041	0,077
-675,408	7,924	-0,143	-0,078
-674,393	666,302	0,042	0,079
-673,378	-200,000	-0,012	0,072
-672,364	-200,000	-0,010	-0,035
-671,349	30,618	-0,093	0,058
-670,335	-112,236	-0,061	-0,009
-669,320	-135,396	0,078	-0,007
-668,305	-200,000	0,002	-0,066
-667,291	46,224	0,116	0,077
-666,276	8,773	0,027	0,014
-665,262	800,000	-0,028	0,082
-664,247	-11,324	-0,068	-0,033
-663,232	-1,804	-0,091	-0,046
-662,218	288,768	-0,005	0,006
-661,203	319,206	0,059	0,081
-660,189	-200,000	-0,002	0,064
-659,174	20,515	-0,171	-0,100
-658,159	-200,000	0,001	0,067
-657,145	71,674	0,133	-0,100
-656,130	-16,513	0,061	-0,028
-655,116	146,010	0,040	0,039
-654,101	-126,751	0,135	0,014
-653,086	7,336	-0,100	0,054
-652,072	136,192	-0,047	0,044
-651,057	279,548	-0,072	-0,094
-650,043	157,727	-0,021	0,021
-649,028	-111,893	-0,050	-0,007
-648,014	-82,177	0,153	-0,036
-646,999	-37,934	-0,104	-0,040
-645,984	800,000	0,040	0,128
-644,970	12,281	-0,144	-0,080
-643,955	-200,000	0,001	-0,142
-642,941	-200,000	0,006	-0,039
-641,926	334,791	-0,049	0,069
-640,911	54,340	0,096	-0,067
-639,897	16,761	0,095	0,054
-638,882	239,457	-0,069	-0,083
-637,868	66,231	0,152	-0,112
-636,853	800,000	-0,023	-0,050
-635,838	-62,150	-0,119	0,036
-634,824	-3,075	-0,023	-0,011
-633,809	-200,000	0,000	0,054
-632,795	800,000	-0,061	0,128
-631,780	92,110	-0,124	0,101
-630,765	-30,222	0,042	-0,017
-629,751	-140,946	-0,172	0,013
-628,736	265,578	-0,046	-0,058
-627,722	23,264	0,119	-0,070
-626,707	-145,763	-0,023	0,001
-625,692	-18,224	-0,051	-0,023
-624,678	-200,000	0,026	-0,148
-623,663	179,741	0,080	-0,085
-622,649	800,000	0,019	0,054
-621,634	124,976	0,041	0,038
-620,619	-200,000	-0,017	-0,153
-619,605	-132,158	-0,008	0,001
-618,590	135,657	0,080	0,075
-617,576	240,833	0,090	0,109
-616,561	-200,000	0,019	-0,069
-615,546	-137,173	-0,103	-0,008
-614,532	-200,000	-0,003	0,021
-613,517	317,491	-0,060	-0,082
-612,503	-200,000	0,014	0,051
-611,488	258,960	0,088	0,110
-610,474	361,120	0,031	0,046
-609,459	-0,049	0,028	0,015
-608,444	48,070	-0,132	-0,089
-607,430	-72,750	-0,030	-0,008
-606,415	163,307	0,061	-0,062
-605,401	649,649	-0,089	0,165
-604,386	772,561	0,031	0,061
-603,371	-29,374	0,014	0,006
-602,357	-200,000	-0,006	-0,070
-601,342	55,828	0,136	-0,095
-600,328	669,373	0,009	0,017
-599,313	-200,000	0,009	-0,036
-598,298	800,000	-0,054	-0,115
-597,284	518,481	0,016	0,027
-596,269	-200,000	0,024	0,106
-595,255	632,407	0,042	0,077
-594,240	348,773	-0,074	-0,105
-593,225	800,000	-0,005	0,015
-592,211	-23,530	0,058	0,025
-591,196	-109,203	-0,096	-0,015
-590,182	-200,000	-0,010	-0,041
-589,167	-109,876	-0,102	0,015
-588,152	221,178	-0,046	0,054
-587,138	-91,492	0,090	-0,018
-586,123	233,826	-0,166	-0,198
-585,109	55,879	-0,146	-0,102
-584,094	333,870	0,061	0,085
-583,079	157,315	-0,061	0,061
-582,065	-25,840	-0,092	0,039
-581,050	6,284	-0,173	0,092
-580,036	-200,000	0,015	-0,072
-579,021	205,320	0,044	-0,050
-578,006	-200,000	-0,008	-0,041
-576,992	262,499	0,024	0,030
-575,977	348,072	0,062	-0,088
-574,963	-52,609	-0,130	-0,043
-573,948	-200,000	0,042	0,137
-572,934	-51,817	-0,092	-0,031
-571,919	-161,337	0,152	-0,006
-570,904	-8,349	0,116	-0,056
-569,890	705,133	-0,002	0,004
-568,875	211,111	-0,022	-0,025
-567,861	350,330	0,061	0,087
-566,846	-51,856	-0,013	0,004
-565,831	431,208	0,038	-0,059
-564,817	800,000	-0,048	0,141
-563,802	10,248	0,032	-0,017
-562,788	468,700	-0,047	-0,077
-561,773	451,783	-0,127	0,203
-560,758	262,727	0,070	0,088
-559,744	-200,000	0,009	0,142
-558,729	-200,000	0,065	0,208
-557,715	-35,041	-0,084	-0,033
-556,700	-31,215	-0,147	-0,060
-555,685	-125,544	-0,133	-0,014
-554,671	-200,000	0,017	0,072
-553,656	119,067	-0,036	-0,032
-552,642	476,737	0,018	0,030
-551,627	-69,409	-0,078	0,022
-550,612	241,396	-0,066	-0,080
-549,598	366,322	-0,044	-0,064
-548,583	-139,490	-0,073	-0,006
-547,569	160,497	-0,080	-0,081
-546,554	348,175	0,052	-0,075
-545,539	129,884	0,041	-0,038
-544,525	53,238	0,096	0,066
-543,510	250,910	0,053	0,065
-542,496	563,451	-0,084	-0,146
-541,481	800,000	0,020	-0,052
-540,466	-200,000	-0,003	0,090
-539,452	6,383	-0,101	-0,054
-538,437	-43,199	-0,107	0,039
-537,423	162,267	-0,019	0,019
-536,408	176,105	0,060	0,062
-535,393	-48,209	-0,043	-0,015
-534,379	-69,962	-0,076	-0,021
-533,364	-200,000	-0,008	-0,082
-532,350	139,293	0,025	0,024
-531,335	258,033	0,081	0,100
-530,321	-104,273	0,032	0,005
-529,306	-139,819	-0,034	-0,003
-528,291	344,218	-0,089	-0,126
-527,277	-12,513	-0,074	0,035
-526,262	355,103	-0,060	0,087
-525,248	184,837	0,071	-0,076
-524,233	-200,000	0,009	0,055
-523,218	-135,333	0,118	0,010
-522,204	149,136	-0,021	-0,021
-521,189	-131,455	0,094	0,009
-520,175	-114,046	-0,074	-0,010
-519,160	75,382	0,048	-0,036
-518,145	393,783	-0,030	0,044
-517,131	-57,758	0,041	-0,013
-516,116	-116,188	0,090	0,012
-515,102	-200,000	0,011	-0,050
-514,087	225,801	-0,090	0,105
-513,072	-142,057	-0,106	-0,007
-512,058	800,000	-0,051	0,118
-511,043	-174,563	0,121	0,002
-510,029	-71,447	0,074	-0,020
-509,014	800,000	0,050	0,148
-507,999	154,910	-0,122	0,120
-506,985	800,000	-0,054	-0,122
-505,970	800,000	-0,029	-0,066
-504,956	386,882	-0,099	-0,147
-503,941	109,488	-0,064	0,055
-502,926	260,926	-0,060	-0,075
-501,912	-59,014	0,123	-0,038
-500,897	-200,000	-0,008	0,038
-499,883	647,931	0,010	0,018
-498,868	510,641	-0,032	-0,054
-497,853	-200,000	0,006	-0,026
-496,839	-152,545	0,138	0,007
-495,824	-200,000	-0,004	0,083
-494,810	800,000	0,038	0,089
-493,795	-20,591	-0,114	-0,050
-492,781	-23,913	-0,040	0,017
-491,766	184,298	0,074	-0,079
-490,751	-44,753	0,059	0,021
-489,737	-200,000	0,022	0,087
-488,722	744,038	0,050	-0,097
-487,708	193,128	0,020	-0,022
-486,693	-78,350	0,032	0,008
-485,678	75,962	-0,081	-0,062
-484,664	-200,000	-0,011	-0,124
-483,649	493,584	-0,058	-0,095
-482,635	-103,786	-0,157	-0,026
-481,620	-7,964	0,078	0,038
-480,605	-200,000	0,007	-0,080
-479,591	800,000	-0,061	0,154
-478,576	743,093	-0,048	-0,093
-477,562	206,583	-0,039	0,044
-476,547	297,327	-0,052	-0,069
-475,532	400,822	-0,075	-0,113
-474,518	-2,356	0,014	-0,007
-473,503	-200,000	-0,001	0,023
-472,489	-200,000	0,042	0,138
-471,474	-146,577	0,068	0,004
-470,459	52,172	0,069	0,047
-469,445	10,491	-0,037	0,020
-468,430	-113,204	-0,152	0,021
-467,416	-104,638	-0,100	-0,016
-466,401	-200,000	0,033	0,169
-465,386	800,000	-0,031	0,096
-464,372	-20,508	-0,124	0,055
-463,357	800,000	0,059	-0,125
-462,343	-57,819	-0,063	0,020
-461,328	184,071	-0,042	-0,045
-460,313	800,000	-0,068	0,146
-459,299	-168,312	0,146	0,004
-458,284	800,000	0,024	-0,056
-457,270	286,112	0,044	0,057
-456,255	650,252	-0,012	0,022
-455,241	332,071	0,018	-0,025
-454,226	-200,000	-0,011	0,041
-453,211	222,820	0,030	0,035
-452,197	75,593	0,033	0,025
-451,182	-200,000	-0,001	0,053
-450,168	93,706	-0,012	0,009
-449,153	43,156	0,084	0,055
-448,138	603,047	0,044	0,079
-447,124	-52,521	-0,051	0,017
-446,109	-0,660	0,107	0,054
-445,095	623,347	0,096	0,174
-444,080	2,352	0,100	0,052
-443,065	-200,000	0,016	-0,111
-442,051	50,299	0,030	-0,020
-441,036	800,000	-0,033	-0,103
-440,022	64,563	-0,084	-0,061
-439,007	360,447	-0,073	-0,106
-437,992	-200,000	-0,009	0,151
-436,978	199,465	0,051	0,056
-435,963	666,079	0,056	0,104
-434,949	800,000	-0,030	-0,086
-433,934	48,447	-0,079	0,053
-432,919	800,000	0,034	-0,092
-431,905	65,405	-0,033	0,024
-430,890	-200,000	-0,006	-0,034
-429,876	-28,925	-0,141	-0,058
-428,861	43,112	0,191	0,125
-427,846	401,678	0,033	-0,049
-426,832	-94,636	-0,098	0,019
-425,817	-36,910	-0,062	-0,024
-424,803	130,991	0,029	-0,027
-423,788	-59,878	0,135	0,041
-422,773	246,903	-0,075	0,091
-421,759	-86,196	0,108	-0,024
-420,744	-111,184	-0,093	0,013
-419,730	-8,755	0,056	-0,027
-418,715	800,000	0,076	-0,164
-417,701	800,000	0,027	-0,056
-416,686	-102,591	0,116	0,020
-415,671	-200,000	0,018	0,175
-414,657	52,835	0,044	-0,030
-413,642	-106,822	-0,042	0,007
-412,628	-61,325	0,110	-0,033
-411,613	10,302	0,098	-0,053
-410,598	341,131	0,051	0,071
-409,584	-37,426	-0,027	0,010
-408,569	17,349	0,060	0,034
-407,555	800,000	0,035	0,110
-406,540	442,549	-0,009	0,015
-405,525	105,398	-0,066	-0,056
-404,511	11,812	0,096	-0,053
-403,496	800,000	-0,009	0,022
-402,482	-200,000	0,038	0,125
-401,467	800,000	0,029	0,082
-400,452	800,000	-0,065	0,164
-399,438	474,211	0,092	0,148
-398,423	-42,340	0,062	-0,023
-397,409	57,084	0,074	-0,052
-396,394	78,006	-0,106	0,081
-395,379	113,217	-0,077	-0,067
-394,365	-58,314	0,145	-0,045
-393,350	171,754	-0,057	-0,059
-392,336	213,477	0,112	0,127
-391,321	81,470	0,066	-0,051
-390,306	107,538	-0,074	-0,063
-389,292	-171,173	-0,139	-0,003
-388,277	76,758	0,051	-0,038
-387,263	800,000	0,009	-0,021
-386,248	-100,498	0,024	-0,004
-385,233	-100,658	-0,113	0,020
-384,219	-200,000	0,018	-0,086
-383,204	-80,096	0,042	-0,010
-382,190	800,000	-0,031	-0,063
-381,175	255,301	0,056	-0,068
-380,160	800,000	0,020	-0,045
-379,146	-200,000	-0,011	0,092
-378,131	-123,623	0,090	0,010
-377,117	-149,793	-0,071	-0,004
-376,102	-200,000	-0,030	-0,234
-375,088	-46,740	0,045	-0,016
-374,073	152,886	0,081	-0,080
-373,058	-200,000	-0,010	0,035
-372,044	-29,196	0,050	-0,021
-371,029	60,044	0,083	-0,059
-370,015	151,271	-0,085	-0,083
-369,000	800,000	0,067	-0,134
-367,985	-200,000	0,020	-0,110
-366,971	-83,362	-0,067	0,015
-365,956	69,716	-0,077	-0,057
-364,942	0,836	0,053	0,027
-363,927	500,151	-0,051	-0,085
-362,912	-200,000	-0,007	-0,054
-361,898	-57,777	-0,018	0,005
-360,883	134,047	-0,033	0,030
-359,869	-200,000	0,001	-0,089
-358,854	-107,612	0,136	-0,021
-357,839	109,012	0,021	-0,018
-356,825	393,197	-0,031	0,047
-355,810	-200,000	0,016	0,077
-354,796	-62,972	-0,084	0,025
-353,781	23,169	-0,029	0,017
-352,766	251,981	0,148	-0,181
-351,752	-115,789	0,197	-0,026
-350,737	34,582	0,114	0,071
-349,723	-200,000	-0,004	0,103
-348,708	435,338	-0,031	-0,048
-347,693	8,094	-0,131	-0,070
-346,679	-119,395	-0,168	-0,021
-345,664	254,027	0,066	0,081
-344,650	-77,619	0,054	-0,013
-343,635	116,678	0,043	-0,037
-342,620	-67,098	0,144	0,040
-341,606	25,376	0,038	-0,022
-340,591	713,129	0,057	0,108
-339,577	248,061	-0,111	-0,135
-338,562	-200,000	-0,007	-0,200
-337,548	-82,848	-0,075	-0,017
-336,533	-62,533	0,035	0,010
-335,518	-12,038	0,121	0,057
-334,504	800,000	-0,051	-0,139
-333,489	400,581	0,040	0,060
-332,475	800,000	0,015	-0,035
-331,460	-200,000	-0,066	-0,281
-330,445	-153,075	-0,075	-0,004
-329,431	-157,937	0,063	-0,003
-328,416	515,011	0,086	0,144
-327,402	-169,486	0,069	-0,002
-326,387	410,574	0,033	0,050
-325,372	395,215	0,010	-0,015
-324,358	-200,000	-0,011	-0,047
-323,343	-81,354	-0,111	-0,026
-322,329	9,647	-0,102	-0,055
-321,314	-30,215	0,070	0,028
-320,299	800,000	0,015	0,041
-319,285	800,000	-0,028	0,069
-318,270	33,047	-0,126	-0,078
-317,256	-59,360	-0,124	0,038
-316,241	87,422	0,144	-0,114
-315,226	138,517	0,057	0,054
-314,212	-6,459	-0,112	-0,054
-313,197	-200,000	-0,018	-0,102
-312,183	-42,607	0,153	0,055
-311,168	800,000	-0,041	-0,130
-310,153	-200,000	-0,003	-0,100
-309,139	-8,664	0,169	0,081
-308,124	-20,544	-0,059	0,026
-307,110	291,994	0,091	0,118
-306,095	-81,878	0,088	0,020
-305,080	-26,732	-0,059	-0,024
-304,066	-157,622	0,094	-0,004
-303,051	58,282	-0,041	-0,028
-302,037	-88,956	0,132	-0,028
-301,022	-124,751	-0,123	-0,013
-300,008	-48,988	0,095	0,032
-298,993	-160,867	0,099	0,004
-297,978	-37,872	0,034	0,013
-296,964	-15,762	0,064	-0,029
-295,949	65,190	-0,083	-0,060
-294,935	-91,252	0,034	0,007
-293,920	227,051	0,078	0,091
-292,905	235,745	0,065	0,077
-291,891	284,211	-0,115	0,148
-290,876	19,288	0,072	-0,041
-289,862	102,798	0,041	0,034
-288,847	-200,000	-0,018	-0,102
-287,832	182,804	-0,184	-0,194
-286,818	-41,483	0,111	0,041
-285,803	-200,000	-0,013	0,053
-284,789	667,851	-0,058	0,108
-283,774	-200,000	-0,019	0,115
-282,759	-10,841	0,169	0,079
-281,745	-65,208	0,036	-0,010
-280,730	-97,977	-0,104	-0,019
-279,716	-1,963	0,041	0,021
-278,701	394,139	0,017	-0,025
-277,686	116,839	0,099	0,086
-276,672	-62,423	0,057	-0,017
-275,657	21,417	0,072	-0,042
-274,643	800,000	-0,015	0,031
-273,628	618,537	-0,044	-0,080
-272,613	626,241	0,036	-0,064
-271,599	477,216	-0,016	0,025
-270,584	800,000	-0,029	0,067
-269,570	-155,776	0,144	0,006
-268,555	-4,541	-0,068	-0,034
-267,540	-200,000	0,014	-0,169
-266,526	-200,000	0,001	-0,144
-265,511	-200,000	0,031	-0,120
-264,497	800,000	-0,008	0,016
-263,482	800,000	0,029	-0,090
-262,467	-96,556	0,085	0,016
-261,453	337,375	0,023	0,032
-260,438	-6,603	-0,085	-0,041
-259,424	432,262	-0,066	-0,102
-258,409	800,000	0,020	-0,042
-257,395	40,903	0,069	-0,044
-256,380	-61,879	0,020	-0,006
-255,365	-200,000	-0,013	-0,082
-254,351	259,294	0,030	0,037
-253,336	58,320	-0,067	-0,047
-252,322	22,557	0,123	-0,072
-251,307	10,876	-0,043	-0,024
-250,292	-38,958	-0,118	-0,044
-249,278	392,019	0,071	0,106
-248,263	-4,153	0,008	0,004
-247,249	-106,242	-0,067	-0,011
-246,234	-132,510	-0,125	0,011
-245,219	252,303	-0,011	-0,013
-244,205	-200,000	-0,004	-0,127
-243,190	658,120	0,060	-0,111
-242,176	116,321	0,041	-0,036
-241,161	387,151	0,077	0,114
-240,146	-200,000	-0,014	0,156
-239,132	88,952	0,083	0,066
-238,117	161,667	-0,100	0,099
-237,103	-200,000	-0,015	-0,081
-236,088	-12,919	0,071	0,033
-235,073	800,000	0,064	0,168
-234,059	-200,000	0,004	0,164
-233,044	-200,000	-0,009	0,158
-232,030	-200,000	0,023	0,116
-231,015	-200,000	-0,007	0,032
-230,000	189,854	0,029	-0,031
-228,986	166,466	0,081	0,082
-227,971	-200,000	-0,014	-0,055
-226,957	-39,153	0,031	-0,011
-225,942	557,103	0,026	-0,045
-224,927	73,264	0,149	0,111
-223,913	70,984	-0,120	0,088
-222,898	-200,000	-0,007	0,138
-221,884	271,016	-0,021	0,026
-220,869	-139,434	-0,097	-0,007
-219,855	-111,612	-0,062	0,009
-218,840	-200,000	0,030	0,117
-217,825	100,778	-0,007	-0,006
-216,811	-126,270	0,061	-0,006
-215,796	800,000	0,069	-0,147
-214,782	474,475	-0,034	0,055
-213,767	32,544	0,034	0,021
-212,752	-200,000	0,007	0,058
-211,738	-200,000	0,003	0,077
-210,723	800,000	0,040	-0,092
-209,709	162,356	-0,054	-0,054
-208,694	-200,000	-0,049	-0,185
-207,679	-127,647	-0,061	-0,006
-206,665	34,836	0,046	0,029
-205,650	95,334	-0,077	0,062
-204,636	-131,220	-0,057	0,005
-203,621	37,390	0,087	-0,055
-202,606	-20,202	-0,020	-0,009
-201,592	351,998	-0,136	-0,192
-200,577	-149,392	-0,059	-0,003
-199,563	-200,000	-0,011	0,093
-198,548	612,996	0,049	-0,088
-197,533	137,930	-0,036	-0,034
-196,519	120,549	-0,071	0,063
-195,504	90,563	0,035	-0,028
-194,490	-75,446	-0,117	0,029
-193,475	-200,000	0,014	0,059
-192,460	-112,118	-0,134	0,019
-191,446	183,112	0,052	-0,055
-190,431	416,100	-0,036	0,055
-189,417	34,888	0,083	0,052
-188,402	-61,099	-0,057	-0,017
-187,387	-67,682	0,060	0,016
-186,373	62,367	-0,047	-0,033
-185,358	548,490	0,052	0,089
-184,344	-85,776	-0,112	0,024
-183,329	800,000	-0,046	0,122
-182,315	394,150	-0,070	0,104
-181,300	800,000	-0,035	0,093
-180,285	-79,176	-0,072	-0,017
-179,271	232,657	0,044	0,051
-178,256	-14,843	-0,116	0,053
-177,242	-164,883	0,117	0,004
-176,227	24,089	0,080	0,047
-175,212	-37,126	-0,043	0,016
-174,198	-72,045	-0,070	-0,018
-173,183	-25,260	-0,056	-0,023
-172,169	-19,396	-0,076	-0,033
-171,154	-85,972	0,018	0,004
-170,139	188,766	0,120	0,128
-169,125	800,000	-0,029	-0,082
-168,110	-36,076	0,089	0,034
-167,096	6,317	-0,179	-0,094
-166,081	-120,130	-0,102	0,012
-165,066	-200,000	0,023	-0,147
-164,052	367,601	0,033	-0,048
-163,037	-153,322	-0,086	0,004
-162,023	322,192	0,045	0,061
-161,008	84,448	-0,127	0,099
-159,993	408,056	-0,035	0,053
-158,979	552,102	-0,073	-0,124
-157,964	-13,754	0,018	-0,008
-156,950	-200,000	0,010	-0,079
-155,935	-200,000	0,004	0,057
-154,920	-162,160	0,105	0,004
-153,906	632,471	0,103	0,186
-152,891	-200,000	0,017	0,056
-151,877	50,100	-0,100	-0,067
-150,862	-200,000	-0,005	0,079
-149,847	47,042	-0,094	-0,062
-148,833	-200,000	-0,007	-0,057
-147,818	41,771	0,159	-0,102
-146,804	-71,234	-0,041	0,011
-145,789	-200,000	0,007	-0,105
-144,775	800,000	-0,005	-0,014
-143,760	-200,000	-0,074	-0,232
-142,745	800,000	-0,035	-0,099
-141,731	-200,000	0,037	-0,121
-140,716	465,743	0,052	-0,084
-139,702	544,104	0,054	0,091
-138,687	800,000	0,033	-0,089
-137,672	-200,000	0,047	-0,205
-136,658	137,827	-0,094	0,087
-135,643	123,744	0,041	0,037
-134,629	334,303	-0,016	-0,022
-133,614	-30,617	0,034	-0,014
-132,599	-200,000	0,070	0,222
-131,585	-200,000	-0,004	-0,019
-130,570	226,367	0,073	-0,084
-129,556	25,043	0,113	-0,067
-128,541	-12,581	-0,051	0,023
-127,526	-200,000	0,015	-0,053
-126,512	161,691	-0,006	0,006
-125,497	-72,504	0,115	0,030
-124,483	-90,040	0,120	-0,025
-123,468	-200,000	-0,018	-0,074
-122,453	565,526	-0,033	-0,057
-121,439	53,799	-0,108	0,073
-120,424	-112,192	-0,086	-0,012
-119,410	-200,000	-0,018	-0,094
-118,395	-200,000	0,049	-0,000
-117,380	800,000	0,002	-0,006
-116,366	-117,980	-0,141	0,018
-115,351	274,537	0,058	-0,073
-114,337	202,442	0,083	-0,091
-113,322	462,056	-0,057	0,091
-112,307	38,740	0,022	0,014
-111,293	94,735	0,119	0,096
-110,278	800,000	0,007	-0,014
-109,264	306,952	0,030	0,039
-108,249	-80,998	-0,173	-0,040
-107,234	91,930	-0,073	-0,058
-106,220	-55,821	-0,038	0,012
-105,205	43,947	0,105	0,068
-104,191	800,000	-0,005	0,012
-103,176	-200,000	0,005	0,087
-102,162	12,601	-0,041	0,022
-101,147	798,792	0,044	-0,087
-100,132	170,843	-0,048	-0,049
-99,118	174,535	-0,072	-0,073
-98,103	19,948	0,126	-0,072
-97,089	379,912	0,072	-0,105
-96,074	-200,000	0,012	0,151
-95,059	-128,269	-0,042	-0,004
-94,045	550,019	-0,012	-0,021
-93,030	-102,367	-0,196	0,033
-92,016	579,122	-0,053	-0,093
-91,001	380,635	0,088	-0,129
-89,986	-200,000	0,007	-0,029
-88,972	-200,000	0,012	0,048
-87,957	133,630	0,037	-0,034
-86,943	-200,000	0,005	-0,078
-85,928	-109,485	-0,064	-0,010
-84,913	23,461	0,023	-0,013
-83,899	-128,924	-0,088	0,009
-82,884	157,582	0,149	0,146
-81,870	22,403	-0,048	0,028
-80,855	800,000	-0,012	0,033
-79,840	78,828	-0,047	-0,036
-78,826	-200,000	0,024	-0,079
-77,811	-51,780	-0,066	-0,022
-76,797	-200,000	0,011	0,039
-75,782	229,689	0,062	0,071
-74,767	-61,265	0,063	-0,019
-73,753	228,868	-0,039	-0,045
-72,738	-21,187	0,056	0,024
-71,724	-200,000	-0,019	-0,183
-70,709	-200,000	0,015	-0,071
-69,694	10,731	-0,087	0,047
-68,680	489,120	0,071	-0,115
-67,665	208,054	-0,043	0,048
-66,651	65,955	-0,086	0,062
-65,636	-19,584	0,039	0,017
-64,622	459,725	-0,058	-0,091
-63,607	-200,000	-0,004	-0,035
-62,592	800,000	0,037	-0,107
-61,578	115,759	0,056	0,048
-60,563	-200,000	0,013	-0,058
-59,549	-200,000	-0,011	0,084
-58,534	-1,414	-1,751	-0,871
-57,519	481,209	-1,235	-1,990
-56,505	-200,000	-0,589	-4,563
-55,490	296,418	1,075	1,397
-54,476	800,000	4,973	11,034
-53,461	-200,000	20,338	324,089
-52,446	800,000	752,417	2311,347
-51,432	548,742	1663,413	2828,169
-50,417	74,837	1671,672	1242,840
-49,403	19,915	1544,624	877,638
-48,388	13,905	1467,169	804,394
-47,373	18,425	1457,258	820,756
-46,359	16,319	1446,940	804,829
-45,344	12,171	1442,608	782,520
-44,330	12,078	1440,663	780,986
-43,315	12,127	1438,575	780,057
-42,300	12,112	1437,114	779,162
-41,286	12,109	1435,947	778,483
-40,271	12,072	1434,557	777,526
-39,257	12,051	1433,481	776,813
-38,242	12,150	1432,100	776,503
-37,227	12,140	1430,822	775,730
-36,213	12,130	1429,549	774,963
-35,198	12,144	1428,238	774,290
-34,184	12,183	1427,343	773,956
-33,169	12,140	1425,944	772,965
-32,154	12,161	1424,857	772,444
-31,140	12,228	1423,637	772,069
-30,125	12,183	1422,658	771,293
-29,111	12,167	1421,479	770,548
-28,096	12,141	1420,438	769,833
-27,082	12,079	1419,407	768,948
-26,067	12,085	1418,261	768,325
-25,052	12,066	1417,180	767,620
-24,038	12,069	1416,082	767,012
-23,023	12,056	1415,247	766,465
-22,009	12,088	1413,997	765,909
-20,994	12,067	1413,090	765,289
-19,979	12,062	1412,392	764,858
-18,965	12,010	1411,233	763,954
-17,950	12,016	1410,501	763,559
-16,936	12,047	1409,546	763,155
-15,921	11,954	1408,629	762,191
-14,906	11,977	1407,785	761,811
-13,892	12,005	1406,816	761,389
-12,877	11,960	1406,062	760,743
-11,863	12,003	1404,793	760,226
-10,848	11,958	1403,991	759,549
-9,833	11,907	1403,326	758,922
-8,819	11,902	1402,395	758,366
-7,804	11,879	1401,456	757,720
-6,790	11,940	1400,311	757,356
-5,775	11,890	1399,519	756,664
-4,760	11,897	1398,182	755,946
-3,746	11,901	1397,413	755,519
-2,731	11,889	1396,796	755,098
-1,717	11,856	1396,028	754,498
-0,702	11,830	1394,318	753,428
0,313	15,897	1308,834	725,979
1,327	32,347	699,626	425,847
2,342	50,540	121,969	81,373
3,356	1,569	16,424	8,323
4,371	0,161	3,364	1,689
5,386	20,278	0,842	0,479
6,400	800,000	0,121	0,357
7,415	131,171	-0,176	-0,160
8,429	50,081	-0,232	-0,154
9,444	-101,295	-0,381	-0,065
10,459	152,561	-0,196	-0,189
11,473	-61,294	-0,308	-0,091
12,488	56,916	-0,263	-0,181
13,502	13,032	-0,221	-0,120
14,517	296,252	-0,241	-0,313
15,531	52,800	-0,367	-0,247
16,546	270,241	-0,246	-0,306
17,561	374,236	-0,311	-0,448
18,575	158,493	-0,096	-0,094
19,590	101,127	-0,217	-0,178
20,604	-52,240	-0,361	-0,117
21,619	25,209	-0,563	-0,329
22,634	151,750	-0,344	-0,331
23,648	116,823	-0,443	-0,384
24,663	109,798	-0,388	-0,328
25,677	48,929	-0,350	-0,231
26,692	33,266	-0,336	-0,205
27,707	117,860	-0,387	-0,336
28,721	-23,170	-0,439	-0,186
29,736	31,407	-0,367	-0,222
30,750	45,340	-0,439	-0,285
31,765	96,283	-0,325	-0,262
32,780	4,486	-0,390	-0,201
33,794	52,841	-0,297	-0,200
34,809	-5,300	-0,442	-0,213
35,823	73,591	-0,337	-0,249
36,838	117,821	-0,388	-0,337
37,853	36,740	-0,297	-0,185
38,867	104,123	-0,349	-0,289
39,882	228,695	-0,257	-0,296
40,896	79,552	-0,328	-0,248
41,911	131,455	-0,214	-0,194
42,926	22,358	-0,435	-0,250
43,940	-21,701	-0,437	-0,186
44,955	35,673	-0,406	-0,251
45,969	86,727	-0,385	-0,299
46,984	79,792	-0,266	-0,201
47,999	201,896	-0,302	-0,328
49,013	270,519	-0,252	-0,313
50,028	-54,311	-0,329	-0,104
51,042	91,930	-0,335	-0,265
52,057	193,284	-0,233	-0,248
53,071	-0,363	-0,357	-0,178
54,086	99,701	-0,431	-0,350
55,101	99,385	-0,338	-0,275
56,115	112,894	-0,403	-0,343
57,130	18,904	-0,447	-0,251
58,144	59,614	-0,373	-0,258
59,159	44,352	-0,389	-0,250
60,174	157,166	-0,288	-0,281
61,188	89,427	-0,305	-0,238
62,203	22,757	-0,295	-0,169
63,217	-39,639	-0,352	-0,129
64,232	-43,929	-0,357	-0,125
65,247	83,625	-0,219	-0,168
66,261	105,255	-0,282	-0,234
67,276	157,761	-0,318	-0,310
68,290	6,599	-0,296	-0,154
69,305	35,287	-0,294	-0,181
70,320	18,380	-0,310	-0,173
71,334	-67,503	-0,324	-0,089
72,349	208,802	-0,188	-0,207
73,363	284,203	-0,281	-0,356
74,378	119,982	-0,266	-0,232
75,393	174,035	-0,312	-0,316
76,407	89,228	-0,258	-0,201
77,422	127,974	-0,241	-0,215
78,436	115,777	-0,301	-0,258
79,451	17,586	-0,301	-0,168
80,466	-21,836	-0,380	-0,161
81,480	-42,309	-0,238	-0,085
82,495	-44,920	-0,261	-0,091
83,509	201,966	-0,261	-0,283
84,524	143,162	-0,295	-0,276
85,539	38,739	-0,228	-0,142
86,553	-3,230	-0,255	-0,124
87,568	75,286	-0,287	-0,212
88,582	-53,129	-0,332	-0,106
89,597	76,316	-0,385	-0,285
90,611	385,968	-0,141	-0,204
91,626	183,300	-0,217	-0,224
92,641	594,844	-0,150	-0,260
93,655	120,380	-0,164	-0,143
94,670	-18,031	-0,329	-0,144
95,684	216,704	-0,328	-0,366
96,699	210,635	-0,176	-0,195
97,714	-138,615	-0,208	-0,016
98,728	28,815	-0,295	-0,175
99,743	123,682	-0,149	-0,131
100,757	168,385	-0,207	-0,207
101,772	18,246	-0,318	-0,177
102,787	107,448	-0,285	-0,237
103,801	60,723	-0,239	-0,166
104,816	377,860	-0,165	-0,237
105,830	159,183	-0,232	-0,226
106,845	178,443	-0,282	-0,289
107,860	-4,612	-0,175	-0,084
108,874	36,169	-0,214	-0,132
109,889	130,994	-0,254	-0,228
110,903	-87,172	-0,288	-0,061
111,918	482,938	-0,148	-0,237
112,933	36,783	-0,217	-0,134
113,947	-37,962	-0,213	-0,079
114,962	-151,647	-0,311	-0,016
115,976	800,000	-0,161	-0,337
116,991	128,669	-0,327	-0,291
118,006	70,566	-0,245	-0,177
119,020	-88,048	-0,277	-0,058
120,035	79,176	-0,235	-0,176
121,049	-36,351	-0,099	-0,037
122,064	108,988	-0,189	-0,158
123,079	169,545	-0,130	-0,130
124,093	122,914	-0,262	-0,229
125,108	152,364	-0,308	-0,294
126,122	56,464	-0,217	-0,147
127,137	89,858	-0,215	-0,167
128,151	515,640	-0,147	-0,240
129,166	135,067	-0,287	-0,261
130,181	97,640	-0,156	-0,125
131,195	-51,206	-0,384	-0,125
132,210	-52,106	-0,230	-0,074
133,224	122,823	-0,249	-0,218
134,239	188,505	-0,171	-0,179
135,254	-27,994	-0,297	-0,119
136,268	208,988	-0,145	-0,159
137,283	800,000	-0,160	-0,363
138,297	162,078	-0,346	-0,339
139,312	101,725	-0,298	-0,242
140,327	199,627	-0,224	-0,240
141,341	-40,754	-0,171	-0,061
142,356	247,956	-0,137	-0,162
143,370	129,614	-0,192	-0,171
144,385	95,488	-0,174	-0,139
145,400	549,967	-0,189	-0,318
146,414	165,163	-0,140	-0,138
147,429	246,026	-0,184	-0,217
148,443	107,327	-0,273	-0,226
149,458	149,442	-0,191	-0,181
150,473	266,695	-0,105	-0,129
151,487	37,636	-0,314	-0,194
152,502	209,226	-0,218	-0,238
153,516	30,285	-0,153	-0,091
154,531	-31,784	-0,289	-0,112
155,546	159,370	-0,217	-0,210
156,560	89,899	-0,263	-0,204
157,575	406,904	-0,144	-0,212
158,589	46,164	-0,256	-0,165
159,604	306,787	-0,146	-0,190
160,619	799,680	-0,154	-0,298
161,633	111,408	-0,231	-0,194
162,648	113,779	-0,220	-0,186
163,662	58,458	-0,192	-0,131
164,677	492,993	-0,156	-0,250
165,692	277,644	-0,091	-0,113
166,706	672,458	-0,126	-0,229
167,721	54,805	-0,188	-0,126
168,735	-30,919	-0,300	-0,118
169,750	22,033	-0,226	-0,128
170,764	112,330	-0,212	-0,179
171,779	30,043	-0,159	-0,094
172,794	-129,105	-0,296	-0,028
173,808	800,000	-0,052	-0,158
174,823	308,447	-0,180	-0,234
175,837	201,130	-0,171	-0,183
176,852	128,653	-0,235	-0,208
177,867	164,345	-0,178	-0,175
178,881	-200,000	-0,105	-0,362
179,896	51,697	-0,088	-0,058
180,910	25,484	-0,348	-0,201
181,925	565,955	-0,163	-0,276
182,940	239,980	-0,281	-0,326
183,954	61,818	-0,283	-0,195
184,969	-114,118	-0,196	-0,026
185,983	293,212	-0,171	-0,217
186,998	581,530	-0,111	-0,190
188,013	448,233	-0,109	-0,167
189,027	123,257	-0,218	-0,190
190,042	218,944	-0,246	-0,274
191,056	45,712	-0,285	-0,183
192,071	154,318	-0,194	-0,185
193,086	-200,000	-0,064	-0,243
194,100	94,470	-0,244	-0,192
195,115	79,742	-0,390	-0,290
196,129	98,294	-0,298	-0,238
197,144	149,283	-0,156	-0,147
198,159	731,394	-0,150	-0,280
199,173	-49,142	-0,188	-0,062
200,188	15,430	-0,235	-0,128
201,202	-200,000	-0,003	-0,044
202,217	96,481	-0,179	-0,142
203,232	112,377	-0,218	-0,183
204,246	800,000	-0,125	-0,266
205,261	53,096	-0,288	-0,191
206,275	627,126	-0,042	-0,075
207,290	-178,144	-0,131	-0,002
208,304	800,000	-0,069	-0,191
209,319	-1,306	-0,171	-0,083
210,334	-200,000	-0,218	-0,001
211,348	249,225	-0,114	-0,134
212,363	125,817	-0,115	-0,100
213,377	288,760	-0,102	-0,129
214,392	154,991	-0,245	-0,233
215,407	-9,472	-0,237	-0,109
216,421	592,513	-0,136	-0,233
217,436	111,924	-0,206	-0,173
218,450	131,653	-0,155	-0,139
219,465	70,927	-0,170	-0,122
220,480	-67,685	-0,173	-0,047
221,494	800,000	-0,091	-0,229
222,509	361,674	-0,054	-0,075
223,523	-62,232	-0,275	-0,079
224,538	51,724	-0,212	-0,139
225,553	800,000	-0,087	-0,175
226,567	405,958	-0,214	-0,314
227,582	55,852	-0,286	-0,192
228,596	134,997	-0,124	-0,112
229,611	180,005	-0,143	-0,146
230,626	16,015	-0,155	-0,084
231,640	510,076	-0,159	-0,258
232,655	126,415	-0,236	-0,206
233,669	397,540	-0,152	-0,220
234,684	379,077	-0,100	-0,142
235,699	800,000	-0,127	-0,308
236,713	70,932	-0,108	-0,077
237,728	-122,343	-0,203	-0,023
238,742	264,137	-0,158	-0,191
239,757	247,563	-0,190	-0,223
240,772	-200,000	-0,101	-0,328
241,786	-200,000	-0,074	-0,256
242,801	-55,510	-0,116	-0,036
243,815	800,000	-0,094	-0,189
244,830	37,008	-0,067	-0,041
245,844	296,332	-0,135	-0,171
246,859	166,003	-0,206	-0,201
247,874	-40,305	-0,214	-0,077
248,888	-24,139	-0,185	-0,076
249,903	194,206	-0,159	-0,167
250,917	800,000	-0,077	-0,152
251,932	-69,130	-0,160	-0,042
252,947	-45,172	-0,231	-0,079
253,961	-42,059	-0,145	-0,051
254,976	17,964	-0,114	-0,062
255,990	-68,276	-0,222	-0,059
257,005	513,271	-0,111	-0,180
258,020	-172,388	-0,133	0,003
259,034	-23,482	-0,283	-0,117
260,049	365,093	-0,195	-0,271
261,063	-200,000	-0,048	-0,211
262,078	-58,954	-0,127	-0,038
263,093	800,000	-0,082	-0,188
264,107	-200,000	-0,058	-0,248
265,122	-200,000	0,053	-0,182
266,136	86,881	-0,121	-0,092
267,151	-97,575	-0,076	-0,013
268,166	6,909	-0,310	-0,159
269,180	-100,808	-0,072	-0,012
270,195	266,744	-0,151	-0,182
271,209	-99,557	-0,162	-0,028
272,224	800,000	-0,067	-0,142
273,239	74,394	-0,168	-0,122
274,253	11,954	-0,191	-0,101
275,268	-178,421	-0,178	0,003
276,282	800,000	-0,123	-0,236
277,297	22,155	-0,177	-0,099
278,312	182,951	-0,130	-0,133
279,326	800,000	-0,047	-0,119
280,341	207,469	-0,141	-0,152
281,355	800,000	-0,054	-0,126
282,370	290,261	-0,168	-0,211
283,384	114,831	-0,254	-0,214
284,399	374,265	-0,124	-0,174
285,414	203,022	-0,195	-0,208
286,428	35,470	-0,086	0,052
287,443	-160,606	-0,095	0,003
288,457	258,939	-0,028	-0,034
289,472	-9,708	-0,133	-0,061
290,487	-79,403	-0,171	-0,040
291,501	234,906	-0,181	-0,206
292,516	438,473	-0,116	-0,175
293,530	800,000	-0,106	-0,243
294,545	338,878	-0,135	-0,182
295,560	59,851	-0,140	-0,095
296,574	-200,000	0,011	-0,079
297,589	-12,290	-0,093	-0,042
298,603	19,583	-0,222	-0,123
299,618	-89,400	-0,139	-0,028
300,633	-82,721	-0,219	-0,048
301,647	-200,000	-0,053	-0,203
302,662	66,070	-0,195	-0,136
303,676	-152,413	-0,043	-0,002
304,691	83,895	-0,185	-0,139
305,706	566,019	-0,058	-0,098
306,720	90,023	-0,150	-0,115
307,735	800,000	-0,069	-0,152
308,749	-156,105	-0,077	-0,003
309,764	800,000	-0,008	0,018
310,779	-60,230	-0,142	-0,041
311,793	397,125	-0,056	-0,080
312,808	61,578	-0,207	-0,141
313,822	230,174	-0,232	-0,261
314,837	520,503	-0,044	-0,071
315,852	45,089	-0,055	-0,035
316,866	29,328	-0,136	-0,079
317,881	-119,068	-0,095	-0,011
318,895	800,000	-0,045	-0,104
319,910	-86,237	-0,190	0,040
320,925	16,018	-0,178	-0,096
321,939	-200,000	0,009	-0,043
322,954	-134,464	-0,100	-0,008
323,968	68,513	-0,211	-0,148
324,983	491,178	-0,064	-0,101
325,997	216,000	-0,154	-0,169
327,012	91,480	-0,114	-0,088
328,027	467,361	-0,114	-0,177
329,041	-154,787	-0,168	-0,007
330,056	44,257	-0,063	-0,040
331,070	800,000	-0,025	0,056
332,085	-146,857	-0,181	0,011
333,100	-200,000	-0,058	-0,194
334,114	472,696	-0,103	-0,160
335,129	800,000	-0,067	-0,137
336,143	134,599	-0,023	-0,020
337,158	-200,000	-0,029	-0,093
338,173	230,385	-0,024	0,026
339,187	-111,778	-0,116	-0,016
340,202	-200,000	-0,015	-0,096
341,216	90,353	-0,147	-0,112
342,231	-39,014	-0,164	-0,059
343,246	45,675	-0,124	-0,078
344,260	-200,000	-0,035	-0,130
345,275	225,289	-0,050	-0,056
346,289	372,128	-0,104	0,146
347,304	-22,497	-0,152	-0,063
348,319	800,000	-0,134	-0,279
349,333	283,706	-0,165	-0,203
350,348	70,380	0,123	-0,087
351,362	-84,229	-0,089	-0,019
352,377	465,112	-0,054	0,084
353,392	-28,674	-0,035	-0,014
354,406	285,000	-0,081	-0,100
355,421	208,616	1316,235	1412,020
356,435	160,531	1477,115	1412,503
