DTS Sentinel unit serial number:	SN410029Multiplexer serial number:	ORYXHardware model number:	OX2-SRSoftware version number:	ORYX F/W v4,00 Oryx Data Collector v3.7.2.0data status	okinstallation	B3 Nyhavnadifferential loss correction	single-endedforward channel	channel 1reverse channel	N/Adate	2023/11/30time	14:52:30forward acquisition time	300,00reverse acquisition time	0,00gamma	499,1914k internal	0,3208k external	0,3208temperature offset calibration	1,0000default loss term (dB/km)	0,3820temperature slope calibration	1,0000multiplexer offset coefficient	1,0000multiplexer slope coefficient	1,0000fibre end	0,00T internal ref (°C)	12,04T ext. ref 1 (°C)	-2,10T ext. ref 2 (°C)	-2,14length (m)	temperature (°C)	Stokes	anti-Stokes-744,400	-72,213	-0,215	-0,057
-743,385	-200,000	0,073	0,260
-742,371	351,135	-0,127	-0,182
-741,356	-200,000	-0,036	0,157
-740,342	409,585	-0,157	-0,243
-739,327	-200,000	-0,010	0,334
-738,312	299,020	-0,143	-0,192
-737,298	-200,000	0,041	0,280
-736,283	79,902	-0,317	-0,247
-735,269	-200,000	0,040	0,178
-734,254	800,000	-0,102	-0,235
-733,239	101,991	-0,137	0,116
-732,225	229,761	-0,185	-0,220
-731,210	538,911	-0,042	0,073
-730,196	-200,000	0,027	0,122
-729,181	639,653	-0,059	0,109
-728,167	-200,000	0,015	0,094
-727,152	140,657	-0,071	-0,068
-726,137	-200,000	-0,014	-0,061
-725,123	716,366	-0,030	-0,057
-724,108	-7,882	-0,133	-0,065
-723,094	5,817	0,092	-0,049
-722,079	11,576	-0,145	-0,081
-721,064	-149,620	-0,068	-0,004
-720,050	151,046	-0,065	0,064
-719,035	-200,000	-0,002	-0,014
-718,021	-200,000	-0,013	-0,118
-717,006	92,666	-0,049	-0,040
-715,991	143,477	-0,113	-0,109
-714,977	146,970	-0,054	0,052
-713,962	67,294	0,065	-0,048
-712,948	38,290	0,075	0,048
-711,933	-200,000	-0,027	0,181
-710,918	532,501	-0,026	0,046
-709,904	482,050	0,046	-0,075
-708,889	800,000	-0,028	-0,083
-707,875	164,500	0,076	-0,078
-706,860	-39,085	0,008	0,003
-705,845	-149,636	0,101	-0,006
-704,831	481,496	0,104	0,172
-703,816	-200,000	-0,007	0,088
-702,802	800,000	0,026	-0,063
-701,787	-131,688	0,044	-0,004
-700,772	-59,575	0,021	0,007
-699,758	32,100	-0,065	-0,041
-698,743	-200,000	0,010	0,050
-697,729	-134,537	0,032	-0,003
-696,714	-200,000	0,000	0,043
-695,699	95,318	-0,047	0,039
-694,685	-200,000	0,016	-0,077
-693,670	-72,781	-0,014	-0,004
-692,656	-56,596	0,141	0,045
-691,641	800,000	0,043	0,092
-690,627	198,852	-0,050	0,055
-689,612	-25,514	-0,032	-0,014
-688,597	564,768	-0,015	-0,027
-687,583	-200,000	-0,003	0,099
-686,568	634,682	0,019	-0,036
-685,554	458,617	0,094	-0,152
-684,539	-200,000	-0,064	-0,247
-683,524	23,664	0,041	-0,024
-682,510	800,000	0,021	-0,066
-681,495	-200,000	-0,011	-0,050
-680,481	145,955	-0,115	-0,111
-679,466	285,887	0,047	0,061
-678,451	-73,639	-0,132	0,035
-677,437	53,765	-0,124	-0,086
-676,422	9,370	-0,023	-0,013
-675,408	-187,300	-0,074	-0,001
-674,393	-111,524	-0,064	0,009
-673,378	-87,670	-0,087	0,019
-672,364	-71,407	-0,159	-0,043
-671,349	-200,000	0,039	-0,133
-670,335	-16,868	-0,176	-0,080
-669,320	203,142	0,066	-0,074
-668,305	-79,783	-0,082	0,020
-667,291	-200,000	-0,013	-0,069
-666,276	-107,316	-0,047	0,007
-665,262	-63,973	-0,037	0,011
-664,247	602,583	-0,084	0,151
-663,232	-23,635	0,120	0,052
-662,218	-200,000	0,008	-0,030
-661,203	219,385	0,037	0,042
-660,189	491,139	0,055	0,091
-659,174	-200,000	0,005	-0,039
-658,159	-121,737	-0,137	-0,016
-657,145	-123,002	-0,030	-0,003
-656,130	292,720	0,049	0,065
-655,116	-156,283	0,139	-0,006
-654,101	-66,687	0,048	-0,014
-653,086	38,219	0,067	0,043
-652,072	-200,000	0,012	-0,189
-651,057	800,000	0,049	-0,115
-650,043	248,756	0,036	0,045
-649,028	-81,128	0,136	0,032
-648,014	55,331	0,029	-0,020
-646,999	163,232	0,127	0,129
-645,984	61,782	-0,081	0,058
-644,970	800,000	-0,045	-0,095
-643,955	145,573	-0,115	0,112
-642,941	-135,586	-0,071	-0,006
-641,926	800,000	0,046	-0,119
-640,911	101,197	-0,009	-0,008
-639,897	100,050	-0,074	0,062
-638,882	-58,398	0,096	0,030
-637,868	800,000	0,051	0,108
-636,853	-86,316	0,058	0,013
-635,838	-97,414	-0,083	0,016
-634,824	-40,791	-0,018	0,007
-633,809	-200,000	-0,007	-0,034
-632,795	-200,000	0,004	0,108
-631,780	-200,000	-0,007	0,085
-630,765	-200,000	-0,002	0,048
-629,751	448,585	0,053	-0,084
-628,736	138,215	-0,070	0,067
-627,722	-121,470	-0,180	0,021
-626,707	-148,957	0,106	0,006
-625,692	-200,000	-0,018	0,074
-624,678	-27,508	0,047	0,020
-623,663	4,902	-0,062	-0,033
-622,649	56,909	-0,137	-0,097
-621,634	97,875	-0,053	0,044
-620,619	-38,196	0,032	0,012
-619,605	-200,000	-0,035	0,128
-618,590	24,912	0,085	0,051
-617,576	-200,000	-0,017	-0,071
-616,561	-72,608	-0,074	-0,019
-615,546	0,470	0,072	0,037
-614,532	-77,820	-0,080	-0,020
-613,517	105,442	-0,060	0,051
-612,503	800,000	0,035	0,075
-611,488	-200,000	0,003	0,096
-610,474	36,463	-0,041	0,026
-609,459	-200,000	-0,021	0,137
-608,444	51,279	0,085	-0,058
-607,430	584,467	-0,053	-0,095
-606,415	9,529	0,014	-0,008
-605,401	-200,000	0,006	-0,046
-604,386	-61,764	-0,026	-0,008
-603,371	800,000	0,007	0,018
-602,357	106,571	0,089	-0,076
-601,342	96,003	-0,080	-0,066
-600,328	800,000	-0,008	0,016
-599,313	-50,616	-0,123	-0,042
-598,298	-4,254	0,087	0,043
-597,284	420,813	0,016	-0,025
-596,269	-200,000	0,012	0,086
-595,255	19,094	-0,162	0,093
-594,240	-137,889	0,111	-0,009
-593,225	671,397	-0,077	0,144
-592,211	-26,934	-0,073	-0,031
-591,196	105,192	0,045	0,038
-590,182	-200,000	-0,016	-0,077
-589,167	-200,000	-0,001	0,015
-588,152	-90,445	-0,096	-0,020
-587,138	-98,075	-0,131	-0,024
-586,123	46,657	0,024	0,016
-585,109	800,000	-0,052	0,120
-584,094	-200,000	0,020	0,086
-583,079	-24,065	0,125	0,054
-582,065	-200,000	0,000	0,061
-581,050	23,501	0,083	-0,049
-580,036	142,334	-0,104	-0,100
-579,021	-119,843	0,018	-0,002
-578,006	-150,042	-0,150	0,008
-576,992	-200,000	0,003	-0,039
-575,977	-200,000	-0,009	-0,039
-574,963	127,395	0,051	-0,046
-573,948	-125,971	-0,136	0,015
-572,934	-55,016	0,110	-0,035
-571,919	-84,966	-0,235	-0,053
-570,904	-24,514	-0,023	-0,010
-569,890	571,554	-0,044	-0,077
-568,875	18,159	0,082	-0,047
-567,861	81,158	0,092	-0,071
-566,846	800,000	-0,040	0,111
-565,831	-200,000	0,003	0,063
-564,817	15,824	0,071	-0,040
-563,802	155,094	-0,091	-0,090
-562,788	-5,550	-0,051	-0,025
-561,773	-160,674	0,021	0,001
-560,758	21,445	0,046	-0,027
-559,744	-51,771	-0,110	0,037
-558,729	-30,667	-0,164	0,067
-557,715	57,102	-0,036	-0,025
-556,700	-200,000	-0,020	0,098
-555,685	-64,056	0,010	0,003
-554,671	-32,321	0,069	0,028
-553,656	800,000	0,022	0,058
-552,642	660,638	-0,040	-0,074
-551,627	246,363	0,019	0,024
-550,612	-51,839	0,018	-0,006
-549,598	213,032	-0,038	-0,043
-548,583	-66,294	0,084	-0,024
-547,569	-13,454	0,089	0,042
-546,554	444,811	-0,023	0,036
-545,539	-200,000	-0,014	0,079
-544,525	-200,000	-0,026	0,101
-543,510	-143,107	-0,154	0,011
-542,496	800,000	-0,065	-0,131
-541,481	-200,000	0,001	-0,056
-540,466	151,705	0,051	0,050
-539,452	371,482	0,095	0,139
-538,437	34,310	0,076	0,048
-537,423	333,973	-0,082	-0,115
-536,408	84,892	-0,043	-0,034
-535,393	612,432	-0,019	-0,035
-534,379	-200,000	-0,036	-0,146
-533,364	-200,000	0,033	-0,173
-532,350	441,007	-0,090	-0,142
-531,335	-45,179	-0,014	0,005
-530,321	-200,000	0,006	-0,081
-529,306	23,182	-0,018	0,011
-528,291	49,965	-0,183	-0,124
-527,277	800,000	0,022	-0,051
-526,262	-166,363	0,093	0,003
-525,248	74,687	0,099	-0,075
-524,233	101,447	-0,036	-0,030
-523,218	61,810	0,031	-0,022
-522,204	47,676	-0,046	-0,031
-521,189	-200,000	0,016	-0,144
-520,175	711,853	-0,032	-0,060
-519,160	152,974	0,055	-0,054
-518,145	521,522	-0,018	0,030
-517,131	158,713	0,036	0,036
-516,116	-200,000	0,012	0,161
-515,102	800,000	0,056	0,115
-514,087	446,952	-0,048	-0,077
-513,072	-163,701	0,064	-0,002
-512,058	110,015	-0,105	0,091
-511,043	-200,000	-0,006	0,090
-510,029	-175,626	0,174	0,003
-509,014	800,000	-0,007	-0,015
-507,999	-45,021	-0,075	-0,027
-506,985	800,000	-0,045	0,117
-505,970	-147,017	0,053	0,003
-504,956	425,563	-0,041	-0,064
-503,941	659,586	-0,040	-0,074
-502,926	-30,572	0,042	-0,017
-501,912	-29,363	0,040	0,016
-500,897	-200,000	-0,010	0,069
-499,883	-200,000	-0,011	-0,061
-498,868	78,574	-0,098	-0,075
-497,853	800,000	0,074	-0,191
-496,839	-200,000	-0,017	-0,139
-495,824	201,304	0,048	0,054
-494,810	14,262	-0,088	0,049
-493,795	15,961	0,089	0,050
-492,781	18,283	-0,159	-0,091
-491,766	-74,140	-0,149	0,039
-490,751	-164,977	-0,091	-0,003
-489,737	634,775	0,064	0,116
-488,722	-141,565	0,061	-0,004
-487,708	2,375	0,055	-0,029
-486,693	-119,422	0,056	0,007
-485,678	-59,391	-0,144	-0,044
-484,664	-200,000	-0,005	-0,043
-483,649	759,417	0,108	-0,210
-482,635	59,317	-0,040	0,028
-481,620	251,672	-0,031	-0,038
-480,605	-92,242	-0,150	0,030
-479,591	-155,710	0,114	0,005
-478,576	-7,513	-0,029	-0,014
-477,562	103,553	-0,097	0,082
-476,547	-22,013	-0,047	0,021
-475,532	1,544	-0,096	-0,050
-474,518	10,531	-0,114	-0,062
-473,503	138,994	0,116	-0,109
-472,489	-30,226	-0,095	-0,038
-471,474	67,898	-0,082	0,060
-470,459	214,423	-0,147	0,168
-469,445	800,000	0,036	0,107
-468,430	-200,000	0,002	0,045
-467,416	690,824	0,018	-0,035
-466,401	512,390	0,064	-0,108
-465,386	-85,490	0,151	0,034
-464,372	-200,000	0,002	-0,054
-463,357	-74,755	-0,103	-0,026
-462,343	800,000	0,041	-0,098
-461,328	-85,125	0,045	0,010
-460,313	800,000	-0,037	0,114
-459,299	220,924	0,089	-0,102
-458,284	-5,409	0,089	0,043
-457,270	335,673	-0,033	0,046
-456,255	-128,784	0,119	-0,012
-455,241	153,577	0,036	0,036
-454,226	334,596	-0,031	-0,043
-453,211	-200,000	-0,006	-0,020
-452,197	0,612	0,110	-0,056
-451,182	527,236	-0,020	-0,034
-450,168	800,000	0,075	0,169
-449,153	531,403	0,061	-0,105
-448,138	22,757	0,087	0,051
-447,124	128,596	-0,064	0,059
-446,109	57,694	0,128	-0,090
-445,095	354,472	0,067	0,096
-444,080	-200,000	-0,010	0,075
-443,065	-200,000	-0,039	0,370
-442,051	-78,957	0,168	-0,041
-441,036	-143,511	-0,225	-0,015
-440,022	-200,000	-0,001	0,047
-439,007	511,418	0,076	-0,128
-437,992	-83,427	-0,059	0,014
-436,978	632,684	-0,023	0,043
-435,963	46,200	0,162	0,107
-434,949	-200,000	0,007	-0,103
-433,934	-116,623	-0,010	-0,001
-432,919	-4,632	-0,120	-0,059
-431,905	38,701	-0,149	-0,095
-430,890	-72,775	0,081	0,021
-429,876	-74,621	0,074	-0,019
-428,861	-80,669	0,023	-0,006
-427,846	5,202	-0,036	-0,019
-426,832	-53,064	-0,110	-0,036
-425,817	294,470	-0,094	-0,123
-424,803	256,612	-0,053	-0,065
-423,788	-7,455	-0,014	-0,007
-422,773	757,276	0,048	0,094
-421,759	800,000	-0,057	-0,123
-420,744	800,000	-0,035	-0,096
-419,730	-94,147	0,065	0,013
-418,715	-200,000	0,026	-0,135
-417,701	787,516	-0,024	-0,047
-416,686	800,000	0,034	-0,086
-415,671	368,605	0,053	-0,077
-414,657	-200,000	-0,003	-0,011
-413,642	236,378	0,090	0,107
-412,628	-164,574	-0,025	-0,001
-411,613	459,650	0,042	0,067
-410,598	49,975	0,078	0,053
-409,584	773,236	0,025	0,049
-408,569	800,000	0,017	0,045
-407,555	-49,895	0,068	0,023
-406,540	-18,966	0,019	0,008
-405,525	-68,657	-0,026	0,007
-404,511	-91,672	0,118	0,024
-403,496	-102,605	-0,167	-0,028
-402,482	-200,000	-0,006	-0,072
-401,467	-200,000	-0,016	0,179
-400,452	-34,176	0,074	0,029
-399,438	800,000	-0,029	0,078
-398,423	204,023	0,063	0,070
-397,409	71,818	-0,124	-0,092
-396,394	800,000	0,057	0,131
-395,379	800,000	0,022	-0,045
-394,365	708,887	-0,031	-0,059
-393,350	289,576	0,073	0,095
-392,336	80,477	0,046	0,036
-391,321	-78,397	0,089	-0,022
-390,306	-39,631	0,102	0,038
-389,292	-29,107	0,091	-0,037
-388,277	-91,344	-0,122	0,025
-387,263	-86,326	0,092	-0,020
-386,248	-200,000	-0,006	-0,032
-385,233	800,000	0,057	-0,127
-384,219	800,000	-0,034	-0,075
-383,204	-53,232	-0,056	-0,018
-382,190	202,809	-0,139	-0,154
-381,175	-79,050	0,045	-0,011
-380,160	-138,643	-0,089	-0,007
-379,146	683,748	0,062	0,116
-378,131	-129,861	0,156	-0,015
-377,117	-200,000	-0,034	-0,125
-376,102	-67,673	-0,136	-0,038
-375,088	-134,489	0,210	-0,018
-374,073	800,000	-0,046	0,140
-373,058	195,337	-0,118	0,128
-372,044	115,320	0,082	0,071
-371,029	185,636	0,047	0,050
-370,015	116,494	-0,113	0,099
-369,000	198,782	-0,055	-0,060
-367,985	71,641	0,031	-0,023
-366,971	108,416	-0,018	0,015
-365,956	-200,000	0,018	-0,126
-364,942	201,212	-0,059	0,065
-363,927	-200,000	0,009	-0,084
-362,912	21,572	-0,230	-0,133
-361,898	198,314	-0,047	-0,052
-360,883	91,287	-0,113	-0,091
-359,869	92,106	-0,118	0,095
-358,854	-200,000	-0,006	-0,107
-357,839	-26,110	0,081	0,034
-356,825	800,000	-0,024	0,075
-355,810	-200,000	-0,019	-0,087
-354,796	-162,425	0,092	0,003
-353,781	-163,195	-0,047	0,002
-352,766	19,537	-0,013	0,007
-351,752	43,817	-0,076	-0,050
-350,737	30,126	-0,116	0,070
-349,723	-29,058	0,086	0,035
-348,708	800,000	-0,056	0,167
-347,693	-200,000	0,019	-0,073
-346,679	-72,890	-0,076	-0,020
-345,664	218,570	0,025	-0,029
-344,650	57,547	-0,053	-0,037
-343,635	-126,094	0,225	-0,024
-342,620	-7,665	0,214	0,103
-341,606	-0,174	0,098	0,050
-340,591	-95,853	-0,031	0,006
-339,577	-200,000	0,030	0,139
-338,562	159,050	-0,100	-0,099
-337,548	102,290	-0,027	0,022
-336,533	-42,675	0,052	0,019
-335,518	98,691	0,047	0,039
-334,504	111,731	-0,127	0,110
-333,489	-82,862	0,154	0,035
-332,475	-15,899	0,106	-0,048
-331,460	-91,380	0,045	-0,009
-330,445	723,997	0,011	0,020
-329,431	-200,000	0,000	0,010
-328,416	357,639	0,039	0,056
-327,402	68,468	0,128	-0,093
-326,387	-85,173	0,110	0,024
-325,372	800,000	0,050	-0,101
-324,358	-24,807	-0,063	-0,027
-323,343	298,631	0,082	-0,108
-322,329	-200,000	0,022	-0,109
-321,314	800,000	0,059	0,175
-320,299	28,454	-0,050	0,030
-319,285	141,207	-0,073	-0,069
-318,270	-200,000	0,005	-0,143
-317,256	36,781	0,085	-0,054
-316,241	76,109	-0,080	0,060
-315,226	-105,214	0,071	0,012
-314,212	-95,425	-0,065	0,012
-313,197	-200,000	-0,023	0,097
-312,183	-4,122	-0,106	0,052
-311,168	25,540	-0,049	0,029
-310,153	-200,000	-0,011	-0,097
-309,139	-200,000	-0,012	-0,109
-308,124	154,827	0,035	0,034
-307,110	-7,631	0,114	0,055
-306,095	800,000	0,062	0,130
-305,080	192,621	-0,078	0,084
-304,066	344,069	-0,072	0,101
-303,051	25,854	-0,153	-0,091
-302,037	220,109	-0,095	-0,109
-301,022	197,163	0,041	-0,045
-300,008	-200,000	-0,003	-0,053
-298,993	529,957	0,071	-0,119
-297,978	173,856	-0,039	-0,040
-296,964	-36,040	-0,207	-0,079
-295,949	800,000	0,046	-0,098
-294,935	-34,148	-0,150	-0,058
-293,920	-27,192	0,114	0,047
-292,905	800,000	0,031	-0,092
-291,891	-182,531	0,131	0,002
-290,876	106,219	0,028	-0,024
-289,862	-200,000	0,007	0,025
-288,847	-165,157	0,093	0,003
-287,832	602,736	0,041	0,073
-286,818	-93,314	0,067	-0,013
-285,803	-200,000	-0,008	-0,117
-284,789	57,301	0,082	-0,057
-283,774	27,276	-0,041	0,025
-282,759	-77,162	-0,132	0,032
-281,745	11,186	0,107	-0,058
-280,730	393,076	-0,072	-0,107
-279,716	-200,000	-0,005	0,060
-278,701	734,068	0,019	0,037
-277,686	-200,000	0,002	0,045
-276,672	-32,940	0,113	-0,044
-275,657	-200,000	-0,058	0,184
-274,643	-200,000	-0,010	0,106
-273,628	-200,000	-0,019	-0,090
-272,613	-200,000	-0,038	-0,134
-271,599	58,928	-0,036	0,025
-270,584	106,217	0,062	0,052
-269,570	43,819	0,009	0,006
-268,555	120,418	-0,057	0,051
-267,540	253,711	0,047	0,057
-266,526	-58,739	0,034	-0,010
-265,511	175,916	0,006	0,006
-264,497	160,075	-0,024	-0,023
-263,482	800,000	0,012	-0,025
-262,467	530,693	-0,063	0,107
-261,453	155,364	-0,033	-0,033
-260,438	-200,000	0,010	-0,042
-259,424	-119,381	0,093	-0,011
-258,409	-69,313	-0,078	-0,021
-257,395	3,456	0,017	0,009
-256,380	-200,000	0,022	0,072
-255,365	284,072	-0,056	0,072
-254,351	272,184	0,081	0,102
-253,336	-200,000	-0,026	-0,114
-252,322	800,000	-0,013	-0,030
-251,307	-93,811	-0,101	-0,020
-250,292	-200,000	-0,013	0,095
-249,278	170,768	0,026	-0,026
-248,263	42,124	0,084	0,054
-247,249	-73,260	-0,140	-0,036
-246,234	800,000	-0,034	0,086
-245,219	9,105	0,131	-0,070
-244,205	800,000	0,028	0,056
-243,190	-200,000	0,018	0,000
-242,176	299,008	0,054	-0,071
-241,161	800,000	-0,025	0,062
-240,146	-175,393	0,128	0,002
-239,132	338,024	-0,063	0,087
-238,117	-89,667	0,054	0,011
-237,103	-200,000	0,023	-0,100
-236,088	-195,835	0,189	0,001
-235,073	7,883	0,059	-0,031
-234,059	800,000	0,031	0,081
-233,044	-109,948	0,068	-0,010
-232,030	587,135	0,052	-0,091
-231,015	-153,625	-0,218	0,011
-230,000	-200,000	-0,024	-0,125
-228,986	-200,000	-0,013	0,092
-227,971	-151,845	-0,056	-0,003
-226,957	678,976	-0,029	-0,054
-225,942	-140,395	0,081	0,006
-224,927	-200,000	-0,006	0,109
-223,913	8,075	-0,071	0,038
-222,898	-41,841	0,156	0,057
-221,884	45,448	0,162	0,106
-220,869	166,389	0,012	0,012
-219,855	800,000	0,031	-0,069
-218,840	800,000	-0,027	-0,075
-217,825	-200,000	0,009	-0,029
-216,811	800,000	0,036	-0,110
-215,796	-134,938	-0,193	0,016
-214,782	28,641	0,046	0,028
-213,767	-200,000	-0,025	0,107
-212,752	613,617	0,071	0,128
-211,738	-139,969	0,025	-0,002
-210,723	-200,000	0,000	-0,035
-209,709	17,098	-0,145	0,081
-208,694	-32,481	0,021	-0,008
-207,679	800,000	0,026	-0,052
-206,665	-63,958	0,158	0,046
-205,650	206,435	-0,075	0,083
-204,636	-55,347	0,142	0,045
-203,621	-21,495	0,045	0,019
-202,606	160,823	-0,045	-0,044
-201,592	146,542	0,105	-0,100
-200,577	800,000	-0,078	-0,163
-199,563	-118,420	-0,058	0,007
-198,548	54,136	-0,061	-0,042
-197,533	-200,000	0,009	-0,040
-196,519	-44,739	0,134	0,047
-195,504	-89,784	-0,078	-0,016
-194,490	800,000	-0,012	0,032
-193,475	16,500	0,058	0,032
-192,460	557,795	-0,039	-0,067
-191,446	800,000	-0,059	0,173
-190,431	627,883	0,039	0,069
-189,417	-200,000	0,014	-0,082
-188,402	-200,000	0,011	-0,057
-187,387	84,507	0,060	-0,047
-186,373	-51,680	0,104	0,034
-185,358	-43,275	-0,184	0,066
-184,344	-26,607	0,078	0,032
-183,329	-200,000	0,005	0,148
-182,315	800,000	0,057	0,167
-181,300	206,131	0,054	-0,060
-180,285	-19,078	-0,138	-0,060
-179,271	-200,000	0,008	-0,084
-178,256	-157,658	0,097	-0,004
-177,242	-28,457	0,037	0,015
-176,227	155,212	-0,042	0,041
-175,212	-113,170	0,080	-0,011
-174,198	-200,000	0,037	0,203
-173,183	19,453	-0,054	-0,031
-172,169	-80,731	-0,095	-0,022
-171,154	654,456	-0,043	-0,078
-170,139	184,443	0,016	0,017
-169,125	104,657	-0,105	0,088
-168,110	251,028	0,091	0,110
-167,096	-46,731	0,101	-0,035
-166,081	800,000	-0,029	-0,070
-165,066	-200,000	-0,002	-0,015
-164,052	-103,788	0,107	0,018
-163,037	800,000	-0,007	0,017
-162,023	-200,000	0,005	0,126
-161,008	105,156	0,155	0,130
-159,993	-200,000	-0,014	-0,093
-158,979	800,000	-0,016	0,036
-157,964	688,300	-0,086	-0,161
-156,950	454,987	-0,116	-0,184
-155,935	381,950	-0,023	-0,033
-154,920	-61,875	0,013	0,004
-153,906	631,564	0,063	-0,113
-152,891	-200,000	0,026	0,110
-151,877	-99,057	-0,137	0,024
-150,862	800,000	0,041	-0,103
-149,847	69,977	-0,107	-0,078
-148,833	-25,321	-0,032	-0,013
-147,818	-200,000	0,039	0,127
-146,804	-62,669	0,123	0,036
-145,789	677,127	-0,010	-0,018
-144,775	103,716	-0,048	-0,040
-143,760	136,715	-0,090	0,084
-142,745	-8,074	-0,109	0,052
-141,731	322,352	-0,028	0,038
-140,716	-17,884	0,123	-0,054
-139,702	-17,982	0,060	0,026
-138,687	298,977	0,070	0,092
-137,672	-93,895	-0,117	-0,023
-136,658	-57,513	0,076	-0,023
-135,643	9,606	0,040	-0,022
-134,629	133,646	0,106	0,097
-133,614	89,697	0,086	0,068
-132,599	30,779	0,074	-0,045
-131,585	-137,672	-0,208	-0,016
-130,570	-200,000	-0,079	0,258
-129,556	243,422	0,104	-0,124
-128,541	96,079	-0,039	-0,031
-127,526	800,000	-0,029	-0,061
-126,512	307,791	0,088	-0,116
-125,497	130,469	-0,066	-0,060
-124,483	15,332	0,121	0,067
-123,468	-125,618	0,087	0,009
-122,453	-160,391	-0,056	-0,002
-121,439	-93,758	-0,057	0,011
-120,424	-200,000	-0,023	-0,100
-119,410	354,876	0,045	0,063
-118,395	-200,000	-0,038	-0,132
-117,380	-100,312	-0,144	0,025
-116,366	-63,495	-0,012	0,004
-115,351	800,000	-0,018	-0,049
-114,337	-200,000	0,023	-0,111
-113,322	-58,394	0,155	-0,047
-112,307	800,000	-0,043	-0,098
-111,293	-19,116	0,028	0,012
-110,278	177,652	-0,075	0,077
-109,264	-115,820	-0,074	0,010
-108,249	-200,000	0,005	-0,108
-107,234	800,000	-0,073	-0,210
-106,220	161,398	0,042	0,041
-105,205	-111,412	-0,018	0,003
-104,191	-122,168	0,110	-0,013
-103,176	-113,859	0,062	0,008
-102,162	-200,000	-0,017	0,123
-101,147	-200,000	-0,015	-0,109
-100,132	231,708	-0,086	-0,100
-99,118	-49,453	-0,020	-0,007
-98,103	-66,424	0,101	0,028
-97,089	-67,175	0,047	0,013
-96,074	-27,399	0,072	0,030
-95,059	800,000	0,019	0,038
-94,045	800,000	0,072	-0,181
-93,030	419,334	0,015	0,022
-92,016	-25,607	-0,074	-0,031
-91,001	-70,238	-0,118	-0,032
-89,986	406,929	-0,014	0,021
-88,972	-87,330	-0,055	-0,012
-87,957	41,486	0,075	0,048
-86,943	-94,626	-0,124	-0,024
-85,928	261,411	-0,069	-0,084
-84,913	-200,000	-0,004	-0,036
-83,899	619,348	-0,018	-0,032
-82,884	800,000	0,031	0,081
-81,870	-200,000	-0,002	0,082
-80,855	-146,619	0,062	0,004
-79,840	-35,072	-0,149	0,057
-78,826	-200,000	-0,033	-0,158
-77,811	-200,000	0,009	-0,195
-76,797	92,398	-0,148	0,118
-75,782	-126,792	0,041	-0,004
-74,767	-200,000	-0,036	-0,134
-73,753	3,266	-0,079	-0,041
-72,738	-38,152	0,021	0,008
-71,724	-75,380	0,085	0,021
-70,709	69,520	-0,021	0,015
-69,694	-200,000	-0,001	0,155
-68,680	-136,712	0,099	-0,008
-67,665	260,520	0,099	0,122
-66,651	135,073	0,084	-0,077
-65,636	12,260	-0,162	-0,088
-64,622	136,544	-0,071	-0,066
-63,607	148,268	0,059	-0,056
-62,592	-126,729	-0,061	-0,006
-61,578	482,021	0,079	-0,127
-60,563	-67,140	0,011	-0,003
-59,549	201,347	0,101	0,110
-58,534	5,297	-1,839	-0,955
-57,519	418,473	-1,408	-2,133
-56,505	-200,000	-0,373	-4,398
-55,490	358,734	0,925	1,310
-54,476	800,000	4,943	11,246
-53,461	-200,000	20,124	328,769
-52,446	800,000	749,755	2317,960
-51,432	552,894	1657,985	2825,389
-50,417	75,101	1666,085	1239,081
-49,403	19,892	1538,900	873,598
-48,388	13,859	1461,191	800,276
-47,373	18,744	1451,634	818,491
-46,359	16,524	1441,044	801,907
-45,344	12,159	1436,486	778,543
-44,330	12,063	1434,635	777,051
-43,315	12,100	1432,721	776,161
-42,300	12,127	1431,162	775,414
-41,286	12,103	1429,991	774,633
-40,271	12,055	1428,553	773,596
-39,257	12,079	1427,424	773,066
-38,242	12,115	1426,023	772,446
-37,227	12,152	1424,838	771,950
-36,213	12,139	1423,764	771,276
-35,198	12,114	1422,585	770,490
-34,184	12,179	1421,585	770,225
-33,169	12,106	1420,250	769,126
-32,154	12,168	1418,951	768,685
-31,140	12,140	1417,908	767,958
-30,125	12,155	1417,014	767,513
-29,111	12,133	1415,697	766,664
-28,096	12,145	1414,423	766,000
-27,082	12,094	1413,299	765,125
-26,067	12,067	1412,343	764,450
-25,052	12,085	1411,380	763,980
-24,038	12,101	1410,252	763,416
-23,023	12,063	1409,344	762,717
-22,009	12,071	1408,193	762,098
-20,994	12,040	1407,456	761,526
-19,979	12,022	1406,528	760,909
-18,965	12,013	1405,674	760,374
-17,950	12,042	1404,570	759,882
-16,936	12,019	1403,992	759,433
-15,921	11,987	1402,798	758,607
-14,906	12,011	1401,999	758,257
-13,892	12,018	1400,735	757,576
-12,877	11,981	1400,137	757,050
-11,863	11,982	1399,045	756,434
-10,848	11,947	1398,523	755,961
-9,833	11,862	1397,574	755,024
-8,819	11,838	1396,777	754,450
-7,804	11,852	1395,748	753,932
-6,790	11,907	1394,596	753,534
-5,775	11,894	1393,568	752,887
-4,760	11,879	1392,520	752,223
-3,746	11,843	1391,835	751,657
-2,731	11,863	1390,995	751,263
-1,717	11,866	1390,138	750,784
-0,702	11,805	1388,493	749,586
0,313	15,856	1303,563	722,323
1,327	32,095	697,041	423,374
2,342	49,574	121,467	80,604
3,356	1,513	16,566	8,386
4,371	12,208	3,309	1,793
5,386	-43,441	0,661	0,234
6,400	-200,000	0,127	0,413
7,415	110,483	-0,211	-0,179
8,429	212,273	-0,272	-0,303
9,444	5,281	-0,345	-0,179
10,459	-45,923	-0,341	-0,118
11,473	126,344	-0,163	-0,145
12,488	123,023	-0,165	-0,145
13,502	59,760	-0,359	-0,249
14,517	60,790	-0,298	-0,208
15,531	311,664	-0,274	-0,363
16,546	106,085	-0,275	-0,230
17,561	45,551	-0,286	-0,186
18,575	-70,827	-0,289	-0,076
19,590	286,934	-0,195	-0,249
20,604	-56,403	-0,364	-0,113
21,619	29,661	-0,519	-0,311
22,634	78,525	-0,391	-0,294
23,648	47,774	-0,474	-0,311
24,663	-41,635	-0,446	-0,161
25,677	-28,165	-0,515	-0,209
26,692	173,615	-0,260	-0,265
27,707	46,383	-0,350	-0,228
28,721	22,093	-0,375	-0,215
29,736	130,911	-0,374	-0,338
30,750	96,220	-0,482	-0,388
31,765	126,181	-0,220	-0,196
32,780	159,637	-0,396	-0,389
33,794	34,637	-0,238	-0,146
34,809	159,154	-0,244	-0,239
35,823	240,419	-0,281	-0,330
36,838	84,648	-0,387	-0,298
37,853	60,824	-0,443	-0,308
38,867	80,262	-0,324	-0,245
39,882	212,248	-0,231	-0,256
40,896	-4,089	-0,331	-0,161
41,911	50,526	-0,257	-0,171
42,926	619,005	-0,221	-0,391
43,940	126,309	-0,369	-0,328
44,955	32,033	-0,374	-0,226
45,969	70,712	-0,362	-0,263
46,984	350,185	-0,171	-0,238
47,999	-82,577	-0,400	-0,091
49,013	88,097	-0,302	-0,236
50,028	9,251	-0,338	-0,179
51,042	41,909	-0,342	-0,218
52,057	50,892	-0,454	-0,302
53,071	118,942	-0,316	-0,274
54,086	21,232	-0,329	-0,187
55,101	205,283	-0,316	-0,345
56,115	43,224	-0,311	-0,199
57,130	-78,400	-0,451	-0,108
58,144	56,208	-0,265	-0,180
59,159	267,167	-0,253	-0,311
60,174	46,231	-0,398	-0,259
61,188	53,674	-0,179	-0,120
62,203	94,858	-0,330	-0,264
63,217	61,125	-0,348	-0,242
64,232	47,717	-0,327	-0,214
65,247	137,543	-0,337	-0,310
66,261	225,641	-0,278	-0,317
67,276	219,369	-0,354	-0,399
68,290	21,148	-0,294	-0,167
69,305	-103,205	-0,430	-0,071
70,320	86,180	-0,276	-0,213
71,334	20,056	-0,306	-0,173
72,349	-33,221	-0,567	-0,219
73,363	-93,806	-0,303	-0,058
74,378	68,423	-0,342	-0,245
75,393	28,628	-0,328	-0,194
76,407	-101,597	-0,297	-0,050
77,422	75,775	-0,205	-0,152
78,436	-8,966	-0,323	-0,151
79,451	141,284	-0,322	-0,298
80,466	154,934	-0,262	-0,253
81,480	148,032	-0,343	-0,325
82,495	289,464	-0,171	-0,218
83,509	24,816	-0,326	-0,189
84,524	-86,261	-0,210	-0,045
85,539	-7,133	-0,351	-0,166
86,553	8,510	-0,250	-0,132
87,568	-27,170	-0,290	-0,118
88,582	96,998	-0,193	-0,155
89,597	14,910	-0,342	-0,187
90,611	23,433	-0,326	-0,187
91,626	43,132	-0,299	-0,190
92,641	-1,043	-0,358	-0,177
93,655	90,242	-0,287	-0,225
94,670	-10,899	-0,256	-0,118
95,684	115,968	-0,215	-0,184
96,699	135,841	-0,245	-0,223
97,714	12,816	-0,180	-0,097
98,728	-32,418	-0,281	-0,109
99,743	66,058	-0,307	-0,218
100,757	-141,376	-0,265	0,019
101,772	30,203	-0,294	-0,175
102,787	406,638	-0,173	-0,257
103,801	180,713	-0,195	-0,201
104,816	-22,247	-0,249	-0,105
105,830	89,407	-0,267	-0,208
106,845	-99,094	-0,245	-0,043
107,860	80,971	-0,289	-0,218
108,874	154,921	-0,261	-0,251
109,889	10,095	-0,426	-0,226
110,903	86,711	-0,207	-0,159
111,918	63,878	-0,189	-0,133
112,933	50,142	-0,256	-0,169
113,947	-68,421	-0,349	-0,094
114,962	152,418	-0,225	-0,215
115,976	322,448	-0,252	-0,336
116,991	232,787	-0,219	-0,252
118,006	76,802	-0,343	-0,254
119,020	79,354	-0,251	-0,188
120,035	-139,493	-0,326	-0,024
121,049	444,800	-0,122	-0,188
122,064	-47,777	-0,237	-0,080
123,079	44,557	-0,321	-0,206
124,093	-46,008	-0,270	-0,093
125,108	160,468	-0,273	-0,266
126,122	238,666	-0,190	-0,221
127,137	42,938	-0,212	-0,135
128,151	201,462	-0,266	-0,287
129,166	93,164	-0,229	-0,181
130,181	220,810	-0,191	-0,214
131,195	40,992	-0,430	-0,270
132,210	148,277	-0,247	-0,233
133,224	-2,849	-0,327	-0,159
134,239	157,332	-0,240	-0,232
135,254	-9,889	-0,261	-0,121
136,268	-71,235	-0,244	-0,063
137,283	68,771	-0,143	-0,102
138,297	-126,557	-0,326	-0,033
139,312	335,054	-0,251	-0,340
140,327	595,087	-0,166	-0,288
141,341	4,801	-0,218	-0,111
142,356	149,684	-0,185	-0,175
143,370	-103,837	-0,253	-0,041
144,385	-103,961	-0,232	-0,037
145,400	-143,073	-0,180	-0,012
146,414	150,887	-0,207	-0,196
147,429	119,634	-0,278	-0,240
148,443	16,952	-0,328	-0,180
149,458	225,903	-0,188	-0,212
150,473	-150,738	-0,362	-0,019
151,487	249,787	-0,189	-0,224
152,502	-17,616	-0,274	-0,120
153,516	93,639	-0,240	-0,189
154,531	205,599	-0,122	-0,132
155,546	6,362	-0,390	-0,201
156,560	-9,690	-0,224	-0,104
157,575	-16,245	-0,255	-0,112
158,589	-173,773	-0,232	-0,005
159,604	-17,968	-0,185	-0,081
160,619	23,275	-0,234	-0,133
161,633	399,939	-0,214	-0,314
162,648	97,321	-0,277	-0,221
163,662	30,279	-0,192	-0,114
164,677	-157,338	-0,185	-0,008
165,692	-35,362	-0,319	-0,120
166,706	49,489	-0,252	-0,165
167,721	40,595	-0,280	-0,175
168,735	87,955	-0,310	-0,239
169,750	9,588	-0,231	-0,122
170,764	74,755	-0,128	-0,093
171,779	-62,453	-0,248	-0,071
172,794	-91,202	-0,234	-0,046
173,808	22,385	-0,222	-0,126
174,823	-69,625	-0,312	-0,082
175,837	102,602	-0,177	-0,144
176,852	58,076	-0,075	-0,051
177,867	-96,280	-0,288	-0,053
178,881	-66,377	-0,372	-0,102
179,896	72,986	-0,126	-0,091
180,910	148,130	-0,219	-0,205
181,925	124,657	-0,166	-0,145
182,940	119,881	-0,320	-0,276
183,954	69,427	-0,175	-0,125
184,969	275,603	-0,144	-0,178
185,983	-127,919	-0,218	-0,022
186,998	-18,884	-0,130	-0,056
188,013	479,435	-0,139	-0,220
189,027	28,793	-0,297	-0,174
190,042	150,965	-0,100	-0,095
191,056	69,842	-0,323	-0,231
192,071	52,025	-0,192	-0,127
193,086	37,181	-0,126	-0,077
194,100	4,704	-0,075	-0,038
195,115	116,826	-0,200	-0,171
196,129	800,000	-0,050	-0,154
197,144	181,275	-0,215	-0,220
198,159	72,784	-0,192	-0,139
199,173	-123,221	-0,221	-0,024
200,188	470,679	-0,147	-0,231
201,202	260,711	-0,221	-0,265
202,217	69,777	-0,173	-0,123
203,232	72,385	-0,255	-0,184
204,246	362,026	-0,120	-0,168
205,261	-54,649	-0,255	-0,079
206,275	-83,491	-0,274	-0,060
207,290	1,829	-0,134	-0,067
208,304	95,644	-0,173	-0,136
209,319	106,878	-0,161	-0,133
210,334	-63,817	-0,307	-0,086
211,348	-1,432	-0,310	-0,151
212,363	-200,000	0,006	-0,082
213,377	97,439	-0,128	-0,101
214,392	52,403	-0,127	-0,084
215,407	644,598	-0,137	-0,243
216,421	-41,201	-0,123	-0,044
217,436	108,973	-0,226	-0,188
218,450	144,135	-0,194	-0,179
219,465	179,144	-0,163	-0,166
220,480	-31,238	-0,125	-0,049
221,494	257,699	-0,161	-0,193
222,509	-67,676	-0,242	-0,065
223,523	-200,000	-0,155	0,000
224,538	-77,157	-0,203	-0,049
225,553	46,860	-0,257	-0,165
226,567	72,469	-0,220	-0,158
227,582	200,973	-0,212	-0,226
228,596	800,000	-0,102	-0,208
229,611	-200,000	-0,017	-0,199
230,626	219,349	-0,195	-0,216
231,640	26,056	-0,299	-0,172
232,655	211,120	-0,138	-0,150
233,669	-23,300	-0,258	-0,107
234,684	159,241	-0,208	-0,200
235,699	199,901	-0,113	-0,120
236,713	128,807	-0,197	-0,174
237,728	370,346	-0,089	-0,125
238,742	167,018	-0,161	-0,158
239,757	198,327	-0,206	-0,218
240,772	368,447	-0,117	-0,164
241,786	330,189	-0,168	-0,224
242,801	-200,000	-0,078	-0,250
243,815	147,820	-0,085	-0,080
244,830	-117,280	-0,231	-0,029
245,844	163,154	-0,154	-0,150
246,859	642,424	-0,174	-0,308
247,874	46,268	-0,248	-0,159
248,888	138,812	-0,184	-0,167
249,903	77,879	-0,147	-0,108
250,917	800,000	-0,081	-0,182
251,932	-77,271	-0,222	-0,053
252,947	49,826	-0,195	-0,127
253,961	463,282	-0,078	-0,121
254,976	-50,666	-0,228	-0,074
255,990	243,429	-0,172	-0,199
257,005	44,658	-0,099	-0,063
258,020	-63,767	-0,058	0,016
259,034	800,000	-0,063	-0,181
260,049	103,732	-0,232	-0,188
261,063	95,142	-0,188	-0,147
262,078	332,533	-0,055	-0,073
263,093	-154,336	-0,188	-0,009
264,107	-142,970	-0,145	-0,010
265,122	9,946	-0,191	-0,100
266,136	-85,275	-0,074	-0,016
267,151	-121,615	-0,168	-0,019
268,166	-86,109	-0,231	-0,049
269,180	-200,000	-0,040	-0,246
270,195	687,026	-0,145	-0,262
271,209	51,477	-0,101	-0,066
272,224	-23,043	-0,098	0,041
273,239	-200,000	-0,035	-0,286
274,253	-200,000	-0,049	-0,171
275,268	-5,387	-0,258	-0,122
276,282	-146,111	-0,380	0,023
277,297	302,247	-0,180	-0,230
278,312	800,000	-0,066	-0,156
279,326	212,171	-0,140	-0,152
280,341	-200,000	-0,061	-0,211
281,355	7,807	-0,162	-0,083
282,370	-200,000	-0,051	-0,257
283,384	28,415	-0,153	-0,089
284,399	800,000	-0,069	-0,159
285,414	282,106	-0,109	-0,135
286,428	-143,251	-0,153	0,010
287,443	381,123	-0,196	-0,278
288,457	81,820	-0,112	-0,083
289,472	289,786	-0,153	-0,191
290,487	-136,969	-0,210	0,016
291,501	800,000	-0,080	-0,162
292,516	7,959	-0,177	-0,091
293,530	412,405	-0,140	-0,206
294,545	82,191	-0,157	-0,117
295,560	30,694	-0,049	-0,029
296,574	-101,212	-0,214	-0,036
297,589	-91,821	-0,088	-0,017
298,603	621,852	-0,152	-0,264
299,618	209,286	-0,161	-0,174
300,633	545,854	-0,139	-0,229
301,647	484,797	-0,101	-0,159
302,662	-96,006	-0,156	-0,028
303,676	-135,094	-0,244	-0,020
304,691	48,107	-0,217	-0,139
305,706	125,697	-0,266	-0,231
306,720	143,660	-0,162	-0,148
307,735	155,362	-0,188	-0,178
308,749	106,567	-0,160	-0,130
309,764	-46,534	-0,149	-0,050
310,779	12,225	-0,089	-0,047
311,793	599,251	-0,127	-0,218
312,808	800,000	-0,086	-0,192
313,822	-97,989	-0,060	-0,011
314,837	-200,000	-0,014	-0,139
315,852	83,166	0,034	0,025
316,866	800,000	0,047	-0,092
317,881	-15,425	-0,160	-0,070
318,895	211,726	-0,072	-0,078
319,910	398,619	-0,133	-0,191
320,925	-15,541	-0,120	-0,052
321,939	267,516	-0,136	-0,163
322,954	230,403	-0,150	-0,169
323,968	59,998	-0,169	-0,114
324,983	-200,000	-0,050	-0,153
325,997	47,337	-0,073	-0,046
327,012	-2,649	-0,093	0,045
328,027	151,852	-0,166	-0,155
329,041	269,953	-0,130	-0,156
330,056	17,588	-0,141	-0,077
331,070	-41,283	-0,185	-0,065
332,085	-200,000	-0,055	-0,199
333,100	193,058	-0,187	-0,194
334,114	800,000	-0,091	-0,186
335,129	451,050	-0,187	-0,284
336,143	-200,000	-0,048	-0,177
337,158	58,135	-0,077	-0,052
338,173	-35,428	-0,066	-0,024
339,187	-62,300	-0,123	-0,035
340,202	37,737	-0,199	-0,121
341,216	94,426	-0,143	-0,111
342,231	311,602	-0,182	-0,234
343,246	162,579	-0,128	-0,123
344,260	511,504	-0,108	-0,173
345,275	-78,569	-0,083	0,019
346,289	-48,243	-0,150	0,049
347,304	26,889	-0,029	0,017
348,319	38,435	-0,141	-0,086
349,333	-200,000	-0,011	-0,044
350,348	142,017	-0,155	-0,141
351,362	311,706	-0,118	-0,152
352,377	-200,000	-0,028	-0,237
353,392	149,705	-0,130	-0,121
354,406	800,000	-0,061	-0,127
355,421	208,025	1311,307	1403,867
356,435	160,054	1471,601	1404,368
