DTS Sentinel unit serial number:	SN410029Multiplexer serial number:	ORYXHardware model number:	OX2-SRSoftware version number:	ORYX F/W v4,00 Oryx Data Collector v3.7.2.0data status	okinstallation	B3 Nyhavnadifferential loss correction	single-endedforward channel	channel 1reverse channel	N/Adate	2023/12/01time	06:22:30forward acquisition time	300,00reverse acquisition time	0,00gamma	499,1914k internal	0,3213k external	0,3213temperature offset calibration	1,0000default loss term (dB/km)	0,3820temperature slope calibration	1,0000multiplexer offset coefficient	1,0000multiplexer slope coefficient	1,0000fibre end	0,00T internal ref (°C)	7,80T ext. ref 1 (°C)	-6,59T ext. ref 2 (°C)	-6,75length (m)	temperature (°C)	Stokes	anti-Stokes-744,400	199,142	-0,225	-0,250
-743,385	-200,000	0,016	0,191
-742,371	55,239	-0,118	-0,082
-741,356	800,000	-0,113	0,267
-740,342	430,574	-0,048	-0,075
-739,327	-200,000	0,020	0,251
-738,312	-200,000	-0,058	-0,254
-737,298	154,825	-0,237	0,237
-736,283	483,734	-0,194	-0,322
-735,269	-200,000	0,052	0,169
-734,254	-12,646	-0,360	-0,169
-733,239	-1,974	-0,261	0,132
-732,225	351,782	-0,161	-0,232
-731,210	-164,323	0,193	0,006
-730,196	-200,000	-0,004	0,022
-729,181	95,308	-0,104	0,086
-728,167	92,611	-0,062	-0,050
-727,152	79,188	0,077	0,060
-726,137	145,328	-0,032	-0,031
-725,123	73,354	-0,065	-0,049
-724,108	-74,202	-0,074	0,019
-723,094	-8,421	0,022	0,011
-722,079	-17,240	-0,115	-0,052
-721,064	800,000	0,038	0,076
-720,050	502,826	-0,065	-0,110
-719,035	90,338	0,062	-0,050
-718,021	16,255	-0,118	-0,067
-717,006	-200,000	-0,010	-0,208
-715,991	447,035	-0,062	-0,100
-714,977	800,000	-0,051	-0,121
-713,962	-200,000	0,017	0,114
-712,948	21,015	-0,170	0,100
-711,933	-84,444	-0,053	-0,012
-710,918	135,065	-0,113	0,106
-709,904	-200,000	-0,014	-0,080
-708,889	65,260	-0,133	-0,097
-707,875	-56,950	-0,037	-0,012
-706,860	642,195	0,026	-0,048
-705,845	277,965	-0,074	0,096
-704,831	-200,000	-0,037	0,143
-703,816	-53,622	0,101	-0,033
-702,802	-64,809	0,079	-0,023
-701,787	-200,000	-0,018	-0,123
-700,772	-169,578	-0,051	0,001
-699,758	800,000	-0,023	-0,063
-698,743	-68,273	0,100	0,028
-697,729	-66,884	-0,132	-0,038
-696,714	800,000	-0,049	-0,106
-695,699	-200,000	0,013	-0,119
-694,685	800,000	0,056	-0,130
-693,670	-200,000	0,001	-0,030
-692,656	800,000	0,064	0,136
-691,641	16,581	0,118	0,067
-690,627	-3,202	-0,069	-0,034
-689,612	191,584	0,040	-0,044
-688,597	85,135	-0,117	0,092
-687,583	358,991	-0,046	-0,066
-686,568	376,467	-0,071	-0,105
-685,554	800,000	0,045	-0,099
-684,539	110,950	0,058	-0,051
-683,524	-67,631	-0,152	0,043
-682,510	800,000	0,012	-0,032
-681,495	800,000	-0,059	-0,141
-680,481	-200,000	0,023	-0,081
-679,466	137,905	-0,045	-0,043
-678,451	94,175	-0,072	-0,059
-677,437	13,124	0,077	-0,043
-676,422	282,703	-0,100	0,130
-675,408	-117,832	-0,126	-0,016
-674,393	-200,000	-0,003	0,052
-673,378	-140,047	-0,018	-0,001
-672,364	190,160	-0,039	-0,043
-671,349	-200,000	-0,010	-0,047
-670,335	-200,000	0,006	0,049
-669,320	-166,493	0,097	0,003
-668,305	72,679	0,070	0,053
-667,291	-44,668	-0,084	0,030
-666,276	-200,000	0,003	-0,051
-665,262	46,020	-0,191	0,128
-664,247	800,000	-0,059	-0,165
-663,232	-200,000	-0,025	-0,124
-662,218	484,125	0,015	-0,024
-661,203	-200,000	-0,006	0,095
-660,189	-200,000	0,005	0,096
-659,174	-139,973	-0,023	-0,002
-658,159	800,000	-0,016	0,048
-657,145	89,070	-0,052	-0,042
-656,130	478,034	0,043	-0,070
-655,116	-200,000	0,004	0,074
-654,101	-200,000	0,001	0,090
-653,086	-200,000	-0,014	0,079
-652,072	426,568	-0,066	-0,102
-651,057	-97,648	-0,103	-0,019
-650,043	367,312	-0,079	0,116
-649,028	-200,000	-0,043	-0,174
-648,014	-76,335	0,038	-0,010
-646,999	-126,242	0,126	0,013
-645,984	142,409	0,069	0,066
-644,970	-86,482	0,027	0,006
-643,955	419,055	-0,053	-0,082
-642,941	122,814	-0,028	-0,025
-641,926	800,000	0,058	-0,165
-640,911	-200,000	0,001	-0,019
-639,897	220,599	-0,077	0,089
-638,882	-200,000	0,006	-0,131
-637,868	50,684	-0,074	-0,050
-636,853	800,000	-0,103	-0,228
-635,838	800,000	0,034	-0,081
-634,824	-81,720	-0,079	0,019
-633,809	277,629	0,064	0,083
-632,795	-46,083	0,140	0,049
-631,780	800,000	-0,025	-0,059
-630,765	-200,000	-0,031	-0,104
-629,751	-184,169	-0,058	0,001
-628,736	-123,241	-0,141	0,016
-627,722	29,943	0,126	-0,077
-626,707	-14,226	-0,060	-0,028
-625,692	-169,492	-0,148	0,004
-624,678	49,889	-0,092	-0,062
-623,663	-36,882	-0,101	-0,039
-622,649	800,000	-0,019	-0,046
-621,634	7,963	-0,084	0,045
-620,619	-200,000	-0,016	0,069
-619,605	145,373	0,066	-0,064
-618,590	-88,108	0,052	0,011
-617,576	211,928	-0,065	0,074
-616,561	28,368	0,116	0,071
-615,546	-121,886	-0,103	0,012
-614,532	-42,776	0,145	-0,053
-613,517	8,116	-0,088	0,047
-612,503	496,160	0,035	0,058
-611,488	166,122	0,058	0,060
-610,474	-61,001	0,110	-0,033
-609,459	727,246	-0,049	0,094
-608,444	588,717	0,041	0,074
-607,430	-13,309	-0,167	-0,078
-606,415	-12,666	0,129	-0,061
-605,401	800,000	-0,021	0,061
-604,386	213,219	0,098	-0,112
-603,371	303,575	0,085	0,114
-602,357	800,000	-0,029	0,070
-601,342	-200,000	-0,003	-0,032
-600,328	-12,823	-0,088	0,041
-599,313	-200,000	-0,004	-0,072
-598,298	800,000	-0,042	0,090
-597,284	37,637	0,045	0,029
-596,269	800,000	-0,008	0,021
-595,255	53,600	-0,091	0,063
-594,240	-200,000	0,009	0,124
-593,225	-109,755	-0,023	0,003
-592,211	284,963	-0,018	0,024
-591,196	85,299	0,059	0,046
-590,182	-74,424	0,068	0,017
-589,167	18,339	0,017	0,010
-588,152	136,151	-0,045	0,043
-587,138	-75,542	0,054	0,014
-586,123	-48,902	-0,076	0,026
-585,109	51,962	0,013	0,009
-584,094	-6,136	-0,016	0,008
-583,079	324,836	-0,060	0,083
-582,065	-49,597	-0,086	0,029
-581,050	177,140	-0,056	-0,058
-580,036	517,288	-0,113	-0,192
-579,021	800,000	-0,027	-0,084
-578,006	-72,658	-0,145	-0,038
-576,992	-67,230	0,037	0,011
-575,977	202,109	-0,159	-0,177
-574,963	31,209	0,107	0,066
-573,948	457,735	-0,053	-0,086
-572,934	-148,796	-0,025	0,001
-571,919	800,000	0,043	-0,100
-570,904	800,000	-0,044	0,109
-569,890	31,878	0,064	0,040
-568,875	-200,000	-0,022	0,075
-567,861	800,000	-0,064	-0,140
-566,846	521,188	0,068	-0,115
-565,831	167,311	0,012	-0,012
-564,817	677,125	-0,033	0,063
-563,802	-200,000	-0,020	-0,076
-562,788	44,684	0,094	-0,062
-561,773	-49,539	-0,081	-0,028
-560,758	-16,353	-0,065	-0,030
-559,744	-130,857	0,167	0,016
-558,729	-200,000	-0,022	0,089
-557,715	800,000	-0,057	-0,117
-556,700	81,215	0,061	0,047
-555,685	-44,172	-0,099	0,036
-554,671	34,083	0,076	-0,048
-553,656	-133,552	0,109	-0,010
-552,642	75,502	0,064	0,048
-551,627	-200,000	-0,013	0,057
-550,612	-7,976	0,111	-0,053
-549,598	-200,000	0,026	-0,106
-548,583	-113,080	0,085	-0,012
-547,569	-200,000	-0,006	-0,084
-546,554	-200,000	-0,003	0,093
-545,539	-200,000	0,001	-0,022
-544,525	368,058	-0,089	0,130
-543,510	-107,227	0,083	-0,013
-542,496	268,198	-0,079	-0,099
-541,481	42,924	-0,111	-0,073
-540,466	-124,181	-0,097	-0,011
-539,452	-200,000	-0,023	-0,170
-538,437	800,000	-0,011	0,029
-537,423	-4,089	0,066	0,033
-536,408	800,000	-0,076	-0,209
-535,393	-32,229	-0,047	-0,019
-534,379	196,539	-0,126	-0,138
-533,364	800,000	-0,021	-0,055
-532,350	45,308	0,076	0,051
-531,335	425,776	0,018	0,028
-530,321	-98,783	0,034	0,006
-529,306	612,411	0,044	-0,079
-528,291	-200,000	-0,011	-0,108
-527,277	-67,325	-0,143	0,040
-526,262	-107,558	0,131	0,020
-525,248	-102,576	0,203	0,035
-524,233	-98,562	0,073	0,013
-523,218	800,000	0,041	0,093
-522,204	158,333	0,055	0,055
-521,189	214,843	0,020	-0,023
-520,175	-118,643	0,140	0,018
-519,160	-70,996	-0,023	0,006
-518,145	-124,919	-0,026	0,003
-517,131	-200,000	0,014	0,070
-516,116	203,193	-0,069	0,077
-515,102	171,491	-0,076	0,079
-514,087	334,818	-0,156	-0,217
-513,072	336,047	-0,046	0,064
-512,058	135,941	-0,124	-0,116
-511,043	-124,585	-0,004	-0,000
-510,029	501,487	-0,057	-0,094
-509,014	-90,238	0,098	0,020
-507,999	-194,667	-0,113	-0,001
-506,985	-200,000	0,012	-0,105
-505,970	-120,015	-0,035	-0,004
-504,956	404,858	-0,054	-0,083
-503,941	800,000	0,025	0,072
-502,926	366,607	0,064	0,093
-501,912	-200,000	-0,002	-0,067
-500,897	17,343	0,109	0,062
-499,883	40,830	-0,030	0,019
-498,868	255,282	-0,102	-0,126
-497,853	410,794	-0,068	0,104
-496,839	149,804	-0,048	-0,047
-495,824	-85,692	0,055	0,012
-494,810	-200,000	-0,031	0,159
-493,795	250,490	0,101	0,124
-492,781	-34,655	-0,210	-0,082
-491,766	670,328	-0,040	0,075
-490,751	20,923	-0,061	-0,035
-489,737	-200,000	-0,007	0,076
-488,722	138,677	0,145	0,137
-487,708	-149,585	0,107	0,006
-486,693	96,235	-0,088	0,073
-485,678	290,897	0,104	0,136
-484,664	800,000	0,027	-0,072
-483,649	706,047	0,015	0,029
-482,635	-200,000	0,001	0,032
-481,620	195,129	-0,015	0,017
-480,605	-139,190	0,134	0,010
-479,591	-200,000	-0,026	0,110
-478,576	-200,000	-0,015	-0,102
-477,562	124,932	-0,042	-0,038
-476,547	-157,798	-0,082	0,003
-475,532	116,109	-0,082	-0,072
-474,518	66,851	-0,071	0,052
-473,503	800,000	-0,036	-0,087
-472,489	-200,000	-0,018	0,066
-471,474	800,000	-0,021	0,056
-470,459	800,000	-0,036	-0,103
-469,445	548,693	-0,041	-0,070
-468,430	800,000	-0,056	-0,146
-467,416	-20,786	0,065	-0,029
-466,401	-65,739	0,098	-0,028
-465,386	-200,000	-0,012	0,054
-464,372	-128,696	0,066	-0,007
-463,357	-45,261	0,010	-0,003
-462,343	-200,000	0,013	0,147
-461,328	385,097	-0,017	0,025
-460,313	800,000	-0,018	0,038
-459,299	452,212	0,058	-0,092
-458,284	-44,929	0,039	0,014
-457,270	-77,901	0,056	0,014
-456,255	252,080	-0,030	-0,036
-455,241	-200,000	-0,009	-0,152
-454,226	-200,000	0,002	0,022
-453,211	51,368	0,142	-0,097
-452,197	-200,000	0,000	-0,017
-451,182	-125,081	-0,024	-0,003
-450,168	-0,387	0,019	0,010
-449,153	800,000	-0,042	-0,088
-448,138	800,000	-0,019	-0,040
-447,124	61,524	-0,121	0,086
-446,109	0,381	0,136	-0,069
-445,095	-20,060	0,053	-0,023
-444,080	445,188	-0,027	0,042
-443,065	531,913	0,029	0,050
-442,051	800,000	-0,026	-0,054
-441,036	-115,147	-0,106	-0,014
-440,022	124,989	0,086	-0,077
-439,007	-200,000	0,024	-0,120
-437,992	332,573	-0,069	0,096
-436,978	27,548	-0,048	0,029
-435,963	-200,000	-0,002	-0,064
-434,949	-60,559	-0,100	0,030
-433,934	-73,351	-0,089	0,023
-432,919	-154,936	0,059	0,003
-431,905	26,728	-0,060	0,036
-430,890	800,000	0,057	0,138
-429,876	158,360	0,026	-0,026
-428,861	800,000	0,032	0,071
-427,846	-55,816	-0,151	-0,048
-426,832	-200,000	0,023	0,099
-425,817	-200,000	-0,036	0,123
-424,803	-16,679	0,152	-0,068
-423,788	-200,000	-0,017	0,150
-422,773	384,003	0,053	0,078
-421,759	622,838	-0,011	0,019
-420,744	800,000	0,034	0,082
-419,730	-200,000	-0,011	-0,077
-418,715	-200,000	-0,053	-0,224
-417,701	278,951	-0,106	-0,135
-416,686	358,954	0,017	0,024
-415,671	-6,011	0,113	-0,055
-414,657	184,660	0,088	-0,093
-413,642	132,893	-0,023	0,022
-412,628	49,430	-0,063	-0,043
-411,613	-86,809	-0,124	-0,027
-410,598	-200,000	0,020	-0,067
-409,584	246,726	0,067	-0,082
-408,569	364,565	0,082	0,118
-407,555	-72,779	0,130	0,034
-406,540	-200,000	-0,024	-0,101
-405,525	-93,714	-0,142	-0,028
-404,511	491,576	-0,062	-0,102
-403,496	-200,000	0,029	0,122
-402,482	-200,000	-0,013	0,051
-401,467	-33,441	0,164	0,065
-400,452	353,674	-0,046	0,065
-399,438	29,427	-0,044	-0,027
-398,423	151,420	0,047	0,046
-397,409	-168,311	0,135	0,004
-396,394	195,390	-0,008	-0,009
-395,379	-0,997	-0,003	0,001
-394,365	214,735	0,129	-0,147
-393,350	-200,000	-0,009	0,046
-392,336	-200,000	0,005	0,117
-391,321	741,415	0,080	-0,154
-390,306	-100,517	0,128	0,022
-389,292	83,188	-0,128	0,100
-388,277	437,266	-0,043	0,067
-387,263	193,614	0,080	-0,087
-386,248	279,039	0,031	0,040
-385,233	107,287	-0,084	0,072
-384,219	203,281	0,106	0,118
-383,204	68,294	-0,109	-0,080
-382,190	-200,000	-0,015	-0,073
-381,175	-200,000	0,005	-0,022
-380,160	609,729	0,076	0,136
-379,146	-200,000	-0,002	0,086
-378,131	303,859	0,089	0,118
-377,117	-71,986	0,153	0,040
-376,102	-64,868	-0,085	-0,024
-375,088	-200,000	0,001	0,081
-374,073	-200,000	0,007	0,022
-373,058	3,357	0,063	0,033
-372,044	-17,902	0,141	0,063
-371,029	89,051	-0,050	0,039
-370,015	20,791	-0,096	0,055
-369,000	-32,152	-0,094	-0,038
-367,985	-161,072	-0,152	-0,006
-366,971	-200,000	0,005	0,074
-365,956	-200,000	0,005	-0,015
-364,942	-200,000	-0,004	0,028
-363,927	-200,000	0,008	-0,047
-362,912	6,207	-0,091	0,048
-361,898	111,638	-0,047	0,040
-360,883	146,526	-0,191	-0,183
-359,869	-200,000	0,021	-0,103
-358,854	-200,000	0,005	0,069
-357,839	-200,000	-0,001	-0,094
-356,825	140,359	0,030	0,028
-355,810	-200,000	0,000	0,102
-354,796	263,874	0,030	-0,037
-353,781	-200,000	0,030	-0,137
-352,766	-11,351	-0,084	-0,039
-351,752	16,743	0,143	0,080
-350,737	-200,000	0,007	0,211
-349,723	-99,719	0,131	0,023
-348,708	-102,821	0,117	0,020
-347,693	800,000	-0,042	0,121
-346,679	-200,000	0,008	0,101
-345,664	800,000	-0,027	-0,069
-344,650	-200,000	-0,020	-0,077
-343,635	570,539	0,074	0,130
-342,620	-200,000	-0,010	0,044
-341,606	14,382	-0,066	0,037
-340,591	-200,000	-0,020	-0,107
-339,577	297,851	-0,050	-0,066
-338,562	372,086	-0,024	-0,035
-337,548	-71,639	0,034	-0,009
-336,533	-129,167	-0,100	-0,010
-335,518	-200,000	-0,000	0,003
-334,504	-35,415	0,071	0,027
-333,489	-200,000	-0,047	0,161
-332,475	31,323	-0,069	-0,042
-331,460	-76,464	-0,166	-0,041
-330,445	-171,839	0,177	-0,004
-329,431	-15,881	-0,076	-0,034
-328,416	-200,000	0,032	0,109
-327,402	-200,000	0,020	0,063
-326,387	712,743	0,093	-0,176
-325,372	40,969	-0,053	-0,034
-324,358	-39,627	-0,039	0,014
-323,343	-116,517	-0,157	0,020
-322,329	-53,796	0,106	0,034
-321,314	347,979	0,035	0,049
-320,299	249,471	0,033	0,040
-319,285	800,000	0,045	-0,091
-318,270	461,080	-0,018	-0,029
-317,256	7,983	0,090	-0,048
-316,241	-200,000	-0,011	-0,147
-315,226	25,176	0,050	-0,029
-314,212	-200,000	0,017	0,112
-313,197	242,287	0,070	0,084
-312,183	-200,000	-0,006	0,078
-311,168	26,684	-0,016	-0,009
-310,153	-65,680	0,051	0,014
-309,139	-192,083	-0,093	-0,001
-308,124	114,616	-0,035	0,030
-307,110	-54,522	0,208	-0,067
-306,095	737,242	0,047	-0,090
-305,080	-200,000	0,016	0,074
-304,066	727,438	-0,016	-0,030
-303,051	-200,000	-0,002	-0,123
-302,037	-200,000	-0,030	0,143
-301,022	-112,477	-0,124	0,017
-300,008	254,196	0,057	0,070
-298,993	-183,419	0,038	0,000
-297,978	-200,000	0,004	0,077
-296,964	-39,255	-0,086	0,032
-295,949	-18,666	0,073	0,032
-294,935	149,813	-0,018	-0,017
-293,920	-200,000	0,002	0,078
-292,905	-37,622	-0,156	0,059
-291,891	-200,000	-0,014	0,123
-290,876	-39,468	0,025	-0,009
-289,862	-33,050	0,019	-0,007
-288,847	-159,795	0,082	0,003
-287,832	-117,330	-0,043	-0,005
-286,818	800,000	-0,019	0,054
-285,803	48,853	0,097	0,064
-284,789	5,205	0,158	0,083
-283,774	-54,055	0,204	0,066
-282,759	40,421	-0,020	0,013
-281,745	-200,000	0,025	-0,144
-280,730	800,000	-0,048	-0,141
-279,716	285,145	-0,070	0,090
-278,701	-131,153	0,147	-0,014
-277,686	-200,000	-0,004	0,072
-276,672	-186,559	-0,030	-0,000
-275,657	-44,516	-0,008	-0,003
-274,643	79,197	-0,149	-0,113
-273,628	112,594	0,048	-0,041
-272,613	-200,000	-0,002	0,071
-271,599	71,876	-0,133	0,098
-270,584	-200,000	0,008	0,053
-269,570	-118,899	0,090	-0,011
-268,555	20,765	0,119	0,068
-267,540	344,816	-0,051	0,071
-266,526	-131,230	0,070	-0,007
-265,511	408,569	-0,034	-0,051
-264,497	65,700	0,037	-0,027
-263,482	-115,018	-0,046	0,006
-262,467	800,000	0,021	-0,048
-261,453	-94,849	0,180	-0,034
-260,438	800,000	-0,039	-0,094
-259,424	-200,000	0,026	-0,094
-258,409	-192,668	-0,182	-0,001
-257,395	91,547	0,061	0,048
-256,380	800,000	0,030	-0,092
-255,365	-200,000	0,011	-0,042
-254,351	-200,000	0,015	0,061
-253,336	800,000	-0,053	0,147
-252,322	-192,251	-0,153	0,001
-251,307	-79,999	-0,077	-0,018
-250,292	-200,000	-0,015	-0,051
-249,278	-146,055	0,055	-0,003
-248,263	40,455	0,125	-0,080
-247,249	-165,617	-0,027	0,001
-246,234	367,285	-0,048	0,070
-245,219	110,787	-0,020	-0,017
-244,205	302,086	-0,030	-0,040
-243,190	800,000	-0,034	0,089
-242,176	32,418	0,170	0,104
-241,161	800,000	0,041	0,085
-240,146	-108,267	-0,054	-0,008
-239,132	433,721	-0,065	-0,101
-238,117	-24,813	-0,078	-0,033
-237,103	11,869	-0,130	-0,071
-236,088	-35,152	-0,070	0,027
-235,073	291,837	0,125	0,162
-234,059	304,999	-0,076	0,100
-233,044	-170,022	0,156	0,004
-232,030	11,733	-0,052	0,028
-231,015	74,260	-0,073	0,055
-230,000	145,833	0,100	-0,095
-228,986	800,000	-0,028	0,064
-227,971	-76,875	0,050	0,012
-226,957	-200,000	0,006	0,027
-225,942	-79,783	0,218	0,052
-224,927	800,000	-0,008	-0,017
-223,913	-118,667	-0,037	0,005
-222,898	516,955	0,063	-0,104
-221,884	-83,011	0,137	0,031
-220,869	148,893	0,053	-0,051
-219,855	-200,000	-0,028	-0,146
-218,840	-200,000	-0,014	-0,084
-217,825	-62,897	-0,037	-0,011
-216,811	38,407	-0,027	0,017
-215,796	-200,000	0,004	0,029
-214,782	55,028	-0,047	0,032
-213,767	800,000	-0,043	0,102
-212,752	-200,000	-0,027	-0,160
-211,738	79,319	0,117	0,089
-210,723	800,000	-0,033	0,077
-209,709	800,000	-0,087	-0,173
-208,694	-200,000	-0,009	0,129
-207,679	-200,000	-0,009	0,151
-206,665	-118,722	0,188	-0,023
-205,650	-200,000	0,015	-0,119
-204,636	-200,000	-0,016	0,064
-203,621	-45,176	0,198	-0,070
-202,606	800,000	0,031	-0,078
-201,592	133,943	-0,084	-0,077
-200,577	478,424	-0,054	-0,087
-199,563	-200,000	0,029	-0,110
-198,548	10,254	0,038	0,020
-197,533	127,983	-0,064	0,058
-196,519	3,072	-0,028	0,014
-195,504	-200,000	0,014	0,050
-194,490	115,534	0,054	0,047
-193,475	-113,427	-0,097	0,013
-192,460	678,880	0,052	-0,096
-191,446	800,000	-0,066	-0,133
-190,431	800,000	-0,060	0,134
-189,417	-58,989	-0,015	-0,005
-188,402	412,100	-0,068	0,103
-187,387	61,531	0,043	0,030
-186,373	-200,000	0,011	0,126
-185,358	-23,580	-0,071	0,030
-184,344	-200,000	-0,023	-0,116
-183,329	282,868	0,095	0,121
-182,315	-128,499	0,054	-0,005
-181,300	198,935	-0,030	-0,033
-180,285	-200,000	-0,015	-0,097
-179,271	2,619	-0,072	0,037
-178,256	81,097	0,038	-0,029
-177,242	214,140	0,066	-0,074
-176,227	-171,018	0,163	0,004
-175,212	-200,000	0,015	-0,165
-174,198	-169,041	0,143	-0,004
-173,183	55,212	-0,143	-0,098
-172,169	178,360	-0,049	-0,051
-171,154	233,901	-0,049	0,057
-170,139	-200,000	-0,006	0,062
-169,125	-200,000	-0,010	-0,077
-168,110	-76,177	-0,049	0,012
-167,096	15,652	0,108	0,060
-166,081	-61,024	-0,152	0,045
-165,066	325,505	-0,031	-0,042
-164,052	-122,624	-0,119	-0,014
-163,037	-51,756	0,113	-0,037
-162,023	-200,000	0,017	0,070
-161,008	147,407	0,068	-0,065
-159,993	-29,261	-0,080	-0,032
-158,979	-16,926	-0,068	0,030
-157,964	-146,448	0,011	-0,001
-156,950	436,742	0,032	0,050
-155,935	246,877	0,051	0,061
-154,920	-132,510	-0,059	0,005
-153,906	800,000	0,058	0,153
-152,891	-110,144	-0,063	-0,009
-151,877	339,291	0,091	0,127
-150,862	-64,772	-0,137	0,039
-149,847	92,605	0,080	0,064
-148,833	-191,930	0,053	0,000
-147,818	216,195	-0,027	0,030
-146,804	171,757	0,043	-0,044
-145,789	-200,000	-0,000	-0,073
-144,775	800,000	0,030	-0,075
-143,760	-200,000	0,017	-0,094
-142,745	-23,958	0,094	0,040
-141,731	179,171	-0,082	0,085
-140,716	-156,854	0,161	-0,007
-139,702	-200,000	0,037	-0,206
-138,687	-53,130	-0,034	0,011
-137,672	-56,557	0,047	-0,015
-136,658	-82,611	-0,141	-0,032
-135,643	541,619	-0,076	0,128
-134,629	-17,290	0,219	-0,097
-133,614	800,000	-0,008	0,018
-132,599	78,632	0,235	0,177
-131,585	94,536	0,122	-0,098
-130,570	137,096	0,029	-0,027
-129,556	-70,890	0,055	0,015
-128,541	800,000	-0,079	-0,209
-127,526	-3,319	-0,239	-0,117
-126,512	-200,000	0,009	0,084
-125,497	94,465	0,022	-0,018
-124,483	580,206	-0,023	0,039
-123,468	-4,698	-0,137	-0,066
-122,453	800,000	-0,029	-0,058
-121,439	90,618	-0,086	0,068
-120,424	-200,000	-0,014	0,050
-119,410	48,585	-0,096	-0,064
-118,395	-53,103	0,069	0,022
-117,380	30,468	-0,112	-0,068
-116,366	-75,153	0,046	0,012
-115,351	-200,000	0,018	-0,110
-114,337	-104,023	-0,026	-0,004
-113,322	-136,243	0,100	-0,008
-112,307	800,000	0,020	-0,058
-111,293	-21,178	0,039	-0,017
-110,278	800,000	0,047	0,114
-109,264	800,000	-0,006	-0,014
-108,249	-2,903	-0,034	-0,017
-107,234	800,000	-0,032	0,095
-106,220	-62,382	-0,108	0,032
-105,205	172,397	-0,123	-0,125
-104,191	260,432	-0,030	0,037
-103,176	-200,000	0,009	0,143
-102,162	-18,863	-0,051	0,022
-101,147	-55,702	0,024	0,008
-100,132	-200,000	0,007	-0,026
-99,118	51,313	0,050	-0,033
-98,103	779,405	0,035	0,068
-97,089	17,068	0,132	0,074
-96,074	57,171	0,024	0,017
-95,059	0,697	-0,089	-0,045
-94,045	-4,877	-0,069	0,033
-93,030	61,517	-0,142	0,100
-92,016	-200,000	-0,049	0,153
-91,001	56,132	0,058	-0,040
-89,986	-147,686	0,158	0,009
-88,972	-200,000	0,017	0,055
-87,957	187,336	0,122	0,128
-86,943	253,929	-0,090	-0,109
-85,928	148,790	0,049	0,047
-84,913	800,000	0,062	-0,177
-83,899	-200,000	0,034	-0,107
-82,884	45,936	0,109	0,071
-81,870	170,049	0,047	0,047
-80,855	-200,000	0,044	0,150
-79,840	800,000	0,034	0,092
-78,826	-200,000	-0,008	-0,117
-77,811	-15,483	-0,079	0,036
-76,797	150,006	-0,080	-0,076
-75,782	-63,560	0,074	0,021
-74,767	-11,696	-0,053	-0,025
-73,753	-200,000	0,028	0,125
-72,738	52,603	-0,098	0,066
-71,724	-21,965	0,042	0,018
-70,709	-200,000	-0,011	-0,075
-69,694	800,000	-0,030	0,076
-68,680	-17,143	0,060	-0,027
-67,665	-200,000	0,047	0,177
-66,651	-145,044	0,088	0,006
-65,636	-78,279	-0,035	0,008
-64,622	-200,000	0,013	-0,102
-63,607	90,740	-0,039	-0,031
-62,592	800,000	-0,026	-0,062
-61,578	13,835	0,087	0,048
-60,563	800,000	-0,029	0,077
-59,549	-54,454	-0,129	0,041
-58,534	45,215	-2,233	-1,450
-57,519	391,078	-1,115	-1,638
-56,505	-200,000	-0,496	-4,542
-55,490	652,099	0,951	1,727
-54,476	800,000	5,294	11,493
-53,461	-200,000	22,632	346,788
-52,446	800,000	757,168	2284,181
-51,432	530,402	1641,594	2746,422
-50,417	67,366	1640,277	1179,042
-49,403	15,450	1517,867	838,105
-48,388	9,654	1444,333	769,699
-47,373	19,301	1437,203	811,786
-46,359	13,204	1425,924	776,637
-45,344	7,984	1421,707	749,646
-44,330	7,877	1419,837	748,125
-43,315	7,881	1418,017	747,153
-42,300	7,875	1416,342	746,216
-41,286	7,931	1414,721	745,598
-40,271	7,888	1413,581	744,762
-39,257	7,892	1412,678	744,277
-38,242	7,908	1411,355	743,624
-37,227	7,918	1410,239	743,053
-36,213	7,951	1408,913	742,480
-35,198	7,908	1407,892	741,709
-34,184	7,896	1406,884	741,093
-33,169	7,823	1405,663	740,079
-32,154	7,881	1404,642	739,786
-31,140	7,887	1403,486	739,176
-30,125	7,917	1402,132	738,574
-29,111	7,874	1401,361	737,937
-28,096	7,951	1399,730	737,407
-27,082	7,847	1398,640	736,320
-26,067	7,832	1397,557	735,650
-25,052	7,825	1396,824	735,203
-24,038	7,842	1395,707	734,666
-23,023	7,851	1394,824	734,212
-22,009	7,807	1393,875	733,480
-20,994	7,803	1392,799	732,865
-19,979	7,836	1391,694	732,409
-18,965	7,803	1390,941	731,830
-17,950	7,747	1389,967	731,031
-16,936	7,795	1389,176	730,807
-15,921	7,678	1388,249	729,752
-14,906	7,749	1387,104	729,445
-13,892	7,789	1386,021	729,033
-12,877	7,761	1385,464	728,582
-11,863	7,693	1384,837	727,911
-10,848	7,662	1383,784	727,187
-9,833	7,679	1382,729	726,680
-8,819	7,621	1382,009	726,003
-7,804	7,590	1381,157	725,386
-6,790	7,648	1380,115	725,075
-5,775	7,666	1378,761	724,417
-4,760	7,702	1377,833	724,068
-3,746	7,686	1376,912	723,480
-2,731	7,641	1376,174	722,859
-1,717	7,619	1375,604	722,432
-0,702	7,624	1373,757	721,456
0,313	11,555	1283,781	692,001
1,327	27,141	675,873	398,992
2,342	42,347	116,116	74,259
3,356	0,893	16,494	8,302
4,371	-3,564	4,020	1,964
5,386	11,102	1,403	0,754
6,400	490,948	0,400	0,648
7,415	-49,309	-0,195	-0,065
8,429	131,290	-0,386	-0,350
9,444	-93,201	-0,338	-0,066
10,459	214,735	-0,225	-0,252
11,473	-32,933	-0,300	-0,117
12,488	63,240	-0,238	-0,168
13,502	145,496	-0,229	-0,216
14,517	-87,796	-0,328	-0,069
15,531	95,330	-0,411	-0,330
16,546	172,846	-0,260	-0,263
17,561	250,353	-0,229	-0,275
18,575	209,993	-0,214	-0,236
19,590	242,758	-0,166	-0,196
20,604	-137,723	-0,274	-0,021
21,619	-85,885	-0,511	-0,110
22,634	39,193	-0,452	-0,284
23,648	67,328	-0,472	-0,338
24,663	103,748	-0,289	-0,239
25,677	38,578	-0,278	-0,174
26,692	48,342	-0,355	-0,233
27,707	-3,879	-0,237	-0,115
28,721	41,076	-0,368	-0,234
29,736	33,551	-0,411	-0,251
30,750	226,371	-0,280	-0,319
31,765	90,030	-0,273	-0,214
32,780	-10,545	-0,329	-0,152
33,794	194,132	-0,218	-0,233
34,809	120,121	-0,270	-0,235
35,823	-21,410	-0,268	-0,114
36,838	127,121	-0,342	-0,305
37,853	0,952	-0,464	-0,233
38,867	55,667	-0,308	-0,209
39,882	152,120	-0,314	-0,301
40,896	-33,102	-0,276	-0,107
41,911	67,712	-0,324	-0,232
42,926	-0,172	-0,270	-0,135
43,940	-79,266	-0,478	-0,113
44,955	-62,164	-0,495	-0,144
45,969	91,789	-0,321	-0,253
46,984	206,508	-0,239	-0,261
47,999	169,714	-0,363	-0,364
49,013	40,455	-0,272	-0,171
50,028	-18,237	-0,425	-0,186
51,042	96,276	-0,275	-0,221
52,057	-57,146	-0,374	-0,115
53,071	79,448	-0,337	-0,254
54,086	86,362	-0,235	-0,182
55,101	300,024	-0,268	-0,348
56,115	383,327	-0,098	-0,142
57,130	-9,775	-0,343	-0,159
58,144	73,341	-0,377	-0,277
59,159	31,691	-0,412	-0,248
60,174	140,005	-0,367	-0,339
61,188	-96,902	-0,407	-0,074
62,203	45,565	-0,271	-0,175
63,217	12,537	-0,401	-0,216
64,232	-91,504	-0,404	-0,080
65,247	70,473	-0,400	-0,290
66,261	-15,723	-0,354	-0,157
67,276	417,455	-0,230	-0,345
68,290	261,812	-0,271	-0,330
69,305	-37,980	-0,257	-0,095
70,320	38,814	-0,223	-0,140
71,334	-57,141	-0,261	-0,080
72,349	-13,685	-0,390	-0,176
73,363	124,183	-0,364	-0,320
74,378	6,911	-0,312	-0,163
75,393	42,852	-0,209	-0,133
76,407	-21,963	-0,308	-0,131
77,422	-80,942	-0,235	-0,054
78,436	9,611	-0,296	-0,156
79,451	160,361	-0,214	-0,209
80,466	-87,958	-0,345	-0,072
81,480	24,299	-0,331	-0,191
82,495	490,814	-0,190	-0,305
83,509	159,367	-0,229	-0,223
84,524	20,486	-0,198	-0,112
85,539	19,022	-0,279	-0,156
86,553	6,689	-0,244	-0,127
87,568	-26,897	-0,359	-0,146
88,582	800,000	-0,182	-0,455
89,597	48,445	-0,248	-0,162
90,611	80,687	-0,295	-0,222
91,626	183,282	-0,219	-0,227
92,641	11,197	-0,261	-0,139
93,655	-33,009	-0,351	-0,136
94,670	120,998	-0,258	-0,224
95,684	115,525	-0,273	-0,233
96,699	32,521	-0,255	-0,154
97,714	64,202	-0,289	-0,203
98,728	33,389	-0,231	-0,140
99,743	-59,664	-0,189	-0,056
100,757	0,821	-0,271	-0,135
101,772	324,641	-0,254	-0,340
102,787	-7,700	-0,373	-0,175
103,801	125,240	-0,260	-0,229
104,816	7,403	-0,191	-0,099
105,830	199,362	-0,229	-0,246
106,845	51,454	-0,283	-0,188
107,860	28,769	-0,316	-0,186
108,874	-113,978	-0,213	-0,028
109,889	41,129	-0,215	-0,135
110,903	-5,833	-0,227	-0,108
111,918	-13,562	-0,422	-0,190
112,933	29,108	-0,259	-0,153
113,947	-117,490	-0,159	0,020
114,962	-24,110	-0,237	-0,098
115,976	438,324	-0,226	-0,345
116,991	-42,462	-0,234	-0,083
118,006	60,186	-0,448	-0,309
119,020	94,346	-0,158	-0,125
120,035	41,055	-0,211	-0,133
121,049	-49,287	-0,380	-0,126
122,064	800,000	-0,120	-0,244
123,079	9,597	-0,273	-0,144
124,093	146,103	-0,272	-0,255
125,108	-135,485	-0,250	-0,020
126,122	11,536	-0,331	-0,176
127,137	-10,632	-0,195	-0,090
128,151	105,958	-0,201	-0,166
129,166	34,140	-0,154	-0,094
130,181	-33,950	-0,288	-0,110
131,195	-106,833	-0,293	-0,045
132,210	174,966	-0,225	-0,227
133,224	45,227	-0,213	-0,137
134,239	-64,439	-0,244	-0,069
135,254	-23,828	-0,172	-0,071
136,268	20,282	-0,157	-0,088
137,283	98,230	-0,217	-0,174
138,297	281,018	-0,180	-0,225
139,312	-46,247	-0,270	-0,092
140,327	133,582	-0,243	-0,219
141,341	-45,808	-0,126	-0,043
142,356	7,339	-0,166	-0,086
143,370	104,881	-0,194	-0,159
144,385	146,116	-0,257	-0,240
145,400	119,192	-0,227	-0,196
146,414	646,705	-0,148	-0,265
147,429	-51,405	-0,160	-0,052
148,443	12,701	-0,239	-0,128
149,458	97,909	-0,238	-0,190
150,473	115,314	-0,259	-0,220
151,487	118,098	-0,177	-0,152
152,502	45,124	-0,224	-0,144
153,516	505,910	-0,178	-0,287
154,531	800,000	-0,125	-0,337
155,546	-65,046	-0,314	-0,088
156,560	283,452	-0,112	-0,140
157,575	31,510	-0,123	-0,074
158,589	295,363	-0,160	-0,204
159,604	-67,269	-0,197	-0,053
160,619	268,763	-0,147	-0,179
161,633	119,333	-0,270	-0,232
162,648	27,347	-0,261	-0,152
163,662	-40,934	-0,296	0,106
164,677	-11,342	-0,119	-0,054
165,692	199,613	-0,212	-0,226
166,706	118,582	-0,274	-0,235
167,721	-120,680	-0,283	-0,033
168,735	-6,732	-0,270	-0,127
169,750	102,635	-0,312	-0,254
170,764	560,957	-0,144	-0,242
171,779	223,392	-0,147	-0,165
172,794	-64,833	-0,217	-0,061
173,808	133,087	-0,206	-0,185
174,823	70,129	-0,237	-0,170
175,837	44,157	-0,218	-0,139
176,852	185,785	-0,255	-0,263
177,867	248,478	-0,273	-0,321
178,881	72,161	-0,180	-0,130
179,896	136,674	-0,162	-0,147
180,910	617,068	-0,139	-0,243
181,925	21,464	-0,307	-0,173
182,940	151,450	-0,232	-0,219
183,954	331,459	-0,188	-0,252
184,969	239,266	-0,106	-0,123
185,983	54,243	-0,230	-0,153
186,998	158,114	-0,199	-0,192
188,013	-104,342	-0,313	-0,050
189,027	265,191	-0,187	-0,226
190,042	-125,741	-0,270	0,028
191,056	50,252	-0,224	-0,147
192,071	2,763	-0,267	-0,134
193,086	606,760	-0,085	-0,147
194,100	485,816	-0,137	-0,216
195,115	104,323	-0,246	-0,200
196,129	800,000	-0,137	-0,345
197,144	312,728	-0,187	-0,244
198,159	190,390	-0,219	-0,229
199,173	151,051	-0,158	-0,149
200,188	335,252	-0,088	-0,119
201,202	287,994	-0,139	-0,174
202,217	7,338	-0,121	-0,062
203,232	293,460	-0,164	-0,207
204,246	800,000	-0,107	-0,229
205,261	117,581	-0,139	-0,118
206,275	215,609	-0,124	-0,136
207,290	331,209	-0,165	-0,221
208,304	-103,561	-0,143	0,023
209,319	-133,570	-0,199	-0,017
210,334	166,662	-0,276	-0,271
211,348	462,928	-0,221	-0,343
212,363	24,508	-0,152	-0,087
213,377	10,387	-0,276	-0,145
214,392	-84,496	-0,098	0,021
215,407	800,000	-0,081	-0,171
216,421	88,504	-0,156	-0,120
217,436	-34,191	-0,161	-0,061
218,450	157,284	-0,189	-0,181
219,465	147,575	-0,266	-0,248
220,480	356,380	-0,068	-0,093
221,494	566,286	-0,106	-0,178
222,509	85,342	-0,153	-0,116
223,523	9,916	-0,201	-0,105
224,538	68,306	-0,198	-0,140
225,553	538,948	-0,083	-0,137
226,567	-111,872	-0,161	-0,022
227,582	-77,251	-0,088	0,021
228,596	114,513	-0,083	-0,070
229,611	38,277	-0,103	-0,063
230,626	-28,554	-0,228	-0,090
231,640	-3,424	-0,302	-0,145
232,655	-133,563	-0,146	-0,012
233,669	16,065	-0,097	-0,053
234,684	-23,527	-0,142	-0,059
235,699	392,231	-0,108	-0,155
236,713	179,593	-0,161	-0,163
237,728	655,836	-0,091	-0,162
238,742	99,486	-0,126	-0,101
239,757	194,441	-0,246	-0,258
240,772	46,819	-0,166	-0,106
241,786	276,469	-0,168	-0,206
242,801	39,740	-0,222	-0,137
243,815	87,810	-0,154	-0,117
244,830	-38,622	-0,159	-0,058
245,844	742,885	-0,136	-0,254
246,859	35,413	-0,199	-0,120
247,874	50,939	-0,213	-0,139
248,888	-102,136	-0,108	-0,018
249,903	38,918	-0,206	-0,127
250,917	56,834	-0,156	-0,105
251,932	211,756	-0,122	-0,133
252,947	-29,047	-0,126	0,049
253,961	800,000	-0,091	-0,192
254,976	-200,000	-0,022	-0,206
255,990	35,536	-0,333	-0,201
257,005	47,939	-0,177	-0,114
258,020	236,714	-0,096	-0,110
259,034	-72,685	-0,102	-0,026
260,049	-127,695	-0,147	0,014
261,063	-82,398	-0,210	0,047
262,078	800,000	-0,117	-0,343
263,093	331,828	-0,146	-0,195
264,107	800,000	-0,084	-0,220
265,122	261,968	-0,128	-0,153
266,136	198,890	-0,110	-0,116
267,151	-18,527	-0,162	-0,069
268,166	171,571	-0,230	-0,227
269,180	-21,560	-0,303	-0,127
270,195	207,576	-0,229	-0,247
271,209	114,137	-0,124	-0,104
272,224	163,989	-0,119	-0,116
273,239	800,000	-0,135	-0,257
274,253	517,944	-0,107	-0,172
275,268	-161,978	-0,189	-0,006
276,282	99,129	-0,241	-0,192
277,297	27,400	-0,145	-0,083
278,312	-83,011	-0,094	-0,021
279,326	441,538	-0,105	-0,159
280,341	-200,000	0,033	-0,135
281,355	800,000	-0,039	-0,104
282,370	210,665	-0,143	-0,155
283,384	156,609	-0,193	-0,183
284,399	277,639	-0,135	-0,165
285,414	603,424	-0,107	-0,184
286,428	443,153	-0,116	-0,175
287,443	-200,000	-0,038	0,122
288,457	199,727	-0,099	-0,105
289,472	284,325	-0,074	-0,091
290,487	164,136	-0,207	-0,200
291,501	-47,453	-0,232	-0,077
292,516	-96,189	-0,216	0,039
293,530	108,842	-0,146	-0,120
294,545	-162,434	-0,167	0,006
295,560	-91,561	-0,177	-0,034
296,574	54,959	-0,163	-0,108
297,589	-200,000	-0,044	-0,138
298,603	85,352	-0,149	-0,112
299,618	-68,974	-0,238	-0,063
300,633	-82,030	-0,277	-0,062
301,647	32,613	-0,133	-0,078
302,662	22,453	-0,227	-0,127
303,676	-49,214	-0,130	0,042
304,691	-102,941	-0,262	-0,042
305,706	300,291	-0,174	-0,221
306,720	49,125	-0,204	-0,131
307,735	-138,837	-0,140	0,010
308,749	-200,000	-0,008	-0,177
309,764	-200,000	-0,020	-0,110
310,779	307,074	-0,077	-0,099
311,793	-55,276	-0,162	0,050
312,808	-64,068	-0,157	-0,044
313,822	195,239	-0,175	-0,182
314,837	-77,402	-0,115	-0,027
315,852	-200,000	-0,005	-0,221
316,866	122,036	-0,143	-0,122
317,881	800,000	-0,034	-0,077
318,895	-29,650	-0,123	-0,048
319,910	222,978	-0,120	-0,132
320,925	-86,111	-0,179	-0,038
321,939	-200,000	-0,005	-0,048
322,954	-200,000	-0,010	-0,085
323,968	132,127	-0,142	-0,125
324,983	-59,730	-0,153	-0,045
325,997	-129,607	-0,121	-0,011
327,012	-31,080	-0,176	-0,068
328,027	250,962	-0,077	-0,090
329,041	-75,463	-0,164	-0,040
330,056	109,809	-0,112	-0,092
331,070	21,555	-0,048	-0,026
332,085	510,952	0,012	0,019
333,100	77,665	-0,147	-0,107
334,114	-200,000	-0,034	-0,127
335,129	312,392	-0,181	-0,233
336,143	203,036	-0,138	-0,146
337,158	-109,143	-0,120	-0,017
338,173	-122,046	-0,132	-0,015
339,187	113,366	-0,166	-0,138
340,202	-111,156	-0,068	-0,009
341,216	243,939	-0,124	-0,142
342,231	800,000	-0,062	-0,119
343,246	407,230	-0,092	-0,133
344,260	3,657	-0,170	-0,084
345,275	-21,382	-0,159	-0,066
346,289	800,000	-0,045	0,089
347,304	385,765	-0,100	-0,141
348,319	-25,362	-0,070	-0,028
349,333	-142,851	-0,120	0,008
350,348	-33,435	-0,169	0,063
351,362	-21,420	-0,087	-0,036
352,377	-188,107	-0,156	0,001
353,392	108,550	-0,140	-0,114
354,406	32,334	-0,079	-0,047
355,421	207,275	1308,318	1396,308
356,435	159,446	1468,196	1396,760
