DTS Sentinel unit serial number:	SN410029Multiplexer serial number:	ORYXHardware model number:	OX2-SRSoftware version number:	ORYX F/W v4,00 Oryx Data Collector v3.7.2.0data status	okinstallation	B3 Nyhavnadifferential loss correction	single-endedforward channel	channel 1reverse channel	N/Adate	2023/11/30time	01:07:30forward acquisition time	300,00reverse acquisition time	0,00gamma	499,1914k internal	0,3210k external	0,3210temperature offset calibration	1,0000default loss term (dB/km)	0,3820temperature slope calibration	1,0000multiplexer offset coefficient	1,0000multiplexer slope coefficient	1,0000fibre end	0,00T internal ref (°C)	10,73T ext. ref 1 (°C)	-4,74T ext. ref 2 (°C)	-4,86length (m)	temperature (°C)	Stokes	anti-Stokes-744,400	-200,000	-0,057	-0,258
-743,385	-200,000	-0,035	0,317
-742,371	83,972	-0,210	-0,166
-741,356	-200,000	-0,033	0,285
-740,342	290,327	-0,108	-0,142
-739,327	-200,000	-0,137	0,446
-738,312	800,000	-0,147	-0,329
-737,298	800,000	0,052	0,148
-736,283	-200,000	-0,058	-0,296
-735,269	-200,000	-0,071	0,304
-734,254	59,770	-0,170	-0,121
-733,239	255,962	-0,127	0,159
-732,225	-200,000	-0,071	-0,296
-731,210	-129,858	0,084	0,008
-730,196	409,266	0,040	-0,062
-729,181	-58,687	-0,088	-0,028
-728,167	38,080	0,088	-0,056
-727,152	-111,139	-0,083	-0,012
-726,137	592,513	-0,042	-0,076
-725,123	136,907	0,081	-0,076
-724,108	72,069	-0,107	-0,081
-723,094	150,122	-0,099	-0,097
-722,079	45,142	-0,085	-0,057
-721,064	392,173	0,058	-0,088
-720,050	-22,928	-0,129	0,056
-719,035	-113,167	0,027	0,004
-718,021	800,000	-0,063	0,133
-717,006	736,649	-0,048	-0,093
-715,991	-3,158	-0,050	-0,025
-714,977	13,120	-0,058	0,032
-713,962	80,512	0,040	-0,031
-712,948	9,934	-0,017	-0,009
-711,933	325,598	0,056	-0,078
-710,918	217,068	0,047	-0,054
-709,904	226,425	-0,042	-0,049
-708,889	-200,000	-0,005	-0,095
-707,875	-90,176	-0,082	-0,017
-706,860	283,970	0,084	0,109
-705,845	800,000	-0,034	-0,076
-704,831	61,587	0,096	0,069
-703,816	-200,000	0,017	0,097
-702,802	-30,535	-0,178	-0,073
-701,787	26,529	-0,081	-0,049
-700,772	81,495	0,124	0,097
-699,758	34,070	-0,151	0,095
-698,743	-113,264	0,053	-0,007
-697,729	209,847	0,072	0,082
-696,714	368,443	-0,038	-0,055
-695,699	-47,478	-0,098	-0,034
-694,685	-200,000	-0,014	-0,136
-693,670	-200,000	0,020	-0,086
-692,656	308,101	0,041	-0,055
-691,641	81,875	-0,076	0,059
-690,627	-200,000	0,014	0,131
-689,612	-200,000	-0,018	0,135
-688,597	17,532	-0,052	0,030
-687,583	-200,000	-0,018	-0,129
-686,568	652,149	0,090	-0,167
-685,554	302,862	-0,088	-0,118
-684,539	-163,852	0,159	-0,005
-683,524	217,525	0,093	0,107
-682,510	-73,009	0,165	-0,044
-681,495	800,000	-0,028	-0,060
-680,481	-145,174	-0,097	0,006
-679,466	727,184	-0,065	0,126
-678,451	63,707	-0,079	-0,058
-677,437	-68,215	0,111	0,031
-676,422	-159,862	0,147	-0,006
-675,408	167,034	-0,018	0,019
-674,393	387,057	-0,088	0,132
-673,378	800,000	-0,038	-0,089
-672,364	-200,000	-0,048	-0,160
-671,349	-61,572	-0,092	0,028
-670,335	-2,537	0,111	0,056
-669,320	8,769	0,140	0,076
-668,305	-27,107	0,160	0,067
-667,291	97,575	-0,059	0,049
-666,276	-200,000	0,003	-0,018
-665,262	739,548	-0,074	-0,144
-664,247	-200,000	0,008	0,081
-663,232	-200,000	-0,001	-0,027
-662,218	599,690	0,062	0,113
-661,203	353,215	0,067	0,096
-660,189	78,475	0,044	-0,034
-659,174	-200,000	-0,039	-0,000
-658,159	800,000	-0,051	-0,141
-657,145	800,000	-0,014	-0,035
-656,130	144,922	0,047	0,045
-655,116	32,348	-0,014	0,009
-654,101	-21,338	0,054	-0,024
-653,086	800,000	0,036	-0,077
-652,072	-200,000	-0,014	-0,076
-651,057	20,494	-0,057	-0,033
-650,043	153,190	-0,059	-0,058
-649,028	23,354	-0,160	-0,095
-648,014	-78,867	-0,069	0,017
-646,999	-200,000	-0,010	0,085
-645,984	-200,000	0,012	-0,101
-644,970	-114,455	-0,010	-0,001
-643,955	-44,413	0,031	-0,011
-642,941	-154,526	0,031	0,001
-641,926	91,593	0,134	-0,109
-640,911	-63,108	0,056	0,017
-639,897	800,000	0,017	0,036
-638,882	507,393	0,082	0,138
-637,868	114,935	0,047	0,041
-636,853	582,625	-0,007	0,012
-635,838	567,452	0,047	0,082
-634,824	141,718	-0,036	0,035
-633,809	318,934	-0,031	-0,042
-632,795	-114,233	0,115	-0,016
-631,780	-200,000	0,011	-0,076
-630,765	121,319	-0,004	-0,004
-629,751	-51,001	-0,128	-0,043
-628,736	-185,106	-0,136	0,001
-627,722	169,216	-0,028	-0,029
-626,707	-58,415	0,061	-0,019
-625,692	-200,000	-0,002	0,039
-624,678	-200,000	0,010	-0,082
-623,663	-96,702	0,037	0,007
-622,649	115,301	-0,086	-0,076
-621,634	-200,000	-0,003	0,030
-620,619	-200,000	-0,005	0,112
-619,605	-18,409	-0,075	0,034
-618,590	800,000	0,031	0,066
-617,576	800,000	0,077	0,162
-616,561	800,000	-0,006	-0,012
-615,546	-128,419	-0,044	0,004
-614,532	800,000	0,045	-0,095
-613,517	41,209	-0,089	-0,058
-612,503	-60,713	0,081	0,025
-611,488	32,487	-0,147	0,092
-610,474	-200,000	0,028	-0,094
-609,459	256,532	0,154	-0,191
-608,444	479,425	-0,039	-0,065
-607,430	800,000	0,048	-0,117
-606,415	-200,000	-0,011	-0,075
-605,401	159,797	0,070	-0,071
-604,386	-48,699	0,099	-0,034
-603,371	-200,000	0,018	-0,075
-602,357	-200,000	-0,009	0,045
-601,342	-36,379	-0,115	-0,045
-600,328	56,412	-0,057	0,040
-599,313	28,037	-0,023	-0,014
-598,298	225,455	-0,033	-0,039
-597,284	800,000	0,031	-0,088
-596,269	90,533	0,036	-0,029
-595,255	-144,092	0,026	-0,002
-594,240	-200,000	0,023	-0,119
-593,225	-102,832	-0,073	-0,012
-592,211	313,544	-0,025	0,033
-591,196	800,000	-0,043	-0,111
-590,182	129,840	0,105	-0,097
-589,167	182,162	-0,055	0,059
-588,152	-126,357	-0,063	0,007
-587,138	-3,953	-0,048	0,024
-586,123	-200,000	0,004	-0,129
-585,109	-20,111	0,059	-0,026
-584,094	-200,000	-0,002	0,061
-583,079	-200,000	0,006	0,098
-582,065	-151,474	0,123	0,006
-581,050	800,000	0,033	0,105
-580,036	-96,034	-0,175	-0,033
-579,021	127,845	0,012	-0,011
-578,006	53,117	-0,146	-0,100
-576,992	-59,966	-0,145	0,044
-575,977	513,057	0,060	-0,101
-574,963	646,985	0,066	-0,123
-573,948	129,437	0,034	-0,031
-572,934	-149,204	0,122	0,007
-571,919	-82,565	-0,075	0,017
-570,904	218,438	-0,027	0,031
-569,890	-78,027	-0,021	0,005
-568,875	-75,062	0,073	0,019
-567,861	800,000	-0,056	0,142
-566,846	-200,000	0,000	0,020
-565,831	-37,987	0,093	-0,035
-564,817	-40,334	-0,099	0,037
-563,802	-200,000	0,042	-0,143
-562,788	-65,737	-0,172	-0,049
-561,773	-163,433	-0,051	0,002
-560,758	-14,824	-0,088	-0,041
-559,744	-200,000	-0,027	0,114
-558,729	680,535	0,047	-0,089
-557,715	-200,000	0,015	0,063
-556,700	-200,000	-0,022	-0,129
-555,685	-200,000	-0,013	-0,065
-554,671	225,163	-0,070	-0,082
-553,656	89,822	0,096	0,077
-552,642	123,240	0,101	0,091
-551,627	269,614	-0,083	-0,105
-550,612	102,370	0,034	-0,029
-549,598	-66,099	-0,048	0,014
-548,583	362,298	0,040	0,058
-547,569	-7,983	0,163	0,079
-546,554	800,000	0,012	-0,031
-545,539	431,434	0,007	0,010
-544,525	194,591	-0,070	0,077
-543,510	800,000	-0,033	0,092
-542,496	-93,326	-0,169	0,033
-541,481	0,788	-0,100	-0,051
-540,466	-200,000	-0,000	-0,022
-539,452	-26,543	-0,057	0,024
-538,437	-99,139	-0,008	-0,001
-537,423	157,285	-0,149	0,148
-536,408	-16,804	0,112	0,051
-535,393	2,356	-0,056	0,029
-534,379	-117,016	0,131	-0,017
-533,364	800,000	-0,038	-0,095
-532,350	163,153	0,024	-0,025
-531,335	-200,000	-0,018	-0,083
-530,321	-200,000	0,003	-0,011
-529,306	800,000	-0,063	-0,161
-528,291	1,396	-0,023	0,012
-527,277	156,544	-0,068	-0,068
-526,262	415,583	0,017	-0,026
-525,248	618,097	-0,103	0,187
-524,233	800,000	0,063	0,166
-523,218	468,246	0,049	0,080
-522,204	800,000	-0,023	0,072
-521,189	-94,497	-0,179	-0,035
-520,175	5,691	-0,060	-0,032
-519,160	-200,000	0,001	-0,069
-518,145	-200,000	0,030	0,129
-517,131	-200,000	-0,020	0,078
-516,116	278,624	-0,019	0,024
-515,102	518,268	0,117	-0,198
-514,087	800,000	0,043	-0,087
-513,072	753,187	0,057	-0,111
-512,058	-157,894	-0,096	-0,004
-511,043	800,000	-0,027	0,084
-510,029	31,337	0,101	0,062
-509,014	149,794	-0,043	-0,041
-507,999	198,447	-0,054	-0,059
-506,985	280,673	-0,067	-0,086
-505,970	-200,000	-0,009	-0,105
-504,956	604,929	-0,044	0,079
-503,941	-200,000	0,016	0,086
-502,926	584,620	0,088	0,156
-501,912	800,000	0,032	0,066
-500,897	95,578	-0,108	0,089
-499,883	-62,130	0,121	0,036
-498,868	800,000	-0,082	-0,175
-497,853	-200,000	0,026	-0,132
-496,839	51,431	-0,038	-0,026
-495,824	800,000	0,044	0,134
-494,810	113,851	0,118	0,103
-493,795	501,089	-0,033	0,054
-492,781	-125,898	0,064	0,007
-491,766	281,560	-0,006	0,008
-490,751	800,000	0,050	-0,123
-489,737	496,007	-0,041	0,068
-488,722	-200,000	-0,040	0,160
-487,708	107,505	0,094	0,081
-486,693	800,000	0,025	0,074
-485,678	-200,000	-0,019	-0,096
-484,664	-108,522	-0,120	-0,018
-483,649	-200,000	0,020	-0,155
-482,635	-66,280	0,044	-0,012
-481,620	360,612	0,110	0,158
-480,605	-67,687	0,109	0,030
-479,591	348,850	-0,075	0,107
-478,576	800,000	0,048	0,116
-477,562	224,901	0,104	-0,121
-476,547	-69,287	-0,130	-0,036
-475,532	141,162	-0,055	0,052
-474,518	-75,689	0,058	0,015
-473,503	167,367	0,041	0,042
-472,489	800,000	-0,038	0,107
-471,474	800,000	-0,068	0,137
-470,459	-200,000	-0,015	-0,176
-469,445	-192,659	-0,069	0,000
-468,430	60,553	0,020	0,014
-467,416	-200,000	-0,006	-0,025
-466,401	-200,000	0,015	-0,056
-465,386	800,000	0,030	-0,069
-464,372	179,706	-0,017	-0,018
-463,357	-74,837	0,058	0,015
-462,343	-41,052	0,017	-0,006
-461,328	238,301	0,051	-0,060
-460,313	-131,281	-0,062	0,006
-459,299	-75,686	-0,064	0,016
-458,284	150,462	-0,076	-0,075
-457,270	98,531	-0,103	0,085
-456,255	-123,462	-0,105	-0,012
-455,241	42,498	-0,105	0,069
-454,226	-200,000	-0,002	-0,006
-453,211	-124,402	-0,076	-0,008
-452,197	-200,000	-0,021	0,076
-451,182	643,923	0,067	0,124
-450,168	-61,661	0,033	0,010
-449,153	-138,773	0,114	0,009
-448,138	771,278	0,011	0,022
-447,124	-200,000	0,014	-0,061
-446,109	53,909	0,111	-0,077
-445,095	-186,286	-0,010	-0,000
-444,080	144,601	-0,033	-0,032
-443,065	-6,306	0,110	-0,053
-442,051	-200,000	-0,022	-0,097
-441,036	9,769	-0,093	-0,050
-440,022	-152,662	-0,111	0,006
-439,007	122,954	0,055	0,049
-437,992	-200,000	-0,008	0,049
-436,978	352,811	0,057	0,081
-435,963	-71,724	-0,061	0,016
-434,949	108,280	0,121	0,104
-433,934	800,000	-0,064	-0,155
-432,919	178,628	-0,093	0,098
-431,905	800,000	-0,043	0,117
-430,890	98,955	0,035	0,029
-429,876	-200,000	-0,000	-0,041
-428,861	-114,001	-0,200	-0,028
-427,846	-83,316	-0,151	0,035
-426,832	800,000	-0,022	-0,051
-425,817	-97,822	0,098	-0,018
-424,803	384,013	0,117	0,172
-423,788	530,533	0,068	0,116
-422,773	-200,000	0,008	-0,042
-421,759	175,835	-0,007	0,007
-420,744	-200,000	0,012	-0,110
-419,730	130,885	-0,054	0,050
-418,715	800,000	-0,065	-0,139
-417,701	800,000	0,022	-0,066
-416,686	93,669	0,028	0,023
-415,671	-109,091	0,121	-0,018
-414,657	-96,063	-0,046	-0,009
-413,642	-200,000	0,037	0,151
-412,628	-95,455	-0,082	0,016
-411,613	-200,000	-0,025	0,089
-410,598	92,084	-0,052	-0,042
-409,584	-89,662	0,062	0,013
-408,569	-47,757	-0,058	-0,020
-407,555	800,000	0,034	0,073
-406,540	800,000	0,036	0,080
-405,525	182,064	0,041	-0,044
-404,511	649,499	-0,029	-0,053
-403,496	146,525	0,030	-0,029
-402,482	800,000	0,042	-0,107
-401,467	800,000	0,055	0,121
-400,452	-4,699	0,092	-0,045
-399,438	92,585	0,097	0,079
-398,423	8,983	0,091	0,049
-397,409	-108,222	-0,032	-0,005
-396,394	471,594	-0,074	-0,119
-395,379	-200,000	0,003	0,024
-394,365	455,321	-0,062	0,099
-393,350	50,941	0,107	0,072
-392,336	-102,454	-0,072	0,012
-391,321	-200,000	0,002	0,046
-390,306	-200,000	0,015	-0,133
-389,292	-194,046	-0,147	0,001
-388,277	-7,686	0,176	-0,085
-387,263	800,000	-0,057	-0,148
-386,248	-5,846	-0,107	-0,052
-385,233	-200,000	0,011	-0,139
-384,219	-103,214	-0,204	0,034
-383,204	465,087	0,056	-0,090
-382,190	-200,000	-0,033	0,106
-381,175	-18,777	-0,027	-0,012
-380,160	-153,118	-0,074	-0,004
-379,146	-200,000	0,007	0,075
-378,131	44,551	0,018	0,012
-377,117	-131,062	0,115	0,011
-376,102	376,857	-0,031	-0,045
-375,088	353,440	0,105	-0,149
-374,073	-40,529	-0,029	-0,011
-373,058	149,286	0,029	-0,029
-372,044	-200,000	0,009	0,049
-371,029	-112,754	-0,062	-0,009
-370,015	-31,530	0,037	0,015
-369,000	-200,000	-0,023	0,097
-367,985	-200,000	-0,001	-0,119
-366,971	-79,549	-0,115	0,028
-365,956	-69,273	0,108	0,029
-364,942	203,382	0,084	0,093
-363,927	-69,896	0,108	-0,029
-362,912	-31,727	-0,120	0,048
-361,898	110,162	-0,054	0,046
-360,883	75,223	-0,014	-0,010
-359,869	-88,579	0,100	0,021
-358,854	-119,071	-0,139	0,017
-357,839	-88,941	0,063	0,013
-356,825	-73,292	0,166	0,043
-355,810	800,000	0,061	0,141
-354,796	86,675	-0,147	-0,116
-353,781	800,000	-0,066	-0,144
-352,766	99,932	-0,075	-0,062
-351,752	-73,378	-0,040	0,010
-350,737	-83,192	0,117	0,027
-349,723	-200,000	0,014	0,166
-348,708	-200,000	0,032	0,108
-347,693	365,678	0,011	-0,015
-346,679	750,259	0,057	-0,110
-345,664	-200,000	0,004	-0,066
-344,650	32,780	-0,002	0,001
-343,635	126,335	0,059	0,053
-342,620	88,394	-0,109	0,086
-341,606	-52,749	0,027	-0,009
-340,591	406,207	-0,018	-0,027
-339,577	88,105	0,087	0,069
-338,562	-147,643	0,042	-0,003
-337,548	91,514	0,039	-0,032
-336,533	144,540	0,005	0,005
-335,518	138,264	0,031	0,029
-334,504	-200,000	0,013	0,135
-333,489	29,588	0,178	-0,108
-332,475	-200,000	-0,014	-0,048
-331,460	-200,000	0,005	-0,227
-330,445	-125,536	0,183	-0,020
-329,431	800,000	-0,056	-0,122
-328,416	211,472	0,085	-0,096
-327,402	262,693	0,010	0,013
-326,387	-9,532	-0,056	-0,027
-325,372	-23,854	0,026	0,011
-324,358	-200,000	0,046	-0,159
-323,343	-200,000	0,008	-0,026
-322,329	-30,895	0,091	0,036
-321,314	15,391	0,076	0,042
-320,299	-200,000	-0,007	0,079
-319,285	91,271	-0,070	0,056
-318,270	-200,000	0,017	-0,076
-317,256	82,399	-0,048	0,037
-316,241	160,049	0,098	-0,098
-315,226	-200,000	-0,005	-0,118
-314,212	-24,948	0,080	0,034
-313,197	-70,007	-0,059	-0,016
-312,183	-65,655	-0,026	-0,007
-311,168	129,681	0,069	-0,063
-310,153	-200,000	0,016	-0,131
-309,139	-200,000	0,012	0,057
-308,124	-200,000	-0,002	0,097
-307,110	-200,000	-0,022	0,156
-306,095	-200,000	-0,009	0,097
-305,080	-38,980	-0,047	0,018
-304,066	-73,476	0,075	0,019
-303,051	48,341	-0,052	-0,035
-302,037	800,000	0,025	-0,057
-301,022	446,993	-0,069	0,109
-300,008	-200,000	-0,017	0,078
-298,993	147,193	-0,026	0,025
-297,978	-200,000	-0,006	0,018
-296,964	-57,118	0,130	-0,041
-295,949	-50,687	-0,145	-0,049
-294,935	402,677	0,061	-0,092
-293,920	106,095	0,081	-0,069
-292,905	-102,494	0,110	-0,019
-291,891	-49,786	0,060	0,020
-290,876	-57,578	-0,059	0,018
-289,862	33,306	-0,128	0,079
-288,847	-64,192	-0,060	-0,017
-287,832	-94,027	-0,067	-0,013
-286,818	116,868	0,032	0,028
-285,803	-15,145	0,195	-0,088
-284,789	-200,000	0,034	0,158
-283,774	800,000	0,016	-0,037
-282,759	800,000	-0,021	0,051
-281,745	800,000	-0,029	0,087
-280,730	-155,134	-0,184	0,008
-279,716	-200,000	-0,011	-0,168
-278,701	800,000	0,064	-0,135
-277,686	39,166	-0,049	0,031
-276,672	87,343	0,116	0,091
-275,657	209,362	0,065	-0,072
-274,643	226,211	-0,046	0,053
-273,628	-200,000	0,018	-0,157
-272,613	-200,000	-0,007	-0,123
-271,599	24,404	0,055	0,033
-270,584	54,690	-0,029	-0,020
-269,570	343,947	0,028	-0,039
-268,555	-200,000	-0,002	0,039
-267,540	-200,000	0,015	-0,057
-266,526	128,704	-0,111	0,100
-265,511	-33,468	0,092	-0,036
-264,497	-59,673	-0,026	0,008
-263,482	-200,000	0,057	0,187
-262,467	-90,999	0,110	-0,022
-261,453	-51,513	0,054	-0,018
-260,438	-128,617	-0,051	0,005
-259,424	-32,391	-0,113	0,045
-258,409	-65,478	-0,115	-0,033
-257,395	-144,288	-0,027	-0,002
-256,380	-116,973	0,050	0,006
-255,365	-200,000	0,007	0,055
-254,351	377,138	0,032	0,047
-253,336	13,998	-0,018	-0,010
-252,322	218,323	-0,021	-0,023
-251,307	-38,698	0,070	0,026
-250,292	128,105	-0,034	0,031
-249,278	23,469	-0,035	-0,020
-248,263	176,044	-0,049	0,051
-247,249	-90,316	0,041	-0,008
-246,234	221,823	-0,118	-0,135
-245,219	313,670	-0,036	-0,048
-244,205	800,000	-0,036	-0,081
-243,190	-200,000	0,010	0,057
-242,176	-200,000	-0,016	0,052
-241,161	-200,000	-0,016	0,123
-240,146	-154,908	-0,077	-0,004
-239,132	112,064	0,032	0,028
-238,117	73,039	-0,023	-0,017
-237,103	91,465	0,065	0,052
-236,088	-152,988	-0,098	-0,005
-235,073	413,295	0,069	-0,104
-234,059	-75,581	-0,019	0,005
-233,044	103,862	-0,054	-0,045
-232,030	-56,152	0,138	0,044
-231,015	83,071	-0,151	-0,117
-230,000	-200,000	-0,035	-0,111
-228,986	-200,000	0,002	-0,067
-227,971	-5,325	0,034	-0,017
-226,957	13,612	0,136	0,075
-225,942	-200,000	0,007	-0,035
-224,927	-106,659	0,028	-0,004
-223,913	344,962	-0,066	-0,092
-222,898	-200,000	0,023	0,083
-221,884	485,146	-0,032	0,052
-220,869	800,000	-0,036	0,111
-219,855	-200,000	-0,034	0,115
-218,840	406,238	0,046	0,069
-217,825	-200,000	0,001	0,063
-216,811	211,114	-0,077	0,086
-215,796	556,732	-0,008	-0,013
-214,782	112,794	0,055	-0,048
-213,767	11,446	0,103	-0,056
-212,752	293,716	-0,012	0,016
-211,738	257,379	0,104	0,128
-210,723	109,513	0,120	0,102
-209,709	-10,706	-0,161	-0,075
-208,694	-200,000	-0,006	-0,038
-207,679	-16,135	-0,083	0,037
-206,665	-10,280	0,079	-0,037
-205,650	800,000	0,034	-0,095
-204,636	-49,989	-0,054	0,018
-203,621	-66,785	0,098	0,027
-202,606	132,163	0,006	-0,005
-201,592	800,000	-0,060	-0,140
-200,577	791,425	-0,082	-0,160
-199,563	390,354	0,062	0,091
-198,548	-200,000	0,020	-0,191
-197,533	206,217	0,091	-0,101
-196,519	-200,000	0,022	0,086
-195,504	-89,207	-0,064	-0,013
-194,490	800,000	-0,027	0,061
-193,475	-200,000	0,021	-0,149
-192,460	-200,000	0,001	-0,068
-191,446	800,000	-0,047	-0,108
-190,431	29,314	0,046	0,027
-189,417	449,164	0,001	0,001
-188,402	-200,000	-0,034	0,125
-187,387	-63,881	0,101	-0,029
-186,373	800,000	-0,058	-0,176
-185,358	-200,000	-0,024	0,147
-184,344	-67,617	0,070	-0,019
-183,329	-200,000	-0,011	0,150
-182,315	-200,000	-0,006	0,076
-181,300	-131,682	0,111	0,010
-180,285	143,983	-0,028	-0,027
-179,271	-200,000	0,007	0,148
-178,256	176,687	-0,095	0,098
-177,242	-26,832	-0,019	-0,008
-176,227	2,392	-0,034	0,018
-175,212	84,253	0,077	0,060
-174,198	291,444	-0,090	0,116
-173,183	-149,084	-0,116	-0,006
-172,169	-200,000	-0,024	0,093
-171,154	-137,979	-0,147	-0,011
-170,139	34,051	0,156	0,096
-169,125	35,207	0,036	-0,022
-168,110	-139,484	0,056	0,004
-167,096	-156,041	0,101	0,004
-166,081	-41,991	-0,075	-0,027
-165,066	260,871	-0,040	-0,049
-164,052	304,600	0,028	-0,037
-163,037	236,817	0,126	0,148
-162,023	800,000	-0,057	0,146
-161,008	-200,000	0,052	0,169
-159,993	109,821	0,061	-0,052
-158,979	800,000	-0,088	-0,224
-157,964	666,916	-0,008	0,016
-156,950	-200,000	-0,007	-0,102
-155,935	245,529	0,039	0,046
-154,920	496,221	0,072	0,119
-153,906	660,581	-0,034	0,062
-152,891	85,629	0,042	-0,032
-151,877	-97,412	-0,114	0,021
-150,862	-200,000	0,019	-0,122
-149,847	61,529	0,053	-0,037
-148,833	-200,000	0,029	-0,164
-147,818	749,029	-0,044	0,084
-146,804	128,935	0,064	0,058
-145,789	90,244	-0,058	0,046
-144,775	800,000	-0,053	0,107
-143,760	-200,000	0,038	-0,156
-142,745	-200,000	-0,007	-0,133
-141,731	47,491	0,015	-0,010
-140,716	-121,821	0,101	-0,012
-139,702	4,149	0,162	0,084
-138,687	542,354	0,045	0,077
-137,672	-200,000	-0,006	0,066
-136,658	101,984	0,038	0,031
-135,643	141,824	-0,126	-0,118
-134,629	-114,619	0,055	-0,007
-133,614	-45,427	0,146	0,051
-132,599	-21,145	-0,125	0,054
-131,585	-194,660	0,036	0,000
-130,570	-56,314	0,004	-0,001
-129,556	124,299	-0,086	-0,076
-128,541	280,492	0,058	-0,074
-127,526	117,720	-0,022	-0,019
-126,512	-170,308	-0,120	0,003
-125,497	586,705	-0,026	0,046
-124,483	-103,611	0,082	-0,013
-123,468	-20,691	-0,116	0,050
-122,453	317,084	-0,018	-0,024
-121,439	800,000	-0,039	0,091
-120,424	800,000	0,012	0,033
-119,410	800,000	0,045	0,100
-118,395	43,442	0,024	-0,015
-117,380	-200,000	-0,012	0,081
-116,366	198,232	0,089	0,096
-115,351	800,000	-0,056	-0,126
-114,337	-200,000	-0,003	-0,142
-113,322	-200,000	0,004	-0,029
-112,307	555,688	-0,029	-0,049
-111,293	-200,000	0,020	0,116
-110,278	16,961	-0,087	0,049
-109,264	-200,000	-0,016	0,112
-108,249	145,314	-0,070	-0,066
-107,234	393,912	-0,101	-0,149
-106,220	252,926	0,092	-0,111
-105,205	-187,497	-0,150	0,001
-104,191	-140,396	0,022	0,002
-103,176	-144,526	0,244	0,016
-102,162	-132,713	0,031	-0,003
-101,147	285,161	0,037	0,047
-100,132	792,194	-0,087	-0,169
-99,118	336,102	0,034	-0,046
-98,103	54,309	-0,089	0,061
-97,089	-200,000	0,019	0,103
-96,074	134,005	0,124	0,114
-95,059	686,358	0,009	-0,017
-94,045	296,030	0,111	-0,144
-93,030	60,835	-0,033	-0,023
-92,016	-200,000	-0,016	-0,054
-91,001	-78,057	0,026	-0,006
-89,986	-200,000	-0,001	-0,014
-88,972	130,960	0,057	0,052
-87,957	660,038	-0,031	-0,057
-86,943	-19,642	-0,142	-0,062
-85,928	-200,000	0,015	-0,200
-84,913	-200,000	-0,020	0,105
-83,899	-130,531	-0,151	0,014
-82,884	132,400	0,076	-0,070
-81,870	-55,420	-0,195	0,061
-80,855	6,579	0,108	-0,056
-79,840	-64,082	-0,056	-0,016
-78,826	756,774	-0,041	-0,080
-77,811	-67,019	0,118	-0,033
-76,797	-200,000	0,036	0,141
-75,782	-66,430	-0,060	0,017
-74,767	257,895	0,125	0,152
-73,753	-200,000	0,019	0,128
-72,738	55,777	0,060	-0,041
-71,724	-200,000	-0,016	-0,058
-70,709	744,980	0,024	-0,045
-69,694	-108,047	-0,101	-0,015
-68,680	-121,177	-0,052	-0,006
-67,665	-200,000	0,013	0,081
-66,651	-148,636	0,113	-0,006
-65,636	16,737	-0,125	0,070
-64,622	237,626	0,025	0,030
-63,607	800,000	0,033	-0,078
-62,592	-200,000	-0,013	-0,040
-61,578	-150,475	0,097	-0,005
-60,563	800,000	-0,011	0,025
-59,549	-200,000	-0,028	0,124
-58,534	7,665	-1,950	-1,028
-57,519	772,118	-1,063	-2,056
-56,505	-200,000	-0,379	-4,368
-55,490	326,516	1,049	1,423
-54,476	800,000	5,002	11,197
-53,461	-200,000	20,954	331,106
-52,446	800,000	758,049	2328,420
-51,432	550,781	1662,442	2827,122
-50,417	73,393	1663,753	1227,998
-49,403	18,570	1536,855	865,279
-48,388	12,530	1459,917	792,723
-47,373	19,067	1450,721	819,098
-46,359	15,769	1440,061	797,347
-45,344	10,815	1435,885	771,395
-44,330	10,773	1434,032	770,172
-43,315	10,751	1432,029	768,956
-42,300	10,786	1430,438	768,242
-41,286	10,780	1429,165	767,498
-40,271	10,754	1427,890	766,657
-39,257	10,747	1426,739	765,976
-38,242	10,777	1425,428	765,387
-37,227	10,784	1424,489	764,884
-36,213	10,791	1423,240	764,215
-35,198	10,790	1422,016	763,524
-34,184	10,814	1421,170	763,155
-33,169	10,778	1419,691	762,160
-32,154	10,804	1418,927	761,840
-31,140	10,878	1417,209	761,235
-30,125	10,867	1416,442	760,741
-29,111	10,835	1415,264	759,929
-28,096	10,800	1414,272	759,203
-27,082	10,770	1412,837	758,260
-26,067	10,797	1411,739	757,768
-25,052	10,812	1410,812	757,312
-24,038	10,786	1409,906	756,674
-23,023	10,768	1408,813	755,974
-22,009	10,749	1407,850	755,335
-20,994	10,743	1406,685	754,655
-19,979	10,766	1405,763	754,236
-18,965	10,748	1404,771	753,589
-17,950	10,720	1404,054	753,046
-16,936	10,727	1403,220	752,600
-15,921	10,605	1402,402	751,564
-14,906	10,654	1401,421	751,235
-13,892	10,723	1400,181	750,859
-12,877	10,694	1399,539	750,352
-11,863	10,682	1398,626	749,776
-10,848	10,612	1397,843	749,002
-9,833	10,605	1396,932	748,454
-8,819	10,578	1396,054	747,826
-7,804	10,581	1395,105	747,305
-6,790	10,533	1394,351	746,647
-5,775	10,582	1393,180	746,217
-4,760	10,609	1392,174	745,774
-3,746	10,595	1391,351	745,237
-2,731	10,555	1390,449	744,543
-1,717	10,510	1389,566	743,833
-0,702	10,505	1388,011	742,944
0,313	14,533	1301,403	715,047
1,327	30,681	692,425	417,165
2,342	47,592	120,062	78,872
3,356	1,956	16,418	8,331
4,371	4,852	3,367	1,741
5,386	37,065	0,915	0,570
6,400	-200,000	0,139	0,530
7,415	-107,937	-0,179	-0,027
8,429	-153,088	-0,333	-0,016
9,444	52,287	-0,218	-0,146
10,459	-18,912	-0,400	-0,175
11,473	290,779	-0,263	-0,337
12,488	124,867	-0,260	-0,231
13,502	-72,754	-0,306	-0,079
14,517	-133,980	-0,332	-0,029
15,531	180,978	-0,272	-0,282
16,546	88,664	-0,235	-0,184
17,561	82,473	-0,391	-0,299
18,575	-39,382	-0,165	0,061
19,590	5,851	-0,345	-0,179
20,604	-85,996	-0,371	-0,080
21,619	22,415	-0,437	-0,251
22,634	61,368	-0,346	-0,242
23,648	79,976	-0,465	-0,352
24,663	45,192	-0,482	-0,312
25,677	180,256	-0,315	-0,325
26,692	101,022	-0,321	-0,263
27,707	186,430	-0,276	-0,290
28,721	57,356	-0,414	-0,284
29,736	136,359	-0,349	-0,320
30,750	295,743	-0,277	-0,358
31,765	-5,416	-0,503	-0,242
32,780	-3,701	-0,451	-0,220
33,794	21,192	-0,342	-0,195
34,809	2,037	-0,284	-0,144
35,823	-52,723	-0,442	-0,143
36,838	34,117	-0,443	-0,271
37,853	96,442	-0,340	-0,274
38,867	258,358	-0,300	-0,364
39,882	176,659	-0,327	-0,335
40,896	0,784	-0,357	-0,179
41,911	15,697	-0,342	-0,188
42,926	93,505	-0,375	-0,298
43,940	153,582	-0,282	-0,272
44,955	138,033	-0,491	-0,453
45,969	119,902	-0,268	-0,233
46,984	177,153	-0,262	-0,268
47,999	111,531	-0,189	-0,160
49,013	60,076	-0,277	-0,192
50,028	-1,358	-0,337	-0,167
51,042	71,760	-0,394	-0,287
52,057	125,319	-0,293	-0,259
53,071	313,223	-0,226	-0,299
54,086	93,985	-0,348	-0,277
55,101	49,753	-0,373	-0,247
56,115	-49,751	-0,366	-0,121
57,130	-91,279	-0,432	-0,086
58,144	-19,503	-0,433	-0,188
59,159	55,046	-0,387	-0,262
60,174	167,582	-0,253	-0,253
61,188	124,921	-0,337	-0,298
62,203	16,930	-0,378	-0,209
63,217	138,724	-0,176	-0,162
64,232	-18,834	-0,375	-0,163
65,247	287,678	-0,268	-0,341
66,261	-13,211	-0,443	-0,201
67,276	49,167	-0,361	-0,238
68,290	160,559	-0,246	-0,241
69,305	-136,140	-0,283	-0,023
70,320	52,681	-0,223	-0,149
71,334	42,969	-0,411	-0,262
72,349	-58,863	-0,200	-0,060
73,363	34,807	-0,314	-0,192
74,378	92,339	-0,337	-0,266
75,393	-86,154	-0,324	-0,069
76,407	-87,949	-0,337	-0,071
77,422	-48,564	-0,376	-0,126
78,436	25,471	-0,353	-0,205
79,451	-50,210	-0,301	-0,099
80,466	-3,608	-0,431	-0,209
81,480	-65,146	-0,204	-0,057
82,495	205,291	-0,291	-0,317
83,509	-5,959	-0,190	-0,091
84,524	62,568	-0,226	-0,158
85,539	82,877	-0,249	-0,189
86,553	156,421	-0,219	-0,212
87,568	-26,655	-0,351	-0,143
88,582	148,797	-0,283	-0,268
89,597	74,579	-0,425	-0,313
90,611	-100,026	-0,256	-0,044
91,626	-110,887	-0,325	-0,046
92,641	-127,131	-0,219	-0,022
93,655	-55,880	-0,212	-0,066
94,670	21,447	-0,378	-0,215
95,684	63,031	-0,302	-0,211
96,699	29,494	-0,307	-0,182
97,714	87,791	-0,301	-0,233
98,728	40,272	-0,202	-0,127
99,743	-35,815	-0,266	-0,100
100,757	84,212	-0,261	-0,199
101,772	9,614	-0,232	-0,122
102,787	-17,940	-0,196	-0,086
103,801	77,334	-0,263	-0,195
104,816	4,238	-0,295	-0,151
105,830	-9,763	-0,281	-0,130
106,845	-36,703	-0,304	-0,113
107,860	110,027	-0,341	-0,286
108,874	139,198	-0,161	-0,148
109,889	83,092	-0,330	-0,250
110,903	97,940	-0,313	-0,252
111,918	800,000	-0,096	-0,279
112,933	23,777	-0,206	-0,119
113,947	800,000	-0,092	-0,181
114,962	87,314	-0,201	-0,155
115,976	206,591	-0,230	-0,250
116,991	85,400	-0,260	-0,199
118,006	37,370	-0,269	-0,166
119,020	537,405	-0,131	-0,219
120,035	47,394	-0,194	-0,126
121,049	318,822	-0,209	-0,278
122,064	-37,010	-0,192	-0,072
123,079	55,992	-0,306	-0,207
124,093	-35,270	-0,432	-0,163
125,108	203,945	-0,227	-0,246
126,122	800,000	-0,127	-0,257
127,137	767,294	-0,159	-0,302
128,151	-133,209	-0,411	-0,036
129,166	60,493	-0,342	-0,236
130,181	-200,000	-0,238	0,000
131,195	249,895	-0,174	-0,207
132,210	28,981	-0,342	-0,202
133,224	160,508	-0,179	-0,174
134,239	191,102	-0,245	-0,257
135,254	112,607	-0,275	-0,232
136,268	91,558	-0,207	-0,162
137,283	212,508	-0,186	-0,205
138,297	23,573	-0,309	-0,177
139,312	-51,485	-0,487	-0,158
140,327	70,323	-0,298	-0,215
141,341	-116,228	-0,146	0,019
142,356	95,631	-0,168	-0,133
143,370	321,357	-0,265	-0,352
144,385	293,587	-0,194	-0,247
145,400	-200,000	-0,322	-0,000
146,414	318,803	-0,165	-0,218
147,429	50,398	-0,285	-0,187
148,443	51,132	-0,264	-0,174
149,458	22,216	-0,267	-0,151
150,473	-39,734	-0,224	-0,081
151,487	-6,961	-0,255	-0,120
152,502	96,430	-0,265	-0,211
153,516	18,861	-0,271	-0,151
154,531	73,774	-0,270	-0,197
155,546	21,308	-0,229	-0,129
156,560	31,077	-0,186	-0,111
157,575	-20,605	-0,246	-0,105
158,589	224,655	-0,196	-0,221
159,604	-71,543	-0,406	-0,105
160,619	331,875	-0,159	-0,213
161,633	204,734	-0,226	-0,244
162,648	21,343	-0,136	-0,076
163,662	84,049	-0,239	-0,181
164,677	48,988	-0,307	-0,200
165,692	89,795	-0,144	-0,112
166,706	-24,691	-0,307	-0,126
167,721	91,559	-0,263	-0,206
168,735	19,491	-0,294	-0,164
169,750	-65,560	-0,257	-0,071
170,764	-48,156	-0,200	-0,067
171,779	-129,131	-0,180	-0,017
172,794	273,658	-0,139	-0,171
173,808	90,101	-0,288	-0,224
174,823	-19,229	-0,207	-0,089
175,837	109,376	-0,253	-0,211
176,852	0,733	-0,251	-0,125
177,867	303,712	-0,148	-0,191
178,881	-131,315	-0,154	0,014
179,896	166,475	-0,168	-0,165
180,910	87,371	-0,209	-0,161
181,925	54,775	-0,315	-0,211
182,940	156,591	-0,168	-0,161
183,954	140,264	-0,218	-0,200
184,969	119,906	-0,209	-0,180
185,983	-93,854	-0,264	-0,050
186,998	265,081	-0,146	-0,177
188,013	71,420	-0,183	-0,132
189,027	13,172	-0,225	-0,121
190,042	-54,196	-0,209	-0,066
191,056	-13,249	-0,208	-0,093
192,071	800,000	-0,073	-0,205
193,086	800,000	-0,111	-0,222
194,100	58,653	-0,154	-0,105
195,115	-64,877	-0,172	0,048
196,129	-14,341	-0,306	-0,136
197,144	332,945	-0,210	-0,283
198,159	109,966	-0,181	-0,150
199,173	28,055	-0,198	-0,116
200,188	254,535	-0,093	-0,110
201,202	10,002	-0,210	-0,110
202,217	-44,533	-0,246	-0,085
203,232	391,819	-0,169	-0,245
204,246	8,223	-0,239	-0,124
205,261	133,271	-0,260	-0,233
206,275	-13,353	-0,234	-0,105
207,290	112,156	-0,048	-0,040
208,304	164,269	-0,183	-0,179
209,319	266,614	-0,244	-0,296
210,334	-91,401	-0,189	-0,037
211,348	522,884	-0,145	-0,237
212,363	534,766	-0,137	-0,226
213,377	327,601	-0,070	-0,094
214,392	91,512	-0,168	-0,131
215,407	-15,294	-0,245	-0,108
216,421	-200,000	-0,061	-0,195
217,436	91,931	-0,119	-0,093
218,450	18,032	-0,289	-0,159
219,465	107,991	-0,296	-0,244
220,480	-17,672	-0,288	-0,125
221,494	681,264	-0,116	-0,210
222,509	53,329	-0,196	-0,130
223,523	21,580	-0,166	-0,093
224,538	113,486	-0,144	-0,121
225,553	106,279	-0,144	-0,118
226,567	800,000	-0,094	-0,214
227,582	168,253	-0,147	-0,145
228,596	53,386	-0,113	-0,075
229,611	165,191	-0,128	-0,125
230,626	800,000	-0,088	-0,193
231,640	94,734	-0,221	-0,174
232,655	21,265	-0,274	-0,153
233,669	128,965	-0,199	-0,175
234,684	-41,001	-0,170	-0,060
235,699	150,797	-0,160	-0,151
236,713	100,617	-0,149	-0,120
237,728	-200,000	0,005	-0,075
238,742	800,000	-0,036	-0,071
239,757	-36,492	-0,352	-0,130
240,772	189,938	-0,216	-0,225
241,786	800,000	-0,135	-0,272
242,801	365,994	-0,193	-0,270
243,815	230,037	-0,123	-0,140
244,830	155,238	-0,198	-0,188
245,844	215,924	-0,177	-0,195
246,859	198,344	-0,115	-0,122
247,874	-6,923	-0,161	-0,075
248,888	432,136	-0,153	-0,230
249,903	251,088	-0,178	-0,210
250,917	53,930	-0,170	-0,112
251,932	-81,816	-0,188	-0,042
252,947	148,625	-0,158	-0,147
253,961	-145,985	-0,228	0,014
254,976	-117,671	-0,199	0,024
255,990	-42,248	-0,325	-0,114
257,005	699,513	-0,047	-0,085
258,020	309,368	-0,033	-0,042
259,034	127,203	-0,152	-0,133
260,049	15,265	-0,232	-0,125
261,063	-120,338	-0,212	-0,025
262,078	94,652	-0,207	-0,163
263,093	-200,000	-0,039	-0,140
264,107	109,214	-0,087	-0,071
265,122	-82,952	-0,250	-0,055
266,136	305,300	-0,107	-0,137
267,151	-123,715	-0,125	-0,013
268,166	45,747	-0,284	-0,181
269,180	-0,909	-0,242	-0,118
270,195	639,757	-0,108	-0,189
271,209	115,634	-0,173	-0,146
272,224	93,833	-0,182	-0,142
273,239	68,776	-0,203	-0,144
274,253	75,597	-0,224	-0,163
275,268	-4,872	-0,220	-0,104
276,282	120,077	-0,201	-0,172
277,297	55,826	-0,196	-0,131
278,312	-154,436	-0,196	-0,009
279,326	48,580	-0,254	-0,163
280,341	126,238	-0,106	-0,092
281,355	8,015	-0,127	0,065
282,370	-1,422	-0,228	-0,111
283,384	124,759	-0,153	-0,132
284,399	59,883	-0,167	-0,113
285,414	290,066	-0,141	-0,176
286,428	-81,101	-0,273	-0,062
287,443	-6,150	-0,136	-0,064
288,457	611,412	-0,121	-0,209
289,472	-139,485	-0,189	0,014
290,487	239,047	-0,137	-0,156
291,501	-200,000	-0,076	-0,274
292,516	24,065	-0,252	-0,143
293,530	193,538	-0,114	-0,119
294,545	254,799	-0,068	-0,080
295,560	81,390	-0,206	-0,153
296,574	68,269	-0,163	-0,115
297,589	-103,452	-0,211	-0,034
298,603	171,712	-0,187	-0,185
299,618	113,199	-0,160	-0,133
300,633	272,329	-0,130	-0,158
301,647	538,857	-0,151	-0,248
302,662	11,961	-0,087	0,046
303,676	-33,244	-0,132	0,050
304,691	-30,882	-0,158	-0,061
305,706	7,688	-0,208	-0,106
306,720	-114,762	-0,238	-0,031
307,735	800,000	-0,078	-0,151
308,749	-200,000	-0,009	-0,157
309,764	-200,000	-0,010	-0,167
310,779	216,405	-0,107	-0,117
311,793	131,988	-0,171	-0,152
312,808	363,180	-0,094	-0,130
313,822	382,456	-0,158	-0,224
314,837	177,627	-0,078	-0,078
315,852	40,286	-0,129	-0,079
316,866	-200,000	-0,007	-0,036
317,881	337,603	-0,113	-0,151
318,895	52,255	-0,159	-0,104
319,910	800,000	-0,117	-0,338
320,925	255,265	-0,116	-0,137
321,939	-151,435	-0,127	0,006
322,954	25,124	-0,052	-0,029
323,968	-200,000	-0,032	-0,174
324,983	800,000	-0,074	-0,164
325,997	-76,815	-0,103	0,025
327,012	100,002	-0,155	-0,123
328,027	-58,059	-0,182	-0,054
329,041	-65,543	-0,121	-0,033
330,056	156,892	-0,108	-0,102
331,070	192,225	-0,171	-0,177
332,085	162,823	-0,135	-0,130
333,100	3,228	-0,113	-0,056
334,114	147,766	-0,226	-0,208
335,129	314,517	-0,125	-0,161
336,143	105,023	-0,165	-0,134
337,158	-55,991	-0,123	-0,037
338,173	800,000	-0,042	-0,096
339,187	-48,838	-0,169	-0,055
340,202	222,919	-0,106	-0,117
341,216	531,482	-0,159	-0,258
342,231	-200,000	-0,005	-0,256
343,246	-97,532	-0,139	-0,025
344,260	-172,627	-0,071	-0,002
345,275	60,210	-0,043	-0,029
346,289	-163,645	-0,096	0,003
347,304	487,197	0,037	-0,058
348,319	61,928	-0,090	-0,062
349,333	-200,000	-0,038	-0,181
350,348	150,578	-0,079	0,074
351,362	800,000	-0,070	-0,204
352,377	255,847	-0,028	-0,033
353,392	142,683	-0,093	-0,085
354,406	-0,968	-0,179	-0,086
355,421	206,382	1313,200	1400,175
356,435	158,716	1473,726	1400,651
