DTS Sentinel unit serial number:	SN410029Multiplexer serial number:	ORYXHardware model number:	OX2-SRSoftware version number:	ORYX F/W v4,00 Oryx Data Collector v3.7.2.0data status	okinstallation	B3 Nyhavnadifferential loss correction	single-endedforward channel	channel 1reverse channel	N/Adate	2023/12/02time	17:32:30forward acquisition time	300,00reverse acquisition time	0,00gamma	499,1914k internal	0,3199k external	0,3199temperature offset calibration	1,0000default loss term (dB/km)	0,3820temperature slope calibration	1,0000multiplexer offset coefficient	1,0000multiplexer slope coefficient	1,0000fibre end	0,00T internal ref (°C)	13,81T ext. ref 1 (°C)	-1,58T ext. ref 2 (°C)	-1,59length (m)	temperature (°C)	Stokes	anti-Stokes-744,400	55,068	-0,256	-0,180
-743,385	-200,000	-0,019	0,237
-742,371	485,538	-0,108	-0,180
-741,356	-200,000	-0,007	0,287
-740,342	303,237	-0,236	-0,319
-739,327	800,000	-0,121	0,276
-738,312	14,765	-0,220	-0,125
-737,298	-200,000	-0,028	0,215
-736,283	800,000	-0,165	-0,340
-735,269	-200,000	-0,041	0,268
-734,254	53,096	-0,206	-0,143
-733,239	-64,450	-0,204	0,060
-732,225	-200,000	-0,043	-0,142
-731,210	-200,000	-0,004	0,230
-730,196	410,773	-0,049	-0,076
-729,181	714,649	-0,050	-0,098
-728,167	340,811	-0,100	-0,142
-727,152	40,678	0,097	0,064
-726,137	-200,000	-0,001	-0,090
-725,123	-200,000	0,011	-0,138
-724,108	79,573	-0,100	-0,078
-723,094	-93,198	-0,114	-0,023
-722,079	-95,543	-0,090	-0,017
-721,064	-200,000	0,024	-0,132
-720,050	240,008	0,050	0,061
-719,035	456,937	-0,019	-0,030
-718,021	-75,444	-0,164	0,042
-717,006	-149,031	-0,159	0,009
-715,991	1,386	-0,114	0,059
-714,977	-53,094	-0,029	-0,010
-713,962	-101,167	-0,036	-0,006
-712,948	-82,365	0,122	0,029
-711,933	-120,027	-0,162	-0,020
-710,918	-157,222	-0,092	0,004
-709,904	74,332	-0,022	0,017
-708,889	800,000	0,024	-0,065
-707,875	70,087	-0,097	-0,073
-706,860	65,785	-0,063	-0,046
-705,845	-126,787	0,231	-0,024
-704,831	800,000	-0,010	0,025
-703,816	-59,031	-0,030	0,009
-702,802	-200,000	0,007	0,000
-701,787	57,295	-0,098	-0,069
-700,772	-48,148	0,060	-0,021
-699,758	800,000	0,020	-0,049
-698,743	72,677	-0,090	0,068
-697,729	-200,000	0,001	0,063
-696,714	-57,637	0,062	0,020
-695,699	152,410	0,076	0,076
-694,685	-200,000	-0,007	-0,162
-693,670	38,195	-0,152	-0,098
-692,656	650,279	-0,071	-0,133
-691,641	-200,000	0,014	0,068
-690,627	-41,051	0,095	0,035
-689,612	-90,888	-0,129	-0,027
-688,597	395,404	-0,013	0,020
-687,583	249,842	-0,047	-0,058
-686,568	80,794	-0,209	-0,164
-685,554	-200,000	0,009	0,043
-684,539	-200,000	-0,003	0,129
-683,524	619,377	0,059	0,109
-682,510	2,206	0,156	0,082
-681,495	800,000	0,017	-0,048
-680,481	800,000	-0,042	0,130
-679,466	-200,000	-0,025	0,088
-678,451	-35,622	-0,162	-0,064
-677,437	91,045	-0,039	0,032
-676,422	118,285	0,084	0,075
-675,408	-92,946	-0,090	0,018
-674,393	800,000	0,026	-0,072
-673,378	255,753	-0,046	-0,057
-672,364	-200,000	0,003	0,039
-671,349	800,000	-0,010	-0,029
-670,335	-45,557	-0,169	-0,060
-669,320	-200,000	0,033	-0,161
-668,305	-200,000	-0,008	-0,072
-667,291	381,829	-0,076	0,114
-666,276	117,577	-0,121	-0,108
-665,262	-60,606	-0,068	0,021
-664,247	115,002	0,092	-0,082
-663,232	-200,000	0,015	0,065
-662,218	800,000	0,063	0,134
-661,203	273,950	0,063	0,080
-660,189	800,000	-0,072	-0,183
-659,174	526,491	0,085	-0,146
-658,159	-200,000	-0,010	-0,043
-657,145	-52,693	-0,125	0,042
-656,130	170,217	-0,036	0,037
-655,116	-155,205	0,029	-0,001
-654,101	800,000	0,050	-0,151
-653,086	379,187	0,059	-0,088
-652,072	419,325	-0,040	-0,062
-651,057	-183,070	-0,144	0,002
-650,043	605,627	0,053	0,097
-649,028	-75,366	-0,058	-0,015
-648,014	-138,165	0,131	-0,010
-646,999	-47,127	0,145	-0,051
-645,984	107,318	-0,095	-0,082
-644,970	49,677	0,024	-0,016
-643,955	-200,000	0,021	-0,177
-642,941	-49,845	-0,180	0,062
-641,926	179,044	-0,040	-0,043
-640,911	236,459	0,119	-0,143
-639,897	45,212	-0,055	0,036
-638,882	291,059	-0,071	0,094
-637,868	11,496	-0,072	-0,040
-636,853	-200,000	-0,002	-0,044
-635,838	-200,000	-0,007	-0,067
-634,824	100,786	-0,120	-0,101
-633,809	800,000	-0,023	-0,070
-632,795	-200,000	0,026	0,092
-631,780	55,621	-0,096	0,068
-630,765	800,000	-0,003	0,008
-629,751	198,271	0,050	-0,056
-628,736	-86,896	-0,162	-0,035
-627,722	-200,000	-0,021	0,080
-626,707	-200,000	-0,016	0,134
-625,692	800,000	-0,034	0,083
-624,678	224,363	0,078	0,091
-623,663	800,000	0,010	0,021
-622,649	208,655	-0,052	0,059
-621,634	-200,000	-0,005	0,061
-620,619	-110,098	-0,107	0,016
-619,605	184,919	0,033	0,035
-618,590	-53,975	0,059	0,019
-617,576	-62,967	-0,058	-0,017
-616,561	-165,878	-0,129	-0,004
-615,546	-200,000	-0,062	-0,234
-614,532	-200,000	0,050	-0,161
-613,517	77,163	-0,036	-0,027
-612,503	-37,823	0,092	0,035
-611,488	-200,000	0,016	0,183
-610,474	-112,127	-0,151	-0,022
-609,459	-77,696	-0,173	-0,043
-608,444	126,935	0,086	-0,079
-607,430	140,665	-0,092	-0,088
-606,415	800,000	0,052	0,126
-605,401	560,764	-0,023	0,040
-604,386	-59,469	-0,018	-0,006
-603,371	-200,000	0,012	-0,040
-602,357	800,000	-0,057	0,165
-601,342	-155,480	-0,094	0,004
-600,328	-19,755	0,103	0,046
-599,313	800,000	-0,058	0,124
-598,298	194,700	-0,087	-0,096
-597,284	-200,000	0,001	0,095
-596,269	2,016	-0,009	0,005
-595,255	779,184	0,072	0,144
-594,240	800,000	-0,023	-0,067
-593,225	549,358	0,026	-0,046
-592,211	-200,000	-0,002	-0,110
-591,196	-200,000	-0,007	-0,055
-590,182	-126,109	0,151	0,016
-589,167	-200,000	-0,013	-0,041
-588,152	348,948	-0,043	-0,062
-587,138	-92,223	-0,066	-0,013
-586,123	800,000	-0,005	0,014
-585,109	161,443	-0,051	-0,052
-584,094	800,000	0,023	-0,058
-583,079	-60,218	0,120	-0,037
-582,065	-22,655	0,066	0,029
-581,050	800,000	-0,009	0,018
-580,036	-200,000	0,034	-0,124
-579,021	18,120	-0,088	-0,051
-578,006	104,022	-0,010	0,008
-576,992	-99,275	-0,139	-0,025
-575,977	-79,561	0,135	-0,033
-574,963	257,466	0,082	0,102
-573,948	-200,000	-0,018	0,091
-572,934	-2,079	-0,112	0,057
-571,919	4,870	-0,127	-0,067
-570,904	-200,000	-0,006	-0,050
-569,890	800,000	0,044	-0,133
-568,875	-200,000	0,016	0,090
-567,861	-200,000	0,016	0,066
-566,846	-81,270	0,077	0,018
-565,831	158,076	0,104	0,104
-564,817	-39,821	-0,043	-0,016
-563,802	277,349	0,022	0,029
-562,788	53,444	0,054	0,037
-561,773	-63,341	-0,146	0,043
-560,758	-94,750	0,185	0,036
-559,744	795,105	0,049	0,098
-558,729	44,248	0,030	0,020
-557,715	8,146	-0,073	0,039
-556,700	-200,000	0,005	-0,184
-555,685	1,145	-0,090	0,047
-554,671	35,982	0,138	-0,087
-553,656	22,772	0,053	0,031
-552,642	-2,289	0,204	-0,103
-551,627	-64,830	-0,091	0,026
-550,612	-200,000	0,000	0,127
-549,598	177,413	-0,039	-0,041
-548,583	671,863	0,020	-0,037
-547,569	-200,000	0,026	-0,185
-546,554	496,967	0,071	0,119
-545,539	157,674	-0,073	0,073
-544,525	-168,646	0,117	-0,003
-543,510	194,209	-0,026	-0,029
-542,496	63,302	-0,066	-0,048
-541,481	-178,564	-0,111	0,002
-540,466	499,125	0,040	0,067
-539,452	-200,000	-0,015	-0,051
-538,437	-200,000	0,016	0,114
-537,423	246,759	0,055	0,067
-536,408	-33,614	-0,060	0,024
-535,393	-200,000	-0,017	-0,066
-534,379	244,634	-0,064	-0,078
-533,364	800,000	-0,032	-0,079
-532,350	1,327	0,092	-0,048
-531,335	-200,000	-0,014	0,050
-530,321	-159,970	0,036	0,001
-529,306	722,243	-0,041	0,079
-528,291	-141,651	-0,029	0,002
-527,277	-200,000	0,022	-0,105
-526,262	134,044	-0,098	0,092
-525,248	515,657	0,045	-0,077
-524,233	120,458	0,116	-0,104
-523,218	-6,496	0,197	-0,096
-522,204	-200,000	0,016	0,103
-521,189	-99,677	-0,094	-0,017
-520,175	268,450	0,106	-0,135
-519,160	800,000	0,025	0,050
-518,145	-111,642	-0,048	-0,007
-517,131	-200,000	-0,003	0,070
-516,116	-31,443	0,092	-0,037
-515,102	800,000	0,033	-0,072
-514,087	-200,000	-0,016	-0,111
-513,072	-100,814	-0,086	-0,015
-512,058	115,665	-0,024	0,021
-511,043	26,277	-0,045	-0,027
-510,029	208,066	0,041	-0,047
-509,014	143,772	0,145	-0,140
-507,999	-200,000	-0,015	0,067
-506,985	-61,712	0,133	-0,040
-505,970	-101,701	-0,044	0,008
-504,956	800,000	-0,074	-0,180
-503,941	507,178	0,041	-0,069
-502,926	67,172	0,070	-0,051
-501,912	800,000	-0,047	0,094
-500,897	142,807	0,087	0,083
-499,883	27,170	-0,116	-0,070
-498,868	-73,900	-0,117	0,030
-497,853	-50,809	-0,046	0,016
-496,839	173,824	0,040	-0,041
-495,824	-93,001	-0,006	0,001
-494,810	4,621	-0,089	0,047
-493,795	-100,268	-0,056	-0,010
-492,781	-200,000	-0,007	0,033
-491,766	-70,660	-0,085	-0,023
-490,751	-85,691	-0,038	0,008
-489,737	800,000	0,038	-0,080
-488,722	311,839	-0,041	0,055
-487,708	-185,986	0,104	0,001
-486,693	550,821	0,060	-0,104
-485,678	302,171	-0,066	0,088
-484,664	800,000	-0,059	-0,159
-483,649	543,626	-0,052	-0,089
-482,635	105,594	0,107	-0,091
-481,620	114,560	0,101	-0,089
-480,605	-200,000	-0,010	0,050
-479,591	-200,000	0,035	0,128
-478,576	-169,426	0,102	-0,003
-477,562	800,000	-0,018	-0,037
-476,547	-200,000	0,042	-0,161
-475,532	65,200	-0,023	-0,016
-474,518	675,688	-0,053	0,100
-473,503	-123,371	-0,129	0,015
-472,489	-200,000	-0,004	0,078
-471,474	3,807	-0,029	0,015
-470,459	117,951	-0,044	0,039
-469,445	800,000	-0,052	-0,110
-468,430	-181,020	-0,151	0,002
-467,416	274,342	0,123	0,158
-466,401	325,453	-0,092	0,127
-465,386	180,102	0,023	0,024
-464,372	-22,190	-0,146	0,063
-463,357	-74,250	0,094	-0,024
-462,343	-30,072	0,055	0,022
-461,328	-67,978	-0,093	-0,026
-460,313	-200,000	0,014	0,075
-459,299	-200,000	-0,025	0,136
-458,284	287,010	0,084	0,110
-457,270	276,458	0,066	0,085
-456,255	800,000	-0,035	-0,082
-455,241	261,761	0,051	-0,064
-454,226	-68,212	-0,156	-0,043
-453,211	116,403	0,078	0,069
-452,197	164,561	0,046	0,047
-451,182	-23,497	0,106	0,046
-450,168	247,132	0,101	0,123
-449,153	-73,596	-0,075	0,020
-448,138	382,436	-0,096	-0,143
-447,124	-122,720	-0,163	-0,019
-446,109	328,773	0,048	-0,066
-445,095	-200,000	0,002	0,065
-444,080	-200,000	0,210	0,000
-443,065	-200,000	0,022	0,078
-442,051	800,000	-0,062	-0,153
-441,036	-200,000	-0,035	-0,125
-440,022	19,274	-0,169	0,097
-439,007	212,071	0,073	0,083
-437,992	-66,251	0,097	0,028
-436,978	169,453	-0,065	0,067
-435,963	800,000	0,015	-0,040
-434,949	-148,280	-0,161	0,009
-433,934	625,159	0,070	-0,127
-432,919	15,036	-0,135	-0,076
-431,905	-37,929	0,111	-0,042
-430,890	60,656	0,071	-0,050
-429,876	-118,602	0,180	-0,023
-428,861	66,897	0,095	0,070
-427,846	134,229	0,132	0,123
-426,832	227,414	0,037	-0,043
-425,817	-134,954	-0,020	0,002
-424,803	389,970	0,041	-0,061
-423,788	63,387	0,088	0,064
-422,773	365,560	0,098	0,142
-421,759	298,223	-0,071	0,094
-420,744	800,000	-0,032	-0,084
-419,730	-200,000	-0,025	-0,106
-418,715	-94,953	-0,159	-0,031
-417,701	-25,496	-0,067	0,028
-416,686	400,603	-0,038	0,058
-415,671	-200,000	0,007	0,064
-414,657	53,899	0,100	-0,069
-413,642	-1,514	-0,039	-0,020
-412,628	6,873	0,143	-0,077
-411,613	85,037	-0,139	-0,110
-410,598	-165,192	-0,087	0,003
-409,584	-20,426	0,097	0,043
-408,569	169,694	0,067	0,069
-407,555	800,000	0,053	0,113
-406,540	-10,750	0,050	0,024
-405,525	-65,285	-0,077	0,022
-404,511	-109,785	-0,047	0,007
-403,496	-134,491	0,047	0,004
-402,482	18,779	0,040	-0,023
-401,467	75,868	0,050	0,038
-400,452	27,688	0,081	-0,049
-399,438	-2,147	0,030	0,015
-398,423	91,948	-0,085	-0,069
-397,409	-68,884	0,107	0,029
-396,394	58,951	0,104	-0,073
-395,379	-101,486	0,073	-0,013
-394,365	-159,740	0,097	0,004
-393,350	-81,728	-0,029	0,007
-392,336	-200,000	-0,031	0,144
-391,321	-119,763	0,166	0,020
-390,306	-200,000	0,027	-0,088
-389,292	-31,796	-0,053	-0,021
-388,277	336,149	-0,035	-0,049
-387,263	-120,558	0,064	-0,008
-386,248	195,107	-0,021	-0,023
-385,233	-82,924	0,118	-0,027
-384,219	-117,228	-0,166	0,021
-383,204	568,975	-0,069	-0,120
-382,190	-88,574	-0,032	0,007
-381,175	285,698	-0,027	0,035
-380,160	-200,000	0,001	0,085
-379,146	800,000	0,003	0,008
-378,131	-200,000	-0,008	0,056
-377,117	-98,063	0,045	-0,008
-376,102	-20,237	-0,146	-0,064
-375,088	431,340	-0,098	-0,152
-374,073	77,590	-0,117	-0,089
-373,058	-28,612	0,185	0,076
-372,044	-101,275	0,110	0,019
-371,029	-81,744	-0,052	-0,012
-370,015	488,171	-0,032	-0,052
-369,000	23,742	-0,067	0,039
-367,985	-2,959	-0,062	-0,031
-366,971	-15,213	-0,090	0,041
-365,956	-75,186	0,043	0,011
-364,942	-104,283	-0,084	-0,014
-363,927	56,341	-0,050	-0,035
-362,912	-200,000	0,010	-0,072
-361,898	-165,685	-0,110	0,003
-360,883	-85,911	-0,030	-0,007
-359,869	149,608	-0,042	-0,041
-358,854	434,301	-0,039	0,060
-357,839	800,000	0,031	-0,067
-356,825	225,215	-0,083	0,097
-355,810	68,056	0,029	-0,022
-354,796	108,064	-0,106	0,090
-353,781	-59,618	0,098	-0,030
-352,766	-143,518	-0,135	-0,009
-351,752	-160,911	0,058	0,002
-350,737	92,778	0,048	-0,039
-349,723	-200,000	-0,019	-0,074
-348,708	-200,000	0,000	0,006
-347,693	134,379	0,025	0,023
-346,679	549,070	-0,020	-0,034
-345,664	-51,173	0,010	-0,003
-344,650	101,913	0,050	0,042
-343,635	-21,918	0,161	-0,070
-342,620	425,527	-0,059	0,092
-341,606	540,106	-0,034	-0,058
-340,591	185,381	-0,042	-0,045
-339,577	-52,244	-0,047	0,016
-338,562	172,650	-0,068	-0,070
-337,548	407,468	0,032	-0,048
-336,533	479,752	0,080	-0,130
-335,518	8,102	0,071	-0,038
-334,504	-43,911	-0,104	0,037
-333,489	-200,000	0,053	-0,183
-332,475	85,896	-0,078	0,062
-331,460	-100,286	0,175	-0,031
-330,445	18,414	0,043	0,025
-329,431	-200,000	0,006	-0,027
-328,416	800,000	-0,067	0,184
-327,402	29,579	-0,110	0,067
-326,387	800,000	-0,059	0,129
-325,372	-84,772	0,071	0,016
-324,358	800,000	-0,054	-0,127
-323,343	-200,000	0,004	-0,097
-322,329	-200,000	0,004	-0,038
-321,314	447,292	0,023	0,037
-320,299	-200,000	0,007	0,093
-319,285	286,656	-0,065	0,085
-318,270	155,792	-0,039	-0,039
-317,256	433,829	0,083	-0,130
-316,241	-200,000	-0,015	0,116
-315,226	-116,000	0,120	-0,016
-314,212	252,288	-0,097	0,119
-313,197	-22,301	-0,069	-0,030
-312,183	62,443	-0,042	-0,030
-311,168	-200,000	0,003	-0,194
-310,153	-91,440	0,065	-0,013
-309,139	-64,736	0,029	-0,008
-308,124	778,808	-0,024	-0,048
-307,110	800,000	0,014	-0,032
-306,095	-200,000	-0,014	0,059
-305,080	-58,991	0,123	-0,038
-304,066	-200,000	0,018	0,067
-303,051	-175,981	0,017	0,000
-302,037	800,000	0,041	-0,098
-301,022	-75,390	-0,078	0,020
-300,008	143,524	-0,065	0,062
-298,993	351,125	0,101	0,143
-297,978	-200,000	-0,001	0,132
-296,964	73,840	0,025	-0,019
-295,949	798,859	-0,029	-0,057
-294,935	165,196	-0,136	-0,138
-293,920	176,752	0,046	-0,048
-292,905	800,000	0,040	0,089
-291,891	33,350	0,054	0,033
-290,876	-200,000	-0,001	-0,032
-289,862	-200,000	-0,002	0,011
-288,847	-0,606	-0,144	0,073
-287,832	-88,277	0,065	-0,014
-286,818	719,744	-0,014	-0,027
-285,803	150,740	-0,029	0,028
-284,789	-32,504	0,092	-0,037
-283,774	800,000	-0,031	0,070
-282,759	58,674	-0,094	-0,066
-281,745	205,583	-0,092	-0,103
-280,730	61,958	-0,091	0,065
-279,716	561,348	-0,103	-0,179
-278,701	-200,000	0,002	-0,026
-277,686	88,612	0,105	0,083
-276,672	42,132	0,063	-0,040
-275,657	281,277	-0,093	-0,119
-274,643	-200,000	0,009	-0,099
-273,628	649,188	0,056	-0,104
-272,613	554,091	-0,035	0,060
-271,599	3,889	0,075	0,039
-270,584	224,002	0,044	0,051
-269,570	-200,000	0,011	0,048
-268,555	78,941	0,113	0,086
-267,540	-200,000	-0,008	-0,059
-266,526	317,975	-0,032	-0,044
-265,511	257,046	-0,091	-0,112
-264,497	-105,240	-0,077	-0,012
-263,482	-185,839	0,107	-0,001
-262,467	167,033	0,030	0,030
-261,453	378,627	-0,029	-0,043
-260,438	523,535	-0,023	-0,039
-259,424	-200,000	-0,006	0,120
-258,409	-93,046	-0,062	-0,012
-257,395	-76,486	0,126	0,031
-256,380	-200,000	-0,006	0,082
-255,365	174,101	-0,048	0,050
-254,351	68,253	0,107	-0,078
-253,336	119,063	0,015	0,013
-252,322	-200,000	-0,002	0,006
-251,307	-200,000	0,024	-0,117
-250,292	-61,795	0,068	-0,020
-249,278	-144,957	0,144	0,009
-248,263	-50,238	0,074	0,025
-247,249	52,150	0,043	-0,029
-246,234	-79,494	-0,010	-0,002
-245,219	-128,054	-0,115	0,012
-244,205	34,770	-0,058	-0,036
-243,190	-10,960	0,035	0,016
-242,176	800,000	0,013	0,030
-241,161	800,000	0,064	0,179
-240,146	184,388	0,078	0,082
-239,132	-200,000	0,006	0,037
-238,117	-19,943	-0,056	0,024
-237,103	800,000	0,011	0,033
-236,088	321,787	0,088	0,119
-235,073	523,781	0,076	0,128
-234,059	108,949	0,032	-0,027
-233,044	-79,892	0,163	-0,039
-232,030	335,478	-0,070	-0,098
-231,015	63,880	0,044	-0,032
-230,000	15,712	0,116	-0,065
-228,986	-29,614	-0,134	0,054
-227,971	-164,516	0,109	0,003
-226,957	800,000	0,058	0,130
-225,942	-115,803	0,079	0,010
-224,927	-60,391	-0,103	0,031
-223,913	-200,000	0,003	-0,023
-222,898	-104,553	0,039	0,006
-221,884	-52,763	-0,106	-0,035
-220,869	-29,925	-0,047	-0,019
-219,855	-58,749	0,120	0,037
-218,840	72,206	0,040	0,030
-217,825	-200,000	0,126	0,000
-216,811	5,948	0,136	0,072
-215,796	103,062	-0,115	0,096
-214,782	800,000	0,018	-0,044
-213,767	-200,000	0,016	0,067
-212,752	-200,000	0,030	0,132
-211,738	335,028	0,077	0,106
-210,723	223,278	-0,079	-0,091
-209,709	-87,246	-0,029	0,006
-208,694	800,000	0,028	-0,069
-207,679	-59,841	-0,057	-0,017
-206,665	-200,000	-0,035	0,118
-205,650	206,876	0,043	0,048
-204,636	77,812	-0,045	0,034
-203,621	-143,114	-0,045	-0,003
-202,606	263,630	-0,030	0,037
-201,592	-200,000	-0,004	-0,014
-200,577	-200,000	-0,005	-0,024
-199,563	193,151	-0,063	0,068
-198,548	9,181	-0,042	-0,022
-197,533	800,000	0,027	0,084
-196,519	800,000	0,023	-0,047
-195,504	758,484	-0,011	-0,021
-194,490	-29,156	0,081	0,033
-193,475	-200,000	0,007	-0,089
-192,460	157,034	0,042	-0,041
-191,446	-98,858	0,021	0,004
-190,431	800,000	-0,034	-0,076
-189,417	-200,000	-0,028	0,115
-188,402	-53,209	0,082	-0,027
-187,387	-126,562	-0,156	-0,016
-186,373	-63,508	-0,066	-0,019
-185,358	-200,000	-0,008	0,081
-184,344	-200,000	-0,014	-0,081
-183,329	76,833	0,116	0,088
-182,315	800,000	0,065	0,133
-181,300	279,695	-0,048	0,062
-180,285	-109,874	-0,096	0,014
-179,271	-200,000	0,011	0,200
-178,256	800,000	-0,040	0,093
-177,242	-56,676	-0,084	0,026
-176,227	-7,296	0,102	-0,049
-175,212	800,000	-0,074	0,149
-174,198	22,255	0,090	0,052
-173,183	-79,758	-0,216	0,051
-172,169	-200,000	-0,012	-0,090
-171,154	-200,000	-0,002	0,075
-170,139	-79,497	0,119	0,028
-169,125	-200,000	-0,044	0,166
-168,110	800,000	-0,032	0,081
-167,096	82,606	-0,054	0,042
-166,081	696,733	-0,024	-0,044
-165,066	-84,627	-0,070	-0,016
-164,052	-200,000	-0,016	-0,212
-163,037	-100,727	0,053	0,009
-162,023	198,662	0,021	-0,023
-161,008	800,000	0,040	0,103
-159,993	-200,000	0,004	-0,159
-158,979	-83,473	-0,131	-0,030
-157,964	-200,000	-0,022	-0,078
-156,950	-200,000	0,001	0,035
-155,935	569,268	0,085	0,148
-154,920	800,000	0,054	-0,149
-153,906	576,215	-0,031	-0,054
-152,891	-66,612	0,062	-0,017
-151,877	-200,000	0,012	-0,099
-150,862	84,523	0,034	-0,027
-149,847	67,619	0,054	-0,039
-148,833	-200,000	0,019	0,075
-147,818	410,644	-0,023	-0,035
-146,804	125,364	0,107	0,096
-145,789	505,830	-0,015	-0,025
-144,775	302,005	0,070	0,092
-143,760	-10,945	-0,079	-0,037
-142,745	310,658	-0,022	-0,029
-141,731	767,405	-0,054	0,104
-140,716	-200,000	0,001	-0,114
-139,702	38,106	0,096	0,061
-138,687	-160,075	0,077	-0,003
-137,672	-200,000	0,001	-0,051
-136,658	-17,767	-0,117	0,052
-135,643	-26,366	-0,105	0,043
-134,629	-200,000	-0,026	-0,093
-133,614	-73,069	0,165	-0,043
-132,599	800,000	0,016	0,036
-131,585	22,561	0,087	-0,050
-130,570	70,906	-0,022	-0,016
-129,556	-90,998	-0,108	0,022
-128,541	454,602	-0,036	-0,056
-127,526	-110,262	0,132	-0,019
-126,512	-83,129	-0,010	0,002
-125,497	-63,960	-0,065	0,019
-124,483	3,616	-0,085	-0,044
-123,468	-200,000	-0,022	-0,078
-122,453	-200,000	-0,026	-0,093
-121,439	24,641	0,119	-0,070
-120,424	800,000	-0,048	-0,101
-119,410	800,000	-0,016	0,050
-118,395	-68,895	0,132	-0,036
-117,380	-1,178	0,077	0,039
-116,366	-200,000	0,020	0,075
-115,351	800,000	-0,012	-0,036
-114,337	-200,000	-0,010	0,041
-113,322	-81,418	0,100	-0,023
-112,307	-200,000	-0,022	-0,177
-111,293	-200,000	-0,005	0,097
-110,278	165,250	0,028	0,028
-109,264	-78,841	-0,109	-0,026
-108,249	-200,000	-0,000	0,074
-107,234	-200,000	-0,017	-0,128
-106,220	800,000	0,017	-0,041
-105,205	-95,864	-0,055	-0,010
-104,191	328,450	0,087	0,119
-103,176	-200,000	-0,003	0,081
-102,162	800,000	0,028	0,081
-101,147	-11,033	-0,104	-0,049
-100,132	99,469	-0,080	0,065
-99,118	-72,026	0,146	-0,038
-98,103	326,741	-0,046	0,063
-97,089	60,189	0,078	0,055
-96,074	11,074	-0,017	0,009
-95,059	375,922	0,041	0,060
-94,045	-200,000	-0,013	0,111
-93,030	800,000	0,027	-0,053
-92,016	-200,000	-0,006	-0,034
-91,001	-200,000	0,013	0,057
-89,986	-73,056	0,090	-0,023
-88,972	-49,013	0,090	0,030
-87,957	-200,000	-0,026	-0,102
-86,943	800,000	0,027	-0,063
-85,928	800,000	-0,026	-0,060
-84,913	-200,000	-0,050	-0,199
-83,899	108,848	0,011	0,010
-82,884	267,500	0,084	0,104
-81,870	-200,000	0,055	0,173
-80,855	-144,392	0,060	-0,004
-79,840	-200,000	-0,040	0,149
-78,826	54,122	0,010	-0,007
-77,811	-200,000	0,017	-0,118
-76,797	461,553	0,058	-0,092
-75,782	-200,000	0,017	0,086
-74,767	80,019	0,013	-0,010
-73,753	-200,000	0,020	0,068
-72,738	8,089	-0,062	0,033
-71,724	373,508	-0,104	-0,150
-70,709	185,098	-0,146	0,154
-69,694	-200,000	0,000	-0,030
-68,680	-200,000	-0,002	-0,125
-67,665	800,000	0,015	0,043
-66,651	23,245	0,059	0,034
-65,636	-200,000	-0,014	-0,079
-64,622	272,625	-0,050	-0,063
-63,607	-71,606	-0,176	-0,046
-62,592	-200,000	-0,012	-0,074
-61,578	5,299	-0,069	0,036
-60,563	-47,326	0,059	-0,020
-59,549	0,875	-0,080	-0,041
-58,534	-16,794	-1,559	-0,696
-57,519	358,263	-1,417	-2,011
-56,505	-200,000	-0,549	-4,609
-55,490	297,159	0,750	0,978
-54,476	800,000	4,956	11,326
-53,461	-200,000	18,978	313,102
-52,446	-200,000	739,694	2323,454
-51,432	573,699	1655,432	2871,654
-50,417	78,875	1670,676	1265,451
-49,403	21,772	1543,485	888,372
-48,388	15,666	1466,053	814,114
-47,373	17,891	1455,877	819,182
-46,359	16,799	1446,160	808,445
-45,344	13,960	1441,531	792,221
-44,330	13,836	1439,611	790,542
-43,315	13,878	1437,886	789,762
-42,300	13,908	1436,179	788,936
-41,286	13,922	1434,924	788,284
-40,271	13,886	1433,708	787,415
-39,257	13,819	1432,466	786,379
-38,242	13,921	1431,067	786,069
-37,227	13,920	1429,918	785,399
-36,213	13,919	1428,635	784,658
-35,198	13,903	1427,472	783,914
-34,184	13,955	1426,444	783,563
-33,169	13,913	1425,066	782,579
-32,154	13,922	1424,260	782,146
-31,140	13,879	1422,869	781,148
-30,125	13,943	1421,768	780,815
-29,111	13,938	1420,589	780,113
-28,096	13,922	1419,417	779,361
-27,082	13,824	1418,503	778,369
-26,067	13,857	1417,255	777,808
-25,052	13,845	1416,503	777,308
-24,038	13,812	1415,215	776,416
-23,023	13,824	1414,104	775,831
-22,009	13,819	1413,311	775,342
-20,994	13,775	1412,586	774,705
-19,979	13,825	1411,486	774,305
-18,965	13,766	1410,546	773,486
-17,950	13,780	1409,585	772,990
-16,936	13,759	1408,573	772,310
-15,921	13,776	1407,388	771,707
-14,906	13,728	1406,805	771,131
-13,892	13,748	1405,632	770,549
-12,877	13,803	1404,729	770,282
-11,863	13,745	1404,017	769,592
-10,848	13,737	1403,003	768,967
-9,833	13,769	1402,012	768,544
-8,819	13,659	1401,567	767,757
-7,804	13,650	1400,491	767,095
-6,790	13,659	1399,306	766,456
-5,775	13,646	1398,412	765,877
-4,760	13,616	1397,425	765,168
-3,746	13,678	1396,327	764,824
-2,731	13,643	1395,501	764,177
-1,717	13,642	1394,865	763,793
-0,702	13,621	1392,919	762,601
0,313	17,400	1310,631	735,088
1,327	33,622	704,940	432,942
2,342	51,912	123,592	83,175
3,356	1,218	16,679	8,451
4,371	4,481	3,203	1,658
5,386	-58,777	0,591	0,180
6,400	-200,000	-0,036	0,326
7,415	-2,123	-0,255	-0,126
8,429	19,379	-0,245	-0,139
9,444	53,336	-0,288	-0,195
10,459	18,778	-0,394	-0,223
11,473	-67,565	-0,367	-0,101
12,488	-110,358	-0,328	-0,048
13,502	4,296	-0,374	-0,193
14,517	155,531	-0,269	-0,262
15,531	-19,498	-0,450	-0,196
16,546	187,817	-0,264	-0,279
17,561	26,153	-0,314	-0,185
18,575	-14,378	-0,269	-0,122
19,590	-45,873	-0,263	-0,091
20,604	248,717	-0,200	-0,239
21,619	44,287	-0,531	-0,344
22,634	36,732	-0,508	-0,317
23,648	75,118	-0,440	-0,327
24,663	81,715	-0,374	-0,286
25,677	295,018	-0,283	-0,367
26,692	-11,397	-0,414	-0,192
27,707	35,950	-0,404	-0,250
28,721	17,423	-0,307	-0,172
29,736	216,883	-0,297	-0,335
30,750	135,448	-0,503	-0,462
31,765	148,811	-0,359	-0,343
32,780	-14,554	-0,347	-0,157
33,794	361,170	-0,293	-0,415
34,809	150,751	-0,396	-0,380
35,823	30,124	-0,360	-0,216
36,838	-10,709	-0,442	-0,206
37,853	81,679	-0,318	-0,243
38,867	18,986	-0,509	-0,287
39,882	-39,241	-0,299	-0,110
40,896	216,962	-0,213	-0,239
41,911	-16,955	-0,287	-0,127
42,926	-43,561	-0,478	-0,169
43,940	-1,972	-0,366	-0,181
44,955	95,796	-0,419	-0,337
45,969	79,307	-0,390	-0,295
46,984	61,644	-0,356	-0,250
47,999	207,598	-0,280	-0,308
49,013	50,001	-0,295	-0,196
50,028	-103,705	-0,329	-0,054
51,042	75,898	-0,345	-0,257
52,057	192,027	-0,290	-0,308
53,071	-18,560	-0,245	-0,107
54,086	-53,671	-0,383	-0,122
55,101	97,268	-0,348	-0,281
56,115	61,332	-0,281	-0,197
57,130	151,612	-0,314	-0,301
58,144	-32,619	-0,547	-0,214
59,159	19,048	-0,467	-0,263
60,174	118,032	-0,306	-0,265
61,188	79,673	-0,305	-0,231
62,203	-40,909	-0,266	-0,096
63,217	126,872	-0,397	-0,354
64,232	119,849	-0,290	-0,253
65,247	105,610	-0,388	-0,323
66,261	59,465	-0,393	-0,273
67,276	-33,654	-0,379	-0,146
68,290	94,130	-0,290	-0,231
69,305	41,005	-0,382	-0,242
70,320	14,825	-0,333	-0,183
71,334	124,289	-0,313	-0,277
72,349	7,623	-0,401	-0,211
73,363	-8,959	-0,373	-0,175
74,378	-32,931	-0,287	-0,112
75,393	13,915	-0,228	-0,125
76,407	-126,657	-0,310	-0,032
77,422	19,181	-0,312	-0,175
78,436	-155,081	-0,260	-0,012
79,451	59,315	-0,228	-0,157
80,466	168,461	-0,233	-0,233
81,480	-11,332	-0,338	-0,156
82,495	19,684	-0,372	-0,210
83,509	65,863	-0,249	-0,178
84,524	32,076	-0,216	-0,131
85,539	-18,402	-0,289	-0,126
86,553	379,063	-0,236	-0,341
87,568	174,992	-0,317	-0,323
88,582	18,596	-0,321	-0,180
89,597	29,655	-0,324	-0,193
90,611	352,091	-0,188	-0,263
91,626	36,753	-0,271	-0,168
92,641	102,750	-0,307	-0,252
93,655	59,839	-0,311	-0,216
94,670	85,817	-0,274	-0,212
95,684	44,984	-0,314	-0,202
96,699	119,396	-0,361	-0,314
97,714	35,117	-0,236	-0,145
98,728	30,877	-0,269	-0,161
99,743	-20,965	-0,307	-0,131
100,757	-51,023	-0,136	-0,044
101,772	15,749	-0,308	-0,170
102,787	119,918	-0,280	-0,243
103,801	-3,960	-0,357	-0,173
104,816	-25,476	-0,311	-0,128
105,830	-51,663	-0,305	-0,099
106,845	136,201	-0,233	-0,213
107,860	83,761	-0,266	-0,204
108,874	171,079	-0,232	-0,234
109,889	107,373	-0,236	-0,197
110,903	5,501	-0,240	-0,124
111,918	13,578	-0,259	-0,141
112,933	-21,835	-0,277	-0,118
113,947	-19,755	-0,242	-0,105
114,962	-16,354	-0,364	-0,161
115,976	87,098	-0,211	-0,164
116,991	14,206	-0,357	-0,194
118,006	-5,026	-0,275	-0,132
119,020	88,759	-0,200	-0,155
120,035	42,622	-0,193	-0,123
121,049	13,859	-0,259	-0,141
122,064	287,162	-0,161	-0,205
123,079	37,823	-0,220	-0,137
124,093	367,095	-0,195	-0,277
125,108	139,357	-0,319	-0,294
126,122	-94,388	-0,262	-0,050
127,137	-80,129	-0,230	-0,054
128,151	-7,525	-0,203	-0,096
129,166	31,561	-0,288	-0,173
130,181	41,721	-0,340	-0,215
131,195	800,000	-0,145	-0,341
132,210	86,217	-0,295	-0,227
133,224	37,016	-0,149	-0,092
134,239	43,147	-0,235	-0,150
135,254	22,830	-0,239	-0,137
136,268	35,675	-0,193	-0,118
137,283	-32,606	-0,227	-0,088
138,297	199,418	-0,231	-0,248
139,312	-4,648	-0,300	-0,144
140,327	187,260	-0,238	-0,248
141,341	86,279	-0,201	-0,155
142,356	800,000	-0,111	-0,244
143,370	218,686	-0,094	-0,105
144,385	288,460	-0,230	-0,292
145,400	244,579	-0,285	-0,335
146,414	131,277	-0,247	-0,222
147,429	135,839	-0,393	-0,358
148,443	800,000	-0,159	-0,398
149,458	89,145	-0,219	-0,171
150,473	-200,000	-0,048	-0,152
151,487	62,337	-0,282	-0,197
152,502	227,057	-0,151	-0,171
153,516	43,479	-0,286	-0,182
154,531	49,883	-0,403	-0,265
155,546	25,208	-0,387	-0,224
156,560	36,977	-0,348	-0,215
157,575	143,087	-0,249	-0,231
158,589	136,036	-0,216	-0,197
159,604	157,977	-0,261	-0,253
160,619	65,574	-0,254	-0,179
161,633	253,604	-0,089	-0,107
162,648	232,510	-0,191	-0,219
163,662	381,054	-0,127	-0,182
164,677	80,183	-0,115	-0,086
165,692	3,103	-0,170	-0,086
166,706	11,824	-0,282	-0,151
167,721	136,596	-0,246	-0,224
168,735	44,030	-0,337	-0,215
169,750	-179,643	-0,336	0,005
170,764	91,194	-0,132	-0,103
171,779	-91,530	-0,263	-0,052
172,794	109,704	-0,252	-0,210
173,808	-70,449	-0,411	-0,108
174,823	-137,651	-0,324	-0,025
175,837	-144,434	-0,234	-0,015
176,852	252,509	-0,210	-0,250
177,867	42,024	-0,263	-0,166
178,881	227,001	-0,121	-0,138
179,896	10,850	-0,168	-0,089
180,910	35,099	-0,219	-0,133
181,925	800,000	-0,085	-0,242
182,940	66,237	-0,311	-0,220
183,954	108,697	-0,195	-0,162
184,969	359,339	-0,073	-0,102
185,983	800,000	-0,100	-0,193
186,998	100,018	-0,201	-0,162
188,013	-62,135	-0,215	-0,062
189,027	72,102	-0,214	-0,155
190,042	196,782	-0,241	-0,256
191,056	25,396	-0,219	-0,126
192,071	-47,372	-0,155	-0,052
193,086	-78,731	-0,196	-0,046
194,100	138,193	-0,125	-0,115
195,115	38,568	0,083	-0,051
196,129	328,371	-0,197	-0,264
197,144	-11,990	-0,231	-0,105
198,159	2,353	-0,204	-0,102
199,173	134,398	-0,223	-0,202
200,188	34,885	-0,197	-0,120
201,202	11,471	-0,180	-0,096
202,217	-200,000	-0,003	-0,178
203,232	181,866	-0,198	-0,203
204,246	-11,362	-0,195	-0,089
205,261	246,441	-0,203	-0,239
206,275	-25,828	-0,174	-0,071
207,290	-9,307	-0,281	-0,130
208,304	-122,883	-0,204	-0,023
209,319	8,511	-0,094	-0,049
210,334	19,484	-0,069	-0,038
211,348	-18,646	-0,205	-0,089
212,363	-23,407	-0,184	-0,076
213,377	209,453	-0,130	-0,142
214,392	-200,000	-0,015	-0,054
215,407	213,616	-0,292	-0,321
216,421	109,259	-0,158	-0,131
217,436	-138,708	-0,194	-0,015
218,450	-108,746	-0,282	-0,041
219,465	-75,889	-0,202	-0,049
220,480	200,124	-0,124	-0,133
221,494	144,555	-0,134	-0,125
222,509	243,868	-0,125	-0,145
223,523	-76,930	-0,210	-0,051
224,538	277,876	-0,096	-0,119
225,553	349,985	-0,143	-0,197
226,567	97,204	-0,194	-0,154
227,582	77,096	-0,136	-0,100
228,596	-200,000	-0,029	-0,131
229,611	800,000	-0,098	-0,201
230,626	201,743	-0,237	-0,254
231,640	800,000	-0,071	-0,177
232,655	266,530	-0,107	-0,130
233,669	537,002	-0,182	-0,302
234,684	800,000	-0,045	-0,113
235,699	266,152	-0,087	-0,105
236,713	259,866	-0,148	-0,177
237,728	-47,827	-0,164	-0,055
238,742	-74,752	-0,251	-0,062
239,757	-33,601	-0,248	0,095
240,772	800,000	-0,077	-0,153
241,786	2,003	-0,233	-0,116
242,801	90,719	-0,233	-0,181
243,815	800,000	-0,067	-0,168
244,830	-3,213	-0,208	-0,100
245,844	434,560	-0,148	-0,224
246,859	69,308	-0,254	-0,181
247,874	-30,839	-0,167	-0,065
248,888	299,449	-0,152	-0,194
249,903	438,682	-0,076	-0,116
250,917	23,851	-0,136	-0,077
251,932	60,468	-0,138	-0,095
252,947	-42,308	-0,189	-0,066
253,961	-88,159	-0,233	-0,048
254,976	20,880	-0,200	-0,112
255,990	50,327	-0,104	-0,068
257,005	298,689	-0,179	-0,229
258,020	-200,000	-0,245	-0,000
259,034	-37,615	-0,019	-0,007
260,049	-20,188	-0,082	0,035
261,063	-85,502	-0,310	-0,066
262,078	209,952	-0,181	-0,197
263,093	707,121	-0,106	-0,195
264,107	7,797	-0,193	-0,100
265,122	-97,525	-0,221	-0,039
266,136	-86,225	-0,144	-0,030
267,151	-105,347	-0,203	-0,032
268,166	-111,252	-0,163	-0,023
269,180	252,345	-0,207	-0,245
270,195	27,738	-0,145	-0,084
271,209	42,254	-0,159	-0,100
272,224	422,467	-0,103	-0,154
273,239	-133,256	-0,105	-0,009
274,253	6,034	-0,243	-0,124
275,268	-22,168	-0,333	-0,139
276,282	283,856	-0,118	-0,148
277,297	-130,975	-0,225	-0,021
278,312	132,321	-0,114	-0,101
279,326	800,000	0,023	0,050
280,341	319,073	-0,078	-0,102
281,355	-52,905	-0,135	-0,043
282,370	29,727	-0,185	-0,108
283,384	-200,000	-0,067	-0,213
284,399	165,211	-0,172	-0,168
285,414	-126,402	-0,228	-0,023
286,428	11,899	-0,120	-0,064
287,443	198,074	-0,107	-0,113
288,457	42,899	-0,152	-0,095
289,472	597,872	-0,069	-0,119
290,487	-57,744	-0,139	-0,042
291,501	-106,081	-0,162	-0,025
292,516	95,699	-0,167	-0,131
293,530	-200,000	0,011	-0,210
294,545	-38,374	-0,176	0,064
295,560	-15,310	-0,028	-0,012
296,574	169,590	-0,083	-0,082
297,589	-127,819	-0,133	-0,013
298,603	157,708	-0,216	-0,207
299,618	196,127	-0,149	-0,157
300,633	253,503	-0,192	-0,227
301,647	800,000	-0,071	-0,138
302,662	30,348	-0,128	-0,075
303,676	-125,235	-0,122	-0,013
304,691	203,742	-0,146	-0,156
305,706	-116,904	-0,111	-0,014
306,720	40,055	-0,204	-0,126
307,735	124,368	-0,164	-0,142
308,749	32,322	-0,150	-0,089
309,764	-86,974	-0,113	0,024
310,779	36,528	-0,059	-0,036
311,793	800,000	-0,073	-0,144
312,808	24,341	-0,181	-0,103
313,822	309,808	-0,086	-0,111
314,837	140,122	-0,135	-0,123
315,852	572,701	-0,102	-0,171
316,866	-200,000	-0,023	-0,098
317,881	-200,000	-0,010	-0,125
318,895	-200,000	0,025	-0,137
319,910	96,993	-0,166	-0,131
320,925	79,873	-0,133	-0,098
321,939	172,197	-0,074	-0,073
322,954	-200,000	0,003	-0,140
323,968	85,515	-0,128	-0,097
324,983	-26,793	-0,137	-0,055
325,997	21,248	-0,035	0,019
327,012	129,588	-0,194	-0,171
328,027	266,725	-0,114	-0,137
329,041	-195,585	-0,140	-0,001
330,056	73,700	-0,164	-0,118
331,070	116,606	-0,151	-0,127
332,085	-28,969	-0,204	-0,080
333,100	-110,899	-0,158	-0,022
334,114	-63,810	-0,109	-0,031
335,129	107,156	-0,304	-0,248
336,143	-50,116	-0,244	-0,079
337,158	58,064	-0,150	-0,101
338,173	600,190	-0,042	0,072
339,187	297,477	-0,077	-0,098
340,202	800,000	-0,026	-0,051
341,216	27,533	-0,218	-0,126
342,231	216,811	-0,096	-0,105
343,246	800,000	0,064	-0,130
344,260	-48,742	-0,068	-0,022
345,275	70,023	-0,031	-0,022
346,289	800,000	-0,043	-0,117
347,304	35,625	-0,147	-0,088
348,319	173,287	-0,099	-0,098
349,333	269,841	-0,138	-0,167
350,348	43,895	-0,085	-0,054
351,362	-200,000	-0,026	-0,174
352,377	-67,489	-0,149	0,040
353,392	-149,465	-0,091	-0,005
354,406	33,265	-0,065	-0,038
355,421	209,431	1312,430	1413,469
356,435	161,187	1472,876	1413,960
