DTS Sentinel unit serial number:	SN410029Multiplexer serial number:	ORYXHardware model number:	OX2-SRSoftware version number:	ORYX F/W v4,00 Oryx Data Collector v3.7.2.0data status	okinstallation	B3 Nyhavnadifferential loss correction	single-endedforward channel	channel 1reverse channel	N/Adate	2023/12/04time	01:32:30forward acquisition time	300,00reverse acquisition time	0,00gamma	499,1914k internal	0,3204k external	0,3204temperature offset calibration	1,0000default loss term (dB/km)	0,3820temperature slope calibration	1,0000multiplexer offset coefficient	1,0000multiplexer slope coefficient	1,0000fibre end	0,00T internal ref (°C)	12,44T ext. ref 1 (°C)	-2,79T ext. ref 2 (°C)	-2,82length (m)	temperature (°C)	Stokes	anti-Stokes-744,400	219,513	-0,253	-0,295
-743,385	197,219	0,213	0,237
-742,371	608,374	-0,095	-0,172
-741,356	-200,000	-0,048	0,285
-740,342	-92,405	-0,072	-0,015
-739,327	-200,000	0,044	0,240
-738,312	268,370	-0,203	-0,259
-737,298	-200,000	0,003	0,429
-736,283	-200,000	-0,070	-0,289
-735,269	-200,000	0,027	0,166
-734,254	589,180	-0,091	-0,164
-733,239	-69,694	-0,161	0,044
-732,225	69,566	-0,233	-0,174
-731,210	362,098	0,110	0,160
-730,196	-200,000	-0,009	-0,033
-729,181	-29,997	0,056	-0,023
-728,167	640,439	0,070	-0,130
-727,152	113,449	-0,080	-0,070
-726,137	-15,319	0,082	-0,038
-725,123	-83,646	0,080	0,018
-724,108	56,751	0,134	-0,095
-723,094	-200,000	-0,004	-0,070
-722,079	-135,820	-0,156	0,013
-721,064	354,890	0,063	0,092
-720,050	-50,898	-0,089	-0,030
-719,035	315,610	-0,061	0,083
-718,021	-200,000	-0,030	0,162
-717,006	35,341	-0,095	-0,060
-715,991	1,932	-0,181	-0,094
-714,977	-200,000	-0,025	-0,169
-713,962	-40,853	0,113	-0,042
-712,948	-200,000	-0,004	0,080
-711,933	-200,000	0,021	-0,083
-710,918	163,591	0,088	0,090
-709,904	459,022	-0,038	0,061
-708,889	-200,000	-0,007	-0,174
-707,875	727,881	-0,026	0,051
-706,860	-112,374	0,085	-0,012
-705,845	-107,784	0,147	-0,023
-704,831	-200,000	-0,047	0,238
-703,816	-11,993	-0,037	0,018
-702,802	276,589	-0,102	-0,132
-701,787	-200,000	-0,012	-0,113
-700,772	-71,538	-0,133	-0,036
-699,758	587,888	0,041	-0,073
-698,743	476,621	0,021	-0,035
-697,729	-97,328	0,125	0,023
-696,714	41,238	0,146	0,096
-695,699	-95,370	-0,029	-0,006
-694,685	1,554	-0,098	0,051
-693,670	-200,000	0,032	-0,133
-692,656	-200,000	0,047	-0,246
-691,641	111,883	0,067	0,059
-690,627	-18,314	-0,078	0,035
-689,612	-148,288	0,099	-0,006
-688,597	-200,000	0,004	0,045
-687,583	84,216	-0,051	-0,041
-686,568	-18,877	0,106	-0,047
-685,554	-11,533	0,096	0,046
-684,539	-200,000	0,011	-0,062
-683,524	-200,000	0,012	0,115
-682,510	-16,687	-0,091	-0,042
-681,495	800,000	0,038	0,116
-680,481	800,000	0,004	0,009
-679,466	-200,000	0,000	-0,090
-678,451	-176,745	-0,077	-0,001
-677,437	-121,418	-0,062	0,007
-676,422	74,497	0,070	0,053
-675,408	333,603	0,065	0,092
-674,393	-19,679	-0,081	-0,036
-673,378	-119,059	0,073	0,009
-672,364	-2,454	0,019	-0,009
-671,349	-52,919	0,094	0,031
-670,335	51,505	0,034	0,023
-669,320	161,064	-0,070	0,071
-668,305	23,399	0,010	0,006
-667,291	175,511	-0,075	0,079
-666,276	-42,100	-0,070	0,026
-665,262	-9,601	-0,058	0,028
-664,247	364,183	0,039	-0,057
-663,232	-200,000	0,007	0,149
-662,218	-128,088	0,175	0,018
-661,203	-1,661	0,083	-0,042
-660,189	-20,645	-0,049	-0,022
-659,174	-11,546	-0,076	-0,036
-658,159	102,438	-0,074	-0,062
-657,145	-200,000	0,005	-0,164
-656,130	800,000	0,013	-0,037
-655,116	761,918	-0,024	-0,047
-654,101	-41,127	0,065	0,024
-653,086	800,000	0,041	-0,094
-652,072	105,311	-0,114	-0,097
-651,057	60,748	0,083	-0,059
-650,043	-40,284	-0,043	0,016
-649,028	204,014	-0,109	0,122
-648,014	-35,797	0,091	0,035
-646,999	159,649	0,025	0,025
-645,984	123,602	-0,029	0,026
-644,970	-200,000	-0,002	-0,047
-643,955	51,127	0,031	0,022
-642,941	800,000	-0,051	-0,139
-641,926	800,000	-0,068	-0,143
-640,911	106,353	0,120	0,103
-639,897	800,000	0,038	0,116
-638,882	800,000	-0,045	-0,105
-637,868	273,612	0,010	-0,012
-636,853	-164,855	-0,111	-0,004
-635,838	150,944	-0,088	-0,087
-634,824	28,320	0,032	0,019
-633,809	690,201	-0,015	-0,028
-632,795	212,615	-0,070	0,080
-631,780	-188,660	-0,060	-0,001
-630,765	76,801	-0,034	-0,026
-629,751	462,826	-0,042	0,067
-628,736	413,823	-0,072	-0,112
-627,722	-89,786	-0,126	-0,026
-626,707	-100,918	-0,062	0,011
-625,692	0,520	-0,200	0,103
-624,678	78,887	-0,054	-0,042
-623,663	498,598	0,030	-0,050
-622,649	374,700	-0,135	-0,199
-621,634	800,000	-0,033	0,078
-620,619	-174,301	-0,067	-0,001
-619,605	411,872	0,029	0,045
-618,590	-200,000	-0,027	0,097
-617,576	-36,212	-0,112	-0,044
-616,561	502,956	-0,055	0,092
-615,546	-136,151	-0,040	0,003
-614,532	29,715	0,077	0,047
-613,517	476,452	0,016	0,027
-612,503	-200,000	-0,011	-0,045
-611,488	37,327	0,030	0,019
-610,474	800,000	0,022	0,056
-609,459	-116,820	0,142	0,019
-608,444	-72,921	-0,102	-0,027
-607,430	132,169	-0,053	-0,049
-606,415	540,553	-0,023	0,040
-605,401	800,000	-0,037	0,114
-604,386	-200,000	-0,001	-0,104
-603,371	646,266	0,095	0,177
-602,357	112,612	0,062	-0,054
-601,342	257,161	0,040	0,050
-600,328	-200,000	-0,021	-0,112
-599,313	301,912	-0,066	-0,088
-598,298	11,778	0,099	-0,055
-597,284	800,000	-0,020	0,044
-596,269	235,957	0,084	0,100
-595,255	-200,000	0,017	0,181
-594,240	16,537	-0,064	-0,037
-593,225	-200,000	-0,010	-0,117
-592,211	329,561	0,055	-0,076
-591,196	800,000	-0,012	0,026
-590,182	219,966	0,082	-0,095
-589,167	-32,023	0,047	-0,019
-588,152	376,017	-0,014	-0,021
-587,138	-66,334	0,075	0,021
-586,123	-200,000	-0,001	-0,072
-585,109	249,376	-0,068	-0,083
-584,094	2,925	0,072	-0,037
-583,079	-200,000	-0,003	0,057
-582,065	505,368	0,030	0,051
-581,050	800,000	0,007	-0,019
-580,036	-25,159	0,062	-0,026
-579,021	153,198	-0,100	-0,099
-578,006	800,000	-0,050	-0,108
-576,992	-200,000	0,029	-0,106
-575,977	-103,494	0,068	0,011
-574,963	800,000	0,011	0,024
-573,948	-200,000	0,003	-0,020
-572,934	-200,000	0,002	0,036
-571,919	-200,000	0,040	0,143
-570,904	294,637	0,051	-0,067
-569,890	-200,000	-0,030	0,101
-568,875	-200,000	0,013	0,206
-567,861	55,884	0,026	-0,018
-566,846	-200,000	0,043	0,166
-565,831	-56,462	0,182	0,058
-564,817	-142,011	0,038	-0,003
-563,802	112,397	-0,008	-0,007
-562,788	800,000	-0,007	-0,016
-561,773	800,000	-0,036	-0,088
-560,758	-200,000	0,011	0,043
-559,744	-200,000	0,001	0,119
-558,729	-18,305	0,084	-0,038
-557,715	519,256	-0,030	-0,051
-556,700	-132,739	0,042	0,004
-555,685	-200,000	0,004	-0,077
-554,671	334,870	0,073	0,102
-553,656	-200,000	0,011	0,062
-552,642	-179,402	0,029	0,000
-551,627	209,280	-0,066	-0,074
-550,612	-11,950	-0,022	-0,010
-549,598	800,000	0,022	-0,066
-548,583	37,386	0,085	-0,054
-547,569	-200,000	0,026	-0,098
-546,554	-13,237	-0,121	0,056
-545,539	800,000	-0,038	0,079
-544,525	-5,470	0,078	-0,039
-543,510	126,463	-0,058	-0,053
-542,496	-10,570	0,110	-0,052
-541,481	305,904	0,016	0,021
-540,466	-200,000	-0,019	-0,107
-539,452	-157,745	0,169	-0,007
-538,437	440,036	0,039	0,062
-537,423	291,332	0,076	-0,100
-536,408	-5,064	0,108	0,053
-535,393	52,558	0,015	-0,010
-534,379	93,505	-0,067	0,055
-533,364	139,154	0,108	0,103
-532,350	-200,000	0,002	0,135
-531,335	1,989	0,097	0,050
-530,321	-114,921	0,091	0,012
-529,306	282,656	-0,058	-0,076
-528,291	-84,013	-0,072	0,016
-527,277	86,610	-0,107	-0,085
-526,262	462,677	0,019	-0,031
-525,248	-200,000	0,012	0,052
-524,233	198,722	0,044	0,049
-523,218	-87,105	0,050	0,011
-522,204	800,000	-0,057	-0,116
-521,189	503,231	0,023	0,038
-520,175	800,000	0,039	-0,094
-519,160	-87,057	-0,114	0,025
-518,145	-76,636	-0,082	0,021
-517,131	202,087	0,094	0,105
-516,116	89,996	-0,021	0,017
-515,102	-200,000	-0,009	0,072
-514,087	-165,172	0,055	-0,002
-513,072	-89,149	0,066	-0,014
-512,058	-200,000	-0,065	-0,222
-511,043	105,011	-0,077	-0,065
-510,029	-113,291	0,120	0,017
-509,014	460,460	-0,099	0,159
-507,999	-132,059	0,154	-0,014
-506,985	511,595	-0,044	-0,074
-505,970	718,858	0,056	-0,107
-504,956	81,740	-0,104	-0,081
-503,941	129,722	-0,058	0,053
-502,926	2,277	0,235	-0,122
-501,912	-200,000	-0,015	-0,058
-500,897	-200,000	0,013	0,095
-499,883	-200,000	-0,005	0,063
-498,868	-92,461	-0,108	-0,022
-497,853	-200,000	0,008	-0,104
-496,839	193,185	0,022	-0,024
-495,824	52,453	0,091	0,062
-494,810	-200,000	0,028	0,176
-493,795	174,499	-0,056	0,059
-492,781	-40,290	-0,046	0,017
-491,766	513,026	-0,062	-0,105
-490,751	800,000	0,020	0,060
-489,737	223,053	-0,039	0,046
-488,722	20,261	0,057	-0,033
-487,708	161,429	0,111	-0,112
-486,693	80,437	0,111	-0,086
-485,678	-131,657	0,102	0,010
-484,664	79,841	-0,148	-0,115
-483,649	0,890	-0,048	-0,025
-482,635	-149,104	0,132	0,007
-481,620	-127,246	0,117	-0,012
-480,605	800,000	0,030	-0,069
-479,591	88,070	-0,077	-0,061
-478,576	395,054	0,084	-0,126
-477,562	-140,855	-0,071	0,005
-476,547	-118,292	-0,125	-0,016
-475,532	84,341	-0,140	-0,110
-474,518	-32,151	-0,061	-0,024
-473,503	-200,000	0,031	0,111
-472,489	-151,830	0,130	0,007
-471,474	-65,812	-0,083	0,024
-470,459	152,892	0,046	0,045
-469,445	103,075	-0,139	-0,117
-468,430	-40,801	0,152	-0,056
-467,416	800,000	-0,030	-0,077
-466,401	-98,922	0,123	0,022
-465,386	88,307	0,036	-0,029
-464,372	-31,761	-0,016	0,007
-463,357	-42,665	0,138	0,050
-462,343	-29,629	0,075	0,031
-461,328	117,751	-0,051	-0,045
-460,313	-200,000	0,000	-0,183
-459,299	145,526	0,090	-0,086
-458,284	800,000	0,032	0,087
-457,270	800,000	-0,022	-0,056
-456,255	-26,168	0,101	-0,042
-455,241	-56,963	-0,264	0,083
-454,226	-41,455	0,007	0,003
-453,211	-71,951	0,232	0,062
-452,197	54,855	0,067	-0,046
-451,182	-34,142	0,058	0,023
-450,168	-200,000	-0,016	-0,119
-449,153	-51,211	-0,092	0,031
-448,138	224,067	-0,069	-0,081
-447,124	-38,334	-0,143	-0,054
-446,109	-5,184	-0,071	0,035
-445,095	565,959	0,103	0,180
-444,080	-85,742	-0,097	-0,021
-443,065	-152,271	0,144	0,007
-442,051	-83,688	-0,122	-0,028
-441,036	800,000	0,009	0,018
-440,022	-102,254	-0,081	-0,014
-439,007	800,000	-0,015	0,039
-437,992	327,066	-0,060	0,083
-436,978	439,203	0,037	-0,058
-435,963	-200,000	0,014	0,087
-434,949	800,000	0,041	0,090
-433,934	-151,435	-0,199	-0,010
-432,919	-200,000	0,027	-0,178
-431,905	30,553	0,105	-0,064
-430,890	326,100	0,027	-0,037
-429,876	-69,776	0,058	-0,016
-428,861	-100,417	-0,045	-0,008
-427,846	22,727	-0,081	0,047
-426,832	175,149	-0,116	0,121
-425,817	-56,540	-0,018	-0,006
-424,803	-93,257	-0,154	-0,030
-423,788	-28,891	-0,045	0,019
-422,773	-200,000	-0,003	-0,038
-421,759	-200,000	-0,017	0,087
-420,744	-200,000	0,030	-0,110
-419,730	-61,998	0,036	0,011
-418,715	218,288	-0,077	-0,088
-417,701	-200,000	0,006	-0,134
-416,686	-143,853	0,088	0,006
-415,671	65,623	0,077	-0,056
-414,657	-200,000	-0,025	0,154
-413,642	800,000	-0,032	-0,099
-412,628	31,062	-0,032	0,020
-411,613	-200,000	0,012	-0,175
-410,598	283,490	0,044	-0,057
-409,584	51,446	0,105	-0,071
-408,569	67,636	0,040	0,029
-407,555	-119,568	0,161	0,020
-406,540	-152,464	-0,028	0,001
-405,525	-98,338	-0,052	0,010
-404,511	-176,120	-0,104	-0,002
-403,496	-94,457	0,127	-0,025
-402,482	415,491	0,068	-0,104
-401,467	37,318	0,070	-0,044
-400,452	433,464	0,048	0,075
-399,438	-200,000	-0,020	0,160
-398,423	24,889	0,054	-0,032
-397,409	44,195	-0,068	-0,045
-396,394	260,369	0,057	-0,071
-395,379	74,264	0,013	-0,010
-394,365	-62,807	0,109	-0,032
-393,350	0,960	0,050	0,026
-392,336	30,567	0,071	0,043
-391,321	-94,745	-0,078	-0,015
-390,306	30,992	-0,184	-0,113
-389,292	-150,409	0,015	0,001
-388,277	203,700	-0,083	0,092
-387,263	240,019	0,033	-0,040
-386,248	81,339	0,059	-0,045
-385,233	-200,000	0,007	0,033
-384,219	274,936	-0,092	-0,117
-383,204	98,151	-0,081	-0,067
-382,190	-200,000	0,007	0,045
-381,175	743,850	-0,075	0,145
-380,160	36,183	-0,059	-0,037
-379,146	-200,000	0,001	0,123
-378,131	135,850	-0,055	0,052
-377,117	800,000	0,046	-0,124
-376,102	800,000	-0,021	-0,048
-375,088	408,176	-0,050	-0,075
-374,073	395,063	0,008	0,012
-373,058	800,000	-0,013	0,040
-372,044	690,924	0,056	0,105
-371,029	-138,121	0,034	-0,003
-370,015	61,590	0,038	0,027
-369,000	112,659	-0,023	0,020
-367,985	-89,285	-0,118	-0,025
-366,971	179,619	-0,040	0,042
-365,956	-200,000	0,011	0,056
-364,942	656,975	0,076	0,140
-363,927	71,292	-0,056	0,042
-362,912	229,211	0,028	-0,032
-361,898	-200,000	-0,017	-0,122
-360,883	-200,000	-0,024	-0,083
-359,869	-59,558	0,069	0,021
-358,854	61,685	0,043	-0,031
-357,839	-135,572	-0,071	0,006
-356,825	97,920	0,063	0,052
-355,810	-200,000	0,002	-0,022
-354,796	158,500	0,083	-0,082
-353,781	800,000	-0,041	0,087
-352,766	-200,000	0,003	-0,062
-351,752	289,468	-0,057	-0,074
-350,737	-140,211	0,138	-0,010
-349,723	800,000	-0,038	0,079
-348,708	502,473	-0,046	0,076
-347,693	-115,570	-0,044	0,006
-346,679	-35,706	-0,173	0,067
-345,664	-130,033	0,030	0,003
-344,650	-74,837	-0,068	-0,017
-343,635	-200,000	-0,018	-0,062
-342,620	-53,790	0,184	0,060
-341,606	800,000	0,021	-0,057
-340,591	800,000	-0,053	0,124
-339,577	69,528	0,028	0,021
-338,562	-107,002	0,134	0,021
-337,548	800,000	0,092	0,188
-336,533	-200,000	-0,020	-0,069
-335,518	-69,775	0,103	-0,028
-334,504	142,921	-0,118	0,112
-333,489	-200,000	0,030	-0,140
-332,475	57,903	-0,052	0,036
-331,460	800,000	-0,018	-0,054
-330,445	800,000	-0,018	0,048
-329,431	25,256	-0,033	0,020
-328,416	186,897	0,115	0,123
-327,402	800,000	0,078	-0,160
-326,387	-140,032	0,024	0,002
-325,372	-108,287	-0,090	-0,014
-324,358	214,562	-0,047	-0,053
-323,343	542,272	-0,096	0,164
-322,329	176,384	0,031	-0,032
-321,314	-24,375	0,050	-0,021
-320,299	781,085	-0,038	0,074
-319,285	37,667	0,131	0,083
-318,270	-200,000	-0,004	0,017
-317,256	-161,446	-0,065	-0,002
-316,241	159,588	0,061	-0,061
-315,226	-125,894	-0,056	-0,006
-314,212	800,000	-0,075	0,161
-313,197	635,477	-0,019	0,035
-312,183	-142,605	0,037	-0,003
-311,168	800,000	0,045	0,101
-310,153	-200,000	0,011	-0,106
-309,139	177,831	-0,017	0,018
-308,124	588,488	0,085	0,151
-307,110	800,000	0,035	0,072
-306,095	-200,000	-0,002	0,164
-305,080	-200,000	-0,008	0,028
-304,066	-105,843	0,127	-0,020
-303,051	794,999	0,069	-0,137
-302,037	-82,832	-0,113	0,026
-301,022	-35,451	0,011	-0,004
-300,008	-200,000	0,007	-0,146
-298,993	-200,000	-0,003	-0,026
-297,978	800,000	-0,064	0,129
-296,964	35,611	0,082	0,051
-295,949	20,880	0,050	-0,029
-294,935	-115,204	-0,072	-0,010
-293,920	62,915	-0,127	0,091
-292,905	419,873	0,097	0,149
-291,891	-85,895	-0,135	0,030
-290,876	128,083	0,046	-0,041
-289,862	239,873	-0,046	-0,055
-288,847	57,413	0,151	-0,105
-287,832	800,000	-0,036	0,096
-286,818	-89,324	0,014	0,003
-285,803	-200,000	0,027	-0,084
-284,789	800,000	-0,020	-0,061
-283,774	212,569	-0,015	0,017
-282,759	-108,831	-0,151	-0,023
-281,745	188,792	0,045	0,048
-280,730	-200,000	0,003	0,096
-279,716	105,053	0,104	0,087
-278,701	31,794	0,010	0,006
-277,686	-128,111	-0,123	-0,012
-276,672	172,393	-0,070	0,072
-275,657	26,551	-0,116	0,069
-274,643	-200,000	-0,014	-0,108
-273,628	-6,281	-0,154	-0,075
-272,613	132,246	0,063	-0,058
-271,599	800,000	0,056	-0,142
-270,584	-200,000	0,017	0,135
-269,570	-29,966	0,024	0,010
-268,555	-44,103	0,035	-0,012
-267,540	706,239	-0,046	0,087
-266,526	-48,880	-0,060	0,020
-265,511	-200,000	-0,002	0,024
-264,497	800,000	0,032	-0,069
-263,482	-55,001	-0,139	0,044
-262,467	-43,140	0,134	0,048
-261,453	68,213	-0,051	0,037
-260,438	87,523	-0,046	0,036
-259,424	269,034	-0,061	-0,076
-258,409	102,734	-0,035	-0,029
-257,395	-200,000	-0,005	-0,083
-256,380	800,000	-0,023	-0,054
-255,365	-143,566	0,069	-0,005
-254,351	38,578	-0,045	0,029
-253,336	-200,000	0,001	0,091
-252,322	228,102	0,043	-0,050
-251,307	-49,868	-0,017	-0,006
-250,292	82,372	0,027	0,021
-249,278	172,662	-0,006	0,006
-248,263	663,296	-0,071	-0,131
-247,249	-200,000	-0,018	0,083
-246,234	-115,698	-0,025	0,003
-245,219	134,702	0,020	0,019
-244,205	-135,185	-0,087	-0,007
-243,190	-7,061	0,023	-0,011
-242,176	266,550	0,022	0,028
-241,161	141,176	0,055	0,052
-240,146	57,122	0,096	0,066
-239,132	-200,000	-0,008	0,156
-238,117	-200,000	0,017	-0,115
-237,103	-4,559	-0,041	-0,020
-236,088	-89,143	-0,114	-0,024
-235,073	-149,773	0,168	-0,009
-234,059	78,478	0,100	-0,076
-233,044	353,387	0,014	0,020
-232,030	-16,214	0,004	-0,002
-231,015	15,789	-0,085	-0,048
-230,000	-200,000	-0,016	-0,081
-228,986	-200,000	-0,021	-0,088
-227,971	-58,908	0,116	0,035
-226,957	-200,000	0,015	0,050
-225,942	800,000	0,022	0,050
-224,927	-55,931	0,064	-0,020
-223,913	20,428	-0,034	-0,020
-222,898	235,312	-0,030	-0,035
-221,884	297,596	-0,085	0,112
-220,869	271,869	-0,071	0,089
-219,855	-200,000	0,135	0,000
-218,840	-16,060	-0,048	-0,021
-217,825	164,585	-0,084	0,085
-216,811	800,000	0,033	0,078
-215,796	-87,104	0,059	0,013
-214,782	-80,550	0,043	-0,010
-213,767	800,000	-0,054	0,135
-212,752	793,026	-0,019	-0,037
-211,738	162,235	0,024	0,024
-210,723	-147,062	-0,093	-0,006
-209,709	-200,000	0,030	-0,103
-208,694	50,726	-0,044	0,030
-207,679	-4,515	0,044	0,022
-206,665	65,378	-0,132	0,095
-205,650	-7,523	0,196	-0,094
-204,636	482,752	0,010	0,015
-203,621	-41,659	-0,107	0,039
-202,606	251,340	-0,034	0,042
-201,592	-126,820	-0,109	-0,011
-200,577	-200,000	0,010	-0,043
-199,563	-200,000	0,009	-0,092
-198,548	-65,623	0,050	0,014
-197,533	-200,000	0,000	0,006
-196,519	-48,388	0,056	0,019
-195,504	-128,686	-0,021	0,002
-194,490	-200,000	0,028	-0,103
-193,475	729,500	-0,044	-0,084
-192,460	-200,000	0,004	0,026
-191,446	-128,037	-0,070	0,007
-190,431	359,120	0,015	0,021
-189,417	268,241	0,057	0,071
-188,402	-200,000	0,034	-0,154
-187,387	76,592	-0,090	-0,068
-186,373	142,103	0,059	0,056
-185,358	305,094	0,125	0,165
-184,344	-97,736	0,067	0,012
-183,329	375,051	-0,029	0,042
-182,315	800,000	0,049	0,116
-181,300	377,923	-0,034	-0,050
-180,285	273,059	0,034	-0,043
-179,271	-200,000	0,013	-0,090
-178,256	-200,000	0,011	-0,082
-177,242	199,616	0,033	-0,036
-176,227	-71,457	-0,056	-0,015
-175,212	-105,491	-0,066	0,011
-174,198	-200,000	0,021	-0,072
-173,183	184,134	-0,052	-0,054
-172,169	-200,000	-0,004	-0,030
-171,154	82,120	-0,142	0,109
-170,139	-200,000	0,036	0,139
-169,125	384,440	0,106	0,156
-168,110	681,319	0,067	-0,124
-167,096	-94,989	-0,135	-0,026
-166,081	757,135	-0,075	0,145
-165,066	-200,000	0,015	-0,048
-164,052	-30,499	-0,081	-0,033
-163,037	800,000	-0,024	-0,070
-162,023	-200,000	-0,021	-0,091
-161,008	-91,288	0,166	-0,033
-159,993	-200,000	0,005	0,050
-158,979	176,289	0,058	0,060
-157,964	-141,832	-0,061	0,004
-156,950	-49,454	-0,034	0,011
-155,935	-200,000	0,024	0,090
-154,920	800,000	0,002	0,007
-153,906	-14,697	-0,097	0,044
-152,891	-95,267	-0,179	0,034
-151,877	223,428	0,038	-0,044
-150,862	-200,000	-0,031	-0,098
-149,847	-89,778	0,058	0,012
-148,833	-105,650	-0,215	-0,034
-147,818	-112,481	-0,057	0,008
-146,804	373,129	0,024	0,035
-145,789	-200,000	0,021	0,069
-144,775	-33,643	-0,138	-0,054
-143,760	194,922	-0,075	-0,081
-142,745	119,981	0,100	-0,088
-141,731	403,977	0,092	0,138
-140,716	9,740	0,115	0,062
-139,702	156,402	0,109	0,107
-138,687	-200,000	0,013	0,129
-137,672	523,701	-0,033	0,055
-136,658	-200,000	-0,022	0,092
-135,643	95,141	-0,065	0,053
-134,629	800,000	0,020	-0,048
-133,614	2,409	0,092	0,047
-132,599	-26,147	0,087	-0,036
-131,585	800,000	0,037	0,116
-130,570	800,000	-0,009	-0,026
-129,556	-200,000	0,019	-0,154
-128,541	-31,059	0,160	-0,064
-127,526	229,822	0,019	0,023
-126,512	-200,000	-0,001	-0,019
-125,497	-111,179	0,094	-0,013
-124,483	-157,512	-0,034	0,001
-123,468	372,115	0,059	-0,085
-122,453	175,856	-0,102	-0,105
-121,439	91,460	0,080	-0,064
-120,424	800,000	-0,037	-0,074
-119,410	-200,000	0,013	-0,055
-118,395	-87,361	0,078	-0,017
-117,380	101,179	0,052	-0,043
-116,366	150,532	0,035	-0,034
-115,351	800,000	-0,023	-0,052
-114,337	-111,159	-0,056	0,008
-113,322	-200,000	-0,006	-0,131
-112,307	-88,882	0,035	-0,007
-111,293	85,956	0,073	0,057
-110,278	214,286	-0,071	0,080
-109,264	-126,540	-0,091	0,009
-108,249	8,873	-0,080	-0,043
-107,234	-200,000	0,004	-0,028
-106,220	-200,000	0,011	0,066
-105,205	-200,000	-0,042	-0,165
-104,191	43,019	-0,080	-0,051
-103,176	-97,209	0,030	0,005
-102,162	689,565	-0,023	0,042
-101,147	-96,703	-0,062	0,011
-100,132	158,144	-0,069	-0,067
-99,118	800,000	0,046	-0,100
-98,103	291,255	-0,068	-0,088
-97,089	45,952	0,076	0,050
-96,074	-200,000	0,009	0,140
-95,059	-105,289	-0,054	-0,009
-94,045	21,607	0,155	-0,089
-93,030	-200,000	0,004	0,012
-92,016	-45,842	-0,037	0,013
-91,001	-31,673	-0,066	0,026
-89,986	200,424	0,100	0,110
-88,972	530,511	0,075	0,126
-87,957	-200,000	-0,014	-0,071
-86,943	-64,475	-0,045	0,013
-85,928	-200,000	-0,027	-0,089
-84,913	-39,678	-0,010	0,004
-83,899	-200,000	0,012	0,083
-82,884	-113,640	0,003	0,000
-81,870	148,219	0,072	0,069
-80,855	-200,000	0,026	0,099
-79,840	179,657	0,087	0,090
-78,826	800,000	0,039	-0,097
-77,811	800,000	0,037	-0,091
-76,797	200,512	-0,062	-0,067
-75,782	-200,000	0,005	0,064
-74,767	586,924	0,096	0,167
-73,753	93,246	-0,034	-0,028
-72,738	294,983	-0,073	0,095
-71,724	149,317	0,025	-0,024
-70,709	97,703	0,049	0,040
-69,694	-45,442	-0,120	-0,042
-68,680	800,000	-0,087	0,196
-67,665	138,264	0,097	0,090
-66,651	-39,494	0,119	0,044
-65,636	347,943	0,058	-0,080
-64,622	138,419	0,027	0,025
-63,607	-200,000	0,030	-0,131
-62,592	-200,000	0,007	-0,052
-61,578	203,454	0,018	-0,020
-60,563	158,355	0,110	0,108
-59,549	-67,841	-0,092	0,025
-58,534	11,533	-1,671	-0,904
-57,519	422,372	-1,400	-2,133
-56,505	-200,000	-0,505	-4,651
-55,490	280,618	0,996	1,262
-54,476	800,000	5,036	11,242
-53,461	-200,000	19,997	324,788
-52,446	800,000	750,080	2319,235
-51,432	554,832	1661,623	2839,249
-50,417	75,833	1672,027	1248,851
-49,403	20,330	1544,954	880,400
-48,388	14,250	1467,637	806,749
-47,373	18,279	1457,512	820,626
-46,359	16,458	1447,017	805,954
-45,344	12,553	1442,588	784,748
-44,330	12,505	1440,555	783,379
-43,315	12,450	1439,052	782,268
-42,300	12,486	1437,235	781,423
-41,286	12,478	1436,080	780,725
-40,271	12,472	1434,596	779,861
-39,257	12,493	1433,244	779,192
-38,242	12,520	1431,915	778,568
-37,227	12,466	1430,910	777,734
-36,213	12,509	1429,541	777,164
-35,198	12,538	1428,253	776,569
-34,184	12,543	1427,596	776,206
-33,169	12,461	1426,109	774,979
-32,154	12,572	1424,938	774,837
-31,140	12,560	1423,685	774,067
-30,125	12,560	1422,515	773,400
-29,111	12,508	1421,482	772,563
-28,096	12,519	1420,495	772,048
-27,082	12,518	1419,123	771,266
-26,067	12,514	1418,221	770,728
-25,052	12,485	1417,249	770,032
-24,038	12,445	1416,229	769,260
-23,023	12,478	1415,136	768,788
-22,009	12,466	1414,065	768,120
-20,994	12,435	1413,276	767,516
-19,979	12,481	1412,328	767,186
-18,965	12,413	1411,518	766,396
-17,950	12,383	1410,618	765,739
-16,936	12,441	1409,623	765,439
-15,921	12,376	1408,477	764,484
-14,906	12,377	1407,702	764,035
-13,892	12,394	1406,630	763,502
-12,877	12,398	1405,832	763,057
-11,863	12,344	1404,922	762,283
-10,848	12,358	1404,039	761,840
-9,833	12,361	1402,912	761,208
-8,819	12,303	1402,263	760,556
-7,804	12,246	1401,434	759,811
-6,790	12,251	1400,526	759,314
-5,775	12,295	1399,397	758,877
-4,760	12,306	1398,154	758,223
-3,746	12,274	1397,366	757,618
-2,731	12,247	1396,527	757,008
-1,717	12,251	1395,763	756,579
-0,702	12,240	1393,757	755,411
0,313	16,145	1309,425	727,757
1,327	32,466	701,184	427,287
2,342	50,353	122,253	81,533
3,356	3,778	16,677	8,579
4,371	7,009	3,267	1,716
5,386	69,073	0,552	0,401
6,400	-200,000	0,095	0,350
7,415	19,663	-0,239	-0,135
8,429	18,294	-0,272	-0,153
9,444	34,348	-0,466	-0,286
10,459	206,946	-0,273	-0,301
11,473	121,693	-0,214	-0,189
12,488	-90,163	-0,313	-0,064
13,502	210,889	-0,187	-0,208
14,517	117,096	-0,316	-0,274
15,531	173,755	-0,271	-0,276
16,546	33,683	-0,440	-0,270
17,561	380,517	-0,238	-0,346
18,575	153,933	-0,131	-0,127
19,590	800,000	-0,103	-0,215
20,604	-51,094	-0,275	-0,090
21,619	-2,477	-0,523	-0,257
22,634	18,474	-0,489	-0,275
23,648	203,434	-0,410	-0,448
24,663	113,524	-0,309	-0,264
25,677	-33,157	-0,399	-0,155
26,692	114,154	-0,269	-0,231
27,707	-8,261	-0,369	-0,175
28,721	121,485	-0,377	-0,331
29,736	-31,265	-0,373	-0,147
30,750	87,034	-0,368	-0,286
31,765	-22,391	-0,427	-0,182
32,780	180,380	-0,213	-0,221
33,794	162,092	-0,258	-0,255
34,809	74,750	-0,250	-0,185
35,823	113,171	-0,347	-0,296
36,838	-9,258	-0,397	-0,186
37,853	85,994	-0,331	-0,256
38,867	375,301	-0,340	-0,490
39,882	57,154	-0,341	-0,234
40,896	70,301	-0,412	-0,300
41,911	127,637	-0,276	-0,247
42,926	64,231	-0,373	-0,264
43,940	94,484	-0,295	-0,236
44,955	64,565	-0,404	-0,286
45,969	169,534	-0,281	-0,283
46,984	94,638	-0,289	-0,231
47,999	-40,990	-0,291	-0,105
49,013	141,879	-0,229	-0,214
50,028	-7,264	-0,285	-0,135
51,042	172,206	-0,218	-0,221
52,057	229,342	-0,153	-0,176
53,071	-95,735	-0,513	-0,096
54,086	77,065	-0,285	-0,213
55,101	-31,645	-0,390	-0,153
56,115	-67,830	-0,369	-0,101
57,130	56,480	-0,226	-0,155
58,144	426,380	-0,268	-0,408
59,159	11,163	-0,395	-0,212
60,174	62,206	-0,459	-0,322
61,188	74,114	-0,442	-0,326
62,203	219,901	-0,236	-0,266
63,217	-51,142	-0,349	-0,114
64,232	-27,942	-0,437	-0,177
65,247	57,648	-0,350	-0,240
66,261	-71,399	-0,339	-0,089
67,276	-3,959	-0,426	-0,207
68,290	-127,001	-0,336	-0,034
69,305	233,776	-0,281	-0,325
70,320	-50,196	-0,362	-0,120
71,334	131,882	-0,382	-0,346
72,349	70,467	-0,303	-0,220
73,363	147,166	-0,262	-0,248
74,378	88,591	-0,372	-0,290
75,393	70,954	-0,328	-0,238
76,407	-146,571	-0,293	-0,018
77,422	91,060	-0,168	-0,132
78,436	-66,106	-0,368	-0,102
79,451	-48,123	-0,253	-0,085
80,466	53,217	-0,385	-0,259
81,480	89,191	-0,343	-0,268
82,495	-46,604	-0,258	-0,088
83,509	68,008	-0,211	-0,151
84,524	45,438	-0,290	-0,188
85,539	-85,488	-0,381	-0,082
86,553	-63,880	-0,309	-0,088
87,568	152,966	-0,273	-0,263
88,582	119,295	-0,340	-0,295
89,597	232,678	-0,253	-0,292
90,611	231,609	-0,232	-0,267
91,626	145,535	-0,238	-0,223
92,641	228,190	-0,145	-0,165
93,655	1,439	-0,373	-0,187
94,670	53,169	-0,359	-0,241
95,684	463,988	-0,171	-0,269
96,699	9,234	-0,366	-0,193
97,714	14,535	-0,297	-0,162
98,728	-19,182	-0,316	-0,137
99,743	-0,408	-0,280	-0,139
100,757	12,071	-0,278	-0,149
101,772	543,431	-0,140	-0,235
102,787	-49,922	-0,445	-0,147
103,801	175,243	-0,252	-0,256
104,816	-91,349	-0,275	-0,055
105,830	15,902	-0,342	-0,188
106,845	5,401	-0,288	-0,148
107,860	179,627	-0,250	-0,256
108,874	218,576	-0,298	-0,333
109,889	129,126	-0,296	-0,265
110,903	-70,619	-0,265	-0,070
111,918	79,172	-0,250	-0,188
112,933	109,538	-0,215	-0,181
113,947	70,693	-0,229	-0,166
114,962	-63,155	-0,237	-0,068
115,976	-55,739	-0,361	-0,112
116,991	95,935	-0,275	-0,220
118,006	220,834	-0,268	-0,301
119,020	-53,231	-0,242	-0,077
120,035	177,151	-0,169	-0,173
121,049	32,749	-0,164	-0,099
122,064	462,190	-0,149	-0,234
123,079	2,207	-0,137	-0,069
124,093	-80,475	-0,237	-0,055
125,108	125,422	-0,188	-0,166
126,122	-11,442	-0,321	-0,147
127,137	395,003	-0,149	-0,218
128,151	-15,310	-0,217	-0,096
129,166	15,736	-0,279	-0,153
130,181	38,770	-0,314	-0,196
131,195	32,909	-0,308	-0,186
132,210	441,680	-0,152	-0,233
133,224	4,995	-0,254	-0,130
134,239	316,334	-0,084	-0,111
135,254	299,062	-0,128	-0,165
136,268	278,700	-0,131	-0,163
137,283	498,995	-0,147	-0,237
138,297	426,619	-0,153	-0,231
139,312	109,356	-0,324	-0,271
140,327	78,410	-0,339	-0,253
141,341	90,948	-0,060	-0,047
142,356	-95,956	-0,392	-0,072
143,370	-36,330	-0,281	-0,105
144,385	76,747	-0,179	-0,133
145,400	54,456	-0,287	-0,193
146,414	-64,825	-0,314	-0,088
147,429	19,669	-0,163	-0,091
148,443	98,645	-0,322	-0,259
149,458	277,673	-0,201	-0,250
150,473	311,493	-0,106	-0,139
151,487	-80,820	-0,218	-0,050
152,502	-19,185	-0,231	-0,100
153,516	-41,030	-0,290	-0,104
154,531	73,288	-0,309	-0,226
155,546	10,474	-0,250	-0,132
156,560	84,963	-0,215	-0,164
157,575	-68,899	-0,271	-0,072
158,589	27,695	-0,284	-0,166
159,604	222,642	-0,187	-0,210
160,619	127,961	-0,293	-0,259
161,633	272,962	-0,157	-0,194
162,648	43,826	-0,160	-0,102
163,662	271,335	-0,159	-0,195
164,677	-56,744	-0,195	0,060
165,692	-107,069	-0,273	-0,042
166,706	223,113	-0,199	-0,223
167,721	181,258	-0,153	-0,156
168,735	114,461	-0,218	-0,185
169,750	62,528	-0,234	-0,163
170,764	111,531	-0,201	-0,169
171,779	66,923	-0,263	-0,186
172,794	46,626	-0,233	-0,151
173,808	6,810	-0,202	-0,104
174,823	230,485	-0,179	-0,205
175,837	181,150	-0,201	-0,206
176,852	-30,128	-0,303	-0,119
177,867	348,207	-0,085	-0,117
178,881	56,154	-0,215	-0,145
179,896	-88,632	-0,291	-0,060
180,910	-120,083	-0,185	-0,022
181,925	-9,785	-0,256	-0,118
182,940	17,850	-0,326	-0,180
183,954	460,829	-0,138	-0,215
184,969	31,433	-0,352	-0,210
185,983	-1,720	-0,238	-0,116
186,998	-69,174	-0,257	-0,068
188,013	69,304	-0,331	-0,236
189,027	394,544	-0,155	-0,226
190,042	114,131	-0,201	-0,170
191,056	763,137	-0,118	-0,223
192,071	754,730	-0,147	-0,277
193,086	800,000	-0,068	-0,194
194,100	1,732	-0,094	0,047
195,115	356,944	-0,141	-0,196
196,129	153,161	-0,267	-0,254
197,144	216,562	-0,177	-0,196
198,159	94,348	-0,315	-0,249
199,173	-88,356	-0,255	-0,053
200,188	800,000	-0,101	-0,195
201,202	209,759	-0,163	-0,178
202,217	115,111	-0,142	-0,120
203,232	114,103	-0,188	-0,159
204,246	-78,690	-0,269	-0,063
205,261	42,978	-0,218	-0,138
206,275	242,277	-0,144	-0,168
207,290	-200,000	-0,002	-0,062
208,304	270,324	-0,128	-0,156
209,319	95,548	-0,199	-0,157
210,334	38,361	-0,234	-0,145
211,348	8,663	-0,282	-0,147
212,363	34,615	-0,307	-0,186
213,377	305,612	-0,128	-0,165
214,392	82,545	-0,226	-0,170
215,407	272,838	-0,047	-0,058
216,421	24,078	-0,224	-0,128
217,436	104,736	-0,125	-0,102
218,450	182,366	-0,152	-0,155
219,465	156,318	-0,167	-0,160
220,480	-99,237	-0,299	-0,052
221,494	117,030	-0,127	-0,108
222,509	272,228	-0,091	-0,111
223,523	192,864	-0,114	-0,119
224,538	185,464	-0,085	-0,088
225,553	588,677	-0,101	-0,174
226,567	-200,000	-0,086	-0,267
227,582	34,824	-0,199	-0,120
228,596	13,392	-0,206	-0,111
229,611	104,719	-0,112	-0,092
230,626	131,238	-0,121	-0,108
231,640	-10,741	-0,196	-0,089
232,655	143,726	-0,116	-0,107
233,669	691,637	-0,104	-0,189
234,684	12,962	-0,272	-0,145
235,699	87,577	-0,154	-0,118
236,713	-121,865	-0,208	-0,023
237,728	-110,265	-0,252	-0,036
238,742	-103,544	-0,201	-0,032
239,757	-200,000	-0,059	-0,191
240,772	-129,412	-0,228	-0,022
241,786	-89,602	-0,176	-0,035
242,801	-200,000	0,048	-0,150
243,815	-17,720	-0,114	-0,049
244,830	96,424	-0,114	-0,090
245,844	132,413	-0,131	-0,117
246,859	378,800	-0,108	-0,153
247,874	68,320	-0,267	-0,189
248,888	-200,000	-0,061	-0,190
249,903	125,651	-0,198	-0,173
250,917	335,722	-0,256	-0,344
251,932	6,379	-0,173	-0,089
252,947	-107,594	-0,021	0,003
253,961	69,802	-0,253	-0,180
254,976	134,575	-0,208	-0,186
255,990	-48,833	-0,193	-0,064
257,005	-200,000	-0,026	-0,154
258,020	-200,000	-0,055	-0,235
259,034	528,725	-0,077	-0,126
260,049	-117,297	-0,189	-0,023
261,063	-1,095	-0,343	-0,167
262,078	163,365	-0,174	-0,169
263,093	15,753	-0,142	-0,077
264,107	-56,768	-0,196	-0,060
265,122	69,130	-0,045	-0,032
266,136	-84,111	-0,168	-0,037
267,151	43,019	-0,120	-0,075
268,166	112,179	-0,129	-0,107
269,180	402,867	-0,107	-0,156
270,195	-81,657	-0,181	-0,041
271,209	238,495	-0,193	-0,221
272,224	-115,986	-0,143	-0,018
273,239	59,302	-0,156	-0,106
274,253	-168,885	-0,152	-0,004
275,268	-54,759	-0,103	-0,032
276,282	142,857	-0,113	-0,104
277,297	37,747	-0,230	-0,140
278,312	11,532	-0,252	-0,133
279,326	604,686	-0,150	-0,258
280,341	413,408	-0,152	-0,224
281,355	-45,094	-0,080	-0,027
282,370	-22,704	-0,160	-0,066
283,384	102,450	-0,197	-0,159
284,399	671,360	-0,121	-0,217
285,414	13,587	-0,172	-0,092
286,428	44,102	-0,028	-0,017
287,443	-44,888	-0,103	0,035
288,457	137,104	-0,151	-0,136
289,472	43,241	-0,163	-0,103
290,487	-33,246	-0,185	-0,070
291,501	675,487	-0,075	-0,135
292,516	24,354	-0,142	-0,081
293,530	183,872	-0,118	-0,120
294,545	751,680	-0,103	-0,193
295,560	440,646	-0,147	-0,223
296,574	-45,976	-0,180	-0,061
297,589	-200,000	0,007	-0,116
298,603	-84,399	-0,274	-0,059
299,618	1,223	-0,219	-0,108
300,633	108,391	-0,153	-0,125
301,647	286,412	-0,161	-0,201
302,662	-88,292	-0,134	-0,027
303,676	60,791	-0,153	-0,104
304,691	356,516	-0,127	-0,175
305,706	-200,000	-0,007	-0,073
306,720	4,944	-0,199	-0,100
307,735	218,278	-0,096	-0,106
308,749	503,924	-0,051	-0,082
309,764	-30,082	-0,093	-0,036
310,779	145,523	-0,169	-0,155
311,793	800,000	-0,028	0,079
312,808	-125,071	-0,105	-0,011
313,822	-22,461	-0,051	0,021
314,837	-103,242	-0,149	-0,024
315,852	10,303	-0,102	0,053
316,866	-52,004	-0,030	-0,009
317,881	-40,432	-0,143	-0,051
318,895	-200,000	-0,111	-0,340
319,910	-200,000	-0,035	-0,197
320,925	596,468	-0,115	-0,196
321,939	-26,073	-0,288	-0,116
322,954	50,872	-0,125	-0,081
323,968	265,144	-0,077	-0,093
324,983	-30,394	-0,142	-0,055
325,997	-118,360	-0,070	-0,008
327,012	-24,667	-0,162	-0,066
328,027	800,000	-0,090	-0,239
329,041	173,414	-0,202	-0,201
330,056	243,127	-0,060	-0,070
331,070	800,000	-0,043	-0,121
332,085	800,000	-0,079	-0,179
333,100	234,888	-0,095	-0,108
334,114	130,382	-0,188	-0,165
335,129	-134,685	-0,155	0,013
336,143	163,080	-0,226	-0,218
337,158	-200,000	-0,023	-0,179
338,173	-36,131	-0,181	-0,067
339,187	-75,701	-0,120	0,029
340,202	238,992	-0,125	-0,143
341,216	335,981	-0,144	-0,193
342,231	319,829	-0,161	-0,210
343,246	598,376	-0,066	-0,113
344,260	800,000	-0,065	-0,135
345,275	-200,000	-0,023	-0,117
346,289	-44,122	-0,168	-0,057
347,304	-200,000	-0,054	-0,185
348,319	9,411	-0,092	-0,048
349,333	368,160	-0,158	-0,220
350,348	103,340	-0,188	-0,151
351,362	52,322	-0,225	-0,147
352,377	61,991	-0,107	-0,073
353,392	256,307	-0,127	-0,149
354,406	255,634	-0,140	-0,165
355,421	208,726	1314,914	1411,671
356,435	160,612	1475,651	1412,138
