DTS Sentinel unit serial number:	SN410029Multiplexer serial number:	ORYXHardware model number:	OX2-SRSoftware version number:	ORYX F/W v4,00 Oryx Data Collector v3.7.2.0data status	okinstallation	B3 Nyhavnadifferential loss correction	single-endedforward channel	channel 1reverse channel	N/Adate	2023/11/30time	15:02:30forward acquisition time	300,00reverse acquisition time	0,00gamma	499,1914k internal	0,3208k external	0,3208temperature offset calibration	1,0000default loss term (dB/km)	0,3820temperature slope calibration	1,0000multiplexer offset coefficient	1,0000multiplexer slope coefficient	1,0000fibre end	0,00T internal ref (°C)	12,13T ext. ref 1 (°C)	-2,00T ext. ref 2 (°C)	-2,03length (m)	temperature (°C)	Stokes	anti-Stokes-744,400	800,000	-0,104	-0,308
-743,385	726,724	0,140	0,272
-742,371	11,539	-0,318	-0,177
-741,356	-200,000	-0,115	0,444
-740,342	-200,000	-0,025	-0,140
-739,327	-200,000	-0,039	0,212
-738,312	613,402	-0,138	-0,251
-737,298	800,000	-0,113	0,337
-736,283	85,666	-0,226	-0,180
-735,269	-200,000	0,021	0,350
-734,254	25,228	-0,165	-0,099
-733,239	-56,775	-0,032	-0,010
-732,225	-200,000	-0,062	-0,206
-731,210	-118,700	0,259	0,033
-730,196	-200,000	-0,025	-0,150
-729,181	800,000	-0,079	-0,176
-728,167	800,000	0,008	-0,024
-727,152	-200,000	-0,001	-0,021
-726,137	-62,119	0,047	-0,014
-725,123	181,141	-0,160	0,171
-724,108	749,455	-0,047	-0,092
-723,094	22,120	-0,138	-0,082
-722,079	-151,260	-0,065	0,003
-721,064	-200,000	-0,004	-0,044
-720,050	65,398	-0,108	-0,079
-719,035	-200,000	-0,021	-0,122
-718,021	-200,000	0,026	0,139
-717,006	-200,000	-0,004	-0,085
-715,991	-200,000	-0,036	-0,225
-714,977	-168,251	-0,054	-0,001
-713,962	85,661	0,026	-0,021
-712,948	158,850	0,075	0,076
-711,933	166,748	-0,062	0,064
-710,918	800,000	0,021	0,054
-709,904	418,119	-0,009	0,014
-708,889	-48,406	-0,096	0,033
-707,875	800,000	-0,012	-0,029
-706,860	-200,000	-0,003	0,028
-705,845	800,000	0,032	-0,080
-704,831	-200,000	0,011	0,055
-703,816	531,575	-0,073	0,126
-702,802	353,115	0,089	0,128
-701,787	-200,000	-0,006	-0,069
-700,772	-200,000	0,009	-0,207
-699,758	133,874	0,057	-0,054
-698,743	38,937	-0,049	-0,032
-697,729	-12,755	0,038	0,018
-696,714	-200,000	0,011	0,080
-695,699	67,590	0,025	-0,018
-694,685	-58,771	-0,179	-0,056
-693,670	-142,292	-0,122	-0,009
-692,656	-133,324	-0,034	-0,003
-691,641	-200,000	-0,007	0,134
-690,627	-59,131	0,056	0,018
-689,612	-92,821	0,052	-0,010
-688,597	-12,903	0,102	-0,048
-687,583	-200,000	-0,022	-0,149
-686,568	496,088	-0,060	-0,100
-685,554	469,476	-0,037	-0,060
-684,539	-200,000	0,009	0,067
-683,524	-200,000	0,000	0,079
-682,510	-200,000	-0,004	0,105
-681,495	190,651	0,057	-0,062
-680,481	-200,000	-0,021	-0,070
-679,466	799,740	-0,027	-0,055
-678,451	800,000	-0,050	-0,124
-677,437	49,036	-0,115	-0,078
-676,422	78,346	0,094	-0,072
-675,408	42,918	-0,016	0,010
-674,393	-101,933	0,105	-0,018
-673,378	-200,000	-0,042	-0,163
-672,364	800,000	-0,014	-0,030
-671,349	800,000	-0,018	0,036
-670,335	800,000	-0,032	-0,077
-669,320	800,000	0,065	-0,185
-668,305	-200,000	0,004	0,083
-667,291	690,516	0,009	-0,017
-666,276	-113,168	0,032	-0,005
-665,262	-200,000	-0,004	0,111
-664,247	-19,267	-0,059	-0,026
-663,232	137,828	-0,073	0,070
-662,218	101,232	0,063	-0,053
-661,203	-200,000	0,021	0,099
-660,189	800,000	-0,032	0,092
-659,174	-94,197	-0,117	-0,023
-658,159	-41,319	0,034	0,012
-657,145	26,616	-0,085	-0,051
-656,130	-3,106	-0,123	-0,062
-655,116	-200,000	0,016	0,113
-654,101	356,264	0,065	0,095
-653,086	-147,179	0,128	-0,008
-652,072	-47,687	-0,096	-0,033
-651,057	-90,827	-0,101	-0,021
-650,043	-123,618	-0,057	-0,006
-649,028	346,101	0,030	-0,043
-648,014	179,257	0,019	0,020
-646,999	752,784	0,016	0,032
-645,984	-160,710	-0,105	-0,004
-644,970	583,420	0,020	0,035
-643,955	139,938	0,063	-0,060
-642,941	456,175	-0,114	-0,183
-641,926	-200,000	0,020	-0,071
-640,911	755,569	0,011	0,022
-639,897	275,902	0,105	0,135
-638,882	54,507	0,037	0,026
-637,868	-149,277	-0,123	-0,007
-636,853	-40,733	-0,076	0,028
-635,838	523,200	-0,078	-0,134
-634,824	800,000	0,019	0,057
-633,809	184,107	0,097	0,103
-632,795	798,406	-0,055	0,110
-631,780	372,707	0,062	0,091
-630,765	-200,000	-0,012	0,052
-629,751	-200,000	-0,009	-0,067
-628,736	-200,000	0,002	-0,191
-627,722	-200,000	0,004	-0,184
-626,707	321,613	0,077	0,105
-625,692	439,933	0,038	-0,060
-624,678	-58,346	-0,049	-0,015
-623,663	108,467	0,036	-0,031
-622,649	32,057	-0,143	-0,089
-621,634	-61,733	-0,065	0,020
-620,619	14,875	0,133	-0,075
-619,605	43,316	-0,103	0,068
-618,590	176,402	-0,083	0,087
-617,576	800,000	0,042	-0,119
-616,561	800,000	-0,020	-0,060
-615,546	-200,000	-0,005	0,127
-614,532	6,456	0,086	-0,046
-613,517	6,123	-0,120	-0,064
-612,503	462,169	-0,079	0,128
-611,488	-51,070	0,024	-0,008
-610,474	-190,884	-0,090	0,001
-609,459	800,000	0,045	0,119
-608,444	-106,075	0,097	-0,016
-607,430	-200,000	-0,006	-0,067
-606,415	384,812	-0,077	-0,115
-605,401	-192,746	0,147	-0,001
-604,386	-85,412	-0,085	0,019
-603,371	-200,000	-0,009	0,170
-602,357	-200,000	-0,027	0,096
-601,342	-200,000	-0,042	-0,163
-600,328	3,511	0,057	0,030
-599,313	498,714	-0,084	-0,140
-598,298	-36,691	-0,070	-0,027
-597,284	466,574	0,028	0,046
-596,269	282,688	0,036	-0,046
-595,255	-200,000	-0,016	0,121
-594,240	440,445	0,032	0,051
-593,225	-162,448	-0,096	0,003
-592,211	800,000	-0,000	0,001
-591,196	542,838	-0,047	-0,080
-590,182	726,698	-0,076	-0,148
-589,167	184,088	0,050	-0,053
-588,152	800,000	-0,059	-0,121
-587,138	-98,501	-0,133	0,024
-586,123	308,437	0,028	0,037
-585,109	-111,717	0,047	-0,007
-584,094	428,927	0,100	0,156
-583,079	-200,000	0,022	-0,090
-582,065	-70,702	0,175	0,047
-581,050	401,206	-0,064	-0,098
-580,036	310,757	0,024	0,032
-579,021	-32,254	-0,065	-0,026
-578,006	188,473	-0,036	-0,039
-576,992	-200,000	-0,010	-0,065
-575,977	-200,000	-0,007	0,037
-574,963	-58,461	0,190	-0,059
-573,948	-80,348	0,071	0,017
-572,934	461,552	0,095	-0,153
-571,919	643,114	-0,055	0,102
-570,904	-200,000	0,023	0,080
-569,890	800,000	0,038	-0,108
-568,875	550,204	0,085	-0,147
-567,861	-26,906	-0,079	-0,033
-566,846	140,084	0,053	-0,050
-565,831	-200,000	0,011	0,047
-564,817	105,064	-0,079	-0,068
-563,802	800,000	-0,070	-0,193
-562,788	-93,482	-0,079	-0,016
-561,773	-128,264	0,036	-0,004
-560,758	3,162	0,084	0,044
-559,744	-25,606	-0,040	0,017
-558,729	80,025	-0,095	0,073
-557,715	-200,000	0,033	-0,157
-556,700	59,796	0,051	-0,036
-555,685	-147,846	-0,111	-0,007
-554,671	-200,000	-0,004	0,167
-553,656	-200,000	-0,002	0,123
-552,642	208,872	0,020	0,023
-551,627	154,993	0,040	0,039
-550,612	145,908	-0,081	-0,078
-549,598	-200,000	-0,001	0,014
-548,583	204,012	-0,079	-0,088
-547,569	328,679	0,059	-0,082
-546,554	800,000	-0,018	-0,042
-545,539	409,517	0,031	-0,047
-544,525	-200,000	0,016	0,082
-543,510	-31,610	-0,068	0,027
-542,496	-200,000	-0,008	0,052
-541,481	-41,526	0,008	0,003
-540,466	-52,623	-0,092	0,030
-539,452	800,000	0,027	-0,076
-538,437	800,000	0,035	0,108
-537,423	-200,000	-0,079	0,000
-536,408	173,495	-0,032	-0,033
-535,393	-200,000	-0,013	-0,069
-534,379	353,788	-0,059	-0,085
-533,364	-65,204	-0,020	0,006
-532,350	373,052	0,024	0,035
-531,335	275,685	-0,045	0,057
-530,321	-200,000	0,018	0,141
-529,306	92,726	0,044	-0,036
-528,291	-200,000	-0,006	0,050
-527,277	-200,000	-0,001	0,035
-526,262	150,772	-0,060	0,058
-525,248	-41,471	0,121	0,045
-524,233	179,032	0,141	0,148
-523,218	253,308	-0,048	0,059
-522,204	-42,963	-0,177	-0,064
-521,189	68,614	-0,078	0,057
-520,175	-26,502	0,038	0,016
-519,160	-200,000	0,009	0,058
-518,145	151,947	-0,034	0,033
-517,131	60,921	0,021	0,015
-516,116	82,935	0,010	0,008
-515,102	-200,000	-0,005	0,021
-514,087	-115,404	-0,090	-0,012
-513,072	-105,295	0,088	-0,014
-512,058	-111,131	0,091	-0,013
-511,043	-53,652	-0,027	-0,009
-510,029	800,000	-0,010	-0,029
-509,014	-200,000	0,008	0,060
-507,999	800,000	0,038	0,109
-506,985	800,000	0,039	-0,085
-505,970	23,816	-0,096	-0,057
-504,956	150,404	0,022	-0,021
-503,941	800,000	0,055	-0,131
-502,926	-34,235	0,139	0,054
-501,912	100,505	-0,080	-0,067
-500,897	800,000	-0,019	0,055
-499,883	52,356	-0,070	-0,048
-498,868	800,000	0,033	-0,094
-497,853	-200,000	0,041	-0,248
-496,839	190,295	-0,086	-0,093
-495,824	-13,250	0,097	0,045
-494,810	215,536	-0,043	0,049
-493,795	-200,000	-0,144	0,000
-492,781	60,586	0,062	-0,044
-491,766	360,583	0,071	0,102
-490,751	800,000	0,017	0,045
-489,737	95,890	0,067	0,055
-488,722	-200,000	-0,005	-0,070
-487,708	-200,000	-0,009	0,039
-486,693	326,421	0,071	0,098
-485,678	785,766	-0,021	0,041
-484,664	-200,000	-0,005	0,068
-483,649	-85,259	-0,048	-0,011
-482,635	30,433	0,046	0,028
-481,620	359,001	0,096	0,138
-480,605	76,622	0,006	0,004
-479,591	-200,000	-0,033	0,125
-478,576	1,174	0,063	-0,032
-477,562	472,217	-0,064	-0,103
-476,547	-200,000	-0,005	-0,044
-475,532	125,686	0,055	-0,050
-474,518	-113,516	0,017	0,002
-473,503	-64,562	0,161	-0,047
-472,489	-116,675	-0,121	-0,016
-471,474	206,615	-0,058	0,065
-470,459	-44,173	-0,099	-0,036
-469,445	800,000	-0,042	-0,120
-468,430	-159,574	0,045	0,002
-467,416	-32,492	0,015	-0,006
-466,401	800,000	0,010	0,030
-465,386	671,914	-0,005	0,009
-464,372	-200,000	-0,002	0,106
-463,357	-200,000	0,015	-0,086
-462,343	-108,686	-0,098	-0,015
-461,328	-52,068	0,122	-0,040
-460,313	418,923	0,081	0,126
-459,299	-100,231	0,125	-0,022
-458,284	-91,052	0,127	0,026
-457,270	8,576	0,138	-0,074
-456,255	-158,821	-0,105	0,004
-455,241	800,000	-0,082	-0,207
-454,226	349,000	-0,057	-0,082
-453,211	-200,000	-0,004	-0,136
-452,197	218,602	0,078	-0,089
-451,182	134,107	-0,109	0,101
-450,168	106,488	0,138	-0,118
-449,153	-200,000	0,011	0,044
-448,138	179,813	-0,086	-0,090
-447,124	218,966	-0,070	-0,080
-446,109	-200,000	0,000	-0,031
-445,095	-165,601	0,043	0,001
-444,080	-200,000	0,027	0,149
-443,065	-26,720	0,042	0,018
-442,051	7,594	-0,061	0,033
-441,036	690,065	-0,027	-0,051
-440,022	394,675	-0,081	-0,122
-439,007	626,623	-0,074	-0,135
-437,992	-136,544	0,067	0,006
-436,978	800,000	0,045	0,139
-435,963	27,446	0,025	-0,015
-434,949	43,304	-0,068	0,044
-433,934	259,206	-0,059	-0,073
-432,919	264,269	-0,038	-0,048
-431,905	-92,070	0,096	0,019
-430,890	81,764	-0,062	0,048
-429,876	-200,000	0,019	0,066
-428,861	110,066	0,112	0,096
-427,846	241,006	-0,006	0,007
-426,832	222,321	-0,036	-0,041
-425,817	14,403	-0,068	-0,038
-424,803	-200,000	0,033	-0,133
-423,788	-81,024	0,110	-0,026
-422,773	800,000	-0,012	0,027
-421,759	-63,614	-0,012	0,004
-420,744	209,158	0,119	0,134
-419,730	-150,612	-0,151	0,008
-418,715	-134,352	-0,106	0,009
-417,701	-84,445	-0,168	-0,038
-416,686	800,000	0,063	0,165
-415,671	-98,763	-0,089	0,016
-414,657	52,542	0,104	-0,071
-413,642	-200,000	-0,004	0,149
-412,628	-94,276	-0,072	0,014
-411,613	-68,894	-0,125	-0,034
-410,598	-56,094	-0,026	-0,008
-409,584	-200,000	-0,004	0,013
-408,569	-1,013	-0,078	-0,039
-407,555	467,963	0,041	-0,066
-406,540	182,593	0,046	0,048
-405,525	-23,653	-0,090	-0,039
-404,511	189,294	-0,031	-0,034
-403,496	800,000	0,033	-0,091
-402,482	-200,000	0,003	-0,070
-401,467	-34,113	-0,143	-0,056
-400,452	310,302	-0,012	0,016
-399,438	248,087	-0,103	0,125
-398,423	-36,522	0,047	0,018
-397,409	63,022	-0,121	0,086
-396,394	-200,000	0,013	0,082
-395,379	148,890	-0,064	-0,062
-394,365	223,924	0,032	0,037
-393,350	-195,021	-0,105	0,001
-392,336	800,000	-0,082	0,248
-391,321	-36,970	0,050	0,019
-390,306	-200,000	0,006	0,031
-389,292	-200,000	0,001	-0,096
-388,277	-16,353	0,125	0,057
-387,263	-26,062	0,045	-0,019
-386,248	8,016	-0,057	0,031
-385,233	-200,000	-0,003	0,054
-384,219	800,000	-0,015	-0,034
-383,204	-200,000	0,028	-0,106
-382,190	-200,000	0,010	0,133
-381,175	-200,000	-0,009	-0,040
-380,160	-31,395	0,119	0,048
-379,146	161,293	-0,061	0,061
-378,131	-200,000	0,029	-0,124
-377,117	-156,987	0,012	-0,001
-376,102	-132,424	-0,146	0,013
-375,088	800,000	-0,037	-0,088
-374,073	-46,045	-0,017	-0,006
-373,058	-136,009	-0,032	-0,003
-372,044	116,276	0,098	0,086
-371,029	31,102	0,122	0,075
-370,015	430,830	-0,081	0,125
-369,000	-107,074	0,086	0,013
-367,985	25,087	0,129	0,077
-366,971	800,000	0,039	-0,117
-365,956	-84,374	-0,042	-0,009
-364,942	159,805	-0,012	0,012
-363,927	34,262	-0,062	0,039
-362,912	800,000	-0,024	-0,072
-361,898	800,000	0,026	-0,075
-360,883	97,719	0,052	-0,043
-359,869	-158,392	-0,051	0,002
-358,854	255,740	0,065	-0,080
-357,839	-86,407	0,147	-0,032
-356,825	238,458	0,038	-0,046
-355,810	-200,000	0,001	-0,026
-354,796	214,738	0,026	0,030
-353,781	-200,000	-0,070	-0,264
-352,766	-101,128	-0,047	0,008
-351,752	-200,000	-0,012	-0,069
-350,737	800,000	-0,026	0,069
-349,723	-92,618	0,150	-0,030
-348,708	165,461	0,123	-0,124
-347,693	-58,851	0,061	-0,019
-346,679	41,889	0,037	0,024
-345,664	800,000	-0,057	-0,123
-344,650	86,960	-0,086	-0,068
-343,635	-92,722	0,122	0,024
-342,620	800,000	0,036	0,096
-341,606	30,781	-0,092	0,056
-340,591	20,094	-0,017	-0,010
-339,577	-200,000	0,011	-0,138
-338,562	-45,002	-0,035	-0,013
-337,548	-200,000	-0,002	0,031
-336,533	150,372	-0,019	0,019
-335,518	-0,432	-0,197	0,099
-334,504	-200,000	0,013	-0,105
-333,489	117,309	-0,032	-0,028
-332,475	57,675	-0,059	0,041
-331,460	24,143	0,073	0,043
-330,445	800,000	-0,047	0,125
-329,431	-146,193	-0,024	-0,001
-328,416	800,000	0,043	0,114
-327,402	-82,230	-0,149	-0,034
-326,387	800,000	0,050	-0,147
-325,372	-44,522	0,103	-0,037
-324,358	242,288	-0,058	-0,070
-323,343	36,246	0,027	0,017
-322,329	5,440	0,117	0,062
-321,314	-200,000	-0,022	0,159
-320,299	140,423	0,101	-0,095
-319,285	-200,000	-0,008	-0,050
-318,270	800,000	-0,039	0,097
-317,256	-107,030	-0,083	0,013
-316,241	-200,000	0,015	-0,096
-315,226	800,000	0,024	0,053
-314,212	-200,000	-0,005	-0,023
-313,197	-116,882	-0,105	0,014
-312,183	-200,000	-0,005	-0,065
-311,168	4,539	0,009	0,005
-310,153	660,794	-0,091	-0,167
-309,139	-37,556	0,197	0,074
-308,124	-63,345	0,128	-0,037
-307,110	-200,000	-0,024	0,152
-306,095	-200,000	0,033	0,127
-305,080	263,381	0,002	-0,003
-304,066	136,551	0,070	0,065
-303,051	-200,000	-0,021	0,087
-302,037	-66,612	-0,124	0,035
-301,022	-200,000	-0,014	0,092
-300,008	-200,000	-0,021	0,135
-298,993	-200,000	0,008	0,156
-297,978	46,854	0,010	0,007
-296,964	87,573	0,105	-0,082
-295,949	-200,000	-0,000	0,010
-294,935	134,282	-0,114	0,106
-293,920	800,000	-0,035	-0,079
-292,905	-200,000	-0,016	-0,110
-291,891	-200,000	0,012	0,137
-290,876	343,379	-0,048	0,068
-289,862	-200,000	-0,032	-0,121
-288,847	800,000	-0,072	-0,173
-287,832	-200,000	-0,042	-0,144
-286,818	-144,198	-0,093	-0,006
-285,803	165,128	0,153	0,154
-284,789	-200,000	0,003	0,088
-283,774	-200,000	-0,001	0,069
-282,759	-77,298	-0,061	0,015
-281,745	62,576	-0,068	-0,048
-280,730	74,682	-0,135	-0,101
-279,716	-9,100	0,117	0,056
-278,701	278,183	0,056	0,072
-277,686	800,000	0,026	0,075
-276,672	179,888	-0,029	0,030
-275,657	194,001	0,069	0,075
-274,643	-200,000	-0,006	-0,050
-273,628	50,982	0,087	-0,059
-272,613	-200,000	-0,012	0,045
-271,599	206,713	0,101	0,113
-270,584	-158,503	0,161	0,007
-269,570	-93,807	-0,103	-0,020
-268,555	800,000	0,039	0,088
-267,540	402,689	0,027	-0,040
-266,526	-200,000	0,018	-0,070
-265,511	-127,294	-0,079	0,008
-264,497	800,000	0,012	0,029
-263,482	34,400	0,058	0,036
-262,467	732,876	-0,011	0,022
-261,453	800,000	-0,007	0,019
-260,438	-45,093	-0,114	-0,040
-259,424	474,861	0,046	-0,073
-258,409	237,057	-0,048	0,056
-257,395	271,008	-0,091	-0,115
-256,380	-136,134	-0,036	-0,003
-255,365	-132,038	0,141	0,013
-254,351	-200,000	-0,000	0,002
-253,336	-87,601	-0,187	0,040
-252,322	352,913	0,077	-0,109
-251,307	-200,000	0,001	0,072
-250,292	800,000	0,035	-0,090
-249,278	121,227	0,168	-0,149
-248,263	-118,242	0,124	0,016
-247,249	-98,400	-0,078	-0,014
-246,234	-135,420	0,087	0,007
-245,219	226,143	0,067	-0,078
-244,205	502,975	-0,030	0,050
-243,190	582,410	0,036	-0,063
-242,176	194,580	0,094	0,102
-241,161	152,920	0,132	0,128
-240,146	-49,342	-0,064	0,022
-239,132	536,609	-0,040	0,069
-238,117	46,373	-0,076	-0,050
-237,103	-39,039	-0,031	-0,012
-236,088	-200,000	0,016	0,160
-235,073	-24,766	0,050	-0,021
-234,059	-120,737	0,051	0,006
-233,044	-37,920	0,061	-0,023
-232,030	125,124	-0,050	0,045
-231,015	324,843	0,014	0,019
-230,000	232,828	0,052	-0,061
-228,986	-200,000	-0,009	0,158
-227,971	800,000	0,033	-0,085
-226,957	164,687	0,098	0,099
-225,942	-200,000	-0,010	0,044
-224,927	450,144	0,028	-0,045
-223,913	800,000	-0,065	-0,158
-222,898	-103,229	-0,083	0,014
-221,884	-128,444	0,145	0,015
-220,869	-58,789	0,034	0,010
-219,855	231,513	0,026	-0,030
-218,840	-26,110	0,102	-0,043
-217,825	-80,004	-0,053	0,013
-216,811	800,000	-0,052	-0,110
-215,796	-200,000	0,024	-0,131
-214,782	-200,000	0,000	0,075
-213,767	-27,522	-0,035	0,014
-212,752	-200,000	-0,001	0,115
-211,738	-87,289	0,179	0,038
-210,723	76,635	-0,097	0,073
-209,709	-200,000	-0,019	0,064
-208,694	176,217	0,102	-0,106
-207,679	-28,831	-0,085	0,034
-206,665	-200,000	-0,005	-0,106
-205,650	-200,000	0,008	0,041
-204,636	800,000	0,050	0,156
-203,621	-117,276	0,012	0,002
-202,606	-54,163	-0,056	0,018
-201,592	435,125	0,032	0,050
-200,577	-200,000	0,002	-0,036
-199,563	60,759	0,080	-0,056
-198,548	-200,000	0,011	-0,036
-197,533	-200,000	-0,020	0,106
-196,519	800,000	0,030	0,089
-195,504	800,000	0,005	0,013
-194,490	-200,000	0,025	-0,101
-193,475	266,262	0,067	-0,083
-192,460	800,000	-0,023	-0,067
-191,446	-184,270	-0,083	-0,001
-190,431	-180,789	-0,055	0,001
-189,417	155,049	-0,065	0,064
-188,402	-42,780	0,053	-0,019
-187,387	-103,725	-0,088	-0,015
-186,373	-187,879	-0,058	-0,001
-185,358	-59,209	-0,058	0,018
-184,344	800,000	0,058	0,120
-183,329	158,100	0,041	0,040
-182,315	800,000	0,031	0,063
-181,300	-82,966	-0,153	0,035
-180,285	4,924	-0,103	-0,053
-179,271	309,982	-0,100	-0,133
-178,256	393,834	-0,047	-0,069
-177,242	-83,693	0,040	0,009
-176,227	363,675	-0,077	0,110
-175,212	-83,006	0,132	-0,030
-174,198	81,056	-0,108	0,083
-173,183	-128,839	0,042	-0,004
-172,169	-65,072	0,052	-0,015
-171,154	-63,617	0,062	-0,018
-170,139	-200,000	-0,016	-0,059
-169,125	-200,000	0,030	-0,102
-168,110	-162,905	-0,060	-0,002
-167,096	800,000	0,032	-0,068
-166,081	0,007	0,104	-0,052
-165,066	-200,000	0,001	-0,079
-164,052	800,000	0,034	0,102
-163,037	-88,214	0,056	-0,012
-162,023	-74,797	0,050	0,013
-161,008	-166,534	0,040	-0,001
-159,993	192,384	0,137	0,146
-158,979	-200,000	-0,015	0,110
-157,964	467,068	-0,058	0,093
-156,950	1,650	-0,080	0,041
-155,935	-85,474	-0,063	0,014
-154,920	800,000	0,057	0,126
-153,906	800,000	-0,030	0,070
-152,891	-200,000	-0,008	-0,052
-151,877	220,787	0,092	-0,105
-150,862	-200,000	-0,033	-0,183
-149,847	-40,673	-0,049	-0,018
-148,833	83,821	-0,016	0,012
-147,818	-200,000	0,006	0,056
-146,804	230,663	0,042	0,049
-145,789	-98,495	-0,115	0,021
-144,775	7,294	0,094	-0,050
-143,760	-200,000	-0,009	-0,078
-142,745	-200,000	0,002	0,062
-141,731	321,428	0,070	0,095
-140,716	-200,000	0,029	0,108
-139,702	800,000	0,041	0,090
-138,687	-82,070	-0,119	0,027
-137,672	-200,000	-0,036	-0,129
-136,658	-82,376	0,117	-0,027
-135,643	-36,614	-0,025	0,010
-134,629	-98,826	0,110	-0,020
-133,614	-114,301	0,144	-0,019
-132,599	-200,000	0,003	0,102
-131,585	-39,634	0,035	0,013
-130,570	-11,051	-0,097	-0,045
-129,556	-85,940	0,113	-0,024
-128,541	119,054	-0,115	-0,101
-127,526	-200,000	0,014	-0,052
-126,512	165,554	0,062	0,062
-125,497	800,000	0,056	0,122
-124,483	-113,849	0,097	-0,013
-123,468	-108,165	-0,194	0,029
-122,453	-96,662	0,109	-0,020
-121,439	154,297	-0,206	0,201
-120,424	800,000	0,011	-0,027
-119,410	-5,630	0,116	-0,056
-118,395	-49,660	-0,067	-0,023
-117,380	-126,340	0,148	0,015
-116,366	-112,835	-0,059	0,008
-115,351	-77,124	0,031	0,008
-114,337	299,641	0,015	-0,019
-113,322	-200,000	-0,004	-0,078
-112,307	-200,000	0,002	-0,095
-111,293	-45,597	0,119	-0,041
-110,278	-200,000	0,027	-0,096
-109,264	-131,822	-0,208	0,019
-108,249	138,430	0,053	0,049
-107,234	-200,000	-0,016	-0,067
-106,220	443,114	-0,013	0,020
-105,205	-21,090	0,122	-0,053
-104,191	85,480	-0,064	-0,050
-103,176	501,401	-0,047	-0,076
-102,162	-200,000	0,003	-0,025
-101,147	34,288	-0,020	-0,012
-100,132	-90,580	0,087	-0,018
-99,118	800,000	-0,072	0,199
-98,103	-136,530	-0,032	0,003
-97,089	-130,955	0,066	0,006
-96,074	58,299	0,074	0,052
-95,059	21,021	0,063	-0,036
-94,045	-200,000	0,004	0,095
-93,030	104,136	0,122	-0,101
-92,016	800,000	-0,016	-0,031
-91,001	575,039	0,020	-0,035
-89,986	76,449	0,094	0,071
-88,972	472,521	0,100	0,160
-87,957	-153,308	0,197	0,010
-86,943	800,000	-0,030	-0,087
-85,928	800,000	0,033	-0,089
-84,913	800,000	0,015	-0,032
-83,899	-58,855	-0,060	-0,018
-82,884	186,972	0,011	0,012
-81,870	92,352	0,094	0,075
-80,855	34,680	0,112	0,069
-79,840	-51,063	-0,101	-0,033
-78,826	11,512	0,063	-0,034
-77,811	150,810	-0,018	-0,017
-76,797	-14,967	-0,089	-0,040
-75,782	273,719	-0,071	0,089
-74,767	-200,000	-0,003	0,079
-73,753	617,810	0,056	-0,099
-72,738	3,035	-0,023	-0,012
-71,724	-200,000	0,002	-0,067
-70,709	-66,291	0,058	0,016
-69,694	-200,000	-0,007	-0,030
-68,680	292,904	0,029	-0,037
-67,665	-200,000	0,008	0,029
-66,651	-81,278	0,048	-0,011
-65,636	83,929	0,054	-0,042
-64,622	-145,167	-0,238	0,015
-63,607	800,000	0,011	0,032
-62,592	-20,987	0,089	-0,038
-61,578	-200,000	0,005	-0,030
-60,563	-169,407	0,082	0,002
-59,549	7,434	-0,036	0,019
-58,534	-3,703	-1,714	-0,839
-57,519	470,604	-1,305	-2,080
-56,505	-200,000	-0,304	-4,473
-55,490	277,842	0,905	1,141
-54,476	800,000	4,980	11,329
-53,461	-200,000	20,030	329,312
-52,446	800,000	748,668	2321,296
-51,432	555,479	1656,968	2828,891
-50,417	75,493	1666,124	1241,070
-49,403	19,980	1539,313	874,253
-48,388	13,905	1461,650	800,727
-47,373	18,709	1451,609	818,284
-46,359	16,628	1440,970	802,338
-45,344	12,267	1436,564	779,076
-44,330	12,158	1434,652	777,490
-43,315	12,185	1432,946	776,660
-42,300	12,225	1431,372	775,969
-41,286	12,187	1430,196	775,116
-40,271	12,138	1428,708	774,047
-39,257	12,151	1427,546	773,448
-38,242	12,194	1426,437	773,023
-37,227	12,214	1425,010	772,315
-36,213	12,225	1423,740	771,645
-35,198	12,189	1422,790	770,928
-34,184	12,251	1421,715	770,609
-33,169	12,200	1420,124	769,475
-32,154	12,242	1419,319	769,206
-31,140	12,299	1417,899	768,677
-30,125	12,262	1416,812	767,882
-29,111	12,254	1415,818	767,277
-28,096	12,221	1414,707	766,486
-27,082	12,222	1413,385	765,747
-26,067	12,164	1412,524	764,976
-25,052	12,181	1411,537	764,492
-24,038	12,173	1410,411	763,812
-23,023	12,179	1409,327	763,223
-22,009	12,143	1408,381	762,513
-20,994	12,172	1407,229	761,997
-19,979	12,132	1406,757	761,521
-18,965	12,117	1405,758	760,881
-17,950	12,138	1404,612	760,328
-16,936	12,132	1403,919	759,896
-15,921	12,094	1402,714	759,035
-14,906	12,093	1401,904	758,562
-13,892	12,077	1400,915	757,924
-12,877	12,053	1400,289	757,445
-11,863	12,053	1399,337	756,897
-10,848	12,032	1398,511	756,322
-9,833	11,965	1397,626	755,503
-8,819	11,955	1396,760	754,959
-7,804	11,960	1395,793	754,429
-6,790	11,997	1394,756	754,010
-5,775	11,984	1393,660	753,328
-4,760	12,031	1392,676	752,982
-3,746	11,997	1391,788	752,318
-2,731	11,971	1391,161	751,827
-1,717	11,946	1390,163	751,143
-0,702	11,945	1388,709	750,325
0,313	15,897	1303,755	722,581
1,327	31,996	697,555	423,448
2,342	49,250	121,850	80,729
3,356	2,502	16,535	8,424
4,371	16,383	3,282	1,823
5,386	-35,807	0,706	0,268
6,400	-200,000	0,043	0,479
7,415	122,325	-0,173	-0,152
8,429	15,405	-0,251	-0,139
9,444	26,913	-0,356	-0,210
10,459	38,640	-0,229	-0,144
11,473	305,463	-0,210	-0,277
12,488	-117,990	-0,221	-0,028
13,502	18,012	-0,355	-0,199
14,517	-70,639	-0,352	-0,093
15,531	103,717	-0,421	-0,348
16,546	168,158	-0,351	-0,352
17,561	182,515	-0,286	-0,297
18,575	-102,547	-0,220	-0,037
19,590	-14,959	-0,341	-0,154
20,604	33,876	-0,306	-0,188
21,619	70,866	-0,419	-0,305
22,634	207,407	-0,351	-0,387
23,648	-44,224	-0,454	-0,160
24,663	-118,450	-0,487	-0,060
25,677	239,834	-0,307	-0,361
26,692	122,404	-0,223	-0,196
27,707	-89,577	-0,316	-0,065
28,721	35,406	-0,373	-0,230
29,736	90,858	-0,370	-0,292
30,750	210,690	-0,284	-0,314
31,765	-13,329	-0,382	-0,174
32,780	352,944	-0,247	-0,346
33,794	79,952	-0,287	-0,217
34,809	-16,049	-0,277	-0,124
35,823	83,712	-0,279	-0,214
36,838	104,178	-0,315	-0,261
37,853	101,450	-0,345	-0,282
38,867	145,172	-0,388	-0,366
39,882	242,738	-0,205	-0,241
40,896	89,996	-0,342	-0,269
41,911	47,324	-0,416	-0,272
42,926	112,048	-0,296	-0,252
43,940	38,832	-0,364	-0,228
44,955	-12,112	-0,364	-0,167
45,969	117,889	-0,242	-0,210
46,984	26,812	-0,431	-0,253
47,999	-0,714	-0,355	-0,176
49,013	-65,503	-0,280	-0,078
50,028	19,239	-0,359	-0,202
51,042	135,355	-0,398	-0,364
52,057	112,218	-0,262	-0,223
53,071	164,889	-0,274	-0,272
54,086	-136,201	-0,377	-0,031
55,101	44,493	-0,405	-0,261
56,115	43,276	-0,274	-0,175
57,130	-45,158	-0,275	-0,095
58,144	-24,155	-0,473	-0,198
59,159	62,631	-0,310	-0,217
60,174	144,281	-0,293	-0,274
61,188	52,547	-0,388	-0,260
62,203	-46,608	-0,232	-0,080
63,217	-83,363	-0,345	-0,077
64,232	37,333	-0,290	-0,180
65,247	175,693	-0,196	-0,200
66,261	137,689	-0,383	-0,352
67,276	328,493	-0,171	-0,231
68,290	-15,424	-0,441	-0,197
69,305	-69,483	-0,307	-0,082
70,320	119,187	-0,248	-0,215
71,334	-45,385	-0,320	-0,111
72,349	23,437	-0,294	-0,169
73,363	20,311	-0,224	-0,127
74,378	266,651	-0,293	-0,359
75,393	183,698	-0,174	-0,181
76,407	134,370	-0,251	-0,229
77,422	15,116	-0,286	-0,157
78,436	39,785	-0,206	-0,129
79,451	130,128	-0,287	-0,257
80,466	150,393	-0,235	-0,224
81,480	338,986	-0,178	-0,244
82,495	438,187	-0,214	-0,328
83,509	27,914	-0,329	-0,194
84,524	111,177	-0,133	-0,113
85,539	-17,046	-0,286	-0,126
86,553	74,503	-0,193	-0,142
87,568	50,145	-0,321	-0,212
88,582	183,666	-0,227	-0,235
89,597	-23,468	-0,299	-0,125
90,611	-12,878	-0,350	-0,159
91,626	140,958	-0,262	-0,243
92,641	-136,119	-0,275	-0,022
93,655	-155,888	-0,199	-0,009
94,670	106,034	-0,305	-0,253
95,684	18,917	-0,333	-0,186
96,699	124,903	-0,194	-0,171
97,714	-38,178	-0,306	-0,113
98,728	-62,903	-0,269	-0,077
99,743	-53,807	-0,269	-0,085
100,757	44,717	-0,239	-0,154
101,772	-46,623	-0,407	-0,139
102,787	-0,508	-0,336	-0,166
103,801	51,189	-0,418	-0,277
104,816	58,263	-0,333	-0,228
105,830	800,000	-0,169	-0,348
106,845	100,153	-0,228	-0,185
107,860	-6,660	-0,382	-0,181
108,874	-8,463	-0,428	-0,200
109,889	-74,971	-0,165	-0,041
110,903	13,346	-0,387	-0,209
111,918	704,541	-0,094	-0,174
112,933	23,219	-0,318	-0,182
113,947	220,149	-0,198	-0,222
114,962	46,941	-0,143	-0,093
115,976	281,826	-0,177	-0,222
116,991	175,456	-0,292	-0,297
118,006	248,191	-0,204	-0,242
119,020	-6,469	-0,349	-0,165
120,035	99,659	-0,134	-0,108
121,049	-49,324	-0,136	-0,045
122,064	-15,625	-0,196	-0,087
123,079	32,401	-0,224	-0,135
124,093	61,879	-0,295	-0,205
125,108	80,986	-0,305	-0,229
126,122	179,079	-0,221	-0,226
127,137	245,206	-0,178	-0,209
128,151	93,502	-0,251	-0,199
129,166	201,934	-0,167	-0,180
130,181	163,849	-0,243	-0,239
131,195	20,119	-0,211	-0,119
132,210	61,092	-0,325	-0,225
133,224	131,483	-0,202	-0,181
134,239	-102,868	-0,233	-0,038
135,254	-78,365	-0,199	0,047
136,268	-1,770	-0,277	-0,136
137,283	-84,207	-0,233	-0,051
138,297	46,411	-0,158	-0,102
139,312	86,402	-0,341	-0,262
140,327	80,480	-0,331	-0,249
141,341	182,211	-0,229	-0,236
142,356	126,224	-0,103	-0,091
143,370	-163,788	-0,221	-0,007
144,385	309,684	-0,208	-0,272
145,400	-59,262	-0,388	-0,116
146,414	130,965	-0,278	-0,249
147,429	213,844	-0,261	-0,289
148,443	-62,706	-0,226	-0,065
149,458	114,528	-0,221	-0,188
150,473	139,573	-0,131	-0,120
151,487	101,200	-0,219	-0,178
152,502	315,056	-0,196	-0,259
153,516	117,336	-0,384	-0,329
154,531	5,518	-0,257	-0,132
155,546	18,679	-0,260	-0,144
156,560	35,594	-0,226	-0,138
157,575	183,781	-0,070	-0,072
158,589	165,118	-0,182	-0,179
159,604	80,462	-0,204	-0,153
160,619	16,190	-0,352	-0,192
161,633	183,344	-0,193	-0,199
162,648	84,362	-0,207	-0,157
163,662	103,888	-0,221	-0,181
164,677	-72,242	-0,300	-0,077
165,692	45,311	-0,213	-0,137
166,706	307,033	-0,217	-0,282
167,721	169,238	-0,250	-0,248
168,735	74,520	-0,214	-0,156
169,750	117,961	-0,269	-0,230
170,764	42,834	-0,109	-0,069
171,779	39,746	-0,214	-0,133
172,794	-146,376	-0,159	0,010
173,808	409,938	-0,176	-0,260
174,823	72,526	-0,347	-0,251
175,837	-200,000	-0,048	-0,152
176,852	247,633	-0,216	-0,254
177,867	-182,573	-0,211	0,003
178,881	391,087	-0,171	-0,247
179,896	-86,052	-0,219	-0,047
180,910	558,562	-0,108	-0,181
181,925	-108,652	-0,364	-0,054
182,940	121,807	-0,290	-0,251
183,954	202,326	-0,228	-0,245
184,969	800,000	-0,115	-0,246
185,983	45,236	-0,222	-0,142
186,998	-23,137	-0,298	-0,124
188,013	-11,899	-0,272	-0,124
189,027	234,733	-0,231	-0,266
190,042	-8,970	-0,180	-0,084
191,056	-69,407	-0,150	-0,040
192,071	-23,915	-0,192	-0,080
193,086	800,000	-0,086	-0,174
194,100	-87,766	-0,132	0,027
195,115	-68,817	-0,215	-0,057
196,129	-98,034	-0,203	0,036
197,144	244,602	-0,236	-0,275
198,159	195,227	-0,147	-0,155
199,173	105,990	-0,186	-0,153
200,188	265,150	-0,114	-0,138
201,202	80,564	-0,146	-0,109
202,217	-46,568	-0,141	-0,048
203,232	139,250	-0,190	-0,174
204,246	39,915	-0,200	-0,124
205,261	139,793	-0,262	-0,239
206,275	-22,099	-0,205	-0,086
207,290	76,807	-0,235	-0,173
208,304	-68,839	-0,209	-0,055
209,319	151,086	-0,113	-0,106
210,334	-28,737	-0,160	-0,064
211,348	-169,898	-0,141	-0,003
212,363	117,447	-0,169	-0,144
213,377	-200,000	-0,024	-0,105
214,392	-83,847	-0,100	-0,022
215,407	-200,000	-0,043	-0,165
216,421	800,000	-0,075	-0,170
217,436	79,458	-0,184	-0,136
218,450	287,253	-0,161	-0,202
219,465	203,938	-0,144	-0,155
220,480	185,075	-0,137	-0,141
221,494	39,429	-0,101	-0,063
222,509	33,792	-0,319	-0,192
223,523	415,648	-0,126	-0,187
224,538	-65,726	-0,320	-0,088
225,553	295,730	-0,231	-0,294
226,567	-116,389	-0,224	-0,028
227,582	298,460	-0,228	-0,291
228,596	77,081	-0,111	-0,081
229,611	-142,762	-0,122	0,008
230,626	-19,050	-0,227	-0,097
231,640	-51,587	-0,175	-0,056
232,655	-65,595	-0,278	-0,077
233,669	185,554	-0,247	-0,254
234,684	348,031	-0,158	-0,216
235,699	134,294	-0,229	-0,205
236,713	104,969	-0,115	-0,093
237,728	65,100	-0,129	-0,090
238,742	310,499	-0,170	-0,221
239,757	61,710	-0,257	-0,177
240,772	-112,947	-0,161	0,022
241,786	800,000	-0,081	-0,230
242,801	61,721	-0,151	-0,104
243,815	103,877	-0,135	-0,110
244,830	61,305	-0,199	-0,136
245,844	-131,152	-0,163	-0,015
246,859	493,734	-0,126	-0,201
247,874	269,966	-0,210	-0,256
248,888	72,030	-0,114	-0,082
249,903	21,203	-0,269	-0,150
250,917	-161,152	-0,173	-0,006
251,932	800,000	-0,059	-0,118
252,947	-14,814	-0,112	0,050
253,961	-200,000	-0,068	-0,235
254,976	-1,300	-0,209	-0,101
255,990	-10,197	-0,144	-0,066
257,005	81,451	-0,055	-0,041
258,020	190,198	-0,092	0,096
259,034	-156,709	-0,119	0,005
260,049	21,751	-0,107	-0,060
261,063	-133,187	-0,213	-0,018
262,078	-55,205	-0,191	-0,059
263,093	168,499	-0,177	-0,174
264,107	562,752	-0,036	-0,060
265,122	510,007	-0,058	-0,094
266,136	-7,678	-0,198	-0,092
267,151	-7,657	-0,221	-0,102
268,166	-109,916	-0,238	-0,034
269,180	-155,067	-0,156	0,007
270,195	381,922	-0,101	-0,144
271,209	-60,288	-0,364	-0,106
272,224	-51,000	-0,143	-0,046
273,239	263,455	-0,099	-0,119
274,253	-64,875	-0,199	0,055
275,268	464,044	-0,130	-0,201
276,282	487,433	-0,173	-0,273
277,297	800,000	-0,046	-0,132
278,312	800,000	-0,111	-0,285
279,326	-167,531	-0,226	0,006
280,341	-200,000	-0,024	-0,193
281,355	273,757	-0,172	-0,210
282,370	260,244	-0,117	-0,140
283,384	-132,591	-0,196	0,017
284,399	7,097	-0,264	-0,135
285,414	80,315	-0,174	-0,129
286,428	-27,426	-0,187	-0,074
287,443	20,351	-0,173	-0,096
288,457	-44,842	-0,037	-0,013
289,472	-200,000	-0,039	-0,124
290,487	298,111	-0,168	-0,213
291,501	800,000	-0,133	-0,264
292,516	800,000	-0,054	-0,113
293,530	-8,597	-0,046	0,021
294,545	296,788	-0,101	-0,127
295,560	-200,000	-0,015	-0,070
296,574	-133,474	-0,198	-0,017
297,589	153,638	-0,186	-0,176
298,603	-82,866	-0,179	0,039
299,618	312,764	-0,132	-0,171
300,633	53,617	-0,145	-0,095
301,647	800,000	-0,136	-0,274
302,662	282,173	-0,081	-0,101
303,676	-161,017	-0,123	0,004
304,691	800,000	-0,032	-0,088
305,706	13,681	-0,209	-0,111
306,720	-154,679	-0,173	-0,008
307,735	-63,993	-0,214	-0,060
308,749	-67,525	-0,162	-0,043
309,764	35,216	-0,166	-0,100
310,779	-22,519	-0,220	-0,091
311,793	-23,098	-0,102	-0,042
312,808	23,418	-0,149	-0,084
313,822	-150,271	-0,157	-0,008
314,837	-78,535	-0,188	-0,044
315,852	-200,000	-0,003	-0,066
316,866	116,364	-0,038	-0,032
317,881	-60,929	-0,267	0,077
318,895	288,246	-0,086	-0,107
319,910	281,844	-0,163	-0,201
320,925	129,075	-0,109	-0,095
321,939	-200,000	-0,023	-0,100
322,954	6,405	-0,071	-0,036
323,968	-135,839	-0,146	-0,012
324,983	56,669	-0,127	-0,085
325,997	175,373	-0,149	-0,148
327,012	455,638	-0,142	-0,217
328,027	0,508	-0,165	-0,080
329,041	11,901	-0,206	0,108
330,056	-164,333	-0,118	-0,004
331,070	-11,464	-0,146	-0,066
332,085	395,037	-0,077	-0,110
333,100	-161,811	-0,162	0,006
334,114	162,494	-0,073	-0,071
335,129	181,639	-0,045	0,045
336,143	-23,060	-0,204	-0,084
337,158	-118,521	-0,123	0,015
338,173	-29,861	-0,153	0,060
339,187	-90,019	-0,162	-0,032
340,202	-66,564	-0,156	-0,042
341,216	524,081	-0,124	-0,200
342,231	39,421	-0,199	-0,122
343,246	-200,000	0,001	-0,218
344,260	54,867	-0,196	-0,129
345,275	-200,000	-0,006	-0,062
346,289	-36,081	-0,156	0,057
347,304	348,922	-0,191	-0,258
348,319	10,735	-0,049	-0,026
349,333	-70,023	-0,105	-0,027
350,348	-200,000	-0,068	-0,241
351,362	143,057	-0,149	-0,136
352,377	212,727	-0,127	-0,138
353,392	280,801	-0,087	-0,107
354,406	496,498	-0,100	-0,158
355,421	205,801	1312,671	1398,529
356,435	158,253	1473,130	1399,032
