DTS Sentinel unit serial number:	SN410029Multiplexer serial number:	ORYXHardware model number:	OX2-SRSoftware version number:	ORYX F/W v4,00 Oryx Data Collector v3.7.2.0data status	okinstallation	B3 Nyhavnadifferential loss correction	single-endedforward channel	channel 1reverse channel	N/Adate	2023/12/05time	02:12:30forward acquisition time	300,00reverse acquisition time	0,00gamma	499,1914k internal	0,3201k external	0,3201temperature offset calibration	1,0000default loss term (dB/km)	0,3820temperature slope calibration	1,0000multiplexer offset coefficient	1,0000multiplexer slope coefficient	1,0000fibre end	0,00T internal ref (°C)	13,90T ext. ref 1 (°C)	-0,68T ext. ref 2 (°C)	-0,70length (m)	temperature (°C)	Stokes	anti-Stokes-744,400	253,024	-0,189	-0,235
-743,385	-200,000	0,011	0,143
-742,371	8,739	-0,152	-0,083
-741,356	-200,000	0,023	0,381
-740,342	220,286	-0,214	-0,250
-739,327	-200,000	-0,037	0,298
-738,312	69,829	-0,183	-0,137
-737,298	541,126	-0,097	0,168
-736,283	800,000	-0,132	-0,375
-735,269	-200,000	0,014	0,408
-734,254	184,495	-0,191	-0,206
-733,239	-124,854	-0,303	0,034
-732,225	319,295	-0,092	-0,127
-731,210	322,249	0,044	0,062
-730,196	-200,000	-0,024	0,108
-729,181	-67,687	-0,159	-0,045
-728,167	-200,000	-0,007	0,044
-727,152	-200,000	-0,011	-0,181
-726,137	359,038	0,039	-0,057
-725,123	155,106	-0,080	-0,080
-724,108	-19,983	-0,110	-0,049
-723,094	113,851	-0,134	-0,118
-722,079	214,692	-0,092	-0,106
-721,064	1,905	-0,134	-0,070
-720,050	-162,925	-0,001	0,000
-719,035	430,874	-0,053	-0,084
-718,021	56,907	-0,072	-0,051
-717,006	800,000	-0,050	-0,115
-715,991	-200,000	-0,005	-0,041
-714,977	-200,000	0,035	-0,126
-713,962	-152,907	0,119	0,006
-712,948	31,602	-0,105	-0,066
-711,933	101,252	0,015	-0,013
-710,918	476,807	-0,020	0,033
-709,904	-168,400	0,065	-0,002
-708,889	147,051	-0,066	-0,065
-707,875	-200,000	-0,016	-0,077
-706,860	118,068	-0,067	-0,060
-705,845	238,466	0,047	0,056
-704,831	-79,448	0,163	-0,040
-703,816	75,614	0,076	0,058
-702,802	423,967	-0,061	0,096
-701,787	-33,703	0,143	0,057
-700,772	-200,000	-0,028	-0,153
-699,758	-13,523	0,130	-0,061
-698,743	161,196	-0,036	-0,037
-697,729	-200,000	-0,009	0,071
-696,714	-101,821	0,126	0,022
-695,699	535,450	0,042	0,072
-694,685	-63,042	-0,042	0,012
-693,670	-31,695	-0,088	0,036
-692,656	334,829	0,020	0,028
-691,641	162,638	-0,083	-0,084
-690,627	-22,095	0,088	-0,039
-689,612	429,391	0,087	-0,136
-688,597	458,359	-0,121	0,196
-687,583	317,870	-0,064	-0,088
-686,568	800,000	0,023	-0,059
-685,554	82,900	-0,066	-0,052
-684,539	-200,000	-0,011	0,045
-683,524	35,558	-0,088	-0,056
-682,510	800,000	0,056	-0,139
-681,495	-61,043	-0,049	0,015
-680,481	-200,000	0,022	0,128
-679,466	362,286	0,048	-0,070
-678,451	800,000	0,042	-0,133
-677,437	-3,058	-0,081	0,041
-676,422	-200,000	0,003	0,065
-675,408	-1,581	0,100	0,051
-674,393	-200,000	0,002	0,075
-673,378	-155,711	-0,179	0,008
-672,364	778,773	0,060	-0,120
-671,349	-200,000	0,008	0,051
-670,335	521,360	0,071	0,122
-669,320	381,126	0,040	-0,060
-668,305	800,000	0,022	-0,069
-667,291	27,749	0,052	-0,032
-666,276	-149,312	0,055	-0,003
-665,262	-200,000	0,058	-0,194
-664,247	384,165	-0,056	-0,084
-663,232	41,153	-0,071	0,046
-662,218	338,127	-0,077	0,110
-661,203	-32,708	0,090	0,036
-660,189	-74,126	0,087	0,023
-659,174	299,595	-0,059	-0,079
-658,159	8,607	-0,039	0,021
-657,145	-117,906	0,117	-0,015
-656,130	-200,000	0,014	-0,134
-655,116	-186,910	-0,114	-0,001
-654,101	-98,028	-0,017	0,003
-653,086	-200,000	-0,015	-0,138
-652,072	90,197	0,018	-0,015
-651,057	357,859	-0,037	-0,053
-650,043	800,000	-0,052	-0,129
-649,028	264,589	0,077	0,098
-648,014	-200,000	0,001	-0,020
-646,999	141,475	0,060	-0,057
-645,984	-200,000	0,001	-0,042
-644,970	344,869	0,044	0,063
-643,955	136,196	-0,082	-0,077
-642,941	-41,880	-0,112	-0,041
-641,926	723,075	0,017	0,033
-640,911	-200,000	0,010	0,135
-639,897	-200,000	0,024	0,092
-638,882	800,000	-0,028	0,078
-637,868	-200,000	0,020	0,096
-636,853	74,532	-0,084	-0,064
-635,838	397,082	-0,022	0,034
-634,824	317,453	-0,070	-0,096
-633,809	-130,320	0,176	-0,017
-632,795	-137,099	-0,017	0,001
-631,780	142,809	-0,080	0,077
-630,765	-200,000	-0,007	-0,188
-629,751	36,402	-0,043	-0,027
-628,736	800,000	0,023	-0,064
-627,722	-200,000	0,011	0,101
-626,707	760,439	0,050	-0,099
-625,692	31,494	0,068	0,042
-624,678	-200,000	-0,011	-0,107
-623,663	694,573	-0,106	0,202
-622,649	-200,000	-0,027	0,109
-621,634	-200,000	0,013	-0,050
-620,619	128,328	-0,042	0,039
-619,605	18,329	-0,117	0,067
-618,590	-43,816	-0,018	-0,007
-617,576	-200,000	0,003	0,079
-616,561	-200,000	0,006	-0,063
-615,546	-33,789	0,053	0,021
-614,532	-200,000	0,043	0,187
-613,517	-200,000	-0,018	0,123
-612,503	-105,243	-0,047	0,008
-611,488	146,227	0,113	-0,110
-610,474	65,339	0,137	0,100
-609,459	-104,162	-0,101	0,017
-608,444	800,000	-0,092	0,190
-607,430	1,805	-0,010	0,005
-606,415	-53,140	-0,079	-0,026
-605,401	-93,853	-0,100	-0,020
-604,386	115,811	0,129	-0,114
-603,371	-82,181	0,072	-0,017
-602,357	76,696	-0,072	0,055
-601,342	800,000	0,056	0,117
-600,328	-100,481	-0,138	-0,024
-599,313	-18,467	0,133	0,060
-598,298	535,116	0,059	-0,101
-597,284	800,000	0,015	0,032
-596,269	-91,619	-0,109	0,022
-595,255	-27,872	0,049	-0,021
-594,240	53,847	-0,045	0,032
-593,225	-200,000	0,002	-0,110
-592,211	93,768	-0,088	-0,072
-591,196	800,000	0,064	-0,156
-590,182	-138,716	0,105	0,008
-589,167	-148,432	0,063	-0,004
-588,152	-124,046	-0,048	-0,005
-587,138	69,374	0,083	0,062
-586,123	112,591	-0,099	0,087
-585,109	171,020	-0,057	0,059
-584,094	-47,478	0,061	0,021
-583,079	-183,057	-0,111	-0,001
-582,065	-200,000	-0,003	-0,026
-581,050	-110,329	0,067	-0,010
-580,036	-98,978	0,043	0,008
-579,021	800,000	0,025	-0,062
-578,006	523,532	0,023	0,038
-576,992	244,959	-0,041	-0,050
-575,977	800,000	-0,074	-0,153
-574,963	-200,000	-0,024	-0,185
-573,948	230,440	0,095	0,112
-572,934	-97,180	0,108	0,020
-571,919	-86,664	0,052	-0,011
-570,904	-153,409	-0,037	-0,002
-569,890	-135,606	-0,025	0,002
-568,875	800,000	-0,054	0,113
-567,861	-200,000	0,036	0,116
-566,846	-172,183	0,072	0,002
-565,831	-99,252	0,061	0,011
-564,817	-63,952	0,081	0,024
-563,802	-200,000	-0,007	-0,065
-562,788	800,000	-0,033	-0,088
-561,773	-115,974	-0,037	-0,005
-560,758	47,123	-0,046	-0,031
-559,744	712,668	0,041	0,078
-558,729	401,534	0,090	0,137
-557,715	282,135	-0,056	-0,073
-556,700	-61,294	-0,209	0,063
-555,685	-200,000	0,004	-0,024
-554,671	-94,452	0,059	-0,011
-553,656	471,330	-0,062	0,101
-552,642	236,016	0,032	0,039
-551,627	295,376	0,064	0,085
-550,612	-43,894	-0,085	-0,031
-549,598	196,670	-0,111	-0,122
-548,583	501,898	-0,101	-0,169
-547,569	429,257	0,050	-0,078
-546,554	-200,000	0,000	0,031
-545,539	27,521	0,108	-0,065
-544,525	172,302	-0,093	0,096
-543,510	-200,000	-0,000	-0,037
-542,496	-85,000	-0,063	-0,014
-541,481	-21,932	-0,090	-0,039
-540,466	-131,209	0,114	-0,011
-539,452	800,000	0,045	0,120
-538,437	-119,775	-0,009	0,001
-537,423	38,922	-0,082	0,053
-536,408	-200,000	0,002	0,038
-535,393	800,000	-0,060	0,138
-534,379	562,381	0,101	-0,177
-533,364	123,036	-0,108	-0,097
-532,350	-200,000	-0,001	0,043
-531,335	-14,847	-0,077	0,035
-530,321	-22,331	0,047	-0,021
-529,306	-200,000	0,035	-0,175
-528,291	162,652	-0,053	-0,053
-527,277	77,289	-0,098	-0,075
-526,262	800,000	0,075	0,220
-525,248	331,628	0,050	0,069
-524,233	-13,731	0,081	-0,038
-523,218	681,709	-0,044	0,084
-522,204	-200,000	-0,039	-0,187
-521,189	-200,000	-0,018	-0,074
-520,175	-200,000	0,002	0,042
-519,160	376,130	0,047	-0,069
-518,145	-105,032	0,063	-0,010
-517,131	-200,000	0,012	-0,127
-516,116	-200,000	0,013	0,089
-515,102	-200,000	-0,005	-0,023
-514,087	84,237	0,039	-0,031
-513,072	123,584	-0,077	-0,070
-512,058	800,000	0,033	-0,073
-511,043	465,991	0,037	0,060
-510,029	31,877	0,082	-0,051
-509,014	2,173	-0,073	0,038
-507,999	-200,000	-0,003	0,022
-506,985	264,418	-0,077	0,096
-505,970	35,740	-0,061	0,039
-504,956	-25,342	-0,187	-0,079
-503,941	219,504	0,020	-0,024
-502,926	146,201	0,086	0,083
-501,912	2,264	-0,037	-0,019
-500,897	-200,000	-0,008	-0,028
-499,883	20,854	0,038	-0,022
-498,868	-200,000	0,023	0,098
-497,853	800,000	0,029	-0,089
-496,839	800,000	0,061	-0,122
-495,824	-86,975	-0,067	0,015
-494,810	-200,000	0,002	0,034
-493,795	143,171	0,032	0,031
-492,781	170,313	-0,044	-0,045
-491,766	292,990	-0,032	0,042
-490,751	460,263	0,008	0,013
-489,737	-200,000	-0,000	0,027
-488,722	-200,000	0,010	0,148
-487,708	-173,293	0,050	-0,001
-486,693	800,000	-0,063	0,155
-485,678	-200,000	0,053	0,172
-484,664	-108,461	-0,115	-0,018
-483,649	-33,400	-0,022	-0,009
-482,635	-53,373	0,065	-0,021
-481,620	137,712	0,037	0,035
-480,605	-200,000	0,160	0,000
-479,591	800,000	0,030	0,086
-478,576	800,000	-0,022	-0,059
-477,562	-99,884	0,051	-0,009
-476,547	313,623	-0,111	-0,150
-475,532	63,321	-0,184	-0,132
-474,518	-2,218	0,110	-0,055
-473,503	543,426	-0,089	-0,154
-472,489	-50,033	0,058	-0,020
-471,474	-200,000	-0,028	0,173
-470,459	70,531	0,131	-0,097
-469,445	6,264	-0,111	-0,059
-468,430	564,134	-0,022	-0,039
-467,416	-56,937	-0,053	0,017
-466,401	-70,165	0,137	0,037
-465,386	268,794	0,022	-0,028
-464,372	-12,299	0,103	-0,048
-463,357	-200,000	-0,004	-0,139
-462,343	-190,430	-0,019	-0,000
-461,328	376,712	-0,070	0,103
-460,313	248,229	0,026	-0,032
-459,299	237,009	-0,133	-0,159
-458,284	-33,865	-0,063	0,025
-457,270	548,341	0,034	-0,059
-456,255	-60,004	-0,017	0,005
-455,241	800,000	0,054	0,146
-454,226	-50,208	-0,112	0,038
-453,211	9,552	-0,080	-0,044
-452,197	-6,871	0,118	0,058
-451,182	-200,000	-0,005	0,162
-450,168	-200,000	0,002	0,054
-449,153	522,658	-0,037	-0,063
-448,138	-121,381	0,029	0,003
-447,124	84,643	-0,078	0,061
-446,109	-198,809	0,037	-0,000
-445,095	800,000	0,072	-0,177
-444,080	248,133	0,044	-0,053
-443,065	348,143	0,071	0,102
-442,051	-191,359	-0,117	0,001
-441,036	-200,000	-0,009	-0,127
-440,022	-200,000	-0,022	0,087
-439,007	524,383	0,056	0,094
-437,992	-67,609	0,139	-0,039
-436,978	-113,286	0,082	0,011
-435,963	-200,000	0,017	0,063
-434,949	5,059	-0,121	0,064
-433,934	-38,113	-0,038	-0,014
-432,919	-200,000	-0,009	-0,057
-431,905	-42,206	-0,057	-0,021
-430,890	-200,000	0,040	-0,144
-429,876	-58,036	0,064	-0,020
-428,861	-129,742	0,037	0,004
-427,846	800,000	0,032	0,077
-426,832	32,051	-0,131	-0,081
-425,817	416,996	0,057	-0,088
-424,803	-200,000	0,031	-0,118
-423,788	800,000	-0,035	-0,084
-422,773	26,645	0,144	-0,086
-421,759	461,080	-0,025	0,040
-420,744	-125,504	0,077	-0,008
-419,730	-200,000	0,012	-0,064
-418,715	123,567	0,119	-0,107
-417,701	-155,410	-0,117	-0,005
-416,686	-156,782	-0,060	0,003
-415,671	800,000	0,056	0,150
-414,657	-89,936	0,184	0,038
-413,642	336,332	0,006	0,008
-412,628	125,612	-0,052	-0,047
-411,613	373,215	0,067	0,099
-410,598	800,000	0,023	0,060
-409,584	225,065	0,065	-0,076
-408,569	-174,350	-0,042	-0,001
-407,555	-82,066	0,119	0,028
-406,540	-46,105	0,047	0,017
-405,525	-200,000	-0,004	-0,019
-404,511	24,510	0,039	0,023
-403,496	-100,151	0,081	-0,014
-402,482	-106,456	-0,106	-0,017
-401,467	-85,656	0,110	0,024
-400,452	800,000	-0,059	0,133
-399,438	-147,209	-0,178	-0,011
-398,423	-51,706	-0,044	-0,015
-397,409	-200,000	0,008	-0,074
-396,394	-200,000	0,033	0,133
-395,379	-180,514	-0,147	0,002
-394,365	154,975	0,070	0,069
-393,350	800,000	-0,014	-0,038
-392,336	-109,667	-0,147	-0,022
-391,321	-97,553	-0,053	-0,010
-390,306	-13,274	0,042	-0,019
-389,292	800,000	0,028	-0,087
-388,277	379,557	0,070	-0,104
-387,263	-58,493	0,173	0,054
-386,248	-52,938	0,077	-0,025
-385,233	5,183	-0,105	-0,055
-384,219	800,000	0,025	0,069
-383,204	800,000	0,012	0,035
-382,190	202,251	-0,065	-0,072
-381,175	223,118	0,067	-0,077
-380,160	-102,662	-0,035	0,006
-379,146	800,000	0,074	-0,168
-378,131	-91,573	0,044	0,009
-377,117	800,000	-0,043	-0,086
-376,102	-87,901	-0,169	-0,036
-375,088	10,208	-0,090	-0,049
-374,073	-200,000	-0,011	0,036
-373,058	-0,315	0,157	-0,080
-372,044	-181,482	-0,104	0,001
-371,029	108,087	0,099	0,085
-370,015	-200,000	-0,001	-0,051
-369,000	-157,211	-0,181	0,008
-367,985	-200,000	0,007	-0,094
-366,971	144,237	-0,057	0,055
-365,956	-200,000	-0,008	0,056
-364,942	-200,000	-0,023	0,078
-363,927	39,579	0,162	-0,104
-362,912	800,000	-0,038	-0,078
-361,898	348,479	-0,010	0,014
-360,883	150,226	-0,051	0,050
-359,869	-200,000	0,006	0,035
-358,854	129,838	-0,124	0,114
-357,839	424,372	-0,030	-0,047
-356,825	50,137	0,045	-0,030
-355,810	40,730	0,085	-0,055
-354,796	-200,000	0,013	0,042
-353,781	-200,000	0,011	0,071
-352,766	800,000	-0,042	-0,084
-351,752	-144,945	-0,102	-0,007
-350,737	-26,403	0,081	0,034
-349,723	104,311	0,097	-0,082
-348,708	-66,882	-0,067	-0,019
-347,693	-134,959	0,086	0,007
-346,679	800,000	-0,044	-0,105
-345,664	50,848	-0,089	-0,060
-344,650	-64,103	-0,030	0,009
-343,635	-200,000	0,001	0,096
-342,620	42,337	-0,042	-0,027
-341,606	66,833	0,096	0,070
-340,591	800,000	-0,007	0,015
-339,577	137,137	-0,095	-0,089
-338,562	272,547	0,020	0,025
-337,548	-79,539	-0,051	-0,012
-336,533	-200,000	0,027	-0,094
-335,518	202,334	0,028	0,031
-334,504	615,674	-0,057	0,103
-333,489	-81,036	0,051	-0,012
-332,475	800,000	0,025	-0,071
-331,460	-200,000	0,015	-0,127
-330,445	-200,000	-0,007	0,146
-329,431	-100,900	0,149	0,026
-328,416	40,799	0,129	0,083
-327,402	111,027	-0,047	0,041
-326,387	183,883	-0,049	0,052
-325,372	-200,000	-0,019	0,062
-324,358	800,000	-0,023	-0,049
-323,343	-133,839	0,072	-0,006
-322,329	-200,000	-0,025	0,082
-321,314	178,281	0,070	0,074
-320,299	-200,000	-0,011	0,117
-319,285	-200,000	-0,010	0,153
-318,270	78,951	-0,062	-0,048
-317,256	-107,622	-0,130	0,020
-316,241	800,000	0,047	-0,123
-315,226	-140,629	0,123	-0,009
-314,212	-72,733	0,104	-0,027
-313,197	800,000	-0,020	-0,051
-312,183	-200,000	-0,008	-0,123
-311,168	-200,000	-0,004	-0,033
-310,153	800,000	-0,040	-0,100
-309,139	-200,000	-0,002	0,049
-308,124	373,717	-0,007	-0,011
-307,110	-110,359	-0,155	-0,023
-306,095	-200,000	0,015	0,122
-305,080	78,448	0,047	0,036
-304,066	435,314	0,063	-0,099
-303,051	800,000	-0,007	0,021
-302,037	533,374	0,054	-0,092
-301,022	79,088	-0,041	-0,031
-300,008	260,607	-0,067	0,082
-298,993	-122,316	0,124	-0,014
-297,978	-36,687	-0,122	-0,047
-296,964	-200,000	-0,020	-0,075
-295,949	-59,811	-0,067	-0,020
-294,935	-200,000	-0,009	-0,092
-293,920	-200,000	-0,008	0,033
-292,905	-88,814	0,040	0,008
-291,891	28,315	-0,063	0,038
-290,876	159,702	0,086	0,086
-289,862	184,316	0,056	-0,059
-288,847	800,000	-0,014	-0,044
-287,832	206,914	0,049	-0,055
-286,818	-34,422	-0,103	-0,040
-285,803	800,000	-0,051	0,137
-284,789	130,236	0,092	0,084
-283,774	379,918	-0,078	0,114
-282,759	449,049	-0,073	0,115
-281,745	-200,000	0,017	-0,099
-280,730	-79,905	-0,094	0,022
-279,716	-200,000	0,010	-0,063
-278,701	424,230	0,041	0,064
-277,686	-200,000	0,010	0,143
-276,672	239,633	0,085	0,101
-275,657	54,158	-0,058	-0,039
-274,643	800,000	0,051	-0,145
-273,628	-96,841	0,075	-0,014
-272,613	-200,000	0,007	-0,115
-271,599	-96,100	0,058	-0,011
-270,584	-200,000	0,002	-0,090
-269,570	57,417	0,060	0,042
-268,555	202,687	0,106	-0,117
-267,540	233,129	0,075	-0,088
-266,526	-200,000	-0,008	-0,028
-265,511	31,698	0,056	-0,035
-264,497	523,593	0,081	-0,136
-263,482	-200,000	0,047	0,171
-262,467	-200,000	0,033	0,189
-261,453	38,207	-0,081	0,051
-260,438	375,793	-0,075	0,110
-259,424	344,760	0,059	0,082
-258,409	800,000	-0,059	-0,151
-257,395	65,370	0,141	0,101
-256,380	84,724	0,166	0,130
-255,365	38,384	0,060	-0,038
-254,351	-200,000	0,005	0,055
-253,336	481,187	0,029	-0,047
-252,322	-8,924	-0,157	-0,075
-251,307	374,033	0,082	-0,120
-250,292	-185,785	-0,022	0,000
-249,278	69,545	0,111	-0,081
-248,263	-200,000	0,010	0,072
-247,249	-200,000	-0,039	-0,144
-246,234	-105,079	-0,023	0,004
-245,219	48,173	-0,057	0,038
-244,205	-200,000	-0,015	0,066
-243,190	-200,000	-0,031	0,112
-242,176	-82,417	0,081	-0,019
-241,161	-153,172	-0,061	0,003
-240,146	-200,000	0,002	0,102
-239,132	800,000	0,019	0,050
-238,117	-92,829	-0,085	-0,017
-237,103	153,431	-0,142	-0,138
-236,088	-13,460	0,076	0,035
-235,073	43,023	0,042	-0,027
-234,059	223,572	-0,077	0,089
-233,044	-200,000	-0,032	0,175
-232,030	106,032	-0,091	-0,077
-231,015	-155,126	-0,202	0,009
-230,000	-200,000	-0,010	-0,073
-228,986	341,005	0,086	0,120
-227,971	-55,905	-0,044	0,014
-226,957	-28,386	-0,104	0,043
-225,942	-200,000	0,003	0,017
-224,927	550,885	-0,097	0,167
-223,913	-200,000	0,009	-0,039
-222,898	14,752	-0,055	-0,031
-221,884	-43,697	-0,116	-0,041
-220,869	188,071	0,026	0,028
-219,855	13,918	0,031	0,017
-218,840	-200,000	-0,009	0,031
-217,825	800,000	0,014	0,029
-216,811	-200,000	0,024	0,145
-215,796	-29,425	0,150	0,061
-214,782	-200,000	0,014	0,077
-213,767	-200,000	-0,018	0,080
-212,752	96,192	0,051	-0,041
-211,738	-73,939	-0,053	0,014
-210,723	574,718	-0,046	0,081
-209,709	-31,069	-0,106	-0,042
-208,694	-5,236	0,072	-0,035
-207,679	-145,988	-0,093	0,006
-206,665	515,204	-0,048	0,080
-205,650	-111,411	0,011	0,002
-204,636	514,327	0,093	0,155
-203,621	302,739	0,035	0,046
-202,606	800,000	-0,016	0,033
-201,592	-176,255	-0,142	-0,003
-200,577	285,759	0,091	-0,117
-199,563	212,517	0,008	0,009
-198,548	-19,319	-0,047	0,021
-197,533	-104,595	0,088	0,014
-196,519	729,722	0,018	0,034
-195,504	30,963	-0,079	-0,048
-194,490	330,026	0,022	-0,030
-193,475	77,559	-0,030	0,023
-192,460	-21,899	0,048	-0,021
-191,446	-200,000	0,009	-0,113
-190,431	60,028	0,068	0,048
-189,417	-101,659	0,063	0,011
-188,402	211,584	-0,063	-0,070
-187,387	-38,497	-0,058	0,022
-186,373	343,195	-0,092	-0,129
-185,358	237,881	-0,053	0,063
-184,344	800,000	0,047	-0,093
-183,329	800,000	-0,054	0,149
-182,315	308,621	0,039	-0,052
-181,300	800,000	-0,027	0,063
-180,285	-200,000	0,007	0,048
-179,271	42,919	-0,070	-0,046
-178,256	-105,962	0,116	0,018
-177,242	488,169	-0,066	0,108
-176,227	119,142	-0,039	0,035
-175,212	201,054	0,085	-0,093
-174,198	463,623	0,053	-0,085
-173,183	-200,000	-0,004	-0,055
-172,169	82,238	0,120	0,093
-171,154	-23,251	-0,102	0,043
-170,139	40,281	0,120	-0,077
-169,125	-36,755	-0,113	0,043
-168,110	-73,255	-0,065	0,017
-167,096	221,764	0,040	-0,046
-166,081	-200,000	-0,022	0,081
-165,066	211,719	0,061	0,068
-164,052	363,965	-0,052	-0,075
-163,037	452,845	0,039	-0,061
-162,023	800,000	0,030	-0,080
-161,008	-115,937	0,097	-0,013
-159,993	-200,000	0,005	0,030
-158,979	800,000	-0,028	-0,089
-157,964	-200,000	-0,030	-0,094
-156,950	-200,000	0,008	-0,140
-155,935	-200,000	-0,004	0,072
-154,920	-77,127	0,052	0,013
-153,906	-25,675	0,096	-0,040
-152,891	800,000	-0,051	-0,112
-151,877	-200,000	-0,012	-0,067
-150,862	800,000	-0,055	-0,117
-149,847	174,270	-0,054	0,056
-148,833	130,723	0,079	-0,072
-147,818	-40,173	0,089	-0,033
-146,804	682,985	-0,019	0,035
-145,789	47,346	0,069	0,046
-144,775	279,441	-0,026	-0,034
-143,760	16,897	-0,079	-0,044
-142,745	193,994	-0,037	-0,040
-141,731	-16,852	-0,051	0,023
-140,716	-3,506	0,045	0,022
-139,702	294,537	0,076	0,099
-138,687	800,000	-0,028	0,064
-137,672	-200,000	0,007	-0,156
-136,658	-200,000	-0,111	0,000
-135,643	124,955	-0,120	-0,108
-134,629	488,589	-0,031	-0,051
-133,614	-176,304	-0,010	0,000
-132,599	41,225	0,042	0,027
-131,585	-124,638	-0,054	-0,006
-130,570	514,880	0,055	-0,092
-129,556	228,056	0,044	-0,051
-128,541	311,561	0,076	-0,101
-127,526	-200,000	-0,002	-0,081
-126,512	92,496	-0,079	0,063
-125,497	-200,000	0,046	0,209
-124,483	-142,419	0,037	-0,003
-123,468	-200,000	0,015	-0,101
-122,453	21,070	-0,079	0,045
-121,439	154,124	-0,038	-0,038
-120,424	104,566	0,031	0,026
-119,410	-200,000	0,013	0,128
-118,395	-79,704	-0,026	-0,006
-117,380	-24,086	0,081	0,034
-116,366	-200,000	0,037	0,125
-115,351	800,000	-0,032	-0,087
-114,337	506,701	0,032	-0,052
-113,322	680,770	0,044	-0,082
-112,307	45,774	0,112	0,074
-111,293	800,000	-0,072	0,193
-110,278	-174,747	0,122	0,002
-109,264	-41,644	0,057	-0,021
-108,249	-200,000	0,000	0,088
-107,234	-101,597	-0,034	-0,006
-106,220	800,000	0,023	0,057
-105,205	104,772	-0,072	0,060
-104,191	-200,000	-0,002	-0,051
-103,176	-138,821	0,032	0,002
-102,162	-144,743	-0,092	-0,006
-101,147	-200,000	-0,007	-0,099
-100,132	125,208	-0,071	0,064
-99,118	800,000	0,066	-0,158
-98,103	-17,084	-0,173	0,077
-97,089	-43,369	0,103	0,037
-96,074	201,565	0,034	0,037
-95,059	-200,000	-0,021	0,122
-94,045	61,255	-0,061	0,043
-93,030	-91,130	-0,146	-0,029
-92,016	314,779	0,027	0,036
-91,001	-24,740	-0,081	0,034
-89,986	800,000	0,032	0,075
-88,972	800,000	0,034	-0,090
-87,957	567,721	0,051	-0,088
-86,943	-200,000	-0,015	0,077
-85,928	42,261	0,037	-0,024
-84,913	-159,563	-0,027	0,001
-83,899	-154,996	-0,049	-0,002
-82,884	159,549	0,036	-0,036
-81,870	-62,395	0,077	0,022
-80,855	158,490	-0,033	0,033
-79,840	150,048	-0,135	0,130
-78,826	800,000	-0,032	-0,081
-77,811	-95,320	-0,160	0,030
-76,797	332,242	0,058	-0,079
-75,782	109,773	-0,070	0,059
-74,767	136,112	0,077	0,071
-73,753	261,675	-0,052	-0,064
-72,738	-129,011	0,078	-0,008
-71,724	-200,000	0,006	-0,032
-70,709	-200,000	0,007	-0,128
-69,694	247,601	0,021	-0,025
-68,680	373,680	0,023	-0,033
-67,665	-129,838	-0,019	0,002
-66,651	724,305	0,068	0,129
-65,636	800,000	0,060	0,176
-64,622	350,628	0,077	0,108
-63,607	25,311	-0,073	-0,043
-62,592	34,336	0,087	0,054
-61,578	-200,000	-0,016	0,053
-60,563	-58,917	0,080	0,024
-59,549	-200,000	-0,044	0,149
-58,534	-56,081	-1,712	-0,537
-57,519	430,412	-1,309	-2,013
-56,505	-200,000	-0,680	-4,590
-55,490	166,629	0,987	0,991
-54,476	800,000	5,088	11,457
-53,461	-200,000	18,779	311,069
-52,446	-200,000	738,149	2316,425
-51,432	573,952	1654,407	2868,696
-50,417	79,193	1671,419	1266,891
-49,403	21,914	1544,076	888,914
-48,388	15,760	1466,797	814,506
-47,373	17,841	1456,631	818,883
-46,359	16,866	1446,529	808,495
-45,344	14,046	1442,048	792,452
-44,330	13,987	1440,069	791,049
-43,315	13,967	1438,319	789,961
-42,300	13,989	1436,700	789,148
-41,286	13,976	1435,748	788,531
-40,271	13,988	1434,167	787,688
-39,257	13,962	1432,987	786,887
-38,242	13,984	1431,756	786,283
-37,227	13,970	1430,651	785,577
-36,213	14,023	1429,187	784,998
-35,198	13,993	1428,023	784,182
-34,184	14,021	1427,440	783,966
-33,169	13,975	1425,968	782,908
-32,154	13,997	1424,784	782,332
-31,140	14,056	1423,581	781,917
-30,125	14,024	1422,432	781,104
-29,111	13,982	1421,420	780,319
-28,096	14,018	1420,025	779,690
-27,082	13,918	1418,991	778,622
-26,067	13,935	1417,960	778,105
-25,052	13,968	1416,690	777,534
-24,038	13,886	1416,011	776,743
-23,023	13,881	1414,995	776,133
-22,009	13,897	1413,989	775,624
-20,994	13,860	1413,225	775,002
-19,979	13,901	1412,025	774,506
-18,965	13,891	1410,998	773,864
-17,950	13,864	1410,133	773,232
-16,936	13,871	1409,223	772,735
-15,921	13,828	1408,164	771,922
-14,906	13,812	1407,352	771,373
-13,892	13,840	1406,245	770,866
-12,877	13,851	1405,418	770,431
-11,863	13,832	1404,644	769,887
-10,848	13,868	1403,432	769,359
-9,833	13,794	1402,842	768,664
-8,819	13,754	1402,015	767,993
-7,804	13,771	1401,111	767,546
-6,790	13,778	1399,877	766,872
-5,775	13,738	1399,011	766,181
-4,760	13,749	1398,026	765,661
-3,746	13,750	1397,276	765,226
-2,731	13,725	1396,434	764,621
-1,717	13,761	1395,150	764,054
-0,702	13,684	1393,861	762,960
0,313	17,531	1311,230	735,564
1,327	33,860	705,813	433,771
2,342	52,083	123,984	83,457
3,356	4,587	16,634	8,611
4,371	13,217	3,098	1,693
5,386	-68,204	0,588	0,161
6,400	-200,000	-0,036	0,155
7,415	211,270	-0,207	-0,230
8,429	233,261	-0,202	-0,235
9,444	48,143	-0,330	-0,218
10,459	397,756	-0,175	-0,260
11,473	29,614	-0,311	-0,187
12,488	-102,660	-0,315	-0,053
13,502	55,519	-0,207	-0,141
14,517	6,267	-0,299	-0,156
15,531	155,180	-0,391	-0,380
16,546	751,955	-0,194	-0,373
17,561	-23,826	-0,381	-0,160
18,575	-139,410	-0,265	-0,020
19,590	86,822	-0,242	-0,188
20,604	-2,757	-0,236	-0,116
21,619	13,231	-0,475	-0,259
22,634	138,462	-0,377	-0,349
23,648	50,778	-0,368	-0,245
24,663	14,816	-0,419	-0,231
25,677	155,913	-0,252	-0,245
26,692	5,342	-0,327	-0,170
27,707	81,526	-0,275	-0,210
28,721	123,443	-0,473	-0,418
29,736	-24,294	-0,389	-0,163
30,750	117,861	-0,384	-0,334
31,765	-2,868	-0,402	-0,198
32,780	159,835	-0,335	-0,329
33,794	79,367	-0,350	-0,265
34,809	83,068	-0,405	-0,311
35,823	17,613	-0,394	-0,221
36,838	101,451	-0,447	-0,367
37,853	135,599	-0,355	-0,326
38,867	91,700	-0,294	-0,233
39,882	-42,919	-0,342	-0,122
40,896	21,995	-0,331	-0,190
41,911	-9,232	-0,305	-0,143
42,926	114,888	-0,386	-0,332
43,940	78,365	-0,410	-0,309
44,955	-5,290	-0,329	-0,159
45,969	97,353	-0,321	-0,260
46,984	41,776	-0,262	-0,167
47,999	-58,200	-0,407	-0,124
49,013	215,684	-0,246	-0,276
50,028	-12,583	-0,360	-0,165
51,042	269,970	-0,243	-0,301
52,057	71,760	-0,369	-0,270
53,071	206,574	-0,301	-0,331
54,086	117,612	-0,341	-0,295
55,101	796,243	-0,146	-0,284
56,115	-14,591	-0,344	-0,155
57,130	123,149	-0,308	-0,272
58,144	266,593	-0,290	-0,358
59,159	35,846	-0,428	-0,265
60,174	7,194	-0,405	-0,212
61,188	51,280	-0,381	-0,254
62,203	-14,546	-0,317	-0,143
63,217	124,112	-0,309	-0,273
64,232	105,756	-0,264	-0,219
65,247	72,282	-0,360	-0,263
66,261	32,374	-0,436	-0,264
67,276	23,882	-0,443	-0,256
68,290	19,867	-0,480	-0,271
69,305	-26,610	-0,272	-0,112
70,320	-6,798	-0,229	-0,109
71,334	-87,747	-0,356	-0,075
72,349	540,363	-0,132	-0,223
73,363	35,711	-0,315	-0,194
74,378	133,957	-0,396	-0,361
75,393	41,711	-0,304	-0,193
76,407	51,337	-0,257	-0,171
77,422	-75,352	-0,262	-0,065
78,436	35,295	-0,324	-0,199
79,451	39,349	-0,207	-0,130
80,466	-4,316	-0,366	-0,177
81,480	-25,719	-0,318	-0,131
82,495	-19,237	-0,375	-0,163
83,509	50,606	-0,233	-0,155
84,524	-32,121	-0,161	-0,063
85,539	-28,058	-0,308	-0,125
86,553	261,114	-0,229	-0,279
87,568	137,899	-0,281	-0,259
88,582	132,048	-0,281	-0,254
89,597	28,314	-0,302	-0,179
90,611	-10,573	-0,239	-0,111
91,626	97,188	-0,209	-0,168
92,641	-31,676	-0,273	-0,107
93,655	-79,524	-0,319	-0,075
94,670	26,695	-0,257	-0,151
95,684	68,497	-0,196	-0,141
96,699	-36,979	-0,299	-0,112
97,714	45,043	-0,314	-0,203
98,728	228,696	-0,217	-0,248
99,743	160,549	-0,235	-0,231
100,757	-10,337	-0,388	-0,180
101,772	4,584	-0,365	-0,187
102,787	29,760	-0,334	-0,199
103,801	-9,722	-0,330	-0,154
104,816	-26,180	-0,178	-0,073
105,830	40,910	-0,219	-0,138
106,845	-49,015	-0,240	-0,080
107,860	55,502	-0,274	-0,185
108,874	-3,095	-0,286	-0,140
109,889	19,474	-0,287	-0,161
110,903	141,789	-0,254	-0,236
111,918	-19,128	-0,377	-0,163
112,933	11,201	-0,317	-0,169
113,947	128,363	-0,228	-0,203
114,962	74,059	-0,326	-0,239
115,976	-60,059	-0,365	-0,108
116,991	120,271	-0,224	-0,195
118,006	213,167	-0,181	-0,201
119,020	16,907	-0,383	-0,212
120,035	24,201	-0,143	-0,083
121,049	79,715	-0,225	-0,169
122,064	-87,354	-0,279	-0,059
123,079	-0,308	-0,191	-0,095
124,093	30,462	-0,311	-0,185
125,108	349,238	-0,178	-0,247
126,122	2,408	-0,331	-0,167
127,137	193,163	-0,152	-0,161
128,151	214,562	-0,220	-0,244
129,166	20,262	-0,238	-0,134
130,181	207,877	-0,178	-0,195
131,195	-41,013	-0,318	-0,114
132,210	7,949	-0,387	-0,202
133,224	285,598	-0,149	-0,188
134,239	-26,957	-0,267	-0,109
135,254	-49,601	-0,237	-0,078
136,268	-33,599	-0,216	-0,083
137,283	-94,108	-0,299	-0,057
138,297	-80,167	-0,260	-0,060
139,312	354,960	-0,230	-0,321
140,327	153,822	-0,274	-0,262
141,341	289,233	-0,208	-0,264
142,356	38,926	-0,256	-0,159
143,370	127,515	-0,229	-0,203
144,385	60,350	-0,191	-0,132
145,400	52,164	-0,290	-0,193
146,414	335,715	-0,234	-0,317
147,429	-14,801	-0,267	-0,119
148,443	78,002	-0,206	-0,153
149,458	228,029	-0,205	-0,233
150,473	79,549	-0,249	-0,186
151,487	20,938	-0,318	-0,179
152,502	123,298	-0,321	-0,281
153,516	215,500	-0,271	-0,301
154,531	78,216	-0,207	-0,154
155,546	145,707	-0,194	-0,181
156,560	237,283	-0,131	-0,152
157,575	250,128	-0,203	-0,241
158,589	134,239	-0,090	-0,081
159,604	93,998	-0,302	-0,239
160,619	10,684	-0,322	-0,171
161,633	-40,540	-0,273	-0,098
162,648	-62,110	-0,262	-0,076
163,662	94,833	-0,170	-0,135
164,677	238,696	-0,175	-0,203
165,692	53,879	-0,156	-0,105
166,706	112,867	-0,182	-0,154
167,721	72,127	-0,217	-0,157
168,735	129,136	-0,280	-0,249
169,750	-33,771	-0,333	-0,127
170,764	-21,199	-0,270	-0,115
171,779	-125,749	-0,151	-0,016
172,794	205,137	-0,168	-0,182
173,808	39,548	-0,263	-0,164
174,823	178,192	-0,276	-0,281
175,837	93,840	-0,192	-0,152
176,852	-139,817	-0,149	-0,011
177,867	-91,432	-0,227	-0,045
178,881	147,216	-0,192	-0,180
179,896	-52,109	-0,094	-0,030
180,910	-6,265	-0,261	-0,124
181,925	333,969	-0,148	-0,200
182,940	38,931	-0,291	-0,181
183,954	-60,144	-0,299	-0,088
184,969	800,000	-0,106	-0,253
185,983	-110,778	-0,150	-0,021
186,998	297,106	-0,186	-0,238
188,013	17,195	-0,272	-0,150
189,027	63,134	-0,397	-0,277
190,042	110,081	-0,264	-0,221
191,056	368,845	-0,165	-0,233
192,071	259,208	-0,187	-0,225
193,086	138,880	-0,146	-0,134
194,100	-84,475	-0,204	-0,044
195,115	142,068	-0,207	-0,191
196,129	800,000	-0,074	-0,216
197,144	278,055	-0,237	-0,295
198,159	21,713	-0,265	-0,150
199,173	82,432	-0,120	-0,091
200,188	29,270	-0,146	-0,086
201,202	41,322	-0,118	-0,074
202,217	-63,253	-0,115	-0,033
203,232	137,815	-0,254	-0,231
204,246	186,830	-0,221	-0,229
205,261	72,443	-0,246	-0,178
206,275	-95,867	-0,162	-0,030
207,290	235,893	-0,069	-0,080
208,304	-11,985	-0,312	-0,141
209,319	301,431	-0,103	-0,133
210,334	70,468	-0,263	-0,189
211,348	139,696	-0,217	-0,199
212,363	152,050	-0,255	-0,242
213,377	374,011	-0,138	-0,196
214,392	16,157	-0,213	-0,117
215,407	33,049	-0,117	-0,070
216,421	181,043	-0,177	-0,181
217,436	-76,677	-0,118	-0,028
218,450	111,042	-0,120	-0,100
219,465	800,000	-0,079	-0,187
220,480	539,046	-0,186	-0,309
221,494	96,001	-0,150	-0,119
222,509	-164,324	-0,163	0,005
223,523	-91,701	-0,145	-0,028
224,538	105,121	-0,198	-0,162
225,553	148,009	-0,217	-0,203
226,567	215,863	-0,155	-0,171
227,582	20,305	-0,306	-0,171
228,596	48,563	-0,267	-0,173
229,611	-1,948	-0,129	-0,063
230,626	364,250	-0,098	-0,137
231,640	110,364	-0,172	-0,143
232,655	116,654	-0,219	-0,186
233,669	180,107	-0,166	-0,169
234,684	-4,217	-0,209	-0,100
235,699	-86,393	-0,186	-0,039
236,713	-27,733	-0,280	-0,112
237,728	412,135	-0,103	-0,153
238,742	329,458	-0,146	-0,196
239,757	-200,000	-0,028	-0,172
240,772	153,942	-0,222	-0,211
241,786	181,371	-0,237	-0,241
242,801	-109,011	-0,211	-0,031
243,815	35,985	-0,163	-0,099
244,830	450,633	-0,122	-0,188
245,844	203,628	-0,167	-0,180
246,859	218,496	-0,163	-0,180
247,874	-88,943	-0,183	-0,037
248,888	26,083	-0,226	-0,130
249,903	21,314	-0,211	-0,118
250,917	62,790	-0,287	-0,198
251,932	396,745	-0,084	-0,122
252,947	603,278	-0,126	-0,217
253,961	-48,435	-0,072	-0,024
254,976	-107,517	-0,168	-0,025
255,990	132,903	-0,223	-0,199
257,005	132,251	-0,242	-0,215
258,020	-105,606	-0,313	0,049
259,034	75,302	-0,244	-0,178
260,049	16,742	-0,217	-0,119
261,063	54,044	-0,286	-0,190
262,078	107,305	-0,237	-0,195
263,093	53,814	-0,253	-0,168
264,107	-33,420	-0,191	-0,073
265,122	282,806	-0,133	-0,165
266,136	-200,000	-0,061	-0,205
267,151	9,963	-0,227	-0,119
268,166	183,741	-0,120	-0,123
269,180	484,241	-0,190	-0,299
270,195	42,725	-0,199	-0,125
271,209	-60,799	-0,144	-0,042
272,224	-14,668	-0,172	-0,076
273,239	-75,124	-0,247	-0,061
274,253	200,935	-0,133	-0,141
275,268	13,387	-0,221	-0,118
276,282	207,622	-0,214	-0,231
277,297	192,828	-0,216	-0,225
278,312	-69,704	-0,243	-0,064
279,326	-56,727	-0,118	-0,036
280,341	74,206	-0,193	-0,140
281,355	-28,533	-0,151	-0,060
282,370	17,073	-0,225	-0,123
283,384	-63,310	-0,210	0,059
284,399	79,441	-0,141	-0,104
285,414	31,132	-0,193	-0,114
286,428	-33,363	-0,150	-0,057
287,443	800,000	-0,104	-0,212
288,457	-200,000	-0,050	-0,223
289,472	85,247	-0,194	-0,147
290,487	380,166	-0,073	-0,103
291,501	-50,377	-0,229	-0,074
292,516	-53,402	-0,198	-0,062
293,530	-49,914	-0,161	-0,052
294,545	192,312	-0,085	-0,089
295,560	-12,884	-0,173	-0,077
296,574	546,301	-0,066	-0,109
297,589	-60,417	-0,126	-0,037
298,603	-64,656	-0,184	-0,051
299,618	25,134	-0,207	-0,118
300,633	207,385	-0,208	-0,224
301,647	-77,193	-0,148	-0,035
302,662	-200,000	-0,066	-0,202
303,676	30,725	-0,104	-0,061
304,691	60,790	-0,163	-0,111
305,706	539,306	-0,125	-0,205
306,720	-126,770	-0,091	-0,009
307,735	62,837	-0,126	-0,087
308,749	150,440	-0,176	-0,165
309,764	-56,366	-0,109	-0,033
310,779	-29,539	-0,117	0,046
311,793	51,663	-0,100	-0,066
312,808	230,083	-0,120	-0,136
313,822	-71,523	-0,135	-0,034
314,837	116,469	-0,151	-0,127
315,852	358,659	-0,078	-0,107
316,866	619,204	-0,083	-0,144
317,881	-2,287	-0,137	-0,066
318,895	-37,339	-0,173	-0,063
319,910	-49,860	-0,215	-0,070
320,925	-78,260	-0,169	0,040
321,939	-0,223	-0,116	-0,057
322,954	-75,365	-0,173	-0,042
323,968	-21,910	-0,137	-0,057
324,983	48,665	-0,146	-0,094
325,997	13,129	-0,193	-0,103
327,012	-138,176	-0,170	-0,013
328,027	-200,000	-0,055	-0,200
329,041	152,585	-0,128	-0,120
330,056	85,423	-0,190	-0,143
331,070	800,000	-0,084	-0,164
332,085	-153,356	-0,147	-0,007
333,100	125,029	-0,113	-0,098
334,114	-63,561	-0,109	-0,031
335,129	98,041	-0,201	-0,159
336,143	62,697	-0,085	-0,058
337,158	322,804	-0,095	-0,124
338,173	209,837	-0,141	-0,152
339,187	-129,387	-0,062	-0,006
340,202	-29,563	-0,132	-0,052
341,216	126,508	-0,105	-0,091
342,231	313,173	-0,074	-0,095
343,246	-200,000	-0,065	-0,198
344,260	-41,764	-0,078	-0,027
345,275	132,731	-0,138	-0,123
346,289	247,424	-0,110	-0,127
347,304	90,566	-0,216	-0,166
348,319	384,159	-0,080	-0,113
349,333	148,408	-0,191	-0,177
350,348	375,232	-0,068	-0,095
351,362	311,643	-0,152	-0,196
352,377	776,463	-0,047	-0,089
353,392	-200,000	-0,013	-0,136
354,406	234,643	-0,134	-0,151
355,421	207,962	1315,328	1411,293
356,435	160,000	1476,117	1411,785
