DTS Sentinel unit serial number:	SN410029Multiplexer serial number:	ORYXHardware model number:	OX2-SRSoftware version number:	ORYX F/W v4,00 Oryx Data Collector v3.7.2.0data status	okinstallation	B3 Nyhavnadifferential loss correction	single-endedforward channel	channel 1reverse channel	N/Adate	2023/12/02time	21:22:30forward acquisition time	300,00reverse acquisition time	0,00gamma	499,1914k internal	0,3201k external	0,3201temperature offset calibration	1,0000default loss term (dB/km)	0,3820temperature slope calibration	1,0000multiplexer offset coefficient	1,0000multiplexer slope coefficient	1,0000fibre end	0,00T internal ref (°C)	13,25T ext. ref 1 (°C)	-1,88T ext. ref 2 (°C)	-1,90length (m)	temperature (°C)	Stokes	anti-Stokes-744,400	96,015	-0,295	-0,245
-743,385	-200,000	0,047	0,302
-742,371	56,922	-0,100	-0,071
-741,356	-200,000	0,065	0,303
-740,342	800,000	-0,119	-0,259
-739,327	800,000	-0,116	0,348
-738,312	-200,000	-0,047	-0,254
-737,298	-200,000	0,078	0,262
-736,283	107,860	-0,215	-0,186
-735,269	-200,000	0,032	0,163
-734,254	171,003	-0,166	-0,174
-733,239	-124,043	-0,186	0,021
-732,225	800,000	-0,058	-0,131
-731,210	-0,575	0,036	-0,019
-730,196	42,384	0,075	-0,050
-729,181	-200,000	-0,012	0,092
-728,167	-51,607	-0,043	0,014
-727,152	-200,000	0,017	-0,080
-726,137	-26,280	0,063	-0,027
-725,123	-84,749	-0,138	0,031
-724,108	35,334	-0,055	0,035
-723,094	-56,238	-0,099	0,032
-722,079	196,035	-0,067	-0,074
-721,064	-200,000	-0,007	-0,033
-720,050	8,792	0,150	-0,082
-719,035	800,000	-0,015	-0,045
-718,021	252,814	-0,017	-0,021
-717,006	49,928	0,063	-0,043
-715,991	5,265	-0,129	0,069
-714,977	178,060	-0,055	0,058
-713,962	206,356	-0,032	-0,036
-712,948	109,358	-0,034	-0,029
-711,933	-14,008	0,134	0,063
-710,918	248,447	-0,047	0,058
-709,904	21,374	-0,098	-0,057
-708,889	17,702	-0,078	-0,045
-707,875	519,591	-0,043	-0,074
-706,860	-57,801	0,112	0,035
-705,845	-200,000	-0,005	0,024
-704,831	129,178	-0,065	0,060
-703,816	-112,856	0,081	0,012
-702,802	250,248	-0,070	-0,086
-701,787	-54,524	-0,124	0,041
-700,772	-136,675	0,182	0,015
-699,758	43,781	0,083	0,055
-698,743	-200,000	0,018	0,083
-697,729	55,228	-0,094	-0,066
-696,714	-200,000	-0,032	0,117
-695,699	19,353	-0,065	0,038
-694,685	-57,547	-0,054	0,017
-693,670	-132,169	-0,101	-0,009
-692,656	30,668	-0,092	-0,057
-691,641	-95,445	0,066	-0,013
-690,627	220,336	-0,088	-0,103
-689,612	232,539	-0,075	0,089
-688,597	10,742	0,099	-0,055
-687,583	-141,048	-0,172	-0,013
-686,568	-67,934	-0,118	-0,033
-685,554	-55,624	-0,099	-0,032
-684,539	-128,931	0,194	0,019
-683,524	26,947	0,077	0,047
-682,510	-27,402	0,044	-0,018
-681,495	108,856	-0,188	-0,163
-680,481	256,985	-0,076	-0,095
-679,466	-77,037	0,063	0,016
-678,451	-200,000	0,007	0,082
-677,437	-200,000	-0,044	-0,188
-676,422	-63,044	0,022	-0,007
-675,408	207,047	-0,018	0,020
-674,393	-200,000	-0,017	-0,054
-673,378	-19,687	-0,119	-0,053
-672,364	-200,000	-0,016	-0,140
-671,349	-34,882	-0,077	-0,030
-670,335	575,074	0,027	-0,048
-669,320	-124,801	-0,082	-0,009
-668,305	-41,698	0,059	-0,022
-667,291	800,000	0,034	0,095
-666,276	-92,328	-0,083	0,017
-665,262	57,100	-0,115	-0,081
-664,247	126,971	-0,103	-0,094
-663,232	800,000	0,059	0,155
-662,218	459,379	-0,041	0,066
-661,203	-47,705	-0,034	0,012
-660,189	448,356	0,050	-0,080
-659,174	62,894	-0,147	-0,106
-658,159	-87,933	0,093	0,020
-657,145	150,075	-0,083	-0,081
-656,130	800,000	0,011	0,028
-655,116	-58,687	0,053	0,017
-654,101	184,206	0,037	0,040
-653,086	77,243	-0,133	0,102
-652,072	-110,342	-0,191	0,028
-651,057	-200,000	0,038	-0,129
-650,043	-200,000	-0,044	-0,236
-649,028	315,656	0,041	-0,057
-648,014	-69,936	0,120	0,033
-646,999	800,000	-0,053	0,126
-645,984	185,489	0,063	-0,068
-644,970	800,000	-0,021	0,054
-643,955	77,392	-0,028	0,021
-642,941	-35,705	-0,094	-0,037
-641,926	691,415	0,026	-0,050
-640,911	-200,000	-0,002	0,033
-639,897	181,755	0,064	0,068
-638,882	800,000	0,037	-0,097
-637,868	-200,000	0,004	0,061
-636,853	-0,043	0,117	-0,060
-635,838	10,331	0,105	-0,058
-634,824	87,425	-0,087	-0,070
-633,809	-200,000	0,032	-0,106
-632,795	-200,000	0,010	-0,113
-631,780	-200,000	0,009	-0,164
-630,765	-16,802	0,115	-0,052
-629,751	800,000	-0,030	-0,085
-628,736	-69,297	0,048	-0,013
-627,722	282,771	-0,028	-0,037
-626,707	-200,000	-0,005	0,108
-625,692	-200,000	0,022	0,087
-624,678	636,842	0,050	0,092
-623,663	59,372	0,053	0,038
-622,649	22,766	0,079	-0,047
-621,634	723,480	-0,060	-0,116
-620,619	-32,663	-0,066	0,027
-619,605	-26,206	-0,051	-0,022
-618,590	116,554	-0,074	0,066
-617,576	-120,732	-0,091	0,011
-616,561	730,787	-0,039	-0,076
-615,546	67,280	0,144	0,106
-614,532	79,015	-0,140	-0,109
-613,517	138,531	0,029	0,027
-612,503	-129,195	0,023	0,002
-611,488	73,818	-0,050	0,038
-610,474	-114,517	0,046	0,006
-609,459	249,370	0,042	-0,052
-608,444	579,614	-0,030	-0,054
-607,430	254,503	-0,064	-0,079
-606,415	83,016	-0,013	0,010
-605,401	-200,000	-0,012	0,065
-604,386	800,000	0,038	0,115
-603,371	800,000	-0,051	-0,108
-602,357	284,259	0,100	-0,131
-601,342	408,926	-0,011	-0,017
-600,328	-200,000	-0,030	-0,096
-599,313	3,718	-0,022	-0,012
-598,298	-3,737	-0,043	-0,021
-597,284	-113,595	0,092	-0,013
-596,269	-31,688	0,062	0,025
-595,255	-94,574	-0,167	0,033
-594,240	719,494	0,056	-0,109
-593,225	-92,545	-0,101	-0,020
-592,211	578,031	-0,020	0,036
-591,196	-147,950	0,123	0,007
-590,182	146,253	0,099	0,096
-589,167	-76,182	0,221	0,056
-588,152	54,316	0,107	-0,075
-587,138	293,494	-0,112	-0,148
-586,123	199,062	-0,085	-0,094
-585,109	-200,000	-0,008	-0,061
-584,094	-47,816	0,175	-0,061
-583,079	96,563	-0,073	0,060
-582,065	220,403	-0,039	0,045
-581,050	800,000	0,014	-0,035
-580,036	-200,000	0,005	0,053
-579,021	800,000	0,045	-0,099
-578,006	800,000	0,102	-0,218
-576,992	-23,872	-0,108	0,046
-575,977	135,779	0,086	0,081
-574,963	-200,000	-0,056	0,195
-573,948	-200,000	0,004	0,049
-572,934	-200,000	0,025	0,095
-571,919	287,720	0,043	0,056
-570,904	800,000	0,047	-0,143
-569,890	45,873	0,048	-0,032
-568,875	-8,544	0,042	0,020
-567,861	-200,000	0,009	0,067
-566,846	4,109	-0,158	-0,083
-565,831	16,911	0,068	-0,039
-564,817	127,346	0,039	-0,036
-563,802	-54,962	-0,095	-0,031
-562,788	800,000	-0,017	-0,051
-561,773	800,000	-0,018	0,041
-560,758	61,340	-0,030	0,022
-559,744	221,242	0,074	0,086
-558,729	800,000	-0,016	-0,033
-557,715	374,691	-0,021	0,032
-556,700	-101,149	-0,216	0,038
-555,685	-200,000	0,005	0,015
-554,671	240,126	0,028	0,033
-553,656	99,756	-0,040	-0,033
-552,642	253,139	-0,066	0,082
-551,627	800,000	0,027	0,059
-550,612	271,400	-0,109	-0,139
-549,598	-9,005	-0,083	-0,040
-548,583	-51,245	-0,101	-0,034
-547,569	800,000	-0,032	0,076
-546,554	-200,000	-0,014	0,107
-545,539	-200,000	-0,003	0,140
-544,525	-48,563	0,050	0,017
-543,510	534,917	-0,115	-0,198
-542,496	17,829	0,084	0,048
-541,481	800,000	-0,013	-0,031
-540,466	224,144	0,041	-0,047
-539,452	-117,715	-0,021	-0,003
-538,437	1,861	0,049	0,026
-537,423	83,660	-0,140	0,110
-536,408	-32,410	-0,138	0,055
-535,393	434,521	-0,014	-0,022
-534,379	750,907	0,062	0,121
-533,364	681,306	-0,037	0,071
-532,350	752,994	-0,036	-0,070
-531,335	-22,447	0,091	-0,039
-530,321	-166,223	0,143	-0,004
-529,306	195,501	-0,065	0,072
-528,291	-4,033	-0,094	-0,047
-527,277	-75,832	0,095	0,024
-526,262	-64,346	-0,044	-0,013
-525,248	133,296	0,129	-0,121
-524,233	-200,000	0,000	0,030
-523,218	-156,289	0,044	0,002
-522,204	-160,354	-0,120	0,005
-521,189	779,880	0,030	-0,059
-520,175	-156,780	0,049	-0,002
-519,160	499,768	-0,023	0,038
-518,145	104,335	0,022	-0,019
-517,131	-107,102	0,103	0,016
-516,116	46,152	0,163	-0,109
-515,102	-200,000	0,008	0,049
-514,087	264,476	0,007	0,009
-513,072	800,000	-0,018	0,042
-512,058	92,176	0,062	0,050
-511,043	800,000	0,007	0,018
-510,029	372,416	0,091	-0,133
-509,014	-200,000	-0,017	-0,062
-507,999	290,559	-0,066	0,086
-506,985	448,596	0,100	-0,159
-505,970	-200,000	-0,032	-0,109
-504,956	-200,000	-0,022	-0,104
-503,941	86,831	0,080	-0,064
-502,926	-200,000	-0,014	0,083
-501,912	552,259	-0,017	0,029
-500,897	-108,117	-0,052	-0,008
-499,883	109,663	-0,054	0,046
-498,868	73,305	-0,082	-0,062
-497,853	123,075	-0,134	-0,121
-496,839	152,164	0,131	-0,129
-495,824	800,000	0,018	0,052
-494,810	-200,000	0,012	-0,057
-493,795	-200,000	0,029	-0,097
-492,781	-200,000	-0,021	0,171
-491,766	186,681	-0,033	-0,035
-490,751	800,000	0,054	-0,156
-489,737	-95,430	-0,070	-0,013
-488,722	173,361	0,124	0,129
-487,708	98,818	0,044	0,036
-486,693	-200,000	-0,011	0,125
-485,678	-132,523	0,056	0,005
-484,664	-200,000	0,004	0,063
-483,649	71,842	-0,070	-0,052
-482,635	-84,319	-0,069	0,016
-481,620	211,965	0,057	0,065
-480,605	-200,000	0,005	0,033
-479,591	-200,000	0,019	0,181
-478,576	37,399	0,078	-0,050
-477,562	162,755	-0,061	-0,062
-476,547	800,000	0,037	-0,094
-475,532	57,009	-0,063	0,044
-474,518	-200,000	-0,001	0,023
-473,503	-57,885	0,046	0,014
-472,489	-200,000	-0,000	0,040
-471,474	225,822	0,087	-0,101
-470,459	800,000	-0,038	0,089
-469,445	-88,549	-0,029	-0,006
-468,430	42,311	0,120	0,078
-467,416	-200,000	-0,011	0,123
-466,401	83,017	0,043	-0,034
-465,386	-89,223	-0,065	-0,014
-464,372	310,298	0,047	0,064
-463,357	795,995	-0,062	-0,123
-462,343	57,791	-0,115	-0,081
-461,328	800,000	-0,042	0,107
-460,313	128,053	-0,007	0,007
-459,299	-200,000	-0,012	0,101
-458,284	161,751	0,096	-0,097
-457,270	-123,872	0,121	0,014
-456,255	27,280	0,071	-0,043
-455,241	800,000	0,005	-0,012
-454,226	298,113	0,063	-0,083
-453,211	800,000	-0,054	0,127
-452,197	415,190	0,104	-0,160
-451,182	-97,149	0,132	0,025
-450,168	-110,054	0,078	-0,012
-449,153	315,748	-0,042	0,057
-448,138	565,370	0,041	0,072
-447,124	697,138	-0,083	-0,158
-446,109	0,072	-0,083	-0,043
-445,095	-200,000	0,033	-0,112
-444,080	332,052	-0,059	0,083
-443,065	118,559	-0,033	0,029
-442,051	-102,565	-0,128	0,022
-441,036	230,546	0,025	0,029
-440,022	614,689	-0,018	-0,033
-439,007	93,506	-0,063	-0,052
-437,992	800,000	0,042	0,127
-436,978	-30,993	0,161	0,065
-435,963	-48,639	0,069	-0,024
-434,949	-200,000	0,014	0,123
-433,934	12,570	-0,168	-0,093
-432,919	800,000	0,045	-0,139
-431,905	110,757	-0,080	-0,069
-430,890	-11,296	0,008	-0,004
-429,876	-200,000	0,042	0,134
-428,861	-200,000	0,010	0,033
-427,846	-97,327	-0,049	0,009
-426,832	-62,242	-0,130	0,039
-425,817	800,000	-0,043	0,114
-424,803	-121,563	0,095	0,011
-423,788	323,130	0,039	-0,053
-422,773	-200,000	0,003	0,016
-421,759	-200,000	0,033	0,158
-420,744	252,292	-0,048	-0,059
-419,730	-32,354	-0,040	0,016
-418,715	93,220	-0,114	-0,093
-417,701	475,361	0,030	-0,048
-416,686	800,000	0,075	0,169
-415,671	179,909	0,013	0,013
-414,657	247,821	0,027	-0,033
-413,642	-200,000	0,003	-0,023
-412,628	-67,452	-0,062	-0,017
-411,613	-200,000	0,044	-0,196
-410,598	-154,878	0,043	0,002
-409,584	149,061	-0,062	-0,060
-408,569	119,478	0,017	0,015
-407,555	-22,250	-0,199	-0,086
-406,540	-200,000	-0,020	0,067
-405,525	-200,000	0,023	0,108
-404,511	-140,905	-0,075	-0,005
-403,496	42,338	0,129	-0,084
-402,482	-81,534	-0,047	-0,011
-401,467	-125,840	0,075	-0,008
-400,452	-34,061	0,085	0,033
-399,438	-47,153	-0,047	-0,016
-398,423	-42,319	-0,057	-0,021
-397,409	19,411	-0,110	0,063
-396,394	-200,000	-0,000	0,024
-395,379	1,096	-0,051	0,026
-394,365	84,063	0,031	0,024
-393,350	42,988	-0,110	0,072
-392,336	33,708	0,064	0,040
-391,321	-200,000	0,011	-0,117
-390,306	12,028	0,044	-0,024
-389,292	-200,000	0,013	0,056
-388,277	199,605	0,034	0,037
-387,263	-19,260	0,072	0,032
-386,248	-188,937	0,174	-0,001
-385,233	179,842	0,086	0,090
-384,219	800,000	-0,029	-0,089
-383,204	-200,000	-0,008	0,071
-382,190	-15,799	-0,132	0,060
-381,175	800,000	-0,019	-0,048
-380,160	404,793	0,060	0,090
-379,146	247,355	-0,010	-0,013
-378,131	-200,000	-0,016	-0,060
-377,117	800,000	-0,036	0,090
-376,102	78,351	-0,120	0,092
-375,088	-185,401	-0,133	0,001
-374,073	351,195	-0,024	-0,034
-373,058	800,000	-0,038	-0,077
-372,044	302,893	0,099	-0,131
-371,029	676,391	-0,033	0,062
-370,015	114,687	-0,022	-0,019
-369,000	-90,122	-0,109	0,023
-367,985	-90,960	-0,097	0,020
-366,971	-200,000	-0,005	-0,051
-365,956	64,895	0,081	0,059
-364,942	381,920	-0,023	0,033
-363,927	-187,158	-0,041	-0,000
-362,912	-200,000	-0,003	0,013
-361,898	-143,157	-0,044	-0,003
-360,883	-115,234	0,053	0,007
-359,869	693,047	-0,049	-0,092
-358,854	800,000	-0,027	0,057
-357,839	800,000	0,042	0,094
-356,825	-93,974	0,086	0,017
-355,810	-56,311	-0,080	-0,025
-354,796	-200,000	-0,013	-0,073
-353,781	201,087	0,042	-0,046
-352,766	-200,000	0,016	-0,144
-351,752	6,500	0,077	-0,041
-350,737	-200,000	-0,014	0,123
-349,723	-200,000	-0,008	0,040
-348,708	-200,000	0,018	0,140
-347,693	578,682	-0,020	0,036
-346,679	51,340	-0,087	0,059
-345,664	462,325	-0,072	-0,116
-344,650	187,646	0,095	-0,102
-343,635	24,497	0,045	-0,027
-342,620	205,686	-0,053	0,059
-341,606	260,386	0,083	-0,103
-340,591	800,000	-0,032	-0,097
-339,577	-99,833	-0,122	-0,022
-338,562	513,241	-0,033	-0,055
-337,548	86,225	0,062	-0,049
-336,533	72,993	-0,052	0,039
-335,518	77,296	0,011	0,009
-334,504	-200,000	0,001	0,079
-333,489	800,000	0,032	0,098
-332,475	-200,000	0,016	-0,237
-331,460	39,906	0,065	0,041
-330,445	-105,669	-0,077	0,012
-329,431	313,898	0,083	0,112
-328,416	166,746	-0,032	-0,033
-327,402	53,505	0,096	0,066
-326,387	-200,000	0,018	-0,064
-325,372	23,327	-0,140	-0,082
-324,358	64,489	0,065	-0,047
-323,343	-200,000	0,004	-0,032
-322,329	-166,110	-0,019	0,001
-321,314	109,865	0,085	0,073
-320,299	800,000	-0,014	0,036
-319,285	-200,000	-0,002	0,110
-318,270	-200,000	0,011	-0,075
-317,256	220,864	-0,030	0,034
-316,241	-200,000	-0,026	0,122
-315,226	-200,000	-0,012	0,059
-314,212	385,650	0,017	-0,025
-313,197	101,283	-0,037	-0,031
-312,183	181,898	0,024	-0,025
-311,168	-41,784	-0,035	0,013
-310,153	800,000	-0,022	-0,055
-309,139	62,803	0,090	-0,064
-308,124	-15,096	0,024	-0,011
-307,110	-98,524	0,044	-0,008
-306,095	-200,000	0,001	0,092
-305,080	800,000	0,034	0,100
-304,066	16,172	-0,153	0,086
-303,051	800,000	0,041	-0,083
-302,037	-200,000	0,032	-0,123
-301,022	-200,000	-0,002	0,051
-300,008	-153,473	0,074	0,004
-298,993	88,507	-0,073	-0,058
-297,978	-25,959	-0,050	0,021
-296,964	344,112	0,020	0,028
-295,949	-65,700	-0,020	-0,006
-294,935	165,752	-0,140	-0,142
-293,920	-200,000	-0,007	-0,072
-292,905	-34,747	-0,035	-0,014
-291,891	-170,822	0,028	0,001
-290,876	77,076	-0,065	0,049
-289,862	800,000	0,027	-0,072
-288,847	800,000	-0,040	-0,126
-287,832	-66,508	0,028	-0,008
-286,818	112,319	-0,060	-0,052
-285,803	-200,000	0,009	0,076
-284,789	464,996	0,037	-0,059
-283,774	133,300	-0,056	-0,051
-282,759	-200,000	-0,012	-0,088
-281,745	-171,342	0,013	-0,000
-280,730	-200,000	0,015	0,056
-279,716	-139,710	0,106	-0,008
-278,701	-135,553	0,115	0,010
-277,686	800,000	-0,037	0,086
-276,672	341,447	-0,016	0,022
-275,657	202,059	0,052	-0,058
-274,643	-128,993	0,086	-0,008
-273,628	45,939	-0,140	0,092
-272,613	-130,857	0,115	-0,011
-271,599	161,449	0,034	-0,034
-270,584	304,313	-0,042	0,055
-269,570	416,330	-0,035	-0,054
-268,555	-200,000	-0,015	0,250
-267,540	137,855	0,087	-0,082
-266,526	-137,508	-0,100	-0,008
-265,511	351,151	-0,015	-0,021
-264,497	-59,283	0,067	-0,020
-263,482	-200,000	0,019	0,118
-262,467	120,579	0,055	0,049
-261,453	185,376	-0,041	0,044
-260,438	141,215	0,020	-0,019
-259,424	-138,466	0,136	0,010
-258,409	107,050	0,037	-0,031
-257,395	-63,787	-0,128	-0,037
-256,380	-52,185	0,122	0,040
-255,365	800,000	0,051	0,107
-254,351	790,573	0,025	-0,048
-253,336	800,000	-0,068	-0,134
-252,322	800,000	0,047	-0,133
-251,307	-78,894	-0,106	-0,026
-250,292	203,698	-0,041	-0,046
-249,278	1,910	0,094	-0,048
-248,263	-200,000	-0,036	0,186
-247,249	800,000	-0,028	0,087
-246,234	-164,518	0,147	0,005
-245,219	-113,054	-0,142	-0,020
-244,205	120,779	0,036	0,032
-243,190	-39,586	0,064	-0,024
-242,176	800,000	-0,035	-0,100
-241,161	17,250	-0,017	-0,010
-240,146	799,447	0,051	0,102
-239,132	-200,000	0,019	0,170
-238,117	800,000	0,075	-0,156
-237,103	800,000	-0,040	-0,091
-236,088	-200,000	-0,015	-0,147
-235,073	29,279	0,048	0,029
-234,059	-200,000	-0,005	0,100
-233,044	800,000	0,034	-0,070
-232,030	-160,481	0,067	0,003
-231,015	-200,000	0,015	0,072
-230,000	240,990	0,027	-0,032
-228,986	-200,000	-0,008	0,120
-227,971	800,000	0,016	-0,040
-226,957	65,557	0,068	0,049
-225,942	505,285	-0,048	-0,080
-224,927	-200,000	0,011	-0,050
-223,913	-36,142	0,046	-0,018
-222,898	-122,509	-0,107	-0,012
-221,884	-118,951	-0,059	0,007
-220,869	102,904	-0,067	-0,056
-219,855	-59,769	0,109	0,033
-218,840	-200,000	0,030	0,104
-217,825	-200,000	0,004	-0,077
-216,811	-105,519	-0,202	-0,032
-215,796	-200,000	0,002	0,045
-214,782	-200,000	0,001	-0,113
-213,767	33,218	0,136	-0,084
-212,752	-55,197	0,102	0,032
-211,738	183,369	0,088	0,092
-210,723	196,042	-0,025	0,028
-209,709	42,050	0,112	0,072
-208,694	800,000	-0,029	0,091
-207,679	-200,000	0,011	-0,093
-206,665	-134,650	-0,111	-0,009
-205,650	800,000	0,050	0,150
-204,636	115,062	0,123	0,107
-203,621	-200,000	0,008	0,065
-202,606	2,804	0,052	0,027
-201,592	-18,118	-0,071	-0,032
-200,577	133,414	-0,008	0,007
-199,563	-32,115	-0,016	0,006
-198,548	-38,774	0,039	0,015
-197,533	328,906	0,104	0,143
-196,519	800,000	-0,026	0,056
-195,504	99,307	-0,066	-0,054
-194,490	74,936	-0,039	0,029
-193,475	-200,000	-0,004	0,034
-192,460	343,813	0,043	0,060
-191,446	43,688	-0,099	0,065
-190,431	-200,000	-0,032	0,144
-189,417	-45,885	0,047	-0,017
-188,402	800,000	0,040	-0,112
-187,387	-30,467	-0,080	0,032
-186,373	66,855	-0,080	-0,058
-185,358	-27,703	-0,097	-0,040
-184,344	16,467	0,044	0,025
-183,329	-200,000	0,013	0,051
-182,315	43,172	-0,023	-0,015
-181,300	134,319	-0,128	0,119
-180,285	93,680	0,021	0,017
-179,271	-99,095	-0,130	-0,023
-178,256	-200,000	0,006	-0,117
-177,242	-2,680	0,101	-0,050
-176,227	-200,000	-0,013	0,102
-175,212	-200,000	-0,016	-0,157
-174,198	800,000	-0,025	0,058
-173,183	-18,088	-0,099	0,044
-172,169	-200,000	-0,016	-0,209
-171,154	739,883	0,025	-0,048
-170,139	-200,000	-0,008	0,099
-169,125	300,629	0,064	0,084
-168,110	-44,231	0,171	0,061
-167,096	-23,125	-0,079	0,034
-166,081	130,018	-0,107	-0,098
-165,066	-62,792	-0,193	-0,056
-164,052	40,021	-0,157	-0,100
-163,037	530,259	0,040	0,067
-162,023	-200,000	-0,018	0,091
-161,008	-83,647	0,082	0,019
-159,993	404,791	0,119	0,179
-158,979	-115,518	-0,193	0,026
-157,964	131,037	-0,054	-0,049
-156,950	-59,029	-0,067	0,021
-155,935	-200,000	-0,018	0,077
-154,920	374,552	-0,079	0,115
-153,906	-36,013	0,057	0,022
-152,891	104,854	0,036	0,030
-151,877	150,452	-0,095	-0,092
-150,862	-56,792	-0,020	-0,006
-149,847	-110,494	0,045	-0,007
-148,833	24,756	0,107	0,063
-147,818	384,963	0,043	0,063
-146,804	-5,030	-0,061	-0,030
-145,789	-200,000	0,028	0,212
-144,775	203,864	-0,061	-0,067
-143,760	800,000	-0,043	-0,094
-142,745	-172,897	0,028	-0,001
-141,731	-142,946	0,167	-0,011
-140,716	-95,147	-0,079	-0,015
-139,702	-9,522	0,026	0,012
-138,687	470,124	-0,073	0,117
-137,672	177,089	-0,074	-0,076
-136,658	315,765	-0,066	-0,089
-135,643	-200,000	0,005	-0,070
-134,629	747,977	-0,037	-0,070
-133,614	139,451	0,108	-0,101
-132,599	-111,757	-0,091	0,013
-131,585	506,871	0,036	-0,059
-130,570	800,000	0,002	0,005
-129,556	-200,000	-0,019	-0,072
-128,541	-200,000	-0,031	-0,172
-127,526	800,000	-0,020	-0,048
-126,512	800,000	0,057	-0,119
-125,497	-13,123	-0,042	0,019
-124,483	-34,793	0,129	-0,050
-123,468	243,609	0,029	0,034
-122,453	-200,000	-0,003	-0,046
-121,439	110,279	-0,079	-0,068
-120,424	800,000	0,061	-0,126
-119,410	800,000	0,028	0,064
-118,395	36,590	0,023	0,014
-117,380	410,014	0,052	0,079
-116,366	8,598	0,027	-0,015
-115,351	93,387	0,028	0,022
-114,337	173,450	-0,049	0,050
-113,322	148,368	-0,075	0,072
-112,307	-114,596	0,129	0,017
-111,293	800,000	-0,018	-0,050
-110,278	242,800	0,027	-0,032
-109,264	800,000	-0,031	-0,077
-108,249	800,000	0,020	0,048
-107,234	218,756	-0,052	-0,059
-106,220	-20,174	0,101	-0,044
-105,205	-88,532	-0,062	-0,013
-104,191	-71,984	-0,025	-0,007
-103,176	-113,829	0,069	-0,009
-102,162	38,235	0,050	-0,031
-101,147	800,000	-0,055	0,131
-100,132	207,667	0,069	0,077
-99,118	8,180	-0,046	-0,024
-98,103	-200,000	0,018	-0,098
-97,089	-77,008	0,063	0,015
-96,074	334,821	0,041	0,057
-95,059	-115,334	0,153	0,020
-94,045	-9,950	-0,076	0,036
-93,030	800,000	0,013	0,027
-92,016	-200,000	0,008	-0,042
-91,001	252,160	0,091	-0,111
-89,986	-151,392	0,103	0,005
-88,972	-200,000	-0,012	-0,057
-87,957	-89,476	0,112	-0,023
-86,943	58,962	0,097	0,068
-85,928	300,812	0,010	-0,013
-84,913	317,297	-0,018	-0,024
-83,899	-121,062	-0,130	0,015
-82,884	7,242	0,046	0,024
-81,870	219,980	0,117	0,133
-80,855	404,809	-0,061	0,091
-79,840	800,000	-0,062	0,138
-78,826	111,134	0,043	-0,037
-77,811	-24,817	-0,146	0,061
-76,797	-60,709	0,059	0,018
-75,782	422,612	0,080	-0,121
-74,767	-79,893	0,084	-0,020
-73,753	800,000	0,074	0,180
-72,738	-117,181	-0,154	0,020
-71,724	675,336	-0,016	0,029
-70,709	36,571	-0,162	0,101
-69,694	127,979	-0,055	-0,050
-68,680	-200,000	-0,007	0,156
-67,665	-35,879	0,112	-0,043
-66,651	-100,510	0,033	-0,006
-65,636	207,425	-0,046	0,050
-64,622	158,872	-0,094	-0,093
-63,607	800,000	-0,009	0,018
-62,592	-95,286	-0,113	-0,021
-61,578	-12,294	0,105	-0,049
-60,563	-200,000	-0,002	-0,020
-59,549	-200,000	-0,025	-0,094
-58,534	-32,220	-1,626	-0,640
-57,519	362,030	-1,466	-2,089
-56,505	-200,000	-0,580	-4,483
-55,490	209,361	0,910	1,011
-54,476	800,000	5,070	11,392
-53,461	-200,000	19,185	320,229
-52,446	-200,000	741,126	2334,097
-51,432	573,103	1655,816	2869,028
-50,417	78,178	1671,403	1261,523
-49,403	21,235	1544,322	885,465
-48,388	15,154	1466,630	811,342
-47,373	17,985	1456,900	819,615
-46,359	16,697	1446,550	807,582
-45,344	13,396	1441,884	789,131
-44,330	13,319	1440,180	787,801
-43,315	13,294	1438,545	786,753
-42,300	13,332	1436,704	785,899
-41,286	13,339	1435,410	785,192
-40,271	13,268	1434,179	784,147
-39,257	13,281	1432,928	783,497
-38,242	13,294	1431,631	782,818
-37,227	13,348	1430,353	782,343
-36,213	13,347	1429,097	781,619
-35,198	13,354	1427,758	780,889
-34,184	13,391	1426,979	780,608
-33,169	13,350	1425,396	779,516
-32,154	13,351	1424,532	779,021
-31,140	13,349	1423,178	778,236
-30,125	13,409	1422,155	777,931
-29,111	13,381	1421,124	777,205
-28,096	13,348	1419,836	776,314
-27,082	13,319	1418,910	775,639
-26,067	13,281	1417,708	774,775
-25,052	13,326	1416,499	774,291
-24,038	13,244	1415,713	773,445
-23,023	13,268	1414,638	772,941
-22,009	13,224	1413,529	772,098
-20,994	13,232	1412,846	771,732
-19,979	13,222	1411,916	771,145
-18,965	13,219	1410,861	770,526
-17,950	13,233	1409,825	769,994
-16,936	13,171	1409,297	769,385
-15,921	13,155	1408,004	768,575
-14,906	13,212	1407,148	768,343
-13,892	13,229	1405,885	767,703
-12,877	13,232	1405,083	767,247
-11,863	13,178	1404,483	766,636
-10,848	13,151	1403,353	765,865
-9,833	13,194	1402,470	765,553
-8,819	13,147	1401,706	764,884
-7,804	13,109	1400,821	764,197
-6,790	13,092	1399,892	763,581
-5,775	13,119	1398,583	762,962
-4,760	13,150	1397,520	762,494
-3,746	13,088	1397,080	761,937
-2,731	13,108	1395,819	761,312
-1,717	13,027	1395,301	760,624
-0,702	13,070	1393,305	759,703
0,313	17,011	1310,251	732,650
1,327	33,345	703,931	431,371
2,342	51,851	123,276	82,878
3,356	4,045	16,721	8,625
4,371	7,874	3,259	1,722
5,386	-40,809	0,619	0,226
6,400	-200,000	-0,008	0,153
7,415	800,000	-0,139	-0,291
8,429	-22,551	-0,329	-0,140
9,444	214,623	-0,273	-0,307
10,459	2,582	-0,330	-0,168
11,473	430,783	-0,206	-0,317
12,488	5,056	-0,343	-0,178
13,502	136,031	-0,279	-0,257
14,517	-15,925	-0,307	-0,138
15,531	181,186	-0,343	-0,356
16,546	261,153	-0,205	-0,251
17,561	33,212	-0,354	-0,216
18,575	-38,897	-0,227	-0,084
19,590	204,663	-0,175	-0,192
20,604	-27,166	-0,345	-0,142
21,619	46,111	-0,375	-0,245
22,634	93,692	-0,370	-0,296
23,648	42,938	-0,363	-0,233
24,663	67,643	-0,477	-0,343
25,677	-109,369	-0,378	-0,056
26,692	32,977	-0,356	-0,217
27,707	79,672	-0,323	-0,244
28,721	169,999	-0,219	-0,221
29,736	9,357	-0,463	-0,246
30,750	178,676	-0,418	-0,431
31,765	103,144	-0,332	-0,274
32,780	155,960	-0,364	-0,354
33,794	54,874	-0,346	-0,235
34,809	-3,089	-0,372	-0,182
35,823	170,850	-0,321	-0,325
36,838	257,265	-0,346	-0,420
37,853	97,949	-0,346	-0,281
38,867	133,508	-0,331	-0,302
39,882	-35,212	-0,384	-0,147
40,896	97,970	-0,323	-0,262
41,911	97,365	-0,340	-0,275
42,926	291,340	-0,151	-0,194
43,940	-21,477	-0,492	-0,211
44,955	114,323	-0,321	-0,276
45,969	404,396	-0,249	-0,371
46,984	-88,022	-0,432	-0,091
47,999	305,190	-0,283	-0,372
49,013	23,035	-0,206	-0,119
50,028	158,391	-0,385	-0,376
51,042	57,275	-0,242	-0,166
52,057	155,811	-0,302	-0,293
53,071	57,087	-0,389	-0,267
54,086	-145,483	-0,344	-0,021
55,101	153,805	-0,364	-0,351
56,115	-63,850	-0,330	-0,094
57,130	262,936	-0,227	-0,278
58,144	81,392	-0,393	-0,299
59,159	22,319	-0,433	-0,248
60,174	176,951	-0,388	-0,398
61,188	104,738	-0,308	-0,256
62,203	5,230	-0,394	-0,204
63,217	144,628	-0,325	-0,306
64,232	11,079	-0,299	-0,160
65,247	71,544	-0,294	-0,215
66,261	168,866	-0,296	-0,297
67,276	165,928	-0,340	-0,339
68,290	153,504	-0,267	-0,258
69,305	86,985	-0,269	-0,208
70,320	-47,379	-0,309	-0,105
71,334	184,671	-0,169	-0,176
72,349	107,980	-0,162	-0,136
73,363	-18,926	-0,299	-0,130
74,378	198,976	-0,277	-0,299
75,393	175,645	-0,265	-0,271
76,407	140,512	-0,286	-0,265
77,422	38,957	-0,220	-0,138
78,436	32,473	-0,277	-0,168
79,451	19,042	-0,454	-0,255
80,466	63,141	-0,220	-0,155
81,480	122,760	-0,322	-0,283
82,495	59,956	-0,287	-0,199
83,509	5,472	-0,280	-0,145
84,524	209,391	-0,219	-0,242
85,539	30,567	-0,316	-0,189
86,553	32,253	-0,336	-0,203
87,568	64,430	-0,398	-0,281
88,582	382,547	-0,222	-0,322
89,597	56,450	-0,292	-0,199
90,611	-33,947	-0,396	-0,152
91,626	-95,447	-0,256	-0,048
92,641	14,351	-0,297	-0,162
93,655	68,214	-0,216	-0,155
94,670	99,347	-0,215	-0,174
95,684	-8,032	-0,384	-0,181
96,699	30,074	-0,362	-0,216
97,714	226,875	-0,193	-0,221
98,728	118,914	-0,157	-0,136
99,743	118,357	-0,215	-0,186
100,757	147,519	-0,175	-0,165
101,772	135,483	-0,298	-0,272
102,787	8,606	-0,307	-0,162
103,801	242,921	-0,197	-0,232
104,816	405,815	-0,144	-0,213
105,830	11,357	-0,246	-0,132
106,845	1,796	-0,431	-0,217
107,860	85,289	-0,158	-0,122
108,874	335,035	-0,077	-0,105
109,889	111,295	-0,219	-0,185
110,903	318,009	-0,217	-0,289
111,918	191,380	-0,194	-0,205
112,933	137,990	-0,234	-0,215
113,947	-115,764	-0,337	-0,044
114,962	330,316	-0,231	-0,312
115,976	-37,066	-0,327	-0,122
116,991	-19,857	-0,306	-0,132
118,006	-99,286	-0,305	-0,053
119,020	-38,795	-0,297	-0,109
120,035	458,153	-0,108	-0,168
121,049	-97,629	-0,265	-0,048
122,064	-194,440	-0,262	0,001
123,079	109,888	-0,276	-0,232
124,093	161,450	-0,305	-0,299
125,108	101,446	-0,313	-0,255
126,122	135,484	-0,289	-0,263
127,137	39,890	-0,211	-0,132
128,151	154,771	-0,156	-0,150
129,166	800,000	-0,162	-0,330
130,181	233,427	-0,157	-0,181
131,195	-73,657	-0,297	-0,075
132,210	199,321	-0,219	-0,235
133,224	452,839	-0,190	-0,296
134,239	-200,000	-0,050	-0,244
135,254	-13,694	-0,184	-0,083
136,268	107,261	-0,327	-0,272
137,283	51,737	-0,329	-0,218
138,297	-20,211	-0,258	-0,111
139,312	67,077	-0,288	-0,205
140,327	134,432	-0,235	-0,213
141,341	374,934	-0,150	-0,214
142,356	-5,509	-0,291	-0,139
143,370	57,657	-0,260	-0,178
144,385	7,059	-0,189	-0,098
145,400	800,000	-0,102	-0,293
146,414	122,853	-0,333	-0,291
147,429	-3,457	-0,298	-0,144
148,443	158,570	-0,170	-0,165
149,458	109,976	-0,290	-0,243
150,473	74,185	-0,309	-0,226
151,487	-94,895	-0,241	-0,045
152,502	49,440	-0,340	-0,223
153,516	20,243	-0,255	-0,144
154,531	27,784	-0,233	-0,137
155,546	-72,549	-0,368	-0,094
156,560	181,022	-0,153	-0,157
157,575	-24,634	-0,132	-0,054
158,589	127,547	-0,188	-0,167
159,604	39,613	-0,322	-0,201
160,619	800,000	-0,098	-0,203
161,633	104,833	-0,163	-0,134
162,648	-78,206	-0,235	-0,056
163,662	554,620	-0,087	-0,147
164,677	-35,486	-0,345	-0,130
165,692	-92,679	-0,180	-0,035
166,706	92,644	-0,166	-0,130
167,721	154,304	-0,244	-0,234
168,735	101,314	-0,262	-0,213
169,750	168,571	-0,213	-0,212
170,764	155,342	-0,229	-0,220
171,779	-157,539	-0,301	0,012
172,794	186,621	-0,174	-0,181
173,808	145,941	-0,198	-0,185
174,823	652,010	-0,172	-0,309
175,837	110,221	-0,214	-0,179
176,852	-111,505	-0,249	-0,035
177,867	-200,000	-0,037	-0,122
178,881	66,346	-0,146	-0,103
179,896	-177,561	-0,243	0,004
180,910	124,304	-0,299	-0,262
181,925	5,747	-0,274	-0,141
182,940	85,124	-0,282	-0,215
183,954	-9,607	-0,300	-0,139
184,969	44,004	-0,165	-0,105
185,983	-126,278	-0,095	-0,010
186,998	-14,392	-0,227	-0,101
188,013	800,000	-0,086	-0,210
189,027	-40,926	-0,263	-0,094
190,042	-51,002	-0,251	-0,081
191,056	434,351	-0,137	-0,208
192,071	333,345	-0,108	-0,145
193,086	430,452	-0,099	-0,150
194,100	-148,995	-0,232	0,013
195,115	-110,668	-0,316	-0,045
196,129	41,885	-0,332	-0,209
197,144	800,000	-0,099	-0,270
198,159	-38,378	-0,401	-0,147
199,173	74,348	-0,262	-0,192
200,188	-76,874	-0,169	-0,041
201,202	19,881	-0,190	-0,106
202,217	-146,921	-0,111	-0,007
203,232	-156,140	-0,280	-0,012
204,246	129,656	-0,268	-0,238
205,261	332,596	-0,151	-0,203
206,275	128,067	-0,110	-0,098
207,290	46,807	-0,228	-0,147
208,304	70,628	-0,100	-0,072
209,319	113,702	-0,176	-0,148
210,334	-43,149	-0,170	-0,059
211,348	249,895	-0,238	-0,281
212,363	348,058	-0,223	-0,306
213,377	29,133	-0,205	-0,120
214,392	-99,405	-0,242	-0,042
215,407	-200,000	-0,024	-0,211
216,421	89,280	-0,145	-0,112
217,436	-71,418	-0,227	-0,059
218,450	27,124	-0,198	-0,115
219,465	552,567	-0,192	-0,322
220,480	363,268	-0,089	-0,124
221,494	162,906	-0,205	-0,199
222,509	459,527	-0,085	-0,131
223,523	12,972	-0,238	-0,128
224,538	22,319	-0,205	-0,116
225,553	-8,085	-0,279	-0,130
226,567	601,186	-0,137	-0,238
227,582	60,567	-0,251	-0,172
228,596	119,939	-0,159	-0,137
229,611	800,000	-0,087	-0,201
230,626	-0,057	-0,197	-0,097
231,640	78,710	-0,272	-0,201
232,655	21,873	-0,336	-0,190
233,669	158,913	-0,253	-0,244
234,684	57,835	-0,167	-0,113
235,699	541,041	-0,116	-0,193
236,713	-9,733	-0,132	0,061
237,728	32,143	-0,095	0,056
238,742	-33,278	-0,142	-0,054
239,757	18,690	-0,176	-0,097
240,772	-78,307	-0,184	-0,043
241,786	-16,900	-0,311	-0,135
242,801	-90,559	-0,113	-0,023
243,815	124,911	-0,257	-0,224
244,830	125,881	-0,137	-0,120
245,844	352,153	-0,136	-0,188
246,859	97,590	-0,175	-0,139
247,874	291,233	-0,182	-0,229
248,888	67,174	-0,187	-0,132
249,903	-56,651	-0,175	-0,053
250,917	-94,597	-0,272	-0,051
251,932	337,898	-0,142	-0,191
252,947	8,611	-0,131	-0,068
253,961	59,525	-0,230	-0,157
254,976	68,425	-0,236	-0,167
255,990	55,188	-0,205	-0,137
257,005	78,452	-0,191	-0,141
258,020	30,575	-0,189	-0,112
259,034	-79,795	-0,131	0,030
260,049	74,473	-0,105	-0,076
261,063	233,176	-0,115	-0,131
262,078	-39,108	-0,243	-0,088
263,093	127,644	-0,270	-0,238
264,107	48,307	-0,184	-0,119
265,122	800,000	-0,066	-0,164
266,136	73,415	-0,210	-0,152
267,151	-90,872	-0,312	0,062
268,166	-20,731	-0,254	-0,107
269,180	516,354	-0,094	-0,153
270,195	14,234	-0,093	-0,050
271,209	650,314	-0,114	-0,203
272,224	800,000	-0,068	-0,182
273,239	-127,101	-0,143	-0,014
274,253	550,474	-0,051	-0,085
275,268	57,517	-0,105	-0,071
276,282	-40,893	-0,207	-0,074
277,297	50,007	-0,175	-0,114
278,312	521,848	-0,082	-0,134
279,326	139,938	-0,151	-0,137
280,341	14,004	-0,190	-0,102
281,355	-25,340	-0,207	-0,084
282,370	-177,979	-0,220	-0,004
283,384	-32,868	-0,204	-0,078
284,399	-35,153	-0,113	-0,042
285,414	-95,113	-0,116	0,021
286,428	-40,222	-0,109	-0,039
287,443	273,513	-0,164	-0,200
288,457	344,548	-0,094	-0,128
289,472	-112,149	-0,241	-0,033
290,487	567,919	-0,151	-0,253
291,501	57,285	-0,165	-0,111
292,516	161,110	-0,187	-0,180
293,530	-200,000	-0,062	-0,237
294,545	-63,003	-0,160	0,045
295,560	184,935	-0,152	-0,155
296,574	-18,105	-0,144	-0,062
297,589	166,550	-0,119	-0,117
298,603	276,554	-0,130	-0,159
299,618	89,107	-0,168	-0,129
300,633	-126,525	-0,112	-0,011
301,647	-79,215	-0,222	-0,052
302,662	231,658	-0,062	-0,070
303,676	413,084	-0,089	-0,130
304,691	-200,000	-0,058	-0,208
305,706	-56,462	-0,279	-0,085
306,720	339,482	-0,131	-0,177
307,735	26,937	-0,248	-0,143
308,749	-17,676	-0,142	-0,061
309,764	-87,113	-0,136	-0,028
310,779	-200,000	-0,142	0,000
311,793	-142,381	-0,183	0,012
312,808	56,373	-0,103	-0,069
313,822	800,000	-0,120	-0,300
314,837	42,460	-0,064	0,040
315,852	-103,348	-0,106	-0,017
316,866	41,241	-0,105	-0,065
317,881	-190,413	-0,124	0,001
318,895	355,683	-0,169	-0,233
319,910	329,755	-0,134	-0,178
320,925	-86,310	-0,238	-0,050
321,939	800,000	-0,056	-0,108
322,954	234,458	-0,124	-0,141
323,968	554,215	-0,057	-0,094
324,983	-57,149	-0,180	-0,054
325,997	-83,542	-0,139	-0,030
327,012	505,709	-0,071	-0,113
328,027	98,574	-0,300	-0,238
329,041	76,896	-0,177	-0,129
330,056	132,544	-0,098	-0,087
331,070	29,297	-0,111	-0,065
332,085	114,743	-0,166	-0,139
333,100	-29,220	-0,185	-0,073
334,114	-23,197	-0,185	0,076
335,129	67,383	-0,190	-0,133
336,143	47,462	-0,169	-0,108
337,158	-130,735	-0,187	-0,017
338,173	-113,585	-0,069	0,009
339,187	336,377	-0,056	-0,075
340,202	60,691	-0,206	-0,140
341,216	305,470	-0,084	-0,108
342,231	86,323	-0,231	-0,174
343,246	-24,986	-0,125	-0,051
344,260	110,126	-0,083	0,068
345,275	800,000	-0,044	0,094
346,289	62,869	-0,209	-0,143
347,304	800,000	-0,104	-0,285
348,319	114,264	-0,118	-0,098
349,333	94,491	-0,189	-0,148
350,348	42,116	-0,149	-0,092
351,362	-90,715	-0,170	0,033
352,377	608,203	-0,068	-0,117
353,392	137,037	-0,072	-0,064
354,406	262,444	-0,129	-0,153
355,421	209,965	1313,627	1415,341
356,435	161,619	1474,224	1415,837
