DTS Sentinel unit serial number:	SN410029Multiplexer serial number:	ORYXHardware model number:	OX2-SRSoftware version number:	ORYX F/W v4,00 Oryx Data Collector v3.7.2.0data status	okinstallation	B3 Nyhavnadifferential loss correction	single-endedforward channel	channel 1reverse channel	N/Adate	2023/12/02time	18:12:30forward acquisition time	300,00reverse acquisition time	0,00gamma	499,1914k internal	0,3199k external	0,3199temperature offset calibration	1,0000default loss term (dB/km)	0,3820temperature slope calibration	1,0000multiplexer offset coefficient	1,0000multiplexer slope coefficient	1,0000fibre end	0,00T internal ref (°C)	13,65T ext. ref 1 (°C)	-1,63T ext. ref 2 (°C)	-1,65length (m)	temperature (°C)	Stokes	anti-Stokes-744,400	140,048	-0,265	-0,254
-743,385	774,368	0,106	0,212
-742,371	513,162	-0,240	-0,408
-741,356	-200,000	-0,008	0,321
-740,342	800,000	-0,133	-0,278
-739,327	800,000	-0,100	0,317
-738,312	25,183	-0,250	-0,151
-737,298	646,921	-0,151	0,281
-736,283	186,752	-0,231	-0,251
-735,269	-200,000	0,029	0,406
-734,254	646,849	-0,096	-0,179
-733,239	112,459	-0,240	0,211
-732,225	421,907	-0,122	-0,191
-731,210	-200,000	-0,013	0,102
-730,196	800,000	0,022	0,070
-729,181	-200,000	-0,020	-0,099
-728,167	178,834	0,081	-0,086
-727,152	46,856	-0,049	0,033
-726,137	-0,214	-0,046	0,024
-725,123	117,203	-0,129	-0,116
-724,108	-200,000	0,003	0,034
-723,094	136,049	0,071	-0,068
-722,079	-200,000	-0,005	0,035
-721,064	159,286	-0,052	-0,053
-720,050	60,378	-0,071	0,051
-719,035	-200,000	-0,047	-0,184
-718,021	272,799	-0,082	-0,106
-717,006	-19,286	-0,070	-0,031
-715,991	673,189	-0,109	-0,207
-714,977	-68,456	-0,208	-0,058
-713,962	51,828	0,035	-0,024
-712,948	39,293	0,086	0,056
-711,933	-200,000	-0,002	0,085
-710,918	-200,000	-0,023	-0,098
-709,904	-73,746	0,081	-0,021
-708,889	0,906	-0,134	-0,070
-707,875	-53,924	-0,127	-0,042
-706,860	230,876	-0,013	0,015
-705,845	-200,000	-0,008	0,052
-704,831	195,738	-0,126	0,140
-703,816	159,529	0,089	-0,090
-702,802	-200,000	-0,002	0,197
-701,787	-200,000	0,022	-0,089
-700,772	800,000	-0,057	-0,141
-699,758	39,828	-0,093	-0,060
-698,743	186,696	-0,107	0,116
-697,729	800,000	-0,020	0,053
-696,714	-200,000	-0,014	0,150
-695,699	23,431	-0,079	-0,047
-694,685	-127,065	-0,118	0,012
-693,670	284,577	-0,059	0,077
-692,656	800,000	-0,049	-0,102
-691,641	171,738	0,060	0,062
-690,627	424,586	-0,003	0,005
-689,612	-200,000	0,019	0,171
-688,597	-179,279	-0,094	-0,001
-687,583	-200,000	0,022	0,112
-686,568	-42,538	-0,160	-0,059
-685,554	-200,000	0,013	0,069
-684,539	132,192	0,125	-0,117
-683,524	-93,617	0,102	0,020
-682,510	-200,000	-0,006	0,135
-681,495	15,892	-0,091	0,052
-680,481	800,000	-0,050	0,120
-679,466	-200,000	0,013	-0,128
-678,451	800,000	-0,062	-0,134
-677,437	800,000	-0,042	0,110
-676,422	46,696	-0,058	0,039
-675,408	-11,138	0,040	-0,019
-674,393	179,039	-0,069	-0,073
-673,378	-148,687	-0,147	-0,009
-672,364	-69,612	-0,074	-0,020
-671,349	-23,567	-0,047	0,020
-670,335	248,693	0,028	-0,034
-669,320	614,930	0,012	0,021
-668,305	800,000	0,010	-0,027
-667,291	-200,000	-0,025	0,119
-666,276	-200,000	-0,002	-0,102
-665,262	72,315	-0,076	0,058
-664,247	124,443	-0,143	0,130
-663,232	800,000	-0,043	0,118
-662,218	77,136	0,073	0,056
-661,203	-200,000	-0,010	-0,133
-660,189	85,457	-0,099	-0,078
-659,174	-104,524	0,188	-0,031
-658,159	800,000	0,046	-0,115
-657,145	-46,379	-0,054	0,019
-656,130	-126,232	0,100	0,011
-655,116	-200,000	-0,005	0,095
-654,101	800,000	0,084	0,186
-653,086	800,000	0,018	-0,048
-652,072	-200,000	0,011	0,088
-651,057	471,663	-0,040	-0,066
-650,043	786,448	-0,005	-0,011
-649,028	23,740	-0,032	-0,019
-648,014	800,000	0,008	0,018
-646,999	-117,191	-0,081	-0,011
-645,984	-69,833	-0,107	-0,029
-644,970	-200,000	-0,007	-0,064
-643,955	-200,000	0,003	0,083
-642,941	-200,000	0,004	-0,189
-641,926	-157,293	-0,056	0,002
-640,911	-200,000	0,016	-0,086
-639,897	312,719	0,020	0,027
-638,882	14,805	0,130	0,074
-637,868	-200,000	-0,022	0,087
-636,853	-200,000	0,026	-0,191
-635,838	59,658	-0,067	-0,048
-634,824	117,344	0,125	-0,111
-633,809	800,000	-0,038	0,087
-632,795	-92,586	-0,054	-0,011
-631,780	306,018	0,016	-0,021
-630,765	-200,000	-0,002	0,088
-629,751	800,000	-0,018	-0,038
-628,736	-102,767	0,118	0,020
-627,722	279,421	-0,128	-0,165
-626,707	256,491	-0,055	0,068
-625,692	260,418	-0,076	0,096
-624,678	496,320	-0,066	0,110
-623,663	367,261	0,029	-0,043
-622,649	-140,102	-0,293	-0,022
-621,634	800,000	0,026	-0,058
-620,619	-163,771	-0,126	-0,004
-619,605	-138,515	-0,076	0,006
-618,590	499,198	-0,063	0,106
-617,576	33,940	0,038	0,024
-616,561	800,000	0,011	0,028
-615,546	-70,020	0,062	0,017
-614,532	13,663	-0,188	-0,105
-613,517	-200,000	-0,021	-0,133
-612,503	30,058	0,039	0,024
-611,488	-158,905	-0,070	0,003
-610,474	-200,000	0,003	0,063
-609,459	463,852	-0,009	-0,014
-608,444	97,909	-0,055	-0,046
-607,430	-77,052	0,088	0,022
-606,415	701,513	-0,030	-0,057
-605,401	800,000	-0,014	-0,034
-604,386	-141,790	0,031	-0,002
-603,371	-62,339	-0,043	0,013
-602,357	22,004	0,059	0,035
-601,342	40,420	0,086	-0,056
-600,328	493,245	0,041	-0,069
-599,313	-200,000	-0,016	-0,121
-598,298	63,180	0,108	0,078
-597,284	-106,738	0,157	-0,025
-596,269	800,000	0,060	0,131
-595,255	-200,000	0,007	0,152
-594,240	34,319	-0,024	-0,015
-593,225	-200,000	-0,006	0,031
-592,211	-200,000	0,047	-0,214
-591,196	-91,981	-0,137	0,028
-590,182	-132,077	0,061	-0,006
-589,167	18,478	-0,040	-0,023
-588,152	34,880	-0,119	0,075
-587,138	9,097	0,087	-0,048
-586,123	-200,000	0,011	-0,044
-585,109	27,810	-0,108	-0,066
-584,094	-200,000	-0,029	-0,146
-583,079	-93,467	0,037	0,007
-582,065	133,486	0,053	0,050
-581,050	65,591	-0,101	0,074
-580,036	10,002	0,215	-0,118
-579,021	-200,000	0,008	-0,056
-578,006	800,000	-0,033	-0,073
-576,992	315,403	-0,013	-0,018
-575,977	-24,155	0,067	0,029
-574,963	-30,553	0,090	0,037
-573,948	-131,286	-0,020	-0,002
-572,934	-74,768	-0,024	-0,006
-571,919	800,000	-0,092	-0,204
-570,904	-90,082	-0,159	-0,033
-569,890	55,961	-0,072	0,051
-568,875	800,000	0,028	-0,067
-567,861	180,953	0,126	0,134
-566,846	-125,619	0,058	-0,006
-565,831	-81,729	-0,080	-0,019
-564,817	-87,165	-0,056	-0,012
-563,802	800,000	-0,049	-0,098
-562,788	97,259	0,026	-0,022
-561,773	-200,000	0,004	-0,051
-560,758	7,815	0,048	-0,026
-559,744	800,000	-0,034	0,099
-558,729	639,913	-0,027	-0,049
-557,715	-93,903	-0,203	0,040
-556,700	-200,000	0,030	-0,148
-555,685	-200,000	-0,036	-0,117
-554,671	318,133	0,080	-0,110
-553,656	-121,860	0,146	0,017
-552,642	-124,892	-0,049	-0,005
-551,627	8,902	-0,064	0,035
-550,612	570,474	-0,042	-0,074
-549,598	-41,646	0,065	-0,024
-548,583	68,209	-0,066	0,049
-547,569	366,201	0,052	-0,076
-546,554	137,687	-0,022	-0,021
-545,539	-44,158	0,117	0,042
-544,525	183,005	-0,054	0,057
-543,510	-108,297	0,096	-0,015
-542,496	9,374	-0,095	-0,052
-541,481	20,052	-0,062	-0,036
-540,466	294,587	-0,068	-0,091
-539,452	-142,993	0,163	-0,011
-538,437	-200,000	-0,008	0,026
-537,423	289,127	0,030	0,039
-536,408	146,173	-0,057	-0,055
-535,393	57,718	-0,025	-0,017
-534,379	-10,672	-0,110	-0,052
-533,364	567,308	-0,090	-0,158
-532,350	-200,000	-0,002	0,044
-531,335	-123,967	-0,084	0,009
-530,321	-56,431	-0,168	-0,053
-529,306	379,257	0,016	0,024
-528,291	-133,159	-0,154	-0,014
-527,277	-79,801	-0,052	0,012
-526,262	-10,726	-0,027	-0,013
-525,248	800,000	-0,025	0,070
-524,233	144,567	0,108	0,104
-523,218	-8,963	0,121	0,058
-522,204	-200,000	-0,005	-0,065
-521,189	-110,065	-0,069	0,010
-520,175	800,000	-0,023	-0,049
-519,160	728,419	0,053	-0,103
-518,145	800,000	0,031	-0,076
-517,131	-34,469	-0,017	-0,007
-516,116	-200,000	0,001	0,110
-515,102	130,839	-0,029	0,027
-514,087	642,478	-0,031	0,058
-513,072	-200,000	0,004	-0,073
-512,058	-142,969	-0,076	0,005
-511,043	-200,000	-0,017	-0,075
-510,029	795,339	0,036	-0,072
-509,014	800,000	-0,025	0,066
-507,999	590,505	0,036	0,065
-506,985	-200,000	-0,007	0,086
-505,970	722,583	-0,041	-0,078
-504,956	800,000	-0,074	-0,161
-503,941	-200,000	0,008	0,069
-502,926	-6,393	0,099	0,048
-501,912	82,153	0,109	0,085
-500,897	-70,583	-0,074	0,020
-499,883	-49,431	-0,051	0,018
-498,868	250,946	-0,158	-0,194
-497,853	545,789	0,060	-0,104
-496,839	-112,585	0,028	0,004
-495,824	800,000	0,076	0,154
-494,810	68,722	0,082	0,060
-493,795	-200,000	0,001	-0,104
-492,781	-38,131	0,022	-0,008
-491,766	-30,189	-0,092	-0,038
-490,751	-200,000	-0,002	-0,006
-489,737	-200,000	-0,010	0,157
-488,722	-147,045	0,089	-0,005
-487,708	800,000	-0,044	0,089
-486,693	-200,000	0,005	-0,067
-485,678	800,000	0,016	-0,049
-484,664	-200,000	0,023	-0,099
-483,649	-200,000	-0,022	-0,198
-482,635	800,000	0,042	0,087
-481,620	-91,979	-0,035	0,007
-480,605	800,000	0,030	0,077
-479,591	158,220	-0,055	-0,055
-478,576	-200,000	-0,005	-0,030
-477,562	586,406	0,026	-0,047
-476,547	103,182	0,046	-0,039
-475,532	-200,000	0,009	-0,036
-474,518	12,218	0,106	0,058
-473,503	-200,000	0,027	0,107
-472,489	-45,963	0,095	-0,034
-471,474	34,524	-0,010	0,006
-470,459	18,335	-0,047	-0,027
-469,445	136,758	-0,021	0,020
-468,430	-22,971	-0,074	-0,032
-467,416	-200,000	0,003	0,015
-466,401	609,760	-0,053	0,096
-465,386	-123,312	0,255	0,029
-464,372	305,781	-0,039	0,053
-463,357	-124,207	0,241	-0,027
-462,343	64,529	-0,115	-0,083
-461,328	-123,417	0,127	-0,014
-460,313	334,897	0,072	0,101
-459,299	-139,961	0,078	0,006
-458,284	-200,000	0,019	0,069
-457,270	-200,000	0,017	-0,065
-456,255	52,068	0,090	-0,061
-455,241	-200,000	0,004	0,036
-454,226	71,270	-0,113	-0,084
-453,211	-90,319	0,120	0,025
-452,197	-200,000	0,009	0,086
-451,182	800,000	0,035	0,083
-450,168	62,669	0,064	-0,046
-449,153	-200,000	0,000	-0,097
-448,138	800,000	-0,062	0,166
-447,124	-38,016	0,041	-0,016
-446,109	-200,000	-0,007	0,058
-445,095	-200,000	-0,001	0,172
-444,080	413,315	-0,066	0,101
-443,065	-200,000	-0,016	0,138
-442,051	131,957	-0,041	0,038
-441,036	-200,000	-0,005	-0,057
-440,022	-66,208	-0,048	-0,014
-439,007	-45,155	-0,073	-0,026
-437,992	42,615	0,122	0,080
-436,978	800,000	0,060	0,157
-435,963	311,795	0,019	0,026
-434,949	-200,000	-0,015	0,139
-433,934	-170,226	-0,025	-0,001
-432,919	-68,288	-0,108	-0,030
-431,905	-200,000	0,046	0,217
-430,890	246,274	0,072	0,088
-429,876	-156,518	0,030	0,001
-428,861	-200,000	-0,012	0,051
-427,846	-200,000	0,031	0,106
-426,832	-200,000	0,012	-0,101
-425,817	71,038	0,048	-0,036
-424,803	44,170	-0,104	0,069
-423,788	-109,645	0,043	0,007
-422,773	101,349	0,082	0,068
-421,759	70,444	0,092	0,068
-420,744	269,392	-0,069	-0,087
-419,730	220,590	0,042	0,049
-418,715	-107,675	-0,182	-0,028
-417,701	-200,000	0,003	-0,032
-416,686	800,000	-0,041	0,116
-415,671	268,956	-0,025	0,032
-414,657	64,179	0,069	-0,050
-413,642	-200,000	0,002	0,051
-412,628	-109,710	0,055	0,008
-411,613	186,734	-0,068	-0,073
-410,598	130,038	-0,082	-0,075
-409,584	-83,258	-0,143	-0,033
-408,569	49,123	0,091	-0,061
-407,555	-200,000	-0,018	0,156
-406,540	800,000	-0,036	-0,094
-405,525	286,847	0,100	-0,130
-404,511	-56,835	0,103	-0,032
-403,496	-200,000	0,006	0,055
-402,482	800,000	0,035	-0,073
-401,467	375,520	-0,006	-0,009
-400,452	-200,000	0,006	-0,082
-399,438	800,000	0,022	0,062
-398,423	12,886	0,069	0,038
-397,409	-67,474	-0,084	0,023
-396,394	434,483	-0,015	0,023
-395,379	410,291	0,060	0,091
-394,365	-200,000	0,010	0,089
-393,350	317,608	0,053	0,072
-392,336	-200,000	0,039	0,152
-391,321	-130,778	-0,068	0,007
-390,306	-21,604	0,167	0,073
-389,292	-23,054	0,045	0,019
-388,277	-37,198	0,066	0,025
-387,263	-200,000	-0,004	-0,045
-386,248	800,000	0,029	0,070
-385,233	-200,000	0,009	-0,111
-384,219	-71,629	0,098	0,026
-383,204	1,045	-0,089	-0,046
-382,190	572,238	-0,066	-0,115
-381,175	800,000	-0,039	-0,080
-380,160	-45,871	0,034	0,012
-379,146	-97,367	0,096	-0,018
-378,131	262,441	-0,025	-0,031
-377,117	153,905	-0,006	0,006
-376,102	-85,207	0,076	-0,017
-375,088	-51,311	-0,049	0,016
-374,073	308,879	-0,060	-0,081
-373,058	-76,615	-0,030	0,007
-372,044	-153,897	0,170	-0,008
-371,029	800,000	0,021	0,056
-370,015	-31,163	-0,078	0,031
-369,000	493,991	0,073	-0,120
-367,985	-161,702	0,032	-0,001
-366,971	-117,435	-0,119	-0,015
-365,956	98,804	-0,052	0,043
-364,942	22,389	0,042	-0,024
-363,927	-200,000	0,001	0,081
-362,912	265,901	0,060	-0,076
-361,898	-18,647	0,106	-0,047
-360,883	-137,008	-0,076	0,006
-359,869	109,980	-0,083	0,071
-358,854	159,768	0,079	0,079
-357,839	-167,212	0,252	0,007
-356,825	-200,000	-0,012	0,184
-355,810	-200,000	0,007	0,044
-354,796	-200,000	0,003	-0,089
-353,781	-178,236	-0,037	-0,001
-352,766	315,171	-0,026	0,035
-351,752	-60,095	0,049	0,015
-350,737	6,629	-0,113	0,060
-349,723	261,115	-0,073	0,091
-348,708	162,859	-0,049	0,049
-347,693	-83,494	-0,036	0,008
-346,679	-106,255	-0,110	-0,017
-345,664	-40,447	-0,103	0,038
-344,650	245,925	-0,086	0,104
-343,635	82,728	0,086	0,067
-342,620	-120,572	0,077	-0,009
-341,606	122,532	0,051	0,045
-340,591	-200,000	-0,010	0,081
-339,577	-50,274	-0,063	0,021
-338,562	-200,000	-0,017	0,129
-337,548	-76,642	-0,162	-0,040
-336,533	173,771	-0,061	-0,063
-335,518	-200,000	-0,014	0,049
-334,504	-46,538	0,147	-0,051
-333,489	-113,265	-0,199	0,028
-332,475	21,576	0,169	-0,098
-331,460	800,000	0,047	-0,108
-330,445	-174,715	-0,088	0,002
-329,431	-200,000	0,027	0,118
-328,416	451,103	0,025	0,039
-327,402	-200,000	-0,040	0,189
-326,387	5,424	0,113	-0,059
-325,372	-52,768	-0,083	0,027
-324,358	256,368	0,063	-0,077
-323,343	-99,173	-0,134	-0,024
-322,329	-75,577	0,041	0,010
-321,314	-102,993	-0,066	-0,011
-320,299	-200,000	-0,010	0,116
-319,285	-166,511	-0,049	0,001
-318,270	720,749	-0,045	-0,086
-317,256	127,533	0,131	-0,119
-316,241	800,000	-0,039	-0,108
-315,226	104,720	-0,101	-0,085
-314,212	-116,769	0,159	-0,021
-313,197	-58,067	0,109	-0,034
-312,183	-200,000	0,008	-0,062
-311,168	-14,191	-0,065	-0,030
-310,153	-76,338	-0,050	-0,012
-309,139	-200,000	-0,001	-0,067
-308,124	-89,343	0,078	0,016
-307,110	-73,295	0,096	0,025
-306,095	57,752	-0,091	-0,064
-305,080	800,000	0,070	0,149
-304,066	-200,000	-0,011	-0,162
-303,051	181,756	0,030	0,032
-302,037	34,777	0,068	0,042
-301,022	224,145	-0,029	-0,033
-300,008	45,039	0,093	0,061
-298,993	-200,000	-0,028	0,156
-297,978	-140,287	-0,044	-0,003
-296,964	-200,000	0,004	-0,052
-295,949	-18,120	-0,039	-0,018
-294,935	19,512	0,110	-0,063
-293,920	800,000	-0,054	0,127
-292,905	800,000	0,027	0,083
-291,891	-200,000	0,026	0,196
-290,876	-200,000	-0,038	0,169
-289,862	-25,219	0,144	0,061
-288,847	-200,000	-0,017	0,063
-287,832	232,565	-0,052	0,061
-286,818	-200,000	0,016	-0,062
-285,803	-165,083	0,142	-0,004
-284,789	74,971	0,030	-0,023
-283,774	329,403	0,019	-0,026
-282,759	-7,585	-0,093	-0,045
-281,745	435,745	0,041	-0,064
-280,730	-37,412	-0,029	-0,011
-279,716	800,000	0,062	-0,163
-278,701	224,855	0,043	0,050
-277,686	-200,000	-0,002	0,067
-276,672	674,596	0,083	0,154
-275,657	800,000	-0,049	0,105
-274,643	800,000	-0,055	-0,114
-273,628	-200,000	-0,013	-0,204
-272,613	-175,479	-0,075	0,001
-271,599	-200,000	0,013	-0,096
-270,584	621,881	-0,036	0,065
-269,570	59,099	0,090	0,064
-268,555	-200,000	-0,025	0,174
-267,540	540,426	0,039	0,067
-266,526	203,703	0,090	-0,100
-265,511	16,358	-0,121	-0,068
-264,497	-32,108	0,136	-0,054
-263,482	800,000	-0,034	0,081
-262,467	-95,549	0,047	0,009
-261,453	228,230	-0,037	0,043
-260,438	-110,990	-0,049	0,007
-259,424	385,937	-0,051	-0,076
-258,409	-43,566	-0,134	0,048
-257,395	-95,834	-0,089	0,017
-256,380	-16,395	0,134	0,061
-255,365	52,208	0,097	0,066
-254,351	-200,000	-0,020	0,102
-253,336	149,545	0,070	-0,068
-252,322	800,000	-0,058	0,173
-251,307	-173,233	-0,222	-0,005
-250,292	-200,000	-0,003	0,119
-249,278	-152,432	-0,065	0,003
-248,263	-79,406	0,202	0,049
-247,249	-200,000	0,052	0,229
-246,234	77,462	-0,044	-0,033
-245,219	-200,000	-0,068	0,000
-244,205	800,000	-0,045	-0,113
-243,190	800,000	-0,043	-0,086
-242,176	4,146	0,040	-0,021
-241,161	-42,533	-0,100	0,036
-240,146	-200,000	0,045	0,164
-239,132	-200,000	-0,003	0,087
-238,117	357,767	-0,064	0,092
-237,103	782,429	0,005	0,009
-236,088	-200,000	-0,000	-0,052
-235,073	70,652	-0,084	-0,062
-234,059	800,000	0,070	-0,192
-233,044	-200,000	0,005	-0,069
-232,030	244,198	0,047	-0,057
-231,015	77,580	0,162	0,123
-230,000	-22,306	0,105	0,045
-228,986	-84,584	0,061	-0,014
-227,971	800,000	0,010	0,029
-226,957	-200,000	-0,001	-0,059
-225,942	554,911	0,014	0,023
-224,927	-110,720	-0,024	-0,004
-223,913	-200,000	0,002	-0,108
-222,898	-57,821	-0,026	-0,008
-221,884	800,000	-0,032	-0,101
-220,869	-200,000	0,016	-0,132
-219,855	800,000	0,018	0,047
-218,840	422,108	0,052	0,079
-217,825	-57,387	-0,091	-0,028
-216,811	117,365	0,136	-0,119
-215,796	-200,000	0,000	-0,015
-214,782	-200,000	-0,013	0,040
-213,767	269,571	-0,112	-0,141
-212,752	-45,474	0,019	-0,007
-211,738	4,174	0,058	0,030
-210,723	188,844	-0,029	0,031
-209,709	800,000	-0,056	-0,123
-208,694	131,761	-0,099	-0,091
-207,679	-200,000	0,037	-0,187
-206,665	92,286	0,093	-0,074
-205,650	800,000	-0,044	0,096
-204,636	-200,000	-0,008	0,175
-203,621	800,000	-0,068	-0,138
-202,606	-54,609	-0,143	0,046
-201,592	800,000	-0,044	0,125
-200,577	-200,000	-0,002	-0,074
-199,563	261,074	0,080	-0,098
-198,548	-146,830	0,014	-0,001
-197,533	176,062	0,120	0,125
-196,519	-200,000	0,019	-0,090
-195,504	-37,819	0,074	0,028
-194,490	800,000	0,012	0,037
-193,475	-60,575	-0,119	-0,036
-192,460	19,061	0,114	-0,065
-191,446	289,089	0,067	-0,087
-190,431	-200,000	0,024	0,133
-189,417	46,794	-0,109	-0,072
-188,402	26,494	0,074	0,044
-187,387	-200,000	-0,016	-0,088
-186,373	800,000	-0,045	-0,123
-185,358	-68,035	0,114	0,032
-184,344	-193,628	-0,095	0,001
-183,329	-21,328	0,100	0,043
-182,315	-53,545	-0,014	-0,005
-181,300	-4,753	-0,023	-0,011
-180,285	-200,000	0,017	-0,080
-179,271	167,657	-0,075	-0,076
-178,256	-92,444	0,067	-0,013
-177,242	272,932	0,010	0,013
-176,227	-200,000	-0,021	0,131
-175,212	-200,000	0,005	0,066
-174,198	51,205	-0,034	-0,023
-173,183	214,920	-0,059	0,067
-172,169	253,636	-0,060	0,074
-171,154	115,629	-0,004	-0,004
-170,139	800,000	0,048	0,098
-169,125	10,653	0,123	-0,066
-168,110	8,729	0,023	0,012
-167,096	72,741	-0,036	-0,027
-166,081	-185,944	-0,129	0,001
-165,066	-200,000	-0,003	-0,197
-164,052	800,000	-0,061	-0,129
-163,037	-3,665	-0,113	0,056
-162,023	-184,622	0,027	-0,000
-161,008	204,567	0,023	-0,026
-159,993	-200,000	0,000	-0,000
-158,979	5,060	-0,046	0,024
-157,964	276,882	0,054	0,069
-156,950	800,000	-0,057	-0,136
-155,935	368,367	-0,052	0,075
-154,920	103,534	0,107	0,089
-153,906	-185,967	-0,082	-0,001
-152,891	800,000	0,042	-0,112
-151,877	291,649	-0,071	-0,092
-150,862	116,725	-0,122	-0,107
-149,847	800,000	0,020	0,044
-148,833	800,000	0,025	0,060
-147,818	-200,000	0,015	-0,047
-146,804	396,111	-0,083	-0,124
-145,789	-127,371	0,054	0,006
-144,775	206,762	0,078	-0,086
-143,760	-200,000	0,010	-0,062
-142,745	-200,000	-0,007	0,130
-141,731	147,695	-0,084	-0,080
-140,716	-29,764	-0,010	0,004
-139,702	434,614	0,001	-0,001
-138,687	-135,023	-0,101	0,009
-137,672	-200,000	-0,001	0,055
-136,658	-200,000	-0,005	-0,040
-135,643	-200,000	0,007	-0,089
-134,629	-200,000	0,028	0,101
-133,614	-20,000	0,104	0,046
-132,599	-55,929	-0,083	0,026
-131,585	-200,000	-0,034	0,140
-130,570	35,880	-0,008	-0,005
-129,556	56,477	-0,103	0,071
-128,541	-159,832	-0,041	-0,002
-127,526	800,000	0,053	0,109
-126,512	-27,640	0,099	-0,041
-125,497	-200,000	-0,009	0,049
-124,483	-101,556	0,044	0,008
-123,468	-22,233	-0,102	0,044
-122,453	-95,258	-0,052	-0,010
-121,439	800,000	-0,071	0,159
-120,424	-15,354	-0,054	-0,024
-119,410	-36,733	0,118	0,045
-118,395	-149,298	-0,101	0,006
-117,380	-44,938	0,044	-0,015
-116,366	242,590	-0,033	0,039
-115,351	800,000	-0,048	0,137
-114,337	-18,502	-0,072	-0,032
-113,322	482,420	-0,052	-0,085
-112,307	-200,000	-0,010	0,111
-111,293	800,000	0,068	0,170
-110,278	-200,000	-0,004	0,064
-109,264	59,448	-0,106	0,074
-108,249	-24,930	-0,045	0,019
-107,234	-200,000	-0,001	0,021
-106,220	-200,000	-0,003	-0,077
-105,205	712,861	0,017	-0,033
-104,191	-200,000	0,011	0,083
-103,176	46,920	-0,097	0,064
-102,162	-200,000	0,024	0,083
-101,147	-200,000	0,003	0,102
-100,132	-200,000	0,012	0,140
-99,118	800,000	-0,007	0,016
-98,103	263,314	0,034	0,042
-97,089	74,863	0,056	-0,042
-96,074	800,000	0,014	0,036
-95,059	724,113	0,020	-0,039
-94,045	800,000	-0,022	-0,052
-93,030	26,064	-0,044	0,026
-92,016	-29,289	-0,106	0,043
-91,001	274,181	0,042	-0,053
-89,986	-107,392	0,145	-0,022
-88,972	528,917	0,054	0,091
-87,957	-8,479	-0,061	0,029
-86,943	724,911	0,033	0,062
-85,928	-163,851	-0,065	-0,002
-84,913	207,693	0,046	-0,051
-83,899	458,587	-0,022	0,035
-82,884	1,336	-0,063	0,032
-81,870	-200,000	0,044	0,145
-80,855	467,427	0,068	0,109
-79,840	-60,632	0,033	0,010
-78,826	141,964	-0,075	-0,070
-77,811	464,005	-0,084	-0,134
-76,797	-200,000	0,028	0,088
-75,782	604,643	0,089	-0,158
-74,767	114,945	0,119	0,103
-73,753	-98,038	0,065	0,012
-72,738	-200,000	0,017	-0,114
-71,724	29,917	-0,155	0,093
-70,709	136,715	-0,043	-0,039
-69,694	327,498	-0,105	0,142
-68,680	800,000	0,017	-0,038
-67,665	-114,012	0,086	-0,012
-66,651	-200,000	0,001	0,015
-65,636	106,889	0,036	-0,030
-64,622	-84,282	0,044	-0,010
-63,607	576,011	0,015	0,026
-62,592	-200,000	-0,006	-0,104
-61,578	316,942	-0,060	0,081
-60,563	35,385	0,153	0,095
-59,549	-49,928	-0,197	0,066
-58,534	-46,507	-1,778	-0,615
-57,519	330,389	-1,374	-1,880
-56,505	-200,000	-0,581	-4,620
-55,490	202,147	0,976	1,068
-54,476	800,000	4,917	11,399
-53,461	-200,000	18,996	315,971
-52,446	-200,000	739,748	2332,034
-51,432	575,640	1655,579	2875,242
-50,417	78,780	1671,179	1265,110
-49,403	21,665	1543,768	887,824
-48,388	15,547	1466,088	813,399
-47,373	17,890	1456,502	819,378
-46,359	16,810	1446,071	808,294
-45,344	13,748	1441,827	791,220
-44,330	13,715	1439,756	789,894
-43,315	13,664	1438,178	788,753
-42,300	13,685	1436,481	787,887
-41,286	13,710	1435,165	787,258
-40,271	13,703	1433,836	786,465
-39,257	13,647	1432,650	785,512
-38,242	13,745	1431,146	785,123
-37,227	13,739	1430,273	784,588
-36,213	13,731	1428,891	783,759
-35,198	13,740	1427,560	783,038
-34,184	13,789	1426,771	782,811
-33,169	13,739	1425,228	781,695
-32,154	13,762	1424,170	781,190
-31,140	13,805	1422,805	780,617
-30,125	13,835	1421,822	780,187
-29,111	13,781	1420,541	779,198
-28,096	13,708	1419,606	778,308
-27,082	13,675	1418,393	777,457
-26,067	13,673	1417,468	776,909
-25,052	13,689	1416,413	776,379
-24,038	13,678	1415,337	775,705
-23,023	13,618	1414,327	774,839
-22,009	13,633	1413,389	774,366
-20,994	13,663	1412,563	774,024
-19,979	13,644	1411,628	773,390
-18,965	13,631	1410,657	772,764
-17,950	13,601	1409,764	772,105
-16,936	13,635	1408,692	771,646
-15,921	13,582	1407,747	770,852
-14,906	13,582	1406,718	770,255
-13,892	13,630	1405,865	769,981
-12,877	13,639	1404,913	769,471
-11,863	13,603	1404,020	768,786
-10,848	13,544	1403,383	768,131
-9,833	13,534	1402,332	767,478
-8,819	13,497	1401,370	766,752
-7,804	13,509	1400,524	766,311
-6,790	13,464	1399,530	765,529
-5,775	13,501	1398,436	765,070
-4,760	13,466	1397,504	764,370
-3,746	13,488	1396,663	763,979
-2,731	13,494	1395,826	763,519
-1,717	13,495	1394,853	762,963
-0,702	13,501	1393,044	761,972
0,313	17,220	1310,724	734,221
1,327	33,374	704,744	432,172
2,342	51,078	123,532	82,791
3,356	1,721	16,636	8,455
4,371	-3,827	3,362	1,646
5,386	-41,702	0,577	0,209
6,400	-200,000	0,012	0,153
7,415	-106,685	-0,306	-0,048
8,429	36,242	-0,307	-0,191
9,444	102,526	-0,348	-0,287
10,459	7,228	-0,285	-0,150
11,473	-170,552	-0,203	0,005
12,488	-89,034	-0,294	-0,061
13,502	103,907	-0,319	-0,265
14,517	-55,918	-0,369	-0,116
15,531	89,457	-0,335	-0,264
16,546	-27,141	-0,287	-0,118
17,561	109,580	-0,358	-0,303
18,575	115,063	-0,134	-0,116
19,590	11,212	-0,267	-0,144
20,604	-62,279	-0,288	-0,084
21,619	98,533	-0,446	-0,363
22,634	72,660	-0,409	-0,301
23,648	241,026	-0,308	-0,364
24,663	262,100	-0,243	-0,299
25,677	93,012	-0,416	-0,332
26,692	252,888	-0,284	-0,343
27,707	-50,004	-0,406	-0,135
28,721	18,745	-0,469	-0,264
29,736	75,035	-0,390	-0,290
30,750	75,619	-0,429	-0,320
31,765	282,291	-0,275	-0,350
32,780	35,149	-0,465	-0,287
33,794	206,135	-0,312	-0,343
34,809	392,282	-0,260	-0,383
35,823	71,800	-0,273	-0,200
36,838	98,836	-0,475	-0,387
37,853	99,325	-0,432	-0,352
38,867	51,427	-0,361	-0,242
39,882	203,599	-0,290	-0,318
40,896	115,136	-0,320	-0,275
41,911	20,670	-0,359	-0,204
42,926	89,342	-0,433	-0,340
43,940	207,244	-0,288	-0,318
44,955	67,193	-0,324	-0,233
45,969	198,252	-0,284	-0,307
46,984	49,521	-0,265	-0,176
47,999	-41,319	-0,366	-0,132
49,013	105,677	-0,295	-0,246
50,028	-17,797	-0,423	-0,186
51,042	146,539	-0,272	-0,258
52,057	52,622	-0,438	-0,294
53,071	24,601	-0,335	-0,195
54,086	111,710	-0,365	-0,310
55,101	166,585	-0,294	-0,294
56,115	361,396	-0,233	-0,330
57,130	-43,913	-0,398	-0,140
58,144	103,275	-0,345	-0,285
59,159	149,532	-0,378	-0,361
60,174	15,427	-0,435	-0,240
61,188	63,767	-0,309	-0,218
62,203	-23,719	-0,392	-0,165
63,217	153,731	-0,181	-0,175
64,232	19,923	-0,242	-0,137
65,247	137,169	-0,341	-0,314
66,261	264,511	-0,268	-0,329
67,276	86,054	-0,394	-0,305
68,290	-7,063	-0,357	-0,170
69,305	17,512	-0,368	-0,205
70,320	30,844	-0,344	-0,207
71,334	6,240	-0,352	-0,183
72,349	77,323	-0,252	-0,188
73,363	121,280	-0,333	-0,292
74,378	-10,776	-0,396	-0,184
75,393	0,042	-0,359	-0,179
76,407	31,097	-0,343	-0,206
77,422	-96,234	-0,254	-0,047
78,436	-61,792	-0,221	-0,065
79,451	121,031	-0,403	-0,352
80,466	-10,954	-0,402	-0,186
81,480	156,042	-0,349	-0,339
82,495	-57,730	-0,471	-0,144
83,509	134,232	-0,211	-0,192
84,524	325,766	-0,249	-0,335
85,539	118,618	-0,159	-0,138
86,553	-0,272	-0,286	-0,143
87,568	38,258	-0,340	-0,212
88,582	214,764	-0,219	-0,245
89,597	104,991	-0,201	-0,167
90,611	154,738	-0,222	-0,214
91,626	156,618	-0,209	-0,203
92,641	-48,078	-0,419	-0,141
93,655	26,773	-0,351	-0,206
94,670	-53,772	-0,281	-0,090
95,684	169,070	-0,244	-0,244
96,699	90,827	-0,194	-0,153
97,714	-35,204	-0,220	-0,084
98,728	80,601	-0,270	-0,204
99,743	130,934	-0,218	-0,196
100,757	-10,628	-0,270	-0,125
101,772	-8,163	-0,246	-0,116
102,787	102,009	-0,165	-0,135
103,801	190,257	-0,295	-0,311
104,816	3,130	-0,355	-0,181
105,830	97,946	-0,195	-0,158
106,845	2,350	-0,282	-0,143
107,860	52,603	-0,255	-0,170
108,874	-78,990	-0,320	-0,076
109,889	105,857	-0,297	-0,247
110,903	15,713	-0,373	-0,205
111,918	-22,738	-0,258	-0,109
112,933	-39,714	-0,263	-0,096
113,947	464,938	-0,166	-0,262
114,962	174,549	-0,203	-0,206
115,976	14,771	-0,283	-0,155
116,991	248,955	-0,158	-0,188
118,006	105,417	-0,224	-0,185
119,020	674,793	-0,175	-0,320
120,035	49,570	-0,182	-0,120
121,049	264,032	-0,178	-0,217
122,064	-46,005	-0,181	-0,062
123,079	175,798	-0,187	-0,190
124,093	131,339	-0,198	-0,178
125,108	-54,025	-0,344	-0,109
126,122	-55,473	-0,412	-0,129
127,137	115,500	-0,186	-0,159
128,151	-86,135	-0,233	-0,050
129,166	-99,794	-0,237	-0,041
130,181	81,344	-0,229	-0,173
131,195	57,053	-0,347	-0,237
132,210	135,847	-0,412	-0,376
133,224	117,588	-0,260	-0,224
134,239	141,822	-0,220	-0,204
135,254	229,593	-0,133	-0,153
136,268	-15,772	-0,279	-0,124
137,283	54,434	-0,308	-0,207
138,297	238,823	-0,315	-0,367
139,312	-21,867	-0,317	-0,134
140,327	295,369	-0,189	-0,243
141,341	109,828	-0,247	-0,208
142,356	160,613	-0,243	-0,237
143,370	8,814	-0,267	-0,140
144,385	-9,513	-0,298	-0,138
145,400	13,707	-0,335	-0,182
146,414	-2,041	-0,349	-0,171
147,429	83,967	-0,264	-0,202
148,443	9,979	-0,218	-0,115
149,458	-53,395	-0,255	-0,081
150,473	1,501	-0,240	-0,120
151,487	94,851	-0,128	-0,102
152,502	-82,007	-0,155	0,035
153,516	69,169	-0,247	-0,177
154,531	-200,000	-0,035	-0,157
155,546	-59,977	-0,350	-0,104
156,560	-30,470	-0,255	-0,101
157,575	29,090	-0,302	-0,178
158,589	124,656	-0,321	-0,282
159,604	7,391	-0,226	-0,117
160,619	96,708	-0,249	-0,199
161,633	77,475	-0,251	-0,186
162,648	267,524	-0,183	-0,225
163,662	-19,591	-0,231	-0,100
164,677	26,452	-0,226	-0,131
165,692	234,852	-0,157	-0,181
166,706	153,662	-0,269	-0,257
167,721	-107,776	-0,266	-0,040
168,735	-11,557	-0,280	-0,128
169,750	164,417	-0,233	-0,229
170,764	-39,380	-0,237	-0,086
171,779	7,042	-0,272	-0,141
172,794	-30,954	-0,186	-0,073
173,808	425,064	-0,140	-0,211
174,823	-124,798	-0,258	-0,027
175,837	97,717	-0,269	-0,215
176,852	3,974	-0,239	-0,122
177,867	176,683	-0,273	-0,277
178,881	388,581	-0,108	-0,157
179,896	-36,774	-0,195	-0,073
180,910	5,317	-0,091	-0,047
181,925	-62,200	-0,308	-0,089
182,940	25,431	-0,294	-0,170
183,954	44,069	-0,207	-0,132
184,969	132,572	-0,165	-0,149
185,983	800,000	-0,070	-0,179
186,998	133,533	-0,197	-0,178
188,013	-7,642	-0,264	-0,124
189,027	188,223	-0,156	-0,163
190,042	-11,676	-0,160	-0,073
191,056	88,780	-0,299	-0,231
192,071	5,716	-0,193	-0,099
193,086	394,510	-0,160	-0,233
194,100	71,827	-0,208	-0,150
195,115	131,129	-0,242	-0,216
196,129	159,328	-0,208	-0,202
197,144	105,950	-0,263	-0,217
198,159	77,972	-0,199	-0,148
199,173	92,200	-0,221	-0,173
200,188	10,238	-0,274	-0,145
201,202	-38,510	-0,206	-0,075
202,217	-64,512	-0,243	-0,068
203,232	-15,559	-0,207	-0,091
204,246	181,929	-0,182	-0,187
205,261	521,698	-0,115	-0,188
206,275	-61,394	-0,122	-0,035
207,290	17,178	-0,255	-0,140
208,304	301,329	-0,152	-0,195
209,319	20,700	-0,191	-0,107
210,334	-92,141	-0,231	-0,045
211,348	127,475	-0,218	-0,192
212,363	-75,053	-0,146	-0,036
213,377	-16,572	-0,255	-0,112
214,392	800,000	-0,067	-0,149
215,407	-12,917	-0,131	-0,059
216,421	133,946	-0,141	-0,127
217,436	187,424	-0,227	-0,236
218,450	358,716	-0,169	-0,235
219,465	105,916	-0,252	-0,207
220,480	-176,564	-0,307	-0,005
221,494	152,920	-0,252	-0,239
222,509	-136,493	-0,206	-0,016
223,523	61,926	-0,155	-0,107
224,538	130,143	-0,148	-0,131
225,553	-200,000	-0,036	-0,111
226,567	298,558	-0,216	-0,277
227,582	609,840	-0,170	-0,296
228,596	-30,086	-0,152	-0,060
229,611	383,263	-0,115	-0,164
230,626	-105,459	-0,115	-0,018
231,640	35,267	-0,206	-0,125
232,655	374,293	-0,194	-0,274
233,669	218,926	-0,179	-0,198
234,684	260,967	-0,163	-0,196
235,699	-200,000	-0,026	-0,186
236,713	-49,974	-0,180	-0,059
237,728	-59,008	-0,245	-0,073
238,742	800,000	-0,089	-0,213
239,757	8,586	-0,204	-0,106
240,772	496,817	-0,112	-0,179
241,786	199,223	-0,254	-0,270
242,801	549,287	-0,092	-0,153
243,815	275,922	-0,150	-0,185
244,830	224,927	-0,177	-0,198
245,844	800,000	-0,044	-0,124
246,859	-66,805	-0,250	-0,068
247,874	6,876	-0,202	-0,104
248,888	262,727	-0,105	-0,126
249,903	25,761	-0,270	-0,156
250,917	35,024	-0,120	0,073
251,932	-127,309	-0,100	0,010
252,947	20,575	-0,131	-0,073
253,961	179,473	-0,123	-0,125
254,976	200,079	-0,147	-0,157
255,990	292,506	-0,128	-0,162
257,005	800,000	-0,150	-0,305
258,020	291,730	-0,058	-0,073
259,034	-144,927	-0,126	-0,008
260,049	64,696	-0,166	-0,116
261,063	46,732	-0,168	-0,108
262,078	-0,467	-0,243	-0,119
263,093	241,782	-0,222	-0,257
264,107	-79,017	-0,153	-0,036
265,122	-96,571	-0,169	0,030
266,136	137,193	-0,176	-0,159
267,151	800,000	-0,067	-0,159
268,166	296,936	-0,075	-0,095
269,180	259,072	-0,063	-0,075
270,195	714,433	-0,090	-0,166
271,209	-39,805	-0,217	-0,078
272,224	-112,495	-0,141	-0,019
273,239	-0,804	-0,230	-0,112
274,253	-137,604	-0,155	0,012
275,268	519,588	-0,131	-0,213
276,282	-74,306	-0,229	-0,057
277,297	154,377	-0,183	-0,174
278,312	-200,000	-0,014	-0,084
279,326	5,815	-0,142	-0,073
280,341	163,441	-0,111	-0,108
281,355	130,688	-0,165	-0,146
282,370	92,670	-0,189	-0,147
283,384	70,762	-0,156	-0,112
284,399	-49,845	-0,158	-0,051
285,414	109,146	-0,247	-0,204
286,428	91,293	-0,128	-0,099
287,443	-25,323	-0,093	0,038
288,457	168,817	-0,051	-0,050
289,472	29,326	-0,149	-0,087
290,487	55,559	-0,143	-0,096
291,501	162,972	-0,219	-0,212
292,516	71,843	-0,180	-0,129
293,530	800,000	-0,017	-0,046
294,545	254,022	-0,085	-0,100
295,560	-85,760	-0,102	0,022
296,574	355,402	-0,118	-0,162
297,589	-46,396	-0,140	-0,047
298,603	277,719	-0,180	-0,221
299,618	-200,000	-0,000	-0,191
300,633	166,362	-0,094	-0,091
301,647	800,000	-0,117	-0,242
302,662	-133,801	-0,171	-0,014
303,676	800,000	-0,030	-0,082
304,691	205,220	-0,150	-0,161
305,706	216,173	-0,209	-0,229
306,720	800,000	-0,086	-0,166
307,735	49,001	-0,169	-0,109
308,749	22,461	-0,114	-0,064
309,764	800,000	0,088	-0,242
310,779	6,276	-0,173	-0,088
311,793	151,532	-0,199	-0,186
312,808	-200,000	-0,040	-0,155
313,822	277,093	-0,111	-0,137
314,837	115,810	-0,187	-0,157
315,852	-200,000	-0,007	-0,138
316,866	-137,926	-0,094	-0,007
317,881	-53,527	-0,058	-0,018
318,895	-124,564	-0,179	-0,019
319,910	475,163	-0,127	-0,198
320,925	124,680	-0,179	-0,155
321,939	353,711	-0,127	-0,175
322,954	159,786	-0,142	-0,136
323,968	-138,054	-0,146	-0,011
324,983	65,209	-0,120	-0,083
325,997	285,446	-0,105	-0,131
327,012	-89,562	-0,196	-0,039
328,027	125,462	-0,170	-0,148
329,041	198,180	-0,112	-0,118
330,056	-59,917	-0,094	-0,027
331,070	800,000	-0,046	0,090
332,085	728,984	-0,096	-0,177
333,100	-20,212	-0,200	-0,084
334,114	267,999	-0,154	-0,185
335,129	468,439	-0,089	-0,139
336,143	585,887	-0,149	-0,253
337,158	-73,810	-0,156	0,039
338,173	261,855	-0,120	-0,144
339,187	-64,696	-0,222	-0,061
340,202	170,896	-0,052	-0,052
341,216	101,076	-0,081	-0,065
342,231	800,000	-0,050	-0,116
343,246	-62,630	-0,172	0,049
344,260	92,413	-0,118	-0,091
345,275	-200,000	-0,009	0,069
346,289	316,061	-0,138	-0,180
347,304	111,983	-0,116	-0,096
348,319	800,000	-0,029	-0,071
349,333	13,775	-0,150	-0,080
350,348	-62,139	-0,168	-0,048
351,362	61,346	-0,066	-0,045
352,377	31,484	-0,142	-0,084
353,392	-58,917	-0,144	-0,043
354,406	-124,490	-0,156	-0,016
355,421	210,134	1312,637	1415,554
356,435	161,752	1473,126	1416,047
