DTS Sentinel unit serial number:	SN410029Multiplexer serial number:	ORYXHardware model number:	OX2-SRSoftware version number:	ORYX F/W v4,00 Oryx Data Collector v3.7.2.0data status	okinstallation	B3 Nyhavnadifferential loss correction	single-endedforward channel	channel 1reverse channel	N/Adate	2023/12/04time	12:52:30forward acquisition time	300,00reverse acquisition time	0,00gamma	499,1914k internal	0,3202k external	0,3202temperature offset calibration	1,0000default loss term (dB/km)	0,3820temperature slope calibration	1,0000multiplexer offset coefficient	1,0000multiplexer slope coefficient	1,0000fibre end	0,00T internal ref (°C)	14,65T ext. ref 1 (°C)	0,30T ext. ref 2 (°C)	0,28length (m)	temperature (°C)	Stokes	anti-Stokes-744,400	-20,154	-0,153	-0,068
-743,385	-200,000	-0,064	0,442
-742,371	464,052	-0,140	-0,229
-741,356	800,000	0,137	0,292
-740,342	141,572	-0,128	-0,123
-739,327	-200,000	0,045	0,197
-738,312	55,238	-0,186	-0,131
-737,298	-200,000	0,006	0,322
-736,283	236,316	-0,191	-0,230
-735,269	-200,000	0,084	0,347
-734,254	98,069	-0,202	-0,169
-733,239	-108,620	-0,195	0,030
-732,225	320,064	-0,149	-0,206
-731,210	23,575	0,128	0,076
-730,196	-36,466	0,078	-0,030
-729,181	-41,836	-0,093	0,034
-728,167	800,000	0,019	-0,056
-727,152	-200,000	0,011	0,079
-726,137	-7,101	-0,130	-0,064
-725,123	-200,000	0,013	-0,063
-724,108	-96,897	0,063	-0,012
-723,094	-200,000	0,004	-0,109
-722,079	115,157	0,081	-0,072
-721,064	51,448	0,102	0,070
-720,050	-125,791	-0,057	0,006
-719,035	200,691	-0,035	-0,040
-718,021	-85,519	-0,080	-0,018
-717,006	493,237	-0,092	-0,154
-715,991	387,670	-0,086	-0,130
-714,977	370,991	-0,093	-0,137
-713,962	171,197	-0,067	-0,070
-712,948	800,000	-0,025	0,075
-711,933	111,990	-0,155	-0,136
-710,918	-200,000	0,009	-0,068
-709,904	-200,000	-0,011	0,069
-708,889	-148,782	-0,169	-0,010
-707,875	-4,040	-0,003	-0,001
-706,860	-200,000	-0,043	0,164
-705,845	800,000	0,027	0,060
-704,831	-60,045	0,060	0,018
-703,816	31,047	0,038	-0,023
-702,802	-200,000	-0,003	-0,063
-701,787	121,102	-0,032	-0,029
-700,772	-135,672	-0,081	-0,007
-699,758	-200,000	-0,006	-0,183
-698,743	-110,795	0,129	-0,019
-697,729	354,678	0,019	0,027
-696,714	40,480	-0,058	0,038
-695,699	800,000	0,037	-0,097
-694,685	-65,134	-0,152	-0,044
-693,670	-200,000	-0,001	-0,028
-692,656	-129,264	0,042	0,004
-691,641	89,117	-0,088	-0,071
-690,627	137,737	0,035	-0,033
-689,612	602,904	-0,023	0,042
-688,597	61,349	-0,102	-0,074
-687,583	300,509	-0,120	-0,160
-686,568	800,000	-0,056	-0,169
-685,554	-26,976	-0,078	-0,033
-684,539	506,075	-0,039	0,066
-683,524	216,187	0,081	0,093
-682,510	-51,260	-0,117	-0,039
-681,495	-200,000	0,040	-0,165
-680,481	470,584	-0,016	-0,027
-679,466	179,433	-0,024	0,026
-678,451	-200,000	0,031	0,216
-677,437	-200,000	-0,038	0,180
-676,422	14,846	0,107	0,061
-675,408	217,688	-0,055	0,063
-674,393	37,634	-0,058	0,037
-673,378	284,705	-0,081	-0,106
-672,364	-111,510	-0,103	0,015
-671,349	-55,156	-0,115	-0,037
-670,335	148,609	-0,082	-0,080
-669,320	106,181	0,085	0,073
-668,305	-63,362	-0,079	0,023
-667,291	-93,297	-0,119	-0,024
-666,276	-64,845	-0,148	-0,043
-665,262	-131,255	-0,014	-0,001
-664,247	-200,000	0,008	0,113
-663,232	-200,000	-0,025	-0,096
-662,218	79,733	-0,070	-0,055
-661,203	101,489	-0,165	0,139
-660,189	-89,063	-0,109	0,023
-659,174	-200,000	-0,022	-0,122
-658,159	-200,000	0,007	0,043
-657,145	148,335	0,028	0,027
-656,130	-200,000	-0,041	-0,180
-655,116	512,674	-0,009	0,015
-654,101	-33,146	0,036	0,014
-653,086	-200,000	0,013	-0,048
-652,072	-93,806	0,083	-0,016
-651,057	-62,562	-0,099	-0,029
-650,043	-200,000	-0,029	0,110
-649,028	-79,313	-0,115	0,028
-648,014	-151,061	0,047	0,003
-646,999	800,000	0,036	-0,113
-645,984	-200,000	0,014	0,169
-644,970	18,676	-0,176	-0,102
-643,955	17,305	0,129	-0,074
-642,941	539,852	0,036	0,063
-641,926	139,891	-0,072	-0,069
-640,911	48,283	0,110	-0,074
-639,897	0,184	-0,078	-0,040
-638,882	75,937	0,072	-0,055
-637,868	800,000	0,081	-0,231
-636,853	-15,356	-0,195	-0,090
-635,838	-5,298	-0,097	-0,048
-634,824	77,597	-0,079	-0,061
-633,809	-68,759	0,163	-0,045
-632,795	-200,000	0,011	0,160
-631,780	800,000	0,021	0,055
-630,765	83,554	0,020	0,015
-629,751	-200,000	-0,035	0,143
-628,736	35,363	-0,061	-0,038
-627,722	-200,000	0,018	0,083
-626,707	149,687	0,070	-0,069
-625,692	30,980	0,014	-0,009
-624,678	-200,000	-0,009	0,038
-623,663	-146,478	-0,091	0,006
-622,649	573,574	-0,047	-0,083
-621,634	-200,000	-0,001	-0,095
-620,619	-156,608	0,102	-0,004
-619,605	188,503	0,046	-0,049
-618,590	7,456	0,009	-0,005
-617,576	-85,822	-0,053	-0,012
-616,561	-78,245	-0,063	0,015
-615,546	-200,000	0,012	-0,103
-614,532	96,297	-0,109	0,090
-613,517	800,000	-0,015	0,044
-612,503	800,000	0,039	-0,117
-611,488	-154,774	0,132	-0,006
-610,474	321,445	0,069	0,095
-609,459	128,137	0,013	-0,012
-608,444	-53,161	0,031	0,010
-607,430	250,032	-0,055	-0,068
-606,415	185,812	-0,037	-0,040
-605,401	-121,450	0,112	-0,013
-604,386	456,207	0,045	-0,073
-603,371	800,000	-0,009	0,024
-602,357	-200,000	-0,000	0,081
-601,342	28,497	-0,117	-0,071
-600,328	86,409	0,061	-0,048
-599,313	-200,000	-0,001	0,062
-598,298	-106,595	-0,075	-0,012
-597,284	246,964	0,047	0,058
-596,269	-143,672	0,023	-0,002
-595,255	-138,146	0,181	0,014
-594,240	21,572	0,045	0,026
-593,225	-32,745	-0,156	0,062
-592,211	-200,000	0,011	-0,078
-591,196	200,068	0,023	-0,026
-590,182	111,880	-0,052	0,045
-589,167	800,000	0,047	0,105
-588,152	-64,367	-0,041	-0,012
-587,138	408,314	0,016	-0,025
-586,123	800,000	-0,030	-0,063
-585,109	384,918	0,037	-0,056
-584,094	-132,772	0,180	-0,016
-583,079	800,000	0,049	0,128
-582,065	-200,000	0,008	-0,049
-581,050	-71,784	0,048	-0,013
-580,036	-177,947	0,068	-0,001
-579,021	2,227	0,091	-0,047
-578,006	800,000	0,027	0,055
-576,992	800,000	-0,037	-0,082
-575,977	-200,000	-0,014	-0,076
-574,963	7,140	0,127	0,068
-573,948	-137,113	0,068	0,006
-572,934	-200,000	-0,006	-0,077
-571,919	-200,000	-0,003	0,021
-570,904	-200,000	-0,001	-0,032
-569,890	118,805	-0,148	0,132
-568,875	122,111	0,026	-0,024
-567,861	171,994	-0,039	0,041
-566,846	149,578	-0,123	0,121
-565,831	-47,738	0,083	-0,029
-564,817	31,366	-0,071	0,044
-563,802	-78,692	-0,121	0,030
-562,788	480,204	0,115	0,188
-561,773	133,911	-0,023	-0,021
-560,758	-67,259	0,133	-0,038
-559,744	-0,328	-0,068	0,035
-558,729	292,339	-0,050	-0,066
-557,715	800,000	0,024	-0,067
-556,700	316,097	-0,059	0,081
-555,685	305,166	-0,053	0,072
-554,671	-200,000	0,034	0,125
-553,656	-200,000	-0,011	0,085
-552,642	220,925	0,102	0,118
-551,627	485,582	0,085	0,141
-550,612	8,137	-0,018	-0,010
-549,598	-200,000	-0,025	-0,110
-548,583	800,000	0,071	-0,170
-547,569	254,647	-0,069	-0,085
-546,554	-200,000	-0,010	-0,108
-545,539	800,000	-0,033	-0,093
-544,525	800,000	-0,024	-0,068
-543,510	9,459	-0,120	-0,065
-542,496	-131,139	-0,140	-0,013
-541,481	800,000	0,039	-0,083
-540,466	105,513	0,076	0,065
-539,452	1,633	-0,120	0,062
-538,437	52,961	-0,077	0,053
-537,423	-23,197	-0,088	-0,038
-536,408	453,357	-0,072	0,115
-535,393	21,626	-0,130	0,076
-534,379	-200,000	-0,015	0,077
-533,364	-80,614	-0,016	0,004
-532,350	-36,879	0,128	0,049
-531,335	273,419	-0,030	-0,039
-530,321	579,282	-0,030	0,054
-529,306	-200,000	-0,001	-0,006
-528,291	684,384	-0,052	-0,098
-527,277	608,258	-0,039	-0,070
-526,262	800,000	-0,028	-0,059
-525,248	114,937	0,096	-0,084
-524,233	-200,000	0,044	0,139
-523,218	25,119	0,026	0,015
-522,204	-200,000	0,009	0,084
-521,189	-86,173	0,052	-0,012
-520,175	196,542	-0,073	0,080
-519,160	-200,000	0,003	-0,041
-518,145	-200,000	-0,005	0,086
-517,131	800,000	0,037	0,102
-516,116	800,000	0,053	0,162
-515,102	-129,752	0,033	-0,003
-514,087	800,000	0,043	-0,095
-513,072	-121,441	0,057	-0,007
-512,058	-57,791	-0,169	-0,053
-511,043	262,662	0,014	-0,018
-510,029	-34,682	0,107	-0,042
-509,014	80,638	0,120	0,093
-507,999	90,871	-0,068	0,055
-506,985	46,445	-0,128	-0,086
-505,970	-200,000	-0,059	-0,218
-504,956	51,722	-0,091	-0,063
-503,941	-200,000	-0,022	-0,077
-502,926	59,455	0,136	0,096
-501,912	-65,974	0,049	-0,014
-500,897	727,786	-0,061	0,119
-499,883	-200,000	-0,024	0,081
-498,868	800,000	0,030	-0,074
-497,853	-200,000	-0,001	-0,053
-496,839	-200,000	0,006	-0,058
-495,824	-2,447	0,066	0,033
-494,810	90,824	0,059	-0,047
-493,795	-24,066	-0,174	-0,075
-492,781	-6,824	0,124	0,061
-491,766	800,000	0,037	-0,087
-490,751	800,000	-0,073	0,181
-489,737	1,074	0,097	-0,050
-488,722	102,179	0,065	0,054
-487,708	-50,451	0,010	-0,004
-486,693	218,135	0,071	0,081
-485,678	-200,000	-0,031	-0,118
-484,664	71,573	-0,096	-0,072
-483,649	160,806	-0,072	-0,072
-482,635	376,385	0,034	0,050
-481,620	561,785	-0,041	0,072
-480,605	226,913	0,078	0,091
-479,591	-116,741	-0,077	-0,010
-478,576	219,268	-0,058	-0,067
-477,562	198,910	0,081	0,090
-476,547	-200,000	-0,012	-0,139
-475,532	800,000	-0,067	-0,198
-474,518	73,826	0,082	0,062
-473,503	93,655	-0,031	-0,026
-472,489	26,371	0,111	-0,067
-471,474	710,757	0,040	-0,076
-470,459	-157,032	-0,144	-0,006
-469,445	445,568	-0,020	-0,032
-468,430	360,871	0,015	0,022
-467,416	198,062	-0,094	0,103
-466,401	-166,871	-0,102	0,003
-465,386	48,994	-0,106	-0,071
-464,372	88,978	0,024	-0,019
-463,357	-119,483	0,022	0,003
-462,343	-102,358	-0,070	0,012
-461,328	430,483	-0,032	-0,051
-460,313	61,041	0,137	0,097
-459,299	539,726	0,031	-0,054
-458,284	-34,119	-0,110	-0,043
-457,270	351,483	0,056	0,080
-456,255	37,409	-0,134	-0,085
-455,241	16,304	-0,040	0,022
-454,226	190,900	0,017	-0,018
-453,211	549,184	0,052	0,089
-452,197	-103,161	-0,073	0,012
-451,182	145,582	0,020	-0,019
-450,168	378,945	0,029	-0,043
-449,153	800,000	-0,048	-0,137
-448,138	756,093	0,047	-0,091
-447,124	-200,000	-0,001	-0,054
-446,109	-28,796	-0,116	0,048
-445,095	482,615	0,050	0,083
-444,080	-145,477	-0,100	-0,006
-443,065	-75,054	-0,054	-0,014
-442,051	-191,717	-0,026	-0,000
-441,036	-200,000	-0,017	-0,100
-440,022	-200,000	0,014	-0,048
-439,007	-78,924	-0,026	0,006
-437,992	-29,914	0,109	-0,045
-436,978	800,000	0,025	0,070
-435,963	-42,780	0,084	-0,031
-434,949	-90,258	0,077	0,016
-433,934	800,000	0,031	0,097
-432,919	-87,579	-0,064	0,014
-431,905	636,038	-0,054	-0,098
-430,890	108,582	0,052	-0,045
-429,876	99,745	0,027	0,022
-428,861	-200,000	-0,002	0,108
-427,846	-82,387	0,064	0,015
-426,832	412,763	-0,047	-0,072
-425,817	800,000	-0,074	-0,170
-424,803	73,065	-0,017	0,013
-423,788	800,000	-0,055	0,113
-422,773	-200,000	-0,021	0,098
-421,759	62,720	0,127	0,091
-420,744	240,827	0,099	0,119
-419,730	-81,574	0,123	0,029
-418,715	44,570	0,104	-0,069
-417,701	40,694	-0,056	0,036
-416,686	2,534	0,043	0,022
-415,671	189,272	-0,064	-0,069
-414,657	-2,858	0,131	-0,066
-413,642	-68,859	0,077	-0,021
-412,628	208,032	0,032	0,036
-411,613	10,585	-0,068	0,037
-410,598	278,333	-0,125	-0,161
-409,584	-23,270	-0,061	-0,026
-408,569	800,000	-0,033	-0,096
-407,555	-14,699	-0,042	0,019
-406,540	-17,569	0,036	0,016
-405,525	93,544	-0,176	-0,143
-404,511	-200,000	0,005	-0,047
-403,496	-200,000	0,012	0,079
-402,482	-12,267	-0,093	0,043
-401,467	5,681	0,163	0,086
-400,452	-2,655	-0,082	-0,041
-399,438	800,000	0,087	0,199
-398,423	-200,000	0,007	-0,043
-397,409	53,415	-0,064	-0,044
-396,394	-68,017	-0,079	-0,022
-395,379	223,920	0,024	-0,027
-394,365	800,000	-0,009	0,020
-393,350	800,000	0,025	0,070
-392,336	-200,000	0,000	-0,018
-391,321	17,049	0,084	0,048
-390,306	-43,241	-0,140	0,050
-389,292	-74,157	-0,033	-0,008
-388,277	388,122	-0,041	0,061
-387,263	-105,641	0,104	-0,017
-386,248	-55,858	-0,108	0,034
-385,233	800,000	0,013	0,027
-384,219	-0,894	0,106	-0,054
-383,204	-1,085	-0,143	-0,072
-382,190	552,428	0,073	-0,126
-381,175	-200,000	0,003	-0,039
-380,160	-169,692	0,113	-0,003
-379,146	-62,621	-0,058	-0,017
-378,131	800,000	0,024	0,066
-377,117	-200,000	0,004	0,058
-376,102	73,669	-0,141	-0,105
-375,088	-200,000	0,006	-0,085
-374,073	-200,000	0,027	0,090
-373,058	439,826	0,043	0,067
-372,044	-200,000	0,003	0,038
-371,029	-200,000	-0,006	0,070
-370,015	787,875	0,051	-0,101
-369,000	795,627	0,025	-0,050
-367,985	38,011	-0,063	0,040
-366,971	-177,487	0,042	-0,001
-365,956	800,000	0,049	-0,151
-364,942	29,624	0,103	0,063
-363,927	-92,356	0,104	0,021
-362,912	570,379	0,019	-0,034
-361,898	-200,000	0,017	-0,144
-360,883	63,085	0,071	-0,051
-359,869	-53,048	-0,038	0,012
-358,854	127,123	0,042	0,038
-357,839	-160,204	0,061	0,002
-356,825	-200,000	0,004	0,115
-355,810	391,203	-0,038	0,057
-354,796	800,000	-0,010	-0,028
-353,781	800,000	-0,044	-0,111
-352,766	-40,722	-0,063	-0,023
-351,752	-119,331	-0,060	-0,007
-350,737	-19,663	0,082	-0,036
-349,723	52,479	-0,126	-0,086
-348,708	-61,111	-0,050	0,015
-347,693	-88,589	-0,131	0,028
-346,679	-71,182	-0,079	-0,021
-345,664	263,894	-0,081	-0,101
-344,650	-200,000	-0,002	0,109
-343,635	-44,336	-0,066	0,023
-342,620	-108,455	0,205	-0,031
-341,606	800,000	0,091	0,197
-340,591	-200,000	0,019	-0,062
-339,577	-2,658	-0,153	-0,077
-338,562	384,140	-0,041	-0,061
-337,548	-200,000	-0,005	-0,047
-336,533	213,995	0,050	-0,057
-335,518	566,030	0,030	0,051
-334,504	-92,121	-0,168	0,034
-333,489	-146,951	-0,103	0,006
-332,475	451,106	0,026	-0,041
-331,460	-3,596	0,121	0,060
-330,445	37,168	0,069	0,043
-329,431	203,928	0,053	0,059
-328,416	-200,000	0,030	0,100
-327,402	-200,000	-0,019	-0,110
-326,387	218,272	-0,014	0,016
-325,372	313,229	-0,051	-0,069
-324,358	-200,000	-0,004	-0,178
-323,343	-167,437	-0,136	0,004
-322,329	-200,000	0,024	0,083
-321,314	186,095	0,030	-0,032
-320,299	44,970	-0,084	0,055
-319,285	800,000	0,024	-0,055
-318,270	46,861	-0,052	-0,034
-317,256	-200,000	-0,016	-0,121
-316,241	127,631	0,128	0,116
-315,226	-138,308	0,067	-0,005
-314,212	-55,521	0,094	-0,030
-313,197	-200,000	-0,005	-0,166
-312,183	-200,000	-0,005	0,059
-311,168	-200,000	0,005	0,105
-310,153	62,135	0,061	-0,044
-309,139	-117,969	0,118	0,015
-308,124	-121,790	-0,178	0,021
-307,110	-200,000	-0,003	0,119
-306,095	116,587	0,013	-0,012
-305,080	-200,000	0,012	0,179
-304,066	48,262	0,013	-0,009
-303,051	-72,931	-0,152	-0,040
-302,037	800,000	-0,060	-0,135
-301,022	-45,467	0,051	0,018
-300,008	258,654	0,050	0,062
-298,993	-200,000	0,015	0,064
-297,978	59,721	-0,036	-0,025
-296,964	-49,978	0,080	0,027
-295,949	86,963	-0,030	-0,024
-294,935	-200,000	-0,007	-0,078
-293,920	490,486	0,007	-0,011
-292,905	800,000	0,025	0,052
-291,891	-200,000	0,005	0,074
-290,876	-38,496	0,073	-0,027
-289,862	800,000	0,023	0,061
-288,847	44,454	-0,150	-0,098
-287,832	338,998	-0,029	-0,040
-286,818	-158,745	0,101	0,004
-285,803	-125,675	0,105	0,011
-284,789	395,914	0,037	0,055
-283,774	127,618	-0,040	-0,037
-282,759	-200,000	0,001	-0,069
-281,745	110,780	-0,122	-0,105
-280,730	-200,000	0,010	0,086
-279,716	119,609	-0,035	-0,031
-278,701	745,501	0,040	0,077
-277,686	-39,492	0,083	-0,031
-276,672	208,999	0,054	0,061
-275,657	33,068	0,081	0,050
-274,643	-200,000	0,010	-0,053
-273,628	39,509	-0,185	0,118
-272,613	648,656	0,024	0,044
-271,599	-200,000	-0,001	0,066
-270,584	697,093	0,020	0,037
-269,570	59,996	0,068	0,048
-268,555	-63,328	0,041	0,012
-267,540	-133,339	-0,124	-0,011
-266,526	339,767	-0,027	-0,038
-265,511	800,000	0,036	-0,100
-264,497	144,242	0,087	0,083
-263,482	380,701	0,044	0,064
-262,467	-200,000	-0,027	0,114
-261,453	346,335	0,067	-0,094
-260,438	62,779	0,060	0,043
-259,424	-4,155	-0,042	-0,021
-258,409	-200,000	0,006	-0,062
-257,395	-179,637	0,112	-0,002
-256,380	800,000	0,049	0,119
-255,365	-200,000	-0,012	0,067
-254,351	800,000	0,081	0,201
-253,336	-134,189	0,105	0,009
-252,322	184,446	-0,112	0,118
-251,307	-80,073	0,062	-0,015
-250,292	270,397	0,050	0,063
-249,278	-50,171	0,049	-0,016
-248,263	-200,000	0,003	0,087
-247,249	-89,656	0,117	-0,024
-246,234	-200,000	-0,006	-0,052
-245,219	608,850	-0,082	0,147
-244,205	-200,000	-0,005	-0,023
-243,190	-177,860	0,127	-0,002
-242,176	-200,000	0,019	-0,101
-241,161	-200,000	-0,005	-0,072
-240,146	-200,000	-0,022	-0,189
-239,132	-200,000	-0,033	-0,166
-238,117	265,918	0,039	-0,048
-237,103	-84,724	-0,110	0,024
-236,088	-97,734	0,062	-0,011
-235,073	174,913	0,038	0,039
-234,059	-200,000	-0,003	0,017
-233,044	-200,000	-0,006	0,086
-232,030	-200,000	0,015	0,066
-231,015	-200,000	-0,034	-0,118
-230,000	551,679	-0,027	-0,046
-228,986	-200,000	-0,028	-0,099
-227,971	285,998	0,032	-0,041
-226,957	-200,000	-0,048	0,156
-225,942	800,000	0,031	-0,082
-224,927	800,000	0,027	0,075
-223,913	-90,607	-0,119	-0,024
-222,898	-121,394	-0,056	-0,007
-221,884	800,000	-0,030	-0,068
-220,869	-2,189	-0,050	0,025
-219,855	-17,408	0,031	-0,014
-218,840	124,266	0,127	0,113
-217,825	-200,000	-0,001	-0,036
-216,811	117,936	0,018	0,016
-215,796	162,735	0,043	-0,043
-214,782	374,572	0,031	0,045
-213,767	184,928	0,038	0,040
-212,752	258,827	0,065	0,080
-211,738	800,000	0,037	0,093
-210,723	-200,000	0,002	-0,050
-209,709	272,325	0,072	0,090
-208,694	800,000	-0,036	-0,109
-207,679	-85,073	-0,084	-0,019
-206,665	141,002	0,036	0,034
-205,650	143,284	0,045	-0,043
-204,636	37,989	0,160	0,101
-203,621	78,367	-0,120	0,091
-202,606	-59,580	0,064	-0,019
-201,592	-200,000	0,025	-0,099
-200,577	-200,000	0,047	-0,169
-199,563	-198,424	-0,070	-0,000
-198,548	-200,000	0,005	0,034
-197,533	193,185	-0,075	-0,081
-196,519	-200,000	-0,014	0,046
-195,504	-132,930	-0,074	0,007
-194,490	106,801	-0,146	-0,123
-193,475	349,010	0,058	0,082
-192,460	390,804	0,025	0,037
-191,446	800,000	0,046	0,101
-190,431	484,335	-0,041	0,067
-189,417	176,829	0,063	0,066
-188,402	-166,601	-0,210	0,006
-187,387	0,227	0,034	-0,017
-186,373	-60,500	-0,195	-0,059
-185,358	-200,000	0,002	0,047
-184,344	-120,474	0,159	0,019
-183,329	-60,369	0,126	0,038
-182,315	36,045	-0,070	0,044
-181,300	-35,352	-0,066	-0,026
-180,285	272,758	-0,030	0,037
-179,271	23,576	-0,111	0,065
-178,256	427,616	0,023	-0,035
-177,242	55,141	0,135	0,092
-176,227	79,561	0,166	0,127
-175,212	646,977	-0,070	0,128
-174,198	312,203	-0,015	-0,021
-173,183	148,446	-0,036	-0,035
-172,169	277,217	-0,043	-0,054
-171,154	800,000	0,044	-0,115
-170,139	-200,000	-0,014	0,053
-169,125	-169,265	-0,132	0,003
-168,110	-200,000	-0,001	0,122
-167,096	800,000	-0,047	0,140
-166,081	78,363	-0,025	0,019
-165,066	-80,605	-0,182	-0,043
-164,052	-200,000	0,016	-0,169
-163,037	-12,353	0,105	-0,049
-162,023	736,827	0,136	0,261
-161,008	-200,000	-0,010	-0,074
-159,993	800,000	-0,039	0,096
-158,979	800,000	-0,016	0,034
-157,964	800,000	-0,117	-0,246
-156,950	-112,500	0,026	0,004
-155,935	-200,000	0,005	-0,090
-154,920	-200,000	-0,001	0,039
-153,906	-200,000	-0,006	0,032
-152,891	-200,000	0,011	0,062
-151,877	19,394	-0,056	-0,032
-150,862	-200,000	0,006	-0,062
-149,847	103,491	-0,205	-0,171
-148,833	16,665	-0,081	-0,045
-147,818	-76,402	0,210	-0,052
-146,804	176,898	-0,047	-0,048
-145,789	154,685	0,034	0,033
-144,775	71,330	-0,023	-0,017
-143,760	-200,000	-0,007	-0,029
-142,745	800,000	-0,054	-0,107
-141,731	-200,000	-0,012	-0,048
-140,716	30,057	-0,108	-0,066
-139,702	125,581	0,033	0,029
-138,687	189,988	-0,074	0,079
-137,672	-164,958	0,120	-0,004
-136,658	4,956	-0,051	-0,026
-135,643	-167,995	-0,181	-0,005
-134,629	106,826	0,049	-0,042
-133,614	-200,000	0,022	0,087
-132,599	-43,753	0,111	0,039
-131,585	-200,000	0,004	0,034
-130,570	800,000	-0,085	0,186
-129,556	-200,000	-0,001	0,043
-128,541	785,250	0,071	0,139
-127,526	800,000	-0,029	0,079
-126,512	362,361	0,050	-0,071
-125,497	237,601	0,128	0,150
-124,483	556,129	0,036	0,062
-123,468	38,583	0,132	0,083
-122,453	81,373	-0,096	-0,073
-121,439	146,302	-0,039	0,037
-120,424	2,186	-0,050	0,025
-119,410	5,828	-0,173	-0,091
-118,395	468,427	-0,053	0,084
-117,380	-200,000	-0,004	0,052
-116,366	198,778	-0,079	0,085
-115,351	-93,156	0,165	-0,032
-114,337	433,869	-0,068	0,105
-113,322	800,000	-0,044	0,111
-112,307	-200,000	0,005	0,038
-111,293	497,916	0,102	0,167
-110,278	800,000	-0,046	0,108
-109,264	-174,038	-0,060	0,001
-108,249	-26,604	0,056	-0,023
-107,234	138,767	-0,068	-0,063
-106,220	155,308	0,023	0,022
-105,205	452,679	-0,025	-0,039
-104,191	-80,789	0,047	0,011
-103,176	520,658	0,080	-0,133
-102,162	-55,594	-0,069	-0,022
-101,147	-57,288	-0,031	-0,010
-100,132	16,527	0,038	-0,021
-99,118	-200,000	-0,033	-0,107
-98,103	-20,850	-0,048	0,021
-97,089	-200,000	-0,000	0,022
-96,074	-200,000	0,032	0,105
-95,059	-200,000	0,010	0,095
-94,045	83,190	-0,073	0,056
-93,030	94,943	-0,148	-0,119
-92,016	213,984	-0,074	-0,084
-91,001	141,797	0,140	0,132
-89,986	528,760	-0,096	0,160
-88,972	84,402	0,075	-0,058
-87,957	-143,097	-0,052	0,004
-86,943	-200,000	-0,007	-0,024
-85,928	-26,009	0,099	-0,041
-84,913	361,820	0,117	-0,167
-83,899	-200,000	-0,004	0,045
-82,884	216,876	0,086	0,097
-81,870	-75,096	0,083	-0,021
-80,855	226,944	0,085	0,098
-79,840	98,302	0,158	-0,129
-78,826	-200,000	0,002	-0,013
-77,811	-144,729	-0,055	-0,004
-76,797	-134,868	0,165	0,014
-75,782	336,635	0,073	-0,101
-74,767	-58,961	0,124	-0,038
-73,753	-1,564	-0,040	0,020
-72,738	580,578	0,048	0,084
-71,724	-93,037	-0,071	0,014
-70,709	-200,000	-0,014	-0,192
-69,694	211,726	0,079	0,088
-68,680	-34,715	-0,027	-0,010
-67,665	-145,075	-0,110	-0,007
-66,651	129,971	-0,049	0,045
-65,636	-108,577	-0,041	-0,006
-64,622	-200,000	0,005	-0,020
-63,607	335,759	-0,062	-0,085
-62,592	-200,000	-0,001	0,034
-61,578	633,158	-0,027	0,049
-60,563	-200,000	0,016	0,056
-59,549	-200,000	-0,015	0,163
-58,534	-32,514	-1,441	-0,566
-57,519	389,566	-1,373	-2,020
-56,505	-200,000	-0,453	-4,490
-55,490	200,257	0,995	1,083
-54,476	800,000	4,794	11,049
-53,461	-200,000	18,247	292,636
-52,446	800,000	728,984	2243,963
-51,432	557,543	1645,080	2818,322
-50,417	79,072	1666,201	1261,790
-49,403	22,527	1540,032	889,330
-48,388	16,505	1463,266	815,822
-47,373	17,792	1452,962	816,240
-46,359	17,077	1443,453	807,447
-45,344	14,781	1438,777	793,836
-44,330	14,656	1437,047	792,255
-43,315	14,685	1435,005	791,236
-42,300	14,697	1433,470	790,417
-41,286	14,796	1432,122	790,112
-40,271	14,711	1430,953	789,033
-39,257	14,719	1429,774	788,385
-38,242	14,757	1428,490	787,828
-37,227	14,740	1427,189	786,998
-36,213	14,778	1425,953	786,467
-35,198	14,753	1424,615	785,578
-34,184	14,810	1423,806	785,370
-33,169	14,716	1422,490	784,168
-32,154	14,745	1421,570	783,769
-31,140	14,766	1420,218	783,092
-30,125	14,781	1419,030	782,476
-29,111	14,770	1418,001	781,826
-28,096	14,724	1417,058	781,057
-27,082	14,659	1415,752	780,004
-26,067	14,676	1414,696	779,467
-25,052	14,645	1413,767	778,780
-24,038	14,650	1412,908	778,297
-23,023	14,705	1411,567	777,790
-22,009	14,660	1410,622	777,027
-20,994	14,592	1409,815	776,234
-19,979	14,648	1408,755	775,879
-18,965	14,590	1408,049	775,187
-17,950	14,617	1406,878	774,638
-16,936	14,618	1406,040	774,150
-15,921	14,610	1404,863	773,437
-14,906	14,632	1403,886	772,968
-13,892	14,604	1403,112	772,383
-12,877	14,560	1402,156	771,622
-11,863	14,591	1401,332	771,282
-10,848	14,528	1400,381	770,436
-9,833	14,504	1399,736	769,935
-8,819	14,525	1398,559	769,355
-7,804	14,482	1397,738	768,676
-6,790	14,458	1396,709	767,967
-5,775	14,527	1395,366	767,520
-4,760	14,467	1394,721	766,855
-3,746	14,450	1394,090	766,398
-2,731	14,495	1393,097	766,032
-1,717	14,462	1392,428	765,481
-0,702	14,491	1390,485	764,517
0,313	18,322	1309,066	737,470
1,327	34,570	706,223	435,470
2,342	52,933	124,353	84,006
3,356	1,095	16,773	8,483
4,371	7,507	3,160	1,666
5,386	-76,307	0,662	0,164
6,400	-135,905	0,067	-0,005
7,415	118,722	-0,179	-0,156
8,429	12,491	-0,382	-0,208
9,444	45,072	-0,258	-0,168
10,459	99,117	-0,228	-0,186
11,473	117,989	-0,341	-0,297
12,488	-146,298	-0,304	-0,019
13,502	41,724	-0,213	-0,136
14,517	104,514	-0,305	-0,254
15,531	50,147	-0,420	-0,280
16,546	74,860	-0,307	-0,228
17,561	800,000	-0,228	-0,545
18,575	-113,773	-0,209	-0,028
19,590	-20,423	-0,187	-0,081
20,604	-92,052	-0,255	-0,050
21,619	45,084	-0,516	-0,335
22,634	55,317	-0,368	-0,251
23,648	31,190	-0,434	-0,262
24,663	85,843	-0,319	-0,247
25,677	-83,350	-0,334	-0,075
26,692	-15,898	-0,308	-0,138
27,707	45,405	-0,265	-0,172
28,721	64,632	-0,360	-0,256
29,736	139,529	-0,371	-0,345
30,750	75,679	-0,290	-0,216
31,765	191,966	-0,296	-0,315
32,780	52,067	-0,451	-0,302
33,794	157,377	-0,291	-0,284
34,809	11,063	-0,321	-0,173
35,823	136,140	-0,344	-0,316
36,838	446,197	-0,232	-0,362
37,853	84,769	-0,272	-0,210
38,867	-63,942	-0,561	-0,161
39,882	549,548	-0,142	-0,242
40,896	59,195	-0,285	-0,197
41,911	-49,023	-0,324	-0,109
42,926	10,812	-0,394	-0,212
43,940	135,603	-0,343	-0,314
44,955	124,524	-0,284	-0,251
45,969	80,276	-0,356	-0,270
46,984	173,804	-0,291	-0,296
47,999	21,636	-0,252	-0,144
49,013	35,795	-0,269	-0,166
50,028	314,172	-0,290	-0,385
51,042	139,486	-0,301	-0,279
52,057	79,036	-0,292	-0,220
53,071	48,130	-0,332	-0,218
54,086	112,025	-0,342	-0,290
55,101	45,859	-0,368	-0,239
56,115	149,056	-0,259	-0,247
57,130	245,853	-0,234	-0,278
58,144	19,880	-0,403	-0,228
59,159	188,110	-0,305	-0,321
60,174	154,854	-0,298	-0,289
61,188	97,655	-0,386	-0,312
62,203	140,407	-0,321	-0,298
63,217	261,038	-0,251	-0,306
64,232	25,795	-0,313	-0,183
65,247	31,427	-0,269	-0,162
66,261	105,526	-0,304	-0,253
67,276	183,744	-0,346	-0,360
68,290	41,282	-0,324	-0,206
69,305	219,962	-0,218	-0,246
70,320	-62,767	-0,429	-0,124
71,334	87,342	-0,229	-0,178
72,349	-35,938	-0,346	-0,131
73,363	-15,518	-0,407	-0,182
74,378	110,828	-0,264	-0,223
75,393	-12,297	-0,468	-0,214
76,407	106,359	-0,206	-0,172
77,422	-192,234	-0,322	0,002
78,436	-81,074	-0,368	-0,085
79,451	-16,813	-0,306	-0,135
80,466	99,875	-0,166	-0,135
81,480	57,854	-0,424	-0,291
82,495	100,358	-0,308	-0,251
83,509	117,358	-0,242	-0,209
84,524	-17,446	-0,261	-0,115
85,539	-98,051	-0,324	-0,058
86,553	293,138	-0,202	-0,259
87,568	146,154	-0,305	-0,287
88,582	800,000	-0,194	-0,400
89,597	159,004	-0,301	-0,294
90,611	35,023	-0,404	-0,247
91,626	-16,900	-0,252	-0,111
92,641	-106,935	-0,207	-0,032
93,655	67,558	-0,264	-0,189
94,670	75,232	-0,259	-0,192
95,684	-51,972	-0,327	-0,106
96,699	-35,231	-0,337	-0,128
97,714	24,111	-0,341	-0,197
98,728	60,194	-0,242	-0,168
99,743	71,950	-0,306	-0,223
100,757	63,588	-0,120	-0,084
101,772	12,092	-0,233	-0,125
102,787	65,318	-0,380	-0,269
103,801	18,929	-0,173	-0,097
104,816	114,932	-0,124	-0,106
105,830	3,268	-0,234	-0,119
106,845	-90,269	-0,226	-0,046
107,860	-133,493	-0,241	0,021
108,874	-66,689	-0,380	-0,105
109,889	-7,004	-0,228	-0,108
110,903	44,796	-0,217	-0,140
111,918	332,904	-0,178	-0,241
112,933	1,732	-0,223	-0,112
113,947	110,126	-0,221	-0,186
114,962	13,666	-0,292	-0,158
115,976	57,262	-0,204	-0,139
116,991	45,706	-0,269	-0,174
118,006	13,316	-0,300	-0,162
119,020	424,070	-0,116	-0,175
120,035	43,104	-0,225	-0,144
121,049	11,636	-0,129	-0,069
122,064	50,016	-0,260	-0,171
123,079	107,516	-0,249	-0,208
124,093	-82,024	-0,338	-0,077
125,108	71,023	-0,283	-0,205
126,122	66,096	-0,173	-0,123
127,137	91,638	-0,198	-0,156
128,151	429,368	-0,089	-0,135
129,166	27,246	-0,176	-0,103
130,181	56,827	-0,287	-0,195
131,195	60,643	-0,269	-0,186
132,210	197,647	-0,266	-0,284
133,224	48,161	-0,267	-0,174
134,239	10,379	-0,249	-0,132
135,254	-106,569	-0,263	-0,041
136,268	52,051	-0,285	-0,190
137,283	305,653	-0,116	-0,151
138,297	126,822	-0,251	-0,222
139,312	92,209	-0,192	-0,151
140,327	631,850	-0,097	-0,172
141,341	60,781	-0,341	-0,236
142,356	79,385	-0,198	-0,148
143,370	-38,509	-0,278	-0,102
144,385	439,420	-0,197	-0,301
145,400	-40,698	-0,229	-0,083
146,414	41,605	-0,282	-0,178
147,429	33,406	-0,235	-0,142
148,443	-9,365	-0,284	-0,132
149,458	800,000	-0,047	-0,140
150,473	247,717	-0,149	-0,176
151,487	-137,941	-0,219	0,017
152,502	47,672	-0,245	-0,160
153,516	8,548	-0,085	-0,045
154,531	15,187	-0,322	-0,175
155,546	9,490	-0,254	-0,134
156,560	-128,930	-0,275	-0,027
157,575	-0,424	-0,268	-0,133
158,589	224,627	-0,172	-0,194
159,604	124,544	-0,269	-0,236
160,619	22,629	-0,306	-0,174
161,633	61,532	-0,230	-0,159
162,648	238,058	-0,156	-0,181
163,662	101,804	-0,255	-0,207
164,677	266,794	-0,226	-0,276
165,692	-88,599	-0,195	-0,040
166,706	-94,736	-0,179	-0,034
167,721	81,291	-0,240	-0,181
168,735	-13,343	-0,324	-0,146
169,750	110,630	-0,289	-0,242
170,764	-24,854	-0,142	-0,059
171,779	36,440	-0,224	-0,137
172,794	-3,620	-0,199	-0,096
173,808	15,732	-0,186	-0,102
174,823	591,856	-0,191	-0,331
175,837	67,245	-0,298	-0,211
176,852	101,181	-0,259	-0,210
177,867	-154,493	-0,329	-0,015
178,881	-58,938	-0,185	-0,055
179,896	61,935	-0,113	-0,078
180,910	183,590	-0,173	-0,178
181,925	35,373	-0,221	-0,134
182,940	-64,739	-0,233	-0,065
183,954	128,911	-0,228	-0,202
184,969	28,371	-0,220	-0,129
185,983	37,585	-0,235	-0,145
186,998	-34,401	-0,338	-0,128
188,013	-14,366	-0,173	-0,077
189,027	128,851	-0,242	-0,215
190,042	25,736	-0,250	-0,145
191,056	28,129	-0,293	-0,172
192,071	800,000	-0,096	-0,227
193,086	50,519	-0,171	-0,112
194,100	51,409	-0,202	-0,134
195,115	-85,767	-0,181	0,039
196,129	-22,101	-0,229	-0,096
197,144	100,653	-0,306	-0,247
198,159	226,776	-0,218	-0,247
199,173	26,633	-0,182	-0,106
200,188	-76,259	-0,175	-0,043
201,202	181,645	-0,191	-0,195
202,217	800,000	-0,056	-0,166
203,232	179,144	-0,118	-0,120
204,246	115,494	-0,252	-0,214
205,261	73,572	-0,339	-0,247
206,275	15,167	-0,199	-0,108
207,290	-45,891	-0,247	-0,084
208,304	1,030	-0,131	-0,065
209,319	-157,240	-0,276	-0,011
210,334	-200,000	-0,068	-0,221
211,348	-84,532	-0,244	-0,053
212,363	112,673	-0,199	-0,167
213,377	419,153	-0,109	-0,163
214,392	50,313	-0,170	-0,112
215,407	460,811	-0,097	-0,151
216,421	-11,785	-0,241	-0,109
217,436	-62,695	-0,231	-0,066
218,450	-130,718	-0,194	-0,018
219,465	102,954	-0,208	-0,169
220,480	400,190	-0,131	-0,191
221,494	780,245	-0,173	-0,329
222,509	261,299	-0,197	-0,237
223,523	113,213	-0,229	-0,193
224,538	-93,374	-0,179	-0,034
225,553	444,364	-0,123	-0,187
226,567	-141,950	-0,234	-0,016
227,582	308,471	-0,190	-0,247
228,596	214,459	-0,189	-0,208
229,611	91,569	-0,209	-0,163
230,626	-16,748	-0,233	-0,102
231,640	280,153	-0,160	-0,199
232,655	314,819	-0,154	-0,202
233,669	85,451	-0,172	-0,131
234,684	168,896	-0,215	-0,213
235,699	333,897	-0,135	-0,181
236,713	-120,957	-0,155	-0,018
237,728	-92,241	-0,196	-0,038
238,742	2,589	-0,238	-0,119
239,757	42,397	-0,311	-0,195
240,772	449,766	-0,136	-0,208
241,786	-50,485	-0,203	-0,066
242,801	201,179	-0,125	-0,133
243,815	631,036	0,029	-0,051
244,830	148,008	-0,089	-0,083
245,844	53,899	-0,196	-0,130
246,859	217,091	-0,141	-0,156
247,874	178,902	-0,242	-0,245
248,888	80,103	-0,154	-0,115
249,903	344,949	-0,109	-0,149
250,917	800,000	-0,070	-0,214
251,932	-175,537	-0,292	-0,005
252,947	-29,735	-0,098	-0,039
253,961	443,132	-0,163	-0,249
254,976	104,939	-0,181	-0,148
255,990	-55,107	-0,323	-0,100
257,005	-41,402	-0,136	0,048
258,020	401,344	-0,143	-0,209
259,034	-92,055	-0,201	-0,039
260,049	-78,543	-0,068	-0,016
261,063	-25,898	-0,137	-0,056
262,078	44,675	-0,238	-0,151
263,093	35,494	-0,190	-0,115
264,107	-200,000	-0,033	0,139
265,122	8,846	-0,204	-0,106
266,136	-43,106	-0,117	-0,041
267,151	-104,874	-0,084	0,013
268,166	20,936	-0,200	-0,112
269,180	115,049	-0,090	-0,076
270,195	325,980	-0,119	-0,158
271,209	288,224	-0,156	-0,196
272,224	159,240	-0,103	-0,099
273,239	4,082	-0,192	-0,097
274,253	560,550	-0,102	-0,170
275,268	-88,320	-0,229	0,047
276,282	-57,239	-0,189	-0,057
277,297	800,000	-0,027	-0,053
278,312	-79,841	-0,181	0,042
279,326	-78,841	-0,108	0,025
280,341	141,153	-0,107	0,097
281,355	163,876	-0,110	-0,107
282,370	68,497	-0,218	-0,154
283,384	632,308	-0,121	-0,213
284,399	50,951	-0,238	-0,156
285,414	438,104	-0,110	-0,165
286,428	-37,422	-0,128	-0,047
287,443	233,209	-0,065	-0,074
288,457	-38,513	-0,139	0,050
289,472	-132,372	-0,131	0,011
290,487	-46,342	-0,168	-0,057
291,501	-124,962	-0,177	-0,019
292,516	800,000	-0,043	-0,116
293,530	-34,930	-0,186	-0,069
294,545	-26,843	-0,124	-0,050
295,560	44,834	-0,199	-0,126
296,574	744,784	-0,076	-0,141
297,589	-40,210	-0,123	0,044
298,603	-11,647	-0,195	-0,088
299,618	800,000	-0,099	-0,193
300,633	199,982	-0,096	-0,102
301,647	393,699	-0,041	-0,060
302,662	750,210	-0,087	-0,162
303,676	-200,000	-0,015	-0,134
304,691	140,641	-0,091	-0,083
305,706	163,792	-0,062	-0,060
306,720	205,959	-0,178	-0,191
307,735	245,251	-0,121	-0,141
308,749	-200,000	0,007	-0,192
309,764	800,000	-0,074	-0,178
310,779	-49,978	-0,169	-0,055
311,793	1,466	-0,210	-0,104
312,808	521,977	-0,107	-0,174
313,822	488,095	-0,156	-0,247
314,837	198,970	-0,197	-0,208
315,852	-114,404	-0,261	0,034
316,866	800,000	-0,126	-0,269
317,881	-75,864	-0,180	-0,043
318,895	63,354	-0,186	-0,128
319,910	-122,561	-0,093	-0,010
320,925	-28,346	-0,184	-0,073
321,939	497,503	-0,087	-0,139
322,954	-104,337	-0,099	-0,016
323,968	-123,080	-0,143	-0,016
324,983	800,000	-0,037	-0,081
325,997	-200,000	-0,009	-0,032
327,012	111,866	-0,144	-0,120
328,027	305,918	-0,110	-0,140
329,041	-74,919	-0,108	-0,027
330,056	800,000	-0,053	-0,129
331,070	155,862	-0,129	-0,122
332,085	-155,111	-0,180	0,008
333,100	663,831	-0,089	-0,159
334,114	-56,927	-0,088	-0,027
335,129	21,036	-0,152	-0,085
336,143	-97,616	-0,192	-0,034
337,158	260,319	-0,102	-0,121
338,173	294,603	-0,090	0,114
339,187	132,490	-0,141	-0,124
340,202	39,453	-0,150	-0,092
341,216	800,000	-0,036	-0,083
342,231	12,088	-0,193	-0,101
343,246	800,000	-0,066	-0,145
344,260	55,872	0,027	0,018
345,275	-200,000	-0,022	-0,070
346,289	-53,623	-0,068	0,021
347,304	-60,242	-0,126	-0,037
348,319	-16,018	-0,155	-0,067
349,333	-12,349	-0,138	-0,062
350,348	600,580	-0,095	-0,163
351,362	-138,548	-0,104	0,008
352,377	250,562	-0,100	-0,117
353,392	800,000	-0,087	-0,178
354,406	143,848	-0,142	-0,130
355,421	209,907	1314,383	1415,586
356,435	161,571	1475,083	1416,088
