DTS Sentinel unit serial number:	SN410029Multiplexer serial number:	ORYXHardware model number:	OX2-SRSoftware version number:	ORYX F/W v4,00 Oryx Data Collector v3.7.2.0data status	okinstallation	B3 Nyhavnadifferential loss correction	single-endedforward channel	channel 1reverse channel	N/Adate	2023/11/29time	12:22:30forward acquisition time	300,00reverse acquisition time	0,00gamma	499,1914k internal	0,3212k external	0,3212temperature offset calibration	1,0000default loss term (dB/km)	0,3820temperature slope calibration	1,0000multiplexer offset coefficient	1,0000multiplexer slope coefficient	1,0000fibre end	0,00T internal ref (°C)	9,81T ext. ref 1 (°C)	-4,46T ext. ref 2 (°C)	-4,58length (m)	temperature (°C)	Stokes	anti-Stokes-744,400	800,000	-0,086	-0,191
-743,385	-200,000	-0,037	0,155
-742,371	157,268	-0,210	-0,211
-741,356	-200,000	-0,044	0,218
-740,342	-200,000	-0,044	-0,195
-739,327	-200,000	-0,047	0,249
-738,312	800,000	-0,115	-0,234
-737,298	-200,000	0,049	0,186
-736,283	563,647	-0,128	-0,225
-735,269	-200,000	0,001	0,177
-734,254	-200,000	0,001	-0,259
-733,239	332,675	-0,187	0,263
-732,225	507,518	-0,109	-0,184
-731,210	-77,926	0,094	-0,023
-730,196	313,163	-0,061	-0,084
-729,181	-64,764	0,024	-0,007
-728,167	642,779	-0,049	-0,091
-727,152	311,634	-0,119	-0,162
-726,137	-16,422	-0,208	-0,095
-725,123	150,042	-0,049	-0,048
-724,108	800,000	0,019	-0,061
-723,094	119,224	-0,059	-0,053
-722,079	-200,000	0,000	-0,043
-721,064	199,907	0,049	0,055
-720,050	800,000	-0,022	-0,048
-719,035	360,814	-0,030	0,044
-718,021	74,353	-0,089	-0,068
-717,006	300,122	-0,049	0,065
-715,991	99,797	-0,111	-0,093
-714,977	-87,076	-0,059	0,013
-713,962	-63,894	0,226	-0,066
-712,948	136,225	-0,114	-0,107
-711,933	-200,000	0,001	-0,150
-710,918	-44,564	-0,056	0,020
-709,904	-151,643	-0,203	0,011
-708,889	-80,909	-0,108	-0,026
-707,875	800,000	-0,089	-0,206
-706,860	800,000	-0,065	-0,187
-705,845	-200,000	-0,046	-0,187
-704,831	-23,128	0,011	-0,005
-703,816	-135,560	-0,077	-0,007
-702,802	-175,830	0,083	0,002
-701,787	569,287	-0,073	-0,128
-700,772	-200,000	-0,001	-0,039
-699,758	209,819	-0,087	-0,099
-698,743	-200,000	-0,008	-0,037
-697,729	800,000	0,027	0,077
-696,714	13,450	-0,060	-0,033
-695,699	116,521	-0,049	-0,044
-694,685	800,000	-0,056	-0,132
-693,670	-131,166	-0,063	-0,006
-692,656	126,754	-0,072	-0,066
-691,641	646,472	0,039	0,072
-690,627	118,024	0,037	0,033
-689,612	-123,826	0,048	0,005
-688,597	-200,000	0,018	0,130
-687,583	266,279	0,069	-0,087
-686,568	590,643	0,055	-0,098
-685,554	-200,000	0,006	0,085
-684,539	-200,000	-0,011	0,054
-683,524	21,083	0,105	-0,062
-682,510	96,668	0,109	-0,090
-681,495	128,352	-0,089	-0,082
-680,481	800,000	-0,080	-0,181
-679,466	143,398	0,049	-0,048
-678,451	-108,445	0,060	0,009
-677,437	-200,000	-0,006	-0,100
-676,422	-200,000	-0,009	-0,093
-675,408	-101,821	-0,087	0,015
-674,393	-137,351	0,067	0,005
-673,378	-200,000	-0,005	-0,051
-672,364	-142,853	-0,052	0,004
-671,349	377,164	0,019	0,029
-670,335	13,508	0,067	-0,038
-669,320	-42,236	0,048	0,018
-668,305	800,000	-0,011	0,026
-667,291	5,257	0,074	0,039
-666,276	-200,000	-0,016	0,056
-665,262	800,000	-0,051	-0,124
-664,247	800,000	-0,033	0,078
-663,232	-200,000	-0,021	0,091
-662,218	-45,980	-0,103	0,037
-661,203	24,424	0,033	0,019
-660,189	-79,555	0,074	0,018
-659,174	209,340	-0,112	-0,127
-658,159	800,000	0,022	-0,060
-657,145	49,277	0,085	0,058
-656,130	-59,413	0,110	-0,034
-655,116	153,186	-0,032	-0,032
-654,101	-32,976	-0,063	0,025
-653,086	6,923	-0,062	-0,033
-652,072	-11,177	-0,078	0,037
-651,057	-200,000	0,006	-0,069
-650,043	342,786	0,058	-0,082
-649,028	274,379	0,083	-0,106
-648,014	-32,852	0,109	0,044
-646,999	-200,000	0,000	0,161
-645,984	-200,000	0,006	0,027
-644,970	-200,000	0,001	-0,159
-643,955	-200,000	0,033	-0,188
-642,941	800,000	0,027	-0,062
-641,926	-200,000	-0,016	-0,122
-640,911	461,256	-0,023	-0,038
-639,897	-150,114	0,140	-0,008
-638,882	-200,000	0,010	-0,093
-637,868	-200,000	0,051	-0,173
-636,853	-200,000	0,042	-0,140
-635,838	-149,945	-0,108	-0,006
-634,824	469,738	0,023	-0,038
-633,809	-94,405	-0,093	0,018
-632,795	-122,325	0,079	0,009
-631,780	-200,000	-0,002	-0,027
-630,765	-50,126	-0,031	-0,011
-629,751	-69,647	-0,036	0,010
-628,736	44,532	0,110	-0,073
-627,722	103,809	-0,023	-0,020
-626,707	50,475	-0,166	0,113
-625,692	-75,366	-0,101	0,026
-624,678	424,855	-0,017	0,026
-623,663	-200,000	-0,020	0,142
-622,649	-200,000	0,016	0,127
-621,634	598,811	-0,081	-0,146
-620,619	800,000	0,037	-0,091
-619,605	167,142	0,068	0,069
-618,590	-128,771	-0,077	-0,008
-617,576	800,000	0,019	0,042
-616,561	-41,963	-0,083	-0,030
-615,546	-6,962	-0,115	0,056
-614,532	-200,000	-0,020	-0,129
-613,517	800,000	-0,023	-0,049
-612,503	-200,000	0,010	0,070
-611,488	76,169	0,116	0,089
-610,474	-200,000	-0,003	0,042
-609,459	-200,000	0,011	0,064
-608,444	-34,391	-0,120	0,047
-607,430	471,638	-0,045	-0,073
-606,415	-200,000	0,010	-0,070
-605,401	-94,197	0,065	0,013
-604,386	126,891	-0,048	0,044
-603,371	696,758	0,082	0,156
-602,357	-132,545	0,147	-0,013
-601,342	209,075	-0,105	-0,118
-600,328	-59,481	0,111	-0,034
-599,313	-121,681	-0,114	0,013
-598,298	392,008	0,049	0,074
-597,284	-200,000	0,020	-0,094
-596,269	-200,000	-0,007	0,135
-595,255	29,417	-0,033	0,020
-594,240	110,533	0,084	0,073
-593,225	-14,214	-0,070	0,032
-592,211	508,135	0,030	-0,051
-591,196	-143,027	0,127	-0,009
-590,182	-137,440	0,104	0,008
-589,167	754,383	-0,070	0,137
-588,152	519,699	0,042	0,072
-587,138	74,399	0,040	0,030
-586,123	800,000	-0,051	-0,115
-585,109	-200,000	-0,013	-0,096
-584,094	774,319	0,052	0,102
-583,079	197,018	0,032	0,035
-582,065	-91,097	0,125	0,026
-581,050	-133,287	-0,126	0,011
-580,036	-200,000	-0,001	-0,070
-579,021	-119,267	-0,114	0,014
-578,006	-186,725	-0,072	0,001
-576,992	800,000	-0,066	0,148
-575,977	-26,985	-0,063	0,026
-574,963	-200,000	0,009	0,046
-573,948	46,183	-0,174	0,116
-572,934	-46,262	0,057	-0,020
-571,919	38,739	-0,039	0,025
-570,904	800,000	0,046	0,116
-569,890	-137,107	-0,042	-0,003
-568,875	20,581	-0,050	0,029
-567,861	-64,494	-0,091	-0,027
-566,846	800,000	0,035	0,079
-565,831	-178,292	0,076	0,001
-564,817	359,504	0,023	0,033
-563,802	140,307	-0,070	-0,066
-562,788	-156,630	0,097	0,004
-561,773	-164,572	0,035	-0,001
-560,758	-200,000	0,013	0,142
-559,744	8,786	0,083	0,045
-558,729	230,384	0,095	0,112
-557,715	698,973	-0,059	0,112
-556,700	94,770	-0,078	-0,063
-555,685	-200,000	0,025	0,125
-554,671	378,296	-0,040	0,059
-553,656	37,994	-0,083	-0,053
-552,642	280,574	0,093	0,120
-551,627	319,302	0,016	0,022
-550,612	-34,193	-0,063	0,025
-549,598	-135,447	0,095	-0,008
-548,583	368,529	0,065	-0,095
-547,569	-129,509	-0,050	0,005
-546,554	-200,000	0,012	0,064
-545,539	-200,000	-0,008	0,037
-544,525	-82,238	0,026	0,006
-543,510	124,760	0,105	0,095
-542,496	323,100	-0,028	0,038
-541,481	278,969	-0,047	-0,061
-540,466	-47,552	0,043	-0,015
-539,452	-200,000	-0,007	0,087
-538,437	151,063	-0,085	0,083
-537,423	-200,000	-0,008	0,074
-536,408	412,859	0,015	-0,023
-535,393	800,000	0,022	-0,046
-534,379	-200,000	0,002	-0,030
-533,364	-2,390	-0,059	0,030
-532,350	-11,529	0,074	0,035
-531,335	291,274	0,071	0,093
-530,321	-78,045	0,137	0,034
-529,306	-38,243	-0,073	0,027
-528,291	-19,565	-0,099	0,044
-527,277	-200,000	-0,011	-0,075
-526,262	1,358	0,102	-0,052
-525,248	-2,734	-0,066	-0,033
-524,233	-50,688	-0,061	0,021
-523,218	-36,236	-0,069	-0,027
-522,204	800,000	0,037	-0,096
-521,189	-200,000	-0,012	-0,140
-520,175	499,670	0,036	-0,060
-519,160	-200,000	0,011	0,059
-518,145	113,531	-0,083	0,073
-517,131	265,260	0,146	0,183
-516,116	17,386	0,141	0,080
-515,102	-200,000	-0,027	-0,126
-514,087	-200,000	-0,013	-0,231
-513,072	143,722	-0,028	0,027
-512,058	-200,000	0,018	0,078
-511,043	-34,370	-0,028	-0,011
-510,029	12,434	0,153	-0,085
-509,014	-18,817	0,048	0,021
-507,999	-141,059	-0,045	0,003
-506,985	-74,140	-0,039	0,010
-505,970	-105,974	-0,189	-0,030
-504,956	-76,286	0,001	0,000
-503,941	800,000	-0,046	-0,119
-502,926	800,000	-0,009	0,028
-501,912	-52,974	-0,137	-0,045
-500,897	-44,550	0,026	0,009
-499,883	800,000	0,029	-0,081
-498,868	67,244	-0,212	-0,155
-497,853	159,725	0,154	-0,154
-496,839	-200,000	-0,023	-0,108
-495,824	517,083	0,063	0,106
-494,810	-200,000	0,001	0,075
-493,795	11,309	0,153	0,084
-492,781	-93,842	0,069	0,014
-491,766	800,000	0,043	-0,107
-490,751	91,660	-0,083	-0,067
-489,737	-200,000	0,023	-0,162
-488,722	488,277	-0,070	-0,115
-487,708	-49,026	0,164	0,056
-486,693	-200,000	-0,024	-0,095
-485,678	-200,000	-0,012	0,057
-484,664	800,000	-0,104	-0,294
-483,649	-14,545	-0,217	-0,100
-482,635	91,047	-0,190	0,153
-481,620	-200,000	-0,006	-0,027
-480,605	800,000	0,047	-0,105
-479,591	21,852	-0,075	0,043
-478,576	-200,000	0,014	-0,094
-477,562	-134,300	-0,049	-0,004
-476,547	273,292	-0,034	0,044
-475,532	-200,000	-0,004	-0,059
-474,518	-200,000	-0,011	-0,035
-473,503	540,138	-0,045	0,076
-472,489	-98,414	0,075	0,014
-471,474	-30,880	0,018	-0,007
-470,459	-200,000	-0,004	0,044
-469,445	-200,000	-0,014	-0,110
-468,430	-78,183	0,160	-0,039
-467,416	790,509	0,055	-0,109
-466,401	650,988	-0,027	0,050
-465,386	24,916	0,085	-0,050
-464,372	-45,618	0,122	0,043
-463,357	-200,000	0,050	-0,184
-462,343	460,004	0,055	-0,088
-461,328	800,000	-0,023	-0,069
-460,313	-200,000	0,026	-0,126
-459,299	-104,312	0,058	0,010
-458,284	368,234	0,011	0,016
-457,270	-200,000	-0,001	-0,023
-456,255	-52,686	-0,075	-0,025
-455,241	533,976	-0,020	0,035
-454,226	-122,316	0,024	0,003
-453,211	63,771	0,116	0,083
-452,197	653,034	0,060	0,110
-451,182	15,980	-0,062	-0,035
-450,168	311,170	-0,066	0,089
-449,153	73,376	-0,113	-0,084
-448,138	-11,605	-0,157	-0,074
-447,124	-110,505	0,085	-0,012
-446,109	800,000	0,006	0,015
-445,095	151,419	-0,017	0,016
-444,080	-80,296	0,112	0,027
-443,065	-44,986	-0,122	0,043
-442,051	311,554	-0,095	-0,128
-441,036	800,000	0,032	-0,064
-440,022	-102,199	0,033	0,006
-439,007	-141,415	-0,078	-0,006
-437,992	-156,144	0,101	-0,004
-436,978	-101,290	0,039	-0,007
-435,963	-200,000	0,023	0,081
-434,949	-200,000	-0,010	0,038
-433,934	-123,656	-0,118	-0,013
-432,919	31,413	-0,022	-0,013
-431,905	195,586	-0,059	0,064
-430,890	-48,966	0,147	0,050
-429,876	352,557	-0,105	0,150
-428,861	122,045	0,096	0,086
-427,846	800,000	-0,009	-0,027
-426,832	-200,000	-0,014	-0,131
-425,817	422,560	-0,067	-0,104
-424,803	607,792	0,076	0,136
-423,788	-50,686	0,029	0,010
-422,773	-200,000	0,001	0,036
-421,759	-60,146	0,097	0,029
-420,744	-200,000	-0,009	-0,110
-419,730	189,920	-0,053	-0,057
-418,715	270,802	0,044	0,055
-417,701	800,000	0,018	-0,053
-416,686	160,086	0,083	-0,082
-415,671	-200,000	0,053	-0,239
-414,657	336,717	0,035	0,048
-413,642	54,882	0,034	-0,023
-412,628	236,788	0,013	-0,015
-411,613	800,000	0,036	-0,084
-410,598	-77,433	0,053	0,013
-409,584	23,180	0,046	-0,027
-408,569	-34,435	0,067	-0,026
-407,555	386,940	0,115	0,170
-406,540	140,667	-0,057	0,054
-405,525	218,133	-0,050	0,057
-404,511	-200,000	0,006	0,068
-403,496	-200,000	-0,000	0,159
-402,482	-48,190	0,082	-0,028
-401,467	-200,000	-0,012	0,067
-400,452	-55,255	-0,069	0,022
-399,438	370,532	0,074	0,107
-398,423	-200,000	0,018	0,221
-397,409	6,545	-0,125	-0,066
-396,394	126,804	-0,046	-0,041
-395,379	610,432	-0,039	-0,071
-394,365	-85,706	0,041	-0,009
-393,350	525,272	0,026	0,043
-392,336	-35,730	-0,093	-0,036
-391,321	476,506	-0,010	0,017
-390,306	-119,814	-0,017	-0,002
-389,292	139,234	0,029	0,027
-388,277	-6,285	0,085	0,041
-387,263	-169,999	0,085	0,002
-386,248	411,215	0,016	-0,024
-385,233	-47,255	0,131	-0,045
-384,219	-25,715	-0,182	-0,077
-383,204	-200,000	-0,033	-0,172
-382,190	-164,982	0,033	-0,001
-381,175	-26,486	-0,151	-0,063
-380,160	253,527	-0,046	-0,056
-379,146	175,025	0,019	0,020
-378,131	-78,992	-0,077	0,019
-377,117	10,137	-0,086	-0,046
-376,102	-159,679	-0,093	-0,004
-375,088	-30,383	0,021	-0,008
-374,073	-62,287	-0,068	-0,020
-373,058	-200,000	-0,007	-0,132
-372,044	196,375	0,077	0,084
-371,029	-200,000	0,011	0,092
-370,015	-160,877	0,136	0,005
-369,000	329,927	-0,064	-0,088
-367,985	-162,476	-0,123	-0,004
-366,971	800,000	-0,029	-0,076
-365,956	-200,000	-0,012	0,226
-364,942	373,477	0,029	0,042
-363,927	-49,993	-0,089	-0,030
-362,912	138,943	-0,078	0,073
-361,898	800,000	0,034	-0,106
-360,883	451,289	-0,077	-0,122
-359,869	240,324	-0,091	-0,109
-358,854	800,000	0,061	-0,144
-357,839	171,260	-0,079	0,081
-356,825	175,600	-0,065	0,067
-355,810	-200,000	0,011	-0,164
-354,796	-200,000	0,024	0,106
-353,781	-200,000	0,004	0,020
-352,766	245,277	-0,149	-0,179
-351,752	-24,881	0,094	-0,040
-350,737	600,460	0,053	-0,094
-349,723	-45,901	0,217	0,076
-348,708	134,061	0,080	-0,074
-347,693	800,000	-0,062	-0,169
-346,679	-200,000	0,009	-0,070
-345,664	-131,440	0,133	-0,012
-344,650	-30,381	0,038	-0,015
-343,635	275,566	0,083	0,105
-342,620	-23,538	0,080	-0,034
-341,606	45,555	-0,097	-0,064
-340,591	-200,000	-0,010	0,093
-339,577	-200,000	-0,002	-0,007
-338,562	-90,019	-0,087	-0,018
-337,548	800,000	-0,014	0,037
-336,533	-200,000	0,022	-0,074
-335,518	800,000	0,028	-0,069
-334,504	-200,000	-0,028	0,109
-333,489	229,464	-0,024	-0,028
-332,475	-126,371	-0,115	0,012
-331,460	-40,252	-0,110	-0,040
-330,445	800,000	0,049	-0,129
-329,431	262,333	0,123	-0,153
-328,416	-91,204	-0,070	-0,014
-327,402	72,732	0,133	0,099
-326,387	6,249	0,034	-0,018
-325,372	800,000	0,021	-0,046
-324,358	535,882	-0,013	-0,023
-323,343	564,562	0,027	-0,046
-322,329	6,711	0,203	0,108
-321,314	-200,000	0,015	0,112
-320,299	-200,000	-0,009	0,034
-319,285	-200,000	-0,028	-0,146
-318,270	589,485	0,026	0,046
-317,256	284,236	-0,076	-0,097
-316,241	-145,263	0,084	-0,005
-315,226	-108,337	-0,081	0,012
-314,212	335,653	0,116	0,160
-313,197	800,000	0,063	-0,138
-312,183	-200,000	0,012	0,114
-311,168	-27,415	-0,147	-0,061
-310,153	88,275	0,068	-0,053
-309,139	47,042	-0,095	-0,063
-308,124	800,000	-0,028	0,067
-307,110	142,671	-0,085	0,081
-306,095	-200,000	-0,022	-0,075
-305,080	-200,000	-0,024	0,122
-304,066	269,016	-0,018	0,023
-303,051	-9,991	-0,098	-0,046
-302,037	74,586	-0,047	-0,035
-301,022	-27,090	0,122	0,050
-300,008	292,179	0,105	0,137
-298,993	244,545	-0,037	0,044
-297,978	51,195	-0,122	-0,083
-296,964	-64,575	-0,126	0,036
-295,949	800,000	-0,035	0,072
-294,935	-136,777	0,106	-0,009
-293,920	-150,000	-0,076	-0,004
-292,905	-90,650	0,015	0,003
-291,891	35,623	-0,016	0,010
-290,876	-200,000	0,017	-0,071
-289,862	34,604	0,054	-0,033
-288,847	97,199	-0,130	0,106
-287,832	170,874	-0,050	0,051
-286,818	229,633	0,017	0,020
-285,803	-200,000	0,049	0,276
-284,789	430,942	-0,073	-0,113
-283,774	-200,000	-0,005	0,041
-282,759	300,720	0,022	0,029
-281,745	110,973	-0,021	-0,018
-280,730	-117,606	-0,062	-0,008
-279,716	-35,832	0,130	-0,050
-278,701	-29,459	-0,038	0,015
-277,686	101,180	0,067	-0,055
-276,672	698,464	0,034	0,065
-275,657	355,150	0,044	-0,062
-274,643	-100,936	-0,167	0,029
-273,628	-200,000	-0,024	-0,149
-272,613	-40,436	0,085	-0,031
-271,599	800,000	0,024	0,069
-270,584	-16,846	0,141	0,063
-269,570	80,748	-0,017	0,013
-268,555	18,931	0,016	0,009
-267,540	25,448	-0,062	-0,037
-266,526	444,026	-0,078	0,122
-265,511	-148,429	0,125	-0,007
-264,497	116,484	-0,129	0,113
-263,482	-200,000	0,017	0,112
-262,467	-174,519	0,149	0,003
-261,453	147,235	-0,019	-0,018
-260,438	-200,000	0,010	-0,159
-259,424	-0,998	-0,082	0,041
-258,409	-200,000	-0,008	-0,113
-257,395	524,580	-0,056	-0,093
-256,380	352,137	0,107	0,152
-255,365	241,848	-0,025	0,030
-254,351	-141,879	0,061	-0,004
-253,336	800,000	-0,025	-0,051
-252,322	22,370	-0,265	-0,153
-251,307	681,707	-0,019	0,036
-250,292	6,732	0,077	-0,041
-249,278	-200,000	-0,001	0,055
-248,263	-43,591	0,087	-0,031
-247,249	113,874	0,099	0,086
-246,234	100,963	0,061	0,051
-245,219	800,000	0,041	-0,090
-244,205	214,295	0,094	0,106
-243,190	-200,000	-0,001	0,108
-242,176	121,772	0,126	0,112
-241,161	800,000	0,026	0,054
-240,146	-200,000	0,012	0,038
-239,132	80,316	-0,036	0,028
-238,117	614,016	0,017	-0,031
-237,103	109,613	-0,168	-0,143
-236,088	0,957	0,036	-0,018
-235,073	-200,000	-0,020	0,085
-234,059	93,872	0,047	0,038
-233,044	221,433	-0,102	-0,117
-232,030	55,956	-0,079	-0,054
-231,015	-57,181	-0,120	-0,037
-230,000	197,791	0,095	0,104
-228,986	-98,437	0,018	-0,003
-227,971	609,503	-0,025	0,044
-226,957	800,000	0,019	0,048
-225,942	-87,604	-0,065	0,014
-224,927	60,417	0,089	-0,062
-223,913	-200,000	-0,020	-0,081
-222,898	4,718	-0,089	-0,046
-221,884	276,867	0,072	0,092
-220,869	29,448	0,082	0,049
-219,855	471,004	0,026	0,042
-218,840	-200,000	-0,020	0,091
-217,825	-146,142	-0,031	-0,002
-216,811	144,272	0,047	0,045
-215,796	269,449	-0,074	0,092
-214,782	-162,663	0,109	-0,004
-213,767	800,000	-0,036	0,070
-212,752	768,621	0,090	0,175
-211,738	-35,408	-0,091	-0,035
-210,723	800,000	-0,038	0,077
-209,709	55,609	0,052	0,036
-208,694	-133,919	-0,147	-0,013
-207,679	656,618	-0,010	0,019
-206,665	-200,000	0,000	0,089
-205,650	176,883	0,092	0,095
-204,636	-55,165	0,138	0,044
-203,621	184,510	-0,124	0,130
-202,606	59,649	-0,090	0,063
-201,592	-200,000	-0,019	-0,112
-200,577	322,800	-0,025	-0,034
-199,563	390,658	-0,025	0,036
-198,548	23,159	0,157	0,091
-197,533	-200,000	-0,024	0,103
-196,519	800,000	0,044	0,127
-195,504	-43,860	-0,110	0,039
-194,490	800,000	-0,064	-0,140
-193,475	-200,000	-0,011	-0,159
-192,460	-200,000	0,018	-0,098
-191,446	800,000	-0,032	-0,070
-190,431	52,060	0,076	0,051
-189,417	535,067	-0,062	0,104
-188,402	258,604	-0,075	-0,092
-187,387	-74,535	-0,080	-0,020
-186,373	284,598	0,061	-0,079
-185,358	550,502	0,024	-0,041
-184,344	130,979	-0,018	0,017
-183,329	634,549	-0,073	-0,132
-182,315	-152,220	-0,153	0,008
-181,300	-26,010	-0,040	0,016
-180,285	800,000	-0,025	-0,062
-179,271	288,568	-0,101	-0,130
-178,256	-53,777	0,181	-0,058
-177,242	182,234	-0,055	0,057
-176,227	317,661	0,068	0,092
-175,212	227,001	-0,089	0,102
-174,198	-200,000	-0,001	-0,034
-173,183	-96,875	0,050	0,009
-172,169	74,205	0,058	0,043
-171,154	-200,000	0,036	-0,149
-170,139	-99,171	0,047	0,008
-169,125	-200,000	0,004	0,115
-168,110	800,000	0,034	0,081
-167,096	152,633	0,081	0,078
-166,081	26,305	-0,066	-0,039
-165,066	-200,000	0,032	-0,146
-164,052	-78,713	-0,065	-0,016
-163,037	712,407	0,028	0,054
-162,023	55,052	0,084	0,057
-161,008	256,478	0,028	-0,034
-159,993	-200,000	-0,006	-0,019
-158,979	-200,000	0,013	0,046
-157,964	-200,000	-0,003	-0,042
-156,950	274,334	0,027	-0,034
-155,935	-6,029	-0,135	0,065
-154,920	28,653	0,109	0,065
-153,906	420,367	0,106	0,161
-152,891	-157,956	0,036	-0,001
-151,877	80,463	-0,105	-0,080
-150,862	800,000	-0,037	0,079
-149,847	126,180	-0,140	0,125
-148,833	-200,000	-0,012	0,126
-147,818	317,475	0,067	0,089
-146,804	-200,000	-0,028	0,167
-145,789	-200,000	0,002	0,101
-144,775	-86,977	-0,151	0,032
-143,760	110,094	-0,032	0,027
-142,745	-71,484	-0,045	0,012
-141,731	-11,038	-0,109	-0,051
-140,716	122,371	-0,066	0,059
-139,702	-88,715	-0,033	0,007
-138,687	306,737	0,057	-0,076
-137,672	800,000	-0,033	-0,070
-136,658	789,472	0,068	-0,133
-135,643	322,459	0,011	0,015
-134,629	800,000	0,054	0,125
-133,614	-102,690	-0,033	-0,005
-132,599	-17,156	0,020	0,009
-131,585	800,000	0,040	-0,112
-130,570	127,412	0,080	-0,072
-129,556	-1,177	0,076	0,038
-128,541	16,800	-0,047	-0,026
-127,526	-48,378	-0,032	0,011
-126,512	-121,716	0,060	0,007
-125,497	256,382	0,131	0,159
-124,483	113,651	-0,161	0,138
-123,468	-134,097	0,108	0,009
-122,453	-200,000	0,045	-0,188
-121,439	324,033	0,096	-0,130
-120,424	575,381	0,082	-0,142
-119,410	35,515	0,160	0,099
-118,395	74,499	0,109	0,081
-117,380	59,763	0,084	-0,059
-116,366	-52,428	-0,062	-0,020
-115,351	56,368	0,068	-0,047
-114,337	-200,000	0,006	-0,029
-113,322	-137,607	-0,087	0,007
-112,307	800,000	-0,025	-0,064
-111,293	-200,000	-0,034	0,140
-110,278	-200,000	0,008	-0,116
-109,264	-41,873	-0,059	0,021
-108,249	620,405	0,065	-0,115
-107,234	-200,000	-0,021	-0,192
-106,220	179,397	0,020	0,021
-105,205	365,540	-0,056	0,080
-104,191	99,173	0,033	0,027
-103,176	-200,000	0,009	0,083
-102,162	32,417	0,102	-0,062
-101,147	-133,749	0,115	-0,010
-100,132	-69,955	-0,077	0,021
-99,118	-200,000	-0,009	-0,038
-98,103	78,112	0,067	-0,050
-97,089	-200,000	0,062	-0,198
-96,074	-74,161	0,022	0,006
-95,059	800,000	0,018	0,054
-94,045	-136,169	-0,108	-0,009
-93,030	800,000	0,016	-0,049
-92,016	53,434	-0,099	0,067
-91,001	421,107	0,020	0,030
-89,986	43,364	-0,038	0,025
-88,972	108,629	0,124	0,105
-87,957	800,000	0,063	-0,131
-86,943	-70,996	-0,138	0,036
-85,928	-200,000	-0,023	-0,071
-84,913	800,000	0,008	-0,021
-83,899	-90,781	-0,093	0,019
-82,884	800,000	0,057	0,141
-81,870	85,293	0,037	-0,028
-80,855	-200,000	-0,020	0,134
-79,840	-30,625	-0,021	-0,008
-78,826	-56,742	-0,052	0,016
-77,811	-34,541	-0,060	0,023
-76,797	-200,000	0,017	0,055
-75,782	800,000	0,041	0,084
-74,767	231,392	0,086	-0,099
-73,753	123,641	0,093	-0,083
-72,738	1,527	-0,147	0,074
-71,724	800,000	-0,028	-0,069
-70,709	168,466	-0,012	-0,012
-69,694	43,168	-0,109	-0,070
-68,680	541,093	0,090	0,152
-67,665	14,925	0,146	0,081
-66,651	9,036	-0,085	0,045
-65,636	-200,000	-0,033	0,170
-64,622	800,000	0,006	-0,017
-63,607	107,539	-0,154	-0,129
-62,592	-200,000	0,025	-0,183
-61,578	200,323	0,105	0,114
-60,563	-187,106	0,098	0,001
-59,549	216,807	-0,039	0,044
-58,534	22,808	-2,045	-1,179
-57,519	613,477	-1,170	-2,076
-56,505	-200,000	-0,251	-4,297
-55,490	496,905	0,916	1,493
-54,476	800,000	5,135	11,328
-53,461	-200,000	21,486	342,656
-52,446	800,000	762,110	2363,635
-51,432	557,813	1663,707	2841,962
-50,417	72,970	1660,623	1222,733
-49,403	17,702	1534,010	858,715
-48,388	11,646	1457,532	786,632
-47,373	19,432	1449,117	819,404
-46,359	15,184	1438,245	793,039
-45,344	9,943	1433,931	765,687
-44,330	9,830	1432,166	764,177
-43,315	9,819	1430,595	763,257
-42,300	9,850	1428,585	762,300
-41,286	9,906	1427,307	761,852
-40,271	9,823	1426,304	760,896
-39,257	9,892	1424,964	760,477
-38,242	9,867	1423,954	759,789
-37,227	9,834	1422,858	759,019
-36,213	9,864	1421,512	758,412
-35,198	9,905	1420,271	757,913
-34,184	9,952	1419,298	757,585
-33,169	9,814	1418,043	756,233
-32,154	9,880	1417,060	755,994
-31,140	9,947	1415,616	755,504
-30,125	9,943	1414,528	754,876
-29,111	9,932	1413,266	754,120
-28,096	9,886	1412,361	753,394
-27,082	9,844	1410,951	752,414
-26,067	9,796	1410,020	751,663
-25,052	9,832	1409,135	751,327
-24,038	9,846	1408,075	750,800
-23,023	9,830	1407,312	750,287
-22,009	9,836	1406,150	749,666
-20,994	9,843	1404,715	748,905
-19,979	9,864	1404,204	748,701
-18,965	9,804	1403,221	747,865
-17,950	9,784	1402,371	747,291
-16,936	9,816	1401,487	746,938
-15,921	9,705	1400,653	745,950
-14,906	9,749	1399,527	745,524
-13,892	9,799	1398,624	745,244
-12,877	9,762	1397,714	744,558
-11,863	9,771	1396,879	744,126
-10,848	9,714	1396,251	743,498
-9,833	9,672	1395,286	742,761
-8,819	9,667	1394,250	742,157
-7,804	9,660	1393,435	741,661
-6,790	9,649	1392,491	741,078
-5,775	9,695	1391,216	740,584
-4,760	9,666	1390,355	739,960
-3,746	9,642	1389,425	739,325
-2,731	9,689	1388,388	738,960
-1,717	9,621	1387,788	738,298
-0,702	9,647	1385,973	737,424
0,313	13,710	1298,382	709,383
1,327	29,798	689,121	412,923
2,342	46,727	118,962	77,770
3,356	0,499	16,555	8,314
4,371	3,441	3,528	1,806
5,386	25,096	1,059	0,618
6,400	800,000	0,204	0,606
7,415	77,159	-0,237	-0,177
8,429	-19,304	-0,289	-0,126
9,444	-45,565	-0,324	-0,112
10,459	156,117	-0,262	-0,255
11,473	121,821	-0,271	-0,238
12,488	30,536	-0,336	-0,202
13,502	-59,268	-0,371	-0,112
14,517	-6,282	-0,372	-0,178
15,531	-43,111	-0,324	-0,115
16,546	45,169	-0,249	-0,161
17,561	-16,064	-0,362	-0,161
18,575	-200,000	0,014	-0,057
19,590	323,454	-0,191	-0,257
20,604	-162,732	-0,391	-0,013
21,619	25,512	-0,434	-0,254
22,634	43,785	-0,466	-0,299
23,648	311,021	-0,295	-0,389
24,663	88,790	-0,364	-0,285
25,677	7,858	-0,321	-0,169
26,692	68,523	-0,302	-0,218
27,707	82,641	-0,312	-0,238
28,721	81,363	-0,366	-0,278
29,736	164,520	-0,351	-0,348
30,750	120,132	-0,400	-0,349
31,765	204,826	-0,340	-0,371
32,780	81,701	-0,341	-0,259
33,794	315,343	-0,260	-0,346
34,809	-161,521	-0,309	-0,011
35,823	83,385	-0,365	-0,280
36,838	55,101	-0,382	-0,259
37,853	48,835	-0,375	-0,247
38,867	-10,225	-0,475	-0,221
39,882	11,839	-0,261	-0,141
40,896	237,872	-0,245	-0,286
41,911	-27,658	-0,309	-0,126
42,926	77,891	-0,334	-0,250
43,940	62,889	-0,380	-0,267
44,955	17,761	-0,399	-0,222
45,969	230,090	-0,374	-0,430
46,984	424,164	-0,131	-0,198
47,999	-24,043	-0,451	-0,189
49,013	183,709	-0,315	-0,327
50,028	-29,190	-0,418	-0,168
51,042	191,476	-0,298	-0,315
52,057	408,200	-0,216	-0,322
53,071	145,846	-0,401	-0,377
54,086	-14,378	-0,359	-0,161
55,101	-41,509	-0,210	-0,075
56,115	-34,888	-0,368	-0,140
57,130	-85,474	-0,399	-0,086
58,144	-36,686	-0,470	-0,176
59,159	46,323	-0,359	-0,233
60,174	78,772	-0,420	-0,315
61,188	34,447	-0,284	-0,173
62,203	-150,982	-0,283	-0,015
63,217	81,346	-0,344	-0,260
64,232	-99,897	-0,279	-0,048
65,247	117,309	-0,241	-0,208
66,261	186,973	-0,257	-0,268
67,276	98,900	-0,336	-0,272
68,290	87,635	-0,279	-0,217
69,305	-12,768	-0,369	-0,168
70,320	111,891	-0,169	-0,143
71,334	43,556	-0,350	-0,224
72,349	-33,887	-0,313	-0,120
73,363	-25,208	-0,381	-0,157
74,378	44,672	-0,302	-0,194
75,393	84,126	-0,245	-0,188
76,407	125,930	-0,226	-0,200
77,422	-46,958	-0,390	-0,133
78,436	13,480	-0,319	-0,173
79,451	76,930	-0,271	-0,202
80,466	77,954	-0,316	-0,236
81,480	106,187	-0,228	-0,189
82,495	74,964	-0,297	-0,219
83,509	100,054	-0,332	-0,270
84,524	-9,278	-0,335	-0,156
85,539	172,588	-0,220	-0,222
86,553	110,185	-0,201	-0,169
87,568	-3,131	-0,332	-0,162
88,582	107,218	-0,322	-0,268
89,597	21,800	-0,251	-0,142
90,611	-112,641	-0,232	-0,032
91,626	-29,992	-0,192	-0,076
92,641	-107,690	-0,454	-0,069
93,655	63,700	-0,251	-0,176
94,670	-62,334	-0,425	-0,123
95,684	11,623	-0,400	-0,214
96,699	-12,217	-0,347	-0,158
97,714	158,674	-0,165	-0,161
98,728	-140,268	-0,278	-0,020
99,743	-63,082	-0,207	-0,059
100,757	-105,680	-0,307	-0,048
101,772	-54,483	-0,251	-0,079
102,787	-9,567	-0,369	-0,171
103,801	387,140	-0,170	-0,246
104,816	-18,317	-0,294	-0,128
105,830	-2,990	-0,268	-0,130
106,845	201,725	-0,176	-0,189
107,860	89,116	-0,306	-0,238
108,874	252,423	-0,239	-0,285
109,889	514,328	-0,234	-0,383
110,903	16,036	-0,261	-0,143
111,918	-200,000	-0,066	-0,267
112,933	205,619	-0,192	-0,208
113,947	5,538	-0,188	-0,097
114,962	-97,648	-0,085	0,015
115,976	158,485	-0,255	-0,247
116,991	150,611	-0,215	-0,204
118,006	92,824	-0,211	-0,166
119,020	25,999	-0,272	-0,158
120,035	-80,270	-0,170	-0,039
121,049	166,307	-0,111	-0,109
122,064	-50,210	-0,367	-0,120
123,079	-89,983	-0,494	-0,100
124,093	-21,704	-0,190	-0,080
125,108	301,027	-0,219	-0,283
126,122	-60,085	-0,299	-0,088
127,137	-64,188	-0,280	-0,079
128,151	-135,480	-0,219	-0,018
129,166	27,158	-0,151	-0,088
130,181	195,430	-0,063	-0,067
131,195	185,778	-0,284	-0,295
132,210	167,394	-0,231	-0,229
133,224	800,000	-0,170	-0,349
134,239	-3,522	-0,216	-0,104
135,254	-15,297	-0,367	-0,163
136,268	82,471	-0,223	-0,168
137,283	115,345	-0,194	-0,165
138,297	120,420	-0,200	-0,173
139,312	32,504	-0,359	-0,215
140,327	65,494	-0,318	-0,224
141,341	144,651	-0,269	-0,251
142,356	-200,000	-0,070	-0,236
143,370	-49,531	-0,183	-0,060
144,385	54,069	-0,204	-0,137
145,400	31,696	-0,219	-0,131
146,414	52,062	-0,355	-0,235
147,429	-24,539	-0,303	-0,125
148,443	514,950	-0,116	-0,190
149,458	-77,977	-0,232	-0,055
150,473	800,000	-0,086	-0,209
151,487	237,515	-0,289	-0,334
152,502	86,814	-0,303	-0,233
153,516	-53,247	-0,281	-0,089
154,531	121,532	-0,217	-0,188
155,546	244,623	-0,274	-0,321
156,560	140,768	-0,213	-0,196
157,575	19,712	-0,141	-0,079
158,589	-34,485	-0,344	-0,130
159,604	110,880	-0,251	-0,210
160,619	-8,661	-0,281	-0,130
161,633	80,421	-0,224	-0,168
162,648	74,307	-0,229	-0,167
163,662	75,221	-0,332	-0,243
164,677	6,150	-0,125	-0,064
165,692	415,411	-0,114	-0,170
166,706	148,022	-0,248	-0,232
167,721	-14,771	-0,245	-0,109
168,735	187,747	-0,192	-0,199
169,750	800,000	-0,048	-0,132
170,764	69,695	-0,187	-0,134
171,779	13,984	-0,202	-0,109
172,794	11,941	-0,220	-0,117
173,808	-111,342	-0,177	-0,025
174,823	-4,286	-0,232	-0,111
175,837	12,355	-0,143	-0,076
176,852	34,448	-0,178	-0,108
177,867	313,460	-0,194	-0,254
178,881	43,507	-0,224	-0,142
179,896	-134,830	-0,218	-0,018
180,910	284,969	-0,153	-0,192
181,925	156,395	-0,160	-0,153
182,940	-24,285	-0,200	0,082
183,954	174,710	-0,203	-0,204
184,969	-93,260	-0,165	-0,032
185,983	281,409	-0,157	-0,196
186,998	-182,951	-0,255	0,003
188,013	128,785	-0,085	-0,075
189,027	683,160	-0,161	-0,292
190,042	257,868	-0,238	-0,285
191,056	8,078	-0,290	-0,150
192,071	800,000	-0,113	-0,292
193,086	155,068	-0,285	-0,272
194,100	469,918	-0,107	-0,167
195,115	800,000	-0,065	-0,154
196,129	-39,317	-0,207	-0,075
197,144	-2,073	-0,177	-0,086
198,159	800,000	-0,143	-0,295
199,173	26,941	-0,224	-0,130
200,188	-20,410	-0,233	-0,099
201,202	203,488	-0,131	-0,141
202,217	180,267	-0,134	-0,136
203,232	800,000	-0,103	-0,210
204,246	140,487	-0,201	-0,184
205,261	57,875	-0,238	-0,161
206,275	197,314	-0,212	-0,224
207,290	800,000	-0,035	-0,089
208,304	-46,161	-0,273	-0,092
209,319	800,000	-0,072	-0,201
210,334	263,693	-0,117	-0,141
211,348	121,329	-0,182	-0,157
212,363	101,111	-0,147	-0,118
213,377	45,302	-0,207	-0,132
214,392	31,515	-0,130	-0,077
215,407	800,000	-0,131	-0,283
216,421	-5,910	-0,168	-0,079
217,436	115,371	-0,248	-0,209
218,450	-24,484	-0,291	-0,119
219,465	163,301	-0,228	-0,222
220,480	-41,786	-0,260	-0,092
221,494	13,222	-0,198	-0,106
222,509	-0,753	-0,094	0,046
223,523	-95,295	-0,309	-0,057
224,538	0,394	-0,121	-0,060
225,553	-106,721	-0,139	-0,021
226,567	-31,253	-0,213	-0,083
227,582	10,539	-0,230	-0,121
228,596	-87,212	-0,080	0,017
229,611	370,543	-0,114	-0,160
230,626	565,461	-0,073	-0,123
231,640	-22,767	-0,308	-0,128
232,655	30,782	-0,237	-0,140
233,669	157,753	-0,221	-0,211
234,684	-56,514	-0,231	-0,070
235,699	800,000	-0,075	-0,182
236,713	110,177	-0,029	0,024
237,728	50,475	-0,255	-0,166
238,742	60,815	-0,147	-0,100
239,757	44,574	-0,189	-0,120
240,772	35,158	-0,055	-0,033
241,786	201,692	-0,149	-0,159
242,801	147,736	-0,154	-0,143
243,815	-134,840	-0,134	-0,011
244,830	109,440	-0,072	-0,060
245,844	256,223	-0,188	-0,223
246,859	161,168	-0,211	-0,204
247,874	304,234	-0,059	-0,076
248,888	231,548	-0,165	-0,187
249,903	237,750	-0,173	-0,199
250,917	15,860	-0,133	0,072
251,932	-39,097	-0,271	-0,098
252,947	-38,208	-0,178	0,065
253,961	-60,013	-0,170	-0,050
254,976	41,400	-0,140	-0,087
255,990	11,829	-0,252	-0,133
257,005	136,444	-0,167	-0,150
258,020	-168,134	-0,092	-0,002
259,034	-18,517	-0,105	-0,045
260,049	-133,191	-0,237	0,020
261,063	145,498	-0,153	-0,141
262,078	-53,912	-0,261	-0,081
263,093	360,030	-0,115	-0,159
264,107	118,385	-0,135	-0,115
265,122	12,746	-0,196	-0,104
266,136	-11,983	-0,120	-0,054
267,151	231,866	-0,192	-0,218
268,166	135,367	-0,233	-0,209
269,180	74,932	-0,238	-0,173
270,195	132,008	-0,194	-0,172
271,209	188,922	-0,123	-0,127
272,224	87,569	-0,144	-0,109
273,239	-13,221	-0,202	-0,090
274,253	-136,984	-0,188	-0,015
275,268	-79,974	-0,249	0,057
276,282	286,503	-0,221	-0,276
277,297	36,109	-0,225	-0,136
278,312	-200,000	-0,041	-0,131
279,326	356,943	-0,104	-0,143
280,341	372,926	-0,143	-0,201
281,355	-134,938	-0,131	0,011
282,370	90,032	-0,201	-0,155
283,384	8,286	-0,128	-0,066
284,399	-19,079	-0,240	-0,102
285,414	-74,138	-0,186	-0,046
286,428	-28,435	-0,102	-0,040
287,443	333,131	-0,051	0,067
288,457	800,000	-0,028	-0,079
289,472	-200,000	-0,021	-0,115
290,487	-86,902	-0,183	0,038
291,501	33,294	-0,330	-0,197
292,516	-130,891	-0,279	-0,025
293,530	226,644	-0,109	-0,122
294,545	-200,000	-0,002	-0,114
295,560	155,287	-0,234	-0,222
296,574	44,254	-0,079	-0,050
297,589	27,091	-0,217	-0,125
298,603	360,929	-0,191	-0,263
299,618	-32,821	-0,096	-0,037
300,633	-60,893	-0,149	-0,043
301,647	-142,547	-0,055	0,004
302,662	-95,709	-0,056	-0,010
303,676	-62,650	-0,004	-0,001
304,691	139,609	-0,100	-0,090
305,706	144,123	-0,146	-0,133
306,720	-2,787	-0,272	-0,130
307,735	-74,443	-0,195	-0,048
308,749	-200,000	-0,061	-0,190
309,764	-200,000	-0,000	-0,058
310,779	800,000	-0,050	-0,101
311,793	290,091	-0,119	-0,148
312,808	167,807	-0,189	-0,184
313,822	-67,985	-0,214	-0,057
314,837	14,689	-0,200	-0,107
315,852	81,815	-0,130	-0,097
316,866	36,306	-0,047	0,028
317,881	-150,871	-0,172	0,009
318,895	-50,919	-0,107	0,034
319,910	-0,079	-0,157	0,077
320,925	-87,002	-0,187	-0,039
321,939	208,018	0,003	-0,004
322,954	210,198	0,100	-0,108
323,968	107,764	-0,065	0,053
324,983	-99,967	-0,221	-0,037
325,997	4,229	-0,158	-0,079
327,012	704,958	-0,100	-0,182
328,027	82,317	-0,129	-0,096
329,041	55,835	-0,077	-0,051
330,056	-10,076	-0,135	-0,061
331,070	148,064	-0,056	-0,051
332,085	-100,758	-0,078	0,013
333,100	-88,314	-0,152	-0,031
334,114	-51,549	-0,151	0,048
335,129	-92,219	-0,202	-0,039
336,143	-2,521	-0,154	-0,074
337,158	-102,173	-0,113	0,018
338,173	-48,674	-0,195	-0,064
339,187	-144,347	-0,202	-0,013
340,202	-39,104	-0,133	-0,047
341,216	259,364	-0,114	-0,135
342,231	19,924	-0,197	-0,108
343,246	800,000	-0,117	-0,260
344,260	416,609	-0,235	-0,344
345,275	251,681	-0,094	-0,109
346,289	-191,546	-0,170	-0,001
347,304	-128,835	-0,123	0,012
348,319	52,466	-0,089	-0,058
349,333	67,622	-0,195	-0,136
350,348	117,426	-0,087	-0,073
351,362	224,635	-0,165	-0,183
352,377	-140,987	-0,152	-0,011
353,392	-137,646	-0,077	-0,006
354,406	332,210	-0,105	0,138
355,421	207,754	1306,551	1396,320
356,435	159,835	1466,246	1396,801
