DTS Sentinel unit serial number:	SN410029Multiplexer serial number:	ORYXHardware model number:	OX2-SRSoftware version number:	ORYX F/W v4,00 Oryx Data Collector v3.7.2.0data status	okinstallation	B3 Nyhavnadifferential loss correction	single-endedforward channel	channel 1reverse channel	N/Adate	2023/12/02time	00:37:30forward acquisition time	300,00reverse acquisition time	0,00gamma	499,1914k internal	0,3196k external	0,3196temperature offset calibration	1,0000default loss term (dB/km)	0,3820temperature slope calibration	1,0000multiplexer offset coefficient	1,0000multiplexer slope coefficient	1,0000fibre end	0,00T internal ref (°C)	16,25T ext. ref 1 (°C)	1,78T ext. ref 2 (°C)	1,78length (m)	temperature (°C)	Stokes	anti-Stokes-744,400	287,899	-0,232	-0,307
-743,385	-200,000	0,042	0,160
-742,371	-53,501	-0,338	-0,112
-741,356	800,000	0,111	0,240
-740,342	258,956	-0,158	-0,199
-739,327	-200,000	0,004	0,251
-738,312	159,909	-0,261	-0,265
-737,298	424,004	0,145	0,227
-736,283	191,798	-0,171	-0,188
-735,269	-200,000	0,089	0,349
-734,254	126,156	-0,261	-0,240
-733,239	164,031	-0,116	0,119
-732,225	246,884	-0,066	-0,081
-731,210	-1,657	0,128	0,065
-730,196	257,781	-0,019	-0,024
-729,181	-108,703	-0,061	-0,009
-728,167	800,000	-0,015	-0,032
-727,152	250,791	-0,004	-0,005
-726,137	307,780	-0,045	0,062
-725,123	-103,224	-0,141	-0,024
-724,108	800,000	-0,006	0,019
-723,094	-88,033	-0,052	-0,011
-722,079	332,530	-0,095	-0,134
-721,064	583,907	-0,153	-0,276
-720,050	204,520	-0,110	-0,124
-719,035	-200,000	0,018	0,084
-718,021	185,287	-0,040	0,043
-717,006	-94,482	-0,183	0,036
-715,991	516,713	-0,056	-0,096
-714,977	-93,740	-0,169	0,034
-713,962	267,965	0,013	0,017
-712,948	-87,408	-0,102	0,022
-711,933	-80,816	0,050	-0,012
-710,918	800,000	-0,009	0,021
-709,904	-77,157	-0,147	-0,037
-708,889	169,233	0,027	-0,028
-707,875	-200,000	-0,007	-0,050
-706,860	-200,000	-0,063	-0,211
-705,845	-200,000	0,004	0,059
-704,831	-53,578	0,103	-0,034
-703,816	-200,000	-0,001	-0,150
-702,802	63,107	-0,096	0,070
-701,787	-79,074	0,043	0,011
-700,772	85,350	0,040	-0,032
-699,758	-200,000	-0,005	0,061
-698,743	-200,000	0,017	-0,118
-697,729	332,681	0,050	0,071
-696,714	-10,786	0,038	-0,018
-695,699	620,825	-0,060	0,111
-694,685	14,838	0,021	0,012
-693,670	800,000	-0,054	-0,116
-692,656	-200,000	0,022	-0,089
-691,641	-200,000	-0,027	-0,124
-690,627	81,522	0,089	0,070
-689,612	47,813	0,056	0,038
-688,597	-200,000	-0,027	-0,106
-687,583	-200,000	-0,017	-0,131
-686,568	248,166	-0,071	-0,087
-685,554	800,000	-0,076	-0,180
-684,539	132,307	-0,088	0,083
-683,524	124,759	0,053	0,048
-682,510	800,000	-0,058	0,162
-681,495	745,017	-0,055	-0,108
-680,481	800,000	0,019	0,040
-679,466	520,431	-0,033	0,056
-678,451	-62,403	-0,072	-0,022
-677,437	228,192	0,055	0,065
-676,422	294,530	-0,069	0,093
-675,408	792,551	-0,031	-0,062
-674,393	208,379	0,076	-0,086
-673,378	800,000	0,050	-0,129
-672,364	-200,000	-0,014	-0,066
-671,349	-200,000	0,005	-0,061
-670,335	70,046	0,083	0,062
-669,320	-118,117	0,079	0,010
-668,305	552,172	0,015	-0,026
-667,291	-200,000	-0,008	0,109
-666,276	-104,916	-0,068	-0,011
-665,262	-92,449	0,129	-0,026
-664,247	-200,000	0,011	-0,082
-663,232	-200,000	-0,005	0,055
-662,218	255,247	0,059	0,074
-661,203	-48,925	-0,141	0,049
-660,189	-118,961	-0,096	-0,012
-659,174	-200,000	-0,014	-0,097
-658,159	-200,000	0,047	-0,154
-657,145	448,077	-0,068	-0,108
-656,130	-130,571	0,073	-0,007
-655,116	-32,028	-0,095	0,038
-654,101	-200,000	-0,019	0,077
-653,086	-200,000	0,026	0,105
-652,072	281,343	0,051	-0,067
-651,057	83,862	-0,105	-0,083
-650,043	-122,785	-0,012	0,001
-649,028	17,507	-0,093	0,053
-648,014	-200,000	0,001	0,015
-646,999	-69,556	-0,089	0,025
-645,984	-79,502	0,073	0,018
-644,970	-16,776	0,024	-0,011
-643,955	232,278	0,075	-0,090
-642,941	-46,057	0,061	0,022
-641,926	-200,000	-0,001	-0,044
-640,911	-200,000	0,025	-0,083
-639,897	800,000	0,074	0,173
-638,882	800,000	0,045	0,095
-637,868	800,000	0,063	0,144
-636,853	276,103	-0,095	0,122
-635,838	800,000	-0,073	-0,188
-634,824	-71,346	0,078	0,021
-633,809	92,760	0,131	-0,107
-632,795	-200,000	0,016	-0,107
-631,780	800,000	0,035	0,087
-630,765	-200,000	0,007	-0,104
-629,751	-200,000	-0,008	0,035
-628,736	-37,942	-0,093	-0,035
-627,722	216,190	0,055	0,064
-626,707	76,391	-0,095	-0,073
-625,692	800,000	0,025	0,074
-624,678	470,277	-0,021	0,034
-623,663	800,000	0,011	0,029
-622,649	342,315	-0,015	-0,022
-621,634	14,712	-0,055	-0,031
-620,619	-200,000	0,022	-0,196
-619,605	-114,415	-0,081	-0,011
-618,590	-121,356	0,146	0,017
-617,576	-200,000	0,012	0,160
-616,561	698,614	-0,064	0,122
-615,546	239,461	0,067	-0,081
-614,532	105,946	0,057	-0,049
-613,517	-69,927	-0,037	0,010
-612,503	683,767	0,043	0,082
-611,488	302,727	-0,008	-0,011
-610,474	-131,358	0,089	-0,008
-609,459	40,551	-0,074	-0,048
-608,444	204,195	-0,052	0,059
-607,430	150,575	-0,080	-0,078
-606,415	-200,000	0,038	-0,137
-605,401	-200,000	-0,008	-0,133
-604,386	-159,955	0,013	-0,001
-603,371	19,739	0,045	0,026
-602,357	-110,724	-0,069	0,010
-601,342	169,186	0,039	-0,041
-600,328	408,265	0,102	-0,157
-599,313	800,000	0,043	-0,111
-598,298	30,529	-0,057	0,035
-597,284	-84,195	-0,082	0,019
-596,269	800,000	0,050	0,110
-595,255	-200,000	0,032	0,150
-594,240	42,775	-0,091	-0,060
-593,225	580,053	0,060	-0,107
-592,211	-162,655	0,054	0,002
-591,196	138,235	0,148	-0,141
-590,182	-108,700	-0,056	0,009
-589,167	-172,610	0,142	-0,003
-588,152	-69,277	0,067	-0,018
-587,138	344,673	-0,044	0,062
-586,123	103,226	0,054	-0,046
-585,109	536,306	0,027	-0,047
-584,094	-31,814	0,032	-0,013
-583,079	-200,000	0,012	0,119
-582,065	-75,705	0,050	0,013
-581,050	44,227	0,072	0,048
-580,036	57,704	-0,036	-0,025
-579,021	30,066	-0,092	-0,057
-578,006	-25,743	0,061	0,026
-576,992	-130,964	-0,101	0,010
-575,977	78,860	-0,054	0,042
-574,963	-94,025	-0,068	-0,013
-573,948	-200,000	-0,000	0,058
-572,934	-200,000	0,002	-0,068
-571,919	70,395	-0,093	-0,070
-570,904	155,336	0,030	0,030
-569,890	-200,000	0,020	-0,153
-568,875	42,634	0,087	0,057
-567,861	-200,000	0,013	-0,113
-566,846	800,000	-0,016	0,036
-565,831	135,778	0,027	0,026
-564,817	68,665	-0,050	-0,037
-563,802	800,000	-0,018	0,056
-562,788	555,935	-0,075	-0,131
-561,773	-152,346	-0,051	0,003
-560,758	800,000	0,067	-0,144
-559,744	-200,000	0,031	-0,103
-558,729	800,000	0,030	0,070
-557,715	-143,885	0,098	-0,007
-556,700	800,000	-0,039	-0,097
-555,685	548,278	0,097	-0,169
-554,671	495,377	0,033	0,055
-553,656	-200,000	-0,005	0,131
-552,642	164,891	-0,012	0,012
-551,627	-145,076	-0,041	0,003
-550,612	-85,775	-0,100	0,022
-549,598	5,637	-0,195	-0,104
-548,583	-200,000	-0,008	0,092
-547,569	310,006	0,033	0,044
-546,554	236,379	-0,049	0,058
-545,539	660,957	0,043	-0,081
-544,525	259,421	0,048	-0,060
-543,510	233,475	0,026	0,031
-542,496	-29,774	-0,051	0,021
-541,481	74,292	-0,042	-0,032
-540,466	-200,000	-0,001	0,032
-539,452	-200,000	0,001	-0,071
-538,437	800,000	-0,052	0,107
-537,423	159,692	0,085	0,085
-536,408	171,686	-0,022	-0,023
-535,393	639,963	0,028	0,051
-534,379	-200,000	0,027	-0,141
-533,364	-70,550	0,041	0,011
-532,350	1,198	-0,086	-0,045
-531,335	97,998	0,138	-0,114
-530,321	-19,601	0,097	0,043
-529,306	-200,000	-0,003	-0,073
-528,291	547,912	-0,041	-0,071
-527,277	-200,000	-0,014	-0,084
-526,262	8,570	0,073	-0,040
-525,248	-151,497	0,122	0,006
-524,233	800,000	0,077	0,190
-523,218	41,657	-0,126	0,082
-522,204	800,000	-0,024	0,053
-521,189	199,589	0,037	-0,042
-520,175	447,880	-0,065	-0,104
-519,160	81,100	0,050	-0,039
-518,145	375,378	0,017	0,026
-517,131	-200,000	0,013	0,074
-516,116	242,648	0,005	-0,007
-515,102	691,586	-0,096	-0,182
-514,087	-200,000	-0,031	-0,154
-513,072	-109,979	-0,131	0,020
-512,058	57,444	-0,074	-0,052
-511,043	-5,422	0,155	-0,077
-510,029	693,234	-0,057	0,108
-509,014	56,014	-0,027	0,019
-507,999	-94,963	0,070	-0,014
-506,985	88,761	-0,138	-0,111
-505,970	-200,000	0,038	-0,126
-504,956	-200,000	-0,137	-0,000
-503,941	234,071	-0,068	-0,081
-502,926	372,885	0,102	0,149
-501,912	-12,845	0,130	0,061
-500,897	-200,000	-0,023	-0,121
-499,883	-107,086	-0,059	0,009
-498,868	800,000	0,048	0,105
-497,853	578,502	0,034	-0,061
-496,839	231,336	-0,063	0,074
-495,824	49,201	0,113	-0,077
-494,810	13,179	0,143	0,080
-493,795	-200,000	-0,032	-0,126
-492,781	-200,000	-0,012	-0,069
-491,766	-111,168	-0,094	-0,014
-490,751	-112,990	-0,081	-0,011
-489,737	5,853	0,110	0,059
-488,722	800,000	-0,017	0,052
-487,708	149,137	-0,078	-0,076
-486,693	185,333	-0,066	0,071
-485,678	-148,282	0,036	-0,002
-484,664	-42,419	-0,101	0,037
-483,649	-200,000	0,024	-0,075
-482,635	46,079	-0,149	0,099
-481,620	-200,000	0,012	0,104
-480,605	335,452	-0,060	0,085
-479,591	156,865	-0,064	0,063
-478,576	-75,886	0,078	-0,020
-477,562	800,000	0,024	-0,051
-476,547	-200,000	-0,008	-0,072
-475,532	800,000	0,018	-0,049
-474,518	-200,000	0,027	0,134
-473,503	800,000	-0,042	0,124
-472,489	754,511	0,019	0,037
-471,474	120,815	-0,039	-0,035
-470,459	-163,512	-0,110	0,004
-469,445	-141,535	-0,114	0,008
-468,430	-200,000	0,011	-0,075
-467,416	-8,367	0,160	0,077
-466,401	-200,000	0,008	0,080
-465,386	601,751	0,069	0,125
-464,372	541,639	-0,028	-0,048
-463,357	-157,561	-0,105	-0,004
-462,343	526,090	0,046	0,078
-461,328	800,000	-0,040	0,092
-460,313	50,389	0,155	0,105
-459,299	-26,863	-0,064	0,027
-458,284	-131,523	-0,019	-0,002
-457,270	-200,000	0,006	0,067
-456,255	800,000	-0,031	0,083
-455,241	-200,000	0,015	0,097
-454,226	-136,713	0,229	-0,019
-453,211	63,345	0,075	0,054
-452,197	-200,000	-0,012	-0,106
-451,182	-46,621	-0,050	0,018
-450,168	-200,000	-0,004	-0,063
-449,153	-200,000	-0,013	0,119
-448,138	-200,000	0,001	-0,045
-447,124	78,623	-0,085	0,065
-446,109	-168,863	0,038	0,001
-445,095	-158,099	0,038	0,002
-444,080	-168,385	-0,081	0,002
-443,065	54,374	0,085	0,059
-442,051	-200,000	-0,011	0,074
-441,036	-200,000	-0,046	-0,186
-440,022	87,979	-0,131	0,105
-439,007	-99,115	0,028	-0,005
-437,992	-25,890	0,148	0,063
-436,978	75,179	-0,034	-0,025
-435,963	800,000	-0,018	0,039
-434,949	800,000	0,038	-0,085
-433,934	800,000	-0,035	-0,107
-432,919	800,000	0,032	0,091
-431,905	-170,347	0,028	0,001
-430,890	-74,946	-0,096	0,024
-429,876	553,763	-0,041	0,071
-428,861	33,293	-0,074	-0,046
-427,846	-13,504	0,091	-0,042
-426,832	-200,000	0,005	-0,033
-425,817	371,468	-0,044	-0,065
-424,803	-36,010	-0,109	0,042
-423,788	214,955	-0,042	0,048
-422,773	800,000	0,044	-0,105
-421,759	800,000	-0,034	0,094
-420,744	66,322	0,087	-0,063
-419,730	800,000	0,043	-0,122
-418,715	-200,000	-0,013	0,064
-417,701	-200,000	-0,009	-0,034
-416,686	800,000	-0,024	0,051
-415,671	-200,000	0,013	-0,072
-414,657	280,786	-0,030	0,039
-413,642	-79,418	0,008	0,002
-412,628	800,000	0,030	-0,087
-411,613	16,421	0,128	0,072
-410,598	-35,572	0,060	-0,023
-409,584	116,655	0,049	-0,043
-408,569	-74,896	-0,086	-0,022
-407,555	41,627	0,036	0,024
-406,540	-53,855	-0,156	0,051
-405,525	800,000	0,029	-0,080
-404,511	214,725	0,014	-0,016
-403,496	150,195	-0,115	-0,113
-402,482	-105,631	0,002	-0,000
-401,467	-126,878	0,090	0,009
-400,452	-103,577	0,130	0,022
-399,438	128,988	0,064	-0,059
-398,423	-200,000	-0,036	-0,114
-397,409	-200,000	-0,022	-0,105
-396,394	800,000	0,008	-0,023
-395,379	65,039	-0,213	0,155
-394,365	-3,456	0,113	0,056
-393,350	311,453	-0,072	0,098
-392,336	70,462	-0,039	0,029
-391,321	96,620	0,090	0,074
-390,306	-200,000	0,002	-0,114
-389,292	668,394	-0,044	-0,081
-388,277	-118,299	-0,161	-0,020
-387,263	-200,000	0,007	0,034
-386,248	-200,000	0,013	0,062
-385,233	-200,000	-0,014	0,054
-384,219	-200,000	-0,015	-0,053
-383,204	-200,000	0,138	0,000
-382,190	-5,850	-0,101	-0,049
-381,175	171,691	-0,125	-0,129
-380,160	185,110	-0,056	-0,060
-379,146	346,268	0,094	0,134
-378,131	-51,599	0,123	0,041
-377,117	403,136	-0,065	-0,099
-376,102	-124,959	0,079	-0,009
-375,088	-15,241	0,045	0,021
-374,073	-200,000	0,011	-0,042
-373,058	-23,577	-0,022	0,009
-372,044	-28,085	0,068	0,028
-371,029	-200,000	0,002	-0,085
-370,015	-147,803	0,193	-0,011
-369,000	-23,154	-0,072	-0,031
-367,985	-10,898	0,063	0,030
-366,971	153,981	-0,119	-0,117
-365,956	800,000	0,021	0,049
-364,942	-112,245	0,098	0,014
-363,927	800,000	0,050	0,117
-362,912	-25,033	0,099	-0,042
-361,898	357,280	-0,057	-0,081
-360,883	800,000	-0,061	-0,158
-359,869	126,214	-0,025	-0,022
-358,854	135,124	-0,072	0,067
-357,839	147,443	0,042	0,041
-356,825	767,479	0,039	-0,076
-355,810	800,000	-0,015	0,037
-354,796	259,202	0,088	-0,109
-353,781	-200,000	-0,022	-0,078
-352,766	-200,000	-0,005	-0,058
-351,752	-16,145	0,086	-0,039
-350,737	212,228	-0,099	0,113
-349,723	122,998	-0,121	0,108
-348,708	197,628	-0,116	0,127
-347,693	-18,835	-0,112	0,050
-346,679	-200,000	-0,008	-0,039
-345,664	-28,124	-0,016	0,007
-344,650	-200,000	0,010	-0,031
-343,635	190,408	0,107	-0,115
-342,620	357,397	0,050	0,072
-341,606	58,569	0,109	0,077
-340,591	-200,000	-0,008	-0,033
-339,577	800,000	-0,032	-0,086
-338,562	-152,653	0,024	0,001
-337,548	-15,227	-0,070	-0,032
-336,533	-68,733	-0,116	-0,032
-335,518	-21,534	0,149	-0,065
-334,504	563,648	0,020	-0,034
-333,489	499,312	0,037	-0,061
-332,475	359,065	-0,054	-0,078
-331,460	-200,000	0,046	-0,164
-330,445	121,174	0,112	0,100
-329,431	-71,341	-0,040	-0,011
-328,416	-200,000	0,040	0,135
-327,402	650,301	-0,028	0,051
-326,387	-200,000	0,009	0,098
-325,372	-84,521	-0,146	-0,033
-324,358	-109,711	0,037	0,006
-323,343	183,892	-0,026	-0,028
-322,329	-4,960	0,103	-0,051
-321,314	303,345	0,038	-0,051
-320,299	262,036	-0,043	-0,053
-319,285	206,915	-0,030	0,034
-318,270	9,703	-0,081	-0,044
-317,256	-200,000	-0,008	-0,117
-316,241	-200,000	-0,029	0,135
-315,226	-101,744	0,087	-0,015
-314,212	275,302	0,040	0,051
-313,197	615,533	0,016	0,029
-312,183	-200,000	0,038	0,166
-311,168	180,352	-0,021	0,023
-310,153	107,002	0,052	-0,044
-309,139	800,000	-0,025	-0,079
-308,124	-200,000	0,001	0,064
-307,110	112,094	-0,086	-0,074
-306,095	4,614	-0,066	0,034
-305,080	-72,635	-0,132	-0,035
-304,066	535,637	0,033	0,057
-303,051	-161,144	-0,079	0,003
-302,037	378,317	-0,072	-0,106
-301,022	-200,000	0,010	0,072
-300,008	315,902	0,089	0,121
-298,993	154,463	0,028	-0,028
-297,978	800,000	0,021	0,052
-296,964	528,102	0,014	0,023
-295,949	800,000	-0,045	-0,098
-294,935	800,000	-0,051	0,158
-293,920	-106,495	-0,082	-0,013
-292,905	-109,516	0,182	0,027
-291,891	390,861	0,081	0,121
-290,876	-57,135	0,016	-0,005
-289,862	800,000	0,075	0,159
-288,847	-174,138	-0,113	-0,002
-287,832	-200,000	-0,006	-0,034
-286,818	241,811	0,135	0,162
-285,803	-46,381	0,038	0,013
-284,789	129,368	0,151	0,138
-283,774	800,000	-0,047	0,102
-282,759	-158,488	-0,079	0,003
-281,745	-38,111	0,055	-0,021
-280,730	-200,000	0,005	-0,139
-279,716	-99,859	-0,145	0,026
-278,701	800,000	0,034	-0,102
-277,686	134,400	0,092	0,086
-276,672	-25,063	-0,069	0,029
-275,657	47,152	-0,094	-0,063
-274,643	-200,000	-0,010	-0,092
-273,628	232,261	-0,072	-0,085
-272,613	757,989	0,023	0,045
-271,599	-200,000	-0,033	0,196
-270,584	117,570	0,054	-0,048
-269,570	173,226	0,042	0,044
-268,555	161,755	0,096	-0,096
-267,540	105,048	-0,068	-0,057
-266,526	-200,000	0,006	-0,045
-265,511	683,267	-0,047	-0,089
-264,497	444,038	-0,052	-0,082
-263,482	516,907	0,072	0,120
-262,467	-200,000	0,004	0,055
-261,453	17,357	0,153	-0,087
-260,438	76,770	-0,067	0,051
-259,424	800,000	-0,014	-0,031
-258,409	-9,352	-0,090	-0,043
-257,395	800,000	0,043	-0,131
-256,380	39,651	-0,014	-0,009
-255,365	-120,694	0,074	0,009
-254,351	24,495	0,054	-0,032
-253,336	800,000	0,022	0,069
-252,322	278,142	-0,017	-0,022
-251,307	-200,000	-0,006	-0,095
-250,292	387,045	-0,050	-0,074
-249,278	-53,480	0,157	-0,051
-248,263	-200,000	0,009	0,175
-247,249	-75,329	-0,088	-0,022
-246,234	-100,982	-0,135	-0,023
-245,219	150,229	-0,053	-0,051
-244,205	47,050	-0,122	0,081
-243,190	-40,015	0,149	-0,055
-242,176	323,744	-0,051	0,070
-241,161	-144,724	0,081	0,005
-240,146	-83,343	-0,033	-0,008
-239,132	-9,957	-0,040	0,019
-238,117	-200,000	-0,010	-0,096
-237,103	800,000	-0,039	0,090
-236,088	-200,000	0,007	0,057
-235,073	-200,000	0,017	-0,073
-234,059	-28,089	0,046	0,019
-233,044	49,434	-0,040	-0,027
-232,030	283,972	-0,030	0,038
-231,015	-200,000	0,008	-0,055
-230,000	-30,014	-0,103	-0,042
-228,986	-119,390	-0,050	0,006
-227,971	-200,000	-0,000	0,025
-226,957	72,119	0,035	-0,026
-225,942	237,887	0,068	0,080
-224,927	242,081	-0,003	0,004
-223,913	8,038	-0,010	-0,005
-222,898	248,819	-0,134	-0,163
-221,884	800,000	0,058	-0,177
-220,869	-200,000	0,013	-0,046
-219,855	187,968	0,066	0,070
-218,840	800,000	-0,032	0,094
-217,825	153,621	0,204	0,199
-216,811	555,780	-0,037	-0,064
-215,796	-126,781	-0,131	0,014
-214,782	-140,900	0,190	0,014
-213,767	330,811	0,081	0,111
-212,752	800,000	-0,042	0,101
-211,738	52,944	0,081	0,055
-210,723	209,184	-0,041	-0,046
-209,709	-163,710	-0,073	-0,002
-208,694	263,644	0,060	0,075
-207,679	486,755	0,056	0,091
-206,665	355,342	0,066	-0,094
-205,650	70,089	0,077	0,057
-204,636	-200,000	0,001	0,041
-203,621	269,627	-0,074	0,093
-202,606	-136,820	-0,144	-0,012
-201,592	167,545	0,072	-0,073
-200,577	-107,108	-0,089	-0,014
-199,563	413,110	-0,044	-0,067
-198,548	800,000	0,044	0,112
-197,533	205,435	0,083	0,092
-196,519	752,129	0,056	-0,109
-195,504	-200,000	0,019	0,100
-194,490	-18,313	-0,035	-0,016
-193,475	-200,000	-0,022	-0,147
-192,460	-69,734	0,049	-0,013
-191,446	164,923	-0,064	0,065
-190,431	-200,000	-0,044	0,209
-189,417	800,000	-0,012	0,032
-188,402	74,570	0,018	-0,013
-187,387	180,919	-0,080	-0,084
-186,373	-200,000	0,002	-0,112
-185,358	788,437	-0,065	0,127
-184,344	125,819	-0,007	0,007
-183,329	-170,561	0,095	-0,002
-182,315	800,000	-0,007	-0,020
-181,300	800,000	-0,053	-0,163
-180,285	-200,000	-0,012	-0,054
-179,271	-200,000	-0,014	-0,124
-178,256	17,612	0,141	0,080
-177,242	-200,000	-0,017	0,153
-176,227	24,296	-0,007	-0,004
-175,212	-5,584	0,092	0,045
-174,198	108,513	-0,082	0,069
-173,183	193,516	-0,055	0,059
-172,169	663,839	0,024	-0,044
-171,154	44,776	0,027	0,018
-170,139	182,600	0,122	0,128
-169,125	55,301	0,096	0,066
-168,110	265,997	-0,045	0,056
-167,096	-200,000	0,006	0,136
-166,081	164,235	-0,086	-0,086
-165,066	522,146	-0,036	-0,061
-164,052	-96,039	-0,075	0,014
-163,037	800,000	-0,032	-0,079
-162,023	142,310	0,116	0,110
-161,008	-91,772	-0,158	0,032
-159,993	-144,392	-0,138	0,009
-158,979	-200,000	-0,009	0,054
-157,964	-51,989	-0,118	0,039
-156,950	-85,778	-0,136	-0,030
-155,935	-200,000	-0,025	0,139
-154,920	345,906	0,044	0,062
-153,906	-41,063	-0,084	0,031
-152,891	800,000	0,043	-0,092
-151,877	-112,731	-0,064	0,009
-150,862	354,536	0,038	-0,054
-149,847	309,953	-0,024	0,032
-148,833	-200,000	0,015	0,092
-147,818	-200,000	-0,024	0,131
-146,804	10,852	0,129	-0,070
-145,789	-49,223	0,122	-0,041
-144,775	211,808	0,018	0,020
-143,760	-200,000	0,007	0,030
-142,745	-200,000	0,004	-0,070
-141,731	33,360	0,062	-0,038
-140,716	-169,075	0,155	-0,004
-139,702	57,891	-0,038	0,027
-138,687	-151,986	-0,016	0,001
-137,672	19,901	-0,141	-0,081
-136,658	-200,000	0,005	0,039
-135,643	-134,271	0,127	0,011
-134,629	-30,136	0,082	0,033
-133,614	-200,000	-0,002	-0,009
-132,599	800,000	0,009	0,021
-131,585	-200,000	0,000	-0,081
-130,570	800,000	-0,028	0,060
-129,556	114,355	-0,059	-0,051
-128,541	-200,000	-0,017	-0,131
-127,526	-200,000	0,025	-0,125
-126,512	-46,274	0,120	-0,042
-125,497	-200,000	-0,003	0,057
-124,483	165,718	0,049	0,050
-123,468	800,000	0,046	0,105
-122,453	-200,000	0,007	0,068
-121,439	-200,000	-0,004	0,030
-120,424	63,167	-0,051	0,036
-119,410	-30,369	0,145	0,058
-118,395	-200,000	0,009	-0,108
-117,380	800,000	-0,017	-0,041
-116,366	-200,000	0,011	0,115
-115,351	800,000	-0,060	0,141
-114,337	508,092	-0,024	-0,040
-113,322	-200,000	0,019	-0,083
-112,307	-200,000	0,003	0,052
-111,293	-46,437	0,190	-0,066
-110,278	800,000	-0,050	0,129
-109,264	-200,000	-0,015	0,058
-108,249	196,114	-0,062	0,067
-107,234	800,000	-0,090	-0,189
-106,220	432,252	-0,052	0,080
-105,205	82,445	0,068	0,052
-104,191	-62,359	-0,064	-0,019
-103,176	551,354	-0,040	-0,069
-102,162	100,021	-0,037	-0,031
-101,147	236,307	0,086	0,101
-100,132	-200,000	-0,017	-0,074
-99,118	-9,705	0,043	-0,020
-98,103	29,910	0,072	0,043
-97,089	800,000	0,028	-0,077
-96,074	634,583	-0,017	-0,030
-95,059	800,000	0,019	0,052
-94,045	267,037	0,024	-0,030
-93,030	-200,000	-0,022	0,119
-92,016	-106,875	0,032	0,005
-91,001	120,796	0,045	0,040
-89,986	800,000	0,057	0,177
-88,972	458,349	-0,070	0,110
-87,957	-51,964	-0,121	-0,040
-86,943	87,460	-0,081	-0,064
-85,928	173,399	-0,017	-0,018
-84,913	57,747	-0,024	0,016
-83,899	49,900	0,015	0,010
-82,884	-159,035	0,177	-0,007
-81,870	148,981	-0,065	0,062
-80,855	800,000	-0,031	0,070
-79,840	73,861	-0,036	0,027
-78,826	-106,852	-0,208	-0,032
-77,811	362,352	-0,082	-0,117
-76,797	270,345	0,098	-0,123
-75,782	-146,345	0,164	0,010
-74,767	-150,578	0,015	0,001
-73,753	397,380	0,047	-0,070
-72,738	437,128	-0,043	-0,066
-71,724	84,507	-0,016	0,013
-70,709	354,149	-0,029	0,041
-69,694	-87,231	0,060	-0,013
-68,680	17,570	-0,012	0,007
-67,665	54,621	0,124	0,085
-66,651	-29,187	-0,072	-0,029
-65,636	32,380	0,147	0,090
-64,622	-200,000	0,012	0,113
-63,607	65,048	0,036	0,026
-62,592	-200,000	-0,005	-0,117
-61,578	427,080	0,060	0,093
-60,563	-29,707	-0,126	-0,051
-59,549	-200,000	-0,021	0,112
-58,534	-80,667	-1,315	-0,308
-57,519	368,653	-1,623	-2,335
-56,505	-200,000	-0,333	-4,476
-55,490	54,732	0,846	0,578
-54,476	800,000	4,810	11,245
-53,461	-200,000	17,417	274,380
-52,446	800,000	717,483	2199,516
-51,432	556,068	1632,095	2798,525
-50,417	81,179	1656,785	1267,738
-49,403	24,082	1530,989	893,686
-48,388	18,089	1454,206	819,998
-47,373	18,392	1443,714	815,499
-46,359	18,060	1434,558	808,715
-45,344	16,437	1429,586	798,174
-44,330	16,290	1427,814	796,458
-43,315	16,318	1426,304	795,714
-42,300	16,324	1424,565	794,741
-41,286	16,362	1423,327	794,198
-40,271	16,348	1422,015	793,369
-39,257	16,331	1420,671	792,507
-38,242	16,415	1419,196	792,050
-37,227	16,351	1418,345	791,241
-36,213	16,355	1416,814	790,375
-35,198	16,327	1415,862	789,681
-34,184	16,371	1414,657	789,186
-33,169	16,323	1413,446	788,251
-32,154	16,329	1412,589	787,774
-31,140	16,364	1411,141	787,099
-30,125	16,451	1409,924	786,794
-29,111	16,361	1409,140	785,906
-28,096	16,352	1408,014	785,201
-27,082	16,296	1406,757	784,208
-26,067	16,296	1405,705	783,592
-25,052	16,338	1404,439	783,051
-24,038	16,249	1403,696	782,192
-23,023	16,247	1402,604	781,542
-22,009	16,244	1401,681	780,981
-20,994	16,194	1400,730	780,187
-19,979	16,204	1399,838	779,709
-18,965	16,180	1398,905	779,045
-17,950	16,163	1397,711	778,271
-16,936	16,201	1396,861	777,942
-15,921	16,223	1395,246	777,112
-14,906	16,205	1394,628	776,654
-13,892	16,234	1393,505	776,135
-12,877	16,162	1392,927	775,448
-11,863	16,161	1391,950	774,868
-10,848	16,154	1391,057	774,307
-9,833	16,149	1390,185	773,769
-8,819	16,145	1389,090	773,109
-7,804	16,100	1388,188	772,369
-6,790	16,092	1387,130	771,716
-5,775	16,086	1386,072	771,067
-4,760	16,075	1385,291	770,553
-3,746	16,085	1384,496	770,124
-2,731	16,054	1383,641	769,476
-1,717	16,065	1382,651	768,946
-0,702	16,094	1380,893	768,073
0,313	19,897	1302,629	742,072
1,327	36,472	707,891	441,730
2,342	56,468	125,707	86,494
3,356	6,320	16,539	8,671
4,371	6,716	3,104	1,631
5,386	-24,578	0,512	0,215
6,400	-200,000	-0,025	0,100
7,415	105,545	-0,297	-0,248
8,429	199,468	-0,249	-0,271
9,444	136,321	-0,249	-0,230
10,459	40,555	-0,337	-0,215
11,473	-116,099	-0,223	-0,029
12,488	-41,365	-0,174	-0,063
13,502	-118,536	-0,199	0,025
14,517	56,691	-0,255	-0,175
15,531	75,534	-0,347	-0,259
16,546	46,541	-0,304	-0,199
17,561	183,732	-0,408	-0,428
18,575	44,248	-0,292	-0,189
19,590	307,746	-0,122	-0,161
20,604	-23,960	-0,247	-0,104
21,619	89,965	-0,407	-0,321
22,634	10,938	-0,503	-0,271
23,648	38,176	-0,530	-0,333
24,663	96,714	-0,493	-0,399
25,677	178,170	-0,332	-0,343
26,692	50,536	-0,325	-0,217
27,707	81,806	-0,367	-0,281
28,721	13,107	-0,426	-0,233
29,736	169,556	-0,411	-0,415
30,750	102,440	-0,463	-0,382
31,765	-27,795	-0,363	-0,148
32,780	10,326	-0,384	-0,206
33,794	64,734	-0,334	-0,238
34,809	85,934	-0,380	-0,296
35,823	80,244	-0,311	-0,236
36,838	76,642	-0,444	-0,332
37,853	107,093	-0,393	-0,330
38,867	100,551	-0,286	-0,235
39,882	210,472	-0,354	-0,394
40,896	59,025	-0,451	-0,313
41,911	42,262	-0,405	-0,259
42,926	78,520	-0,309	-0,233
43,940	-1,496	-0,362	-0,180
44,955	275,774	-0,277	-0,348
45,969	38,337	-0,294	-0,185
46,984	165,197	-0,282	-0,282
47,999	93,601	-0,213	-0,170
49,013	-88,500	-0,347	-0,072
50,028	149,086	-0,289	-0,276
51,042	164,167	-0,341	-0,339
52,057	46,089	-0,401	-0,261
53,071	150,604	-0,317	-0,304
54,086	-18,477	-0,401	-0,176
55,101	32,134	-0,419	-0,254
56,115	78,608	-0,334	-0,252
57,130	120,124	-0,393	-0,343
58,144	157,436	-0,215	-0,210
59,159	-28,340	-0,451	-0,183
60,174	70,109	-0,352	-0,256
61,188	-3,644	-0,302	-0,147
62,203	46,405	-0,398	-0,260
63,217	-1,728	-0,322	-0,159
64,232	105,114	-0,329	-0,274
65,247	616,922	-0,247	-0,439
66,261	12,181	-0,383	-0,207
67,276	175,139	-0,330	-0,337
68,290	5,324	-0,487	-0,252
69,305	5,227	-0,346	-0,179
70,320	47,722	-0,295	-0,193
71,334	67,712	-0,319	-0,229
72,349	73,611	-0,398	-0,294
73,363	151,506	-0,343	-0,329
74,378	39,649	-0,393	-0,247
75,393	16,080	-0,283	-0,157
76,407	91,816	-0,292	-0,231
77,422	48,858	-0,352	-0,232
78,436	91,844	-0,234	-0,185
79,451	8,102	-0,425	-0,224
80,466	215,722	-0,261	-0,292
81,480	128,759	-0,361	-0,324
82,495	93,494	-0,294	-0,234
83,509	136,790	-0,265	-0,244
84,524	217,321	-0,210	-0,235
85,539	11,456	-0,292	-0,157
86,553	77,927	-0,272	-0,204
87,568	92,819	-0,418	-0,332
88,582	202,066	-0,298	-0,324
89,597	87,964	-0,313	-0,244
90,611	-99,041	-0,173	-0,031
91,626	238,505	-0,118	-0,138
92,641	63,673	-0,250	-0,177
93,655	147,704	-0,206	-0,195
94,670	301,648	-0,190	-0,247
95,684	67,320	-0,316	-0,226
96,699	-21,709	-0,287	-0,122
97,714	-20,354	-0,238	-0,102
98,728	168,437	-0,326	-0,326
99,743	183,900	-0,289	-0,301
100,757	78,667	-0,257	-0,193
101,772	74,753	-0,329	-0,243
102,787	62,133	-0,303	-0,212
103,801	104,060	-0,235	-0,194
104,816	130,618	-0,130	-0,117
105,830	134,577	-0,258	-0,235
106,845	59,615	-0,170	-0,118
107,860	-9,323	-0,217	-0,101
108,874	144,195	-0,298	-0,279
109,889	-26,845	-0,278	-0,114
110,903	274,373	-0,127	-0,158
111,918	152,827	-0,188	-0,180
112,933	-36,388	-0,251	-0,095
113,947	62,734	-0,214	-0,150
114,962	9,295	-0,360	-0,190
115,976	117,604	-0,241	-0,208
116,991	-101,475	-0,361	-0,061
118,006	319,117	-0,181	-0,241
119,020	72,646	-0,297	-0,217
120,035	-42,688	-0,284	-0,101
121,049	-2,003	-0,261	-0,128
122,064	10,920	-0,221	-0,118
123,079	19,289	-0,300	-0,168
124,093	79,935	-0,366	-0,276
125,108	163,623	-0,188	-0,185
126,122	112,461	-0,336	-0,285
127,137	-5,300	-0,319	-0,153
128,151	800,000	-0,117	-0,250
129,166	369,377	-0,091	-0,129
130,181	-20,949	-0,309	-0,132
131,195	-16,531	-0,353	-0,156
132,210	219,416	-0,223	-0,250
133,224	-36,817	-0,283	-0,106
134,239	134,892	-0,235	-0,214
135,254	-101,785	-0,304	-0,051
136,268	4,956	-0,211	-0,108
137,283	58,472	-0,314	-0,215
138,297	197,294	-0,199	-0,213
139,312	70,509	-0,318	-0,230
140,327	384,947	-0,225	-0,326
141,341	170,201	-0,259	-0,260
142,356	40,260	-0,171	-0,108
143,370	-17,613	-0,306	-0,134
144,385	46,134	-0,319	-0,207
145,400	84,657	-0,274	-0,210
146,414	90,750	-0,252	-0,197
147,429	160,104	-0,188	-0,183
148,443	113,042	-0,202	-0,171
149,458	15,354	-0,244	-0,133
150,473	-86,462	-0,343	-0,073
151,487	36,096	-0,295	-0,181
152,502	364,504	-0,260	-0,367
153,516	247,784	-0,182	-0,215
154,531	210,833	-0,276	-0,304
155,546	-103,024	-0,220	-0,036
156,560	165,863	-0,209	-0,207
157,575	800,000	-0,034	-0,098
158,589	245,711	-0,178	-0,210
159,604	11,497	-0,338	-0,180
160,619	31,064	-0,294	-0,176
161,633	-16,888	-0,325	-0,143
162,648	101,829	-0,281	-0,229
163,662	80,038	-0,190	-0,143
164,677	471,665	-0,132	-0,209
165,692	373,083	-0,136	-0,194
166,706	11,995	-0,285	-0,152
167,721	175,460	-0,189	-0,192
168,735	90,067	-0,319	-0,249
169,750	77,107	-0,162	-0,120
170,764	369,391	-0,157	-0,223
171,779	132,821	-0,114	-0,103
172,794	544,976	-0,135	-0,226
173,808	66,840	-0,238	-0,169
174,823	106,414	-0,229	-0,189
175,837	256,132	-0,235	-0,283
176,852	230,837	-0,195	-0,224
177,867	-92,967	-0,240	-0,046
178,881	64,262	-0,282	-0,198
179,896	393,480	-0,210	-0,306
180,910	386,668	-0,195	-0,282
181,925	228,620	-0,130	-0,148
182,940	118,457	-0,213	-0,183
183,954	224,684	-0,194	-0,219
184,969	-14,241	-0,247	-0,111
185,983	-200,000	-0,065	-0,209
186,998	266,080	-0,236	-0,288
188,013	-11,667	-0,377	-0,172
189,027	139,829	-0,136	-0,125
190,042	-90,895	-0,187	0,037
191,056	41,800	-0,325	-0,205
192,071	297,443	-0,154	-0,198
193,086	120,836	-0,148	-0,128
194,100	60,758	-0,319	-0,220
195,115	-50,699	-0,198	-0,065
196,129	197,052	-0,255	-0,271
197,144	-57,358	-0,250	-0,076
198,159	599,778	-0,090	-0,157
199,173	107,164	-0,118	-0,098
200,188	-138,048	-0,203	-0,015
201,202	-106,403	-0,189	0,029
202,217	-15,463	-0,208	-0,092
203,232	73,682	-0,269	-0,196
204,246	44,295	-0,217	-0,138
205,261	-44,687	-0,237	-0,082
206,275	53,873	-0,184	-0,123
207,290	-93,350	-0,148	-0,028
208,304	88,133	-0,158	-0,122
209,319	646,116	-0,134	-0,240
210,334	293,840	-0,215	-0,274
211,348	56,578	-0,235	-0,159
212,363	2,208	-0,225	-0,113
213,377	800,000	-0,109	-0,212
214,392	334,731	-0,157	-0,212
215,407	232,716	-0,116	-0,133
216,421	387,101	-0,096	-0,138
217,436	157,841	-0,251	-0,242
218,450	-13,478	-0,304	-0,137
219,465	800,000	-0,134	-0,260
220,480	402,426	-0,080	-0,117
221,494	601,169	-0,085	-0,148
222,509	-123,554	-0,250	-0,027
223,523	478,659	-0,116	-0,184
224,538	-99,567	-0,309	-0,053
225,553	187,574	-0,222	-0,230
226,567	23,612	-0,293	-0,167
227,582	240,300	-0,204	-0,237
228,596	-118,915	-0,090	0,011
229,611	99,661	-0,098	-0,078
230,626	-200,000	-0,054	-0,179
231,640	800,000	-0,091	-0,230
232,655	-46,921	-0,175	-0,059
233,669	52,404	-0,257	-0,170
234,684	55,624	-0,205	-0,138
235,699	119,535	-0,156	-0,134
236,713	-92,753	-0,205	-0,040
237,728	21,142	-0,160	-0,090
238,742	389,898	-0,107	-0,155
239,757	27,113	-0,244	-0,142
240,772	28,978	-0,251	-0,147
241,786	800,000	-0,134	-0,269
242,801	-29,230	-0,208	-0,082
243,815	-159,075	-0,187	-0,007
244,830	264,018	-0,111	-0,134
245,844	800,000	-0,082	-0,163
246,859	-50,878	-0,121	-0,039
247,874	390,941	-0,171	-0,247
248,888	209,611	-0,141	-0,154
249,903	69,329	-0,289	-0,206
250,917	-169,241	-0,274	0,007
251,932	232,374	-0,115	-0,131
252,947	-129,739	-0,107	-0,010
253,961	260,333	-0,162	-0,194
254,976	53,101	-0,241	-0,160
255,990	86,528	-0,220	-0,168
257,005	-4,053	-0,320	-0,153
258,020	-34,526	-0,210	-0,079
259,034	-34,494	-0,209	-0,079
260,049	-66,392	-0,231	-0,063
261,063	-65,059	-0,235	-0,065
262,078	115,632	-0,228	-0,193
263,093	40,476	-0,189	-0,118
264,107	57,716	-0,111	-0,075
265,122	202,857	-0,147	-0,157
266,136	800,000	-0,113	-0,236
267,151	-136,809	-0,056	0,004
268,166	29,459	-0,130	-0,076
269,180	44,545	-0,162	-0,103
270,195	46,409	-0,305	-0,196
271,209	-34,443	-0,261	-0,099
272,224	239,162	-0,102	-0,117
273,239	800,000	-0,069	-0,139
274,253	-106,395	-0,169	0,026
275,268	-35,662	-0,176	-0,066
276,282	250,625	-0,173	-0,203
277,297	70,004	-0,193	-0,138
278,312	497,266	-0,162	-0,258
279,326	-81,201	-0,104	0,024
280,341	283,714	-0,096	-0,120
281,355	-10,449	-0,137	0,063
282,370	21,142	-0,172	-0,096
283,384	-200,000	-0,020	-0,179
284,399	103,343	-0,232	-0,188
285,414	137,323	-0,072	-0,065
286,428	800,000	-0,079	-0,230
287,443	-10,264	-0,174	-0,080
288,457	-53,728	-0,123	-0,039
289,472	-97,844	-0,144	-0,025
290,487	48,804	-0,147	-0,095
291,501	-17,494	-0,257	-0,111
292,516	-63,580	-0,223	-0,063
293,530	-31,585	-0,199	-0,077
294,545	-162,441	-0,166	-0,006
295,560	139,397	-0,071	-0,064
296,574	291,423	-0,134	-0,169
297,589	151,025	-0,213	-0,201
298,603	-20,833	-0,148	-0,062
299,618	170,541	-0,194	-0,192
300,633	237,928	-0,184	-0,211
301,647	-200,000	0,009	0,058
302,662	-21,097	-0,105	-0,044
303,676	-75,364	-0,224	-0,055
304,691	-200,000	-0,024	-0,124
305,706	800,000	-0,067	-0,143
306,720	82,166	-0,122	-0,091
307,735	-200,000	-0,007	-0,151
308,749	302,301	-0,027	-0,035
309,764	-102,071	-0,200	-0,033
310,779	-78,951	-0,142	-0,033
311,793	12,873	-0,298	-0,158
312,808	47,467	-0,208	-0,133
313,822	104,038	-0,178	-0,144
314,837	250,610	-0,087	-0,103
315,852	38,823	-0,200	-0,123
316,866	-113,121	-0,098	-0,013
317,881	-150,996	-0,073	0,004
318,895	52,423	-0,032	-0,021
319,910	800,000	-0,053	-0,108
320,925	203,122	-0,153	-0,163
321,939	67,367	-0,135	-0,095
322,954	77,462	-0,139	-0,102
323,968	-117,597	-0,175	0,021
324,983	47,639	-0,148	-0,095
325,997	348,484	-0,168	-0,229
327,012	62,868	-0,113	-0,078
328,027	-10,653	-0,166	-0,075
329,041	-68,366	-0,219	-0,058
330,056	655,520	-0,061	-0,109
331,070	-11,148	-0,214	-0,097
332,085	800,000	-0,080	-0,197
333,100	-51,997	-0,189	-0,060
334,114	130,089	-0,125	-0,110
335,129	-77,229	-0,191	-0,045
336,143	-144,941	-0,153	0,009
337,158	-38,778	-0,100	-0,036
338,173	714,959	-0,118	-0,217
339,187	800,000	-0,043	-0,096
340,202	-181,879	-0,141	0,002
341,216	-119,322	-0,169	-0,020
342,231	-200,000	-0,016	-0,148
343,246	-44,254	-0,050	-0,017
344,260	57,204	-0,200	-0,134
345,275	11,121	-0,135	-0,071
346,289	-200,000	-0,027	-0,135
347,304	800,000	-0,101	-0,212
348,319	60,693	-0,030	-0,020
349,333	57,412	-0,218	-0,146
350,348	-200,000	-0,071	-0,229
351,362	-161,131	-0,180	-0,006
352,377	-200,000	-0,020	-0,085
353,392	209,869	-0,087	-0,094
354,406	-56,867	-0,202	0,061
355,421	210,544	1312,457	1418,189
356,435	162,085	1472,963	1418,727
