DTS Sentinel unit serial number:	SN410029Multiplexer serial number:	ORYXHardware model number:	OX2-SRSoftware version number:	ORYX F/W v4,00 Oryx Data Collector v3.7.2.0data status	okinstallation	B3 Nyhavnadifferential loss correction	single-endedforward channel	channel 1reverse channel	N/Adate	2023/11/30time	21:22:30forward acquisition time	300,00reverse acquisition time	0,00gamma	499,1914k internal	0,3209k external	0,3209temperature offset calibration	1,0000default loss term (dB/km)	0,3820temperature slope calibration	1,0000multiplexer offset coefficient	1,0000multiplexer slope coefficient	1,0000fibre end	0,00T internal ref (°C)	10,66T ext. ref 1 (°C)	-4,73T ext. ref 2 (°C)	-4,85length (m)	temperature (°C)	Stokes	anti-Stokes-744,400	63,706	-0,173	-0,126
-743,385	-200,000	-0,090	0,322
-742,371	3,741	-0,215	-0,114
-741,356	-200,000	-0,036	0,362
-740,342	-140,108	-0,253	-0,019
-739,327	-200,000	0,010	0,394
-738,312	754,086	-0,119	-0,235
-737,298	-200,000	0,052	0,326
-736,283	238,414	-0,223	-0,269
-735,269	-200,000	0,114	0,405
-734,254	48,094	-0,197	-0,133
-733,239	-98,018	-0,186	0,034
-732,225	800,000	-0,089	-0,185
-731,210	-200,000	0,004	0,144
-730,196	146,853	-0,049	-0,048
-729,181	-200,000	0,027	-0,115
-728,167	272,709	-0,051	0,065
-727,152	323,535	0,026	0,037
-726,137	76,411	-0,212	-0,163
-725,123	4,400	-0,136	-0,072
-724,108	274,677	-0,079	-0,101
-723,094	-2,019	-0,168	-0,085
-722,079	184,427	-0,110	-0,119
-721,064	-200,000	0,013	-0,072
-720,050	-97,774	-0,015	-0,003
-719,035	-200,000	-0,019	0,089
-718,021	-81,654	-0,051	0,012
-717,006	605,365	0,025	-0,046
-715,991	800,000	-0,028	0,089
-714,977	282,972	0,076	-0,099
-713,962	-102,248	0,063	0,011
-712,948	43,435	0,095	-0,063
-711,933	338,583	0,008	0,011
-710,918	-14,016	-0,030	-0,014
-709,904	-33,144	-0,063	-0,025
-708,889	223,162	-0,082	-0,096
-707,875	32,597	-0,112	-0,070
-706,860	-86,896	0,112	-0,024
-705,845	59,052	-0,101	-0,072
-704,831	800,000	-0,034	-0,095
-703,816	123,753	0,019	0,017
-702,802	-200,000	-0,014	0,050
-701,787	49,039	-0,102	-0,069
-700,772	-96,753	-0,095	0,018
-699,758	-128,837	-0,105	0,011
-698,743	324,373	0,036	0,050
-697,729	481,674	0,057	0,095
-696,714	597,303	0,040	0,071
-695,699	-66,566	-0,111	0,032
-694,685	800,000	-0,028	-0,064
-693,670	642,952	-0,068	-0,126
-692,656	7,417	0,049	-0,027
-691,641	181,576	-0,053	-0,057
-690,627	800,000	0,056	0,155
-689,612	231,692	0,023	0,027
-688,597	70,338	0,055	0,041
-687,583	-57,735	-0,187	0,059
-686,568	286,089	0,028	0,037
-685,554	218,238	-0,070	0,081
-684,539	329,679	0,057	-0,080
-683,524	-143,725	-0,139	0,009
-682,510	78,063	0,073	0,056
-681,495	295,663	0,068	-0,091
-680,481	232,751	-0,037	-0,044
-679,466	76,585	-0,189	-0,145
-678,451	340,056	0,071	-0,100
-677,437	-50,591	-0,097	0,033
-676,422	85,760	-0,020	0,016
-675,408	-124,393	0,092	0,010
-674,393	-200,000	0,005	-0,208
-673,378	169,713	-0,092	-0,096
-672,364	-122,426	-0,037	0,004
-671,349	-200,000	-0,000	-0,114
-670,335	492,702	0,084	0,140
-669,320	800,000	0,079	-0,171
-668,305	-200,000	0,008	0,085
-667,291	-36,912	0,036	0,014
-666,276	-103,482	-0,063	-0,011
-665,262	-33,953	-0,160	0,063
-664,247	-38,927	-0,080	0,030
-663,232	90,440	-0,058	-0,047
-662,218	6,499	0,057	-0,031
-661,203	800,000	-0,046	0,096
-660,189	166,612	0,117	0,120
-659,174	-200,000	-0,000	-0,075
-658,159	800,000	0,024	-0,057
-657,145	-176,165	-0,117	0,002
-656,130	-29,006	0,025	-0,011
-655,116	-200,000	0,037	0,132
-654,101	782,813	-0,025	-0,049
-653,086	1,910	-0,034	-0,018
-652,072	-79,225	-0,037	0,009
-651,057	-1,443	0,159	-0,081
-650,043	-200,000	-0,005	-0,024
-649,028	-77,777	-0,042	0,010
-648,014	-200,000	-0,002	-0,111
-646,999	400,931	0,051	-0,077
-645,984	800,000	0,056	-0,154
-644,970	94,366	-0,050	0,041
-643,955	212,035	-0,044	-0,050
-642,941	-42,097	0,073	0,027
-641,926	-31,309	0,072	-0,029
-640,911	-200,000	0,049	0,168
-639,897	79,429	-0,059	0,045
-638,882	159,219	-0,094	-0,094
-637,868	147,318	-0,078	-0,076
-636,853	374,751	0,034	0,050
-635,838	-66,372	0,075	0,022
-634,824	-200,000	0,005	-0,084
-633,809	-124,054	-0,165	-0,019
-632,795	-120,338	0,038	0,005
-631,780	-134,428	0,022	0,002
-630,765	312,678	-0,086	-0,117
-629,751	-200,000	0,004	-0,162
-628,736	-62,114	-0,077	-0,023
-627,722	-200,000	0,005	-0,048
-626,707	-66,397	-0,086	-0,024
-625,692	417,078	0,023	-0,035
-624,678	280,421	0,033	0,042
-623,663	-6,122	-0,085	0,042
-622,649	463,843	0,048	0,078
-621,634	122,304	-0,081	-0,073
-620,619	-51,214	-0,080	-0,027
-619,605	168,284	0,069	-0,071
-618,590	-200,000	-0,042	0,164
-617,576	800,000	-0,012	-0,029
-616,561	-67,105	0,101	0,028
-615,546	121,545	-0,079	-0,071
-614,532	167,995	-0,019	-0,019
-613,517	-7,519	-0,114	0,055
-612,503	800,000	-0,084	-0,189
-611,488	278,715	0,066	0,085
-610,474	-200,000	0,021	-0,127
-609,459	-150,541	-0,102	0,006
-608,444	-63,287	0,104	-0,031
-607,430	-200,000	-0,012	-0,130
-606,415	-117,072	0,131	-0,017
-605,401	-200,000	0,002	0,144
-604,386	207,832	-0,049	-0,056
-603,371	-200,000	0,012	0,091
-602,357	-200,000	-0,046	-0,158
-601,342	-60,190	0,081	0,025
-600,328	-200,000	-0,042	-0,163
-599,313	49,961	-0,150	-0,102
-598,298	108,142	-0,046	-0,040
-597,284	-148,191	-0,062	-0,004
-596,269	265,008	0,064	-0,081
-595,255	-92,440	-0,046	0,009
-594,240	-31,842	-0,127	-0,051
-593,225	-200,000	-0,005	-0,121
-592,211	32,518	-0,168	-0,105
-591,196	800,000	0,025	-0,050
-590,182	353,663	0,045	0,065
-589,167	-62,189	0,181	0,054
-588,152	383,455	0,052	0,077
-587,138	392,808	-0,073	-0,110
-586,123	800,000	-0,050	-0,126
-585,109	-200,000	0,015	-0,057
-584,094	800,000	0,021	-0,047
-583,079	408,561	-0,050	-0,076
-582,065	800,000	0,014	0,032
-581,050	241,578	0,065	0,079
-580,036	-153,251	0,059	0,003
-579,021	-166,549	0,020	-0,001
-578,006	800,000	0,020	-0,044
-576,992	90,092	0,106	0,086
-575,977	29,261	0,166	0,101
-574,963	1,733	0,128	0,066
-573,948	441,976	-0,054	0,086
-572,934	281,714	0,036	0,046
-571,919	-200,000	0,034	-0,156
-570,904	-84,409	0,179	-0,040
-569,890	-134,959	-0,090	0,008
-568,875	800,000	-0,019	0,049
-567,861	128,460	0,124	0,113
-566,846	376,290	-0,117	0,172
-565,831	31,333	-0,090	-0,055
-564,817	292,785	0,062	-0,082
-563,802	800,000	-0,051	-0,151
-562,788	53,790	-0,052	-0,036
-561,773	-30,767	0,046	0,018
-560,758	-116,049	0,020	-0,003
-559,744	-130,164	-0,143	0,014
-558,729	99,610	0,133	-0,111
-557,715	443,777	0,046	0,073
-556,700	-27,356	-0,100	-0,042
-555,685	800,000	0,058	-0,116
-554,671	800,000	0,056	-0,134
-553,656	157,362	-0,070	0,070
-552,642	18,063	0,159	0,091
-551,627	395,365	-0,075	0,113
-550,612	306,492	0,084	-0,113
-549,598	258,080	-0,047	-0,059
-548,583	-200,000	0,008	0,063
-547,569	-200,000	-0,029	-0,124
-546,554	-200,000	-0,014	0,051
-545,539	-112,824	0,056	0,008
-544,525	-170,423	-0,050	0,001
-543,510	359,854	-0,036	0,053
-542,496	-72,675	-0,122	-0,032
-541,481	22,781	0,058	0,034
-540,466	-200,000	0,019	0,085
-539,452	800,000	0,038	0,097
-538,437	-200,000	0,010	0,049
-537,423	-153,408	0,156	0,008
-536,408	55,666	-0,079	-0,055
-535,393	70,639	0,083	-0,062
-534,379	800,000	0,033	-0,084
-533,364	262,799	0,052	0,064
-532,350	800,000	0,027	-0,058
-531,335	-200,000	0,014	-0,058
-530,321	-200,000	-0,007	0,073
-529,306	-136,154	-0,061	0,005
-528,291	59,701	0,118	-0,084
-527,277	-151,540	-0,081	0,004
-526,262	-70,661	0,015	-0,004
-525,248	-123,985	0,090	-0,010
-524,233	-35,943	-0,078	-0,030
-523,218	-22,274	-0,045	0,019
-522,204	-64,532	-0,041	-0,012
-521,189	29,334	0,107	-0,065
-520,175	-0,051	-0,114	-0,058
-519,160	168,908	0,105	-0,108
-518,145	-200,000	0,012	-0,094
-517,131	-96,246	0,066	-0,013
-516,116	-26,549	-0,049	-0,020
-515,102	-200,000	0,011	0,054
-514,087	149,116	0,080	0,078
-513,072	-154,004	-0,164	-0,008
-512,058	393,793	-0,066	-0,099
-511,043	-58,426	0,144	0,045
-510,029	8,591	-0,109	0,059
-509,014	-200,000	-0,005	0,078
-507,999	191,664	0,128	0,139
-506,985	800,000	-0,022	-0,066
-505,970	-61,870	-0,118	-0,035
-504,956	-68,708	-0,041	-0,011
-503,941	800,000	0,048	0,125
-502,926	-40,253	0,054	-0,020
-501,912	-89,685	0,154	0,032
-500,897	-200,000	-0,011	0,083
-499,883	-44,086	-0,144	0,052
-498,868	550,780	0,050	-0,087
-497,853	6,994	-0,127	0,068
-496,839	441,600	0,025	0,040
-495,824	-116,360	0,073	0,010
-494,810	199,328	-0,050	0,055
-493,795	94,233	-0,101	-0,082
-492,781	5,724	0,105	-0,056
-491,766	-171,617	-0,128	0,003
-490,751	800,000	-0,004	0,008
-489,737	20,235	-0,078	-0,045
-488,722	800,000	-0,015	0,033
-487,708	217,282	-0,046	0,053
-486,693	-28,850	-0,037	0,015
-485,678	182,098	-0,090	0,096
-484,664	-200,000	-0,013	-0,082
-483,649	404,548	0,050	0,076
-482,635	800,000	-0,022	0,053
-481,620	664,363	-0,025	-0,047
-480,605	302,020	-0,037	0,049
-479,591	84,878	-0,051	0,040
-478,576	-200,000	0,011	-0,039
-477,562	-110,597	-0,044	-0,006
-476,547	21,121	0,089	-0,052
-475,532	8,129	-0,093	-0,050
-474,518	-200,000	-0,011	-0,167
-473,503	-36,159	0,090	-0,035
-472,489	800,000	0,036	-0,072
-471,474	800,000	-0,025	0,066
-470,459	535,124	-0,011	-0,018
-469,445	73,849	0,037	0,028
-468,430	9,673	-0,145	0,079
-467,416	-76,622	0,073	0,018
-466,401	524,575	-0,098	0,166
-465,386	323,494	-0,067	-0,092
-464,372	566,484	0,057	-0,100
-463,357	201,388	0,112	-0,124
-462,343	-96,581	-0,116	0,022
-461,328	-200,000	-0,030	0,129
-460,313	708,228	0,056	0,106
-459,299	-200,000	0,063	0,212
-458,284	-200,000	-0,000	-0,032
-457,270	108,628	0,057	0,049
-456,255	-200,000	0,015	0,111
-455,241	-43,166	-0,089	0,032
-454,226	-200,000	-0,001	-0,103
-453,211	-200,000	0,005	-0,087
-452,197	-200,000	-0,023	0,119
-451,182	178,544	0,050	0,052
-450,168	167,914	-0,022	0,022
-449,153	-200,000	0,037	0,158
-448,138	-0,666	-0,021	-0,011
-447,124	-92,974	-0,144	-0,028
-446,109	479,945	0,015	-0,025
-445,095	-200,000	-0,022	-0,111
-444,080	-92,300	0,181	0,036
-443,065	-200,000	-0,027	0,118
-442,051	5,555	-0,048	-0,025
-441,036	171,315	-0,053	0,054
-440,022	-8,239	0,101	0,049
-439,007	20,447	-0,095	0,055
-437,992	800,000	0,072	0,200
-436,978	-12,902	0,105	0,049
-435,963	800,000	-0,026	0,082
-434,949	337,450	0,031	-0,043
-433,934	705,665	0,024	-0,046
-432,919	43,146	0,060	0,039
-431,905	-200,000	0,010	-0,035
-430,890	-108,592	-0,105	-0,016
-429,876	-109,398	0,068	-0,010
-428,861	56,988	-0,099	-0,069
-427,846	135,302	0,136	-0,126
-426,832	-114,333	0,088	-0,012
-425,817	385,913	-0,067	0,099
-424,803	-160,489	-0,093	0,004
-423,788	17,136	0,075	0,042
-422,773	-28,154	0,158	-0,065
-421,759	800,000	-0,057	0,141
-420,744	-200,000	-0,003	0,018
-419,730	-200,000	0,015	0,072
-418,715	278,384	-0,130	-0,166
-417,701	-169,369	0,146	-0,004
-416,686	-200,000	-0,014	0,147
-415,671	-200,000	-0,015	0,101
-414,657	-164,376	0,066	-0,002
-413,642	297,471	0,050	-0,067
-412,628	-200,000	0,018	-0,076
-411,613	-200,000	-0,036	-0,129
-410,598	87,788	-0,036	0,028
-409,584	800,000	0,036	-0,083
-408,569	510,760	-0,047	0,079
-407,555	160,556	0,144	0,144
-406,540	-200,000	0,026	-0,102
-405,525	493,826	-0,094	-0,155
-404,511	-200,000	-0,004	-0,106
-403,496	99,022	-0,105	-0,087
-402,482	800,000	-0,024	-0,049
-401,467	-137,889	-0,180	-0,014
-400,452	800,000	0,081	0,197
-399,438	31,753	0,026	-0,016
-398,423	-200,000	0,031	0,175
-397,409	800,000	0,036	-0,076
-396,394	-200,000	-0,002	0,172
-395,379	-63,450	-0,109	-0,032
-394,365	-38,333	0,202	-0,076
-393,350	32,834	0,091	-0,056
-392,336	-140,100	0,103	-0,008
-391,321	-55,427	-0,140	0,045
-390,306	122,789	-0,043	0,038
-389,292	-87,654	0,090	-0,019
-388,277	296,529	0,056	0,073
-387,263	468,095	0,011	0,017
-386,248	73,829	0,050	-0,037
-385,233	53,111	0,055	-0,037
-384,219	-175,225	-0,031	-0,001
-383,204	-200,000	-0,009	0,031
-382,190	-15,713	-0,155	-0,070
-381,175	-35,961	-0,037	0,014
-380,160	63,177	0,101	-0,072
-379,146	-167,632	0,096	-0,003
-378,131	800,000	-0,013	-0,032
-377,117	-74,112	0,093	0,024
-376,102	-200,000	0,018	-0,092
-375,088	-200,000	0,004	-0,076
-374,073	674,327	0,087	0,161
-373,058	-200,000	0,001	0,005
-372,044	800,000	-0,059	0,119
-371,029	-133,934	0,121	0,011
-370,015	-200,000	-0,004	-0,024
-369,000	93,837	-0,106	0,086
-367,985	800,000	0,022	-0,045
-366,971	312,755	0,017	-0,023
-365,956	-36,937	-0,101	0,038
-364,942	-148,166	0,190	0,011
-363,927	800,000	0,045	0,124
-362,912	800,000	0,045	0,117
-361,898	-200,000	-0,004	-0,125
-360,883	-200,000	-0,029	-0,154
-359,869	-200,000	-0,024	-0,082
-358,854	5,369	0,043	0,022
-357,839	314,647	0,117	0,158
-356,825	-57,368	0,155	0,049
-355,810	-105,477	0,152	0,024
-354,796	314,145	-0,101	0,136
-353,781	343,736	-0,015	-0,020
-352,766	-139,112	0,047	-0,004
-351,752	-137,097	0,042	-0,003
-350,737	800,000	0,055	0,114
-349,723	800,000	-0,016	0,039
-348,708	154,847	0,008	-0,008
-347,693	450,334	-0,024	0,039
-346,679	-200,000	-0,033	0,123
-345,664	-200,000	0,012	0,053
-344,650	178,569	0,037	0,038
-343,635	34,524	0,050	-0,031
-342,620	-151,308	0,068	0,004
-341,606	48,480	-0,049	-0,033
-340,591	715,609	0,043	-0,081
-339,577	-200,000	0,004	0,016
-338,562	390,181	-0,057	-0,085
-337,548	114,044	0,065	-0,057
-336,533	113,008	0,070	0,060
-335,518	82,459	0,101	0,078
-334,504	-200,000	-0,007	0,038
-333,489	23,975	-0,011	-0,006
-332,475	736,848	-0,010	-0,019
-331,460	-166,871	0,084	0,002
-330,445	486,856	-0,039	-0,064
-329,431	386,101	-0,091	0,135
-328,416	-200,000	-0,042	0,195
-327,402	-4,254	0,022	0,011
-326,387	466,543	0,091	0,146
-325,372	-31,798	-0,099	0,039
-324,358	113,760	-0,135	-0,117
-323,343	-200,000	0,014	-0,068
-322,329	768,063	0,037	0,073
-321,314	-166,094	-0,071	-0,002
-320,299	-35,790	-0,156	0,060
-319,285	130,087	-0,029	-0,027
-318,270	79,617	-0,019	0,015
-317,256	218,672	-0,109	-0,124
-316,241	-59,597	-0,132	-0,040
-315,226	237,123	-0,027	0,032
-314,212	55,233	-0,008	0,005
-313,197	-200,000	-0,010	0,144
-312,183	-115,558	-0,077	-0,010
-311,168	-10,343	0,078	0,037
-310,153	489,673	0,060	-0,099
-309,139	136,132	-0,032	-0,029
-308,124	18,212	-0,052	0,030
-307,110	-76,600	0,204	-0,051
-306,095	800,000	-0,014	-0,036
-305,080	-41,531	0,132	0,048
-304,066	292,044	0,058	0,076
-303,051	-200,000	-0,005	0,033
-302,037	-200,000	0,006	0,130
-301,022	499,063	-0,057	-0,094
-300,008	290,591	-0,029	0,038
-298,993	745,466	0,087	0,168
-297,978	477,565	0,025	0,041
-296,964	182,867	0,130	-0,137
-295,949	800,000	-0,051	-0,112
-294,935	-200,000	-0,014	-0,071
-293,920	-200,000	0,019	-0,076
-292,905	-200,000	-0,013	0,045
-291,891	112,273	0,014	-0,012
-290,876	242,769	0,038	0,045
-289,862	485,674	-0,091	-0,148
-288,847	800,000	-0,089	-0,192
-287,832	800,000	-0,038	-0,101
-286,818	34,078	0,049	-0,030
-285,803	89,322	0,067	-0,053
-284,789	800,000	-0,010	0,029
-283,774	156,638	0,042	0,041
-282,759	92,243	-0,067	-0,054
-281,745	25,707	-0,132	-0,078
-280,730	113,843	-0,061	-0,053
-279,716	-81,127	0,037	0,009
-278,701	-200,000	-0,011	-0,054
-277,686	105,672	0,101	0,085
-276,672	183,222	0,057	-0,061
-275,657	376,190	-0,035	-0,051
-274,643	800,000	-0,036	-0,096
-273,628	-200,000	-0,013	-0,050
-272,613	-200,000	0,013	0,077
-271,599	-200,000	0,004	0,087
-270,584	4,229	0,124	0,064
-269,570	129,044	0,032	0,029
-268,555	696,180	-0,029	-0,054
-267,540	800,000	-0,047	-0,137
-266,526	184,546	-0,064	0,068
-265,511	800,000	0,062	-0,136
-264,497	-53,804	0,037	0,012
-263,482	9,468	-0,146	0,079
-262,467	-200,000	-0,002	0,021
-261,453	263,535	-0,089	-0,110
-260,438	-140,273	-0,126	-0,009
-259,424	-98,679	-0,185	-0,033
-258,409	197,478	0,113	-0,123
-257,395	-200,000	-0,033	0,124
-256,380	-200,000	0,005	0,039
-255,365	800,000	0,021	0,045
-254,351	151,542	0,078	0,076
-253,336	28,525	-0,128	0,077
-252,322	800,000	-0,055	-0,124
-251,307	-97,166	-0,086	-0,016
-250,292	27,818	0,061	0,037
-249,278	38,122	0,175	0,111
-248,263	-200,000	0,023	0,091
-247,249	-200,000	-0,050	0,284
-246,234	-77,183	0,135	0,033
-245,219	12,776	-0,059	0,032
-244,205	-200,000	-0,007	-0,079
-243,190	79,917	-0,036	0,028
-242,176	-118,090	0,083	0,010
-241,161	-200,000	-0,016	-0,067
-240,146	-12,704	0,097	-0,045
-239,132	-30,614	-0,084	0,034
-238,117	-49,657	-0,062	0,021
-237,103	800,000	-0,052	-0,120
-236,088	105,451	-0,092	0,077
-235,073	751,899	0,051	0,098
-234,059	800,000	0,080	0,177
-233,044	-200,000	-0,010	0,096
-232,030	-125,053	-0,097	0,010
-231,015	114,662	-0,098	-0,085
-230,000	227,813	0,032	-0,037
-228,986	410,032	-0,026	-0,040
-227,971	31,558	0,065	0,039
-226,957	614,502	-0,066	0,118
-225,942	115,757	0,005	-0,005
-224,927	-24,589	-0,043	-0,018
-223,913	-114,500	-0,109	0,015
-222,898	800,000	-0,033	-0,098
-221,884	311,953	-0,024	0,032
-220,869	-86,436	-0,029	-0,006
-219,855	-200,000	-0,018	0,138
-218,840	800,000	-0,014	-0,033
-217,825	350,974	-0,105	-0,148
-216,811	800,000	-0,017	-0,051
-215,796	754,874	-0,066	-0,128
-214,782	-200,000	0,149	-0,000
-213,767	-200,000	0,019	-0,211
-212,752	321,466	0,070	-0,094
-211,738	-200,000	-0,009	0,034
-210,723	-200,000	0,004	0,037
-209,709	142,361	-0,083	0,079
-208,694	373,031	-0,042	0,060
-207,679	101,861	0,043	-0,036
-206,665	190,550	-0,018	0,019
-205,650	102,297	0,082	0,068
-204,636	513,429	-0,049	-0,082
-203,621	-8,474	-0,033	-0,016
-202,606	107,692	0,123	-0,104
-201,592	-150,218	-0,037	-0,002
-200,577	35,643	-0,080	0,050
-199,563	240,006	-0,096	0,114
-198,548	169,280	0,104	0,105
-197,533	141,896	0,079	0,075
-196,519	150,092	0,084	0,081
-195,504	480,960	0,028	-0,045
-194,490	-200,000	0,004	-0,059
-193,475	800,000	-0,054	-0,122
-192,460	64,081	0,019	0,013
-191,446	-114,496	0,125	0,017
-190,431	15,555	0,056	0,031
-189,417	800,000	0,032	0,069
-188,402	-200,000	-0,020	0,067
-187,387	-64,851	-0,047	-0,013
-186,373	191,400	-0,037	-0,039
-185,358	-200,000	0,034	-0,116
-184,344	-123,939	0,067	-0,007
-183,329	470,664	0,014	-0,022
-182,315	-86,264	-0,039	-0,008
-181,300	-200,000	0,001	0,030
-180,285	-200,000	0,014	-0,070
-179,271	191,245	-0,108	-0,116
-178,256	-200,000	0,041	0,146
-177,242	800,000	-0,021	-0,052
-176,227	41,643	0,050	0,032
-175,212	-73,126	0,103	0,027
-174,198	800,000	-0,032	-0,096
-173,183	-126,504	-0,158	-0,016
-172,169	-200,000	-0,023	-0,096
-171,154	800,000	0,015	-0,030
-170,139	-200,000	0,036	0,139
-169,125	-59,533	0,151	0,046
-168,110	520,259	-0,073	0,122
-167,096	11,706	-0,123	0,067
-166,081	-123,379	-0,161	0,018
-165,066	-200,000	0,038	-0,136
-164,052	497,610	-0,034	0,055
-163,037	281,632	-0,054	0,069
-162,023	85,214	0,088	-0,068
-161,008	800,000	0,044	0,118
-159,993	-2,754	0,072	0,036
-158,979	-9,632	-0,163	-0,077
-157,964	180,803	0,068	-0,071
-156,950	402,786	0,030	0,045
-155,935	-96,271	-0,148	-0,028
-154,920	13,058	-0,019	0,011
-153,906	-111,759	0,024	-0,003
-152,891	-200,000	0,000	0,103
-151,877	-131,214	-0,044	-0,004
-150,862	-92,812	-0,070	-0,014
-149,847	-200,000	0,002	0,017
-148,833	-200,000	-0,007	0,080
-147,818	-69,900	0,035	0,009
-146,804	233,046	-0,099	-0,116
-145,789	800,000	0,039	0,089
-144,775	-42,020	-0,036	-0,013
-143,760	9,042	-0,057	-0,031
-142,745	-200,000	-0,009	0,179
-141,731	-111,320	-0,019	0,003
-140,716	53,900	0,085	0,058
-139,702	-115,078	0,105	-0,014
-138,687	594,548	-0,037	-0,065
-137,672	106,675	0,087	-0,073
-136,658	-28,161	-0,122	-0,050
-135,643	-40,894	0,067	0,025
-134,629	-194,910	-0,052	-0,000
-133,614	197,325	0,029	0,031
-132,599	-35,202	0,129	-0,049
-131,585	-89,211	0,059	-0,012
-130,570	800,000	-0,012	0,032
-129,556	-200,000	-0,028	-0,135
-128,541	79,947	0,116	0,088
-127,526	-200,000	-0,001	-0,066
-126,512	-200,000	-0,012	-0,116
-125,497	-200,000	0,020	-0,085
-124,483	316,840	0,023	-0,031
-123,468	-82,263	-0,071	-0,016
-122,453	-127,249	-0,190	-0,019
-121,439	131,949	-0,043	0,039
-120,424	128,299	-0,041	-0,037
-119,410	9,927	-0,055	0,029
-118,395	-0,591	0,142	0,071
-117,380	800,000	0,035	0,087
-116,366	-200,000	0,014	0,054
-115,351	44,383	-0,043	0,028
-114,337	668,601	-0,039	0,071
-113,322	-145,056	-0,092	0,006
-112,307	-200,000	-0,003	0,081
-111,293	-127,351	0,036	-0,004
-110,278	-117,796	-0,186	0,023
-109,264	184,640	0,118	-0,124
-108,249	-80,024	-0,074	0,017
-107,234	59,635	0,090	0,063
-106,220	-200,000	-0,004	0,048
-105,205	-67,889	0,120	0,033
-104,191	800,000	0,050	0,136
-103,176	258,566	0,058	0,071
-102,162	800,000	-0,039	0,099
-101,147	-123,102	-0,145	0,016
-100,132	97,358	-0,061	-0,050
-99,118	-200,000	0,000	-0,151
-98,103	-113,278	0,108	0,015
-97,089	90,249	0,129	0,102
-96,074	63,605	0,101	-0,072
-95,059	37,153	-0,125	-0,078
-94,045	-17,986	-0,049	-0,022
-93,030	-200,000	0,019	-0,111
-92,016	1,048	-0,162	-0,082
-91,001	54,366	0,052	-0,035
-89,986	-200,000	-0,004	0,016
-88,972	-44,577	0,151	-0,053
-87,957	-111,252	-0,080	-0,011
-86,943	92,509	-0,115	0,092
-85,928	800,000	0,040	-0,083
-84,913	800,000	-0,002	0,005
-83,899	17,865	0,076	-0,043
-82,884	720,417	0,048	0,092
-81,870	215,587	0,070	0,079
-80,855	57,603	-0,033	-0,023
-79,840	732,102	-0,047	-0,089
-78,826	-84,259	0,054	0,012
-77,811	108,050	0,070	-0,059
-76,797	61,891	0,056	-0,040
-75,782	511,503	0,073	0,120
-74,767	41,257	0,071	0,045
-73,753	-200,000	-0,004	0,033
-72,738	-200,000	0,007	0,095
-71,724	-45,693	-0,100	0,035
-70,709	800,000	-0,033	-0,094
-69,694	-179,101	-0,073	0,001
-68,680	-39,185	0,023	-0,009
-67,665	-200,000	0,021	0,078
-66,651	-109,266	0,185	-0,027
-65,636	-64,916	0,071	0,020
-64,622	800,000	-0,031	-0,076
-63,607	223,629	0,022	0,026
-62,592	108,058	-0,068	-0,058
-61,578	-200,000	-0,030	0,177
-60,563	800,000	0,039	0,082
-59,549	226,523	0,106	0,122
-58,534	52,488	-1,909	-1,285
-57,519	485,615	-1,295	-2,092
-56,505	-200,000	-0,411	-4,345
-55,490	606,003	0,801	1,415
-54,476	800,000	5,192	11,731
-53,461	-200,000	21,113	339,972
-52,446	800,000	759,908	2346,445
-51,432	553,589	1664,028	2836,532
-50,417	73,625	1665,762	1231,048
-49,403	18,512	1539,164	866,552
-48,388	12,516	1462,281	794,187
-47,373	19,614	1452,919	823,218
-46,359	15,914	1442,554	799,669
-45,344	10,786	1438,357	772,826
-44,330	10,676	1436,488	771,264
-43,315	10,683	1434,677	770,297
-42,300	10,692	1432,893	769,349
-41,286	10,728	1431,464	768,723
-40,271	10,675	1430,274	767,802
-39,257	10,689	1429,146	767,234
-38,242	10,711	1427,952	766,668
-37,227	10,737	1426,994	766,247
-36,213	10,709	1425,509	765,286
-35,198	10,745	1424,381	764,821
-34,184	10,768	1423,632	764,497
-33,169	10,725	1422,251	763,522
-32,154	10,777	1421,219	763,182
-31,140	10,791	1419,695	762,400
-30,125	10,787	1418,967	761,958
-29,111	10,797	1417,744	761,319
-28,096	10,757	1416,599	760,485
-27,082	10,705	1415,340	759,535
-26,067	10,688	1414,294	758,862
-25,052	10,696	1413,518	758,454
-24,038	10,757	1412,266	758,039
-23,023	10,688	1411,540	757,294
-22,009	10,728	1410,059	756,659
-20,994	10,668	1409,281	755,929
-19,979	10,669	1408,337	755,399
-18,965	10,632	1407,437	754,713
-17,950	10,658	1406,341	754,215
-16,936	10,624	1405,755	753,714
-15,921	10,537	1404,727	752,725
-14,906	10,570	1403,793	752,349
-13,892	10,591	1402,792	751,879
-12,877	10,623	1401,896	751,519
-11,863	10,594	1401,114	750,937
-10,848	10,570	1400,263	750,336
-9,833	10,479	1399,498	749,477
-8,819	10,491	1398,617	749,031
-7,804	10,487	1397,681	748,479
-6,790	10,517	1396,602	748,014
-5,775	10,486	1395,549	747,273
-4,760	10,520	1394,534	746,860
-3,746	10,510	1393,825	746,405
-2,731	10,479	1392,894	745,730
-1,717	10,498	1392,064	745,346
-0,702	10,459	1390,169	744,120
0,313	14,435	1303,105	715,781
1,327	30,400	692,896	416,944
2,342	47,218	120,191	78,838
3,356	0,010	16,615	8,325
4,371	-3,813	3,680	1,796
5,386	22,760	0,912	0,526
6,400	-200,000	-0,010	0,479
7,415	-167,085	-0,355	0,010
8,429	-53,919	-0,181	-0,058
9,444	2,075	-0,352	-0,179
10,459	209,197	-0,207	-0,229
11,473	166,202	-0,195	-0,195
12,488	41,068	-0,360	-0,229
13,502	72,950	-0,336	-0,247
14,517	-15,945	-0,352	-0,157
15,531	181,560	-0,298	-0,309
16,546	-28,853	-0,464	-0,187
17,561	69,555	-0,428	-0,311
18,575	-120,178	-0,182	-0,022
19,590	-26,699	-0,178	-0,073
20,604	-52,576	-0,234	-0,076
21,619	56,093	-0,461	-0,315
22,634	7,708	-0,546	-0,287
23,648	293,375	-0,274	-0,353
24,663	14,447	-0,491	-0,269
25,677	127,997	-0,437	-0,391
26,692	-12,824	-0,399	-0,182
27,707	-2,438	-0,303	-0,149
28,721	95,511	-0,321	-0,258
29,736	84,281	-0,377	-0,290
30,750	8,452	-0,523	-0,276
31,765	-32,210	-0,438	-0,171
32,780	-48,195	-0,236	-0,080
33,794	365,984	-0,292	-0,415
34,809	16,740	-0,360	-0,200
35,823	-34,982	-0,396	-0,151
36,838	138,242	-0,418	-0,386
37,853	29,794	-0,357	-0,213
38,867	59,461	-0,369	-0,255
39,882	230,890	-0,292	-0,337
40,896	376,240	-0,253	-0,364
41,911	19,174	-0,355	-0,200
42,926	181,015	-0,201	-0,208
43,940	-18,029	-0,434	-0,191
44,955	188,385	-0,301	-0,317
45,969	41,569	-0,412	-0,262
46,984	16,937	-0,310	-0,172
47,999	152,342	-0,212	-0,204
49,013	123,394	-0,352	-0,310
50,028	63,455	-0,384	-0,270
51,042	109,370	-0,405	-0,341
52,057	125,331	-0,362	-0,321
53,071	-33,286	-0,423	-0,164
54,086	59,486	-0,355	-0,245
55,101	191,147	-0,347	-0,367
56,115	-27,286	-0,273	-0,111
57,130	149,089	-0,356	-0,338
58,144	203,739	-0,313	-0,341
59,159	17,211	-0,315	-0,175
60,174	168,297	-0,277	-0,277
61,188	-25,535	-0,357	-0,148
62,203	74,039	-0,404	-0,297
63,217	25,140	-0,282	-0,164
64,232	122,601	-0,343	-0,301
65,247	3,388	-0,382	-0,194
66,261	-6,670	-0,402	-0,191
67,276	4,514	-0,369	-0,190
68,290	112,876	-0,303	-0,258
69,305	57,600	-0,343	-0,235
70,320	103,929	-0,304	-0,250
71,334	175,525	-0,239	-0,243
72,349	147,342	-0,331	-0,313
73,363	-0,022	-0,310	-0,154
74,378	19,913	-0,296	-0,167
75,393	90,129	-0,364	-0,285
76,407	47,388	-0,244	-0,159
77,422	58,397	-0,271	-0,186
78,436	-16,739	-0,357	-0,158
79,451	-26,981	-0,301	-0,123
80,466	47,446	-0,416	-0,271
81,480	30,391	-0,320	-0,191
82,495	88,965	-0,280	-0,219
83,509	116,481	-0,263	-0,226
84,524	47,916	-0,272	-0,178
85,539	-146,154	-0,201	0,012
86,553	-38,280	-0,318	-0,117
87,568	120,731	-0,343	-0,299
88,582	0,439	-0,286	-0,143
89,597	156,722	-0,157	-0,152
90,611	-123,618	-0,274	-0,030
91,626	7,843	-0,298	-0,156
92,641	-35,799	-0,362	-0,137
93,655	363,566	-0,195	-0,275
94,670	95,293	-0,304	-0,242
95,684	57,018	-0,394	-0,269
96,699	-27,945	-0,306	-0,124
97,714	-88,706	-0,294	-0,061
98,728	-81,842	-0,334	-0,076
99,743	91,850	-0,185	-0,146
100,757	204,757	-0,217	-0,236
101,772	-96,207	-0,265	-0,049
102,787	24,611	-0,289	-0,167
103,801	51,917	-0,313	-0,208
104,816	14,392	-0,174	-0,095
105,830	78,729	-0,153	-0,115
106,845	85,074	-0,368	-0,282
107,860	-94,798	-0,363	-0,068
108,874	25,784	-0,275	-0,160
109,889	72,398	-0,292	-0,212
110,903	-19,321	-0,401	-0,173
111,918	43,052	-0,288	-0,183
112,933	133,331	-0,221	-0,200
113,947	-56,869	-0,225	-0,069
114,962	-1,618	-0,310	-0,152
115,976	14,485	-0,347	-0,189
116,991	255,893	-0,200	-0,240
118,006	38,274	-0,329	-0,204
119,020	-0,049	-0,346	-0,171
120,035	-5,221	-0,231	-0,111
121,049	60,873	-0,205	-0,142
122,064	34,104	-0,238	-0,144
123,079	-91,042	-0,310	-0,062
124,093	45,130	-0,160	-0,103
125,108	143,278	-0,142	-0,132
126,122	21,492	-0,241	-0,136
127,137	175,355	-0,243	-0,246
128,151	-9,497	-0,308	-0,143
129,166	48,568	-0,267	-0,174
130,181	284,249	-0,255	-0,321
131,195	91,880	-0,214	-0,168
132,210	326,175	-0,185	-0,248
133,224	62,872	-0,296	-0,207
134,239	165,846	-0,124	-0,122
135,254	119,358	-0,223	-0,193
136,268	-6,540	-0,253	-0,120
137,283	-15,724	-0,261	-0,115
138,297	271,737	-0,214	-0,263
139,312	6,006	-0,333	-0,171
140,327	168,720	-0,266	-0,264
141,341	66,122	-0,238	-0,168
142,356	800,000	-0,089	-0,227
143,370	40,123	-0,164	-0,103
144,385	132,472	-0,180	-0,162
145,400	237,707	-0,184	-0,213
146,414	288,387	-0,261	-0,330
147,429	-50,429	-0,240	-0,078
148,443	181,745	-0,230	-0,236
149,458	93,676	-0,234	-0,185
150,473	128,232	-0,227	-0,201
151,487	-21,393	-0,309	-0,131
152,502	289,124	-0,184	-0,232
153,516	577,258	-0,188	-0,321
154,531	102,658	-0,227	-0,185
155,546	-44,958	-0,197	-0,068
156,560	-14,669	-0,229	-0,102
157,575	39,610	-0,291	-0,181
158,589	57,616	-0,223	-0,152
159,604	-17,273	-0,293	-0,128
160,619	35,225	-0,225	-0,137
161,633	-68,491	-0,342	-0,092
162,648	254,462	-0,179	-0,213
163,662	537,227	-0,190	-0,315
164,677	318,149	-0,250	-0,330
165,692	131,135	-0,236	-0,211
166,706	-32,467	-0,372	-0,143
167,721	-34,346	-0,274	-0,104
168,735	240,062	-0,272	-0,315
169,750	419,671	-0,179	-0,268
170,764	250,007	-0,110	-0,130
171,779	-147,690	-0,240	-0,014
172,794	-113,250	-0,263	-0,036
173,808	0,256	-0,228	-0,113
174,823	96,256	-0,271	-0,216
175,837	309,245	-0,190	-0,248
176,852	73,977	-0,297	-0,216
177,867	458,277	-0,097	-0,151
178,881	294,112	-0,114	-0,145
179,896	-180,409	-0,433	0,006
180,910	-21,432	-0,297	-0,125
181,925	151,467	-0,250	-0,237
182,940	-11,459	-0,193	-0,088
183,954	800,000	-0,101	-0,194
184,969	800,000	-0,139	-0,289
185,983	62,442	-0,156	-0,108
186,998	-11,939	-0,345	-0,156
188,013	10,094	-0,335	-0,176
189,027	124,282	-0,268	-0,234
190,042	21,527	-0,306	-0,172
191,056	159,683	-0,253	-0,244
192,071	133,527	-0,275	-0,247
193,086	412,946	-0,154	-0,228
194,100	-121,374	-0,199	-0,023
195,115	18,642	-0,138	-0,077
196,129	56,650	-0,232	-0,156
197,144	679,733	-0,138	-0,250
198,159	29,254	-0,216	-0,127
199,173	501,513	-0,058	-0,094
200,188	757,060	-0,031	-0,058
201,202	224,643	-0,145	-0,163
202,217	7,340	-0,125	-0,065
203,232	135,400	-0,217	-0,196
204,246	151,863	-0,215	-0,203
205,261	-0,871	-0,166	-0,081
206,275	215,897	-0,143	-0,157
207,290	-8,779	-0,198	-0,092
208,304	-74,783	-0,187	-0,046
209,319	-70,638	-0,195	-0,051
210,334	146,244	-0,126	-0,117
211,348	209,177	-0,246	-0,268
212,363	62,742	-0,201	-0,139
213,377	117,780	-0,230	-0,196
214,392	212,661	-0,137	-0,150
215,407	231,936	-0,124	-0,141
216,421	122,054	-0,211	-0,183
217,436	102,257	-0,229	-0,186
218,450	450,421	-0,099	-0,152
219,465	-7,168	-0,281	-0,131
220,480	-75,371	-0,312	-0,076
221,494	43,719	-0,184	-0,117
222,509	-163,953	-0,213	0,007
223,523	-69,206	-0,185	-0,049
224,538	500,263	-0,126	-0,202
225,553	391,933	-0,111	-0,160
226,567	-103,796	-0,250	-0,040
227,582	558,366	-0,032	-0,054
228,596	25,597	-0,140	0,080
229,611	201,577	-0,092	-0,098
230,626	-43,090	-0,135	-0,047
231,640	281,900	-0,135	-0,168
232,655	-109,419	-0,271	-0,039
233,669	172,356	-0,137	-0,136
234,684	205,643	-0,133	-0,143
235,699	-10,489	-0,216	-0,099
236,713	25,981	-0,246	-0,142
237,728	800,000	-0,149	-0,314
238,742	296,843	-0,163	-0,207
239,757	-96,464	-0,202	-0,037
240,772	-48,760	-0,380	-0,125
241,786	145,348	-0,204	-0,189
242,801	412,286	-0,102	-0,150
243,815	234,398	-0,152	-0,174
244,830	-33,124	-0,179	-0,068
245,844	364,991	-0,115	-0,160
246,859	113,062	-0,132	-0,110
247,874	318,921	-0,164	-0,215
248,888	800,000	-0,111	-0,265
249,903	-27,029	-0,226	-0,090
250,917	4,257	-0,224	-0,113
251,932	77,477	-0,105	-0,077
252,947	-95,301	-0,114	-0,021
253,961	289,425	-0,100	-0,125
254,976	800,000	-0,150	-0,367
255,990	119,342	-0,202	-0,173
257,005	770,938	-0,061	-0,116
258,020	452,312	-0,091	-0,140
259,034	30,805	-0,127	0,075
260,049	-88,714	-0,097	-0,020
261,063	58,610	-0,193	-0,131
262,078	209,391	-0,114	-0,124
263,093	83,793	-0,192	-0,145
264,107	61,173	-0,218	-0,149
265,122	800,000	-0,021	-0,048
266,136	494,267	-0,131	-0,209
267,151	-85,034	-0,059	-0,013
268,166	-42,302	-0,153	-0,054
269,180	334,421	-0,093	-0,124
270,195	25,488	-0,103	-0,059
271,209	475,427	-0,164	-0,256
272,224	-200,000	-0,024	-0,155
273,239	-129,974	-0,097	-0,009
274,253	265,337	-0,161	-0,194
275,268	116,099	-0,057	-0,048
276,282	6,840	-0,068	-0,035
277,297	267,761	-0,225	-0,272
278,312	5,487	-0,173	-0,087
279,326	-51,205	-0,096	-0,031
280,341	-127,681	-0,123	0,012
281,355	-200,000	-0,214	0,000
282,370	127,287	-0,156	-0,136
283,384	223,973	-0,146	-0,163
284,399	515,028	-0,127	-0,205
285,414	37,491	-0,162	-0,099
286,428	-56,639	-0,191	-0,058
287,443	-95,745	-0,144	-0,026
288,457	258,085	-0,090	-0,107
289,472	-31,339	-0,124	0,048
290,487	123,732	-0,127	-0,109
291,501	43,049	-0,135	-0,085
292,516	-41,704	-0,162	-0,057
293,530	-7,164	-0,143	-0,066
294,545	-150,194	-0,198	-0,010
295,560	13,887	-0,148	-0,079
296,574	748,239	-0,071	-0,132
297,589	800,000	-0,062	-0,149
298,603	-200,000	-0,063	-0,224
299,618	-200,000	0,000	-0,118
300,633	59,895	-0,060	0,041
301,647	8,983	-0,134	0,069
302,662	305,851	-0,084	-0,108
303,676	-46,074	-0,101	-0,034
304,691	51,222	-0,207	-0,135
305,706	141,631	-0,218	-0,199
306,720	702,305	-0,086	-0,156
307,735	94,725	-0,124	-0,097
308,749	800,000	0,014	-0,039
309,764	33,460	-0,144	-0,086
310,779	46,226	-0,145	-0,092
311,793	736,525	-0,077	-0,142
312,808	64,766	-0,169	-0,117
313,822	-93,683	-0,059	0,011
314,837	15,428	-0,162	-0,087
315,852	-76,899	0,056	0,013
316,866	241,219	-0,106	-0,122
317,881	-123,849	-0,191	0,020
318,895	469,044	-0,064	-0,099
319,910	261,339	-0,094	-0,112
320,925	66,585	-0,170	-0,119
321,939	224,296	-0,076	-0,084
322,954	-97,150	-0,153	-0,027
323,968	-128,001	-0,118	-0,012
324,983	-113,325	-0,061	-0,008
325,997	-200,000	0,027	-0,150
327,012	287,371	-0,068	-0,085
328,027	151,348	-0,100	-0,093
329,041	222,825	-0,162	-0,179
330,056	57,910	-0,137	-0,092
331,070	110,683	-0,074	0,061
332,085	57,653	-0,037	0,024
333,100	7,362	-0,182	-0,093
334,114	-81,095	-0,177	-0,040
335,129	3,643	-0,287	-0,143
336,143	376,149	-0,101	-0,142
337,158	-116,190	-0,121	0,015
338,173	-200,000	-0,001	-0,012
339,187	-113,308	-0,113	-0,015
340,202	364,481	-0,133	-0,184
341,216	-29,618	-0,166	-0,064
342,231	485,918	-0,194	-0,304
343,246	126,932	-0,161	-0,140
344,260	458,752	-0,021	-0,033
345,275	152,640	-0,027	0,025
346,289	125,351	-0,149	-0,129
347,304	-36,514	-0,224	-0,082
348,319	300,471	-0,127	-0,161
349,333	55,924	-0,230	-0,153
350,348	-37,397	-0,309	-0,112
351,362	800,000	-0,087	-0,196
352,377	242,613	-0,092	-0,105
353,392	-141,650	-0,152	0,010
354,406	-45,064	-0,220	-0,074
355,421	206,769	1313,647	1402,263
356,435	159,033	1474,217	1402,742
