DTS Sentinel unit serial number:	SN410029Multiplexer serial number:	ORYXHardware model number:	OX2-SRSoftware version number:	ORYX F/W v4,00 Oryx Data Collector v3.7.2.0data status	okinstallation	B3 Nyhavnadifferential loss correction	single-endedforward channel	channel 1reverse channel	N/Adate	2023/12/01time	12:32:30forward acquisition time	300,00reverse acquisition time	0,00gamma	499,1914k internal	0,3213k external	0,3213temperature offset calibration	1,0000default loss term (dB/km)	0,3820temperature slope calibration	1,0000multiplexer offset coefficient	1,0000multiplexer slope coefficient	1,0000fibre end	0,00T internal ref (°C)	8,92T ext. ref 1 (°C)	-5,04T ext. ref 2 (°C)	-5,20length (m)	temperature (°C)	Stokes	anti-Stokes-744,400	232,729	-0,200	-0,239
-743,385	-200,000	-0,038	0,291
-742,371	279,383	-0,180	-0,233
-741,356	-200,000	0,081	0,287
-740,342	20,999	-0,181	-0,106
-739,327	278,050	-0,131	0,169
-738,312	139,586	-0,301	-0,287
-737,298	800,000	0,099	0,257
-736,283	63,167	-0,294	-0,213
-735,269	-200,000	0,026	0,299
-734,254	196,488	-0,150	-0,166
-733,239	152,260	-0,148	0,146
-732,225	800,000	-0,066	-0,165
-731,210	-200,000	0,011	0,053
-730,196	-200,000	0,013	0,047
-729,181	-85,868	-0,057	0,013
-728,167	-81,269	-0,052	-0,012
-727,152	-94,703	-0,027	0,005
-726,137	-167,046	-0,125	0,004
-725,123	102,112	-0,169	-0,143
-724,108	-200,000	-0,000	-0,051
-723,094	533,993	-0,054	-0,094
-722,079	-200,000	0,019	-0,084
-721,064	800,000	-0,015	-0,047
-720,050	-122,553	0,077	0,009
-719,035	800,000	-0,077	0,164
-718,021	32,444	0,040	-0,025
-717,006	4,149	-0,101	-0,054
-715,991	299,619	-0,054	-0,073
-714,977	422,290	-0,083	0,130
-713,962	90,246	-0,089	0,072
-712,948	-200,000	0,002	0,041
-711,933	-59,690	-0,103	0,032
-710,918	474,106	-0,006	0,009
-709,904	800,000	-0,045	0,094
-708,889	79,411	-0,061	-0,047
-707,875	-71,118	-0,062	-0,017
-706,860	156,493	0,055	0,055
-705,845	-200,000	-0,003	0,037
-704,831	186,124	-0,056	0,060
-703,816	242,208	0,044	-0,053
-702,802	800,000	-0,030	-0,094
-701,787	404,451	-0,033	-0,051
-700,772	356,669	-0,029	0,042
-699,758	-200,000	-0,026	0,104
-698,743	-45,548	-0,137	0,049
-697,729	320,283	0,060	-0,083
-696,714	-5,582	-0,081	0,040
-695,699	-28,454	-0,109	-0,045
-694,685	-116,295	0,066	0,009
-693,670	-200,000	0,002	-0,096
-692,656	304,228	-0,042	-0,056
-691,641	800,000	-0,046	-0,104
-690,627	290,610	0,078	0,102
-689,612	39,705	-0,158	0,102
-688,597	285,718	-0,093	-0,121
-687,583	58,107	0,030	-0,021
-686,568	270,070	-0,053	-0,067
-685,554	-200,000	-0,028	-0,104
-684,539	212,766	-0,132	0,151
-683,524	98,666	0,119	0,099
-682,510	-55,554	0,043	-0,014
-681,495	800,000	0,117	0,242
-680,481	-41,842	0,064	0,023
-679,466	-151,149	-0,185	0,010
-678,451	64,020	0,088	-0,064
-677,437	14,255	-0,055	0,031
-676,422	-200,000	-0,001	-0,004
-675,408	-57,916	-0,020	0,006
-674,393	800,000	0,040	-0,106
-673,378	349,430	0,080	-0,115
-672,364	69,561	0,009	0,007
-671,349	-200,000	-0,019	-0,088
-670,335	-141,805	-0,045	0,003
-669,320	-110,837	0,094	-0,014
-668,305	20,926	0,116	-0,068
-667,291	800,000	-0,035	-0,080
-666,276	12,538	0,112	0,062
-665,262	-13,469	-0,143	-0,067
-664,247	7,804	-0,063	-0,034
-663,232	46,319	0,163	-0,109
-662,218	-80,938	-0,050	-0,012
-661,203	371,059	0,036	-0,053
-660,189	192,677	0,102	-0,112
-659,174	-31,755	0,051	0,021
-658,159	729,864	-0,053	0,103
-657,145	-53,826	-0,058	-0,019
-656,130	-200,000	0,026	0,091
-655,116	-88,757	-0,151	-0,032
-654,101	-57,962	0,129	-0,041
-653,086	172,182	0,046	0,048
-652,072	-22,598	-0,058	-0,025
-651,057	-200,000	-0,001	-0,063
-650,043	-54,735	0,051	-0,016
-649,028	800,000	-0,013	-0,039
-648,014	-11,895	0,068	0,032
-646,999	112,039	-0,130	0,113
-645,984	800,000	-0,016	0,045
-644,970	-136,535	-0,071	0,006
-643,955	699,284	-0,071	-0,136
-642,941	404,858	0,057	-0,087
-641,926	-119,944	0,120	-0,015
-640,911	44,819	0,052	0,034
-639,897	-200,000	-0,019	-0,092
-638,882	146,079	-0,036	-0,035
-637,868	-103,544	-0,046	0,008
-636,853	-52,278	0,135	0,045
-635,838	-150,827	-0,079	0,004
-634,824	-200,000	0,006	0,023
-633,809	800,000	0,041	0,125
-632,795	206,822	0,060	-0,067
-631,780	-44,022	0,044	0,016
-630,765	-30,003	0,043	0,018
-629,751	79,212	-0,162	-0,125
-628,736	519,598	0,034	-0,058
-627,722	-34,297	-0,120	-0,047
-626,707	132,597	0,056	-0,053
-625,692	-17,406	-0,084	0,038
-624,678	800,000	-0,023	0,055
-623,663	56,449	0,085	0,059
-622,649	-24,296	-0,077	0,033
-621,634	-200,000	0,008	-0,078
-620,619	551,347	-0,046	-0,079
-619,605	303,527	0,061	0,082
-618,590	591,113	-0,042	0,075
-617,576	241,027	0,061	0,074
-616,561	800,000	-0,037	0,086
-615,546	-180,382	0,084	0,001
-614,532	-200,000	0,018	-0,087
-613,517	-62,434	-0,168	0,050
-612,503	800,000	0,018	0,039
-611,488	-200,000	0,002	-0,045
-610,474	100,132	0,124	0,104
-609,459	-200,000	-0,007	0,073
-608,444	226,039	-0,020	-0,023
-607,430	-13,209	0,049	0,023
-606,415	-80,385	-0,051	0,012
-605,401	192,187	-0,100	0,109
-604,386	197,509	0,098	-0,108
-603,371	-200,000	0,030	0,177
-602,357	-51,089	-0,034	-0,011
-601,342	-135,316	-0,129	-0,011
-600,328	18,659	0,049	-0,028
-599,313	36,379	0,061	0,039
-598,298	-68,832	0,225	0,062
-597,284	-9,891	0,083	-0,040
-596,269	134,170	-0,133	0,124
-595,255	-200,000	-0,013	0,118
-594,240	200,903	-0,034	-0,038
-593,225	-24,041	-0,079	0,034
-592,211	390,848	-0,030	-0,046
-591,196	-200,000	0,004	-0,085
-590,182	124,576	-0,081	-0,074
-589,167	-121,358	0,110	-0,013
-588,152	-85,117	0,039	0,009
-587,138	190,191	-0,055	-0,060
-586,123	28,513	-0,144	-0,088
-585,109	172,531	-0,070	0,072
-584,094	500,288	-0,104	0,173
-583,079	-123,370	0,133	0,015
-582,065	-13,455	-0,044	0,020
-581,050	35,918	0,109	-0,069
-580,036	-15,800	-0,218	-0,100
-579,021	129,306	-0,161	-0,148
-578,006	-200,000	-0,018	-0,160
-576,992	-116,987	0,025	-0,003
-575,977	430,277	0,059	-0,092
-574,963	800,000	-0,035	-0,081
-573,948	184,530	0,047	0,050
-572,934	99,666	0,074	-0,062
-571,919	48,049	-0,169	-0,113
-570,904	-59,353	-0,025	0,008
-569,890	-200,000	-0,027	-0,136
-568,875	-200,000	0,001	-0,058
-567,861	316,364	0,031	0,042
-566,846	35,673	0,126	-0,079
-565,831	-41,896	-0,041	0,015
-564,817	487,578	-0,063	0,104
-563,802	800,000	0,020	-0,049
-562,788	-200,000	-0,019	-0,135
-561,773	-115,120	-0,154	-0,021
-560,758	53,822	0,078	0,054
-559,744	800,000	-0,045	0,102
-558,729	-200,000	-0,003	0,201
-557,715	-43,385	-0,037	0,013
-556,700	-57,037	0,045	0,014
-555,685	100,282	0,059	-0,049
-554,671	78,739	-0,082	-0,063
-553,656	-200,000	0,036	0,127
-552,642	53,569	0,119	0,082
-551,627	367,227	-0,109	0,159
-550,612	-200,000	0,015	0,106
-549,598	-145,463	-0,038	-0,002
-548,583	12,786	0,038	-0,021
-547,569	22,481	0,026	-0,015
-546,554	-182,821	-0,099	-0,001
-545,539	-200,000	-0,009	0,123
-544,525	310,173	0,015	0,021
-543,510	-66,631	-0,072	-0,020
-542,496	-119,053	0,072	0,009
-541,481	800,000	-0,028	-0,064
-540,466	800,000	-0,038	0,076
-539,452	24,464	0,045	0,027
-538,437	-8,561	0,081	-0,039
-537,423	250,083	0,074	0,090
-536,408	214,726	-0,061	0,070
-535,393	-49,300	0,077	-0,026
-534,379	200,358	-0,101	-0,112
-533,364	72,188	0,095	-0,071
-532,350	283,441	-0,035	-0,046
-531,335	800,000	0,053	0,111
-530,321	93,888	-0,071	0,058
-529,306	55,112	0,106	-0,074
-528,291	221,245	0,030	0,034
-527,277	800,000	-0,026	-0,072
-526,262	68,704	-0,079	0,058
-525,248	197,804	0,074	-0,081
-524,233	-200,000	-0,016	0,079
-523,218	-200,000	-0,050	0,180
-522,204	-33,597	0,066	-0,026
-521,189	423,101	-0,003	-0,005
-520,175	46,182	-0,088	-0,058
-519,160	109,753	0,058	-0,050
-518,145	437,352	-0,056	0,087
-517,131	-8,190	0,140	-0,067
-516,116	367,691	-0,041	-0,059
-515,102	395,584	-0,028	0,042
-514,087	57,119	-0,127	-0,089
-513,072	800,000	-0,076	-0,195
-512,058	60,147	0,116	-0,082
-511,043	-200,000	0,018	0,138
-510,029	-117,947	0,100	0,013
-509,014	-200,000	0,002	0,119
-507,999	-200,000	-0,024	0,087
-506,985	-200,000	-0,023	-0,145
-505,970	-200,000	-0,014	-0,048
-504,956	192,378	-0,021	-0,023
-503,941	715,846	0,032	-0,061
-502,926	-195,350	0,053	-0,000
-501,912	800,000	0,049	0,101
-500,897	54,033	0,025	-0,018
-499,883	-150,207	-0,116	-0,006
-498,868	-200,000	-0,021	-0,099
-497,853	177,415	-0,075	-0,079
-496,839	800,000	-0,031	-0,063
-495,824	800,000	0,038	0,102
-494,810	800,000	-0,024	-0,067
-493,795	50,382	0,091	-0,062
-492,781	-106,691	-0,133	-0,021
-491,766	-18,767	-0,090	0,040
-490,751	273,388	-0,009	-0,011
-489,737	-200,000	-0,023	-0,152
-488,722	94,986	0,068	-0,056
-487,708	-200,000	0,013	0,056
-486,693	173,129	0,129	0,133
-485,678	-200,000	-0,001	-0,044
-484,664	-71,328	0,093	-0,025
-483,649	141,197	-0,019	0,018
-482,635	-49,037	-0,122	0,042
-481,620	112,712	0,077	-0,067
-480,605	800,000	-0,026	0,076
-479,591	-133,423	0,084	0,007
-478,576	728,743	-0,041	0,078
-477,562	-200,000	0,066	-0,246
-476,547	-99,385	-0,133	-0,024
-475,532	-14,569	-0,145	0,067
-474,518	170,062	0,093	-0,095
-473,503	-110,451	0,062	-0,009
-472,489	800,000	0,030	0,068
-471,474	438,653	-0,010	0,015
-470,459	61,957	-0,039	-0,028
-469,445	800,000	0,066	0,152
-468,430	-83,482	-0,127	0,029
-467,416	800,000	-0,075	0,207
-466,401	-62,343	0,091	-0,027
-465,386	-200,000	-0,009	0,094
-464,372	-200,000	0,011	0,061
-463,357	166,548	-0,021	-0,021
-462,343	135,443	-0,083	-0,077
-461,328	-142,549	0,071	-0,005
-460,313	-200,000	-0,020	-0,084
-459,299	-200,000	-0,010	0,051
-458,284	47,656	0,129	0,086
-457,270	800,000	-0,019	-0,055
-456,255	81,431	0,095	-0,074
-455,241	493,320	-0,093	-0,153
-454,226	-200,000	-0,011	0,040
-453,211	133,935	0,045	0,042
-452,197	-45,960	0,073	0,026
-451,182	36,846	0,051	-0,032
-450,168	153,156	0,052	-0,051
-449,153	369,252	-0,050	-0,073
-448,138	-200,000	0,047	-0,165
-447,124	800,000	0,026	0,072
-446,109	69,094	-0,058	0,043
-445,095	-200,000	0,017	-0,062
-444,080	-200,000	-0,044	0,157
-443,065	430,076	0,060	-0,093
-442,051	102,172	0,012	-0,010
-441,036	84,455	-0,004	-0,003
-440,022	302,069	-0,019	0,025
-439,007	-200,000	0,005	-0,022
-437,992	221,654	0,068	0,079
-436,978	-200,000	-0,001	0,006
-435,963	-16,329	-0,144	0,065
-434,949	439,747	0,047	-0,074
-433,934	-200,000	-0,008	0,088
-432,919	108,551	-0,055	-0,047
-431,905	64,932	0,029	-0,021
-430,890	-200,000	0,025	0,160
-429,876	147,804	0,057	-0,055
-428,861	-99,758	0,053	0,009
-427,846	189,872	0,024	0,026
-426,832	400,882	-0,042	-0,063
-425,817	-103,731	0,041	-0,007
-424,803	-124,640	-0,064	-0,007
-423,788	-200,000	0,023	0,175
-422,773	-86,691	0,171	0,037
-421,759	-100,472	-0,154	0,027
-420,744	-50,444	-0,109	-0,036
-419,730	49,303	-0,051	0,034
-418,715	-34,382	-0,072	-0,028
-417,701	168,100	-0,013	0,014
-416,686	-200,000	0,020	0,085
-415,671	-80,770	0,060	-0,014
-414,657	268,079	-0,042	0,053
-413,642	107,100	-0,097	-0,083
-412,628	-147,457	0,086	0,005
-411,613	-200,000	-0,004	-0,097
-410,598	800,000	0,041	-0,128
-409,584	244,033	-0,020	0,025
-408,569	161,513	0,080	-0,080
-407,555	205,936	-0,045	0,050
-406,540	-125,161	-0,040	0,004
-405,525	158,779	0,059	-0,059
-404,511	-154,459	-0,054	0,003
-403,496	-200,000	-0,009	0,041
-402,482	560,166	-0,015	-0,027
-401,467	64,007	-0,075	0,054
-400,452	-43,940	-0,035	0,013
-399,438	235,490	-0,013	0,016
-398,423	-145,835	0,096	0,006
-397,409	800,000	-0,024	-0,056
-396,394	800,000	-0,053	-0,159
-395,379	195,586	-0,057	0,062
-394,365	-9,184	-0,096	0,046
-393,350	-200,000	0,011	0,069
-392,336	-200,000	0,020	0,262
-391,321	-94,837	0,066	0,013
-390,306	-200,000	-0,024	-0,135
-389,292	-99,844	0,018	-0,003
-388,277	694,103	0,025	0,047
-387,263	172,912	0,052	-0,054
-386,248	800,000	0,009	0,021
-385,233	314,353	0,061	0,082
-384,219	-155,567	0,032	0,001
-383,204	14,217	0,128	-0,071
-382,190	25,213	-0,046	0,027
-381,175	131,066	0,121	0,111
-380,160	-85,123	0,098	-0,022
-379,146	51,516	-0,034	-0,023
-378,131	-200,000	0,001	0,058
-377,117	-87,592	-0,107	-0,023
-376,102	-179,105	0,086	0,001
-375,088	132,180	-0,089	0,082
-374,073	-59,576	-0,049	-0,015
-373,058	-42,343	-0,052	-0,019
-372,044	87,441	0,113	0,089
-371,029	157,880	0,082	0,081
-370,015	24,054	-0,108	0,063
-369,000	109,839	0,042	-0,036
-367,985	92,623	0,022	-0,018
-366,971	277,888	0,072	0,092
-365,956	-73,060	0,163	0,042
-364,942	-113,108	0,152	-0,021
-363,927	800,000	-0,047	0,110
-362,912	-124,299	-0,067	-0,007
-361,898	800,000	0,018	0,038
-360,883	188,304	-0,187	-0,200
-359,869	19,252	0,065	-0,037
-358,854	79,375	-0,127	0,097
-357,839	168,851	0,109	0,111
-356,825	296,877	0,096	0,125
-355,810	650,169	0,071	0,130
-354,796	800,000	-0,075	-0,154
-353,781	-60,418	-0,043	0,013
-352,766	-200,000	-0,005	-0,028
-351,752	419,437	-0,070	-0,108
-350,737	-56,597	0,150	0,047
-349,723	800,000	0,042	0,111
-348,708	258,036	0,061	0,075
-347,693	-200,000	-0,035	-0,172
-346,679	14,584	-0,055	0,031
-345,664	-90,405	-0,045	-0,009
-344,650	800,000	-0,060	-0,140
-343,635	-152,771	0,105	-0,005
-342,620	142,001	0,075	0,071
-341,606	217,941	0,037	-0,042
-340,591	84,829	-0,079	-0,061
-339,577	132,972	0,112	-0,104
-338,562	-44,181	-0,087	0,031
-337,548	462,374	-0,054	-0,086
-336,533	103,738	0,154	-0,129
-335,518	-162,577	-0,052	-0,002
-334,504	-200,000	0,024	0,131
-333,489	-150,568	-0,090	-0,005
-332,475	-200,000	0,047	-0,169
-331,460	800,000	-0,025	-0,068
-330,445	-200,000	-0,024	0,102
-329,431	31,638	-0,132	0,081
-328,416	-110,981	0,025	0,004
-327,402	39,720	0,015	0,010
-326,387	-200,000	0,129	-0,000
-325,372	410,596	-0,043	-0,065
-324,358	800,000	0,042	-0,087
-323,343	-96,414	-0,014	0,003
-322,329	148,874	-0,017	0,016
-321,314	219,966	0,107	0,122
-320,299	-200,000	-0,012	0,192
-319,285	-200,000	0,176	-0,000
-318,270	800,000	-0,053	0,106
-317,256	-68,448	0,056	-0,015
-316,241	13,566	-0,036	-0,020
-315,226	55,674	0,031	-0,021
-314,212	-23,446	0,053	0,022
-313,197	167,858	-0,070	-0,071
-312,183	-150,512	-0,051	0,003
-311,168	620,178	-0,040	0,072
-310,153	-116,486	0,051	0,007
-309,139	507,972	-0,046	0,076
-308,124	151,858	0,066	-0,064
-307,110	-200,000	0,007	0,097
-306,095	-25,104	-0,185	0,078
-305,080	-174,185	-0,104	-0,002
-304,066	111,082	0,028	0,024
-303,051	4,978	-0,074	-0,039
-302,037	456,025	-0,056	-0,089
-301,022	-134,322	-0,070	-0,006
-300,008	410,923	-0,072	0,108
-298,993	800,000	0,009	-0,025
-297,978	541,237	-0,054	0,092
-296,964	-69,068	0,089	0,024
-295,949	-16,148	-0,098	0,044
-294,935	379,779	-0,103	-0,151
-293,920	800,000	-0,011	-0,029
-292,905	643,433	0,037	0,067
-291,891	-95,541	0,214	-0,041
-290,876	-200,000	-0,033	0,120
-289,862	-99,486	0,022	0,004
-288,847	-200,000	-0,021	0,077
-287,832	56,573	-0,030	-0,020
-286,818	-200,000	0,011	-0,063
-285,803	376,215	0,036	0,052
-284,789	-130,880	-0,044	0,004
-283,774	-55,991	-0,150	0,047
-282,759	-34,147	0,052	-0,020
-281,745	-200,000	-0,014	-0,162
-280,730	6,099	-0,088	-0,046
-279,716	538,610	0,025	-0,043
-278,701	54,284	0,103	-0,071
-277,686	-87,931	0,155	-0,033
-276,672	181,381	0,111	0,116
-275,657	318,661	0,091	-0,122
-274,643	-62,150	-0,090	0,027
-273,628	250,949	0,028	0,034
-272,613	95,606	0,014	-0,012
-271,599	-200,000	0,008	-0,117
-270,584	-200,000	0,051	0,208
-269,570	800,000	0,042	0,118
-268,555	800,000	-0,054	-0,118
-267,540	-162,038	-0,026	-0,001
-266,526	-200,000	-0,010	-0,083
-265,511	174,529	-0,042	-0,043
-264,497	800,000	-0,013	0,031
-263,482	128,803	0,084	0,076
-262,467	-200,000	0,013	0,049
-261,453	-200,000	0,010	-0,043
-260,438	-181,664	0,108	0,001
-259,424	39,072	-0,047	-0,030
-258,409	637,250	-0,023	0,041
-257,395	179,604	0,050	0,052
-256,380	-47,168	0,100	0,035
-255,365	-140,070	0,130	-0,010
-254,351	-0,672	0,012	-0,006
-253,336	137,370	-0,046	0,043
-252,322	193,177	-0,030	0,032
-251,307	-93,202	-0,196	0,038
-250,292	14,031	-0,082	0,045
-249,278	800,000	-0,014	-0,029
-248,263	-141,363	0,080	0,006
-247,249	-30,664	0,127	0,051
-246,234	-129,361	-0,083	-0,008
-245,219	220,501	-0,040	-0,046
-244,205	107,861	-0,093	-0,078
-243,190	-40,085	0,201	-0,074
-242,176	800,000	-0,060	0,164
-241,161	-160,743	-0,101	0,004
-240,146	800,000	0,060	-0,143
-239,132	-97,562	0,046	-0,008
-238,117	-127,488	-0,078	-0,008
-237,103	59,726	0,062	-0,044
-236,088	46,744	-0,027	-0,018
-235,073	-129,583	0,176	-0,017
-234,059	-200,000	0,012	0,083
-233,044	369,300	0,047	-0,068
-232,030	553,201	0,054	-0,092
-231,015	-18,191	-0,092	0,041
-230,000	800,000	0,011	-0,029
-228,986	626,029	-0,041	0,073
-227,971	44,783	0,088	-0,058
-226,957	134,717	0,092	0,085
-225,942	224,043	-0,065	-0,074
-224,927	-200,000	0,016	0,117
-223,913	-77,778	-0,115	0,028
-222,898	-79,372	0,077	0,018
-221,884	76,368	0,085	-0,064
-220,869	-133,726	0,071	0,006
-219,855	60,055	-0,045	0,032
-218,840	-200,000	-0,033	0,131
-217,825	-172,436	-0,100	0,002
-216,811	-200,000	0,008	-0,116
-215,796	-117,914	0,128	-0,016
-214,782	-116,385	-0,197	-0,026
-213,767	-92,332	0,137	0,027
-212,752	138,255	0,041	0,039
-211,738	197,146	-0,034	0,036
-210,723	-94,889	0,025	-0,005
-209,709	-84,674	-0,086	0,019
-208,694	58,455	-0,126	-0,088
-207,679	110,314	0,080	-0,069
-206,665	-200,000	-0,005	-0,104
-205,650	800,000	-0,025	-0,080
-204,636	-200,000	-0,005	-0,150
-203,621	18,661	-0,098	0,055
-202,606	-200,000	0,004	0,039
-201,592	-200,000	0,031	-0,105
-200,577	576,309	0,041	-0,071
-199,563	800,000	0,033	0,065
-198,548	-44,333	0,060	0,021
-197,533	-79,015	0,059	-0,014
-196,519	205,123	0,082	0,090
-195,504	800,000	0,052	-0,144
-194,490	-5,271	-0,132	-0,064
-193,475	-131,036	0,059	0,006
-192,460	493,715	0,002	0,004
-191,446	177,445	-0,033	-0,034
-190,431	-200,000	-0,007	-0,047
-189,417	-36,328	0,054	0,021
-188,402	275,997	-0,051	0,064
-187,387	-200,000	-0,034	-0,112
-186,373	-103,789	-0,058	-0,010
-185,358	-39,144	-0,015	0,006
-184,344	-200,000	-0,011	0,052
-183,329	-47,868	0,097	0,033
-182,315	-200,000	0,006	-0,054
-181,300	230,558	0,046	-0,054
-180,285	-200,000	-0,029	-0,112
-179,271	800,000	0,027	-0,070
-178,256	800,000	-0,020	0,048
-177,242	80,876	-0,028	0,022
-176,227	-172,920	0,037	0,001
-175,212	800,000	-0,024	0,062
-174,198	-200,000	-0,001	-0,047
-173,183	121,373	-0,125	-0,110
-172,169	-35,431	-0,146	-0,056
-171,154	-16,394	-0,133	0,059
-170,139	-42,669	0,166	0,059
-169,125	-106,625	0,045	0,007
-168,110	-200,000	0,000	0,032
-167,096	-10,033	0,091	0,042
-166,081	-110,824	-0,105	-0,015
-165,066	-10,101	-0,061	-0,029
-164,052	123,153	-0,033	-0,029
-163,037	800,000	0,030	-0,068
-162,023	118,114	-0,059	-0,052
-161,008	195,981	-0,042	0,046
-159,993	800,000	0,056	0,126
-158,979	2,322	0,082	0,042
-157,964	53,985	0,026	0,018
-156,950	18,839	-0,143	-0,081
-155,935	800,000	-0,010	-0,029
-154,920	-106,846	0,098	0,015
-153,906	-200,000	-0,007	-0,121
-152,891	-54,681	-0,084	-0,027
-151,877	800,000	0,072	-0,144
-150,862	356,609	0,010	0,014
-149,847	102,275	-0,081	0,067
-148,833	34,866	0,032	-0,020
-147,818	-200,000	0,014	-0,121
-146,804	-200,000	-0,025	-0,123
-145,789	-200,000	-0,013	0,077
-144,775	157,150	-0,110	-0,107
-143,760	-200,000	-0,020	-0,086
-142,745	-200,000	0,001	-0,058
-141,731	-200,000	0,019	-0,069
-140,716	-28,203	0,078	-0,032
-139,702	-200,000	0,004	-0,077
-138,687	-23,033	-0,082	0,035
-137,672	33,636	-0,107	-0,066
-136,658	561,326	-0,066	-0,113
-135,643	-107,117	-0,147	0,023
-134,629	348,503	0,018	-0,025
-133,614	-38,676	-0,095	-0,035
-132,599	-200,000	-0,005	-0,043
-131,585	32,022	-0,057	-0,035
-130,570	299,024	-0,034	0,044
-129,556	-94,013	0,124	-0,024
-128,541	262,664	-0,093	-0,114
-127,526	43,044	-0,081	0,052
-126,512	182,338	0,077	-0,080
-125,497	539,066	0,102	0,173
-124,483	234,460	-0,028	0,033
-123,468	390,353	0,037	0,055
-122,453	-115,553	-0,215	0,028
-121,439	-200,000	0,004	-0,050
-120,424	-200,000	0,018	0,264
-119,410	-109,784	0,124	0,018
-118,395	-200,000	-0,060	0,192
-117,380	-200,000	-0,018	0,107
-116,366	-85,543	0,100	-0,022
-115,351	-200,000	-0,007	0,025
-114,337	-200,000	0,008	0,117
-113,322	-200,000	-0,023	0,123
-112,307	-126,292	0,062	-0,006
-111,293	6,237	0,069	0,036
-110,278	-120,846	-0,034	-0,004
-109,264	800,000	0,068	0,194
-108,249	144,793	-0,122	0,115
-107,234	-141,215	0,057	0,004
-106,220	323,829	-0,043	-0,058
-105,205	800,000	0,025	0,054
-104,191	800,000	0,019	0,051
-103,176	-42,214	0,152	0,055
-102,162	36,501	0,139	0,086
-101,147	203,548	0,050	-0,054
-100,132	570,869	-0,041	-0,070
-99,118	-59,663	0,063	-0,019
-98,103	143,486	0,072	0,068
-97,089	-80,557	-0,050	0,012
-96,074	232,466	-0,087	0,101
-95,059	101,147	0,038	-0,031
-94,045	752,469	0,054	-0,104
-93,030	379,363	-0,081	-0,118
-92,016	214,134	0,057	-0,064
-91,001	-200,000	0,007	0,048
-89,986	311,593	-0,018	-0,023
-88,972	-146,314	0,070	0,004
-87,957	800,000	-0,032	0,064
-86,943	99,236	0,022	-0,018
-85,928	-200,000	-0,002	0,072
-84,913	21,508	-0,071	0,041
-83,899	21,952	-0,030	-0,017
-82,884	126,410	-0,052	0,047
-81,870	42,034	0,048	0,031
-80,855	154,978	-0,006	-0,006
-79,840	-69,808	-0,106	-0,028
-78,826	-200,000	0,014	0,092
-77,811	41,356	-0,089	0,057
-76,797	433,037	-0,014	-0,022
-75,782	800,000	0,060	0,118
-74,767	-136,380	-0,134	-0,011
-73,753	-56,156	0,052	0,016
-72,738	800,000	0,037	-0,094
-71,724	53,480	-0,059	-0,040
-70,709	-27,821	-0,030	0,012
-69,694	352,036	0,006	0,008
-68,680	677,485	-0,038	-0,069
-67,665	-128,198	0,083	-0,008
-66,651	-200,000	0,003	-0,013
-65,636	170,148	-0,076	-0,077
-64,622	303,603	-0,043	-0,057
-63,607	-26,844	-0,110	0,045
-62,592	66,167	-0,138	0,098
-61,578	240,135	-0,088	0,103
-60,563	-200,000	0,019	0,065
-59,549	-200,000	0,010	0,120
-58,534	59,634	-2,028	-1,409
-57,519	471,974	-1,164	-1,855
-56,505	-200,000	-0,431	-4,476
-55,490	500,248	1,019	1,664
-54,476	800,000	5,164	11,384
-53,461	-200,000	21,929	339,674
-52,446	800,000	761,381	2294,993
-51,432	530,172	1656,635	2770,810
-50,417	69,009	1654,015	1197,195
-49,403	16,559	1528,527	849,511
-48,388	10,700	1453,146	779,367
-47,373	19,059	1445,221	815,078
-46,359	14,104	1433,916	785,187
-45,344	9,051	1429,788	758,910
-44,330	9,032	1427,871	757,771
-43,315	8,982	1426,020	756,520
-42,300	8,987	1424,282	755,591
-41,286	9,060	1423,072	755,268
-40,271	8,983	1421,912	754,258
-39,257	8,990	1420,539	753,534
-38,242	9,024	1419,498	753,110
-37,227	9,036	1418,575	752,650
-36,213	9,029	1416,962	751,726
-35,198	9,038	1416,058	751,263
-34,184	9,077	1415,192	750,954
-33,169	8,981	1413,482	749,569
-32,154	9,016	1412,592	749,228
-31,140	8,963	1411,346	748,292
-30,125	9,018	1410,244	747,933
-29,111	8,948	1409,121	746,980
-28,096	8,999	1407,996	746,592
-27,082	8,891	1406,952	745,508
-26,067	8,906	1405,762	744,915
-25,052	8,944	1404,658	744,479
-24,038	8,974	1403,788	744,126
-23,023	8,962	1402,732	743,484
-22,009	8,958	1401,609	742,839
-20,994	8,971	1400,602	742,335
-19,979	8,923	1399,850	741,686
-18,965	8,897	1398,661	740,903
-17,950	8,896	1397,686	740,355
-16,936	8,890	1397,062	739,967
-15,921	8,835	1395,899	739,066
-14,906	8,886	1394,833	738,709
-13,892	8,897	1394,080	738,333
-12,877	8,895	1393,252	737,856
-11,863	8,895	1392,376	737,363
-10,848	8,867	1391,655	736,821
-9,833	8,829	1390,476	735,990
-8,819	8,784	1389,680	735,336
-7,804	8,804	1388,862	734,964
-6,790	8,781	1387,712	734,222
-5,775	8,779	1386,841	733,720
-4,760	8,791	1385,781	733,186
-3,746	8,823	1384,788	732,776
-2,731	8,812	1383,983	732,273
-1,717	8,788	1383,369	731,809
-0,702	8,747	1381,402	730,552
0,313	12,790	1292,665	702,017
1,327	28,688	683,401	406,847
2,342	44,107	117,924	76,073
3,356	-2,210	16,503	8,135
4,371	-3,116	3,780	1,852
5,386	4,867	1,254	0,647
6,400	800,000	0,186	0,530
7,415	-88,087	-0,130	-0,027
8,429	-40,788	-0,214	-0,078
9,444	31,745	-0,300	-0,182
10,459	4,821	-0,295	-0,152
11,473	137,275	-0,259	-0,238
12,488	-33,740	-0,303	-0,117
13,502	141,628	-0,240	-0,224
14,517	39,234	-0,308	-0,193
15,531	80,535	-0,440	-0,333
16,546	-35,685	-0,377	-0,143
17,561	-31,148	-0,362	-0,143
18,575	101,282	-0,166	-0,136
19,590	67,531	-0,308	-0,221
20,604	186,456	-0,250	-0,262
21,619	37,828	-0,532	-0,332
22,634	81,189	-0,390	-0,296
23,648	146,900	-0,308	-0,291
24,663	123,423	-0,356	-0,314
25,677	154,546	-0,256	-0,248
26,692	162,263	-0,239	-0,235
27,707	-30,244	-0,273	-0,108
28,721	63,850	-0,277	-0,196
29,736	-18,716	-0,226	-0,098
30,750	26,078	-0,447	-0,262
31,765	800,000	-0,177	-0,365
32,780	36,944	-0,522	-0,324
33,794	20,997	-0,263	-0,149
34,809	30,715	-0,413	-0,248
35,823	98,438	-0,362	-0,293
36,838	89,682	-0,377	-0,296
37,853	106,596	-0,247	-0,206
38,867	-20,307	-0,351	-0,151
39,882	0,089	-0,447	-0,223
40,896	22,583	-0,379	-0,217
41,911	93,518	-0,343	-0,273
42,926	90,323	-0,349	-0,274
43,940	18,509	-0,354	-0,198
44,955	-130,243	-0,399	-0,038
45,969	78,556	-0,280	-0,210
46,984	189,695	-0,337	-0,355
47,999	79,726	-0,259	-0,195
49,013	153,613	-0,277	-0,267
50,028	46,985	-0,330	-0,215
51,042	186,139	-0,322	-0,336
52,057	18,232	-0,431	-0,241
53,071	81,317	-0,254	-0,193
54,086	173,310	-0,285	-0,289
55,101	163,900	-0,309	-0,306
56,115	134,029	-0,306	-0,278
57,130	-70,231	-0,381	-0,101
58,144	129,004	-0,371	-0,332
59,159	93,165	-0,431	-0,341
60,174	89,493	-0,362	-0,283
61,188	158,181	-0,298	-0,290
62,203	-39,387	-0,372	-0,136
63,217	156,860	-0,337	-0,327
64,232	-25,985	-0,300	-0,123
65,247	31,376	-0,265	-0,159
66,261	222,957	-0,311	-0,351
67,276	35,038	-0,256	-0,157
68,290	13,551	-0,407	-0,220
69,305	141,884	-0,270	-0,251
70,320	-71,536	-0,437	-0,114
71,334	-35,326	-0,380	-0,144
72,349	-12,168	-0,396	-0,181
73,363	-13,290	-0,413	-0,187
74,378	297,203	-0,204	-0,263
75,393	49,890	-0,332	-0,219
76,407	-76,935	-0,295	-0,072
77,422	20,094	-0,352	-0,198
78,436	256,951	-0,166	-0,200
79,451	29,780	-0,249	-0,148
80,466	20,314	-0,223	-0,126
81,480	75,885	-0,284	-0,210
82,495	129,566	-0,201	-0,180
83,509	-44,843	-0,118	-0,041
84,524	98,821	-0,286	-0,231
85,539	108,601	-0,218	-0,182
86,553	-3,154	-0,313	-0,152
87,568	67,526	-0,268	-0,191
88,582	56,424	-0,388	-0,263
89,597	188,732	-0,249	-0,261
90,611	-27,538	-0,292	-0,118
91,626	-19,590	-0,300	-0,129
92,641	-52,822	-0,289	-0,093
93,655	-57,093	-0,376	-0,115
94,670	164,817	-0,156	-0,154
95,684	254,098	-0,298	-0,356
96,699	23,786	-0,182	-0,105
97,714	78,001	-0,379	-0,282
98,728	223,207	-0,228	-0,257
99,743	121,205	-0,201	-0,175
100,757	62,839	-0,330	-0,230
101,772	-83,169	-0,258	-0,057
102,787	205,124	-0,231	-0,251
103,801	233,516	-0,315	-0,363
104,816	22,554	-0,383	-0,218
105,830	81,201	-0,279	-0,211
106,845	31,727	-0,294	-0,176
107,860	56,108	-0,213	-0,144
108,874	-34,121	-0,224	-0,085
109,889	241,266	-0,170	-0,199
110,903	311,047	-0,205	-0,269
111,918	133,038	-0,226	-0,204
112,933	141,878	-0,171	-0,158
113,947	-86,213	-0,285	0,061
114,962	12,121	-0,161	-0,086
115,976	-48,941	-0,341	-0,113
116,991	44,951	-0,306	-0,196
118,006	21,078	-0,342	-0,193
119,020	91,026	-0,270	-0,211
120,035	13,387	-0,273	-0,147
121,049	28,206	-0,200	-0,118
122,064	59,482	-0,290	-0,199
123,079	76,563	-0,251	-0,185
124,093	91,301	-0,305	-0,239
125,108	172,081	-0,214	-0,215
126,122	104,141	-0,352	-0,288
127,137	30,967	-0,191	-0,114
128,151	171,021	-0,140	-0,140
129,166	289,964	-0,163	-0,206
130,181	206,185	-0,164	-0,178
131,195	157,693	-0,257	-0,248
132,210	-58,517	-0,275	-0,083
133,224	91,058	-0,236	-0,184
134,239	260,439	-0,155	-0,187
135,254	258,421	-0,104	-0,126
136,268	136,836	-0,192	-0,174
137,283	722,505	-0,130	-0,243
138,297	37,285	-0,379	-0,233
139,312	108,973	-0,291	-0,242
140,327	76,670	-0,307	-0,227
141,341	-37,372	-0,276	-0,102
142,356	162,557	-0,213	-0,208
143,370	66,084	-0,224	-0,158
144,385	119,086	-0,298	-0,256
145,400	46,267	-0,292	-0,188
146,414	2,135	-0,384	-0,193
147,429	113,339	-0,175	-0,147
148,443	616,619	-0,119	-0,209
149,458	-167,773	-0,295	-0,008
150,473	-149,173	-0,222	-0,012
151,487	110,860	-0,210	-0,176
152,502	76,855	-0,301	-0,222
153,516	101,458	-0,239	-0,194
154,531	-195,146	-0,265	-0,001
155,546	500,867	-0,160	-0,258
156,560	62,595	-0,271	-0,188
157,575	424,623	-0,102	-0,154
158,589	74,368	-0,219	-0,160
159,604	-62,288	-0,213	-0,061
160,619	-6,553	-0,307	-0,145
161,633	147,808	-0,245	-0,230
162,648	196,339	-0,196	-0,207
163,662	-40,170	-0,121	-0,044
164,677	649,984	-0,156	-0,279
165,692	64,929	-0,227	-0,159
166,706	150,137	-0,201	-0,189
167,721	-32,810	-0,320	-0,123
168,735	165,473	-0,243	-0,239
169,750	-68,426	-0,184	-0,049
170,764	85,550	-0,187	-0,142
171,779	22,420	-0,300	-0,170
172,794	-52,402	-0,221	-0,071
173,808	198,103	-0,209	-0,222
174,823	-45,629	-0,198	-0,068
175,837	166,726	-0,213	-0,210
176,852	-83,209	-0,360	-0,080
177,867	-71,869	-0,224	-0,057
178,881	557,686	-0,097	-0,163
179,896	315,321	-0,202	-0,265
180,910	244,090	-0,199	-0,232
181,925	-63,775	-0,247	-0,070
182,940	235,426	-0,177	-0,203
183,954	417,302	-0,161	-0,239
184,969	102,592	-0,167	-0,135
185,983	-21,253	-0,331	-0,139
186,998	194,218	-0,204	-0,214
188,013	-69,267	-0,297	-0,079
189,027	92,869	-0,195	-0,153
190,042	287,259	-0,202	-0,254
191,056	15,677	-0,046	-0,025
192,071	-39,444	-0,248	-0,090
193,086	750,106	-0,114	-0,215
194,100	103,729	-0,239	-0,194
195,115	220,038	-0,121	-0,134
196,129	54,401	-0,255	-0,170
197,144	305,636	-0,162	-0,209
198,159	3,100	-0,207	-0,104
199,173	-29,368	-0,283	-0,112
200,188	30,175	-0,107	0,063
201,202	-45,373	-0,083	-0,028
202,217	-89,823	-0,271	-0,054
203,232	159,989	-0,234	-0,226
204,246	-3,798	-0,156	-0,075
205,261	-31,289	-0,326	-0,127
206,275	2,997	-0,261	-0,131
207,290	535,059	-0,078	-0,128
208,304	-83,562	-0,220	-0,048
209,319	-16,095	-0,120	0,053
210,334	492,813	-0,111	-0,177
211,348	68,943	-0,243	-0,172
212,363	800,000	-0,117	-0,253
213,377	-200,000	-0,026	-0,112
214,392	174,345	-0,151	-0,151
215,407	-22,444	-0,208	-0,087
216,421	-102,277	-0,270	-0,044
217,436	55,622	-0,225	-0,150
218,450	96,445	-0,150	-0,119
219,465	63,325	-0,179	-0,124
220,480	167,964	-0,194	-0,191
221,494	776,554	-0,151	-0,287
222,509	139,874	-0,179	-0,163
223,523	159,762	-0,191	-0,184
224,538	19,922	-0,247	-0,137
225,553	444,314	-0,114	-0,174
226,567	184,892	-0,184	-0,189
227,582	6,701	-0,239	-0,122
228,596	-137,314	-0,136	-0,011
229,611	735,304	-0,129	-0,240
230,626	185,360	-0,125	-0,128
231,640	32,088	-0,193	-0,115
232,655	26,683	-0,186	-0,107
233,669	27,953	-0,170	-0,099
234,684	15,278	-0,249	-0,135
235,699	190,578	-0,172	-0,179
236,713	-33,833	-0,149	-0,056
237,728	237,580	-0,155	-0,177
238,742	715,946	-0,133	-0,244
239,757	1,092	-0,176	-0,087
240,772	139,828	-0,321	-0,292
241,786	46,139	-0,163	-0,104
242,801	154,258	-0,144	-0,137
243,815	-19,820	-0,088	0,037
244,830	490,265	-0,143	-0,226
245,844	397,621	-0,127	-0,184
246,859	604,523	-0,109	-0,188
247,874	800,000	-0,078	-0,175
248,888	48,429	-0,111	-0,071
249,903	800,000	-0,091	-0,177
250,917	-81,357	-0,076	-0,017
251,932	6,966	-0,103	-0,053
252,947	74,070	-0,125	-0,090
253,961	399,383	-0,169	-0,245
254,976	800,000	0,058	-0,169
255,990	58,007	-0,218	-0,147
257,005	386,214	-0,170	-0,243
258,020	401,296	-0,180	-0,261
259,034	-139,854	-0,240	-0,017
260,049	-144,621	-0,108	-0,007
261,063	80,974	-0,079	-0,059
262,078	78,454	-0,194	-0,142
263,093	49,969	-0,126	-0,081
264,107	16,973	-0,278	-0,151
265,122	-200,000	-0,044	-0,168
266,136	-200,000	-0,020	-0,166
267,151	-115,765	-0,210	-0,027
268,166	-162,492	-0,163	-0,005
269,180	-200,000	-0,020	-0,126
270,195	170,895	-0,157	-0,155
271,209	55,668	-0,259	-0,173
272,224	-52,241	-0,129	0,041
273,239	800,000	-0,064	-0,150
274,253	-88,522	-0,096	-0,020
275,268	-74,786	-0,250	-0,061
276,282	-5,845	-0,181	-0,085
277,297	800,000	-0,084	-0,175
278,312	-66,877	-0,302	-0,082
279,326	110,167	-0,104	-0,085
280,341	90,988	-0,186	-0,144
281,355	626,446	-0,066	-0,114
282,370	246,821	-0,147	-0,171
283,384	101,087	-0,149	-0,119
284,399	749,500	-0,161	-0,300
285,414	293,207	-0,170	-0,214
286,428	48,765	-0,104	-0,067
287,443	-48,219	-0,147	-0,048
288,457	157,630	-0,071	-0,067
289,472	20,879	-0,158	-0,088
290,487	150,687	-0,241	-0,225
291,501	25,535	-0,309	-0,176
292,516	15,143	-0,247	-0,133
293,530	-142,255	-0,147	0,010
294,545	-15,258	-0,168	-0,074
295,560	-139,138	-0,137	-0,010
296,574	306,139	-0,141	-0,180
297,589	-118,005	-0,168	-0,020
298,603	298,528	-0,154	-0,194
299,618	800,000	-0,112	-0,259
300,633	97,649	-0,148	-0,116
301,647	-1,935	-0,125	-0,060
302,662	-5,153	-0,102	-0,048
303,676	-16,241	-0,027	0,012
304,691	38,367	-0,138	-0,084
305,706	-200,000	-0,040	-0,195
306,720	7,454	-0,149	-0,076
307,735	800,000	-0,102	-0,210
308,749	286,476	-0,111	-0,138
309,764	-5,613	-0,054	0,025
310,779	-35,697	-0,179	-0,066
311,793	176,885	-0,171	-0,171
312,808	-200,000	-0,052	-0,291
313,822	-42,181	-0,120	-0,042
314,837	-47,988	-0,082	-0,027
315,852	84,944	-0,052	-0,039
316,866	800,000	-0,073	-0,204
317,881	-100,356	-0,125	-0,021
318,895	163,243	-0,121	-0,116
319,910	-51,987	-0,162	-0,051
320,925	-7,687	-0,138	-0,064
321,939	192,894	-0,184	-0,190
322,954	690,771	-0,067	-0,121
323,968	75,706	-0,074	-0,053
324,983	11,729	-0,136	-0,071
325,997	-111,825	-0,116	-0,016
327,012	-15,430	-0,198	-0,086
328,027	800,000	-0,059	-0,125
329,041	800,000	-0,058	-0,131
330,056	163,502	-0,127	-0,123
331,070	513,820	-0,112	-0,180
332,085	11,230	-0,205	-0,107
333,100	-130,446	-0,120	-0,011
334,114	61,574	-0,149	-0,101
335,129	455,146	-0,064	-0,097
336,143	800,000	-0,062	-0,155
337,158	440,048	-0,104	-0,156
338,173	166,645	-0,100	0,097
339,187	142,004	-0,036	-0,033
340,202	44,786	-0,099	-0,062
341,216	174,228	-0,115	-0,113
342,231	102,156	-0,255	-0,203
343,246	-61,784	-0,237	-0,067
344,260	129,220	-0,139	-0,121
345,275	392,080	-0,101	0,144
346,289	-17,367	-0,070	0,030
347,304	0,653	-0,101	0,049
348,319	-15,070	-0,270	-0,118
349,333	800,000	-0,106	-0,242
350,348	177,138	-0,143	-0,143
351,362	5,110	-0,164	-0,082
352,377	-99,937	-0,186	-0,031
353,392	-44,685	-0,059	0,020
354,406	800,000	-0,059	-0,129
355,421	208,055	1311,688	1402,122
356,435	160,078	1471,978	1402,574
