DTS Sentinel unit serial number:	SN410029Multiplexer serial number:	ORYXHardware model number:	OX2-SRSoftware version number:	ORYX F/W v4,00 Oryx Data Collector v3.7.2.0data status	okinstallation	B3 Nyhavnadifferential loss correction	single-endedforward channel	channel 1reverse channel	N/Adate	2023/11/29time	07:07:30forward acquisition time	300,00reverse acquisition time	0,00gamma	499,1914k internal	0,3212k external	0,3212temperature offset calibration	1,0000default loss term (dB/km)	0,3820temperature slope calibration	1,0000multiplexer offset coefficient	1,0000multiplexer slope coefficient	1,0000fibre end	0,00T internal ref (°C)	8,92T ext. ref 1 (°C)	-6,45T ext. ref 2 (°C)	-6,54length (m)	temperature (°C)	Stokes	anti-Stokes-744,400	424,961	-0,197	-0,308
-743,385	-200,000	0,058	0,334
-742,371	-200,000	-0,055	-0,191
-741,356	-200,000	0,019	0,275
-740,342	-106,782	-0,041	0,006
-739,327	-200,000	0,036	0,167
-738,312	243,843	-0,314	-0,382
-737,298	-200,000	0,009	0,224
-736,283	800,000	-0,148	-0,346
-735,269	-200,000	-0,032	0,340
-734,254	447,363	-0,099	-0,159
-733,239	20,255	-0,302	0,176
-732,225	598,225	-0,066	-0,120
-731,210	476,328	0,093	0,154
-730,196	800,000	-0,006	-0,013
-729,181	-200,000	0,013	0,054
-728,167	150,991	0,056	0,055
-727,152	-200,000	-0,019	-0,090
-726,137	800,000	-0,070	-0,214
-725,123	-200,000	0,007	-0,090
-724,108	112,564	-0,059	0,052
-723,094	502,166	0,036	-0,060
-722,079	559,432	0,027	-0,047
-721,064	-200,000	-0,000	-0,074
-720,050	-148,970	0,030	0,002
-719,035	435,315	-0,076	-0,121
-718,021	800,000	-0,024	-0,075
-717,006	-140,047	-0,133	-0,010
-715,991	93,641	-0,082	-0,068
-714,977	-150,786	-0,182	-0,010
-713,962	282,375	0,003	0,004
-712,948	-103,822	-0,080	0,013
-711,933	-31,044	0,070	-0,028
-710,918	800,000	0,012	-0,025
-709,904	800,000	-0,058	-0,186
-708,889	76,048	-0,055	0,042
-707,875	-200,000	-0,016	-0,101
-706,860	800,000	-0,027	-0,060
-705,845	800,000	0,055	0,168
-704,831	144,987	-0,077	0,075
-703,816	800,000	-0,016	-0,037
-702,802	431,466	-0,037	-0,059
-701,787	34,397	-0,068	-0,043
-700,772	800,000	-0,007	-0,020
-699,758	-200,000	0,014	0,082
-698,743	800,000	0,018	0,048
-697,729	-200,000	0,026	0,125
-696,714	-51,585	0,076	-0,026
-695,699	800,000	0,053	0,161
-694,685	-200,000	-0,032	-0,147
-693,670	429,445	-0,062	-0,097
-692,656	56,788	0,115	-0,081
-691,641	-200,000	0,003	0,053
-690,627	-116,073	0,054	-0,007
-689,612	-200,000	0,007	0,063
-688,597	-55,733	-0,088	0,028
-687,583	-26,542	-0,087	-0,037
-686,568	221,538	-0,016	0,019
-685,554	-107,566	-0,075	0,012
-684,539	-80,068	0,037	-0,009
-683,524	113,637	0,035	-0,031
-682,510	-200,000	-0,001	-0,101
-681,495	-139,339	-0,158	0,012
-680,481	742,113	-0,111	0,217
-679,466	425,822	0,063	-0,099
-678,451	-200,000	0,006	-0,122
-677,437	37,437	0,107	-0,068
-676,422	-98,242	-0,062	-0,011
-675,408	-90,927	-0,057	-0,012
-674,393	45,775	0,116	0,078
-673,378	59,370	-0,013	0,009
-672,364	-200,000	-0,021	0,079
-671,349	224,063	0,116	-0,136
-670,335	245,089	-0,017	0,021
-669,320	149,511	-0,035	-0,034
-668,305	1,847	0,116	-0,060
-667,291	-29,574	0,032	0,013
-666,276	-26,707	-0,111	-0,047
-665,262	-200,000	-0,001	-0,124
-664,247	-200,000	-0,019	-0,131
-663,232	26,857	-0,158	-0,096
-662,218	800,000	0,043	-0,093
-661,203	489,650	0,028	0,047
-660,189	131,518	0,040	-0,037
-659,174	314,936	-0,078	0,106
-658,159	-0,774	-0,138	0,070
-657,145	800,000	-0,021	-0,048
-656,130	-112,906	0,039	0,006
-655,116	191,574	-0,113	-0,123
-654,101	-13,391	0,035	-0,016
-653,086	-200,000	-0,012	-0,072
-652,072	-57,423	-0,079	-0,025
-651,057	-200,000	0,017	-0,076
-650,043	800,000	0,069	0,141
-649,028	172,546	-0,038	0,040
-648,014	172,985	0,078	0,081
-646,999	-30,935	-0,039	-0,016
-645,984	88,081	0,047	-0,038
-644,970	-200,000	-0,001	-0,019
-643,955	-79,895	-0,216	-0,052
-642,941	-44,309	-0,079	-0,029
-641,926	11,924	0,090	-0,050
-640,911	-114,234	0,107	-0,015
-639,897	-32,272	-0,022	0,009
-638,882	-200,000	-0,009	0,036
-637,868	-200,000	0,004	-0,023
-636,853	-200,000	0,004	-0,067
-635,838	-171,161	-0,130	0,003
-634,824	-118,001	-0,003	-0,000
-633,809	11,067	-0,110	0,060
-632,795	-200,000	-0,010	-0,062
-631,780	456,815	0,074	0,119
-630,765	121,914	0,073	-0,066
-629,751	-200,000	0,014	-0,177
-628,736	11,545	-0,150	-0,082
-627,722	-92,744	-0,087	-0,018
-626,707	800,000	-0,032	-0,075
-625,692	-57,275	0,069	0,022
-624,678	102,774	-0,036	-0,030
-623,663	-178,611	0,105	0,002
-622,649	476,322	-0,049	-0,080
-621,634	518,042	-0,010	0,017
-620,619	800,000	0,032	0,066
-619,605	-200,000	0,010	0,061
-618,590	-117,788	-0,121	0,016
-617,576	224,814	0,038	0,045
-616,561	58,598	0,062	-0,044
-615,546	-146,873	-0,035	0,002
-614,532	280,075	0,005	-0,007
-613,517	-38,358	0,019	-0,007
-612,503	35,148	-0,087	0,055
-611,488	524,604	-0,054	-0,092
-610,474	800,000	0,029	0,071
-609,459	-109,127	0,043	0,006
-608,444	-14,195	-0,038	-0,017
-607,430	-29,054	-0,089	-0,037
-606,415	119,090	-0,077	0,069
-605,401	800,000	-0,026	0,063
-604,386	191,139	0,037	-0,040
-603,371	66,988	-0,069	0,050
-602,357	-61,049	-0,058	-0,017
-601,342	-200,000	-0,000	-0,027
-600,328	228,580	-0,070	-0,083
-599,313	-112,641	-0,033	0,005
-598,298	-61,385	-0,060	-0,018
-597,284	-140,394	0,017	0,001
-596,269	-200,000	0,009	-0,132
-595,255	-98,201	-0,126	0,023
-594,240	-200,000	-0,011	-0,198
-593,225	-83,012	0,132	-0,030
-592,211	255,376	-0,083	-0,103
-591,196	-200,000	-0,005	-0,039
-590,182	87,924	0,084	0,067
-589,167	-147,725	-0,080	-0,005
-588,152	-65,283	0,115	0,033
-587,138	-86,288	0,076	-0,017
-586,123	295,382	-0,081	0,107
-585,109	800,000	-0,042	-0,122
-584,094	-62,441	-0,035	-0,010
-583,079	121,170	0,058	-0,052
-582,065	-200,000	0,007	0,102
-581,050	-200,000	-0,009	0,072
-580,036	-200,000	0,183	0,000
-579,021	664,565	-0,056	-0,105
-578,006	372,177	-0,082	-0,120
-576,992	-200,000	0,047	0,171
-575,977	-200,000	0,002	-0,006
-574,963	220,042	-0,091	-0,105
-573,948	-200,000	0,031	-0,149
-572,934	-59,943	-0,081	0,025
-571,919	105,199	-0,062	-0,053
-570,904	171,434	-0,057	-0,059
-569,890	-200,000	0,007	-0,034
-568,875	251,003	0,106	-0,130
-567,861	-90,445	0,043	0,009
-566,846	227,541	-0,061	0,071
-565,831	-12,906	0,044	-0,021
-564,817	129,535	-0,145	-0,133
-563,802	223,288	0,061	0,071
-562,788	-200,000	0,011	0,055
-561,773	-200,000	0,002	-0,032
-560,758	-200,000	0,009	0,150
-559,744	-200,000	0,007	0,055
-558,729	-200,000	0,010	0,088
-557,715	-1,225	-0,211	-0,107
-556,700	-25,109	0,074	0,031
-555,685	152,500	0,086	-0,085
-554,671	38,267	-0,098	0,063
-553,656	16,187	0,133	-0,075
-552,642	42,259	0,066	-0,043
-551,627	59,289	0,034	0,024
-550,612	124,768	-0,082	-0,074
-549,598	346,504	-0,042	-0,060
-548,583	123,855	-0,132	0,120
-547,569	800,000	-0,037	0,077
-546,554	314,373	0,138	0,188
-545,539	800,000	0,015	-0,043
-544,525	-200,000	0,016	0,072
-543,510	130,323	-0,056	-0,052
-542,496	47,942	0,059	0,039
-541,481	-15,524	-0,172	0,079
-540,466	-200,000	0,020	0,065
-539,452	134,075	-0,053	0,050
-538,437	-90,487	0,048	-0,010
-537,423	-117,150	-0,108	-0,014
-536,408	479,440	-0,042	-0,069
-535,393	36,299	-0,173	-0,110
-534,379	-143,825	-0,046	-0,003
-533,364	-182,630	-0,076	-0,001
-532,350	140,264	0,063	0,060
-531,335	217,873	-0,050	-0,057
-530,321	46,932	-0,048	0,032
-529,306	800,000	0,041	-0,111
-528,291	-79,943	-0,027	-0,006
-527,277	41,792	-0,067	-0,044
-526,262	800,000	0,013	-0,030
-525,248	161,039	-0,157	-0,158
-524,233	349,919	0,040	-0,057
-523,218	524,083	-0,065	0,110
-522,204	-200,000	-0,040	-0,135
-521,189	-200,000	0,006	-0,082
-520,175	61,295	-0,091	-0,065
-519,160	54,913	-0,093	0,065
-518,145	800,000	-0,007	-0,019
-517,131	-71,943	0,066	0,017
-516,116	190,661	-0,079	0,085
-515,102	58,235	0,036	-0,025
-514,087	-27,743	-0,156	-0,065
-513,072	-93,198	-0,082	0,016
-512,058	-16,563	-0,069	0,031
-511,043	-138,361	-0,148	-0,012
-510,029	800,000	0,036	0,106
-509,014	757,043	0,039	-0,075
-507,999	-43,073	0,147	0,053
-506,985	134,376	-0,061	-0,057
-505,970	-29,715	0,165	-0,067
-504,956	-200,000	0,005	0,032
-503,941	-84,372	-0,108	-0,024
-502,926	209,651	0,088	0,099
-501,912	-5,217	-0,120	0,059
-500,897	-200,000	-0,003	-0,063
-499,883	-122,624	0,065	0,007
-498,868	-200,000	0,010	-0,167
-497,853	67,540	0,116	-0,085
-496,839	43,051	0,183	-0,119
-495,824	-200,000	0,007	0,100
-494,810	296,091	0,087	0,115
-493,795	-85,262	0,097	0,022
-492,781	800,000	0,037	0,109
-491,766	-200,000	-0,001	-0,072
-490,751	800,000	0,024	0,063
-489,737	-200,000	0,009	-0,069
-488,722	0,386	0,028	0,014
-487,708	800,000	0,042	0,088
-486,693	-200,000	0,017	0,086
-485,678	-33,757	0,188	-0,074
-484,664	-200,000	-0,004	-0,012
-483,649	800,000	-0,044	-0,132
-482,635	-200,000	-0,013	0,061
-481,620	450,242	0,033	0,052
-480,605	303,590	0,054	0,072
-479,591	3,082	0,054	-0,028
-478,576	240,409	-0,100	-0,120
-477,562	-63,499	-0,125	0,037
-476,547	213,100	-0,065	-0,074
-475,532	242,903	0,019	0,023
-474,518	-143,573	0,108	0,007
-473,503	619,232	0,080	0,145
-472,489	-200,000	-0,023	0,088
-471,474	-81,837	-0,064	-0,015
-470,459	-24,435	0,081	0,035
-469,445	-200,000	0,030	-0,133
-468,430	-123,850	0,084	-0,009
-467,416	-200,000	-0,011	0,045
-466,401	-112,261	0,080	-0,011
-465,386	633,527	-0,042	-0,077
-464,372	-200,000	-0,004	-0,042
-463,357	-200,000	-0,113	-0,000
-462,343	26,011	-0,052	-0,031
-461,328	39,453	-0,142	-0,091
-460,313	-37,366	0,068	-0,026
-459,299	-127,322	0,114	0,012
-458,284	-137,217	0,086	0,007
-457,270	800,000	-0,015	-0,039
-456,255	30,054	0,087	-0,053
-455,241	50,759	-0,168	-0,114
-454,226	-200,000	-0,005	-0,031
-453,211	-146,744	-0,091	-0,006
-452,197	215,728	0,181	-0,207
-451,182	-36,976	-0,077	0,030
-450,168	-200,000	-0,018	0,217
-449,153	92,424	0,081	-0,065
-448,138	-200,000	0,006	0,088
-447,124	-89,655	-0,078	-0,016
-446,109	-200,000	0,006	0,094
-445,095	800,000	-0,019	0,056
-444,080	-200,000	-0,024	-0,100
-443,065	-24,792	-0,156	-0,066
-442,051	-200,000	-0,015	-0,078
-441,036	-200,000	-0,016	0,131
-440,022	-104,663	0,030	0,005
-439,007	-106,506	0,159	-0,025
-437,992	259,310	0,079	0,097
-436,978	203,154	0,100	0,111
-435,963	-62,197	0,102	0,030
-434,949	-200,000	-0,015	0,085
-433,934	-200,000	-0,008	0,148
-432,919	-161,054	-0,048	-0,002
-431,905	-41,132	0,057	-0,021
-430,890	594,850	-0,064	0,114
-429,876	-8,470	0,199	0,095
-428,861	-200,000	-0,005	-0,101
-427,846	290,264	-0,133	0,173
-426,832	18,032	0,051	-0,029
-425,817	53,786	-0,052	-0,036
-424,803	352,402	-0,037	0,053
-423,788	-200,000	-0,011	0,040
-422,773	-58,172	-0,139	0,043
-421,759	425,714	-0,023	-0,036
-420,744	-200,000	-0,002	0,033
-419,730	-200,000	-0,002	0,038
-418,715	-37,147	-0,084	-0,032
-417,701	-68,354	-0,092	0,025
-416,686	-200,000	0,008	-0,155
-415,671	-200,000	0,005	0,092
-414,657	207,034	-0,106	0,119
-413,642	-200,000	0,030	0,114
-412,628	-140,562	-0,118	-0,009
-411,613	-200,000	0,023	-0,163
-410,598	-200,000	-0,001	-0,084
-409,584	-200,000	0,011	-0,122
-408,569	-43,828	0,127	-0,046
-407,555	-16,881	0,022	-0,010
-406,540	800,000	0,020	0,041
-405,525	800,000	-0,024	-0,056
-404,511	-1,342	-0,053	0,027
-403,496	53,723	0,100	-0,069
-402,482	23,564	0,091	-0,053
-401,467	-200,000	-0,002	0,094
-400,452	800,000	-0,026	0,070
-399,438	5,148	0,074	-0,039
-398,423	-50,634	-0,203	-0,068
-397,409	-112,340	-0,023	0,003
-396,394	12,732	0,235	-0,129
-395,379	-200,000	-0,001	-0,015
-394,365	4,596	0,192	0,101
-393,350	106,090	0,110	0,093
-392,336	-200,000	-0,000	0,109
-391,321	-200,000	-0,011	-0,082
-390,306	445,242	-0,088	0,138
-389,292	158,137	-0,090	-0,089
-388,277	214,502	0,056	-0,064
-387,263	800,000	-0,032	0,099
-386,248	-200,000	0,007	0,071
-385,233	-126,437	0,064	-0,007
-384,219	800,000	0,023	-0,049
-383,204	190,958	-0,070	0,075
-382,190	329,649	0,117	-0,161
-381,175	86,303	-0,054	0,043
-380,160	82,103	0,123	-0,095
-379,146	3,400	-0,044	-0,023
-378,131	-63,611	0,129	0,038
-377,117	32,034	0,081	-0,050
-376,102	201,164	0,071	0,079
-375,088	448,178	-0,070	-0,111
-374,073	182,090	0,063	-0,067
-373,058	-72,320	0,097	-0,026
-372,044	800,000	-0,056	0,125
-371,029	-143,627	-0,026	-0,002
-370,015	-75,049	0,080	-0,020
-369,000	-200,000	-0,026	-0,174
-367,985	233,853	0,041	-0,048
-366,971	-133,154	0,184	0,016
-365,956	199,869	-0,095	-0,104
-364,942	-77,967	-0,075	-0,018
-363,927	55,573	0,069	0,047
-362,912	10,713	0,059	0,032
-361,898	-28,419	0,087	-0,036
-360,883	472,112	0,076	-0,123
-359,869	23,373	-0,082	0,048
-358,854	800,000	0,061	0,145
-357,839	-136,668	0,057	-0,005
-356,825	-21,002	-0,057	0,025
-355,810	800,000	0,081	0,176
-354,796	214,232	-0,107	-0,121
-353,781	-200,000	-0,001	-0,021
-352,766	133,284	0,042	-0,039
-351,752	50,291	-0,097	-0,065
-350,737	800,000	0,072	-0,175
-349,723	111,996	0,012	0,010
-348,708	76,326	0,095	0,072
-347,693	88,191	0,020	-0,016
-346,679	149,264	-0,067	-0,064
-345,664	-132,051	0,040	-0,004
-344,650	-19,545	-0,143	-0,063
-343,635	-200,000	0,022	0,165
-342,620	163,287	0,103	0,103
-341,606	-200,000	-0,002	0,239
-340,591	166,374	0,070	-0,071
-339,577	-200,000	0,017	-0,092
-338,562	-200,000	0,037	-0,122
-337,548	346,929	-0,071	-0,101
-336,533	391,725	0,098	0,145
-335,518	231,340	0,093	0,109
-334,504	-15,419	-0,049	0,022
-333,489	-200,000	-0,006	-0,050
-332,475	-200,000	-0,014	0,045
-331,460	3,055	-0,088	-0,045
-330,445	293,582	0,037	-0,049
-329,431	-183,391	0,127	-0,002
-328,416	242,687	-0,043	0,051
-327,402	29,627	-0,013	-0,008
-326,387	-200,000	-0,006	-0,059
-325,372	358,764	0,084	-0,120
-324,358	-25,928	-0,143	-0,060
-323,343	-8,877	-0,056	0,027
-322,329	-200,000	0,041	0,178
-321,314	-200,000	0,002	-0,043
-320,299	357,729	0,032	0,045
-319,285	112,185	-0,043	0,037
-318,270	300,977	-0,046	0,060
-317,256	-200,000	0,007	0,082
-316,241	81,457	0,052	-0,040
-315,226	378,969	-0,094	0,138
-314,212	-154,372	0,083	-0,004
-313,197	95,429	0,045	0,037
-312,183	83,943	0,015	-0,011
-311,168	-56,414	0,021	-0,007
-310,153	800,000	-0,053	-0,123
-309,139	2,929	0,081	-0,042
-308,124	50,241	-0,070	0,047
-307,110	416,223	0,074	0,112
-306,095	-128,738	0,171	0,017
-305,080	-200,000	0,008	-0,038
-304,066	-135,742	-0,081	-0,007
-303,051	-84,604	-0,154	0,034
-302,037	-112,098	-0,011	0,002
-301,022	89,520	0,049	0,039
-300,008	-89,750	-0,017	-0,004
-298,993	47,393	0,080	-0,053
-297,978	800,000	0,005	-0,011
-296,964	45,323	-0,097	-0,064
-295,949	10,173	0,063	-0,034
-294,935	87,597	-0,046	0,036
-293,920	-112,079	0,064	0,009
-292,905	-66,258	0,050	0,014
-291,891	-6,274	0,029	0,014
-290,876	-200,000	0,011	0,103
-289,862	3,291	-0,163	-0,084
-288,847	-200,000	0,006	-0,122
-287,832	800,000	-0,056	0,126
-286,818	-200,000	-0,003	0,033
-285,803	412,503	0,048	-0,073
-284,789	-71,432	0,080	-0,021
-283,774	217,702	0,054	0,062
-282,759	800,000	-0,066	-0,187
-281,745	-60,764	-0,126	0,038
-280,730	-13,416	-0,109	-0,050
-279,716	800,000	0,057	0,137
-278,701	-200,000	0,008	0,094
-277,686	63,222	0,068	0,048
-276,672	-200,000	-0,004	0,067
-275,657	-148,276	0,034	-0,002
-274,643	327,937	0,104	-0,143
-273,628	-200,000	0,021	0,081
-272,613	-200,000	-0,015	-0,155
-271,599	72,263	-0,077	0,057
-270,584	365,432	0,060	0,087
-269,570	3,122	0,074	0,038
-268,555	184,882	-0,119	-0,125
-267,540	67,033	-0,139	-0,101
-266,526	-200,000	-0,007	0,114
-265,511	-7,416	0,160	-0,077
-264,497	-115,534	0,091	-0,012
-263,482	-200,000	0,000	0,140
-262,467	-200,000	-0,010	0,107
-261,453	21,985	-0,085	0,049
-260,438	-53,402	0,006	0,002
-259,424	71,172	0,023	0,017
-258,409	-10,919	-0,025	0,012
-257,395	245,321	-0,018	-0,022
-256,380	-36,511	-0,083	0,032
-255,365	280,789	0,074	0,095
-254,351	800,000	-0,054	-0,126
-253,336	15,948	0,015	-0,008
-252,322	84,051	0,054	0,042
-251,307	-131,904	-0,029	0,003
-250,292	38,890	0,114	0,072
-249,278	383,443	0,087	0,128
-248,263	192,060	-0,013	-0,014
-247,249	-140,399	-0,043	0,003
-246,234	-104,875	-0,106	-0,017
-245,219	46,473	-0,057	-0,038
-244,205	131,221	0,022	-0,020
-243,190	-200,000	-0,009	0,065
-242,176	-66,404	0,064	0,018
-241,161	-109,577	-0,152	0,023
-240,146	56,336	0,064	0,044
-239,132	94,042	-0,075	0,061
-238,117	-48,312	-0,017	-0,006
-237,103	297,327	-0,090	0,118
-236,088	260,087	0,052	-0,064
-235,073	-26,310	0,112	0,047
-234,059	-200,000	0,002	-0,026
-233,044	-200,000	-0,014	0,136
-232,030	-12,723	-0,127	-0,059
-231,015	-200,000	-0,071	-0,272
-230,000	72,888	-0,040	-0,029
-228,986	270,549	0,050	-0,063
-227,971	420,448	0,014	-0,022
-226,957	296,905	0,088	0,115
-225,942	418,932	-0,078	0,119
-224,927	345,198	-0,055	0,077
-223,913	-200,000	0,002	-0,029
-222,898	-200,000	-0,002	-0,007
-221,884	800,000	0,028	-0,074
-220,869	621,624	-0,050	-0,090
-219,855	-200,000	0,001	-0,119
-218,840	-11,496	0,099	0,046
-217,825	-200,000	0,011	-0,128
-216,811	-27,792	-0,021	-0,009
-215,796	-200,000	-0,048	-0,195
-214,782	-200,000	0,007	-0,112
-213,767	-35,913	0,094	-0,036
-212,752	58,051	0,163	-0,113
-211,738	800,000	-0,019	0,040
-210,723	-137,579	-0,089	0,007
-209,709	688,271	0,048	-0,090
-208,694	37,805	0,077	0,048
-207,679	497,281	-0,041	-0,066
-206,665	533,196	-0,129	0,218
-205,650	-70,365	-0,039	0,010
-204,636	-120,864	0,071	-0,008
-203,621	171,594	-0,049	-0,050
-202,606	467,727	-0,075	-0,120
-201,592	-200,000	-0,002	-0,058
-200,577	-105,234	0,018	-0,003
-199,563	-25,031	-0,057	0,024
-198,548	253,431	0,055	-0,067
-197,533	-45,640	0,118	-0,041
-196,519	-91,930	0,113	0,023
-195,504	416,813	-0,046	-0,070
-194,490	453,700	0,055	0,087
-193,475	-45,081	0,135	-0,047
-192,460	-200,000	0,027	0,119
-191,446	-39,595	0,071	0,026
-190,431	147,248	0,085	0,082
-189,417	-200,000	-0,044	0,145
-188,402	-200,000	0,012	-0,134
-187,387	39,973	-0,069	-0,044
-186,373	564,950	-0,054	-0,093
-185,358	113,952	-0,062	0,053
-184,344	-131,836	0,061	-0,006
-183,329	-84,696	0,184	0,041
-182,315	67,713	-0,073	0,053
-181,300	97,951	-0,094	0,077
-180,285	185,379	-0,023	0,024
-179,271	-41,236	-0,025	0,009
-178,256	-105,016	0,165	-0,027
-177,242	523,242	-0,055	0,093
-176,227	170,888	-0,091	0,092
-175,212	252,413	-0,063	0,076
-174,198	66,373	-0,083	-0,060
-173,183	213,316	0,161	-0,181
-172,169	787,499	0,035	-0,068
-171,154	394,237	-0,087	0,129
-170,139	699,741	0,104	0,194
-169,125	-13,687	-0,049	0,022
-168,110	-200,000	-0,028	0,192
-167,096	-200,000	0,021	0,146
-166,081	-38,288	-0,008	-0,003
-165,066	-104,510	0,100	-0,016
-164,052	101,414	-0,065	0,054
-163,037	237,996	0,119	0,141
-162,023	310,640	-0,118	0,157
-161,008	-148,938	-0,084	0,005
-159,993	41,305	-0,121	0,078
-158,979	637,817	0,073	-0,133
-157,964	245,698	-0,048	-0,058
-156,950	-23,970	0,118	0,050
-155,935	-42,167	-0,069	-0,025
-154,920	-200,000	-0,004	0,032
-153,906	800,000	0,059	0,155
-152,891	-200,000	0,016	0,072
-151,877	293,827	-0,021	0,028
-150,862	305,079	-0,104	0,137
-149,847	102,099	0,090	0,074
-148,833	210,091	-0,030	-0,033
-147,818	565,316	-0,031	-0,053
-146,804	-200,000	-0,022	0,087
-145,789	-200,000	0,011	0,036
-144,775	800,000	-0,029	-0,077
-143,760	198,366	-0,089	-0,096
-142,745	-200,000	-0,022	-0,110
-141,731	38,969	-0,060	-0,038
-140,716	800,000	0,063	-0,149
-139,702	-133,123	0,112	-0,010
-138,687	731,787	0,014	0,027
-137,672	-28,080	-0,104	-0,042
-136,658	-200,000	0,023	-0,094
-135,643	-80,406	-0,186	0,044
-134,629	-83,507	-0,060	-0,014
-133,614	-66,189	0,280	0,078
-132,599	-60,753	0,050	0,015
-131,585	-200,000	0,031	0,222
-130,570	-1,459	-0,061	-0,031
-129,556	-200,000	-0,006	-0,065
-128,541	-200,000	-0,003	-0,091
-127,526	800,000	-0,013	-0,031
-126,512	-200,000	0,008	0,070
-125,497	743,544	0,078	0,149
-124,483	-160,648	0,059	-0,002
-123,468	253,135	-0,033	-0,040
-122,453	800,000	-0,038	-0,100
-121,439	501,642	-0,047	-0,078
-120,424	-6,318	-0,082	0,039
-119,410	154,103	-0,032	0,031
-118,395	800,000	0,053	0,165
-117,380	275,134	0,035	-0,044
-116,366	-125,690	0,067	0,007
-115,351	92,684	0,104	-0,083
-114,337	34,862	-0,039	-0,024
-113,322	104,538	0,053	0,044
-112,307	731,485	-0,092	0,175
-111,293	800,000	0,013	0,030
-110,278	73,515	0,093	0,068
-109,264	-200,000	0,024	-0,256
-108,249	-200,000	-0,043	-0,148
-107,234	-200,000	-0,014	0,073
-106,220	-76,836	0,077	-0,019
-105,205	-200,000	-0,039	-0,151
-104,191	-72,946	0,079	-0,020
-103,176	221,610	0,057	0,065
-102,162	-13,500	-0,138	-0,063
-101,147	-147,040	0,085	0,005
-100,132	134,576	0,037	0,034
-99,118	-69,498	-0,102	-0,027
-98,103	132,030	-0,022	0,020
-97,089	61,562	0,082	0,058
-96,074	800,000	0,068	0,155
-95,059	262,492	-0,060	0,074
-94,045	250,115	0,032	-0,038
-93,030	800,000	-0,048	0,126
-92,016	-41,069	0,099	0,036
-91,001	800,000	0,036	0,089
-89,986	-200,000	0,007	0,063
-88,972	-37,047	-0,095	-0,036
-87,957	52,084	0,047	-0,032
-86,943	-200,000	-0,004	-0,037
-85,928	-13,149	0,067	-0,031
-84,913	-200,000	-0,024	-0,118
-83,899	-49,053	-0,202	0,068
-82,884	800,000	-0,062	0,123
-81,870	-69,448	0,099	0,027
-80,855	800,000	0,049	0,109
-79,840	25,099	0,004	-0,003
-78,826	-54,519	0,017	-0,005
-77,811	-37,645	0,071	0,027
-76,797	339,589	0,020	-0,028
-75,782	513,468	0,033	0,054
-74,767	-41,266	0,148	-0,054
-73,753	800,000	0,038	0,077
-72,738	291,373	0,064	0,082
-71,724	800,000	-0,085	-0,168
-70,709	800,000	-0,066	0,137
-69,694	-200,000	-0,011	-0,065
-68,680	-200,000	0,004	-0,081
-67,665	800,000	0,070	0,164
-66,651	-200,000	0,015	0,072
-65,636	201,909	-0,117	-0,127
-64,622	-200,000	0,016	0,103
-63,607	-200,000	-0,007	0,028
-62,592	-1,885	-0,079	-0,039
-61,578	541,963	0,067	-0,114
-60,563	129,061	0,099	0,090
-59,549	506,670	-0,042	0,069
-58,534	54,907	-2,085	-1,418
-57,519	524,400	-1,201	-2,002
-56,505	-200,000	-0,335	-4,362
-55,490	658,348	0,816	1,487
-54,476	800,000	5,172	11,451
-53,461	-200,000	21,872	337,209
-52,446	800,000	758,527	2294,831
-51,432	533,285	1652,087	2771,096
-50,417	69,163	1650,348	1195,866
-49,403	16,556	1525,192	848,027
-48,388	10,763	1449,669	778,156
-47,373	19,010	1441,485	813,104
-46,359	14,125	1430,610	783,829
-45,344	9,078	1426,371	757,567
-44,330	9,050	1424,434	756,375
-43,315	8,999	1422,712	755,189
-42,300	8,988	1420,982	754,188
-41,286	9,028	1419,755	753,697
-40,271	8,933	1418,789	752,703
-39,257	8,952	1417,412	752,033
-38,242	9,021	1416,178	751,674
-37,227	8,992	1415,166	750,974
-36,213	9,001	1413,786	750,254
-35,198	9,066	1412,472	749,832
-34,184	9,032	1411,565	749,159
-33,169	8,980	1410,309	748,217
-32,154	9,020	1409,332	747,857
-31,140	8,976	1408,130	746,983
-30,125	9,009	1406,970	746,494
-29,111	9,026	1405,538	745,784
-28,096	9,014	1404,408	745,100
-27,082	8,940	1403,479	744,233
-26,067	8,934	1402,336	743,567
-25,052	8,975	1401,090	743,071
-24,038	8,974	1400,359	742,645
-23,023	8,938	1399,320	741,900
-22,009	8,947	1398,340	741,393
-20,994	8,935	1397,381	740,797
-19,979	8,903	1396,428	740,115
-18,965	8,926	1395,455	739,675
-17,950	8,919	1394,280	738,993
-16,936	8,882	1393,708	738,486
-15,921	8,830	1392,739	737,702
-14,906	8,838	1391,814	737,223
-13,892	8,927	1390,635	736,980
-12,877	8,911	1389,946	736,512
-11,863	8,902	1389,211	736,052
-10,848	8,877	1388,299	735,424
-9,833	8,852	1387,125	734,657
-8,819	8,784	1386,623	734,046
-7,804	8,765	1385,647	733,414
-6,790	8,740	1384,621	732,729
-5,775	8,798	1383,482	732,361
-4,760	8,798	1382,588	731,861
-3,746	8,819	1381,582	731,394
-2,731	8,826	1380,662	730,913
-1,717	8,824	1379,892	730,468
-0,702	8,819	1378,050	729,439
0,313	12,785	1289,786	700,747
1,327	28,668	682,067	406,193
2,342	44,617	117,539	76,050
3,356	-0,036	16,520	8,267
4,371	-1,639	3,653	1,808
5,386	0,829	1,239	0,623
6,400	800,000	0,288	0,630
7,415	-13,075	-0,176	-0,080
8,429	-68,930	-0,305	-0,082
9,444	168,572	-0,342	-0,343
10,459	214,713	-0,206	-0,230
11,473	28,448	-0,331	-0,197
12,488	-92,046	-0,272	-0,054
13,502	-64,054	-0,327	-0,093
14,517	-99,759	-0,294	-0,051
15,531	25,382	-0,444	-0,260
16,546	-49,319	-0,365	-0,122
17,561	150,296	-0,357	-0,341
18,575	136,564	-0,162	-0,149
19,590	80,083	-0,238	-0,180
20,604	-147,562	-0,405	0,024
21,619	189,379	-0,468	-0,494
22,634	68,604	-0,415	-0,299
23,648	85,808	-0,492	-0,380
24,663	35,872	-0,422	-0,261
25,677	75,579	-0,288	-0,213
26,692	-26,643	-0,335	-0,137
27,707	0,333	-0,364	-0,182
28,721	94,031	-0,326	-0,260
29,736	78,785	-0,374	-0,282
30,750	152,576	-0,337	-0,324
31,765	14,671	-0,449	-0,246
32,780	150,880	-0,366	-0,350
33,794	-28,497	-0,364	-0,147
34,809	20,706	-0,334	-0,189
35,823	64,561	-0,407	-0,288
36,838	159,078	-0,357	-0,349
37,853	1,669	-0,468	-0,236
38,867	223,448	-0,377	-0,429
39,882	66,314	-0,435	-0,310
40,896	63,908	-0,334	-0,235
41,911	69,649	-0,356	-0,258
42,926	-1,429	-0,309	-0,153
43,940	82,905	-0,281	-0,215
44,955	297,890	-0,255	-0,329
45,969	104,855	-0,333	-0,276
46,984	119,287	-0,176	-0,153
47,999	43,265	-0,391	-0,250
49,013	27,262	-0,230	-0,136
50,028	-18,153	-0,316	-0,138
51,042	162,927	-0,283	-0,279
52,057	113,917	-0,371	-0,317
53,071	224,661	-0,301	-0,342
54,086	47,550	-0,356	-0,232
55,101	-48,809	-0,418	-0,140
56,115	11,251	-0,327	-0,175
57,130	-61,931	-0,503	-0,147
58,144	-37,777	-0,451	-0,168
59,159	88,394	-0,491	-0,382
60,174	-60,445	-0,382	-0,113
61,188	-135,563	-0,350	-0,029
62,203	108,270	-0,299	-0,250
63,217	62,094	-0,228	-0,160
64,232	75,702	-0,447	-0,331
65,247	319,257	-0,302	-0,403
66,261	124,342	-0,346	-0,305
67,276	110,504	-0,338	-0,285
68,290	-96,843	-0,380	-0,069
69,305	-0,308	-0,287	-0,143
70,320	38,701	-0,322	-0,201
71,334	123,089	-0,210	-0,184
72,349	122,951	-0,249	-0,218
73,363	66,081	-0,390	-0,277
74,378	141,548	-0,406	-0,377
75,393	76,744	-0,250	-0,185
76,407	-79,958	-0,301	-0,070
77,422	-33,453	-0,271	-0,105
78,436	-82,255	-0,231	-0,052
79,451	84,793	-0,327	-0,251
80,466	-91,388	-0,347	-0,069
81,480	45,104	-0,412	-0,265
82,495	48,980	-0,193	-0,127
83,509	184,946	-0,233	-0,242
84,524	8,473	-0,237	-0,124
85,539	-142,906	-0,331	-0,022
86,553	15,625	-0,372	-0,204
87,568	2,457	-0,409	-0,206
88,582	-18,503	-0,219	-0,095
89,597	-40,513	-0,341	-0,123
90,611	-99,571	-0,193	-0,034
91,626	-6,540	-0,202	-0,096
92,641	210,035	-0,265	-0,291
93,655	745,334	-0,095	-0,180
94,670	-40,610	-0,243	-0,088
95,684	112,261	-0,291	-0,246
96,699	43,344	-0,221	-0,141
97,714	-9,847	-0,197	-0,091
98,728	-70,620	-0,172	-0,045
99,743	1,213	-0,157	-0,079
100,757	-55,617	-0,150	-0,047
101,772	267,702	-0,272	-0,334
102,787	66,149	-0,300	-0,213
103,801	-66,213	-0,282	-0,078
104,816	1,741	-0,278	-0,139
105,830	26,420	-0,276	-0,161
106,845	-200,000	-0,070	-0,246
107,860	189,543	-0,172	-0,181
108,874	-129,465	-0,343	-0,033
109,889	-13,939	-0,258	-0,116
110,903	33,423	-0,296	-0,179
111,918	-66,482	-0,298	-0,082
112,933	117,059	-0,244	-0,210
113,947	193,397	-0,201	-0,213
114,962	128,561	-0,269	-0,239
115,976	65,322	-0,254	-0,179
116,991	-101,042	-0,237	-0,040
118,006	157,597	-0,242	-0,234
119,020	-35,378	-0,272	-0,102
120,035	-0,515	-0,230	-0,114
121,049	-200,000	-0,063	-0,256
122,064	-63,042	-0,159	-0,045
123,079	54,134	-0,217	-0,146
124,093	-27,096	-0,412	-0,167
125,108	187,793	-0,218	-0,227
126,122	-145,388	-0,353	-0,022
127,137	-78,726	-0,222	-0,053
128,151	44,078	-0,108	0,069
129,166	-119,414	-0,349	-0,042
130,181	14,803	-0,264	-0,144
131,195	-41,869	-0,239	0,085
132,210	-70,217	-0,404	-0,106
133,224	-109,392	-0,271	-0,040
134,239	58,187	-0,223	-0,152
135,254	289,012	-0,132	-0,167
136,268	-78,171	-0,246	-0,058
137,283	2,621	-0,295	-0,148
138,297	100,875	-0,286	-0,232
139,312	126,849	-0,193	-0,170
140,327	81,550	-0,320	-0,241
141,341	15,323	-0,123	-0,067
142,356	163,740	-0,231	-0,227
143,370	80,902	-0,205	-0,154
144,385	-158,246	-0,273	0,011
145,400	79,205	-0,302	-0,225
146,414	179,160	-0,159	-0,162
147,429	-146,861	-0,212	0,012
148,443	38,504	-0,100	-0,062
149,458	398,433	-0,129	-0,189
150,473	-20,170	-0,301	-0,128
151,487	-16,482	-0,301	-0,132
152,502	88,354	-0,236	-0,182
153,516	171,941	-0,262	-0,262
154,531	-15,842	-0,315	-0,139
155,546	120,251	-0,283	-0,244
156,560	-176,288	-0,231	-0,004
157,575	603,439	-0,070	-0,121
158,589	116,147	-0,145	-0,124
159,604	-1,937	-0,165	-0,080
160,619	-81,867	-0,323	-0,073
161,633	-76,546	-0,180	-0,044
162,648	130,896	-0,113	-0,101
163,662	592,220	-0,152	-0,262
164,677	8,368	-0,287	-0,149
165,692	24,443	-0,213	-0,122
166,706	-167,189	-0,242	0,007
167,721	-30,707	-0,346	-0,135
168,735	-138,826	-0,077	-0,006
169,750	-29,873	-0,364	-0,144
170,764	230,084	-0,184	-0,209
171,779	131,604	-0,127	-0,113
172,794	-21,590	-0,210	-0,089
173,808	66,633	-0,182	-0,129
174,823	37,209	-0,304	-0,187
175,837	-63,239	-0,232	-0,066
176,852	188,638	-0,199	-0,207
177,867	-114,820	-0,134	-0,018
178,881	-104,013	-0,191	-0,031
179,896	64,684	-0,133	-0,093
180,910	62,468	-0,269	-0,186
181,925	298,006	-0,167	-0,214
182,940	522,434	-0,122	-0,199
183,954	800,000	-0,095	-0,259
184,969	-26,927	-0,150	-0,060
185,983	3,550	-0,166	-0,084
186,998	29,100	-0,172	-0,101
188,013	-70,434	-0,334	-0,087
189,027	171,751	-0,201	-0,200
190,042	-32,109	-0,353	-0,136
191,056	50,848	-0,247	-0,162
192,071	23,315	-0,158	-0,090
193,086	-121,707	-0,063	-0,007
194,100	66,442	-0,131	-0,092
195,115	24,808	-0,250	-0,143
196,129	12,135	-0,199	-0,106
197,144	-117,415	-0,307	-0,038
198,159	800,000	-0,097	-0,198
199,173	172,440	-0,217	-0,217
200,188	-101,725	-0,137	0,023
201,202	768,187	-0,060	-0,114
202,217	-77,767	-0,232	-0,055
203,232	800,000	-0,085	-0,205
204,246	119,923	-0,150	-0,129
205,261	356,848	-0,139	-0,193
206,275	56,609	-0,204	-0,137
207,290	270,005	-0,182	-0,223
208,304	-81,769	-0,307	-0,069
209,319	53,317	-0,146	-0,097
210,334	-38,271	-0,170	-0,062
211,348	225,411	-0,165	-0,186
212,363	87,018	-0,289	-0,221
213,377	81,994	-0,187	-0,140
214,392	-73,914	-0,286	-0,071
215,407	-103,070	-0,215	-0,035
216,421	-118,637	-0,244	-0,030
217,436	-200,000	-0,058	-0,230
218,450	-10,293	-0,217	-0,099
219,465	389,663	-0,182	-0,262
220,480	50,847	-0,260	-0,170
221,494	280,760	-0,122	-0,152
222,509	243,577	-0,146	-0,169
223,523	672,776	-0,086	-0,155
224,538	-42,820	-0,270	-0,094
225,553	104,563	-0,171	-0,139
226,567	29,852	-0,274	-0,161
227,582	176,912	-0,199	-0,200
228,596	-73,557	-0,117	-0,029
229,611	131,506	-0,093	-0,083
230,626	101,310	-0,251	-0,202
231,640	42,294	-0,238	-0,149
232,655	94,915	-0,231	-0,182
233,669	81,963	-0,267	-0,200
234,684	-176,411	-0,221	0,004
235,699	-36,712	-0,104	-0,038
236,713	-14,703	-0,133	0,059
237,728	-38,819	-0,085	-0,031
238,742	-29,950	-0,201	0,079
239,757	-52,585	-0,164	-0,052
240,772	33,779	-0,164	-0,098
241,786	111,128	-0,230	-0,191
242,801	-35,471	-0,254	-0,095
243,815	-101,517	-0,129	0,021
244,830	-23,239	-0,217	-0,090
245,844	-35,038	-0,146	-0,055
246,859	-46,410	-0,226	-0,076
247,874	363,436	-0,113	-0,157
248,888	244,904	-0,230	-0,267
249,903	-65,623	-0,209	-0,057
250,917	800,000	-0,095	-0,192
251,932	-53,859	-0,123	-0,038
252,947	-178,613	-0,172	0,003
253,961	-57,018	-0,301	-0,091
254,976	441,742	-0,157	-0,237
255,990	-200,000	-0,068	-0,261
257,005	217,994	-0,133	-0,147
258,020	-112,194	-0,054	-0,007
259,034	-66,873	-0,301	0,081
260,049	-200,000	-0,004	-0,040
261,063	164,739	-0,082	-0,079
262,078	800,000	-0,102	-0,220
263,093	114,654	-0,163	-0,137
264,107	280,173	-0,071	0,087
265,122	-47,830	-0,067	-0,022
266,136	120,338	-0,157	-0,134
267,151	-59,257	-0,173	-0,051
268,166	162,627	-0,195	-0,189
269,180	255,009	-0,192	-0,227
270,195	91,341	-0,241	-0,186
271,209	800,000	-0,097	-0,225
272,224	207,323	-0,179	-0,193
273,239	800,000	-0,053	-0,115
274,253	-187,417	-0,204	-0,002
275,268	40,877	-0,167	-0,104
276,282	24,422	-0,269	-0,153
277,297	651,482	-0,151	-0,267
278,312	-200,000	-0,028	-0,149
279,326	198,655	-0,143	-0,151
280,341	354,206	-0,107	-0,147
281,355	28,901	-0,175	-0,102
282,370	-121,517	-0,165	-0,019
283,384	92,320	-0,115	-0,089
284,399	434,883	-0,133	-0,200
285,414	232,699	-0,144	-0,163
286,428	53,689	-0,142	-0,094
287,443	-22,838	-0,124	-0,051
288,457	800,000	-0,043	-0,094
289,472	23,516	-0,112	-0,063
290,487	232,533	-0,158	-0,179
291,501	800,000	-0,079	-0,183
292,516	475,886	-0,152	-0,237
293,530	800,000	-0,053	-0,128
294,545	-200,000	-0,002	0,019
295,560	24,587	-0,098	-0,056
296,574	-10,034	-0,122	-0,056
297,589	52,321	-0,116	-0,076
298,603	293,921	-0,076	-0,095
299,618	81,972	-0,221	-0,164
300,633	-66,953	-0,147	-0,040
301,647	-136,056	-0,091	-0,007
302,662	-16,748	-0,143	-0,062
303,676	800,000	-0,054	-0,126
304,691	-61,257	-0,241	-0,069
305,706	160,982	-0,193	-0,185
306,720	366,503	-0,187	-0,260
307,735	96,899	-0,186	-0,147
308,749	382,056	-0,027	-0,038
309,764	-200,000	-0,018	-0,081
310,779	-53,477	-0,199	-0,062
311,793	229,757	-0,046	-0,052
312,808	309,117	-0,157	-0,202
313,822	800,000	-0,077	-0,156
314,837	9,593	-0,211	-0,109
315,852	81,637	-0,146	-0,108
316,866	800,000	-0,032	-0,064
317,881	43,854	-0,094	-0,059
318,895	-15,558	-0,101	-0,044
319,910	35,979	-0,166	-0,100
320,925	-106,722	-0,199	-0,030
321,939	-27,195	-0,105	-0,042
322,954	112,587	-0,083	-0,069
323,968	180,246	-0,017	0,017
324,983	-142,027	-0,061	0,004
325,997	47,163	-0,143	-0,091
327,012	-65,697	-0,223	-0,061
328,027	20,851	-0,226	-0,125
329,041	-200,000	-0,058	-0,181
330,056	35,255	-0,217	-0,130
331,070	55,992	-0,093	0,062
332,085	-113,902	-0,129	-0,017
333,100	308,057	-0,092	-0,118
334,114	-42,487	-0,236	-0,082
335,129	-200,000	-0,027	-0,234
336,143	304,842	-0,090	-0,115
337,158	45,043	-0,168	-0,105
338,173	-166,942	-0,182	-0,005
339,187	101,332	-0,113	-0,090
340,202	-200,000	0,013	-0,045
341,216	-54,939	-0,196	-0,060
342,231	32,686	-0,187	-0,110
343,246	800,000	-0,104	-0,206
344,260	800,000	-0,095	-0,235
345,275	416,328	-0,094	-0,137
346,289	223,439	-0,070	-0,077
347,304	-42,564	-0,114	0,040
348,319	9,607	-0,163	-0,084
349,333	151,421	-0,159	-0,148
350,348	-200,000	-0,016	-0,099
351,362	137,937	-0,108	-0,097
352,377	-66,906	-0,130	-0,035
353,392	23,155	-0,166	-0,093
354,406	-200,000	-0,008	-0,029
355,421	208,043	1308,042	1398,822
356,435	160,073	1467,890	1399,293
