DTS Sentinel unit serial number:	SN410029Multiplexer serial number:	ORYXHardware model number:	OX2-SRSoftware version number:	ORYX F/W v4,00 Oryx Data Collector v3.7.2.0data status	okinstallation	B3 Nyhavnadifferential loss correction	single-endedforward channel	channel 1reverse channel	N/Adate	2023/12/05time	00:57:30forward acquisition time	300,00reverse acquisition time	0,00gamma	499,1914k internal	0,3200k external	0,3200temperature offset calibration	1,0000default loss term (dB/km)	0,3820temperature slope calibration	1,0000multiplexer offset coefficient	1,0000multiplexer slope coefficient	1,0000fibre end	0,00T internal ref (°C)	13,81T ext. ref 1 (°C)	-1,13T ext. ref 2 (°C)	-1,16length (m)	temperature (°C)	Stokes	anti-Stokes-744,400	257,473	-0,273	-0,342
-743,385	-200,000	-0,026	0,314
-742,371	122,759	-0,226	-0,205
-741,356	-200,000	0,016	0,239
-740,342	-43,903	-0,189	-0,069
-739,327	-200,000	-0,036	0,247
-738,312	184,926	-0,240	-0,259
-737,298	-200,000	0,034	0,297
-736,283	-32,699	-0,170	-0,069
-735,269	-200,000	-0,045	0,261
-734,254	69,761	-0,186	-0,139
-733,239	28,747	-0,188	0,115
-732,225	712,660	-0,110	-0,214
-731,210	-200,000	0,013	0,111
-730,196	-124,366	0,015	0,002
-729,181	29,791	-0,023	-0,014
-728,167	-33,980	-0,022	0,009
-727,152	-119,332	-0,103	0,013
-726,137	-74,728	-0,031	0,008
-725,123	-56,365	-0,131	-0,042
-724,108	-200,000	-0,018	-0,066
-723,094	800,000	-0,062	-0,148
-722,079	-200,000	0,002	0,011
-721,064	744,460	-0,005	0,011
-720,050	-150,756	-0,095	-0,005
-719,035	-200,000	0,026	0,089
-718,021	108,901	0,047	-0,041
-717,006	57,015	-0,051	-0,036
-715,991	365,604	-0,062	-0,091
-714,977	800,000	0,023	-0,060
-713,962	-54,876	-0,084	-0,027
-712,948	-185,100	0,063	0,001
-711,933	-123,826	-0,102	-0,012
-710,918	-138,965	-0,145	-0,011
-709,904	8,203	-0,088	0,048
-708,889	97,871	-0,045	-0,038
-707,875	665,021	0,040	-0,076
-706,860	-15,553	-0,041	0,019
-705,845	-200,000	0,024	0,129
-704,831	25,466	-0,085	0,051
-703,816	-184,166	-0,088	-0,001
-702,802	34,850	0,027	-0,017
-701,787	155,479	-0,082	-0,082
-700,772	-116,858	-0,117	0,015
-699,758	-200,000	0,018	-0,065
-698,743	697,576	0,069	0,133
-697,729	-200,000	-0,030	0,140
-696,714	61,786	-0,036	-0,026
-695,699	800,000	0,017	-0,051
-694,685	204,936	-0,109	-0,123
-693,670	651,476	-0,056	-0,105
-692,656	-200,000	0,007	0,028
-691,641	-200,000	-0,033	-0,140
-690,627	800,000	-0,024	0,060
-689,612	-51,569	-0,023	0,008
-688,597	292,062	-0,097	0,128
-687,583	800,000	-0,033	0,071
-686,568	-200,000	0,017	-0,080
-685,554	-14,150	-0,128	-0,060
-684,539	214,698	-0,035	0,041
-683,524	800,000	0,003	-0,008
-682,510	-34,331	0,013	-0,005
-681,495	55,403	-0,140	-0,098
-680,481	-32,134	-0,092	0,037
-679,466	120,767	-0,047	-0,042
-678,451	-59,107	-0,100	-0,031
-677,437	390,360	-0,020	0,031
-676,422	-162,225	0,059	-0,002
-675,408	-200,000	-0,017	0,132
-674,393	-200,000	0,030	0,156
-673,378	800,000	-0,039	-0,105
-672,364	154,032	-0,099	-0,098
-671,349	187,269	0,090	0,098
-670,335	-92,651	-0,053	0,011
-669,320	-200,000	-0,017	0,062
-668,305	-200,000	0,008	0,033
-667,291	442,467	-0,077	-0,122
-666,276	-200,000	0,008	-0,076
-665,262	-87,983	0,011	0,002
-664,247	800,000	-0,071	0,144
-663,232	181,157	-0,014	-0,015
-662,218	739,775	-0,019	0,037
-661,203	-9,753	-0,066	-0,032
-660,189	-133,762	-0,056	0,005
-659,174	800,000	-0,025	0,056
-658,159	56,525	0,114	-0,080
-657,145	142,999	-0,066	-0,063
-656,130	-200,000	0,004	-0,039
-655,116	-19,205	0,092	-0,041
-654,101	-141,911	0,045	0,003
-653,086	-81,964	-0,071	-0,017
-652,072	800,000	-0,065	-0,159
-651,057	-66,795	-0,147	-0,042
-650,043	-96,067	0,057	-0,011
-649,028	702,801	-0,067	-0,129
-648,014	51,981	0,064	-0,044
-646,999	-74,789	0,048	0,012
-645,984	-98,104	-0,017	0,003
-644,970	-200,000	-0,005	-0,146
-643,955	800,000	-0,078	-0,171
-642,941	-46,700	-0,095	-0,033
-641,926	800,000	0,017	-0,034
-640,911	-58,884	-0,141	-0,044
-639,897	167,604	-0,045	0,047
-638,882	800,000	0,029	0,077
-637,868	-200,000	0,019	-0,113
-636,853	800,000	-0,025	-0,075
-635,838	-47,512	-0,118	-0,041
-634,824	-56,405	-0,055	0,017
-633,809	40,274	0,067	-0,044
-632,795	181,745	0,124	0,133
-631,780	31,645	0,012	0,008
-630,765	-200,000	-0,019	-0,096
-629,751	167,095	-0,112	-0,115
-628,736	-29,952	-0,101	-0,042
-627,722	800,000	0,018	-0,037
-626,707	133,762	0,092	0,087
-625,692	-184,375	-0,192	0,002
-624,678	523,778	-0,020	0,033
-623,663	30,207	0,118	-0,073
-622,649	232,465	-0,038	-0,045
-621,634	88,369	-0,079	0,064
-620,619	-156,894	-0,162	-0,007
-619,605	148,826	-0,016	0,016
-618,590	-200,000	-0,004	0,076
-617,576	-145,185	-0,029	0,002
-616,561	530,659	0,033	-0,057
-615,546	-183,969	0,123	-0,001
-614,532	800,000	-0,015	0,034
-613,517	-104,710	0,059	0,010
-612,503	-121,915	0,025	-0,003
-611,488	597,034	-0,094	0,169
-610,474	493,508	-0,058	-0,097
-609,459	-67,954	0,060	-0,017
-608,444	-58,486	-0,108	-0,034
-607,430	-126,603	-0,100	0,011
-606,415	114,061	-0,102	-0,090
-605,401	296,121	0,069	-0,092
-604,386	142,604	-0,114	0,110
-603,371	-200,000	-0,026	0,090
-602,357	232,246	0,106	0,126
-601,342	-42,840	-0,090	-0,033
-600,328	-133,383	-0,175	-0,016
-599,313	-200,000	0,005	-0,161
-598,298	476,138	0,072	0,117
-597,284	-92,909	0,115	0,023
-596,269	-74,612	0,173	0,045
-595,255	669,950	-0,093	0,175
-594,240	60,252	-0,069	0,050
-593,225	-39,420	-0,055	-0,021
-592,211	-113,265	-0,066	-0,009
-591,196	139,516	0,016	-0,015
-590,182	523,582	0,038	0,065
-589,167	380,806	0,046	-0,068
-588,152	17,136	-0,103	0,059
-587,138	188,758	0,044	0,048
-586,123	800,000	-0,046	-0,105
-585,109	-100,948	-0,085	0,015
-584,094	-54,465	0,094	-0,031
-583,079	-200,000	-0,006	-0,034
-582,065	-77,241	-0,078	-0,019
-581,050	-136,487	0,037	0,003
-580,036	132,625	0,060	0,056
-579,021	645,326	-0,053	-0,098
-578,006	-24,088	0,096	-0,041
-576,992	-86,670	-0,085	-0,019
-575,977	-138,343	-0,063	-0,005
-574,963	-59,170	-0,143	0,044
-573,948	-200,000	0,049	-0,165
-572,934	-200,000	0,005	-0,116
-571,919	119,363	-0,029	0,026
-570,904	266,814	0,036	0,046
-569,890	-200,000	-0,003	0,028
-568,875	47,675	0,072	0,048
-567,861	-84,482	-0,109	0,025
-566,846	-112,489	-0,016	0,002
-565,831	-200,000	0,016	-0,058
-564,817	-200,000	-0,004	0,060
-563,802	-130,356	0,093	-0,009
-562,788	-200,000	-0,001	-0,032
-561,773	-200,000	-0,002	0,057
-560,758	-8,796	-0,008	0,004
-559,744	-36,680	-0,076	-0,029
-558,729	-92,284	0,050	-0,010
-557,715	-87,913	-0,035	0,008
-556,700	773,697	0,064	-0,126
-555,685	322,726	0,022	-0,030
-554,671	800,000	0,044	0,101
-553,656	-200,000	0,002	0,094
-552,642	-200,000	-0,016	-0,065
-551,627	194,262	-0,054	-0,059
-550,612	16,667	0,077	-0,044
-549,598	-4,854	0,024	-0,012
-548,583	-52,900	-0,064	-0,021
-547,569	-94,324	0,082	-0,016
-546,554	356,414	0,042	0,061
-545,539	268,810	0,019	0,024
-544,525	-93,316	-0,091	0,018
-543,510	189,972	-0,085	0,092
-542,496	364,002	0,119	-0,173
-541,481	327,124	0,017	0,024
-540,466	32,940	-0,035	0,022
-539,452	-89,182	0,098	0,021
-538,437	131,520	0,106	0,099
-537,423	4,315	-0,125	0,066
-536,408	196,898	-0,050	-0,055
-535,393	-200,000	-0,006	-0,084
-534,379	800,000	0,019	-0,054
-533,364	-78,499	0,115	-0,028
-532,350	27,679	-0,045	0,027
-531,335	-200,000	-0,031	0,171
-530,321	800,000	-0,031	-0,068
-529,306	-200,000	-0,023	-0,096
-528,291	95,889	0,060	-0,049
-527,277	-200,000	0,004	-0,121
-526,262	-14,426	-0,119	-0,055
-525,248	114,337	0,062	0,054
-524,233	800,000	0,061	0,123
-523,218	47,890	0,095	0,064
-522,204	28,553	-0,158	-0,096
-521,189	111,508	-0,020	0,018
-520,175	-200,000	-0,004	-0,098
-519,160	270,792	0,054	-0,069
-518,145	299,085	-0,053	-0,071
-517,131	301,564	-0,063	0,084
-516,116	-124,764	0,097	0,011
-515,102	-142,581	0,111	0,008
-514,087	-200,000	-0,026	-0,093
-513,072	-116,946	-0,024	-0,003
-512,058	479,759	-0,046	-0,075
-511,043	192,655	0,038	-0,041
-510,029	403,881	0,019	-0,029
-509,014	79,390	0,114	0,088
-507,999	798,360	0,011	0,022
-506,985	-200,000	0,004	0,112
-505,970	158,265	0,025	0,025
-504,956	-5,711	0,040	-0,020
-503,941	-200,000	0,002	0,040
-502,926	382,670	0,058	0,087
-501,912	379,905	0,044	-0,065
-500,897	800,000	-0,013	0,034
-499,883	184,906	-0,021	0,023
-498,868	-200,000	0,037	-0,142
-497,853	135,547	-0,078	-0,073
-496,839	-200,000	0,021	-0,074
-495,824	152,747	-0,023	-0,022
-494,810	-54,698	0,267	0,086
-493,795	-200,000	-0,010	0,046
-492,781	213,972	-0,063	-0,072
-491,766	-116,358	-0,099	-0,013
-490,751	-200,000	-0,047	-0,162
-489,737	-149,350	-0,058	0,003
-488,722	-200,000	0,026	0,174
-487,708	-200,000	-0,009	0,125
-486,693	448,797	-0,029	-0,046
-485,678	-200,000	-0,012	-0,085
-484,664	800,000	-0,048	0,129
-483,649	-200,000	-0,001	0,022
-482,635	655,477	0,056	0,104
-481,620	-200,000	0,002	0,019
-480,605	-32,952	0,152	-0,060
-479,591	-200,000	0,001	-0,094
-478,576	90,686	-0,063	0,051
-477,562	-200,000	-0,002	-0,146
-476,547	134,826	-0,114	-0,107
-475,532	216,541	-0,088	0,101
-474,518	-200,000	0,016	0,090
-473,503	14,425	0,012	-0,007
-472,489	-200,000	-0,010	0,114
-471,474	109,361	0,068	0,058
-470,459	-200,000	0,006	0,078
-469,445	-84,286	0,121	0,027
-468,430	-36,207	-0,150	0,058
-467,416	-5,468	0,086	-0,042
-466,401	800,000	0,029	0,088
-465,386	-200,000	0,002	-0,046
-464,372	241,268	-0,021	0,025
-463,357	-173,720	0,100	0,002
-462,343	519,544	0,021	-0,036
-461,328	-200,000	-0,032	-0,142
-460,313	-200,000	-0,029	-0,137
-459,299	-200,000	0,006	-0,028
-458,284	16,589	0,056	-0,032
-457,270	-200,000	-0,021	0,112
-456,255	-200,000	0,002	-0,077
-455,241	-93,934	-0,075	-0,015
-454,226	-104,976	-0,243	-0,040
-453,211	389,124	0,069	0,104
-452,197	90,014	0,124	0,100
-451,182	-103,859	0,102	0,017
-450,168	-123,084	-0,151	0,017
-449,153	588,965	0,010	-0,019
-448,138	265,574	-0,057	-0,072
-447,124	799,762	-0,064	0,128
-446,109	-200,000	-0,026	0,106
-445,095	40,744	0,117	0,076
-444,080	800,000	0,028	-0,064
-443,065	-28,162	0,058	-0,024
-442,051	-200,000	0,033	-0,153
-441,036	239,955	-0,111	-0,133
-440,022	-72,026	-0,049	0,013
-439,007	-200,000	-0,094	0,000
-437,992	800,000	0,057	-0,114
-436,978	127,576	0,055	0,050
-435,963	220,731	0,055	-0,064
-434,949	602,097	0,025	-0,044
-433,934	-200,000	0,001	0,034
-432,919	-200,000	0,039	-0,126
-431,905	800,000	0,050	-0,126
-430,890	-110,815	0,034	-0,005
-429,876	96,274	0,075	-0,061
-428,861	109,669	0,138	-0,119
-427,846	120,268	-0,104	0,092
-426,832	82,832	-0,107	-0,084
-425,817	-129,683	0,060	0,006
-424,803	598,831	-0,047	-0,084
-423,788	-200,000	-0,012	-0,055
-422,773	-104,692	-0,143	0,023
-421,759	800,000	-0,048	0,136
-420,744	-3,266	0,114	0,057
-419,730	95,223	-0,080	-0,065
-418,715	-47,787	0,065	-0,023
-417,701	121,526	-0,109	-0,097
-416,686	-200,000	-0,006	-0,084
-415,671	-95,074	0,068	0,013
-414,657	761,624	-0,045	0,088
-413,642	-155,533	-0,125	0,006
-412,628	568,522	0,043	-0,076
-411,613	-200,000	-0,007	-0,154
-410,598	-200,000	-0,004	-0,081
-409,584	-200,000	0,026	0,127
-408,569	-96,752	0,022	0,004
-407,555	276,428	-0,049	-0,062
-406,540	207,309	-0,087	-0,098
-405,525	609,826	-0,071	-0,129
-404,511	-200,000	-0,006	0,058
-403,496	47,996	-0,099	-0,066
-402,482	698,631	0,091	0,172
-401,467	-200,000	-0,043	0,164
-400,452	-200,000	0,004	-0,046
-399,438	-200,000	0,011	0,083
-398,423	20,116	-0,157	0,091
-397,409	800,000	-0,076	-0,152
-396,394	192,780	-0,099	0,107
-395,379	-105,259	0,122	-0,020
-394,365	-3,869	0,151	0,075
-393,350	-171,070	0,020	0,000
-392,336	800,000	0,087	0,195
-391,321	-200,000	0,001	-0,103
-390,306	-200,000	-0,012	-0,059
-389,292	100,742	-0,094	-0,078
-388,277	-200,000	0,014	0,074
-387,263	-17,783	0,132	0,059
-386,248	800,000	0,021	0,063
-385,233	95,973	0,019	-0,016
-384,219	76,515	0,058	0,044
-383,204	-158,390	-0,091	-0,004
-382,190	-200,000	-0,019	0,095
-381,175	-96,797	0,154	-0,029
-380,160	176,047	0,051	0,054
-379,146	-98,226	-0,087	0,016
-378,131	295,597	0,049	0,064
-377,117	-168,334	-0,018	-0,000
-376,102	75,615	0,028	-0,021
-375,088	800,000	0,055	-0,120
-374,073	800,000	0,041	-0,117
-373,058	667,793	-0,045	0,083
-372,044	74,334	0,041	-0,031
-371,029	92,790	-0,128	0,104
-370,015	237,969	-0,070	0,084
-369,000	219,563	0,033	-0,038
-367,985	-200,000	0,027	-0,097
-366,971	285,402	-0,098	-0,127
-365,956	104,826	-0,072	0,061
-364,942	20,475	0,055	0,032
-363,927	-200,000	0,039	-0,185
-362,912	548,158	0,089	0,154
-361,898	-200,000	-0,017	0,097
-360,883	800,000	0,042	-0,098
-359,869	110,763	-0,100	0,086
-358,854	716,300	0,015	-0,028
-357,839	800,000	0,047	-0,107
-356,825	-200,000	-0,039	0,141
-355,810	-162,796	0,052	0,002
-354,796	192,339	0,077	0,083
-353,781	302,736	-0,065	0,087
-352,766	-67,258	-0,182	-0,051
-351,752	800,000	-0,031	0,079
-350,737	-11,771	-0,031	-0,014
-349,723	137,482	0,161	0,151
-348,708	-144,133	-0,099	-0,007
-347,693	507,567	-0,026	0,044
-346,679	-200,000	0,005	-0,160
-345,664	-200,000	0,002	-0,028
-344,650	252,630	0,052	0,064
-343,635	648,057	0,055	0,100
-342,620	-26,084	0,087	-0,037
-341,606	303,761	0,060	0,080
-340,591	114,863	-0,113	0,099
-339,577	800,000	0,055	-0,112
-338,562	86,786	-0,114	-0,090
-337,548	-114,305	0,077	0,011
-336,533	800,000	0,066	0,167
-335,518	800,000	0,055	0,123
-334,504	-2,022	-0,114	-0,057
-333,489	177,531	-0,066	-0,069
-332,475	-22,089	0,071	0,031
-331,460	189,514	0,065	-0,070
-330,445	9,750	0,118	-0,064
-329,431	307,742	-0,030	-0,041
-328,416	-73,471	-0,071	0,018
-327,402	-200,000	0,012	0,069
-326,387	588,394	-0,064	0,114
-325,372	-200,000	-0,020	0,081
-324,358	290,097	0,040	-0,051
-323,343	-106,851	-0,066	-0,010
-322,329	-200,000	-0,013	0,119
-321,314	74,114	-0,077	0,058
-320,299	-200,000	-0,006	-0,026
-319,285	-200,000	-0,027	-0,131
-318,270	25,232	-0,150	-0,089
-317,256	-91,264	-0,013	0,003
-316,241	-22,766	0,117	-0,050
-315,226	-200,000	0,000	0,076
-314,212	3,811	0,182	-0,095
-313,197	800,000	0,035	0,103
-312,183	-14,137	0,068	0,031
-311,168	550,727	-0,034	-0,059
-310,153	-0,377	-0,058	-0,029
-309,139	800,000	-0,041	0,109
-308,124	60,008	0,061	-0,043
-307,110	-88,418	0,070	0,015
-306,095	29,088	0,048	-0,029
-305,080	-54,174	0,150	-0,048
-304,066	-5,772	-0,114	0,056
-303,051	-46,923	-0,076	-0,026
-302,037	31,986	-0,105	0,064
-301,022	-12,002	-0,105	0,049
-300,008	-72,655	-0,093	0,024
-298,993	800,000	0,053	0,109
-297,978	101,497	0,040	-0,033
-296,964	72,855	-0,075	-0,056
-295,949	199,090	-0,063	-0,069
-294,935	-200,000	-0,031	-0,100
-293,920	-200,000	-0,030	-0,153
-292,905	-200,000	0,020	-0,119
-291,891	-5,946	0,135	0,066
-290,876	-178,940	-0,093	-0,001
-289,862	800,000	0,029	-0,078
-288,847	-200,000	-0,015	0,117
-287,832	80,616	0,105	-0,081
-286,818	800,000	-0,051	-0,105
-285,803	206,400	0,053	-0,059
-284,789	800,000	0,038	0,102
-283,774	800,000	-0,027	0,075
-282,759	-200,000	-0,019	0,071
-281,745	-79,571	0,176	-0,042
-280,730	17,038	-0,073	-0,041
-279,716	-117,914	0,118	0,015
-278,701	-121,996	0,071	-0,008
-277,686	-200,000	0,021	0,098
-276,672	-24,081	-0,032	0,014
-275,657	-200,000	0,034	0,171
-274,643	253,411	-0,063	-0,077
-273,628	105,107	0,113	0,095
-272,613	5,434	-0,117	-0,062
-271,599	17,882	0,136	0,077
-270,584	-32,970	0,112	0,044
-269,570	-110,947	0,111	0,016
-268,555	272,377	0,116	-0,146
-267,540	398,560	0,057	-0,085
-266,526	239,025	0,076	0,090
-265,511	-67,809	-0,036	0,010
-264,497	39,504	0,062	-0,039
-263,482	9,221	0,051	0,027
-262,467	214,552	0,103	0,116
-261,453	800,000	-0,053	-0,129
-260,438	-100,809	-0,055	-0,010
-259,424	-130,751	0,098	-0,009
-258,409	235,548	-0,074	-0,087
-257,395	800,000	-0,043	0,110
-256,380	360,487	0,015	-0,022
-255,365	-200,000	0,029	0,184
-254,351	-32,156	0,039	0,015
-253,336	48,619	-0,076	-0,051
-252,322	-88,292	0,089	0,019
-251,307	97,381	-0,014	-0,012
-250,292	2,769	-0,113	-0,058
-249,278	-200,000	0,009	0,055
-248,263	-32,194	0,057	0,023
-247,249	-200,000	0,013	0,103
-246,234	800,000	-0,022	0,044
-245,219	-31,538	-0,087	0,035
-244,205	-159,842	-0,187	-0,007
-243,190	202,670	-0,009	0,010
-242,176	-200,000	-0,012	0,071
-241,161	-200,000	0,019	0,087
-240,146	-129,646	-0,036	-0,004
-239,132	115,360	0,057	0,050
-238,117	800,000	-0,014	-0,033
-237,103	-13,382	0,091	-0,042
-236,088	-200,000	0,010	-0,063
-235,073	598,770	0,048	-0,086
-234,059	-128,085	0,110	0,011
-233,044	25,663	0,056	-0,033
-232,030	-200,000	-0,035	0,123
-231,015	-200,000	-0,010	0,066
-230,000	-16,376	-0,119	-0,053
-228,986	800,000	-0,045	-0,090
-227,971	46,855	0,071	-0,047
-226,957	-132,670	-0,038	0,003
-225,942	-67,304	0,139	0,039
-224,927	58,371	-0,129	0,090
-223,913	-42,371	-0,108	-0,039
-222,898	-65,466	0,111	-0,032
-221,884	-135,022	0,114	0,010
-220,869	-109,951	0,071	0,010
-219,855	191,593	0,058	0,062
-218,840	-200,000	-0,007	0,083
-217,825	-185,840	-0,089	0,001
-216,811	-40,659	-0,039	0,014
-215,796	-200,000	0,017	-0,084
-214,782	800,000	0,039	-0,122
-213,767	800,000	0,023	0,058
-212,752	800,000	-0,054	0,143
-211,738	275,772	0,024	0,030
-210,723	166,380	-0,036	-0,037
-209,709	218,719	-0,014	0,016
-208,694	34,279	-0,045	-0,028
-207,679	-200,000	0,010	-0,094
-206,665	-61,165	0,109	0,033
-205,650	-63,233	0,070	-0,020
-204,636	-3,417	0,102	0,050
-203,621	-32,574	0,022	0,009
-202,606	82,839	-0,155	-0,120
-201,592	-100,855	-0,162	-0,028
-200,577	800,000	0,044	-0,104
-199,563	-200,000	0,009	0,107
-198,548	374,956	0,049	0,072
-197,533	204,724	0,066	0,073
-196,519	800,000	-0,032	-0,066
-195,504	138,198	-0,079	0,074
-194,490	-200,000	-0,042	-0,134
-193,475	407,045	-0,037	-0,056
-192,460	380,637	-0,039	-0,057
-191,446	72,388	-0,095	0,071
-190,431	-78,917	0,094	0,023
-189,417	-200,000	-0,035	0,130
-188,402	-200,000	0,004	0,089
-187,387	-164,804	-0,053	-0,002
-186,373	800,000	-0,041	0,104
-185,358	89,656	0,021	-0,017
-184,344	-68,819	0,068	-0,019
-183,329	112,389	-0,112	0,096
-182,315	-200,000	0,004	0,017
-181,300	-12,247	0,152	0,071
-180,285	-83,371	-0,242	-0,055
-179,271	800,000	-0,097	-0,194
-178,256	174,032	-0,080	-0,083
-177,242	800,000	0,050	0,145
-176,227	-24,163	-0,062	0,026
-175,212	301,605	0,042	-0,056
-174,198	8,559	0,080	-0,043
-173,183	-66,929	-0,196	0,055
-172,169	800,000	-0,019	-0,040
-171,154	156,509	0,093	-0,092
-170,139	-200,000	-0,003	0,020
-169,125	-120,831	0,154	0,018
-168,110	174,340	0,172	0,177
-167,096	-175,796	0,171	0,003
-166,081	-101,257	-0,025	0,004
-165,066	432,777	-0,076	-0,118
-164,052	-74,598	0,035	-0,009
-163,037	330,446	0,141	0,194
-162,023	5,908	-0,133	-0,070
-161,008	13,538	0,149	-0,082
-159,993	-96,182	0,122	0,023
-158,979	134,619	-0,101	0,093
-157,964	-54,659	-0,040	-0,013
-156,950	800,000	-0,023	-0,069
-155,935	43,073	0,073	-0,047
-154,920	-200,000	-0,042	0,154
-153,906	68,758	0,138	0,101
-152,891	481,385	0,013	0,020
-151,877	-200,000	0,012	-0,091
-150,862	-55,764	0,018	0,006
-149,847	43,634	0,082	-0,053
-148,833	-136,220	-0,073	-0,006
-147,818	-109,242	0,145	0,022
-146,804	480,603	0,035	0,057
-145,789	-200,000	0,021	0,144
-144,775	224,752	-0,088	-0,101
-143,760	-200,000	-0,001	-0,043
-142,745	-122,739	-0,043	0,005
-141,731	-200,000	-0,003	-0,106
-140,716	-101,994	0,114	0,019
-139,702	285,345	-0,057	-0,073
-138,687	75,919	-0,098	-0,074
-137,672	90,526	0,091	0,073
-136,658	-200,000	-0,028	-0,109
-135,643	10,480	-0,046	0,025
-134,629	800,000	-0,025	-0,076
-133,614	14,664	0,139	0,077
-132,599	-200,000	0,015	0,110
-131,585	29,052	-0,066	-0,040
-130,570	176,044	0,098	-0,101
-129,556	-8,203	-0,060	0,029
-128,541	-97,718	-0,036	-0,007
-127,526	-200,000	0,032	0,108
-126,512	-200,000	-0,022	0,072
-125,497	800,000	0,053	0,140
-124,483	800,000	0,053	0,104
-123,468	-200,000	0,000	0,084
-122,453	-200,000	-0,041	-0,128
-121,439	-200,000	0,036	-0,142
-120,424	-200,000	-0,018	0,078
-119,410	-82,273	0,055	0,013
-118,395	65,188	0,110	0,079
-117,380	588,692	-0,040	0,071
-116,366	437,429	0,003	-0,005
-115,351	-200,000	-0,010	0,034
-114,337	-200,000	-0,004	-0,146
-113,322	287,764	0,039	0,050
-112,307	-80,137	0,070	-0,016
-111,293	800,000	-0,023	0,059
-110,278	-51,079	0,058	-0,019
-109,264	105,037	-0,083	-0,069
-108,249	-200,000	-0,007	0,085
-107,234	72,061	-0,074	0,055
-106,220	168,023	0,074	-0,074
-105,205	206,100	0,043	0,047
-104,191	21,780	-0,124	-0,072
-103,176	138,782	0,066	0,062
-102,162	-200,000	-0,042	0,162
-101,147	6,010	-0,099	-0,052
-100,132	57,696	0,062	0,043
-99,118	43,615	0,031	-0,020
-98,103	800,000	0,040	0,125
-97,089	800,000	0,028	0,070
-96,074	5,629	0,102	0,053
-95,059	63,867	0,082	0,059
-94,045	39,682	0,142	-0,090
-93,030	-19,537	-0,185	-0,081
-92,016	-112,012	0,122	0,017
-91,001	167,143	-0,148	0,149
-89,986	800,000	-0,038	0,099
-88,972	800,000	0,059	0,117
-87,957	769,796	0,060	0,116
-86,943	800,000	0,027	-0,057
-85,928	11,633	-0,119	-0,065
-84,913	64,016	-0,055	-0,039
-83,899	-94,641	-0,065	0,012
-82,884	-200,000	-0,003	-0,048
-81,870	-66,572	0,108	-0,030
-80,855	65,588	-0,184	0,132
-79,840	721,344	-0,075	0,143
-78,826	226,569	-0,127	-0,146
-77,811	317,466	-0,092	-0,124
-76,797	-200,000	-0,035	-0,127
-75,782	37,054	0,133	-0,083
-74,767	-43,402	-0,086	-0,031
-73,753	-62,929	0,136	0,039
-72,738	39,844	-0,098	-0,062
-71,724	105,560	-0,077	-0,065
-70,709	-200,000	-0,026	-0,102
-69,694	24,802	0,036	-0,021
-68,680	66,147	-0,071	0,051
-67,665	-113,128	-0,182	0,025
-66,651	-200,000	-0,048	0,000
-65,636	-200,000	-0,007	0,029
-64,622	-17,620	-0,074	-0,033
-63,607	-82,189	-0,059	-0,013
-62,592	469,428	0,010	-0,016
-61,578	-62,833	0,101	0,029
-60,563	48,572	0,064	-0,043
-59,549	-200,000	0,003	0,161
-58,534	-47,159	-1,643	-0,564
-57,519	353,753	-1,389	-1,958
-56,505	-200,000	-0,559	-4,693
-55,490	139,368	1,015	0,946
-54,476	800,000	4,906	11,404
-53,461	-200,000	19,015	313,500
-52,446	-200,000	739,207	2325,905
-51,432	575,574	1655,611	2874,192
-50,417	79,096	1672,085	1266,979
-49,403	21,814	1544,674	888,802
-48,388	15,663	1467,223	814,317
-47,373	17,883	1457,165	819,438
-46,359	16,792	1447,273	808,605
-45,344	13,923	1442,539	792,182
-44,330	13,854	1440,587	790,749
-43,315	13,815	1439,010	789,661
-42,300	13,833	1437,223	788,737
-41,286	13,883	1436,022	788,286
-40,271	13,844	1434,707	787,347
-39,257	13,845	1433,589	786,705
-38,242	13,918	1432,099	786,205
-37,227	13,898	1431,031	785,495
-36,213	13,916	1429,855	784,902
-35,198	13,861	1428,731	783,990
-34,184	13,911	1427,654	783,608
-33,169	13,868	1426,366	782,668
-32,154	13,941	1425,142	782,310
-31,140	13,950	1423,890	781,632
-30,125	13,969	1422,887	781,139
-29,111	13,924	1421,625	780,204
-28,096	13,919	1420,495	779,530
-27,082	13,838	1419,601	778,628
-26,067	13,760	1418,593	777,673
-25,052	13,840	1417,176	777,243
-24,038	13,789	1416,586	776,651
-23,023	13,773	1415,327	775,851
-22,009	13,790	1414,472	775,433
-20,994	13,774	1413,495	774,793
-19,979	13,802	1412,632	774,421
-18,965	13,851	1411,450	773,968
-17,950	13,763	1410,710	773,122
-16,936	13,774	1409,677	772,574
-15,921	13,735	1408,613	771,782
-14,906	13,717	1407,927	771,287
-13,892	13,767	1406,648	770,790
-12,877	13,760	1405,905	770,319
-11,863	13,784	1405,033	769,924
-10,848	13,760	1403,941	769,184
-9,833	13,705	1403,191	768,485
-8,819	13,670	1402,461	767,892
-7,804	13,643	1401,593	767,260
-6,790	13,679	1400,289	766,685
-5,775	13,657	1399,403	766,068
-4,760	13,669	1398,368	765,525
-3,746	13,618	1397,731	764,911
-2,731	13,655	1396,620	764,441
-1,717	13,625	1395,914	763,888
-0,702	13,616	1394,105	762,825
0,313	17,321	1311,780	735,004
1,327	33,349	705,775	432,599
2,342	50,986	123,852	82,941
3,356	2,722	16,667	8,524
4,371	4,210	3,192	1,648
5,386	-54,563	0,565	0,180
6,400	-200,000	0,018	0,219
7,415	210,842	-0,280	-0,312
8,429	-2,849	-0,263	-0,129
9,444	91,837	-0,307	-0,244
10,459	78,238	-0,249	-0,188
11,473	-89,101	-0,444	-0,092
12,488	-72,379	-0,239	-0,062
13,502	-13,633	-0,353	-0,161
14,517	-62,374	-0,275	-0,080
15,531	125,401	-0,351	-0,313
16,546	94,439	-0,405	-0,325
17,561	139,859	-0,427	-0,398
18,575	359,667	-0,190	-0,270
19,590	133,506	-0,180	-0,164
20,604	-66,798	-0,201	-0,056
21,619	93,804	-0,377	-0,302
22,634	158,229	-0,432	-0,424
23,648	34,078	-0,453	-0,278
24,663	19,866	-0,473	-0,269
25,677	158,908	-0,363	-0,356
26,692	157,239	-0,275	-0,269
27,707	-11,412	-0,502	-0,232
28,721	155,970	-0,375	-0,365
29,736	84,361	-0,366	-0,282
30,750	63,602	-0,373	-0,264
31,765	89,199	-0,369	-0,290
32,780	13,984	-0,448	-0,245
33,794	120,298	-0,299	-0,262
34,809	44,732	-0,398	-0,258
35,823	115,204	-0,229	-0,197
36,838	28,597	-0,381	-0,227
37,853	127,804	-0,343	-0,307
38,867	52,356	-0,360	-0,242
39,882	-9,462	-0,299	-0,140
40,896	154,173	-0,295	-0,285
41,911	42,024	-0,314	-0,201
42,926	27,754	-0,317	-0,188
43,940	129,772	-0,343	-0,309
44,955	43,605	-0,407	-0,262
45,969	152,799	-0,269	-0,260
46,984	0,236	-0,413	-0,207
47,999	368,169	-0,237	-0,338
49,013	33,632	-0,498	-0,304
50,028	-3,647	-0,451	-0,220
51,042	174,545	-0,369	-0,377
52,057	-7,113	-0,426	-0,203
53,071	110,441	-0,369	-0,312
54,086	16,179	-0,412	-0,228
55,101	238,013	-0,225	-0,264
56,115	-81,483	-0,216	-0,050
57,130	46,609	-0,462	-0,302
58,144	365,232	-0,248	-0,353
59,159	69,755	-0,333	-0,242
60,174	77,113	-0,330	-0,247
61,188	125,164	-0,326	-0,289
62,203	177,595	-0,366	-0,375
63,217	170,398	-0,206	-0,207
64,232	7,980	-0,476	-0,251
65,247	197,858	-0,281	-0,303
66,261	92,271	-0,366	-0,290
67,276	62,449	-0,294	-0,207
68,290	81,056	-0,295	-0,224
69,305	104,860	-0,294	-0,244
70,320	118,975	-0,304	-0,265
71,334	-30,625	-0,309	-0,122
72,349	-40,868	-0,393	-0,142
73,363	182,014	-0,324	-0,336
74,378	82,857	-0,340	-0,260
75,393	32,127	-0,375	-0,227
76,407	69,986	-0,247	-0,179
77,422	20,643	-0,347	-0,197
78,436	-14,621	-0,303	-0,136
79,451	189,622	-0,241	-0,255
80,466	-23,499	-0,416	-0,175
81,480	27,041	-0,251	-0,147
82,495	292,741	-0,193	-0,248
83,509	-56,710	-0,283	-0,088
84,524	-112,119	-0,248	-0,035
85,539	106,120	-0,138	-0,115
86,553	-33,797	-0,259	-0,100
87,568	-18,621	-0,243	-0,106
88,582	60,079	-0,325	-0,225
89,597	28,676	-0,399	-0,237
90,611	382,679	-0,250	-0,362
91,626	-79,707	-0,304	-0,071
92,641	11,461	-0,262	-0,141
93,655	-175,072	-0,325	0,006
94,670	104,538	-0,341	-0,282
95,684	-41,598	-0,319	-0,114
96,699	106,917	-0,319	-0,266
97,714	8,151	-0,255	-0,134
98,728	10,232	-0,302	-0,161
99,743	-13,477	-0,227	-0,103
100,757	340,415	-0,147	-0,202
101,772	60,572	-0,278	-0,193
102,787	61,775	-0,275	-0,192
103,801	236,723	-0,297	-0,345
104,816	58,815	-0,226	-0,156
105,830	234,782	-0,239	-0,277
106,845	144,974	-0,215	-0,202
107,860	255,067	-0,214	-0,258
108,874	217,723	-0,243	-0,272
109,889	135,480	-0,316	-0,288
110,903	339,345	-0,215	-0,295
111,918	-31,405	-0,279	-0,109
112,933	-200,000	-0,046	-0,158
113,947	163,336	-0,127	-0,125
114,962	118,763	-0,251	-0,217
115,976	-78,868	-0,389	-0,092
116,991	85,024	-0,261	-0,200
118,006	130,466	-0,378	-0,339
119,020	-37,545	-0,343	-0,127
120,035	204,763	-0,251	-0,273
121,049	188,269	-0,154	-0,162
122,064	4,586	-0,258	-0,132
123,079	17,477	-0,249	-0,138
124,093	170,301	-0,190	-0,191
125,108	8,425	-0,300	-0,158
126,122	0,148	-0,170	-0,084
127,137	-79,263	-0,264	-0,062
128,151	51,989	-0,253	-0,168
129,166	-65,664	-0,251	-0,070
130,181	95,957	-0,248	-0,198
131,195	182,667	-0,219	-0,226
132,210	78,408	-0,292	-0,218
133,224	-49,705	-0,187	-0,062
134,239	129,993	-0,243	-0,217
135,254	-56,633	-0,349	-0,107
136,268	28,139	-0,203	-0,120
137,283	10,438	-0,223	-0,119
138,297	-81,106	-0,251	-0,058
139,312	-145,731	-0,381	-0,023
140,327	176,947	-0,314	-0,320
141,341	35,014	-0,175	-0,107
142,356	449,683	-0,170	-0,263
143,370	-86,049	-0,304	-0,065
144,385	154,851	-0,163	-0,157
145,400	64,472	-0,345	-0,243
146,414	214,016	-0,219	-0,243
147,429	86,061	-0,239	-0,184
148,443	-50,940	-0,279	-0,091
149,458	57,950	-0,253	-0,173
150,473	69,288	-0,251	-0,180
151,487	-67,359	-0,192	-0,052
152,502	108,109	-0,291	-0,242
153,516	610,323	-0,109	-0,191
154,531	166,729	-0,243	-0,240
155,546	110,680	-0,267	-0,224
156,560	102,880	-0,196	-0,160
157,575	189,124	-0,208	-0,218
158,589	43,322	-0,231	-0,147
159,604	50,400	-0,257	-0,169
160,619	68,952	-0,291	-0,209
161,633	120,648	-0,208	-0,180
162,648	616,936	-0,136	-0,238
163,662	-86,135	-0,345	-0,074
164,677	195,654	-0,206	-0,218
165,692	-26,434	-0,434	-0,177
166,706	389,573	-0,225	-0,326
167,721	319,051	-0,266	-0,352
168,735	800,000	-0,164	-0,323
169,750	242,078	-0,258	-0,301
170,764	16,793	-0,288	-0,158
171,779	101,457	-0,206	-0,167
172,794	21,912	-0,336	-0,191
173,808	-73,303	-0,202	-0,051
174,823	84,822	-0,320	-0,244
175,837	183,064	-0,304	-0,314
176,852	-14,772	-0,273	-0,121
177,867	398,589	-0,110	-0,161
178,881	16,555	-0,228	-0,125
179,896	-73,005	-0,200	-0,051
180,910	-70,175	-0,272	-0,071
181,925	-9,329	-0,249	-0,115
182,940	206,094	-0,218	-0,236
183,954	561,633	-0,128	-0,216
184,969	123,266	-0,144	-0,126
185,983	800,000	-0,101	-0,228
186,998	-66,664	-0,183	-0,050
188,013	-129,825	-0,229	-0,022
189,027	48,434	-0,202	-0,131
190,042	110,743	-0,179	-0,150
191,056	-46,937	-0,279	-0,094
192,071	228,656	-0,153	-0,174
193,086	574,812	-0,062	-0,105
194,100	127,375	-0,222	-0,196
195,115	-150,895	-0,139	-0,007
196,129	-200,000	-0,037	-0,249
197,144	141,711	-0,204	-0,188
198,159	47,664	-0,267	-0,173
199,173	100,839	-0,145	-0,117
200,188	275,706	-0,097	-0,119
201,202	-56,571	-0,201	-0,062
202,217	390,304	-0,067	-0,097
203,232	139,315	-0,213	-0,195
204,246	-60,272	-0,164	-0,048
205,261	190,214	-0,129	-0,135
206,275	233,129	-0,179	-0,204
207,290	-24,460	-0,116	-0,048
208,304	112,710	-0,167	-0,140
209,319	216,349	-0,247	-0,273
210,334	-73,801	-0,195	-0,049
211,348	230,854	-0,315	-0,358
212,363	171,567	-0,197	-0,197
213,377	518,834	-0,169	-0,275
214,392	181,703	-0,212	-0,217
215,407	800,000	-0,060	-0,157
216,421	217,449	-0,205	-0,227
217,436	26,753	-0,227	-0,132
218,450	-34,623	-0,312	-0,118
219,465	116,325	-0,225	-0,192
220,480	307,203	-0,161	-0,209
221,494	143,628	-0,093	-0,086
222,509	1,824	-0,216	-0,108
223,523	421,056	-0,083	-0,124
224,538	151,532	-0,132	-0,125
225,553	800,000	-0,166	-0,324
226,567	420,784	-0,177	-0,265
227,582	94,762	-0,265	-0,209
228,596	800,000	-0,096	-0,222
229,611	22,085	-0,137	-0,077
230,626	-96,327	-0,136	0,025
231,640	153,410	-0,197	-0,187
232,655	-144,201	-0,243	-0,015
233,669	121,308	-0,273	-0,236
234,684	20,397	-0,276	-0,154
235,699	-142,517	-0,243	-0,016
236,713	-59,529	-0,239	-0,071
237,728	95,912	-0,111	-0,088
238,742	14,405	-0,159	-0,086
239,757	157,428	-0,180	-0,173
240,772	50,928	-0,249	-0,163
241,786	135,683	-0,140	-0,126
242,801	-44,140	-0,190	0,066
243,815	-16,768	-0,260	-0,113
244,830	-46,258	-0,220	-0,074
245,844	298,408	-0,139	-0,177
246,859	396,938	-0,173	-0,252
247,874	102,209	-0,252	-0,204
248,888	-15,163	-0,257	-0,114
249,903	27,410	-0,170	-0,099
250,917	-123,646	-0,116	-0,013
251,932	-161,820	-0,205	0,007
252,947	-200,000	-0,011	-0,235
253,961	-136,612	-0,207	0,016
254,976	364,519	-0,162	-0,227
255,990	491,941	-0,201	-0,320
257,005	-188,012	-0,218	-0,002
258,020	67,786	-0,096	-0,068
259,034	222,640	-0,091	-0,101
260,049	227,252	-0,093	-0,105
261,063	180,913	-0,130	-0,132
262,078	30,754	-0,233	-0,138
263,093	137,242	-0,138	-0,125
264,107	97,060	-0,210	-0,167
265,122	42,308	-0,192	-0,120
266,136	59,785	-0,226	-0,154
267,151	29,682	-0,122	-0,072
268,166	254,087	-0,119	-0,140
269,180	53,993	-0,181	-0,120
270,195	-17,276	-0,194	-0,084
271,209	396,000	-0,166	-0,240
272,224	-200,000	0,011	-0,110
273,239	491,468	-0,137	-0,218
274,253	176,973	-0,025	-0,025
275,268	440,575	-0,120	-0,181
276,282	-15,133	-0,261	-0,115
277,297	502,930	-0,119	-0,190
278,312	335,935	-0,130	-0,175
279,326	90,015	-0,165	-0,127
280,341	74,548	-0,129	-0,093
281,355	67,229	-0,094	-0,066
282,370	800,000	-0,095	-0,182
283,384	252,918	-0,149	-0,176
284,399	20,328	-0,221	-0,123
285,414	40,141	-0,177	-0,109
286,428	296,884	-0,166	-0,210
287,443	-24,765	-0,145	-0,059
288,457	-200,000	-0,062	-0,231
289,472	-134,980	-0,278	-0,023
290,487	296,958	-0,175	-0,222
291,501	52,114	-0,103	-0,068
292,516	-200,000	-0,031	-0,190
293,530	234,221	-0,117	-0,133
294,545	138,651	-0,197	-0,178
295,560	65,301	-0,127	-0,088
296,574	-84,701	-0,160	0,034
297,589	-46,591	-0,170	-0,057
298,603	60,916	-0,324	-0,221
299,618	180,811	-0,189	-0,191
300,633	332,718	-0,086	0,115
301,647	-36,142	-0,165	0,061
302,662	127,522	-0,096	-0,084
303,676	-72,140	-0,154	-0,039
304,691	29,669	-0,138	-0,081
305,706	275,391	-0,142	-0,174
306,720	773,324	-0,130	-0,245
307,735	-57,117	-0,179	-0,054
308,749	7,112	-0,092	-0,047
309,764	-162,346	-0,166	-0,006
310,779	800,000	-0,030	-0,089
311,793	-18,258	-0,135	-0,058
312,808	-107,768	-0,240	-0,036
313,822	-200,000	-0,031	-0,094
314,837	-200,000	-0,020	-0,208
315,852	-200,000	-0,047	-0,160
316,866	67,192	-0,161	-0,113
317,881	273,438	-0,074	-0,091
318,895	195,109	-0,114	-0,119
319,910	-100,252	-0,170	-0,029
320,925	-66,622	-0,247	-0,067
321,939	287,808	-0,146	-0,182
322,954	-200,000	-0,027	-0,248
323,968	616,042	-0,019	-0,032
324,983	10,442	-0,121	-0,063
325,997	326,051	-0,072	-0,095
327,012	143,205	-0,135	-0,123
328,027	97,865	-0,205	-0,162
329,041	-0,396	-0,182	-0,089
330,056	-3,669	-0,117	-0,056
331,070	110,471	0,031	0,026
332,085	-64,651	-0,183	-0,051
333,100	-41,216	-0,071	-0,025
334,114	37,312	-0,073	-0,045
335,129	-200,000	-0,053	-0,194
336,143	124,667	-0,128	-0,111
337,158	-200,000	-0,008	-0,027
338,173	-38,441	-0,137	-0,049
339,187	-9,141	-0,178	0,082
340,202	71,217	0,059	-0,042
341,216	101,632	-0,052	-0,041
342,231	151,064	-0,095	-0,089
343,246	211,546	-0,148	-0,161
344,260	41,096	-0,201	-0,125
345,275	-69,285	-0,079	-0,021
346,289	85,146	-0,059	-0,045
347,304	800,000	-0,080	-0,185
348,319	433,633	-0,092	-0,138
349,333	59,066	-0,189	-0,127
350,348	-162,690	-0,221	-0,007
351,362	333,732	-0,114	-0,152
352,377	-200,000	-0,033	-0,119
353,392	16,172	-0,058	-0,031
354,406	31,109	-0,169	-0,099
355,421	207,488	1316,000	1410,655
356,435	159,612	1476,880	1411,144
