DTS Sentinel unit serial number:	SN410029Multiplexer serial number:	ORYXHardware model number:	OX2-SRSoftware version number:	ORYX F/W v4,00 Oryx Data Collector v3.7.2.0data status	okinstallation	B3 Nyhavnadifferential loss correction	single-endedforward channel	channel 1reverse channel	N/Adate	2023/12/04time	15:22:30forward acquisition time	300,00reverse acquisition time	0,00gamma	499,1914k internal	0,3201k external	0,3201temperature offset calibration	1,0000default loss term (dB/km)	0,3820temperature slope calibration	1,0000multiplexer offset coefficient	1,0000multiplexer slope coefficient	1,0000fibre end	0,00T internal ref (°C)	15,11T ext. ref 1 (°C)	0,36T ext. ref 2 (°C)	0,35length (m)	temperature (°C)	Stokes	anti-Stokes-744,400	-200,000	-0,037	-0,359
-743,385	-200,000	-0,004	0,285
-742,371	25,329	-0,222	-0,134
-741,356	-200,000	0,015	0,201
-740,342	185,056	-0,135	-0,146
-739,327	-200,000	-0,090	0,348
-738,312	783,813	-0,178	-0,357
-737,298	-200,000	0,080	0,348
-736,283	253,083	-0,147	-0,183
-735,269	-200,000	0,053	0,291
-734,254	-57,901	-0,327	-0,103
-733,239	-19,916	-0,155	0,069
-732,225	-200,000	-0,010	-0,226
-731,210	540,511	0,132	0,230
-730,196	-200,000	-0,001	-0,039
-729,181	112,860	-0,030	0,026
-728,167	-200,000	0,011	-0,082
-727,152	-54,758	-0,084	0,027
-726,137	-79,837	-0,187	-0,045
-725,123	203,003	-0,062	0,070
-724,108	35,321	-0,055	-0,035
-723,094	-200,000	-0,008	-0,053
-722,079	83,975	-0,072	0,057
-721,064	12,656	0,059	-0,033
-720,050	18,932	-0,084	-0,049
-719,035	58,323	0,141	0,100
-718,021	-30,673	-0,096	0,039
-717,006	800,000	0,031	-0,066
-715,991	800,000	-0,051	-0,119
-714,977	425,892	-0,084	-0,132
-713,962	203,316	-0,032	-0,036
-712,948	58,869	-0,049	-0,035
-711,933	-200,000	-0,012	-0,073
-710,918	-66,408	-0,065	0,019
-709,904	-200,000	0,014	-0,098
-708,889	402,095	-0,038	-0,057
-707,875	-200,000	-0,004	0,028
-706,860	-200,000	0,007	-0,067
-705,845	-0,701	0,099	0,051
-704,831	93,488	0,038	-0,031
-703,816	-133,226	-0,149	-0,014
-702,802	620,524	-0,058	0,107
-701,787	-200,000	0,046	-0,152
-700,772	97,271	0,018	-0,015
-699,758	-200,000	0,004	-0,064
-698,743	145,873	-0,020	0,019
-697,729	-200,000	-0,033	-0,118
-696,714	150,485	-0,047	0,046
-695,699	-200,000	0,005	-0,054
-694,685	629,357	-0,075	-0,139
-693,670	92,283	0,021	-0,017
-692,656	90,442	0,189	-0,154
-691,641	800,000	0,067	-0,137
-690,627	347,823	0,020	-0,028
-689,612	184,884	0,041	0,044
-688,597	21,945	0,035	0,020
-687,583	800,000	-0,015	-0,034
-686,568	-199,447	0,082	0,000
-685,554	161,420	-0,031	-0,031
-684,539	-80,420	-0,021	0,005
-683,524	800,000	-0,028	-0,085
-682,510	3,450	-0,095	-0,050
-681,495	-62,675	0,083	-0,025
-680,481	800,000	-0,107	-0,230
-679,466	668,964	-0,043	-0,081
-678,451	-34,358	-0,060	-0,024
-677,437	800,000	-0,049	-0,126
-676,422	538,142	0,048	0,083
-675,408	441,176	0,054	0,086
-674,393	-142,602	-0,108	0,008
-673,378	77,984	-0,037	-0,029
-672,364	-54,173	-0,115	-0,038
-671,349	198,765	0,123	-0,137
-670,335	131,393	0,133	-0,124
-669,320	-200,000	0,013	0,084
-668,305	-25,066	-0,076	-0,033
-667,291	58,113	-0,128	0,091
-666,276	-200,000	-0,027	0,128
-665,262	800,000	-0,055	-0,152
-664,247	262,975	-0,035	-0,044
-663,232	800,000	-0,038	0,096
-662,218	-200,000	0,018	-0,139
-661,203	-8,140	-0,085	0,041
-660,189	550,458	-0,039	0,069
-659,174	51,320	-0,094	-0,065
-658,159	-200,000	-0,030	-0,126
-657,145	335,791	-0,051	0,072
-656,130	800,000	-0,069	-0,178
-655,116	719,152	0,061	-0,118
-654,101	171,788	0,163	-0,170
-653,086	-68,464	0,090	0,025
-652,072	203,837	0,054	0,060
-651,057	785,086	-0,036	-0,072
-650,043	-200,000	-0,001	-0,163
-649,028	800,000	-0,027	-0,058
-648,014	-91,150	0,124	0,025
-646,999	186,842	-0,040	0,044
-645,984	-182,655	-0,049	0,001
-644,970	-150,877	-0,184	0,010
-643,955	74,657	-0,103	-0,078
-642,941	-200,000	-0,024	-0,108
-641,926	-23,603	0,121	-0,053
-640,911	199,539	0,094	0,105
-639,897	-200,000	-0,013	0,129
-638,882	651,432	0,033	0,062
-637,868	-200,000	-0,003	-0,146
-636,853	-141,415	0,110	0,008
-635,838	-200,000	-0,026	-0,153
-634,824	-200,000	-0,009	-0,052
-633,809	41,661	-0,057	-0,037
-632,795	502,800	-0,045	0,076
-631,780	-166,163	-0,035	0,001
-630,765	-200,000	-0,018	-0,058
-629,751	198,612	0,084	-0,094
-628,736	263,397	-0,028	-0,035
-627,722	100,955	0,013	0,011
-626,707	43,183	0,059	0,039
-625,692	234,029	-0,046	0,055
-624,678	800,000	-0,010	-0,022
-623,663	509,790	-0,042	0,071
-622,649	-43,765	0,107	-0,039
-621,634	-57,920	-0,067	0,021
-620,619	-101,625	-0,081	-0,014
-619,605	64,777	0,055	0,040
-618,590	11,411	-0,164	0,091
-617,576	-200,000	0,016	0,058
-616,561	-200,000	0,005	-0,018
-615,546	-144,311	0,128	0,009
-614,532	-200,000	0,007	-0,096
-613,517	-85,354	-0,097	-0,022
-612,503	-200,000	0,011	0,140
-611,488	218,015	-0,070	0,081
-610,474	103,879	0,101	0,086
-609,459	347,534	0,031	0,045
-608,444	117,249	0,037	0,033
-607,430	-12,460	-0,117	-0,055
-606,415	-200,000	-0,002	-0,021
-605,401	121,378	0,038	0,034
-604,386	-183,807	0,044	0,001
-603,371	-65,429	-0,041	-0,012
-602,357	-200,000	-0,025	-0,148
-601,342	-54,236	-0,059	0,019
-600,328	-39,292	-0,146	-0,055
-599,313	165,996	-0,049	0,050
-598,298	82,106	0,055	0,043
-597,284	269,417	-0,070	-0,089
-596,269	7,308	0,049	0,027
-595,255	-40,994	-0,156	0,058
-594,240	321,049	-0,049	0,067
-593,225	205,318	-0,082	-0,092
-592,211	-27,992	-0,028	0,012
-591,196	-200,000	-0,009	-0,092
-590,182	2,837	-0,096	0,050
-589,167	51,936	0,143	0,098
-588,152	-200,000	0,011	-0,064
-587,138	100,322	-0,039	-0,033
-586,123	-101,649	-0,135	-0,023
-585,109	800,000	-0,032	0,070
-584,094	188,712	-0,127	-0,137
-583,079	800,000	0,023	0,068
-582,065	-200,000	-0,003	0,035
-581,050	144,066	-0,036	0,035
-580,036	649,492	-0,021	-0,040
-579,021	471,951	0,066	0,108
-578,006	-200,000	0,026	0,140
-576,992	-95,883	0,058	-0,011
-575,977	-44,154	-0,077	0,028
-574,963	-200,000	-0,004	0,140
-573,948	-200,000	0,028	0,241
-572,934	-200,000	-0,005	-0,129
-571,919	-107,965	-0,068	-0,011
-570,904	99,004	-0,139	-0,116
-569,890	174,855	0,048	-0,050
-568,875	204,074	0,030	-0,034
-567,861	327,389	-0,041	-0,057
-566,846	-200,000	-0,004	-0,045
-565,831	122,851	-0,017	-0,016
-564,817	-30,092	0,060	-0,025
-563,802	-85,034	-0,045	0,010
-562,788	111,494	0,067	-0,059
-561,773	800,000	-0,044	-0,135
-560,758	632,543	-0,071	0,130
-559,744	-200,000	-0,003	0,060
-558,729	197,800	-0,032	0,036
-557,715	800,000	-0,038	-0,107
-556,700	64,620	-0,008	-0,006
-555,685	-116,202	-0,062	-0,008
-554,671	39,644	0,098	0,063
-553,656	-126,496	0,031	-0,003
-552,642	-200,000	-0,007	0,093
-551,627	601,560	0,048	-0,087
-550,612	66,320	-0,116	-0,085
-549,598	-16,635	0,022	-0,010
-548,583	-200,000	0,007	0,065
-547,569	-200,000	-0,025	0,184
-546,554	-200,000	-0,020	0,084
-545,539	-76,539	-0,182	0,046
-544,525	28,652	0,076	-0,046
-543,510	-74,881	-0,104	0,027
-542,496	-200,000	0,007	0,055
-541,481	-98,751	-0,092	0,017
-540,466	-200,000	0,004	0,041
-539,452	67,970	0,126	-0,093
-538,437	-200,000	-0,018	0,092
-537,423	-149,636	0,216	0,012
-536,408	304,374	-0,038	-0,052
-535,393	-9,366	-0,082	-0,040
-534,379	-120,067	-0,114	-0,014
-533,364	175,523	-0,072	0,075
-532,350	-15,872	-0,024	-0,011
-531,335	-46,944	0,097	0,034
-530,321	-200,000	-0,002	0,013
-529,306	-52,876	0,033	0,011
-528,291	593,890	-0,039	-0,070
-527,277	-91,333	-0,080	0,016
-526,262	-72,940	0,209	0,055
-525,248	321,679	0,094	0,129
-524,233	-200,000	-0,017	0,078
-523,218	800,000	0,022	0,063
-522,204	-200,000	0,010	0,046
-521,189	-68,068	-0,193	-0,054
-520,175	-69,979	-0,067	-0,018
-519,160	800,000	0,013	0,030
-518,145	48,982	0,041	-0,028
-517,131	118,129	-0,057	0,051
-516,116	66,826	0,046	-0,034
-515,102	127,175	-0,059	0,054
-514,087	-152,287	-0,057	-0,003
-513,072	64,605	-0,098	0,071
-512,058	-149,018	0,039	0,002
-511,043	-200,000	-0,017	-0,129
-510,029	-200,000	-0,004	0,060
-509,014	78,023	0,014	-0,011
-507,999	406,631	0,020	-0,031
-506,985	26,849	-0,109	0,066
-505,970	-132,991	0,162	-0,015
-504,956	454,987	-0,083	-0,133
-503,941	106,198	-0,049	-0,042
-502,926	800,000	0,041	0,099
-501,912	254,770	0,105	0,130
-500,897	-200,000	0,010	-0,136
-499,883	101,386	0,065	0,054
-498,868	800,000	-0,030	-0,091
-497,853	-200,000	0,038	-0,178
-496,839	-88,750	0,191	-0,041
-495,824	58,893	-0,076	-0,054
-494,810	-200,000	-0,006	0,037
-493,795	-200,000	-0,011	-0,074
-492,781	800,000	0,021	0,044
-491,766	-200,000	-0,001	0,011
-490,751	-16,034	0,137	0,062
-489,737	-78,655	0,031	-0,008
-488,722	173,772	0,017	0,018
-487,708	-200,000	0,029	0,127
-486,693	70,535	0,043	-0,032
-485,678	409,733	-0,044	-0,067
-484,664	800,000	0,011	-0,027
-483,649	-35,926	-0,184	-0,071
-482,635	-29,426	0,094	0,039
-481,620	-86,031	-0,116	-0,026
-480,605	-200,000	0,031	0,150
-479,591	-75,738	0,150	0,038
-478,576	227,761	-0,026	0,031
-477,562	599,269	0,088	-0,158
-476,547	-200,000	-0,007	-0,081
-475,532	-67,186	0,065	-0,018
-474,518	-200,000	0,013	0,092
-473,503	678,487	0,103	0,194
-472,489	800,000	-0,066	0,175
-471,474	-130,472	-0,142	-0,014
-470,459	-200,000	-0,032	-0,149
-469,445	800,000	0,023	-0,065
-468,430	-75,208	-0,146	-0,037
-467,416	619,028	0,045	-0,082
-466,401	529,721	0,042	-0,072
-465,386	139,884	0,066	-0,062
-464,372	16,007	-0,086	0,049
-463,357	362,284	-0,138	-0,199
-462,343	337,014	0,103	-0,144
-461,328	246,876	-0,099	0,120
-460,313	219,392	0,065	-0,075
-459,299	-69,408	0,047	0,013
-458,284	46,049	0,159	0,106
-457,270	198,721	0,089	0,098
-456,255	800,000	-0,039	-0,089
-455,241	-93,243	0,050	0,010
-454,226	356,157	0,089	-0,128
-453,211	800,000	-0,042	-0,107
-452,197	252,580	0,061	0,075
-451,182	30,332	-0,091	0,056
-450,168	236,566	-0,001	0,001
-449,153	138,494	-0,046	0,043
-448,138	28,288	-0,062	0,038
-447,124	-123,937	-0,119	0,013
-446,109	-57,594	0,034	0,011
-445,095	800,000	0,046	0,096
-444,080	-200,000	0,004	0,032
-443,065	-77,542	0,095	0,023
-442,051	-101,379	-0,060	-0,010
-441,036	800,000	0,054	-0,141
-440,022	28,518	0,040	0,024
-439,007	-200,000	0,010	0,049
-437,992	135,602	-0,033	0,031
-436,978	-7,417	0,132	0,064
-435,963	-127,158	0,059	0,006
-434,949	228,370	-0,133	0,156
-433,934	-145,076	-0,099	-0,006
-432,919	-200,000	-0,039	-0,249
-431,905	18,956	-0,135	0,078
-430,890	70,680	0,080	0,059
-429,876	-74,628	-0,093	0,024
-428,861	-58,391	0,141	-0,044
-427,846	491,219	0,010	0,016
-426,832	-71,667	-0,061	0,016
-425,817	258,218	-0,036	0,045
-424,803	-200,000	0,009	-0,040
-423,788	347,242	-0,019	-0,027
-422,773	-200,000	-0,033	0,120
-421,759	-200,000	-0,002	0,067
-420,744	18,032	0,070	-0,040
-419,730	-146,425	0,180	0,011
-418,715	800,000	-0,031	-0,061
-417,701	190,399	0,045	0,049
-416,686	-200,000	-0,001	-0,095
-415,671	342,288	0,027	-0,037
-414,657	307,261	-0,062	0,083
-413,642	-48,065	-0,049	0,017
-412,628	-45,244	-0,088	-0,031
-411,613	85,873	-0,026	-0,020
-410,598	-200,000	-0,094	-0,000
-409,584	35,640	0,057	0,036
-408,569	139,593	0,055	0,052
-407,555	-200,000	0,011	0,119
-406,540	46,413	0,078	-0,052
-405,525	-6,015	-0,136	-0,067
-404,511	-38,746	-0,051	0,019
-403,496	-200,000	-0,000	-0,008
-402,482	800,000	0,068	-0,146
-401,467	-108,492	0,016	-0,002
-400,452	37,067	-0,018	-0,011
-399,438	299,289	-0,123	-0,164
-398,423	733,245	0,024	-0,047
-397,409	326,463	-0,022	-0,031
-396,394	143,031	-0,096	-0,092
-395,379	260,113	0,030	-0,037
-394,365	-200,000	0,023	0,119
-393,350	800,000	0,041	0,093
-392,336	742,352	-0,014	0,028
-391,321	-50,509	0,125	-0,042
-390,306	78,319	0,064	-0,049
-389,292	-200,000	-0,015	-0,081
-388,277	266,804	0,028	0,035
-387,263	-15,717	-0,082	-0,037
-386,248	246,756	0,069	-0,084
-385,233	427,233	-0,108	0,168
-384,219	132,589	-0,033	0,030
-383,204	-9,671	0,108	0,051
-382,190	-200,000	0,055	-0,187
-381,175	-98,259	-0,074	0,013
-380,160	800,000	-0,035	0,082
-379,146	-200,000	0,018	0,065
-378,131	-200,000	-0,010	-0,043
-377,117	800,000	-0,048	-0,136
-376,102	445,050	0,033	-0,052
-375,088	348,302	0,049	-0,069
-374,073	-88,451	0,100	-0,021
-373,058	-115,289	0,025	-0,003
-372,044	-110,794	-0,168	0,025
-371,029	800,000	0,024	0,048
-370,015	-155,367	0,108	0,005
-369,000	-26,125	-0,112	-0,047
-367,985	-2,053	-0,085	0,043
-366,971	7,636	-0,034	-0,018
-365,956	-200,000	-0,001	0,007
-364,942	-200,000	-0,019	0,110
-363,927	167,887	0,119	0,121
-362,912	47,495	0,180	0,120
-361,898	-10,914	0,057	-0,027
-360,883	214,920	0,048	-0,055
-359,869	226,356	-0,076	-0,088
-358,854	239,992	0,083	-0,099
-357,839	54,327	0,048	-0,033
-356,825	-200,000	-0,000	0,058
-355,810	24,201	0,068	0,040
-354,796	138,486	-0,062	0,058
-353,781	-200,000	-0,013	-0,107
-352,766	123,579	-0,045	-0,041
-351,752	-159,775	-0,062	-0,002
-350,737	-24,300	0,040	0,017
-349,723	-200,000	-0,012	0,104
-348,708	184,321	0,077	0,082
-347,693	-60,253	-0,076	-0,023
-346,679	-200,000	-0,010	0,037
-345,664	-200,000	-0,011	0,062
-344,650	-200,000	-0,036	0,128
-343,635	-200,000	0,003	0,083
-342,620	792,044	-0,016	-0,031
-341,606	324,224	-0,041	0,056
-340,591	-200,000	-0,013	0,088
-339,577	800,000	-0,044	-0,096
-338,562	-200,000	-0,008	-0,049
-337,548	800,000	-0,055	-0,131
-336,533	800,000	0,041	-0,107
-335,518	264,564	0,051	-0,064
-334,504	800,000	0,045	-0,099
-333,489	-200,000	-0,038	-0,210
-332,475	-200,000	0,003	-0,066
-331,460	-200,000	-0,017	-0,067
-330,445	371,885	-0,031	-0,046
-329,431	-200,000	0,045	0,156
-328,416	-80,444	0,176	0,042
-327,402	-141,986	0,123	0,009
-326,387	495,007	-0,042	-0,069
-325,372	1,779	-0,049	-0,025
-324,358	129,837	-0,047	-0,043
-323,343	-200,000	-0,009	0,105
-322,329	-120,113	0,101	0,012
-321,314	62,261	0,096	0,068
-320,299	800,000	0,044	-0,116
-319,285	-9,560	0,162	0,077
-318,270	-60,139	0,088	-0,027
-317,256	427,176	0,056	0,086
-316,241	96,803	0,018	0,014
-315,226	-200,000	0,011	0,096
-314,212	800,000	-0,034	-0,096
-313,197	-30,333	0,098	0,040
-312,183	-132,304	0,124	-0,011
-311,168	-200,000	-0,017	0,105
-310,153	32,337	-0,072	-0,044
-309,139	35,321	-0,140	-0,088
-308,124	217,640	0,061	0,070
-307,110	766,905	0,089	0,174
-306,095	-26,121	0,110	0,046
-305,080	-200,000	-0,027	0,093
-304,066	-165,780	-0,104	-0,003
-303,051	800,000	0,038	-0,103
-302,037	284,454	-0,026	-0,033
-301,022	-200,000	-0,005	-0,033
-300,008	-200,000	0,015	-0,059
-298,993	406,950	0,043	-0,065
-297,978	800,000	0,033	-0,075
-296,964	-99,731	0,027	0,005
-295,949	800,000	0,066	-0,141
-294,935	-200,000	0,005	0,059
-293,920	-96,542	0,100	0,019
-292,905	-17,537	0,067	-0,030
-291,891	800,000	-0,028	-0,073
-290,876	339,408	0,056	0,078
-289,862	-200,000	-0,007	0,045
-288,847	-59,223	0,160	-0,049
-287,832	207,739	-0,047	-0,052
-286,818	597,929	0,035	0,062
-285,803	29,972	0,093	-0,057
-284,789	238,347	0,169	0,201
-283,774	-15,256	-0,189	0,086
-282,759	-15,433	-0,050	-0,023
-281,745	126,571	0,052	-0,047
-280,730	106,239	-0,063	-0,053
-279,716	93,857	0,079	-0,064
-278,701	110,932	0,074	0,064
-277,686	-200,000	0,000	0,027
-276,672	170,328	-0,045	-0,046
-275,657	527,994	0,029	0,049
-274,643	248,987	-0,051	-0,062
-273,628	90,051	-0,036	-0,029
-272,613	-25,671	-0,117	-0,049
-271,599	-16,368	0,133	-0,060
-270,584	-3,328	-0,100	0,049
-269,570	9,648	-0,151	0,082
-268,555	10,881	0,089	-0,048
-267,540	800,000	-0,021	0,058
-266,526	128,044	-0,087	0,079
-265,511	88,138	0,054	-0,043
-264,497	-9,070	-0,106	-0,051
-263,482	389,017	-0,042	0,062
-262,467	-77,980	0,095	0,023
-261,453	50,583	-0,030	0,020
-260,438	-62,144	-0,025	-0,007
-259,424	-132,774	-0,065	0,006
-258,409	-200,000	0,012	-0,051
-257,395	800,000	0,021	0,061
-256,380	445,525	0,079	0,124
-255,365	43,608	0,108	0,071
-254,351	-15,014	-0,100	-0,045
-253,336	-200,000	0,055	-0,239
-252,322	291,847	-0,005	0,007
-251,307	-118,698	0,049	-0,006
-250,292	21,752	-0,023	-0,013
-249,278	-36,832	-0,070	-0,027
-248,263	-33,399	0,024	0,009
-247,249	-200,000	-0,014	0,088
-246,234	-200,000	-0,004	0,048
-245,219	-200,000	0,008	-0,087
-244,205	151,428	0,041	0,040
-243,190	-115,727	-0,033	0,004
-242,176	-200,000	-0,041	-0,130
-241,161	60,464	0,051	0,036
-240,146	800,000	-0,020	0,043
-239,132	-200,000	0,038	0,139
-238,117	-109,349	-0,102	0,015
-237,103	-3,262	-0,073	-0,036
-236,088	-200,000	-0,007	0,029
-235,073	800,000	-0,017	-0,038
-234,059	49,797	-0,078	-0,052
-233,044	99,935	0,063	0,052
-232,030	47,058	-0,092	-0,061
-231,015	267,964	-0,048	-0,060
-230,000	323,042	0,018	-0,025
-228,986	122,132	-0,049	0,044
-227,971	-8,965	0,044	0,021
-226,957	599,760	0,008	-0,014
-225,942	-83,055	0,162	-0,037
-224,927	4,242	-0,110	-0,057
-223,913	40,871	-0,034	-0,022
-222,898	60,559	-0,040	-0,029
-221,884	144,870	0,096	-0,091
-220,869	-62,337	-0,054	0,016
-219,855	-73,253	0,059	0,015
-218,840	149,194	0,069	0,067
-217,825	-148,396	0,015	0,001
-216,811	-200,000	0,004	-0,124
-215,796	-200,000	-0,007	-0,060
-214,782	-118,653	-0,093	0,012
-213,767	19,565	0,133	-0,076
-212,752	-200,000	0,039	0,146
-211,738	-39,451	-0,102	-0,038
-210,723	-200,000	-0,020	-0,088
-209,709	-200,000	-0,007	-0,091
-208,694	-30,290	-0,036	-0,014
-207,679	339,732	-0,050	0,070
-206,665	-74,567	0,083	-0,021
-205,650	-46,005	-0,063	-0,022
-204,636	260,899	0,053	0,065
-203,621	-200,000	0,026	0,097
-202,606	-175,051	0,129	-0,002
-201,592	347,206	-0,043	-0,060
-200,577	49,476	-0,089	-0,059
-199,563	-200,000	0,022	0,095
-198,548	800,000	0,038	0,083
-197,533	-200,000	0,032	0,109
-196,519	-62,147	-0,072	-0,021
-195,504	66,549	-0,109	-0,079
-194,490	133,278	0,079	0,073
-193,475	-96,503	-0,097	0,018
-192,460	-6,665	-0,104	0,050
-191,446	105,302	0,060	-0,051
-190,431	-55,890	0,039	-0,012
-189,417	93,753	-0,020	0,017
-188,402	105,655	-0,011	-0,009
-187,387	7,885	-0,110	-0,058
-186,373	800,000	-0,023	-0,061
-185,358	-178,892	0,159	-0,003
-184,344	456,946	-0,043	0,068
-183,329	19,282	0,100	0,057
-182,315	230,691	-0,042	0,049
-181,300	355,808	-0,035	-0,049
-180,285	238,178	0,009	0,011
-179,271	-200,000	-0,010	0,041
-178,256	192,264	-0,029	0,031
-177,242	-139,461	0,066	-0,005
-176,227	800,000	0,040	0,122
-175,212	641,973	-0,053	0,097
-174,198	-46,429	0,054	-0,019
-173,183	-47,436	-0,050	0,017
-172,169	55,326	0,084	-0,058
-171,154	-200,000	0,026	-0,089
-170,139	6,465	0,113	-0,059
-169,125	202,182	-0,082	-0,090
-168,110	-86,446	0,084	0,018
-167,096	-57,287	0,066	0,020
-166,081	63,744	0,119	0,085
-165,066	-196,997	-0,116	0,001
-164,052	427,402	-0,085	-0,131
-163,037	800,000	-0,076	-0,194
-162,023	158,880	0,069	-0,068
-161,008	-89,083	0,096	0,020
-159,993	22,002	0,069	-0,040
-158,979	495,192	-0,055	0,091
-157,964	45,760	-0,044	-0,029
-156,950	603,374	0,062	0,111
-155,935	-200,000	0,028	-0,111
-154,920	-200,000	-0,015	0,147
-153,906	-200,000	0,027	0,089
-152,891	-66,928	-0,157	-0,044
-151,877	60,916	0,094	-0,066
-150,862	482,014	-0,117	-0,190
-149,847	44,682	-0,103	-0,067
-148,833	604,575	0,029	0,052
-147,818	-102,040	0,041	0,007
-146,804	-73,971	0,142	-0,036
-145,789	56,138	-0,096	0,066
-144,775	-200,000	-0,000	0,151
-143,760	562,156	-0,093	-0,160
-142,745	-200,000	-0,015	0,063
-141,731	151,167	-0,009	0,009
-140,716	513,767	0,088	0,146
-139,702	215,448	0,079	0,089
-138,687	-200,000	-0,004	0,193
-137,672	-200,000	-0,008	-0,084
-136,658	26,077	0,031	-0,018
-135,643	-117,218	0,053	0,007
-134,629	-13,210	0,103	-0,047
-133,614	-82,624	-0,024	-0,005
-132,599	800,000	0,025	-0,063
-131,585	-75,354	0,104	-0,026
-130,570	-200,000	-0,009	0,134
-129,556	-200,000	0,003	-0,091
-128,541	132,259	0,098	-0,090
-127,526	453,791	-0,010	-0,016
-126,512	698,818	-0,073	-0,137
-125,497	-59,651	0,171	-0,052
-124,483	-27,514	-0,034	0,014
-123,468	800,000	0,044	0,099
-122,453	-45,136	-0,053	-0,019
-121,439	-200,000	-0,048	-0,154
-120,424	-200,000	-0,012	-0,131
-119,410	42,577	0,094	0,061
-118,395	-107,356	0,062	-0,010
-117,380	800,000	0,084	0,242
-116,366	-200,000	-0,032	-0,158
-115,351	229,508	-0,060	-0,070
-114,337	-39,647	-0,103	-0,038
-113,322	-108,872	-0,056	-0,008
-112,307	147,170	0,039	-0,038
-111,293	-7,288	0,068	-0,033
-110,278	-200,000	-0,003	-0,019
-109,264	800,000	0,081	0,164
-108,249	-126,881	-0,008	0,001
-107,234	120,917	0,071	0,063
-106,220	-200,000	0,001	0,032
-105,205	47,657	0,032	0,021
-104,191	622,532	-0,068	0,122
-103,176	-82,788	0,211	0,048
-102,162	49,021	-0,010	-0,007
-101,147	-200,000	0,015	-0,179
-100,132	-200,000	0,019	-0,061
-99,118	168,676	-0,075	0,076
-98,103	-10,970	-0,137	0,064
-97,089	800,000	0,058	0,145
-96,074	-45,445	-0,088	-0,031
-95,059	302,614	-0,096	0,127
-94,045	167,283	0,099	0,099
-93,030	198,630	0,019	0,021
-92,016	36,963	-0,040	-0,025
-91,001	-200,000	0,001	-0,070
-89,986	87,918	0,093	-0,073
-88,972	332,268	0,040	0,054
-87,957	524,942	-0,071	-0,119
-86,943	29,653	0,055	0,033
-85,928	-102,199	-0,187	0,032
-84,913	800,000	0,074	-0,189
-83,899	352,820	0,017	-0,024
-82,884	24,201	0,129	0,076
-81,870	-128,086	0,069	0,007
-80,855	110,932	0,028	-0,024
-79,840	800,000	0,052	-0,138
-78,826	-69,164	-0,048	0,013
-77,811	525,890	-0,054	-0,090
-76,797	-200,000	-0,010	-0,133
-75,782	17,670	0,053	-0,030
-74,767	-34,389	0,028	-0,011
-73,753	800,000	-0,032	0,099
-72,738	-76,037	-0,040	-0,010
-71,724	-157,013	-0,045	0,002
-70,709	800,000	-0,070	-0,203
-69,694	150,831	-0,052	-0,050
-68,680	-71,717	-0,021	0,006
-67,665	-200,000	-0,008	0,223
-66,651	-21,567	-0,065	0,028
-65,636	396,263	-0,050	-0,075
-64,622	275,845	-0,128	-0,161
-63,607	-26,539	-0,069	-0,029
-62,592	-200,000	-0,003	0,072
-61,578	-200,000	0,009	0,138
-60,563	-200,000	0,006	-0,056
-59,549	552,651	0,058	0,099
-58,534	-54,864	-1,376	-0,437
-57,519	378,131	-1,524	-2,214
-56,505	-200,000	-0,596	-4,626
-55,490	204,694	0,907	0,998
-54,476	800,000	4,860	11,254
-53,461	-200,000	18,164	286,413
-52,446	800,000	726,546	2224,022
-51,432	554,039	1642,590	2808,135
-50,417	79,400	1664,971	1263,074
-49,403	23,005	1538,752	891,406
-48,388	16,930	1462,232	817,664
-47,373	17,902	1451,901	816,533
-46,359	17,333	1442,341	808,402
-45,344	15,287	1437,661	795,988
-44,330	15,127	1435,855	794,190
-43,315	15,155	1434,087	793,317
-42,300	15,162	1432,508	792,443
-41,286	15,232	1431,249	792,051
-40,271	15,183	1429,985	791,087
-39,257	15,186	1428,957	790,501
-38,242	15,211	1427,722	789,901
-37,227	15,208	1426,370	789,109
-36,213	15,200	1424,887	788,221
-35,198	15,232	1423,842	787,764
-34,184	15,209	1422,987	787,150
-33,169	15,142	1421,748	786,116
-32,154	15,212	1420,707	785,838
-31,140	15,226	1419,284	785,089
-30,125	15,234	1418,195	784,494
-29,111	15,254	1417,108	783,955
-28,096	15,248	1415,801	783,173
-27,082	15,112	1415,073	782,097
-26,067	15,166	1413,661	781,539
-25,052	15,143	1412,739	780,894
-24,038	15,136	1411,741	780,276
-23,023	15,137	1410,869	779,769
-22,009	15,082	1409,830	778,906
-20,994	15,075	1408,780	778,260
-19,979	15,089	1407,731	777,717
-18,965	15,053	1406,821	777,015
-17,950	15,071	1406,003	776,616
-16,936	15,082	1404,811	775,979
-15,921	15,046	1403,859	775,254
-14,906	15,060	1403,020	774,823
-13,892	15,071	1402,048	774,309
-12,877	15,035	1401,120	773,598
-11,863	15,063	1400,225	773,205
-10,848	15,041	1399,536	772,691
-9,833	15,012	1398,523	771,963
-8,819	14,980	1397,771	771,372
-7,804	14,924	1396,733	770,508
-6,790	14,964	1395,454	769,958
-5,775	14,963	1394,532	769,412
-4,760	14,961	1393,740	768,937
-3,746	14,923	1392,755	768,189
-2,731	14,945	1392,092	767,893
-1,717	14,963	1391,098	767,396
-0,702	14,932	1389,257	766,209
0,313	18,788	1308,646	739,574
1,327	35,102	707,372	437,593
2,342	53,761	125,041	84,836
3,356	0,560	16,731	8,435
4,371	8,604	3,120	1,657
5,386	8,414	0,467	0,248
6,400	-200,000	0,024	0,108
7,415	-20,815	-0,136	-0,059
8,429	45,193	-0,279	-0,182
9,444	-26,596	-0,364	-0,150
10,459	-80,897	-0,301	-0,070
11,473	128,906	-0,308	-0,278
12,488	62,723	-0,311	-0,219
13,502	-39,406	-0,396	-0,146
14,517	208,052	-0,213	-0,235
15,531	28,141	-0,363	-0,216
16,546	181,923	-0,376	-0,391
17,561	-33,026	-0,417	-0,163
18,575	112,140	-0,228	-0,195
19,590	246,180	-0,292	-0,349
20,604	107,180	-0,250	-0,210
21,619	17,510	-0,383	-0,215
22,634	88,768	-0,425	-0,334
23,648	20,965	-0,531	-0,303
24,663	132,128	-0,418	-0,381
25,677	164,222	-0,305	-0,304
26,692	11,230	-0,405	-0,218
27,707	117,544	-0,354	-0,307
28,721	199,096	-0,373	-0,404
29,736	-101,056	-0,361	-0,062
30,750	79,537	-0,482	-0,365
31,765	800,000	-0,140	-0,372
32,780	9,279	-0,358	-0,191
33,794	84,193	-0,331	-0,255
34,809	10,969	-0,333	-0,179
35,823	91,743	-0,340	-0,270
36,838	57,428	-0,488	-0,336
37,853	10,314	-0,443	-0,237
38,867	225,603	-0,271	-0,310
39,882	72,768	-0,247	-0,182
40,896	174,150	-0,300	-0,306
41,911	86,237	-0,351	-0,273
42,926	8,015	-0,471	-0,248
43,940	141,180	-0,353	-0,329
44,955	63,702	-0,314	-0,222
45,969	133,123	-0,401	-0,365
46,984	17,223	-0,322	-0,180
47,999	-7,047	-0,390	-0,186
49,013	48,328	-0,411	-0,271
50,028	16,505	-0,264	-0,146
51,042	4,434	-0,425	-0,219
52,057	64,436	-0,415	-0,294
53,071	57,955	-0,420	-0,289
54,086	14,630	-0,370	-0,203
55,101	126,953	-0,250	-0,223
56,115	-12,197	-0,280	-0,128
57,130	31,226	-0,385	-0,232
58,144	157,770	-0,311	-0,303
59,159	260,568	-0,403	-0,491
60,174	79,744	-0,400	-0,302
61,188	110,160	-0,360	-0,304
62,203	135,067	-0,255	-0,233
63,217	45,003	-0,366	-0,237
64,232	-21,996	-0,351	-0,149
65,247	91,631	-0,333	-0,263
66,261	-20,844	-0,383	-0,164
67,276	61,320	-0,217	-0,152
68,290	-13,267	-0,419	-0,191
69,305	-40,758	-0,419	-0,152
70,320	265,649	-0,080	-0,099
71,334	152,076	-0,217	-0,208
72,349	23,669	-0,410	-0,237
73,363	344,666	-0,282	-0,390
74,378	7,916	-0,275	-0,145
75,393	146,049	-0,269	-0,253
76,407	112,393	-0,303	-0,258
77,422	11,044	-0,259	-0,139
78,436	-78,136	-0,375	-0,090
79,451	14,180	-0,243	-0,133
80,466	27,430	-0,256	-0,151
81,480	42,811	-0,325	-0,208
82,495	-10,605	-0,323	-0,150
83,509	513,902	-0,195	-0,321
84,524	154,841	-0,235	-0,227
85,539	-62,776	-0,172	-0,050
86,553	10,418	-0,313	-0,167
87,568	-11,470	-0,321	-0,148
88,582	-53,144	-0,329	-0,105
89,597	153,181	-0,290	-0,278
90,611	-67,649	-0,310	-0,085
91,626	116,944	-0,258	-0,223
92,641	142,086	-0,340	-0,317
93,655	63,794	-0,329	-0,232
94,670	-50,594	-0,373	-0,123
95,684	-33,818	-0,329	-0,126
96,699	-69,456	-0,202	-0,054
97,714	177,549	-0,303	-0,310
98,728	53,738	-0,356	-0,240
99,743	259,194	-0,221	-0,268
100,757	-105,003	-0,388	-0,062
101,772	132,945	-0,331	-0,300
102,787	79,146	-0,367	-0,275
103,801	496,464	-0,246	-0,398
104,816	-83,331	-0,271	-0,060
105,830	45,767	-0,197	-0,128
106,845	52,484	-0,232	-0,155
107,860	36,691	-0,246	-0,152
108,874	34,473	-0,310	-0,190
109,889	30,734	-0,324	-0,194
110,903	42,211	-0,280	-0,178
111,918	90,662	-0,254	-0,200
112,933	-15,182	-0,241	-0,108
113,947	-3,630	-0,263	-0,128
114,962	-10,670	-0,227	-0,105
115,976	77,995	-0,345	-0,257
116,991	-2,069	-0,297	-0,146
118,006	155,663	-0,254	-0,245
119,020	350,086	-0,209	-0,290
120,035	-35,657	-0,330	-0,125
121,049	-55,943	-0,215	-0,067
122,064	48,351	-0,239	-0,156
123,079	56,539	-0,322	-0,219
124,093	-82,967	-0,252	-0,056
125,108	-19,540	-0,250	-0,108
126,122	67,637	-0,304	-0,217
127,137	-6,366	-0,267	-0,127
128,151	-58,192	-0,185	-0,056
129,166	800,000	-0,114	-0,275
130,181	-62,730	-0,320	-0,092
131,195	22,152	-0,247	-0,141
132,210	207,909	-0,273	-0,298
133,224	144,827	-0,203	-0,190
134,239	800,000	-0,085	-0,206
135,254	17,885	-0,239	-0,133
136,268	449,190	-0,125	-0,193
137,283	-53,573	-0,283	-0,090
138,297	252,885	-0,231	-0,276
139,312	-53,635	-0,308	-0,098
140,327	95,135	-0,342	-0,272
141,341	176,982	-0,174	-0,178
142,356	175,228	-0,262	-0,266
143,370	182,528	-0,212	-0,218
144,385	187,121	-0,211	-0,220
145,400	72,715	-0,244	-0,178
146,414	-7,244	-0,376	-0,177
147,429	800,000	-0,137	-0,349
148,443	92,141	-0,224	-0,176
149,458	-6,470	-0,235	-0,111
150,473	69,343	-0,264	-0,190
151,487	73,946	-0,207	-0,151
152,502	95,754	-0,186	-0,148
153,516	85,248	-0,205	-0,157
154,531	115,595	-0,161	-0,138
155,546	-49,732	-0,303	-0,100
156,560	231,542	-0,200	-0,229
157,575	-112,840	-0,231	0,032
158,589	84,541	-0,117	-0,089
159,604	113,357	-0,230	-0,195
160,619	87,842	-0,280	-0,216
161,633	292,604	-0,238	-0,304
162,648	800,000	-0,139	-0,275
163,662	195,400	-0,139	-0,148
164,677	42,590	-0,305	-0,194
165,692	391,211	-0,165	-0,240
166,706	172,905	-0,174	-0,175
167,721	54,159	-0,167	-0,112
168,735	-88,896	-0,347	-0,071
169,750	258,639	-0,127	-0,153
170,764	42,963	-0,172	-0,109
171,779	-83,930	-0,150	-0,033
172,794	681,028	-0,122	-0,223
173,808	149,951	-0,182	-0,172
174,823	65,228	-0,184	-0,129
175,837	-79,943	-0,354	-0,082
176,852	-110,994	-0,303	0,043
177,867	301,136	-0,141	-0,182
178,881	-20,760	-0,116	-0,049
179,896	18,862	-0,330	-0,184
180,910	83,398	-0,235	-0,178
181,925	800,000	-0,161	-0,361
182,940	139,513	-0,264	-0,242
183,954	47,149	-0,283	-0,183
184,969	-200,000	-0,075	-0,264
185,983	-200,000	-0,020	-0,115
186,998	800,000	-0,077	-0,159
188,013	-160,315	-0,228	0,008
189,027	-141,963	-0,267	-0,018
190,042	167,669	-0,194	-0,192
191,056	111,972	-0,304	-0,256
192,071	181,300	-0,263	-0,270
193,086	131,065	-0,133	-0,119
194,100	-88,319	-0,148	-0,031
195,115	90,540	-0,189	-0,147
196,129	-17,900	-0,233	-0,101
197,144	69,947	-0,206	-0,148
198,159	21,328	-0,178	-0,100
199,173	261,174	-0,098	-0,119
200,188	245,569	-0,210	-0,247
201,202	-59,782	-0,218	-0,065
202,217	199,490	-0,174	-0,186
203,232	46,293	-0,302	-0,195
204,246	104,545	-0,278	-0,228
205,261	1,927	-0,304	-0,152
206,275	45,314	-0,194	-0,124
207,290	51,166	-0,248	-0,163
208,304	-100,457	-0,210	-0,036
209,319	131,087	-0,162	-0,145
210,334	493,502	-0,116	-0,186
211,348	33,174	-0,173	-0,104
212,363	-148,265	-0,194	-0,011
213,377	-50,974	-0,232	-0,075
214,392	15,270	-0,152	-0,082
215,407	800,000	-0,029	-0,076
216,421	-155,005	-0,237	-0,011
217,436	-71,197	-0,202	-0,052
218,450	146,646	-0,396	-0,370
219,465	251,002	-0,268	-0,316
220,480	193,806	-0,179	-0,188
221,494	-64,906	-0,321	-0,090
222,509	-12,481	-0,165	-0,074
223,523	-41,938	-0,162	-0,057
224,538	246,151	-0,148	-0,173
225,553	170,317	-0,283	-0,281
226,567	-19,646	-0,284	-0,121
227,582	100,080	-0,227	-0,182
228,596	110,628	-0,176	-0,147
229,611	82,091	-0,155	-0,116
230,626	-33,451	-0,214	0,082
231,640	209,142	-0,174	-0,189
232,655	161,866	-0,137	-0,133
233,669	800,000	-0,096	-0,244
234,684	16,019	-0,159	-0,086
235,699	54,440	-0,240	-0,160
236,713	318,235	-0,067	-0,089
237,728	-12,548	-0,269	-0,121
238,742	-63,909	-0,258	-0,073
239,757	800,000	-0,078	-0,191
240,772	140,103	-0,257	-0,235
241,786	380,213	-0,143	-0,203
242,801	800,000	-0,090	-0,191
243,815	800,000	-0,148	-0,311
244,830	514,883	-0,139	-0,226
245,844	-22,916	-0,106	-0,044
246,859	92,986	-0,216	-0,169
247,874	116,000	-0,299	-0,254
248,888	680,117	-0,148	-0,268
249,903	103,129	-0,099	-0,080
250,917	-88,774	-0,174	0,035
251,932	351,528	-0,083	-0,114
252,947	219,497	-0,113	-0,126
253,961	-12,878	-0,207	0,093
254,976	-97,063	-0,201	-0,036
255,990	-37,433	-0,179	-0,066
257,005	-21,429	-0,261	-0,110
258,020	280,660	-0,169	-0,209
259,034	-200,000	-0,047	-0,212
260,049	-43,001	-0,203	-0,071
261,063	-46,329	-0,272	-0,092
262,078	-21,087	-0,189	-0,080
263,093	-200,000	-0,008	-0,176
264,107	-200,000	-0,053	-0,285
265,122	-82,979	-0,132	-0,029
266,136	19,883	-0,163	0,091
267,151	-34,861	-0,154	-0,058
268,166	-95,412	-0,155	-0,029
269,180	41,663	-0,201	-0,126
270,195	-167,492	-0,239	0,006
271,209	3,801	-0,193	-0,097
272,224	317,383	-0,128	-0,167
273,239	117,833	-0,111	-0,094
274,253	21,058	-0,247	-0,138
275,268	10,077	-0,225	-0,118
276,282	192,715	-0,197	-0,206
277,297	182,705	-0,192	-0,196
278,312	-58,507	-0,245	-0,073
279,326	-37,114	-0,132	-0,049
280,341	-37,970	-0,160	-0,059
281,355	-3,006	-0,048	-0,023
282,370	-25,795	-0,218	-0,088
283,384	167,329	-0,092	-0,091
284,399	58,697	-0,286	-0,194
285,414	120,898	-0,165	-0,142
286,428	488,222	-0,064	-0,101
287,443	-156,128	-0,151	0,006
288,457	638,840	-0,060	-0,106
289,472	-41,584	-0,151	-0,053
290,487	76,302	-0,174	-0,127
291,501	-22,177	-0,130	0,054
292,516	-170,025	-0,216	-0,005
293,530	209,985	-0,157	-0,170
294,545	30,322	-0,213	-0,125
295,560	57,166	-0,229	-0,154
296,574	-34,936	-0,151	-0,057
297,589	86,741	-0,273	-0,207
298,603	645,626	-0,067	-0,118
299,618	-200,000	-0,017	-0,101
300,633	17,020	-0,168	-0,092
301,647	249,196	-0,014	-0,017
302,662	64,806	-0,183	-0,127
303,676	113,016	-0,231	-0,193
304,691	12,289	-0,211	-0,112
305,706	145,964	-0,104	-0,096
306,720	139,700	-0,167	-0,152
307,735	-125,431	-0,115	0,012
308,749	-200,000	-0,039	-0,162
309,764	800,000	-0,038	-0,073
310,779	432,274	-0,108	-0,162
311,793	800,000	-0,094	-0,202
312,808	104,989	-0,133	-0,108
313,822	437,382	-0,153	-0,230
314,837	18,813	-0,106	-0,058
315,852	-103,698	-0,040	0,006
316,866	-145,175	-0,060	-0,004
317,881	-31,399	-0,035	-0,014
318,895	142,104	-0,112	-0,102
319,910	180,576	-0,109	-0,110
320,925	-200,000	-0,041	-0,233
321,939	-200,000	-0,032	-0,264
322,954	-96,279	-0,083	-0,015
323,968	-34,384	-0,159	-0,060
324,983	800,000	-0,053	-0,145
325,997	-200,000	0,020	-0,090
327,012	-70,845	-0,199	-0,051
328,027	692,167	-0,132	-0,238
329,041	460,388	-0,099	-0,152
330,056	30,837	-0,065	-0,038
331,070	-103,701	-0,138	0,022
332,085	-14,721	-0,220	-0,097
333,100	88,442	-0,267	-0,204
334,114	-30,395	-0,099	-0,038
335,129	-140,417	-0,211	0,015
336,143	265,579	-0,161	-0,194
337,158	211,844	-0,136	-0,147
338,173	168,915	-0,199	-0,195
339,187	200,238	-0,102	-0,108
340,202	172,777	-0,097	-0,096
341,216	147,915	-0,065	-0,060
342,231	52,545	-0,238	-0,156
343,246	-200,000	-0,028	-0,094
344,260	708,611	0,003	-0,005
345,275	88,088	-0,175	-0,133
346,289	111,956	-0,100	-0,083
347,304	-175,795	-0,101	0,002
348,319	108,097	-0,180	-0,147
349,333	63,981	-0,164	-0,113
350,348	-29,961	-0,254	-0,099
351,362	173,636	-0,091	-0,091
352,377	-16,416	-0,195	-0,085
353,392	-130,224	-0,128	-0,012
354,406	14,592	-0,096	-0,051
355,421	208,847	1317,404	1416,241
356,435	160,714	1478,472	1416,749
