DTS Sentinel unit serial number:	SN410029Multiplexer serial number:	ORYXHardware model number:	OX2-SRSoftware version number:	ORYX F/W v4,00 Oryx Data Collector v3.7.2.0data status	okinstallation	B3 Nyhavnadifferential loss correction	single-endedforward channel	channel 1reverse channel	N/Adate	2023/12/01time	09:32:30forward acquisition time	300,00reverse acquisition time	0,00gamma	499,1914k internal	0,3213k external	0,3213temperature offset calibration	1,0000default loss term (dB/km)	0,3820temperature slope calibration	1,0000multiplexer offset coefficient	1,0000multiplexer slope coefficient	1,0000fibre end	0,00T internal ref (°C)	8,00T ext. ref 1 (°C)	-6,47T ext. ref 2 (°C)	-6,59length (m)	temperature (°C)	Stokes	anti-Stokes-744,400	-200,000	-0,097	-0,351
-743,385	800,000	-0,098	0,247
-742,371	800,000	-0,087	-0,267
-741,356	-200,000	0,013	0,401
-740,342	177,377	-0,206	-0,217
-739,327	-200,000	0,050	0,281
-738,312	-37,429	-0,238	-0,091
-737,298	800,000	-0,085	0,253
-736,283	115,502	-0,163	-0,144
-735,269	800,000	-0,105	0,299
-734,254	-21,083	-0,259	-0,114
-733,239	-21,669	-0,188	0,082
-732,225	528,693	-0,067	-0,115
-731,210	-13,983	0,181	0,084
-730,196	-129,083	-0,133	0,013
-729,181	-200,000	-0,005	-0,036
-728,167	9,828	-0,082	-0,045
-727,152	-71,583	-0,033	-0,009
-726,137	800,000	-0,085	-0,177
-725,123	120,788	-0,124	0,112
-724,108	483,129	-0,040	0,066
-723,094	-200,000	-0,100	0,000
-722,079	-200,000	0,001	-0,069
-721,064	-35,813	-0,041	0,016
-720,050	-200,000	0,011	0,103
-719,035	-53,985	-0,138	0,045
-718,021	214,473	-0,084	-0,096
-717,006	198,098	0,045	-0,050
-715,991	3,932	-0,083	-0,044
-714,977	356,005	-0,106	-0,153
-713,962	525,773	0,068	-0,116
-712,948	109,674	0,043	0,038
-711,933	192,064	-0,105	-0,115
-710,918	172,949	-0,120	0,125
-709,904	-135,511	-0,171	-0,015
-708,889	45,181	-0,207	0,138
-707,875	-57,278	-0,051	-0,016
-706,860	800,000	-0,040	0,099
-705,845	-102,605	0,082	-0,014
-704,831	135,297	-0,040	-0,037
-703,816	76,660	0,136	0,104
-702,802	800,000	0,043	0,132
-701,787	-200,000	-0,002	-0,020
-700,772	-6,077	0,180	0,089
-699,758	-200,000	-0,019	0,126
-698,743	403,819	-0,052	0,080
-697,729	800,000	0,066	0,158
-696,714	-150,210	-0,055	0,003
-695,699	-191,686	-0,081	0,001
-694,685	-194,648	-0,040	-0,000
-693,670	-200,000	-0,012	0,039
-692,656	394,448	-0,075	-0,113
-691,641	215,641	0,047	0,055
-690,627	-15,115	0,067	-0,031
-689,612	-33,655	-0,099	-0,039
-688,597	155,789	-0,061	0,061
-687,583	-115,690	-0,098	0,013
-686,568	-200,000	-0,028	-0,134
-685,554	800,000	-0,076	0,197
-684,539	800,000	0,076	0,182
-683,524	800,000	0,054	0,153
-682,510	-200,000	-0,006	0,143
-681,495	-141,262	0,089	-0,006
-680,481	-29,137	-0,191	-0,079
-679,466	9,452	-0,192	-0,105
-678,451	-24,703	-0,009	0,004
-677,437	-200,000	0,000	0,091
-676,422	-200,000	0,005	0,090
-675,408	53,505	0,097	-0,067
-674,393	35,533	-0,059	-0,038
-673,378	-67,658	-0,136	-0,038
-672,364	800,000	0,042	-0,117
-671,349	800,000	-0,044	-0,092
-670,335	800,000	0,035	0,096
-669,320	175,530	0,077	0,081
-668,305	-200,000	0,012	0,118
-667,291	-109,249	-0,279	0,042
-666,276	-110,948	0,058	0,009
-665,262	800,000	-0,027	-0,061
-664,247	-157,508	-0,218	0,009
-663,232	-59,274	0,111	-0,034
-662,218	-106,451	0,053	0,008
-661,203	-37,121	-0,046	0,018
-660,189	-200,000	0,012	0,126
-659,174	213,993	0,112	-0,128
-658,159	-153,579	0,046	0,002
-657,145	29,601	-0,111	-0,068
-656,130	800,000	0,008	-0,017
-655,116	-200,000	0,022	-0,088
-654,101	-59,730	0,052	0,016
-653,086	-152,007	0,088	0,005
-652,072	-149,923	0,035	-0,002
-651,057	45,467	-0,076	-0,051
-650,043	-151,771	0,017	-0,001
-649,028	-200,000	0,016	-0,135
-648,014	-47,137	0,048	0,017
-646,999	800,000	0,024	-0,056
-645,984	59,743	-0,095	0,068
-644,970	-37,070	0,051	0,020
-643,955	-37,275	-0,067	-0,026
-642,941	10,922	-0,023	-0,012
-641,926	-200,000	-0,001	-0,025
-640,911	51,987	0,087	-0,060
-639,897	-140,816	-0,091	-0,007
-638,882	96,210	-0,032	-0,026
-637,868	84,313	-0,054	0,043
-636,853	-119,617	-0,103	-0,013
-635,838	800,000	-0,027	-0,060
-634,824	-200,000	0,007	0,043
-633,809	-200,000	0,025	0,133
-632,795	193,642	-0,055	0,060
-631,780	-5,345	0,074	0,036
-630,765	-200,000	0,008	-0,030
-629,751	-48,296	-0,044	-0,015
-628,736	-143,056	-0,081	0,006
-627,722	636,201	-0,051	-0,093
-626,707	-200,000	0,018	0,166
-625,692	-94,018	-0,066	-0,013
-624,678	-17,315	-0,022	-0,010
-623,663	800,000	-0,073	0,147
-622,649	494,971	-0,063	-0,105
-621,634	-176,165	-0,134	-0,002
-620,619	-200,000	-0,034	0,000
-619,605	13,789	-0,067	-0,038
-618,590	800,000	0,048	0,104
-617,576	-200,000	-0,015	0,108
-616,561	-8,049	0,055	0,026
-615,546	316,678	0,057	-0,078
-614,532	44,877	0,082	-0,054
-613,517	410,332	-0,074	0,114
-612,503	800,000	-0,035	-0,097
-611,488	-76,453	-0,202	-0,051
-610,474	-200,000	0,033	0,204
-609,459	197,801	0,096	0,106
-608,444	97,744	-0,106	-0,087
-607,430	15,570	-0,081	-0,046
-606,415	-200,000	0,008	0,030
-605,401	-200,000	-0,035	0,124
-604,386	-170,927	-0,109	0,003
-603,371	42,931	0,065	0,043
-602,357	155,178	-0,024	-0,024
-601,342	62,771	-0,015	0,010
-600,328	394,406	-0,034	-0,051
-599,313	651,596	-0,028	-0,053
-598,298	800,000	0,024	0,067
-597,284	-29,031	-0,035	-0,014
-596,269	-7,748	0,114	0,055
-595,255	88,776	0,014	0,011
-594,240	86,948	-0,082	-0,065
-593,225	-56,480	0,054	0,017
-592,211	360,885	-0,068	-0,098
-591,196	-83,900	-0,046	-0,010
-590,182	87,474	0,035	0,028
-589,167	79,017	0,111	-0,085
-588,152	800,000	-0,020	0,056
-587,138	462,504	-0,080	-0,129
-586,123	-200,000	-0,013	-0,081
-585,109	-200,000	0,022	-0,089
-584,094	69,762	0,036	-0,027
-583,079	56,567	0,015	-0,010
-582,065	-64,617	0,109	-0,032
-581,050	-200,000	-0,013	0,082
-580,036	-200,000	0,002	0,078
-579,021	800,000	-0,003	0,006
-578,006	-3,370	-0,008	0,004
-576,992	51,077	0,044	0,030
-575,977	423,000	0,115	0,179
-574,963	-200,000	0,060	0,222
-573,948	-200,000	0,053	0,170
-572,934	240,816	0,075	0,090
-571,919	-39,337	-0,169	-0,064
-570,904	265,164	0,048	-0,061
-569,890	800,000	0,033	-0,074
-568,875	269,027	0,107	-0,135
-567,861	-121,915	-0,085	-0,010
-566,846	35,043	-0,166	-0,104
-565,831	368,538	0,030	0,044
-564,817	-130,428	-0,031	0,003
-563,802	-120,625	0,066	0,008
-562,788	502,056	0,055	-0,091
-561,773	-178,218	-0,034	0,001
-560,758	-89,237	0,075	0,016
-559,744	-64,808	0,155	0,045
-558,729	2,171	-0,075	0,039
-557,715	100,788	-0,093	-0,077
-556,700	302,453	0,082	-0,109
-555,685	-94,350	0,050	0,010
-554,671	-2,044	-0,047	0,024
-553,656	49,605	-0,059	0,040
-552,642	221,619	0,066	-0,077
-551,627	800,000	0,043	0,103
-550,612	-200,000	-0,016	-0,083
-549,598	408,931	-0,087	-0,133
-548,583	-129,891	-0,103	-0,010
-547,569	104,114	-0,020	0,017
-546,554	-45,751	-0,022	-0,008
-545,539	-186,893	-0,075	-0,001
-544,525	-200,000	-0,005	-0,074
-543,510	-134,487	-0,049	0,004
-542,496	-125,526	-0,113	-0,012
-541,481	145,687	-0,062	-0,060
-540,466	-112,223	-0,190	0,027
-539,452	213,706	0,087	0,099
-538,437	800,000	-0,019	0,055
-537,423	193,915	0,023	0,025
-536,408	-200,000	-0,005	0,138
-535,393	-200,000	-0,014	-0,111
-534,379	-124,189	-0,108	-0,012
-533,364	33,893	0,078	-0,049
-532,350	181,607	-0,078	-0,083
-531,335	612,313	0,033	0,060
-530,321	-200,000	-0,006	0,040
-529,306	489,168	0,094	0,155
-528,291	55,558	0,098	-0,068
-527,277	514,570	-0,010	-0,016
-526,262	800,000	0,028	0,063
-525,248	30,161	0,066	0,041
-524,233	800,000	0,030	0,079
-523,218	30,691	-0,084	-0,051
-522,204	-200,000	-0,007	-0,051
-521,189	72,318	-0,112	0,084
-520,175	576,674	0,067	-0,118
-519,160	-200,000	-0,020	0,101
-518,145	91,760	0,047	-0,038
-517,131	45,426	0,066	0,044
-516,116	-200,000	-0,020	0,164
-515,102	800,000	0,015	0,038
-514,087	46,050	-0,158	-0,105
-513,072	7,742	0,030	-0,016
-512,058	-200,000	0,005	-0,108
-511,043	-200,000	0,011	-0,075
-510,029	800,000	-0,023	0,067
-509,014	129,884	0,047	-0,043
-507,999	-200,000	-0,015	0,185
-506,985	800,000	0,111	-0,274
-505,970	800,000	0,004	-0,011
-504,956	66,276	-0,060	-0,044
-503,941	694,059	-0,036	0,069
-502,926	800,000	0,029	0,085
-501,912	37,136	-0,010	-0,006
-500,897	195,930	-0,012	0,014
-499,883	-200,000	-0,031	-0,099
-498,868	94,048	-0,140	-0,114
-497,853	137,652	0,137	-0,129
-496,839	-3,548	-0,063	-0,032
-495,824	-200,000	0,013	0,086
-494,810	208,411	-0,086	0,097
-493,795	470,457	0,039	0,063
-492,781	30,521	-0,072	0,044
-491,766	60,035	0,074	0,052
-490,751	-167,453	-0,066	0,002
-489,737	247,807	-0,088	0,106
-488,722	-123,330	0,152	0,017
-487,708	-200,000	0,004	0,104
-486,693	-165,053	-0,077	0,002
-485,678	-112,095	0,126	-0,018
-484,664	35,155	-0,121	-0,076
-483,649	509,382	0,012	0,021
-482,635	0,516	-0,083	0,043
-481,620	244,557	0,155	-0,187
-480,605	800,000	-0,034	-0,071
-479,591	14,181	0,051	0,028
-478,576	800,000	0,052	-0,121
-477,562	136,449	-0,068	-0,064
-476,547	178,282	-0,068	-0,072
-475,532	0,342	-0,076	-0,039
-474,518	368,765	0,101	0,146
-473,503	-36,897	0,050	-0,019
-472,489	-200,000	-0,011	0,040
-471,474	1,745	0,074	0,038
-470,459	190,568	0,072	-0,078
-469,445	427,295	-0,092	-0,142
-468,430	-200,000	-0,046	-0,146
-467,416	800,000	-0,017	0,044
-466,401	-83,724	-0,082	0,019
-465,386	800,000	-0,059	0,131
-464,372	-105,147	-0,048	-0,008
-463,357	252,799	-0,074	-0,091
-462,343	-200,000	0,017	0,130
-461,328	-80,682	-0,127	-0,030
-460,313	-118,424	0,166	-0,021
-459,299	15,922	0,051	-0,029
-458,284	676,808	0,005	0,009
-457,270	-200,000	0,016	-0,100
-456,255	-200,000	0,029	-0,116
-455,241	60,166	-0,075	-0,053
-454,226	-200,000	-0,007	0,040
-453,211	-85,866	-0,049	0,011
-452,197	35,676	0,063	-0,040
-451,182	635,281	-0,026	-0,048
-450,168	130,145	-0,045	0,041
-449,153	-17,816	0,053	-0,024
-448,138	151,296	-0,096	-0,094
-447,124	-200,000	0,012	-0,052
-446,109	-200,000	-0,018	-0,059
-445,095	59,274	-0,042	0,029
-444,080	283,743	0,055	0,071
-443,065	800,000	0,017	-0,049
-442,051	-200,000	-0,017	0,132
-441,036	-157,603	-0,152	-0,006
-440,022	-200,000	-0,021	0,097
-439,007	275,777	0,061	0,077
-437,992	491,932	-0,025	0,041
-436,978	90,999	-0,128	0,103
-435,963	466,386	0,038	-0,061
-434,949	-200,000	0,003	0,016
-433,934	334,098	-0,056	-0,078
-432,919	-200,000	-0,020	-0,150
-431,905	800,000	0,019	0,041
-430,890	166,099	0,050	0,051
-429,876	-200,000	-0,010	0,076
-428,861	-200,000	0,045	0,149
-427,846	-200,000	0,028	0,091
-426,832	800,000	-0,056	-0,146
-425,817	666,236	-0,049	-0,090
-424,803	457,246	0,096	0,153
-423,788	29,169	-0,070	0,043
-422,773	50,186	0,163	0,110
-421,759	45,618	0,104	-0,068
-420,744	62,773	-0,039	0,028
-419,730	-200,000	0,000	0,026
-418,715	85,794	0,020	-0,016
-417,701	419,951	-0,039	-0,060
-416,686	-200,000	-0,005	-0,016
-415,671	-164,985	0,087	0,003
-414,657	-200,000	-0,022	0,068
-413,642	249,513	0,091	0,110
-412,628	35,883	-0,028	-0,018
-411,613	-200,000	0,001	0,029
-410,598	-200,000	-0,014	-0,100
-409,584	800,000	0,040	-0,089
-408,569	-200,000	-0,009	0,053
-407,555	-200,000	-0,019	-0,076
-406,540	-200,000	0,026	0,174
-405,525	800,000	-0,022	-0,047
-404,511	-20,610	-0,189	-0,083
-403,496	-71,865	0,057	-0,015
-402,482	-200,000	-0,002	-0,054
-401,467	-200,000	-0,028	0,092
-400,452	316,528	0,077	0,104
-399,438	60,128	-0,040	0,028
-398,423	-200,000	-0,006	-0,040
-397,409	800,000	-0,008	-0,020
-396,394	-144,029	0,137	0,009
-395,379	74,812	-0,067	0,050
-394,365	-138,215	0,112	-0,009
-393,350	105,230	-0,021	-0,017
-392,336	-43,510	0,103	0,037
-391,321	-15,224	-0,075	-0,034
-390,306	503,909	0,024	0,040
-389,292	-79,980	-0,103	0,025
-388,277	132,958	-0,070	-0,064
-387,263	800,000	0,042	-0,121
-386,248	130,370	0,123	0,113
-385,233	164,497	-0,088	0,088
-384,219	-150,608	-0,050	-0,003
-383,204	631,732	0,047	-0,086
-382,190	67,707	0,035	0,026
-381,175	-200,000	-0,003	-0,019
-380,160	800,000	0,074	0,167
-379,146	-20,802	0,032	-0,014
-378,131	96,195	-0,050	-0,041
-377,117	-200,000	-0,016	0,081
-376,102	-25,533	-0,089	-0,038
-375,088	98,396	-0,114	-0,094
-374,073	800,000	-0,033	0,070
-373,058	-75,222	0,047	0,012
-372,044	-200,000	0,003	0,087
-371,029	154,391	0,103	0,101
-370,015	800,000	-0,032	0,091
-369,000	258,350	-0,086	0,106
-367,985	-98,141	-0,110	0,020
-366,971	430,768	0,071	-0,110
-365,956	549,797	0,075	0,129
-364,942	-200,000	0,011	-0,035
-363,927	464,134	0,054	-0,086
-362,912	139,476	0,046	-0,043
-361,898	407,295	0,041	-0,062
-360,883	315,442	-0,075	-0,102
-359,869	460,154	-0,078	0,124
-358,854	-79,765	-0,144	0,034
-357,839	-200,000	-0,005	0,071
-356,825	-67,840	0,092	0,026
-355,810	-96,659	0,086	-0,016
-354,796	-200,000	0,048	-0,191
-353,781	-200,000	-0,007	-0,169
-352,766	-42,844	0,118	-0,043
-351,752	31,102	0,046	0,028
-350,737	132,720	0,135	0,125
-349,723	-28,445	0,056	0,023
-348,708	44,077	-0,054	0,035
-347,693	-200,000	0,002	-0,013
-346,679	106,306	0,022	0,018
-345,664	-196,794	0,049	-0,000
-344,650	-102,986	0,061	-0,010
-343,635	0,244	-0,128	0,065
-342,620	314,155	0,116	0,156
-341,606	172,285	-0,037	0,038
-340,591	634,940	0,041	-0,074
-339,577	8,623	-0,071	-0,038
-338,562	61,957	0,096	0,068
-337,548	211,268	-0,099	-0,111
-336,533	800,000	0,053	-0,155
-335,518	267,314	0,043	0,054
-334,504	-5,910	0,051	0,025
-333,489	36,490	-0,117	0,073
-332,475	-118,884	-0,141	0,017
-331,460	460,483	0,065	0,103
-330,445	-142,404	0,007	0,000
-329,431	178,613	0,144	-0,150
-328,416	-108,640	0,041	-0,006
-327,402	-200,000	0,021	0,087
-326,387	29,545	-0,057	-0,035
-325,372	500,390	-0,037	-0,060
-324,358	-53,112	-0,196	-0,064
-323,343	231,752	-0,002	-0,002
-322,329	-146,624	0,172	-0,010
-321,314	-200,000	-0,010	0,070
-320,299	-200,000	-0,021	0,249
-319,285	41,447	0,062	-0,040
-318,270	-200,000	0,011	0,095
-317,256	-80,367	-0,185	0,044
-316,241	-150,342	0,065	-0,004
-315,226	443,903	0,058	-0,091
-314,212	-112,570	0,099	-0,014
-313,197	-200,000	0,010	0,060
-312,183	-123,299	0,048	-0,005
-311,168	-77,687	-0,068	-0,017
-310,153	-108,193	-0,156	-0,024
-309,139	-110,200	-0,098	0,014
-308,124	259,310	0,038	-0,047
-307,110	59,390	0,110	0,077
-306,095	-114,536	0,067	0,009
-305,080	12,267	-0,109	0,060
-304,066	800,000	-0,063	0,188
-303,051	483,269	-0,033	0,053
-302,037	91,561	-0,048	0,038
-301,022	-47,694	0,105	0,036
-300,008	800,000	0,071	-0,170
-298,993	-173,358	0,097	-0,002
-297,978	-11,291	-0,173	0,081
-296,964	23,427	0,067	0,039
-295,949	-200,000	0,004	0,023
-294,935	473,181	0,064	-0,103
-293,920	-92,796	0,093	0,018
-292,905	-38,163	0,097	0,037
-291,891	-27,011	0,141	0,058
-290,876	800,000	-0,019	0,045
-289,862	470,956	-0,083	-0,134
-288,847	-200,000	-0,025	-0,107
-287,832	-200,000	-0,009	-0,111
-286,818	214,723	0,061	-0,069
-285,803	-200,000	0,000	0,023
-284,789	145,658	0,078	0,075
-283,774	-59,519	0,054	-0,016
-282,759	40,299	0,084	0,054
-281,745	-200,000	-0,006	-0,068
-280,730	-200,000	-0,016	-0,097
-279,716	800,000	-0,029	0,089
-278,701	-95,941	-0,025	0,005
-277,686	32,296	0,027	0,016
-276,672	124,164	-0,133	0,119
-275,657	-200,000	-0,005	-0,038
-274,643	-200,000	-0,033	-0,111
-273,628	88,232	-0,033	-0,026
-272,613	-34,852	0,105	-0,041
-271,599	-3,127	0,029	-0,014
-270,584	82,169	0,003	-0,002
-269,570	-200,000	-0,022	0,085
-268,555	-26,668	-0,118	0,049
-267,540	642,044	-0,063	-0,114
-266,526	800,000	-0,013	-0,037
-265,511	200,601	-0,034	0,037
-264,497	306,053	-0,033	-0,044
-263,482	162,791	0,020	0,020
-262,467	742,043	0,068	0,131
-261,453	21,289	0,016	0,009
-260,438	733,465	0,112	-0,214
-259,424	44,847	-0,013	-0,009
-258,409	48,322	-0,066	-0,044
-257,395	-200,000	0,012	0,131
-256,380	-81,923	0,141	-0,033
-255,365	800,000	-0,029	-0,072
-254,351	-127,380	-0,043	0,004
-253,336	68,479	-0,047	0,034
-252,322	211,826	-0,062	-0,069
-251,307	-12,785	-0,060	-0,028
-250,292	91,012	0,050	0,040
-249,278	11,073	0,038	0,020
-248,263	23,594	0,150	-0,087
-247,249	-165,025	-0,121	-0,004
-246,234	114,839	-0,089	-0,077
-245,219	800,000	-0,018	-0,055
-244,205	-50,477	-0,147	0,049
-243,190	800,000	-0,034	-0,081
-242,176	-30,906	-0,099	-0,039
-241,161	382,813	0,073	0,107
-240,146	110,946	0,043	-0,037
-239,132	519,045	0,061	-0,101
-238,117	-200,000	0,015	-0,112
-237,103	-144,730	-0,073	0,005
-236,088	-200,000	-0,006	0,079
-235,073	103,739	0,092	0,077
-234,059	-200,000	0,007	0,103
-233,044	730,121	0,023	-0,044
-232,030	-92,238	0,101	0,020
-231,015	676,872	-0,059	-0,110
-230,000	-156,243	-0,084	-0,004
-228,986	89,622	0,072	-0,057
-227,971	-200,000	-0,009	-0,030
-226,957	268,658	-0,068	0,085
-225,942	275,762	0,015	0,020
-224,927	627,986	0,012	-0,022
-223,913	-86,208	-0,057	0,012
-222,898	147,552	0,062	-0,059
-221,884	114,986	-0,060	-0,052
-220,869	-137,354	0,183	0,014
-219,855	256,441	0,064	0,078
-218,840	-200,000	0,024	0,128
-217,825	441,693	0,062	-0,096
-216,811	800,000	-0,036	-0,089
-215,796	47,892	0,071	-0,047
-214,782	800,000	-0,042	-0,109
-213,767	73,775	0,031	-0,023
-212,752	36,584	0,094	0,059
-211,738	-1,202	0,107	0,054
-210,723	800,000	-0,037	0,081
-209,709	-37,765	-0,076	-0,029
-208,694	-151,672	-0,099	0,005
-207,679	737,715	0,053	-0,102
-206,665	-123,442	-0,016	0,002
-205,650	744,455	0,017	-0,032
-204,636	175,632	0,203	-0,210
-203,621	-16,922	-0,083	-0,037
-202,606	134,076	-0,081	-0,075
-201,592	-200,000	-0,004	-0,179
-200,577	47,167	-0,031	0,020
-199,563	431,471	-0,021	-0,032
-198,548	-7,245	0,059	0,028
-197,533	-200,000	0,041	-0,162
-196,519	-33,712	0,165	0,064
-195,504	40,687	-0,048	-0,031
-194,490	-76,773	-0,148	-0,037
-193,475	81,296	0,059	-0,045
-192,460	-200,000	0,005	-0,038
-191,446	-58,629	0,205	-0,063
-190,431	-200,000	0,012	-0,050
-189,417	-200,000	-0,032	0,220
-188,402	-200,000	0,043	0,138
-187,387	163,477	-0,130	-0,130
-186,373	800,000	-0,045	0,094
-185,358	-110,319	0,062	0,009
-184,344	30,991	0,068	0,041
-183,329	299,573	0,090	0,117
-182,315	-131,433	-0,024	-0,002
-181,300	171,865	-0,036	-0,036
-180,285	-200,000	-0,028	-0,134
-179,271	210,747	0,114	-0,127
-178,256	-200,000	-0,001	0,057
-177,242	314,234	0,082	0,109
-176,227	-5,886	-0,071	0,034
-175,212	-200,000	-0,004	-0,139
-174,198	94,983	0,044	0,035
-173,183	92,124	-0,078	-0,062
-172,169	-140,838	-0,095	0,007
-171,154	-94,918	0,016	0,003
-170,139	-0,149	0,087	-0,044
-169,125	-158,234	0,066	0,003
-168,110	800,000	-0,039	0,097
-167,096	234,688	-0,022	-0,025
-166,081	8,004	-0,060	-0,032
-165,066	2,318	-0,108	-0,055
-164,052	247,577	0,101	0,121
-163,037	-200,000	-0,037	0,124
-162,023	-53,823	0,089	-0,029
-161,008	-152,889	0,103	0,005
-159,993	-200,000	-0,009	-0,113
-158,979	404,235	0,060	0,090
-157,964	-74,060	-0,133	0,034
-156,950	-84,480	0,176	0,039
-155,935	-16,781	0,052	-0,023
-154,920	293,014	0,038	0,050
-153,906	800,000	-0,047	0,137
-152,891	155,278	0,057	0,056
-151,877	583,157	-0,113	-0,197
-150,862	-17,929	-0,087	0,039
-149,847	-200,000	-0,013	-0,045
-148,833	800,000	-0,016	0,035
-147,818	91,878	0,075	0,060
-146,804	-123,732	-0,032	-0,004
-145,789	-200,000	-0,014	-0,067
-144,775	178,027	0,076	0,079
-143,760	81,702	0,061	0,047
-142,745	800,000	-0,024	0,057
-141,731	-200,000	0,010	-0,048
-140,716	-35,030	0,191	0,074
-139,702	340,398	0,059	-0,082
-138,687	800,000	-0,071	0,194
-137,672	-200,000	-0,024	0,128
-136,658	-158,717	-0,087	-0,003
-135,643	-200,000	0,001	0,120
-134,629	-200,000	0,023	0,073
-133,614	800,000	0,046	-0,095
-132,599	48,135	-0,030	-0,020
-131,585	-67,799	-0,079	0,022
-130,570	172,501	-0,076	-0,078
-129,556	-121,340	0,079	0,009
-128,541	-45,241	-0,135	-0,047
-127,526	65,075	0,092	-0,066
-126,512	49,639	0,035	-0,023
-125,497	102,133	0,058	0,048
-124,483	30,347	0,064	-0,039
-123,468	-67,782	-0,166	0,045
-122,453	-123,812	0,076	-0,008
-121,439	398,496	-0,026	0,038
-120,424	166,330	-0,052	0,052
-119,410	-103,732	0,040	0,007
-118,395	800,000	0,045	0,113
-117,380	-200,000	-0,017	0,111
-116,366	-151,635	0,023	-0,001
-115,351	800,000	0,038	0,092
-114,337	-18,891	-0,052	0,023
-113,322	314,247	0,020	-0,027
-112,307	80,864	-0,047	0,036
-111,293	-200,000	-0,023	0,111
-110,278	-89,646	0,033	0,007
-109,264	141,028	0,098	0,092
-108,249	-108,675	0,042	0,006
-107,234	-200,000	0,015	-0,102
-106,220	153,463	0,062	-0,060
-105,205	-49,369	0,080	0,027
-104,191	-103,054	-0,062	0,010
-103,176	-100,565	0,154	0,027
-102,162	40,545	-0,061	-0,039
-101,147	229,526	0,089	-0,103
-100,132	89,205	-0,147	-0,115
-99,118	0,378	0,076	-0,038
-98,103	-200,000	-0,005	-0,021
-97,089	-200,000	-0,001	-0,038
-96,074	368,745	0,031	-0,045
-95,059	-2,035	-0,062	-0,031
-94,045	-200,000	-0,033	-0,165
-93,030	-200,000	-0,003	-0,076
-92,016	800,000	-0,046	-0,129
-91,001	800,000	0,069	0,196
-89,986	-200,000	0,004	0,041
-88,972	80,882	-0,058	-0,044
-87,957	-200,000	0,013	-0,055
-86,943	-80,968	0,029	0,007
-85,928	196,040	-0,025	-0,027
-84,913	-3,536	-0,046	-0,023
-83,899	800,000	-0,006	0,020
-82,884	-7,502	0,031	-0,015
-81,870	-200,000	0,051	0,200
-80,855	-155,380	0,020	0,001
-79,840	517,735	0,044	-0,073
-78,826	-184,346	0,036	-0,000
-77,811	-200,000	0,001	0,028
-76,797	726,652	-0,050	0,094
-75,782	147,106	-0,058	0,055
-74,767	634,942	-0,078	-0,141
-73,753	178,437	0,030	-0,031
-72,738	38,487	-0,032	-0,020
-71,724	-200,000	-0,036	-0,133
-70,709	128,628	0,136	-0,122
-69,694	-144,852	-0,124	-0,008
-68,680	-118,055	0,137	0,017
-67,665	-16,521	-0,111	0,049
-66,651	143,546	0,067	0,063
-65,636	800,000	-0,031	-0,081
-64,622	800,000	-0,006	-0,013
-63,607	-35,547	-0,089	-0,034
-62,592	73,416	0,014	-0,010
-61,578	-59,677	-0,031	0,009
-60,563	511,089	-0,066	0,109
-59,549	356,532	-0,034	0,047
-58,534	63,176	-2,224	-1,570
-57,519	531,818	-1,091	-1,827
-56,505	-200,000	-0,382	-4,554
-55,490	457,452	1,072	1,686
-54,476	800,000	5,179	11,575
-53,461	-200,000	22,425	347,254
-52,446	800,000	757,789	2293,048
-51,432	533,413	1643,754	2756,179
-50,417	67,933	1642,411	1183,353
-49,403	15,602	1519,913	839,925
-48,388	9,853	1445,993	771,469
-47,373	19,305	1438,682	812,568
-46,359	13,359	1427,264	778,031
-45,344	8,179	1423,212	751,297
-44,330	8,125	1421,150	749,927
-43,315	8,082	1419,386	748,760
-42,300	8,066	1417,729	747,783
-41,286	8,179	1416,339	747,553
-40,271	8,075	1415,149	746,403
-39,257	8,086	1413,797	745,712
-38,242	8,101	1412,889	745,274
-37,227	8,054	1412,039	744,577
-36,213	8,073	1410,361	743,752
-35,198	8,116	1409,208	743,316
-34,184	8,124	1408,329	742,861
-33,169	8,072	1406,858	741,811
-32,154	8,100	1405,976	741,449
-31,140	8,053	1404,878	740,621
-30,125	8,112	1403,484	740,129
-29,111	8,061	1402,386	739,285
-28,096	8,074	1401,325	738,757
-27,082	8,001	1400,136	737,759
-26,067	8,044	1399,017	737,339
-25,052	8,041	1397,828	736,673
-24,038	8,050	1396,868	736,178
-23,023	8,049	1395,961	735,665
-22,009	8,031	1394,992	735,045
-20,994	8,007	1394,097	734,430
-19,979	8,015	1392,959	733,839
-18,965	7,934	1392,238	733,054
-17,950	7,994	1390,984	732,642
-16,936	7,897	1390,358	731,835
-15,921	7,923	1389,310	731,374
-14,906	7,956	1388,289	730,961
-13,892	7,971	1387,378	730,521
-12,877	7,947	1386,739	730,046
-11,863	7,933	1385,969	729,547
-10,848	7,925	1385,022	728,982
-9,833	7,929	1383,872	728,368
-8,819	7,822	1383,351	727,571
-7,804	7,839	1382,366	727,104
-6,790	7,841	1381,339	726,541
-5,775	7,864	1380,091	725,963
-4,760	7,867	1379,093	725,423
-3,746	7,895	1378,241	725,074
-2,731	7,870	1377,507	724,547
-1,717	7,870	1376,595	724,035
-0,702	7,866	1374,943	723,120
0,313	11,777	1285,049	693,570
1,327	27,423	676,954	400,220
2,342	42,371	116,588	74,563
3,356	-0,938	16,580	8,243
4,371	7,353	3,811	2,000
5,386	-12,819	1,468	0,671
6,400	635,989	0,396	0,710
7,415	-107,677	-0,240	-0,037
8,429	294,576	-0,231	-0,298
9,444	-55,328	-0,365	-0,115
10,459	-46,363	-0,159	-0,055
11,473	-7,408	-0,365	-0,173
12,488	7,903	-0,142	-0,074
13,502	-19,315	-0,427	-0,186
14,517	333,557	-0,150	-0,205
15,531	147,492	-0,257	-0,244
16,546	109,315	-0,319	-0,268
17,561	49,539	-0,378	-0,250
18,575	441,809	-0,121	-0,188
19,590	-6,323	-0,247	-0,118
20,604	-32,430	-0,381	-0,149
21,619	108,205	-0,523	-0,439
22,634	23,655	-0,520	-0,301
23,648	86,687	-0,343	-0,266
24,663	159,081	-0,271	-0,265
25,677	68,500	-0,350	-0,252
26,692	39,671	-0,420	-0,264
27,707	-127,681	-0,345	-0,035
28,721	-34,073	-0,404	-0,155
29,736	31,229	-0,364	-0,219
30,750	-16,484	-0,402	-0,178
31,765	36,525	-0,458	-0,283
32,780	104,173	-0,319	-0,264
33,794	-62,588	-0,320	-0,093
34,809	31,547	-0,306	-0,184
35,823	90,827	-0,359	-0,282
36,838	48,292	-0,391	-0,257
37,853	167,416	-0,433	-0,432
38,867	175,634	-0,293	-0,299
39,882	105,670	-0,338	-0,281
40,896	375,114	-0,174	-0,249
41,911	-11,593	-0,419	-0,193
42,926	125,953	-0,251	-0,223
43,940	106,314	-0,412	-0,343
44,955	203,489	-0,236	-0,256
45,969	7,233	-0,525	-0,274
46,984	1,568	-0,348	-0,175
47,999	-30,900	-0,381	-0,150
49,013	38,843	-0,321	-0,201
50,028	77,744	-0,367	-0,274
51,042	-12,537	-0,398	-0,182
52,057	60,986	-0,279	-0,194
53,071	53,584	-0,382	-0,257
54,086	17,403	-0,356	-0,198
55,101	339,407	-0,234	-0,320
56,115	-108,101	-0,241	-0,036
57,130	227,268	-0,352	-0,402
58,144	10,725	-0,423	-0,225
59,159	24,206	-0,427	-0,247
60,174	27,914	-0,366	-0,216
61,188	252,718	-0,338	-0,405
62,203	175,132	-0,288	-0,292
63,217	120,584	-0,271	-0,236
64,232	111,258	-0,342	-0,289
65,247	186,348	-0,339	-0,354
66,261	-54,578	-0,400	-0,126
67,276	-37,386	-0,479	-0,178
68,290	111,843	-0,287	-0,243
69,305	163,100	-0,330	-0,325
70,320	151,361	-0,259	-0,247
71,334	154,018	-0,241	-0,232
72,349	-61,965	-0,382	-0,111
73,363	43,154	-0,337	-0,215
74,378	2,546	-0,489	-0,247
75,393	11,841	-0,280	-0,150
76,407	39,258	-0,394	-0,247
77,422	136,000	-0,296	-0,270
78,436	-21,617	-0,328	-0,140
79,451	21,308	-0,385	-0,218
80,466	66,932	-0,283	-0,202
81,480	176,827	-0,279	-0,284
82,495	50,645	-0,326	-0,216
83,509	305,645	-0,196	-0,255
84,524	11,992	-0,122	-0,065
85,539	-0,095	-0,374	-0,186
86,553	91,996	-0,255	-0,201
87,568	120,758	-0,291	-0,254
88,582	-19,658	-0,395	-0,170
89,597	414,597	-0,128	-0,191
90,611	-19,154	-0,225	-0,097
91,626	-59,555	-0,228	-0,068
92,641	42,477	-0,196	-0,124
93,655	27,815	-0,199	-0,117
94,670	21,426	-0,420	-0,238
95,684	49,440	-0,316	-0,208
96,699	106,233	-0,258	-0,214
97,714	256,989	-0,215	-0,259
98,728	61,514	-0,263	-0,183
99,743	-41,558	-0,364	-0,130
100,757	190,561	-0,187	-0,197
101,772	19,218	-0,173	-0,097
102,787	9,347	-0,288	-0,152
103,801	53,319	-0,349	-0,233
104,816	-62,224	-0,245	-0,071
105,830	108,776	-0,211	-0,176
106,845	-16,801	-0,238	-0,105
107,860	87,547	-0,285	-0,220
108,874	55,712	-0,377	-0,254
109,889	155,824	-0,282	-0,271
110,903	244,300	-0,165	-0,194
111,918	-58,443	-0,220	-0,066
112,933	133,283	-0,175	-0,158
113,947	45,888	-0,234	-0,151
114,962	-31,585	-0,292	-0,114
115,976	-2,554	-0,297	-0,145
116,991	96,910	-0,184	-0,147
118,006	146,336	-0,209	-0,196
119,020	-31,843	-0,293	-0,114
120,035	-44,946	-0,174	-0,060
121,049	-44,376	-0,307	-0,107
122,064	-23,285	-0,337	-0,141
123,079	57,557	-0,235	-0,160
124,093	212,162	-0,182	-0,200
125,108	-70,312	-0,282	-0,074
126,122	-4,503	-0,217	-0,104
127,137	6,302	-0,264	-0,136
128,151	4,487	-0,269	-0,137
129,166	14,496	-0,257	-0,139
130,181	-77,222	-0,243	-0,058
131,195	164,959	-0,197	-0,193
132,210	224,406	-0,244	-0,275
133,224	-78,111	-0,438	-0,104
134,239	367,884	-0,226	-0,319
135,254	35,309	-0,191	-0,116
136,268	89,082	-0,080	-0,062
137,283	26,536	-0,180	-0,105
138,297	123,324	-0,255	-0,222
139,312	-4,576	-0,307	-0,147
140,327	-31,638	-0,335	-0,131
141,341	26,735	-0,203	-0,118
142,356	-200,000	-0,077	-0,277
143,370	4,271	-0,201	-0,102
144,385	-25,182	-0,261	-0,107
145,400	181,336	-0,300	-0,307
146,414	-0,027	-0,345	-0,171
147,429	-11,315	-0,277	-0,126
148,443	340,766	-0,194	-0,264
149,458	800,000	-0,074	-0,147
150,473	-7,116	-0,320	-0,150
151,487	8,303	-0,161	-0,084
152,502	121,015	-0,211	-0,183
153,516	76,127	-0,247	-0,182
154,531	35,464	-0,218	-0,133
155,546	85,103	-0,243	-0,185
156,560	100,367	-0,111	-0,090
157,575	24,826	-0,115	-0,066
158,589	186,554	-0,200	-0,207
159,604	59,111	-0,251	-0,172
160,619	63,310	-0,148	-0,103
161,633	-8,299	-0,327	-0,152
162,648	-45,033	-0,260	-0,089
163,662	5,431	-0,296	-0,151
164,677	76,696	-0,169	-0,125
165,692	-1,672	-0,299	-0,146
166,706	30,980	-0,257	-0,153
167,721	-53,291	-0,330	-0,104
168,735	36,538	-0,144	-0,088
169,750	341,267	-0,170	-0,231
170,764	108,145	-0,188	-0,156
171,779	118,911	-0,196	-0,168
172,794	358,779	-0,128	-0,178
173,808	221,834	-0,171	-0,191
174,823	13,643	-0,285	-0,153
175,837	158,422	-0,157	-0,152
176,852	6,850	-0,239	-0,123
177,867	800,000	-0,056	-0,153
178,881	101,545	-0,137	-0,111
179,896	-96,135	-0,213	0,039
180,910	-60,658	-0,294	-0,086
181,925	62,380	-0,267	-0,185
182,940	281,589	-0,210	-0,261
183,954	84,963	-0,232	-0,176
184,969	-43,811	-0,146	-0,051
185,983	88,680	-0,156	-0,120
186,998	800,000	-0,063	-0,172
188,013	39,478	-0,199	-0,123
189,027	101,236	-0,243	-0,196
190,042	-11,484	-0,242	-0,110
191,056	54,733	-0,192	-0,128
192,071	-10,032	-0,135	-0,062
193,086	292,306	-0,078	-0,099
194,100	-44,863	-0,310	-0,106
195,115	-38,374	-0,148	-0,054
196,129	69,600	-0,158	-0,113
197,144	182,575	-0,130	-0,133
198,159	546,589	-0,173	-0,288
199,173	485,359	-0,167	-0,264
200,188	223,330	-0,072	-0,081
201,202	301,164	-0,135	-0,173
202,217	240,961	-0,134	-0,155
203,232	169,748	-0,185	-0,184
204,246	-154,520	-0,214	0,010
205,261	48,205	-0,186	-0,120
206,275	348,847	-0,073	-0,100
207,290	257,807	-0,142	-0,169
208,304	150,454	-0,177	-0,167
209,319	-17,621	-0,074	-0,032
210,334	231,645	-0,184	-0,209
211,348	404,409	-0,144	-0,211
212,363	42,502	-0,191	-0,120
213,377	163,318	-0,201	-0,195
214,392	100,820	-0,075	-0,060
215,407	43,517	-0,220	-0,139
216,421	272,054	-0,097	-0,119
217,436	204,241	-0,104	-0,111
218,450	-12,406	-0,190	-0,086
219,465	686,107	-0,082	-0,149
220,480	-43,009	-0,269	-0,094
221,494	34,163	-0,121	-0,073
222,509	216,827	-0,200	-0,221
223,523	66,587	-0,161	-0,113
224,538	161,988	-0,186	-0,180
225,553	127,150	-0,112	-0,098
226,567	-16,904	-0,173	-0,075
227,582	32,764	-0,147	-0,087
228,596	-54,535	-0,134	-0,042
229,611	108,928	-0,128	-0,105
230,626	-100,613	-0,358	-0,060
231,640	-23,293	-0,157	-0,065
232,655	25,393	-0,153	-0,088
233,669	-200,000	-0,008	-0,150
234,684	255,208	-0,153	-0,182
235,699	363,174	-0,125	-0,174
236,713	93,410	-0,149	-0,116
237,728	-50,353	-0,242	-0,078
238,742	428,371	-0,124	-0,186
239,757	-93,056	-0,111	-0,021
240,772	-5,183	-0,090	-0,043
241,786	118,813	-0,254	-0,217
242,801	168,313	-0,115	-0,113
243,815	800,000	-0,074	-0,170
244,830	7,270	-0,129	-0,066
245,844	25,923	-0,166	-0,095
246,859	50,521	-0,190	-0,124
247,874	95,796	-0,255	-0,200
248,888	66,383	-0,147	-0,103
249,903	200,638	-0,134	-0,142
250,917	129,623	-0,109	-0,096
251,932	54,875	-0,155	-0,103
252,947	800,000	-0,085	-0,219
253,961	4,088	-0,229	-0,115
254,976	203,994	-0,138	-0,148
255,990	73,260	-0,202	-0,146
257,005	158,388	-0,211	-0,202
258,020	-117,378	-0,087	0,011
259,034	-127,621	-0,146	-0,014
260,049	137,248	-0,070	-0,063
261,063	-143,254	-0,118	-0,008
262,078	201,775	-0,121	-0,129
263,093	-36,138	-0,221	-0,082
264,107	170,781	-0,126	-0,124
265,122	114,779	-0,181	-0,152
266,136	-86,329	-0,088	-0,018
267,151	-200,000	-0,044	-0,143
268,166	176,182	-0,207	-0,207
269,180	-20,692	-0,200	-0,084
270,195	224,499	-0,173	-0,193
271,209	242,634	-0,192	-0,222
272,224	24,373	-0,150	-0,085
273,239	-108,122	-0,125	-0,018
274,253	280,502	-0,236	-0,291
275,268	-83,190	-0,149	0,033
276,282	-143,039	-0,101	0,007
277,297	800,000	-0,058	-0,139
278,312	31,805	-0,148	-0,088
279,326	133,864	-0,120	-0,107
280,341	86,651	-0,107	0,081
281,355	800,000	-0,074	-0,152
282,370	73,552	-0,195	-0,140
283,384	135,283	-0,172	-0,154
284,399	662,900	-0,129	-0,230
285,414	197,018	-0,191	-0,201
286,428	-100,036	-0,125	0,021
287,443	151,645	-0,080	-0,075
288,457	139,022	-0,202	-0,183
289,472	-91,370	-0,141	-0,028
290,487	-8,447	-0,171	-0,079
291,501	744,169	-0,094	-0,175
292,516	185,168	-0,177	-0,181
293,530	-41,986	-0,238	-0,083
294,545	-117,403	-0,235	-0,029
295,560	151,216	-0,114	-0,106
296,574	-34,244	-0,148	-0,056
297,589	11,446	-0,168	-0,088
298,603	163,132	-0,164	-0,158
299,618	225,930	-0,168	-0,187
300,633	-2,028	-0,065	0,031
301,647	-102,537	-0,148	-0,024
302,662	-34,979	-0,103	-0,038
303,676	-38,900	-0,191	-0,069
304,691	286,265	-0,131	-0,163
305,706	-27,021	-0,099	0,039
306,720	-185,252	-0,055	0,001
307,735	28,100	-0,183	-0,105
308,749	-200,000	-0,018	-0,071
309,764	-166,902	-0,156	0,004
310,779	68,516	0,024	-0,017
311,793	-119,611	-0,177	-0,021
312,808	800,000	-0,159	-0,310
313,822	-36,802	-0,073	0,027
314,837	285,333	-0,034	-0,042
315,852	-145,027	-0,102	0,006
316,866	800,000	-0,117	-0,265
317,881	718,133	-0,099	-0,181
318,895	-179,373	-0,207	0,003
319,910	205,825	-0,230	-0,246
320,925	54,195	-0,055	0,036
321,939	6,255	-0,081	-0,041
322,954	-200,000	-0,001	-0,090
323,968	-52,702	-0,111	-0,035
324,983	248,980	-0,175	-0,204
325,997	-25,273	-0,076	-0,031
327,012	345,299	-0,061	-0,083
328,027	249,685	-0,171	-0,199
329,041	208,653	-0,144	-0,154
330,056	62,744	-0,129	-0,088
331,070	547,602	-0,146	-0,241
332,085	33,747	-0,115	-0,069
333,100	684,554	-0,112	-0,202
334,114	-49,394	-0,120	-0,039
335,129	161,938	-0,166	-0,160
336,143	800,000	0,064	-0,132
337,158	258,798	-0,128	-0,151
338,173	-61,628	-0,124	-0,035
339,187	205,210	-0,133	-0,141
340,202	-23,365	-0,147	0,060
341,216	9,840	-0,163	-0,084
342,231	208,385	-0,152	-0,163
343,246	621,490	-0,066	-0,114
344,260	180,142	-0,103	0,103
345,275	728,172	-0,071	-0,130
346,289	-57,707	-0,122	-0,036
347,304	-5,820	-0,191	0,089
348,319	75,481	-0,158	-0,114
349,333	-35,716	-0,195	-0,072
350,348	93,865	-0,097	-0,075
351,362	-68,401	-0,184	-0,049
352,377	-200,000	-0,013	-0,042
353,392	1,795	-0,158	-0,078
354,406	-36,424	-0,237	0,087
355,421	208,217	1311,044	1401,944
356,435	160,206	1471,268	1402,395
