DTS Sentinel unit serial number:	SN410029Multiplexer serial number:	ORYXHardware model number:	OX2-SRSoftware version number:	ORYX F/W v4,00 Oryx Data Collector v3.7.2.0data status	okinstallation	B3 Nyhavnadifferential loss correction	single-endedforward channel	channel 1reverse channel	N/Adate	2023/11/30time	01:52:30forward acquisition time	300,00reverse acquisition time	0,00gamma	499,1914k internal	0,3209k external	0,3209temperature offset calibration	1,0000default loss term (dB/km)	0,3820temperature slope calibration	1,0000multiplexer offset coefficient	1,0000multiplexer slope coefficient	1,0000fibre end	0,00T internal ref (°C)	10,56T ext. ref 1 (°C)	-5,04T ext. ref 2 (°C)	-5,16length (m)	temperature (°C)	Stokes	anti-Stokes-744,400	382,806	-0,185	-0,277
-743,385	-200,000	-0,016	0,250
-742,371	154,134	-0,105	-0,105
-741,356	-200,000	0,071	0,245
-740,342	-52,377	-0,345	-0,115
-739,327	797,800	0,067	0,134
-738,312	255,619	-0,184	-0,229
-737,298	205,694	-0,096	0,109
-736,283	168,798	-0,223	-0,231
-735,269	684,378	0,148	0,280
-734,254	260,303	-0,201	-0,252
-733,239	100,463	-0,207	0,174
-732,225	800,000	-0,094	-0,223
-731,210	800,000	0,034	0,110
-730,196	800,000	-0,036	-0,113
-729,181	377,310	0,070	-0,104
-728,167	700,088	-0,046	-0,087
-727,152	433,769	-0,013	-0,021
-726,137	-200,000	-0,017	-0,118
-725,123	-100,970	-0,076	-0,013
-724,108	-200,000	0,022	-0,092
-723,094	800,000	-0,061	-0,145
-722,079	-11,482	0,108	-0,051
-721,064	800,000	-0,063	-0,157
-720,050	-94,679	-0,133	-0,026
-719,035	293,637	-0,111	-0,147
-718,021	204,963	0,069	0,078
-717,006	6,928	-0,147	-0,079
-715,991	-200,000	0,006	-0,107
-714,977	-25,377	-0,076	-0,032
-713,962	-200,000	-0,004	0,056
-712,948	24,145	0,039	-0,023
-711,933	-49,295	0,076	-0,026
-710,918	-200,000	0,019	-0,083
-709,904	146,668	-0,058	0,056
-708,889	130,070	-0,086	-0,080
-707,875	-9,236	-0,140	-0,067
-706,860	-200,000	0,003	-0,122
-705,845	-70,087	-0,041	-0,011
-704,831	-50,038	0,058	-0,020
-703,816	-120,281	-0,128	0,016
-702,802	523,847	0,020	0,034
-701,787	-200,000	-0,009	-0,074
-700,772	800,000	-0,032	-0,095
-699,758	800,000	-0,043	-0,125
-698,743	264,975	0,052	-0,066
-697,729	37,151	-0,115	-0,074
-696,714	-2,326	0,112	0,057
-695,699	-200,000	-0,003	0,206
-694,685	-34,619	-0,104	0,041
-693,670	-200,000	-0,038	-0,163
-692,656	264,437	-0,015	0,019
-691,641	-68,266	0,051	-0,014
-690,627	47,452	0,076	0,051
-689,612	-200,000	0,005	0,034
-688,597	-200,000	0,035	-0,148
-687,583	-200,000	0,011	0,111
-686,568	98,188	-0,072	0,060
-685,554	41,779	-0,136	-0,089
-684,539	17,602	-0,051	0,030
-683,524	800,000	0,022	-0,054
-682,510	-36,531	0,135	0,052
-681,495	-200,000	-0,008	-0,115
-680,481	67,786	-0,092	-0,068
-679,466	-200,000	-0,018	-0,062
-678,451	-13,750	0,039	-0,018
-677,437	114,040	0,039	0,035
-676,422	313,505	0,098	0,134
-675,408	-70,754	-0,045	0,012
-674,393	-66,271	-0,102	-0,029
-673,378	-81,593	-0,142	0,033
-672,364	44,328	-0,017	-0,011
-671,349	1,465	-0,082	0,043
-670,335	-82,378	0,128	-0,030
-669,320	800,000	0,004	0,010
-668,305	-163,921	0,103	-0,003
-667,291	212,958	-0,043	0,049
-666,276	-75,163	0,060	0,015
-665,262	-46,344	-0,198	-0,070
-664,247	91,615	-0,042	0,034
-663,232	-138,837	-0,044	-0,003
-662,218	17,954	0,105	0,061
-661,203	800,000	0,034	0,079
-660,189	800,000	-0,024	-0,075
-659,174	31,936	-0,137	0,085
-658,159	-57,913	-0,022	0,007
-657,145	-196,588	-0,019	0,000
-656,130	561,224	0,069	0,122
-655,116	-36,510	-0,232	0,090
-654,101	-200,000	-0,009	0,095
-653,086	-200,000	-0,010	-0,045
-652,072	-64,441	-0,043	-0,012
-651,057	205,378	-0,078	-0,088
-650,043	116,377	0,037	-0,033
-649,028	-157,659	0,087	0,004
-648,014	-99,658	-0,053	-0,010
-646,999	-151,520	0,186	-0,010
-645,984	180,960	-0,081	0,086
-644,970	358,194	-0,005	0,007
-643,955	-26,805	-0,177	-0,074
-642,941	-200,000	0,002	-0,091
-641,926	-83,707	-0,115	-0,026
-640,911	154,931	0,073	-0,073
-639,897	-200,000	-0,017	0,059
-638,882	-200,000	0,010	-0,046
-637,868	6,312	0,118	-0,063
-636,853	395,695	-0,029	-0,044
-635,838	800,000	-0,088	-0,199
-634,824	-133,516	-0,070	0,006
-633,809	800,000	0,026	-0,073
-632,795	98,134	0,050	0,042
-631,780	38,948	-0,086	-0,055
-630,765	-200,000	0,032	-0,173
-629,751	-90,790	0,040	-0,008
-628,736	525,278	0,032	0,054
-627,722	-200,000	0,002	0,184
-626,707	63,434	-0,050	-0,036
-625,692	-200,000	0,001	0,078
-624,678	200,881	0,138	0,153
-623,663	739,191	0,046	-0,089
-622,649	-129,904	0,036	-0,004
-621,634	2,732	0,058	-0,030
-620,619	9,940	-0,154	-0,084
-619,605	-24,671	0,072	-0,031
-618,590	66,500	0,046	0,034
-617,576	-200,000	0,008	0,044
-616,561	-200,000	-0,029	0,148
-615,546	-143,736	-0,126	-0,008
-614,532	-60,944	-0,198	-0,060
-613,517	-29,832	-0,179	-0,073
-612,503	-125,153	0,061	-0,007
-611,488	52,006	0,025	-0,017
-610,474	356,349	0,022	0,031
-609,459	800,000	0,009	-0,025
-608,444	-9,869	0,053	-0,025
-607,430	-18,004	0,168	0,076
-606,415	218,567	0,056	0,065
-605,401	-200,000	0,016	-0,110
-604,386	800,000	-0,030	0,094
-603,371	-181,410	0,121	-0,002
-602,357	-200,000	-0,008	0,124
-601,342	-200,000	-0,002	-0,024
-600,328	-200,000	0,010	0,036
-599,313	126,692	0,049	0,045
-598,298	476,480	-0,051	-0,083
-597,284	-171,100	-0,124	-0,003
-596,269	-200,000	-0,028	0,117
-595,255	-200,000	-0,022	0,087
-594,240	6,595	0,085	-0,046
-593,225	473,848	-0,077	-0,125
-592,211	-67,023	-0,079	0,022
-591,196	339,951	0,065	-0,092
-590,182	6,045	0,022	0,012
-589,167	746,470	-0,017	0,033
-588,152	800,000	-0,040	-0,100
-587,138	157,240	0,053	-0,053
-586,123	-94,174	-0,036	0,007
-585,109	162,523	-0,017	-0,017
-584,094	-1,165	-0,066	-0,034
-583,079	302,613	0,050	-0,067
-582,065	-100,294	0,092	-0,016
-581,050	-65,481	0,161	0,046
-580,036	1,465	-0,146	0,075
-579,021	800,000	0,029	0,087
-578,006	-200,000	0,004	0,077
-576,992	-200,000	0,030	0,167
-575,977	-200,000	-0,022	0,089
-574,963	23,787	0,064	0,038
-573,948	800,000	0,018	0,050
-572,934	208,908	0,123	0,139
-571,919	-93,237	-0,163	-0,032
-570,904	-200,000	-0,002	-0,079
-569,890	-200,000	-0,022	0,084
-568,875	-68,679	0,111	-0,031
-567,861	118,283	-0,029	0,026
-566,846	134,248	0,020	-0,018
-565,831	800,000	0,022	0,049
-564,817	122,649	0,060	-0,054
-563,802	-67,425	-0,056	-0,016
-562,788	-19,235	-0,078	0,035
-561,773	-200,000	0,006	-0,160
-560,758	-52,231	-0,182	0,061
-559,744	86,336	0,062	-0,049
-558,729	-200,000	-0,043	0,139
-557,715	-200,000	0,006	0,040
-556,700	98,747	-0,133	-0,111
-555,685	246,687	0,103	-0,126
-554,671	35,848	-0,018	0,012
-553,656	-200,000	-0,019	0,107
-552,642	30,229	0,046	-0,028
-551,627	800,000	-0,025	0,067
-550,612	52,628	-0,110	-0,076
-549,598	800,000	-0,049	-0,115
-548,583	-92,052	-0,082	0,016
-547,569	-66,536	0,115	0,033
-546,554	-95,068	-0,110	-0,021
-545,539	-168,152	0,127	0,003
-544,525	-1,705	0,067	-0,034
-543,510	-36,563	0,054	0,021
-542,496	800,000	-0,062	-0,147
-541,481	-200,000	-0,016	-0,157
-540,466	-200,000	-0,010	-0,035
-539,452	193,023	0,112	-0,121
-538,437	266,502	0,079	-0,100
-537,423	17,465	-0,080	-0,045
-536,408	-58,991	-0,050	-0,015
-535,393	286,592	-0,152	-0,198
-534,379	665,702	-0,003	-0,006
-533,364	-200,000	0,001	0,003
-532,350	-200,000	-0,024	-0,081
-531,335	678,983	0,058	0,110
-530,321	60,536	-0,026	-0,018
-529,306	800,000	-0,041	-0,092
-528,291	-76,157	0,143	-0,036
-527,277	94,817	0,077	-0,063
-526,262	-200,000	0,022	-0,129
-525,248	193,034	-0,024	-0,026
-524,233	-200,000	0,009	-0,073
-523,218	-200,000	0,020	0,110
-522,204	800,000	0,022	0,049
-521,189	-72,556	-0,082	-0,022
-520,175	-200,000	0,017	-0,078
-519,160	-51,408	0,063	0,021
-518,145	781,541	0,030	0,060
-517,131	-100,382	0,117	-0,021
-516,116	800,000	0,026	-0,074
-515,102	-175,463	-0,078	-0,001
-514,087	-200,000	-0,009	0,069
-513,072	800,000	0,008	0,025
-512,058	-200,000	0,011	0,036
-511,043	222,309	-0,019	-0,022
-510,029	186,734	0,105	0,113
-509,014	-3,123	-0,110	0,055
-507,999	-200,000	-0,005	0,028
-506,985	192,558	0,016	-0,017
-505,970	79,428	-0,080	-0,062
-504,956	166,325	-0,096	-0,097
-503,941	800,000	-0,025	-0,051
-502,926	-200,000	-0,003	0,182
-501,912	554,796	0,068	0,117
-500,897	51,195	-0,055	0,037
-499,883	779,139	-0,011	0,021
-498,868	-200,000	0,005	0,036
-497,853	155,885	-0,061	-0,060
-496,839	-99,649	0,070	0,012
-495,824	-200,000	-0,015	0,067
-494,810	464,514	0,041	0,066
-493,795	-200,000	0,010	-0,165
-492,781	590,117	0,047	-0,084
-491,766	51,508	0,069	-0,047
-490,751	-200,000	-0,024	-0,112
-489,737	800,000	0,014	-0,041
-488,722	24,968	0,053	0,031
-487,708	-200,000	0,000	0,072
-486,693	-51,614	-0,078	0,026
-485,678	-200,000	-0,012	0,049
-484,664	800,000	0,037	-0,097
-483,649	733,298	-0,052	-0,101
-482,635	-200,000	0,044	0,223
-481,620	-165,553	-0,047	-0,001
-480,605	-200,000	-0,008	0,094
-479,591	757,260	-0,027	0,052
-478,576	21,224	-0,041	-0,024
-477,562	-200,000	0,018	-0,116
-476,547	-200,000	-0,039	-0,215
-475,532	-44,528	0,172	-0,061
-474,518	-91,043	0,114	-0,023
-473,503	-192,991	0,113	0,001
-472,489	800,000	0,026	-0,074
-471,474	775,405	-0,064	0,126
-470,459	-200,000	0,001	-0,149
-469,445	408,431	-0,047	-0,071
-468,430	-79,085	0,193	-0,047
-467,416	-100,125	-0,069	-0,012
-466,401	263,153	-0,014	0,018
-465,386	800,000	0,026	0,064
-464,372	142,765	0,092	-0,088
-463,357	-200,000	-0,012	0,088
-462,343	521,767	0,042	0,071
-461,328	-81,385	-0,126	0,030
-460,313	145,229	0,088	-0,085
-459,299	578,404	0,024	0,043
-458,284	800,000	0,053	0,109
-457,270	-129,198	-0,026	-0,003
-456,255	655,142	-0,030	-0,056
-455,241	165,942	-0,101	-0,102
-454,226	245,087	-0,035	-0,042
-453,211	-200,000	-0,005	-0,017
-452,197	-49,150	0,097	0,033
-451,182	4,191	0,075	0,039
-450,168	38,020	-0,050	-0,032
-449,153	-200,000	-0,001	-0,049
-448,138	425,981	-0,023	0,035
-447,124	61,489	0,026	0,018
-446,109	-200,000	0,010	-0,117
-445,095	114,466	-0,029	0,025
-444,080	204,816	0,021	-0,023
-443,065	165,735	-0,094	0,095
-442,051	800,000	0,026	-0,060
-441,036	800,000	-0,025	-0,080
-440,022	744,011	0,064	-0,124
-439,007	177,466	-0,059	-0,062
-437,992	569,673	-0,040	0,070
-436,978	-106,791	0,065	0,010
-435,963	-200,000	-0,011	-0,037
-434,949	-61,826	0,216	-0,064
-433,934	-33,041	-0,026	0,010
-432,919	800,000	0,027	-0,065
-431,905	-53,120	0,062	-0,020
-430,890	186,222	-0,095	0,101
-429,876	95,786	0,065	-0,053
-428,861	651,475	-0,048	0,089
-427,846	-200,000	-0,002	0,162
-426,832	0,668	-0,150	0,077
-425,817	-105,916	-0,109	-0,017
-424,803	782,844	-0,082	0,162
-423,788	25,711	0,030	-0,018
-422,773	-200,000	0,014	-0,050
-421,759	-115,219	-0,053	-0,007
-420,744	-89,690	0,051	0,011
-419,730	369,331	0,026	-0,038
-418,715	573,860	0,065	-0,114
-417,701	-22,030	-0,036	-0,016
-416,686	-25,911	0,027	-0,011
-415,671	-200,000	0,025	-0,122
-414,657	-1,848	0,091	0,046
-413,642	-127,921	-0,063	0,006
-412,628	8,495	-0,047	0,025
-411,613	102,675	0,047	-0,040
-410,598	650,228	0,045	0,083
-409,584	800,000	-0,017	-0,036
-408,569	136,838	0,023	0,022
-407,555	382,204	0,072	-0,106
-406,540	192,598	-0,072	-0,078
-405,525	800,000	0,022	-0,069
-404,511	1,548	-0,058	0,030
-403,496	800,000	0,081	-0,174
-402,482	-48,073	-0,101	-0,035
-401,467	-200,000	-0,016	0,161
-400,452	-120,951	0,180	0,021
-399,438	6,265	-0,102	-0,054
-398,423	743,523	-0,063	-0,122
-397,409	1,673	-0,111	0,057
-396,394	-200,000	0,000	0,112
-395,379	455,695	-0,061	0,098
-394,365	-129,485	-0,035	-0,003
-393,350	-18,318	0,100	0,044
-392,336	800,000	-0,021	-0,061
-391,321	81,627	0,065	0,050
-390,306	800,000	0,029	-0,085
-389,292	103,475	-0,094	-0,079
-388,277	-102,677	-0,068	0,012
-387,263	-55,424	0,069	0,022
-386,248	181,281	0,057	0,060
-385,233	-200,000	0,004	-0,122
-384,219	133,100	-0,046	-0,042
-383,204	58,646	0,089	0,062
-382,190	-122,035	-0,122	-0,014
-381,175	-176,257	-0,149	0,003
-380,160	-200,000	-0,000	0,051
-379,146	-200,000	0,026	0,107
-378,131	-35,151	0,069	-0,027
-377,117	253,302	0,024	-0,029
-376,102	-57,691	-0,107	0,033
-375,088	-20,200	-0,201	0,088
-374,073	168,060	-0,117	-0,119
-373,058	750,238	-0,057	0,111
-372,044	-200,000	0,000	-0,034
-371,029	248,670	0,113	0,137
-370,015	-200,000	0,012	-0,042
-369,000	-50,094	0,027	-0,009
-367,985	-195,798	-0,012	0,000
-366,971	46,938	-0,142	0,094
-365,956	-87,166	-0,100	0,022
-364,942	431,252	-0,112	0,174
-363,927	242,027	0,050	0,060
-362,912	30,508	0,036	-0,022
-361,898	140,269	0,067	-0,063
-360,883	343,234	0,052	0,073
-359,869	-80,343	-0,191	-0,045
-358,854	-138,577	-0,172	0,013
-357,839	199,798	0,027	-0,029
-356,825	140,175	-0,010	-0,009
-355,810	-200,000	0,019	0,132
-354,796	589,584	0,039	0,069
-353,781	-143,800	-0,069	0,005
-352,766	-200,000	0,015	0,095
-351,752	-39,884	0,119	-0,044
-350,737	14,861	0,079	-0,044
-349,723	197,610	-0,024	-0,027
-348,708	-200,000	-0,011	0,072
-347,693	343,771	0,092	-0,130
-346,679	-200,000	-0,002	-0,073
-345,664	-200,000	-0,062	-0,244
-344,650	-200,000	-0,006	0,027
-343,635	800,000	0,041	0,121
-342,620	-64,015	-0,190	0,055
-341,606	-116,253	0,174	0,023
-340,591	-3,952	-0,079	-0,039
-339,577	-200,000	-0,007	-0,027
-338,562	573,723	0,076	-0,132
-337,548	270,814	-0,072	0,090
-336,533	96,463	0,124	0,101
-335,518	-120,067	-0,037	0,004
-334,504	-200,000	0,024	0,148
-333,489	-81,871	0,076	0,018
-332,475	-92,220	-0,057	-0,011
-331,460	170,909	0,050	0,051
-330,445	-143,340	-0,046	-0,003
-329,431	759,618	0,027	-0,053
-328,416	-122,633	0,084	0,010
-327,402	800,000	0,022	0,055
-326,387	117,904	0,075	-0,066
-325,372	-8,923	-0,211	0,101
-324,358	-200,000	-0,023	0,154
-323,343	26,311	0,059	-0,035
-322,329	-200,000	0,024	-0,089
-321,314	-31,067	0,120	0,048
-320,299	67,509	0,079	0,057
-319,285	-23,585	-0,179	-0,076
-318,270	-200,000	0,001	-0,049
-317,256	-200,000	-0,028	-0,118
-316,241	125,994	0,090	0,081
-315,226	-200,000	0,021	0,072
-314,212	162,760	-0,042	-0,042
-313,197	652,474	0,065	0,119
-312,183	-200,000	0,000	0,043
-311,168	35,952	0,073	0,045
-310,153	192,375	-0,065	-0,070
-309,139	-200,000	0,012	0,048
-308,124	776,824	0,018	-0,035
-307,110	215,773	0,072	-0,081
-306,095	-200,000	0,023	0,195
-305,080	-200,000	-0,004	0,034
-304,066	-134,948	-0,065	0,006
-303,051	800,000	-0,015	-0,038
-302,037	-200,000	-0,004	-0,048
-301,022	185,955	-0,078	0,082
-300,008	-200,000	-0,018	-0,067
-298,993	-72,954	-0,038	-0,010
-297,978	-107,208	0,038	0,006
-296,964	729,137	-0,017	-0,032
-295,949	-50,392	-0,064	0,021
-294,935	59,425	0,005	-0,003
-293,920	-200,000	-0,017	0,060
-292,905	126,810	0,038	0,034
-291,891	211,974	-0,027	0,030
-290,876	-200,000	0,008	0,051
-289,862	-200,000	-0,002	0,077
-288,847	43,955	0,154	-0,100
-287,832	-200,000	0,011	-0,188
-286,818	246,324	-0,100	-0,120
-285,803	-200,000	-0,008	0,039
-284,789	175,375	0,087	0,090
-283,774	44,824	-0,043	0,028
-282,759	-151,756	-0,047	0,002
-281,745	105,573	0,104	-0,087
-280,730	425,630	-0,040	0,062
-279,716	-91,416	-0,086	0,017
-278,701	-108,331	0,053	-0,008
-277,686	-179,393	0,107	0,002
-276,672	-200,000	0,013	0,192
-275,657	114,705	0,157	-0,136
-274,643	323,366	0,029	-0,039
-273,628	239,031	0,024	0,028
-272,613	597,382	0,079	-0,141
-271,599	30,438	-0,101	-0,061
-270,584	-1,533	-0,067	0,034
-269,570	206,416	0,028	-0,031
-268,555	-65,283	0,084	0,024
-267,540	258,214	0,022	-0,027
-266,526	-122,840	0,058	-0,007
-265,511	-200,000	-0,032	0,113
-264,497	-200,000	-0,014	-0,102
-263,482	215,688	-0,029	-0,033
-262,467	-200,000	-0,004	0,189
-261,453	-200,000	0,025	-0,151
-260,438	229,095	0,056	0,065
-259,424	-131,528	-0,130	-0,012
-258,409	-200,000	0,024	0,079
-257,395	-200,000	-0,006	0,059
-256,380	61,635	0,115	0,082
-255,365	-52,102	0,055	0,018
-254,351	23,778	-0,015	-0,009
-253,336	198,083	0,112	0,122
-252,322	-106,131	0,058	0,009
-251,307	-159,065	0,052	0,002
-250,292	-200,000	-0,004	0,218
-249,278	315,306	0,036	0,049
-248,263	-100,405	-0,033	0,006
-247,249	-114,738	-0,113	0,015
-246,234	-200,000	0,005	0,030
-245,219	-88,151	0,058	0,012
-244,205	-200,000	0,018	-0,126
-243,190	402,577	-0,037	0,055
-242,176	518,467	0,018	0,030
-241,161	-200,000	-0,011	0,113
-240,146	-24,948	-0,024	0,010
-239,132	381,567	-0,068	-0,100
-238,117	-57,654	-0,103	0,032
-237,103	-187,153	0,105	0,001
-236,088	313,900	-0,058	-0,077
-235,073	-82,164	0,095	0,022
-234,059	19,781	0,123	0,070
-233,044	325,315	0,049	0,067
-232,030	-21,843	-0,092	-0,039
-231,015	-186,982	-0,032	-0,000
-230,000	-123,627	0,058	0,006
-228,986	53,921	0,115	-0,078
-227,971	-200,000	-0,054	-0,218
-226,957	-200,000	-0,004	0,023
-225,942	27,896	-0,034	-0,020
-224,927	2,696	-0,034	-0,017
-223,913	27,483	-0,063	-0,038
-222,898	-200,000	0,007	0,090
-221,884	26,827	-0,180	0,107
-220,869	-200,000	-0,015	0,056
-219,855	647,324	0,038	-0,069
-218,840	-117,466	-0,041	0,005
-217,825	-200,000	0,002	-0,047
-216,811	-21,628	-0,042	0,018
-215,796	44,232	0,119	-0,078
-214,782	800,000	-0,020	-0,061
-213,767	219,554	-0,118	0,134
-212,752	41,500	-0,059	0,038
-211,738	396,666	0,097	0,144
-210,723	-128,069	-0,115	-0,012
-209,709	-200,000	-0,030	0,126
-208,694	800,000	0,031	-0,073
-207,679	595,917	-0,015	-0,027
-206,665	-200,000	0,000	0,015
-205,650	192,900	0,038	0,041
-204,636	-200,000	0,016	0,132
-203,621	-200,000	-0,002	0,089
-202,606	692,585	-0,059	-0,111
-201,592	161,732	0,021	-0,020
-200,577	800,000	-0,049	0,137
-199,563	-200,000	0,007	-0,045
-198,548	-99,840	-0,204	0,036
-197,533	107,569	0,098	0,083
-196,519	-0,879	-0,029	-0,015
-195,504	800,000	-0,031	0,068
-194,490	-198,145	0,112	0,000
-193,475	-148,652	-0,180	0,010
-192,460	353,939	-0,139	-0,197
-191,446	-84,732	0,206	0,046
-190,431	800,000	0,038	0,095
-189,417	-200,000	-0,003	0,101
-188,402	-113,692	-0,157	-0,021
-187,387	-98,582	0,103	-0,018
-186,373	105,532	0,038	-0,032
-185,358	800,000	-0,050	-0,129
-184,344	588,714	0,023	0,040
-183,329	-108,947	0,190	0,028
-182,315	36,455	0,035	0,022
-181,300	-116,325	-0,094	-0,012
-180,285	800,000	0,066	-0,135
-179,271	39,922	-0,050	-0,032
-178,256	81,071	-0,025	-0,019
-177,242	-200,000	0,015	-0,066
-176,227	-188,546	0,166	0,001
-175,212	800,000	0,043	-0,110
-174,198	-122,831	0,027	0,003
-173,183	800,000	-0,045	0,109
-172,169	50,461	-0,088	0,059
-171,154	-24,103	-0,108	0,045
-170,139	114,464	-0,029	-0,025
-169,125	-137,116	-0,110	0,009
-168,110	-200,000	-0,018	0,196
-167,096	248,228	-0,010	-0,011
-166,081	-200,000	-0,001	-0,050
-165,066	595,746	0,093	-0,164
-164,052	141,914	-0,069	-0,065
-163,037	-1,100	0,080	0,040
-162,023	210,854	0,081	-0,090
-161,008	4,359	0,181	0,094
-159,993	369,462	-0,069	-0,100
-158,979	545,926	0,049	0,083
-157,964	800,000	-0,028	-0,081
-156,950	11,258	0,076	-0,041
-155,935	-200,000	-0,001	-0,021
-154,920	4,952	-0,101	0,053
-153,906	800,000	-0,032	0,080
-152,891	544,978	-0,037	0,063
-151,877	-79,046	-0,125	-0,030
-150,862	-44,699	-0,046	0,016
-149,847	-111,937	-0,080	-0,011
-148,833	265,806	0,033	-0,041
-147,818	-25,432	0,068	0,028
-146,804	-144,277	0,072	0,005
-145,789	-200,000	-0,012	0,108
-144,775	41,820	0,016	-0,010
-143,760	-69,889	-0,056	-0,015
-142,745	-155,590	-0,131	0,006
-141,731	-0,336	-0,037	0,018
-140,716	-77,093	-0,144	-0,035
-139,702	800,000	-0,048	0,135
-138,687	-60,569	-0,019	-0,006
-137,672	800,000	0,018	0,048
-136,658	662,197	-0,012	-0,021
-135,643	139,722	0,001	0,001
-134,629	-82,774	0,149	0,034
-133,614	42,267	-0,054	0,035
-132,599	-200,000	0,014	-0,067
-131,585	610,926	0,010	-0,018
-130,570	-200,000	0,008	0,163
-129,556	43,591	0,074	-0,048
-128,541	-200,000	-0,005	-0,081
-127,526	-200,000	-0,007	-0,034
-126,512	184,378	0,110	-0,116
-125,497	-200,000	-0,038	0,211
-124,483	-109,211	0,079	0,012
-123,468	18,015	0,111	0,063
-122,453	800,000	-0,031	-0,093
-121,439	457,226	0,026	-0,041
-120,424	18,630	0,028	0,016
-119,410	800,000	0,096	0,209
-118,395	800,000	-0,052	-0,121
-117,380	-200,000	-0,015	0,057
-116,366	393,874	0,011	0,016
-115,351	-99,591	-0,071	0,012
-114,337	73,426	-0,043	-0,032
-113,322	-39,849	-0,098	-0,036
-112,307	800,000	-0,057	0,112
-111,293	327,678	0,082	0,112
-110,278	337,387	-0,087	0,120
-109,264	-200,000	-0,017	-0,132
-108,249	123,610	0,134	-0,119
-107,234	-200,000	0,017	-0,172
-106,220	-200,000	-0,016	-0,135
-105,205	-200,000	0,023	-0,084
-104,191	-130,875	0,017	0,002
-103,176	232,368	0,050	0,059
-102,162	-6,109	0,016	0,008
-101,147	800,000	-0,041	-0,121
-100,132	-200,000	-0,026	-0,085
-99,118	74,238	0,032	0,024
-98,103	-60,036	0,037	-0,011
-97,089	-72,634	0,056	0,014
-96,074	800,000	0,035	0,070
-95,059	800,000	-0,022	-0,046
-94,045	-200,000	-0,008	-0,144
-93,030	-200,000	-0,049	-0,155
-92,016	-200,000	-0,039	-0,149
-91,001	-200,000	-0,036	-0,160
-89,986	-90,553	0,083	-0,017
-88,972	341,922	0,056	0,078
-87,957	124,990	-0,056	-0,050
-86,943	-93,718	-0,154	0,030
-85,928	-200,000	-0,026	-0,083
-84,913	-134,143	-0,109	0,009
-83,899	-46,499	-0,043	0,015
-82,884	-160,426	0,107	-0,004
-81,870	-36,096	-0,139	-0,053
-80,855	-172,418	0,124	0,003
-79,840	800,000	0,013	-0,038
-78,826	115,733	-0,046	-0,039
-77,811	-200,000	-0,024	-0,176
-76,797	-200,000	-0,006	-0,059
-75,782	800,000	-0,065	-0,184
-74,767	192,953	0,050	-0,053
-73,753	3,512	0,035	0,018
-72,738	292,167	0,023	0,029
-71,724	-65,702	-0,140	-0,039
-70,709	158,108	-0,128	-0,125
-69,694	-200,000	0,030	0,231
-68,680	-126,063	-0,097	0,010
-67,665	-200,000	-0,035	0,134
-66,651	10,365	0,067	-0,036
-65,636	147,986	0,108	0,103
-64,622	-19,791	-0,089	0,039
-63,607	-200,000	-0,033	-0,151
-62,592	258,344	0,051	0,062
-61,578	340,167	0,008	-0,011
-60,563	-200,000	0,026	0,201
-59,549	800,000	0,023	-0,057
-58,534	29,492	-2,010	-1,204
-57,519	469,275	-1,266	-2,016
-56,505	-200,000	-0,310	-4,398
-55,490	514,413	0,977	1,615
-54,476	800,000	5,025	11,024
-53,461	-200,000	21,035	334,136
-52,446	800,000	758,508	2336,594
-51,432	552,517	1662,180	2830,536
-50,417	73,407	1662,977	1227,605
-49,403	18,371	1536,507	864,148
-48,388	12,379	1459,510	791,839
-47,373	19,146	1450,192	819,253
-46,359	15,655	1439,596	796,616
-45,344	10,665	1435,466	770,525
-44,330	10,612	1433,660	769,271
-43,315	10,544	1431,832	767,939
-42,300	10,611	1429,879	767,178
-41,286	10,620	1428,763	766,593
-40,271	10,572	1427,560	765,686
-39,257	10,604	1426,184	765,070
-38,242	10,642	1425,143	764,662
-37,227	10,610	1424,092	763,919
-36,213	10,610	1422,873	763,230
-35,198	10,595	1421,747	762,527
-34,184	10,662	1420,592	762,194
-33,169	10,569	1419,455	761,116
-32,154	10,669	1418,244	760,904
-31,140	10,667	1417,036	760,218
-30,125	10,736	1415,925	759,916
-29,111	10,665	1415,024	759,071
-28,096	10,672	1413,684	758,352
-27,082	10,586	1412,791	757,441
-26,067	10,582	1411,520	756,709
-25,052	10,614	1410,373	756,214
-24,038	10,590	1409,642	755,680
-23,023	10,620	1408,456	755,158
-22,009	10,621	1407,396	754,564
-20,994	10,586	1406,391	753,828
-19,979	10,600	1405,541	753,410
-18,965	10,554	1404,711	752,719
-17,950	10,548	1403,683	752,111
-16,936	10,510	1402,866	751,465
-15,921	10,494	1401,815	750,797
-14,906	10,515	1400,957	750,407
-13,892	10,555	1399,931	750,015
-12,877	10,511	1399,169	749,372
-11,863	10,506	1398,434	748,926
-10,848	10,473	1397,437	748,208
-9,833	10,431	1396,675	747,577
-8,819	10,417	1395,685	746,951
-7,804	10,405	1394,966	746,479
-6,790	10,426	1393,716	745,879
-5,775	10,415	1392,850	745,337
-4,760	10,431	1391,807	744,823
-3,746	10,429	1390,935	744,317
-2,731	10,391	1390,131	743,683
-1,717	10,359	1389,309	743,065
-0,702	10,373	1387,448	742,102
0,313	14,420	1300,566	714,165
1,327	30,587	691,592	416,489
2,342	47,963	119,745	78,813
3,356	-2,171	16,607	8,197
4,371	-4,812	3,508	1,700
5,386	-1,758	0,921	0,456
6,400	800,000	0,180	0,536
7,415	594,062	-0,086	-0,150
8,429	-17,619	-0,329	-0,145
9,444	-64,989	-0,393	-0,111
10,459	52,925	-0,157	-0,106
11,473	36,366	-0,316	-0,196
12,488	-16,425	-0,276	-0,123
13,502	15,762	-0,417	-0,231
14,517	97,949	-0,229	-0,186
15,531	130,406	-0,370	-0,334
16,546	104,465	-0,354	-0,293
17,561	446,091	-0,242	-0,376
18,575	307,353	-0,112	-0,147
19,590	787,688	-0,155	-0,301
20,604	-62,594	-0,339	-0,099
21,619	64,737	-0,347	-0,246
22,634	47,985	-0,494	-0,325
23,648	108,527	-0,456	-0,384
24,663	128,709	-0,318	-0,285
25,677	-28,023	-0,318	-0,129
26,692	1,025	-0,295	-0,148
27,707	21,863	-0,290	-0,166
28,721	68,579	-0,227	-0,163
29,736	154,596	-0,400	-0,387
30,750	134,666	-0,286	-0,262
31,765	44,362	-0,427	-0,275
32,780	179,193	-0,302	-0,311
33,794	38,032	-0,327	-0,204
34,809	189,400	-0,266	-0,281
35,823	140,780	-0,335	-0,311
36,838	175,287	-0,346	-0,353
37,853	-5,539	-0,432	-0,208
38,867	163,470	-0,336	-0,333
39,882	114,452	-0,261	-0,224
40,896	52,829	-0,336	-0,225
41,911	-73,841	-0,331	-0,084
42,926	-4,100	-0,390	-0,189
43,940	19,952	-0,369	-0,209
44,955	6,554	-0,375	-0,196
45,969	340,576	-0,242	-0,333
46,984	146,397	-0,288	-0,271
47,999	120,674	-0,227	-0,198
49,013	-105,148	-0,270	-0,043
50,028	28,095	-0,224	-0,133
51,042	-28,405	-0,348	-0,140
52,057	-61,522	-0,362	-0,106
53,071	103,516	-0,317	-0,261
54,086	-21,740	-0,405	-0,173
55,101	53,920	-0,318	-0,214
56,115	99,312	-0,300	-0,243
57,130	122,087	-0,331	-0,290
58,144	75,323	-0,422	-0,312
59,159	22,437	-0,355	-0,203
60,174	21,057	-0,420	-0,239
61,188	258,818	-0,203	-0,246
62,203	104,612	-0,286	-0,237
63,217	17,583	-0,296	-0,165
64,232	-49,965	-0,426	-0,141
65,247	73,772	-0,375	-0,276
66,261	44,396	-0,488	-0,314
67,276	-21,752	-0,409	-0,174
68,290	13,777	-0,397	-0,216
69,305	270,893	-0,178	-0,220
70,320	182,546	-0,299	-0,310
71,334	-85,002	-0,323	-0,070
72,349	25,627	-0,351	-0,205
73,363	115,477	-0,346	-0,296
74,378	-27,011	-0,316	-0,129
75,393	44,384	-0,323	-0,208
76,407	-89,968	-0,252	-0,051
77,422	-71,777	-0,257	-0,067
78,436	312,012	-0,235	-0,310
79,451	157,169	-0,314	-0,304
80,466	62,177	-0,276	-0,193
81,480	-52,714	-0,529	-0,170
82,495	-18,619	-0,271	-0,118
83,509	-40,322	-0,316	-0,115
84,524	-88,636	-0,177	-0,037
85,539	-40,308	-0,314	-0,114
86,553	317,148	-0,152	-0,201
87,568	82,743	-0,314	-0,239
88,582	27,273	-0,347	-0,203
89,597	-141,198	-0,351	-0,025
90,611	133,478	-0,262	-0,237
91,626	287,847	-0,196	-0,249
92,641	53,350	-0,154	-0,103
93,655	-26,301	-0,265	-0,108
94,670	68,619	-0,221	-0,158
95,684	608,767	-0,150	-0,263
96,699	160,354	-0,208	-0,203
97,714	-24,610	-0,333	-0,138
98,728	160,838	-0,220	-0,215
99,743	-3,869	-0,222	-0,107
100,757	-22,065	-0,365	-0,154
101,772	-5,361	-0,277	-0,132
102,787	24,583	-0,241	-0,139
103,801	51,643	-0,392	-0,260
104,816	113,618	-0,306	-0,260
105,830	-105,670	-0,216	-0,034
106,845	46,955	-0,162	-0,105
107,860	554,877	-0,227	-0,384
108,874	33,277	-0,340	-0,206
109,889	54,031	-0,307	-0,206
110,903	-60,203	-0,338	-0,100
111,918	64,241	-0,219	-0,154
112,933	59,784	-0,215	-0,148
113,947	298,302	-0,176	-0,227
114,962	32,242	-0,229	-0,138
115,976	-142,868	-0,328	-0,022
116,991	62,685	-0,354	-0,247
118,006	172,305	-0,202	-0,203
119,020	193,667	-0,184	-0,195
120,035	-79,908	-0,220	-0,051
121,049	221,021	-0,205	-0,230
122,064	-50,578	-0,236	-0,077
123,079	17,793	-0,277	-0,153
124,093	44,978	-0,165	-0,106
125,108	-89,303	-0,356	-0,073
126,122	69,327	-0,190	-0,136
127,137	13,061	-0,378	-0,204
128,151	13,956	-0,260	-0,141
129,166	-101,495	-0,280	-0,047
130,181	119,633	-0,215	-0,186
131,195	181,795	-0,165	-0,170
132,210	-61,821	-0,250	-0,073
133,224	26,983	-0,330	-0,192
134,239	-59,450	-0,279	-0,083
135,254	800,000	-0,105	-0,279
136,268	120,539	-0,211	-0,183
137,283	800,000	-0,101	-0,285
138,297	165,852	-0,254	-0,251
139,312	222,457	-0,104	-0,117
140,327	94,220	-0,267	-0,211
141,341	42,343	-0,392	-0,248
142,356	269,639	-0,195	-0,239
143,370	-15,413	-0,113	-0,050
144,385	-15,361	-0,237	-0,105
145,400	-53,416	-0,368	-0,117
146,414	624,822	-0,107	-0,188
147,429	182,876	-0,164	-0,168
148,443	188,263	-0,153	-0,159
149,458	-76,168	-0,241	-0,059
150,473	-40,302	-0,259	-0,093
151,487	-64,797	-0,246	-0,069
152,502	-95,866	-0,321	-0,059
153,516	266,603	-0,153	-0,187
154,531	63,379	-0,386	-0,269
155,546	156,692	-0,280	-0,269
156,560	72,380	-0,211	-0,153
157,575	12,400	-0,229	-0,122
158,589	55,234	-0,171	-0,115
159,604	240,697	-0,185	-0,215
160,619	4,342	-0,389	-0,198
161,633	87,050	-0,144	-0,111
162,648	-65,692	-0,235	-0,065
163,662	-53,580	-0,213	-0,067
164,677	113,740	-0,239	-0,202
165,692	-39,728	-0,170	-0,062
166,706	-38,774	-0,185	-0,068
167,721	-37,235	-0,225	-0,083
168,735	-37,122	-0,247	-0,091
169,750	-86,824	-0,199	-0,042
170,764	177,820	-0,109	-0,111
171,779	-200,000	-0,040	-0,187
172,794	-119,221	-0,293	-0,035
173,808	10,792	-0,247	-0,131
174,823	160,484	-0,247	-0,240
175,837	100,382	-0,240	-0,193
176,852	112,774	-0,203	-0,171
177,867	800,000	-0,082	-0,243
178,881	-79,342	-0,212	-0,049
179,896	-9,303	-0,213	-0,099
180,910	-76,773	-0,194	-0,047
181,925	10,179	-0,324	-0,171
182,940	589,733	-0,047	-0,082
183,954	238,691	-0,093	-0,107
184,969	251,076	-0,190	-0,225
185,983	-75,771	-0,212	-0,052
186,998	320,802	-0,179	-0,237
188,013	457,359	-0,136	-0,211
189,027	107,981	-0,153	-0,126
190,042	185,482	-0,289	-0,298
191,056	11,308	-0,277	-0,147
192,071	274,018	-0,166	-0,204
193,086	218,641	-0,206	-0,229
194,100	80,109	-0,136	-0,101
195,115	172,829	-0,113	-0,113
196,129	59,319	-0,212	-0,144
197,144	119,651	-0,142	-0,122
198,159	87,742	-0,143	-0,110
199,173	800,000	-0,088	-0,236
200,188	-128,140	-0,223	-0,022
201,202	33,930	-0,164	-0,099
202,217	60,423	-0,256	-0,175
203,232	186,988	-0,242	-0,251
204,246	-32,848	-0,260	-0,100
205,261	181,818	-0,193	-0,197
206,275	-200,000	-0,044	-0,205
207,290	-130,793	-0,226	0,021
208,304	800,000	-0,097	-0,244
209,319	248,044	-0,207	-0,243
210,334	800,000	-0,086	-0,205
211,348	407,494	-0,134	-0,197
212,363	75,684	-0,127	-0,093
213,377	122,796	-0,101	-0,088
214,392	157,540	-0,194	-0,186
215,407	115,260	-0,186	-0,157
216,421	7,482	-0,209	-0,108
217,436	292,219	-0,113	-0,143
218,450	89,067	-0,266	-0,205
219,465	148,281	-0,136	-0,127
220,480	130,692	-0,217	-0,192
221,494	10,904	-0,140	-0,074
222,509	-144,035	-0,166	0,011
223,523	546,049	-0,077	-0,128
224,538	143,765	-0,134	-0,124
225,553	125,568	-0,237	-0,207
226,567	-80,706	-0,233	-0,053
227,582	-85,764	-0,201	-0,043
228,596	-84,235	-0,216	-0,047
229,611	-98,758	-0,159	-0,028
230,626	328,811	-0,077	-0,102
231,640	237,021	-0,145	-0,167
232,655	164,612	-0,115	-0,113
233,669	-5,652	-0,225	-0,106
234,684	-14,659	-0,264	-0,117
235,699	551,878	-0,115	-0,192
236,713	153,498	-0,063	-0,060
237,728	-5,130	-0,253	-0,120
238,742	8,425	-0,228	-0,118
239,757	104,695	-0,119	-0,097
240,772	20,755	-0,346	-0,193
241,786	724,517	-0,091	-0,169
242,801	-33,472	-0,333	-0,127
243,815	-14,118	-0,325	-0,144
244,830	-200,000	-0,194	0,000
245,844	800,000	-0,067	-0,153
246,859	156,787	-0,174	-0,166
247,874	13,346	-0,228	-0,122
248,888	300,586	-0,212	-0,271
249,903	-165,857	-0,183	0,005
250,917	-97,810	-0,250	-0,044
251,932	76,356	-0,007	-0,005
252,947	-60,810	-0,096	0,028
253,961	-78,575	-0,170	-0,040
254,976	-49,976	-0,152	0,049
255,990	147,628	-0,222	-0,207
257,005	37,258	-0,171	-0,104
258,020	-0,652	-0,214	-0,104
259,034	-6,792	-0,153	-0,071
260,049	52,019	-0,174	-0,114
261,063	-135,107	-0,059	-0,005
262,078	-22,826	-0,178	-0,074
263,093	201,228	-0,209	-0,222
264,107	800,000	-0,081	-0,157
265,122	-46,280	-0,193	-0,065
266,136	17,080	-0,087	-0,047
267,151	800,000	-0,033	-0,073
268,166	293,754	-0,158	-0,199
269,180	-28,811	-0,223	-0,088
270,195	97,861	-0,361	-0,286
271,209	-162,683	-0,301	0,010
272,224	-113,797	-0,266	-0,035
273,239	17,749	-0,129	-0,070
274,253	-200,000	-0,043	-0,135
275,268	-97,875	-0,098	-0,017
276,282	-17,983	-0,257	-0,110
277,297	35,171	-0,100	-0,060
278,312	272,042	-0,141	-0,172
279,326	800,000	-0,082	-0,208
280,341	352,984	-0,204	-0,279
281,355	-45,693	-0,206	-0,070
282,370	195,754	-0,203	-0,213
283,384	800,000	-0,026	-0,052
284,399	98,145	-0,073	-0,058
285,414	-101,574	-0,140	0,023
286,428	18,837	-0,146	0,080
287,443	28,679	-0,212	-0,123
288,457	33,024	-0,114	0,068
289,472	201,517	-0,063	-0,067
290,487	119,045	-0,191	-0,162
291,501	440,311	-0,174	-0,262
292,516	800,000	-0,059	-0,140
293,530	184,916	-0,131	-0,134
294,545	-80,562	-0,239	-0,054
295,560	-43,164	-0,088	-0,030
296,574	-20,969	-0,261	-0,109
297,589	-95,416	-0,189	-0,034
298,603	410,752	-0,130	-0,190
299,618	24,484	-0,196	-0,111
300,633	136,958	-0,128	-0,115
301,647	41,796	-0,072	-0,045
302,662	-200,000	-0,030	-0,221
303,676	-200,000	-0,052	-0,172
304,691	502,315	-0,157	-0,251
305,706	758,973	-0,085	-0,159
306,720	144,263	-0,177	-0,162
307,735	13,644	-0,179	-0,095
308,749	88,528	-0,128	-0,097
309,764	-27,425	-0,166	-0,066
310,779	9,623	-0,144	-0,075
311,793	-28,765	-0,128	-0,050
312,808	37,231	-0,106	-0,064
313,822	325,087	-0,163	-0,215
314,837	328,843	-0,103	-0,136
315,852	-0,445	-0,135	-0,066
316,866	-17,361	-0,126	-0,054
317,881	-145,605	-0,158	-0,010
318,895	-77,929	-0,147	-0,034
319,910	32,601	-0,097	-0,058
320,925	-106,392	-0,075	-0,011
321,939	37,588	-0,137	-0,083
322,954	0,578	-0,219	-0,107
323,968	77,196	-0,118	-0,086
324,983	-0,920	-0,120	-0,058
325,997	274,378	-0,125	-0,152
327,012	91,118	-0,216	-0,166
328,027	-26,176	-0,183	-0,073
329,041	-93,021	-0,183	-0,035
330,056	-200,000	-0,019	-0,079
331,070	42,773	-0,141	-0,088
332,085	-200,000	-0,028	-0,132
333,100	-72,602	-0,043	-0,011
334,114	800,000	-0,042	-0,113
335,129	80,435	-0,222	-0,164
336,143	230,471	-0,138	-0,155
337,158	298,231	-0,122	-0,154
338,173	19,418	-0,118	-0,065
339,187	194,926	-0,092	-0,096
340,202	-19,710	-0,193	-0,081
341,216	-35,034	-0,072	0,027
342,231	17,225	-0,145	-0,078
343,246	-95,069	-0,172	-0,032
344,260	-200,000	0,018	-0,133
345,275	-200,000	-0,014	-0,175
346,289	142,958	-0,125	-0,114
347,304	88,995	-0,199	-0,151
348,319	286,437	-0,148	-0,183
349,333	-184,943	-0,156	0,002
350,348	-23,978	-0,153	-0,062
351,362	17,971	-0,152	-0,083
352,377	-92,988	0,052	-0,010
353,392	-200,000	-0,005	-0,022
354,406	-48,148	-0,095	0,031
355,421	206,750	1310,499	1398,538
356,435	159,017	1470,684	1399,011
