DTS Sentinel unit serial number:	SN410029Multiplexer serial number:	ORYXHardware model number:	OX2-SRSoftware version number:	ORYX F/W v4,00 Oryx Data Collector v3.7.2.0data status	okinstallation	B3 Nyhavnadifferential loss correction	single-endedforward channel	channel 1reverse channel	N/Adate	2023/11/30time	00:22:30forward acquisition time	300,00reverse acquisition time	0,00gamma	499,1914k internal	0,3210k external	0,3210temperature offset calibration	1,0000default loss term (dB/km)	0,3820temperature slope calibration	1,0000multiplexer offset coefficient	1,0000multiplexer slope coefficient	1,0000fibre end	0,00T internal ref (°C)	10,84T ext. ref 1 (°C)	-4,28T ext. ref 2 (°C)	-4,39length (m)	temperature (°C)	Stokes	anti-Stokes-744,400	-200,000	-0,047	-0,223
-743,385	-200,000	0,005	0,256
-742,371	278,607	-0,136	-0,176
-741,356	-200,000	0,033	0,149
-740,342	199,150	-0,187	-0,208
-739,327	473,198	-0,253	0,414
-738,312	620,651	-0,118	-0,217
-737,298	800,000	-0,098	0,206
-736,283	616,192	-0,166	-0,304
-735,269	-200,000	0,011	0,213
-734,254	136,485	-0,217	-0,205
-733,239	-174,678	-0,167	0,003
-732,225	800,000	-0,071	-0,225
-731,210	10,885	0,085	0,047
-730,196	-200,000	-0,010	0,051
-729,181	-200,000	0,001	0,039
-728,167	1,886	0,081	-0,042
-727,152	13,577	-0,099	-0,055
-726,137	-29,833	-0,165	-0,068
-725,123	37,405	-0,169	0,109
-724,108	61,555	0,059	-0,043
-723,094	559,048	-0,081	-0,143
-722,079	800,000	0,065	-0,138
-721,064	444,734	0,050	0,080
-720,050	-200,000	-0,016	-0,095
-719,035	-105,432	-0,082	-0,013
-718,021	-97,515	-0,133	0,025
-717,006	-79,589	-0,034	-0,008
-715,991	-72,667	-0,106	0,028
-714,977	648,449	0,046	0,085
-713,962	-200,000	0,002	-0,019
-712,948	800,000	-0,012	0,027
-711,933	-146,218	-0,076	0,005
-710,918	52,810	0,036	0,025
-709,904	800,000	0,024	-0,053
-708,889	-200,000	-0,020	0,088
-707,875	800,000	-0,033	-0,087
-706,860	12,856	-0,114	0,064
-705,845	-200,000	0,019	-0,151
-704,831	184,882	0,055	-0,059
-703,816	409,961	-0,069	0,107
-702,802	-200,000	0,010	0,060
-701,787	-106,806	-0,110	-0,017
-700,772	511,101	-0,038	-0,065
-699,758	649,138	-0,089	-0,165
-698,743	-55,368	0,115	0,037
-697,729	316,000	-0,110	0,151
-696,714	800,000	0,025	-0,060
-695,699	173,674	0,029	0,030
-694,685	-52,577	0,045	-0,015
-693,670	-51,327	0,109	-0,037
-692,656	-111,008	-0,083	-0,012
-691,641	-151,397	0,059	-0,003
-690,627	-200,000	-0,017	-0,078
-689,612	800,000	0,046	-0,096
-688,597	516,089	-0,046	0,078
-687,583	130,234	-0,035	-0,032
-686,568	-200,000	0,014	-0,055
-685,554	-200,000	-0,021	-0,094
-684,539	599,056	-0,019	-0,034
-683,524	310,262	0,051	0,070
-682,510	-200,000	0,014	-0,101
-681,495	190,816	-0,087	0,095
-680,481	-200,000	-0,008	-0,049
-679,466	58,572	-0,084	0,060
-678,451	51,066	-0,094	-0,064
-677,437	800,000	-0,007	-0,018
-676,422	800,000	0,038	0,110
-675,408	416,630	-0,039	0,060
-674,393	-200,000	-0,102	0,000
-673,378	432,061	-0,065	-0,103
-672,364	613,933	-0,094	-0,172
-671,349	319,631	0,020	-0,028
-670,335	-200,000	0,001	0,072
-669,320	493,009	0,045	0,075
-668,305	72,691	-0,018	-0,014
-667,291	-44,737	-0,197	0,071
-666,276	800,000	0,039	-0,090
-665,262	-200,000	0,016	-0,058
-664,247	-8,905	0,088	-0,042
-663,232	313,093	0,032	0,044
-662,218	163,841	-0,064	0,065
-661,203	285,020	-0,027	-0,035
-660,189	-154,403	-0,097	-0,005
-659,174	73,059	-0,109	-0,083
-658,159	-114,381	-0,077	-0,011
-657,145	-148,881	-0,171	-0,010
-656,130	800,000	-0,052	0,145
-655,116	528,019	0,104	0,177
-654,101	-8,645	0,036	0,017
-653,086	36,547	-0,074	-0,047
-652,072	24,083	-0,044	0,026
-651,057	1,693	-0,072	-0,038
-650,043	257,733	-0,133	-0,166
-649,028	477,266	0,098	-0,161
-648,014	-33,514	0,156	-0,062
-646,999	33,189	0,049	0,031
-645,984	-200,000	0,002	0,117
-644,970	584,367	0,110	-0,196
-643,955	728,432	-0,026	0,051
-642,941	-55,472	-0,145	-0,047
-641,926	800,000	-0,053	0,134
-640,911	-200,000	0,002	-0,015
-639,897	800,000	-0,064	0,159
-638,882	-46,784	0,158	0,055
-637,868	12,733	0,101	-0,056
-636,853	-200,000	0,019	-0,087
-635,838	-30,411	-0,136	-0,055
-634,824	800,000	-0,099	-0,247
-633,809	-200,000	-0,006	-0,105
-632,795	-200,000	0,018	-0,065
-631,780	364,790	-0,022	-0,032
-630,765	-200,000	0,032	-0,116
-629,751	-200,000	-0,005	0,030
-628,736	-19,280	-0,095	-0,042
-627,722	-67,437	0,049	-0,014
-626,707	731,877	-0,040	0,077
-625,692	-3,999	-0,098	0,049
-624,678	547,107	0,056	0,098
-623,663	-129,241	0,129	-0,013
-622,649	-200,000	0,040	-0,188
-621,634	353,540	-0,029	-0,042
-620,619	-200,000	0,037	-0,147
-619,605	-80,170	-0,107	-0,026
-618,590	91,364	-0,059	0,047
-617,576	-11,303	0,131	0,062
-616,561	-126,378	-0,106	-0,011
-615,546	115,861	0,067	-0,059
-614,532	-7,079	-0,143	-0,070
-613,517	167,692	0,036	0,037
-612,503	151,308	-0,059	-0,058
-611,488	-141,093	0,190	0,014
-610,474	68,665	-0,180	-0,133
-609,459	110,362	0,006	0,005
-608,444	409,740	0,033	-0,051
-607,430	-134,444	0,113	-0,010
-606,415	-131,868	-0,150	0,014
-605,401	800,000	-0,015	0,034
-604,386	-116,710	0,153	0,020
-603,371	-200,000	-0,015	0,107
-602,357	764,411	-0,034	0,067
-601,342	-200,000	-0,019	-0,083
-600,328	-200,000	-0,034	0,110
-599,313	-12,768	-0,098	0,046
-598,298	748,854	0,047	-0,092
-597,284	-42,662	0,010	0,004
-596,269	615,400	-0,110	0,200
-595,255	-129,611	0,104	-0,010
-594,240	-6,030	-0,134	-0,066
-593,225	199,887	-0,054	-0,060
-592,211	145,421	-0,030	-0,029
-591,196	-200,000	0,004	-0,082
-590,182	180,216	0,087	0,092
-589,167	112,675	0,061	0,053
-588,152	32,439	-0,109	-0,068
-587,138	800,000	-0,056	-0,159
-586,123	-200,000	-0,009	0,031
-585,109	-200,000	0,006	-0,136
-584,094	-200,000	0,024	0,094
-583,079	333,549	0,112	0,156
-582,065	171,753	0,034	0,035
-581,050	95,774	0,097	0,079
-580,036	-200,000	0,017	0,085
-579,021	-200,000	-0,017	-0,061
-578,006	-47,504	0,066	-0,023
-576,992	276,091	-0,036	0,046
-575,977	800,000	0,049	-0,136
-574,963	277,357	0,055	0,070
-573,948	412,560	-0,041	0,062
-572,934	-106,173	-0,059	0,010
-571,919	-81,778	-0,091	-0,021
-570,904	179,896	0,108	0,114
-569,890	147,936	-0,113	-0,110
-568,875	-55,197	0,127	-0,041
-567,861	-200,000	-0,026	0,086
-566,846	133,039	-0,064	-0,059
-565,831	800,000	-0,048	-0,117
-564,817	176,226	-0,041	0,043
-563,802	800,000	-0,042	-0,121
-562,788	326,656	-0,064	0,089
-561,773	-28,533	0,102	0,042
-560,758	-157,414	-0,127	0,005
-559,744	-106,403	0,121	0,019
-558,729	598,150	-0,052	0,094
-557,715	-47,772	-0,053	-0,018
-556,700	500,349	0,063	0,106
-555,685	-29,625	-0,078	-0,032
-554,671	800,000	0,018	-0,039
-553,656	800,000	0,041	0,090
-552,642	120,675	0,154	-0,138
-551,627	758,821	-0,052	-0,102
-550,612	-200,000	-0,003	-0,076
-549,598	-93,442	-0,080	0,016
-548,583	-200,000	-0,005	-0,166
-547,569	468,258	-0,067	-0,109
-546,554	-97,126	0,136	-0,025
-545,539	-42,660	0,076	-0,028
-544,525	-56,373	-0,090	0,029
-543,510	107,186	-0,108	-0,093
-542,496	-43,961	0,027	0,010
-541,481	-200,000	0,008	-0,079
-540,466	-162,280	0,031	0,001
-539,452	188,217	0,093	0,100
-538,437	8,787	-0,127	-0,069
-537,423	-153,923	-0,016	0,001
-536,408	77,039	-0,061	0,047
-535,393	-51,573	-0,082	-0,028
-534,379	326,453	-0,094	-0,131
-533,364	-31,457	0,048	-0,020
-532,350	-200,000	-0,002	-0,038
-531,335	-181,173	0,102	0,001
-530,321	-106,707	0,059	0,009
-529,306	-84,144	-0,109	-0,025
-528,291	-200,000	-0,024	-0,084
-527,277	-12,239	-0,063	0,030
-526,262	-17,405	-0,141	0,063
-525,248	61,401	-0,115	-0,082
-524,233	182,550	0,100	-0,106
-523,218	-166,332	0,036	-0,001
-522,204	-83,638	0,115	0,026
-521,189	45,138	-0,021	-0,014
-520,175	-39,950	-0,133	0,050
-519,160	84,393	0,031	0,024
-518,145	199,298	-0,048	0,053
-517,131	-84,846	0,075	0,017
-516,116	-200,000	-0,000	0,081
-515,102	-37,186	0,062	0,024
-514,087	-200,000	-0,015	-0,049
-513,072	97,589	-0,031	-0,025
-512,058	111,340	-0,056	-0,048
-511,043	105,835	-0,043	-0,036
-510,029	260,270	-0,106	-0,132
-509,014	-16,084	-0,145	0,066
-507,999	-4,831	-0,095	0,047
-506,985	-200,000	-0,003	-0,057
-505,970	5,487	-0,214	-0,113
-504,956	-200,000	0,001	0,055
-503,941	-27,903	0,117	-0,048
-502,926	125,399	0,111	0,100
-501,912	141,238	0,037	0,036
-500,897	-49,918	-0,029	0,010
-499,883	800,000	0,072	-0,151
-498,868	46,043	-0,172	-0,114
-497,853	70,515	-0,079	0,059
-496,839	-101,990	0,106	0,018
-495,824	367,724	0,032	0,047
-494,810	354,237	0,084	0,121
-493,795	697,905	0,016	0,029
-492,781	-200,000	0,027	0,165
-491,766	572,186	0,048	0,085
-490,751	82,425	-0,026	0,020
-489,737	148,929	-0,081	-0,078
-488,722	800,000	-0,037	0,082
-487,708	-51,808	0,121	-0,040
-486,693	-200,000	-0,007	0,138
-485,678	800,000	-0,020	-0,058
-484,664	-200,000	0,015	-0,141
-483,649	-200,000	-0,024	-0,127
-482,635	-70,515	-0,061	0,016
-481,620	-200,000	-0,004	-0,078
-480,605	-14,887	0,044	-0,020
-479,591	800,000	0,021	-0,065
-478,576	800,000	-0,041	0,117
-477,562	417,871	0,051	-0,079
-476,547	604,442	-0,043	-0,078
-475,532	800,000	-0,008	0,016
-474,518	242,927	0,025	-0,030
-473,503	-200,000	-0,011	0,087
-472,489	-19,337	0,096	-0,042
-471,474	-200,000	-0,025	0,091
-470,459	110,118	0,120	0,104
-469,445	431,381	0,039	-0,060
-468,430	-38,197	0,082	-0,031
-467,416	317,179	0,027	0,037
-466,401	20,480	-0,083	0,048
-465,386	105,209	-0,049	0,042
-464,372	800,000	0,105	0,222
-463,357	191,159	0,037	-0,040
-462,343	800,000	-0,025	0,078
-461,328	800,000	-0,060	0,166
-460,313	189,256	0,073	0,078
-459,299	144,268	0,141	0,135
-458,284	173,925	0,098	0,101
-457,270	-56,284	-0,096	0,031
-456,255	-50,703	-0,009	0,003
-455,241	247,185	-0,040	-0,048
-454,226	-200,000	-0,022	-0,088
-453,211	-42,668	-0,091	-0,033
-452,197	37,030	-0,087	0,055
-451,182	-160,307	0,131	-0,005
-450,168	37,189	0,139	0,088
-449,153	-160,374	-0,020	-0,001
-448,138	-200,000	-0,060	-0,202
-447,124	-200,000	-0,009	-0,030
-446,109	-29,685	0,028	0,011
-445,095	-174,249	0,144	0,003
-444,080	-40,415	0,097	-0,036
-443,065	-200,000	0,018	0,178
-442,051	209,911	-0,074	-0,084
-441,036	800,000	-0,061	-0,146
-440,022	202,205	0,029	-0,032
-439,007	263,246	0,073	-0,091
-437,992	-126,915	0,123	-0,013
-436,978	22,146	0,151	0,088
-435,963	-200,000	-0,039	0,145
-434,949	-60,298	0,047	-0,014
-433,934	-23,230	-0,165	-0,071
-432,919	-200,000	0,008	-0,065
-431,905	19,684	0,093	0,053
-430,890	36,457	0,040	0,025
-429,876	-94,214	0,079	0,015
-428,861	800,000	-0,070	-0,156
-427,846	-200,000	0,021	0,081
-426,832	-200,000	-0,013	0,045
-425,817	800,000	-0,039	0,105
-424,803	800,000	0,071	-0,176
-423,788	-200,000	-0,010	0,034
-422,773	191,436	0,053	-0,057
-421,759	20,735	0,079	-0,046
-420,744	-200,000	0,006	-0,159
-419,730	800,000	0,034	-0,077
-418,715	-4,789	-0,118	-0,058
-417,701	-200,000	-0,033	-0,153
-416,686	171,739	-0,029	-0,030
-415,671	150,038	0,079	0,077
-414,657	631,441	0,032	0,058
-413,642	43,039	-0,075	0,049
-412,628	-16,381	-0,133	-0,060
-411,613	195,798	-0,067	-0,073
-410,598	800,000	-0,033	-0,069
-409,584	289,918	0,138	0,180
-408,569	96,284	0,074	0,061
-407,555	-200,000	0,017	0,073
-406,540	-6,607	-0,091	-0,044
-405,525	-138,003	-0,064	0,005
-404,511	179,994	-0,047	0,050
-403,496	800,000	-0,022	-0,045
-402,482	362,051	0,063	-0,091
-401,467	-200,000	-0,007	-0,043
-400,452	-104,067	0,077	-0,013
-399,438	-85,019	-0,122	-0,027
-398,423	509,157	-0,083	0,138
-397,409	-16,014	-0,133	-0,060
-396,394	452,980	0,012	0,020
-395,379	52,309	0,103	-0,070
-394,365	-200,000	-0,018	0,153
-393,350	214,454	-0,052	0,059
-392,336	358,272	-0,028	0,040
-391,321	800,000	-0,018	0,053
-390,306	144,621	-0,030	-0,029
-389,292	102,935	-0,046	0,039
-388,277	-200,000	-0,009	0,170
-387,263	-40,942	0,136	0,050
-386,248	34,640	-0,034	0,021
-385,233	-137,883	0,106	0,008
-384,219	-94,871	0,100	0,019
-383,204	-5,482	-0,102	-0,050
-382,190	56,615	0,032	-0,022
-381,175	47,575	0,048	0,032
-380,160	-200,000	-0,008	0,103
-379,146	800,000	-0,029	0,069
-378,131	800,000	-0,024	0,051
-377,117	-200,000	0,023	-0,121
-376,102	-47,773	-0,096	0,033
-375,088	627,228	0,091	-0,165
-374,073	800,000	0,025	-0,064
-373,058	252,783	0,045	0,056
-372,044	56,294	0,051	-0,035
-371,029	672,331	0,053	0,098
-370,015	182,469	-0,021	0,023
-369,000	800,000	-0,027	-0,062
-367,985	8,667	-0,070	-0,038
-366,971	-200,000	0,020	-0,122
-365,956	-200,000	0,000	0,042
-364,942	-200,000	0,025	0,120
-363,927	28,233	0,093	0,056
-362,912	9,789	-0,091	0,049
-361,898	93,164	0,078	0,063
-360,883	-135,788	-0,019	-0,002
-359,869	70,133	-0,179	-0,132
-358,854	-125,799	0,093	-0,010
-357,839	800,000	0,036	-0,109
-356,825	800,000	-0,022	0,068
-355,810	31,049	0,147	-0,090
-354,796	625,485	0,046	0,084
-353,781	263,277	0,030	-0,037
-352,766	-200,000	-0,007	-0,063
-351,752	-91,506	0,122	0,025
-350,737	-117,925	0,099	-0,012
-349,723	-81,144	-0,053	0,012
-348,708	-200,000	0,006	-0,035
-347,693	-89,941	-0,057	-0,012
-346,679	-174,703	-0,105	0,002
-345,664	800,000	-0,027	0,081
-344,650	6,130	0,059	-0,031
-343,635	-176,086	0,053	-0,001
-342,620	-73,007	0,150	-0,039
-341,606	58,261	-0,088	-0,061
-340,591	-118,583	0,106	0,013
-339,577	800,000	-0,030	0,061
-338,562	-81,512	-0,067	0,016
-337,548	-73,004	-0,066	0,017
-336,533	-145,643	0,116	0,007
-335,518	-200,000	0,013	0,052
-334,504	354,207	-0,089	0,126
-333,489	800,000	-0,035	0,072
-332,475	361,631	-0,057	-0,081
-331,460	-24,186	0,131	-0,056
-330,445	800,000	0,033	0,077
-329,431	-79,723	-0,126	-0,030
-328,416	-12,953	0,089	0,041
-327,402	-75,547	-0,043	0,011
-326,387	372,081	-0,037	0,054
-325,372	400,968	0,027	0,040
-324,358	-200,000	-0,006	-0,080
-323,343	-154,459	-0,090	0,004
-322,329	105,386	-0,054	-0,046
-321,314	-26,661	0,114	-0,047
-320,299	800,000	-0,067	0,172
-319,285	-200,000	0,010	0,033
-318,270	304,444	-0,021	0,029
-317,256	-200,000	0,014	0,055
-316,241	800,000	-0,037	-0,090
-315,226	15,901	-0,057	0,032
-314,212	586,411	-0,082	0,145
-313,197	-61,610	0,038	-0,011
-312,183	-77,505	0,270	0,066
-311,168	3,022	-0,039	0,020
-310,153	290,181	0,023	-0,030
-309,139	41,481	-0,027	0,018
-308,124	-93,788	0,162	0,032
-307,110	9,624	-0,111	-0,060
-306,095	615,599	-0,076	0,137
-305,080	-200,000	0,012	0,087
-304,066	-60,366	-0,153	0,046
-303,051	641,782	-0,070	-0,128
-302,037	106,246	-0,053	0,045
-301,022	77,459	-0,050	-0,038
-300,008	-144,263	-0,075	-0,005
-298,993	-200,000	0,017	0,146
-297,978	-112,868	0,072	-0,010
-296,964	-0,992	0,039	-0,020
-295,949	188,933	-0,051	0,054
-294,935	-200,000	0,000	0,016
-293,920	-33,596	0,064	-0,025
-292,905	335,580	0,080	0,111
-291,891	369,075	0,020	-0,029
-290,876	-200,000	-0,012	0,068
-289,862	-200,000	0,018	-0,087
-288,847	800,000	0,035	0,079
-287,832	800,000	-0,019	0,055
-286,818	418,958	-0,051	0,079
-285,803	-41,533	-0,033	-0,012
-284,789	-200,000	0,021	0,090
-283,774	330,843	0,068	-0,094
-282,759	303,137	0,043	0,057
-281,745	-53,681	0,064	-0,021
-280,730	-102,897	-0,100	0,017
-279,716	175,784	-0,015	-0,015
-278,701	800,000	-0,029	0,086
-277,686	-21,071	0,069	-0,030
-276,672	-130,383	-0,061	0,006
-275,657	-97,893	0,076	0,014
-274,643	80,091	-0,058	0,045
-273,628	623,538	0,063	-0,114
-272,613	-200,000	-0,003	-0,030
-271,599	277,169	0,067	0,085
-270,584	800,000	-0,042	-0,090
-269,570	104,506	-0,018	-0,015
-268,555	187,003	0,048	-0,052
-267,540	-2,507	-0,029	0,014
-266,526	-79,043	-0,077	-0,019
-265,511	-200,000	0,008	0,106
-264,497	-151,103	0,072	0,004
-263,482	-200,000	-0,001	-0,050
-262,467	-58,428	-0,094	-0,029
-261,453	-200,000	0,027	0,115
-260,438	232,238	0,093	-0,109
-259,424	37,128	-0,065	-0,041
-258,409	-148,184	0,090	-0,005
-257,395	444,040	0,024	-0,038
-256,380	-83,324	0,063	-0,014
-255,365	-116,344	0,104	0,014
-254,351	44,887	0,065	-0,042
-253,336	-200,000	-0,001	-0,040
-252,322	-92,117	0,102	-0,020
-251,307	-46,076	-0,043	-0,015
-250,292	319,218	0,049	-0,066
-249,278	800,000	0,048	-0,120
-248,263	800,000	-0,034	0,104
-247,249	-63,975	0,024	0,007
-246,234	492,311	0,023	-0,038
-245,219	-200,000	0,030	-0,138
-244,205	-56,201	-0,082	0,026
-243,190	-200,000	-0,002	0,043
-242,176	139,974	0,096	0,090
-241,161	384,571	-0,083	0,122
-240,146	45,368	-0,100	0,065
-239,132	54,186	0,072	-0,049
-238,117	800,000	-0,023	-0,053
-237,103	-39,052	-0,113	-0,042
-236,088	-200,000	-0,007	0,082
-235,073	800,000	0,017	0,037
-234,059	182,298	-0,059	0,062
-233,044	800,000	-0,018	0,041
-232,030	-59,904	-0,069	-0,021
-231,015	-9,027	0,059	0,028
-230,000	-200,000	-0,008	0,029
-228,986	18,127	-0,078	0,044
-227,971	-200,000	-0,017	0,106
-226,957	-200,000	-0,022	-0,080
-225,942	36,317	0,033	-0,021
-224,927	698,752	0,038	-0,071
-223,913	-200,000	-0,010	-0,044
-222,898	41,634	-0,044	0,028
-221,884	73,809	-0,068	-0,051
-220,869	-200,000	0,023	0,161
-219,855	-200,000	-0,018	0,103
-218,840	99,400	0,074	0,060
-217,825	-142,067	-0,028	0,002
-216,811	112,758	-0,099	-0,085
-215,796	709,924	0,061	-0,115
-214,782	-25,712	-0,026	-0,011
-213,767	800,000	0,036	0,083
-212,752	-32,771	-0,156	-0,062
-211,738	800,000	0,032	0,070
-210,723	511,715	-0,059	-0,098
-209,709	-200,000	-0,011	0,089
-208,694	472,660	-0,082	0,131
-207,679	-81,225	0,067	0,016
-206,665	49,529	0,134	-0,090
-205,650	-200,000	-0,002	0,121
-204,636	-200,000	-0,004	0,134
-203,621	376,329	-0,035	0,051
-202,606	160,235	-0,034	0,034
-201,592	800,000	-0,021	0,043
-200,577	-170,080	-0,115	0,003
-199,563	411,028	-0,056	-0,084
-198,548	624,448	0,021	-0,038
-197,533	20,066	0,060	0,034
-196,519	174,759	0,132	-0,136
-195,504	-108,796	0,089	0,013
-194,490	81,523	-0,075	-0,057
-193,475	122,078	0,064	0,056
-192,460	283,749	0,014	0,018
-191,446	-5,013	-0,080	-0,039
-190,431	-200,000	0,015	0,072
-189,417	97,125	-0,109	0,088
-188,402	643,042	-0,028	0,050
-187,387	-200,000	0,014	-0,104
-186,373	-200,000	-0,020	-0,083
-185,358	-20,149	-0,104	-0,045
-184,344	-115,544	-0,099	-0,013
-183,329	-22,051	0,065	0,028
-182,315	-137,659	0,058	0,005
-181,300	-132,796	-0,087	-0,008
-180,285	544,685	0,001	0,002
-179,271	534,315	-0,021	0,036
-178,256	167,940	-0,033	0,034
-177,242	7,257	-0,117	0,062
-176,227	186,674	0,083	0,088
-175,212	251,910	-0,035	0,042
-174,198	-69,274	0,093	-0,025
-173,183	-200,000	0,094	-0,345
-172,169	800,000	-0,042	-0,099
-171,154	-200,000	0,050	-0,212
-170,139	-200,000	0,016	0,062
-169,125	238,339	0,058	-0,069
-168,110	800,000	0,028	-0,058
-167,096	7,001	-0,102	0,054
-166,081	-200,000	0,000	0,134
-165,066	79,413	-0,032	-0,024
-164,052	-174,568	0,064	-0,001
-163,037	153,799	0,082	-0,080
-162,023	493,128	-0,042	0,069
-161,008	30,146	0,114	0,069
-159,993	-82,505	-0,070	0,016
-158,979	-52,155	0,124	0,041
-157,964	223,384	-0,031	0,035
-156,950	621,695	-0,051	-0,091
-155,935	-200,000	0,014	-0,062
-154,920	-200,000	-0,004	-0,048
-153,906	-200,000	-0,016	0,050
-152,891	-11,312	-0,048	0,022
-151,877	-200,000	-0,083	0,000
-150,862	516,942	-0,039	-0,064
-149,847	-76,968	0,105	-0,026
-148,833	800,000	0,006	-0,013
-147,818	52,098	0,052	0,035
-146,804	-47,341	0,134	-0,046
-145,789	-200,000	-0,015	-0,097
-144,775	800,000	-0,024	-0,067
-143,760	-200,000	-0,005	-0,188
-142,745	800,000	-0,086	-0,184
-141,731	-59,668	0,076	0,023
-140,716	-27,678	0,167	0,068
-139,702	500,252	-0,039	-0,063
-138,687	800,000	-0,012	0,026
-137,672	-133,859	-0,082	-0,007
-136,658	-86,447	0,112	-0,024
-135,643	-45,338	-0,131	-0,046
-134,629	133,178	-0,049	-0,044
-133,614	431,129	0,104	-0,161
-132,599	-200,000	-0,047	-0,218
-131,585	-200,000	0,008	-0,037
-130,570	-12,078	0,095	0,044
-129,556	-13,743	-0,065	0,030
-128,541	800,000	-0,038	-0,106
-127,526	57,107	-0,097	0,067
-126,512	80,337	0,099	0,075
-125,497	270,997	-0,101	0,126
-124,483	-200,000	0,038	0,151
-123,468	-200,000	-0,009	-0,135
-122,453	-200,000	-0,024	-0,099
-121,439	-76,195	-0,189	-0,047
-120,424	-200,000	0,009	0,059
-119,410	155,917	0,099	0,097
-118,395	354,743	-0,044	0,062
-117,380	-138,172	0,069	-0,005
-116,366	-200,000	-0,053	-0,203
-115,351	800,000	-0,051	0,101
-114,337	276,084	0,009	-0,012
-113,322	800,000	-0,057	0,147
-112,307	-84,810	-0,074	0,016
-111,293	404,092	0,045	-0,067
-110,278	-44,430	0,171	0,060
-109,264	-11,111	-0,175	-0,081
-108,249	-200,000	-0,005	-0,058
-107,234	-200,000	-0,012	-0,126
-106,220	800,000	0,048	-0,095
-105,205	-16,608	0,097	0,043
-104,191	-200,000	0,030	0,162
-103,176	-121,338	-0,053	0,006
-102,162	-162,325	0,066	-0,002
-101,147	49,351	-0,059	-0,039
-100,132	154,468	-0,004	0,004
-99,118	800,000	-0,016	-0,038
-98,103	132,926	0,060	-0,055
-97,089	-200,000	-0,014	0,100
-96,074	-200,000	-0,007	-0,054
-95,059	57,053	-0,129	0,089
-94,045	-200,000	-0,002	-0,013
-93,030	-73,493	-0,078	0,020
-92,016	800,000	0,021	-0,045
-91,001	-187,276	-0,078	-0,001
-89,986	-53,893	0,141	0,045
-88,972	800,000	0,080	-0,204
-87,957	559,980	0,056	0,096
-86,943	212,105	-0,091	0,101
-85,928	-200,000	0,000	-0,015
-84,913	800,000	-0,034	-0,068
-83,899	320,886	-0,047	-0,063
-82,884	-200,000	-0,001	-0,008
-81,870	31,004	0,128	0,077
-80,855	654,397	-0,045	0,082
-79,840	116,170	-0,031	0,026
-78,826	-200,000	0,042	-0,155
-77,811	73,104	0,029	-0,022
-76,797	-66,826	0,029	-0,008
-75,782	222,645	0,031	-0,035
-74,767	695,207	0,045	-0,084
-73,753	-27,457	-0,043	0,018
-72,738	800,000	-0,033	-0,074
-71,724	800,000	-0,056	0,128
-70,709	-133,727	-0,105	-0,009
-69,694	-116,892	0,147	-0,019
-68,680	100,964	0,035	-0,028
-67,665	438,015	0,086	-0,133
-66,651	348,574	-0,012	0,017
-65,636	-200,000	-0,013	-0,049
-64,622	191,334	-0,115	0,123
-63,607	79,649	-0,084	-0,064
-62,592	-200,000	-0,102	-0,000
-61,578	265,684	-0,060	0,074
-60,563	-200,000	0,042	0,237
-59,549	-200,000	-0,056	0,201
-58,534	39,347	-1,839	-1,161
-57,519	474,696	-1,344	-2,149
-56,505	-200,000	-0,376	-4,372
-55,490	423,027	0,995	1,514
-54,476	800,000	4,949	11,180
-53,461	-200,000	20,873	329,920
-52,446	800,000	757,163	2324,248
-51,432	550,598	1662,369	2826,720
-50,417	73,503	1664,322	1229,025
-49,403	18,675	1537,393	866,144
-48,388	12,669	1460,356	793,664
-47,373	19,056	1450,972	819,215
-46,359	15,832	1440,327	797,824
-45,344	10,942	1436,080	772,138
-44,330	10,867	1434,375	770,830
-43,315	10,879	1432,311	769,750
-42,300	10,913	1430,537	768,927
-41,286	10,915	1429,353	768,269
-40,271	10,853	1428,147	767,298
-39,257	10,856	1426,928	766,625
-38,242	10,912	1425,769	766,238
-37,227	10,877	1424,756	765,498
-36,213	10,887	1423,449	764,813
-35,198	10,920	1422,292	764,317
-34,184	10,961	1421,483	764,042
-33,169	10,893	1420,007	762,901
-32,154	10,950	1418,909	762,546
-31,140	11,017	1417,670	762,167
-30,125	10,991	1416,535	761,406
-29,111	10,976	1415,351	760,669
-28,096	10,958	1414,271	759,974
-27,082	10,899	1413,252	759,116
-26,067	10,859	1412,428	758,457
-25,052	10,909	1411,064	757,928
-24,038	10,896	1410,027	757,279
-23,023	10,890	1409,248	756,805
-22,009	10,865	1408,052	756,015
-20,994	10,806	1407,246	755,276
-19,979	10,861	1406,242	754,964
-18,965	10,868	1405,256	754,438
-17,950	10,826	1404,246	753,671
-16,936	10,808	1403,570	753,193
-15,921	10,751	1402,604	752,378
-14,906	10,777	1401,484	751,867
-13,892	10,816	1400,546	751,517
-12,877	10,816	1399,955	751,172
-11,863	10,787	1398,859	750,417
-10,848	10,737	1398,100	749,748
-9,833	10,740	1397,242	749,271
-8,819	10,671	1396,402	748,473
-7,804	10,652	1395,697	747,977
-6,790	10,683	1394,468	747,434
-5,775	10,712	1393,458	746,996
-4,760	10,672	1392,664	746,356
-3,746	10,677	1391,598	745,777
-2,731	10,687	1390,920	745,432
-1,717	10,667	1389,897	744,760
-0,702	10,645	1388,208	743,727
0,313	14,675	1301,590	715,789
1,327	30,981	692,960	418,180
2,342	47,590	120,409	79,102
3,356	2,698	16,484	8,405
4,371	6,751	3,438	1,799
5,386	7,127	0,911	0,478
6,400	800,000	0,167	0,493
7,415	200,209	-0,165	-0,179
8,429	126,066	-0,216	-0,192
9,444	115,539	-0,301	-0,259
10,459	13,765	-0,294	-0,161
11,473	29,113	-0,290	-0,173
12,488	133,963	-0,193	-0,176
13,502	26,381	-0,277	-0,163
14,517	149,920	-0,251	-0,240
15,531	8,146	-0,384	-0,202
16,546	-8,371	-0,454	-0,214
17,561	92,240	-0,373	-0,296
18,575	-139,491	-0,226	-0,017
19,590	205,096	-0,146	-0,160
20,604	-131,316	-0,197	-0,018
21,619	31,461	-0,562	-0,340
22,634	77,137	-0,513	-0,384
23,648	69,990	-0,403	-0,293
24,663	219,110	-0,335	-0,377
25,677	139,584	-0,277	-0,257
26,692	100,987	-0,273	-0,224
27,707	48,097	-0,317	-0,208
28,721	138,641	-0,399	-0,369
29,736	4,998	-0,329	-0,170
30,750	11,261	-0,434	-0,233
31,765	329,089	-0,201	-0,272
32,780	60,014	-0,367	-0,254
33,794	-66,735	-0,379	-0,105
34,809	157,190	-0,196	-0,191
35,823	-63,979	-0,610	-0,174
36,838	68,654	-0,308	-0,222
37,853	-26,854	-0,428	-0,175
38,867	62,771	-0,360	-0,253
39,882	36,446	-0,313	-0,194
40,896	33,493	-0,389	-0,237
41,911	42,416	-0,266	-0,170
42,926	17,833	-0,383	-0,214
43,940	140,882	-0,368	-0,342
44,955	143,023	-0,312	-0,292
45,969	251,416	-0,234	-0,281
46,984	31,628	-0,326	-0,197
47,999	-101,890	-0,259	-0,044
49,013	40,336	-0,414	-0,261
50,028	110,408	-0,348	-0,294
51,042	235,319	-0,294	-0,341
52,057	133,925	-0,266	-0,242
53,071	-35,286	-0,390	-0,148
54,086	71,545	-0,333	-0,243
55,101	409,175	-0,222	-0,331
56,115	-22,538	-0,511	-0,216
57,130	217,118	-0,247	-0,277
58,144	134,016	-0,391	-0,356
59,159	55,035	-0,419	-0,284
60,174	12,689	-0,498	-0,269
61,188	15,557	-0,428	-0,235
62,203	57,645	-0,352	-0,241
63,217	120,351	-0,297	-0,259
64,232	-7,354	-0,282	-0,134
65,247	-15,463	-0,395	-0,176
66,261	20,142	-0,327	-0,185
67,276	77,927	-0,453	-0,338
68,290	191,314	-0,285	-0,301
69,305	-57,363	-0,360	-0,110
70,320	36,430	-0,380	-0,235
71,334	83,629	-0,236	-0,181
72,349	-10,935	-0,349	-0,161
73,363	113,596	-0,329	-0,281
74,378	109,862	-0,265	-0,223
75,393	88,396	-0,320	-0,249
76,407	-123,316	-0,411	-0,045
77,422	270,292	-0,208	-0,257
78,436	-1,931	-0,283	-0,139
79,451	41,049	-0,296	-0,187
80,466	11,251	-0,233	-0,125
81,480	162,595	-0,153	-0,151
82,495	121,274	-0,299	-0,261
83,509	261,722	-0,188	-0,229
84,524	30,169	-0,222	-0,132
85,539	122,410	-0,215	-0,188
86,553	800,000	-0,135	-0,269
87,568	238,232	-0,184	-0,214
88,582	89,665	-0,316	-0,247
89,597	108,984	-0,300	-0,251
90,611	206,521	-0,224	-0,245
91,626	53,386	-0,325	-0,218
92,641	-84,974	-0,295	-0,064
93,655	1,766	-0,305	-0,153
94,670	25,791	-0,250	-0,146
95,684	92,162	-0,310	-0,244
96,699	99,951	-0,265	-0,215
97,714	800,000	-0,096	-0,252
98,728	28,972	-0,195	-0,116
99,743	31,320	-0,300	-0,180
100,757	94,823	-0,216	-0,172
101,772	800,000	-0,117	-0,249
102,787	55,635	-0,268	-0,182
103,801	283,123	-0,187	-0,235
104,816	-1,419	-0,356	-0,175
105,830	155,300	-0,150	-0,144
106,845	37,411	-0,282	-0,175
107,860	45,921	-0,291	-0,188
108,874	-15,741	-0,299	-0,132
109,889	-13,561	-0,274	-0,123
110,903	114,341	-0,343	-0,292
111,918	137,671	-0,215	-0,197
112,933	40,658	-0,195	-0,123
113,947	210,268	-0,152	-0,167
114,962	-15,591	-0,159	-0,071
115,976	-56,248	-0,236	-0,073
116,991	-98,698	-0,201	0,036
118,006	9,456	-0,218	-0,115
119,020	33,742	-0,220	-0,133
120,035	2,831	-0,261	-0,132
121,049	-74,905	-0,266	0,066
122,064	-80,982	-0,213	-0,049
123,079	-4,618	-0,255	-0,122
124,093	5,752	-0,381	-0,196
125,108	270,766	-0,262	-0,323
126,122	800,000	-0,121	-0,243
127,137	24,036	-0,208	-0,120
128,151	-35,829	-0,314	-0,118
129,166	269,294	-0,187	-0,229
130,181	551,888	-0,132	-0,222
131,195	344,962	-0,189	-0,259
132,210	172,119	-0,225	-0,226
133,224	130,746	-0,236	-0,211
134,239	-118,416	-0,081	-0,010
135,254	21,711	-0,279	-0,158
136,268	-23,311	-0,187	-0,078
137,283	-24,808	-0,289	-0,119
138,297	81,692	-0,254	-0,192
139,312	-17,056	-0,219	-0,096
140,327	203,595	-0,207	-0,224
141,341	332,511	-0,118	-0,160
142,356	-16,901	-0,315	-0,138
143,370	-104,625	-0,229	-0,036
144,385	-20,930	-0,256	-0,109
145,400	61,357	-0,329	-0,228
146,414	99,857	-0,223	-0,180
147,429	81,223	-0,332	-0,249
148,443	726,524	-0,162	-0,303
149,458	49,452	-0,202	-0,132
150,473	-3,073	-0,307	-0,149
151,487	-34,473	-0,206	-0,078
152,502	490,819	-0,136	-0,217
153,516	144,206	-0,207	-0,192
154,531	-23,131	-0,240	-0,100
155,546	-134,317	-0,232	-0,020
156,560	-36,922	-0,156	-0,058
157,575	341,786	-0,141	-0,193
158,589	248,136	-0,134	-0,158
159,604	-132,007	-0,252	-0,023
160,619	169,081	-0,194	-0,193
161,633	75,686	-0,273	-0,201
162,648	-78,898	-0,213	-0,050
163,662	19,613	-0,180	-0,100
164,677	-34,855	-0,131	-0,050
165,692	113,369	-0,232	-0,196
166,706	-53,578	-0,390	-0,123
167,721	118,066	-0,281	-0,241
168,735	297,662	-0,114	-0,145
169,750	62,289	-0,294	-0,204
170,764	-88,938	-0,205	-0,042
171,779	-75,186	-0,205	-0,051
172,794	-127,048	-0,188	-0,019
173,808	159,117	-0,199	-0,193
174,823	-1,580	-0,373	-0,182
175,837	54,173	-0,316	-0,211
176,852	350,071	-0,126	-0,173
177,867	59,280	-0,269	-0,184
178,881	-6,849	-0,218	-0,103
179,896	177,345	-0,198	-0,200
180,910	-62,844	-0,291	-0,083
181,925	594,312	-0,177	-0,306
182,940	227,359	-0,300	-0,340
183,954	183,698	-0,246	-0,253
184,969	-77,495	-0,155	0,037
185,983	11,551	-0,166	-0,088
186,998	92,760	-0,241	-0,189
188,013	36,785	-0,204	-0,125
189,027	182,720	-0,208	-0,213
190,042	97,793	-0,248	-0,198
191,056	54,484	-0,216	-0,144
192,071	54,840	-0,262	-0,175
193,086	369,528	-0,154	-0,217
194,100	-11,669	-0,229	-0,104
195,115	7,313	-0,305	-0,157
196,129	288,456	-0,189	-0,238
197,144	164,020	-0,151	-0,148
198,159	539,468	-0,102	-0,169
199,173	-47,443	-0,213	-0,071
200,188	126,124	-0,173	-0,151
201,202	236,890	-0,129	-0,149
202,217	517,389	-0,164	-0,266
203,232	140,100	-0,190	-0,174
204,246	438,413	-0,121	-0,184
205,261	800,000	-0,115	-0,255
206,275	-116,591	-0,214	-0,027
207,290	-7,936	-0,231	-0,107
208,304	800,000	-0,130	-0,265
209,319	332,586	-0,103	-0,138
210,334	-200,000	-0,038	-0,115
211,348	380,593	-0,193	-0,275
212,363	-108,264	-0,247	-0,037
213,377	-33,585	-0,134	-0,051
214,392	23,154	-0,163	-0,092
215,407	-38,138	-0,161	-0,059
216,421	78,325	-0,259	-0,191
217,436	119,534	-0,191	-0,164
218,450	418,581	-0,133	-0,198
219,465	26,346	-0,232	-0,134
220,480	-39,081	-0,203	-0,074
221,494	211,834	-0,079	-0,086
222,509	800,000	-0,107	-0,246
223,523	-143,637	-0,099	0,006
224,538	90,798	-0,203	-0,157
225,553	236,451	-0,233	-0,267
226,567	340,139	-0,179	-0,243
227,582	350,994	-0,031	-0,043
228,596	134,513	-0,150	-0,135
229,611	119,260	-0,232	-0,198
230,626	50,752	-0,131	-0,086
231,640	61,074	-0,191	-0,131
232,655	-74,133	-0,427	-0,106
233,669	-5,632	-0,280	-0,132
234,684	347,613	-0,175	-0,239
235,699	800,000	-0,079	-0,169
236,713	445,163	-0,106	-0,162
237,728	15,779	-0,183	-0,099
238,742	-119,144	-0,138	-0,017
239,757	504,734	-0,097	-0,156
240,772	337,481	-0,124	-0,167
241,786	74,064	-0,137	-0,099
242,801	300,070	-0,184	-0,235
243,815	65,951	-0,177	-0,124
244,830	282,745	-0,128	-0,159
245,844	-93,325	-0,108	-0,021
246,859	52,456	-0,170	-0,112
247,874	174,184	-0,259	-0,258
248,888	186,304	-0,114	-0,117
249,903	89,641	-0,146	-0,112
250,917	-48,476	-0,087	-0,029
251,932	60,031	-0,196	-0,133
252,947	-53,772	-0,249	-0,078
253,961	209,805	-0,237	-0,257
254,976	60,364	-0,135	-0,092
255,990	31,905	-0,160	-0,095
257,005	149,418	-0,140	-0,131
258,020	13,987	-0,121	-0,065
259,034	178,907	-0,097	-0,098
260,049	205,353	-0,163	-0,175
261,063	-68,364	-0,133	-0,035
262,078	-200,000	-0,034	-0,155
263,093	34,467	-0,202	-0,121
264,107	51,913	-0,182	-0,119
265,122	-46,063	-0,153	-0,052
266,136	159,460	-0,094	-0,090
267,151	108,359	-0,134	-0,110
268,166	-108,030	-0,339	-0,050
269,180	317,000	-0,102	-0,134
270,195	228,255	-0,160	-0,179
271,209	-160,990	-0,258	-0,009
272,224	766,945	-0,150	-0,282
273,239	71,998	-0,125	-0,090
274,253	80,834	-0,160	-0,119
275,268	113,828	-0,116	-0,097
276,282	-82,730	-0,160	-0,035
277,297	60,983	-0,188	-0,129
278,312	36,101	-0,108	-0,065
279,326	-83,758	-0,070	-0,015
280,341	234,986	-0,149	-0,170
281,355	800,000	-0,041	-0,106
282,370	90,150	-0,159	-0,123
283,384	94,146	-0,161	-0,126
284,399	800,000	-0,071	-0,198
285,414	43,947	-0,209	-0,132
286,428	-130,342	-0,216	-0,020
287,443	-52,203	-0,137	0,043
288,457	-15,088	-0,159	-0,070
289,472	157,380	-0,109	-0,103
290,487	-159,305	-0,123	0,005
291,501	59,611	-0,152	-0,103
292,516	-98,108	-0,209	-0,037
293,530	207,696	-0,058	-0,063
294,545	62,422	-0,151	-0,104
295,560	78,145	-0,178	-0,131
296,574	83,852	-0,156	-0,117
297,589	325,340	-0,112	-0,147
298,603	-85,148	-0,186	0,040
299,618	162,277	-0,140	-0,135
300,633	176,685	-0,097	-0,097
301,647	146,311	-0,167	-0,154
302,662	800,000	-0,028	0,067
303,676	-76,375	-0,093	0,022
304,691	800,000	-0,058	-0,173
305,706	131,753	-0,192	-0,170
306,720	20,076	-0,237	-0,131
307,735	-53,007	-0,202	-0,063
308,749	-78,315	-0,143	-0,033
309,764	222,531	-0,122	-0,135
310,779	-20,255	-0,082	-0,035
311,793	11,064	-0,232	-0,121
312,808	28,646	-0,238	-0,138
313,822	96,044	-0,179	-0,140
314,837	-136,832	-0,242	0,019
315,852	-126,961	-0,101	-0,010
316,866	-101,901	-0,127	-0,021
317,881	70,466	-0,162	-0,115
318,895	-166,975	-0,066	-0,002
319,910	336,055	-0,188	-0,251
320,925	151,304	-0,196	-0,183
321,939	5,226	-0,108	-0,055
322,954	800,000	-0,107	-0,229
323,968	784,714	-0,044	0,083
324,983	467,322	-0,039	-0,061
325,997	-145,627	-0,202	-0,012
327,012	123,494	-0,189	-0,163
328,027	-51,617	-0,187	-0,059
329,041	68,045	-0,128	-0,090
330,056	584,258	-0,104	-0,176
331,070	98,051	-0,047	-0,037
332,085	109,812	-0,077	0,063
333,100	26,787	-0,149	-0,085
334,114	800,000	-0,082	-0,174
335,129	800,000	-0,070	-0,206
336,143	-8,324	-0,262	-0,120
337,158	310,668	-0,095	-0,122
338,173	-33,461	-0,132	-0,050
339,187	329,413	-0,172	-0,227
340,202	-86,809	-0,168	0,035
341,216	21,766	-0,088	-0,049
342,231	-94,626	-0,109	0,020
343,246	267,484	-0,166	-0,199
344,260	264,245	-0,164	-0,195
345,275	-200,000	-0,006	-0,064
346,289	-200,000	-0,011	-0,093
347,304	163,046	-0,088	-0,084
348,319	65,590	-0,158	-0,110
349,333	774,751	-0,121	-0,227
350,348	49,994	-0,061	-0,040
351,362	124,915	-0,150	-0,129
352,377	-13,575	-0,085	-0,038
353,392	196,190	-0,085	-0,089
354,406	18,894	-0,216	-0,118
355,421	206,220	1313,692	1400,258
356,435	158,585	1474,285	1400,744
