DTS Sentinel unit serial number:	SN410029Multiplexer serial number:	ORYXHardware model number:	OX2-SRSoftware version number:	ORYX F/W v4,00 Oryx Data Collector v3.7.2.0data status	okinstallation	B3 Nyhavnadifferential loss correction	single-endedforward channel	channel 1reverse channel	N/Adate	2023/12/02time	08:57:30forward acquisition time	300,00reverse acquisition time	0,00gamma	499,1914k internal	0,3195k external	0,3195temperature offset calibration	1,0000default loss term (dB/km)	0,3820temperature slope calibration	1,0000multiplexer offset coefficient	1,0000multiplexer slope coefficient	1,0000fibre end	0,00T internal ref (°C)	15,26T ext. ref 1 (°C)	-0,01T ext. ref 2 (°C)	-0,03length (m)	temperature (°C)	Stokes	anti-Stokes-744,400	193,519	-0,227	-0,251
-743,385	800,000	0,099	0,313
-742,371	693,167	-0,130	-0,250
-741,356	-200,000	0,011	0,416
-740,342	278,019	-0,174	-0,227
-739,327	-200,000	0,020	0,293
-738,312	81,780	-0,265	-0,209
-737,298	-200,000	0,032	0,256
-736,283	289,543	-0,165	-0,219
-735,269	-200,000	0,026	0,251
-734,254	459,987	-0,211	-0,343
-733,239	74,523	-0,171	0,131
-732,225	-200,000	-0,044	-0,270
-731,210	-175,760	0,101	-0,002
-730,196	-3,097	0,129	-0,065
-729,181	800,000	-0,028	0,068
-728,167	-25,280	-0,130	-0,056
-727,152	602,963	0,054	0,099
-726,137	186,670	-0,088	0,095
-725,123	800,000	-0,049	-0,129
-724,108	41,538	-0,147	-0,097
-723,094	620,563	-0,019	-0,035
-722,079	-200,000	0,006	-0,123
-721,064	359,478	-0,104	-0,152
-720,050	-189,176	0,045	0,000
-719,035	489,487	-0,042	-0,070
-718,021	-26,148	-0,114	0,048
-717,006	-200,000	-0,015	-0,168
-715,991	30,211	-0,070	-0,043
-714,977	476,823	-0,043	-0,071
-713,962	222,273	-0,043	-0,051
-712,948	-50,422	-0,088	-0,030
-711,933	-132,054	0,049	0,005
-710,918	-104,944	0,048	0,008
-709,904	-200,000	-0,001	0,007
-708,889	173,450	-0,146	-0,154
-707,875	800,000	-0,076	-0,165
-706,860	8,338	0,094	-0,051
-705,845	-112,202	0,148	-0,021
-704,831	103,936	0,054	0,046
-703,816	123,146	-0,084	0,076
-702,802	-17,809	-0,056	0,026
-701,787	17,747	0,017	0,010
-700,772	-10,283	-0,123	-0,059
-699,758	100,087	-0,150	-0,126
-698,743	620,132	0,062	-0,113
-697,729	57,389	-0,085	0,060
-696,714	215,089	-0,045	-0,052
-695,699	524,349	-0,032	-0,054
-694,685	800,000	-0,038	-0,111
-693,670	151,085	-0,102	0,101
-692,656	-32,220	-0,075	0,030
-691,641	800,000	0,026	0,064
-690,627	-23,104	0,192	0,084
-689,612	49,430	-0,115	-0,079
-688,597	-72,093	0,094	0,025
-687,583	800,000	-0,021	-0,048
-686,568	-172,423	-0,152	-0,003
-685,554	-3,289	-0,124	-0,062
-684,539	-143,784	0,029	0,002
-683,524	130,598	0,020	-0,018
-682,510	800,000	-0,014	-0,040
-681,495	-68,297	-0,093	0,026
-680,481	351,542	-0,070	-0,100
-679,466	-200,000	-0,053	-0,258
-678,451	197,229	-0,063	-0,070
-677,437	40,858	-0,096	-0,063
-676,422	-97,103	0,033	0,006
-675,408	-200,000	-0,036	-0,128
-674,393	66,769	-0,037	-0,027
-673,378	773,802	0,080	-0,160
-672,364	506,240	-0,091	0,154
-671,349	-91,776	0,139	0,028
-670,335	41,929	-0,022	0,014
-669,320	230,984	0,036	0,043
-668,305	133,395	-0,122	-0,115
-667,291	332,349	0,068	-0,096
-666,276	-131,749	-0,065	0,006
-665,262	517,583	-0,099	-0,170
-664,247	99,579	-0,124	0,104
-663,232	194,000	0,034	0,037
-662,218	-200,000	0,008	0,034
-661,203	-200,000	-0,006	-0,033
-660,189	47,610	0,067	0,045
-659,174	194,782	-0,059	0,065
-658,159	345,797	-0,011	-0,016
-657,145	612,086	0,075	-0,137
-656,130	-89,120	-0,080	-0,017
-655,116	456,055	-0,018	0,029
-654,101	-20,131	-0,054	0,024
-653,086	-79,918	0,106	0,026
-652,072	93,523	-0,098	0,080
-651,057	36,619	-0,195	-0,125
-650,043	63,743	0,084	-0,061
-649,028	-50,718	-0,086	0,029
-648,014	800,000	-0,026	0,053
-646,999	800,000	0,026	-0,055
-645,984	-200,000	-0,006	-0,053
-644,970	36,161	-0,080	0,051
-643,955	800,000	0,026	-0,069
-642,941	-120,885	-0,156	-0,019
-641,926	-123,928	0,067	-0,008
-640,911	40,839	0,124	-0,081
-639,897	141,015	0,018	-0,018
-638,882	159,522	0,056	0,057
-637,868	567,774	0,034	0,061
-636,853	174,546	-0,065	-0,068
-635,838	-72,477	-0,135	-0,036
-634,824	273,468	0,057	-0,073
-633,809	229,693	0,012	0,015
-632,795	-200,000	-0,011	-0,048
-631,780	-105,738	-0,097	-0,016
-630,765	170,163	0,032	0,034
-629,751	523,053	-0,053	-0,091
-628,736	249,190	-0,014	0,017
-627,722	-22,166	0,030	0,013
-626,707	13,576	-0,031	-0,017
-625,692	110,586	0,078	0,068
-624,678	-200,000	0,024	-0,113
-623,663	682,839	0,014	0,027
-622,649	676,850	-0,046	-0,087
-621,634	152,417	-0,144	-0,143
-620,619	214,071	-0,102	-0,118
-619,605	-72,861	0,056	-0,015
-618,590	800,000	0,014	0,031
-617,576	288,450	0,076	0,100
-616,561	436,083	0,034	-0,054
-615,546	-200,000	-0,014	-0,079
-614,532	-105,361	-0,137	0,022
-613,517	800,000	0,014	-0,039
-612,503	-34,549	-0,055	-0,022
-611,488	-200,000	0,046	0,162
-610,474	37,800	-0,065	0,042
-609,459	53,654	-0,100	-0,070
-608,444	-131,083	-0,016	0,002
-607,430	-200,000	-0,034	-0,214
-606,415	36,379	-0,154	-0,098
-605,401	800,000	-0,043	0,135
-604,386	76,357	0,010	-0,008
-603,371	-200,000	-0,001	0,072
-602,357	-200,000	-0,013	0,061
-601,342	402,604	-0,030	-0,046
-600,328	-113,705	-0,151	-0,021
-599,313	-5,147	-0,138	-0,069
-598,298	-79,300	0,138	0,034
-597,284	-90,563	-0,045	-0,009
-596,269	-13,951	0,057	0,027
-595,255	-200,000	0,004	0,065
-594,240	-200,000	-0,006	0,053
-593,225	122,475	-0,090	-0,081
-592,211	-200,000	0,009	-0,080
-591,196	800,000	0,006	0,014
-590,182	-28,645	0,061	-0,025
-589,167	800,000	-0,023	-0,059
-588,152	-200,000	0,008	-0,131
-587,138	-200,000	-0,003	-0,045
-586,123	92,422	0,092	-0,075
-585,109	30,100	-0,176	-0,109
-584,094	-115,650	0,160	-0,022
-583,079	13,105	-0,022	-0,013
-582,065	-109,848	0,051	-0,008
-581,050	-83,136	0,180	-0,042
-580,036	800,000	-0,013	-0,038
-579,021	-200,000	-0,006	-0,038
-578,006	-137,563	0,032	0,003
-576,992	-200,000	0,032	0,189
-575,977	17,548	0,131	0,075
-574,963	99,479	-0,049	0,041
-573,948	-157,842	-0,132	-0,006
-572,934	16,794	-0,036	0,020
-571,919	305,066	-0,051	-0,068
-570,904	80,934	-0,058	0,045
-569,890	800,000	-0,019	-0,041
-568,875	600,640	0,040	0,073
-567,861	109,108	0,124	0,107
-566,846	578,588	0,021	0,037
-565,831	-200,000	0,016	0,098
-564,817	259,810	0,028	-0,034
-563,802	176,036	0,079	-0,083
-562,788	-128,440	0,068	-0,007
-561,773	-200,000	0,018	-0,085
-560,758	-85,093	-0,061	-0,014
-559,744	-200,000	-0,039	0,158
-558,729	676,522	-0,062	0,118
-557,715	113,965	-0,049	0,043
-556,700	-16,172	-0,166	-0,076
-555,685	161,849	0,068	-0,069
-554,671	177,236	-0,012	0,012
-553,656	67,486	0,088	0,065
-552,642	-50,278	0,063	0,022
-551,627	-200,000	0,016	0,094
-550,612	-200,000	0,019	0,097
-549,598	106,917	-0,105	-0,090
-548,583	-200,000	0,008	-0,044
-547,569	259,768	0,033	-0,042
-546,554	5,995	0,044	0,023
-545,539	550,998	0,058	0,102
-544,525	-200,000	-0,021	0,070
-543,510	-200,000	0,012	-0,073
-542,496	-140,595	-0,108	0,008
-541,481	-200,000	0,026	-0,103
-540,466	-130,035	-0,125	-0,012
-539,452	87,337	-0,110	0,088
-538,437	-98,775	0,067	0,012
-537,423	-4,589	-0,042	-0,021
-536,408	111,965	0,103	0,090
-535,393	800,000	-0,052	-0,146
-534,379	-200,000	0,034	-0,132
-533,364	-90,303	-0,076	0,016
-532,350	686,829	0,048	-0,090
-531,335	-200,000	0,030	0,122
-530,321	2,296	-0,116	0,060
-529,306	419,591	0,053	0,083
-528,291	237,770	-0,076	0,092
-527,277	800,000	-0,030	0,065
-526,262	747,205	0,039	0,077
-525,248	231,676	0,005	0,006
-524,233	-200,000	0,017	0,153
-523,218	78,456	0,086	-0,066
-522,204	63,743	0,008	0,006
-521,189	800,000	-0,034	0,081
-520,175	-200,000	-0,015	-0,060
-519,160	173,225	-0,009	0,009
-518,145	-200,000	0,010	-0,110
-517,131	464,079	-0,022	-0,035
-516,116	-200,000	0,015	-0,142
-515,102	-138,485	-0,064	-0,005
-514,087	-47,234	0,137	-0,048
-513,072	291,744	-0,002	0,002
-512,058	-200,000	0,004	-0,025
-511,043	-200,000	0,016	0,128
-510,029	24,976	-0,086	0,052
-509,014	127,180	0,030	-0,028
-507,999	-11,745	-0,095	0,045
-506,985	271,478	-0,051	-0,065
-505,970	800,000	-0,048	0,138
-504,956	-92,082	0,061	0,012
-503,941	372,712	-0,037	0,055
-502,926	574,238	0,029	0,051
-501,912	-200,000	-0,058	0,241
-500,897	-138,878	0,044	0,003
-499,883	17,676	-0,157	-0,090
-498,868	-200,000	-0,002	0,023
-497,853	450,243	-0,045	-0,071
-496,839	-13,631	-0,070	-0,033
-495,824	-107,100	0,092	-0,015
-494,810	202,482	-0,028	0,031
-493,795	-176,606	0,196	-0,004
-492,781	-200,000	0,014	0,094
-491,766	-200,000	-0,022	-0,112
-490,751	-200,000	-0,007	0,023
-489,737	-122,293	0,121	0,014
-488,722	-200,000	-0,006	0,109
-487,708	165,819	-0,059	0,061
-486,693	184,704	-0,097	0,104
-485,678	-135,575	-0,082	-0,007
-484,664	77,253	-0,011	-0,009
-483,649	800,000	-0,032	-0,074
-482,635	-81,779	-0,190	-0,045
-481,620	800,000	0,027	0,056
-480,605	-200,000	-0,012	0,106
-479,591	-71,137	0,108	0,029
-478,576	-200,000	0,015	0,051
-477,562	-20,131	0,038	0,017
-476,547	-200,000	-0,022	-0,097
-475,532	-133,983	-0,030	-0,003
-474,518	111,606	0,071	-0,062
-473,503	800,000	-0,026	0,068
-472,489	-200,000	-0,018	0,073
-471,474	-200,000	-0,037	0,121
-470,459	377,446	-0,061	-0,090
-469,445	-164,540	-0,084	0,003
-468,430	84,682	-0,040	-0,031
-467,416	208,158	-0,018	0,021
-466,401	800,000	0,022	-0,064
-465,386	353,026	-0,023	0,032
-464,372	365,288	0,027	0,039
-463,357	39,248	-0,057	-0,036
-462,343	800,000	0,016	-0,032
-461,328	704,407	-0,099	-0,188
-460,313	27,696	0,015	0,009
-459,299	-200,000	-0,001	-0,078
-458,284	-0,351	0,094	0,048
-457,270	130,420	-0,016	-0,015
-456,255	-200,000	-0,027	0,137
-455,241	-154,800	0,062	-0,003
-454,226	739,788	-0,033	-0,065
-453,211	-200,000	0,023	-0,111
-452,197	-35,290	0,031	-0,012
-451,182	-194,758	-0,057	-0,000
-450,168	360,019	-0,066	0,095
-449,153	-26,460	-0,051	0,021
-448,138	119,960	-0,042	-0,038
-447,124	-200,000	0,001	-0,020
-446,109	491,459	-0,034	-0,056
-445,095	-45,827	0,055	-0,019
-444,080	192,724	-0,011	-0,012
-443,065	800,000	0,069	-0,152
-442,051	16,867	0,066	0,038
-441,036	-200,000	-0,003	-0,037
-440,022	-200,000	-0,031	-0,229
-439,007	800,000	-0,037	-0,109
-437,992	-200,000	-0,036	0,126
-436,978	-130,498	0,059	0,006
-435,963	-200,000	0,002	0,088
-434,949	40,982	0,098	0,064
-433,934	800,000	0,037	-0,101
-432,919	-18,173	-0,033	-0,015
-431,905	-200,000	0,002	-0,058
-430,890	-29,418	-0,031	0,013
-429,876	-2,152	0,120	-0,060
-428,861	328,532	-0,046	0,064
-427,846	-3,073	-0,114	-0,057
-426,832	527,198	0,027	-0,046
-425,817	612,724	0,092	-0,167
-424,803	-112,533	-0,221	0,031
-423,788	-200,000	0,002	0,115
-422,773	-38,765	0,083	-0,031
-421,759	-200,000	-0,045	0,234
-420,744	-200,000	-0,007	-0,060
-419,730	211,364	-0,029	-0,032
-418,715	361,906	-0,111	-0,160
-417,701	86,037	0,144	-0,114
-416,686	-40,166	-0,170	-0,063
-415,671	-125,740	0,122	-0,013
-414,657	72,055	0,121	0,091
-413,642	-105,508	-0,123	-0,020
-412,628	51,459	-0,051	-0,035
-411,613	-55,492	0,057	0,018
-410,598	-200,000	0,007	0,021
-409,584	-200,000	0,001	0,011
-408,569	-74,517	0,063	-0,016
-407,555	314,565	0,014	0,019
-406,540	-170,832	0,072	0,002
-405,525	-200,000	0,001	-0,131
-404,511	707,174	0,058	-0,111
-403,496	-15,337	-0,191	0,088
-402,482	692,288	0,049	0,092
-401,467	37,514	-0,096	-0,061
-400,452	441,539	-0,045	-0,070
-399,438	95,467	-0,051	-0,041
-398,423	-110,401	0,121	0,018
-397,409	-77,430	-0,221	-0,055
-396,394	800,000	-0,013	-0,033
-395,379	612,626	-0,052	-0,093
-394,365	-200,000	-0,000	-0,033
-393,350	23,652	0,132	0,078
-392,336	507,649	0,030	-0,050
-391,321	16,270	-0,015	-0,008
-390,306	-55,132	0,088	0,028
-389,292	-122,244	0,071	0,008
-388,277	800,000	-0,019	0,044
-387,263	17,605	-0,066	0,038
-386,248	-24,161	0,106	0,045
-385,233	33,952	0,091	-0,057
-384,219	-200,000	0,011	0,049
-383,204	101,647	-0,117	-0,098
-382,190	800,000	0,032	-0,083
-381,175	58,601	0,103	0,072
-380,160	19,522	-0,026	-0,015
-379,146	-61,944	0,086	0,026
-378,131	-200,000	0,031	0,212
-377,117	8,267	0,023	0,012
-376,102	800,000	-0,037	0,089
-375,088	-200,000	0,011	-0,071
-374,073	800,000	-0,049	-0,137
-373,058	-200,000	-0,023	0,138
-372,044	800,000	-0,013	0,034
-371,029	-200,000	-0,010	-0,065
-370,015	-63,385	0,082	0,024
-369,000	-22,017	-0,181	-0,079
-367,985	-24,630	0,099	-0,042
-366,971	-200,000	0,030	0,108
-365,956	196,767	0,073	0,080
-364,942	-152,816	0,133	-0,007
-363,927	73,310	0,125	0,094
-362,912	800,000	-0,042	0,094
-361,898	-200,000	-0,017	-0,081
-360,883	169,808	0,059	-0,060
-359,869	-200,000	0,039	-0,145
-358,854	-200,000	-0,011	0,045
-357,839	393,783	-0,041	0,062
-356,825	626,014	0,056	0,101
-355,810	163,195	0,145	0,146
-354,796	800,000	0,024	-0,057
-353,781	25,876	-0,116	0,069
-352,766	-71,467	0,122	-0,033
-351,752	29,686	-0,144	0,088
-350,737	182,734	0,046	-0,049
-349,723	-79,070	0,111	-0,027
-348,708	94,602	-0,083	-0,068
-347,693	600,498	0,081	-0,144
-346,679	-175,426	-0,144	0,003
-345,664	257,152	0,063	-0,078
-344,650	372,199	-0,028	0,041
-343,635	-92,457	0,017	0,003
-342,620	212,529	0,085	0,096
-341,606	76,558	0,018	-0,014
-340,591	506,070	0,070	-0,117
-339,577	-45,301	0,033	-0,012
-338,562	-200,000	-0,002	0,012
-337,548	-122,826	-0,112	-0,013
-336,533	-138,833	-0,058	-0,004
-335,518	33,171	0,043	-0,027
-334,504	-200,000	0,013	0,058
-333,489	137,045	0,042	0,040
-332,475	-200,000	-0,018	-0,089
-331,460	581,928	-0,045	0,080
-330,445	-60,379	0,115	-0,035
-329,431	-38,631	0,120	-0,045
-328,416	-200,000	-0,029	0,139
-327,402	-32,550	0,100	0,040
-326,387	800,000	0,029	-0,075
-325,372	-200,000	-0,000	-0,076
-324,358	-110,566	-0,033	-0,005
-323,343	135,809	0,076	0,071
-322,329	800,000	-0,012	-0,031
-321,314	-57,548	0,102	-0,032
-320,299	800,000	0,055	0,140
-319,285	34,699	-0,030	0,019
-318,270	121,511	0,029	0,026
-317,256	-186,976	-0,046	0,000
-316,241	-178,869	-0,044	0,001
-315,226	165,685	0,148	0,150
-314,212	240,068	0,081	0,097
-313,197	-200,000	-0,006	-0,068
-312,183	-83,877	0,099	-0,022
-311,168	-200,000	-0,011	-0,049
-310,153	266,362	0,087	-0,110
-309,139	-73,470	-0,166	0,043
-308,124	-200,000	-0,005	0,039
-307,110	800,000	0,020	-0,041
-306,095	166,785	0,152	0,154
-305,080	-200,000	0,002	-0,184
-304,066	-200,000	0,005	-0,050
-303,051	-20,314	-0,096	-0,042
-302,037	-72,582	0,063	-0,017
-301,022	283,716	0,031	0,040
-300,008	800,000	-0,007	0,015
-298,993	457,994	0,053	0,085
-297,978	-17,173	-0,103	-0,046
-296,964	-200,000	-0,000	0,035
-295,949	292,185	0,024	0,031
-294,935	105,277	0,009	-0,008
-293,920	33,023	-0,134	-0,083
-292,905	-200,000	0,001	0,016
-291,891	-97,988	0,053	0,010
-290,876	149,543	0,042	0,041
-289,862	-117,263	-0,076	0,010
-288,847	25,550	0,080	-0,048
-287,832	800,000	0,037	-0,081
-286,818	256,923	0,079	0,097
-285,803	-200,000	0,023	0,082
-284,789	156,362	0,091	-0,090
-283,774	800,000	0,050	0,142
-282,759	-200,000	0,059	0,192
-281,745	-200,000	-0,021	0,068
-280,730	-200,000	-0,013	-0,102
-279,716	-200,000	0,018	-0,071
-278,701	-70,821	0,116	-0,031
-277,686	11,118	0,191	0,104
-276,672	-102,975	-0,075	-0,013
-275,657	170,028	-0,033	0,034
-274,643	335,595	-0,118	-0,164
-273,628	-200,000	-0,016	-0,138
-272,613	-200,000	0,050	-0,183
-271,599	-38,436	-0,089	-0,033
-270,584	800,000	-0,021	0,051
-269,570	-107,246	-0,056	-0,009
-268,555	57,089	0,035	0,024
-267,540	309,358	-0,106	-0,142
-266,526	-200,000	0,046	-0,167
-265,511	89,225	0,024	-0,019
-264,497	187,179	0,031	-0,033
-263,482	-200,000	-0,004	-0,039
-262,467	-200,000	0,028	-0,103
-261,453	-200,000	-0,033	0,174
-260,438	-200,000	-0,015	0,051
-259,424	-91,771	-0,023	-0,005
-258,409	-95,558	-0,174	0,033
-257,395	-200,000	0,015	-0,058
-256,380	-200,000	0,001	0,011
-255,365	31,954	0,029	-0,018
-254,351	-48,945	-0,061	-0,021
-253,336	150,841	0,115	-0,111
-252,322	-60,807	-0,114	0,034
-251,307	443,882	-0,047	-0,074
-250,292	-69,007	0,065	-0,018
-249,278	424,764	-0,003	0,005
-248,263	-200,000	-0,013	0,044
-247,249	125,944	-0,106	0,095
-246,234	-200,000	0,002	-0,104
-245,219	-16,959	-0,128	-0,058
-244,205	474,776	0,047	-0,076
-243,190	800,000	0,050	0,103
-242,176	-131,172	0,117	0,011
-241,161	299,332	0,063	0,083
-240,146	-200,000	0,021	0,087
-239,132	-200,000	0,001	-0,077
-238,117	468,447	-0,078	-0,125
-237,103	141,924	-0,026	0,024
-236,088	-51,223	-0,084	-0,028
-235,073	-151,248	0,186	0,010
-234,059	153,684	0,107	0,104
-233,044	-47,318	-0,132	-0,046
-232,030	-200,000	-0,018	0,071
-231,015	202,309	-0,101	-0,111
-230,000	-114,792	-0,035	0,005
-228,986	-125,477	0,058	-0,006
-227,971	-114,912	0,117	0,016
-226,957	645,111	0,071	0,130
-225,942	-200,000	-0,019	0,171
-224,927	-51,764	0,059	-0,019
-223,913	-76,544	-0,135	0,034
-222,898	482,019	-0,077	0,125
-221,884	-19,588	-0,056	0,025
-220,869	268,495	-0,051	0,064
-219,855	358,478	0,035	0,050
-218,840	104,271	0,106	0,089
-217,825	61,548	-0,086	-0,061
-216,811	575,165	0,031	0,054
-215,796	650,453	-0,049	-0,090
-214,782	391,203	0,031	-0,046
-213,767	-140,740	0,103	0,007
-212,752	800,000	0,025	0,051
-211,738	394,305	-0,011	0,016
-210,723	-200,000	0,003	0,117
-209,709	188,736	0,066	0,071
-208,694	280,950	-0,033	-0,043
-207,679	-200,000	0,001	-0,039
-206,665	221,925	0,024	0,028
-205,650	245,248	-0,134	0,161
-204,636	800,000	-0,048	0,103
-203,621	-200,000	-0,004	0,148
-202,606	800,000	-0,033	0,084
-201,592	30,138	0,019	0,012
-200,577	314,778	-0,042	-0,056
-199,563	-190,224	-0,030	0,000
-198,548	-143,743	0,069	0,005
-197,533	32,866	0,022	0,014
-196,519	67,103	0,122	-0,088
-195,504	682,277	0,020	0,037
-194,490	133,632	-0,061	-0,056
-193,475	373,201	-0,025	-0,036
-192,460	7,885	-0,102	-0,054
-191,446	800,000	0,042	-0,104
-190,431	800,000	0,017	0,034
-189,417	-200,000	-0,019	0,150
-188,402	-88,144	0,101	0,021
-187,387	218,331	0,065	-0,074
-186,373	-38,741	-0,140	0,053
-185,358	-120,685	-0,049	0,006
-184,344	23,467	-0,015	-0,009
-183,329	767,419	0,071	0,138
-182,315	-48,796	-0,178	-0,061
-181,300	-79,698	0,082	-0,019
-180,285	-0,367	0,068	0,035
-179,271	16,480	-0,149	0,084
-178,256	25,095	-0,043	0,025
-177,242	101,247	-0,024	-0,020
-176,227	-200,000	-0,002	0,047
-175,212	-200,000	-0,007	0,128
-174,198	-1,048	-0,090	-0,045
-173,183	299,212	0,056	-0,073
-172,169	800,000	0,054	-0,161
-171,154	568,645	0,066	-0,115
-170,139	9,756	0,059	0,032
-169,125	322,160	0,009	-0,013
-168,110	-134,990	0,164	0,014
-167,096	800,000	-0,039	0,121
-166,081	-57,409	-0,109	0,034
-165,066	-200,000	0,001	-0,033
-164,052	-34,937	0,102	-0,039
-163,037	800,000	0,070	0,145
-162,023	800,000	0,047	0,095
-161,008	114,016	-0,040	-0,035
-159,993	-200,000	-0,002	0,132
-158,979	117,720	-0,109	-0,096
-157,964	230,822	-0,083	-0,097
-156,950	-200,000	0,004	-0,060
-155,935	-0,570	0,076	-0,038
-154,920	-78,345	0,093	0,023
-153,906	-85,761	0,121	-0,027
-152,891	214,982	-0,045	0,050
-151,877	-107,270	-0,142	-0,022
-150,862	-83,165	-0,163	-0,037
-149,847	631,923	-0,039	-0,070
-148,833	291,424	0,142	-0,185
-147,818	-167,567	0,134	0,004
-146,804	-4,513	-0,115	0,056
-145,789	800,000	0,033	0,077
-144,775	-200,000	0,002	0,131
-143,760	-63,741	0,095	-0,028
-142,745	-200,000	0,001	-0,058
-141,731	94,271	-0,046	0,037
-140,716	365,593	0,062	-0,089
-139,702	400,872	0,077	-0,116
-138,687	-200,000	0,021	0,149
-137,672	-65,407	-0,115	-0,033
-136,658	-200,000	-0,007	0,053
-135,643	-200,000	-0,001	0,163
-134,629	-169,586	-0,119	-0,003
-133,614	-57,229	0,040	0,012
-132,599	-200,000	0,001	-0,007
-131,585	-187,693	0,053	-0,000
-130,570	-200,000	-0,020	-0,114
-129,556	64,850	-0,033	0,024
-128,541	-25,241	-0,052	0,022
-127,526	-93,225	0,139	-0,027
-126,512	-49,344	-0,156	0,053
-125,497	-200,000	0,032	0,102
-124,483	-0,663	-0,159	0,080
-123,468	-121,062	-0,116	0,014
-122,453	-178,188	0,131	-0,002
-121,439	-102,363	-0,016	0,003
-120,424	-162,720	0,003	0,000
-119,410	171,902	-0,040	-0,041
-118,395	17,598	-0,031	-0,017
-117,380	-111,224	0,085	0,012
-116,366	-67,482	0,015	-0,004
-115,351	-200,000	0,027	-0,287
-114,337	800,000	-0,043	-0,107
-113,322	109,550	-0,016	-0,014
-112,307	-200,000	-0,010	-0,147
-111,293	-111,440	-0,060	-0,009
-110,278	-200,000	-0,008	0,048
-109,264	635,568	-0,103	0,187
-108,249	32,971	-0,076	-0,047
-107,234	96,883	-0,087	-0,071
-106,220	-122,922	0,033	0,004
-105,205	-7,461	0,055	0,026
-104,191	518,724	0,029	0,049
-103,176	114,043	-0,022	-0,019
-102,162	800,000	-0,023	0,070
-101,147	113,769	0,155	0,134
-100,132	-13,078	-0,105	-0,048
-99,118	-200,000	0,027	-0,096
-98,103	83,827	0,034	0,027
-97,089	-23,426	0,170	0,072
-96,074	-115,239	0,093	0,012
-95,059	645,152	-0,054	-0,099
-94,045	118,816	0,063	0,055
-93,030	459,912	-0,036	0,057
-92,016	800,000	0,007	0,019
-91,001	106,026	0,130	-0,109
-89,986	735,346	-0,015	0,029
-88,972	-200,000	0,016	0,100
-87,957	510,551	0,121	0,200
-86,943	800,000	0,015	0,039
-85,928	-200,000	-0,018	0,075
-84,913	-142,557	-0,122	0,008
-83,899	-31,351	0,039	-0,015
-82,884	49,594	0,027	-0,018
-81,870	12,027	-0,053	-0,029
-80,855	-86,210	-0,093	-0,020
-79,840	317,192	0,047	-0,063
-78,826	354,131	-0,053	-0,075
-77,811	699,756	-0,057	-0,106
-76,797	142,653	-0,062	0,059
-75,782	490,734	0,053	-0,087
-74,767	33,922	0,038	0,024
-73,753	-95,226	-0,129	-0,025
-72,738	223,260	0,085	0,097
-71,724	-62,367	-0,189	-0,056
-70,709	800,000	0,057	0,127
-69,694	800,000	-0,015	0,040
-68,680	402,067	0,050	0,074
-67,665	391,186	-0,072	0,107
-66,651	50,282	0,049	0,033
-65,636	-170,548	-0,036	0,001
-64,622	155,050	-0,094	0,092
-63,607	44,653	-0,133	-0,086
-62,592	48,307	0,109	0,072
-61,578	297,501	-0,087	0,113
-60,563	222,537	0,050	0,057
-59,549	86,503	-0,058	-0,045
-58,534	-17,649	-1,553	-0,689
-57,519	321,459	-1,632	-2,207
-56,505	-200,000	-0,478	-4,413
-55,490	166,631	0,982	0,989
-54,476	800,000	4,861	11,139
-53,461	-200,000	18,223	285,084
-52,446	800,000	726,266	2223,484
-51,432	556,593	1641,562	2816,130
-50,417	79,561	1663,280	1264,644
-49,403	23,092	1537,032	892,285
-48,388	17,119	1460,250	818,789
-47,373	18,007	1450,219	817,407
-46,359	17,421	1440,800	809,266
-45,344	15,413	1436,159	797,041
-44,330	15,285	1434,351	795,395
-43,315	15,307	1432,545	794,466
-42,300	15,313	1430,856	793,525
-41,286	15,358	1429,542	792,982
-40,271	15,327	1428,346	792,137
-39,257	15,305	1427,071	791,293
-38,242	15,374	1425,811	790,893
-37,227	15,406	1424,490	790,280
-36,213	15,387	1423,266	789,478
-35,198	15,377	1422,049	788,723
-34,184	15,368	1421,423	788,304
-33,169	15,305	1419,824	787,088
-32,154	15,395	1418,870	786,953
-31,140	15,382	1417,543	786,125
-30,125	15,401	1416,565	785,641
-29,111	15,366	1415,416	784,806
-28,096	15,334	1414,269	783,992
-27,082	15,362	1412,978	783,372
-26,067	15,305	1411,880	782,469
-25,052	15,284	1410,954	781,825
-24,038	15,216	1410,288	781,104
-23,023	15,267	1408,890	780,539
-22,009	15,280	1407,940	780,041
-20,994	15,213	1407,384	779,392
-19,979	15,233	1406,131	778,761
-18,965	15,247	1405,120	778,232
-17,950	15,254	1404,202	777,725
-16,936	15,183	1403,285	776,855
-15,921	15,187	1401,980	776,124
-14,906	15,182	1401,312	775,697
-13,892	15,227	1400,214	775,271
-12,877	15,182	1399,415	774,588
-11,863	15,194	1398,536	774,123
-10,848	15,166	1397,696	773,499
-9,833	15,138	1396,929	772,915
-8,819	15,104	1395,859	772,132
-7,804	15,100	1394,870	771,538
-6,790	15,114	1393,887	771,026
-5,775	15,132	1392,866	770,514
-4,760	15,067	1392,046	769,731
-3,746	15,070	1391,140	769,214
-2,731	15,085	1390,201	768,731
-1,717	15,060	1389,429	768,160
-0,702	15,081	1387,468	767,142
0,313	18,888	1307,153	740,356
1,327	35,355	706,839	438,552
2,342	54,280	124,936	85,107
3,356	1,592	16,527	8,404
4,371	7,054	3,170	1,670
5,386	-57,014	0,412	0,128
6,400	-200,000	-0,026	0,157
7,415	16,091	-0,351	-0,196
8,429	140,469	-0,345	-0,323
9,444	122,923	-0,292	-0,259
10,459	123,156	-0,294	-0,261
11,473	39,546	-0,393	-0,249
12,488	-60,158	-0,376	-0,113
13,502	29,758	-0,366	-0,220
14,517	-12,260	-0,345	-0,159
15,531	97,783	-0,352	-0,286
16,546	3,864	-0,386	-0,199
17,561	16,986	-0,378	-0,212
18,575	182,985	-0,247	-0,259
19,590	577,929	-0,223	-0,387
20,604	-58,886	-0,264	-0,080
21,619	-9,367	-0,490	-0,231
22,634	-13,391	-0,564	-0,258
23,648	146,578	-0,406	-0,386
24,663	255,495	-0,354	-0,430
25,677	241,457	-0,218	-0,258
26,692	-83,969	-0,339	-0,076
27,707	80,950	-0,254	-0,194
28,721	-50,294	-0,461	-0,153
29,736	151,873	-0,399	-0,384
30,750	245,175	-0,361	-0,430
31,765	26,648	-0,343	-0,202
32,780	63,082	-0,370	-0,262
33,794	222,523	-0,240	-0,274
34,809	74,916	-0,379	-0,282
35,823	57,223	-0,432	-0,298
36,838	211,677	-0,287	-0,320
37,853	17,882	-0,456	-0,256
38,867	89,776	-0,307	-0,242
39,882	9,818	-0,275	-0,147
40,896	235,246	-0,291	-0,340
41,911	160,906	-0,311	-0,307
42,926	122,039	-0,333	-0,294
43,940	105,830	-0,364	-0,304
44,955	276,798	-0,345	-0,434
45,969	53,671	-0,239	-0,162
46,984	14,549	-0,449	-0,247
47,999	-4,388	-0,335	-0,163
49,013	-40,089	-0,371	-0,136
50,028	9,575	-0,397	-0,212
51,042	482,113	-0,210	-0,337
52,057	92,591	-0,303	-0,241
53,071	124,120	-0,443	-0,393
54,086	218,068	-0,263	-0,297
55,101	71,283	-0,351	-0,257
56,115	85,602	-0,316	-0,245
57,130	-9,698	-0,308	-0,144
58,144	-8,055	-0,324	-0,153
59,159	19,648	-0,408	-0,231
60,174	248,673	-0,303	-0,362
61,188	-40,068	-0,342	-0,125
62,203	38,855	-0,314	-0,198
63,217	-179,421	-0,389	0,006
64,232	85,824	-0,324	-0,251
65,247	240,296	-0,292	-0,344
66,261	27,469	-0,352	-0,208
67,276	16,620	-0,358	-0,199
68,290	-115,178	-0,314	0,041
69,305	3,010	-0,324	-0,165
70,320	145,992	-0,274	-0,259
71,334	110,503	-0,317	-0,268
72,349	38,269	-0,289	-0,181
73,363	-103,823	-0,398	-0,065
74,378	262,658	-0,310	-0,380
75,393	66,052	-0,286	-0,204
76,407	50,516	-0,224	-0,149
77,422	42,590	-0,303	-0,194
78,436	-34,678	-0,373	-0,143
79,451	-6,390	-0,293	-0,140
80,466	252,951	-0,211	-0,254
81,480	81,740	-0,364	-0,277
82,495	253,925	-0,248	-0,299
83,509	-70,470	-0,289	-0,077
84,524	2,513	-0,321	-0,163
85,539	146,202	-0,267	-0,252
86,553	-43,594	-0,247	-0,087
87,568	-29,907	-0,259	-0,103
88,582	104,669	-0,334	-0,276
89,597	-18,775	-0,408	-0,178
90,611	146,616	-0,278	-0,263
91,626	234,498	-0,252	-0,293
92,641	800,000	-0,106	-0,228
93,655	213,732	-0,210	-0,234
94,670	167,163	-0,241	-0,241
95,684	109,243	-0,345	-0,290
96,699	95,501	-0,366	-0,293
97,714	31,339	-0,254	-0,153
98,728	36,287	-0,215	-0,133
99,743	30,374	-0,316	-0,189
100,757	198,312	-0,289	-0,311
101,772	164,275	-0,255	-0,252
102,787	161,657	-0,309	-0,304
103,801	109,905	-0,311	-0,262
104,816	-36,133	-0,340	-0,128
105,830	-71,294	-0,280	-0,073
106,845	247,661	-0,123	-0,146
107,860	265,122	-0,141	-0,173
108,874	-20,124	-0,332	-0,143
109,889	23,774	-0,342	-0,197
110,903	61,228	-0,357	-0,249
111,918	-27,228	-0,196	-0,080
112,933	-91,231	-0,300	-0,060
113,947	89,729	-0,251	-0,197
114,962	-90,694	-0,219	0,044
115,976	-200,000	-0,319	-0,000
116,991	-51,633	-0,290	-0,094
118,006	214,765	-0,163	-0,181
119,020	83,931	-0,192	-0,147
120,035	-35,987	-0,305	-0,115
121,049	223,264	-0,107	-0,121
122,064	-76,059	-0,307	-0,075
123,079	236,277	-0,196	-0,228
124,093	800,000	-0,108	-0,230
125,108	-51,753	-0,362	-0,117
126,122	149,914	-0,205	-0,195
127,137	-45,079	-0,297	-0,103
128,151	2,361	-0,192	-0,097
129,166	292,171	-0,099	-0,127
130,181	102,193	-0,241	-0,197
131,195	211,256	-0,235	-0,260
132,210	-17,907	-0,321	-0,140
133,224	-75,651	-0,261	-0,064
134,239	466,274	-0,115	-0,182
135,254	88,960	-0,165	-0,128
136,268	591,681	-0,155	-0,270
137,283	29,493	-0,246	-0,146
138,297	141,524	-0,280	-0,260
139,312	68,892	-0,298	-0,214
140,327	164,274	-0,238	-0,235
141,341	13,744	-0,211	-0,115
142,356	168,439	-0,204	-0,203
143,370	279,644	-0,107	-0,133
144,385	-130,829	-0,322	-0,030
145,400	-81,077	-0,470	-0,108
146,414	59,646	-0,200	-0,138
147,429	-27,779	-0,303	-0,122
148,443	162,023	-0,166	-0,162
149,458	-96,155	-0,299	-0,055
150,473	60,039	-0,244	-0,169
151,487	-43,682	-0,276	-0,097
152,502	112,536	-0,142	-0,120
153,516	-5,819	-0,269	-0,128
154,531	414,599	-0,109	-0,163
155,546	-37,491	-0,198	-0,073
156,560	-134,328	-0,245	0,021
157,575	-133,148	-0,272	-0,024
158,589	140,806	-0,138	-0,128
159,604	372,505	-0,183	-0,261
160,619	279,709	-0,178	-0,223
161,633	79,823	-0,303	-0,228
162,648	343,407	-0,166	-0,228
163,662	120,974	-0,156	-0,135
164,677	52,269	-0,199	-0,133
165,692	-81,872	-0,358	-0,081
166,706	634,811	-0,158	-0,282
167,721	295,626	-0,276	-0,354
168,735	161,760	-0,305	-0,298
169,750	237,542	-0,151	-0,176
170,764	380,939	-0,115	-0,165
171,779	76,923	-0,227	-0,168
172,794	-26,187	-0,287	-0,117
173,808	-76,084	-0,240	-0,059
174,823	233,733	-0,249	-0,287
175,837	-1,027	-0,297	-0,146
176,852	1,102	-0,171	-0,086
177,867	8,397	-0,144	-0,075
178,881	257,438	-0,220	-0,265
179,896	460,219	-0,167	-0,261
180,910	101,431	-0,180	-0,147
181,925	135,817	-0,196	-0,178
182,940	105,584	-0,270	-0,223
183,954	-17,833	-0,292	-0,127
184,969	52,090	-0,160	-0,106
185,983	348,067	-0,120	-0,165
186,998	14,369	-0,238	-0,129
188,013	127,262	-0,230	-0,204
189,027	-25,381	-0,214	-0,088
190,042	-85,213	-0,257	-0,056
191,056	736,809	-0,148	-0,278
192,071	-10,268	-0,239	-0,110
193,086	8,631	-0,127	-0,066
194,100	175,250	-0,160	-0,162
195,115	67,001	-0,284	-0,201
196,129	106,205	-0,227	-0,187
197,144	-41,954	-0,176	-0,063
198,159	120,844	-0,200	-0,173
199,173	-42,437	-0,299	-0,106
200,188	45,914	-0,162	-0,104
201,202	186,661	-0,143	-0,149
202,217	-7,107	-0,128	-0,060
203,232	215,945	-0,221	-0,245
204,246	96,162	-0,168	-0,134
205,261	171,909	-0,213	-0,214
206,275	-200,000	0,009	-0,186
207,290	502,327	-0,162	-0,262
208,304	236,245	-0,130	-0,150
209,319	6,320	-0,285	-0,147
210,334	102,294	-0,201	-0,163
211,348	494,473	-0,200	-0,321
212,363	388,693	-0,113	-0,163
213,377	800,000	0,023	-0,068
214,392	-93,190	-0,222	0,043
215,407	82,965	-0,102	-0,077
216,421	46,117	-0,273	-0,176
217,436	800,000	-0,109	-0,244
218,450	-200,000	-0,037	-0,149
219,465	244,481	-0,128	-0,150
220,480	636,348	-0,177	-0,313
221,494	200,394	-0,137	-0,147
222,509	317,062	-0,149	-0,196
223,523	-57,942	-0,186	-0,056
224,538	98,325	-0,237	-0,190
225,553	153,938	-0,184	-0,176
226,567	111,611	-0,263	-0,220
227,582	16,975	-0,210	-0,116
228,596	10,876	-0,215	-0,114
229,611	30,934	-0,154	-0,092
230,626	600,687	-0,050	-0,087
231,640	-42,674	-0,148	-0,052
232,655	65,153	-0,283	-0,199
233,669	62,817	-0,162	-0,112
234,684	98,122	-0,214	-0,171
235,699	98,866	-0,192	-0,154
236,713	127,950	-0,101	-0,089
237,728	-128,550	-0,134	-0,013
238,742	-22,862	-0,206	-0,086
239,757	67,488	-0,221	-0,157
240,772	319,202	-0,154	-0,202
241,786	155,518	-0,151	-0,144
242,801	755,921	-0,128	-0,242
243,815	-161,336	-0,222	0,008
244,830	249,727	-0,153	-0,181
245,844	15,025	-0,165	-0,089
246,859	-14,285	-0,242	-0,108
247,874	79,673	-0,268	-0,199
248,888	124,024	-0,207	-0,180
249,903	12,593	-0,173	-0,092
250,917	470,859	-0,079	-0,123
251,932	-63,275	-0,238	-0,067
252,947	294,242	-0,133	-0,169
253,961	437,989	-0,107	-0,162
254,976	89,186	-0,167	-0,129
255,990	180,685	-0,200	-0,204
257,005	120,568	-0,203	-0,175
258,020	367,073	-0,178	-0,250
259,034	25,684	-0,230	-0,133
260,049	287,255	-0,103	-0,129
261,063	526,945	-0,096	-0,157
262,078	74,334	-0,174	-0,127
263,093	303,561	-0,128	-0,165
264,107	120,015	-0,169	-0,146
265,122	143,178	-0,176	-0,162
266,136	290,860	-0,088	-0,111
267,151	-115,699	-0,154	0,020
268,166	22,564	-0,205	-0,116
269,180	29,683	-0,163	-0,096
270,195	800,000	-0,143	-0,324
271,209	99,603	-0,171	-0,137
272,224	-40,354	-0,137	-0,049
273,239	-28,881	-0,246	-0,097
274,253	-50,523	-0,098	-0,032
275,268	123,763	-0,108	-0,094
276,282	137,815	-0,152	-0,138
277,297	229,378	-0,159	-0,179
278,312	96,849	-0,196	-0,156
279,326	114,038	-0,122	-0,102
280,341	-8,514	-0,236	-0,109
281,355	-189,300	-0,244	-0,002
282,370	-51,398	-0,312	-0,100
283,384	137,297	-0,047	-0,043
284,399	-47,508	-0,119	-0,040
285,414	-44,168	-0,208	-0,072
286,428	562,162	-0,126	-0,211
287,443	-132,625	-0,216	0,019
288,457	88,965	-0,093	-0,071
289,472	482,586	-0,115	-0,182
290,487	-12,067	-0,184	-0,083
291,501	53,318	-0,349	-0,231
292,516	207,704	-0,086	-0,093
293,530	-69,188	-0,170	-0,045
294,545	-31,182	-0,064	-0,025
295,560	-75,030	-0,306	-0,075
296,574	-82,530	-0,235	-0,052
297,589	-78,359	-0,152	0,036
298,603	56,728	-0,232	-0,156
299,618	71,687	-0,252	-0,181
300,633	275,393	-0,136	-0,167
301,647	-34,080	-0,104	0,039
302,662	-14,991	-0,047	0,021
303,676	800,000	-0,131	-0,256
304,691	-47,310	-0,186	-0,062
305,706	-48,174	-0,252	-0,084
306,720	-200,000	-0,062	-0,235
307,735	-200,000	-0,028	-0,205
308,749	513,699	-0,071	-0,114
309,764	-191,237	-0,124	-0,001
310,779	-74,027	-0,150	-0,037
311,793	-29,232	-0,191	-0,075
312,808	204,782	-0,121	-0,130
313,822	-13,685	-0,145	-0,064
314,837	-13,840	-0,122	-0,054
315,852	170,553	-0,211	-0,209
316,866	479,025	-0,085	-0,134
317,881	276,061	-0,107	-0,132
318,895	-200,000	-0,036	-0,213
319,910	87,934	-0,153	-0,117
320,925	147,904	-0,191	-0,177
321,939	577,120	-0,094	-0,159
322,954	36,993	-0,160	-0,098
323,968	45,060	-0,114	-0,072
324,983	-200,000	-0,023	-0,111
325,997	-45,198	-0,142	-0,048
327,012	-200,000	-0,074	-0,292
328,027	296,376	-0,107	-0,136
329,041	745,799	0,038	-0,070
330,056	123,156	0,069	0,060
331,070	-10,659	-0,168	-0,076
332,085	-154,245	-0,161	0,007
333,100	41,222	-0,108	-0,067
334,114	90,446	-0,125	-0,096
335,129	61,232	-0,126	-0,086
336,143	60,186	-0,064	-0,044
337,158	12,959	-0,195	-0,103
338,173	-200,000	0,000	0,061
339,187	110,727	-0,148	-0,122
340,202	475,002	-0,128	-0,200
341,216	-73,021	-0,096	-0,024
342,231	399,497	-0,122	-0,176
343,246	800,000	-0,086	-0,212
344,260	71,691	-0,098	-0,070
345,275	194,090	-0,094	-0,098
346,289	184,046	-0,077	-0,078
347,304	81,015	-0,033	-0,025
348,319	-142,522	-0,183	-0,012
349,333	-200,000	-0,040	-0,154
350,348	472,756	-0,128	-0,198
351,362	-37,821	-0,073	-0,026
352,377	-30,779	-0,093	0,036
353,392	-115,979	-0,178	-0,023
354,406	800,000	-0,040	-0,089
355,421	208,403	1313,827	1413,324
356,435	160,358	1474,456	1413,842
