DTS Sentinel unit serial number:	SN410029Multiplexer serial number:	ORYXHardware model number:	OX2-SRSoftware version number:	ORYX F/W v4,00 Oryx Data Collector v3.7.2.0data status	okinstallation	B3 Nyhavnadifferential loss correction	single-endedforward channel	channel 1reverse channel	N/Adate	2023/12/02time	14:37:30forward acquisition time	300,00reverse acquisition time	0,00gamma	499,1914k internal	0,3197k external	0,3197temperature offset calibration	1,0000default loss term (dB/km)	0,3820temperature slope calibration	1,0000multiplexer offset coefficient	1,0000multiplexer slope coefficient	1,0000fibre end	0,00T internal ref (°C)	14,89T ext. ref 1 (°C)	-0,23T ext. ref 2 (°C)	-0,24length (m)	temperature (°C)	Stokes	anti-Stokes-744,400	339,469	-0,151	-0,214
-743,385	779,828	-0,115	0,231
-742,371	-200,000	-0,064	-0,205
-741,356	-200,000	-0,002	0,302
-740,342	16,645	-0,250	-0,144
-739,327	-200,000	0,048	0,235
-738,312	800,000	-0,156	-0,317
-737,298	800,000	-0,098	0,253
-736,283	71,898	-0,240	-0,181
-735,269	-200,000	-0,030	0,345
-734,254	175,820	-0,194	-0,205
-733,239	23,482	-0,163	0,098
-732,225	327,623	-0,085	-0,119
-731,210	217,331	0,084	0,098
-730,196	34,688	0,117	-0,074
-729,181	99,092	-0,093	-0,079
-728,167	531,955	-0,027	-0,047
-727,152	-34,104	0,053	0,021
-726,137	-113,361	-0,180	0,025
-725,123	-200,000	-0,013	-0,049
-724,108	78,160	-0,155	-0,120
-723,094	149,232	0,033	-0,033
-722,079	165,870	-0,116	-0,120
-721,064	-200,000	0,010	0,076
-720,050	10,672	-0,103	0,057
-719,035	-13,776	-0,058	-0,027
-718,021	-200,000	0,028	-0,100
-717,006	800,000	-0,072	-0,173
-715,991	-160,892	-0,092	0,003
-714,977	183,425	-0,078	-0,084
-713,962	800,000	0,034	0,068
-712,948	-110,970	0,122	0,018
-711,933	132,303	-0,132	-0,124
-710,918	323,131	-0,084	-0,117
-709,904	-177,539	-0,124	-0,002
-708,889	787,545	-0,075	-0,150
-707,875	169,582	0,114	-0,119
-706,860	800,000	0,060	-0,131
-705,845	-147,693	-0,151	0,009
-704,831	51,115	-0,149	0,103
-703,816	-80,789	0,081	0,019
-702,802	-129,440	-0,033	0,003
-701,787	-102,315	-0,206	0,036
-700,772	-123,430	0,070	-0,008
-699,758	38,157	-0,031	0,020
-698,743	-56,507	0,135	0,043
-697,729	-200,000	-0,009	0,054
-696,714	576,900	-0,102	0,182
-695,699	-139,611	0,039	-0,003
-694,685	465,082	-0,061	-0,099
-693,670	74,352	-0,094	-0,072
-692,656	-200,000	-0,007	-0,136
-691,641	-200,000	0,021	-0,085
-690,627	144,987	-0,092	0,089
-689,612	-200,000	0,002	-0,032
-688,597	-11,775	-0,058	0,028
-687,583	-200,000	0,023	-0,134
-686,568	-200,000	0,013	0,115
-685,554	226,342	-0,035	0,042
-684,539	-92,930	-0,014	0,003
-683,524	625,905	-0,013	-0,023
-682,510	258,176	-0,069	0,087
-681,495	211,232	-0,119	-0,137
-680,481	-200,000	-0,050	-0,210
-679,466	235,066	-0,145	-0,175
-678,451	-200,000	0,010	-0,082
-677,437	-72,229	-0,046	-0,012
-676,422	-200,000	0,016	-0,095
-675,408	-9,256	0,010	-0,005
-674,393	366,694	-0,086	-0,126
-673,378	-200,000	-0,014	-0,103
-672,364	-26,832	-0,092	-0,039
-671,349	662,937	-0,065	-0,122
-670,335	108,779	-0,153	-0,132
-669,320	140,864	-0,054	0,052
-668,305	800,000	0,074	0,185
-667,291	-19,470	-0,059	0,026
-666,276	5,013	-0,086	-0,046
-665,262	2,768	-0,179	-0,094
-664,247	-38,910	-0,032	-0,012
-663,232	524,054	0,019	0,032
-662,218	800,000	-0,024	-0,065
-661,203	69,373	-0,092	0,069
-660,189	-200,000	-0,004	-0,021
-659,174	582,048	-0,071	-0,128
-658,159	138,393	-0,047	0,044
-657,145	-200,000	0,008	-0,085
-656,130	-114,654	-0,075	-0,010
-655,116	800,000	0,047	-0,110
-654,101	-200,000	0,001	-0,050
-653,086	62,394	-0,120	0,087
-652,072	800,000	-0,054	0,133
-651,057	-98,776	-0,158	0,029
-650,043	-200,000	0,007	-0,091
-649,028	-49,273	0,063	0,022
-648,014	-200,000	-0,009	0,151
-646,999	-200,000	0,013	-0,079
-645,984	-28,335	-0,076	-0,032
-644,970	-200,000	-0,002	0,012
-643,955	158,555	-0,036	0,036
-642,941	21,535	-0,076	-0,045
-641,926	84,753	-0,059	-0,047
-640,911	-125,834	0,112	-0,012
-639,897	-25,018	0,039	-0,017
-638,882	-30,019	-0,086	0,035
-637,868	423,920	-0,020	-0,031
-636,853	-156,462	-0,039	-0,002
-635,838	86,299	0,017	0,013
-634,824	-160,307	-0,092	-0,004
-633,809	-200,000	0,032	0,109
-632,795	-200,000	-0,005	-0,045
-631,780	81,339	0,078	-0,061
-630,765	-200,000	0,020	-0,107
-629,751	265,747	0,063	-0,080
-628,736	800,000	-0,029	-0,075
-627,722	-25,749	0,025	0,011
-626,707	-67,395	0,117	0,033
-625,692	-200,000	0,010	0,066
-624,678	487,805	0,046	0,076
-623,663	-200,000	-0,011	-0,049
-622,649	487,644	-0,058	-0,096
-621,634	-138,437	-0,033	0,003
-620,619	-200,000	-0,016	0,069
-619,605	-137,501	0,130	-0,011
-618,590	198,114	0,091	0,101
-617,576	-1,454	-0,127	-0,065
-616,561	-200,000	0,003	-0,030
-615,546	-200,000	-0,004	-0,080
-614,532	16,512	0,065	-0,037
-613,517	-200,000	-0,030	-0,126
-612,503	171,067	0,050	0,052
-611,488	229,382	-0,042	-0,050
-610,474	-118,021	-0,141	0,018
-609,459	592,402	-0,095	0,170
-608,444	412,135	-0,023	0,036
-607,430	-200,000	0,034	-0,159
-606,415	-18,373	0,056	-0,025
-605,401	-13,233	0,093	0,044
-604,386	-200,000	0,017	0,066
-603,371	460,184	-0,073	0,118
-602,357	-184,509	0,218	0,002
-601,342	81,473	0,071	0,056
-600,328	60,296	-0,225	-0,161
-599,313	-106,453	0,044	0,007
-598,298	-200,000	-0,008	-0,032
-597,284	-200,000	0,005	-0,129
-596,269	-200,000	0,052	0,188
-595,255	225,985	-0,071	-0,083
-594,240	800,000	-0,059	-0,176
-593,225	5,369	0,038	-0,020
-592,211	39,250	0,040	0,026
-591,196	473,369	-0,054	-0,088
-590,182	222,462	-0,031	-0,037
-589,167	777,926	0,041	0,082
-588,152	-46,451	0,025	-0,009
-587,138	357,845	-0,012	-0,017
-586,123	655,554	-0,024	-0,045
-585,109	-200,000	0,037	-0,158
-584,094	-121,109	-0,079	0,009
-583,079	-24,034	-0,064	-0,027
-582,065	-163,005	0,092	0,003
-581,050	-46,334	-0,073	-0,026
-580,036	-45,293	-0,091	0,032
-579,021	800,000	-0,041	-0,106
-578,006	800,000	0,082	-0,166
-576,992	308,045	0,011	0,015
-575,977	-200,000	-0,002	-0,060
-574,963	96,049	0,057	0,047
-573,948	332,655	-0,032	0,045
-572,934	76,498	-0,071	-0,054
-571,919	-200,000	0,010	-0,093
-570,904	-200,000	0,013	-0,052
-569,890	800,000	-0,022	0,053
-568,875	51,782	-0,051	0,035
-567,861	0,656	0,013	-0,007
-566,846	141,525	0,007	-0,006
-565,831	-200,000	0,012	0,055
-564,817	-82,362	-0,108	0,025
-563,802	-7,628	-0,100	0,049
-562,788	-89,772	-0,100	0,021
-561,773	-66,990	0,059	-0,017
-560,758	290,665	0,034	-0,045
-559,744	85,414	0,054	0,043
-558,729	800,000	-0,030	0,091
-557,715	-200,000	-0,008	-0,134
-556,700	-0,538	-0,124	-0,064
-555,685	-200,000	-0,007	0,041
-554,671	-31,195	0,208	-0,084
-553,656	214,227	-0,100	0,114
-552,642	-101,183	-0,044	0,008
-551,627	-200,000	0,017	0,163
-550,612	68,946	-0,057	0,042
-549,598	800,000	-0,044	-0,124
-548,583	379,369	0,049	-0,073
-547,569	202,601	-0,118	-0,132
-546,554	106,454	0,172	-0,147
-545,539	412,888	0,052	0,081
-544,525	-200,000	-0,041	-0,174
-543,510	288,968	-0,030	-0,039
-542,496	-200,000	0,007	-0,131
-541,481	-200,000	-0,002	0,045
-540,466	142,637	0,133	0,127
-539,452	-144,504	-0,071	0,005
-538,437	115,245	0,046	-0,041
-537,423	-200,000	-0,026	-0,108
-536,408	-200,000	-0,015	0,078
-535,393	-200,000	-0,014	-0,081
-534,379	19,645	-0,048	0,028
-533,364	-200,000	0,004	0,156
-532,350	800,000	0,004	0,009
-531,335	225,640	-0,057	-0,067
-530,321	15,666	0,130	0,074
-529,306	-116,871	0,029	0,004
-528,291	148,884	0,112	0,109
-527,277	-80,115	-0,018	-0,004
-526,262	77,707	-0,115	-0,088
-525,248	-33,825	-0,074	-0,029
-524,233	262,707	0,053	0,067
-523,218	53,078	-0,032	0,022
-522,204	735,859	-0,058	-0,112
-521,189	175,878	-0,115	-0,121
-520,175	-50,780	-0,084	0,028
-519,160	-200,000	-0,002	-0,010
-518,145	-200,000	0,040	-0,174
-517,131	310,011	-0,038	-0,052
-516,116	-139,939	0,092	0,007
-515,102	-139,904	0,117	0,009
-514,087	-168,148	-0,103	-0,003
-513,072	85,493	0,071	-0,056
-512,058	8,852	0,055	0,030
-511,043	-20,384	0,060	-0,026
-510,029	-81,193	0,143	0,034
-509,014	66,459	0,128	0,094
-507,999	144,720	0,018	0,018
-506,985	294,329	0,059	0,077
-505,970	200,273	-0,115	-0,128
-504,956	800,000	-0,063	-0,147
-503,941	-127,530	0,114	-0,012
-502,926	216,207	0,049	-0,056
-501,912	157,785	0,016	0,016
-500,897	-21,511	0,066	0,029
-499,883	-63,885	-0,154	0,045
-498,868	221,878	-0,087	-0,101
-497,853	380,190	-0,055	0,081
-496,839	-123,485	-0,113	0,013
-495,824	-200,000	0,009	0,038
-494,810	-98,936	0,068	-0,012
-493,795	800,000	0,023	0,048
-492,781	-39,122	0,095	-0,036
-491,766	-5,602	0,047	-0,023
-490,751	-71,087	-0,178	-0,048
-489,737	-200,000	0,004	0,018
-488,722	124,373	-0,043	0,039
-487,708	-200,000	0,023	0,142
-486,693	-200,000	0,026	-0,088
-485,678	-200,000	0,012	-0,041
-484,664	62,815	-0,055	-0,039
-483,649	278,717	-0,037	-0,047
-482,635	-200,000	-0,026	-0,094
-481,620	447,045	0,037	0,060
-480,605	-200,000	0,014	-0,075
-479,591	314,238	0,052	0,071
-478,576	-200,000	-0,022	0,102
-477,562	108,409	0,081	-0,070
-476,547	30,936	-0,165	-0,102
-475,532	-92,399	0,045	0,009
-474,518	-200,000	0,010	0,122
-473,503	-200,000	0,033	0,122
-472,489	-200,000	0,035	0,122
-471,474	260,654	0,058	-0,073
-470,459	-200,000	0,019	-0,126
-469,445	-56,832	-0,033	-0,011
-468,430	257,105	-0,071	-0,088
-467,416	435,701	0,022	0,035
-466,401	-200,000	-0,004	-0,025
-465,386	-139,465	0,034	-0,003
-464,372	-200,000	0,000	0,013
-463,357	439,446	0,063	-0,099
-462,343	800,000	0,013	-0,041
-461,328	126,903	0,017	-0,015
-460,313	-112,890	0,052	0,007
-459,299	-200,000	-0,006	-0,071
-458,284	33,217	0,024	0,015
-457,270	-200,000	0,044	0,203
-456,255	257,416	-0,057	-0,071
-455,241	-54,077	-0,077	-0,025
-454,226	-200,000	0,005	-0,043
-453,211	-31,145	0,066	0,027
-452,197	227,694	0,088	0,103
-451,182	800,000	-0,094	0,202
-450,168	-200,000	0,046	0,165
-449,153	-99,579	-0,029	-0,005
-448,138	800,000	0,044	-0,091
-447,124	800,000	0,020	0,052
-446,109	-138,670	0,075	-0,006
-445,095	-200,000	0,013	0,117
-444,080	-20,208	0,138	0,061
-443,065	-78,033	0,113	0,028
-442,051	481,611	-0,034	-0,056
-441,036	-46,660	-0,025	0,009
-440,022	374,673	-0,143	-0,210
-439,007	-200,000	0,000	0,005
-437,992	-200,000	0,001	-0,082
-436,978	-88,122	0,054	0,012
-435,963	-0,838	0,145	0,074
-434,949	236,257	-0,093	0,111
-433,934	87,927	-0,003	-0,002
-432,919	-200,000	-0,003	0,021
-431,905	1,696	0,103	0,053
-430,890	-38,676	0,074	-0,028
-429,876	715,903	-0,030	0,058
-428,861	-134,724	0,135	0,012
-427,846	-200,000	-0,018	0,088
-426,832	-63,715	-0,166	0,049
-425,817	39,973	0,170	-0,109
-424,803	149,952	0,045	0,044
-423,788	190,237	0,051	0,055
-422,773	-200,000	-0,031	0,133
-421,759	563,885	-0,076	0,132
-420,744	-200,000	-0,001	-0,107
-419,730	120,186	0,046	-0,041
-418,715	45,331	0,042	0,028
-417,701	-200,000	0,022	-0,077
-416,686	-200,000	0,026	-0,094
-415,671	251,281	0,032	0,040
-414,657	44,192	0,021	-0,014
-413,642	69,685	0,073	0,054
-412,628	800,000	-0,039	-0,077
-411,613	-112,512	-0,098	-0,014
-410,598	152,800	-0,038	-0,038
-409,584	800,000	-0,019	0,061
-408,569	662,731	-0,027	0,050
-407,555	-200,000	0,020	0,167
-406,540	84,450	-0,025	-0,020
-405,525	150,193	0,065	0,064
-404,511	321,395	-0,030	-0,041
-403,496	28,162	-0,107	-0,065
-402,482	800,000	-0,046	-0,125
-401,467	163,415	0,081	0,082
-400,452	41,748	0,106	0,069
-399,438	800,000	0,032	-0,091
-398,423	-200,000	-0,021	-0,121
-397,409	-200,000	-0,001	0,025
-396,394	800,000	-0,038	-0,106
-395,379	-200,000	0,043	-0,141
-394,365	800,000	-0,032	0,068
-393,350	-109,138	0,077	0,012
-392,336	373,720	0,047	-0,069
-391,321	241,017	-0,055	0,066
-390,306	189,749	-0,056	0,060
-389,292	800,000	0,022	0,049
-388,277	279,004	-0,046	0,059
-387,263	395,110	-0,030	-0,045
-386,248	-200,000	-0,003	0,095
-385,233	-26,563	-0,021	0,009
-384,219	800,000	-0,040	-0,094
-383,204	330,202	-0,055	0,076
-382,190	-127,269	0,012	0,001
-381,175	-145,122	0,035	-0,002
-380,160	252,186	0,049	-0,060
-379,146	-117,411	0,112	-0,014
-378,131	800,000	-0,027	0,066
-377,117	800,000	0,074	0,176
-376,102	202,831	-0,069	-0,077
-375,088	395,823	-0,127	-0,191
-374,073	13,727	0,023	-0,013
-373,058	79,340	-0,089	0,068
-372,044	800,000	-0,017	0,048
-371,029	-9,921	0,064	-0,031
-370,015	-89,852	0,063	-0,013
-369,000	55,786	-0,031	-0,022
-367,985	-200,000	0,029	-0,115
-366,971	-200,000	0,016	-0,078
-365,956	800,000	0,040	0,122
-364,942	-200,000	0,012	0,083
-363,927	800,000	-0,030	0,067
-362,912	-200,000	-0,001	0,020
-361,898	-200,000	-0,005	0,133
-360,883	-200,000	-0,036	-0,200
-359,869	-92,459	-0,091	0,018
-358,854	225,354	-0,057	-0,066
-357,839	371,064	-0,008	-0,012
-356,825	-200,000	0,027	0,091
-355,810	-150,913	0,024	0,001
-354,796	-60,125	-0,046	-0,014
-353,781	-200,000	-0,005	-0,084
-352,766	121,356	-0,013	0,012
-351,752	-197,078	0,078	-0,000
-350,737	-124,505	0,045	0,005
-349,723	-30,225	0,127	-0,051
-348,708	-200,000	-0,030	0,159
-347,693	-200,000	-0,002	0,122
-346,679	75,131	0,102	0,077
-345,664	128,675	-0,072	0,066
-344,650	-146,879	0,066	-0,004
-343,635	-34,977	0,157	0,061
-342,620	105,258	0,039	-0,033
-341,606	-200,000	-0,031	0,106
-340,591	98,269	0,017	0,014
-339,577	-200,000	0,007	-0,124
-338,562	-200,000	-0,009	-0,041
-337,548	-200,000	0,001	-0,151
-336,533	-200,000	-0,003	0,023
-335,518	-45,366	-0,163	-0,057
-334,504	214,697	0,054	0,061
-333,489	627,029	-0,028	-0,051
-332,475	117,523	0,057	-0,051
-331,460	112,132	0,064	0,056
-330,445	521,525	-0,055	0,093
-329,431	224,565	-0,042	0,049
-328,416	690,081	0,024	0,045
-327,402	-120,867	-0,041	-0,005
-326,387	-54,274	-0,139	0,045
-325,372	409,582	0,094	-0,143
-324,358	-181,124	-0,084	-0,001
-323,343	-68,863	-0,110	0,030
-322,329	-134,097	-0,069	0,006
-321,314	267,839	0,059	-0,075
-320,299	800,000	0,041	0,087
-319,285	-92,877	0,099	-0,020
-318,270	702,508	0,047	-0,090
-317,256	800,000	-0,035	0,106
-316,241	80,818	-0,072	-0,056
-315,226	-200,000	0,009	0,083
-314,212	292,787	0,010	-0,013
-313,197	111,188	0,059	-0,051
-312,183	-200,000	-0,018	0,073
-311,168	-48,002	-0,047	-0,016
-310,153	-17,411	-0,109	-0,049
-309,139	-65,924	-0,133	0,038
-308,124	-200,000	-0,027	0,149
-307,110	93,713	-0,067	0,054
-306,095	5,272	0,122	-0,064
-305,080	-161,038	-0,056	-0,002
-304,066	399,013	-0,082	0,124
-303,051	800,000	-0,038	-0,080
-302,037	403,823	-0,041	0,062
-301,022	-54,705	0,029	0,009
-300,008	-200,000	0,019	0,126
-298,993	-200,000	0,031	-0,158
-297,978	-47,414	0,092	0,032
-296,964	381,082	0,060	-0,088
-295,949	800,000	-0,036	-0,081
-294,935	70,560	0,081	0,060
-293,920	285,032	0,090	-0,116
-292,905	800,000	0,026	0,060
-291,891	-20,082	0,123	0,054
-290,876	800,000	0,048	0,142
-289,862	-128,437	-0,118	-0,012
-288,847	285,510	-0,010	0,013
-287,832	28,637	-0,084	-0,051
-286,818	364,285	0,058	0,083
-285,803	89,011	0,024	0,019
-284,789	133,808	-0,088	0,082
-283,774	-200,000	-0,017	0,074
-282,759	594,967	0,063	0,112
-281,745	257,538	-0,061	-0,075
-280,730	80,551	-0,152	-0,117
-279,716	-171,898	0,095	0,002
-278,701	-200,000	0,009	-0,075
-277,686	295,150	0,124	0,162
-276,672	593,803	0,061	0,109
-275,657	689,016	-0,019	0,036
-274,643	-130,245	-0,090	0,009
-273,628	102,763	-0,097	-0,081
-272,613	460,494	-0,036	-0,057
-271,599	800,000	0,013	0,038
-270,584	169,999	0,037	0,038
-269,570	1,495	-0,080	-0,041
-268,555	460,105	-0,070	0,111
-267,540	-200,000	0,042	-0,151
-266,526	-45,816	-0,019	-0,007
-265,511	721,424	-0,068	-0,130
-264,497	-96,633	0,064	-0,012
-263,482	307,464	-0,015	-0,020
-262,467	432,611	0,117	0,182
-261,453	76,861	-0,113	0,086
-260,438	264,112	-0,079	-0,099
-259,424	-200,000	-0,009	0,056
-258,409	97,677	0,076	-0,063
-257,395	800,000	-0,032	0,067
-256,380	276,229	0,123	0,156
-255,365	570,280	-0,100	0,174
-254,351	61,103	-0,128	0,090
-253,336	-200,000	-0,012	-0,058
-252,322	-200,000	0,011	-0,043
-251,307	19,691	-0,139	-0,080
-250,292	186,025	0,086	-0,092
-249,278	-116,465	-0,045	-0,006
-248,263	139,551	0,050	-0,047
-247,249	-1,758	0,169	0,085
-246,234	-15,862	-0,062	0,028
-245,219	-143,835	-0,114	0,008
-244,205	-200,000	-0,037	-0,156
-243,190	-63,616	0,144	0,042
-242,176	-49,375	-0,114	0,039
-241,161	800,000	-0,032	0,068
-240,146	-101,622	-0,105	-0,018
-239,132	800,000	0,050	0,142
-238,117	391,176	-0,029	0,043
-237,103	-173,011	-0,059	-0,001
-236,088	-64,431	-0,208	-0,060
-235,073	800,000	-0,043	0,129
-234,059	-200,000	-0,011	0,118
-233,044	-200,000	0,001	-0,160
-232,030	-200,000	0,000	0,008
-231,015	800,000	0,034	-0,089
-230,000	-200,000	0,014	-0,127
-228,986	31,406	0,066	-0,040
-227,971	-200,000	-0,000	-0,066
-226,957	-200,000	-0,002	0,010
-225,942	-84,560	0,120	-0,027
-224,927	-200,000	0,022	-0,093
-223,913	-70,510	-0,164	-0,044
-222,898	-92,660	0,178	-0,035
-221,884	-200,000	0,001	0,041
-220,869	-49,210	-0,034	-0,012
-219,855	65,226	0,094	0,068
-218,840	-200,000	-0,003	0,098
-217,825	-198,818	-0,107	0,000
-216,811	-200,000	-0,013	-0,044
-215,796	250,220	0,083	-0,101
-214,782	199,578	-0,027	-0,029
-213,767	-31,354	0,118	-0,047
-212,752	280,246	0,026	-0,033
-211,738	-34,317	-0,084	-0,033
-210,723	-195,970	-0,019	0,000
-209,709	-166,178	-0,050	0,001
-208,694	800,000	0,025	-0,074
-207,679	32,710	-0,106	0,065
-206,665	-200,000	0,001	-0,061
-205,650	404,880	-0,027	0,041
-204,636	-158,524	0,128	-0,005
-203,621	98,291	-0,106	0,087
-202,606	218,465	-0,115	-0,131
-201,592	800,000	-0,030	0,077
-200,577	193,653	-0,013	0,014
-199,563	-73,753	0,080	-0,021
-198,548	-136,337	0,104	-0,009
-197,533	800,000	-0,055	0,119
-196,519	-68,381	0,086	0,024
-195,504	800,000	-0,039	-0,101
-194,490	800,000	-0,041	0,106
-193,475	-200,000	0,035	0,146
-192,460	169,390	0,047	-0,048
-191,446	58,520	0,069	0,048
-190,431	-200,000	0,006	-0,048
-189,417	-200,000	-0,020	0,070
-188,402	576,119	-0,044	0,076
-187,387	10,418	-0,086	-0,046
-186,373	188,995	0,024	0,026
-185,358	312,800	0,111	0,148
-184,344	609,988	0,026	-0,046
-183,329	-200,000	0,002	-0,043
-182,315	-86,881	0,003	0,001
-181,300	-162,783	-0,107	0,004
-180,285	800,000	0,022	0,058
-179,271	330,410	-0,099	-0,137
-178,256	-77,018	-0,113	-0,028
-177,242	383,185	0,064	0,094
-176,227	-163,679	-0,099	0,003
-175,212	24,822	0,074	0,044
-174,198	226,832	0,031	0,036
-173,183	5,205	0,055	-0,029
-172,169	-90,453	0,168	-0,034
-171,154	800,000	-0,088	-0,205
-170,139	-200,000	-0,022	0,113
-169,125	133,420	0,024	-0,022
-168,110	720,923	0,073	0,138
-167,096	434,969	-0,088	-0,137
-166,081	-200,000	-0,006	-0,035
-165,066	-15,946	-0,056	0,025
-164,052	-200,000	0,004	0,132
-163,037	90,386	0,129	0,102
-162,023	36,522	-0,035	-0,022
-161,008	368,260	-0,026	0,037
-159,993	-200,000	-0,026	0,083
-158,979	474,383	0,050	0,081
-157,964	-70,150	-0,125	-0,033
-156,950	-21,796	0,141	-0,061
-155,935	7,789	0,019	-0,010
-154,920	485,149	0,056	-0,091
-153,906	-200,000	0,004	0,025
-152,891	25,829	0,042	-0,025
-151,877	114,581	-0,099	0,086
-150,862	-81,879	-0,168	-0,039
-149,847	630,663	0,054	0,097
-148,833	505,498	0,019	0,032
-147,818	184,616	0,045	-0,047
-146,804	-178,739	0,046	0,001
-145,789	800,000	0,025	0,062
-144,775	221,945	0,038	-0,044
-143,760	800,000	-0,068	-0,196
-142,745	800,000	-0,032	-0,079
-141,731	800,000	0,044	-0,130
-140,716	260,014	0,054	0,067
-139,702	-200,000	-0,006	0,134
-138,687	139,728	-0,058	-0,055
-137,672	-30,491	-0,022	0,009
-136,658	-200,000	0,003	0,040
-135,643	256,135	0,005	0,007
-134,629	800,000	-0,052	-0,125
-133,614	-200,000	0,025	-0,150
-132,599	91,021	0,082	0,066
-131,585	335,577	-0,102	-0,141
-130,570	5,688	0,051	-0,027
-129,556	255,263	0,056	0,068
-128,541	-6,436	-0,069	0,033
-127,526	577,474	-0,095	-0,165
-126,512	800,000	0,038	0,083
-125,497	115,672	0,029	0,026
-124,483	-200,000	-0,021	0,185
-123,468	-200,000	-0,012	0,237
-122,453	-97,949	0,061	-0,011
-121,439	-200,000	-0,007	0,021
-120,424	22,563	0,112	-0,065
-119,410	-200,000	-0,005	0,066
-118,395	393,753	0,061	-0,091
-117,380	-86,835	-0,091	0,020
-116,366	351,706	0,019	-0,026
-115,351	380,425	-0,022	-0,032
-114,337	-80,553	-0,093	-0,022
-113,322	800,000	-0,041	-0,090
-112,307	-200,000	0,000	-0,159
-111,293	190,686	0,063	0,067
-110,278	-43,570	0,138	-0,049
-109,264	800,000	0,029	0,058
-108,249	-200,000	0,041	-0,147
-107,234	-200,000	-0,005	-0,047
-106,220	109,272	-0,057	0,048
-105,205	637,503	0,071	-0,128
-104,191	-129,657	0,125	0,012
-103,176	-107,267	0,154	0,024
-102,162	-85,359	-0,121	0,027
-101,147	-200,000	-0,036	0,130
-100,132	211,453	-0,085	0,095
-99,118	-72,712	-0,034	0,009
-98,103	-1,911	0,075	0,037
-97,089	-200,000	-0,016	0,103
-96,074	-200,000	-0,003	-0,039
-95,059	-167,761	-0,083	0,002
-94,045	36,177	0,026	0,017
-93,030	-190,473	-0,056	-0,000
-92,016	-144,436	-0,204	-0,013
-91,001	451,964	-0,006	0,009
-89,986	-14,314	0,027	0,012
-88,972	-200,000	0,029	-0,094
-87,957	-149,801	-0,055	0,003
-86,943	-89,794	-0,123	0,025
-85,928	319,085	-0,043	0,058
-84,913	43,093	0,112	0,072
-83,899	200,086	0,012	0,013
-82,884	-43,199	0,138	0,049
-81,870	-200,000	0,022	-0,119
-80,855	-200,000	-0,002	-0,021
-79,840	-200,000	-0,017	-0,068
-78,826	573,778	0,057	-0,098
-77,811	-200,000	0,009	-0,067
-76,797	-109,973	-0,126	0,019
-75,782	36,386	0,058	0,036
-74,767	-200,000	0,038	0,154
-73,753	800,000	0,016	-0,043
-72,738	3,214	0,026	-0,013
-71,724	35,333	0,082	-0,051
-70,709	-181,259	-0,070	-0,001
-69,694	-200,000	-0,014	-0,066
-68,680	109,413	-0,047	-0,040
-67,665	-200,000	-0,017	0,138
-66,651	-200,000	0,012	0,043
-65,636	7,575	-0,159	-0,084
-64,622	800,000	-0,052	-0,117
-63,607	326,220	-0,028	0,038
-62,592	38,909	0,048	0,031
-61,578	-35,355	-0,052	-0,020
-60,563	311,068	0,019	-0,026
-59,549	3,454	-0,041	0,021
-58,534	-32,980	-1,493	-0,585
-57,519	360,520	-1,504	-2,142
-56,505	-200,000	-0,535	-4,472
-55,490	96,233	0,963	0,780
-54,476	800,000	4,891	11,188
-53,461	-200,000	18,285	289,897
-52,446	800,000	728,095	2237,065
-51,432	557,771	1644,164	2821,367
-50,417	79,199	1665,351	1263,645
-49,403	22,763	1538,943	891,209
-48,388	16,739	1462,048	817,478
-47,373	17,956	1452,069	817,731
-46,359	17,251	1442,582	808,981
-45,344	15,013	1437,845	795,600
-44,330	14,949	1435,971	794,225
-43,315	14,929	1434,198	793,121
-42,300	14,952	1432,634	792,334
-41,286	14,974	1431,591	791,830
-40,271	14,993	1430,128	791,076
-39,257	14,953	1429,059	790,265
-38,242	15,025	1427,618	789,781
-37,227	14,996	1426,191	788,822
-36,213	14,984	1425,129	788,145
-35,198	15,007	1423,943	787,567
-34,184	15,014	1423,003	787,051
-33,169	14,964	1421,618	786,016
-32,154	15,003	1420,788	785,708
-31,140	15,005	1419,465	784,957
-30,125	15,035	1418,197	784,364
-29,111	15,041	1416,999	783,700
-28,096	14,973	1416,035	782,813
-27,082	14,936	1414,898	781,981
-26,067	14,915	1413,962	781,334
-25,052	14,926	1412,794	780,708
-24,038	14,887	1411,776	779,934
-23,023	14,900	1410,588	779,307
-22,009	14,889	1409,671	778,718
-20,994	14,867	1408,937	778,177
-19,979	14,834	1407,968	777,459
-18,965	14,847	1406,865	776,879
-17,950	14,829	1406,005	776,287
-16,936	14,848	1405,017	775,799
-15,921	14,824	1403,927	775,055
-14,906	14,802	1403,138	774,488
-13,892	14,857	1402,107	774,143
-12,877	14,824	1401,369	773,552
-11,863	14,843	1400,312	773,025
-10,848	14,828	1399,635	772,551
-9,833	14,829	1398,348	771,814
-8,819	14,767	1397,596	771,081
-7,804	14,738	1396,680	770,411
-6,790	14,763	1395,590	769,895
-5,775	14,785	1394,531	769,383
-4,760	14,776	1393,715	768,859
-3,746	14,726	1393,229	768,330
-2,731	14,743	1392,282	767,857
-1,717	14,740	1391,164	767,194
-0,702	14,718	1389,475	766,132
0,313	18,496	1308,453	738,964
1,327	34,700	706,365	436,497
2,342	53,193	124,589	84,392
3,356	5,743	16,650	8,693
4,371	9,857	3,139	1,682
5,386	10,159	0,566	0,304
6,400	800,000	0,026	0,059
7,415	800,000	-0,128	-0,302
8,429	25,753	-0,299	-0,176
9,444	54,549	-0,345	-0,235
10,459	145,982	-0,260	-0,246
11,473	23,987	-0,369	-0,215
12,488	61,217	-0,382	-0,268
13,502	8,604	-0,286	-0,152
14,517	86,239	-0,308	-0,240
15,531	23,780	-0,360	-0,209
16,546	179,088	-0,179	-0,185
17,561	237,162	-0,231	-0,271
18,575	-89,183	-0,262	-0,054
19,590	193,152	-0,209	-0,224
20,604	-25,870	-0,287	-0,119
21,619	78,353	-0,434	-0,327
22,634	101,921	-0,506	-0,418
23,648	150,247	-0,495	-0,476
24,663	40,692	-0,345	-0,219
25,677	170,848	-0,426	-0,432
26,692	245,014	-0,245	-0,292
27,707	326,735	-0,234	-0,318
28,721	17,228	-0,444	-0,248
29,736	33,345	-0,405	-0,248
30,750	135,564	-0,404	-0,371
31,765	-9,990	-0,554	-0,259
32,780	-4,387	-0,386	-0,188
33,794	220,572	-0,350	-0,397
34,809	-27,671	-0,403	-0,165
35,823	108,710	-0,401	-0,338
36,838	102,895	-0,396	-0,328
37,853	505,140	-0,217	-0,356
38,867	39,506	-0,427	-0,270
39,882	64,162	-0,352	-0,250
40,896	190,275	-0,196	-0,208
41,911	94,787	-0,299	-0,240
42,926	109,838	-0,285	-0,241
43,940	-9,746	-0,340	-0,159
44,955	224,518	-0,264	-0,302
45,969	151,015	-0,310	-0,297
46,984	201,940	-0,340	-0,371
47,999	38,066	-0,343	-0,215
49,013	4,500	-0,364	-0,188
50,028	62,910	-0,251	-0,177
51,042	106,940	-0,278	-0,233
52,057	135,432	-0,359	-0,329
53,071	57,761	-0,411	-0,283
54,086	10,501	-0,312	-0,167
55,101	3,159	-0,266	-0,136
56,115	33,348	-0,313	-0,191
57,130	89,418	-0,356	-0,279
58,144	23,769	-0,331	-0,192
59,159	68,850	-0,412	-0,298
60,174	-45,117	-0,397	-0,138
61,188	62,838	-0,394	-0,277
62,203	158,199	-0,304	-0,297
63,217	18,875	-0,354	-0,199
64,232	-14,199	-0,276	-0,125
65,247	-7,647	-0,350	-0,166
66,261	136,764	-0,304	-0,279
67,276	32,569	-0,280	-0,170
68,290	-77,399	-0,423	-0,103
69,305	162,912	-0,319	-0,316
70,320	114,821	-0,272	-0,234
71,334	41,988	-0,311	-0,198
72,349	179,964	-0,307	-0,317
73,363	-13,992	-0,521	-0,236
74,378	10,672	-0,335	-0,179
75,393	135,757	-0,287	-0,263
76,407	40,800	-0,272	-0,172
77,422	-13,134	-0,261	-0,119
78,436	44,721	-0,283	-0,183
79,451	-60,465	-0,362	-0,107
80,466	44,660	-0,423	-0,273
81,480	-81,245	-0,301	-0,069
82,495	124,518	-0,269	-0,238
83,509	19,741	-0,377	-0,213
84,524	23,223	-0,242	-0,139
85,539	-7,009	-0,320	-0,152
86,553	-45,263	-0,317	-0,110
87,568	86,350	-0,300	-0,233
88,582	133,828	-0,271	-0,247
89,597	35,905	-0,337	-0,208
90,611	21,871	-0,330	-0,189
91,626	-126,077	-0,232	-0,024
92,641	166,443	-0,149	-0,148
93,655	380,801	-0,208	-0,301
94,670	328,400	-0,181	-0,245
95,684	241,254	-0,230	-0,271
96,699	14,333	-0,353	-0,193
97,714	-75,036	-0,390	-0,097
98,728	47,914	-0,335	-0,219
99,743	261,832	-0,270	-0,329
100,757	124,864	-0,215	-0,190
101,772	106,011	-0,356	-0,296
102,787	190,231	-0,327	-0,345
103,801	75,070	-0,260	-0,192
104,816	36,654	-0,215	-0,133
105,830	85,447	-0,258	-0,199
106,845	-22,078	-0,168	-0,071
107,860	157,254	-0,221	-0,215
108,874	48,978	-0,357	-0,234
109,889	174,376	-0,228	-0,232
110,903	336,210	-0,218	-0,298
111,918	19,187	-0,235	-0,132
112,933	-27,274	-0,217	-0,088
113,947	-90,768	-0,268	-0,054
114,962	-108,099	-0,281	-0,042
115,976	9,710	-0,337	-0,178
116,991	262,118	-0,192	-0,234
118,006	-154,762	-0,260	-0,012
119,020	113,919	-0,238	-0,203
120,035	95,575	-0,252	-0,201
121,049	-11,111	-0,395	-0,182
122,064	-135,260	-0,371	-0,031
123,079	-17,114	-0,172	-0,076
124,093	13,451	-0,230	-0,125
125,108	115,548	-0,335	-0,287
126,122	28,887	-0,266	-0,158
127,137	86,955	-0,236	-0,182
128,151	166,718	-0,156	-0,155
129,166	105,170	-0,224	-0,185
130,181	-75,515	-0,248	-0,061
131,195	70,641	-0,286	-0,207
132,210	328,885	-0,245	-0,330
133,224	372,767	-0,252	-0,360
134,239	131,302	-0,318	-0,286
135,254	98,135	-0,133	-0,107
136,268	-81,766	-0,270	-0,061
137,283	615,116	-0,171	-0,301
138,297	213,732	-0,356	-0,395
139,312	-25,259	-0,313	-0,129
140,327	207,834	-0,183	-0,201
141,341	64,824	-0,270	-0,190
142,356	-61,938	-0,285	-0,083
143,370	408,605	-0,115	-0,170
144,385	443,041	-0,185	-0,284
145,400	127,338	-0,184	-0,164
146,414	800,000	-0,146	-0,349
147,429	39,210	-0,439	-0,274
148,443	48,745	-0,286	-0,187
149,458	-7,481	-0,311	-0,147
150,473	-148,170	-0,230	-0,013
151,487	177,686	-0,223	-0,228
152,502	125,173	-0,272	-0,239
153,516	-2,277	-0,276	-0,135
154,531	-51,740	-0,220	-0,071
155,546	93,479	-0,194	-0,153
156,560	132,541	-0,184	-0,166
157,575	30,611	-0,201	-0,120
158,589	16,324	-0,277	-0,152
159,604	-40,552	-0,320	-0,115
160,619	-87,777	-0,173	-0,036
161,633	5,701	-0,288	-0,148
162,648	65,168	-0,261	-0,184
163,662	79,499	-0,246	-0,184
164,677	-34,728	-0,306	-0,116
165,692	22,945	-0,248	-0,142
166,706	13,498	-0,319	-0,172
167,721	12,203	-0,235	-0,126
168,735	295,237	-0,220	-0,282
169,750	-8,580	-0,358	-0,167
170,764	-38,095	-0,427	-0,157
171,779	794,753	-0,088	-0,170
172,794	243,154	-0,163	-0,191
173,808	-8,780	-0,269	-0,125
174,823	164,875	-0,224	-0,220
175,837	90,152	-0,331	-0,258
176,852	399,227	-0,186	-0,273
177,867	145,755	-0,219	-0,205
178,881	152,675	-0,220	-0,210
179,896	419,817	-0,155	-0,232
180,910	364,829	-0,218	-0,307
181,925	174,553	-0,151	-0,153
182,940	106,044	-0,210	-0,173
183,954	-13,084	-0,282	-0,127
184,969	18,138	-0,198	-0,110
185,983	-46,448	-0,102	-0,035
186,998	133,317	-0,093	-0,084
188,013	68,422	-0,297	-0,212
189,027	446,048	-0,092	-0,142
190,042	-79,302	-0,326	-0,076
191,056	41,764	-0,326	-0,206
192,071	-15,576	-0,242	-0,107
193,086	-86,225	-0,278	-0,059
194,100	6,702	-0,295	-0,153
195,115	-64,091	-0,238	-0,067
196,129	-40,809	-0,216	-0,078
197,144	205,283	-0,297	-0,322
198,159	209,370	-0,093	-0,102
199,173	612,962	-0,127	-0,223
200,188	63,958	-0,170	-0,119
201,202	6,325	-0,245	-0,126
202,217	4,389	-0,248	-0,126
203,232	33,155	-0,167	-0,101
204,246	164,079	-0,220	-0,216
205,261	228,241	-0,188	-0,213
206,275	78,094	-0,248	-0,184
207,290	471,073	-0,116	-0,183
208,304	193,023	-0,157	-0,165
209,319	16,941	-0,230	-0,126
210,334	43,403	-0,146	-0,092
211,348	430,923	-0,175	-0,265
212,363	185,458	-0,274	-0,283
213,377	404,375	-0,227	-0,334
214,392	-1,449	-0,274	-0,134
215,407	-24,877	-0,296	-0,121
216,421	222,410	-0,145	-0,163
217,436	399,228	-0,147	-0,214
218,450	54,177	-0,210	-0,140
219,465	170,849	-0,163	-0,162
220,480	191,897	-0,143	-0,149
221,494	391,075	-0,141	-0,204
222,509	702,889	-0,065	-0,120
223,523	-68,419	-0,249	-0,067
224,538	-1,715	-0,286	-0,139
225,553	201,250	-0,214	-0,229
226,567	403,554	-0,143	-0,210
227,582	36,170	-0,226	-0,138
228,596	46,680	-0,193	-0,124
229,611	-6,799	-0,110	-0,052
230,626	5,200	-0,211	-0,108
231,640	8,928	-0,266	-0,139
232,655	20,569	-0,234	-0,131
233,669	240,490	-0,169	-0,196
234,684	68,231	-0,282	-0,200
235,699	5,149	-0,284	-0,145
236,713	-200,000	-0,136	-0,000
237,728	100,713	-0,127	-0,102
238,742	-67,541	-0,264	-0,071
239,757	-62,633	-0,237	-0,068
240,772	-33,742	-0,169	-0,064
241,786	-69,645	-0,287	-0,075
242,801	-9,394	-0,176	-0,081
243,815	96,420	-0,157	-0,124
244,830	695,079	-0,148	-0,271
245,844	391,455	-0,142	-0,205
246,859	12,431	-0,121	-0,065
247,874	151,341	-0,269	-0,254
248,888	-48,410	-0,304	-0,101
249,903	308,119	-0,131	-0,169
250,917	680,902	-0,073	-0,132
251,932	537,898	-0,110	-0,183
252,947	255,624	-0,146	-0,174
253,961	-68,093	-0,277	-0,074
254,976	160,365	-0,152	-0,147
255,990	315,635	-0,163	-0,214
257,005	141,084	-0,167	-0,153
258,020	-98,024	-0,194	0,034
259,034	-34,723	-0,128	-0,048
260,049	-8,433	-0,223	-0,103
261,063	-126,631	-0,119	0,012
262,078	146,526	-0,287	-0,267
263,093	149,742	-0,244	-0,229
264,107	378,289	-0,078	-0,111
265,122	583,054	-0,121	-0,206
266,136	72,284	-0,225	-0,162
267,151	800,000	-0,096	-0,210
268,166	800,000	-0,086	-0,191
269,180	-114,944	-0,181	0,024
270,195	499,491	-0,154	-0,247
271,209	169,936	-0,159	-0,158
272,224	215,224	-0,142	-0,156
273,239	18,795	-0,095	-0,053
274,253	-83,939	-0,166	-0,036
275,268	626,471	-0,170	-0,298
276,282	329,128	-0,186	-0,248
277,297	183,817	-0,164	-0,168
278,312	32,627	-0,178	-0,106
279,326	584,138	-0,096	-0,165
280,341	-124,612	-0,238	-0,025
281,355	221,338	-0,175	-0,195
282,370	198,767	-0,113	-0,120
283,384	129,993	-0,230	-0,203
284,399	-67,144	-0,269	-0,073
285,414	86,074	-0,229	-0,174
286,428	26,112	-0,126	0,072
287,443	-115,024	-0,093	0,012
288,457	229,955	-0,232	-0,263
289,472	800,000	-0,079	-0,183
290,487	-200,000	-0,061	-0,227
291,501	68,538	-0,164	-0,116
292,516	800,000	-0,061	-0,138
293,530	49,341	-0,163	-0,106
294,545	237,498	-0,141	-0,162
295,560	26,605	-0,210	-0,121
296,574	-71,274	-0,286	-0,073
297,589	301,051	-0,120	-0,153
298,603	282,225	-0,138	-0,171
299,618	-101,798	-0,212	-0,035
300,633	408,950	-0,098	-0,144
301,647	89,723	-0,122	0,094
302,662	-81,451	-0,179	-0,040
303,676	800,000	-0,080	-0,159
304,691	-200,000	-0,010	-0,148
305,706	95,636	-0,246	-0,193
306,720	-55,463	-0,232	-0,071
307,735	256,480	-0,079	-0,094
308,749	448,425	-0,134	-0,204
309,764	161,930	-0,158	-0,153
310,779	800,000	-0,080	-0,200
311,793	122,463	-0,121	-0,105
312,808	-73,904	-0,280	-0,070
313,822	28,189	-0,128	-0,074
314,837	33,979	-0,198	-0,118
315,852	300,620	-0,113	-0,145
316,866	524,393	-0,065	-0,106
317,881	-8,662	-0,147	-0,068
318,895	1,002	-0,174	-0,086
319,910	0,695	-0,204	-0,100
320,925	515,083	-0,054	-0,088
321,939	186,393	-0,144	-0,148
322,954	43,134	-0,149	-0,094
323,968	800,000	-0,056	-0,122
324,983	-97,497	-0,328	0,058
325,997	17,349	-0,297	-0,162
327,012	-19,192	-0,245	-0,104
328,027	-125,344	-0,206	-0,021
329,041	-31,744	-0,167	-0,064
330,056	70,798	-0,102	-0,072
331,070	1,138	-0,176	-0,086
332,085	800,000	0,019	-0,046
333,100	101,763	-0,144	-0,116
334,114	331,658	-0,115	-0,152
335,129	652,191	-0,065	-0,115
336,143	-8,802	-0,147	-0,068
337,158	-76,960	-0,163	-0,039
338,173	-200,000	-0,020	-0,115
339,187	17,682	-0,049	0,027
340,202	48,589	-0,249	-0,160
341,216	54,497	-0,101	-0,067
342,231	800,000	-0,078	-0,161
343,246	51,968	-0,212	-0,139
344,260	800,000	-0,074	-0,181
345,275	119,830	-0,049	-0,042
346,289	115,302	-0,144	-0,121
347,304	58,058	-0,171	-0,115
348,319	344,380	-0,135	-0,182
349,333	-2,999	-0,114	-0,055
350,348	-200,000	-0,036	-0,148
351,362	-138,470	-0,027	-0,002
352,377	23,094	-0,138	-0,078
353,392	-9,239	-0,137	-0,063
354,406	24,844	-0,093	-0,053
355,421	207,595	1313,492	1409,686
356,435	159,697	1474,093	1410,192
