DTS Sentinel unit serial number:	SN410029Multiplexer serial number:	ORYXHardware model number:	OX2-SRSoftware version number:	ORYX F/W v4,00 Oryx Data Collector v3.7.2.0data status	okinstallation	B3 Nyhavnadifferential loss correction	single-endedforward channel	channel 1reverse channel	N/Adate	2023/11/29time	15:02:30forward acquisition time	300,00reverse acquisition time	0,00gamma	499,1914k internal	0,3211k external	0,3211temperature offset calibration	1,0000default loss term (dB/km)	0,3820temperature slope calibration	1,0000multiplexer offset coefficient	1,0000multiplexer slope coefficient	1,0000fibre end	0,00T internal ref (°C)	11,15T ext. ref 1 (°C)	-3,12T ext. ref 2 (°C)	-3,26length (m)	temperature (°C)	Stokes	anti-Stokes-744,400	395,546	-0,136	-0,207
-743,385	-200,000	-0,033	0,285
-742,371	437,239	-0,115	-0,182
-741,356	-200,000	-0,034	0,341
-740,342	4,232	-0,329	-0,174
-739,327	-200,000	-0,007	0,281
-738,312	10,277	-0,218	-0,120
-737,298	-200,000	-0,083	0,423
-736,283	152,607	-0,192	-0,191
-735,269	718,957	0,134	0,259
-734,254	800,000	-0,115	-0,261
-733,239	178,779	-0,187	0,198
-732,225	404,201	-0,107	-0,165
-731,210	126,540	0,035	0,032
-730,196	-52,753	0,065	0,021
-729,181	-200,000	-0,005	-0,048
-728,167	-200,000	0,020	-0,091
-727,152	667,862	-0,061	-0,115
-726,137	362,861	-0,082	-0,119
-725,123	-112,821	-0,023	-0,003
-724,108	-27,294	-0,069	-0,029
-723,094	-72,325	-0,035	0,009
-722,079	-23,006	-0,162	-0,070
-721,064	12,809	-0,038	0,021
-720,050	76,156	0,107	-0,082
-719,035	-200,000	-0,013	-0,049
-718,021	-200,000	-0,007	0,027
-717,006	49,041	-0,067	-0,045
-715,991	-120,036	-0,144	-0,018
-714,977	-66,247	0,003	-0,001
-713,962	183,108	-0,053	0,057
-712,948	-146,307	-0,076	0,005
-711,933	-124,728	-0,033	-0,004
-710,918	-77,610	0,125	0,031
-709,904	-200,000	-0,024	0,115
-708,889	-130,098	-0,111	0,011
-707,875	-118,262	0,075	0,010
-706,860	44,418	0,027	-0,018
-705,845	-58,546	-0,014	-0,004
-704,831	768,852	0,034	0,067
-703,816	-88,277	-0,131	-0,028
-702,802	29,595	-0,088	-0,054
-701,787	-200,000	-0,025	-0,080
-700,772	800,000	-0,022	-0,059
-699,758	319,830	-0,082	0,114
-698,743	-142,055	-0,056	-0,004
-697,729	-200,000	0,015	0,172
-696,714	-191,666	-0,107	0,001
-695,699	7,282	-0,087	-0,047
-694,685	-158,177	-0,109	-0,005
-693,670	-200,000	-0,016	0,121
-692,656	106,876	0,037	-0,032
-691,641	-200,000	-0,002	0,085
-690,627	68,327	0,068	-0,050
-689,612	-94,449	0,039	-0,008
-688,597	95,709	0,086	-0,071
-687,583	-60,338	-0,158	-0,048
-686,568	342,479	-0,072	0,102
-685,554	167,112	0,051	-0,052
-684,539	-131,076	0,027	0,003
-683,524	-200,000	0,052	0,182
-682,510	-120,892	0,140	-0,017
-681,495	144,008	-0,118	0,114
-680,481	-125,312	-0,161	0,018
-679,466	800,000	-0,028	-0,082
-678,451	800,000	0,040	0,116
-677,437	-200,000	-0,019	-0,133
-676,422	-200,000	0,017	0,119
-675,408	800,000	-0,072	-0,162
-674,393	-31,227	-0,041	-0,017
-673,378	-70,053	0,019	-0,005
-672,364	-200,000	-0,002	-0,093
-671,349	800,000	-0,037	-0,081
-670,335	-122,476	0,073	-0,008
-669,320	-12,818	-0,035	-0,017
-668,305	800,000	0,032	0,100
-667,291	107,116	-0,047	-0,040
-666,276	800,000	0,011	0,029
-665,262	-52,212	-0,041	0,014
-664,247	-200,000	0,000	0,080
-663,232	181,229	-0,037	-0,039
-662,218	-200,000	-0,003	0,099
-661,203	645,829	-0,028	0,052
-660,189	289,108	0,055	-0,072
-659,174	69,981	0,025	0,019
-658,159	342,851	-0,049	0,069
-657,145	-200,000	0,020	-0,126
-656,130	-180,665	-0,187	-0,003
-655,116	7,289	-0,092	-0,050
-654,101	480,946	0,056	0,091
-653,086	-200,000	-0,014	-0,060
-652,072	274,126	0,011	-0,014
-651,057	309,081	-0,014	0,019
-650,043	-89,689	0,091	-0,019
-649,028	-0,053	0,186	-0,095
-648,014	-149,799	-0,114	0,006
-646,999	617,932	-0,047	-0,086
-645,984	18,502	-0,095	-0,055
-644,970	70,632	-0,026	0,019
-643,955	800,000	-0,030	-0,068
-642,941	780,985	-0,056	-0,111
-641,926	107,775	-0,028	0,024
-640,911	25,711	0,052	0,031
-639,897	3,484	0,119	0,062
-638,882	409,724	-0,033	-0,051
-637,868	-200,000	-0,066	-0,215
-636,853	319,934	-0,076	0,104
-635,838	-46,511	0,149	-0,052
-634,824	-50,376	-0,155	0,052
-633,809	8,660	0,057	0,031
-632,795	-200,000	-0,025	-0,125
-631,780	698,221	-0,058	0,110
-630,765	666,641	-0,032	-0,060
-629,751	-131,468	-0,107	0,010
-628,736	-200,000	0,012	-0,055
-627,722	-10,648	-0,068	-0,032
-626,707	-85,442	0,131	0,029
-625,692	192,471	-0,058	0,063
-624,678	800,000	-0,044	-0,103
-623,663	-200,000	-0,038	-0,207
-622,649	800,000	-0,078	-0,160
-621,634	374,645	0,069	-0,102
-620,619	226,631	-0,085	0,099
-619,605	321,117	-0,033	-0,045
-618,590	83,659	-0,044	-0,034
-617,576	-200,000	0,015	-0,164
-616,561	-200,000	-0,005	-0,033
-615,546	-200,000	0,022	-0,132
-614,532	-6,262	0,029	-0,014
-613,517	-160,962	-0,093	-0,003
-612,503	604,137	0,026	0,046
-611,488	-200,000	0,004	-0,087
-610,474	744,476	-0,020	-0,039
-609,459	-61,859	-0,124	-0,037
-608,444	-42,467	-0,008	0,003
-607,430	-200,000	0,020	0,078
-606,415	-200,000	0,006	0,086
-605,401	222,897	-0,105	0,122
-604,386	-69,860	-0,050	-0,014
-603,371	67,685	0,095	0,070
-602,357	-6,225	0,196	0,096
-601,342	-200,000	-0,012	0,199
-600,328	-70,586	0,040	-0,011
-599,313	800,000	-0,067	-0,139
-598,298	187,222	-0,039	-0,042
-597,284	39,391	0,017	0,011
-596,269	-38,624	0,148	0,056
-595,255	168,732	-0,032	0,033
-594,240	800,000	0,020	-0,059
-593,225	-142,362	-0,123	-0,009
-592,211	-10,436	-0,144	0,069
-591,196	252,193	-0,043	0,053
-590,182	42,938	-0,065	-0,042
-589,167	166,863	0,020	-0,021
-588,152	71,648	0,054	0,040
-587,138	800,000	0,043	-0,117
-586,123	-200,000	0,017	-0,115
-585,109	-200,000	-0,032	-0,236
-584,094	-137,874	-0,063	0,005
-583,079	-164,467	0,087	0,003
-582,065	-200,000	-0,001	-0,036
-581,050	-200,000	-0,013	-0,079
-580,036	49,390	-0,064	0,043
-579,021	-200,000	-0,002	-0,053
-578,006	-117,325	-0,150	-0,019
-576,992	365,240	-0,019	-0,028
-575,977	351,317	-0,093	-0,133
-574,963	319,947	0,153	0,210
-573,948	-200,000	-0,021	0,092
-572,934	139,574	0,168	-0,159
-571,919	-200,000	0,016	-0,187
-570,904	368,255	0,027	-0,039
-569,890	-133,254	-0,105	0,009
-568,875	-200,000	-0,022	-0,091
-567,861	-79,126	0,062	0,015
-566,846	800,000	-0,063	0,176
-565,831	30,240	-0,054	0,033
-564,817	-33,908	0,132	-0,052
-563,802	10,541	-0,105	-0,058
-562,788	-43,815	-0,038	-0,014
-561,773	-44,831	-0,053	-0,019
-560,758	419,316	0,023	-0,035
-559,744	-200,000	0,034	0,111
-558,729	800,000	-0,015	-0,031
-557,715	-169,173	-0,045	0,001
-556,700	-143,364	-0,097	-0,007
-555,685	-26,689	0,096	0,040
-554,671	32,773	0,034	0,021
-553,656	-200,000	-0,003	0,027
-552,642	-200,000	-0,014	0,083
-551,627	-200,000	-0,030	-0,125
-550,612	800,000	0,007	-0,019
-549,598	260,469	-0,046	-0,058
-548,583	499,489	0,048	-0,080
-547,569	-49,813	0,066	0,023
-546,554	17,312	-0,035	0,020
-545,539	800,000	0,034	0,069
-544,525	718,543	-0,046	-0,088
-543,510	-200,000	-0,010	0,085
-542,496	-200,000	-0,003	0,131
-541,481	471,790	-0,051	0,083
-540,466	-96,984	-0,065	0,012
-539,452	-51,920	-0,056	-0,018
-538,437	-84,077	0,146	-0,033
-537,423	712,418	-0,073	0,140
-536,408	107,201	0,009	-0,007
-535,393	-200,000	-0,001	0,006
-534,379	4,246	-0,233	-0,123
-533,364	179,064	0,033	0,035
-532,350	-47,644	-0,096	0,033
-531,335	21,329	0,201	0,117
-530,321	143,251	-0,108	0,103
-529,306	213,781	0,085	-0,097
-528,291	63,886	-0,208	-0,150
-527,277	-82,472	-0,118	-0,027
-526,262	21,723	-0,044	0,026
-525,248	-111,648	0,128	-0,018
-524,233	-31,906	0,177	-0,071
-523,218	246,410	-0,032	-0,039
-522,204	195,512	-0,043	0,047
-521,189	-200,000	-0,018	-0,091
-520,175	171,407	0,035	-0,036
-519,160	98,759	0,102	0,084
-518,145	188,082	0,039	-0,042
-517,131	-58,457	0,069	-0,021
-516,116	92,795	0,089	-0,072
-515,102	355,224	0,050	-0,071
-514,087	-200,000	0,027	-0,098
-513,072	-200,000	-0,007	-0,075
-512,058	267,072	-0,030	-0,038
-511,043	-58,643	0,103	-0,032
-510,029	-200,000	0,026	0,191
-509,014	26,283	0,156	0,093
-507,999	124,790	-0,027	0,024
-506,985	24,824	-0,203	0,120
-505,970	800,000	-0,051	0,105
-504,956	-96,579	-0,086	0,016
-503,941	175,216	-0,035	0,036
-502,926	-34,711	0,140	0,055
-501,912	150,385	-0,037	-0,036
-500,897	47,999	-0,029	0,020
-499,883	-200,000	0,003	-0,086
-498,868	-200,000	-0,022	-0,161
-497,853	581,880	0,037	-0,066
-496,839	800,000	0,011	0,031
-495,824	302,017	0,061	0,082
-494,810	210,348	0,070	0,079
-493,795	299,105	0,047	0,063
-492,781	-200,000	-0,005	-0,097
-491,766	317,915	0,029	-0,040
-490,751	-200,000	-0,009	0,085
-489,737	46,968	0,119	0,079
-488,722	-23,417	0,175	-0,075
-487,708	-200,000	-0,018	0,142
-486,693	256,473	-0,039	0,048
-485,678	99,395	-0,105	-0,087
-484,664	193,182	-0,076	-0,083
-483,649	-34,139	-0,100	-0,039
-482,635	31,599	-0,019	-0,011
-481,620	-38,584	0,150	-0,057
-480,605	-200,000	0,008	0,053
-479,591	40,650	-0,094	-0,060
-478,576	-200,000	0,001	-0,013
-477,562	-191,089	-0,061	-0,000
-476,547	687,319	0,040	-0,075
-475,532	-143,813	-0,116	0,008
-474,518	-200,000	0,000	0,182
-473,503	-158,855	0,097	0,004
-472,489	15,483	-0,143	0,080
-471,474	800,000	0,061	0,140
-470,459	-200,000	-0,003	-0,062
-469,445	-124,074	-0,141	0,016
-468,430	-6,330	0,048	0,023
-467,416	357,191	0,089	-0,128
-466,401	50,174	-0,055	0,037
-465,386	800,000	0,076	0,180
-464,372	-25,930	-0,025	-0,011
-463,357	800,000	-0,021	0,060
-462,343	686,017	-0,067	-0,126
-461,328	29,530	0,112	-0,068
-460,313	688,421	0,082	0,154
-459,299	270,066	-0,115	0,145
-458,284	-44,993	0,058	0,021
-457,270	329,417	-0,055	0,076
-456,255	-58,339	-0,059	0,018
-455,241	-3,859	0,060	-0,030
-454,226	179,089	0,065	0,069
-453,211	-121,676	-0,098	0,011
-452,197	36,540	0,092	0,058
-451,182	97,145	0,067	0,055
-450,168	-100,407	0,058	-0,010
-449,153	-161,440	-0,211	0,008
-448,138	-200,000	-0,016	-0,094
-447,124	142,990	0,004	-0,003
-446,109	588,713	-0,068	0,120
-445,095	-200,000	-0,007	0,155
-444,080	4,707	0,083	0,043
-443,065	-200,000	0,025	0,133
-442,051	171,137	-0,071	0,073
-441,036	-200,000	-0,027	-0,130
-440,022	-74,323	-0,120	0,031
-439,007	228,633	0,035	0,041
-437,992	-200,000	-0,036	-0,146
-436,978	-92,466	-0,108	0,022
-435,963	800,000	0,028	-0,065
-434,949	800,000	0,026	0,064
-433,934	-200,000	-0,024	-0,095
-432,919	-98,427	-0,151	-0,027
-431,905	234,138	0,085	-0,100
-430,890	-200,000	-0,008	-0,033
-429,876	-29,834	-0,026	-0,011
-428,861	234,768	-0,037	-0,044
-427,846	-155,824	0,034	0,002
-426,832	-179,167	0,160	-0,002
-425,817	-200,000	-0,033	-0,136
-424,803	-45,195	-0,120	-0,043
-423,788	-50,665	0,037	-0,012
-422,773	-200,000	0,004	0,137
-421,759	-200,000	0,000	-0,046
-420,744	400,554	0,016	0,024
-419,730	232,607	0,057	-0,067
-418,715	-200,000	-0,047	-0,258
-417,701	-136,811	-0,116	0,009
-416,686	474,822	-0,072	0,117
-415,671	-92,051	-0,026	0,005
-414,657	-200,000	-0,004	0,086
-413,642	8,716	0,056	0,030
-412,628	51,999	0,028	-0,019
-411,613	-10,645	-0,044	-0,021
-410,598	294,572	-0,146	-0,191
-409,584	519,729	0,079	-0,133
-408,569	800,000	-0,047	0,094
-407,555	308,561	0,008	0,010
-406,540	-109,342	0,053	-0,008
-405,525	-200,000	-0,009	0,060
-404,511	800,000	-0,059	-0,122
-403,496	-56,821	-0,106	-0,033
-402,482	-40,979	-0,132	-0,048
-401,467	-200,000	0,005	-0,052
-400,452	-86,638	0,202	0,044
-399,438	236,384	0,108	0,128
-398,423	-130,043	0,109	-0,010
-397,409	-19,480	0,102	-0,045
-396,394	-200,000	-0,023	-0,227
-395,379	310,705	-0,061	-0,082
-394,365	-39,019	0,095	0,035
-393,350	800,000	-0,022	0,055
-392,336	39,631	0,130	0,083
-391,321	56,273	-0,144	0,100
-390,306	-200,000	-0,035	0,141
-389,292	34,773	-0,088	-0,055
-388,277	-130,932	-0,040	-0,004
-387,263	45,131	0,074	-0,048
-386,248	233,745	0,033	0,039
-385,233	-67,523	0,112	-0,031
-384,219	-33,598	0,078	0,030
-383,204	-200,000	-0,011	-0,063
-382,190	-200,000	0,003	-0,042
-381,175	224,751	-0,052	0,061
-380,160	-200,000	-0,024	0,200
-379,146	219,015	0,148	0,169
-378,131	800,000	0,033	-0,093
-377,117	800,000	-0,029	0,080
-376,102	-25,023	-0,197	-0,083
-375,088	800,000	0,011	0,028
-374,073	446,382	-0,026	-0,041
-373,058	-200,000	0,024	0,077
-372,044	305,451	0,097	0,129
-371,029	800,000	0,031	0,088
-370,015	29,847	-0,010	0,006
-369,000	-42,252	-0,128	0,046
-367,985	-118,521	-0,073	-0,009
-366,971	-200,000	0,022	0,102
-365,956	441,860	0,019	-0,030
-364,942	-0,795	0,013	-0,006
-363,927	37,443	-0,129	0,081
-362,912	-200,000	-0,002	-0,057
-361,898	800,000	-0,011	-0,033
-360,883	-200,000	-0,031	-0,134
-359,869	-82,042	0,085	-0,020
-358,854	-104,013	0,137	0,023
-357,839	112,402	-0,095	0,082
-356,825	207,728	-0,093	0,104
-355,810	175,467	0,025	0,026
-354,796	-200,000	0,012	-0,069
-353,781	-116,084	-0,053	0,007
-352,766	-138,591	-0,027	-0,002
-351,752	67,534	-0,101	-0,074
-350,737	393,039	0,099	0,147
-349,723	800,000	0,052	0,133
-348,708	109,076	-0,132	-0,113
-347,693	-10,455	0,049	0,023
-346,679	-139,962	-0,132	0,010
-345,664	-200,000	-0,004	-0,017
-344,650	290,286	0,058	0,076
-343,635	70,021	0,047	-0,035
-342,620	9,983	0,053	0,029
-341,606	-200,000	0,008	0,132
-340,591	115,751	0,046	0,040
-339,577	-200,000	0,004	0,059
-338,562	-190,728	-0,176	0,001
-337,548	-62,733	0,082	-0,024
-336,533	726,893	0,073	0,139
-335,518	332,536	-0,028	0,038
-334,504	-200,000	0,004	0,070
-333,489	15,937	-0,014	0,008
-332,475	247,052	-0,090	-0,109
-331,460	-200,000	0,014	0,143
-330,445	800,000	0,008	0,018
-329,431	-85,271	0,147	0,033
-328,416	203,360	0,067	0,074
-327,402	3,643	-0,090	0,047
-326,387	-59,730	0,041	-0,013
-325,372	-103,677	0,150	0,025
-324,358	195,358	-0,052	-0,056
-323,343	136,182	0,074	0,069
-322,329	236,033	-0,039	-0,046
-321,314	800,000	0,024	-0,067
-320,299	495,482	0,057	0,094
-319,285	96,288	-0,090	0,074
-318,270	-200,000	-0,024	-0,087
-317,256	-200,000	0,015	-0,125
-316,241	-84,144	-0,042	-0,010
-315,226	290,427	0,059	0,077
-314,212	-200,000	0,021	0,117
-313,197	275,346	0,074	0,093
-312,183	219,561	-0,044	0,050
-311,168	560,274	0,076	0,131
-310,153	800,000	-0,023	-0,050
-309,139	-200,000	-0,016	-0,070
-308,124	598,659	-0,094	0,167
-307,110	-200,000	0,018	0,144
-306,095	194,897	-0,044	-0,048
-305,080	800,000	0,036	0,106
-304,066	170,974	-0,066	0,068
-303,051	-120,238	0,060	-0,007
-302,037	-200,000	0,022	0,075
-301,022	800,000	0,045	-0,093
-300,008	7,775	0,042	0,022
-298,993	156,036	0,069	0,068
-297,978	319,086	0,122	-0,165
-296,964	100,757	-0,124	-0,103
-295,949	11,553	-0,075	0,041
-294,935	-200,000	0,021	-0,101
-293,920	141,491	0,092	-0,087
-292,905	91,181	-0,063	-0,050
-291,891	-134,130	0,087	-0,008
-290,876	-200,000	0,030	-0,187
-289,862	-158,735	0,119	-0,005
-288,847	10,421	-0,112	-0,060
-287,832	29,823	-0,062	-0,038
-286,818	75,075	0,066	0,049
-285,803	-200,000	0,029	0,127
-284,789	-200,000	-0,037	0,148
-283,774	230,029	0,069	0,080
-282,759	210,386	-0,091	-0,102
-281,745	-77,407	-0,072	0,018
-280,730	609,815	0,059	-0,106
-279,716	-71,420	-0,042	0,011
-278,701	-58,297	0,102	0,031
-277,686	-103,017	0,072	-0,012
-276,672	598,253	0,061	0,108
-275,657	7,824	0,129	-0,068
-274,643	259,424	0,070	-0,087
-273,628	-100,903	-0,041	-0,007
-272,613	800,000	0,037	-0,114
-271,599	-94,657	0,050	0,010
-270,584	-37,710	0,098	0,037
-269,570	-27,888	0,098	-0,040
-268,555	-88,437	0,024	-0,005
-267,540	776,226	-0,005	-0,010
-266,526	800,000	-0,043	0,098
-265,511	-32,430	-0,075	0,029
-264,497	69,740	-0,097	-0,071
-263,482	55,061	0,080	0,055
-262,467	448,567	0,030	-0,047
-261,453	-200,000	-0,018	0,093
-260,438	-200,000	0,004	-0,094
-259,424	-91,223	-0,073	0,015
-258,409	800,000	0,035	-0,102
-257,395	6,294	0,057	-0,030
-256,380	323,688	0,063	0,086
-255,365	800,000	-0,039	0,095
-254,351	-49,133	0,074	0,025
-253,336	800,000	0,021	-0,042
-252,322	-106,488	0,102	0,016
-251,307	-200,000	0,012	-0,108
-250,292	-200,000	-0,011	0,142
-249,278	-131,975	0,037	0,003
-248,263	111,778	-0,037	0,032
-247,249	-51,306	-0,075	-0,025
-246,234	-96,707	0,111	0,021
-245,219	167,108	-0,155	-0,157
-244,205	800,000	0,074	-0,178
-243,190	14,451	-0,047	0,026
-242,176	800,000	0,055	0,128
-241,161	25,085	-0,108	0,063
-240,146	659,337	0,061	-0,112
-239,132	-23,187	0,178	0,076
-238,117	-77,679	-0,163	-0,040
-237,103	-200,000	-0,002	-0,025
-236,088	284,326	0,135	-0,174
-235,073	46,307	-0,029	0,019
-234,059	-47,521	0,122	0,042
-233,044	-109,043	0,093	0,014
-232,030	88,447	0,080	-0,063
-231,015	-200,000	0,019	0,066
-230,000	-30,998	-0,016	-0,006
-228,986	-200,000	-0,013	-0,049
-227,971	119,895	0,027	0,024
-226,957	-200,000	-0,013	0,078
-225,942	142,980	-0,159	-0,150
-224,927	800,000	0,011	-0,026
-223,913	12,665	-0,088	-0,048
-222,898	-122,901	-0,100	0,011
-221,884	-107,574	-0,133	0,021
-220,869	351,026	0,036	-0,051
-219,855	30,830	0,072	0,044
-218,840	-200,000	0,015	0,133
-217,825	58,643	-0,066	0,046
-216,811	-200,000	-0,008	0,028
-215,796	20,548	-0,146	0,084
-214,782	-200,000	-0,011	-0,182
-213,767	-200,000	0,021	0,089
-212,752	-200,000	-0,002	0,042
-211,738	800,000	0,030	-0,080
-210,723	800,000	0,025	0,061
-209,709	760,257	0,015	-0,029
-208,694	800,000	0,021	-0,044
-207,679	2,085	-0,041	0,021
-206,665	12,288	0,175	-0,095
-205,650	-90,628	0,123	-0,025
-204,636	-84,409	0,033	-0,007
-203,621	-200,000	-0,003	0,101
-202,606	2,919	0,020	0,010
-201,592	55,174	0,053	0,037
-200,577	617,152	0,002	0,004
-199,563	52,076	0,023	0,016
-198,548	-200,000	0,007	0,134
-197,533	245,549	0,037	0,045
-196,519	318,173	-0,046	0,062
-195,504	-200,000	-0,028	-0,125
-194,490	-200,000	0,000	-0,098
-193,475	-200,000	0,031	0,142
-192,460	-0,810	-0,138	0,069
-191,446	252,434	0,018	0,022
-190,431	-70,595	-0,134	-0,036
-189,417	-70,995	0,124	-0,033
-188,402	800,000	0,031	-0,095
-187,387	312,091	-0,049	0,065
-186,373	388,315	0,053	-0,078
-185,358	800,000	0,043	-0,134
-184,344	-88,447	-0,052	0,011
-183,329	-44,374	-0,116	0,041
-182,315	-200,000	-0,006	0,039
-181,300	423,003	-0,059	0,090
-180,285	263,253	0,040	-0,050
-179,271	79,553	-0,146	-0,111
-178,256	29,926	-0,073	-0,044
-177,242	-200,000	0,012	-0,148
-176,227	165,794	0,079	0,079
-175,212	800,000	-0,043	0,122
-174,198	-200,000	0,009	-0,138
-173,183	99,331	0,046	-0,038
-172,169	-200,000	0,016	-0,175
-171,154	-72,976	-0,067	0,017
-170,139	-200,000	0,015	0,046
-169,125	-200,000	0,013	0,064
-168,110	-200,000	0,010	0,182
-167,096	91,594	0,039	-0,031
-166,081	54,598	0,119	-0,081
-165,066	-6,897	0,078	0,037
-164,052	-200,000	0,024	-0,088
-163,037	106,813	0,103	0,087
-162,023	360,853	-0,027	-0,039
-161,008	-79,283	0,139	0,033
-159,993	-21,836	0,103	-0,044
-158,979	360,118	0,023	-0,033
-157,964	474,149	-0,089	-0,143
-156,950	-22,786	-0,121	0,052
-155,935	746,869	-0,028	0,053
-154,920	800,000	0,012	0,036
-153,906	-200,000	0,001	0,107
-152,891	56,180	0,070	0,048
-151,877	-200,000	-0,060	0,200
-150,862	-35,047	-0,026	0,010
-149,847	-121,444	0,016	-0,002
-148,833	33,652	-0,079	0,048
-147,818	89,961	0,026	-0,020
-146,804	800,000	-0,008	-0,024
-145,789	800,000	-0,061	0,192
-144,775	-200,000	-0,006	-0,049
-143,760	-169,029	-0,138	0,004
-142,745	112,547	-0,028	-0,024
-141,731	53,600	-0,099	0,067
-140,716	-132,839	0,090	0,008
-139,702	514,027	-0,028	-0,047
-138,687	-124,737	0,138	-0,015
-137,672	-78,779	0,134	-0,032
-136,658	24,714	-0,085	0,050
-135,643	-200,000	-0,013	0,049
-134,629	-200,000	-0,006	0,057
-133,614	-200,000	0,015	-0,172
-132,599	531,448	0,105	0,177
-131,585	-200,000	-0,000	0,185
-130,570	-103,648	-0,142	0,023
-129,556	-185,078	-0,090	-0,001
-128,541	-200,000	0,010	-0,110
-127,526	297,254	-0,088	-0,115
-126,512	107,512	0,052	0,044
-125,497	-139,616	-0,150	-0,011
-124,483	-200,000	-0,015	0,114
-123,468	99,045	0,078	-0,064
-122,453	-200,000	0,008	-0,060
-121,439	-200,000	-0,000	-0,134
-120,424	800,000	-0,016	0,031
-119,410	-2,134	-0,103	0,051
-118,395	-166,434	-0,119	0,003
-117,380	688,446	-0,082	0,153
-116,366	-128,616	0,144	-0,014
-115,351	-19,201	-0,131	0,057
-114,337	-73,730	-0,031	0,008
-113,322	-200,000	0,001	-0,016
-112,307	-83,311	0,053	-0,012
-111,293	-183,253	0,098	0,001
-110,278	-29,810	0,058	-0,023
-109,264	220,148	-0,028	0,032
-108,249	-200,000	0,028	-0,114
-107,234	-163,112	0,061	-0,002
-106,220	205,421	-0,126	-0,138
-105,205	-108,952	-0,076	0,011
-104,191	-15,756	0,040	-0,018
-103,176	-200,000	0,011	0,065
-102,162	-200,000	-0,015	0,046
-101,147	-5,250	0,072	0,035
-100,132	-114,355	-0,094	-0,013
-99,118	732,175	-0,039	-0,074
-98,103	399,844	0,099	0,147
-97,089	164,670	-0,065	0,065
-96,074	-141,475	0,123	0,009
-95,059	223,306	-0,048	0,055
-94,045	-200,000	-0,008	0,029
-93,030	-200,000	-0,008	0,048
-92,016	-1,806	-0,055	-0,027
-91,001	286,984	0,069	0,089
-89,986	65,357	0,095	0,068
-88,972	39,050	0,053	0,033
-87,957	-166,000	-0,146	-0,004
-86,943	-200,000	-0,027	0,139
-85,928	91,611	-0,119	0,095
-84,913	800,000	0,012	0,036
-83,899	-76,210	0,066	-0,016
-82,884	-11,276	-0,036	0,017
-81,870	103,088	0,069	0,057
-80,855	-200,000	-0,053	0,232
-79,840	800,000	-0,015	0,044
-78,826	-21,362	-0,071	-0,031
-77,811	-117,454	-0,091	0,011
-76,797	-80,278	-0,083	-0,020
-75,782	-200,000	-0,023	0,110
-74,767	-200,000	0,005	0,062
-73,753	-200,000	0,034	-0,143
-72,738	-200,000	-0,022	-0,116
-71,724	-200,000	-0,003	-0,064
-70,709	133,458	0,071	-0,065
-69,694	31,097	-0,080	0,049
-68,680	154,280	0,079	-0,076
-67,665	-161,143	-0,060	0,002
-66,651	-84,093	0,141	0,031
-65,636	-132,127	0,074	0,007
-64,622	53,262	-0,121	0,082
-63,607	800,000	-0,023	0,062
-62,592	146,683	0,094	-0,089
-61,578	-75,801	-0,160	-0,040
-60,563	-200,000	-0,009	0,086
-59,549	489,462	0,025	0,040
-58,534	35,697	-1,812	-1,122
-57,519	394,817	-1,412	-2,084
-56,505	-200,000	-0,438	-4,363
-55,490	330,195	0,862	1,175
-54,476	800,000	5,038	11,522
-53,461	-200,000	20,649	327,913
-52,446	800,000	753,960	2315,581
-51,432	551,215	1659,490	2822,315
-50,417	73,786	1663,566	1229,566
-49,403	18,981	1536,739	867,085
-48,388	12,975	1459,426	794,418
-47,373	18,912	1449,785	817,630
-46,359	16,005	1439,421	797,922
-45,344	11,290	1435,136	773,071
-44,330	11,215	1433,296	771,693
-43,315	11,195	1431,455	770,577
-42,300	11,191	1429,719	769,594
-41,286	11,213	1428,599	769,066
-40,271	11,186	1427,173	768,137
-39,257	11,192	1425,918	767,461
-38,242	11,229	1424,666	766,932
-37,227	11,187	1423,637	766,150
-36,213	11,204	1422,372	765,517
-35,198	11,208	1421,328	764,945
-34,184	11,281	1420,416	764,766
-33,169	11,221	1418,751	763,557
-32,154	11,244	1417,988	763,225
-31,140	11,278	1416,684	762,654
-30,125	11,299	1415,737	762,209
-29,111	11,271	1414,604	761,438
-28,096	11,257	1413,303	760,644
-27,082	11,189	1412,387	759,803
-26,067	11,148	1411,363	759,029
-25,052	11,181	1410,226	758,539
-24,038	11,211	1409,062	758,024
-23,023	11,162	1408,151	757,277
-22,009	11,188	1407,053	756,774
-20,994	11,170	1406,170	756,189
-19,979	11,157	1405,148	755,546
-18,965	11,185	1404,192	755,133
-17,950	11,109	1403,484	754,371
-16,936	11,139	1402,512	753,955
-15,921	11,112	1401,497	753,256
-14,906	11,073	1400,638	752,582
-13,892	11,089	1399,717	752,130
-12,877	11,117	1398,819	751,749
-11,863	11,080	1398,143	751,184
-10,848	11,064	1396,886	750,404
-9,833	11,058	1396,149	749,950
-8,819	11,025	1395,414	749,372
-7,804	11,008	1394,309	748,674
-6,790	11,004	1393,327	748,095
-5,775	11,009	1392,472	747,633
-4,760	11,000	1391,474	747,025
-3,746	10,998	1390,600	746,518
-2,731	10,997	1389,719	746,011
-1,717	10,989	1388,892	745,497
-0,702	10,952	1387,062	744,316
0,313	15,012	1301,462	716,972
1,327	31,160	693,704	418,916
2,342	48,088	120,586	79,387
3,356	2,663	16,518	8,418
4,371	-6,043	3,406	1,636
5,386	8,309	0,836	0,442
6,400	-200,000	0,077	0,556
7,415	104,946	-0,144	-0,120
8,429	2,880	-0,297	-0,151
9,444	30,639	-0,373	-0,224
10,459	-46,856	-0,354	-0,122
11,473	-134,655	-0,384	-0,033
12,488	77,183	-0,199	-0,149
13,502	457,144	-0,156	-0,246
14,517	6,884	-0,496	-0,259
15,531	-58,116	-0,425	-0,130
16,546	0,656	-0,327	-0,164
17,561	77,564	-0,315	-0,236
18,575	274,300	-0,155	-0,193
19,590	16,419	-0,255	-0,141
20,604	-126,166	-0,283	0,029
21,619	-54,758	-0,406	-0,128
22,634	105,576	-0,397	-0,331
23,648	170,388	-0,380	-0,383
24,663	204,822	-0,213	-0,233
25,677	-18,130	-0,365	-0,160
26,692	6,729	-0,296	-0,155
27,707	243,422	-0,321	-0,380
28,721	-42,228	-0,373	-0,133
29,736	86,461	-0,312	-0,241
30,750	146,366	-0,337	-0,319
31,765	36,477	-0,428	-0,265
32,780	-30,982	-0,294	-0,116
33,794	-61,196	-0,450	-0,133
34,809	-99,800	-0,342	-0,060
35,823	1,080	-0,236	-0,119
36,838	86,404	-0,355	-0,275
37,853	43,508	-0,386	-0,248
38,867	22,716	-0,373	-0,214
39,882	93,238	-0,342	-0,272
40,896	-41,258	-0,303	-0,109
41,911	-140,482	-0,444	-0,032
42,926	1,935	-0,250	-0,126
43,940	90,104	-0,309	-0,243
44,955	86,477	-0,315	-0,244
45,969	62,492	-0,283	-0,199
46,984	20,279	-0,276	-0,156
47,999	-200,000	-0,360	0,000
49,013	33,251	-0,348	-0,212
50,028	-69,497	-0,406	-0,109
51,042	71,507	-0,349	-0,254
52,057	184,454	-0,247	-0,257
53,071	116,914	-0,267	-0,230
54,086	7,320	-0,329	-0,172
55,101	-125,642	-0,339	-0,036
56,115	18,701	-0,332	-0,186
57,130	52,923	-0,338	-0,227
58,144	118,947	-0,378	-0,328
59,159	85,777	-0,340	-0,262
60,174	131,506	-0,341	-0,308
61,188	125,295	-0,292	-0,258
62,203	-26,337	-0,316	-0,130
63,217	-118,001	-0,337	0,042
64,232	35,377	-0,309	-0,190
65,247	-2,967	-0,493	-0,241
66,261	-23,405	-0,449	-0,188
67,276	-111,977	-0,344	-0,048
68,290	82,867	-0,367	-0,279
69,305	22,038	-0,326	-0,186
70,320	-113,834	-0,250	0,034
71,334	82,904	-0,239	-0,182
72,349	5,907	-0,261	-0,135
73,363	1,066	-0,375	-0,188
74,378	149,812	-0,281	-0,267
75,393	27,371	-0,286	-0,168
76,407	-29,900	-0,326	-0,129
77,422	51,987	-0,306	-0,204
78,436	22,564	-0,330	-0,189
79,451	147,667	-0,302	-0,285
80,466	-156,257	-0,347	-0,015
81,480	25,197	-0,255	-0,148
82,495	-26,166	-0,239	-0,098
83,509	-17,601	-0,173	-0,076
84,524	-44,118	-0,322	-0,113
85,539	2,736	-0,281	-0,142
86,553	55,736	-0,274	-0,185
87,568	38,953	-0,275	-0,172
88,582	-22,320	-0,359	-0,152
89,597	64,079	-0,179	-0,126
90,611	106,802	-0,224	-0,186
91,626	141,694	-0,159	-0,148
92,641	121,511	-0,207	-0,180
93,655	119,932	-0,270	-0,234
94,670	89,772	-0,265	-0,207
95,684	144,136	-0,338	-0,315
96,699	102,746	-0,184	-0,150
97,714	303,108	-0,178	-0,231
98,728	98,581	-0,229	-0,184
99,743	62,296	-0,284	-0,198
100,757	780,364	-0,081	-0,156
101,772	72,810	-0,189	-0,138
102,787	84,247	-0,304	-0,232
103,801	55,966	-0,221	-0,150
104,816	63,625	-0,179	-0,126
105,830	-80,603	-0,230	-0,053
106,845	166,048	-0,173	-0,171
107,860	-43,114	-0,316	-0,111
108,874	140,154	-0,110	-0,102
109,889	127,371	-0,379	-0,336
110,903	-33,142	-0,118	-0,045
111,918	101,293	-0,208	-0,169
112,933	204,961	-0,158	-0,171
113,947	-68,288	-0,393	-0,106
114,962	98,117	-0,221	-0,178
115,976	-18,857	-0,275	-0,119
116,991	9,302	-0,325	-0,171
118,006	-14,567	-0,332	-0,149
119,020	379,941	-0,175	-0,251
120,035	296,584	-0,222	-0,285
121,049	-13,368	-0,154	-0,070
122,064	-41,055	-0,249	-0,089
123,079	164,301	-0,216	-0,213
124,093	56,458	-0,241	-0,163
125,108	62,705	-0,249	-0,174
126,122	-111,718	-0,294	0,041
127,137	154,043	-0,227	-0,217
128,151	209,336	-0,143	-0,157
129,166	363,319	-0,101	-0,142
130,181	31,674	-0,250	-0,150
131,195	140,143	-0,191	-0,176
132,210	70,968	-0,365	-0,263
133,224	-31,108	-0,195	-0,076
134,239	215,560	-0,201	-0,222
135,254	-9,522	-0,220	-0,102
136,268	14,963	-0,188	-0,102
137,283	77,185	-0,260	-0,193
138,297	-51,914	-0,331	-0,107
139,312	218,152	-0,167	-0,186
140,327	141,902	-0,292	-0,269
141,341	126,590	-0,217	-0,191
142,356	-9,322	-0,292	-0,136
143,370	209,239	-0,314	-0,343
144,385	-8,859	-0,242	-0,113
145,400	117,824	-0,210	-0,180
146,414	-50,102	-0,279	-0,092
147,429	699,457	-0,129	-0,237
148,443	-86,105	-0,308	-0,066
149,458	183,869	-0,245	-0,253
150,473	-79,040	-0,323	-0,076
151,487	17,739	-0,282	-0,156
152,502	-76,129	-0,197	-0,048
153,516	-41,764	-0,215	-0,076
154,531	-82,762	-0,283	-0,063
155,546	161,212	-0,164	-0,160
156,560	32,672	-0,380	-0,228
157,575	-34,606	-0,231	-0,087
158,589	77,344	-0,206	-0,153
159,604	-10,707	-0,301	-0,138
160,619	169,643	-0,195	-0,194
161,633	191,860	-0,295	-0,309
162,648	250,571	-0,179	-0,212
163,662	673,690	-0,172	-0,311
164,677	-39,370	-0,211	-0,076
165,692	-142,471	-0,260	-0,018
166,706	214,067	-0,247	-0,272
167,721	-23,896	-0,336	-0,139
168,735	184,537	-0,268	-0,276
169,750	-17,053	-0,246	-0,108
170,764	408,565	-0,089	-0,131
171,779	-116,711	-0,115	-0,014
172,794	0,628	-0,198	-0,098
173,808	665,400	-0,073	-0,132
174,823	-51,761	-0,227	-0,073
175,837	70,022	-0,200	-0,143
176,852	94,560	-0,171	-0,135
177,867	491,704	-0,131	-0,210
178,881	-58,306	-0,251	-0,075
179,896	800,000	-0,051	-0,152
180,910	-9,173	-0,238	-0,110
181,925	437,710	-0,210	-0,318
182,940	-112,616	-0,193	-0,026
183,954	-74,499	-0,434	-0,108
184,969	343,342	-0,163	-0,222
185,983	170,295	-0,181	-0,180
186,998	-64,718	-0,270	-0,075
188,013	-8,184	-0,238	-0,111
189,027	495,507	-0,145	-0,232
190,042	345,411	-0,198	-0,270
191,056	800,000	-0,076	-0,163
192,071	55,498	-0,187	-0,125
193,086	110,601	-0,151	-0,126
194,100	-57,273	-0,162	-0,049
195,115	148,434	-0,250	-0,234
196,129	102,223	-0,263	-0,213
197,144	418,964	-0,176	-0,262
198,159	233,571	-0,132	-0,151
199,173	107,794	-0,161	-0,133
200,188	-73,396	-0,183	0,046
201,202	-77,549	-0,201	0,048
202,217	61,959	-0,204	-0,140
203,232	412,575	-0,083	-0,122
204,246	70,336	-0,238	-0,170
205,261	166,479	-0,232	-0,228
206,275	762,532	-0,154	-0,292
207,290	50,346	-0,210	-0,137
208,304	470,009	-0,094	-0,148
209,319	-134,414	-0,316	-0,026
210,334	29,801	-0,215	-0,126
211,348	-196,133	-0,254	0,001
212,363	10,467	-0,203	-0,107
213,377	315,439	-0,182	-0,238
214,392	180,692	-0,071	-0,072
215,407	-74,148	-0,182	0,045
216,421	-177,705	-0,106	-0,002
217,436	-142,259	-0,131	-0,009
218,450	83,086	-0,195	-0,147
219,465	114,272	-0,183	-0,154
220,480	105,094	-0,164	-0,134
221,494	800,000	-0,070	-0,177
222,509	-158,959	-0,202	-0,008
223,523	-114,579	-0,144	-0,019
224,538	-34,744	-0,135	-0,051
225,553	141,000	-0,191	-0,175
226,567	800,000	-0,044	-0,124
227,582	-23,434	-0,105	-0,044
228,596	135,343	-0,095	-0,085
229,611	-16,371	-0,183	-0,080
230,626	118,951	-0,180	-0,154
231,640	-23,202	-0,342	-0,142
232,655	252,674	-0,185	-0,218
233,669	800,000	-0,102	-0,257
234,684	-169,760	-0,239	-0,006
235,699	64,636	-0,153	-0,106
236,713	112,163	-0,138	-0,116
237,728	49,277	-0,128	-0,083
238,742	800,000	-0,104	-0,234
239,757	89,055	-0,350	-0,269
240,772	218,067	-0,182	-0,201
241,786	-96,439	-0,210	0,038
242,801	170,427	-0,141	-0,139
243,815	-130,840	-0,176	-0,016
244,830	6,772	-0,144	-0,074
245,844	-16,579	-0,285	-0,124
246,859	-27,034	-0,293	-0,117
247,874	63,574	-0,151	-0,105
248,888	117,658	-0,196	-0,167
249,903	-46,237	-0,107	-0,036
250,917	530,182	-0,162	-0,266
251,932	356,404	-0,129	-0,177
252,947	-64,590	-0,109	-0,030
253,961	375,526	-0,078	-0,109
254,976	247,259	-0,218	-0,254
255,990	116,872	-0,219	-0,186
257,005	-15,401	-0,231	-0,101
258,020	548,661	-0,080	-0,133
259,034	-184,299	-0,126	0,001
260,049	13,695	-0,211	-0,113
261,063	-21,851	-0,251	-0,105
262,078	-76,166	-0,222	-0,054
263,093	327,669	-0,152	-0,201
264,107	-200,000	-0,078	-0,241
265,122	-18,024	-0,161	0,069
266,136	23,647	-0,096	-0,054
267,151	-32,756	-0,242	-0,092
268,166	330,176	-0,086	-0,114
269,180	-79,396	-0,288	-0,067
270,195	136,658	-0,167	-0,150
271,209	69,846	-0,221	-0,157
272,224	-112,652	-0,087	-0,012
273,239	252,972	-0,122	-0,144
274,253	-56,129	-0,143	-0,044
275,268	-108,548	-0,231	-0,034
276,282	16,296	-0,241	-0,131
277,297	47,736	-0,180	-0,115
278,312	176,932	-0,148	-0,148
279,326	51,243	-0,127	-0,083
280,341	800,000	-0,039	-0,099
281,355	-61,099	-0,202	-0,058
282,370	-4,471	-0,201	-0,095
283,384	241,102	-0,144	-0,166
284,399	261,696	-0,166	-0,198
285,414	-151,567	-0,190	-0,010
286,428	800,000	-0,105	-0,312
287,443	-6,921	-0,055	0,025
288,457	100,737	-0,034	0,027
289,472	-31,959	-0,109	-0,042
290,487	-53,711	-0,217	-0,068
291,501	226,082	-0,113	-0,126
292,516	32,092	-0,147	-0,087
293,530	-52,017	-0,160	-0,051
294,545	197,576	-0,036	0,038
295,560	56,709	-0,124	0,083
296,574	-200,000	-0,004	-0,083
297,589	32,913	-0,129	-0,077
298,603	8,538	-0,338	-0,174
299,618	-31,294	-0,171	-0,066
300,633	293,676	-0,102	-0,128
301,647	128,397	-0,131	-0,114
302,662	68,578	-0,170	-0,120
303,676	259,248	-0,105	-0,125
304,691	800,000	-0,061	-0,161
305,706	153,339	-0,078	-0,073
306,720	412,469	-0,190	-0,278
307,735	38,446	-0,172	-0,105
308,749	-90,699	-0,152	-0,030
309,764	-135,858	-0,243	-0,019
310,779	-34,998	-0,167	-0,062
311,793	-140,486	-0,129	-0,009
312,808	-12,578	-0,234	-0,104
313,822	265,329	-0,141	-0,169
314,837	2,922	-0,113	-0,056
315,852	366,618	-0,110	0,153
316,866	224,094	-0,059	-0,065
317,881	-176,772	-0,083	-0,001
318,895	-59,240	-0,130	-0,038
319,910	9,148	-0,153	-0,079
320,925	-18,816	-0,199	-0,085
321,939	599,476	-0,122	-0,208
322,954	185,473	-0,079	-0,080
323,968	131,890	-0,205	-0,181
324,983	22,496	-0,192	-0,108
325,997	29,726	-0,156	-0,091
327,012	800,000	-0,073	-0,174
328,027	307,514	-0,094	-0,120
329,041	204,424	-0,084	-0,089
330,056	-200,000	-0,017	-0,143
331,070	-42,838	-0,149	-0,052
332,085	123,336	-0,065	0,056
333,100	184,831	-0,138	-0,141
334,114	800,000	-0,052	-0,103
335,129	-20,340	-0,027	0,011
336,143	104,525	-0,122	-0,099
337,158	49,043	-0,079	0,051
338,173	32,608	-0,118	-0,070
339,187	-200,000	0,009	-0,130
340,202	-179,330	-0,183	-0,003
341,216	231,995	-0,104	-0,118
342,231	800,000	-0,051	-0,099
343,246	43,393	-0,195	-0,122
344,260	-123,281	-0,196	-0,021
345,275	-116,304	-0,104	0,013
346,289	510,231	-0,093	-0,149
347,304	312,704	-0,106	-0,137
348,319	151,378	-0,134	-0,125
349,333	546,368	-0,152	-0,249
350,348	66,444	-0,115	-0,080
351,362	37,954	-0,142	-0,086
352,377	62,508	-0,093	0,064
353,392	-166,884	-0,078	0,002
354,406	-30,990	-0,057	-0,022
355,421	208,007	1307,096	1398,235
356,435	160,040	1466,877	1398,736
