DTS Sentinel unit serial number:	SN410029Multiplexer serial number:	ORYXHardware model number:	OX2-SRSoftware version number:	ORYX F/W v4,00 Oryx Data Collector v3.7.2.0data status	okinstallation	B3 Nyhavnadifferential loss correction	single-endedforward channel	channel 1reverse channel	N/Adate	2023/12/05time	08:57:30forward acquisition time	300,00reverse acquisition time	0,00gamma	499,1914k internal	0,3192k external	0,3192temperature offset calibration	1,0000default loss term (dB/km)	0,3820temperature slope calibration	1,0000multiplexer offset coefficient	1,0000multiplexer slope coefficient	1,0000fibre end	0,00T internal ref (°C)	12,24T ext. ref 1 (°C)	-3,77T ext. ref 2 (°C)	-4,03length (m)	temperature (°C)	Stokes	anti-Stokes-744,400	800,000	-0,011	-0,034
-743,385	442,880	-0,154	0,247
-742,371	800,000	-0,039	-0,098
-741,356	-200,000	-0,047	0,260
-740,342	-142,614	-0,049	-0,003
-739,327	270,409	-0,156	0,200
-738,312	-200,000	-0,008	-0,114
-737,298	16,232	-0,183	0,105
-736,283	800,000	-0,036	-0,098
-735,269	800,000	-0,065	0,165
-734,254	800,000	-0,079	-0,199
-733,239	25,144	-0,351	0,212
-732,225	99,464	-0,028	-0,024
-731,210	292,750	0,091	0,121
-730,196	701,806	-0,047	-0,091
-729,181	800,000	-0,040	0,085
-728,167	41,809	-0,104	-0,069
-727,152	255,304	-0,019	0,024
-726,137	800,000	-0,039	0,095
-725,123	-200,000	0,012	-0,039
-724,108	657,175	-0,090	-0,169
-723,094	-73,503	-0,231	-0,061
-722,079	-14,901	-0,103	-0,048
-721,064	-62,859	-0,135	-0,041
-720,050	176,574	-0,051	0,054
-719,035	404,771	-0,026	0,040
-718,021	-200,000	0,010	-0,130
-717,006	-200,000	0,011	-0,154
-715,991	442,682	-0,093	-0,149
-714,977	-108,982	0,044	0,007
-713,962	62,335	-0,091	-0,066
-712,948	-159,904	-0,081	0,003
-711,933	-75,770	-0,124	0,032
-710,918	-200,000	-0,011	0,110
-709,904	342,142	-0,030	-0,043
-708,889	-22,411	-0,085	-0,037
-707,875	193,620	-0,095	-0,105
-706,860	39,175	0,013	-0,008
-705,845	-200,000	0,036	0,168
-704,831	-8,839	-0,084	0,041
-703,816	478,176	0,031	0,052
-702,802	498,047	0,018	-0,030
-701,787	153,700	0,033	0,033
-700,772	-34,904	-0,078	-0,031
-699,758	308,863	-0,026	0,036
-698,743	-110,584	0,115	0,017
-697,729	110,986	-0,050	0,044
-696,714	344,036	-0,092	-0,131
-695,699	-154,068	0,102	0,005
-694,685	785,595	0,018	-0,035
-693,670	504,295	-0,012	-0,021
-692,656	17,068	0,094	0,054
-691,641	-200,000	0,004	0,149
-690,627	-200,000	0,009	0,090
-689,612	-200,000	-0,005	-0,052
-688,597	447,425	0,058	0,093
-687,583	537,756	0,041	-0,071
-686,568	-3,923	-0,114	-0,057
-685,554	-200,000	-0,023	-0,107
-684,539	800,000	-0,015	0,037
-683,524	212,538	-0,119	0,137
-682,510	-200,000	0,001	-0,073
-681,495	800,000	-0,078	-0,164
-680,481	-200,000	0,024	-0,094
-679,466	-77,352	-0,159	0,040
-678,451	-105,439	0,033	-0,005
-677,437	-200,000	-0,046	-0,168
-676,422	-200,000	0,033	0,312
-675,408	18,513	-0,063	0,037
-674,393	273,719	0,029	-0,037
-673,378	138,180	-0,108	-0,103
-672,364	-117,701	0,049	0,006
-671,349	-56,324	0,106	-0,034
-670,335	-200,000	0,021	-0,074
-669,320	-81,648	-0,155	0,037
-668,305	800,000	-0,027	0,055
-667,291	556,885	0,081	-0,142
-666,276	172,525	-0,043	-0,045
-665,262	-111,083	-0,053	-0,008
-664,247	-200,000	0,009	-0,107
-663,232	277,046	0,106	-0,137
-662,218	81,628	-0,061	-0,048
-661,203	-97,072	0,101	-0,019
-660,189	-200,000	0,031	0,133
-659,174	152,502	-0,024	0,024
-658,159	-84,660	0,018	0,004
-657,145	-136,630	-0,139	0,012
-656,130	-65,571	0,056	0,016
-655,116	-104,932	-0,087	-0,014
-654,101	-200,000	-0,051	0,169
-653,086	-92,595	0,097	0,020
-652,072	370,417	-0,022	0,033
-651,057	292,572	-0,047	-0,062
-650,043	-200,000	0,004	-0,057
-649,028	800,000	0,044	-0,117
-648,014	-200,000	-0,001	0,120
-646,999	-200,000	-0,005	-0,099
-645,984	-200,000	-0,024	0,089
-644,970	-60,070	0,058	0,018
-643,955	-200,000	-0,015	0,058
-642,941	-200,000	-0,010	-0,085
-641,926	-1,010	-0,103	-0,053
-640,911	199,268	-0,124	-0,139
-639,897	-118,636	-0,075	0,010
-638,882	800,000	0,009	-0,024
-637,868	-200,000	-0,014	-0,049
-636,853	83,338	0,100	-0,079
-635,838	-200,000	0,010	-0,124
-634,824	-200,000	0,057	-0,191
-633,809	63,577	-0,023	-0,016
-632,795	90,948	0,080	-0,065
-631,780	-200,000	-0,014	0,059
-630,765	-34,395	-0,034	0,013
-629,751	66,328	-0,101	-0,075
-628,736	-200,000	0,018	-0,164
-627,722	252,291	-0,020	-0,025
-626,707	662,881	0,039	0,073
-625,692	233,809	-0,112	-0,134
-624,678	-200,000	-0,015	-0,086
-623,663	-200,000	-0,005	0,019
-622,649	800,000	-0,037	0,076
-621,634	100,877	-0,041	-0,034
-620,619	-200,000	0,034	-0,135
-619,605	-65,078	-0,086	-0,025
-618,590	-62,408	0,054	0,016
-617,576	-67,693	0,155	-0,044
-616,561	-32,723	0,091	-0,036
-615,546	324,911	0,079	0,110
-614,532	140,082	-0,067	-0,064
-613,517	-53,421	-0,144	-0,048
-612,503	-200,000	-0,009	-0,048
-611,488	800,000	0,061	0,141
-610,474	800,000	0,049	0,128
-609,459	-7,922	-0,044	0,022
-608,444	28,402	-0,086	-0,052
-607,430	-115,958	-0,182	-0,024
-606,415	-74,818	0,102	-0,026
-605,401	618,251	-0,036	-0,066
-604,386	160,315	-0,064	-0,065
-603,371	-200,000	0,039	0,129
-602,357	-200,000	0,017	0,076
-601,342	800,000	-0,035	-0,078
-600,328	-12,945	-0,126	-0,059
-599,313	191,081	-0,086	-0,094
-598,298	-200,000	0,008	0,040
-597,284	-21,983	0,093	-0,041
-596,269	393,587	-0,091	0,138
-595,255	-59,495	-0,086	-0,027
-594,240	36,064	0,068	0,044
-593,225	-75,505	-0,060	0,015
-592,211	0,757	-0,042	-0,021
-591,196	800,000	-0,019	0,040
-590,182	95,440	0,046	-0,038
-589,167	-200,000	-0,038	0,136
-588,152	800,000	-0,041	0,100
-587,138	800,000	0,011	0,025
-586,123	-101,683	-0,104	-0,018
-585,109	-40,935	-0,028	0,011
-584,094	-175,401	-0,089	-0,002
-583,079	-112,316	0,138	0,020
-582,065	800,000	-0,049	0,127
-581,050	-188,439	0,082	-0,001
-580,036	-200,000	0,036	-0,165
-579,021	20,957	-0,123	-0,072
-578,006	437,359	-0,087	-0,139
-576,992	121,851	0,112	-0,102
-575,977	66,398	-0,016	-0,012
-574,963	-185,432	-0,037	-0,000
-573,948	-123,553	-0,064	0,007
-572,934	33,834	-0,022	-0,014
-571,919	-135,091	-0,046	0,004
-570,904	145,001	0,064	0,062
-569,890	800,000	0,026	0,058
-568,875	174,291	-0,022	0,023
-567,861	11,665	0,178	0,099
-566,846	-63,535	0,133	-0,039
-565,831	111,434	-0,035	0,030
-564,817	-53,305	-0,008	0,003
-563,802	366,874	0,079	0,115
-562,788	-26,955	0,048	0,020
-561,773	-179,302	-0,104	0,002
-560,758	283,300	0,044	0,058
-559,744	-56,623	0,079	-0,025
-558,729	-200,000	0,026	-0,090
-557,715	138,611	-0,134	-0,127
-556,700	-120,753	-0,118	-0,014
-555,685	347,070	0,066	0,095
-554,671	-43,011	0,103	-0,038
-553,656	192,315	-0,123	0,134
-552,642	-62,645	-0,066	0,020
-551,627	669,895	-0,058	-0,109
-550,612	-200,000	-0,015	-0,093
-549,598	800,000	-0,042	-0,118
-548,583	169,221	-0,101	-0,105
-547,569	-200,000	-0,012	0,088
-546,554	-200,000	0,022	-0,122
-545,539	587,844	0,027	-0,048
-544,525	548,640	-0,082	-0,143
-543,510	800,000	-0,045	0,104
-542,496	-103,492	0,093	-0,016
-541,481	800,000	-0,029	0,073
-540,466	-183,180	-0,142	0,002
-539,452	-200,000	0,012	0,060
-538,437	-37,051	0,036	0,014
-537,423	12,885	-0,163	0,091
-536,408	108,702	0,078	0,067
-535,393	342,749	0,029	-0,041
-534,379	-85,306	-0,065	-0,015
-533,364	-9,463	-0,090	-0,043
-532,350	41,218	-0,117	-0,076
-531,335	-75,221	0,095	0,024
-530,321	358,313	-0,024	0,034
-529,306	-139,910	0,043	-0,003
-528,291	-200,000	-0,005	0,021
-527,277	675,514	-0,016	-0,031
-526,262	800,000	-0,021	0,046
-525,248	800,000	-0,021	-0,064
-524,233	-200,000	-0,008	0,102
-523,218	-200,000	0,011	0,137
-522,204	-200,000	0,009	0,084
-521,189	141,261	-0,034	-0,033
-520,175	192,011	0,007	0,008
-519,160	800,000	-0,019	0,055
-518,145	-30,464	0,058	-0,024
-517,131	-200,000	0,002	0,010
-516,116	17,325	0,097	-0,055
-515,102	-200,000	0,009	0,048
-514,087	800,000	-0,020	0,054
-513,072	-31,721	-0,145	-0,059
-512,058	167,786	0,027	-0,028
-511,043	-200,000	-0,003	0,051
-510,029	800,000	-0,024	0,048
-509,014	223,847	0,023	0,027
-507,999	-200,000	0,011	-0,050
-506,985	-120,019	-0,075	-0,009
-505,970	-181,937	0,075	0,001
-504,956	17,720	0,079	-0,045
-503,941	-72,570	0,145	0,038
-502,926	-200,000	-0,020	0,081
-501,912	402,585	0,060	0,091
-500,897	-39,679	-0,054	-0,020
-499,883	17,412	-0,083	-0,048
-498,868	21,578	-0,155	-0,091
-497,853	190,901	0,045	-0,049
-496,839	-85,124	-0,162	0,036
-495,824	-138,885	0,053	-0,004
-494,810	-89,248	0,066	0,014
-493,795	-200,000	-0,009	0,048
-492,781	-154,665	-0,131	0,006
-491,766	800,000	-0,021	-0,048
-490,751	174,021	-0,040	0,042
-489,737	59,459	-0,027	0,019
-488,722	-200,000	0,017	-0,107
-487,708	-10,991	-0,104	-0,049
-486,693	800,000	0,028	-0,068
-485,678	-91,620	-0,161	-0,033
-484,664	-119,052	-0,158	-0,020
-483,649	-103,097	-0,057	0,010
-482,635	31,725	0,123	0,076
-481,620	-7,481	0,025	-0,012
-480,605	246,030	0,100	0,121
-479,591	222,272	0,119	0,139
-478,576	-122,267	0,096	0,011
-477,562	-98,206	-0,144	-0,026
-476,547	800,000	0,061	0,134
-475,532	306,604	-0,029	0,040
-474,518	459,612	0,024	-0,038
-473,503	-92,950	0,042	0,008
-472,489	-200,000	0,019	0,217
-471,474	431,053	0,033	0,052
-470,459	-76,874	-0,096	0,024
-469,445	127,068	0,019	-0,017
-468,430	627,414	-0,031	0,057
-467,416	-163,734	-0,119	-0,004
-466,401	144,247	0,096	-0,093
-465,386	-200,000	-0,044	0,155
-464,372	-200,000	0,005	0,141
-463,357	-178,459	0,055	0,001
-462,343	374,874	-0,052	-0,076
-461,328	68,961	-0,085	-0,063
-460,313	800,000	0,054	-0,141
-459,299	138,268	0,076	-0,072
-458,284	210,117	0,107	0,121
-457,270	161,228	-0,055	0,055
-456,255	190,452	0,032	-0,035
-455,241	-200,000	-0,014	-0,062
-454,226	26,316	-0,022	-0,013
-453,211	13,849	0,056	0,031
-452,197	57,753	0,139	0,098
-451,182	339,479	-0,068	0,095
-450,168	59,041	0,011	0,008
-449,153	226,180	0,057	-0,067
-448,138	-6,671	-0,032	-0,016
-447,124	76,468	-0,095	-0,073
-446,109	800,000	-0,037	0,074
-445,095	308,082	0,082	0,110
-444,080	-8,988	0,089	0,043
-443,065	-103,586	0,108	0,018
-442,051	268,546	0,078	0,099
-441,036	-149,703	-0,082	0,005
-440,022	28,546	-0,142	-0,086
-439,007	-200,000	-0,012	0,219
-437,992	800,000	0,027	0,067
-436,978	136,166	0,049	0,046
-435,963	-200,000	-0,008	0,094
-434,949	-55,369	-0,072	-0,023
-433,934	800,000	0,053	0,126
-432,919	324,262	0,063	-0,086
-431,905	311,786	0,085	-0,116
-430,890	-127,500	-0,093	0,010
-429,876	445,026	-0,030	-0,047
-428,861	496,829	0,031	0,052
-427,846	-107,361	0,058	0,009
-426,832	310,450	0,066	-0,089
-425,817	446,963	0,030	-0,047
-424,803	-147,081	0,028	-0,002
-423,788	800,000	-0,029	-0,059
-422,773	152,374	0,061	0,060
-421,759	-200,000	0,040	0,149
-420,744	88,693	0,068	0,055
-419,730	-200,000	0,003	0,060
-418,715	63,694	0,039	0,028
-417,701	155,373	0,061	-0,060
-416,686	367,145	0,091	0,132
-415,671	-74,443	0,094	-0,024
-414,657	-27,585	0,190	0,079
-413,642	336,118	-0,095	-0,134
-412,628	-200,000	0,001	-0,028
-411,613	-4,734	-0,071	-0,035
-410,598	324,746	0,039	-0,054
-409,584	-200,000	-0,003	0,110
-408,569	-200,000	0,041	0,154
-407,555	800,000	-0,022	0,050
-406,540	800,000	0,020	-0,047
-405,525	159,437	-0,112	-0,112
-404,511	-200,000	-0,033	-0,130
-403,496	435,085	-0,056	0,087
-402,482	-105,735	-0,067	0,011
-401,467	711,488	0,018	0,034
-400,452	-16,458	0,016	0,007
-399,438	66,391	0,035	-0,026
-398,423	82,300	-0,059	0,046
-397,409	406,872	-0,029	-0,044
-396,394	17,113	-0,077	-0,044
-395,379	-171,817	0,164	0,004
-394,365	49,508	0,118	0,080
-393,350	-25,311	0,070	0,030
-392,336	800,000	-0,013	0,034
-391,321	327,172	0,003	0,004
-390,306	-6,990	-0,074	0,036
-389,292	-200,000	0,015	0,076
-388,277	-9,637	-0,041	0,020
-387,263	-158,291	-0,066	0,003
-386,248	-62,782	0,040	0,012
-385,233	327,831	0,008	-0,011
-384,219	68,335	-0,012	-0,009
-383,204	-23,962	0,088	0,038
-382,190	529,609	-0,041	0,070
-381,175	322,329	0,079	-0,108
-380,160	-106,553	0,077	0,012
-379,146	-200,000	0,004	0,088
-378,131	800,000	0,024	0,057
-377,117	-200,000	-0,008	-0,087
-376,102	-200,000	0,056	-0,194
-375,088	117,092	-0,120	-0,106
-374,073	205,134	0,092	-0,103
-373,058	-200,000	-0,000	0,066
-372,044	-200,000	0,020	0,072
-371,029	-14,854	0,173	-0,079
-370,015	-21,494	-0,018	0,008
-369,000	-200,000	0,003	0,104
-367,985	205,689	0,044	-0,049
-366,971	-200,000	0,017	-0,118
-365,956	800,000	0,038	0,096
-364,942	800,000	0,034	0,106
-363,927	-200,000	0,015	0,121
-362,912	74,733	0,051	0,039
-361,898	-88,630	-0,089	0,019
-360,883	-48,456	-0,065	-0,022
-359,869	109,618	-0,073	0,062
-358,854	183,627	0,055	0,059
-357,839	62,832	-0,097	-0,070
-356,825	602,908	-0,020	0,036
-355,810	-200,000	0,001	-0,040
-354,796	192,740	0,058	0,063
-353,781	-159,781	0,024	-0,001
-352,766	-29,943	0,082	-0,034
-351,752	-200,000	-0,003	-0,012
-350,737	-119,657	0,069	-0,009
-349,723	133,139	-0,110	-0,102
-348,708	-84,963	-0,016	-0,004
-347,693	169,603	0,092	0,095
-346,679	-200,000	-0,011	-0,071
-345,664	121,748	-0,082	-0,073
-344,650	172,494	-0,077	-0,079
-343,635	-158,042	0,147	0,006
-342,620	81,719	0,061	-0,048
-341,606	-200,000	0,005	0,039
-340,591	123,266	-0,107	-0,097
-339,577	75,671	0,018	0,014
-338,562	-130,718	0,135	0,013
-337,548	83,195	-0,039	0,030
-336,533	-200,000	-0,005	0,017
-335,518	135,488	-0,030	-0,028
-334,504	65,483	0,081	0,058
-333,489	-125,726	0,094	-0,010
-332,475	-200,000	-0,030	0,136
-331,460	-183,438	-0,065	0,001
-330,445	-200,000	0,037	-0,163
-329,431	-31,634	0,039	0,015
-328,416	-200,000	-0,014	0,061
-327,402	-129,062	0,114	0,011
-326,387	74,815	0,115	-0,087
-325,372	5,913	0,040	-0,021
-324,358	-25,506	-0,097	-0,041
-323,343	-83,548	0,143	0,033
-322,329	800,000	0,026	0,065
-321,314	209,928	0,066	0,075
-320,299	110,447	0,107	-0,092
-319,285	-200,000	-0,000	0,042
-318,270	-200,000	-0,004	-0,028
-317,256	-200,000	0,011	-0,090
-316,241	115,407	0,141	-0,124
-315,226	-200,000	0,002	0,013
-314,212	248,985	-0,122	0,148
-313,197	22,713	0,112	-0,066
-312,183	-84,634	-0,088	0,020
-311,168	-110,771	-0,047	0,007
-310,153	477,332	-0,051	0,083
-309,139	86,860	-0,033	-0,026
-308,124	-161,140	0,073	-0,003
-307,110	729,559	0,016	0,031
-306,095	-59,123	-0,031	0,010
-305,080	-200,000	0,004	0,030
-304,066	19,558	-0,116	0,067
-303,051	224,806	-0,103	-0,120
-302,037	132,463	0,052	0,048
-301,022	-200,000	-0,018	0,062
-300,008	652,257	0,024	-0,044
-298,993	-136,326	0,052	0,004
-297,978	507,589	-0,097	0,162
-296,964	419,266	0,027	-0,041
-295,949	154,725	-0,108	-0,107
-294,935	-200,000	-0,018	-0,076
-293,920	192,531	0,024	-0,026
-292,905	-200,000	-0,001	0,020
-291,891	86,163	0,070	0,055
-290,876	329,870	0,065	0,089
-289,862	-7,740	-0,051	-0,025
-288,847	-68,338	-0,124	0,034
-287,832	195,124	-0,051	-0,056
-286,818	229,525	-0,049	0,058
-285,803	-86,735	-0,065	-0,014
-284,789	789,545	-0,034	0,067
-283,774	120,182	-0,083	0,074
-282,759	-145,023	0,146	-0,009
-281,745	77,858	-0,118	-0,090
-280,730	566,141	-0,042	-0,073
-279,716	580,358	0,045	-0,079
-278,701	87,828	0,074	0,058
-277,686	-200,000	0,012	0,080
-276,672	-200,000	0,004	0,121
-275,657	-65,422	-0,042	-0,012
-274,643	95,783	0,046	0,037
-273,628	800,000	0,081	0,172
-272,613	-200,000	0,042	-0,135
-271,599	800,000	0,010	-0,027
-270,584	800,000	0,044	0,095
-269,570	-200,000	0,002	0,125
-268,555	65,248	-0,056	0,040
-267,540	-200,000	-0,013	0,093
-266,526	-200,000	0,015	-0,090
-265,511	-92,883	-0,045	-0,009
-264,497	800,000	-0,011	0,023
-263,482	800,000	0,031	0,095
-262,467	-37,474	0,028	0,011
-261,453	800,000	0,028	-0,082
-260,438	-200,000	0,001	-0,100
-259,424	-63,883	0,038	-0,011
-258,409	-200,000	-0,008	-0,042
-257,395	146,160	0,062	0,060
-256,380	-192,950	-0,115	-0,001
-255,365	-48,104	-0,094	-0,032
-254,351	704,378	-0,027	-0,051
-253,336	-199,656	-0,090	-0,000
-252,322	-200,000	-0,011	-0,081
-251,307	218,204	-0,078	-0,089
-250,292	800,000	-0,022	-0,052
-249,278	28,706	0,096	0,058
-248,263	-117,384	-0,069	0,009
-247,249	-78,045	-0,012	0,003
-246,234	460,220	0,033	-0,053
-245,219	457,709	-0,035	0,057
-244,205	71,409	0,093	-0,069
-243,190	-200,000	0,007	0,079
-242,176	-200,000	0,025	0,096
-241,161	127,997	0,020	-0,018
-240,146	102,799	-0,171	-0,143
-239,132	407,431	0,011	-0,017
-238,117	69,111	-0,128	-0,094
-237,103	414,236	-0,054	-0,083
-236,088	800,000	0,018	0,056
-235,073	-122,960	0,084	-0,009
-234,059	-112,126	0,048	0,007
-233,044	-200,000	0,007	-0,095
-232,030	-65,271	0,091	0,026
-231,015	800,000	0,059	-0,137
-230,000	584,933	-0,032	-0,057
-228,986	-200,000	0,014	-0,098
-227,971	-200,000	0,006	-0,119
-226,957	-200,000	-0,007	0,069
-225,942	-79,637	0,078	0,019
-224,927	-136,751	0,060	0,005
-223,913	-200,000	-0,012	0,093
-222,898	-78,306	-0,069	-0,017
-221,884	-134,575	0,046	0,004
-220,869	426,182	0,031	-0,048
-219,855	604,081	0,017	-0,030
-218,840	-200,000	-0,016	0,082
-217,825	-117,208	0,059	-0,008
-216,811	-145,015	-0,173	-0,011
-215,796	61,503	0,080	-0,056
-214,782	-200,000	-0,008	0,028
-213,767	800,000	0,067	-0,183
-212,752	24,792	-0,095	0,056
-211,738	-200,000	0,006	0,064
-210,723	-200,000	-0,008	-0,056
-209,709	-169,495	-0,111	0,003
-208,694	580,598	-0,016	-0,027
-207,679	272,463	-0,127	-0,161
-206,665	598,053	-0,089	-0,158
-205,650	-151,786	0,114	0,006
-204,636	-1,625	0,048	-0,024
-203,621	-144,711	0,172	0,011
-202,606	-200,000	0,004	-0,168
-201,592	-56,400	-0,108	-0,034
-200,577	145,131	0,067	-0,064
-199,563	39,205	0,140	0,089
-198,548	-200,000	0,001	0,040
-197,533	28,213	0,009	0,005
-196,519	-116,064	-0,042	0,006
-195,504	-136,823	-0,048	0,004
-194,490	136,450	0,055	-0,051
-193,475	-68,629	-0,199	-0,055
-192,460	126,926	0,009	-0,008
-191,446	262,996	-0,075	-0,093
-190,431	179,875	-0,056	-0,059
-189,417	358,388	0,040	0,057
-188,402	-200,000	0,026	-0,182
-187,387	47,109	-0,043	0,029
-186,373	130,579	0,106	0,097
-185,358	800,000	0,041	0,104
-184,344	-200,000	0,013	0,067
-183,329	-115,716	0,064	0,008
-182,315	481,224	0,084	0,136
-181,300	-200,000	-0,008	0,057
-180,285	800,000	0,039	-0,088
-179,271	800,000	-0,011	-0,023
-178,256	63,640	-0,061	0,043
-177,242	-200,000	0,027	0,161
-176,227	101,794	0,106	0,088
-175,212	-200,000	0,028	0,119
-174,198	21,236	0,073	0,042
-173,183	-200,000	-0,028	0,095
-172,169	800,000	-0,038	-0,112
-171,154	800,000	-0,022	-0,064
-170,139	-200,000	-0,011	-0,050
-169,125	800,000	0,048	-0,136
-168,110	-91,764	0,140	0,028
-167,096	65,518	-0,078	-0,056
-166,081	521,885	-0,020	0,033
-165,066	-111,213	-0,063	-0,009
-164,052	54,512	-0,030	0,020
-163,037	518,093	0,014	0,023
-162,023	56,768	-0,066	0,046
-161,008	216,645	0,069	-0,078
-159,993	-200,000	-0,001	0,026
-158,979	-9,685	-0,077	-0,037
-157,964	-200,000	0,015	0,058
-156,950	800,000	-0,027	0,080
-155,935	197,479	-0,027	-0,029
-154,920	-64,033	0,100	0,029
-153,906	-58,688	0,135	0,042
-152,891	800,000	-0,044	-0,090
-151,877	-14,956	-0,103	-0,047
-150,862	800,000	0,056	-0,119
-149,847	-200,000	0,035	-0,121
-148,833	533,402	0,088	-0,150
-147,818	100,327	0,155	0,128
-146,804	-200,000	-0,011	0,113
-145,789	-22,512	0,055	0,024
-144,775	300,288	-0,069	0,091
-143,760	151,898	0,060	-0,058
-142,745	156,843	0,015	0,015
-141,731	369,557	-0,058	-0,084
-140,716	131,313	0,128	0,117
-139,702	308,556	-0,036	0,049
-138,687	-159,053	0,064	0,003
-137,672	59,735	0,136	-0,096
-136,658	-34,454	0,079	-0,031
-135,643	800,000	-0,061	-0,186
-134,629	90,262	-0,063	0,050
-133,614	13,407	0,054	0,030
-132,599	504,824	0,047	0,077
-131,585	86,674	-0,016	0,012
-130,570	-200,000	-0,006	0,132
-129,556	158,769	-0,069	-0,069
-128,541	94,905	0,088	0,071
-127,526	-68,630	0,028	-0,008
-126,512	-44,137	-0,017	0,006
-125,497	-200,000	0,007	0,048
-124,483	-200,000	0,006	0,034
-123,468	364,778	0,078	0,112
-122,453	800,000	0,025	-0,051
-121,439	-106,888	-0,042	-0,007
-120,424	14,177	-0,021	-0,012
-119,410	800,000	0,021	0,052
-118,395	800,000	0,056	-0,117
-117,380	-166,354	-0,081	0,002
-116,366	-115,157	0,053	-0,007
-115,351	800,000	-0,063	0,137
-114,337	-0,754	-0,092	-0,046
-113,322	-200,000	-0,017	-0,233
-112,307	-200,000	0,025	0,218
-111,293	-121,312	0,014	-0,002
-110,278	-30,818	-0,064	0,026
-109,264	94,447	0,052	0,042
-108,249	-58,785	0,031	0,009
-107,234	87,503	-0,167	-0,132
-106,220	-200,000	0,050	-0,181
-105,205	-200,000	-0,009	-0,071
-104,191	-95,823	0,076	0,014
-103,176	-73,567	-0,049	0,013
-102,162	-200,000	0,017	0,053
-101,147	290,824	0,071	-0,091
-100,132	-52,060	0,098	0,032
-99,118	591,718	-0,040	0,071
-98,103	102,541	0,059	-0,049
-97,089	-15,056	0,078	0,035
-96,074	800,000	0,017	-0,035
-95,059	316,801	0,005	-0,006
-94,045	-25,507	0,102	-0,043
-93,030	287,028	0,034	0,044
-92,016	98,511	-0,162	0,133
-91,001	-32,488	0,087	-0,034
-89,986	-126,163	0,088	0,009
-88,972	-194,713	0,101	0,001
-87,957	-87,447	-0,061	0,013
-86,943	800,000	0,041	0,119
-85,928	305,298	0,001	-0,002
-84,913	58,495	0,040	0,028
-83,899	800,000	-0,031	-0,078
-82,884	-36,072	-0,088	0,034
-81,870	-200,000	0,022	-0,108
-80,855	129,708	0,158	0,144
-79,840	315,256	0,074	0,099
-78,826	800,000	-0,015	-0,044
-77,811	-200,000	-0,003	-0,047
-76,797	800,000	-0,031	-0,070
-75,782	-18,507	0,101	-0,045
-74,767	99,776	0,044	-0,036
-73,753	-200,000	0,026	0,093
-72,738	-200,000	-0,005	-0,042
-71,724	61,488	0,030	0,021
-70,709	-41,056	0,137	0,050
-69,694	-94,078	-0,098	-0,019
-68,680	800,000	0,025	-0,064
-67,665	-200,000	-0,003	0,103
-66,651	-182,285	-0,042	-0,001
-65,636	320,908	-0,036	0,049
-64,622	528,768	-0,041	-0,069
-63,607	93,663	0,057	-0,046
-62,592	192,306	-0,020	-0,021
-61,578	366,947	0,079	-0,113
-60,563	164,138	-0,046	0,046
-59,549	-44,462	0,058	0,021
-58,534	29,841	-1,954	-1,180
-57,519	800,000	-0,548	-1,314
-56,505	-200,000	-0,968	-4,681
-55,490	151,990	0,873	0,846
-54,476	800,000	5,171	11,797
-53,461	-200,000	20,197	329,257
-52,446	800,000	754,689	2323,577
-51,432	545,516	1664,744	2836,003
-50,417	74,751	1672,505	1248,449
-49,403	20,024	1545,294	882,416
-48,388	14,043	1468,035	809,062
-47,373	18,132	1458,466	823,606
-46,359	16,190	1447,636	808,109
-45,344	12,393	1443,207	787,334
-44,330	12,295	1441,438	785,865
-43,315	12,329	1439,601	784,996
-42,300	12,281	1437,960	783,842
-41,286	12,327	1436,543	783,259
-40,271	12,280	1435,209	782,272
-39,257	12,304	1434,183	781,801
-38,242	12,350	1432,757	781,211
-37,227	12,327	1431,522	780,396
-36,213	12,299	1430,348	779,592
-35,198	12,368	1429,185	779,254
-34,184	12,379	1428,349	778,823
-33,169	12,299	1426,754	777,541
-32,154	12,348	1425,585	777,106
-31,140	12,338	1424,440	776,403
-30,125	12,374	1423,287	775,913
-29,111	12,328	1422,276	775,112
-28,096	12,316	1421,170	774,424
-27,082	12,268	1420,152	773,609
-26,067	12,254	1418,992	772,879
-25,052	12,272	1418,041	772,417
-24,038	12,267	1417,233	771,924
-23,023	12,303	1415,808	771,286
-22,009	12,215	1414,901	770,346
-20,994	12,233	1413,819	769,814
-19,979	12,241	1413,073	769,415
-18,965	12,256	1411,943	768,840
-17,950	12,197	1411,134	768,090
-16,936	12,211	1410,565	767,817
-15,921	12,154	1409,301	766,827
-14,906	12,190	1408,542	766,553
-13,892	12,178	1407,505	765,905
-12,877	12,179	1406,759	765,470
-11,863	12,216	1405,432	764,895
-10,848	12,180	1404,588	764,233
-9,833	12,105	1403,959	763,512
-8,819	12,103	1403,061	762,982
-7,804	12,041	1402,349	762,273
-6,790	12,129	1401,011	761,927
-5,775	12,098	1399,914	761,155
-4,760	12,043	1399,024	760,388
-3,746	12,052	1398,184	759,942
-2,731	12,080	1397,297	759,558
-1,717	12,068	1396,429	759,001
-0,702	12,064	1394,765	758,049
0,313	16,040	1309,310	730,035
1,327	32,267	699,110	427,209
2,342	49,587	121,734	81,201
3,356	4,928	16,403	8,534
4,371	17,051	3,045	1,707
5,386	-8,188	0,655	0,312
6,400	-200,000	0,079	0,285
7,415	102,683	-0,291	-0,242
8,429	203,531	-0,208	-0,228
9,444	253,219	-0,145	-0,176
10,459	110,131	-0,308	-0,262
11,473	43,489	-0,307	-0,199
12,488	128,723	-0,225	-0,204
13,502	-54,839	-0,310	-0,099
14,517	-100,470	-0,438	-0,076
15,531	-148,066	-0,197	-0,011
16,546	-42,249	-0,363	-0,131
17,561	-8,891	-0,278	-0,132
18,575	-87,580	-0,245	-0,052
19,590	128,694	-0,255	-0,230
20,604	29,011	-0,244	-0,146
21,619	66,317	-0,491	-0,353
22,634	480,202	-0,269	-0,434
23,648	14,272	-0,462	-0,254
24,663	44,216	-0,291	-0,188
25,677	19,726	-0,369	-0,210
26,692	65,250	-0,331	-0,237
27,707	131,371	-0,325	-0,296
28,721	97,534	-0,284	-0,231
29,736	72,062	-0,400	-0,295
30,750	83,303	-0,377	-0,290
31,765	62,588	-0,415	-0,293
32,780	145,483	-0,357	-0,338
33,794	62,690	-0,267	-0,189
34,809	97,187	-0,371	-0,301
35,823	88,630	-0,398	-0,313
36,838	285,093	-0,258	-0,330
37,853	83,695	-0,372	-0,287
38,867	26,956	-0,355	-0,210
39,882	198,075	-0,303	-0,327
40,896	80,277	-0,335	-0,255
41,911	104,437	-0,415	-0,345
42,926	159,369	-0,280	-0,275
43,940	20,744	-0,315	-0,180
44,955	255,682	-0,238	-0,289
45,969	47,504	-0,326	-0,215
46,984	85,425	-0,237	-0,183
47,999	365,672	-0,206	-0,294
49,013	89,842	-0,272	-0,214
50,028	96,933	-0,280	-0,227
51,042	59,776	-0,428	-0,298
52,057	-28,166	-0,459	-0,186
53,071	167,905	-0,276	-0,278
54,086	136,831	-0,324	-0,299
55,101	173,427	-0,255	-0,260
56,115	-13,767	-0,417	-0,190
57,130	58,621	-0,356	-0,246
58,144	92,087	-0,352	-0,279
59,159	56,741	-0,322	-0,221
60,174	105,735	-0,308	-0,257
61,188	40,210	-0,394	-0,250
62,203	39,873	-0,351	-0,222
63,217	116,617	-0,225	-0,195
64,232	30,041	-0,340	-0,204
65,247	-28,961	-0,355	-0,143
66,261	261,269	-0,212	-0,260
67,276	194,673	-0,311	-0,333
68,290	-21,538	-0,306	-0,131
69,305	337,266	-0,215	-0,296
70,320	41,773	-0,352	-0,225
71,334	31,588	-0,319	-0,193
72,349	108,315	-0,238	-0,200
73,363	16,929	-0,297	-0,166
74,378	65,782	-0,357	-0,255
75,393	35,546	-0,312	-0,193
76,407	-34,541	-0,193	-0,074
77,422	73,013	-0,309	-0,227
78,436	149,304	-0,242	-0,231
79,451	-33,538	-0,396	-0,153
80,466	65,179	-0,328	-0,233
81,480	46,361	-0,396	-0,258
82,495	398,316	-0,247	-0,365
83,509	82,105	-0,268	-0,204
84,524	85,436	-0,278	-0,215
85,539	75,419	-0,297	-0,220
86,553	2,484	-0,347	-0,177
87,568	-15,196	-0,307	-0,138
88,582	70,457	-0,251	-0,182
89,597	141,032	-0,322	-0,300
90,611	10,811	-0,250	-0,134
91,626	-43,624	-0,316	-0,112
92,641	-28,414	-0,217	-0,088
93,655	48,022	-0,280	-0,184
94,670	81,747	-0,324	-0,247
95,684	66,372	-0,308	-0,220
96,699	284,394	-0,171	-0,218
97,714	17,286	-0,209	-0,116
98,728	38,348	-0,279	-0,174
99,743	286,964	-0,186	-0,236
100,757	-15,102	-0,322	-0,145
101,772	334,568	-0,115	-0,158
102,787	117,162	-0,297	-0,257
103,801	105,081	-0,206	-0,171
104,816	63,126	-0,194	-0,137
105,830	-64,221	-0,388	-0,110
106,845	55,954	-0,151	-0,103
107,860	109,410	-0,263	-0,221
108,874	-2,703	-0,248	-0,121
109,889	100,930	-0,300	-0,245
110,903	100,172	-0,321	-0,261
111,918	58,030	-0,252	-0,173
112,933	-157,125	-0,259	-0,011
113,947	-9,003	-0,291	-0,136
114,962	47,741	-0,361	-0,236
115,976	196,292	-0,253	-0,270
116,991	143,051	-0,231	-0,216
118,006	59,079	-0,309	-0,213
119,020	-120,444	-0,334	-0,039
120,035	50,422	-0,212	-0,141
121,049	800,000	-0,091	-0,258
122,064	-40,833	-0,365	-0,132
123,079	23,356	-0,220	-0,127
124,093	208,632	-0,222	-0,244
125,108	74,854	-0,324	-0,239
126,122	163,922	-0,268	-0,265
127,137	-44,349	-0,235	0,082
128,151	3,601	-0,221	-0,113
129,166	-34,484	-0,225	-0,086
130,181	-2,874	-0,234	-0,114
131,195	188,111	-0,191	-0,200
132,210	1,101	-0,212	-0,106
133,224	185,496	-0,173	-0,180
134,239	19,142	-0,178	-0,100
135,254	83,646	-0,241	-0,185
136,268	-108,743	-0,257	-0,038
137,283	-68,998	-0,243	-0,065
138,297	-12,662	-0,268	-0,122
139,312	25,137	-0,226	-0,131
140,327	-22,813	-0,246	-0,104
141,341	339,830	-0,156	-0,214
142,356	3,879	-0,201	-0,103
143,370	-54,827	-0,254	-0,080
144,385	46,488	-0,206	-0,133
145,400	-142,493	-0,353	-0,024
146,414	156,311	-0,212	-0,205
147,429	-9,026	-0,302	-0,141
148,443	186,730	-0,139	-0,145
149,458	68,730	-0,129	-0,092
150,473	-123,512	-0,315	-0,035
151,487	562,030	-0,147	-0,250
152,502	-35,334	-0,300	-0,114
153,516	146,494	-0,360	-0,339
154,531	5,820	-0,223	-0,115
155,546	-5,157	-0,169	-0,081
156,560	800,000	-0,096	-0,272
157,575	-3,109	-0,195	-0,095
158,589	261,192	-0,179	-0,218
159,604	224,939	-0,217	-0,247
160,619	113,128	-0,268	-0,228
161,633	239,901	-0,215	-0,251
162,648	97,966	-0,233	-0,187
163,662	37,230	-0,259	-0,160
164,677	151,143	-0,106	-0,101
165,692	15,804	-0,129	-0,071
166,706	-86,730	-0,174	-0,037
167,721	-26,660	-0,292	-0,119
168,735	31,741	-0,243	-0,146
169,750	389,541	-0,172	-0,250
170,764	800,000	-0,097	-0,219
171,779	191,627	-0,224	-0,236
172,794	-26,455	-0,068	-0,028
173,808	204,847	-0,159	-0,172
174,823	62,861	-0,224	-0,157
175,837	31,943	-0,226	-0,136
176,852	189,873	-0,254	-0,267
177,867	-2,905	-0,295	-0,144
178,881	242,449	-0,152	-0,179
179,896	13,138	-0,243	-0,131
180,910	308,787	-0,150	-0,196
181,925	-27,545	-0,279	-0,113
182,940	151,943	-0,133	-0,127
183,954	171,648	-0,169	-0,170
184,969	20,746	-0,282	-0,159
185,983	96,754	-0,223	-0,178
186,998	75,411	-0,202	-0,148
188,013	178,975	-0,212	-0,217
189,027	-138,678	-0,234	-0,018
190,042	60,808	-0,320	-0,221
191,056	16,175	-0,276	-0,152
192,071	-7,854	-0,221	-0,104
193,086	82,058	-0,253	-0,191
194,100	112,584	-0,192	-0,162
195,115	150,769	-0,154	-0,147
196,129	356,679	-0,239	-0,333
197,144	185,331	-0,169	-0,175
198,159	800,000	-0,102	-0,240
199,173	237,444	-0,137	-0,159
200,188	574,672	-0,096	-0,165
201,202	22,311	-0,243	-0,138
202,217	152,658	-0,197	-0,187
203,232	217,972	-0,232	-0,258
204,246	-200,000	-0,067	-0,260
205,261	142,530	-0,287	-0,266
206,275	103,907	-0,210	-0,172
207,290	-60,984	-0,257	-0,075
208,304	-103,905	-0,307	-0,049
209,319	110,680	-0,168	-0,141
210,334	0,447	-0,247	-0,122
211,348	85,884	-0,278	-0,213
212,363	423,393	-0,127	-0,190
213,377	341,105	-0,217	-0,296
214,392	535,757	-0,088	-0,145
215,407	56,376	-0,170	-0,115
216,421	9,743	-0,182	-0,096
217,436	50,668	-0,103	-0,067
218,450	-104,013	-0,254	-0,041
219,465	-8,935	-0,203	-0,094
220,480	65,223	-0,168	-0,118
221,494	58,912	-0,128	-0,087
222,509	177,283	-0,072	-0,073
223,523	68,845	-0,130	-0,092
224,538	160,699	-0,084	-0,081
225,553	800,000	-0,119	-0,264
226,567	132,993	-0,176	-0,158
227,582	236,948	-0,214	-0,247
228,596	188,929	-0,169	-0,177
229,611	92,224	-0,189	-0,148
230,626	185,715	-0,115	-0,119
231,640	-129,062	-0,210	-0,020
232,655	-142,293	-0,173	-0,012
233,669	225,130	-0,213	-0,240
234,684	49,298	-0,204	-0,133
235,699	-44,589	-0,143	-0,049
236,713	170,368	-0,177	-0,176
237,728	-200,000	-0,058	-0,217
238,742	69,760	-0,150	-0,107
239,757	-60,542	-0,284	-0,083
240,772	139,042	-0,165	-0,150
241,786	579,364	-0,086	-0,146
242,801	-13,662	-0,186	-0,083
243,815	206,145	-0,171	-0,185
244,830	-11,766	-0,058	-0,026
245,844	800,000	-0,085	-0,198
246,859	800,000	-0,047	-0,140
247,874	61,882	-0,213	-0,147
248,888	7,804	-0,225	-0,116
249,903	143,986	-0,171	-0,158
250,917	-6,302	-0,142	-0,067
251,932	93,633	-0,165	-0,129
252,947	-200,000	-0,052	-0,221
253,961	-40,163	-0,259	-0,093
254,976	203,064	-0,154	-0,165
255,990	155,768	-0,205	-0,196
257,005	-52,407	-0,214	-0,068
258,020	-162,091	-0,240	0,008
259,034	-143,985	-0,160	0,010
260,049	96,935	-0,089	0,071
261,063	345,497	-0,153	-0,209
262,078	112,893	-0,223	-0,187
263,093	-91,610	-0,227	-0,044
264,107	65,954	-0,287	-0,202
265,122	73,469	-0,225	-0,163
266,136	96,303	-0,145	-0,115
267,151	-98,729	-0,202	-0,035
268,166	128,061	-0,217	-0,191
269,180	1,694	-0,276	-0,138
270,195	771,512	-0,115	-0,219
271,209	-3,127	-0,201	-0,097
272,224	332,624	-0,114	-0,153
273,239	-111,935	-0,054	-0,007
274,253	487,122	-0,113	-0,179
275,268	-60,930	-0,153	0,044
276,282	-200,000	0,005	-0,081
277,297	135,853	-0,125	-0,112
278,312	220,373	-0,101	-0,112
279,326	39,193	-0,247	-0,153
280,341	-36,346	-0,230	-0,086
281,355	99,431	-0,107	-0,086
282,370	344,948	-0,134	-0,183
283,384	289,879	-0,094	-0,118
284,399	-200,000	-0,055	-0,218
285,414	711,750	-0,138	-0,254
286,428	791,082	-0,067	-0,127
287,443	447,200	-0,108	-0,165
288,457	-49,232	-0,125	0,041
289,472	-46,898	-0,250	-0,084
290,487	263,490	-0,179	-0,216
291,501	214,973	-0,096	-0,106
292,516	152,580	-0,073	-0,069
293,530	-57,338	-0,124	-0,037
294,545	27,328	-0,152	-0,088
295,560	609,766	-0,040	-0,069
296,574	48,149	-0,161	-0,104
297,589	-120,902	-0,232	-0,027
298,603	177,489	-0,134	-0,135
299,618	81,039	-0,099	-0,074
300,633	-94,686	-0,145	-0,027
301,647	800,000	-0,071	-0,178
302,662	800,000	-0,098	-0,233
303,676	96,947	-0,202	-0,160
304,691	93,681	-0,187	-0,146
305,706	-61,539	-0,168	-0,048
306,720	-30,033	-0,181	-0,071
307,735	90,534	-0,135	-0,104
308,749	158,593	-0,109	-0,105
309,764	-109,116	-0,196	-0,028
310,779	2,490	-0,177	-0,088
311,793	115,723	-0,055	-0,046
312,808	-85,211	-0,227	0,049
313,822	-34,269	-0,125	-0,047
314,837	47,867	-0,143	-0,092
315,852	-71,459	-0,238	-0,061
316,866	-90,953	-0,138	0,027
317,881	221,240	-0,099	-0,109
318,895	580,898	-0,071	-0,120
319,910	14,199	-0,161	-0,086
320,925	63,155	-0,301	-0,208
321,939	19,541	-0,230	-0,127
322,954	-200,000	-0,097	-0,000
323,968	586,202	-0,076	-0,129
324,983	-147,465	-0,119	-0,007
325,997	13,197	-0,151	-0,080
327,012	1,395	-0,196	-0,097
328,027	15,460	-0,160	-0,087
329,041	11,455	-0,197	-0,104
330,056	-96,290	-0,102	-0,018
331,070	-84,273	-0,163	-0,035
332,085	-17,722	-0,195	0,084
333,100	91,294	-0,128	-0,099
334,114	269,929	-0,118	-0,143
335,129	187,900	-0,170	-0,175
336,143	198,453	-0,182	-0,193
337,158	800,000	-0,076	-0,206
338,173	2,321	-0,129	-0,064
339,187	-89,051	-0,176	0,036
340,202	-200,000	-0,010	-0,089
341,216	325,905	-0,014	0,018
342,231	-50,658	-0,144	0,046
343,246	-71,083	-0,142	-0,037
344,260	281,439	0,052	-0,064
345,275	800,000	-0,061	-0,117
346,289	-200,000	-0,012	-0,123
347,304	5,434	-0,132	-0,067
348,319	126,615	-0,140	-0,122
349,333	130,586	-0,119	-0,105
350,348	175,847	-0,051	-0,051
351,362	119,690	-0,031	0,026
352,377	-82,450	-0,036	0,008
353,392	-85,547	-0,119	0,025
354,406	-103,269	-0,098	-0,016
355,421	207,696	1314,641	1413,667
356,435	159,779	1475,103	1413,910
