DTS Sentinel unit serial number:	SN410029Multiplexer serial number:	ORYXHardware model number:	OX2-SRSoftware version number:	ORYX F/W v4,00 Oryx Data Collector v3.7.2.0data status	okinstallation	B3 Nyhavnadifferential loss correction	single-endedforward channel	channel 1reverse channel	N/Adate	2023/11/29time	20:52:30forward acquisition time	300,00reverse acquisition time	0,00gamma	499,1914k internal	0,3210k external	0,3210temperature offset calibration	1,0000default loss term (dB/km)	0,3820temperature slope calibration	1,0000multiplexer offset coefficient	1,0000multiplexer slope coefficient	1,0000fibre end	0,00T internal ref (°C)	10,83T ext. ref 1 (°C)	-4,23T ext. ref 2 (°C)	-4,31length (m)	temperature (°C)	Stokes	anti-Stokes-744,400	781,942	-0,186	-0,371
-743,385	800,000	-0,077	0,208
-742,371	800,000	-0,072	-0,221
-741,356	-200,000	0,029	0,348
-740,342	108,608	-0,219	-0,190
-739,327	800,000	0,117	0,252
-738,312	-200,000	-0,054	-0,287
-737,298	-200,000	-0,011	0,239
-736,283	198,388	-0,227	-0,252
-735,269	430,188	0,153	0,242
-734,254	78,778	-0,308	-0,239
-733,239	800,000	-0,050	0,108
-732,225	-200,000	-0,070	-0,262
-731,210	-200,000	0,057	0,199
-730,196	-51,473	-0,124	-0,042
-729,181	56,499	0,104	0,073
-728,167	177,411	-0,037	-0,039
-727,152	-149,856	-0,211	-0,012
-726,137	448,451	-0,080	-0,127
-725,123	-65,196	-0,117	0,034
-724,108	-90,762	-0,012	0,003
-723,094	178,640	-0,171	-0,181
-722,079	141,985	-0,102	-0,098
-721,064	800,000	0,030	-0,096
-720,050	-33,284	-0,098	0,039
-719,035	329,505	0,049	-0,069
-718,021	800,000	-0,035	-0,070
-717,006	237,738	-0,022	-0,026
-715,991	36,144	-0,132	-0,084
-714,977	241,032	-0,072	0,087
-713,962	-138,079	0,025	-0,002
-712,948	-200,000	-0,000	-0,006
-711,933	-138,460	-0,132	-0,010
-710,918	-200,000	-0,009	-0,045
-709,904	-200,000	0,000	0,135
-708,889	96,113	-0,107	-0,089
-707,875	402,796	0,060	0,091
-706,860	14,513	-0,092	-0,052
-705,845	-3,705	0,047	0,024
-704,831	49,134	0,049	-0,033
-703,816	-1,235	-0,031	-0,016
-702,802	800,000	0,022	0,054
-701,787	800,000	-0,035	0,084
-700,772	-200,000	-0,013	0,148
-699,758	319,599	-0,082	-0,113
-698,743	276,165	0,063	-0,082
-697,729	59,711	-0,097	0,069
-696,714	392,688	0,043	-0,065
-695,699	79,164	0,099	-0,076
-694,685	421,840	0,025	0,040
-693,670	-200,000	-0,002	0,008
-692,656	-200,000	-0,007	-0,073
-691,641	311,335	-0,027	0,036
-690,627	-91,933	0,086	-0,018
-689,612	800,000	0,029	-0,082
-688,597	45,363	-0,075	-0,050
-687,583	800,000	-0,078	-0,195
-686,568	45,482	-0,072	0,048
-685,554	25,061	0,033	-0,020
-684,539	800,000	-0,054	0,140
-683,524	160,230	-0,016	0,017
-682,510	-200,000	0,026	0,093
-681,495	87,180	0,073	-0,058
-680,481	180,500	-0,055	-0,058
-679,466	2,475	-0,150	-0,078
-678,451	-152,511	-0,074	0,004
-677,437	17,240	0,072	0,041
-676,422	2,493	0,065	0,034
-675,408	34,820	0,037	-0,023
-674,393	800,000	-0,050	-0,104
-673,378	-200,000	-0,009	-0,147
-672,364	43,992	-0,073	-0,048
-671,349	721,302	0,052	-0,100
-670,335	-200,000	0,002	-0,049
-669,320	-200,000	-0,016	0,097
-668,305	800,000	-0,019	-0,054
-667,291	352,844	0,039	-0,056
-666,276	-55,741	-0,119	-0,038
-665,262	126,167	-0,138	-0,127
-664,247	-200,000	-0,012	-0,087
-663,232	46,526	0,058	-0,039
-662,218	800,000	-0,034	0,075
-661,203	163,286	-0,023	-0,023
-660,189	461,878	0,056	0,091
-659,174	-177,721	-0,183	0,003
-658,159	366,337	-0,042	-0,062
-657,145	-200,000	0,003	-0,081
-656,130	-29,019	-0,030	0,013
-655,116	-200,000	0,032	-0,110
-654,101	-200,000	0,008	0,086
-653,086	-200,000	-0,007	0,121
-652,072	-200,000	-0,025	-0,119
-651,057	-200,000	-0,006	-0,112
-650,043	-200,000	0,010	-0,041
-649,028	80,698	0,014	-0,011
-648,014	325,393	0,029	0,040
-646,999	-200,000	-0,012	0,111
-645,984	-101,209	-0,100	0,018
-644,970	800,000	-0,024	-0,076
-643,955	162,801	-0,078	-0,079
-642,941	-108,929	-0,115	0,018
-641,926	74,925	-0,093	0,071
-640,911	-200,000	0,005	0,105
-639,897	-200,000	0,010	0,111
-638,882	800,000	-0,030	0,072
-637,868	-200,000	0,007	-0,136
-636,853	-122,734	-0,188	0,022
-635,838	-200,000	-0,020	-0,138
-634,824	37,901	-0,087	-0,056
-633,809	510,007	0,020	0,035
-632,795	12,368	0,124	0,069
-631,780	8,818	0,060	0,033
-630,765	-200,000	0,002	0,128
-629,751	47,866	0,038	0,025
-628,736	553,299	-0,061	0,106
-627,722	-200,000	-0,019	-0,082
-626,707	-23,276	-0,105	0,045
-625,692	-137,454	0,027	0,002
-624,678	273,652	-0,030	-0,039
-623,663	-74,065	-0,147	0,038
-622,649	233,060	-0,067	-0,080
-621,634	-200,000	0,043	-0,187
-620,619	-200,000	0,010	-0,176
-619,605	84,106	0,087	0,068
-618,590	800,000	-0,050	0,116
-617,576	178,987	-0,089	0,094
-616,561	-200,000	0,028	0,187
-615,546	-25,796	0,035	0,015
-614,532	500,253	0,085	-0,142
-613,517	800,000	-0,057	-0,118
-612,503	-43,840	0,144	-0,052
-611,488	-94,502	0,044	-0,009
-610,474	-15,021	0,068	0,031
-609,459	800,000	-0,036	0,076
-608,444	-28,052	0,050	-0,021
-607,430	800,000	0,058	-0,116
-606,415	288,956	-0,041	-0,053
-605,401	-28,010	-0,083	-0,035
-604,386	-200,000	0,020	-0,067
-603,371	796,561	-0,035	0,069
-602,357	800,000	0,024	0,072
-601,342	-200,000	-0,001	-0,006
-600,328	-200,000	-0,003	-0,012
-599,313	345,642	-0,033	-0,047
-598,298	66,176	-0,117	0,085
-597,284	696,516	0,100	0,190
-596,269	103,410	0,148	0,125
-595,255	-152,495	0,142	0,007
-594,240	-200,000	-0,016	0,125
-593,225	800,000	-0,050	-0,119
-592,211	-2,912	-0,155	-0,078
-591,196	-200,000	0,010	-0,048
-590,182	-112,079	0,114	-0,016
-589,167	800,000	-0,048	0,103
-588,152	-98,987	0,104	0,019
-587,138	800,000	-0,044	-0,126
-586,123	800,000	0,088	-0,199
-585,109	40,070	-0,033	0,021
-584,094	219,572	0,080	0,093
-583,079	-200,000	0,006	0,070
-582,065	166,654	0,110	0,113
-581,050	-90,648	0,081	0,017
-580,036	-200,000	0,017	-0,106
-579,021	368,176	0,054	-0,078
-578,006	-95,126	-0,142	-0,027
-576,992	187,613	0,058	0,062
-575,977	14,984	0,035	0,020
-574,963	698,570	0,050	0,095
-573,948	-200,000	-0,034	-0,188
-572,934	-107,163	-0,082	-0,013
-571,919	-29,891	-0,042	0,017
-570,904	-200,000	-0,002	-0,086
-569,890	-51,524	-0,089	-0,030
-568,875	800,000	0,012	0,027
-567,861	56,443	0,080	-0,056
-566,846	-95,034	0,190	-0,037
-565,831	117,837	-0,068	-0,061
-564,817	-200,000	-0,008	-0,038
-563,802	-58,447	-0,171	-0,053
-562,788	-200,000	0,026	-0,106
-561,773	-200,000	-0,023	0,082
-560,758	393,953	0,088	0,133
-559,744	-27,552	-0,075	0,031
-558,729	652,064	-0,007	-0,013
-557,715	-146,152	-0,047	0,003
-556,700	-117,995	-0,043	-0,005
-555,685	615,073	-0,129	-0,233
-554,671	593,324	0,074	-0,132
-553,656	-200,000	0,003	0,076
-552,642	21,862	-0,028	0,016
-551,627	-200,000	0,008	0,103
-550,612	194,196	-0,056	0,061
-549,598	-200,000	0,020	-0,073
-548,583	-77,339	-0,120	-0,030
-547,569	14,186	0,037	0,021
-546,554	714,869	-0,046	0,087
-545,539	134,553	0,107	-0,100
-544,525	-200,000	0,010	0,115
-543,510	561,612	-0,025	0,043
-542,496	-200,000	-0,054	-0,234
-541,481	-200,000	-0,000	-0,052
-540,466	171,715	-0,078	-0,081
-539,452	-86,170	-0,098	0,022
-538,437	85,017	0,054	0,042
-537,423	-18,532	0,062	-0,028
-536,408	800,000	-0,042	-0,096
-535,393	-200,000	-0,022	-0,093
-534,379	222,843	-0,067	-0,078
-533,364	-200,000	0,017	0,054
-532,350	-200,000	0,015	0,147
-531,335	695,822	-0,038	0,072
-530,321	109,973	0,025	-0,021
-529,306	379,222	-0,075	-0,111
-528,291	365,928	0,040	-0,058
-527,277	-200,000	-0,002	-0,176
-526,262	188,295	0,112	0,120
-525,248	-170,086	-0,069	-0,002
-524,233	-23,742	0,043	0,018
-523,218	-66,757	0,024	-0,007
-522,204	191,119	-0,113	-0,122
-521,189	800,000	-0,030	0,065
-520,175	33,043	-0,065	0,041
-519,160	-70,837	-0,052	-0,014
-518,145	800,000	-0,036	0,089
-517,131	-141,535	0,038	-0,003
-516,116	-200,000	0,029	0,190
-515,102	-28,836	-0,048	-0,020
-514,087	139,168	0,063	-0,059
-513,072	96,222	-0,046	-0,037
-512,058	-62,463	-0,149	0,044
-511,043	63,923	0,111	-0,080
-510,029	-29,490	0,052	-0,021
-509,014	800,000	-0,016	0,034
-507,999	-63,767	-0,075	0,022
-506,985	-200,000	0,004	0,031
-505,970	-190,571	-0,132	-0,001
-504,956	-200,000	0,001	0,032
-503,941	-6,461	-0,068	-0,033
-502,926	319,061	-0,057	0,078
-501,912	490,277	0,045	0,074
-500,897	190,114	0,086	0,092
-499,883	800,000	0,042	0,088
-498,868	-76,422	-0,143	0,036
-497,853	69,165	0,184	-0,135
-496,839	-200,000	0,009	0,214
-495,824	-70,632	0,050	-0,013
-494,810	-117,982	-0,097	0,012
-493,795	800,000	-0,012	0,030
-492,781	-200,000	-0,056	0,211
-491,766	-66,233	-0,049	-0,014
-490,751	116,331	-0,069	-0,061
-489,737	800,000	-0,005	-0,014
-488,722	-152,272	0,064	-0,003
-487,708	-200,000	-0,001	0,026
-486,693	-102,875	0,100	0,017
-485,678	800,000	-0,033	-0,076
-484,664	498,194	0,065	-0,109
-483,649	364,679	-0,070	-0,101
-482,635	75,809	0,146	-0,111
-481,620	-200,000	-0,023	0,118
-480,605	-200,000	0,019	0,222
-479,591	-90,274	0,201	0,042
-478,576	800,000	-0,030	0,073
-477,562	49,804	0,052	0,035
-476,547	-6,762	-0,122	-0,059
-475,532	-200,000	0,002	-0,082
-474,518	-113,725	-0,045	-0,006
-473,503	192,038	-0,105	0,114
-472,489	-109,041	-0,071	0,011
-471,474	110,293	-0,082	-0,071
-470,459	189,029	-0,103	-0,111
-469,445	-200,000	0,011	-0,037
-468,430	-69,235	0,125	0,034
-467,416	-60,023	0,064	0,020
-466,401	-27,941	0,150	-0,062
-465,386	-56,008	0,173	-0,055
-464,372	47,193	0,027	-0,018
-463,357	-200,000	-0,015	-0,087
-462,343	-51,828	-0,089	-0,029
-461,328	800,000	-0,032	0,068
-460,313	-200,000	-0,044	-0,170
-459,299	-199,070	0,150	-0,001
-458,284	800,000	-0,028	0,076
-457,270	800,000	0,016	-0,049
-456,255	800,000	0,012	0,025
-455,241	371,820	-0,044	-0,065
-454,226	491,107	0,025	0,041
-453,211	-156,167	-0,035	-0,002
-452,197	18,176	0,035	0,020
-451,182	-200,000	0,004	0,069
-450,168	-85,849	0,072	-0,016
-449,153	-181,765	-0,090	-0,001
-448,138	-200,000	0,002	0,006
-447,124	-138,454	0,078	-0,006
-446,109	800,000	0,013	0,028
-445,095	560,309	0,024	-0,043
-444,080	502,274	0,055	0,092
-443,065	800,000	-0,106	0,214
-442,051	-200,000	-0,012	-0,101
-441,036	-81,545	0,138	-0,032
-440,022	-175,596	-0,034	0,001
-439,007	306,113	0,027	0,036
-437,992	-200,000	-0,035	0,000
-436,978	800,000	0,055	0,122
-435,963	800,000	0,021	0,065
-434,949	-81,657	-0,110	-0,026
-433,934	-129,246	0,134	-0,013
-432,919	800,000	0,023	-0,069
-431,905	-84,564	0,034	-0,008
-430,890	800,000	0,002	0,006
-429,876	-200,000	0,008	0,031
-428,861	167,313	0,094	0,096
-427,846	-200,000	-0,013	0,088
-426,832	-151,560	0,101	0,005
-425,817	-155,458	-0,095	0,004
-424,803	-90,764	0,038	-0,008
-423,788	-200,000	0,039	0,132
-422,773	-37,625	0,162	-0,061
-421,759	800,000	-0,029	-0,065
-420,744	-103,977	0,062	-0,010
-419,730	59,293	-0,075	0,053
-418,715	800,000	-0,041	-0,118
-417,701	-141,913	-0,181	-0,013
-416,686	209,745	0,065	0,073
-415,671	188,215	0,074	0,080
-414,657	-200,000	-0,010	0,059
-413,642	-200,000	-0,025	0,199
-412,628	-83,568	-0,118	-0,027
-411,613	-136,272	-0,045	-0,004
-410,598	-137,156	0,064	0,005
-409,584	-18,064	-0,093	-0,042
-408,569	61,075	0,135	0,096
-407,555	-34,507	0,061	0,024
-406,540	-75,468	-0,050	-0,013
-405,525	279,856	0,079	-0,102
-404,511	156,770	-0,115	-0,114
-403,496	800,000	0,027	0,077
-402,482	-200,000	-0,015	-0,065
-401,467	63,682	0,080	-0,058
-400,452	186,311	-0,033	0,036
-399,438	370,391	-0,070	0,101
-398,423	-83,267	0,072	-0,016
-397,409	-200,000	-0,002	-0,011
-396,394	-72,338	0,071	0,019
-395,379	779,160	0,057	-0,112
-394,365	-108,828	-0,096	-0,014
-393,350	-14,795	0,183	0,084
-392,336	-200,000	0,033	0,172
-391,321	-39,817	0,065	-0,024
-390,306	129,833	-0,087	0,080
-389,292	-200,000	-0,001	-0,064
-388,277	-86,344	0,070	-0,015
-387,263	26,003	-0,095	0,057
-386,248	-71,657	0,118	0,031
-385,233	800,000	-0,038	-0,085
-384,219	-45,900	0,074	0,026
-383,204	-200,000	-0,022	-0,101
-382,190	-28,793	-0,099	0,041
-381,175	-4,019	0,095	-0,047
-380,160	-96,102	-0,030	0,006
-379,146	33,128	0,012	0,007
-378,131	800,000	-0,044	0,112
-377,117	800,000	0,053	-0,111
-376,102	31,623	-0,190	-0,117
-375,088	248,368	-0,033	-0,041
-374,073	718,730	-0,079	-0,152
-373,058	-200,000	-0,010	0,068
-372,044	294,834	0,063	0,082
-371,029	-33,416	0,062	-0,024
-370,015	294,151	-0,031	-0,040
-369,000	-148,352	0,208	-0,012
-367,985	-200,000	0,011	-0,151
-366,971	796,973	-0,042	0,082
-365,956	800,000	0,025	0,077
-364,942	-40,681	0,163	-0,060
-363,927	183,233	-0,060	0,063
-362,912	800,000	0,016	0,042
-361,898	336,878	-0,063	0,087
-360,883	-200,000	-0,004	-0,048
-359,869	-131,367	-0,091	-0,008
-358,854	800,000	-0,027	0,066
-357,839	800,000	0,005	-0,010
-356,825	-80,995	0,077	-0,018
-355,810	-110,324	-0,019	-0,003
-354,796	-23,603	-0,040	0,017
-353,781	800,000	-0,027	0,063
-352,766	800,000	-0,030	-0,087
-351,752	311,346	-0,052	-0,070
-350,737	800,000	0,023	-0,056
-349,723	-172,320	-0,088	-0,002
-348,708	280,332	0,027	-0,034
-347,693	-79,230	-0,034	0,008
-346,679	101,894	0,100	0,083
-345,664	180,196	-0,108	0,113
-344,650	-200,000	0,030	-0,125
-343,635	100,090	-0,047	0,039
-342,620	-149,423	0,110	0,006
-341,606	-200,000	0,034	0,130
-340,591	-116,261	-0,192	-0,025
-339,577	3,238	0,147	-0,076
-338,562	-200,000	0,009	-0,120
-337,548	242,788	0,051	-0,061
-336,533	-200,000	-0,004	0,069
-335,518	475,718	0,072	0,117
-334,504	800,000	0,060	0,142
-333,489	-155,719	-0,074	0,003
-332,475	-200,000	-0,003	-0,149
-331,460	-200,000	-0,002	-0,135
-330,445	-200,000	-0,012	0,058
-329,431	-71,089	-0,070	0,019
-328,416	514,284	0,047	-0,079
-327,402	-200,000	-0,004	-0,168
-326,387	141,757	0,077	0,073
-325,372	14,352	-0,061	-0,034
-324,358	-200,000	-0,009	-0,049
-323,343	357,674	-0,059	0,085
-322,329	494,313	0,056	-0,092
-321,314	-200,000	-0,011	0,037
-320,299	294,461	-0,068	0,088
-319,285	-200,000	0,011	-0,103
-318,270	-200,000	-0,014	0,060
-317,256	800,000	0,044	-0,097
-316,241	52,033	-0,024	0,016
-315,226	-97,098	0,154	0,028
-314,212	-200,000	-0,008	0,035
-313,197	-46,395	0,035	0,012
-312,183	-200,000	0,002	0,026
-311,168	-140,458	0,037	-0,003
-310,153	-16,560	-0,224	-0,101
-309,139	800,000	-0,031	0,073
-308,124	300,254	-0,032	-0,043
-307,110	-5,481	-0,144	-0,070
-306,095	477,152	0,056	0,091
-305,080	536,361	0,032	-0,055
-304,066	-198,546	-0,057	-0,000
-303,051	201,720	0,033	-0,036
-302,037	-173,205	-0,055	0,001
-301,022	-200,000	0,002	-0,102
-300,008	-37,889	0,211	0,079
-298,993	800,000	-0,024	-0,070
-297,978	705,538	0,051	0,097
-296,964	-99,073	0,046	0,008
-295,949	154,879	0,063	-0,062
-294,935	107,006	-0,070	-0,059
-293,920	304,204	0,105	-0,139
-292,905	64,830	0,145	0,104
-291,891	800,000	-0,035	0,088
-290,876	-200,000	0,016	-0,064
-289,862	178,685	-0,058	-0,060
-288,847	800,000	-0,012	-0,031
-287,832	-108,474	-0,028	0,004
-286,818	-139,720	-0,038	-0,003
-285,803	-200,000	-0,002	0,096
-284,789	633,721	0,029	-0,053
-283,774	-70,022	-0,093	-0,025
-282,759	-200,000	0,003	-0,101
-281,745	266,928	-0,077	0,096
-280,730	216,264	-0,026	-0,030
-279,716	-200,000	0,004	0,053
-278,701	186,315	-0,028	-0,030
-277,686	429,162	-0,064	-0,098
-276,672	8,385	-0,065	-0,035
-275,657	69,596	0,035	0,025
-274,643	-29,366	-0,046	0,019
-273,628	-184,117	0,093	0,001
-272,613	229,701	0,063	-0,074
-271,599	-200,000	0,020	0,079
-270,584	-132,946	0,173	0,015
-269,570	800,000	0,049	-0,129
-268,555	-79,768	0,184	-0,044
-267,540	444,820	-0,124	-0,194
-266,526	-200,000	0,035	0,162
-265,511	-200,000	-0,025	-0,111
-264,497	25,352	-0,098	0,058
-263,482	-200,000	0,015	0,106
-262,467	709,826	-0,095	0,180
-261,453	423,177	-0,054	0,083
-260,438	-200,000	0,093	-0,000
-259,424	-28,094	-0,065	-0,027
-258,409	800,000	0,040	-0,091
-257,395	-52,642	0,013	-0,004
-256,380	800,000	-0,020	0,050
-255,365	90,147	0,098	-0,078
-254,351	261,055	-0,059	-0,073
-253,336	800,000	-0,043	0,094
-252,322	-12,745	0,114	0,053
-251,307	-17,878	0,028	0,012
-250,292	800,000	-0,024	-0,068
-249,278	-4,049	0,085	-0,042
-248,263	-200,000	-0,005	0,056
-247,249	-200,000	-0,008	0,151
-246,234	-99,906	0,051	-0,009
-245,219	-200,000	0,002	0,012
-244,205	147,018	-0,111	-0,107
-243,190	-75,269	0,171	-0,043
-242,176	-19,421	-0,262	0,115
-241,161	-144,335	0,050	-0,003
-240,146	-200,000	0,002	-0,035
-239,132	214,952	-0,050	0,056
-238,117	337,613	0,019	-0,026
-237,103	-91,741	0,047	-0,010
-236,088	122,554	-0,018	-0,016
-235,073	-103,115	0,021	0,003
-234,059	35,809	-0,074	-0,046
-233,044	464,673	-0,010	0,016
-232,030	139,435	-0,052	0,048
-231,015	-6,249	0,144	0,070
-230,000	21,608	-0,074	0,043
-228,986	-86,037	0,038	0,008
-227,971	184,814	-0,036	0,038
-226,957	-8,974	-0,057	-0,027
-225,942	523,379	0,076	0,128
-224,927	-200,000	-0,015	0,089
-223,913	-200,000	-0,012	0,146
-222,898	30,650	-0,137	-0,083
-221,884	800,000	-0,032	0,066
-220,869	356,100	-0,052	-0,073
-219,855	-37,571	0,103	0,039
-218,840	20,776	-0,067	0,039
-217,825	-65,876	0,026	0,007
-216,811	-108,368	-0,068	-0,010
-215,796	701,430	-0,069	-0,131
-214,782	-200,000	-0,041	-0,276
-213,767	-55,922	0,054	0,017
-212,752	-200,000	-0,010	0,068
-211,738	-21,091	-0,045	0,019
-210,723	42,650	-0,054	-0,035
-209,709	-160,043	0,177	-0,007
-208,694	-152,505	-0,104	-0,005
-207,679	77,496	-0,035	-0,027
-206,665	4,007	-0,101	0,052
-205,650	-124,207	0,054	0,006
-204,636	102,617	0,168	-0,140
-203,621	52,430	0,089	0,060
-202,606	-163,987	-0,063	0,002
-201,592	-200,000	-0,009	-0,066
-200,577	800,000	0,012	0,030
-199,563	-108,070	0,168	0,026
-198,548	182,061	-0,070	-0,074
-197,533	-52,872	-0,143	-0,046
-196,519	-200,000	0,006	0,088
-195,504	-182,294	-0,099	0,001
-194,490	-25,056	-0,161	-0,068
-193,475	-143,535	0,047	-0,003
-192,460	108,242	0,116	0,098
-191,446	-76,243	-0,020	0,005
-190,431	-200,000	0,032	0,123
-189,417	765,496	-0,076	0,148
-188,402	60,364	0,089	0,062
-187,387	-44,878	-0,060	0,021
-186,373	0,977	-0,131	0,066
-185,358	800,000	0,066	0,200
-184,344	-51,599	-0,037	-0,012
-183,329	132,412	-0,044	0,040
-182,315	-200,000	-0,029	-0,112
-181,300	800,000	0,035	-0,072
-180,285	-168,373	0,150	-0,004
-179,271	339,349	0,093	-0,129
-178,256	-67,234	-0,174	-0,048
-177,242	-0,268	-0,079	-0,040
-176,227	-18,471	-0,075	0,033
-175,212	36,139	0,035	-0,022
-174,198	375,096	0,088	-0,128
-173,183	-76,151	-0,057	0,014
-172,169	-200,000	0,009	0,152
-171,154	-200,000	-0,029	-0,108
-170,139	700,348	0,056	0,104
-169,125	516,126	-0,015	0,024
-168,110	575,232	-0,010	0,018
-167,096	144,775	0,079	0,075
-166,081	-200,000	-0,008	-0,064
-165,066	-200,000	-0,005	-0,164
-164,052	-200,000	0,012	-0,111
-163,037	163,996	-0,015	-0,015
-162,023	483,955	0,070	-0,113
-161,008	800,000	-0,042	0,109
-159,993	-74,843	0,076	0,019
-158,979	-20,610	0,060	-0,026
-157,964	800,000	0,032	-0,075
-156,950	800,000	-0,021	-0,062
-155,935	20,860	0,152	-0,087
-154,920	-200,000	0,006	-0,049
-153,906	-200,000	0,006	0,138
-152,891	521,324	0,050	0,083
-151,877	76,618	0,029	0,022
-150,862	800,000	0,026	-0,066
-149,847	-25,022	-0,024	0,010
-148,833	110,430	-0,078	0,067
-147,818	-89,797	0,131	-0,027
-146,804	800,000	0,020	0,052
-145,789	-62,752	0,047	0,014
-144,775	-200,000	0,006	-0,035
-143,760	90,744	-0,007	0,006
-142,745	431,138	0,044	-0,068
-141,731	250,234	-0,007	-0,009
-140,716	-142,357	-0,051	0,004
-139,702	-35,489	0,084	0,032
-138,687	-182,960	-0,103	0,001
-137,672	800,000	0,068	0,157
-136,658	229,795	-0,068	0,079
-135,643	-40,197	-0,039	-0,014
-134,629	614,012	0,042	-0,075
-133,614	14,592	-0,021	0,012
-132,599	-180,812	0,106	0,001
-131,585	-198,571	0,109	0,000
-130,570	276,045	0,100	0,126
-129,556	388,397	-0,032	0,046
-128,541	-136,829	0,059	-0,005
-127,526	88,096	0,037	0,029
-126,512	194,961	-0,040	-0,043
-125,497	-71,351	0,016	0,004
-124,483	-200,000	-0,010	0,035
-123,468	174,886	0,119	0,122
-122,453	305,889	0,130	0,171
-121,439	198,235	-0,133	0,144
-120,424	-85,101	0,196	-0,043
-119,410	600,016	-0,083	0,147
-118,395	87,342	0,064	0,050
-117,380	268,655	0,095	0,118
-116,366	534,126	0,066	-0,111
-115,351	489,411	-0,026	0,041
-114,337	509,439	0,019	0,031
-113,322	-43,176	0,122	-0,044
-112,307	800,000	0,014	-0,034
-111,293	-200,000	-0,004	0,052
-110,278	70,058	0,065	0,047
-109,264	-11,248	0,082	0,038
-108,249	800,000	-0,066	-0,140
-107,234	312,155	-0,082	-0,109
-106,220	-200,000	0,012	-0,065
-105,205	-60,134	0,104	0,031
-104,191	168,024	0,059	0,060
-103,176	-46,492	0,082	0,028
-102,162	77,241	-0,080	0,060
-101,147	-200,000	0,000	-0,050
-100,132	82,232	-0,129	0,099
-99,118	-89,067	-0,073	0,015
-98,103	-200,000	0,015	-0,123
-97,089	140,859	-0,076	0,071
-96,074	-122,205	0,046	-0,005
-95,059	-120,908	0,070	0,008
-94,045	52,779	0,138	0,093
-93,030	141,705	-0,013	-0,012
-92,016	-93,504	-0,083	-0,016
-91,001	66,163	-0,036	0,026
-89,986	-200,000	0,002	0,067
-88,972	-34,654	0,088	-0,034
-87,957	800,000	-0,033	0,090
-86,943	-17,528	0,056	-0,025
-85,928	800,000	-0,040	-0,094
-84,913	-80,777	-0,096	-0,022
-83,899	-200,000	0,006	0,077
-82,884	223,684	-0,083	0,095
-81,870	39,001	0,070	0,044
-80,855	800,000	-0,056	-0,112
-79,840	-70,845	-0,099	0,026
-78,826	76,401	0,064	-0,048
-77,811	800,000	-0,044	-0,100
-76,797	-200,000	0,015	-0,053
-75,782	-101,080	-0,105	-0,018
-74,767	-45,669	0,087	-0,030
-73,753	26,236	0,097	-0,057
-72,738	-200,000	0,053	-0,212
-71,724	800,000	0,099	-0,206
-70,709	13,742	-0,103	0,056
-69,694	774,397	0,039	0,075
-68,680	94,024	0,080	0,064
-67,665	-200,000	-0,010	0,167
-66,651	-200,000	-0,005	0,142
-65,636	-200,000	0,017	0,075
-64,622	1,688	-0,124	0,063
-63,607	249,076	0,084	-0,101
-62,592	-200,000	0,008	-0,137
-61,578	-77,624	0,040	-0,010
-60,563	173,901	0,121	0,124
-59,549	800,000	0,089	0,189
-58,534	27,330	-2,033	-1,204
-57,519	463,830	-1,325	-2,098
-56,505	-200,000	-0,207	-4,370
-55,490	439,205	1,018	1,574
-54,476	800,000	5,160	11,170
-53,461	-200,000	20,872	329,972
-52,446	800,000	757,952	2324,747
-51,432	549,658	1662,327	2824,701
-50,417	73,377	1663,958	1228,116
-49,403	18,644	1537,217	865,891
-48,388	12,658	1460,124	793,488
-47,373	19,076	1450,719	819,173
-46,359	15,819	1440,149	797,665
-45,344	10,877	1436,222	771,904
-44,330	10,885	1433,841	770,632
-43,315	10,869	1432,003	769,535
-42,300	10,840	1430,359	768,486
-41,286	10,919	1429,111	768,160
-40,271	10,873	1427,907	767,262
-39,257	10,846	1426,797	766,508
-38,242	10,918	1425,743	766,251
-37,227	10,889	1424,589	765,463
-36,213	10,934	1422,956	764,770
-35,198	10,923	1422,064	764,210
-34,184	10,935	1421,137	763,737
-33,169	10,906	1419,659	762,775
-32,154	10,975	1418,673	762,543
-31,140	10,943	1417,392	761,673
-30,125	10,979	1416,547	761,357
-29,111	10,951	1415,424	760,593
-28,096	10,911	1414,151	759,691
-27,082	10,862	1413,114	758,872
-26,067	10,873	1411,893	758,236
-25,052	10,900	1410,823	757,757
-24,038	10,873	1409,811	757,059
-23,023	10,836	1409,161	756,507
-22,009	10,859	1407,853	755,883
-20,994	10,854	1406,702	755,211
-19,979	10,813	1406,011	754,620
-18,965	10,797	1404,910	753,924
-17,950	10,799	1404,137	753,485
-16,936	10,833	1403,267	753,149
-15,921	10,763	1402,196	752,219
-14,906	10,738	1401,280	751,578
-13,892	10,780	1400,272	751,205
-12,877	10,731	1399,755	750,672
-11,863	10,786	1398,665	750,311
-10,848	10,718	1397,839	749,524
-9,833	10,710	1397,011	749,011
-8,819	10,701	1396,155	748,480
-7,804	10,645	1395,355	747,764
-6,790	10,652	1394,103	747,097
-5,775	10,655	1393,170	746,578
-4,760	10,722	1392,090	746,280
-3,746	10,705	1391,301	745,750
-2,731	10,671	1390,533	745,150
-1,717	10,655	1389,805	744,660
-0,702	10,659	1387,871	743,612
0,313	14,667	1301,411	715,657
1,327	31,018	692,425	417,942
2,342	48,260	120,048	79,122
3,356	-2,625	16,650	8,193
4,371	3,031	3,390	1,732
5,386	32,048	0,848	0,514
6,400	651,673	0,233	0,424
7,415	-36,551	-0,251	-0,095
8,429	103,194	-0,174	-0,144
9,444	-46,817	-0,321	-0,110
10,459	-22,334	-0,253	-0,108
11,473	-55,312	-0,279	-0,088
12,488	-53,773	-0,331	-0,106
13,502	103,974	-0,190	-0,158
14,517	-63,651	-0,280	-0,080
15,531	-35,123	-0,314	-0,120
16,546	57,601	-0,465	-0,320
17,561	50,747	-0,279	-0,186
18,575	69,161	-0,170	-0,123
19,590	198,935	-0,216	-0,233
20,604	-63,449	-0,417	-0,120
21,619	77,467	-0,489	-0,367
22,634	-3,411	-0,532	-0,260
23,648	469,357	-0,306	-0,485
24,663	126,999	-0,399	-0,356
25,677	-13,407	-0,435	-0,198
26,692	178,054	-0,291	-0,299
27,707	109,225	-0,169	-0,142
28,721	112,309	-0,233	-0,199
29,736	45,068	-0,423	-0,274
30,750	227,090	-0,370	-0,424
31,765	30,312	-0,412	-0,247
32,780	57,955	-0,297	-0,204
33,794	-33,548	-0,529	-0,204
34,809	-45,194	-0,320	-0,111
35,823	7,983	-0,346	-0,182
36,838	136,059	-0,429	-0,393
37,853	17,946	-0,411	-0,230
38,867	163,432	-0,347	-0,343
39,882	612,256	-0,182	-0,321
40,896	-14,392	-0,329	-0,148
41,911	75,397	-0,240	-0,178
42,926	148,916	-0,259	-0,247
43,940	52,654	-0,423	-0,284
44,955	343,477	-0,332	-0,458
45,969	16,224	-0,392	-0,217
46,984	288,860	-0,237	-0,303
47,999	56,709	-0,310	-0,212
49,013	-3,581	-0,311	-0,152
50,028	-64,478	-0,394	-0,112
51,042	42,607	-0,297	-0,189
52,057	125,669	-0,330	-0,293
53,071	310,901	-0,263	-0,347
54,086	77,185	-0,458	-0,341
55,101	192,539	-0,257	-0,273
56,115	2,662	-0,412	-0,209
57,130	79,744	-0,420	-0,317
58,144	60,152	-0,300	-0,208
59,159	26,458	-0,379	-0,222
60,174	24,208	-0,407	-0,235
61,188	74,158	-0,282	-0,208
62,203	21,721	-0,364	-0,207
63,217	37,897	-0,349	-0,217
64,232	125,147	-0,291	-0,258
65,247	-73,525	-0,359	-0,091
66,261	-5,124	-0,304	-0,146
67,276	279,019	-0,352	-0,441
68,290	107,654	-0,265	-0,221
69,305	-71,082	-0,365	-0,095
70,320	-89,370	-0,337	-0,069
71,334	95,685	-0,101	-0,081
72,349	170,284	-0,257	-0,258
73,363	18,910	-0,332	-0,186
74,378	84,852	-0,422	-0,324
75,393	800,000	-0,143	-0,299
76,407	-25,428	-0,370	-0,153
77,422	77,133	-0,287	-0,214
78,436	-167,724	-0,279	-0,008
79,451	-20,366	-0,181	-0,078
80,466	-127,327	-0,357	0,036
81,480	192,722	-0,225	-0,239
82,495	21,169	-0,417	-0,236
83,509	106,051	-0,280	-0,232
84,524	-68,949	-0,270	-0,072
85,539	58,524	-0,270	-0,186
86,553	-40,607	-0,341	-0,123
87,568	85,766	-0,224	-0,172
88,582	182,238	-0,168	-0,174
89,597	57,391	-0,161	-0,110
90,611	34,675	-0,288	-0,176
91,626	257,933	-0,147	-0,178
92,641	85,404	-0,328	-0,252
93,655	96,914	-0,164	-0,132
94,670	115,377	-0,261	-0,223
95,684	79,645	-0,260	-0,195
96,699	132,069	-0,215	-0,194
97,714	76,191	-0,246	-0,182
98,728	800,000	-0,066	-0,142
99,743	-72,288	-0,189	-0,048
100,757	12,036	-0,345	-0,185
101,772	10,188	-0,245	-0,130
102,787	95,219	-0,240	-0,191
103,801	216,475	-0,178	-0,199
104,816	98,097	-0,306	-0,246
105,830	273,749	-0,241	-0,298
106,845	-17,396	-0,316	-0,139
107,860	55,956	-0,202	-0,137
108,874	15,392	-0,389	-0,213
109,889	-4,819	-0,224	-0,108
110,903	70,973	-0,319	-0,231
111,918	52,170	-0,219	-0,146
112,933	-41,530	-0,349	-0,125
113,947	482,646	-0,134	-0,213
114,962	0,624	-0,359	-0,179
115,976	154,822	-0,157	-0,151
116,991	57,022	-0,218	-0,148
118,006	94,205	-0,175	-0,139
119,020	2,223	-0,191	-0,096
120,035	35,749	-0,262	-0,160
121,049	-152,565	-0,148	-0,007
122,064	58,809	-0,264	-0,181
123,079	71,610	-0,220	-0,159
124,093	-62,084	-0,259	-0,075
125,108	39,841	-0,260	-0,163
126,122	165,651	-0,180	-0,178
127,137	83,581	-0,141	-0,107
128,151	-145,018	-0,200	-0,013
129,166	-114,111	-0,283	-0,038
130,181	625,725	-0,172	-0,304
131,195	0,780	-0,269	-0,134
132,210	-29,799	-0,262	-0,104
133,224	23,622	-0,267	-0,153
134,239	-108,485	-0,254	-0,038
135,254	188,999	-0,230	-0,241
136,268	702,189	-0,137	-0,253
137,283	45,376	-0,285	-0,183
138,297	212,477	-0,267	-0,294
139,312	6,339	-0,371	-0,192
140,327	656,828	-0,141	-0,254
141,341	365,332	-0,166	-0,234
142,356	105,589	-0,163	-0,134
143,370	79,914	-0,303	-0,227
144,385	213,724	-0,187	-0,206
145,400	-29,041	-0,250	-0,100
146,414	100,871	-0,254	-0,206
147,429	-83,972	-0,191	-0,042
148,443	250,454	-0,176	-0,208
149,458	36,019	-0,190	-0,116
150,473	-25,970	-0,289	-0,118
151,487	45,138	-0,247	-0,158
152,502	101,522	-0,184	-0,150
153,516	-22,781	-0,232	-0,097
154,531	1,923	-0,258	-0,129
155,546	259,213	-0,204	-0,245
156,560	28,631	-0,099	-0,058
157,575	26,344	-0,215	-0,125
158,589	22,781	-0,288	-0,164
159,604	-94,360	-0,327	-0,062
160,619	72,886	-0,223	-0,162
161,633	34,889	-0,385	-0,234
162,648	-15,815	-0,293	-0,129
163,662	113,867	-0,109	-0,092
164,677	15,501	-0,297	-0,162
165,692	-200,000	0,006	-0,266
166,706	175,714	-0,191	-0,193
167,721	295,726	-0,175	-0,224
168,735	6,978	-0,213	-0,110
169,750	-65,762	-0,228	-0,063
170,764	-66,623	-0,204	-0,056
171,779	164,883	-0,304	-0,299
172,794	21,163	-0,236	-0,133
173,808	67,009	-0,246	-0,174
174,823	96,833	-0,234	-0,186
175,837	69,407	-0,292	-0,208
176,852	188,697	-0,132	-0,137
177,867	-0,390	-0,235	-0,116
178,881	654,361	-0,066	-0,117
179,896	-136,775	-0,211	-0,017
180,910	63,935	-0,258	-0,180
181,925	413,931	-0,139	-0,206
182,940	-86,594	-0,114	-0,024
183,954	-117,988	-0,135	-0,017
184,969	573,909	-0,153	-0,260
185,983	-128,645	-0,301	-0,029
186,998	-11,191	-0,302	-0,138
188,013	63,212	-0,183	-0,127
189,027	594,368	-0,125	-0,215
190,042	130,115	-0,219	-0,194
191,056	443,545	-0,112	-0,170
192,071	52,125	-0,261	-0,172
193,086	30,178	-0,141	-0,084
194,100	-25,508	-0,245	-0,100
195,115	-101,408	-0,153	0,026
196,129	216,971	-0,153	-0,170
197,144	113,379	-0,296	-0,249
198,159	189,723	-0,189	-0,197
199,173	427,371	-0,118	-0,178
200,188	190,183	-0,199	-0,207
201,202	-78,226	-0,172	-0,041
202,217	192,263	-0,237	-0,248
203,232	541,128	-0,139	-0,231
204,246	431,903	-0,146	-0,220
205,261	72,553	-0,221	-0,160
206,275	25,051	-0,191	-0,110
207,290	-8,737	-0,121	-0,056
208,304	800,000	-0,096	-0,229
209,319	-15,117	-0,212	-0,094
210,334	63,936	-0,278	-0,194
211,348	-43,942	-0,295	-0,102
212,363	505,313	-0,099	-0,159
213,377	409,667	-0,126	-0,185
214,392	-200,000	-0,025	-0,153
215,407	164,106	-0,161	-0,157
216,421	74,745	-0,227	-0,165
217,436	94,296	-0,086	-0,068
218,450	386,092	-0,145	-0,207
219,465	298,970	-0,163	-0,209
220,480	186,576	-0,112	-0,116
221,494	596,212	-0,057	-0,099
222,509	36,830	-0,077	-0,047
223,523	20,128	-0,257	-0,143
224,538	585,092	-0,085	-0,146
225,553	363,707	-0,116	-0,162
226,567	61,700	-0,177	-0,122
227,582	-83,766	-0,224	-0,049
228,596	528,733	-0,011	-0,018
229,611	-114,634	-0,252	-0,033
230,626	70,547	-0,133	-0,095
231,640	263,268	-0,182	-0,219
232,655	18,033	-0,262	-0,144
233,669	-147,123	-0,217	0,013
234,684	800,000	-0,082	-0,159
235,699	70,935	-0,196	-0,140
236,713	38,884	-0,176	-0,108
237,728	-1,006	-0,198	-0,096
238,742	29,246	-0,142	-0,083
239,757	106,252	-0,209	-0,171
240,772	-132,499	-0,302	-0,026
241,786	107,587	-0,192	-0,158
242,801	-96,429	-0,167	-0,030
243,815	-53,251	-0,099	-0,031
244,830	154,163	-0,086	-0,082
245,844	-10,546	-0,197	-0,090
246,859	8,812	-0,298	-0,155
247,874	142,105	-0,193	-0,177
248,888	365,056	-0,145	-0,203
249,903	6,663	-0,238	-0,122
250,917	-121,316	-0,166	0,019
251,932	-105,427	-0,108	-0,017
252,947	800,000	-0,017	-0,035
253,961	361,244	-0,206	-0,286
254,976	45,824	-0,158	-0,101
255,990	504,527	-0,099	-0,159
257,005	-197,773	-0,192	-0,001
258,020	345,924	-0,105	-0,143
259,034	22,788	-0,209	-0,118
260,049	74,765	-0,099	-0,072
261,063	245,003	-0,131	-0,153
262,078	39,001	-0,225	-0,138
263,093	-0,723	-0,133	-0,065
264,107	-57,838	-0,215	-0,064
265,122	73,680	-0,157	-0,113
266,136	800,000	-0,070	-0,134
267,151	117,736	-0,089	-0,076
268,166	-102,176	-0,160	0,026
269,180	567,645	-0,148	-0,248
270,195	221,886	-0,216	-0,240
271,209	-12,977	-0,358	-0,160
272,224	-200,000	-0,040	-0,148
273,239	163,938	-0,120	-0,116
274,253	40,968	-0,094	-0,058
275,268	246,148	-0,151	-0,176
276,282	-0,153	-0,188	-0,092
277,297	104,708	-0,174	-0,141
278,312	60,519	-0,119	-0,081
279,326	447,192	-0,113	-0,172
280,341	800,000	-0,097	-0,231
281,355	-60,798	-0,324	-0,094
282,370	-17,388	-0,098	-0,042
283,384	-32,802	-0,243	-0,093
284,399	231,831	-0,225	-0,255
285,414	277,753	-0,107	-0,131
286,428	-180,829	-0,126	0,002
287,443	-138,766	-0,144	0,011
288,457	296,907	-0,147	-0,186
289,472	29,432	-0,113	-0,066
290,487	4,386	-0,119	-0,060
291,501	236,363	-0,172	-0,196
292,516	100,522	-0,145	-0,116
293,530	-200,000	-0,019	-0,097
294,545	217,089	-0,103	-0,113
295,560	-67,839	-0,174	-0,046
296,574	128,327	-0,192	-0,168
297,589	137,229	-0,053	-0,048
298,603	76,991	-0,094	-0,069
299,618	-80,543	-0,115	-0,026
300,633	-87,093	-0,191	-0,040
301,647	43,502	-0,191	-0,120
302,662	11,128	-0,155	-0,081
303,676	-153,329	-0,128	0,006
304,691	41,314	-0,070	-0,043
305,706	276,982	-0,147	-0,180
306,720	-200,000	-0,017	-0,147
307,735	-200,000	-0,026	-0,115
308,749	484,263	-0,035	-0,055
309,764	-3,787	-0,179	-0,085
310,779	800,000	-0,049	-0,145
311,793	33,588	-0,252	-0,150
312,808	443,779	-0,114	-0,173
313,822	537,719	-0,083	-0,135
314,837	-45,804	-0,126	-0,042
315,852	100,602	-0,138	-0,110
316,866	5,109	-0,052	-0,026
317,881	-114,492	-0,118	0,015
318,895	-200,000	-0,036	-0,114
319,910	75,272	-0,128	-0,093
320,925	432,181	-0,130	-0,194
321,939	12,594	-0,196	-0,104
322,954	54,584	-0,178	-0,118
323,968	-200,000	-0,011	-0,127
324,983	-171,923	-0,030	-0,001
325,997	346,295	-0,073	-0,099
327,012	-200,000	-0,089	-0,284
328,027	-15,916	-0,210	-0,091
329,041	432,517	-0,106	-0,159
330,056	24,712	-0,126	-0,072
331,070	108,570	-0,217	-0,178
332,085	33,797	-0,054	-0,032
333,100	-142,763	-0,158	-0,010
334,114	-69,778	-0,210	-0,054
335,129	-200,000	-0,042	-0,177
336,143	329,888	-0,090	-0,119
337,158	483,471	-0,109	-0,170
338,173	560,877	-0,092	-0,153
339,187	-131,558	-0,124	0,011
340,202	345,031	-0,055	-0,075
341,216	-200,000	-0,018	-0,172
342,231	-12,341	-0,301	0,134
343,246	1,450	-0,140	-0,069
344,260	67,381	-0,047	0,033
345,275	522,398	-0,073	-0,119
346,289	58,342	-0,070	-0,047
347,304	747,423	-0,072	-0,134
348,319	-6,599	-0,059	-0,027
349,333	224,767	-0,126	-0,139
350,348	-65,288	-0,090	-0,025
351,362	93,509	-0,123	-0,096
352,377	-28,008	-0,020	0,008
353,392	-200,000	0,019	0,082
354,406	145,831	-0,111	-0,102
355,421	206,891	1308,314	1396,559
356,435	159,138	1468,221	1397,049
