DTS Sentinel unit serial number:	SN410029Multiplexer serial number:	ORYXHardware model number:	OX2-SRSoftware version number:	ORYX F/W v4,00 Oryx Data Collector v3.7.2.0data status	okinstallation	B3 Nyhavnadifferential loss correction	single-endedforward channel	channel 1reverse channel	N/Adate	2023/12/02time	12:42:30forward acquisition time	300,00reverse acquisition time	0,00gamma	499,1914k internal	0,3198k external	0,3198temperature offset calibration	1,0000default loss term (dB/km)	0,3820temperature slope calibration	1,0000multiplexer offset coefficient	1,0000multiplexer slope coefficient	1,0000fibre end	0,00T internal ref (°C)	14,14T ext. ref 1 (°C)	-0,42T ext. ref 2 (°C)	-0,43length (m)	temperature (°C)	Stokes	anti-Stokes-744,400	-200,000	-0,056	-0,232
-743,385	800,000	-0,107	0,292
-742,371	-200,000	-0,041	-0,214
-741,356	800,000	0,133	0,426
-740,342	43,472	-0,162	-0,108
-739,327	-200,000	0,004	0,337
-738,312	92,925	-0,203	-0,167
-737,298	-200,000	-0,015	0,308
-736,283	800,000	-0,113	-0,252
-735,269	-200,000	0,029	0,220
-734,254	123,864	-0,174	-0,159
-733,239	33,527	-0,214	0,135
-732,225	-200,000	-0,019	-0,359
-731,210	-23,150	0,116	0,050
-730,196	188,526	0,024	-0,027
-729,181	63,771	-0,011	-0,008
-728,167	800,000	-0,065	0,139
-727,152	-200,000	0,015	0,112
-726,137	-77,910	0,051	0,013
-725,123	-177,083	-0,188	-0,003
-724,108	64,043	0,066	-0,048
-723,094	154,637	-0,115	-0,115
-722,079	-200,000	0,012	-0,129
-721,064	-200,000	0,027	-0,128
-720,050	-200,000	0,021	0,086
-719,035	148,155	-0,025	0,025
-718,021	-55,372	-0,116	-0,038
-717,006	-110,588	-0,129	-0,019
-715,991	155,423	0,011	-0,011
-714,977	-14,574	-0,210	-0,098
-713,962	-200,000	-0,008	-0,126
-712,948	-90,111	-0,154	0,032
-711,933	-1,336	-0,105	-0,054
-710,918	321,339	-0,074	-0,103
-709,904	409,985	-0,095	-0,147
-708,889	-200,000	0,014	-0,158
-707,875	471,974	0,052	-0,086
-706,860	64,556	0,045	-0,033
-705,845	-162,875	0,060	0,002
-704,831	305,061	0,056	0,075
-703,816	-18,090	0,067	-0,031
-702,802	-65,150	0,073	-0,021
-701,787	-200,000	0,012	0,042
-700,772	473,799	-0,045	-0,073
-699,758	-21,285	-0,011	-0,005
-698,743	-107,132	-0,048	-0,008
-697,729	-108,128	0,020	0,003
-696,714	-200,000	-0,009	-0,152
-695,699	800,000	-0,070	0,145
-694,685	-41,439	-0,171	-0,064
-693,670	411,529	-0,026	-0,040
-692,656	-76,228	0,097	-0,025
-691,641	40,134	-0,018	-0,012
-690,627	-42,405	0,024	0,009
-689,612	635,291	0,043	0,080
-688,597	49,512	0,071	-0,048
-687,583	412,114	-0,095	-0,148
-686,568	-200,000	-0,013	-0,103
-685,554	-163,502	-0,116	0,004
-684,539	800,000	0,035	-0,078
-683,524	42,618	-0,073	0,048
-682,510	-200,000	-0,021	0,130
-681,495	-26,322	-0,064	0,027
-680,481	143,571	-0,028	0,027
-679,466	729,350	-0,056	0,109
-678,451	43,308	-0,081	0,054
-677,437	403,943	0,056	-0,086
-676,422	-139,937	0,197	0,015
-675,408	-53,130	-0,086	0,029
-674,393	-98,318	-0,133	0,025
-673,378	505,289	-0,090	-0,152
-672,364	48,460	-0,040	-0,027
-671,349	-121,207	-0,102	0,012
-670,335	-200,000	0,025	-0,178
-669,320	-71,679	0,049	0,013
-668,305	99,589	0,035	-0,029
-667,291	14,592	-0,046	0,026
-666,276	-200,000	0,028	-0,115
-665,262	-5,206	-0,048	-0,024
-664,247	-200,000	0,010	-0,102
-663,232	106,903	0,037	0,032
-662,218	96,897	-0,121	0,100
-661,203	403,360	-0,033	-0,051
-660,189	-200,000	-0,034	0,127
-659,174	-19,702	-0,115	0,051
-658,159	-9,818	-0,081	-0,039
-657,145	632,615	0,050	0,092
-656,130	321,013	-0,038	0,053
-655,116	-200,000	-0,005	-0,047
-654,101	485,342	-0,027	-0,045
-653,086	22,632	-0,027	0,016
-652,072	45,572	-0,163	-0,109
-651,057	-141,066	0,079	0,006
-650,043	-200,000	0,014	-0,071
-649,028	-200,000	-0,010	-0,066
-648,014	413,834	0,045	0,069
-646,999	106,656	0,059	-0,051
-645,984	224,106	-0,042	0,049
-644,970	607,363	0,102	-0,186
-643,955	-67,585	-0,174	-0,049
-642,941	-55,111	-0,158	0,051
-641,926	0,669	-0,085	-0,044
-640,911	-13,868	-0,033	-0,016
-639,897	99,504	0,102	-0,086
-638,882	-81,430	-0,039	-0,009
-637,868	-134,478	-0,123	0,011
-636,853	800,000	-0,037	-0,082
-635,838	188,220	0,083	0,090
-634,824	-47,270	-0,114	-0,040
-633,809	662,805	0,041	0,077
-632,795	800,000	0,037	-0,108
-631,780	133,712	0,132	-0,124
-630,765	-51,485	0,037	-0,012
-629,751	39,761	-0,030	0,019
-628,736	-200,000	0,006	-0,103
-627,722	-17,000	-0,039	-0,018
-626,707	-200,000	0,034	0,112
-625,692	257,524	-0,029	0,037
-624,678	787,938	0,017	-0,034
-623,663	-93,371	0,114	0,023
-622,649	88,030	-0,069	-0,055
-621,634	345,913	-0,051	-0,073
-620,619	-96,895	-0,110	-0,021
-619,605	-11,972	0,013	0,006
-618,590	176,010	0,074	0,078
-617,576	800,000	0,016	0,046
-616,561	99,377	-0,016	0,013
-615,546	-69,051	-0,180	-0,050
-614,532	579,183	-0,048	-0,086
-613,517	640,286	-0,043	0,080
-612,503	287,149	-0,074	0,097
-611,488	404,308	0,028	0,043
-610,474	64,819	0,092	0,067
-609,459	36,860	0,019	-0,012
-608,444	3,088	-0,062	-0,033
-607,430	-200,000	0,010	-0,186
-606,415	270,500	-0,026	-0,033
-605,401	50,429	-0,117	0,080
-604,386	800,000	0,059	0,149
-603,371	100,088	0,048	0,040
-602,357	116,626	-0,136	0,121
-601,342	706,796	-0,071	0,137
-600,328	800,000	-0,039	-0,112
-599,313	-96,707	-0,202	-0,038
-598,298	-1,734	0,132	0,067
-597,284	-200,000	0,027	0,141
-596,269	290,972	0,041	0,054
-595,255	-200,000	-0,016	0,064
-594,240	-200,000	-0,034	-0,138
-593,225	-200,000	0,019	-0,172
-592,211	41,791	-0,145	0,095
-591,196	213,427	-0,059	-0,067
-590,182	-60,979	-0,103	0,031
-589,167	-96,197	-0,118	-0,022
-588,152	588,956	0,066	-0,118
-587,138	95,367	-0,156	-0,128
-586,123	243,048	-0,143	-0,174
-585,109	484,939	-0,119	-0,197
-584,094	-173,863	0,060	-0,001
-583,079	800,000	-0,008	-0,023
-582,065	-122,132	0,087	-0,010
-581,050	115,452	-0,102	0,091
-580,036	-24,688	-0,040	0,017
-579,021	222,431	0,083	-0,096
-578,006	-77,131	-0,128	-0,032
-576,992	99,703	-0,091	-0,076
-575,977	76,553	-0,115	0,088
-574,963	-93,046	-0,021	-0,004
-573,948	204,715	0,084	-0,095
-572,934	-172,933	0,094	-0,002
-571,919	-164,512	-0,210	-0,007
-570,904	3,725	0,151	0,080
-569,890	246,011	-0,059	-0,072
-568,875	-166,555	0,062	0,002
-567,861	-125,793	0,183	0,020
-566,846	-83,108	-0,052	-0,012
-565,831	280,994	-0,024	-0,031
-564,817	-146,759	-0,081	0,005
-563,802	-65,777	-0,097	0,028
-562,788	-200,000	-0,010	0,104
-561,773	-161,775	0,136	0,005
-560,758	6,794	0,033	-0,018
-559,744	192,676	-0,020	0,021
-558,729	-200,000	0,010	-0,126
-557,715	-105,965	-0,191	-0,031
-556,700	43,103	-0,057	-0,038
-555,685	282,469	-0,033	-0,043
-554,671	218,533	-0,013	-0,015
-553,656	800,000	0,031	-0,064
-552,642	130,897	-0,051	0,047
-551,627	73,528	0,145	-0,109
-550,612	494,856	0,041	0,068
-549,598	-200,000	-0,003	-0,121
-548,583	-88,504	-0,087	0,019
-547,569	-107,300	-0,048	-0,008
-546,554	-139,278	-0,085	0,006
-545,539	-200,000	-0,001	-0,009
-544,525	-200,000	0,058	-0,191
-543,510	548,998	0,045	-0,077
-542,496	-107,195	-0,067	0,011
-541,481	185,369	0,027	-0,029
-540,466	174,419	0,017	0,018
-539,452	-200,000	0,013	0,052
-538,437	376,370	-0,017	0,025
-537,423	-34,908	0,147	0,057
-536,408	632,564	-0,053	-0,097
-535,393	-172,522	0,099	-0,002
-534,379	-200,000	-0,002	-0,090
-533,364	-50,195	0,084	0,029
-532,350	-200,000	0,018	0,199
-531,335	-85,675	0,195	0,043
-530,321	-14,576	-0,096	-0,045
-529,306	-135,626	-0,102	-0,009
-528,291	480,222	-0,075	-0,122
-527,277	93,844	-0,130	-0,106
-526,262	-200,000	-0,014	-0,062
-525,248	218,977	0,085	-0,098
-524,233	171,649	0,038	-0,040
-523,218	-200,000	-0,020	0,068
-522,204	216,775	-0,108	-0,124
-521,189	215,529	-0,056	-0,064
-520,175	272,339	0,046	-0,059
-519,160	44,658	0,042	-0,028
-518,145	-93,104	0,162	0,032
-517,131	97,018	0,044	0,037
-516,116	173,414	-0,064	0,067
-515,102	800,000	-0,005	-0,014
-514,087	-200,000	-0,020	-0,083
-513,072	49,583	-0,088	0,059
-512,058	168,473	0,092	0,095
-511,043	77,073	-0,047	-0,036
-510,029	-111,168	0,049	-0,007
-509,014	-1,303	0,154	-0,078
-507,999	-76,332	-0,023	-0,006
-506,985	201,464	0,102	-0,114
-505,970	-200,000	-0,011	-0,081
-504,956	240,962	-0,050	-0,060
-503,941	398,590	-0,020	0,030
-502,926	379,819	0,022	-0,032
-501,912	-200,000	-0,017	0,155
-500,897	33,288	-0,075	0,047
-499,883	800,000	-0,007	0,021
-498,868	-189,390	-0,111	0,001
-497,853	800,000	0,023	0,058
-496,839	226,350	-0,059	0,069
-495,824	-200,000	0,013	0,050
-494,810	-28,400	-0,101	-0,042
-493,795	-41,476	0,110	-0,041
-492,781	528,025	-0,045	-0,076
-491,766	-200,000	0,004	-0,052
-490,751	-200,000	-0,013	-0,087
-489,737	323,156	0,065	-0,090
-488,722	-43,317	0,076	0,028
-487,708	404,695	-0,023	0,036
-486,693	800,000	-0,009	0,024
-485,678	316,072	-0,032	-0,044
-484,664	139,224	-0,052	-0,049
-483,649	-47,394	-0,018	-0,006
-482,635	29,000	0,058	0,035
-481,620	60,071	0,068	0,048
-480,605	-200,000	-0,002	0,017
-479,591	197,806	-0,079	0,087
-478,576	78,825	0,111	-0,086
-477,562	-200,000	-0,004	0,050
-476,547	800,000	-0,046	0,118
-475,532	135,990	0,081	0,076
-474,518	-200,000	0,001	0,149
-473,503	86,107	-0,006	0,005
-472,489	-155,133	-0,157	0,007
-471,474	800,000	-0,011	0,034
-470,459	-195,771	0,206	-0,001
-469,445	-77,608	-0,113	-0,028
-468,430	800,000	-0,037	-0,111
-467,416	68,048	0,018	-0,013
-466,401	2,235	0,088	-0,046
-465,386	-106,796	-0,005	0,001
-464,372	26,381	0,038	0,023
-463,357	219,982	-0,072	0,083
-462,343	-200,000	-0,018	0,070
-461,328	319,326	-0,023	0,032
-460,313	171,670	-0,037	0,038
-459,299	-200,000	-0,009	-0,049
-458,284	144,919	-0,050	0,048
-457,270	227,400	-0,071	-0,083
-456,255	800,000	-0,100	-0,277
-455,241	-90,611	-0,058	-0,012
-454,226	-200,000	-0,025	-0,083
-453,211	-200,000	0,002	0,041
-452,197	-82,353	0,203	0,047
-451,182	-135,277	0,033	-0,003
-450,168	-87,604	-0,066	0,014
-449,153	406,665	-0,060	0,092
-448,138	-200,000	-0,000	-0,114
-447,124	-200,000	0,022	-0,080
-446,109	84,685	-0,099	-0,078
-445,095	-26,143	0,070	0,029
-444,080	-200,000	-0,027	0,098
-443,065	-15,839	0,038	-0,017
-442,051	-200,000	-0,007	0,079
-441,036	-200,000	0,005	-0,121
-440,022	-138,670	0,113	0,009
-439,007	337,710	-0,026	-0,036
-437,992	665,067	0,040	0,075
-436,978	-150,584	-0,066	-0,004
-435,963	17,479	0,081	0,046
-434,949	-108,019	-0,083	-0,013
-433,934	-200,000	-0,011	-0,087
-432,919	586,120	-0,028	0,050
-431,905	-200,000	-0,024	-0,076
-430,890	-200,000	-0,001	0,124
-429,876	157,880	0,110	0,110
-428,861	36,361	-0,092	0,058
-427,846	-113,235	0,045	0,006
-426,832	-200,000	-0,043	-0,172
-425,817	-44,885	0,047	-0,017
-424,803	-150,361	-0,099	0,005
-423,788	800,000	-0,046	-0,140
-422,773	-142,414	0,098	0,007
-421,759	-200,000	0,024	0,172
-420,744	19,057	0,150	0,086
-419,730	397,196	-0,034	-0,051
-418,715	-3,079	-0,061	-0,030
-417,701	-200,000	-0,010	-0,062
-416,686	-141,270	-0,034	-0,002
-415,671	11,826	0,215	-0,118
-414,657	-200,000	-0,000	0,123
-413,642	-200,000	-0,005	-0,116
-412,628	800,000	0,009	0,025
-411,613	125,002	-0,055	0,050
-410,598	-200,000	-0,017	0,108
-409,584	-42,143	0,015	0,006
-408,569	-200,000	-0,007	0,151
-407,555	-200,000	-0,032	0,113
-406,540	-22,133	-0,012	-0,005
-405,525	102,453	0,038	0,032
-404,511	800,000	0,043	-0,094
-403,496	136,232	-0,139	0,130
-402,482	84,862	0,051	0,040
-401,467	128,226	-0,103	-0,094
-400,452	-200,000	-0,009	0,145
-399,438	-200,000	0,019	-0,101
-398,423	800,000	0,031	-0,078
-397,409	204,375	0,036	0,040
-396,394	800,000	-0,024	-0,053
-395,379	198,287	-0,094	0,103
-394,365	748,565	0,077	0,151
-393,350	14,116	0,077	0,043
-392,336	-200,000	0,006	-0,078
-391,321	-200,000	-0,004	0,025
-390,306	-60,726	-0,142	-0,043
-389,292	-200,000	-0,008	-0,064
-388,277	-200,000	0,000	-0,010
-387,263	45,933	-0,029	0,019
-386,248	87,091	0,033	0,026
-385,233	800,000	0,064	0,199
-384,219	65,664	0,063	-0,045
-383,204	-74,403	-0,106	-0,027
-382,190	-19,557	-0,039	-0,017
-381,175	256,043	0,057	-0,071
-380,160	-66,873	0,064	0,018
-379,146	-200,000	0,015	-0,125
-378,131	800,000	-0,017	-0,039
-377,117	338,560	0,030	0,042
-376,102	-40,688	0,054	-0,020
-375,088	-200,000	-0,039	0,127
-374,073	-63,167	-0,098	-0,029
-373,058	-44,812	-0,067	0,024
-372,044	272,695	0,107	0,136
-371,029	-200,000	-0,008	0,121
-370,015	-156,601	-0,077	0,003
-369,000	23,269	0,103	0,061
-367,985	-200,000	-0,006	-0,084
-366,971	800,000	0,035	0,073
-365,956	800,000	-0,014	-0,039
-364,942	109,231	0,169	0,145
-363,927	-59,855	-0,027	0,008
-362,912	-140,421	-0,018	0,001
-361,898	800,000	0,044	0,119
-360,883	-200,000	-0,006	-0,025
-359,869	241,159	-0,059	-0,071
-358,854	-44,357	-0,029	-0,010
-357,839	162,904	-0,053	0,053
-356,825	-43,297	0,032	-0,012
-355,810	-32,095	-0,084	0,033
-354,796	476,614	0,046	-0,075
-353,781	66,439	-0,196	-0,143
-352,766	-20,290	0,153	-0,067
-351,752	-200,000	0,029	0,136
-350,737	-200,000	0,008	0,039
-349,723	-143,463	-0,037	-0,002
-348,708	-200,000	-0,008	0,075
-347,693	-200,000	0,031	0,117
-346,679	184,105	-0,104	-0,111
-345,664	-200,000	-0,011	-0,044
-344,650	-55,209	0,168	0,054
-343,635	-154,129	0,111	0,005
-342,620	0,622	0,126	0,064
-341,606	-129,156	-0,072	-0,007
-340,591	-69,021	0,158	0,043
-339,577	4,571	0,034	-0,018
-338,562	800,000	-0,061	-0,130
-337,548	527,525	-0,047	-0,079
-336,533	-6,940	0,146	0,071
-335,518	427,503	0,081	-0,126
-334,504	-114,815	-0,182	0,025
-333,489	-8,558	-0,058	0,028
-332,475	-176,230	-0,044	0,001
-331,460	27,101	0,106	-0,064
-330,445	-200,000	0,002	0,196
-329,431	-109,010	-0,061	-0,009
-328,416	-200,000	-0,008	0,095
-327,402	-200,000	-0,015	0,090
-326,387	179,875	-0,086	-0,090
-325,372	153,606	-0,107	-0,105
-324,358	-33,881	-0,136	-0,053
-323,343	334,385	0,079	-0,109
-322,329	272,527	0,083	-0,105
-321,314	-200,000	0,030	0,099
-320,299	0,156	0,106	0,054
-319,285	639,716	0,061	-0,112
-318,270	-147,363	-0,100	0,006
-317,256	-200,000	-0,030	-0,122
-316,241	-200,000	-0,005	0,129
-315,226	65,998	0,034	0,025
-314,212	-200,000	0,010	-0,044
-313,197	377,196	-0,022	-0,033
-312,183	51,248	-0,033	-0,022
-311,168	-39,365	0,123	-0,046
-310,153	96,676	-0,071	-0,058
-309,139	38,761	-0,085	-0,054
-308,124	-66,012	0,094	-0,027
-307,110	-200,000	-0,004	0,086
-306,095	800,000	-0,059	0,123
-305,080	-66,636	0,048	-0,013
-304,066	106,119	-0,088	-0,075
-303,051	-18,610	0,227	0,101
-302,037	-20,067	-0,130	-0,057
-301,022	800,000	-0,014	0,032
-300,008	-200,000	-0,008	0,042
-298,993	170,367	-0,047	-0,048
-297,978	329,292	0,026	0,035
-296,964	-200,000	0,007	-0,108
-295,949	294,819	-0,063	-0,083
-294,935	41,533	-0,035	-0,022
-293,920	-200,000	-0,012	-0,065
-292,905	30,646	0,069	0,042
-291,891	352,309	0,024	0,035
-290,876	50,507	0,090	-0,061
-289,862	135,859	0,039	-0,037
-288,847	-200,000	0,011	-0,087
-287,832	800,000	-0,039	0,099
-286,818	91,163	0,108	-0,086
-285,803	-168,292	-0,114	0,003
-284,789	-131,788	0,181	0,017
-283,774	487,484	-0,034	0,056
-282,759	68,390	0,128	0,094
-281,745	204,048	-0,058	0,065
-280,730	-200,000	-0,028	-0,101
-279,716	800,000	0,049	-0,110
-278,701	662,019	-0,073	0,136
-277,686	-200,000	0,034	0,140
-276,672	800,000	0,059	0,150
-275,657	-58,376	0,059	0,018
-274,643	-164,417	-0,169	0,005
-273,628	405,954	0,044	0,067
-272,613	-39,747	0,151	0,056
-271,599	27,752	0,036	0,021
-270,584	-200,000	0,006	0,132
-269,570	121,344	0,051	-0,045
-268,555	-200,000	0,011	0,118
-267,540	-14,877	-0,089	-0,041
-266,526	177,691	0,097	-0,101
-265,511	800,000	0,029	-0,081
-264,497	-200,000	0,014	0,097
-263,482	23,564	-0,122	-0,072
-262,467	-25,722	-0,032	0,013
-261,453	136,165	-0,019	0,018
-260,438	561,794	0,025	-0,043
-259,424	234,785	-0,064	-0,076
-258,409	-38,860	0,033	-0,012
-257,395	66,913	-0,053	0,038
-256,380	-30,635	0,175	-0,071
-255,365	-5,905	-0,097	-0,047
-254,351	183,127	-0,058	-0,061
-253,336	-200,000	-0,005	-0,034
-252,322	-71,662	0,054	-0,014
-251,307	800,000	-0,041	-0,100
-250,292	800,000	-0,042	-0,090
-249,278	-106,708	0,030	0,005
-248,263	-200,000	0,034	0,187
-247,249	356,318	0,086	0,122
-246,234	158,318	-0,161	-0,159
-245,219	800,000	-0,029	-0,090
-244,205	-92,745	-0,081	0,016
-243,190	-170,234	0,151	-0,004
-242,176	-10,556	0,046	0,022
-241,161	-74,502	0,143	0,036
-240,146	800,000	0,052	0,139
-239,132	-127,088	0,066	-0,007
-238,117	-200,000	0,007	-0,106
-237,103	-200,000	-0,012	0,056
-236,088	-200,000	-0,121	-0,000
-235,073	-186,554	0,083	-0,001
-234,059	800,000	0,024	0,047
-233,044	320,653	-0,098	0,133
-232,030	55,299	0,076	0,053
-231,015	-200,000	0,014	-0,047
-230,000	57,537	0,068	-0,047
-228,986	-200,000	-0,016	0,078
-227,971	800,000	0,039	0,079
-226,957	800,000	-0,041	0,122
-225,942	-200,000	0,037	0,193
-224,927	800,000	0,079	0,185
-223,913	6,319	0,037	0,020
-222,898	351,133	0,084	0,119
-221,884	-131,900	-0,096	-0,009
-220,869	65,782	-0,085	0,061
-219,855	58,179	0,115	0,080
-218,840	800,000	0,039	0,079
-217,825	-5,988	0,053	-0,026
-216,811	-63,134	-0,193	-0,056
-215,796	-200,000	-0,002	0,104
-214,782	800,000	0,073	-0,221
-213,767	-32,471	0,096	-0,038
-212,752	-28,724	0,093	-0,038
-211,738	-152,276	-0,023	-0,001
-210,723	721,069	-0,007	0,012
-209,709	345,500	0,043	-0,060
-208,694	71,999	0,072	-0,053
-207,679	-31,192	0,074	-0,029
-206,665	-200,000	0,003	0,152
-205,650	480,975	0,029	-0,047
-204,636	577,506	0,055	0,095
-203,621	-70,407	-0,105	-0,028
-202,606	706,008	0,047	0,090
-201,592	216,260	0,048	0,055
-200,577	800,000	-0,009	-0,020
-199,563	384,525	0,042	0,062
-198,548	205,184	-0,077	0,085
-197,533	-200,000	0,005	0,029
-196,519	17,357	0,023	0,013
-195,504	272,410	-0,059	0,075
-194,490	211,463	-0,089	0,099
-193,475	-189,333	-0,079	-0,001
-192,460	170,833	0,065	-0,067
-191,446	-144,736	0,039	0,002
-190,431	800,000	0,018	0,052
-189,417	-200,000	-0,003	0,084
-188,402	-7,242	0,088	0,042
-187,387	220,894	-0,015	-0,017
-186,373	-15,752	-0,043	0,019
-185,358	82,329	0,150	-0,116
-184,344	34,522	-0,134	0,083
-183,329	-197,644	0,153	0,001
-182,315	391,655	0,070	-0,104
-181,300	-99,235	-0,096	-0,017
-180,285	84,546	0,044	-0,035
-179,271	-17,606	0,151	-0,067
-178,256	265,830	-0,063	-0,078
-177,242	-80,585	-0,011	-0,003
-176,227	162,184	0,063	-0,063
-175,212	2,040	0,062	0,032
-174,198	-200,000	-0,012	0,162
-173,183	-200,000	-0,023	0,077
-172,169	-110,291	-0,129	0,019
-171,154	-200,000	-0,023	0,158
-170,139	-200,000	0,018	0,073
-169,125	-96,377	0,067	-0,013
-168,110	-40,526	-0,063	-0,023
-167,096	-44,502	-0,008	-0,003
-166,081	-200,000	0,001	-0,122
-165,066	649,149	-0,084	-0,154
-164,052	-200,000	-0,016	0,069
-163,037	132,284	0,056	-0,051
-162,023	227,574	0,071	-0,083
-161,008	-200,000	-0,011	-0,037
-159,993	-200,000	-0,008	0,034
-158,979	488,042	-0,014	-0,023
-157,964	-147,695	-0,056	-0,003
-156,950	-9,564	0,094	-0,045
-155,935	22,821	0,063	0,037
-154,920	-45,641	-0,030	0,010
-153,906	-86,981	0,152	0,033
-152,891	-132,714	0,051	-0,005
-151,877	85,374	-0,092	0,072
-150,862	91,904	-0,041	0,033
-149,847	-200,000	0,003	-0,010
-148,833	-125,839	0,044	-0,005
-147,818	236,945	-0,054	0,064
-146,804	-138,692	0,083	0,006
-145,789	184,884	0,213	0,225
-144,775	229,431	-0,050	0,058
-143,760	346,433	-0,049	-0,069
-142,745	422,744	-0,096	-0,148
-141,731	118,010	0,115	0,101
-140,716	282,578	0,126	0,161
-139,702	-94,615	-0,123	0,023
-138,687	197,696	-0,050	-0,055
-137,672	5,027	-0,084	-0,044
-136,658	-38,426	-0,013	-0,005
-135,643	87,861	-0,037	-0,029
-134,629	-200,000	-0,014	0,106
-133,614	342,454	0,077	0,108
-132,599	800,000	-0,055	0,159
-131,585	800,000	-0,064	0,130
-130,570	7,313	-0,096	0,051
-129,556	-200,000	-0,022	0,124
-128,541	390,776	0,058	-0,085
-127,526	368,460	0,060	-0,086
-126,512	24,878	0,067	0,039
-125,497	265,016	0,068	0,085
-124,483	-200,000	-0,031	0,178
-123,468	-51,977	0,066	0,022
-122,453	169,618	0,022	0,023
-121,439	-13,102	-0,055	0,025
-120,424	800,000	0,031	0,088
-119,410	800,000	0,040	-0,093
-118,395	-96,140	-0,043	0,008
-117,380	38,356	0,054	0,034
-116,366	-200,000	-0,004	0,024
-115,351	30,941	-0,009	-0,006
-114,337	310,075	-0,037	-0,050
-113,322	430,693	-0,031	-0,048
-112,307	800,000	-0,044	0,132
-111,293	-200,000	0,002	0,135
-110,278	-200,000	-0,002	0,119
-109,264	-200,000	-0,018	0,061
-108,249	456,727	0,066	-0,104
-107,234	311,442	-0,012	-0,016
-106,220	-57,601	-0,168	0,052
-105,205	800,000	0,011	0,026
-104,191	-200,000	0,023	0,144
-103,176	371,560	-0,088	0,128
-102,162	65,057	-0,058	0,042
-101,147	470,919	-0,032	0,052
-100,132	35,800	0,060	0,038
-99,118	-67,041	-0,118	0,033
-98,103	-38,425	0,228	-0,085
-97,089	-200,000	0,004	-0,041
-96,074	-200,000	-0,004	-0,038
-95,059	46,903	0,063	-0,041
-94,045	800,000	0,044	-0,088
-93,030	139,779	-0,019	0,017
-92,016	-200,000	0,005	-0,099
-91,001	800,000	-0,007	0,017
-89,986	791,920	-0,037	0,072
-88,972	-200,000	-0,023	-0,092
-87,957	-200,000	0,023	0,149
-86,943	77,037	-0,045	0,034
-85,928	349,404	-0,064	-0,090
-84,913	800,000	0,011	-0,031
-83,899	-200,000	-0,004	0,028
-82,884	-200,000	0,006	0,060
-81,870	-83,859	-0,035	0,008
-80,855	-200,000	-0,002	0,042
-79,840	-200,000	0,026	0,132
-78,826	-123,844	-0,053	-0,006
-77,811	-200,000	-0,012	-0,103
-76,797	91,762	0,091	0,072
-75,782	-108,222	0,146	0,022
-74,767	-200,000	-0,025	-0,116
-73,753	800,000	0,032	-0,065
-72,738	92,370	-0,045	0,036
-71,724	277,588	-0,116	-0,146
-70,709	36,296	-0,108	-0,068
-69,694	-26,643	0,188	0,078
-68,680	800,000	-0,023	0,052
-67,665	622,812	0,033	-0,058
-66,651	-173,595	0,075	0,002
-65,636	548,596	0,068	-0,116
-64,622	-78,173	-0,067	-0,016
-63,607	0,146	0,090	0,046
-62,592	-200,000	-0,005	0,069
-61,578	-200,000	0,022	-0,086
-60,563	-200,000	0,028	0,111
-59,549	800,000	-0,067	0,208
-58,534	-21,222	-1,620	-0,699
-57,519	559,769	-1,285	-2,208
-56,505	-200,000	-0,515	-4,427
-55,490	102,697	1,033	0,856
-54,476	800,000	4,861	11,378
-53,461	-200,000	18,647	303,695
-52,446	800,000	736,007	2287,244
-51,432	566,417	1652,150	2851,585
-50,417	78,893	1669,166	1264,502
-49,403	22,084	1542,050	889,213
-48,388	15,992	1464,887	815,121
-47,373	17,848	1454,709	818,389
-46,359	16,990	1444,912	808,729
-45,344	14,285	1440,149	793,087
-44,330	14,174	1438,344	791,532
-43,315	14,225	1436,585	790,774
-42,300	14,148	1435,165	789,595
-41,286	14,216	1433,767	789,117
-40,271	14,227	1432,408	788,390
-39,257	14,156	1431,500	787,519
-38,242	14,252	1430,019	787,131
-37,227	14,264	1428,836	786,508
-36,213	14,257	1427,398	785,649
-35,198	14,244	1426,483	785,052
-34,184	14,272	1425,339	784,525
-33,169	14,257	1423,874	783,618
-32,154	14,251	1423,123	783,145
-31,140	14,271	1421,563	782,349
-30,125	14,279	1420,507	781,776
-29,111	14,233	1419,457	780,949
-28,096	14,218	1418,304	780,212
-27,082	14,200	1417,247	779,516
-26,067	14,159	1416,317	778,782
-25,052	14,181	1415,076	778,171
-24,038	14,147	1414,136	777,462
-23,023	14,164	1413,126	776,956
-22,009	14,162	1412,106	776,356
-20,994	14,112	1411,477	775,747
-19,979	14,074	1410,656	775,083
-18,965	14,091	1409,429	774,459
-17,950	14,105	1408,573	774,023
-16,936	14,073	1407,712	773,371
-15,921	14,098	1406,302	772,683
-14,906	14,079	1405,516	772,132
-13,892	14,081	1404,559	771,581
-12,877	14,083	1403,867	771,181
-11,863	14,081	1402,984	770,657
-10,848	14,027	1401,837	769,746
-9,833	14,024	1401,161	769,328
-8,819	13,968	1400,292	768,561
-7,804	13,977	1399,328	768,042
-6,790	13,997	1398,300	767,542
-5,775	13,987	1397,166	766,840
-4,760	13,990	1396,483	766,450
-3,746	13,952	1395,592	765,755
-2,731	13,984	1394,578	765,317
-1,717	13,956	1393,690	764,667
-0,702	13,981	1391,986	763,820
0,313	17,900	1310,332	737,157
1,327	34,344	706,125	435,367
2,342	52,667	124,232	83,911
3,356	4,257	16,600	8,581
4,371	8,286	3,271	1,735
5,386	-8,355	0,604	0,286
6,400	-200,000	0,008	0,104
7,415	-32,732	-0,252	-0,099
8,429	4,748	-0,243	-0,126
9,444	143,067	-0,273	-0,257
10,459	609,385	-0,182	-0,324
11,473	7,047	-0,231	-0,121
12,488	64,281	-0,383	-0,273
13,502	29,257	-0,313	-0,188
14,517	172,060	-0,256	-0,261
15,531	184,964	-0,239	-0,251
16,546	110,835	-0,273	-0,232
17,561	52,405	-0,324	-0,219
18,575	37,992	-0,151	-0,094
19,590	-78,028	-0,312	-0,075
20,604	-76,950	-0,247	-0,060
21,619	146,273	-0,472	-0,448
22,634	193,348	-0,384	-0,411
23,648	62,286	-0,387	-0,273
24,663	37,191	-0,384	-0,240
25,677	139,087	-0,314	-0,291
26,692	101,392	-0,377	-0,310
27,707	-1,591	-0,399	-0,198
28,721	-91,879	-0,396	-0,079
29,736	98,570	-0,380	-0,309
30,750	-58,908	-0,496	-0,151
31,765	150,838	-0,266	-0,255
32,780	-7,698	-0,593	-0,282
33,794	52,236	-0,240	-0,161
34,809	88,778	-0,243	-0,190
35,823	-63,499	-0,422	-0,122
36,838	190,322	-0,372	-0,395
37,853	0,182	-0,432	-0,217
38,867	33,578	-0,437	-0,267
39,882	27,171	-0,260	-0,154
40,896	-26,496	-0,399	-0,164
41,911	98,702	-0,357	-0,291
42,926	19,810	-0,346	-0,196
43,940	-27,808	-0,477	-0,194
44,955	73,066	-0,389	-0,286
45,969	147,081	-0,351	-0,334
46,984	160,519	-0,332	-0,327
47,999	55,629	-0,435	-0,297
49,013	73,472	-0,264	-0,195
50,028	12,086	-0,248	-0,134
51,042	126,474	-0,277	-0,247
52,057	298,538	-0,272	-0,354
53,071	12,255	-0,406	-0,220
54,086	28,227	-0,345	-0,205
55,101	72,835	-0,278	-0,204
56,115	-8,664	-0,312	-0,147
57,130	118,854	-0,413	-0,359
58,144	-6,457	-0,412	-0,197
59,159	-10,765	-0,377	-0,175
60,174	132,738	-0,434	-0,395
61,188	84,806	-0,285	-0,220
62,203	130,175	-0,209	-0,189
63,217	-26,498	-0,372	-0,153
64,232	51,699	-0,332	-0,222
65,247	-18,988	-0,295	-0,129
66,261	33,318	-0,388	-0,236
67,276	135,826	-0,448	-0,411
68,290	-78,095	-0,338	-0,081
69,305	689,623	-0,143	-0,265
70,320	77,104	-0,265	-0,198
71,334	72,345	-0,295	-0,216
72,349	-19,084	-0,287	-0,125
73,363	81,497	-0,343	-0,261
74,378	3,534	-0,340	-0,174
75,393	139,106	-0,365	-0,337
76,407	-47,722	-0,280	-0,095
77,422	112,337	-0,266	-0,226
78,436	496,859	-0,133	-0,216
79,451	-7,616	-0,393	-0,186
80,466	137,495	-0,322	-0,296
81,480	13,931	-0,337	-0,184
82,495	112,406	-0,250	-0,212
83,509	33,024	-0,299	-0,182
84,524	99,369	-0,238	-0,193
85,539	-46,722	-0,274	-0,094
86,553	-33,988	-0,270	-0,104
87,568	145,926	-0,268	-0,252
88,582	-0,202	-0,299	-0,149
89,597	26,522	-0,312	-0,183
90,611	7,989	-0,342	-0,180
91,626	7,836	-0,230	-0,121
92,641	59,499	-0,123	-0,085
93,655	80,638	-0,185	-0,140
94,670	151,600	-0,269	-0,258
95,684	77,409	-0,277	-0,207
96,699	33,405	-0,330	-0,201
97,714	13,005	-0,364	-0,197
98,728	163,967	-0,267	-0,264
99,743	55,205	-0,273	-0,185
100,757	116,903	-0,277	-0,238
101,772	445,902	-0,195	-0,302
102,787	244,227	-0,323	-0,381
103,801	312,112	-0,201	-0,265
104,816	73,588	-0,316	-0,232
105,830	-14,847	-0,269	-0,121
106,845	185,865	-0,226	-0,235
107,860	-4,761	-0,261	-0,126
108,874	-38,259	-0,264	-0,098
109,889	-102,335	-0,338	-0,056
110,903	67,603	-0,327	-0,234
111,918	-2,488	-0,351	-0,172
112,933	41,598	-0,225	-0,143
113,947	-40,793	-0,230	-0,083
114,962	48,299	-0,297	-0,195
115,976	-29,434	-0,397	-0,158
116,991	145,103	-0,183	-0,172
118,006	112,357	-0,407	-0,345
119,020	38,056	-0,307	-0,191
120,035	186,361	-0,197	-0,205
121,049	185,096	-0,254	-0,264
122,064	50,777	-0,261	-0,173
123,079	-55,576	-0,229	-0,071
124,093	71,376	-0,255	-0,185
125,108	60,377	-0,278	-0,192
126,122	287,037	-0,150	-0,190
127,137	159,387	-0,281	-0,274
128,151	154,174	-0,300	-0,288
129,166	-170,186	-0,379	-0,009
130,181	800,000	-0,081	-0,219
131,195	39,943	-0,376	-0,236
132,210	0,995	-0,258	-0,129
133,224	49,930	-0,326	-0,215
134,239	800,000	-0,102	-0,228
135,254	-101,882	-0,209	-0,035
136,268	-21,864	-0,360	-0,153
137,283	195,932	-0,217	-0,231
138,297	173,225	-0,266	-0,268
139,312	25,665	-0,337	-0,196
140,327	119,965	-0,280	-0,243
141,341	385,859	-0,119	-0,173
142,356	-103,243	-0,319	-0,052
143,370	117,595	-0,223	-0,192
144,385	21,683	-0,250	-0,142
145,400	-24,841	-0,280	-0,116
146,414	75,872	-0,304	-0,225
147,429	-55,640	-0,118	-0,037
148,443	49,510	-0,220	-0,145
149,458	-90,644	-0,189	-0,038
150,473	-116,944	-0,230	-0,029
151,487	39,799	-0,214	-0,134
152,502	-34,269	-0,369	-0,141
153,516	24,242	-0,272	-0,157
154,531	148,929	-0,104	-0,098
155,546	189,781	-0,219	-0,230
156,560	800,000	-0,156	-0,321
157,575	-22,223	-0,316	-0,133
158,589	59,951	-0,222	-0,153
159,604	196,422	-0,213	-0,227
160,619	-108,782	-0,256	-0,038
161,633	-25,847	-0,238	-0,098
162,648	33,844	-0,294	-0,178
163,662	262,133	-0,158	-0,192
164,677	-14,021	-0,185	-0,083
165,692	-80,486	-0,258	-0,059
166,706	-92,004	-0,266	-0,052
167,721	110,243	-0,269	-0,225
168,735	414,409	-0,212	-0,316
169,750	79,461	-0,258	-0,193
170,764	35,650	-0,271	-0,166
171,779	-85,158	-0,314	-0,068
172,794	1,156	-0,262	-0,131
173,808	51,415	-0,228	-0,151
174,823	349,799	-0,244	-0,337
175,837	79,046	-0,266	-0,198
176,852	-83,219	-0,388	-0,086
177,867	-200,000	-0,087	-0,321
178,881	63,077	-0,195	-0,136
179,896	-20,913	-0,133	-0,057
180,910	-99,975	-0,232	-0,040
181,925	108,979	-0,243	-0,203
182,940	32,800	-0,302	-0,182
183,954	-200,000	-0,068	-0,220
184,969	-4,346	-0,312	-0,150
185,983	16,438	-0,261	-0,143
186,998	800,000	-0,084	-0,169
188,013	77,519	-0,176	-0,130
189,027	396,436	-0,108	-0,157
190,042	-4,587	-0,338	-0,162
191,056	91,269	-0,224	-0,175
192,071	28,828	-0,239	-0,141
193,086	44,270	-0,286	-0,182
194,100	-28,948	-0,117	-0,047
195,115	210,914	-0,186	-0,203
196,129	81,874	-0,161	-0,122
197,144	324,711	-0,182	-0,242
198,159	-5,224	-0,271	-0,129
199,173	79,964	-0,166	-0,124
200,188	62,775	-0,249	-0,173
201,202	170,118	-0,212	-0,211
202,217	210,112	-0,132	-0,144
203,232	123,407	-0,206	-0,179
204,246	76,396	-0,241	-0,177
205,261	24,681	-0,229	-0,132
206,275	264,115	-0,211	-0,256
207,290	561,321	-0,102	-0,172
208,304	-200,000	-0,023	-0,119
209,319	-11,367	-0,252	-0,115
210,334	139,748	-0,123	-0,113
211,348	83,262	-0,158	-0,120
212,363	139,121	-0,170	-0,156
213,377	276,414	-0,333	-0,412
214,392	87,920	-0,180	-0,139
215,407	-69,156	-0,091	-0,024
216,421	-113,457	-0,260	-0,035
217,436	-165,514	-0,271	0,008
218,450	-140,187	-0,229	0,016
219,465	410,707	-0,141	-0,208
220,480	497,060	-0,183	-0,294
221,494	117,905	-0,233	-0,199
222,509	47,289	-0,174	-0,113
223,523	-124,595	-0,167	0,018
224,538	532,882	-0,175	-0,289
225,553	197,480	-0,192	-0,204
226,567	-14,690	-0,211	-0,094
227,582	83,497	-0,198	-0,150
228,596	66,192	-0,243	-0,171
229,611	621,398	-0,013	-0,022
230,626	-22,300	-0,177	-0,074
231,640	389,609	-0,211	-0,305
232,655	-37,661	-0,168	0,062
233,669	31,912	-0,200	-0,119
234,684	74,305	-0,220	-0,160
235,699	540,159	-0,209	-0,346
236,713	800,000	-0,040	-0,083
237,728	7,383	-0,207	-0,107
238,742	-92,491	-0,189	0,036
239,757	-87,623	-0,293	-0,061
240,772	16,587	-0,228	-0,125
241,786	-83,598	-0,074	0,016
242,801	-162,497	-0,119	-0,004
243,815	-7,652	-0,258	-0,121
244,830	13,016	-0,255	-0,136
245,844	78,799	-0,258	-0,191
246,859	106,583	-0,267	-0,220
247,874	50,354	-0,238	-0,156
248,888	6,425	-0,200	-0,103
249,903	163,365	-0,277	-0,270
250,917	150,185	-0,219	-0,206
251,932	44,196	-0,060	-0,038
252,947	-88,908	-0,196	-0,040
253,961	55,734	-0,291	-0,195
254,976	-36,251	-0,219	-0,082
255,990	208,090	-0,143	-0,155
257,005	94,001	-0,117	-0,092
258,020	-109,057	-0,241	-0,035
259,034	-63,944	-0,159	-0,045
260,049	24,009	-0,131	-0,074
261,063	791,927	-0,102	-0,196
262,078	83,019	-0,154	-0,116
263,093	196,042	-0,194	-0,204
264,107	471,111	-0,132	-0,207
265,122	126,217	-0,127	-0,111
266,136	18,256	-0,151	0,083
267,151	515,495	-0,061	-0,098
268,166	800,000	-0,029	-0,064
269,180	-37,471	-0,326	-0,120
270,195	140,602	-0,185	-0,169
271,209	71,984	-0,140	-0,101
272,224	85,036	-0,152	-0,115
273,239	47,458	-0,154	-0,099
274,253	28,240	-0,150	-0,087
275,268	555,063	-0,116	-0,194
276,282	-34,422	-0,137	-0,052
277,297	13,225	-0,123	-0,066
278,312	186,578	-0,113	-0,117
279,326	213,154	-0,114	-0,124
280,341	-200,000	-0,004	0,066
281,355	-82,251	-0,229	-0,051
282,370	-200,000	0,022	-0,177
283,384	-200,000	-0,096	-0,304
284,399	79,387	-0,240	-0,177
285,414	142,815	-0,149	-0,137
286,428	427,014	-0,157	-0,234
287,443	278,225	-0,155	-0,191
288,457	-6,804	-0,188	-0,088
289,472	800,000	-0,093	-0,256
290,487	-9,215	-0,186	-0,086
291,501	-2,570	-0,072	-0,035
292,516	-136,249	-0,211	-0,017
293,530	-13,211	-0,087	0,039
294,545	103,532	-0,126	0,102
295,560	23,655	-0,234	-0,133
296,574	-127,300	-0,318	0,032
297,589	-44,165	-0,076	-0,026
298,603	166,410	-0,189	-0,185
299,618	-105,022	-0,224	-0,035
300,633	-84,310	-0,132	0,029
301,647	373,698	-0,115	-0,162
302,662	800,000	-0,064	-0,138
303,676	-126,170	-0,088	-0,009
304,691	616,086	-0,126	-0,218
305,706	127,432	-0,189	-0,165
306,720	77,965	-0,163	-0,120
307,735	800,000	-0,039	-0,086
308,749	65,474	-0,014	0,010
309,764	-87,144	-0,197	-0,041
310,779	-38,030	-0,228	0,083
311,793	-200,000	-0,045	-0,238
312,808	83,699	-0,145	-0,109
313,822	59,413	-0,115	0,078
314,837	614,831	-0,172	-0,299
315,852	45,638	-0,106	-0,067
316,866	-66,269	-0,143	0,039
317,881	-174,571	-0,163	0,003
318,895	-85,365	-0,128	-0,027
319,910	143,041	-0,279	-0,255
320,925	81,170	-0,114	-0,084
321,939	-64,069	-0,126	-0,035
322,954	8,023	-0,099	-0,051
323,968	83,373	-0,065	-0,049
324,983	157,071	-0,201	-0,191
325,997	-50,327	-0,172	-0,056
327,012	120,843	-0,204	-0,175
328,027	349,583	-0,077	-0,105
329,041	465,618	-0,111	-0,172
330,056	-116,604	-0,157	-0,020
331,070	61,061	-0,140	-0,095
332,085	235,308	-0,100	0,114
333,100	-93,290	-0,184	-0,035
334,114	206,497	-0,138	-0,147
335,129	114,224	-0,143	-0,120
336,143	-200,000	-0,040	-0,129
337,158	-200,000	-0,013	-0,178
338,173	36,665	-0,149	-0,090
339,187	800,000	-0,053	-0,121
340,202	3,001	-0,126	-0,063
341,216	130,262	-0,199	-0,175
342,231	800,000	-0,072	-0,145
343,246	100,850	-0,101	-0,081
344,260	800,000	-0,047	-0,103
345,275	28,885	-0,106	-0,062
346,289	-190,578	-0,165	-0,001
347,304	86,063	-0,195	-0,147
348,319	55,472	-0,146	-0,097
349,333	-50,987	-0,041	-0,013
350,348	4,529	-0,194	-0,097
351,362	800,000	-0,050	-0,112
352,377	132,847	-0,158	-0,140
353,392	-84,692	-0,081	0,017
354,406	405,001	-0,095	-0,138
355,421	208,984	1311,196	1410,902
356,435	160,822	1471,499	1411,392
