DTS Sentinel unit serial number:	SN410029Multiplexer serial number:	ORYXHardware model number:	OX2-SRSoftware version number:	ORYX F/W v4,00 Oryx Data Collector v3.7.2.0data status	okinstallation	B3 Nyhavnadifferential loss correction	single-endedforward channel	channel 1reverse channel	N/Adate	2023/12/04time	15:12:30forward acquisition time	300,00reverse acquisition time	0,00gamma	499,1914k internal	0,3200k external	0,3200temperature offset calibration	1,0000default loss term (dB/km)	0,3820temperature slope calibration	1,0000multiplexer offset coefficient	1,0000multiplexer slope coefficient	1,0000fibre end	0,00T internal ref (°C)	15,07T ext. ref 1 (°C)	0,38T ext. ref 2 (°C)	0,37length (m)	temperature (°C)	Stokes	anti-Stokes-744,400	216,297	-0,215	-0,249
-743,385	656,181	0,126	0,236
-742,371	85,737	-0,214	-0,171
-741,356	-200,000	0,054	0,250
-740,342	244,413	-0,152	-0,186
-739,327	-200,000	0,028	0,252
-738,312	109,658	-0,221	-0,192
-737,298	515,963	0,069	0,118
-736,283	409,312	-0,175	-0,271
-735,269	800,000	0,167	0,355
-734,254	232,377	-0,204	-0,244
-733,239	-129,321	-0,144	-0,014
-732,225	469,716	-0,092	-0,150
-731,210	800,000	0,025	0,069
-730,196	25,912	-0,082	-0,050
-729,181	-200,000	-0,008	0,092
-728,167	-94,213	-0,081	-0,016
-727,152	-200,000	-0,016	0,063
-726,137	-14,684	0,070	0,033
-725,123	-117,200	0,086	-0,011
-724,108	36,109	-0,138	0,088
-723,094	-200,000	-0,024	-0,100
-722,079	216,785	-0,133	-0,154
-721,064	376,039	-0,041	-0,061
-720,050	800,000	-0,059	0,120
-719,035	-200,000	0,014	0,093
-718,021	461,551	-0,041	-0,067
-717,006	-28,865	-0,086	0,036
-715,991	-28,505	-0,109	-0,046
-714,977	25,013	-0,192	-0,115
-713,962	565,695	-0,024	0,042
-712,948	800,000	-0,038	0,078
-711,933	215,622	-0,150	-0,173
-710,918	154,442	0,013	-0,013
-709,904	3,806	-0,101	-0,054
-708,889	177,045	-0,051	-0,054
-707,875	-200,000	-0,003	-0,040
-706,860	139,392	0,084	0,080
-705,845	-200,000	0,016	0,069
-704,831	-200,000	0,023	0,112
-703,816	13,631	0,034	0,019
-702,802	238,194	0,063	0,077
-701,787	-53,000	-0,099	-0,033
-700,772	-32,682	-0,114	-0,046
-699,758	112,144	0,018	0,015
-698,743	54,157	0,066	0,046
-697,729	84,450	-0,013	0,010
-696,714	-200,000	0,020	0,115
-695,699	-21,501	-0,068	0,030
-694,685	-200,000	0,006	-0,035
-693,670	-28,787	-0,143	-0,060
-692,656	-82,754	0,102	0,024
-691,641	29,720	0,112	-0,069
-690,627	-200,000	-0,009	0,075
-689,612	-200,000	-0,005	0,068
-688,597	265,244	0,056	0,071
-687,583	-200,000	-0,032	-0,105
-686,568	-180,963	0,112	-0,002
-685,554	121,371	-0,061	-0,055
-684,539	-80,287	0,080	0,019
-683,524	-53,846	-0,061	-0,020
-682,510	-200,000	-0,011	0,097
-681,495	-200,000	-0,006	0,041
-680,481	605,685	-0,040	-0,073
-679,466	48,630	0,056	-0,038
-678,451	428,538	-0,055	-0,087
-677,437	60,419	-0,090	0,064
-676,422	-101,391	0,057	-0,010
-675,408	106,041	-0,141	0,121
-674,393	-62,335	-0,018	0,005
-673,378	800,000	0,015	-0,043
-672,364	7,252	-0,033	-0,018
-671,349	188,201	-0,059	-0,064
-670,335	-33,444	-0,048	0,019
-669,320	-55,396	-0,100	-0,032
-668,305	-200,000	0,006	0,066
-667,291	-200,000	-0,094	0,000
-666,276	800,000	-0,065	-0,161
-665,262	-40,997	-0,093	-0,034
-664,247	292,695	0,064	0,085
-663,232	-200,000	0,002	-0,012
-662,218	-95,923	-0,094	-0,018
-661,203	38,324	-0,016	-0,010
-660,189	90,428	-0,107	0,087
-659,174	313,168	0,062	0,085
-658,159	158,867	-0,117	-0,118
-657,145	-38,603	-0,106	-0,040
-656,130	800,000	0,025	-0,057
-655,116	288,416	0,075	-0,099
-654,101	-200,000	-0,013	-0,061
-653,086	-84,563	0,095	0,021
-652,072	-200,000	-0,012	-0,068
-651,057	800,000	0,010	-0,028
-650,043	313,267	-0,107	-0,146
-649,028	-97,143	-0,116	-0,022
-648,014	123,609	0,081	-0,074
-646,999	-135,996	0,062	-0,005
-645,984	379,221	-0,016	-0,024
-644,970	800,000	0,045	-0,117
-643,955	-81,128	0,064	-0,015
-642,941	555,222	-0,142	0,248
-641,926	-200,000	0,009	-0,099
-640,911	-200,000	-0,045	-0,168
-639,897	800,000	-0,011	0,031
-638,882	-200,000	-0,008	0,066
-637,868	435,727	-0,014	0,022
-636,853	-200,000	-0,001	-0,022
-635,838	-200,000	-0,041	-0,137
-634,824	75,290	-0,109	-0,083
-633,809	406,365	-0,081	-0,125
-632,795	-136,887	0,107	0,009
-631,780	-200,000	0,001	0,016
-630,765	-1,987	-0,126	-0,064
-629,751	518,042	-0,022	0,038
-628,736	-139,215	0,119	-0,009
-627,722	-60,919	-0,105	-0,032
-626,707	539,976	-0,042	0,072
-625,692	-200,000	0,009	0,048
-624,678	-63,979	-0,069	0,020
-623,663	-163,252	-0,169	0,006
-622,649	-48,360	-0,021	0,007
-621,634	-200,000	-0,011	-0,137
-620,619	-200,000	-0,023	-0,167
-619,605	-97,570	0,069	-0,013
-618,590	-106,895	0,036	0,006
-617,576	-200,000	0,002	-0,027
-616,561	800,000	0,013	0,032
-615,546	-93,296	-0,076	0,015
-614,532	740,848	-0,025	-0,049
-613,517	-200,000	-0,018	-0,099
-612,503	-200,000	-0,015	-0,074
-611,488	50,816	0,104	-0,071
-610,474	105,198	-0,079	-0,068
-609,459	52,014	-0,127	0,088
-608,444	-200,000	-0,012	0,111
-607,430	106,622	-0,116	0,100
-606,415	391,305	0,042	-0,063
-605,401	800,000	0,041	0,089
-604,386	554,387	0,070	-0,123
-603,371	-190,452	-0,068	-0,001
-602,357	-200,000	-0,005	0,094
-601,342	685,165	-0,033	-0,062
-600,328	-80,375	-0,147	-0,035
-599,313	800,000	-0,033	-0,078
-598,298	-115,219	-0,099	0,013
-597,284	-8,718	0,054	-0,026
-596,269	-45,659	-0,050	0,018
-595,255	-200,000	-0,001	-0,105
-594,240	-20,481	0,050	-0,022
-593,225	52,651	0,050	0,035
-592,211	-78,530	-0,104	-0,026
-591,196	102,958	0,040	-0,034
-590,182	58,610	0,084	-0,059
-589,167	-110,976	-0,084	-0,012
-588,152	-136,856	0,085	-0,007
-587,138	800,000	-0,077	0,171
-586,123	180,864	-0,118	-0,125
-585,109	800,000	-0,041	-0,111
-584,094	393,133	0,057	-0,087
-583,079	45,376	0,135	-0,090
-582,065	-119,931	-0,074	0,009
-581,050	-20,587	0,060	0,027
-580,036	-95,941	0,136	0,026
-579,021	800,000	0,066	-0,146
-578,006	-200,000	0,006	0,029
-576,992	-188,955	0,054	0,000
-575,977	192,109	0,059	-0,065
-574,963	-118,480	0,102	0,013
-573,948	648,025	0,030	-0,055
-572,934	-52,482	-0,086	-0,029
-571,919	-200,000	-0,014	-0,060
-570,904	423,514	-0,048	-0,074
-569,890	-135,265	-0,169	0,014
-568,875	-200,000	0,005	-0,077
-567,861	-49,490	0,073	0,025
-566,846	699,531	0,013	-0,026
-565,831	13,832	-0,060	0,033
-564,817	115,903	-0,098	-0,087
-563,802	196,763	-0,077	-0,085
-562,788	-200,000	-0,024	-0,086
-561,773	662,373	0,072	0,135
-560,758	-200,000	0,008	-0,150
-559,744	135,682	0,032	0,031
-558,729	-44,380	0,133	0,048
-557,715	-45,166	-0,152	0,054
-556,700	-62,978	-0,090	0,027
-555,685	210,616	-0,081	0,092
-554,671	403,508	-0,021	0,031
-553,656	-200,000	0,006	0,138
-552,642	-89,223	-0,054	0,011
-551,627	98,090	0,057	0,048
-550,612	800,000	0,043	0,087
-549,598	223,077	-0,049	-0,058
-548,583	-111,890	-0,084	-0,012
-547,569	152,356	-0,119	-0,117
-546,554	579,363	-0,012	0,021
-545,539	108,564	0,073	-0,063
-544,525	-200,000	-0,011	0,082
-543,510	-8,800	-0,023	0,011
-542,496	800,000	-0,101	-0,207
-541,481	50,713	0,146	-0,100
-540,466	-74,545	-0,157	0,040
-539,452	-126,425	0,138	-0,015
-538,437	800,000	-0,040	0,122
-537,423	-22,639	-0,033	-0,014
-536,408	-52,214	-0,198	-0,066
-535,393	800,000	0,043	-0,088
-534,379	-87,671	0,082	-0,018
-533,364	-200,000	0,026	-0,126
-532,350	346,865	0,061	0,087
-531,335	-74,076	-0,043	-0,011
-530,321	163,763	0,081	0,083
-529,306	696,674	-0,030	0,057
-528,291	-200,000	0,010	0,088
-527,277	191,054	0,039	0,042
-526,262	-9,292	-0,031	-0,015
-525,248	273,658	0,071	-0,091
-524,233	87,045	-0,019	-0,015
-523,218	148,447	-0,051	0,050
-522,204	23,996	-0,040	-0,024
-521,189	108,075	-0,022	-0,019
-520,175	333,243	-0,021	-0,029
-519,160	-53,431	-0,081	-0,027
-518,145	-200,000	-0,014	0,080
-517,131	61,944	0,120	-0,086
-516,116	-200,000	0,001	-0,057
-515,102	-198,912	0,157	0,001
-514,087	-165,862	-0,131	-0,004
-513,072	-86,713	-0,071	-0,015
-512,058	109,967	-0,041	0,035
-511,043	-11,789	0,059	0,028
-510,029	65,271	0,071	0,051
-509,014	-200,000	0,019	0,150
-507,999	-200,000	0,001	0,068
-506,985	-104,470	-0,177	0,029
-505,970	195,210	-0,093	-0,102
-504,956	485,563	-0,069	-0,114
-503,941	244,187	0,047	-0,057
-502,926	-200,000	0,007	-0,065
-501,912	55,443	0,050	-0,035
-500,897	18,850	0,051	0,029
-499,883	200,506	0,046	-0,051
-498,868	800,000	-0,052	-0,161
-497,853	800,000	0,051	-0,120
-496,839	-200,000	0,027	-0,142
-495,824	-200,000	-0,021	-0,074
-494,810	-16,420	-0,021	0,010
-493,795	211,138	-0,064	0,072
-492,781	162,660	0,028	-0,028
-491,766	-25,816	-0,103	-0,043
-490,751	186,731	-0,062	-0,067
-489,737	3,889	-0,104	0,054
-488,722	-113,190	-0,163	0,023
-487,708	-200,000	0,023	-0,082
-486,693	130,255	0,100	0,093
-485,678	440,039	-0,079	0,124
-484,664	800,000	-0,023	0,059
-483,649	-200,000	-0,012	-0,045
-482,635	87,722	-0,076	0,060
-481,620	746,105	0,043	0,085
-480,605	800,000	-0,018	0,045
-479,591	84,551	0,017	-0,014
-478,576	587,574	-0,063	0,112
-477,562	11,515	-0,108	0,059
-476,547	-52,150	-0,056	0,019
-475,532	800,000	-0,030	-0,072
-474,518	210,669	-0,044	0,050
-473,503	170,731	0,054	0,056
-472,489	198,633	0,084	0,093
-471,474	156,129	0,063	0,062
-470,459	141,673	-0,115	-0,110
-469,445	-200,000	0,003	0,066
-468,430	-200,000	0,003	0,075
-467,416	-44,968	0,068	0,024
-466,401	77,654	0,080	-0,061
-465,386	580,814	-0,049	0,087
-464,372	282,759	0,079	0,102
-463,357	-58,472	-0,047	-0,015
-462,343	800,000	0,019	0,060
-461,328	282,603	0,087	-0,113
-460,313	-200,000	0,006	0,022
-459,299	153,088	0,084	0,082
-458,284	-114,574	0,068	-0,009
-457,270	241,884	0,150	-0,181
-456,255	24,854	-0,154	-0,092
-455,241	-200,000	-0,021	0,077
-454,226	-57,951	0,024	-0,007
-453,211	323,053	0,049	-0,067
-452,197	-200,000	-0,006	0,089
-451,182	356,155	-0,003	0,004
-450,168	-108,450	-0,081	-0,012
-449,153	-69,604	-0,070	0,019
-448,138	221,541	0,026	-0,030
-447,124	593,445	0,094	-0,168
-446,109	203,198	0,092	-0,102
-445,095	800,000	-0,004	0,010
-444,080	800,000	0,047	-0,110
-443,065	443,921	0,041	0,065
-442,051	180,454	-0,038	0,041
-441,036	780,527	-0,029	-0,056
-440,022	-200,000	-0,011	-0,042
-439,007	493,507	0,067	0,111
-437,992	231,869	-0,102	0,120
-436,978	21,138	0,129	0,075
-435,963	-27,865	0,117	-0,048
-434,949	800,000	-0,059	0,123
-433,934	800,000	-0,069	-0,138
-432,919	-154,150	0,084	0,004
-431,905	215,995	-0,068	-0,077
-430,890	-174,750	-0,126	0,003
-429,876	-6,242	0,031	0,015
-428,861	420,584	0,011	-0,018
-427,846	-49,570	0,104	-0,035
-426,832	87,879	-0,022	-0,017
-425,817	388,420	0,022	-0,033
-424,803	44,971	0,115	-0,076
-423,788	-200,000	0,004	0,048
-422,773	202,407	0,083	0,093
-421,759	-75,694	0,007	0,002
-420,744	539,712	0,056	0,095
-419,730	-150,409	-0,027	0,001
-418,715	-200,000	-0,006	-0,049
-417,701	30,093	-0,072	0,044
-416,686	800,000	0,060	0,131
-415,671	309,899	-0,090	0,121
-414,657	-200,000	-0,028	0,153
-413,642	-53,363	-0,078	-0,025
-412,628	-200,000	0,016	0,101
-411,613	626,118	-0,077	0,140
-410,598	-7,842	0,091	0,044
-409,584	728,418	-0,087	-0,168
-408,569	209,444	0,106	0,119
-407,555	-200,000	0,020	0,083
-406,540	122,832	-0,108	0,097
-405,525	800,000	0,022	0,055
-404,511	800,000	0,039	-0,091
-403,496	800,000	0,016	0,034
-402,482	-200,000	0,017	-0,094
-401,467	-66,792	0,017	0,005
-400,452	54,422	-0,102	-0,070
-399,438	-123,993	0,126	0,014
-398,423	-34,463	0,081	-0,032
-397,409	180,493	-0,075	-0,079
-396,394	-159,541	-0,137	-0,005
-395,379	116,923	-0,042	0,037
-394,365	-122,190	0,027	-0,003
-393,350	149,904	0,175	0,171
-392,336	201,198	0,034	0,037
-391,321	800,000	0,017	0,037
-390,306	9,484	-0,160	0,087
-389,292	-200,000	-0,006	-0,098
-388,277	692,134	0,015	0,029
-387,263	-200,000	0,049	0,157
-386,248	-169,065	0,061	-0,002
-385,233	-90,216	-0,091	-0,019
-384,219	-64,495	-0,067	-0,019
-383,204	-72,179	-0,095	-0,025
-382,190	619,549	-0,025	0,045
-381,175	-200,000	0,028	0,140
-380,160	51,139	-0,090	0,061
-379,146	72,159	0,031	-0,023
-378,131	-92,376	0,152	-0,030
-377,117	800,000	-0,054	0,139
-376,102	-142,803	0,069	0,005
-375,088	154,046	-0,048	0,047
-374,073	-7,583	0,108	0,052
-373,058	-200,000	-0,031	-0,120
-372,044	275,409	0,116	-0,147
-371,029	762,601	0,037	0,072
-370,015	-200,000	0,030	-0,104
-369,000	46,074	-0,077	0,051
-367,985	367,406	-0,081	-0,118
-366,971	120,536	-0,164	-0,146
-365,956	77,162	-0,063	-0,048
-364,942	-200,000	0,006	0,125
-363,927	181,105	-0,098	-0,104
-362,912	-23,903	0,097	0,042
-361,898	-14,490	-0,031	0,014
-360,883	-27,627	-0,089	-0,037
-359,869	766,181	0,056	-0,110
-358,854	-200,000	-0,003	0,022
-357,839	-200,000	0,007	0,082
-356,825	244,797	0,020	0,024
-355,810	121,986	-0,052	0,046
-354,796	-200,000	0,011	0,064
-353,781	777,921	-0,054	-0,106
-352,766	59,696	0,121	-0,086
-351,752	800,000	0,081	-0,203
-350,737	151,480	-0,014	-0,014
-349,723	-200,000	0,000	0,038
-348,708	206,821	0,069	-0,077
-347,693	-79,304	0,124	0,030
-346,679	93,776	0,067	0,054
-345,664	-17,264	-0,084	0,038
-344,650	-200,000	-0,020	0,102
-343,635	800,000	0,080	0,193
-342,620	-79,171	0,129	0,031
-341,606	-200,000	-0,009	0,127
-340,591	-88,481	-0,105	-0,022
-339,577	-200,000	0,017	-0,127
-338,562	-200,000	-0,012	-0,045
-337,548	93,538	-0,136	0,110
-336,533	52,774	0,229	0,157
-335,518	195,474	0,091	0,099
-334,504	-200,000	0,018	0,062
-333,489	-200,000	-0,025	0,114
-332,475	-49,935	-0,080	-0,027
-331,460	597,185	0,068	-0,121
-330,445	49,660	0,150	-0,101
-329,431	-200,000	0,009	-0,146
-328,416	-173,332	0,094	0,002
-327,402	800,000	-0,018	-0,055
-326,387	-200,000	-0,004	0,053
-325,372	-200,000	-0,014	0,170
-324,358	-174,252	-0,067	0,001
-323,343	-73,048	-0,073	-0,019
-322,329	-200,000	-0,031	0,143
-321,314	430,926	0,041	0,063
-320,299	690,588	0,076	0,144
-319,285	34,077	0,074	0,046
-318,270	439,619	-0,050	-0,078
-317,256	-200,000	0,034	0,131
-316,241	-170,337	0,072	-0,002
-315,226	453,307	0,054	0,086
-314,212	743,709	0,061	-0,117
-313,197	-98,551	0,184	-0,033
-312,183	98,433	-0,109	-0,090
-311,168	455,345	-0,023	-0,037
-310,153	-200,000	0,027	-0,109
-309,139	196,122	-0,017	0,019
-308,124	-36,765	0,061	0,023
-307,110	-200,000	0,012	0,138
-306,095	-200,000	-0,004	0,090
-305,080	-34,919	-0,142	-0,055
-304,066	123,611	-0,094	-0,084
-303,051	116,493	-0,131	0,115
-302,037	800,000	0,071	0,165
-301,022	670,809	-0,064	-0,120
-300,008	-94,982	0,034	-0,007
-298,993	-125,649	0,243	0,026
-297,978	1,573	0,102	-0,052
-296,964	-35,827	0,093	0,036
-295,949	-72,181	-0,104	-0,027
-294,935	-200,000	0,007	-0,123
-293,920	25,661	0,142	-0,085
-292,905	-91,292	0,187	0,038
-291,891	132,765	0,078	-0,072
-290,876	105,566	-0,044	0,037
-289,862	40,411	-0,098	-0,063
-288,847	107,760	0,131	-0,112
-287,832	302,915	0,023	-0,030
-286,818	-200,000	0,018	0,087
-285,803	-200,000	0,007	0,133
-284,789	-115,933	-0,023	0,003
-283,774	800,000	-0,005	0,011
-282,759	800,000	-0,068	-0,187
-281,745	-200,000	0,025	-0,125
-280,730	88,157	-0,050	0,040
-279,716	-200,000	-0,030	0,235
-278,701	677,590	-0,038	0,072
-277,686	-55,305	0,062	0,020
-276,672	-200,000	0,017	0,072
-275,657	162,899	0,032	0,032
-274,643	-200,000	0,017	-0,091
-273,628	800,000	-0,031	0,073
-272,613	486,271	0,032	0,052
-271,599	-200,000	-0,016	-0,080
-270,584	690,655	-0,072	0,135
-269,570	-200,000	0,024	0,141
-268,555	-200,000	0,005	-0,026
-267,540	-200,000	0,002	-0,092
-266,526	-10,284	0,149	-0,070
-265,511	-200,000	-0,021	-0,085
-264,497	27,912	-0,082	0,049
-263,482	386,815	-0,081	0,120
-262,467	800,000	-0,070	0,194
-261,453	245,439	-0,087	0,105
-260,438	258,728	0,084	-0,104
-259,424	53,696	-0,033	-0,023
-258,409	150,428	0,058	-0,056
-257,395	57,711	-0,058	-0,041
-256,380	-39,569	0,053	0,020
-255,365	-200,000	0,030	0,134
-254,351	434,953	-0,047	0,073
-253,336	-41,055	0,104	-0,038
-252,322	-200,000	-0,011	-0,105
-251,307	-200,000	0,039	-0,201
-250,292	800,000	0,006	-0,013
-249,278	33,142	0,097	0,060
-248,263	463,607	-0,027	-0,043
-247,249	96,073	0,126	-0,102
-246,234	211,173	0,045	-0,051
-245,219	800,000	0,063	-0,156
-244,205	-200,000	0,043	-0,156
-243,190	62,030	0,063	-0,045
-242,176	-200,000	-0,007	0,061
-241,161	-200,000	-0,028	0,185
-240,146	-200,000	-0,001	0,116
-239,132	454,786	-0,055	0,088
-238,117	-200,000	0,002	0,090
-237,103	24,000	-0,086	0,050
-236,088	-200,000	-0,007	0,210
-235,073	67,720	0,090	0,065
-234,059	-200,000	-0,024	0,109
-233,044	35,981	-0,086	-0,054
-232,030	-41,211	-0,105	0,038
-231,015	-200,000	0,003	-0,018
-230,000	-90,463	-0,050	0,010
-228,986	-4,236	0,135	0,066
-227,971	800,000	0,019	-0,054
-226,957	-124,088	0,076	-0,008
-225,942	623,747	-0,016	-0,028
-224,927	64,915	0,076	0,054
-223,913	-57,859	-0,052	0,016
-222,898	-1,570	-0,035	0,018
-221,884	-83,958	-0,112	-0,025
-220,869	87,914	0,140	-0,110
-219,855	282,289	-0,062	0,079
-218,840	800,000	-0,028	0,068
-217,825	-200,000	0,002	0,064
-216,811	715,373	0,071	-0,135
-215,796	95,022	-0,134	-0,109
-214,782	28,964	-0,109	-0,066
-213,767	54,403	0,034	0,023
-212,752	306,713	-0,087	0,115
-211,738	-55,462	-0,054	-0,017
-210,723	-11,629	-0,155	0,072
-209,709	-200,000	0,021	0,111
-208,694	35,179	-0,039	0,024
-207,679	504,160	-0,072	0,118
-206,665	46,592	0,052	-0,035
-205,650	-200,000	0,016	0,111
-204,636	77,550	-0,120	-0,091
-203,621	-12,013	0,102	-0,048
-202,606	-200,000	-0,005	-0,017
-201,592	404,406	0,076	0,114
-200,577	473,521	0,053	-0,085
-199,563	372,933	0,058	-0,084
-198,548	800,000	0,059	0,138
-197,533	-46,887	0,027	0,009
-196,519	498,475	-0,029	0,048
-195,504	311,715	0,059	-0,078
-194,490	412,213	0,057	-0,087
-193,475	-200,000	-0,008	0,034
-192,460	43,979	0,120	0,078
-191,446	-33,870	-0,031	-0,012
-190,431	405,480	0,022	-0,034
-189,417	379,995	0,048	0,071
-188,402	-193,958	0,046	-0,000
-187,387	-2,753	-0,049	0,025
-186,373	86,911	-0,116	-0,091
-185,358	-45,733	0,035	-0,012
-184,344	251,526	0,058	-0,071
-183,329	-154,495	0,208	0,010
-182,315	100,809	-0,033	0,027
-181,300	-109,581	-0,086	-0,013
-180,285	-147,452	-0,046	-0,003
-179,271	-200,000	-0,005	-0,205
-178,256	172,398	0,070	-0,072
-177,242	304,603	0,034	-0,045
-176,227	78,256	0,024	0,018
-175,212	364,272	-0,056	-0,081
-174,198	547,432	0,064	0,110
-173,183	189,423	-0,036	-0,039
-172,169	-200,000	-0,023	-0,096
-171,154	176,112	-0,079	-0,082
-170,139	347,482	0,037	0,052
-169,125	-179,128	0,047	-0,001
-168,110	35,164	0,058	0,036
-167,096	-6,973	-0,036	-0,017
-166,081	222,215	0,038	-0,044
-165,066	-200,000	-0,039	-0,152
-164,052	-55,249	0,032	-0,010
-163,037	-72,679	0,086	0,022
-162,023	-8,400	-0,070	0,033
-161,008	-200,000	0,016	-0,103
-159,993	-61,138	0,094	-0,028
-158,979	33,361	0,053	0,033
-157,964	-84,606	-0,204	0,045
-156,950	148,161	-0,048	0,046
-155,935	34,433	0,108	0,067
-154,920	-200,000	0,017	0,105
-153,906	-92,550	-0,028	0,006
-152,891	-167,786	-0,024	0,001
-151,877	800,000	0,037	0,109
-150,862	-150,480	-0,063	0,003
-149,847	157,855	0,037	-0,037
-148,833	-55,443	0,148	-0,047
-147,818	800,000	-0,029	0,077
-146,804	215,413	-0,032	0,036
-145,789	131,731	-0,054	-0,050
-144,775	-200,000	0,044	-0,140
-143,760	-200,000	-0,007	-0,032
-142,745	383,352	0,058	-0,084
-141,731	20,667	0,055	0,032
-140,716	-200,000	0,037	-0,136
-139,702	78,992	0,007	-0,005
-138,687	-109,712	-0,120	-0,018
-137,672	-200,000	-0,012	0,064
-136,658	65,877	-0,037	0,027
-135,643	68,300	-0,176	-0,128
-134,629	-200,000	0,016	0,086
-133,614	113,968	0,050	0,043
-132,599	94,054	0,072	0,058
-131,585	69,502	-0,075	0,054
-130,570	175,130	-0,032	-0,033
-129,556	101,974	0,057	-0,047
-128,541	169,664	-0,070	0,072
-127,526	134,675	0,087	-0,080
-126,512	-200,000	0,026	-0,083
-125,497	-54,146	-0,117	-0,037
-124,483	753,289	-0,028	0,054
-123,468	154,983	-0,038	0,037
-122,453	180,871	0,053	-0,056
-121,439	800,000	-0,036	-0,082
-120,424	-163,602	-0,094	-0,003
-119,410	-200,000	0,029	-0,106
-118,395	454,703	0,037	-0,058
-117,380	1,868	-0,029	0,015
-116,366	110,864	0,099	-0,084
-115,351	-200,000	0,004	-0,030
-114,337	155,018	-0,045	0,044
-113,322	-76,932	0,033	-0,008
-112,307	-173,603	0,162	0,003
-111,293	75,633	-0,106	-0,079
-110,278	294,813	0,085	0,111
-109,264	645,907	-0,015	-0,027
-108,249	94,226	0,071	0,057
-107,234	258,799	-0,052	-0,063
-106,220	346,567	0,006	0,009
-105,205	294,894	0,033	0,043
-104,191	-140,313	-0,023	-0,002
-103,176	800,000	-0,032	0,092
-102,162	567,782	-0,029	0,050
-101,147	-17,336	0,028	0,012
-100,132	348,374	-0,001	0,001
-99,118	281,956	-0,054	0,068
-98,103	198,563	0,087	-0,094
-97,089	270,932	-0,071	0,089
-96,074	-200,000	-0,002	-0,112
-95,059	-23,362	0,122	0,052
-94,045	800,000	0,035	-0,109
-93,030	-200,000	0,004	-0,096
-92,016	-116,710	0,189	-0,024
-91,001	174,225	0,100	-0,103
-89,986	-200,000	0,001	0,047
-88,972	447,115	0,065	0,102
-87,957	141,151	-0,012	0,011
-86,943	-47,402	-0,012	0,004
-85,928	343,215	0,021	0,029
-84,913	800,000	-0,062	0,137
-83,899	488,144	-0,017	0,027
-82,884	-153,645	-0,021	-0,001
-81,870	-2,223	0,255	0,126
-80,855	-192,776	-0,078	0,000
-79,840	-131,063	0,103	-0,010
-78,826	91,034	-0,082	-0,065
-77,811	58,593	-0,075	-0,052
-76,797	259,499	0,047	-0,058
-75,782	-200,000	-0,020	0,068
-74,767	-200,000	0,025	0,092
-73,753	29,757	-0,062	0,037
-72,738	102,961	0,019	0,016
-71,724	-200,000	0,026	-0,095
-70,709	-200,000	0,006	0,033
-69,694	800,000	-0,059	-0,167
-68,680	19,153	-0,090	-0,051
-67,665	800,000	0,018	-0,044
-66,651	-200,000	0,031	-0,140
-65,636	800,000	0,084	0,173
-64,622	-134,523	-0,132	0,011
-63,607	67,316	-0,218	-0,157
-62,592	-200,000	-0,003	-0,094
-61,578	-200,000	0,016	-0,086
-60,563	800,000	-0,042	0,085
-59,549	800,000	-0,036	0,074
-58,534	-55,097	-1,437	-0,455
-57,519	451,647	-1,307	-2,052
-56,505	-200,000	-0,554	-4,558
-55,490	147,560	0,912	0,870
-54,476	800,000	4,774	11,344
-53,461	-200,000	18,087	286,560
-52,446	800,000	726,912	2224,756
-51,432	554,042	1642,677	2808,649
-50,417	79,351	1664,931	1262,954
-49,403	22,983	1538,484	891,253
-48,388	16,937	1461,855	817,592
-47,373	17,870	1451,957	816,518
-46,359	17,307	1442,474	808,455
-45,344	15,163	1437,794	795,571
-44,330	15,108	1435,999	794,284
-43,315	15,129	1434,030	793,260
-42,300	15,155	1432,374	792,437
-41,286	15,155	1431,287	791,803
-40,271	15,183	1430,013	791,201
-39,257	15,138	1428,904	790,342
-38,242	15,133	1427,514	789,518
-37,227	15,154	1426,205	788,864
-36,213	15,170	1424,940	788,208
-35,198	15,153	1423,998	787,577
-34,184	15,194	1422,990	787,182
-33,169	15,137	1421,585	786,104
-32,154	15,208	1420,628	785,878
-31,140	15,216	1419,302	785,151
-30,125	15,245	1417,986	784,528
-29,111	15,191	1417,076	783,737
-28,096	15,180	1416,006	783,064
-27,082	15,144	1414,857	782,230
-26,067	15,085	1413,817	781,345
-25,052	15,124	1412,694	780,876
-24,038	15,065	1411,892	780,127
-23,023	15,080	1410,647	779,479
-22,009	15,061	1409,702	778,834
-20,994	15,068	1408,727	778,299
-19,979	15,034	1407,832	777,616
-18,965	15,019	1406,954	777,031
-17,950	15,017	1406,039	776,486
-16,936	15,030	1404,846	775,854
-15,921	15,018	1403,691	775,130
-14,906	15,019	1403,105	774,779
-13,892	15,068	1401,927	774,328
-12,877	14,998	1401,144	773,541
-11,863	14,937	1400,500	772,867
-10,848	14,981	1399,433	772,453
-9,833	14,946	1398,475	771,733
-8,819	14,979	1397,388	771,254
-7,804	14,918	1396,625	770,517
-6,790	14,939	1395,526	769,980
-5,775	14,933	1394,414	769,310
-4,760	14,905	1393,802	768,810
-3,746	14,893	1392,914	768,237
-2,731	14,921	1392,130	767,902
-1,717	14,893	1391,229	767,243
-0,702	14,910	1389,310	766,233
0,313	18,722	1308,545	739,327
1,327	35,058	707,004	437,321
2,342	54,014	124,849	84,816
3,356	4,135	16,702	8,623
4,371	8,376	3,169	1,681
5,386	26,133	0,473	0,279
6,400	246,627	-0,035	0,042
7,415	546,439	-0,174	-0,295
8,429	245,858	-0,206	-0,246
9,444	39,103	-0,424	-0,268
10,459	466,258	-0,162	-0,257
11,473	229,921	-0,214	-0,248
12,488	119,026	-0,217	-0,190
13,502	-82,262	-0,370	-0,084
14,517	124,390	-0,255	-0,227
15,531	800,000	-0,153	-0,377
16,546	96,873	-0,325	-0,263
17,561	296,710	-0,247	-0,321
18,575	10,409	-0,152	-0,081
19,590	800,000	-0,113	-0,323
20,604	676,378	-0,137	-0,252
21,619	37,601	-0,485	-0,303
22,634	161,522	-0,455	-0,450
23,648	35,372	-0,483	-0,299
24,663	167,847	-0,380	-0,382
25,677	167,168	-0,403	-0,405
26,692	334,881	-0,222	-0,305
27,707	-134,603	-0,330	-0,028
28,721	80,712	-0,360	-0,273
29,736	141,575	-0,439	-0,410
30,750	78,573	-0,385	-0,290
31,765	88,502	-0,390	-0,306
32,780	99,371	-0,366	-0,299
33,794	82,582	-0,289	-0,221
34,809	41,836	-0,303	-0,194
35,823	95,910	-0,358	-0,288
36,838	-12,566	-0,365	-0,167
37,853	130,547	-0,326	-0,294
38,867	322,094	-0,275	-0,370
39,882	127,965	-0,382	-0,343
40,896	96,813	-0,395	-0,319
41,911	-78,741	-0,462	-0,110
42,926	113,098	-0,211	-0,181
43,940	75,203	-0,426	-0,317
44,955	68,906	-0,431	-0,312
45,969	65,958	-0,354	-0,253
46,984	96,153	-0,343	-0,276
47,999	84,579	-0,308	-0,237
49,013	113,123	-0,344	-0,294
50,028	11,090	-0,385	-0,207
51,042	534,011	-0,208	-0,348
52,057	111,302	-0,274	-0,232
53,071	68,811	-0,307	-0,222
54,086	6,258	-0,415	-0,216
55,101	-61,585	-0,198	-0,058
56,115	82,190	-0,415	-0,317
57,130	75,986	-0,364	-0,271
58,144	124,551	-0,407	-0,360
59,159	59,616	-0,416	-0,288
60,174	87,164	-0,382	-0,297
61,188	-41,860	-0,357	-0,128
62,203	-45,365	-0,203	-0,070
63,217	152,126	-0,331	-0,318
64,232	38,626	-0,311	-0,195
65,247	77,660	-0,355	-0,266
66,261	-67,045	-0,433	-0,119
67,276	-51,135	-0,391	-0,128
68,290	-56,028	-0,299	-0,093
69,305	19,613	-0,242	-0,137
70,320	97,786	-0,283	-0,228
71,334	140,479	-0,323	-0,300
72,349	110,058	-0,301	-0,254
73,363	305,957	-0,308	-0,404
74,378	113,463	-0,283	-0,241
75,393	-26,629	-0,433	-0,177
76,407	12,583	-0,399	-0,216
77,422	-94,946	-0,350	-0,066
78,436	330,462	-0,261	-0,354
79,451	76,999	-0,285	-0,212
80,466	35,434	-0,387	-0,238
81,480	110,476	-0,302	-0,255
82,495	345,200	-0,239	-0,331
83,509	234,925	-0,253	-0,293
84,524	47,531	-0,230	-0,150
85,539	-96,594	-0,385	-0,071
86,553	-48,572	-0,210	-0,071
87,568	24,873	-0,255	-0,148
88,582	55,665	-0,272	-0,185
89,597	91,305	-0,283	-0,223
90,611	193,405	-0,249	-0,265
91,626	65,423	-0,313	-0,222
92,641	-130,901	-0,289	-0,027
93,655	-96,901	-0,277	-0,050
94,670	108,402	-0,282	-0,237
95,684	-17,458	-0,390	-0,172
96,699	-14,536	-0,203	-0,091
97,714	63,206	-0,287	-0,201
98,728	-111,689	-0,355	-0,050
99,743	-57,762	-0,331	-0,101
100,757	-6,191	-0,275	-0,131
101,772	-7,006	-0,344	-0,163
102,787	47,208	-0,217	-0,142
103,801	5,618	-0,243	-0,126
104,816	98,136	-0,221	-0,179
105,830	123,662	-0,131	-0,115
106,845	272,950	-0,205	-0,254
107,860	-60,220	-0,337	-0,100
108,874	53,462	-0,209	-0,140
109,889	131,995	-0,276	-0,249
110,903	58,508	-0,326	-0,224
111,918	800,000	-0,175	-0,355
112,933	800,000	-0,065	-0,142
113,947	249,739	-0,172	-0,205
114,962	250,717	-0,181	-0,216
115,976	-36,247	-0,369	-0,139
116,991	128,289	-0,245	-0,219
118,006	82,650	-0,300	-0,228
119,020	36,999	-0,281	-0,174
120,035	216,447	-0,260	-0,290
121,049	-57,976	-0,393	-0,119
122,064	700,841	-0,177	-0,328
123,079	184,243	-0,278	-0,289
124,093	61,487	-0,193	-0,134
125,108	-13,426	-0,305	-0,138
126,122	56,799	-0,247	-0,168
127,137	-38,336	-0,295	-0,109
128,151	-39,946	-0,209	-0,076
129,166	-27,442	-0,267	-0,108
130,181	-2,992	-0,349	-0,170
131,195	300,508	-0,220	-0,285
132,210	99,346	-0,265	-0,215
133,224	-75,717	-0,257	-0,063
134,239	132,931	-0,116	-0,104
135,254	-31,435	-0,313	-0,123
136,268	-134,308	-0,273	0,023
137,283	101,849	-0,188	-0,153
138,297	-26,522	-0,247	-0,101
139,312	84,882	-0,229	-0,175
140,327	-130,694	-0,374	-0,035
141,341	89,183	-0,167	-0,130
142,356	232,987	-0,247	-0,285
143,370	238,609	-0,163	-0,189
144,385	120,786	-0,286	-0,248
145,400	-43,246	-0,211	-0,074
146,414	247,996	-0,270	-0,319
147,429	68,595	-0,288	-0,206
148,443	83,448	-0,290	-0,221
149,458	146,449	-0,225	-0,211
150,473	25,138	-0,199	-0,115
151,487	70,242	-0,210	-0,151
152,502	167,641	-0,244	-0,242
153,516	-200,000	0,000	-0,225
154,531	172,579	-0,253	-0,255
155,546	78,410	-0,236	-0,176
156,560	-39,605	-0,155	-0,057
157,575	174,635	-0,163	-0,164
158,589	-71,460	-0,301	-0,078
159,604	326,855	-0,215	-0,288
160,619	178,493	-0,215	-0,219
161,633	42,335	-0,308	-0,195
162,648	129,843	-0,287	-0,256
163,662	37,226	-0,191	-0,118
164,677	89,224	-0,164	-0,127
165,692	337,493	-0,150	-0,203
166,706	98,673	-0,275	-0,221
167,721	9,025	-0,224	-0,118
168,735	-92,951	-0,270	-0,052
169,750	98,114	-0,265	-0,213
170,764	430,550	-0,176	-0,267
171,779	-112,913	-0,132	0,018
172,794	109,780	-0,239	-0,200
173,808	10,528	-0,282	-0,149
174,823	171,102	-0,305	-0,305
175,837	-94,894	-0,307	-0,057
176,852	46,400	-0,238	-0,154
177,867	86,454	-0,204	-0,156
178,881	349,315	-0,178	-0,246
179,896	40,323	-0,173	-0,108
180,910	17,397	-0,214	0,118
181,925	-49,723	-0,209	-0,069
182,940	225,505	-0,252	-0,284
183,954	529,794	-0,129	-0,212
184,969	-132,742	-0,253	-0,022
185,983	186,015	-0,171	-0,177
186,998	400,081	-0,146	-0,213
188,013	272,928	-0,130	-0,160
189,027	-36,739	-0,319	-0,119
190,042	42,696	-0,260	-0,164
191,056	43,681	-0,260	-0,165
192,071	14,683	-0,183	-0,099
193,086	258,440	-0,155	-0,187
194,100	-5,724	-0,103	-0,049
195,115	202,844	-0,132	-0,142
196,129	88,819	-0,217	-0,168
197,144	168,952	-0,228	-0,226
198,159	-84,735	-0,170	-0,037
199,173	-89,612	-0,250	-0,050
200,188	94,362	-0,180	-0,142
201,202	279,744	-0,161	-0,200
202,217	-42,769	-0,273	-0,096
203,232	-7,216	-0,217	-0,102
204,246	-14,942	-0,218	-0,097
205,261	129,526	-0,205	-0,182
206,275	151,728	-0,190	-0,180
207,290	305,605	-0,126	-0,163
208,304	29,264	-0,090	-0,053
209,319	343,827	-0,095	-0,130
210,334	27,298	-0,176	-0,102
211,348	214,538	-0,263	-0,290
212,363	-43,090	-0,299	-0,105
213,377	740,196	-0,075	-0,140
214,392	-57,316	-0,374	-0,113
215,407	-3,569	-0,316	-0,152
216,421	103,255	-0,095	-0,078
217,436	800,000	-0,072	-0,162
218,450	-150,443	-0,162	-0,009
219,465	800,000	-0,164	-0,334
220,480	493,687	-0,144	-0,230
221,494	-26,145	-0,176	-0,071
222,509	27,613	-0,061	-0,036
223,523	127,443	-0,146	-0,128
224,538	203,910	-0,266	-0,286
225,553	262,953	-0,159	-0,192
226,567	276,282	-0,217	-0,268
227,582	506,080	-0,088	-0,141
228,596	361,374	-0,101	-0,140
229,611	-36,713	-0,127	-0,047
230,626	109,699	-0,160	-0,133
231,640	54,531	-0,187	-0,125
232,655	146,579	-0,286	-0,267
233,669	47,141	-0,157	-0,101
234,684	309,828	-0,205	-0,266
235,699	594,104	-0,120	-0,206
236,713	63,430	-0,265	-0,184
237,728	24,626	-0,162	-0,092
238,742	222,312	-0,148	-0,166
239,757	76,177	-0,295	-0,216
240,772	132,506	-0,172	-0,154
241,786	-19,557	-0,202	-0,086
242,801	-161,759	-0,218	-0,008
243,815	19,641	-0,220	-0,123
244,830	51,553	-0,169	-0,111
245,844	-82,196	-0,186	-0,042
246,859	280,311	-0,099	-0,122
247,874	55,700	-0,215	-0,144
248,888	-66,413	-0,268	-0,073
249,903	-45,539	-0,231	-0,079
250,917	800,000	-0,094	-0,202
251,932	-9,140	-0,177	-0,082
252,947	736,345	-0,128	-0,239
253,961	800,000	-0,061	-0,174
254,976	312,821	-0,180	-0,235
255,990	527,841	-0,084	-0,138
257,005	-200,000	-0,000	-0,072
258,020	8,181	-0,128	-0,066
259,034	68,140	-0,121	-0,085
260,049	-75,580	-0,062	-0,015
261,063	183,984	-0,143	-0,147
262,078	82,497	-0,254	-0,191
263,093	800,000	-0,064	-0,160
264,107	0,668	-0,206	-0,101
265,122	166,358	-0,135	-0,132
266,136	105,050	-0,129	-0,105
267,151	448,676	-0,103	-0,158
268,166	-174,072	-0,188	-0,004
269,180	261,580	-0,157	-0,189
270,195	473,410	-0,130	-0,203
271,209	115,008	-0,188	-0,159
272,224	-35,096	-0,200	-0,075
273,239	800,000	-0,042	-0,095
274,253	743,254	-0,119	-0,222
275,268	162,581	-0,140	-0,135
276,282	82,667	-0,195	-0,146
277,297	228,437	-0,242	-0,272
278,312	-8,979	-0,326	-0,150
279,326	-21,772	-0,092	-0,039
280,341	209,029	-0,073	-0,080
281,355	128,110	-0,120	-0,105
282,370	17,976	-0,285	-0,156
283,384	251,733	-0,218	-0,257
284,399	65,585	-0,318	-0,222
285,414	-200,000	0,004	-0,171
286,428	800,000	-0,113	-0,263
287,443	76,479	-0,077	-0,056
288,457	4,276	-0,099	-0,050
289,472	-8,305	-0,168	-0,078
290,487	-106,879	-0,148	-0,022
291,501	62,655	-0,164	-0,113
292,516	2,415	-0,124	-0,062
293,530	800,000	-0,055	-0,113
294,545	178,776	-0,120	-0,121
295,560	132,555	-0,145	0,129
296,574	-200,000	-0,042	-0,197
297,589	-14,497	-0,211	-0,093
298,603	800,000	-0,092	-0,202
299,618	200,460	-0,226	-0,240
300,633	-5,949	-0,156	-0,073
301,647	31,088	-0,102	0,060
302,662	58,878	-0,209	-0,141
303,676	-3,971	-0,223	-0,106
304,691	294,159	-0,149	-0,188
305,706	97,279	-0,192	-0,152
306,720	345,475	-0,156	-0,212
307,735	87,477	-0,062	-0,047
308,749	128,292	-0,172	-0,151
309,764	800,000	-0,018	-0,045
310,779	-24,193	-0,241	-0,099
311,793	-86,661	-0,146	-0,030
312,808	93,515	-0,153	-0,119
313,822	-151,415	-0,187	0,009
314,837	-200,000	-0,002	-0,049
315,852	99,908	-0,119	-0,095
316,866	61,164	-0,068	-0,046
317,881	-127,662	-0,068	-0,007
318,895	61,550	-0,211	-0,144
319,910	321,047	-0,096	-0,127
320,925	150,960	-0,177	-0,166
321,939	800,000	-0,060	-0,144
322,954	-58,155	-0,221	-0,066
323,968	291,844	-0,063	-0,080
324,983	-60,163	-0,147	-0,043
325,997	-5,031	-0,170	-0,080
327,012	80,274	-0,266	-0,196
328,027	216,343	-0,164	-0,179
329,041	362,726	-0,151	-0,209
330,056	686,375	-0,056	0,101
331,070	191,740	-0,113	-0,117
332,085	20,085	-0,077	0,043
333,100	284,845	-0,166	-0,206
334,114	797,486	-0,131	-0,249
335,129	86,588	-0,160	-0,121
336,143	201,390	-0,116	-0,123
337,158	800,000	-0,072	-0,174
338,173	-5,044	0,031	0,015
339,187	17,116	-0,116	-0,063
340,202	26,350	-0,188	-0,108
341,216	-157,689	-0,219	0,009
342,231	-200,000	0,003	-0,103
343,246	102,326	-0,084	-0,067
344,260	-200,000	-0,031	-0,144
345,275	475,903	-0,155	-0,242
346,289	147,873	-0,105	-0,097
347,304	-1,355	-0,162	-0,078
348,319	800,000	-0,064	-0,141
349,333	57,044	-0,178	-0,119
350,348	241,325	-0,099	-0,114
351,362	220,947	-0,109	-0,120
352,377	-33,670	-0,184	-0,069
353,392	-66,947	-0,086	-0,023
354,406	-121,719	-0,165	-0,019
355,421	209,033	1317,506	1417,097
356,435	160,863	1478,602	1417,613
