DTS Sentinel unit serial number:	SN410029Multiplexer serial number:	ORYXHardware model number:	OX2-SRSoftware version number:	ORYX F/W v4,00 Oryx Data Collector v3.7.2.0data status	okinstallation	B3 Nyhavnadifferential loss correction	single-endedforward channel	channel 1reverse channel	N/Adate	2023/11/30time	21:47:30forward acquisition time	300,00reverse acquisition time	0,00gamma	499,1914k internal	0,3210k external	0,3210temperature offset calibration	1,0000default loss term (dB/km)	0,3820temperature slope calibration	1,0000multiplexer offset coefficient	1,0000multiplexer slope coefficient	1,0000fibre end	0,00T internal ref (°C)	10,41T ext. ref 1 (°C)	-4,91T ext. ref 2 (°C)	-5,04length (m)	temperature (°C)	Stokes	anti-Stokes-744,400	110,960	-0,190	-0,166
-743,385	-200,000	-0,052	0,232
-742,371	111,776	-0,191	-0,168
-741,356	800,000	0,092	0,253
-740,342	274,151	-0,153	-0,196
-739,327	-200,000	-0,075	0,307
-738,312	244,040	-0,268	-0,326
-737,298	800,000	-0,088	0,204
-736,283	98,191	-0,158	-0,132
-735,269	-200,000	-0,030	0,227
-734,254	147,583	-0,227	-0,222
-733,239	-128,746	-0,325	-0,033
-732,225	800,000	-0,085	-0,224
-731,210	16,511	0,156	0,089
-730,196	322,352	0,025	0,035
-729,181	98,084	-0,076	-0,063
-728,167	138,156	-0,049	0,046
-727,152	-71,567	0,059	0,016
-726,137	-200,000	-0,045	-0,149
-725,123	757,209	-0,066	-0,130
-724,108	547,484	-0,104	-0,182
-723,094	107,010	-0,061	-0,053
-722,079	161,161	-0,058	-0,059
-721,064	152,979	-0,027	0,026
-720,050	-122,025	-0,047	-0,006
-719,035	800,000	0,036	0,075
-718,021	201,232	0,079	-0,089
-717,006	244,641	-0,068	-0,082
-715,991	75,986	-0,164	-0,126
-714,977	-97,666	-0,018	0,003
-713,962	-200,000	0,015	-0,080
-712,948	18,269	-0,037	0,021
-711,933	800,000	-0,051	-0,152
-710,918	-200,000	0,023	0,078
-709,904	-200,000	0,016	-0,137
-708,889	480,497	-0,049	-0,081
-707,875	204,292	-0,100	-0,112
-706,860	15,172	-0,035	0,020
-705,845	800,000	-0,046	-0,094
-704,831	-200,000	0,020	0,111
-703,816	-104,245	-0,124	0,021
-702,802	-112,130	-0,127	0,018
-701,787	800,000	0,010	-0,026
-700,772	268,047	0,035	-0,045
-699,758	-83,045	-0,146	-0,034
-698,743	-46,043	0,117	0,042
-697,729	-133,635	-0,029	-0,003
-696,714	15,894	-0,007	-0,004
-695,699	493,856	-0,028	-0,046
-694,685	-90,799	0,065	-0,013
-693,670	160,394	-0,019	0,019
-692,656	358,795	-0,035	-0,050
-691,641	800,000	0,037	0,078
-690,627	800,000	-0,011	-0,023
-689,612	800,000	-0,044	-0,133
-688,597	-200,000	0,009	-0,040
-687,583	30,716	-0,138	-0,085
-686,568	800,000	0,018	-0,039
-685,554	-159,685	0,169	-0,007
-684,539	112,423	0,011	-0,010
-683,524	579,156	-0,047	-0,084
-682,510	313,606	0,072	-0,098
-681,495	-88,364	-0,043	0,009
-680,481	-200,000	-0,050	-0,188
-679,466	-200,000	0,017	-0,143
-678,451	-95,820	-0,132	0,025
-677,437	-85,267	-0,030	-0,007
-676,422	-46,298	0,061	0,021
-675,408	-200,000	-0,001	-0,144
-674,393	800,000	0,013	0,037
-673,378	-200,000	-0,021	0,100
-672,364	182,660	-0,083	-0,089
-671,349	767,031	-0,075	-0,148
-670,335	-200,000	-0,014	0,070
-669,320	800,000	0,076	0,169
-668,305	-200,000	-0,002	-0,082
-667,291	306,412	-0,031	0,042
-666,276	-55,914	-0,090	-0,029
-665,262	-104,800	-0,056	0,009
-664,247	15,127	-0,079	-0,044
-663,232	-51,328	-0,099	0,033
-662,218	-141,362	0,229	0,017
-661,203	283,655	-0,055	0,072
-660,189	-51,824	0,181	0,061
-659,174	800,000	-0,068	-0,144
-658,159	41,231	-0,124	-0,081
-657,145	570,589	0,040	-0,070
-656,130	285,460	-0,086	0,112
-655,116	-200,000	0,024	0,133
-654,101	-63,260	-0,053	-0,016
-653,086	-163,590	-0,130	-0,004
-652,072	-61,893	-0,196	-0,059
-651,057	36,844	-0,140	-0,089
-650,043	102,796	0,090	-0,076
-649,028	-65,504	-0,019	-0,006
-648,014	-200,000	0,012	0,079
-646,999	83,315	-0,060	0,047
-645,984	43,179	0,087	-0,057
-644,970	800,000	-0,048	-0,118
-643,955	-200,000	0,023	-0,128
-642,941	641,690	-0,025	-0,047
-641,926	296,472	0,044	-0,059
-640,911	31,985	0,077	-0,048
-639,897	-58,624	-0,201	0,062
-638,882	6,827	-0,055	-0,029
-637,868	-40,500	-0,059	-0,022
-636,853	-200,000	-0,006	0,044
-635,838	800,000	0,048	-0,099
-634,824	-73,271	-0,133	-0,035
-633,809	176,972	0,040	0,042
-632,795	224,676	0,043	-0,051
-631,780	-1,286	0,039	-0,020
-630,765	-115,159	-0,059	-0,008
-629,751	-66,003	0,045	0,013
-628,736	-200,000	0,009	-0,161
-627,722	-33,080	-0,101	0,040
-626,707	800,000	-0,047	-0,102
-625,692	-200,000	-0,012	0,121
-624,678	643,276	-0,039	0,073
-623,663	175,564	0,075	0,079
-622,649	384,119	0,068	-0,102
-621,634	-69,292	-0,076	0,021
-620,619	-200,000	0,001	0,018
-619,605	-200,000	0,017	-0,185
-618,590	83,586	0,117	0,092
-617,576	-200,000	0,009	-0,075
-616,561	21,142	0,083	-0,048
-615,546	218,619	-0,076	0,088
-614,532	-200,000	-0,018	-0,106
-613,517	800,000	0,069	-0,166
-612,503	84,653	-0,050	-0,039
-611,488	40,403	0,093	0,060
-610,474	-200,000	0,004	0,134
-609,459	-200,000	-0,008	-0,058
-608,444	-200,000	-0,012	0,084
-607,430	303,764	-0,070	0,093
-606,415	-200,000	0,002	-0,078
-605,401	24,989	-0,050	-0,030
-604,386	-200,000	0,029	-0,104
-603,371	800,000	-0,052	0,127
-602,357	45,725	0,084	-0,056
-601,342	241,940	0,084	0,102
-600,328	198,993	-0,033	-0,036
-599,313	-90,281	-0,107	-0,022
-598,298	85,577	-0,115	-0,091
-597,284	655,589	0,078	0,145
-596,269	800,000	-0,031	0,076
-595,255	800,000	0,049	0,134
-594,240	243,002	-0,127	-0,154
-593,225	20,652	-0,076	0,044
-592,211	304,518	-0,036	-0,049
-591,196	-200,000	-0,082	-0,260
-590,182	7,153	0,148	-0,079
-589,167	130,415	0,088	-0,081
-588,152	426,676	0,072	0,113
-587,138	13,829	-0,046	0,026
-586,123	800,000	-0,018	-0,048
-585,109	-46,691	-0,090	-0,032
-584,094	-66,122	0,097	-0,028
-583,079	66,682	0,094	-0,069
-582,065	-200,000	0,019	-0,196
-581,050	90,799	0,106	0,086
-580,036	54,997	0,111	-0,077
-579,021	-200,000	0,010	-0,197
-578,006	-96,753	-0,114	-0,021
-576,992	-200,000	-0,044	-0,147
-575,977	-200,000	0,024	0,079
-574,963	102,777	0,066	-0,056
-573,948	-200,000	-0,008	-0,092
-572,934	-200,000	-0,018	0,101
-571,919	-200,000	0,021	-0,155
-570,904	98,134	0,077	-0,064
-569,890	-138,512	-0,138	0,011
-568,875	800,000	0,045	-0,090
-567,861	201,793	0,085	0,094
-566,846	-45,413	0,109	0,039
-565,831	230,723	0,031	0,036
-564,817	131,110	-0,036	-0,034
-563,802	-81,406	-0,149	-0,035
-562,788	125,383	0,067	-0,061
-561,773	-200,000	-0,004	-0,119
-560,758	6,072	0,136	-0,073
-559,744	-200,000	-0,022	0,097
-558,729	-200,000	0,013	0,159
-557,715	428,964	-0,107	0,167
-556,700	-14,006	-0,022	0,010
-555,685	53,887	0,062	0,043
-554,671	-200,000	-0,014	-0,054
-553,656	-115,873	-0,081	0,011
-552,642	-118,932	-0,041	0,005
-551,627	800,000	0,020	-0,042
-550,612	382,566	-0,013	-0,019
-549,598	-14,743	0,058	-0,027
-548,583	341,968	-0,041	-0,058
-547,569	64,422	-0,020	0,014
-546,554	620,652	-0,010	0,018
-545,539	-131,594	0,088	-0,008
-544,525	413,281	0,083	0,127
-543,510	800,000	0,040	0,121
-542,496	78,197	-0,087	-0,067
-541,481	800,000	0,007	0,021
-540,466	800,000	0,029	-0,058
-539,452	-62,202	0,121	-0,036
-538,437	-26,027	0,093	0,039
-537,423	-68,748	0,079	0,022
-536,408	-22,872	-0,074	-0,032
-535,393	445,744	0,018	0,029
-534,379	-200,000	0,023	-0,105
-533,364	319,557	0,090	-0,123
-532,350	-200,000	0,004	0,047
-531,335	-144,900	0,081	0,005
-530,321	-46,218	0,103	0,036
-529,306	-30,868	-0,126	0,051
-528,291	-61,030	-0,137	0,041
-527,277	-62,804	-0,005	-0,001
-526,262	477,783	-0,076	0,125
-525,248	-200,000	-0,031	-0,113
-524,233	32,064	0,052	0,032
-523,218	220,996	-0,102	0,118
-522,204	297,201	0,078	0,104
-521,189	342,055	-0,105	-0,149
-520,175	542,611	0,102	0,176
-519,160	582,928	-0,049	-0,088
-518,145	768,497	0,030	0,059
-517,131	491,331	0,076	0,125
-516,116	-4,418	0,135	0,067
-515,102	42,196	-0,120	0,078
-514,087	339,464	-0,078	-0,109
-513,072	-63,225	0,105	0,031
-512,058	237,247	-0,034	-0,041
-511,043	380,794	-0,036	-0,054
-510,029	-200,000	0,021	0,069
-509,014	-200,000	-0,055	0,179
-507,999	68,327	0,189	0,139
-506,985	-200,000	0,003	0,047
-505,970	-69,970	-0,078	0,021
-504,956	-100,902	-0,061	-0,011
-503,941	294,488	0,123	-0,162
-502,926	134,651	-0,025	-0,023
-501,912	800,000	0,044	-0,107
-500,897	91,235	-0,010	-0,008
-499,883	-200,000	-0,008	0,037
-498,868	-35,195	-0,107	-0,042
-497,853	800,000	0,056	-0,144
-496,839	15,046	0,097	-0,054
-495,824	103,897	0,011	0,009
-494,810	-200,000	-0,016	0,062
-493,795	800,000	0,015	0,035
-492,781	518,962	-0,044	0,074
-491,766	-200,000	-0,003	0,022
-490,751	-38,594	-0,020	-0,007
-489,737	134,282	-0,069	0,064
-488,722	-3,115	-0,029	0,015
-487,708	-29,157	0,090	0,037
-486,693	16,105	-0,058	0,033
-485,678	-80,012	-0,076	0,018
-484,664	-200,000	-0,023	0,136
-483,649	-153,995	-0,094	-0,005
-482,635	246,056	-0,067	-0,081
-481,620	800,000	-0,009	0,024
-480,605	-120,521	0,146	-0,018
-479,591	-200,000	0,009	-0,068
-478,576	196,325	0,048	0,052
-477,562	800,000	-0,018	-0,046
-476,547	129,597	0,092	-0,084
-475,532	512,664	-0,023	-0,039
-474,518	-200,000	0,046	0,239
-473,503	800,000	-0,058	0,154
-472,489	800,000	0,020	0,045
-471,474	216,209	0,057	-0,065
-470,459	-200,000	0,018	0,066
-469,445	71,649	0,105	-0,078
-468,430	66,946	-0,060	-0,044
-467,416	117,338	0,081	0,072
-466,401	85,371	-0,069	-0,055
-465,386	-200,000	0,010	0,059
-464,372	308,602	-0,036	0,049
-463,357	-102,233	-0,060	0,010
-462,343	-200,000	0,037	-0,138
-461,328	-200,000	-0,014	-0,100
-460,313	-54,446	-0,110	-0,035
-459,299	80,493	-0,027	-0,021
-458,284	75,911	0,102	0,077
-457,270	241,723	-0,052	0,062
-456,255	31,790	0,071	0,044
-455,241	-121,048	-0,060	-0,007
-454,226	-200,000	0,003	0,020
-453,211	-1,801	0,042	0,021
-452,197	-200,000	-0,011	0,039
-451,182	-75,404	0,116	0,029
-450,168	-20,962	0,032	-0,014
-449,153	566,925	0,057	-0,100
-448,138	585,905	0,008	-0,014
-447,124	-147,213	-0,178	-0,011
-446,109	-136,424	-0,048	0,004
-445,095	-200,000	-0,007	0,081
-444,080	338,850	0,072	-0,101
-443,065	-109,591	0,058	-0,009
-442,051	268,114	-0,056	0,071
-441,036	417,429	-0,083	-0,127
-440,022	-200,000	0,022	0,080
-439,007	800,000	0,023	-0,074
-437,992	-200,000	0,003	0,108
-436,978	245,293	0,044	0,053
-435,963	-150,978	-0,103	0,005
-434,949	-200,000	0,019	0,207
-433,934	-92,308	0,147	-0,030
-432,919	800,000	-0,017	-0,053
-431,905	574,036	-0,027	-0,048
-430,890	-200,000	0,005	0,040
-429,876	-158,954	0,041	-0,002
-428,861	216,779	-0,017	-0,019
-427,846	-200,000	-0,017	-0,089
-426,832	-200,000	0,007	-0,054
-425,817	-35,487	-0,216	-0,084
-424,803	-200,000	-0,020	0,106
-423,788	-58,917	0,079	0,024
-422,773	800,000	-0,085	0,184
-421,759	800,000	0,025	0,052
-420,744	27,723	-0,060	-0,036
-419,730	-112,187	-0,078	-0,011
-418,715	490,226	-0,037	-0,061
-417,701	-200,000	0,006	-0,042
-416,686	397,595	0,042	0,063
-415,671	-200,000	-0,018	-0,100
-414,657	344,123	0,059	0,083
-413,642	800,000	-0,022	-0,064
-412,628	-183,733	-0,045	-0,001
-411,613	800,000	-0,022	-0,063
-410,598	161,708	-0,034	0,034
-409,584	-63,223	0,086	-0,025
-408,569	-64,931	0,198	-0,057
-407,555	-35,013	0,093	0,036
-406,540	414,496	0,024	-0,037
-405,525	-185,179	-0,092	-0,001
-404,511	800,000	0,049	-0,133
-403,496	-174,160	-0,067	0,001
-402,482	-127,511	-0,116	0,012
-401,467	-131,769	-0,062	0,006
-400,452	194,388	0,028	0,030
-399,438	1,725	-0,029	0,015
-398,423	202,470	0,030	-0,033
-397,409	49,252	-0,087	-0,058
-396,394	-91,120	-0,162	-0,033
-395,379	-200,000	0,015	0,103
-394,365	-108,040	0,100	0,015
-393,350	-17,174	0,041	-0,018
-392,336	631,438	0,012	-0,023
-391,321	800,000	-0,048	0,108
-390,306	176,615	-0,121	0,126
-389,292	52,249	0,036	-0,025
-388,277	-5,609	0,181	0,089
-387,263	-61,490	0,106	0,032
-386,248	-200,000	-0,009	0,089
-385,233	40,169	0,106	0,068
-384,219	-83,323	-0,127	0,029
-383,204	-63,269	0,159	0,046
-382,190	98,281	0,040	0,033
-381,175	-200,000	-0,040	-0,142
-380,160	800,000	0,019	0,048
-379,146	800,000	0,043	0,127
-378,131	11,080	-0,107	-0,058
-377,117	-15,317	-0,085	-0,039
-376,102	800,000	-0,045	-0,112
-375,088	-107,998	-0,095	0,015
-374,073	310,690	0,033	-0,044
-373,058	-26,123	0,084	0,035
-372,044	-200,000	0,005	0,213
-371,029	49,254	0,079	-0,053
-370,015	15,622	-0,151	-0,085
-369,000	-135,770	0,028	-0,002
-367,985	70,849	-0,074	0,055
-366,971	-163,222	-0,115	0,004
-365,956	139,952	0,093	0,088
-364,942	-200,000	0,005	0,193
-363,927	-19,606	0,075	0,033
-362,912	724,564	0,067	0,127
-361,898	-35,802	0,009	-0,003
-360,883	129,219	-0,072	-0,066
-359,869	595,111	0,067	0,118
-358,854	33,297	-0,106	-0,065
-357,839	-175,181	0,117	-0,002
-356,825	95,417	0,084	-0,068
-355,810	76,809	-0,132	0,100
-354,796	-55,526	0,008	-0,003
-353,781	194,064	-0,111	-0,120
-352,766	65,755	0,216	-0,156
-351,752	445,499	0,010	-0,016
-350,737	218,006	0,103	0,117
-349,723	-200,000	0,008	0,031
-348,708	-200,000	-0,006	0,051
-347,693	341,931	0,064	0,090
-346,679	-189,615	-0,118	0,001
-345,664	374,479	0,093	-0,135
-344,650	-121,016	0,061	0,007
-343,635	-68,043	0,059	0,016
-342,620	800,000	0,054	0,150
-341,606	182,129	0,163	0,172
-340,591	711,770	0,044	-0,083
-339,577	800,000	0,013	-0,030
-338,562	-63,348	0,131	-0,038
-337,548	-76,218	0,050	-0,012
-336,533	-200,000	-0,008	0,029
-335,518	800,000	0,054	0,126
-334,504	800,000	0,048	0,122
-333,489	112,376	-0,084	0,072
-332,475	231,710	0,039	0,045
-331,460	-200,000	-0,044	-0,154
-330,445	-36,150	0,088	0,034
-329,431	800,000	0,022	0,059
-328,416	-200,000	-0,033	0,186
-327,402	47,970	0,152	-0,101
-326,387	174,492	-0,109	-0,113
-325,372	-200,000	-0,007	-0,033
-324,358	0,047	0,027	-0,014
-323,343	94,696	-0,059	-0,048
-322,329	58,313	-0,071	0,050
-321,314	-42,315	0,079	0,029
-320,299	800,000	0,034	0,085
-319,285	-177,426	-0,119	-0,002
-318,270	543,423	-0,043	-0,073
-317,256	104,432	-0,099	-0,083
-316,241	253,735	-0,022	-0,026
-315,226	800,000	0,040	-0,093
-314,212	-200,000	0,022	-0,088
-313,197	-199,524	0,093	0,000
-312,183	99,149	0,027	0,022
-311,168	119,426	-0,034	-0,030
-310,153	-200,000	-0,013	-0,155
-309,139	25,996	0,059	-0,035
-308,124	-113,491	0,156	0,022
-307,110	741,846	-0,051	0,098
-306,095	800,000	0,045	0,125
-305,080	-76,361	0,073	0,018
-304,066	181,240	0,068	-0,072
-303,051	-92,666	-0,108	-0,021
-302,037	-200,000	-0,012	-0,057
-301,022	-19,411	0,125	-0,055
-300,008	800,000	-0,014	0,037
-298,993	-200,000	0,017	0,071
-297,978	-200,000	0,004	-0,056
-296,964	800,000	-0,004	0,012
-295,949	-200,000	0,005	-0,168
-294,935	362,663	-0,038	0,054
-293,920	14,796	-0,054	0,030
-292,905	113,802	0,030	-0,026
-291,891	800,000	0,050	0,135
-290,876	-200,000	-0,006	-0,039
-289,862	-200,000	0,013	0,145
-288,847	41,035	-0,150	-0,096
-287,832	38,562	0,078	-0,050
-286,818	-48,040	0,049	0,017
-285,803	269,641	-0,086	-0,108
-284,789	527,522	0,067	-0,113
-283,774	800,000	-0,037	0,082
-282,759	-27,735	-0,033	-0,013
-281,745	-157,475	-0,046	0,002
-280,730	65,836	-0,116	-0,084
-279,716	-200,000	0,036	0,147
-278,701	196,346	0,072	0,078
-277,686	800,000	-0,053	0,122
-276,672	-124,601	0,031	0,003
-275,657	-70,467	-0,203	-0,054
-274,643	543,414	-0,055	-0,093
-273,628	-36,954	-0,063	-0,024
-272,613	-200,000	0,019	-0,096
-271,599	-159,489	0,127	0,005
-270,584	-78,948	-0,127	-0,030
-269,570	-53,603	0,056	-0,018
-268,555	297,860	0,051	0,067
-267,540	-200,000	0,001	-0,126
-266,526	16,378	-0,092	0,052
-265,511	-200,000	0,004	0,067
-264,497	-200,000	0,003	0,049
-263,482	62,411	0,056	0,040
-262,467	16,675	0,051	-0,029
-261,453	742,562	0,029	0,055
-260,438	120,829	0,066	0,059
-259,424	-91,068	-0,065	0,013
-258,409	-60,753	-0,120	0,036
-257,395	-200,000	-0,010	0,112
-256,380	209,495	-0,085	0,095
-255,365	-32,133	-0,040	-0,016
-254,351	25,801	0,061	-0,036
-253,336	271,625	0,034	-0,043
-252,322	-200,000	-0,032	0,132
-251,307	94,088	-0,082	-0,066
-250,292	-92,854	-0,183	-0,036
-249,278	142,218	-0,085	-0,080
-248,263	-200,000	-0,004	-0,025
-247,249	-55,646	-0,082	0,026
-246,234	-200,000	-0,019	0,091
-245,219	452,065	-0,032	0,051
-244,205	-58,797	0,125	-0,038
-243,190	25,211	-0,219	-0,129
-242,176	-105,809	0,113	0,018
-241,161	95,147	0,080	-0,065
-240,146	180,302	0,015	-0,015
-239,132	-200,000	0,035	0,139
-238,117	-118,123	-0,062	-0,008
-237,103	800,000	-0,023	-0,051
-236,088	43,230	-0,146	-0,095
-235,073	-55,640	0,106	0,033
-234,059	-200,000	-0,019	-0,105
-233,044	-31,205	0,139	0,055
-232,030	800,000	0,041	0,094
-231,015	-200,000	-0,017	0,180
-230,000	-200,000	0,015	-0,158
-228,986	-200,000	-0,005	-0,142
-227,971	800,000	-0,015	0,042
-226,957	-200,000	0,006	0,077
-225,942	126,781	-0,120	0,108
-224,927	49,200	-0,117	-0,078
-223,913	93,657	-0,101	-0,081
-222,898	-73,581	-0,064	-0,017
-221,884	400,530	-0,041	0,061
-220,869	109,052	-0,145	0,124
-219,855	-200,000	-0,022	0,169
-218,840	575,304	0,065	0,113
-217,825	-32,696	-0,033	-0,013
-216,811	296,593	-0,063	-0,083
-215,796	-143,434	-0,085	-0,006
-214,782	261,092	0,085	-0,104
-213,767	-109,999	-0,125	0,018
-212,752	-109,648	0,079	-0,012
-211,738	-200,000	-0,003	0,042
-210,723	15,707	-0,129	0,072
-209,709	800,000	0,011	0,032
-208,694	-126,480	0,024	-0,003
-207,679	-200,000	-0,021	-0,138
-206,665	533,737	0,018	-0,030
-205,650	800,000	0,038	0,089
-204,636	-67,554	0,090	0,025
-203,621	-111,438	0,149	-0,021
-202,606	540,699	0,014	-0,024
-201,592	-200,000	-0,001	-0,096
-200,577	-200,000	0,001	-0,108
-199,563	55,282	0,087	-0,060
-198,548	-200,000	-0,013	-0,051
-197,533	-137,274	-0,027	-0,002
-196,519	-169,545	-0,059	0,001
-195,504	-200,000	-0,010	-0,085
-194,490	-60,746	-0,060	0,018
-193,475	90,369	0,098	-0,078
-192,460	-46,552	0,073	0,025
-191,446	-134,024	0,039	0,003
-190,431	-106,853	0,084	0,013
-189,417	-200,000	0,004	0,015
-188,402	6,765	-0,056	-0,030
-187,387	-61,344	-0,117	-0,035
-186,373	-200,000	0,009	-0,067
-185,358	193,326	-0,042	-0,045
-184,344	-200,000	0,040	0,162
-183,329	39,056	-0,006	0,004
-182,315	800,000	0,030	0,087
-181,300	-200,000	0,003	-0,065
-180,285	200,376	-0,049	-0,053
-179,271	201,672	0,035	-0,039
-178,256	-54,659	-0,160	-0,051
-177,242	-145,462	0,038	0,002
-176,227	-200,000	0,035	0,176
-175,212	-31,393	0,120	-0,048
-174,198	84,412	-0,072	-0,056
-173,183	650,065	-0,015	0,028
-172,169	-200,000	0,026	-0,090
-171,154	347,398	-0,057	0,080
-170,139	800,000	0,060	0,181
-169,125	-200,000	-0,008	0,126
-168,110	194,236	-0,036	-0,039
-167,096	166,304	-0,018	0,019
-166,081	800,000	-0,027	0,068
-165,066	-110,829	-0,200	-0,029
-164,052	-102,349	0,160	-0,027
-163,037	800,000	-0,063	-0,131
-162,023	751,335	0,015	-0,030
-161,008	-144,014	-0,090	-0,006
-159,993	235,353	0,037	-0,043
-158,979	-176,686	0,055	0,001
-157,964	-200,000	-0,037	-0,181
-156,950	-200,000	-0,030	-0,106
-155,935	393,035	0,044	-0,065
-154,920	32,826	-0,062	0,038
-153,906	800,000	0,052	0,156
-152,891	223,920	0,043	-0,049
-151,877	-13,497	-0,025	0,011
-150,862	494,220	-0,011	-0,017
-149,847	99,112	-0,038	0,031
-148,833	-54,018	-0,106	-0,034
-147,818	2,572	0,043	-0,022
-146,804	-200,000	0,035	-0,149
-145,789	394,989	-0,030	-0,045
-144,775	800,000	-0,017	0,037
-143,760	-141,914	-0,017	0,001
-142,745	172,771	0,046	-0,047
-141,731	-200,000	0,003	0,033
-140,716	4,417	0,060	-0,031
-139,702	-200,000	-0,024	0,189
-138,687	-121,883	0,111	0,013
-137,672	-200,000	-0,006	0,101
-136,658	496,342	-0,052	0,086
-135,643	-200,000	0,019	0,088
-134,629	201,693	-0,050	0,055
-133,614	-200,000	0,018	-0,150
-132,599	800,000	-0,021	-0,053
-131,585	-107,945	0,093	0,014
-130,570	-69,727	-0,048	-0,013
-129,556	28,392	-0,154	-0,092
-128,541	800,000	-0,012	-0,028
-127,526	-67,312	0,042	0,012
-126,512	216,349	0,050	0,057
-125,497	579,741	-0,051	0,089
-124,483	800,000	-0,041	0,117
-123,468	-200,000	0,002	0,110
-122,453	800,000	-0,010	-0,027
-121,439	-13,323	-0,151	-0,069
-120,424	-5,690	-0,144	-0,070
-119,410	1,746	0,021	0,011
-118,395	179,797	0,089	0,092
-117,380	74,576	0,083	-0,061
-116,366	-177,717	-0,109	-0,002
-115,351	28,225	-0,064	0,038
-114,337	445,590	-0,065	-0,101
-113,322	83,048	0,062	-0,048
-112,307	128,097	-0,013	-0,012
-111,293	-120,696	0,144	0,017
-110,278	67,170	0,184	-0,132
-109,264	-109,675	-0,125	-0,018
-108,249	467,531	0,034	0,054
-107,234	38,034	-0,097	-0,061
-106,220	800,000	-0,041	-0,100
-105,205	-200,000	0,029	-0,180
-104,191	800,000	-0,052	0,160
-103,176	-200,000	0,032	-0,112
-102,162	108,722	-0,070	0,060
-101,147	-200,000	0,005	-0,024
-100,132	781,539	-0,068	-0,132
-99,118	165,518	0,019	-0,019
-98,103	451,147	0,139	0,218
-97,089	800,000	0,033	0,086
-96,074	394,821	-0,025	-0,037
-95,059	-200,000	0,002	0,113
-94,045	800,000	0,015	-0,038
-93,030	-95,440	-0,084	0,016
-92,016	267,535	0,024	0,030
-91,001	-34,094	-0,024	-0,009
-89,986	-200,000	-0,007	0,079
-88,972	-200,000	-0,013	0,041
-87,957	800,000	0,036	-0,099
-86,943	-200,000	0,006	-0,102
-85,928	800,000	-0,039	-0,108
-84,913	182,573	0,026	0,027
-83,899	-112,010	-0,077	-0,011
-82,884	170,049	-0,013	-0,013
-81,870	-141,025	0,122	-0,009
-80,855	-200,000	0,005	0,086
-79,840	-187,562	0,188	-0,002
-78,826	-31,315	-0,154	-0,061
-77,811	800,000	-0,036	-0,101
-76,797	139,433	0,038	0,035
-75,782	27,946	-0,047	-0,028
-74,767	129,439	0,091	0,082
-73,753	-27,604	-0,094	0,039
-72,738	-54,232	-0,175	0,056
-71,724	105,321	0,070	-0,058
-70,709	-37,801	-0,060	-0,022
-69,694	-200,000	0,002	-0,061
-68,680	-178,554	0,079	0,001
-67,665	158,842	0,060	-0,059
-66,651	-200,000	0,048	-0,181
-65,636	800,000	-0,030	0,064
-64,622	800,000	-0,014	0,029
-63,607	49,411	-0,097	-0,065
-62,592	325,253	-0,157	-0,213
-61,578	-84,365	0,071	0,016
-60,563	-200,000	-0,009	0,076
-59,549	388,752	0,125	0,184
-58,534	69,014	-1,889	-1,370
-57,519	408,028	-1,362	-2,041
-56,505	-200,000	-0,388	-4,462
-55,490	414,760	0,876	1,322
-54,476	800,000	5,292	11,661
-53,461	-200,000	21,204	341,518
-52,446	800,000	759,706	2357,378
-51,432	558,414	1663,589	2844,897
-50,417	73,802	1664,105	1230,367
-49,403	18,279	1537,501	864,178
-48,388	12,235	1461,060	791,924
-47,373	19,482	1451,947	821,792
-46,359	15,659	1441,332	797,540
-45,344	10,494	1437,200	770,580
-44,330	10,460	1435,235	769,336
-43,315	10,477	1433,322	768,361
-42,300	10,460	1431,566	767,307
-41,286	10,476	1430,402	766,728
-40,271	10,411	1429,214	765,755
-39,257	10,453	1427,961	765,248
-38,242	10,497	1426,815	764,817
-37,227	10,488	1425,925	764,265
-36,213	10,520	1424,368	763,553
-35,198	10,484	1423,408	762,837
-34,184	10,511	1422,583	762,489
-33,169	10,469	1421,104	761,472
-32,154	10,506	1420,183	761,122
-31,140	10,550	1418,833	760,575
-30,125	10,551	1417,663	759,921
-29,111	10,504	1416,781	759,196
-28,096	10,502	1415,519	758,482
-27,082	10,483	1414,154	757,631
-26,067	10,467	1413,195	757,011
-25,052	10,404	1412,153	756,126
-24,038	10,442	1411,134	755,733
-23,023	10,437	1410,373	755,268
-22,009	10,491	1409,206	754,867
-20,994	10,429	1408,215	754,015
-19,979	10,478	1407,030	753,582
-18,965	10,388	1406,528	752,860
-17,950	10,401	1405,317	752,246
-16,936	10,361	1404,702	751,697
-15,921	10,323	1403,590	750,897
-14,906	10,349	1403,011	750,680
-13,892	10,391	1401,565	750,071
-12,877	10,360	1400,870	749,526
-11,863	10,341	1399,989	748,934
-10,848	10,320	1399,379	748,480
-9,833	10,288	1398,331	747,743
-8,819	10,239	1397,591	747,091
-7,804	10,256	1396,446	746,525
-6,790	10,245	1395,386	745,882
-5,775	10,236	1394,543	745,356
-4,760	10,279	1393,559	745,003
-3,746	10,255	1392,656	744,377
-2,731	10,210	1391,833	743,700
-1,717	10,225	1391,029	743,311
-0,702	10,243	1389,026	742,294
0,313	14,193	1301,473	713,629
1,327	30,178	691,517	415,492
2,342	46,637	119,682	78,259
3,356	0,117	16,528	8,285
4,371	-2,437	3,521	1,734
5,386	-41,303	1,004	0,363
6,400	-200,000	0,108	0,431
7,415	35,743	-0,192	-0,119
8,429	178,709	-0,162	-0,167
9,444	-29,650	-0,259	-0,104
10,459	-17,677	-0,262	-0,116
11,473	-118,823	-0,421	-0,052
12,488	-119,228	-0,248	-0,030
13,502	134,439	-0,267	-0,244
14,517	69,185	-0,416	-0,301
15,531	53,624	-0,401	-0,271
16,546	12,904	-0,416	-0,226
17,561	110,214	-0,369	-0,312
18,575	48,512	-0,216	-0,142
19,590	111,839	-0,185	-0,157
20,604	-93,778	-0,166	-0,032
21,619	284,906	-0,348	-0,442
22,634	84,052	-0,484	-0,372
23,648	102,033	-0,403	-0,331
24,663	210,759	-0,382	-0,424
25,677	105,931	-0,232	-0,193
26,692	500,877	-0,198	-0,323
27,707	28,809	-0,423	-0,252
28,721	89,042	-0,370	-0,290
29,736	50,057	-0,423	-0,281
30,750	48,401	-0,297	-0,195
31,765	60,067	-0,353	-0,245
32,780	96,026	-0,439	-0,353
33,794	110,975	-0,376	-0,319
34,809	186,559	-0,243	-0,255
35,823	27,585	-0,447	-0,264
36,838	94,035	-0,373	-0,298
37,853	86,512	-0,458	-0,355
38,867	179,579	-0,295	-0,304
39,882	61,436	-0,334	-0,233
40,896	50,033	-0,353	-0,234
41,911	62,226	-0,320	-0,224
42,926	-36,274	-0,304	-0,115
43,940	47,379	-0,394	-0,258
44,955	147,241	-0,343	-0,325
45,969	134,395	-0,367	-0,334
46,984	206,117	-0,323	-0,354
47,999	-5,655	-0,383	-0,184
49,013	44,002	-0,327	-0,210
50,028	180,080	-0,294	-0,303
51,042	-50,637	-0,440	-0,145
52,057	1,090	-0,430	-0,216
53,071	-39,017	-0,372	-0,137
54,086	9,800	-0,294	-0,156
55,101	644,384	-0,194	-0,350
56,115	47,290	-0,308	-0,201
57,130	258,975	-0,177	-0,214
58,144	42,346	-0,368	-0,235
59,159	23,132	-0,328	-0,188
60,174	261,472	-0,301	-0,367
61,188	98,473	-0,361	-0,292
62,203	109,016	-0,314	-0,264
63,217	-33,550	-0,291	-0,112
64,232	204,896	-0,227	-0,247
65,247	30,336	-0,324	-0,194
66,261	615,088	-0,230	-0,406
67,276	99,507	-0,296	-0,240
68,290	14,303	-0,311	-0,170
69,305	104,236	-0,259	-0,214
70,320	133,560	-0,220	-0,200
71,334	104,897	-0,251	-0,207
72,349	70,875	-0,322	-0,234
73,363	-47,516	-0,290	-0,098
74,378	48,143	-0,296	-0,194
75,393	214,419	-0,314	-0,349
76,407	751,858	-0,077	-0,147
77,422	-18,171	-0,343	-0,150
78,436	0,316	-0,259	-0,129
79,451	51,318	-0,236	-0,156
80,466	471,436	-0,199	-0,316
81,480	24,511	-0,348	-0,201
82,495	67,054	-0,273	-0,194
83,509	278,326	-0,254	-0,318
84,524	-16,875	-0,202	-0,089
85,539	74,788	-0,290	-0,214
86,553	11,408	-0,335	-0,179
87,568	65,087	-0,356	-0,251
88,582	-9,220	-0,433	-0,202
89,597	133,851	-0,192	-0,175
90,611	37,652	-0,315	-0,196
91,626	161,040	-0,207	-0,203
92,641	26,546	-0,248	-0,145
93,655	4,457	-0,360	-0,184
94,670	124,416	-0,199	-0,175
95,684	196,689	-0,326	-0,348
96,699	28,766	-0,298	-0,176
97,714	96,841	-0,309	-0,248
98,728	119,139	-0,247	-0,214
99,743	81,550	-0,256	-0,193
100,757	-11,682	-0,260	-0,119
101,772	-47,174	-0,291	-0,099
102,787	-4,734	-0,188	-0,090
103,801	64,648	-0,204	-0,144
104,816	-50,673	-0,281	-0,092
105,830	128,948	-0,188	-0,168
106,845	19,676	-0,139	-0,078
107,860	-83,306	-0,246	-0,055
108,874	60,355	-0,246	-0,170
109,889	395,154	-0,148	-0,217
110,903	104,434	-0,299	-0,246
111,918	-51,989	-0,396	-0,128
112,933	49,159	-0,252	-0,165
113,947	155,359	-0,334	-0,322
114,962	-33,082	-0,344	-0,133
115,976	61,533	-0,193	-0,134
116,991	87,477	-0,344	-0,266
118,006	145,347	-0,252	-0,235
119,020	99,930	-0,189	-0,153
120,035	97,883	-0,096	0,077
121,049	108,558	-0,235	-0,196
122,064	116,919	-0,195	-0,167
123,079	-15,644	-0,213	-0,095
124,093	122,656	-0,114	-0,099
125,108	208,690	-0,204	-0,223
126,122	-141,016	-0,287	-0,020
127,137	69,780	-0,218	-0,156
128,151	48,935	-0,229	-0,150
129,166	-57,193	-0,222	-0,068
130,181	800,000	-0,077	-0,170
131,195	141,829	-0,263	-0,243
132,210	51,462	-0,312	-0,206
133,224	159,481	-0,284	-0,276
134,239	777,811	-0,142	-0,272
135,254	-36,345	-0,312	-0,117
136,268	140,256	-0,259	-0,238
137,283	70,014	-0,273	-0,197
138,297	16,587	-0,357	-0,196
139,312	32,168	-0,336	-0,201
140,327	14,540	-0,231	-0,125
141,341	353,680	-0,158	-0,220
142,356	-126,429	-0,167	0,017
143,370	-6,508	-0,209	-0,099
144,385	-83,562	-0,205	-0,045
145,400	28,564	-0,250	-0,147
146,414	60,712	-0,302	-0,208
147,429	221,386	-0,231	-0,259
148,443	-48,788	-0,270	-0,090
149,458	-52,342	-0,193	-0,062
150,473	149,371	-0,186	-0,176
151,487	97,231	-0,136	-0,109
152,502	109,252	-0,273	-0,228
153,516	-34,221	-0,268	-0,102
154,531	-34,569	-0,328	-0,124
155,546	155,074	-0,156	-0,149
156,560	-108,775	-0,119	-0,018
157,575	252,575	-0,193	-0,229
158,589	77,649	-0,281	-0,208
159,604	248,998	-0,188	-0,222
160,619	5,813	-0,213	-0,110
161,633	392,995	-0,211	-0,306
162,648	117,533	-0,296	-0,253
163,662	72,258	-0,164	-0,119
164,677	1,877	-0,332	-0,166
165,692	-121,717	-0,208	-0,024
166,706	105,556	-0,246	-0,202
167,721	109,355	-0,188	-0,156
168,735	38,935	-0,198	-0,123
169,750	-42,965	-0,299	-0,105
170,764	-38,999	-0,361	-0,131
171,779	800,000	-0,085	-0,176
172,794	83,749	-0,194	-0,147
173,808	121,059	-0,222	-0,192
174,823	199,042	-0,213	-0,227
175,837	-93,872	-0,197	-0,037
176,852	378,503	-0,166	-0,237
177,867	19,676	-0,238	-0,133
178,881	652,855	-0,093	-0,166
179,896	-15,694	-0,286	-0,126
180,910	-24,482	-0,308	-0,127
181,925	20,416	-0,267	-0,149
182,940	-121,940	-0,188	-0,021
183,954	3,257	-0,148	-0,075
184,969	-56,880	-0,239	-0,073
185,983	-200,000	-0,013	-0,099
186,998	47,140	-0,104	-0,067
188,013	-103,847	-0,200	-0,032
189,027	66,153	-0,199	-0,140
190,042	84,373	-0,274	-0,207
191,056	-200,000	-0,089	-0,284
192,071	-131,325	-0,149	-0,013
193,086	73,363	-0,156	-0,113
194,100	10,411	-0,254	-0,134
195,115	314,507	-0,120	-0,158
196,129	80,243	-0,194	-0,145
197,144	387,015	-0,238	-0,342
198,159	800,000	-0,112	-0,315
199,173	15,063	-0,204	-0,111
200,188	800,000	-0,091	-0,210
201,202	-133,229	-0,179	-0,015
202,217	-135,026	-0,127	-0,010
203,232	223,808	-0,185	-0,207
204,246	187,289	-0,196	-0,202
205,261	133,344	-0,220	-0,197
206,275	359,825	-0,091	-0,126
207,290	97,153	-0,197	-0,157
208,304	111,654	-0,201	-0,168
209,319	419,485	-0,105	-0,157
210,334	431,684	-0,104	-0,156
211,348	94,832	-0,287	-0,226
212,363	489,615	-0,235	-0,373
213,377	127,881	-0,237	-0,209
214,392	137,976	-0,215	-0,195
215,407	188,196	-0,210	-0,218
216,421	142,932	-0,214	-0,197
217,436	292,279	-0,118	-0,150
218,450	-200,000	-0,088	-0,294
219,465	34,201	-0,240	-0,145
220,480	705,072	-0,068	-0,124
221,494	154,130	-0,227	-0,215
222,509	798,575	-0,134	-0,256
223,523	50,359	-0,197	-0,129
224,538	83,677	-0,213	-0,160
225,553	85,253	-0,227	-0,172
226,567	422,568	-0,182	-0,271
227,582	63,113	-0,188	-0,130
228,596	-76,537	-0,197	-0,048
229,611	116,716	-0,169	-0,143
230,626	-62,156	-0,203	-0,058
231,640	408,286	-0,144	-0,212
232,655	-26,355	-0,331	-0,134
233,669	131,402	-0,193	-0,172
234,684	800,000	-0,065	-0,194
235,699	486,626	-0,153	-0,241
236,713	509,529	-0,121	-0,195
237,728	98,264	-0,149	-0,119
238,742	108,108	-0,146	-0,120
239,757	614,070	-0,090	-0,157
240,772	288,725	-0,131	-0,164
241,786	291,689	-0,180	-0,227
242,801	-164,317	-0,157	0,005
243,815	51,041	-0,233	-0,152
244,830	800,000	-0,058	-0,129
245,844	-19,236	-0,263	-0,112
246,859	-15,494	-0,218	-0,096
247,874	469,702	-0,158	-0,246
248,888	109,043	-0,140	-0,116
249,903	5,201	-0,196	-0,099
250,917	380,129	-0,124	-0,175
251,932	32,132	-0,148	-0,088
252,947	-140,807	-0,137	0,010
253,961	115,917	-0,124	-0,105
254,976	32,356	-0,248	-0,147
255,990	698,787	-0,114	-0,207
257,005	121,137	-0,103	-0,089
258,020	-190,577	-0,124	-0,001
259,034	-50,174	-0,213	-0,069
260,049	-119,438	-0,201	0,024
261,063	66,073	-0,105	-0,073
262,078	-48,660	-0,220	-0,073
263,093	-107,611	-0,203	-0,030
264,107	343,409	-0,163	-0,220
265,122	-26,656	-0,152	-0,061
266,136	45,566	-0,215	-0,137
267,151	155,375	-0,077	-0,073
268,166	-103,967	-0,121	-0,019
269,180	-36,346	-0,157	-0,058
270,195	-29,739	-0,275	-0,108
271,209	45,080	-0,149	-0,094
272,224	30,959	-0,324	-0,191
273,239	308,849	-0,074	-0,095
274,253	-83,282	-0,267	-0,059
275,268	127,676	-0,179	-0,157
276,282	61,027	-0,179	-0,122
277,297	53,055	-0,277	-0,182
278,312	70,596	-0,133	-0,095
279,326	41,561	-0,094	-0,059
280,341	-93,407	-0,160	-0,030
281,355	347,793	-0,095	-0,130
282,370	-13,506	-0,168	-0,075
283,384	168,541	-0,156	-0,153
284,399	197,100	-0,245	-0,257
285,414	143,185	-0,143	-0,131
286,428	-104,649	-0,169	-0,027
287,443	83,719	-0,179	-0,134
288,457	279,859	-0,033	-0,041
289,472	143,252	-0,124	-0,113
290,487	77,936	-0,273	-0,200
291,501	15,002	-0,178	-0,096
292,516	-200,000	-0,045	-0,199
293,530	45,555	-0,145	0,092
294,545	20,361	-0,128	-0,071
295,560	-79,724	-0,043	-0,010
296,574	-15,283	-0,158	-0,069
297,589	-135,667	-0,159	0,013
298,603	12,482	-0,131	-0,069
299,618	103,139	-0,185	-0,149
300,633	42,794	-0,211	-0,132
301,647	91,388	-0,093	-0,071
302,662	800,000	-0,039	-0,112
303,676	-27,102	-0,224	-0,089
304,691	322,404	-0,141	-0,185
305,706	233,462	-0,155	-0,176
306,720	271,658	-0,157	-0,190
307,735	366,929	-0,150	-0,208
308,749	43,941	-0,096	-0,060
309,764	800,000	-0,033	-0,083
310,779	-45,389	-0,243	-0,082
311,793	264,901	-0,112	-0,134
312,808	101,528	-0,132	-0,105
313,822	800,000	-0,082	-0,231
314,837	143,876	-0,127	-0,116
315,852	-101,130	-0,241	0,040
316,866	176,085	-0,116	-0,116
317,881	130,448	-0,109	-0,096
318,895	701,297	-0,080	-0,145
319,910	350,477	-0,101	-0,138
320,925	-66,672	-0,265	-0,071
321,939	-186,030	-0,230	-0,002
322,954	-11,998	-0,159	0,071
323,968	38,415	-0,171	-0,104
324,983	-27,419	-0,260	-0,103
325,997	-158,297	-0,212	-0,008
327,012	-91,525	-0,197	-0,038
328,027	93,666	-0,179	-0,139
329,041	16,472	-0,206	-0,111
330,056	800,000	0,051	-0,104
331,070	-10,145	-0,147	-0,067
332,085	42,007	-0,128	-0,080
333,100	45,809	-0,190	-0,120
334,114	10,640	-0,092	-0,048
335,129	335,188	-0,147	-0,195
336,143	-200,000	-0,052	-0,159
337,158	-150,022	-0,079	-0,004
338,173	-67,891	-0,196	-0,052
339,187	-59,119	-0,265	-0,078
340,202	-98,386	-0,144	0,025
341,216	-1,547	-0,229	-0,110
342,231	167,009	-0,229	-0,223
343,246	-200,000	-0,032	-0,185
344,260	511,424	-0,193	-0,309
345,275	619,250	-0,129	-0,222
346,289	-104,999	-0,120	0,019
347,304	48,112	-0,126	-0,080
348,319	53,240	-0,289	-0,189
349,333	800,000	-0,062	-0,135
350,348	-3,803	-0,230	-0,109
351,362	252,137	-0,124	-0,145
352,377	800,000	-0,027	-0,079
353,392	32,441	-0,023	0,013
354,406	800,000	-0,064	-0,158
355,421	208,302	1311,525	1404,230
356,435	160,276	1471,829	1404,704
