DTS Sentinel unit serial number:	SN410029Multiplexer serial number:	ORYXHardware model number:	OX2-SRSoftware version number:	ORYX F/W v4,00 Oryx Data Collector v3.7.2.0data status	okinstallation	B3 Nyhavnadifferential loss correction	single-endedforward channel	channel 1reverse channel	N/Adate	2023/12/01time	01:17:30forward acquisition time	300,00reverse acquisition time	0,00gamma	499,1914k internal	0,3211k external	0,3211temperature offset calibration	1,0000default loss term (dB/km)	0,3820temperature slope calibration	1,0000multiplexer offset coefficient	1,0000multiplexer slope coefficient	1,0000fibre end	0,00T internal ref (°C)	8,94T ext. ref 1 (°C)	-6,15T ext. ref 2 (°C)	-6,29length (m)	temperature (°C)	Stokes	anti-Stokes-744,400	150,525	-0,234	-0,231
-743,385	-200,000	-0,056	0,292
-742,371	800,000	-0,078	-0,207
-741,356	-200,000	-0,036	0,336
-740,342	800,000	-0,093	-0,261
-739,327	686,884	-0,104	0,198
-738,312	124,756	-0,267	-0,244
-737,298	-200,000	0,047	0,299
-736,283	443,384	-0,169	-0,269
-735,269	-200,000	-0,012	0,233
-734,254	-20,386	-0,318	-0,141
-733,239	-73,133	-0,152	0,040
-732,225	299,842	-0,145	-0,194
-731,210	-21,728	0,008	0,004
-730,196	800,000	-0,030	-0,082
-729,181	-104,334	0,054	0,009
-728,167	-86,550	-0,101	-0,022
-727,152	-200,000	-0,006	-0,051
-726,137	800,000	-0,009	0,029
-725,123	-28,712	-0,102	0,042
-724,108	-139,887	-0,004	-0,000
-723,094	50,180	-0,130	-0,089
-722,079	800,000	-0,033	0,076
-721,064	-200,000	-0,015	-0,094
-720,050	767,812	0,049	0,096
-719,035	-200,000	0,002	-0,053
-718,021	-65,490	-0,085	0,025
-717,006	411,038	-0,134	-0,207
-715,991	-126,657	-0,119	-0,013
-714,977	-200,000	0,009	-0,098
-713,962	259,530	-0,056	0,070
-712,948	441,797	0,086	-0,136
-711,933	-150,709	-0,076	-0,004
-710,918	800,000	-0,057	-0,129
-709,904	329,715	0,025	-0,035
-708,889	307,971	-0,079	-0,106
-707,875	351,678	-0,095	-0,136
-706,860	180,638	-0,035	-0,037
-705,845	-200,000	-0,008	0,198
-704,831	-200,000	0,011	0,147
-703,816	-97,816	-0,096	0,018
-702,802	800,000	-0,029	-0,066
-701,787	-200,000	-0,003	-0,028
-700,772	16,411	-0,120	-0,068
-699,758	-200,000	-0,015	-0,095
-698,743	167,280	0,021	-0,021
-697,729	-131,821	0,090	-0,008
-696,714	-200,000	-0,032	0,114
-695,699	-23,743	-0,150	-0,065
-694,685	-171,953	0,008	-0,000
-693,670	-131,289	-0,123	-0,012
-692,656	800,000	-0,035	0,070
-691,641	-200,000	-0,011	-0,065
-690,627	800,000	-0,018	0,050
-689,612	-70,755	0,004	-0,001
-688,597	-96,617	0,113	-0,021
-687,583	74,127	-0,084	-0,064
-686,568	-200,000	-0,013	-0,104
-685,554	-82,863	-0,144	-0,033
-684,539	121,879	0,073	0,066
-683,524	-91,536	-0,060	-0,012
-682,510	-200,000	-0,007	-0,033
-681,495	123,104	-0,061	0,056
-680,481	-200,000	-0,001	-0,146
-679,466	333,778	0,011	0,016
-678,451	-200,000	-0,021	-0,131
-677,437	290,193	0,138	-0,182
-676,422	-80,419	-0,068	0,016
-675,408	-141,330	-0,072	0,005
-674,393	800,000	-0,043	0,106
-673,378	-200,000	0,009	-0,069
-672,364	-51,327	-0,121	-0,041
-671,349	-158,553	-0,045	0,002
-670,335	-14,817	0,064	0,029
-669,320	296,225	0,051	-0,068
-668,305	68,420	0,044	0,033
-667,291	-200,000	0,006	-0,020
-666,276	-48,344	0,139	0,048
-665,262	114,484	-0,021	0,019
-664,247	85,088	0,083	0,065
-663,232	800,000	-0,034	-0,080
-662,218	-100,265	-0,029	0,005
-661,203	800,000	-0,044	-0,091
-660,189	156,064	0,032	0,032
-659,174	80,804	-0,129	0,101
-658,159	-200,000	-0,030	-0,101
-657,145	800,000	0,050	-0,107
-656,130	9,144	-0,149	-0,081
-655,116	-66,667	-0,056	0,016
-654,101	-200,000	-0,003	-0,029
-653,086	178,033	-0,144	-0,152
-652,072	341,033	0,063	-0,089
-651,057	-15,909	-0,088	-0,040
-650,043	332,653	0,065	0,091
-649,028	-75,649	0,111	-0,028
-648,014	-200,000	-0,001	0,064
-646,999	-117,260	0,053	0,007
-645,984	-200,000	-0,012	-0,062
-644,970	373,692	-0,113	-0,167
-643,955	800,000	-0,054	-0,127
-642,941	513,843	-0,067	-0,113
-641,926	-88,369	-0,032	-0,007
-640,911	264,678	0,087	0,110
-639,897	-86,373	0,092	-0,020
-638,882	104,498	-0,033	0,028
-637,868	-200,000	-0,009	-0,173
-636,853	271,258	-0,111	-0,142
-635,838	-200,000	-0,004	-0,123
-634,824	-128,154	0,115	0,012
-633,809	23,192	-0,108	0,064
-632,795	-200,000	-0,005	-0,091
-631,780	-200,000	-0,004	0,060
-630,765	35,692	-0,113	-0,071
-629,751	-79,145	-0,056	-0,014
-628,736	800,000	0,033	-0,081
-627,722	35,451	-0,157	-0,100
-626,707	-200,000	0,001	-0,167
-625,692	-155,905	-0,006	0,000
-624,678	-54,402	0,119	-0,039
-623,663	140,338	0,063	-0,060
-622,649	-79,409	-0,173	-0,042
-621,634	-200,000	0,015	0,098
-620,619	99,002	-0,048	-0,040
-619,605	800,000	0,027	0,057
-618,590	190,580	-0,101	0,110
-617,576	-82,051	0,126	0,029
-616,561	-84,365	0,075	-0,017
-615,546	800,000	0,044	-0,117
-614,532	-200,000	-0,019	0,078
-613,517	38,717	-0,200	-0,129
-612,503	653,805	-0,004	-0,007
-611,488	-200,000	0,023	0,185
-610,474	-200,000	-0,023	0,110
-609,459	800,000	0,020	-0,051
-608,444	8,961	-0,104	-0,057
-607,430	2,140	-0,076	-0,040
-606,415	418,529	-0,114	-0,176
-605,401	-32,284	0,065	0,026
-604,386	96,217	-0,007	-0,006
-603,371	800,000	0,091	0,189
-602,357	168,732	0,051	-0,052
-601,342	369,163	-0,097	0,143
-600,328	-54,112	0,037	-0,012
-599,313	13,712	-0,119	-0,067
-598,298	365,061	-0,053	0,078
-597,284	800,000	-0,043	0,089
-596,269	800,000	-0,024	-0,070
-595,255	-200,000	-0,027	-0,143
-594,240	115,541	0,085	0,075
-593,225	-32,359	-0,062	0,025
-592,211	800,000	-0,051	-0,150
-591,196	63,045	-0,079	0,057
-590,182	66,174	0,054	-0,040
-589,167	84,899	-0,087	-0,068
-588,152	-16,954	0,123	0,056
-587,138	188,752	-0,096	-0,104
-586,123	-200,000	0,042	-0,194
-585,109	95,502	-0,090	-0,074
-584,094	800,000	0,038	-0,084
-583,079	-92,072	0,099	-0,020
-582,065	0,110	0,084	0,043
-581,050	-200,000	0,003	-0,048
-580,036	-101,429	0,061	-0,011
-579,021	254,565	0,044	-0,054
-578,006	-200,000	-0,003	-0,066
-576,992	-200,000	-0,006	-0,108
-575,977	-200,000	-0,001	0,098
-574,963	373,063	0,093	0,137
-573,948	800,000	-0,099	0,223
-572,934	17,472	-0,072	0,041
-571,919	168,304	-0,051	-0,052
-570,904	-96,641	0,029	-0,005
-569,890	-84,849	0,010	-0,002
-568,875	23,493	-0,098	-0,058
-567,861	-200,000	0,007	-0,123
-566,846	166,324	0,063	0,064
-565,831	49,478	-0,083	0,056
-564,817	60,646	0,066	0,047
-563,802	-200,000	0,013	-0,173
-562,788	800,000	-0,011	-0,029
-561,773	-193,167	-0,069	-0,000
-560,758	552,240	0,058	0,100
-559,744	800,000	0,015	-0,041
-558,729	296,889	0,033	-0,044
-557,715	106,574	-0,044	-0,037
-556,700	428,935	-0,079	-0,123
-555,685	84,158	-0,009	-0,007
-554,671	-129,487	0,087	0,009
-553,656	800,000	-0,040	0,112
-552,642	800,000	-0,052	-0,107
-551,627	460,247	-0,050	0,080
-550,612	-200,000	-0,003	0,023
-549,598	119,105	-0,106	0,095
-548,583	2,222	0,038	-0,020
-547,569	-200,000	0,012	-0,088
-546,554	-200,000	-0,004	-0,055
-545,539	141,045	0,059	-0,057
-544,525	71,681	-0,123	0,092
-543,510	73,084	-0,077	0,058
-542,496	-65,254	-0,122	0,035
-541,481	157,615	0,017	0,017
-540,466	562,995	-0,067	-0,117
-539,452	176,512	0,080	-0,084
-538,437	800,000	0,029	-0,085
-537,423	-112,958	-0,130	-0,018
-536,408	-12,382	0,102	-0,048
-535,393	-86,914	0,102	-0,022
-534,379	481,587	-0,087	-0,143
-533,364	-200,000	-0,002	-0,082
-532,350	-200,000	0,006	0,086
-531,335	24,800	0,068	-0,041
-530,321	-95,113	0,027	0,005
-529,306	-65,274	-0,066	0,019
-528,291	-145,388	0,038	0,002
-527,277	-110,075	-0,179	-0,027
-526,262	-200,000	-0,004	0,049
-525,248	-200,000	0,003	-0,035
-524,233	144,297	-0,066	0,064
-523,218	-162,427	0,046	0,002
-522,204	-200,000	0,038	-0,132
-521,189	800,000	0,019	0,038
-520,175	744,903	-0,084	-0,164
-519,160	62,556	0,087	-0,063
-518,145	-47,343	0,113	-0,039
-517,131	21,025	0,057	-0,033
-516,116	-73,055	-0,178	-0,047
-515,102	-200,000	0,000	0,005
-514,087	333,465	-0,028	-0,039
-513,072	97,095	-0,047	-0,039
-512,058	-200,000	-0,006	-0,128
-511,043	-102,536	-0,150	0,025
-510,029	-200,000	0,033	0,107
-509,014	-200,000	0,006	0,098
-507,999	-145,127	-0,137	0,009
-506,985	263,771	-0,036	-0,045
-505,970	-136,136	-0,098	0,008
-504,956	-127,746	0,078	-0,008
-503,941	-200,000	-0,031	-0,172
-502,926	-135,156	0,061	-0,005
-501,912	-200,000	0,000	0,017
-500,897	-200,000	0,016	-0,096
-499,883	-93,128	-0,025	0,005
-498,868	234,072	-0,084	-0,100
-497,853	-200,000	-0,037	0,142
-496,839	-97,873	0,085	-0,016
-495,824	-200,000	-0,005	0,022
-494,810	456,944	-0,012	0,019
-493,795	-200,000	-0,014	0,046
-492,781	-116,513	0,047	0,006
-491,766	473,430	-0,055	-0,090
-490,751	210,727	0,117	0,132
-489,737	-200,000	-0,001	0,083
-488,722	800,000	-0,037	-0,110
-487,708	195,509	0,038	0,041
-486,693	450,179	-0,107	0,169
-485,678	-40,660	-0,090	0,033
-484,664	-139,523	-0,049	-0,004
-483,649	-46,824	-0,166	-0,058
-482,635	-200,000	0,009	-0,085
-481,620	55,562	0,080	-0,055
-480,605	-40,001	-0,153	0,057
-479,591	445,271	0,065	0,103
-478,576	800,000	-0,030	0,072
-477,562	140,759	-0,056	0,053
-476,547	-86,125	-0,028	-0,006
-475,532	15,512	0,052	-0,029
-474,518	53,201	-0,101	0,070
-473,503	-78,395	0,187	0,046
-472,489	420,590	-0,022	-0,034
-471,474	-61,575	0,027	-0,008
-470,459	650,032	0,074	-0,136
-469,445	29,565	-0,041	-0,025
-468,430	-102,005	-0,071	0,012
-467,416	-200,000	-0,033	-0,107
-466,401	-1,603	0,092	-0,046
-465,386	-200,000	-0,028	0,164
-464,372	-119,813	0,053	0,006
-463,357	115,772	0,072	-0,063
-462,343	-200,000	0,002	-0,220
-461,328	107,328	-0,084	0,072
-460,313	-86,241	-0,020	-0,004
-459,299	-200,000	-0,024	0,077
-458,284	-77,353	0,066	-0,016
-457,270	322,512	0,034	-0,047
-456,255	-51,121	-0,104	0,035
-455,241	-1,252	-0,039	-0,020
-454,226	-13,236	-0,092	-0,043
-453,211	800,000	-0,009	0,018
-452,197	-200,000	-0,012	0,099
-451,182	61,811	0,121	0,086
-450,168	690,065	-0,055	-0,104
-449,153	310,466	-0,085	-0,114
-448,138	-200,000	-0,028	0,105
-447,124	5,401	0,037	0,019
-446,109	800,000	-0,020	0,059
-445,095	70,737	0,066	-0,049
-444,080	-200,000	0,002	0,085
-443,065	489,244	-0,013	-0,021
-442,051	-200,000	-0,049	0,213
-441,036	3,956	0,040	0,021
-440,022	-12,955	-0,057	0,026
-439,007	-95,630	0,108	0,020
-437,992	-88,157	0,081	0,017
-436,978	-200,000	0,015	0,049
-435,963	-14,208	0,145	0,067
-434,949	253,906	-0,005	0,006
-433,934	800,000	-0,041	-0,110
-432,919	-108,278	-0,061	-0,009
-431,905	206,569	0,083	0,093
-430,890	-26,556	-0,016	0,007
-429,876	-200,000	0,006	0,168
-428,861	-200,000	-0,007	-0,026
-427,846	-46,377	0,149	0,052
-426,832	-130,278	-0,064	-0,006
-425,817	5,544	0,144	0,076
-424,803	-2,224	-0,052	0,026
-423,788	-200,000	-0,019	0,060
-422,773	-200,000	-0,006	0,082
-421,759	66,522	-0,134	0,097
-420,744	-200,000	0,003	-0,031
-419,730	800,000	-0,012	0,034
-418,715	-102,234	0,028	-0,005
-417,701	4,127	0,110	0,058
-416,686	-200,000	0,008	-0,066
-415,671	8,058	0,142	0,076
-414,657	-35,038	0,096	0,037
-413,642	-200,000	0,038	0,122
-412,628	-40,149	-0,125	0,046
-411,613	-200,000	-0,001	0,075
-410,598	528,614	0,080	-0,136
-409,584	-200,000	-0,001	0,012
-408,569	55,188	0,044	0,031
-407,555	-200,000	-0,043	0,140
-406,540	-200,000	0,011	0,089
-405,525	-36,807	-0,153	0,058
-404,511	498,845	-0,031	0,051
-403,496	209,418	0,078	-0,087
-402,482	800,000	-0,016	-0,038
-401,467	116,045	-0,065	0,057
-400,452	84,173	-0,024	-0,019
-399,438	-200,000	0,017	0,109
-398,423	-3,647	-0,114	-0,057
-397,409	70,375	-0,084	-0,062
-396,394	-200,000	0,013	-0,108
-395,379	16,994	-0,134	-0,076
-394,365	297,851	0,065	0,085
-393,350	-200,000	-0,014	-0,105
-392,336	-32,829	0,137	-0,054
-391,321	-36,023	-0,044	-0,017
-390,306	-200,000	-0,033	-0,142
-389,292	8,035	-0,035	-0,019
-388,277	300,654	0,067	-0,088
-387,263	-60,879	-0,025	-0,007
-386,248	-200,000	0,018	-0,068
-385,233	132,410	0,063	0,058
-384,219	466,712	-0,083	-0,133
-383,204	199,061	0,074	0,081
-382,190	800,000	-0,043	-0,110
-381,175	-114,613	-0,011	0,002
-380,160	20,306	0,084	0,049
-379,146	-75,653	0,140	-0,035
-378,131	101,157	0,114	0,095
-377,117	-200,000	0,050	0,158
-376,102	-200,000	-0,005	0,017
-375,088	-185,431	-0,132	0,001
-374,073	800,000	-0,043	0,123
-373,058	57,766	0,154	0,107
-372,044	-200,000	0,038	0,135
-371,029	46,640	0,091	0,060
-370,015	-200,000	-0,012	0,070
-369,000	378,332	-0,044	0,064
-367,985	-50,475	-0,116	0,039
-366,971	-0,501	0,102	0,052
-365,956	-4,943	-0,099	-0,049
-364,942	-200,000	-0,032	-0,153
-363,927	54,749	0,123	-0,085
-362,912	411,114	-0,054	0,082
-361,898	30,228	-0,015	-0,009
-360,883	57,943	-0,196	-0,137
-359,869	800,000	-0,032	-0,085
-358,854	-34,938	0,112	-0,044
-357,839	142,993	0,049	0,047
-356,825	196,966	-0,084	0,092
-355,810	300,950	-0,051	-0,067
-354,796	-200,000	0,013	-0,052
-353,781	-13,989	-0,084	0,039
-352,766	-142,538	0,056	-0,004
-351,752	-123,350	0,064	-0,007
-350,737	-102,274	0,095	0,016
-349,723	-92,555	-0,085	0,017
-348,708	-48,198	0,044	-0,015
-347,693	116,122	0,037	-0,032
-346,679	-200,000	0,002	-0,086
-345,664	-45,673	-0,061	-0,021
-344,650	-200,000	0,078	0,000
-343,635	24,958	0,023	-0,014
-342,620	-134,563	0,246	-0,021
-341,606	-200,000	0,016	0,070
-340,591	-200,000	-0,006	0,051
-339,577	-15,701	-0,047	-0,021
-338,562	2,166	-0,048	-0,025
-337,548	-200,000	-0,004	-0,161
-336,533	186,238	-0,111	0,118
-335,518	800,000	-0,011	-0,030
-334,504	-112,138	0,164	0,023
-333,489	-2,137	0,071	-0,035
-332,475	786,177	-0,094	-0,184
-331,460	-200,000	0,007	0,063
-330,445	67,224	0,078	-0,057
-329,431	-200,000	-0,002	0,091
-328,416	-200,000	0,002	0,077
-327,402	-200,000	-0,018	0,105
-326,387	800,000	-0,053	0,139
-325,372	-200,000	0,017	0,062
-324,358	70,392	-0,071	0,052
-323,343	-24,832	0,105	-0,044
-322,329	-49,724	-0,146	0,049
-321,314	800,000	0,035	-0,091
-320,299	-62,527	-0,023	0,007
-319,285	9,236	-0,085	0,045
-318,270	210,080	-0,117	-0,131
-317,256	-200,000	0,001	-0,094
-316,241	648,181	-0,058	0,105
-315,226	-195,282	0,070	0,000
-314,212	466,886	0,036	-0,057
-313,197	-200,000	-0,006	0,145
-312,183	306,872	-0,051	-0,067
-311,168	244,940	-0,013	0,016
-310,153	800,000	0,015	0,030
-309,139	-200,000	-0,001	0,060
-308,124	-68,936	-0,087	-0,024
-307,110	800,000	-0,015	0,041
-306,095	200,132	0,076	-0,083
-305,080	24,635	-0,058	-0,034
-304,066	282,590	-0,044	-0,056
-303,051	800,000	-0,042	-0,115
-302,037	174,575	-0,107	-0,110
-301,022	800,000	0,035	0,088
-300,008	-200,000	-0,019	0,061
-298,993	-121,924	-0,020	-0,002
-297,978	800,000	-0,035	0,103
-296,964	-200,000	-0,004	-0,029
-295,949	-42,029	-0,137	-0,050
-294,935	161,016	-0,063	-0,063
-293,920	162,646	0,107	0,107
-292,905	105,668	0,025	-0,021
-291,891	-184,263	0,075	-0,001
-290,876	257,575	0,052	0,064
-289,862	-36,478	-0,085	-0,032
-288,847	-94,978	0,089	0,017
-287,832	-9,094	-0,076	0,036
-286,818	-36,067	0,157	0,060
-285,803	-102,721	0,136	0,023
-284,789	-75,156	0,163	0,041
-283,774	-74,815	-0,026	0,006
-282,759	800,000	-0,073	0,144
-281,745	403,075	0,030	0,045
-280,730	62,118	-0,011	-0,008
-279,716	-26,994	-0,105	0,044
-278,701	800,000	-0,011	-0,028
-277,686	5,880	0,105	0,055
-276,672	-58,538	0,029	0,009
-275,657	664,085	0,013	-0,023
-274,643	-39,570	0,082	-0,031
-273,628	800,000	-0,037	-0,104
-272,613	-18,870	0,029	0,013
-271,599	-200,000	0,051	-0,173
-270,584	63,627	-0,057	0,041
-269,570	3,252	0,025	0,013
-268,555	-59,299	-0,046	0,014
-267,540	-144,523	-0,017	0,001
-266,526	-200,000	-0,010	-0,198
-265,511	309,168	-0,021	-0,027
-264,497	10,739	-0,088	0,048
-263,482	199,940	-0,021	0,023
-262,467	206,942	0,125	0,139
-261,453	42,337	-0,036	0,023
-260,438	-144,641	0,011	0,001
-259,424	800,000	0,037	-0,114
-258,409	-77,188	0,084	0,021
-257,395	-200,000	0,034	0,153
-256,380	-200,000	-0,004	-0,123
-255,365	-4,270	0,101	0,049
-254,351	-200,000	0,031	0,127
-253,336	330,990	0,011	0,016
-252,322	454,334	0,079	0,124
-251,307	796,016	0,059	-0,116
-250,292	256,987	-0,047	-0,058
-249,278	-2,954	0,091	0,045
-248,263	-136,142	-0,052	-0,004
-247,249	97,864	0,125	-0,102
-246,234	46,598	-0,050	-0,033
-245,219	167,350	-0,074	0,075
-244,205	225,506	0,047	0,054
-243,190	-200,000	0,003	-0,009
-242,176	-23,196	0,173	0,074
-241,161	-103,805	-0,041	-0,007
-240,146	-200,000	-0,024	0,085
-239,132	-59,400	0,093	-0,028
-238,117	-200,000	-0,004	0,150
-237,103	69,005	0,107	-0,078
-236,088	256,833	-0,048	-0,058
-235,073	-104,161	0,027	-0,004
-234,059	800,000	0,055	0,145
-233,044	-48,884	-0,055	-0,019
-232,030	10,883	0,150	-0,081
-231,015	-118,138	-0,108	0,013
-230,000	463,691	-0,086	-0,138
-228,986	232,479	-0,058	0,068
-227,971	-132,115	0,094	0,009
-226,957	-200,000	-0,011	0,076
-225,942	-0,286	0,018	-0,009
-224,927	730,458	0,073	0,138
-223,913	69,761	-0,135	0,099
-222,898	-200,000	-0,049	-0,182
-221,884	-200,000	-0,009	-0,130
-220,869	244,386	-0,053	-0,064
-219,855	270,698	0,059	0,073
-218,840	326,043	0,080	0,110
-217,825	1,366	0,033	0,017
-216,811	-103,104	-0,071	-0,012
-215,796	-200,000	-0,037	-0,168
-214,782	456,876	0,017	0,027
-213,767	-90,828	0,199	0,040
-212,752	391,190	0,068	-0,101
-211,738	400,192	-0,114	0,171
-210,723	502,820	-0,039	0,064
-209,709	800,000	-0,040	0,111
-208,694	375,084	0,074	-0,107
-207,679	-19,606	-0,052	0,023
-206,665	-74,942	0,056	-0,014
-205,650	-112,307	0,185	0,026
-204,636	229,476	-0,021	-0,025
-203,621	326,423	0,026	-0,035
-202,606	422,095	0,033	0,050
-201,592	238,450	-0,093	-0,110
-200,577	-14,624	-0,056	0,026
-199,563	-51,700	0,116	0,038
-198,548	29,875	0,178	-0,108
-197,533	-146,579	0,097	0,006
-196,519	378,947	-0,082	-0,119
-195,504	-35,046	0,205	0,079
-194,490	-18,992	-0,058	0,026
-193,475	191,547	0,040	0,043
-192,460	-200,000	-0,006	-0,037
-191,446	-200,000	0,013	0,041
-190,431	-174,311	0,021	-0,000
-189,417	-8,993	-0,076	-0,036
-188,402	-200,000	0,001	-0,053
-187,387	289,647	-0,119	-0,154
-186,373	15,020	-0,066	0,037
-185,358	800,000	-0,074	0,169
-184,344	-164,971	0,153	0,005
-183,329	96,353	0,117	0,095
-182,315	273,117	0,091	0,114
-181,300	-84,994	0,061	-0,013
-180,285	34,869	0,122	0,076
-179,271	8,221	0,041	0,022
-178,256	436,610	0,067	0,103
-177,242	32,928	-0,048	-0,029
-176,227	-200,000	0,011	0,042
-175,212	-200,000	-0,011	0,057
-174,198	223,169	0,033	-0,038
-173,183	144,653	-0,092	0,087
-172,169	-53,458	-0,070	-0,022
-171,154	233,535	-0,051	0,060
-170,139	800,000	-0,020	-0,051
-169,125	-27,104	0,114	0,047
-168,110	219,959	0,062	0,070
-167,096	313,096	-0,009	-0,012
-166,081	-106,308	-0,078	0,012
-165,066	43,744	-0,102	0,066
-164,052	119,023	-0,034	-0,029
-163,037	800,000	0,049	0,113
-162,023	568,472	-0,033	0,057
-161,008	-147,793	0,045	0,003
-159,993	-1,976	0,055	-0,027
-158,979	243,274	-0,052	-0,062
-157,964	546,230	-0,037	0,063
-156,950	-200,000	-0,002	-0,047
-155,935	424,835	0,026	0,040
-154,920	29,103	0,028	-0,017
-153,906	159,344	0,036	0,035
-152,891	119,937	0,099	-0,087
-151,877	628,359	-0,028	-0,051
-150,862	-37,103	0,068	0,026
-149,847	31,808	0,039	0,024
-148,833	-21,662	-0,025	0,011
-147,818	111,064	-0,052	0,044
-146,804	-200,000	0,013	0,051
-145,789	800,000	-0,071	0,143
-144,775	-169,697	0,037	-0,001
-143,760	-104,967	-0,081	-0,013
-142,745	100,394	0,068	-0,056
-141,731	800,000	0,042	0,130
-140,716	-200,000	-0,021	-0,068
-139,702	800,000	-0,026	0,070
-138,687	-200,000	0,014	0,050
-137,672	-200,000	0,001	-0,018
-136,658	800,000	0,012	-0,028
-135,643	-54,104	-0,066	0,021
-134,629	-51,651	0,051	-0,017
-133,614	54,615	0,121	0,082
-132,599	-183,488	-0,060	-0,001
-131,585	-200,000	-0,004	0,051
-130,570	-62,096	-0,012	-0,003
-129,556	-200,000	-0,027	-0,137
-128,541	768,591	0,033	-0,064
-127,526	192,067	-0,070	-0,075
-126,512	307,886	0,149	-0,197
-125,497	-3,865	0,069	0,034
-124,483	102,016	-0,076	0,063
-123,468	800,000	-0,024	-0,066
-122,453	110,831	-0,027	0,023
-121,439	-200,000	-0,017	0,085
-120,424	-200,000	0,025	-0,086
-119,410	73,523	-0,035	-0,026
-118,395	-200,000	0,005	0,106
-117,380	-170,351	-0,027	0,001
-116,366	192,912	0,094	0,101
-115,351	26,167	-0,074	-0,044
-114,337	-200,000	-0,026	-0,122
-113,322	3,604	0,058	0,030
-112,307	197,488	0,091	-0,098
-111,293	350,691	0,017	-0,024
-110,278	-100,097	0,057	0,010
-109,264	-45,173	0,069	-0,024
-108,249	26,771	-0,131	0,078
-107,234	-85,508	0,059	-0,013
-106,220	-200,000	0,023	-0,131
-105,205	17,674	-0,073	0,041
-104,191	-20,670	0,074	0,032
-103,176	84,212	0,131	-0,101
-102,162	5,001	-0,079	-0,041
-101,147	-111,856	0,089	-0,013
-100,132	320,448	-0,087	-0,117
-99,118	590,067	-0,049	-0,086
-98,103	29,901	-0,014	-0,008
-97,089	800,000	0,061	0,177
-96,074	34,704	0,128	0,079
-95,059	-200,000	0,005	0,018
-94,045	-200,000	-0,056	-0,180
-93,030	-200,000	0,029	-0,162
-92,016	-200,000	0,023	-0,100
-91,001	11,277	0,125	-0,067
-89,986	800,000	0,060	0,148
-88,972	380,802	-0,074	0,108
-87,957	679,640	0,039	0,072
-86,943	-104,790	-0,042	0,007
-85,928	341,053	0,058	-0,081
-84,913	68,532	-0,077	0,056
-83,899	-141,944	0,100	0,007
-82,884	800,000	0,030	0,086
-81,870	-200,000	0,013	0,064
-80,855	189,503	-0,128	0,136
-79,840	800,000	0,041	-0,084
-78,826	145,921	-0,044	0,042
-77,811	-6,039	-0,100	-0,048
-76,797	711,317	0,057	-0,107
-75,782	-15,627	0,090	0,041
-74,767	800,000	0,028	0,063
-73,753	800,000	0,014	-0,032
-72,738	800,000	0,017	0,053
-71,724	214,046	-0,142	-0,159
-70,709	800,000	0,020	-0,058
-69,694	-200,000	-0,059	-0,195
-68,680	800,000	0,056	0,116
-67,665	800,000	-0,032	-0,088
-66,651	-200,000	0,019	0,103
-65,636	-200,000	0,002	0,100
-64,622	-37,929	-0,069	0,026
-63,607	-113,865	0,119	0,016
-62,592	356,992	-0,058	-0,082
-61,578	-200,000	-0,010	0,049
-60,563	-200,000	0,008	-0,094
-59,549	352,688	-0,095	0,134
-58,534	59,021	-1,916	-1,329
-57,519	524,926	-1,125	-1,876
-56,505	-200,000	-0,342	-4,591
-55,490	416,470	0,779	1,178
-54,476	800,000	5,488	12,147
-53,461	-200,000	21,895	339,004
-52,446	800,000	759,377	2295,215
-51,432	532,279	1654,079	2773,081
-50,417	69,229	1652,344	1197,991
-49,403	16,600	1527,360	849,697
-48,388	10,784	1451,947	779,702
-47,373	19,072	1443,856	814,972
-46,359	14,117	1432,615	785,113
-45,344	9,074	1428,593	758,943
-44,330	9,031	1426,740	757,722
-43,315	8,998	1424,812	756,516
-42,300	9,018	1423,095	755,665
-41,286	9,025	1422,011	755,093
-40,271	9,021	1420,532	754,260
-39,257	9,014	1419,579	753,693
-38,242	9,024	1418,401	753,084
-37,227	9,044	1417,166	752,492
-36,213	9,047	1415,893	751,800
-35,198	9,033	1414,878	751,166
-34,184	9,057	1413,792	750,671
-33,169	8,965	1412,485	749,516
-32,154	9,023	1411,325	749,145
-31,140	9,016	1410,149	748,456
-30,125	9,065	1408,961	748,024
-29,111	9,047	1408,073	747,442
-28,096	9,019	1406,753	746,578
-27,082	8,955	1405,567	745,622
-26,067	8,947	1404,535	745,005
-25,052	8,950	1403,440	744,409
-24,038	8,990	1402,502	744,068
-23,023	9,001	1401,447	743,531
-22,009	8,956	1400,507	742,794
-20,994	8,915	1399,518	742,049
-19,979	8,938	1398,781	741,737
-18,965	8,930	1397,794	741,144
-17,950	8,908	1396,750	740,460
-16,936	8,866	1395,974	739,823
-15,921	8,861	1394,951	739,228
-14,906	8,893	1393,929	738,808
-13,892	8,929	1392,765	738,328
-12,877	8,922	1392,188	737,959
-11,863	8,909	1391,514	737,512
-10,848	8,844	1390,430	736,608
-9,833	8,813	1389,693	736,048
-8,819	8,821	1388,839	735,600
-7,804	8,781	1387,746	734,807
-6,790	8,797	1386,562	734,228
-5,775	8,834	1385,578	733,845
-4,760	8,832	1384,725	733,356
-3,746	8,806	1383,758	732,698
-2,731	8,805	1382,762	732,136
-1,717	8,824	1382,060	731,821
-0,702	8,830	1380,137	730,801
0,313	12,804	1291,655	702,045
1,327	28,729	683,132	407,079
2,342	44,904	117,778	76,335
3,356	-0,761	16,571	8,254
4,371	3,141	3,745	1,914
5,386	-9,942	1,444	0,674
6,400	-200,000	0,094	0,659
7,415	64,633	-0,164	0,117
8,429	19,175	-0,295	-0,166
9,444	116,649	-0,224	-0,194
10,459	31,592	-0,276	-0,167
11,473	32,866	-0,308	-0,188
12,488	-10,927	-0,222	0,103
13,502	48,282	-0,313	-0,206
14,517	47,266	-0,272	-0,178
15,531	167,512	-0,381	-0,381
16,546	72,972	-0,274	-0,201
17,561	370,730	-0,299	-0,429
18,575	207,465	-0,186	-0,205
19,590	-12,471	-0,242	-0,111
20,604	-57,130	-0,265	-0,082
21,619	57,483	-0,433	-0,297
22,634	3,961	-0,528	-0,271
23,648	82,495	-0,487	-0,372
24,663	107,320	-0,449	-0,375
25,677	369,554	-0,186	-0,266
26,692	111,514	-0,436	-0,370
27,707	151,606	-0,285	-0,274
28,721	471,122	-0,307	-0,488
29,736	-40,357	-0,290	-0,106
30,750	26,643	-0,430	-0,252
31,765	-87,291	-0,460	-0,097
32,780	120,542	-0,353	-0,308
33,794	210,504	-0,250	-0,277
34,809	89,709	-0,366	-0,287
35,823	104,951	-0,338	-0,280
36,838	19,230	-0,411	-0,231
37,853	382,021	-0,220	-0,319
38,867	100,958	-0,360	-0,294
39,882	-128,240	-0,304	-0,030
40,896	39,859	-0,288	-0,181
41,911	-11,118	-0,349	-0,161
42,926	-21,486	-0,397	-0,169
43,940	193,681	-0,380	-0,405
44,955	72,464	-0,356	-0,261
45,969	81,584	-0,217	-0,165
46,984	208,072	-0,290	-0,319
47,999	123,676	-0,202	-0,178
49,013	103,919	-0,315	-0,260
50,028	-59,395	-0,376	-0,113
51,042	31,383	-0,286	-0,172
52,057	-63,888	-0,515	-0,147
53,071	86,144	-0,328	-0,254
54,086	135,335	-0,204	-0,187
55,101	164,425	-0,302	-0,299
56,115	111,700	-0,296	-0,250
57,130	20,158	-0,397	-0,224
58,144	104,405	-0,329	-0,272
59,159	85,425	-0,256	-0,197
60,174	92,518	-0,345	-0,273
61,188	97,420	-0,240	-0,193
62,203	122,999	-0,390	-0,342
63,217	18,003	-0,249	-0,139
64,232	-5,847	-0,316	-0,151
65,247	-37,897	-0,359	-0,133
66,261	61,425	-0,330	-0,230
67,276	46,645	-0,401	-0,261
68,290	27,495	-0,368	-0,217
69,305	-3,578	-0,359	-0,174
70,320	286,181	-0,181	-0,230
71,334	2,322	-0,366	-0,185
72,349	85,670	-0,270	-0,208
73,363	73,343	-0,355	-0,260
74,378	-58,609	-0,401	-0,121
75,393	-38,479	-0,401	-0,148
76,407	-42,263	-0,292	-0,104
77,422	6,947	-0,224	-0,117
78,436	337,833	-0,043	-0,059
79,451	-110,901	-0,325	-0,046
80,466	84,654	-0,219	-0,168
81,480	68,071	-0,439	-0,315
82,495	-72,291	-0,381	-0,098
83,509	3,939	-0,324	-0,165
84,524	285,874	-0,165	-0,209
85,539	130,112	-0,227	-0,203
86,553	588,970	-0,126	-0,218
87,568	-35,147	-0,443	-0,168
88,582	95,133	-0,207	-0,165
89,597	86,939	-0,332	-0,257
90,611	23,518	-0,262	-0,150
91,626	210,287	-0,154	-0,169
92,641	51,766	-0,242	-0,161
93,655	50,436	-0,346	-0,228
94,670	53,374	-0,174	-0,117
95,684	280,052	-0,180	-0,225
96,699	255,260	-0,274	-0,329
97,714	701,613	-0,181	-0,336
98,728	-20,963	-0,175	-0,074
99,743	-101,072	-0,300	-0,051
100,757	194,195	-0,155	-0,165
101,772	115,601	-0,303	-0,259
102,787	182,957	-0,248	-0,256
103,801	-75,926	-0,320	-0,078
104,816	42,340	-0,325	-0,206
105,830	800,000	-0,072	-0,205
106,845	116,004	-0,159	-0,136
107,860	536,903	-0,166	-0,277
108,874	-86,783	-0,239	-0,051
109,889	-18,658	-0,365	-0,158
110,903	63,232	-0,252	-0,176
111,918	-51,694	-0,362	-0,117
112,933	27,914	-0,209	-0,123
113,947	370,626	-0,121	-0,171
114,962	-119,522	-0,223	-0,027
115,976	-1,759	-0,380	-0,186
116,991	227,697	-0,183	-0,208
118,006	-11,724	-0,419	-0,192
119,020	170,600	-0,221	-0,221
120,035	-149,702	-0,104	-0,006
121,049	63,098	-0,160	-0,112
122,064	2,967	-0,114	-0,058
123,079	45,855	-0,340	-0,219
124,093	16,544	-0,231	-0,127
125,108	-29,177	-0,208	-0,083
126,122	-92,439	-0,412	-0,080
127,137	183,660	-0,117	-0,121
128,151	-82,995	-0,335	-0,075
129,166	119,726	-0,194	-0,167
130,181	189,744	-0,265	-0,278
131,195	69,983	-0,255	-0,183
132,210	-9,269	-0,403	-0,187
133,224	18,326	-0,183	-0,102
134,239	-111,615	-0,264	-0,037
135,254	-76,676	-0,300	-0,073
136,268	114,649	-0,214	-0,182
137,283	-56,428	-0,422	-0,130
138,297	102,881	-0,231	-0,188
139,312	288,241	-0,205	-0,259
140,327	60,612	-0,237	-0,163
141,341	58,867	-0,222	-0,152
142,356	0,064	-0,165	-0,082
143,370	800,000	-0,110	-0,215
144,385	16,256	-0,198	-0,109
145,400	259,487	-0,153	-0,184
146,414	91,252	-0,285	-0,223
147,429	156,879	-0,239	-0,230
148,443	28,061	-0,149	-0,087
149,458	524,317	-0,166	-0,273
150,473	142,814	-0,233	-0,216
151,487	-97,306	-0,250	-0,045
152,502	-114,656	-0,276	-0,036
153,516	166,240	-0,205	-0,202
154,531	30,617	-0,293	-0,174
155,546	105,488	-0,196	-0,161
156,560	45,917	-0,175	-0,112
157,575	392,146	-0,236	-0,342
158,589	-140,334	-0,246	0,018
159,604	-106,375	-0,332	-0,051
160,619	18,818	-0,235	-0,131
161,633	214,041	-0,155	-0,170
162,648	104,192	-0,261	-0,213
163,662	102,166	-0,173	-0,140
164,677	7,734	-0,253	-0,131
165,692	-61,700	-0,088	-0,026
166,706	-38,034	-0,362	-0,133
167,721	94,132	-0,234	-0,185
168,735	-56,405	-0,324	-0,099
169,750	57,470	-0,233	-0,158
170,764	800,000	-0,083	-0,164
171,779	122,180	-0,164	-0,142
172,794	3,955	-0,267	-0,135
173,808	-85,574	-0,359	-0,077
174,823	-9,063	-0,355	-0,164
175,837	92,352	-0,323	-0,253
176,852	-12,481	-0,177	-0,080
177,867	528,580	-0,113	-0,186
178,881	12,872	-0,150	-0,081
179,896	800,000	-0,057	-0,161
180,910	-91,034	-0,109	-0,022
181,925	443,722	-0,138	-0,210
182,940	60,601	-0,327	-0,224
183,954	179,976	-0,278	-0,283
184,969	128,762	-0,153	-0,136
185,983	40,264	-0,259	-0,161
186,998	67,322	-0,190	-0,135
188,013	118,129	-0,159	-0,136
189,027	194,277	-0,173	-0,182
190,042	480,613	-0,190	-0,300
191,056	-97,828	-0,077	-0,014
192,071	252,811	-0,110	-0,131
193,086	-120,464	-0,206	-0,024
194,100	203,993	-0,178	-0,191
195,115	166,042	-0,155	-0,152
196,129	100,421	-0,149	-0,120
197,144	15,593	-0,202	-0,110
198,159	140,800	-0,262	-0,240
199,173	118,446	-0,189	-0,162
200,188	37,292	-0,136	-0,083
201,202	193,696	-0,210	-0,220
202,217	-33,857	-0,211	-0,080
203,232	5,217	-0,109	-0,055
204,246	-33,098	-0,270	-0,103
205,261	21,633	-0,188	-0,106
206,275	144,121	-0,152	-0,141
207,290	-61,322	-0,214	-0,062
208,304	-104,285	-0,180	-0,029
209,319	59,546	-0,275	-0,188
210,334	168,545	-0,164	-0,162
211,348	-16,885	-0,259	-0,113
212,363	146,899	-0,202	-0,188
213,377	64,035	-0,180	-0,125
214,392	-15,587	-0,222	-0,097
215,407	-24,588	-0,156	0,064
216,421	-85,058	-0,221	0,047
217,436	8,638	-0,285	-0,148
218,450	-82,295	-0,297	-0,066
219,465	-130,652	-0,229	-0,021
220,480	-16,708	-0,257	-0,112
221,494	281,959	-0,110	-0,137
222,509	260,144	-0,147	-0,177
223,523	75,204	-0,102	-0,074
224,538	119,211	-0,213	-0,182
225,553	129,153	-0,179	-0,158
226,567	-12,424	-0,346	-0,156
227,582	273,468	-0,235	-0,288
228,596	86,675	-0,146	-0,111
229,611	-46,847	-0,200	-0,067
230,626	-136,014	-0,261	-0,021
231,640	-84,362	-0,222	-0,048
232,655	-200,000	0,010	-0,036
233,669	411,263	-0,142	-0,209
234,684	780,973	-0,087	-0,165
235,699	-137,098	-0,162	-0,013
236,713	-62,548	-0,242	-0,069
237,728	0,124	-0,197	-0,097
238,742	-23,046	-0,102	-0,042
239,757	-57,877	-0,223	-0,067
240,772	416,316	-0,137	-0,202
241,786	800,000	-0,076	-0,187
242,801	245,428	-0,124	-0,144
243,815	5,015	-0,306	-0,155
244,830	162,384	-0,162	-0,157
245,844	-86,473	-0,170	-0,036
246,859	117,425	-0,108	-0,092
247,874	76,492	-0,215	-0,157
248,888	26,059	-0,280	-0,161
249,903	19,559	-0,151	-0,084
250,917	800,000	-0,046	-0,107
251,932	266,820	-0,087	-0,105
252,947	-27,986	-0,131	-0,052
253,961	198,120	-0,249	-0,263
254,976	153,806	-0,220	-0,208
255,990	800,000	-0,187	-0,405
257,005	-15,566	-0,175	-0,077
258,020	-30,571	-0,174	-0,068
259,034	41,475	-0,122	-0,076
260,049	361,296	-0,097	-0,134
261,063	-10,867	-0,180	0,082
262,078	-129,017	-0,231	-0,022
263,093	-15,588	-0,229	-0,100
264,107	800,000	-0,058	-0,144
265,122	-42,031	-0,186	-0,065
266,136	146,389	-0,178	-0,165
267,151	26,604	-0,105	-0,061
268,166	26,684	-0,246	-0,141
269,180	627,037	-0,189	-0,329
270,195	325,511	-0,142	-0,187
271,209	-43,930	-0,235	-0,081
272,224	-80,951	-0,144	-0,033
273,239	450,482	-0,093	-0,142
274,253	-18,253	-0,121	-0,052
275,268	800,000	-0,089	-0,178
276,282	-42,514	-0,235	-0,082
277,297	88,463	-0,169	-0,129
278,312	85,684	-0,150	-0,113
279,326	-55,775	-0,140	-0,043
280,341	169,725	-0,159	-0,157
281,355	82,822	-0,162	-0,121
282,370	169,317	-0,175	-0,172
283,384	639,459	-0,113	-0,199
284,399	-136,091	-0,247	0,020
285,414	289,013	-0,163	-0,204
286,428	-22,642	-0,163	-0,067
287,443	800,000	0,033	-0,096
288,457	269,313	-0,080	-0,097
289,472	97,930	-0,079	-0,063
290,487	-92,546	-0,091	0,017
291,501	-5,997	-0,400	-0,187
292,516	68,141	-0,206	-0,145
293,530	24,798	-0,071	-0,040
294,545	215,243	-0,119	-0,130
295,560	-179,453	-0,127	0,002
296,574	-91,424	-0,228	-0,044
297,589	13,796	-0,149	0,080
298,603	-76,482	-0,119	-0,029
299,618	146,903	-0,200	-0,185
300,633	-74,112	-0,099	0,025
301,647	294,386	-0,074	-0,093
302,662	800,000	-0,056	0,144
303,676	255,084	-0,111	-0,131
304,691	53,150	-0,149	-0,098
305,706	-76,495	-0,268	-0,064
306,720	-100,691	-0,309	-0,052
307,735	625,453	-0,057	-0,099
308,749	-138,869	-0,176	0,013
309,764	-139,718	-0,136	-0,010
310,779	800,000	-0,045	0,094
311,793	-99,381	-0,189	-0,032
312,808	186,858	-0,167	-0,171
313,822	402,465	-0,032	-0,046
314,837	67,680	-0,116	-0,081
315,852	-103,351	-0,195	-0,031
316,866	27,194	-0,094	-0,054
317,881	-43,766	-0,082	-0,028
318,895	-8,926	-0,198	-0,091
319,910	268,872	-0,108	-0,130
320,925	349,807	-0,080	-0,109
321,939	80,992	-0,179	-0,132
322,954	-157,657	0,062	-0,002
323,968	22,024	-0,044	0,024
324,983	-181,405	-0,140	-0,002
325,997	59,121	-0,087	-0,058
327,012	-172,678	-0,144	-0,003
328,027	290,726	-0,083	-0,104
329,041	154,700	-0,082	-0,078
330,056	-5,799	-0,203	-0,095
331,070	-121,277	-0,112	-0,013
332,085	282,692	-0,143	-0,176
333,100	190,929	-0,136	-0,140
334,114	-126,112	-0,127	-0,013
335,129	282,628	-0,163	-0,200
336,143	101,022	-0,169	-0,135
337,158	-30,732	-0,146	0,056
338,173	628,558	-0,119	-0,207
339,187	-42,018	-0,120	-0,042
340,202	800,000	-0,065	-0,138
341,216	135,736	-0,108	-0,097
342,231	-35,878	-0,057	-0,021
343,246	-112,270	-0,261	-0,035
344,260	787,770	-0,091	-0,171
345,275	800,000	-0,027	-0,055
346,289	474,057	-0,063	-0,098
347,304	-36,116	-0,211	-0,078
348,319	-200,000	-0,026	-0,191
349,333	-200,000	-0,045	-0,148
350,348	-121,415	-0,141	-0,016
351,362	170,700	-0,143	-0,140
352,377	-138,403	-0,141	0,011
353,392	-65,665	-0,199	-0,054
354,406	-119,704	-0,150	-0,017
355,421	206,793	1310,795	1398,382
356,435	159,046	1471,005	1398,824
