DTS Sentinel unit serial number:	SN410029Multiplexer serial number:	ORYXHardware model number:	OX2-SRSoftware version number:	ORYX F/W v4,00 Oryx Data Collector v3.7.2.0data status	okinstallation	B3 Nyhavnadifferential loss correction	single-endedforward channel	channel 1reverse channel	N/Adate	2023/11/30time	10:12:30forward acquisition time	300,00reverse acquisition time	0,00gamma	499,1914k internal	0,3211k external	0,3211temperature offset calibration	1,0000default loss term (dB/km)	0,3820temperature slope calibration	1,0000multiplexer offset coefficient	1,0000multiplexer slope coefficient	1,0000fibre end	0,00T internal ref (°C)	9,57T ext. ref 1 (°C)	-5,27T ext. ref 2 (°C)	-5,37length (m)	temperature (°C)	Stokes	anti-Stokes-744,400	800,000	-0,108	-0,229
-743,385	570,083	-0,096	0,170
-742,371	505,355	-0,126	-0,212
-741,356	-200,000	-0,033	0,261
-740,342	235,632	-0,196	-0,236
-739,327	800,000	-0,061	0,151
-738,312	225,182	-0,283	-0,333
-737,298	800,000	-0,076	0,178
-736,283	-10,597	-0,314	-0,150
-735,269	43,677	0,132	0,087
-734,254	45,684	-0,254	-0,170
-733,239	-22,238	-0,145	-0,064
-732,225	-200,000	-0,062	-0,255
-731,210	450,394	0,124	0,199
-730,196	-200,000	0,021	-0,087
-729,181	-87,105	-0,086	0,019
-728,167	74,968	-0,119	-0,091
-727,152	-44,086	0,068	0,025
-726,137	105,363	-0,039	-0,034
-725,123	-74,113	-0,067	-0,018
-724,108	-64,802	-0,189	-0,055
-723,094	-200,000	0,016	-0,096
-722,079	-34,730	-0,048	0,019
-721,064	99,086	0,079	-0,066
-720,050	588,472	-0,093	-0,166
-719,035	-140,818	0,114	0,008
-718,021	14,224	-0,111	-0,062
-717,006	62,665	-0,141	-0,102
-715,991	-175,419	-0,132	-0,003
-714,977	-200,000	-0,002	-0,025
-713,962	66,338	-0,083	-0,061
-712,948	234,479	-0,018	0,022
-711,933	17,675	-0,229	0,131
-710,918	-152,293	-0,098	0,005
-709,904	800,000	-0,045	-0,116
-708,889	-200,000	-0,008	-0,080
-707,875	-200,000	0,000	-0,080
-706,860	640,158	-0,065	-0,120
-705,845	-200,000	0,026	0,123
-704,831	-113,512	-0,051	0,007
-703,816	-116,242	0,055	0,007
-702,802	800,000	-0,053	-0,154
-701,787	264,323	-0,079	0,100
-700,772	233,692	0,032	-0,038
-699,758	-14,085	0,068	-0,032
-698,743	800,000	-0,037	0,084
-697,729	800,000	0,028	0,082
-696,714	-34,822	0,216	0,085
-695,699	-123,065	-0,036	-0,004
-694,685	-75,562	-0,045	-0,012
-693,670	11,295	-0,116	0,064
-692,656	800,000	-0,072	-0,180
-691,641	800,000	0,032	-0,071
-690,627	-30,363	0,052	0,021
-689,612	-114,762	-0,149	-0,020
-688,597	67,281	-0,040	-0,030
-687,583	-200,000	-0,045	-0,245
-686,568	-123,094	-0,038	-0,004
-685,554	303,582	-0,060	-0,080
-684,539	89,364	-0,072	-0,058
-683,524	-2,074	-0,049	0,025
-682,510	393,679	-0,056	0,085
-681,495	-39,164	-0,104	-0,039
-680,481	-200,000	-0,026	-0,095
-679,466	122,877	-0,035	0,032
-678,451	301,832	0,043	-0,058
-677,437	254,781	0,049	-0,061
-676,422	56,052	0,071	-0,050
-675,408	163,091	-0,056	-0,056
-674,393	-200,000	0,019	-0,105
-673,378	421,155	-0,109	-0,170
-672,364	525,359	-0,045	-0,077
-671,349	68,331	-0,029	-0,021
-670,335	-40,337	-0,046	-0,017
-669,320	-172,710	0,149	-0,003
-668,305	-200,000	-0,001	-0,063
-667,291	-76,498	-0,107	-0,027
-666,276	34,409	0,024	-0,015
-665,262	-200,000	-0,030	-0,178
-664,247	-200,000	-0,018	-0,187
-663,232	-70,643	0,062	0,017
-662,218	-200,000	-0,023	0,127
-661,203	-105,907	-0,075	0,012
-660,189	215,793	0,103	-0,118
-659,174	551,229	-0,080	-0,140
-658,159	-200,000	-0,009	-0,074
-657,145	-200,000	-0,020	0,077
-656,130	-145,934	-0,032	-0,002
-655,116	800,000	-0,010	-0,024
-654,101	-200,000	-0,024	-0,108
-653,086	96,225	-0,110	0,091
-652,072	800,000	-0,044	-0,127
-651,057	-149,589	-0,120	-0,007
-650,043	-200,000	-0,024	-0,085
-649,028	-200,000	0,009	-0,099
-648,014	287,288	0,049	0,064
-646,999	4,416	-0,013	0,007
-645,984	774,045	-0,026	-0,052
-644,970	231,941	-0,122	0,144
-643,955	-200,000	0,028	-0,135
-642,941	-63,351	-0,039	0,011
-641,926	800,000	0,014	0,046
-640,911	800,000	-0,059	0,120
-639,897	800,000	0,034	0,101
-638,882	-200,000	0,007	-0,097
-637,868	-40,650	-0,071	-0,026
-636,853	800,000	0,044	-0,108
-635,838	288,086	0,053	0,069
-634,824	-126,928	0,111	0,012
-633,809	115,029	-0,043	-0,038
-632,795	800,000	0,080	0,194
-631,780	-121,396	0,056	-0,007
-630,765	111,027	-0,057	0,049
-629,751	-189,333	-0,059	0,000
-628,736	-142,557	-0,044	-0,003
-627,722	800,000	-0,041	0,129
-626,707	-190,094	0,036	-0,000
-625,692	280,126	0,038	0,050
-624,678	-88,295	-0,060	-0,013
-623,663	-169,844	0,151	-0,004
-622,649	523,508	-0,044	-0,074
-621,634	99,462	-0,069	-0,058
-620,619	400,919	0,060	-0,091
-619,605	53,994	0,036	0,025
-618,590	-103,822	0,119	-0,020
-617,576	-200,000	-0,011	0,049
-616,561	673,505	0,044	-0,083
-615,546	38,119	-0,128	0,082
-614,532	-93,321	0,122	-0,024
-613,517	346,147	0,030	0,043
-612,503	800,000	0,034	0,084
-611,488	-200,000	-0,019	0,100
-610,474	39,742	0,079	0,051
-609,459	27,469	0,060	-0,037
-608,444	76,746	-0,125	-0,096
-607,430	-200,000	-0,015	-0,105
-606,415	266,360	-0,032	0,041
-605,401	-70,981	0,052	-0,014
-604,386	-200,000	0,001	0,049
-603,371	-34,787	-0,060	-0,024
-602,357	138,038	0,098	0,093
-601,342	-200,000	-0,001	0,060
-600,328	-44,826	-0,033	0,012
-599,313	-170,316	-0,093	-0,002
-598,298	-200,000	0,029	-0,093
-597,284	2,794	-0,170	-0,088
-596,269	-200,000	0,004	-0,036
-595,255	-200,000	-0,031	0,185
-594,240	514,859	-0,043	-0,072
-593,225	-200,000	-0,015	-0,097
-592,211	41,498	-0,029	-0,019
-591,196	-200,000	-0,017	-0,208
-590,182	-200,000	-0,023	0,130
-589,167	304,478	0,094	0,126
-588,152	241,630	-0,033	-0,039
-587,138	-200,000	-0,019	-0,089
-586,123	-200,000	0,001	-0,091
-585,109	-200,000	-0,022	-0,109
-584,094	378,141	0,071	-0,105
-583,079	-200,000	0,027	0,102
-582,065	-74,725	-0,170	-0,044
-581,050	-200,000	0,011	-0,086
-580,036	59,449	-0,095	-0,067
-579,021	290,863	0,043	0,056
-578,006	-111,217	-0,037	0,005
-576,992	-34,212	0,049	-0,019
-575,977	4,750	0,092	-0,049
-574,963	-200,000	-0,013	0,084
-573,948	61,232	-0,189	0,135
-572,934	34,274	-0,201	-0,126
-571,919	-39,878	0,035	-0,013
-570,904	103,874	-0,029	-0,024
-569,890	-200,000	-0,034	-0,137
-568,875	-96,664	0,065	0,012
-567,861	800,000	-0,037	-0,112
-566,846	-200,000	0,004	0,033
-565,831	-148,595	-0,180	0,010
-564,817	-83,907	-0,133	0,030
-563,802	24,162	-0,192	-0,114
-562,788	800,000	0,047	0,105
-561,773	-195,100	0,073	-0,000
-560,758	60,028	0,173	0,123
-559,744	-200,000	0,021	0,171
-558,729	-200,000	0,017	0,079
-557,715	-200,000	0,003	-0,068
-556,700	-200,000	-0,024	-0,209
-555,685	-200,000	0,011	-0,195
-554,671	-126,910	0,071	-0,007
-553,656	-198,937	0,097	0,000
-552,642	-200,000	-0,022	0,085
-551,627	-34,544	-0,086	-0,034
-550,612	7,885	-0,105	0,056
-549,598	138,454	-0,077	-0,073
-548,583	245,801	-0,032	0,039
-547,569	-200,000	-0,022	-0,099
-546,554	63,716	0,059	-0,043
-545,539	229,690	0,064	0,075
-544,525	-200,000	-0,014	0,048
-543,510	-200,000	-0,021	0,094
-542,496	-200,000	0,003	-0,029
-541,481	314,392	-0,095	0,130
-540,466	-112,202	0,112	-0,016
-539,452	-79,255	0,046	-0,011
-538,437	-123,651	-0,057	0,006
-537,423	-200,000	0,034	0,110
-536,408	35,952	0,147	-0,093
-535,393	658,653	-0,055	-0,103
-534,379	-200,000	0,008	0,034
-533,364	-98,470	-0,103	-0,019
-532,350	77,315	-0,059	-0,045
-531,335	800,000	0,068	0,190
-530,321	-24,868	-0,059	0,025
-529,306	52,498	0,096	-0,066
-528,291	-200,000	0,014	-0,079
-527,277	-3,996	-0,103	0,051
-526,262	405,119	-0,042	0,064
-525,248	-200,000	-0,031	0,175
-524,233	-180,298	0,129	0,002
-523,218	96,225	-0,030	-0,025
-522,204	-200,000	0,025	0,106
-521,189	170,679	0,094	0,096
-520,175	-98,432	0,009	0,002
-519,160	543,273	-0,071	-0,123
-518,145	-200,000	0,002	-0,105
-517,131	2,502	-0,006	-0,003
-516,116	800,000	0,031	-0,085
-515,102	-200,000	-0,010	-0,055
-514,087	799,591	0,029	-0,058
-513,072	-150,126	-0,064	-0,004
-512,058	246,344	-0,043	-0,053
-511,043	82,597	-0,035	0,027
-510,029	51,211	0,089	-0,061
-509,014	-52,863	0,105	0,034
-507,999	800,000	-0,048	0,131
-506,985	180,968	0,024	-0,025
-505,970	65,505	-0,034	0,025
-504,956	-200,000	0,007	-0,027
-503,941	-200,000	0,006	0,121
-502,926	-200,000	0,025	0,126
-501,912	-200,000	0,000	0,228
-500,897	550,853	-0,043	0,074
-499,883	-115,209	-0,153	-0,021
-498,868	-200,000	0,006	0,123
-497,853	55,184	0,031	-0,021
-496,839	-29,568	0,028	-0,012
-495,824	-115,158	0,114	-0,015
-494,810	-155,338	-0,074	0,003
-493,795	-38,685	0,069	0,026
-492,781	-200,000	-0,000	0,039
-491,766	49,289	-0,108	-0,073
-490,751	-126,538	0,067	-0,007
-489,737	776,726	-0,043	0,084
-488,722	32,931	-0,090	0,056
-487,708	-133,719	0,096	0,008
-486,693	76,537	0,068	0,052
-485,678	-200,000	-0,009	0,030
-484,664	-200,000	-0,026	-0,175
-483,649	28,371	-0,166	0,100
-482,635	-200,000	0,007	0,097
-481,620	71,126	0,067	0,050
-480,605	101,719	-0,080	0,067
-479,591	325,943	-0,032	0,044
-478,576	-200,000	0,014	-0,061
-477,562	687,733	0,003	-0,006
-476,547	800,000	-0,031	-0,081
-475,532	-200,000	0,028	-0,115
-474,518	205,877	-0,055	-0,061
-473,503	107,573	0,031	0,026
-472,489	-200,000	-0,008	-0,047
-471,474	-200,000	-0,006	-0,046
-470,459	771,892	0,020	0,039
-469,445	436,684	-0,041	-0,065
-468,430	164,787	-0,046	-0,047
-467,416	-75,469	0,179	0,045
-466,401	-200,000	0,020	0,156
-465,386	488,309	0,077	0,127
-464,372	800,000	0,040	-0,114
-463,357	-200,000	-0,017	-0,081
-462,343	-200,000	-0,033	-0,148
-461,328	156,913	-0,108	-0,107
-460,313	248,978	0,051	-0,062
-459,299	800,000	-0,022	0,065
-458,284	178,153	0,006	-0,006
-457,270	-18,620	-0,031	-0,014
-456,255	-156,526	-0,068	0,003
-455,241	-200,000	0,007	-0,095
-454,226	33,922	-0,090	-0,056
-453,211	8,795	-0,152	0,082
-452,197	35,781	0,055	-0,034
-451,182	800,000	-0,039	0,114
-450,168	-200,000	0,015	0,131
-449,153	-51,738	-0,082	0,027
-448,138	133,834	0,044	0,041
-447,124	97,612	0,121	-0,100
-446,109	32,582	0,067	0,041
-445,095	235,639	0,048	0,057
-444,080	9,267	0,122	0,066
-443,065	8,972	0,134	-0,073
-442,051	800,000	-0,027	-0,074
-441,036	800,000	0,077	-0,172
-440,022	671,550	-0,044	-0,081
-439,007	71,522	0,051	0,038
-437,992	36,005	0,061	0,039
-436,978	-200,000	-0,018	0,097
-435,963	-75,193	-0,078	0,020
-434,949	-95,184	0,118	-0,023
-433,934	-35,298	-0,078	-0,030
-432,919	54,053	-0,207	0,142
-431,905	8,517	0,090	-0,048
-430,890	-12,811	0,019	0,009
-429,876	-200,000	0,003	-0,049
-428,861	-200,000	-0,029	0,093
-427,846	483,829	-0,058	0,095
-426,832	464,593	-0,069	-0,111
-425,817	-13,864	-0,100	0,046
-424,803	222,722	-0,058	0,067
-423,788	-73,453	0,155	0,040
-422,773	58,764	0,086	0,061
-421,759	-121,383	0,098	0,011
-420,744	-72,040	0,100	-0,027
-419,730	465,658	0,050	-0,080
-418,715	-7,164	-0,053	-0,026
-417,701	-200,000	0,004	-0,061
-416,686	-200,000	0,015	0,131
-415,671	-97,466	-0,032	-0,006
-414,657	38,767	0,062	0,040
-413,642	-131,810	-0,060	-0,006
-412,628	-200,000	-0,023	-0,209
-411,613	204,231	-0,019	-0,021
-410,598	-200,000	-0,003	0,019
-409,584	235,258	0,054	-0,064
-408,569	290,029	0,043	0,056
-407,555	-200,000	0,003	-0,091
-406,540	-200,000	-0,003	-0,088
-405,525	-144,689	0,136	-0,009
-404,511	800,000	-0,028	-0,063
-403,496	110,793	0,121	0,104
-402,482	800,000	0,022	-0,069
-401,467	-98,084	0,106	0,019
-400,452	319,909	-0,053	0,072
-399,438	-133,953	-0,134	-0,012
-398,423	67,507	0,055	-0,040
-397,409	615,119	-0,052	-0,093
-396,394	263,234	-0,087	-0,108
-395,379	-200,000	0,018	0,080
-394,365	800,000	0,037	-0,084
-393,350	435,931	0,049	0,076
-392,336	175,666	-0,064	-0,067
-391,321	-108,189	0,087	-0,013
-390,306	-200,000	-0,016	-0,104
-389,292	-200,000	0,018	0,092
-388,277	-83,493	0,014	-0,003
-387,263	800,000	-0,014	0,030
-386,248	800,000	0,024	-0,059
-385,233	-200,000	0,002	0,076
-384,219	-35,969	0,052	0,020
-383,204	-39,237	-0,060	-0,022
-382,190	196,485	-0,064	-0,070
-381,175	-48,427	-0,125	0,043
-380,160	16,840	0,132	-0,075
-379,146	183,677	-0,029	0,030
-378,131	-68,857	0,051	0,014
-377,117	-29,118	-0,029	-0,012
-376,102	800,000	0,028	0,063
-375,088	520,118	0,059	0,098
-374,073	534,046	-0,062	0,105
-373,058	75,856	-0,035	-0,027
-372,044	-109,016	0,047	-0,007
-371,029	2,849	0,159	0,082
-370,015	-200,000	0,004	-0,083
-369,000	177,449	0,092	-0,096
-367,985	-21,978	-0,057	0,025
-366,971	103,155	-0,040	-0,034
-365,956	114,691	-0,125	0,109
-364,942	-200,000	-0,005	0,043
-363,927	251,823	0,105	-0,128
-362,912	-26,019	-0,073	-0,030
-361,898	2,260	0,101	0,052
-360,883	-2,980	-0,033	-0,017
-359,869	373,118	0,071	0,103
-358,854	-64,147	-0,067	0,019
-357,839	-200,000	-0,015	-0,146
-356,825	100,873	-0,074	-0,061
-355,810	-200,000	0,003	0,143
-354,796	-156,571	-0,143	-0,006
-353,781	-32,483	-0,065	0,026
-352,766	213,572	0,094	0,106
-351,752	-38,658	0,105	0,039
-350,737	-200,000	0,008	0,074
-349,723	-200,000	0,001	-0,007
-348,708	-85,029	0,028	-0,006
-347,693	-200,000	-0,027	-0,091
-346,679	38,568	-0,133	-0,084
-345,664	-200,000	-0,019	-0,078
-344,650	-200,000	-0,000	-0,002
-343,635	800,000	0,064	-0,151
-342,620	-29,093	-0,146	0,060
-341,606	737,155	0,071	0,137
-340,591	102,978	0,088	-0,073
-339,577	-151,198	-0,182	-0,010
-338,562	-200,000	0,011	0,058
-337,548	570,932	0,051	-0,089
-336,533	-124,819	0,102	0,011
-335,518	-200,000	-0,003	0,113
-334,504	800,000	-0,022	0,055
-333,489	800,000	0,064	0,134
-332,475	-9,185	-0,103	-0,049
-331,460	-35,226	-0,034	-0,013
-330,445	-200,000	0,006	-0,050
-329,431	-200,000	-0,011	0,165
-328,416	-168,324	0,094	0,003
-327,402	626,956	-0,061	0,110
-326,387	-105,275	0,068	-0,011
-325,372	307,228	-0,016	-0,022
-324,358	-200,000	-0,022	0,104
-323,343	634,651	0,048	-0,087
-322,329	800,000	-0,042	0,102
-321,314	152,201	-0,128	0,125
-320,299	271,878	0,067	-0,084
-319,285	-98,624	-0,072	-0,013
-318,270	459,627	0,055	0,087
-317,256	17,482	-0,078	0,044
-316,241	-200,000	0,022	0,099
-315,226	-38,745	0,167	0,062
-314,212	-132,836	-0,146	-0,013
-313,197	-94,556	-0,087	0,017
-312,183	800,000	-0,079	0,170
-311,168	-47,328	0,077	-0,027
-310,153	318,233	-0,087	-0,117
-309,139	24,197	0,116	-0,068
-308,124	279,001	-0,047	0,060
-307,110	137,489	0,076	-0,071
-306,095	-126,229	-0,074	0,008
-305,080	227,306	-0,066	0,076
-304,066	20,723	0,045	-0,026
-303,051	216,991	-0,098	0,112
-302,037	215,866	0,056	-0,064
-301,022	-137,831	0,067	0,005
-300,008	50,574	0,055	-0,037
-298,993	-162,719	-0,055	-0,002
-297,978	-152,814	0,106	-0,005
-296,964	414,195	-0,107	-0,163
-295,949	-108,121	-0,034	-0,005
-294,935	89,015	0,029	-0,023
-293,920	-136,353	-0,101	0,008
-292,905	194,517	0,080	0,086
-291,891	254,801	0,050	0,061
-290,876	-200,000	0,004	0,104
-289,862	151,403	0,038	-0,037
-288,847	506,104	-0,065	-0,107
-287,832	800,000	0,031	-0,088
-286,818	-39,109	0,092	0,034
-285,803	92,567	0,086	-0,069
-284,789	79,816	0,046	0,035
-283,774	68,573	-0,035	-0,026
-282,759	356,344	0,112	-0,160
-281,745	109,957	-0,032	0,028
-280,730	-98,901	0,073	-0,013
-279,716	-84,119	-0,042	0,009
-278,701	3,307	0,034	-0,018
-277,686	-100,851	0,148	0,026
-276,672	221,481	0,062	0,072
-275,657	-171,748	-0,125	0,003
-274,643	800,000	-0,024	-0,053
-273,628	-55,602	-0,068	-0,022
-272,613	126,898	0,041	-0,037
-271,599	34,822	-0,061	-0,038
-270,584	-150,482	0,023	-0,001
-269,570	-200,000	0,018	-0,135
-268,555	800,000	0,022	-0,057
-267,540	-200,000	-0,014	-0,067
-266,526	-108,525	-0,078	-0,012
-265,511	-200,000	-0,040	-0,148
-264,497	800,000	-0,035	0,091
-263,482	254,671	-0,059	0,072
-262,467	-82,425	-0,081	-0,019
-261,453	69,595	-0,058	0,042
-260,438	159,967	0,066	-0,065
-259,424	271,966	-0,066	-0,083
-258,409	234,051	0,059	-0,069
-257,395	-24,109	-0,083	0,035
-256,380	581,094	0,037	0,065
-255,365	-200,000	0,023	0,167
-254,351	-51,924	-0,073	0,024
-253,336	-20,801	-0,032	-0,014
-252,322	-83,621	-0,120	0,027
-251,307	800,000	-0,042	0,088
-250,292	-84,029	-0,108	0,024
-249,278	512,254	-0,017	0,029
-248,263	-107,099	-0,170	-0,026
-247,249	-25,006	0,020	0,008
-246,234	-200,000	0,007	0,052
-245,219	-200,000	-0,007	-0,112
-244,205	-62,970	-0,095	0,028
-243,190	452,568	-0,033	0,052
-242,176	469,941	0,018	-0,029
-241,161	-23,736	0,115	0,049
-240,146	800,000	0,076	-0,175
-239,132	-75,525	0,151	0,038
-238,117	522,047	-0,008	-0,013
-237,103	-18,745	-0,033	0,015
-236,088	123,876	0,068	-0,061
-235,073	-18,799	0,094	0,042
-234,059	-200,000	0,010	0,163
-233,044	800,000	0,030	0,095
-232,030	148,443	0,067	0,065
-231,015	166,090	-0,037	0,038
-230,000	-144,786	-0,144	-0,009
-228,986	-200,000	0,055	-0,173
-227,971	800,000	-0,048	-0,097
-226,957	133,964	0,089	0,082
-225,942	-157,680	0,069	0,003
-224,927	-200,000	0,030	0,104
-223,913	-139,584	-0,063	-0,005
-222,898	209,077	0,056	-0,063
-221,884	800,000	0,011	-0,032
-220,869	-200,000	-0,021	-0,120
-219,855	-143,651	0,147	0,010
-218,840	-124,068	-0,037	-0,004
-217,825	-132,972	0,055	0,005
-216,811	380,508	-0,053	0,077
-215,796	273,440	0,078	-0,099
-214,782	45,400	0,014	0,009
-213,767	-111,168	-0,054	-0,008
-212,752	134,811	-0,038	-0,035
-211,738	717,371	0,107	0,203
-210,723	791,462	-0,021	-0,041
-209,709	-200,000	0,019	-0,069
-208,694	-59,077	0,110	0,034
-207,679	-101,377	-0,021	0,004
-206,665	-200,000	0,010	-0,138
-205,650	-200,000	0,001	0,061
-204,636	174,996	0,096	-0,098
-203,621	-19,817	0,062	-0,027
-202,606	182,089	0,024	0,025
-201,592	-200,000	-0,001	-0,150
-200,577	-12,069	0,098	0,046
-199,563	43,286	-0,099	0,064
-198,548	-142,889	0,067	0,005
-197,533	800,000	-0,055	0,119
-196,519	115,566	0,094	-0,082
-195,504	-74,590	-0,094	0,024
-194,490	452,103	0,053	-0,084
-193,475	-123,768	-0,112	-0,012
-192,460	667,679	0,020	-0,037
-191,446	-200,000	-0,023	-0,092
-190,431	800,000	0,056	0,154
-189,417	-200,000	0,024	0,147
-188,402	-200,000	0,008	0,038
-187,387	-10,272	0,030	-0,014
-186,373	-142,394	-0,081	0,006
-185,358	800,000	-0,029	0,069
-184,344	110,296	0,047	0,040
-183,329	800,000	-0,015	-0,039
-182,315	556,925	0,034	-0,058
-181,300	416,788	0,009	-0,013
-180,285	-200,000	0,000	0,070
-179,271	800,000	0,040	-0,111
-178,256	491,921	0,054	-0,088
-177,242	4,248	-0,053	0,027
-176,227	128,729	-0,082	-0,074
-175,212	-74,693	0,057	-0,015
-174,198	488,121	0,018	-0,030
-173,183	-29,990	-0,058	-0,023
-172,169	-80,008	-0,094	0,022
-171,154	268,160	-0,054	-0,067
-170,139	136,106	0,106	0,098
-169,125	598,329	-0,044	0,077
-168,110	-32,739	-0,060	-0,024
-167,096	-96,865	-0,060	-0,011
-166,081	196,741	-0,100	0,108
-165,066	420,091	-0,079	-0,120
-164,052	56,643	0,045	-0,031
-163,037	488,125	-0,007	-0,011
-162,023	-29,481	0,072	0,029
-161,008	800,000	-0,085	-0,186
-159,993	-200,000	0,000	-0,074
-158,979	443,033	0,069	-0,108
-157,964	-39,607	0,116	-0,043
-156,950	681,168	-0,051	-0,095
-155,935	12,695	0,108	-0,059
-154,920	-151,483	0,175	0,009
-153,906	800,000	0,033	0,093
-152,891	-200,000	0,007	0,137
-151,877	151,420	-0,027	0,026
-150,862	-200,000	-0,010	0,057
-149,847	243,814	0,133	0,159
-148,833	800,000	-0,028	0,070
-147,818	209,767	0,024	-0,026
-146,804	-99,591	0,078	-0,014
-145,789	-57,728	-0,025	0,008
-144,775	-56,354	0,132	-0,041
-143,760	-200,000	0,002	-0,053
-142,745	433,733	-0,061	-0,094
-141,731	2,084	0,084	-0,043
-140,716	-200,000	-0,012	0,049
-139,702	-102,143	0,065	0,011
-138,687	138,865	-0,098	0,092
-137,672	-27,524	0,009	-0,004
-136,658	800,000	0,073	-0,148
-135,643	-56,512	0,085	-0,027
-134,629	342,362	-0,085	0,118
-133,614	64,525	0,047	-0,033
-132,599	489,762	-0,020	0,033
-131,585	141,084	-0,074	0,069
-130,570	800,000	-0,046	0,128
-129,556	-49,559	-0,133	-0,044
-128,541	-200,000	-0,001	-0,063
-127,526	800,000	0,040	-0,095
-126,512	-146,920	-0,066	-0,004
-125,497	-78,141	-0,086	-0,021
-124,483	120,399	0,150	-0,132
-123,468	-94,436	0,076	0,015
-122,453	-17,897	0,059	-0,026
-121,439	756,394	0,090	-0,173
-120,424	-60,723	-0,019	-0,006
-119,410	37,466	0,063	-0,040
-118,395	710,698	0,064	-0,121
-117,380	-104,659	-0,050	-0,008
-116,366	-113,491	-0,052	0,007
-115,351	429,210	-0,051	0,079
-114,337	200,437	0,064	-0,069
-113,322	221,177	0,071	0,081
-112,307	19,333	0,066	0,038
-111,293	800,000	-0,040	0,098
-110,278	194,138	-0,052	0,055
-109,264	725,009	0,013	0,024
-108,249	22,834	-0,127	-0,074
-107,234	-200,000	-0,006	-0,113
-106,220	-76,395	-0,114	-0,028
-105,205	800,000	0,003	0,007
-104,191	-121,352	0,013	0,001
-103,176	673,893	-0,010	-0,018
-102,162	-200,000	0,004	-0,041
-101,147	-54,919	-0,095	-0,030
-100,132	-200,000	-0,003	-0,104
-99,118	3,917	0,065	-0,034
-98,103	-45,732	-0,073	-0,025
-97,089	419,690	-0,023	0,035
-96,074	208,576	0,063	0,069
-95,059	-14,940	-0,073	-0,033
-94,045	800,000	-0,016	-0,033
-93,030	126,410	0,098	0,088
-92,016	-31,367	-0,074	-0,029
-91,001	-32,781	-0,105	-0,041
-89,986	-33,737	0,114	-0,044
-88,972	19,403	0,159	0,090
-87,957	800,000	0,036	-0,085
-86,943	450,555	-0,013	0,020
-85,928	36,123	0,078	-0,049
-84,913	-200,000	0,015	-0,204
-83,899	-40,310	0,070	0,025
-82,884	31,857	-0,088	0,054
-81,870	-78,831	0,167	0,040
-80,855	-79,271	-0,064	0,015
-79,840	218,868	-0,082	-0,093
-78,826	122,560	-0,031	0,027
-77,811	-200,000	0,019	-0,080
-76,797	-200,000	-0,001	0,047
-75,782	605,121	0,044	0,078
-74,767	-200,000	0,011	-0,074
-73,753	19,240	0,165	0,094
-72,738	-101,932	-0,235	-0,040
-71,724	427,708	0,068	-0,104
-70,709	170,133	0,014	0,014
-69,694	90,448	-0,062	0,049
-68,680	-19,826	0,057	0,025
-67,665	84,265	-0,048	0,037
-66,651	-200,000	0,049	0,155
-65,636	-200,000	0,022	0,080
-64,622	-200,000	-0,009	0,060
-63,607	800,000	-0,002	0,006
-62,592	59,470	0,009	-0,006
-61,578	64,252	0,074	-0,053
-60,563	28,651	-0,072	0,043
-59,549	409,107	-0,082	0,123
-58,534	35,759	-1,975	-1,223
-57,519	488,388	-1,219	-1,972
-56,505	-200,000	-0,366	-4,466
-55,490	768,187	0,853	1,645
-54,476	800,000	4,972	11,383
-53,461	-200,000	21,626	344,199
-52,446	800,000	763,701	2349,073
-51,432	549,112	1663,652	2824,445
-50,417	71,823	1659,894	1216,598
-49,403	17,403	1533,307	856,984
-48,388	11,385	1456,940	785,214
-47,373	19,451	1448,325	819,214
-46,359	14,922	1437,690	791,649
-45,344	9,688	1433,425	764,359
-44,330	9,622	1431,501	762,988
-43,315	9,581	1429,769	761,841
-42,300	9,611	1427,827	760,919
-41,286	9,592	1426,736	760,216
-40,271	9,583	1425,608	759,541
-39,257	9,613	1424,270	758,939
-38,242	9,680	1423,092	758,602
-37,227	9,637	1422,110	757,842
-36,213	9,655	1420,756	757,175
-35,198	9,672	1419,626	756,625
-34,184	9,660	1418,863	756,133
-33,169	9,627	1417,244	755,085
-32,154	9,598	1416,348	754,440
-31,140	9,698	1414,969	754,144
-30,125	9,679	1413,801	753,403
-29,111	9,669	1412,692	752,738
-28,096	9,619	1411,580	751,880
-27,082	9,596	1410,475	751,154
-26,067	9,593	1409,441	750,557
-25,052	9,592	1408,433	749,986
-24,038	9,595	1407,358	749,398
-23,023	9,614	1406,567	749,036
-22,009	9,599	1405,327	748,276
-20,994	9,594	1404,347	747,701
-19,979	9,576	1403,663	747,222
-18,965	9,559	1402,583	746,538
-17,950	9,547	1401,658	745,964
-16,936	9,551	1400,781	745,482
-15,921	9,486	1399,807	744,635
-14,906	9,484	1398,969	744,147
-13,892	9,542	1397,791	743,760
-12,877	9,547	1396,922	743,292
-11,863	9,503	1396,248	742,700
-10,848	9,495	1395,305	742,131
-9,833	9,482	1394,342	741,530
-8,819	9,391	1393,768	740,775
-7,804	9,369	1392,703	740,077
-6,790	9,420	1391,614	739,707
-5,775	9,423	1390,462	739,078
-4,760	9,396	1389,643	738,490
-3,746	9,409	1388,682	738,009
-2,731	9,425	1388,032	737,708
-1,717	9,415	1386,981	737,072
-0,702	9,437	1385,169	736,181
0,313	13,403	1297,733	707,853
1,327	29,193	688,324	411,172
2,342	45,601	118,906	77,323
3,356	-1,517	16,591	8,222
4,371	-5,769	3,606	1,735
5,386	25,109	1,013	0,592
6,400	-200,000	0,211	0,764
7,415	65,564	-0,197	-0,141
8,429	39,100	-0,252	-0,158
9,444	179,786	-0,326	-0,337
10,459	-17,760	-0,255	-0,112
11,473	-67,440	-0,321	-0,088
12,488	207,109	-0,198	-0,217
13,502	65,999	-0,321	-0,229
14,517	87,348	-0,235	-0,183
15,531	5,403	-0,456	-0,236
16,546	52,179	-0,332	-0,222
17,561	-200,000	-0,102	-0,460
18,575	32,353	-0,175	-0,106
19,590	191,041	-0,236	-0,251
20,604	-5,596	-0,316	-0,152
21,619	239,204	-0,377	-0,442
22,634	72,625	-0,541	-0,397
23,648	80,101	-0,431	-0,326
24,663	40,921	-0,400	-0,254
25,677	152,513	-0,252	-0,242
26,692	41,616	-0,306	-0,195
27,707	-16,966	-0,434	-0,192
28,721	142,633	-0,306	-0,286
29,736	36,752	-0,430	-0,267
30,750	-47,850	-0,478	-0,162
31,765	112,623	-0,414	-0,352
32,780	162,282	-0,364	-0,359
33,794	66,728	-0,342	-0,244
34,809	26,746	-0,389	-0,228
35,823	-70,890	-0,272	-0,072
36,838	-33,848	-0,353	-0,136
37,853	125,024	-0,283	-0,251
38,867	46,904	-0,458	-0,299
39,882	-67,219	-0,397	-0,109
40,896	21,622	-0,309	-0,176
41,911	181,704	-0,343	-0,355
42,926	82,204	-0,317	-0,242
43,940	87,899	-0,401	-0,312
44,955	-26,183	-0,432	-0,177
45,969	128,398	-0,298	-0,267
46,984	200,045	-0,302	-0,326
47,999	28,540	-0,352	-0,209
49,013	431,548	-0,168	-0,257
50,028	-3,529	-0,311	-0,152
51,042	29,093	-0,393	-0,233
52,057	137,312	-0,298	-0,273
53,071	-24,177	-0,468	-0,195
54,086	1,189	-0,334	-0,168
55,101	142,853	-0,303	-0,283
56,115	-43,165	-0,331	-0,117
57,130	93,969	-0,280	-0,223
58,144	9,409	-0,362	-0,192
59,159	22,678	-0,468	-0,268
60,174	79,432	-0,330	-0,248
61,188	-33,717	-0,392	-0,151
62,203	-11,507	-0,238	-0,110
63,217	162,697	-0,267	-0,263
64,232	204,893	-0,313	-0,341
65,247	-56,430	-0,314	-0,097
66,261	326,066	-0,308	-0,415
67,276	100,296	-0,263	-0,214
68,290	-70,070	-0,278	-0,074
69,305	43,306	-0,350	-0,223
70,320	-30,472	-0,351	-0,139
71,334	59,588	-0,273	-0,188
72,349	25,584	-0,336	-0,195
73,363	101,484	-0,238	-0,195
74,378	-10,329	-0,320	-0,148
75,393	162,954	-0,274	-0,269
76,407	84,359	-0,273	-0,209
77,422	293,159	-0,173	-0,222
78,436	-7,812	-0,259	-0,122
79,451	29,877	-0,465	-0,277
80,466	165,993	-0,359	-0,356
81,480	-16,183	-0,401	-0,178
82,495	71,552	-0,275	-0,200
83,509	-79,420	-0,320	-0,075
84,524	38,302	-0,335	-0,208
85,539	337,971	-0,226	-0,308
86,553	-151,521	-0,372	-0,019
87,568	60,895	-0,314	-0,217
88,582	158,267	-0,258	-0,251
89,597	59,364	-0,126	-0,087
90,611	126,744	-0,218	-0,194
91,626	-147,312	-0,324	-0,019
92,641	70,896	-0,201	-0,145
93,655	328,856	-0,180	-0,243
94,670	235,160	-0,171	-0,197
95,684	313,043	-0,175	-0,231
96,699	113,123	-0,213	-0,181
97,714	-104,294	-0,257	-0,041
98,728	225,470	-0,152	-0,172
99,743	406,186	-0,237	-0,351
100,757	-11,789	-0,372	-0,170
101,772	-77,193	-0,340	-0,082
102,787	44,681	-0,271	-0,174
103,801	-120,460	-0,393	-0,046
104,816	800,000	-0,106	-0,311
105,830	87,018	-0,293	-0,226
106,845	113,046	-0,286	-0,243
107,860	800,000	-0,066	-0,163
108,874	-38,435	-0,349	-0,128
109,889	88,408	-0,250	-0,194
110,903	103,243	-0,210	-0,172
111,918	124,106	-0,217	-0,190
112,933	15,769	-0,262	-0,144
113,947	-49,366	-0,226	-0,075
114,962	-8,946	-0,278	-0,130
115,976	344,553	-0,204	-0,280
116,991	93,573	-0,265	-0,209
118,006	105,752	-0,280	-0,231
119,020	296,534	-0,231	-0,296
120,035	451,438	-0,092	-0,142
121,049	452,433	-0,121	-0,187
122,064	-22,926	-0,345	-0,145
123,079	198,433	-0,212	-0,226
124,093	27,623	-0,236	-0,138
125,108	10,089	-0,197	-0,104
126,122	245,390	-0,189	-0,223
127,137	66,435	-0,219	-0,155
128,151	800,000	-0,094	-0,259
129,166	-125,383	-0,196	-0,021
130,181	245,678	-0,189	-0,223
131,195	33,557	-0,374	-0,226
132,210	226,748	-0,145	-0,165
133,224	96,195	-0,194	-0,155
134,239	-104,734	-0,262	-0,042
135,254	354,316	-0,163	-0,227
136,268	-127,302	-0,217	-0,022
137,283	186,882	-0,194	-0,202
138,297	238,469	-0,261	-0,302
139,312	31,147	-0,331	-0,197
140,327	194,918	-0,209	-0,222
141,341	109,748	-0,156	-0,130
142,356	13,618	-0,178	-0,096
143,370	297,255	-0,126	-0,161
144,385	112,200	-0,189	-0,159
145,400	800,000	-0,133	-0,341
146,414	491,470	-0,191	-0,306
147,429	305,218	-0,253	-0,327
148,443	50,966	-0,271	-0,178
149,458	155,991	-0,159	-0,153
150,473	227,422	-0,286	-0,324
151,487	4,421	-0,273	-0,139
152,502	250,975	-0,140	-0,166
153,516	76,808	-0,189	-0,139
154,531	-41,910	-0,355	-0,126
155,546	210,608	-0,180	-0,197
156,560	358,490	-0,207	-0,288
157,575	39,638	-0,149	-0,093
158,589	6,385	-0,264	-0,136
159,604	483,331	-0,151	-0,239
160,619	-16,189	-0,300	-0,132
161,633	290,448	-0,190	-0,241
162,648	-42,922	-0,322	-0,113
163,662	301,980	-0,206	-0,265
164,677	60,167	-0,075	-0,051
165,692	-20,628	-0,297	-0,126
166,706	15,814	-0,241	-0,132
167,721	197,454	-0,183	-0,195
168,735	99,961	-0,362	-0,292
169,750	87,265	-0,206	-0,159
170,764	384,251	-0,109	-0,156
171,779	176,391	-0,201	-0,204
172,794	-0,231	-0,169	-0,083
173,808	-50,849	-0,325	-0,106
174,823	37,595	-0,318	-0,196
175,837	311,971	-0,198	-0,259
176,852	82,055	-0,300	-0,226
177,867	205,933	-0,190	-0,206
178,881	59,261	-0,290	-0,198
179,896	-20,612	-0,172	-0,073
180,910	378,649	-0,140	-0,200
181,925	90,858	-0,262	-0,204
182,940	-22,099	-0,223	-0,094
183,954	-71,143	-0,360	-0,093
184,969	-200,000	-0,049	-0,169
185,983	110,819	-0,170	-0,142
186,998	-97,771	-0,183	-0,033
188,013	-85,293	-0,108	0,023
189,027	16,795	-0,331	-0,181
190,042	26,679	-0,277	-0,160
191,056	138,302	-0,256	-0,233
192,071	732,659	-0,161	-0,301
193,086	109,600	-0,237	-0,197
194,100	-39,535	-0,178	-0,064
195,115	36,614	-0,128	-0,078
196,129	-48,393	-0,263	-0,087
197,144	-112,391	-0,174	-0,024
198,159	87,433	-0,290	-0,222
199,173	136,136	-0,178	-0,161
200,188	16,576	-0,196	-0,107
201,202	-22,591	-0,227	-0,095
202,217	-106,052	-0,245	0,038
203,232	184,811	-0,156	-0,160
204,246	269,816	-0,172	-0,210
205,261	192,161	-0,235	-0,246
206,275	509,610	-0,155	-0,250
207,290	-144,293	-0,154	0,010
208,304	-87,445	-0,207	-0,043
209,319	-24,352	-0,257	-0,106
210,334	147,810	-0,198	-0,185
211,348	114,518	-0,191	-0,161
212,363	800,000	-0,094	-0,208
213,377	124,759	-0,124	-0,108
214,392	-200,000	0,038	-0,247
215,407	-27,123	-0,294	-0,118
216,421	-34,186	-0,157	-0,059
217,436	520,389	-0,083	-0,135
218,450	199,364	-0,183	-0,195
219,465	403,861	-0,167	-0,244
220,480	740,434	-0,143	-0,267
221,494	143,534	-0,130	-0,120
222,509	-21,387	-0,121	-0,051
223,523	-38,997	-0,175	0,063
224,538	252,363	-0,163	-0,192
225,553	277,972	-0,141	-0,174
226,567	214,754	-0,117	-0,128
227,582	6,873	-0,215	-0,111
228,596	-59,650	-0,114	-0,034
229,611	-152,436	-0,264	0,013
230,626	-9,268	-0,233	-0,107
231,640	-6,874	-0,196	-0,092
232,655	115,818	-0,190	-0,161
233,669	187,729	-0,141	-0,145
234,684	-200,000	-0,019	-0,196
235,699	87,796	-0,226	-0,173
236,713	-2,562	-0,158	-0,076
237,728	159,744	-0,113	-0,108
238,742	-83,894	-0,275	-0,060
239,757	1,427	-0,198	-0,098
240,772	-87,624	-0,290	-0,060
241,786	427,457	-0,163	-0,243
242,801	-79,722	-0,072	-0,017
243,815	-58,870	-0,184	-0,055
244,830	292,465	-0,210	-0,265
245,844	115,348	-0,154	-0,130
246,859	63,906	-0,152	-0,105
247,874	13,940	-0,230	-0,123
248,888	-200,000	-0,101	-0,319
249,903	466,125	-0,176	-0,273
250,917	-3,312	-0,297	-0,142
251,932	265,889	-0,093	0,113
252,947	148,328	-0,132	-0,123
253,961	15,238	-0,160	-0,086
254,976	126,181	-0,190	-0,166
255,990	-200,000	-0,048	-0,191
257,005	-200,000	-0,022	-0,170
258,020	84,382	-0,157	-0,118
259,034	85,541	-0,166	-0,126
260,049	156,253	-0,221	-0,211
261,063	558,148	-0,123	-0,205
262,078	477,475	-0,232	-0,364
263,093	167,032	-0,226	-0,221
264,107	800,000	-0,115	-0,256
265,122	-43,985	-0,062	-0,021
266,136	-200,000	-0,029	-0,136
267,151	800,000	-0,059	-0,146
268,166	800,000	-0,053	-0,145
269,180	399,931	-0,129	-0,186
270,195	415,753	-0,230	-0,339
271,209	200,870	-0,148	-0,157
272,224	58,070	-0,251	-0,169
273,239	232,376	-0,127	-0,144
274,253	279,946	-0,208	-0,256
275,268	475,687	-0,144	-0,225
276,282	109,334	-0,206	-0,170
277,297	184,897	-0,120	-0,123
278,312	315,768	-0,191	-0,249
279,326	352,790	-0,116	-0,159
280,341	241,292	-0,104	-0,120
281,355	214,041	-0,131	-0,143
282,370	221,529	-0,119	-0,132
283,384	34,516	-0,255	-0,153
284,399	180,297	-0,098	-0,099
285,414	127,498	-0,137	-0,119
286,428	0,465	-0,132	-0,065
287,443	-103,987	-0,114	-0,018
288,457	278,198	-0,092	-0,113
289,472	-138,754	-0,212	-0,016
290,487	24,172	-0,178	-0,101
291,501	-65,834	-0,171	-0,047
292,516	106,269	-0,214	-0,174
293,530	-200,000	-0,066	-0,229
294,545	-125,829	-0,117	-0,012
295,560	-50,629	-0,148	-0,048
296,574	-75,309	-0,124	0,030
297,589	-122,480	-0,091	0,010
298,603	160,832	-0,168	-0,162
299,618	101,180	-0,143	-0,115
300,633	800,000	-0,115	-0,221
301,647	-19,003	-0,084	-0,036
302,662	-20,123	-0,088	-0,037
303,676	-37,748	-0,151	-0,055
304,691	48,635	-0,184	-0,118
305,706	23,150	-0,151	-0,085
306,720	84,432	-0,234	-0,176
307,735	-128,841	-0,206	0,020
308,749	-31,267	-0,157	-0,061
309,764	-7,975	-0,080	-0,037
310,779	86,004	-0,136	-0,103
311,793	207,445	-0,177	-0,189
312,808	112,506	-0,130	-0,108
313,822	-75,069	-0,248	-0,061
314,837	136,078	-0,065	-0,058
315,852	-30,524	-0,127	0,049
316,866	163,560	-0,151	-0,146
317,881	800,000	-0,031	-0,066
318,895	-200,000	-0,081	-0,275
319,910	104,315	-0,177	-0,142
320,925	109,739	-0,109	-0,090
321,939	84,230	-0,108	-0,081
322,954	-200,000	-0,043	-0,140
323,968	79,731	-0,083	-0,061
324,983	157,587	-0,140	-0,133
325,997	266,304	-0,128	-0,154
327,012	-78,106	-0,171	-0,040
328,027	311,493	-0,188	-0,242
329,041	0,410	-0,191	-0,093
330,056	-151,441	-0,227	-0,011
331,070	541,966	-0,021	-0,035
332,085	-68,078	-0,150	0,040
333,100	-82,273	-0,106	0,023
334,114	742,378	-0,079	-0,146
335,129	-200,000	-0,030	-0,215
336,143	800,000	-0,081	-0,208
337,158	33,591	-0,309	-0,184
338,173	120,123	-0,176	-0,150
339,187	-41,157	-0,123	0,043
340,202	-55,893	-0,136	0,041
341,216	312,653	-0,069	-0,089
342,231	-82,048	-0,133	-0,029
343,246	229,979	-0,160	-0,179
344,260	4,432	-0,180	-0,090
345,275	94,201	-0,093	-0,072
346,289	366,472	-0,088	-0,122
347,304	-137,963	-0,151	0,011
348,319	593,530	-0,136	-0,231
349,333	40,672	-0,173	-0,106
350,348	296,947	-0,098	-0,123
351,362	-175,768	-0,148	-0,003
352,377	-98,612	-0,131	-0,023
353,392	276,212	-0,111	-0,135
354,406	152,483	-0,075	-0,070
355,421	205,718	1311,095	1395,293
356,435	158,179	1471,346	1395,755
